DTS Sentinel unit serial number:	SN410029Multiplexer serial number:	ORYXHardware model number:	OX2-SRSoftware version number:	ORYX F/W v4,00 Oryx Data Collector v3.7.2.0data status	okinstallation	BH3 CH2differential loss correction	single-endedforward channel	channel 2reverse channel	N/Adate	2023/12/06time	04:22:28forward acquisition time	300,00reverse acquisition time	0,00gamma	499,1914k internal	0,3197k external	0,3197temperature offset calibration	1,0000default loss term (dB/km)	0,3820temperature slope calibration	1,0000multiplexer offset coefficient	1,0000multiplexer slope coefficient	1,0000fibre end	0,00T internal ref (°C)	8,93T ext. ref 1 (°C)	-5,67T ext. ref 2 (°C)	-5,77length (m)	temperature (°C)	Stokes	anti-Stokes-744,400	433,477	-0,121	-0,192
-743,385	86,192	-0,134	-0,107
-742,371	-200,000	-0,005	-0,066
-741,356	-57,552	-0,176	0,056
-740,342	348,058	0,052	-0,074
-739,327	-49,541	-0,310	0,107
-738,312	-200,000	0,024	-0,086
-737,298	-147,399	-0,369	0,022
-736,283	179,260	-0,068	-0,072
-735,269	22,691	-0,241	0,143
-734,254	391,707	0,026	-0,039
-733,239	-72,647	-0,399	-0,106
-732,225	4,801	0,033	-0,017
-731,210	-200,000	0,013	0,202
-730,196	68,966	-0,068	-0,051
-729,181	-160,180	-0,156	-0,006
-728,167	800,000	-0,046	0,094
-727,152	56,208	-0,106	-0,075
-726,137	-16,620	-0,106	-0,049
-725,123	800,000	-0,046	-0,138
-724,108	-200,000	-0,000	-0,016
-723,094	-120,512	-0,094	-0,011
-722,079	800,000	-0,021	0,044
-721,064	-200,000	-0,099	0,000
-720,050	131,598	0,053	0,050
-719,035	-7,876	-0,116	-0,057
-718,021	-200,000	-0,005	-0,035
-717,006	-177,993	-0,050	-0,001
-715,991	412,203	-0,047	-0,073
-714,977	-200,000	0,037	0,150
-713,962	-200,000	-0,008	-0,059
-712,948	197,676	0,097	-0,108
-711,933	39,818	0,056	0,037
-710,918	120,834	-0,069	-0,062
-709,904	147,223	0,044	0,044
-708,889	-200,000	0,008	-0,166
-707,875	-200,000	0,023	-0,123
-706,860	800,000	-0,083	0,178
-705,845	108,411	0,022	-0,019
-704,831	-200,000	0,010	-0,100
-703,816	-128,804	0,035	-0,004
-702,802	-93,399	-0,063	-0,013
-701,787	241,520	-0,050	-0,060
-700,772	43,798	0,095	0,063
-699,758	-158,879	-0,068	0,003
-698,743	10,543	0,081	0,045
-697,729	-200,000	-0,030	0,099
-696,714	-200,000	-0,002	-0,011
-695,699	255,499	-0,072	-0,090
-694,685	-167,783	-0,103	-0,003
-693,670	-134,665	0,202	-0,018
-692,656	800,000	-0,048	-0,129
-691,641	-200,000	-0,026	-0,119
-690,627	-200,000	-0,010	0,095
-689,612	-122,441	0,069	0,008
-688,597	-26,163	-0,097	-0,041
-687,583	228,764	-0,113	-0,134
-686,568	-70,535	-0,043	-0,012
-685,554	14,487	-0,021	0,012
-684,539	189,482	-0,062	0,067
-683,524	-37,845	0,098	0,038
-682,510	147,164	-0,096	0,094
-681,495	800,000	-0,043	0,103
-680,481	-200,000	0,030	-0,178
-679,466	-200,000	0,004	-0,236
-678,451	33,841	-0,036	-0,023
-677,437	179,293	0,080	-0,085
-676,422	-22,220	0,101	-0,044
-675,408	566,898	0,023	-0,041
-674,393	-200,000	-0,016	0,057
-673,378	275,770	-0,057	-0,073
-672,364	151,265	0,030	0,029
-671,349	-111,867	-0,019	-0,003
-670,335	-29,226	-0,112	-0,046
-669,320	86,653	0,106	-0,085
-668,305	674,073	0,031	0,060
-667,291	720,675	-0,046	0,089
-666,276	11,145	-0,057	-0,032
-665,262	-200,000	-0,029	-0,130
-664,247	-73,179	-0,060	0,016
-663,232	96,723	0,069	0,057
-662,218	-165,414	-0,060	0,002
-661,203	537,552	0,046	-0,080
-660,189	-200,000	-0,013	-0,099
-659,174	800,000	-0,046	-0,130
-658,159	-200,000	-0,026	-0,116
-657,145	-28,756	-0,111	-0,046
-656,130	-200,000	0,003	-0,050
-655,116	-7,095	0,041	0,020
-654,101	178,075	0,074	0,078
-653,086	-200,000	0,022	0,077
-652,072	87,068	0,048	-0,038
-651,057	688,924	-0,061	-0,116
-650,043	8,664	-0,032	-0,018
-649,028	11,201	0,079	-0,044
-648,014	-200,000	0,019	0,070
-646,999	120,824	-0,044	0,039
-645,984	26,194	-0,048	-0,029
-644,970	800,000	-0,044	-0,114
-643,955	-200,000	-0,018	-0,128
-642,941	591,249	-0,081	-0,145
-641,926	-200,000	0,005	0,072
-640,911	-54,820	-0,011	-0,004
-639,897	-200,000	0,004	-0,065
-638,882	800,000	-0,048	-0,117
-637,868	-200,000	-0,004	-0,030
-636,853	-200,000	-0,008	-0,134
-635,838	93,154	-0,133	-0,109
-634,824	-200,000	-0,023	0,117
-633,809	114,666	0,086	-0,076
-632,795	183,317	0,135	0,145
-631,780	-200,000	0,011	0,122
-630,765	800,000	0,055	-0,136
-629,751	800,000	-0,049	-0,113
-628,736	-75,275	-0,131	-0,034
-627,722	-137,550	-0,126	0,010
-626,707	800,000	0,047	-0,127
-625,692	-200,000	-0,035	-0,149
-624,678	800,000	-0,012	0,029
-623,663	-200,000	0,035	-0,207
-622,649	86,900	-0,101	0,081
-621,634	-125,730	0,090	0,010
-620,619	60,684	-0,164	-0,118
-619,605	355,943	-0,082	-0,119
-618,590	161,315	-0,057	0,058
-617,576	-21,152	-0,183	-0,081
-616,561	-200,000	0,024	-0,109
-615,546	-200,000	0,008	-0,073
-614,532	27,543	-0,081	-0,050
-613,517	73,769	0,090	0,069
-612,503	-200,000	0,003	-0,088
-611,488	-200,000	-0,029	0,116
-610,474	97,899	-0,095	-0,079
-609,459	354,810	0,061	0,087
-608,444	523,158	-0,036	-0,061
-607,430	800,000	-0,091	-0,290
-606,415	135,864	-0,085	-0,080
-605,401	-200,000	-0,007	0,063
-604,386	198,342	-0,064	-0,071
-603,371	42,052	-0,090	-0,059
-602,357	-61,233	-0,035	0,011
-601,342	-74,422	-0,154	0,040
-600,328	42,402	0,102	0,067
-599,313	47,876	-0,107	0,072
-598,298	-200,000	-0,023	-0,136
-597,284	800,000	-0,076	0,157
-596,269	800,000	0,043	0,086
-595,255	-200,000	0,001	0,007
-594,240	512,365	-0,049	-0,082
-593,225	-50,163	0,112	-0,038
-592,211	141,939	-0,055	-0,053
-591,196	-200,000	-0,033	0,171
-590,182	-200,000	-0,003	0,011
-589,167	120,441	-0,030	-0,027
-588,152	138,559	0,119	0,113
-587,138	-103,695	0,076	-0,013
-586,123	-200,000	0,016	-0,061
-585,109	452,788	-0,041	0,066
-584,094	11,582	0,039	0,022
-583,079	763,722	0,047	0,093
-582,065	-200,000	-0,017	0,107
-581,050	-176,554	-0,043	0,001
-580,036	-200,000	-0,030	0,121
-579,021	-200,000	0,031	-0,138
-578,006	643,308	-0,039	-0,073
-576,992	28,583	-0,098	-0,060
-575,977	237,969	0,060	-0,072
-574,963	89,732	0,092	-0,074
-573,948	20,004	-0,109	0,063
-572,934	-200,000	-0,021	-0,145
-571,919	681,692	-0,017	0,032
-570,904	172,203	-0,040	-0,041
-569,890	251,294	0,039	-0,048
-568,875	182,382	0,079	-0,085
-567,861	337,903	0,064	0,090
-566,846	-200,000	-0,010	-0,103
-565,831	-61,993	0,117	0,035
-564,817	-45,890	-0,173	0,061
-563,802	129,665	0,045	-0,042
-562,788	-200,000	-0,003	-0,041
-561,773	-200,000	0,016	0,077
-560,758	44,015	-0,064	-0,042
-559,744	-200,000	0,014	0,063
-558,729	800,000	-0,024	-0,064
-557,715	-200,000	0,006	0,024
-556,700	544,170	-0,036	-0,063
-555,685	-92,128	0,098	0,020
-554,671	156,982	0,050	0,050
-553,656	-139,479	-0,059	-0,004
-552,642	229,107	0,175	0,206
-551,627	-12,323	-0,133	-0,062
-550,612	420,932	0,090	-0,140
-549,598	666,878	-0,028	-0,053
-548,583	-200,000	-0,005	0,024
-547,569	-46,325	-0,059	0,021
-546,554	-19,445	0,109	-0,048
-545,539	108,274	-0,094	-0,081
-544,525	161,166	-0,075	0,076
-543,510	-200,000	0,034	0,129
-542,496	-200,000	0,006	0,023
-541,481	-36,395	-0,096	-0,037
-540,466	41,722	-0,098	-0,064
-539,452	265,931	-0,052	0,065
-538,437	525,188	0,042	0,071
-537,423	-26,407	-0,063	0,027
-536,408	-156,890	0,121	-0,005
-535,393	337,776	0,032	-0,045
-534,379	-80,142	-0,049	0,012
-533,364	-27,463	0,016	-0,007
-532,350	96,955	-0,080	0,066
-531,335	-200,000	0,023	0,113
-530,321	257,515	-0,074	0,092
-529,306	-200,000	-0,022	0,073
-528,291	366,427	-0,098	-0,144
-527,277	558,271	-0,068	-0,118
-526,262	-80,292	0,047	0,011
-525,248	36,992	0,115	-0,073
-524,233	800,000	0,026	-0,052
-523,218	-200,000	-0,001	0,063
-522,204	800,000	0,006	0,018
-521,189	-79,372	-0,015	0,004
-520,175	52,457	-0,091	-0,063
-519,160	355,025	0,080	-0,116
-518,145	-157,966	0,149	-0,006
-517,131	32,066	0,147	0,091
-516,116	718,786	-0,069	0,134
-515,102	111,245	-0,108	0,094
-514,087	-103,087	0,141	0,024
-513,072	-25,275	-0,029	-0,012
-512,058	-51,258	-0,181	0,061
-511,043	-146,573	0,038	-0,002
-510,029	-200,000	0,048	0,193
-509,014	-200,000	-0,012	0,044
-507,999	800,000	-0,027	0,069
-506,985	66,186	-0,050	-0,036
-505,970	318,536	0,082	-0,112
-504,956	-95,394	-0,059	0,011
-503,941	-200,000	0,005	0,175
-502,926	177,099	-0,094	0,099
-501,912	800,000	0,037	0,078
-500,897	-14,542	-0,102	-0,047
-499,883	92,800	0,054	0,044
-498,868	206,091	0,028	-0,032
-497,853	103,682	-0,085	-0,072
-496,839	5,119	-0,036	0,019
-495,824	-186,176	0,192	0,002
-494,810	-200,000	-0,015	0,081
-493,795	535,229	0,037	0,063
-492,781	384,107	0,062	-0,093
-491,766	-200,000	0,036	-0,145
-490,751	79,406	0,093	0,072
-489,737	206,089	-0,111	0,124
-488,722	-200,000	-0,009	-0,040
-487,708	-200,000	-0,020	0,162
-486,693	-200,000	-0,013	0,047
-485,678	-57,143	0,057	-0,018
-484,664	-168,737	0,107	0,003
-483,649	492,044	-0,068	-0,113
-482,635	-77,440	-0,094	-0,023
-481,620	-200,000	0,010	0,133
-480,605	-172,587	0,192	-0,004
-479,591	-176,034	0,167	-0,003
-478,576	-56,843	0,066	0,021
-477,562	-200,000	-0,017	0,135
-476,547	316,776	0,027	-0,037
-475,532	-200,000	-0,003	-0,077
-474,518	231,827	0,063	0,074
-473,503	-5,096	-0,021	0,010
-472,489	143,144	-0,057	0,054
-471,474	-200,000	0,012	0,112
-470,459	-130,724	-0,021	-0,002
-469,445	800,000	-0,024	-0,056
-468,430	-36,415	0,066	-0,025
-467,416	665,920	-0,067	0,125
-466,401	-60,493	0,067	-0,020
-465,386	72,162	-0,122	0,092
-464,372	264,053	-0,086	-0,108
-463,357	241,910	0,014	-0,017
-462,343	-200,000	0,025	0,124
-461,328	-200,000	-0,038	0,136
-460,313	-94,782	-0,117	0,023
-459,299	800,000	0,022	-0,060
-458,284	52,142	-0,065	-0,045
-457,270	120,636	0,073	-0,066
-456,255	558,228	0,035	-0,061
-455,241	-114,744	-0,021	0,003
-454,226	187,605	-0,115	-0,123
-453,211	-200,000	0,032	-0,115
-452,197	-20,872	0,094	-0,041
-451,182	180,156	0,122	0,129
-450,168	476,723	0,027	0,044
-449,153	-35,156	-0,214	-0,084
-448,138	800,000	0,028	-0,058
-447,124	19,268	0,103	-0,059
-446,109	-147,547	0,070	0,004
-445,095	-200,000	0,015	0,117
-444,080	718,801	0,038	-0,072
-443,065	800,000	0,021	-0,049
-442,051	222,252	-0,058	-0,068
-441,036	-200,000	0,016	0,052
-440,022	475,724	-0,136	-0,221
-439,007	800,000	0,033	-0,082
-437,992	24,547	-0,078	0,046
-436,978	374,290	-0,058	-0,085
-435,963	-40,396	0,016	-0,006
-434,949	140,328	-0,038	0,036
-433,934	-200,000	-0,009	-0,053
-432,919	567,600	-0,006	-0,011
-431,905	209,616	-0,057	-0,065
-430,890	-200,000	0,026	-0,112
-429,876	777,610	0,114	0,225
-428,861	77,342	-0,050	0,038
-427,846	-200,000	-0,008	-0,034
-426,832	-200,000	0,007	0,053
-425,817	204,629	0,066	0,074
-424,803	-3,140	-0,071	-0,036
-423,788	-200,000	-0,031	-0,222
-422,773	164,256	0,099	0,100
-421,759	149,535	-0,062	0,060
-420,744	164,648	0,007	0,007
-419,730	50,841	0,109	0,074
-418,715	-113,036	0,123	-0,017
-417,701	-200,000	-0,017	-0,116
-416,686	800,000	-0,030	0,091
-415,671	-67,227	-0,232	0,065
-414,657	-200,000	0,013	0,121
-413,642	284,398	-0,049	0,064
-412,628	800,000	-0,042	-0,104
-411,613	-47,201	0,063	0,022
-410,598	203,016	0,033	0,036
-409,584	424,928	-0,015	-0,023
-408,569	186,006	-0,085	-0,091
-407,555	-2,764	-0,139	-0,070
-406,540	-200,000	-0,032	0,105
-405,525	150,022	0,024	-0,023
-404,511	-47,643	-0,170	-0,059
-403,496	800,000	-0,014	0,041
-402,482	618,774	-0,040	0,072
-401,467	702,734	0,045	0,085
-400,452	-95,043	0,063	-0,012
-399,438	403,923	-0,052	0,079
-398,423	-5,934	-0,133	-0,065
-397,409	3,584	0,145	0,076
-396,394	-200,000	-0,003	-0,019
-395,379	308,601	0,031	-0,041
-394,365	-76,958	-0,024	0,006
-393,350	219,994	-0,100	0,116
-392,336	800,000	-0,028	0,083
-391,321	-44,566	-0,078	0,028
-390,306	-137,254	-0,067	0,005
-389,292	-59,742	-0,033	-0,010
-388,277	-200,000	-0,001	-0,033
-387,263	-21,943	-0,104	-0,045
-386,248	-161,722	0,244	0,009
-385,233	-25,115	-0,083	-0,035
-384,219	-200,000	0,014	-0,044
-383,204	800,000	0,028	0,081
-382,190	-200,000	0,033	-0,132
-381,175	54,970	-0,051	-0,036
-380,160	465,797	0,027	0,043
-379,146	-187,892	0,077	0,001
-378,131	-200,000	0,006	0,106
-377,117	-53,662	-0,087	0,028
-376,102	525,336	0,116	-0,198
-375,088	-36,606	-0,016	0,006
-374,073	443,053	0,070	-0,111
-373,058	800,000	0,036	-0,088
-372,044	-35,701	0,078	0,030
-371,029	475,556	-0,063	0,102
-370,015	800,000	-0,006	-0,018
-369,000	-200,000	-0,013	-0,074
-367,985	-200,000	0,040	-0,184
-366,971	-37,328	-0,016	0,006
-365,956	-101,280	0,037	0,006
-364,942	-200,000	-0,006	0,019
-363,927	-200,000	0,019	0,151
-362,912	-200,000	-0,003	0,019
-361,898	800,000	0,038	0,111
-360,883	-200,000	0,005	-0,128
-359,869	57,195	-0,089	-0,062
-358,854	173,847	0,166	0,172
-357,839	800,000	0,042	0,094
-356,825	-12,117	0,148	0,069
-355,810	-200,000	0,000	0,039
-354,796	269,460	-0,029	0,037
-353,781	499,284	0,043	-0,072
-352,766	-52,202	0,045	-0,015
-351,752	4,378	-0,080	0,042
-350,737	-10,932	-0,023	-0,011
-349,723	800,000	-0,051	0,106
-348,708	-80,133	-0,117	0,028
-347,693	125,508	-0,009	-0,008
-346,679	50,133	-0,042	-0,028
-345,664	-200,000	-0,008	0,068
-344,650	721,216	0,046	0,088
-343,635	111,873	0,137	0,118
-342,620	228,351	-0,043	-0,050
-341,606	627,826	0,075	0,137
-340,591	-200,000	-0,019	-0,125
-339,577	-200,000	-0,041	-0,223
-338,562	-27,952	-0,071	0,029
-337,548	-200,000	0,010	-0,051
-336,533	772,403	0,042	-0,083
-335,518	-73,027	0,098	0,026
-334,504	600,933	-0,054	0,097
-333,489	-12,325	-0,054	0,025
-332,475	-59,269	0,084	0,026
-331,460	800,000	0,044	-0,125
-330,445	203,860	0,009	-0,010
-329,431	-200,000	0,001	-0,028
-328,416	-51,156	0,096	0,032
-327,402	-174,871	0,133	0,003
-326,387	374,940	-0,083	0,121
-325,372	-128,833	-0,153	-0,015
-324,358	800,000	0,042	-0,120
-323,343	-200,000	-0,018	0,058
-322,329	289,352	0,023	-0,031
-321,314	129,137	0,078	0,072
-320,299	-156,438	-0,072	0,003
-319,285	800,000	0,032	-0,066
-318,270	106,810	0,018	-0,015
-317,256	-68,656	0,107	-0,029
-316,241	-103,407	0,227	-0,038
-315,226	800,000	-0,034	0,105
-314,212	306,312	-0,048	0,065
-313,197	-200,000	0,021	0,071
-312,183	95,336	0,012	-0,010
-311,168	-147,510	-0,128	0,008
-310,153	-159,617	-0,035	0,001
-309,139	800,000	-0,036	-0,107
-308,124	37,073	0,032	-0,020
-307,110	62,745	0,183	0,131
-306,095	-21,650	0,120	0,052
-305,080	118,345	0,031	-0,027
-304,066	110,190	-0,057	0,049
-303,051	-200,000	0,020	-0,125
-302,037	-180,804	-0,049	0,001
-301,022	-109,516	0,077	0,011
-300,008	-70,496	0,107	0,029
-298,993	-200,000	0,037	0,156
-297,978	-89,592	0,087	0,018
-296,964	6,805	-0,102	-0,054
-295,949	232,748	-0,017	-0,020
-294,935	-200,000	-0,033	-0,189
-293,920	19,585	0,083	0,048
-292,905	89,228	-0,058	-0,047
-291,891	-200,000	0,022	0,094
-290,876	44,155	0,035	-0,023
-289,862	313,102	-0,090	0,121
-288,847	-20,475	0,065	0,029
-287,832	800,000	0,047	-0,103
-286,818	23,716	-0,174	-0,102
-285,803	-110,561	0,162	-0,024
-284,789	255,852	0,123	0,151
-283,774	-200,000	0,017	0,095
-282,759	-200,000	0,003	0,168
-281,745	800,000	-0,037	-0,110
-280,730	568,548	-0,017	0,030
-279,716	89,130	-0,055	-0,044
-278,701	-182,928	-0,033	-0,000
-277,686	800,000	-0,021	0,046
-276,672	-200,000	0,020	-0,071
-275,657	800,000	-0,040	-0,114
-274,643	-82,849	-0,045	-0,010
-273,628	-138,004	0,057	-0,004
-272,613	-3,517	-0,090	0,045
-271,599	274,832	-0,019	0,025
-270,584	-9,970	0,231	0,109
-269,570	283,280	-0,088	0,113
-268,555	149,022	0,137	-0,133
-267,540	12,664	0,061	0,034
-266,526	-200,000	-0,002	0,043
-265,511	-200,000	0,007	-0,050
-264,497	207,521	0,102	-0,114
-263,482	-200,000	0,027	0,162
-262,467	800,000	0,027	0,083
-261,453	800,000	-0,081	0,220
-260,438	-200,000	-0,054	0,171
-259,424	45,177	0,120	-0,079
-258,409	-72,556	-0,096	-0,025
-257,395	-200,000	0,035	-0,143
-256,380	-150,924	0,165	0,009
-255,365	-12,932	0,110	0,051
-254,351	23,013	-0,067	0,039
-253,336	-32,598	-0,245	-0,097
-252,322	-200,000	-0,006	-0,094
-251,307	-73,689	0,036	0,009
-250,292	241,920	0,047	-0,056
-249,278	591,062	0,012	0,021
-248,263	-200,000	0,011	-0,144
-247,249	49,321	-0,059	0,039
-246,234	-200,000	0,005	-0,024
-245,219	800,000	0,008	0,026
-244,205	57,393	0,114	0,080
-243,190	260,216	0,008	0,010
-242,176	89,667	-0,119	0,095
-241,161	800,000	0,063	0,136
-240,146	582,908	0,043	0,075
-239,132	653,534	0,053	0,097
-238,117	290,385	-0,052	-0,068
-237,103	17,086	0,034	-0,019
-236,088	588,178	-0,051	-0,089
-235,073	800,000	0,071	0,158
-234,059	699,920	0,102	0,193
-233,044	-61,686	-0,125	-0,037
-232,030	-57,891	0,032	0,010
-231,015	-142,940	0,086	0,006
-230,000	-101,436	-0,131	-0,023
-228,986	800,000	0,026	-0,068
-227,971	324,757	0,111	0,152
-226,957	141,425	0,076	0,072
-225,942	3,750	0,026	-0,013
-224,927	104,417	0,038	0,032
-223,913	-122,198	-0,060	-0,007
-222,898	-200,000	0,002	0,051
-221,884	-200,000	-0,035	-0,127
-220,869	60,634	0,044	0,031
-219,855	196,943	-0,037	0,040
-218,840	84,832	0,067	0,052
-217,825	-77,426	-0,081	-0,020
-216,811	581,176	-0,048	-0,083
-215,796	-200,000	0,035	-0,168
-214,782	211,357	0,111	-0,125
-213,767	742,095	0,048	-0,092
-212,752	800,000	0,021	-0,053
-211,738	800,000	-0,020	0,063
-210,723	-200,000	0,029	-0,152
-209,709	800,000	0,035	0,089
-208,694	-98,222	-0,027	-0,005
-207,679	800,000	-0,025	0,071
-206,665	-88,803	-0,071	-0,015
-205,650	-88,866	0,111	0,023
-204,636	-168,709	-0,014	-0,000
-203,621	-79,924	-0,131	0,031
-202,606	125,324	-0,109	-0,098
-201,592	137,620	-0,063	0,059
-200,577	135,713	0,093	-0,086
-199,563	65,235	0,050	-0,036
-198,548	-200,000	-0,006	-0,056
-197,533	-120,202	0,155	0,019
-196,519	800,000	0,005	0,011
-195,504	800,000	0,056	-0,114
-194,490	337,317	-0,028	-0,039
-193,475	-200,000	0,030	-0,144
-192,460	800,000	-0,015	0,031
-191,446	800,000	0,050	0,105
-190,431	48,058	0,053	-0,035
-189,417	800,000	0,017	0,052
-188,402	274,802	0,041	0,052
-187,387	9,151	-0,044	-0,024
-186,373	390,409	-0,025	0,037
-185,358	-115,779	0,084	0,011
-184,344	-200,000	-0,023	-0,119
-183,329	800,000	0,040	0,113
-182,315	1,230	0,065	0,033
-181,300	0,281	-0,119	-0,060
-180,285	87,193	-0,123	-0,097
-179,271	218,816	-0,046	0,052
-178,256	52,926	0,073	-0,050
-177,242	503,804	0,088	-0,145
-176,227	800,000	-0,012	0,031
-175,212	316,766	-0,059	0,080
-174,198	-58,032	-0,059	-0,018
-173,183	740,736	-0,030	-0,057
-172,169	800,000	0,029	-0,073
-171,154	800,000	0,025	-0,065
-170,139	-200,000	0,009	0,129
-169,125	60,054	-0,094	-0,066
-168,110	-131,291	0,097	0,009
-167,096	800,000	-0,019	-0,047
-166,081	-21,566	-0,064	-0,027
-165,066	-109,704	-0,143	-0,021
-164,052	800,000	-0,050	0,110
-163,037	612,042	-0,056	0,100
-162,023	44,750	0,107	0,070
-161,008	-158,224	-0,151	0,006
-159,993	-152,784	0,147	0,007
-158,979	238,918	-0,087	-0,103
-157,964	62,517	-0,027	-0,019
-156,950	16,396	0,044	-0,025
-155,935	304,061	0,031	0,040
-154,920	3,309	0,073	-0,038
-153,906	401,504	0,122	0,183
-152,891	20,922	-0,077	0,044
-151,877	286,234	-0,047	-0,060
-150,862	-200,000	0,021	-0,108
-149,847	257,674	0,008	-0,010
-148,833	-88,088	-0,047	0,010
-147,818	-200,000	0,005	0,075
-146,804	581,775	0,064	0,111
-145,789	-200,000	-0,015	-0,180
-144,775	119,397	-0,037	-0,033
-143,760	800,000	-0,022	-0,068
-142,745	-15,351	-0,098	-0,044
-141,731	482,849	0,057	0,092
-140,716	681,650	0,007	0,014
-139,702	800,000	0,066	0,141
-138,687	78,108	0,050	0,038
-137,672	-57,022	-0,033	0,010
-136,658	288,721	0,055	-0,072
-135,643	-200,000	-0,004	0,013
-134,629	163,429	-0,087	0,088
-133,614	173,945	-0,087	0,090
-132,599	84,219	0,105	0,081
-131,585	800,000	-0,001	-0,003
-130,570	-34,969	-0,105	0,041
-129,556	126,220	-0,086	-0,078
-128,541	46,082	0,091	-0,060
-127,526	800,000	0,015	-0,047
-126,512	180,676	0,041	0,043
-125,497	-200,000	-0,033	-0,119
-124,483	-182,417	0,154	0,002
-123,468	1,976	-0,162	0,083
-122,453	-66,151	-0,060	0,017
-121,439	800,000	-0,023	-0,056
-120,424	-159,938	0,077	0,003
-119,410	-31,519	-0,055	-0,022
-118,395	183,993	0,026	-0,027
-117,380	800,000	-0,020	-0,046
-116,366	508,704	-0,037	-0,062
-115,351	141,071	-0,033	0,031
-114,337	-73,586	-0,163	0,042
-113,322	-71,112	-0,052	0,014
-112,307	55,555	0,053	-0,036
-111,293	654,344	0,050	0,091
-110,278	-200,000	-0,005	-0,029
-109,264	135,645	0,070	-0,064
-108,249	-200,000	-0,009	0,058
-107,234	502,806	0,038	-0,062
-106,220	-200,000	-0,020	-0,130
-105,205	-75,359	-0,057	0,014
-104,191	-108,565	-0,037	0,006
-103,176	-200,000	0,002	0,044
-102,162	668,874	0,058	0,106
-101,147	-200,000	-0,009	-0,066
-100,132	-68,760	-0,147	-0,040
-99,118	-200,000	0,011	0,078
-98,103	-107,808	-0,052	0,008
-97,089	-9,113	0,038	-0,018
-96,074	148,775	-0,042	0,040
-95,059	-52,729	0,095	0,031
-94,045	-82,866	-0,075	0,017
-93,030	800,000	-0,045	-0,109
-92,016	-93,546	-0,138	-0,027
-91,001	23,807	0,079	0,046
-89,986	123,355	-0,064	0,057
-88,972	800,000	0,043	0,102
-87,957	-200,000	-0,006	0,095
-86,943	-101,355	-0,069	-0,012
-85,928	125,384	-0,110	-0,099
-84,913	-200,000	0,010	-0,135
-83,899	226,211	-0,139	0,161
-82,884	800,000	-0,064	0,162
-81,870	-70,332	0,080	0,022
-80,855	17,979	-0,062	0,035
-79,840	82,730	0,093	0,071
-78,826	-1,820	-0,065	-0,033
-77,811	-29,070	-0,110	-0,045
-76,797	593,809	0,078	-0,137
-75,782	-200,000	-0,008	0,075
-74,767	204,889	0,132	0,146
-73,753	90,805	-0,087	0,069
-72,738	800,000	-0,037	-0,095
-71,724	148,951	-0,123	-0,118
-70,709	95,765	-0,072	-0,058
-69,694	-200,000	0,004	0,157
-68,680	-200,000	-0,002	0,152
-67,665	-121,564	0,141	-0,016
-66,651	356,484	0,041	0,058
-65,636	366,808	0,054	0,077
-64,622	-12,476	-0,102	0,047
-63,607	19,135	-0,110	-0,062
-62,592	-200,000	-0,013	-0,071
-61,578	800,000	0,010	-0,029
-60,563	43,742	-0,007	0,004
-59,549	65,941	-0,011	-0,008
-58,534	91,359	-2,424	-1,929
-57,519	-200,000	-0,347	-1,242
-56,505	-200,000	-0,918	-4,987
-55,490	555,509	0,898	1,539
-54,476	800,000	5,491	12,096
-53,461	-200,000	22,242	340,998
-52,446	800,000	762,648	2295,211
-51,432	523,456	1656,851	2770,506
-50,417	67,725	1663,779	1203,664
-49,403	15,824	1582,961	880,309
-48,388	10,512	1536,175	827,063
-47,373	18,033	1529,603	861,787
-46,359	13,685	1518,139	833,351
-45,344	9,116	1514,137	808,038
-44,330	8,999	1512,179	806,365
-43,315	8,967	1510,381	805,214
-42,300	8,939	1508,828	804,214
-41,286	8,959	1506,801	803,204
-40,271	8,935	1505,429	802,317
-39,257	8,958	1503,929	801,604
-38,242	8,966	1502,752	800,983
-37,227	8,943	1501,426	800,132
-36,213	8,958	1499,781	799,298
-35,198	8,930	1498,547	798,466
-34,184	8,970	1497,185	797,909
-33,169	8,939	1495,772	796,971
-32,154	8,983	1494,475	796,466
-31,140	8,999	1492,813	795,633
-30,125	9,061	1491,259	795,079
-29,111	9,016	1490,362	794,343
-28,096	9,017	1489,390	793,803
-27,082	8,982	1488,454	793,094
-26,067	8,958	1487,394	792,379
-25,052	8,953	1485,920	791,538
-24,038	8,911	1484,924	790,769
-23,023	8,921	1484,074	790,334
-22,009	8,962	1482,892	789,877
-20,994	8,961	1481,997	789,366
-19,979	8,978	1480,574	788,660
-18,965	8,951	1479,659	788,005
-17,950	8,946	1478,822	787,506
-16,936	8,940	1477,876	786,940
-15,921	8,915	1476,328	785,962
-14,906	8,885	1475,498	785,342
-13,892	8,879	1474,298	784,640
-12,877	8,867	1473,314	784,025
-11,863	8,812	1472,576	783,333
-10,848	8,832	1471,720	782,943
-9,833	8,938	1470,530	782,801
-8,819	8,931	1469,509	782,193
-7,804	8,872	1468,721	781,454
-6,790	8,861	1468,054	781,011
-5,775	8,911	1467,063	780,697
-4,760	8,916	1466,062	780,159
-3,746	8,852	1464,921	779,208
-2,731	8,719	1463,829	777,947
-1,717	8,702	1462,724	777,247
-0,702	8,730	1461,769	776,844
0,313	8,524	1460,657	776,421
1,327	11,968	1456,489	790,886
2,342	20,981	1208,758	692,481
3,356	16,270	671,151	373,983
4,371	-13,114	453,690	208,021
5,386	-16,071	427,319	191,634
6,400	-16,453	418,859	187,281
7,415	-15,292	415,240	187,279
8,429	-16,378	412,582	184,546
9,444	-16,366	411,125	183,895
10,459	-16,409	410,101	183,361
11,473	-16,352	409,021	182,941
12,488	-16,433	408,165	182,430
13,502	-16,279	407,312	182,245
14,517	-16,392	406,502	181,711
15,531	-16,456	406,021	181,392
16,546	-16,479	405,243	180,996
17,561	-16,477	404,671	180,727
18,575	-16,426	404,054	180,505
19,590	-16,441	403,379	180,167
20,604	-16,319	403,162	180,221
21,619	-16,450	402,306	179,644
22,634	-16,304	401,814	179,606
23,648	-16,403	401,376	179,259
24,663	-16,421	400,874	178,996
25,677	-16,491	400,402	178,674
26,692	-16,465	400,184	178,595
27,707	-16,359	399,561	178,445
28,721	-16,306	398,995	178,247
29,736	-16,419	398,776	177,981
30,750	-16,460	398,303	177,700
31,765	-16,331	397,872	177,664
32,780	-16,465	397,434	177,273
33,794	-16,373	397,030	177,201
34,809	-16,348	396,599	177,026
35,823	-16,475	396,362	176,734
36,838	-16,329	395,626	176,586
37,853	-16,324	395,450	176,498
38,867	-16,370	395,057	176,246
39,882	-16,300	394,543	176,094
40,896	-16,318	394,331	175,959
41,911	-16,269	393,827	175,784
42,926	-16,333	393,606	175,585
43,940	-16,367	393,099	175,297
44,955	-16,358	392,703	175,118
45,969	-16,357	392,369	174,955
46,984	-16,316	392,094	174,871
47,999	-16,427	391,956	174,647
49,013	-16,149	391,205	174,663
50,028	-16,122	391,064	174,620
51,042	-16,242	390,714	174,291
52,057	-16,209	390,272	174,121
53,071	-16,122	389,829	174,023
54,086	-16,200	389,541	173,775
55,101	-16,261	389,364	173,601
56,115	-16,261	388,928	173,391
57,130	-16,281	388,581	173,195
58,144	-16,370	388,107	172,851
59,159	-16,410	387,738	172,620
60,174	-16,223	387,301	172,654
61,188	-16,275	387,089	172,476
62,203	-16,359	386,758	172,205
63,217	-16,136	386,178	172,221
64,232	-16,192	385,908	172,012
65,247	-16,410	385,632	171,590
66,261	-16,345	385,339	171,529
67,276	-16,354	384,869	171,293
68,290	-16,407	384,654	171,114
69,305	-16,254	384,204	171,096
70,320	-16,259	383,886	170,933
71,334	-16,107	383,618	170,994
72,349	-16,273	383,190	170,574
73,363	-16,238	382,949	170,496
74,378	-16,307	382,497	170,192
75,393	-16,311	382,181	170,031
76,407	-16,396	381,989	169,821
77,422	-16,257	381,616	169,818
78,436	-16,292	381,252	169,596
79,451	-16,338	380,951	169,388
80,466	-16,298	380,406	169,182
81,480	-16,314	380,180	169,046
82,495	-16,229	379,821	168,979
83,509	-16,102	379,520	168,993
84,524	-16,212	379,248	168,717
85,539	-16,173	378,986	168,635
86,553	-16,258	378,644	168,360
87,568	-16,111	378,348	168,399
88,582	-16,243	377,947	168,038
89,597	-16,342	377,607	167,746
90,611	-16,339	377,428	167,656
91,626	-16,154	377,150	167,752
92,641	-16,230	376,712	167,445
93,655	-16,205	376,463	167,352
94,670	-16,237	376,152	167,158
95,684	-16,164	375,842	167,098
96,699	-16,110	375,582	167,036
97,714	-16,240	375,240	166,705
98,728	-16,256	375,019	166,572
99,743	-16,152	374,622	166,510
100,757	-16,219	374,406	166,315
101,772	-16,189	374,087	166,197
102,787	-16,156	373,664	166,036
103,801	-16,176	373,434	165,894
104,816	-16,115	373,203	165,853
105,830	-16,107	372,889	165,708
106,845	-16,142	372,609	165,526
107,860	-16,099	372,032	165,308
108,874	-16,114	371,837	165,189
109,889	-16,109	371,463	165,013
110,903	-16,112	371,305	164,925
111,918	-16,140	370,970	164,726
112,933	-16,172	370,700	164,552
113,947	-16,083	370,378	164,505
114,962	-16,116	370,186	164,363
115,976	-16,045	369,845	164,285
116,991	-16,206	369,686	164,001
118,006	-16,109	369,128	163,859
119,020	-16,266	369,170	163,669
120,035	-16,301	369,076	163,569
121,049	-16,194	368,723	163,531
122,064	-16,166	368,094	163,271
123,079	-16,130	367,937	163,231
124,093	-16,112	367,600	163,089
125,108	-16,218	367,276	162,801
126,122	-16,118	366,900	162,742
127,137	-16,226	366,782	162,543
128,151	-16,182	366,511	162,462
129,166	-16,134	366,172	162,356
130,181	-16,182	366,043	162,226
131,195	-16,279	365,668	161,926
132,210	-16,339	365,243	161,650
133,224	-16,205	364,967	161,678
134,239	-16,156	364,710	161,610
135,254	-16,084	364,363	161,529
136,268	-16,068	364,031	161,387
137,283	-16,135	363,731	161,158
138,297	-16,104	363,436	161,050
139,312	-16,182	363,028	160,760
140,327	-16,165	362,689	160,617
141,341	-16,183	362,393	160,449
142,356	-16,131	362,453	160,525
143,370	-12,735	364,209	165,426
144,385	-5,571	367,884	175,878
145,400	-1,487	369,568	181,693
146,414	-0,894	369,600	182,421
147,429	-0,859	369,398	182,348
148,443	-0,652	369,204	182,491
149,458	-0,406	368,984	182,667
150,473	-0,301	368,754	182,666
151,487	-0,352	368,550	182,486
152,502	-0,222	368,205	182,457
153,516	-0,277	367,806	182,176
154,531	-0,324	367,581	181,991
155,546	-0,232	367,274	181,935
156,560	-0,300	367,060	181,730
157,575	-0,344	366,857	181,559
158,589	-0,201	366,544	181,562
159,604	-0,357	366,300	181,235
160,619	-0,313	366,090	181,168
161,633	-0,257	365,805	181,080
162,648	-0,197	365,541	181,006
163,662	-0,122	365,323	180,973
164,677	-0,068	365,112	180,918
165,692	-0,261	364,912	180,568
166,706	-0,211	364,561	180,440
167,721	-0,372	364,247	180,073
168,735	-0,299	363,931	179,989
169,750	-0,310	363,795	179,893
170,764	-0,269	363,492	179,776
171,779	-0,192	363,339	179,776
172,794	-0,174	362,904	179,567
173,808	-0,400	362,791	179,223
174,823	-0,415	362,672	179,131
175,837	-0,423	362,182	178,863
176,852	-0,396	361,939	178,759
177,867	-0,185	361,632	178,845
178,881	-0,344	361,503	178,574
179,896	-0,307	361,125	178,417
180,910	-0,337	361,110	178,357
181,925	-0,330	360,738	178,165
182,940	-0,281	360,466	178,074
183,954	-0,462	360,296	177,758
184,969	-0,407	360,067	177,696
185,983	-0,266	359,846	177,738
186,998	-0,351	359,541	177,471
188,013	-0,316	359,100	177,279
189,027	-0,219	358,941	177,299
190,042	-0,244	358,757	177,163
191,056	-0,289	358,540	176,987
192,071	-0,086	358,159	177,023
193,086	-0,224	358,069	176,799
194,100	-0,167	357,786	176,712
195,115	-0,285	357,596	176,463
196,129	-0,166	357,090	176,337
197,144	-0,252	356,888	176,120
198,159	-0,146	356,515	176,046
199,173	-0,184	356,379	175,918
200,188	-0,145	356,176	175,849
201,202	-0,116	355,841	175,701
202,217	-0,072	355,698	175,667
203,232	-0,040	355,281	175,482
204,246	-0,079	355,117	175,341
205,261	-0,120	354,958	175,198
206,275	-0,114	354,559	174,993
207,290	-0,232	354,370	174,745
208,304	-0,237	354,042	174,562
209,319	-0,218	353,789	174,444
210,334	-0,025	353,635	174,578
211,348	-0,170	353,482	174,318
212,363	-0,126	353,122	174,176
213,377	-0,118	352,899	174,059
214,392	-0,089	352,735	173,998
215,407	-0,031	352,479	173,923
216,421	0,059	352,305	173,926
217,436	-0,098	351,999	173,577
218,450	-0,097	351,792	173,461
219,465	0,023	351,579	173,480
220,480	0,000	351,210	173,255
221,494	0,014	350,994	173,150
222,509	-0,044	350,847	172,995
223,523	-0,033	350,701	172,920
224,538	-0,027	350,481	172,803
225,553	0,027	350,188	172,705
226,567	0,060	349,839	172,556
227,582	-0,090	349,731	172,314
228,596	-0,010	349,552	172,303
229,611	-0,060	349,165	172,039
230,626	-0,080	348,973	171,906
231,640	0,010	348,779	171,898
232,655	-0,065	348,412	171,617
233,669	-0,090	348,318	171,526
234,684	0,083	348,134	171,619
235,699	0,016	347,893	171,408
236,713	0,045	347,508	171,236
237,728	0,029	347,354	171,127
238,742	0,052	347,001	170,964
239,757	0,122	346,865	170,962
240,772	-0,013	346,712	170,717
241,786	-0,007	346,491	170,600
242,801	0,073	346,162	170,514
243,815	0,047	345,933	170,356
244,830	0,085	345,750	170,294
245,844	0,093	345,455	170,142
246,859	0,116	345,327	170,090
247,874	0,134	344,988	169,929
248,888	-0,044	344,820	169,629
249,903	0,060	344,586	169,616
250,917	-0,147	344,539	169,343
251,932	0,161	344,185	169,503
252,947	0,050	343,983	169,263
253,961	0,096	343,646	169,134
254,976	0,178	343,367	169,074
255,990	0,218	343,159	169,002
257,005	0,027	343,102	168,744
258,020	0,192	342,697	168,715
259,034	0,096	342,489	168,490
260,049	0,222	342,277	168,512
261,063	0,084	342,174	168,291
262,078	0,177	341,777	168,185
263,093	0,056	341,558	167,927
264,107	0,013	341,412	167,792
265,122	0,089	341,157	167,736
266,136	-0,130	341,144	167,470
267,151	0,187	340,726	167,604
268,166	0,183	340,395	167,422
269,180	0,087	340,326	167,266
270,195	0,249	339,989	167,266
271,209	0,113	339,903	167,058
272,224	0,051	339,766	166,905
273,239	0,072	339,606	166,836
274,253	0,297	339,181	166,863
275,268	0,386	338,980	166,848
276,282	0,332	338,751	166,661
277,297	0,194	338,528	166,382
278,312	0,306	338,139	166,301
279,326	0,215	338,117	166,174
280,341	0,301	337,924	166,160
281,355	0,286	337,721	166,029
282,370	0,340	337,475	165,953
283,384	0,402	337,206	165,874
284,399	0,252	336,868	165,528
285,414	0,208	336,822	165,441
286,428	0,195	336,571	165,289
287,443	0,421	336,215	165,348
288,457	0,333	336,071	165,166
289,472	0,346	335,946	165,104
290,487	0,245	335,697	164,856
291,501	0,289	335,474	164,780
292,516	0,375	335,196	164,723
293,530	0,219	335,019	164,450
294,545	0,411	334,889	164,582
295,560	0,305	334,509	164,264
296,574	0,342	334,310	164,194
297,589	0,298	334,031	163,993
298,603	0,263	333,976	163,913
299,618	0,367	333,656	163,855
300,633	0,412	333,459	163,793
301,647	0,319	333,320	163,608
302,662	0,410	333,003	163,538
303,676	0,388	332,776	163,387
304,691	0,395	332,574	163,281
305,706	0,234	332,435	163,023
306,720	0,490	331,965	163,057
307,735	0,390	331,960	162,932
308,749	0,149	331,755	162,555
309,764	0,212	331,480	162,474
310,779	0,302	331,279	162,458
311,793	0,230	330,907	162,184
312,808	0,191	330,921	162,133
313,822	0,210	330,534	161,950
314,837	0,090	330,490	161,784
315,852	0,223	330,235	161,788
316,866	0,290	329,880	161,673
317,881	0,304	329,717	161,593
318,895	0,285	329,592	161,497
319,910	0,313	329,137	161,289
320,925	0,205	329,178	161,179
321,939	0,168	329,053	161,064
322,954	0,195	328,602	160,858
323,968	0,335	328,526	160,956
324,983	0,165	328,323	160,660
325,997	0,126	327,936	160,415
327,012	0,087	327,935	160,358
328,027	0,174	327,665	160,305
329,041	0,022	327,463	160,029
330,056	0,222	327,102	160,052
331,070	0,206	327,030	159,985
332,085	0,627	326,865	160,340
333,100	0,694	326,711	160,322
334,114	0,808	326,334	160,244
335,129	0,824	326,389	160,274
336,143	0,886	326,146	160,207
337,158	0,991	325,829	160,148
338,173	0,779	325,776	159,882
339,187	0,727	325,660	159,756
340,202	0,871	325,337	159,736
341,216	0,986	325,051	159,704
342,231	0,874	324,881	159,487
343,246	0,837	324,722	159,356
344,260	0,864	324,580	159,300
345,275	0,825	324,275	159,095
346,289	0,918	324,012	159,050
347,304	0,813	323,783	158,813
348,319	0,805	323,611	158,706
349,333	0,622	323,488	158,438
350,348	0,678	323,276	158,379
351,362	0,726	323,012	158,286
352,377	0,657	322,604	157,999
353,392	0,574	322,467	157,831
354,406	0,650	322,174	157,753
355,421	194,903	1348,435	1407,008
356,435	159,021	1473,596	1407,180
