DTS Sentinel unit serial number:	SN410029Multiplexer serial number:	ORYXHardware model number:	OX2-SRSoftware version number:	ORYX F/W v4,00 Oryx Data Collector v3.7.2.0data status	okinstallation	B3 Nyhavnadifferential loss correction	single-endedforward channel	channel 1reverse channel	N/Adate	2023/12/02time	06:37:30forward acquisition time	300,00reverse acquisition time	0,00gamma	499,1914k internal	0,3194k external	0,3194temperature offset calibration	1,0000default loss term (dB/km)	0,3820temperature slope calibration	1,0000multiplexer offset coefficient	1,0000multiplexer slope coefficient	1,0000fibre end	0,00T internal ref (°C)	15,91T ext. ref 1 (°C)	0,56T ext. ref 2 (°C)	0,54length (m)	temperature (°C)	Stokes	anti-Stokes-744,400	245,573	-0,190	-0,234
-743,385	125,875	0,193	0,178
-742,371	76,543	-0,275	-0,212
-741,356	-200,000	0,050	0,367
-740,342	106,272	-0,226	-0,195
-739,327	-200,000	-0,000	0,203
-738,312	346,973	-0,202	-0,290
-737,298	-200,000	-0,002	0,234
-736,283	410,251	-0,131	-0,203
-735,269	-200,000	0,045	0,309
-734,254	800,000	-0,098	-0,271
-733,239	-200,000	-0,047	0,192
-732,225	800,000	-0,109	-0,265
-731,210	-150,557	0,115	-0,006
-730,196	-200,000	-0,001	-0,098
-729,181	800,000	-0,015	-0,043
-728,167	69,748	0,161	-0,121
-727,152	-74,574	0,084	0,022
-726,137	-200,000	-0,008	-0,143
-725,123	12,939	-0,069	-0,039
-724,108	-133,453	-0,023	-0,002
-723,094	129,210	-0,113	-0,105
-722,079	156,001	-0,050	-0,050
-721,064	12,721	0,051	-0,029
-720,050	-200,000	0,003	0,015
-719,035	-200,000	-0,016	-0,119
-718,021	82,533	-0,109	-0,087
-717,006	500,106	-0,060	0,101
-715,991	159,931	-0,065	-0,066
-714,977	-130,853	-0,139	0,013
-713,962	-200,000	-0,020	-0,131
-712,948	28,374	-0,014	0,009
-711,933	7,525	-0,076	-0,041
-710,918	-200,000	0,012	-0,053
-709,904	-200,000	0,004	-0,047
-708,889	15,595	-0,104	-0,060
-707,875	129,892	-0,144	-0,135
-706,860	-200,000	0,006	0,097
-705,845	-69,384	-0,100	-0,028
-704,831	-200,000	0,000	-0,022
-703,816	-41,352	0,064	-0,024
-702,802	-200,000	0,005	-0,023
-701,787	800,000	-0,016	0,040
-700,772	-66,131	-0,102	-0,029
-699,758	148,934	0,051	0,050
-698,743	311,462	-0,021	-0,029
-697,729	-200,000	0,004	0,043
-696,714	800,000	0,048	0,140
-695,699	800,000	0,006	0,016
-694,685	396,564	-0,051	0,078
-693,670	-43,200	-0,107	-0,039
-692,656	138,283	0,036	-0,035
-691,641	-200,000	-0,014	-0,055
-690,627	-125,632	-0,096	-0,011
-689,612	116,923	-0,114	-0,102
-688,597	-200,000	-0,001	-0,033
-687,583	800,000	-0,018	-0,037
-686,568	800,000	-0,027	0,060
-685,554	-101,993	-0,091	-0,016
-684,539	-36,324	0,056	-0,022
-683,524	-52,103	-0,127	-0,043
-682,510	87,817	0,025	-0,020
-681,495	800,000	-0,048	-0,099
-680,481	99,839	-0,062	0,052
-679,466	214,164	0,051	0,059
-678,451	477,541	0,032	0,052
-677,437	626,698	-0,051	-0,093
-676,422	800,000	0,054	-0,129
-675,408	800,000	-0,050	0,119
-674,393	-55,891	-0,115	0,037
-673,378	0,706	-0,187	-0,097
-672,364	-65,247	0,074	0,022
-671,349	630,047	-0,009	0,017
-670,335	46,214	-0,091	0,061
-669,320	484,681	0,051	0,084
-668,305	58,142	-0,115	0,082
-667,291	654,170	-0,047	0,088
-666,276	-88,144	0,048	0,010
-665,262	800,000	-0,023	0,051
-664,247	-91,071	-0,026	-0,005
-663,232	800,000	-0,071	-0,191
-662,218	-17,942	0,133	-0,060
-661,203	154,597	0,111	-0,111
-660,189	-200,000	-0,030	-0,127
-659,174	-200,000	0,009	-0,096
-658,159	800,000	-0,055	-0,129
-657,145	-200,000	-0,012	-0,213
-656,130	135,388	-0,106	0,100
-655,116	-70,610	0,139	-0,038
-654,101	800,000	-0,075	0,164
-653,086	-24,777	-0,070	0,030
-652,072	-91,757	-0,056	0,012
-651,057	97,900	0,066	0,055
-650,043	176,495	0,057	-0,060
-649,028	42,933	0,056	-0,037
-648,014	-200,000	0,002	0,069
-646,999	381,606	-0,068	-0,102
-645,984	373,134	0,040	-0,059
-644,970	6,312	0,030	-0,016
-643,955	12,487	-0,112	-0,063
-642,941	-200,000	0,012	-0,088
-641,926	215,016	0,033	-0,038
-640,911	800,000	0,068	0,190
-639,897	-14,632	-0,072	0,034
-638,882	38,083	-0,163	0,105
-637,868	-28,395	-0,150	-0,063
-636,853	800,000	-0,050	-0,158
-635,838	-95,090	0,068	0,013
-634,824	-200,000	-0,027	-0,110
-633,809	-78,482	0,092	-0,023
-632,795	-4,132	0,095	0,048
-631,780	325,701	-0,055	0,076
-630,765	-135,247	-0,113	-0,010
-629,751	-200,000	0,004	-0,054
-628,736	-200,000	0,001	0,017
-627,722	-180,908	0,043	0,001
-626,707	-0,816	0,052	0,026
-625,692	196,505	0,102	0,113
-624,678	800,000	0,054	-0,116
-623,663	31,134	0,029	-0,018
-622,649	77,229	0,083	0,064
-621,634	-189,772	-0,098	-0,001
-620,619	176,306	0,084	0,089
-619,605	-199,714	-0,051	0,000
-618,590	106,487	0,043	0,037
-617,576	24,958	0,120	-0,072
-616,561	-200,000	-0,002	0,031
-615,546	737,447	-0,004	-0,007
-614,532	317,503	-0,035	-0,048
-613,517	-96,072	0,046	0,009
-612,503	276,348	-0,040	-0,051
-611,488	149,876	0,068	-0,067
-610,474	-200,000	0,009	0,159
-609,459	255,357	0,041	-0,051
-608,444	333,463	-0,053	0,075
-607,430	-200,000	-0,009	-0,149
-606,415	-7,730	-0,108	-0,053
-605,401	36,074	0,033	-0,021
-604,386	-22,341	-0,078	-0,034
-603,371	-200,000	0,006	0,046
-602,357	155,356	-0,041	0,041
-601,342	15,513	-0,100	-0,057
-600,328	-200,000	-0,004	-0,049
-599,313	-200,000	-0,038	-0,159
-598,298	-200,000	0,003	-0,048
-597,284	175,688	-0,145	0,153
-596,269	800,000	-0,064	0,145
-595,255	-108,663	-0,069	0,011
-594,240	-200,000	0,016	-0,102
-593,225	396,309	0,021	-0,032
-592,211	65,441	-0,121	-0,088
-591,196	-168,688	0,027	0,001
-590,182	122,675	-0,135	-0,122
-589,167	69,870	-0,072	0,054
-588,152	-24,862	0,118	0,050
-587,138	21,570	-0,054	-0,031
-586,123	-15,619	-0,140	-0,065
-585,109	-53,390	-0,048	-0,016
-584,094	31,702	0,013	0,008
-583,079	800,000	0,027	-0,068
-582,065	625,216	0,027	-0,049
-581,050	274,772	-0,030	-0,039
-580,036	800,000	0,071	0,153
-579,021	-200,000	-0,016	0,162
-578,006	385,312	0,034	-0,051
-576,992	-132,942	0,144	-0,013
-575,977	-39,212	0,017	-0,006
-574,963	-192,027	0,053	-0,000
-573,948	11,646	-0,060	0,033
-572,934	-200,000	0,001	0,117
-571,919	334,691	-0,096	-0,135
-570,904	242,397	-0,081	-0,098
-569,890	800,000	0,036	-0,095
-568,875	-200,000	0,030	-0,161
-567,861	368,277	0,072	0,105
-566,846	583,305	0,097	0,173
-565,831	-52,695	-0,054	-0,018
-564,817	-200,000	0,010	-0,052
-563,802	509,708	-0,081	-0,136
-562,788	-57,858	-0,153	0,048
-561,773	239,258	-0,046	-0,056
-560,758	2,897	0,124	0,065
-559,744	-152,351	0,111	-0,006
-558,729	800,000	-0,016	0,037
-557,715	-5,023	0,126	0,063
-556,700	800,000	-0,052	0,128
-555,685	158,140	0,046	0,047
-554,671	-134,915	-0,060	0,005
-553,656	466,151	0,040	0,066
-552,642	211,403	0,084	-0,096
-551,627	-44,607	-0,072	0,026
-550,612	-200,000	0,009	0,047
-549,598	800,000	0,023	-0,066
-548,583	-83,506	-0,040	-0,009
-547,569	800,000	-0,032	0,081
-546,554	493,460	0,022	0,036
-545,539	62,761	-0,043	0,031
-544,525	-91,248	0,126	-0,026
-543,510	476,722	-0,052	-0,085
-542,496	-5,529	-0,047	-0,023
-541,481	-46,424	-0,118	-0,042
-540,466	659,326	0,036	-0,068
-539,452	800,000	0,048	-0,112
-538,437	-58,926	0,118	-0,037
-537,423	87,405	0,032	-0,026
-536,408	-200,000	0,021	-0,113
-535,393	-200,000	-0,029	0,100
-534,379	-109,883	-0,175	0,026
-533,364	61,685	-0,076	0,055
-532,350	-200,000	0,004	0,084
-531,335	-200,000	0,015	0,115
-530,321	197,183	0,052	0,057
-529,306	35,910	-0,089	-0,057
-528,291	518,950	0,028	-0,047
-527,277	162,843	-0,078	-0,079
-526,262	-200,000	-0,003	-0,050
-525,248	76,740	0,049	0,038
-524,233	282,073	-0,025	-0,032
-523,218	36,499	0,077	0,049
-522,204	-200,000	0,007	0,074
-521,189	-200,000	-0,002	-0,032
-520,175	-200,000	0,003	0,080
-519,160	177,200	0,107	0,113
-518,145	265,563	-0,030	-0,037
-517,131	47,091	0,061	0,041
-516,116	800,000	-0,015	0,045
-515,102	-200,000	-0,009	0,068
-514,087	291,983	-0,051	-0,067
-513,072	-110,945	-0,052	0,008
-512,058	437,392	0,026	-0,041
-511,043	-200,000	-0,019	-0,145
-510,029	428,470	-0,012	-0,019
-509,014	-200,000	-0,006	0,046
-507,999	4,555	0,050	-0,026
-506,985	-34,365	-0,163	-0,064
-505,970	-200,000	-0,027	-0,098
-504,956	800,000	-0,072	-0,213
-503,941	478,903	-0,075	0,123
-502,926	69,190	0,107	0,079
-501,912	800,000	0,029	-0,078
-500,897	800,000	0,034	-0,072
-499,883	29,721	-0,094	-0,058
-498,868	63,267	-0,033	0,024
-497,853	481,416	-0,065	-0,107
-496,839	-6,406	-0,079	-0,039
-495,824	671,927	0,081	0,152
-494,810	-19,234	0,082	0,036
-493,795	800,000	0,074	0,178
-492,781	-115,194	-0,065	-0,009
-491,766	-200,000	0,012	-0,139
-490,751	328,892	0,048	-0,067
-489,737	333,865	0,055	0,078
-488,722	-77,229	0,120	0,030
-487,708	1,672	0,107	-0,056
-486,693	470,919	0,022	0,036
-485,678	-200,000	0,026	-0,101
-484,664	800,000	-0,070	-0,179
-483,649	-200,000	-0,004	-0,040
-482,635	12,952	-0,043	0,024
-481,620	-72,671	0,107	0,028
-480,605	-200,000	0,025	-0,175
-479,591	-100,347	0,087	-0,015
-478,576	127,070	0,086	-0,078
-477,562	585,849	-0,046	0,081
-476,547	-200,000	0,003	-0,055
-475,532	75,107	0,092	-0,070
-474,518	-200,000	-0,006	0,068
-473,503	373,107	0,025	0,036
-472,489	325,486	0,010	-0,013
-471,474	-82,024	-0,123	-0,029
-470,459	180,164	-0,038	0,040
-469,445	334,976	0,104	-0,146
-468,430	290,122	0,038	0,050
-467,416	63,323	0,012	0,008
-466,401	132,665	0,049	0,045
-465,386	-74,315	-0,061	0,016
-464,372	-200,000	-0,037	0,172
-463,357	-141,822	0,031	-0,002
-462,343	505,118	-0,032	-0,053
-461,328	288,127	0,076	-0,099
-460,313	95,651	0,066	-0,055
-459,299	-200,000	-0,008	0,119
-458,284	-200,000	0,015	0,112
-457,270	-200,000	-0,002	-0,013
-456,255	-165,670	0,025	0,001
-455,241	49,290	0,147	-0,099
-454,226	98,530	-0,101	-0,084
-453,211	-200,000	-0,011	-0,037
-452,197	338,808	-0,013	0,019
-451,182	321,369	-0,076	-0,105
-450,168	-52,466	-0,071	-0,023
-449,153	324,776	-0,063	-0,087
-448,138	189,307	0,028	0,030
-447,124	-75,841	-0,125	-0,032
-446,109	473,317	-0,046	0,075
-445,095	119,901	-0,040	0,036
-444,080	-135,186	0,187	-0,016
-443,065	-120,410	0,028	-0,003
-442,051	325,418	0,028	0,038
-441,036	-93,333	-0,088	-0,018
-440,022	-20,425	-0,091	-0,040
-439,007	188,583	0,067	-0,072
-437,992	388,264	0,034	-0,051
-436,978	147,600	-0,088	0,086
-435,963	-200,000	0,021	0,084
-434,949	67,042	0,133	-0,097
-433,934	-128,893	-0,191	0,019
-432,919	-70,237	-0,085	0,023
-431,905	-136,624	0,113	0,009
-430,890	-200,000	-0,012	-0,048
-429,876	203,174	-0,018	-0,020
-428,861	104,219	0,166	0,140
-427,846	564,841	0,039	0,069
-426,832	-187,771	-0,086	-0,001
-425,817	-79,112	-0,141	0,034
-424,803	-82,915	0,099	-0,023
-423,788	-81,068	0,033	-0,008
-422,773	232,918	0,015	0,017
-421,759	-0,290	0,030	-0,015
-420,744	466,273	0,065	0,105
-419,730	145,825	-0,037	-0,035
-418,715	299,759	-0,103	-0,136
-417,701	-200,000	0,015	-0,087
-416,686	176,952	0,105	-0,110
-415,671	68,714	-0,056	-0,041
-414,657	503,116	-0,040	0,067
-413,642	-151,219	0,155	0,008
-412,628	800,000	0,012	0,028
-411,613	-28,955	-0,067	0,027
-410,598	-200,000	0,028	-0,130
-409,584	-200,000	-0,007	0,096
-408,569	-141,460	0,047	-0,003
-407,555	-144,737	-0,036	-0,002
-406,540	800,000	-0,038	0,116
-405,525	800,000	0,035	-0,076
-404,511	295,938	0,048	-0,063
-403,496	29,513	0,093	0,057
-402,482	-77,436	0,090	-0,022
-401,467	-200,000	0,007	0,095
-400,452	9,505	0,080	-0,044
-399,438	-25,751	-0,076	0,032
-398,423	196,151	-0,057	0,062
-397,409	141,628	0,045	-0,042
-396,394	42,420	0,194	-0,127
-395,379	260,682	-0,037	0,046
-394,365	10,040	0,012	0,006
-393,350	-72,353	0,010	-0,003
-392,336	337,331	-0,041	-0,058
-391,321	-200,000	0,030	-0,134
-390,306	-200,000	-0,020	-0,097
-389,292	-21,050	-0,118	-0,052
-388,277	-200,000	0,006	-0,067
-387,263	-200,000	0,025	0,202
-386,248	-200,000	0,018	0,119
-385,233	164,773	0,077	0,078
-384,219	800,000	-0,075	0,154
-383,204	-93,671	-0,045	-0,009
-382,190	-200,000	0,015	-0,071
-381,175	-200,000	0,021	0,125
-380,160	-200,000	-0,007	0,122
-379,146	-121,556	0,157	-0,018
-378,131	224,114	0,062	0,073
-377,117	-35,659	0,094	0,036
-376,102	-200,000	0,093	-0,000
-375,088	-0,324	0,105	-0,053
-374,073	3,197	-0,159	0,083
-373,058	-177,510	0,089	0,002
-372,044	70,706	-0,114	0,084
-371,029	800,000	0,038	0,119
-370,015	543,732	0,051	0,088
-369,000	87,192	0,027	0,021
-367,985	-51,284	-0,139	0,046
-366,971	301,382	0,102	0,135
-365,956	-200,000	-0,022	-0,078
-364,942	-61,294	0,037	0,011
-363,927	236,222	-0,015	0,018
-362,912	145,260	0,065	0,063
-361,898	90,330	-0,028	-0,022
-360,883	2,414	-0,108	-0,056
-359,869	-135,005	-0,065	-0,006
-358,854	-15,178	0,051	0,024
-357,839	2,612	0,032	-0,017
-356,825	197,236	-0,115	0,126
-355,810	-94,678	0,062	-0,012
-354,796	146,997	0,043	-0,041
-353,781	-109,477	-0,152	0,023
-352,766	-115,563	-0,125	0,017
-351,752	373,743	0,053	-0,077
-350,737	-135,037	-0,051	-0,004
-349,723	711,159	0,077	0,147
-348,708	800,000	0,050	0,103
-347,693	-15,573	-0,024	-0,011
-346,679	154,743	0,126	-0,124
-345,664	16,825	-0,117	0,066
-344,650	-200,000	0,009	-0,070
-343,635	-105,185	0,145	-0,023
-342,620	-200,000	-0,006	0,058
-341,606	502,927	0,068	0,114
-340,591	96,907	0,095	-0,078
-339,577	27,247	-0,053	0,032
-338,562	-200,000	-0,007	-0,091
-337,548	221,064	0,145	-0,168
-336,533	166,324	0,092	-0,093
-335,518	800,000	0,017	-0,052
-334,504	800,000	0,059	0,133
-333,489	197,514	-0,047	0,052
-332,475	800,000	-0,053	-0,135
-331,460	-2,433	-0,177	-0,089
-330,445	218,450	-0,033	0,037
-329,431	-125,328	-0,164	-0,018
-328,416	550,512	0,030	-0,052
-327,402	17,566	0,061	-0,035
-326,387	-22,761	-0,124	-0,053
-325,372	-36,632	-0,044	0,017
-324,358	-72,694	-0,093	0,024
-323,343	800,000	-0,005	0,010
-322,329	-200,000	0,025	-0,150
-321,314	329,257	0,036	-0,049
-320,299	347,710	0,103	-0,146
-319,285	136,066	-0,114	-0,107
-318,270	48,780	-0,117	-0,079
-317,256	209,940	-0,106	0,120
-316,241	800,000	0,056	-0,123
-315,226	-200,000	-0,034	0,133
-314,212	-35,360	0,162	0,063
-313,197	-113,296	0,054	-0,008
-312,183	800,000	-0,020	-0,058
-311,168	-200,000	0,002	-0,038
-310,153	-136,363	-0,067	0,006
-309,139	5,694	-0,165	0,087
-308,124	-32,214	-0,101	0,040
-307,110	7,544	0,045	0,024
-306,095	-48,768	-0,073	0,025
-305,080	91,738	-0,050	0,041
-304,066	-200,000	0,024	-0,102
-303,051	-70,468	0,070	-0,019
-302,037	-58,045	0,083	-0,026
-301,022	-200,000	0,041	-0,142
-300,008	395,487	-0,015	-0,022
-298,993	119,501	0,049	0,043
-297,978	163,023	0,151	0,152
-296,964	102,714	-0,034	0,029
-295,949	800,000	-0,048	-0,133
-294,935	94,390	0,060	-0,049
-293,920	14,787	0,112	0,063
-292,905	207,392	0,134	0,150
-291,891	-200,000	-0,018	-0,077
-290,876	-200,000	0,025	0,194
-289,862	800,000	0,021	-0,052
-288,847	133,533	-0,029	0,027
-287,832	224,953	-0,101	0,117
-286,818	113,675	0,051	-0,044
-285,803	308,293	-0,048	0,064
-284,789	-102,011	0,080	-0,014
-283,774	354,313	0,093	0,132
-282,759	1,008	-0,079	-0,041
-281,745	206,187	-0,079	-0,088
-280,730	-12,894	-0,206	0,095
-279,716	-95,278	0,174	-0,033
-278,701	800,000	-0,027	0,068
-277,686	153,166	0,039	0,038
-276,672	221,497	-0,092	-0,106
-275,657	-136,281	-0,118	0,010
-274,643	68,406	0,066	-0,049
-273,628	-118,985	0,063	0,008
-272,613	-200,000	-0,013	-0,080
-271,599	-200,000	0,015	0,113
-270,584	61,682	-0,018	0,013
-269,570	-200,000	-0,008	0,128
-268,555	-87,093	-0,075	-0,016
-267,540	-53,460	-0,091	0,030
-266,526	17,404	-0,058	-0,033
-265,511	-5,226	-0,087	-0,043
-264,497	171,398	0,075	0,077
-263,482	219,481	0,079	-0,090
-262,467	-81,871	-0,058	0,013
-261,453	71,381	0,056	-0,041
-260,438	92,193	-0,083	0,066
-259,424	203,955	-0,007	0,008
-258,409	800,000	0,016	0,044
-257,395	-39,397	0,047	0,018
-256,380	159,967	-0,029	0,029
-255,365	-18,716	-0,009	-0,004
-254,351	-17,968	0,048	0,021
-253,336	209,889	-0,125	-0,140
-252,322	-111,084	-0,026	-0,004
-251,307	-121,155	-0,043	-0,005
-250,292	-71,654	-0,042	0,011
-249,278	-200,000	0,010	0,140
-248,263	-200,000	-0,006	0,061
-247,249	800,000	-0,044	0,140
-246,234	-200,000	-0,010	0,123
-245,219	-87,322	0,133	-0,029
-244,205	-58,890	0,032	-0,010
-243,190	36,027	-0,055	-0,034
-242,176	1,786	0,103	0,053
-241,161	800,000	-0,037	0,110
-240,146	-83,553	0,100	0,023
-239,132	180,442	0,123	-0,129
-238,117	1,699	0,107	-0,055
-237,103	-95,110	-0,051	-0,010
-236,088	-200,000	-0,002	0,038
-235,073	-200,000	0,044	0,257
-234,059	-135,762	0,174	0,015
-233,044	-200,000	0,015	-0,094
-232,030	20,746	-0,053	-0,030
-231,015	-22,688	-0,028	-0,012
-230,000	-8,353	-0,107	0,051
-228,986	-200,000	-0,004	-0,102
-227,971	17,676	0,074	-0,042
-226,957	800,000	-0,042	0,101
-225,942	-200,000	-0,025	0,202
-224,927	87,079	-0,026	0,020
-223,913	-200,000	-0,047	0,148
-222,898	-200,000	-0,019	0,091
-221,884	-200,000	0,029	-0,154
-220,869	41,196	0,120	0,077
-219,855	800,000	-0,023	0,070
-218,840	63,977	-0,058	-0,042
-217,825	-133,816	-0,114	0,010
-216,811	485,909	-0,062	-0,102
-215,796	-23,711	-0,082	-0,035
-214,782	800,000	0,047	-0,110
-213,767	-61,715	0,064	-0,019
-212,752	51,182	0,116	-0,078
-211,738	211,681	-0,102	0,114
-210,723	-200,000	0,009	0,068
-209,709	-200,000	0,029	-0,160
-208,694	-99,375	0,133	-0,024
-207,679	63,284	0,081	-0,058
-206,665	-86,709	0,017	0,004
-205,650	-27,111	0,041	0,017
-204,636	6,290	-0,045	0,024
-203,621	-200,000	-0,020	-0,137
-202,606	85,940	-0,035	-0,028
-201,592	211,647	-0,041	-0,046
-200,577	-79,178	0,089	0,021
-199,563	138,209	-0,106	0,099
-198,548	-200,000	0,005	0,061
-197,533	31,421	0,099	0,061
-196,519	800,000	0,037	-0,111
-195,504	-122,683	-0,088	-0,010
-194,490	46,849	-0,134	-0,089
-193,475	800,000	-0,051	-0,104
-192,460	3,223	-0,010	-0,005
-191,446	-200,000	-0,017	-0,068
-190,431	-200,000	0,004	0,199
-189,417	44,662	0,076	-0,050
-188,402	103,637	-0,042	0,035
-187,387	152,341	-0,093	-0,090
-186,373	-65,314	-0,078	-0,022
-185,358	287,920	0,062	-0,080
-184,344	244,072	-0,020	-0,024
-183,329	-200,000	-0,012	0,114
-182,315	-200,000	0,010	-0,036
-181,300	-15,747	-0,052	-0,024
-180,285	-123,939	-0,102	-0,011
-179,271	-200,000	-0,011	0,137
-178,256	-200,000	0,033	0,180
-177,242	-82,494	0,054	0,012
-176,227	-179,036	0,055	-0,001
-175,212	-200,000	0,003	0,158
-174,198	43,519	-0,120	-0,078
-173,183	154,761	-0,022	-0,022
-172,169	-24,674	-0,075	0,032
-171,154	-200,000	0,001	-0,024
-170,139	-59,805	-0,155	0,047
-169,125	-200,000	0,032	0,122
-168,110	733,943	-0,054	0,103
-167,096	-200,000	-0,002	0,054
-166,081	-26,227	0,102	-0,043
-165,066	-200,000	0,010	-0,211
-164,052	142,114	-0,111	-0,105
-163,037	8,085	0,054	-0,029
-162,023	201,188	0,060	0,066
-161,008	98,371	0,086	-0,070
-159,993	800,000	0,019	0,055
-158,979	25,217	0,005	-0,003
-157,964	116,466	-0,013	-0,011
-156,950	-132,481	-0,066	-0,006
-155,935	79,121	0,092	-0,071
-154,920	-200,000	0,023	0,122
-153,906	412,336	0,030	0,046
-152,891	-1,239	0,063	0,032
-151,877	571,618	-0,059	0,104
-150,862	-14,723	-0,124	-0,057
-149,847	800,000	0,010	0,024
-148,833	41,036	-0,055	-0,035
-147,818	-200,000	-0,001	-0,024
-146,804	7,570	-0,135	0,072
-145,789	127,561	-0,050	-0,045
-144,775	415,804	-0,054	0,082
-143,760	63,424	-0,016	-0,012
-142,745	-200,000	0,016	-0,159
-141,731	-85,706	0,156	-0,034
-140,716	-200,000	-0,011	-0,084
-139,702	-200,000	-0,009	0,095
-138,687	406,409	-0,042	0,064
-137,672	800,000	-0,064	0,148
-136,658	800,000	0,020	0,060
-135,643	-10,553	-0,184	-0,087
-134,629	-92,973	-0,034	0,007
-133,614	-72,636	0,091	0,024
-132,599	-182,481	-0,107	0,001
-131,585	119,922	0,035	0,031
-130,570	51,990	0,064	0,043
-129,556	-200,000	0,000	0,012
-128,541	67,632	-0,077	-0,056
-127,526	-57,139	-0,016	0,005
-126,512	124,555	-0,047	0,042
-125,497	120,975	0,110	-0,097
-124,483	739,014	0,059	0,113
-123,468	310,530	-0,120	0,160
-122,453	48,071	-0,119	0,079
-121,439	13,742	0,074	-0,041
-120,424	309,608	0,081	-0,108
-119,410	252,515	-0,052	0,063
-118,395	-200,000	0,022	0,148
-117,380	80,449	0,061	-0,047
-116,366	717,802	-0,031	-0,059
-115,351	-71,582	-0,181	-0,048
-114,337	-200,000	-0,014	0,086
-113,322	800,000	0,051	0,157
-112,307	-200,000	-0,038	0,158
-111,293	800,000	0,073	0,178
-110,278	-200,000	-0,077	0,245
-109,264	-43,593	0,064	-0,023
-108,249	-200,000	-0,003	0,071
-107,234	363,506	-0,116	-0,166
-106,220	9,640	-0,083	0,044
-105,205	-15,778	0,155	-0,070
-104,191	-190,163	0,103	-0,001
-103,176	16,448	-0,053	0,029
-102,162	261,903	-0,064	0,079
-101,147	54,206	0,028	0,019
-100,132	243,601	-0,058	-0,070
-99,118	562,556	0,050	-0,086
-98,103	800,000	-0,058	-0,156
-97,089	-200,000	0,004	0,101
-96,074	-63,661	0,076	-0,022
-95,059	671,811	0,045	-0,084
-94,045	193,008	0,042	0,045
-93,030	-71,168	-0,198	-0,052
-92,016	63,023	0,047	0,034
-91,001	421,265	-0,063	-0,097
-89,986	-160,871	0,159	-0,006
-88,972	-79,107	-0,034	0,008
-87,957	141,107	-0,104	0,098
-86,943	577,011	0,084	-0,146
-85,928	800,000	0,044	0,094
-84,913	73,419	-0,022	0,016
-83,899	144,835	-0,045	0,043
-82,884	210,414	-0,104	-0,116
-81,870	153,202	0,060	-0,058
-80,855	-1,783	0,015	-0,007
-79,840	-43,785	-0,059	0,021
-78,826	-200,000	0,009	0,139
-77,811	-123,395	0,052	-0,006
-76,797	330,016	0,138	-0,189
-75,782	23,115	0,074	-0,043
-74,767	42,072	-0,023	-0,015
-73,753	12,559	0,056	-0,031
-72,738	222,669	-0,065	0,074
-71,724	-200,000	0,014	-0,046
-70,709	573,449	-0,015	0,026
-69,694	-200,000	0,015	0,124
-68,680	-200,000	0,015	-0,151
-67,665	39,275	0,043	0,028
-66,651	189,189	0,044	-0,047
-65,636	-158,770	-0,090	-0,004
-64,622	404,256	0,052	-0,078
-63,607	800,000	-0,088	-0,192
-62,592	-200,000	-0,006	-0,024
-61,578	-200,000	0,006	-0,092
-60,563	-64,797	0,116	0,033
-59,549	-200,000	0,027	0,139
-58,534	-43,372	-1,400	-0,500
-57,519	324,045	-1,557	-2,114
-56,505	-200,000	-0,460	-4,421
-55,490	74,840	1,061	0,792
-54,476	800,000	4,759	11,102
-53,461	-200,000	17,756	283,041
-52,446	800,000	720,984	2230,449
-51,432	565,280	1635,728	2824,968
-50,417	81,045	1659,222	1269,644
-49,403	23,806	1533,180	894,076
-48,388	17,690	1456,780	819,985
-47,373	18,250	1446,354	816,772
-46,359	17,883	1436,749	809,565
-45,344	16,055	1432,141	798,237
-44,330	15,997	1430,087	796,784
-43,315	16,007	1428,229	795,764
-42,300	16,018	1426,700	794,933
-41,286	16,008	1425,582	794,228
-40,271	15,986	1424,424	793,449
-39,257	16,012	1423,052	792,776
-38,242	16,045	1421,688	792,140
-37,227	16,011	1420,564	791,322
-36,213	15,992	1419,194	790,439
-35,198	15,978	1418,121	789,744
-34,184	16,026	1417,215	789,432
-33,169	15,933	1416,121	788,356
-32,154	16,023	1414,913	788,075
-31,140	16,056	1413,564	787,448
-30,125	16,033	1412,324	786,616
-29,111	16,008	1411,331	785,916
-28,096	16,021	1410,190	785,310
-27,082	15,969	1409,077	784,414
-26,067	15,957	1407,906	783,676
-25,052	15,950	1406,796	782,997
-24,038	15,922	1405,896	782,330
-23,023	15,956	1404,666	781,776
-22,009	15,901	1403,840	781,028
-20,994	15,852	1403,176	780,398
-19,979	15,870	1402,064	779,836
-18,965	15,811	1401,235	779,065
-17,950	15,868	1400,098	778,670
-16,936	15,875	1399,323	778,239
-15,921	15,845	1397,688	777,162
-14,906	15,847	1397,032	776,773
-13,892	15,853	1396,091	776,250
-12,877	15,814	1395,167	775,521
-11,863	15,891	1393,981	775,187
-10,848	15,820	1393,422	774,516
-9,833	15,787	1392,487	773,816
-8,819	15,771	1391,561	773,197
-7,804	15,765	1390,499	772,545
-6,790	15,729	1389,499	771,797
-5,775	15,767	1388,313	771,282
-4,760	15,755	1387,676	770,839
-3,746	15,717	1386,838	770,168
-2,731	15,722	1386,083	769,744
-1,717	15,749	1384,844	769,147
-0,702	15,744	1383,105	768,130
0,313	19,460	1303,748	741,240
1,327	35,717	706,558	439,411
2,342	54,568	125,161	85,414
3,356	1,527	16,659	8,471
4,371	-3,777	3,131	1,536
5,386	-9,931	0,460	0,216
6,400	-200,000	0,012	0,102
7,415	-126,185	-0,187	-0,020
8,429	-5,168	-0,294	-0,143
9,444	30,266	-0,320	-0,193
10,459	41,376	-0,345	-0,221
11,473	-6,368	-0,394	-0,190
12,488	198,498	-0,322	-0,349
13,502	12,463	-0,384	-0,209
14,517	43,435	-0,248	-0,160
15,531	261,852	-0,363	-0,446
16,546	320,596	-0,244	-0,330
17,561	118,350	-0,352	-0,307
18,575	16,754	-0,193	-0,108
19,590	488,525	-0,131	-0,213
20,604	-19,167	-0,242	-0,106
21,619	162,410	-0,406	-0,403
22,634	192,060	-0,430	-0,460
23,648	3,439	-0,483	-0,248
24,663	80,523	-0,441	-0,336
25,677	88,105	-0,344	-0,270
26,692	32,096	-0,422	-0,257
27,707	149,586	-0,223	-0,214
28,721	116,079	-0,397	-0,344
29,736	147,500	-0,358	-0,341
30,750	96,980	-0,440	-0,356
31,765	90,666	-0,330	-0,261
32,780	33,011	-0,394	-0,241
33,794	167,542	-0,274	-0,275
34,809	26,163	-0,296	-0,174
35,823	5,076	-0,260	-0,135
36,838	242,887	-0,401	-0,476
37,853	75,018	-0,396	-0,295
38,867	114,977	-0,340	-0,293
39,882	-3,514	-0,376	-0,184
40,896	122,144	-0,300	-0,265
41,911	66,171	-0,320	-0,229
42,926	-9,156	-0,307	-0,145
43,940	77,060	-0,376	-0,282
44,955	92,284	-0,427	-0,340
45,969	122,746	-0,264	-0,233
46,984	94,405	-0,386	-0,310
47,999	11,548	-0,336	-0,181
49,013	-58,530	-0,283	-0,086
50,028	268,338	-0,304	-0,377
51,042	113,265	-0,364	-0,311
52,057	38,974	-0,321	-0,202
53,071	249,847	-0,212	-0,254
54,086	52,566	-0,320	-0,215
55,101	82,055	-0,279	-0,213
56,115	52,553	-0,358	-0,241
57,130	6,620	-0,333	-0,174
58,144	-34,243	-0,349	-0,135
59,159	96,154	-0,377	-0,304
60,174	229,981	-0,269	-0,311
61,188	67,539	-0,290	-0,209
62,203	2,633	-0,354	-0,181
63,217	127,180	-0,373	-0,333
64,232	59,393	-0,354	-0,246
65,247	82,838	-0,359	-0,275
66,261	161,263	-0,441	-0,435
67,276	179,513	-0,312	-0,323
68,290	50,321	-0,372	-0,247
69,305	2,389	-0,388	-0,197
70,320	22,667	-0,254	-0,146
71,334	133,313	-0,251	-0,229
72,349	8,960	-0,288	-0,153
73,363	102,903	-0,354	-0,292
74,378	125,606	-0,357	-0,317
75,393	65,423	-0,278	-0,198
76,407	-140,673	-0,312	-0,022
77,422	185,773	-0,254	-0,266
78,436	132,825	-0,352	-0,320
79,451	-100,078	-0,270	-0,047
80,466	187,554	-0,284	-0,299
81,480	72,212	-0,346	-0,254
82,495	7,098	-0,274	-0,143
83,509	204,687	-0,214	-0,234
84,524	36,038	-0,369	-0,228
85,539	69,009	-0,349	-0,252
86,553	193,134	-0,323	-0,345
87,568	27,161	-0,395	-0,233
88,582	133,436	-0,326	-0,296
89,597	122,606	-0,227	-0,200
90,611	84,256	-0,279	-0,214
91,626	83,841	-0,184	-0,141
92,641	-45,759	-0,343	-0,119
93,655	49,965	-0,303	-0,201
94,670	-3,857	-0,235	-0,114
95,684	13,277	-0,375	-0,204
96,699	0,267	-0,302	-0,151
97,714	67,768	-0,280	-0,201
98,728	31,565	-0,237	-0,143
99,743	79,268	-0,188	-0,141
100,757	51,860	-0,192	-0,128
101,772	201,902	-0,261	-0,283
102,787	168,796	-0,251	-0,251
103,801	164,685	-0,215	-0,214
104,816	37,542	-0,297	-0,185
105,830	70,683	-0,170	-0,124
106,845	122,288	-0,192	-0,169
107,860	83,268	-0,204	-0,156
108,874	-28,890	-0,370	-0,149
109,889	439,888	-0,182	-0,281
110,903	72,880	-0,281	-0,206
111,918	252,756	-0,256	-0,307
112,933	80,197	-0,229	-0,173
113,947	82,655	-0,185	-0,141
114,962	-40,637	-0,232	-0,084
115,976	118,470	-0,210	-0,182
116,991	63,870	-0,279	-0,197
118,006	-165,598	-0,321	-0,010
119,020	145,769	-0,239	-0,225
120,035	87,758	-0,297	-0,231
121,049	0,396	-0,250	-0,125
122,064	13,636	-0,192	-0,105
123,079	-41,260	-0,389	-0,140
124,093	258,816	-0,216	-0,262
125,108	99,006	-0,248	-0,201
126,122	168,747	-0,268	-0,268
127,137	800,000	-0,122	-0,304
128,151	800,000	-0,086	-0,263
129,166	90,315	-0,282	-0,221
130,181	-22,474	-0,282	-0,119
131,195	7,960	-0,371	-0,194
132,210	105,181	-0,272	-0,225
133,224	162,180	-0,286	-0,281
134,239	-14,943	-0,350	-0,157
135,254	18,345	-0,341	-0,190
136,268	-14,121	-0,256	-0,115
137,283	17,300	-0,164	-0,091
138,297	114,823	-0,243	-0,208
139,312	-46,909	-0,217	-0,074
140,327	800,000	-0,180	-0,361
141,341	178,498	-0,184	-0,188
142,356	199,189	-0,238	-0,256
143,370	58,857	-0,187	-0,128
144,385	58,026	-0,253	-0,173
145,400	129,760	-0,110	-0,099
146,414	-3,538	-0,346	-0,168
147,429	-28,007	-0,186	-0,075
148,443	-95,864	-0,189	-0,035
149,458	65,651	-0,260	-0,184
150,473	-120,220	-0,234	-0,028
151,487	703,541	-0,097	-0,179
152,502	-41,936	-0,176	-0,063
153,516	453,338	-0,094	-0,147
154,531	335,740	-0,141	-0,192
155,546	800,000	-0,147	-0,310
156,560	116,024	-0,203	-0,174
157,575	176,204	-0,207	-0,210
158,589	32,818	-0,166	-0,100
159,604	75,906	-0,268	-0,198
160,619	-3,381	-0,283	-0,137
161,633	3,153	-0,179	-0,091
162,648	-3,459	-0,178	-0,086
163,662	178,160	-0,138	-0,141
164,677	-145,941	-0,245	0,015
165,692	351,767	-0,215	-0,299
166,706	229,011	-0,234	-0,267
167,721	71,558	-0,281	-0,204
168,735	381,147	-0,162	-0,233
169,750	345,160	-0,130	-0,179
170,764	280,346	-0,205	-0,257
171,779	-87,521	-0,220	-0,046
172,794	87,284	-0,220	-0,170
173,808	-0,308	-0,221	-0,109
174,823	800,000	-0,171	-0,361
175,837	31,073	-0,180	-0,107
176,852	387,423	-0,134	-0,194
177,867	-8,623	-0,287	-0,134
178,881	35,237	-0,190	-0,116
179,896	241,420	-0,113	-0,133
180,910	8,733	-0,183	-0,096
181,925	402,425	-0,226	-0,332
182,940	62,088	-0,218	-0,151
183,954	180,024	-0,162	-0,166
184,969	110,669	-0,184	-0,155
185,983	87,798	-0,128	-0,099
186,998	198,300	-0,168	-0,179
188,013	108,158	-0,236	-0,196
189,027	31,408	-0,245	-0,146
190,042	34,344	-0,326	-0,198
191,056	163,478	-0,164	-0,161
192,071	36,380	-0,205	-0,126
193,086	-22,335	-0,106	-0,045
194,100	368,613	-0,115	-0,163
195,115	9,645	-0,288	-0,152
196,129	612,389	-0,137	-0,239
197,144	188,063	-0,211	-0,220
198,159	800,000	-0,082	-0,185
199,173	698,804	-0,094	-0,173
200,188	-143,012	-0,201	-0,013
201,202	405,393	-0,167	-0,246
202,217	17,869	-0,209	-0,116
203,232	103,198	-0,227	-0,185
204,246	154,762	-0,209	-0,200
205,261	354,176	-0,185	-0,256
206,275	0,565	-0,212	-0,105
207,290	71,913	-0,215	-0,156
208,304	112,205	-0,246	-0,207
209,319	-17,653	-0,184	-0,080
210,334	-57,628	-0,233	-0,071
211,348	147,249	-0,220	-0,207
212,363	301,382	-0,218	-0,282
213,377	117,069	-0,244	-0,208
214,392	19,177	-0,104	-0,058
215,407	-200,000	0,003	-0,210
216,421	68,882	-0,194	-0,138
217,436	308,311	-0,192	-0,249
218,450	119,702	-0,164	-0,142
219,465	89,867	-0,325	-0,253
220,480	41,793	-0,160	-0,100
221,494	800,000	-0,102	-0,218
222,509	636,118	-0,097	-0,172
223,523	172,980	-0,116	-0,116
224,538	-63,062	-0,177	-0,051
225,553	-7,293	-0,118	-0,055
226,567	72,560	-0,281	-0,203
227,582	188,068	-0,155	-0,161
228,596	211,832	-0,134	-0,147
229,611	-58,528	-0,054	-0,016
230,626	30,249	-0,253	-0,150
231,640	183,108	-0,275	-0,283
232,655	206,600	-0,218	-0,237
233,669	800,000	-0,078	-0,218
234,684	787,770	-0,132	-0,252
235,699	573,998	-0,119	-0,202
236,713	131,965	-0,161	-0,144
237,728	380,838	-0,107	-0,152
238,742	-123,941	-0,272	-0,029
239,757	202,235	-0,183	-0,197
240,772	-25,180	-0,167	-0,068
241,786	-2,457	-0,268	-0,130
242,801	7,659	-0,152	-0,079
243,815	-80,085	-0,217	0,050
244,830	189,003	-0,140	-0,146
245,844	94,737	-0,114	-0,090
246,859	608,949	-0,093	-0,162
247,874	159,078	-0,216	-0,208
248,888	23,805	-0,267	-0,152
249,903	96,268	-0,182	-0,144
250,917	-200,000	-0,082	-0,252
251,932	-168,994	-0,145	0,004
252,947	98,595	-0,228	-0,183
253,961	-95,052	-0,122	-0,023
254,976	16,552	-0,207	-0,113
255,990	435,346	-0,125	-0,189
257,005	-94,923	-0,280	-0,052
258,020	-186,718	-0,262	0,002
259,034	86,518	-0,180	-0,138
260,049	305,852	-0,131	-0,169
261,063	800,000	-0,095	-0,184
262,078	100,867	-0,186	-0,150
263,093	238,345	-0,119	-0,137
264,107	-101,331	-0,228	-0,038
265,122	-38,732	-0,101	-0,037
266,136	-76,376	-0,179	-0,043
267,151	11,732	-0,181	-0,096
268,166	271,075	-0,134	-0,164
269,180	138,414	-0,208	-0,189
270,195	-6,874	-0,276	-0,129
271,209	21,837	-0,217	-0,122
272,224	200,582	-0,155	-0,165
273,239	203,270	-0,175	-0,188
274,253	-0,492	-0,181	-0,089
275,268	800,000	-0,121	-0,233
276,282	214,459	-0,131	-0,144
277,297	-23,885	-0,274	-0,113
278,312	85,646	-0,183	-0,139
279,326	-200,000	-0,069	-0,225
280,341	283,887	-0,070	-0,087
281,355	284,096	-0,168	-0,210
282,370	-42,647	-0,138	0,049
283,384	-146,717	-0,192	0,011
284,399	187,369	-0,102	-0,106
285,414	47,553	-0,156	-0,100
286,428	-26,165	-0,283	-0,114
287,443	-158,955	-0,198	0,008
288,457	800,000	-0,077	-0,175
289,472	-54,567	-0,224	-0,070
290,487	104,261	-0,154	-0,125
291,501	246,231	-0,195	-0,227
292,516	26,363	-0,248	-0,143
293,530	82,214	-0,114	-0,085
294,545	181,927	-0,093	-0,095
295,560	102,558	-0,148	-0,119
296,574	247,870	-0,108	-0,126
297,589	-73,172	-0,126	-0,032
298,603	-145,183	-0,226	0,014
299,618	-75,131	-0,238	-0,058
300,633	-2,309	-0,227	-0,110
301,647	15,823	-0,073	-0,039
302,662	99,399	-0,183	-0,146
303,676	28,428	-0,241	-0,140
304,691	208,739	-0,124	-0,134
305,706	330,951	-0,127	-0,169
306,720	-133,381	-0,103	-0,009
307,735	-133,159	-0,272	0,023
308,749	-200,000	-0,006	0,044
309,764	-33,228	-0,086	0,033
310,779	85,314	-0,135	0,102
311,793	-132,365	-0,174	-0,015
312,808	277,585	-0,166	-0,204
313,822	465,412	-0,125	-0,194
314,837	-134,762	-0,188	-0,016
315,852	67,921	-0,084	-0,060
316,866	800,000	-0,041	-0,113
317,881	157,297	-0,099	-0,095
318,895	-9,463	-0,196	-0,090
319,910	800,000	-0,099	-0,233
320,925	-200,000	0,001	-0,038
321,939	60,563	-0,091	-0,062
322,954	12,356	-0,117	-0,062
323,968	-0,972	-0,194	-0,094
324,983	-19,943	-0,117	-0,050
325,997	153,280	-0,185	-0,175
327,012	800,000	-0,106	-0,297
328,027	336,236	-0,079	-0,105
329,041	634,053	-0,092	-0,161
330,056	47,291	-0,112	-0,072
331,070	84,121	-0,047	-0,035
332,085	-139,217	-0,042	-0,003
333,100	800,000	-0,085	-0,216
334,114	-14,583	-0,096	-0,042
335,129	-148,250	-0,133	-0,007
336,143	36,012	-0,108	0,065
337,158	-136,376	-0,030	0,002
338,173	97,012	-0,199	-0,157
339,187	800,000	-0,106	-0,220
340,202	-157,567	-0,062	-0,003
341,216	67,599	-0,183	-0,128
342,231	216,178	-0,184	-0,202
343,246	-99,454	-0,074	-0,013
344,260	470,273	-0,044	-0,068
345,275	-164,881	-0,158	0,005
346,289	176,158	-0,133	-0,133
347,304	-127,936	-0,129	-0,013
348,319	494,603	-0,060	-0,095
349,333	-200,000	-0,027	-0,120
350,348	33,253	-0,107	-0,064
351,362	800,000	-0,062	-0,146
352,377	-200,000	-0,008	-0,103
353,392	-14,422	-0,182	-0,080
354,406	458,555	-0,118	-0,181
355,421	210,115	1313,224	1418,524
356,435	161,742	1473,800	1419,054
