DTS Sentinel unit serial number:	SN410029Multiplexer serial number:	ORYXHardware model number:	OX2-SRSoftware version number:	ORYX F/W v4,00 Oryx Data Collector v3.7.2.0data status	okinstallation	B3 Nyhavnadifferential loss correction	single-endedforward channel	channel 1reverse channel	N/Adate	2023/11/29time	22:07:30forward acquisition time	300,00reverse acquisition time	0,00gamma	499,1914k internal	0,3210k external	0,3210temperature offset calibration	1,0000default loss term (dB/km)	0,3820temperature slope calibration	1,0000multiplexer offset coefficient	1,0000multiplexer slope coefficient	1,0000fibre end	0,00T internal ref (°C)	10,81T ext. ref 1 (°C)	-4,29T ext. ref 2 (°C)	-4,38length (m)	temperature (°C)	Stokes	anti-Stokes-744,400	85,120	-0,203	-0,162
-743,385	-200,000	0,012	0,251
-742,371	607,460	-0,155	-0,282
-741,356	-200,000	-0,018	0,285
-740,342	-16,956	-0,268	-0,122
-739,327	-200,000	-0,065	0,250
-738,312	111,115	-0,225	-0,197
-737,298	800,000	-0,098	0,200
-736,283	273,446	-0,106	-0,137
-735,269	-200,000	0,019	0,299
-734,254	800,000	-0,122	-0,266
-733,239	0,622	-0,130	0,067
-732,225	511,551	-0,060	-0,103
-731,210	319,541	0,145	0,199
-730,196	-41,711	-0,014	-0,005
-729,181	335,577	0,059	-0,083
-728,167	166,197	0,044	-0,045
-727,152	-200,000	0,014	0,061
-726,137	800,000	0,031	-0,072
-725,123	-200,000	0,012	-0,051
-724,108	233,518	0,051	-0,061
-723,094	-200,000	-0,019	-0,097
-722,079	-56,468	-0,094	-0,030
-721,064	77,633	0,051	-0,040
-720,050	94,044	-0,016	-0,013
-719,035	116,774	-0,028	-0,025
-718,021	-200,000	-0,011	-0,155
-717,006	-200,000	-0,010	-0,085
-715,991	-22,180	0,066	0,029
-714,977	671,923	-0,082	-0,154
-713,962	800,000	0,043	0,098
-712,948	-98,059	0,052	-0,010
-711,933	-114,973	-0,116	-0,016
-710,918	110,201	-0,080	0,070
-709,904	-101,769	-0,128	-0,022
-708,889	454,072	-0,058	-0,093
-707,875	-173,313	-0,066	-0,001
-706,860	-74,313	0,120	-0,031
-705,845	-200,000	0,007	0,060
-704,831	800,000	-0,015	0,040
-703,816	-48,756	0,082	0,028
-702,802	-200,000	0,001	-0,226
-701,787	57,877	-0,094	-0,066
-700,772	-200,000	0,012	-0,119
-699,758	747,565	-0,047	-0,092
-698,743	-74,418	-0,089	0,023
-697,729	-25,997	0,080	0,034
-696,714	800,000	0,022	-0,068
-695,699	408,740	-0,058	-0,089
-694,685	-177,804	-0,098	-0,002
-693,670	272,564	0,023	-0,030
-692,656	299,741	0,056	-0,075
-691,641	-94,554	-0,021	0,004
-690,627	540,982	0,117	0,203
-689,612	-200,000	0,012	0,047
-688,597	103,644	-0,111	-0,094
-687,583	800,000	-0,026	-0,055
-686,568	800,000	-0,095	-0,193
-685,554	72,416	-0,098	-0,074
-684,539	-94,489	0,137	0,027
-683,524	-82,061	0,171	0,040
-682,510	-139,688	-0,019	-0,001
-681,495	-76,678	-0,085	0,021
-680,481	46,662	0,037	-0,025
-679,466	800,000	-0,032	0,098
-678,451	-200,000	-0,011	-0,150
-677,437	800,000	-0,044	-0,092
-676,422	-96,679	0,058	-0,011
-675,408	132,735	-0,013	0,013
-674,393	-192,211	-0,104	-0,001
-673,378	21,861	-0,157	-0,092
-672,364	8,513	-0,101	0,055
-671,349	103,452	0,113	-0,096
-670,335	106,918	-0,050	-0,043
-669,320	-200,000	-0,030	-0,120
-668,305	225,676	0,078	-0,091
-667,291	800,000	0,027	-0,057
-666,276	73,108	-0,035	-0,026
-665,262	-200,000	-0,013	0,046
-664,247	800,000	-0,067	-0,148
-663,232	-36,282	-0,106	-0,041
-662,218	-68,733	0,098	-0,027
-661,203	800,000	0,045	0,131
-660,189	-74,569	-0,086	0,022
-659,174	-158,606	-0,124	-0,005
-658,159	-9,672	-0,160	-0,077
-657,145	-200,000	0,011	-0,043
-656,130	-109,991	-0,092	-0,014
-655,116	52,529	0,139	-0,096
-654,101	6,622	0,061	0,033
-653,086	800,000	0,032	0,098
-652,072	454,051	-0,086	0,139
-651,057	-80,862	-0,091	-0,022
-650,043	228,415	0,031	0,037
-649,028	97,850	-0,123	-0,102
-648,014	232,372	0,083	-0,099
-646,999	-200,000	-0,005	-0,040
-645,984	-3,690	0,052	-0,026
-644,970	-39,945	0,151	-0,057
-643,955	-149,810	-0,119	0,007
-642,941	800,000	-0,057	0,163
-641,926	272,634	-0,059	0,076
-640,911	478,812	-0,027	-0,045
-639,897	30,419	0,045	-0,028
-638,882	800,000	-0,098	0,222
-637,868	175,866	-0,097	-0,102
-636,853	72,497	-0,014	0,010
-635,838	528,730	-0,060	-0,103
-634,824	51,959	0,042	-0,029
-633,809	16,343	0,071	0,041
-632,795	-200,000	0,038	0,149
-631,780	800,000	-0,053	0,109
-630,765	-200,000	-0,026	0,104
-629,751	209,565	0,027	-0,031
-628,736	134,287	-0,094	0,088
-627,722	454,840	-0,060	-0,096
-626,707	-200,000	-0,005	-0,078
-625,692	-137,343	0,077	-0,006
-624,678	582,648	-0,033	0,059
-623,663	800,000	0,031	-0,071
-622,649	-55,869	-0,033	-0,011
-621,634	754,536	-0,012	-0,023
-620,619	-200,000	-0,007	-0,042
-619,605	-191,985	-0,023	-0,000
-618,590	-200,000	0,006	-0,190
-617,576	800,000	-0,032	-0,096
-616,561	-10,502	-0,174	0,083
-615,546	-15,331	0,064	-0,029
-614,532	-96,102	0,040	-0,008
-613,517	32,127	-0,099	-0,061
-612,503	180,442	0,094	0,099
-611,488	800,000	0,017	0,040
-610,474	50,457	0,057	0,039
-609,459	213,100	0,018	0,021
-608,444	-40,748	0,035	0,013
-607,430	-200,000	-0,006	-0,082
-606,415	-31,621	-0,122	-0,049
-605,401	672,657	-0,073	-0,136
-604,386	382,455	0,093	0,138
-603,371	-200,000	0,039	0,152
-602,357	-200,000	-0,003	0,097
-601,342	286,377	-0,056	-0,073
-600,328	800,000	-0,076	-0,182
-599,313	-60,341	0,054	-0,016
-598,298	96,012	0,042	-0,035
-597,284	106,826	0,135	0,116
-596,269	-200,000	-0,002	0,143
-595,255	-154,363	-0,121	-0,006
-594,240	-27,565	-0,057	0,024
-593,225	3,064	0,049	0,026
-592,211	800,000	0,024	0,074
-591,196	-60,098	0,098	-0,030
-590,182	800,000	-0,036	-0,088
-589,167	-200,000	-0,046	0,208
-588,152	60,531	0,034	0,024
-587,138	800,000	0,046	0,097
-586,123	-124,829	-0,060	0,007
-585,109	-200,000	-0,008	-0,044
-584,094	180,710	0,066	0,069
-583,079	-84,691	-0,077	-0,017
-582,065	-200,000	0,017	0,056
-581,050	-200,000	-0,009	0,043
-580,036	-200,000	-0,008	0,046
-579,021	-115,936	0,057	0,008
-578,006	189,883	-0,068	0,073
-576,992	-76,156	-0,177	0,045
-575,977	-119,556	0,086	0,011
-574,963	800,000	0,025	-0,056
-573,948	108,104	-0,023	-0,020
-572,934	48,246	0,059	0,040
-571,919	111,862	-0,133	-0,116
-570,904	300,471	-0,040	-0,053
-569,890	352,139	-0,037	-0,052
-568,875	-200,000	-0,015	0,055
-567,861	89,597	-0,114	0,092
-566,846	-200,000	0,017	0,074
-565,831	47,016	0,077	-0,051
-564,817	102,621	0,047	-0,040
-563,802	-200,000	0,009	-0,086
-562,788	20,985	-0,037	-0,022
-561,773	-146,560	-0,073	0,005
-560,758	288,374	0,050	0,066
-559,744	92,939	-0,127	-0,103
-558,729	77,500	-0,056	-0,043
-557,715	467,494	-0,008	0,013
-556,700	800,000	-0,023	0,068
-555,685	-143,588	0,123	-0,008
-554,671	539,128	0,085	0,145
-553,656	237,672	-0,049	-0,059
-552,642	-200,000	0,027	-0,094
-551,627	236,161	0,052	-0,062
-550,612	51,384	-0,096	-0,066
-549,598	-78,140	-0,054	0,013
-548,583	-200,000	-0,014	-0,089
-547,569	-57,710	0,125	-0,039
-546,554	588,199	0,022	0,040
-545,539	399,979	-0,045	0,068
-544,525	-61,447	0,045	0,014
-543,510	206,898	0,054	0,060
-542,496	343,054	-0,095	-0,135
-541,481	-200,000	-0,014	-0,091
-540,466	-86,740	-0,045	0,010
-539,452	-200,000	0,002	-0,044
-538,437	-108,359	0,107	0,016
-537,423	244,696	-0,048	-0,058
-536,408	434,844	-0,061	-0,096
-535,393	-200,000	-0,006	-0,074
-534,379	-38,770	-0,137	-0,052
-533,364	-146,364	0,066	-0,004
-532,350	800,000	0,011	-0,036
-531,335	-200,000	-0,016	0,059
-530,321	-151,519	-0,079	0,004
-529,306	49,675	-0,018	-0,012
-528,291	-111,350	-0,116	0,017
-527,277	-200,000	-0,012	0,118
-526,262	-200,000	0,046	-0,155
-525,248	-200,000	0,009	0,085
-524,233	800,000	0,035	0,089
-523,218	-121,368	0,075	0,009
-522,204	-200,000	0,003	0,042
-521,189	-57,443	-0,092	-0,029
-520,175	-98,767	-0,074	-0,013
-519,160	31,114	-0,052	-0,032
-518,145	136,601	-0,109	0,102
-517,131	-66,900	0,070	0,020
-516,116	-148,483	0,074	-0,004
-515,102	800,000	-0,020	0,043
-514,087	-77,363	0,031	0,008
-513,072	294,602	-0,031	0,041
-512,058	-73,236	0,022	-0,006
-511,043	5,858	0,074	-0,039
-510,029	89,213	0,084	-0,067
-509,014	83,755	-0,101	0,079
-507,999	-106,704	-0,067	-0,011
-506,985	78,187	-0,074	-0,057
-505,970	217,256	0,118	-0,135
-504,956	670,231	0,002	-0,004
-503,941	145,737	0,086	0,083
-502,926	409,002	-0,078	-0,119
-501,912	-174,437	0,040	0,001
-500,897	-200,000	-0,006	0,033
-499,883	45,898	0,074	0,049
-498,868	800,000	-0,020	-0,047
-497,853	-136,086	-0,147	-0,012
-496,839	-31,181	0,093	0,037
-495,824	-46,285	0,068	-0,024
-494,810	93,613	0,028	-0,023
-493,795	3,706	-0,083	-0,043
-492,781	-200,000	-0,006	-0,018
-491,766	-54,969	-0,096	-0,031
-490,751	-200,000	-0,012	-0,104
-489,737	330,972	-0,054	0,075
-488,722	800,000	0,069	0,142
-487,708	800,000	-0,036	0,082
-486,693	-64,504	-0,092	0,027
-485,678	81,690	0,157	0,122
-484,664	-37,109	0,036	0,014
-483,649	-8,276	-0,074	0,035
-482,635	-200,000	0,002	-0,143
-481,620	520,121	0,077	-0,130
-480,605	-107,367	0,208	0,032
-479,591	96,382	-0,084	-0,069
-478,576	-40,746	0,029	-0,011
-477,562	151,738	-0,040	0,039
-476,547	-114,257	-0,072	-0,010
-475,532	-200,000	-0,033	-0,204
-474,518	445,276	0,011	-0,017
-473,503	-29,102	0,105	0,043
-472,489	-42,307	-0,050	0,018
-471,474	-200,000	0,006	0,074
-470,459	-160,410	-0,094	0,004
-469,445	120,710	-0,027	-0,024
-468,430	800,000	-0,058	-0,119
-467,416	-53,168	0,101	-0,033
-466,401	800,000	0,054	0,115
-465,386	108,079	-0,138	0,118
-464,372	615,622	-0,055	0,100
-463,357	-58,863	-0,194	0,060
-462,343	56,196	-0,060	0,042
-461,328	-135,438	0,158	0,013
-460,313	22,247	0,042	-0,024
-459,299	295,277	0,082	0,108
-458,284	800,000	0,036	-0,092
-457,270	-200,000	0,000	0,050
-456,255	-33,979	-0,101	-0,040
-455,241	800,000	-0,027	0,068
-454,226	-166,314	-0,018	0,001
-453,211	-57,414	0,114	-0,036
-452,197	270,660	-0,113	0,143
-451,182	19,010	0,121	0,069
-450,168	800,000	-0,045	-0,090
-449,153	-200,000	0,027	-0,147
-448,138	800,000	-0,026	-0,074
-447,124	-100,893	0,123	0,021
-446,109	-26,562	0,168	-0,070
-445,095	309,745	-0,029	-0,039
-444,080	44,648	0,060	-0,039
-443,065	51,817	0,078	-0,053
-442,051	109,592	-0,042	-0,036
-441,036	212,205	0,021	-0,024
-440,022	-57,267	-0,058	-0,018
-439,007	-79,736	0,098	-0,023
-437,992	119,514	0,093	-0,082
-436,978	-111,723	0,064	0,009
-435,963	-200,000	0,002	0,122
-434,949	-200,000	-0,006	-0,038
-433,934	224,984	0,070	-0,081
-432,919	691,339	-0,068	0,128
-431,905	148,518	0,061	-0,059
-430,890	352,386	-0,117	0,166
-429,876	74,240	0,044	-0,033
-428,861	-200,000	0,010	0,106
-427,846	7,611	0,048	-0,025
-426,832	165,512	-0,032	-0,033
-425,817	-200,000	0,023	-0,090
-424,803	303,790	-0,092	-0,122
-423,788	385,041	-0,027	-0,040
-422,773	536,318	0,035	-0,060
-421,759	800,000	-0,029	-0,063
-420,744	5,295	0,113	0,060
-419,730	-200,000	-0,002	-0,039
-418,715	-3,576	-0,094	-0,047
-417,701	-26,904	0,113	-0,047
-416,686	716,817	-0,021	-0,039
-415,671	134,226	0,063	-0,058
-414,657	644,208	0,022	0,040
-413,642	47,017	0,097	0,065
-412,628	-34,065	-0,113	0,044
-411,613	521,197	-0,095	-0,160
-410,598	-200,000	-0,007	-0,129
-409,584	248,063	0,064	-0,078
-408,569	800,000	-0,036	0,109
-407,555	190,475	-0,098	0,106
-406,540	150,383	0,133	0,130
-405,525	-63,862	-0,033	-0,010
-404,511	222,385	0,049	-0,057
-403,496	106,753	-0,014	-0,012
-402,482	286,469	-0,129	0,166
-401,467	-5,279	-0,111	0,055
-400,452	-200,000	-0,026	-0,089
-399,438	-34,624	-0,056	0,022
-398,423	800,000	0,060	0,135
-397,409	-200,000	-0,012	0,000
-396,394	332,367	0,053	-0,073
-395,379	-85,458	-0,087	-0,019
-394,365	-200,000	0,008	0,063
-393,350	-27,966	0,143	0,059
-392,336	-36,632	-0,161	0,062
-391,321	-200,000	0,009	-0,074
-390,306	-126,955	0,150	-0,016
-389,292	29,436	0,165	0,100
-388,277	-176,554	-0,129	0,002
-387,263	-90,296	0,118	-0,024
-386,248	38,635	0,072	0,046
-385,233	-33,193	0,088	0,035
-384,219	-200,000	0,006	0,088
-383,204	112,934	-0,075	-0,065
-382,190	326,109	-0,032	-0,044
-381,175	2,818	0,128	0,066
-380,160	-16,214	0,087	0,039
-379,146	-200,000	0,007	-0,036
-378,131	293,791	0,060	-0,079
-377,117	45,143	-0,047	0,031
-376,102	-124,063	-0,153	-0,017
-375,088	-87,801	-0,125	0,027
-374,073	60,504	0,136	0,096
-373,058	-200,000	0,035	0,220
-372,044	800,000	-0,036	-0,087
-371,029	800,000	-0,026	0,074
-370,015	-111,402	0,087	0,012
-369,000	-200,000	-0,023	0,092
-367,985	80,301	-0,052	0,040
-366,971	184,420	-0,093	0,099
-365,956	85,709	0,050	0,039
-364,942	96,195	0,108	0,088
-363,927	-200,000	-0,015	0,086
-362,912	-170,815	-0,018	0,000
-361,898	-35,483	-0,154	-0,059
-360,883	461,558	-0,046	-0,073
-359,869	800,000	0,013	0,026
-358,854	124,938	0,015	-0,013
-357,839	171,050	0,072	0,074
-356,825	26,357	0,161	0,096
-355,810	239,756	-0,038	0,046
-354,796	800,000	0,041	-0,106
-353,781	-200,000	0,006	0,055
-352,766	550,527	-0,027	0,046
-351,752	-200,000	-0,028	-0,199
-350,737	161,063	-0,023	0,023
-349,723	-200,000	0,001	0,150
-348,708	800,000	0,057	0,135
-347,693	389,875	0,058	-0,086
-346,679	41,505	-0,061	-0,039
-345,664	-200,000	-0,027	-0,190
-344,650	552,158	0,025	0,043
-343,635	-33,785	0,156	-0,061
-342,620	137,715	0,032	0,030
-341,606	69,361	0,052	0,038
-340,591	-200,000	-0,021	-0,129
-339,577	800,000	-0,007	0,018
-338,562	134,353	-0,153	-0,142
-337,548	-200,000	0,018	-0,131
-336,533	-200,000	-0,017	-0,103
-335,518	800,000	0,010	-0,022
-334,504	-63,114	-0,083	-0,024
-333,489	800,000	-0,043	-0,088
-332,475	-200,000	0,013	0,049
-331,460	-121,879	0,076	0,009
-330,445	-79,275	-0,061	0,015
-329,431	389,564	-0,037	-0,055
-328,416	256,164	-0,062	0,076
-327,402	-100,457	-0,092	-0,016
-326,387	800,000	-0,032	0,081
-325,372	-69,024	-0,164	-0,045
-324,358	-55,118	-0,114	-0,036
-323,343	-200,000	0,015	0,088
-322,329	-200,000	0,020	0,108
-321,314	474,106	-0,043	0,069
-320,299	61,089	0,075	0,053
-319,285	800,000	-0,032	0,093
-318,270	800,000	0,045	0,132
-317,256	-166,017	-0,139	-0,004
-316,241	-200,000	0,019	-0,094
-315,226	-108,068	-0,019	0,003
-314,212	800,000	0,037	0,103
-313,197	164,017	-0,022	-0,022
-312,183	143,909	-0,049	-0,047
-311,168	-106,853	-0,051	0,008
-310,153	326,300	0,055	0,075
-309,139	-200,000	-0,027	0,142
-308,124	352,564	0,033	0,046
-307,110	-43,566	0,151	0,054
-306,095	133,719	-0,073	0,068
-305,080	49,396	0,014	-0,009
-304,066	-200,000	-0,021	-0,098
-303,051	-3,060	0,035	-0,017
-302,037	-200,000	0,005	-0,048
-301,022	-138,929	0,193	-0,015
-300,008	-200,000	-0,034	-0,130
-298,993	522,675	-0,050	0,085
-297,978	-200,000	0,007	0,116
-296,964	800,000	-0,042	0,131
-295,949	-200,000	0,009	0,075
-294,935	-168,115	0,077	-0,002
-293,920	585,666	0,025	0,044
-292,905	-200,000	-0,007	-0,054
-291,891	-70,374	0,045	0,012
-290,876	-103,984	0,124	-0,020
-289,862	-117,895	0,152	0,019
-288,847	32,717	0,055	-0,034
-287,832	-71,526	-0,057	0,015
-286,818	112,034	0,071	-0,062
-285,803	-97,528	0,120	0,022
-284,789	-122,139	0,126	-0,015
-283,774	-32,931	0,100	0,039
-282,759	314,615	-0,021	-0,028
-281,745	-50,372	0,071	-0,024
-280,730	195,804	-0,077	-0,083
-279,716	-22,686	0,061	0,026
-278,701	800,000	0,043	0,097
-277,686	-192,136	0,178	0,001
-276,672	7,168	0,097	-0,051
-275,657	800,000	0,012	-0,035
-274,643	553,901	-0,035	-0,060
-273,628	-200,000	-0,018	0,063
-272,613	221,591	0,023	0,026
-271,599	-10,043	-0,051	-0,024
-270,584	-30,138	0,029	-0,012
-269,570	-165,823	0,111	0,003
-268,555	285,372	-0,042	-0,054
-267,540	29,214	-0,085	0,051
-266,526	800,000	-0,021	-0,041
-265,511	800,000	-0,039	-0,110
-264,497	83,458	0,074	0,058
-263,482	-122,406	-0,189	-0,022
-262,467	-200,000	0,000	0,127
-261,453	-200,000	0,037	0,186
-260,438	326,449	-0,073	0,100
-259,424	-97,404	-0,126	0,023
-258,409	560,138	0,067	-0,116
-257,395	-200,000	0,009	-0,063
-256,380	-0,598	0,058	0,029
-255,365	-87,471	-0,037	-0,008
-254,351	204,697	0,080	0,088
-253,336	-30,850	0,052	-0,021
-252,322	17,066	-0,042	-0,024
-251,307	213,644	-0,064	-0,072
-250,292	54,701	0,039	-0,027
-249,278	181,362	-0,086	0,090
-248,263	-200,000	0,000	-0,031
-247,249	18,649	0,016	0,009
-246,234	-200,000	-0,008	0,089
-245,219	-200,000	-0,017	-0,198
-244,205	-200,000	0,008	-0,056
-243,190	-33,147	0,102	-0,040
-242,176	30,313	0,137	-0,083
-241,161	380,845	0,068	0,099
-240,146	31,505	-0,034	0,021
-239,132	-200,000	0,011	-0,083
-238,117	112,115	0,061	-0,052
-237,103	-200,000	0,032	-0,134
-236,088	-200,000	0,003	0,094
-235,073	-39,389	0,021	0,008
-234,059	284,142	0,056	0,072
-233,044	681,152	0,031	0,057
-232,030	-200,000	0,013	-0,057
-231,015	-13,272	-0,111	-0,051
-230,000	-111,145	-0,121	0,017
-228,986	-97,670	-0,152	-0,028
-227,971	72,489	-0,029	-0,022
-226,957	-200,000	0,035	0,161
-225,942	37,937	-0,047	-0,030
-224,927	22,962	0,085	-0,049
-223,913	18,384	0,049	0,028
-222,898	738,686	0,014	0,026
-221,884	118,918	0,063	-0,055
-220,869	0,437	-0,105	0,053
-219,855	800,000	-0,031	0,088
-218,840	266,832	-0,046	0,058
-217,825	133,202	-0,028	-0,025
-216,811	-200,000	-0,010	-0,121
-215,796	-200,000	0,018	-0,082
-214,782	81,930	0,050	0,038
-213,767	0,051	-0,150	0,076
-212,752	152,759	0,083	0,081
-211,738	800,000	0,032	0,092
-210,723	-200,000	0,015	0,098
-209,709	162,084	0,056	0,056
-208,694	800,000	-0,065	-0,135
-207,679	-176,788	-0,052	-0,001
-206,665	284,694	-0,050	-0,064
-205,650	-8,906	0,051	0,024
-204,636	134,187	-0,081	0,074
-203,621	-200,000	-0,008	0,038
-202,606	800,000	0,017	-0,046
-201,592	-113,515	-0,058	-0,008
-200,577	401,888	-0,025	0,038
-199,563	-21,756	-0,048	0,021
-198,548	-56,758	0,106	-0,033
-197,533	78,647	0,014	0,011
-196,519	-200,000	-0,026	-0,107
-195,504	-200,000	0,039	-0,193
-194,490	800,000	-0,061	-0,136
-193,475	-1,738	-0,043	-0,021
-192,460	-31,260	-0,179	-0,071
-191,446	800,000	0,023	0,053
-190,431	224,141	0,010	0,012
-189,417	263,666	0,096	-0,119
-188,402	225,548	-0,064	-0,074
-187,387	-76,306	-0,075	0,019
-186,373	800,000	-0,034	-0,101
-185,358	-200,000	0,017	-0,081
-184,344	-64,273	0,175	0,050
-183,329	131,269	-0,093	0,085
-182,315	131,691	0,136	-0,124
-181,300	800,000	-0,026	-0,080
-180,285	-200,000	0,018	-0,144
-179,271	-33,493	-0,058	-0,023
-178,256	-89,252	0,069	0,014
-177,242	800,000	-0,056	0,135
-176,227	800,000	0,071	0,209
-175,212	-80,893	-0,127	0,030
-174,198	800,000	0,019	0,048
-173,183	152,942	0,052	-0,050
-172,169	-68,475	0,085	-0,023
-171,154	-162,221	-0,048	-0,002
-170,139	-200,000	-0,014	-0,080
-169,125	-72,090	0,084	0,022
-168,110	-95,935	0,043	0,008
-167,096	-90,583	-0,045	-0,009
-166,081	-53,078	0,079	-0,026
-165,066	-200,000	-0,009	-0,147
-164,052	322,105	-0,060	-0,082
-163,037	-29,549	0,072	-0,029
-162,023	-82,084	0,065	-0,015
-161,008	-0,148	0,063	-0,031
-159,993	795,493	-0,049	-0,096
-158,979	-200,000	0,001	-0,026
-157,964	-200,000	-0,001	0,009
-156,950	90,105	-0,102	-0,081
-155,935	800,000	-0,016	0,043
-154,920	-200,000	-0,003	0,115
-153,906	153,136	0,090	0,088
-152,891	-2,155	-0,179	-0,089
-151,877	203,579	-0,026	0,029
-150,862	89,668	-0,041	-0,033
-149,847	-121,495	-0,159	-0,018
-148,833	-200,000	-0,004	-0,060
-147,818	-0,236	0,094	0,047
-146,804	800,000	-0,028	-0,065
-145,789	89,761	-0,060	-0,047
-144,775	-200,000	0,003	-0,048
-143,760	14,269	0,044	-0,024
-142,745	800,000	0,069	-0,186
-141,731	-200,000	0,001	-0,056
-140,716	-53,025	-0,163	-0,053
-139,702	-200,000	-0,058	0,209
-138,687	255,845	0,078	0,095
-137,672	-22,933	-0,109	-0,046
-136,658	-19,311	-0,108	-0,047
-135,643	184,867	0,074	-0,078
-134,629	-200,000	-0,003	0,055
-133,614	-56,265	-0,122	-0,038
-132,599	-179,561	-0,040	0,001
-131,585	138,102	0,127	0,118
-130,570	754,573	0,072	-0,138
-129,556	800,000	0,022	0,065
-128,541	458,815	-0,099	-0,156
-127,526	387,046	0,082	-0,121
-126,512	800,000	0,047	0,124
-125,497	166,944	-0,035	0,035
-124,483	800,000	-0,019	0,050
-123,468	-200,000	0,003	0,093
-122,453	-89,318	-0,172	0,036
-121,439	-200,000	-0,010	-0,105
-120,424	127,954	-0,042	-0,038
-119,410	39,349	0,170	-0,108
-118,395	387,713	0,030	-0,045
-117,380	-200,000	-0,007	-0,131
-116,366	-200,000	-0,008	-0,077
-115,351	96,177	-0,049	-0,040
-114,337	14,989	0,075	-0,042
-113,322	800,000	-0,051	0,106
-112,307	-116,975	-0,048	0,006
-111,293	-88,404	0,102	0,021
-110,278	86,046	0,068	-0,053
-109,264	-145,518	0,107	-0,007
-108,249	539,468	-0,013	-0,022
-107,234	-13,786	-0,134	-0,061
-106,220	800,000	0,076	-0,194
-105,205	-200,000	-0,010	-0,045
-104,191	-142,960	0,098	0,007
-103,176	28,256	0,055	0,032
-102,162	800,000	0,054	0,146
-101,147	244,101	-0,047	0,055
-100,132	-200,000	-0,006	-0,058
-99,118	-97,013	-0,172	0,032
-98,103	502,857	-0,057	0,093
-97,089	-76,170	0,071	0,018
-96,074	775,651	-0,026	0,050
-95,059	800,000	-0,054	0,156
-94,045	216,905	0,076	0,086
-93,030	219,887	0,029	0,033
-92,016	-200,000	-0,006	-0,044
-91,001	202,187	-0,071	-0,078
-89,986	-110,548	0,085	0,012
-88,972	73,035	0,036	0,026
-87,957	800,000	0,008	-0,020
-86,943	-91,123	0,181	0,036
-85,928	-46,597	-0,077	0,027
-84,913	342,910	0,027	0,038
-83,899	-25,024	-0,046	0,019
-82,884	-118,618	0,018	-0,002
-81,870	-14,761	0,106	0,048
-80,855	800,000	0,036	0,111
-79,840	-200,000	0,000	0,062
-78,826	-200,000	0,002	0,096
-77,811	800,000	0,050	0,104
-76,797	64,305	-0,130	-0,092
-75,782	-200,000	-0,026	-0,126
-74,767	-7,682	0,051	-0,024
-73,753	-24,766	0,272	0,114
-72,738	123,868	-0,073	-0,065
-71,724	601,771	-0,071	-0,125
-70,709	-76,548	-0,060	0,015
-69,694	800,000	0,032	-0,099
-68,680	261,122	0,032	0,039
-67,665	-118,133	-0,130	0,016
-66,651	2,080	0,123	-0,063
-65,636	-144,628	-0,100	0,006
-64,622	-2,064	-0,141	0,070
-63,607	800,000	0,036	0,079
-62,592	-141,934	0,159	-0,011
-61,578	459,062	-0,044	0,070
-60,563	800,000	0,031	-0,067
-59,549	173,441	-0,034	0,035
-58,534	16,563	-1,990	-1,108
-57,519	590,353	-1,191	-2,083
-56,505	-200,000	-0,249	-4,410
-55,490	499,560	0,951	1,554
-54,476	800,000	5,061	10,986
-53,461	-200,000	20,972	330,793
-52,446	800,000	758,018	2325,979
-51,432	550,036	1662,590	2825,661
-50,417	73,426	1664,320	1228,513
-49,403	18,660	1537,150	865,850
-48,388	12,625	1460,299	793,347
-47,373	19,086	1451,057	819,333
-46,359	15,866	1440,383	797,939
-45,344	10,931	1436,096	772,022
-44,330	10,875	1434,300	770,755
-43,315	10,834	1432,283	769,445
-42,300	10,873	1430,625	768,710
-41,286	10,894	1429,421	768,135
-40,271	10,842	1428,178	767,190
-39,257	10,841	1426,910	766,472
-38,242	10,871	1425,813	765,996
-37,227	10,824	1424,856	765,227
-36,213	10,884	1423,521	764,763
-35,198	10,883	1422,390	764,123
-34,184	10,935	1421,590	763,908
-33,169	10,851	1420,088	762,674
-32,154	10,895	1419,274	762,411
-31,140	10,981	1417,724	761,955
-30,125	10,946	1416,695	761,209
-29,111	10,945	1415,444	760,498
-28,096	10,902	1414,380	759,698
-27,082	10,835	1413,520	758,891
-26,067	10,856	1412,337	758,324
-25,052	10,861	1411,272	757,746
-24,038	10,863	1410,156	757,124
-23,023	10,869	1409,140	756,577
-22,009	10,852	1408,022	755,866
-20,994	10,848	1407,202	755,379
-19,979	10,842	1406,190	754,776
-18,965	10,799	1405,331	754,086
-17,950	10,809	1404,388	753,594
-16,936	10,788	1403,568	753,027
-15,921	10,752	1402,553	752,287
-14,906	10,716	1401,752	751,658
-13,892	10,759	1400,662	751,243
-12,877	10,762	1399,689	750,706
-11,863	10,744	1399,126	750,292
-10,848	10,736	1398,165	749,710
-9,833	10,688	1397,395	749,042
-8,819	10,652	1396,522	748,377
-7,804	10,655	1395,604	747,869
-6,790	10,646	1394,478	747,197
-5,775	10,666	1393,414	746,688
-4,760	10,681	1392,427	746,202
-3,746	10,698	1391,505	745,755
-2,731	10,631	1390,931	745,107
-1,717	10,616	1390,069	744,548
-0,702	10,653	1388,006	743,581
0,313	14,630	1301,443	715,443
1,327	30,893	692,656	417,758
2,342	47,905	120,167	79,056
3,356	-2,461	16,548	8,151
4,371	10,050	3,357	1,794
5,386	9,204	0,975	0,518
6,400	789,279	0,233	0,453
7,415	-51,425	-0,253	-0,083
8,429	-21,522	-0,347	-0,149
9,444	-13,068	-0,395	-0,180
10,459	36,684	-0,275	-0,171
11,473	95,370	-0,230	-0,185
12,488	76,980	-0,337	-0,252
13,502	12,493	-0,288	-0,156
14,517	-68,095	-0,226	-0,062
15,531	200,706	-0,243	-0,264
16,546	82,695	-0,369	-0,282
17,561	164,375	-0,328	-0,326
18,575	-117,596	-0,317	-0,040
19,590	800,000	-0,112	-0,314
20,604	-78,828	-0,281	-0,067
21,619	72,491	-0,416	-0,305
22,634	73,075	-0,371	-0,272
23,648	126,142	-0,371	-0,330
24,663	38,258	-0,395	-0,247
25,677	102,752	-0,323	-0,266
26,692	53,420	-0,373	-0,251
27,707	-6,057	-0,276	-0,133
28,721	86,076	-0,299	-0,232
29,736	-44,710	-0,417	-0,146
30,750	-13,041	-0,306	-0,139
31,765	74,121	-0,382	-0,282
32,780	314,494	-0,317	-0,420
33,794	192,030	-0,197	-0,209
34,809	79,890	-0,361	-0,273
35,823	-47,564	-0,378	-0,128
36,838	94,444	-0,406	-0,324
37,853	33,492	-0,418	-0,255
38,867	248,016	-0,295	-0,352
39,882	72,706	-0,386	-0,283
40,896	-22,155	-0,294	-0,125
41,911	-39,480	-0,226	-0,083
42,926	48,729	-0,291	-0,191
43,940	71,543	-0,397	-0,290
44,955	46,273	-0,450	-0,293
45,969	5,981	-0,208	-0,108
46,984	-81,704	-0,457	-0,105
47,999	110,473	-0,322	-0,272
49,013	129,765	-0,309	-0,278
50,028	231,299	-0,292	-0,337
51,042	18,217	-0,297	-0,166
52,057	55,803	-0,397	-0,270
53,071	78,181	-0,322	-0,241
54,086	8,856	-0,301	-0,159
55,101	-73,884	-0,219	-0,055
56,115	20,784	-0,388	-0,220
57,130	41,929	-0,340	-0,216
58,144	37,390	-0,359	-0,223
59,159	81,808	-0,382	-0,290
60,174	158,104	-0,408	-0,397
61,188	25,994	-0,376	-0,220
62,203	59,840	-0,393	-0,272
63,217	80,638	-0,255	-0,193
64,232	44,379	-0,392	-0,252
65,247	-66,758	-0,403	-0,111
66,261	274,025	-0,247	-0,307
67,276	40,039	-0,380	-0,239
68,290	222,281	-0,310	-0,351
69,305	-164,017	-0,349	-0,011
70,320	101,133	-0,268	-0,219
71,334	130,713	-0,226	-0,203
72,349	94,948	-0,296	-0,236
73,363	9,708	-0,343	-0,182
74,378	136,283	-0,342	-0,312
75,393	84,149	-0,326	-0,249
76,407	225,055	-0,226	-0,256
77,422	5,956	-0,347	-0,180
78,436	25,748	-0,338	-0,197
79,451	-76,017	-0,407	-0,100
80,466	-12,922	-0,348	-0,158
81,480	265,272	-0,215	-0,263
82,495	-0,455	-0,412	-0,204
83,509	23,511	-0,327	-0,188
84,524	120,089	-0,160	-0,139
85,539	108,226	-0,273	-0,228
86,553	141,181	-0,171	-0,158
87,568	142,808	-0,231	-0,215
88,582	411,690	-0,193	-0,287
89,597	70,998	-0,270	-0,195
90,611	236,214	-0,289	-0,335
91,626	133,182	-0,139	-0,126
92,641	50,367	-0,269	-0,177
93,655	132,565	-0,295	-0,266
94,670	102,887	-0,404	-0,331
95,684	61,049	-0,280	-0,194
96,699	-115,381	-0,309	-0,040
97,714	29,870	-0,335	-0,199
98,728	69,251	-0,249	-0,179
99,743	126,869	0,037	-0,032
100,757	18,193	-0,247	-0,138
101,772	202,539	-0,217	-0,234
102,787	-77,598	-0,294	-0,071
103,801	32,525	-0,325	-0,196
104,816	800,000	-0,097	-0,249
105,830	28,500	-0,238	-0,141
106,845	44,247	-0,286	-0,183
107,860	276,306	-0,147	-0,183
108,874	105,838	-0,298	-0,246
109,889	22,363	-0,321	-0,183
110,903	150,974	-0,282	-0,269
111,918	427,330	-0,089	-0,135
112,933	-19,004	-0,246	-0,106
113,947	-58,731	-0,279	-0,084
114,962	478,445	-0,145	-0,230
115,976	135,818	-0,317	-0,288
116,991	46,229	-0,244	-0,157
118,006	34,424	-0,282	-0,172
119,020	67,777	-0,265	-0,189
120,035	57,507	-0,282	-0,192
121,049	-48,834	-0,233	-0,078
122,064	117,690	-0,359	-0,308
123,079	-97,859	-0,260	0,046
124,093	10,183	-0,261	-0,138
125,108	-36,122	-0,260	-0,098
126,122	-65,140	-0,292	-0,082
127,137	-122,664	-0,078	0,009
128,151	318,343	-0,159	-0,210
129,166	4,021	-0,261	-0,133
130,181	155,098	-0,276	-0,265
131,195	147,075	-0,220	-0,207
132,210	104,982	-0,295	-0,243
133,224	38,096	-0,429	-0,266
134,239	124,592	-0,171	-0,150
135,254	11,482	-0,293	-0,156
136,268	38,930	-0,245	-0,152
137,283	73,337	-0,334	-0,243
138,297	190,836	-0,189	-0,198
139,312	-7,813	-0,270	-0,127
140,327	67,816	-0,276	-0,196
141,341	184,818	-0,243	-0,251
142,356	20,543	-0,304	-0,171
143,370	70,902	-0,234	-0,169
144,385	237,618	-0,219	-0,253
145,400	800,000	-0,101	-0,309
146,414	24,935	-0,262	-0,151
147,429	162,529	-0,255	-0,249
148,443	65,360	-0,232	-0,163
149,458	4,640	-0,174	-0,089
150,473	87,613	-0,207	-0,159
151,487	43,791	-0,304	-0,194
152,502	30,418	-0,321	-0,191
153,516	218,215	-0,157	-0,175
154,531	159,835	-0,189	-0,183
155,546	90,990	-0,259	-0,202
156,560	40,506	-0,137	-0,086
157,575	231,256	-0,141	-0,161
158,589	312,542	-0,055	-0,072
159,604	26,190	-0,265	-0,154
160,619	115,888	-0,182	-0,155
161,633	-7,130	-0,236	-0,111
162,648	379,922	-0,125	-0,179
163,662	106,556	-0,134	-0,111
164,677	146,891	-0,118	-0,111
165,692	25,154	-0,088	-0,051
166,706	93,758	-0,231	-0,182
167,721	89,619	-0,251	-0,194
168,735	95,163	-0,278	-0,220
169,750	105,867	-0,231	-0,190
170,764	437,482	-0,104	-0,157
171,779	-44,244	-0,174	-0,060
172,794	12,271	-0,238	-0,127
173,808	195,514	-0,190	-0,201
174,823	-94,243	-0,238	-0,045
175,837	-151,330	-0,325	-0,017
176,852	489,706	-0,124	-0,197
177,867	2,199	-0,275	-0,138
178,881	144,927	-0,218	-0,203
179,896	5,402	-0,181	-0,093
180,910	148,864	-0,203	-0,191
181,925	800,000	-0,109	-0,257
182,940	305,851	-0,219	-0,284
183,954	333,283	-0,196	-0,264
184,969	711,965	-0,146	-0,269
185,983	173,887	-0,150	-0,150
186,998	330,697	-0,107	-0,143
188,013	619,263	-0,190	-0,333
189,027	-200,000	-0,029	-0,091
190,042	102,425	-0,181	-0,147
191,056	262,960	-0,172	-0,207
192,071	-35,090	-0,317	-0,119
193,086	40,441	-0,134	-0,084
194,100	-67,487	-0,206	0,056
195,115	76,963	-0,168	-0,123
196,129	-16,676	-0,301	-0,132
197,144	95,119	-0,248	-0,196
198,159	46,929	-0,191	-0,123
199,173	266,108	-0,234	-0,284
200,188	28,365	-0,135	-0,079
201,202	800,000	-0,088	-0,192
202,217	-80,525	-0,239	-0,055
203,232	117,947	-0,226	-0,193
204,246	-28,966	-0,207	-0,082
205,261	35,763	-0,165	-0,101
206,275	24,982	-0,122	-0,070
207,290	104,352	-0,275	-0,224
208,304	-22,607	-0,247	-0,103
209,319	277,168	-0,112	-0,138
210,334	-69,487	-0,216	-0,057
211,348	36,681	-0,174	-0,106
212,363	27,817	-0,263	-0,153
213,377	631,873	-0,104	-0,183
214,392	451,206	-0,165	-0,253
215,407	249,198	-0,152	-0,178
216,421	-22,505	-0,255	-0,106
217,436	77,923	-0,220	-0,162
218,450	71,100	-0,249	-0,179
219,465	800,000	-0,104	-0,277
220,480	61,767	-0,184	-0,127
221,494	197,626	-0,066	-0,070
222,509	-77,671	-0,195	-0,046
223,523	761,451	-0,137	-0,258
224,538	40,168	-0,190	-0,118
225,553	97,271	-0,261	-0,207
226,567	367,103	-0,116	-0,162
227,582	240,955	-0,186	-0,215
228,596	-54,663	-0,290	-0,090
229,611	-35,418	-0,115	-0,043
230,626	-119,365	-0,096	-0,011
231,640	-59,303	-0,205	-0,061
232,655	-37,102	-0,243	-0,089
233,669	79,081	-0,241	-0,178
234,684	800,000	-0,103	-0,204
235,699	127,504	-0,220	-0,193
236,713	48,057	-0,136	-0,088
237,728	68,448	-0,134	-0,095
238,742	-35,941	-0,225	-0,084
239,757	188,088	-0,238	-0,246
240,772	800,000	-0,078	-0,218
241,786	77,831	-0,113	-0,083
242,801	299,476	-0,051	-0,065
243,815	454,840	-0,105	-0,161
244,830	800,000	-0,049	-0,117
245,844	110,968	-0,108	-0,090
246,859	90,846	-0,223	-0,173
247,874	-18,429	-0,099	-0,043
248,888	479,151	-0,094	-0,148
249,903	161,412	-0,092	-0,089
250,917	20,717	-0,291	-0,162
251,932	-99,254	-0,082	0,014
252,947	407,116	-0,066	-0,097
253,961	25,067	-0,072	-0,041
254,976	485,161	-0,108	-0,171
255,990	89,451	-0,137	-0,106
257,005	8,699	-0,298	-0,154
258,020	324,795	-0,135	-0,178
259,034	-109,064	-0,149	-0,022
260,049	30,792	-0,184	-0,109
261,063	85,764	-0,252	-0,191
262,078	184,207	-0,191	-0,195
263,093	619,321	-0,127	-0,222
264,107	647,831	-0,057	-0,101
265,122	-200,000	-0,072	-0,220
266,136	317,012	-0,101	-0,131
267,151	-119,214	-0,107	0,013
268,166	-51,292	-0,231	-0,074
269,180	74,540	-0,127	-0,092
270,195	20,461	-0,217	-0,121
271,209	800,000	-0,105	-0,232
272,224	-74,122	-0,131	0,032
273,239	38,275	-0,233	-0,143
274,253	-15,629	-0,161	-0,070
275,268	221,454	-0,056	-0,062
276,282	52,947	-0,197	-0,130
277,297	270,722	-0,129	-0,156
278,312	-67,196	-0,269	-0,072
279,326	-123,481	-0,158	-0,017
280,341	432,109	-0,056	-0,085
281,355	-138,236	-0,149	-0,011
282,370	144,973	-0,131	-0,121
283,384	209,517	-0,178	-0,192
284,399	458,051	-0,136	-0,208
285,414	101,505	-0,079	-0,063
286,428	30,748	-0,094	-0,055
287,443	-20,597	-0,085	-0,036
288,457	1,817	-0,194	-0,096
289,472	152,647	-0,060	-0,057
290,487	433,549	-0,075	-0,113
291,501	399,117	-0,155	-0,224
292,516	-139,713	-0,133	0,010
293,530	80,900	-0,166	-0,123
294,545	-133,693	-0,114	-0,010
295,560	-85,790	-0,108	-0,023
296,574	396,904	-0,150	-0,216
297,589	144,010	-0,153	-0,141
298,603	136,617	-0,149	-0,134
299,618	-160,739	-0,192	0,007
300,633	-25,601	-0,279	-0,113
301,647	-44,365	-0,152	-0,052
302,662	116,248	-0,058	-0,049
303,676	-75,477	-0,161	0,039
304,691	-131,643	-0,315	-0,028
305,706	346,884	-0,144	-0,196
306,720	69,103	-0,197	-0,139
307,735	253,795	-0,074	-0,087
308,749	-139,356	-0,033	-0,002
309,764	-194,980	-0,054	0,000
310,779	-106,735	-0,190	0,029
311,793	32,618	-0,201	-0,119
312,808	-200,000	-0,023	-0,079
313,822	-189,766	-0,135	0,001
314,837	-105,890	-0,195	0,030
315,852	-100,532	-0,153	-0,026
316,866	-173,889	-0,136	0,003
317,881	34,396	-0,139	-0,083
318,895	444,297	-0,143	-0,217
319,910	387,066	-0,126	-0,179
320,925	-18,888	-0,013	0,005
321,939	-73,374	-0,113	-0,028
322,954	332,278	-0,093	-0,123
323,968	-28,488	-0,142	0,056
324,983	-58,447	-0,169	0,050
325,997	323,041	-0,075	0,099
327,012	243,876	-0,104	-0,120
328,027	461,017	-0,085	-0,130
329,041	-116,130	-0,233	0,029
330,056	735,799	-0,086	-0,160
331,070	186,640	-0,050	-0,051
332,085	-128,086	-0,172	-0,017
333,100	170,258	-0,130	-0,128
334,114	116,104	-0,086	0,072
335,129	800,000	-0,093	-0,177
336,143	-93,233	-0,261	-0,049
337,158	8,607	0,075	-0,039
338,173	52,024	-0,097	-0,063
339,187	-6,056	-0,130	-0,061
340,202	165,800	-0,089	-0,086
341,216	69,619	-0,117	-0,083
342,231	151,175	-0,179	-0,167
343,246	-8,262	-0,163	-0,075
344,260	800,000	-0,028	-0,074
345,275	-50,068	-0,191	-0,061
346,289	800,000	-0,056	-0,128
347,304	-200,000	-0,022	-0,146
348,319	800,000	-0,080	-0,153
349,333	-82,410	-0,157	-0,035
350,348	120,721	-0,176	-0,150
351,362	147,155	-0,071	-0,066
352,377	-181,526	-0,071	0,001
353,392	-84,989	-0,199	-0,042
354,406	-200,000	-0,019	-0,063
355,421	206,554	1308,850	1395,978
356,435	158,863	1468,815	1396,454
