DTS Sentinel unit serial number:	SN410029Multiplexer serial number:	ORYXHardware model number:	OX2-SRSoftware version number:	ORYX F/W v4,00 Oryx Data Collector v3.7.2.0data status	okinstallation	B3 Nyhavnadifferential loss correction	single-endedforward channel	channel 1reverse channel	N/Adate	2023/11/30time	11:37:30forward acquisition time	300,00reverse acquisition time	0,00gamma	499,1914k internal	0,3211k external	0,3211temperature offset calibration	1,0000default loss term (dB/km)	0,3820temperature slope calibration	1,0000multiplexer offset coefficient	1,0000multiplexer slope coefficient	1,0000fibre end	0,00T internal ref (°C)	9,43T ext. ref 1 (°C)	-5,61T ext. ref 2 (°C)	-5,74length (m)	temperature (°C)	Stokes	anti-Stokes-744,400	-0,260	-0,274	-0,141
-743,385	-200,000	-0,023	0,279
-742,371	-200,000	-0,052	-0,215
-741,356	800,000	0,085	0,267
-740,342	78,258	-0,270	-0,209
-739,327	-200,000	-0,058	0,224
-738,312	680,273	-0,150	-0,285
-737,298	731,176	-0,110	0,214
-736,283	184,259	-0,198	-0,213
-735,269	-200,000	0,034	0,421
-734,254	124,935	-0,280	-0,256
-733,239	-45,970	-0,194	0,069
-732,225	800,000	-0,109	-0,251
-731,210	300,785	-0,115	0,154
-730,196	69,310	-0,080	0,059
-729,181	161,207	-0,058	-0,058
-728,167	-200,000	-0,123	0,000
-727,152	800,000	0,036	-0,096
-726,137	-200,000	0,050	-0,188
-725,123	709,872	-0,078	-0,151
-724,108	-119,774	-0,166	-0,021
-723,094	772,469	-0,043	-0,086
-722,079	-11,337	-0,097	-0,046
-721,064	-200,000	0,001	-0,090
-720,050	281,008	0,068	-0,088
-719,035	148,454	-0,049	-0,048
-718,021	-168,362	-0,079	-0,002
-717,006	-47,819	-0,088	-0,031
-715,991	-96,765	0,027	-0,005
-714,977	-200,000	-0,049	-0,169
-713,962	-92,988	-0,084	-0,017
-712,948	371,906	0,048	-0,071
-711,933	-21,377	0,155	-0,068
-710,918	-200,000	-0,004	-0,052
-709,904	117,210	-0,135	-0,120
-708,889	-200,000	-0,024	-0,117
-707,875	-200,000	-0,048	-0,161
-706,860	49,373	0,124	-0,084
-705,845	592,745	-0,048	0,085
-704,831	-7,119	0,063	0,031
-703,816	800,000	0,016	0,048
-702,802	-200,000	0,009	-0,047
-701,787	62,570	-0,043	0,031
-700,772	800,000	-0,026	-0,059
-699,758	-200,000	0,001	-0,038
-698,743	-200,000	0,020	-0,191
-697,729	-81,242	0,120	-0,028
-696,714	611,907	0,068	0,124
-695,699	130,052	-0,122	-0,113
-694,685	137,809	0,072	-0,068
-693,670	-15,784	0,015	-0,007
-692,656	-200,000	0,005	-0,015
-691,641	176,617	0,107	-0,113
-690,627	42,090	0,048	0,032
-689,612	-101,347	0,072	-0,013
-688,597	38,794	0,049	-0,032
-687,583	-131,421	-0,074	-0,007
-686,568	-93,484	0,109	-0,022
-685,554	102,133	0,065	0,055
-684,539	-107,295	-0,092	-0,014
-683,524	-45,906	0,148	-0,053
-682,510	800,000	0,050	-0,119
-681,495	15,691	-0,082	0,047
-680,481	649,425	0,018	-0,033
-679,466	26,421	-0,150	-0,090
-678,451	219,406	-0,051	0,059
-677,437	-67,617	0,038	0,011
-676,422	35,697	0,058	-0,037
-675,408	-24,993	-0,115	-0,049
-674,393	-50,548	-0,122	-0,041
-673,378	106,220	-0,083	-0,071
-672,364	91,588	0,058	-0,047
-671,349	-200,000	0,002	-0,110
-670,335	-200,000	0,027	-0,116
-669,320	-200,000	0,011	-0,070
-668,305	800,000	0,031	-0,078
-667,291	-114,821	-0,198	-0,027
-666,276	-102,482	-0,129	-0,022
-665,262	-200,000	-0,032	-0,122
-664,247	228,840	0,042	-0,050
-663,232	22,765	0,109	0,064
-662,218	-2,966	0,067	0,034
-661,203	73,947	-0,042	0,032
-660,189	14,659	0,062	0,035
-659,174	45,627	-0,147	-0,098
-658,159	489,132	-0,040	-0,066
-657,145	-69,987	0,086	-0,024
-656,130	50,778	0,056	-0,039
-655,116	26,499	-0,166	-0,100
-654,101	-80,592	0,113	0,027
-653,086	51,437	-0,051	-0,035
-652,072	800,000	-0,003	0,009
-651,057	274,710	0,053	-0,067
-650,043	116,906	-0,052	-0,046
-649,028	-65,290	0,010	-0,003
-648,014	-200,000	-0,004	0,045
-646,999	195,893	0,040	-0,044
-645,984	-200,000	0,006	0,067
-644,970	-200,000	0,008	-0,080
-643,955	55,232	-0,051	-0,036
-642,941	-29,004	-0,051	0,021
-641,926	61,709	-0,092	-0,066
-640,911	-200,000	0,001	-0,124
-639,897	-200,000	-0,010	0,054
-638,882	-200,000	0,019	0,206
-637,868	800,000	-0,016	-0,045
-636,853	-200,000	0,028	-0,091
-635,838	223,429	-0,085	-0,099
-634,824	-136,669	-0,121	0,010
-633,809	383,048	0,074	0,110
-632,795	800,000	-0,037	0,093
-631,780	187,352	-0,013	0,014
-630,765	63,110	-0,056	0,040
-629,751	12,564	-0,097	0,054
-628,736	800,000	0,049	-0,118
-627,722	285,332	-0,067	-0,088
-626,707	145,766	0,093	0,090
-625,692	51,341	-0,053	-0,036
-624,678	141,414	-0,035	0,034
-623,663	102,193	0,031	0,026
-622,649	678,585	-0,089	-0,167
-621,634	-200,000	0,000	-0,038
-620,619	-34,796	-0,109	-0,043
-619,605	202,733	-0,012	-0,013
-618,590	-200,000	0,003	0,129
-617,576	-200,000	0,007	-0,039
-616,561	-200,000	-0,012	0,057
-615,546	47,984	0,053	0,035
-614,532	800,000	-0,060	-0,129
-613,517	-3,173	0,185	-0,093
-612,503	166,160	-0,051	0,052
-611,488	800,000	0,058	0,182
-610,474	800,000	0,052	0,126
-609,459	154,695	0,017	0,017
-608,444	511,002	-0,024	0,040
-607,430	70,195	-0,081	-0,060
-606,415	-133,216	-0,144	-0,013
-605,401	-103,309	-0,140	-0,024
-604,386	-200,000	-0,021	0,112
-603,371	-200,000	0,000	0,045
-602,357	284,148	-0,061	0,079
-601,342	341,716	-0,106	-0,150
-600,328	10,288	-0,075	-0,041
-599,313	-11,590	-0,086	-0,041
-598,298	-200,000	0,023	-0,105
-597,284	204,380	-0,051	0,057
-596,269	102,774	0,029	0,025
-595,255	-96,494	0,089	-0,017
-594,240	-86,473	-0,085	0,019
-593,225	-200,000	-0,043	-0,158
-592,211	738,932	0,077	-0,149
-591,196	-23,010	-0,158	-0,068
-590,182	-200,000	-0,021	-0,107
-589,167	307,718	-0,022	-0,029
-588,152	-200,000	0,006	0,037
-587,138	-141,312	-0,123	-0,009
-586,123	800,000	0,036	-0,084
-585,109	553,681	-0,042	-0,073
-584,094	-50,751	-0,187	-0,063
-583,079	-155,409	-0,151	-0,007
-582,065	-92,266	-0,115	0,023
-581,050	-200,000	0,011	-0,054
-580,036	-42,145	0,086	-0,032
-579,021	800,000	0,047	0,115
-578,006	178,390	-0,050	0,053
-576,992	526,718	-0,048	-0,082
-575,977	-200,000	0,001	0,028
-574,963	23,628	0,124	-0,073
-573,948	-11,414	-0,071	0,033
-572,934	-200,000	-0,021	0,131
-571,919	-24,727	-0,054	-0,023
-570,904	-200,000	-0,011	-0,044
-569,890	-200,000	0,010	0,075
-568,875	393,224	-0,036	-0,054
-567,861	243,609	0,069	0,084
-566,846	-97,111	0,173	-0,032
-565,831	173,972	-0,076	-0,079
-564,817	-200,000	-0,001	0,018
-563,802	-200,000	-0,069	-0,220
-562,788	-106,108	0,153	-0,025
-561,773	800,000	0,023	-0,058
-560,758	-127,359	0,089	0,009
-559,744	-54,412	-0,110	-0,036
-558,729	800,000	0,041	0,107
-557,715	-140,772	-0,018	0,001
-556,700	166,969	-0,094	-0,096
-555,685	367,015	0,078	-0,113
-554,671	-200,000	0,042	0,177
-553,656	-200,000	-0,003	0,025
-552,642	342,782	0,045	-0,063
-551,627	-64,742	0,038	0,011
-550,612	800,000	-0,052	-0,119
-549,598	652,796	-0,011	-0,020
-548,583	662,222	-0,018	-0,034
-547,569	-137,193	0,086	-0,007
-546,554	443,824	0,068	0,107
-545,539	452,213	0,119	0,189
-544,525	157,176	0,085	0,085
-543,510	363,829	0,097	-0,141
-542,496	21,860	-0,170	-0,099
-541,481	-68,063	-0,071	0,020
-540,466	800,000	-0,030	0,076
-539,452	451,417	0,032	0,051
-538,437	-200,000	0,029	0,116
-537,423	62,619	0,106	0,076
-536,408	-152,634	-0,163	0,008
-535,393	273,502	-0,072	-0,092
-534,379	6,987	0,051	-0,027
-533,364	-98,578	0,023	-0,004
-532,350	198,105	-0,089	0,099
-531,335	-200,000	0,024	0,101
-530,321	-200,000	0,006	-0,019
-529,306	-200,000	-0,033	-0,121
-528,291	-200,000	0,015	-0,102
-527,277	-200,000	-0,005	-0,034
-526,262	-157,178	0,078	-0,003
-525,248	109,038	0,064	-0,055
-524,233	-52,642	-0,156	-0,052
-523,218	-200,000	0,009	0,079
-522,204	246,897	-0,062	0,075
-521,189	-123,519	-0,062	0,007
-520,175	119,839	0,046	-0,041
-519,160	435,151	-0,069	-0,109
-518,145	486,916	0,025	0,041
-517,131	34,721	0,090	0,057
-516,116	267,549	0,037	0,046
-515,102	-200,000	-0,005	0,060
-514,087	-77,509	0,007	-0,002
-513,072	310,325	0,059	-0,079
-512,058	207,182	-0,102	-0,114
-511,043	18,764	0,060	-0,034
-510,029	800,000	0,019	0,059
-509,014	-111,817	0,143	0,021
-507,999	160,151	0,078	0,078
-506,985	365,670	-0,044	-0,064
-505,970	800,000	-0,039	-0,109
-504,956	-10,576	0,100	-0,047
-503,941	118,388	0,013	0,011
-502,926	283,604	0,080	0,103
-501,912	698,974	0,020	0,038
-500,897	140,623	0,082	-0,077
-499,883	800,000	0,013	-0,039
-498,868	379,020	-0,016	0,023
-497,853	241,039	-0,028	-0,034
-496,839	-136,340	0,120	0,010
-495,824	-59,686	-0,083	0,025
-494,810	-20,039	0,127	-0,056
-493,795	800,000	0,040	-0,083
-492,781	-200,000	0,007	-0,072
-491,766	-45,750	0,121	0,043
-490,751	-89,266	0,048	0,010
-489,737	403,497	0,016	-0,024
-488,722	405,996	0,052	0,079
-487,708	-157,649	0,080	0,003
-486,693	-114,465	0,081	0,011
-485,678	229,127	-0,043	0,051
-484,664	205,961	0,017	0,019
-483,649	-32,046	0,083	-0,033
-482,635	169,866	-0,055	-0,056
-481,620	84,183	0,096	0,075
-480,605	89,645	0,109	-0,087
-479,591	800,000	0,051	-0,143
-478,576	-200,000	0,010	0,047
-477,562	69,597	-0,188	-0,139
-476,547	-200,000	0,005	-0,047
-475,532	800,000	-0,056	-0,146
-474,518	-21,469	0,069	-0,030
-473,503	800,000	0,005	-0,013
-472,489	362,948	0,028	-0,041
-471,474	60,629	-0,078	-0,055
-470,459	72,510	0,079	0,059
-469,445	-61,176	-0,077	0,023
-468,430	-25,357	-0,128	-0,054
-467,416	196,981	-0,094	0,103
-466,401	800,000	-0,050	-0,110
-465,386	183,089	-0,051	-0,054
-464,372	-153,562	0,040	0,002
-463,357	158,064	0,029	0,029
-462,343	-20,342	-0,049	-0,022
-461,328	9,889	0,198	-0,107
-460,313	-128,267	-0,112	-0,011
-459,299	-200,000	0,000	0,006
-458,284	158,754	0,084	0,084
-457,270	63,005	0,081	0,058
-456,255	156,406	0,040	0,040
-455,241	587,596	0,067	-0,119
-454,226	257,933	0,120	0,149
-453,211	-200,000	-0,007	0,061
-452,197	-143,198	0,040	-0,003
-451,182	-21,681	0,093	-0,040
-450,168	800,000	-0,029	-0,076
-449,153	800,000	-0,042	-0,121
-448,138	108,956	0,022	-0,018
-447,124	-160,263	0,043	0,002
-446,109	93,871	0,037	0,030
-445,095	287,986	0,069	0,090
-444,080	-32,605	0,094	0,037
-443,065	-153,251	0,101	-0,005
-442,051	-200,000	0,002	0,065
-441,036	292,219	-0,039	0,051
-440,022	44,279	-0,137	0,090
-439,007	-40,597	-0,029	-0,011
-437,992	188,708	0,071	-0,077
-436,978	-200,000	-0,012	-0,060
-435,963	-193,936	-0,092	0,001
-434,949	64,461	-0,057	-0,041
-433,934	102,833	0,083	-0,069
-432,919	34,334	-0,087	-0,055
-431,905	-200,000	0,017	-0,099
-430,890	157,515	0,062	-0,062
-429,876	13,589	-0,065	-0,036
-428,861	-154,292	-0,182	-0,009
-427,846	-200,000	-0,015	-0,056
-426,832	-200,000	0,011	-0,128
-425,817	-200,000	0,001	-0,003
-424,803	406,805	0,039	-0,060
-423,788	-200,000	-0,007	-0,028
-422,773	800,000	0,029	-0,079
-421,759	-5,636	0,063	0,031
-420,744	-200,000	0,011	-0,050
-419,730	-200,000	-0,008	-0,064
-418,715	800,000	0,033	-0,087
-417,701	800,000	-0,029	0,064
-416,686	356,445	0,128	-0,183
-415,671	-47,073	-0,086	-0,030
-414,657	333,848	0,067	0,094
-413,642	58,203	-0,055	0,039
-412,628	173,694	0,062	0,064
-411,613	-200,000	-0,025	-0,212
-410,598	800,000	0,009	0,028
-409,584	476,657	0,048	-0,077
-408,569	800,000	0,063	0,173
-407,555	-85,697	0,074	0,016
-406,540	305,457	-0,042	0,056
-405,525	-45,082	-0,170	-0,060
-404,511	258,805	0,091	-0,113
-403,496	185,327	0,105	-0,111
-402,482	315,297	0,046	-0,062
-401,467	-83,485	0,205	0,047
-400,452	-200,000	0,012	-0,056
-399,438	63,572	-0,078	0,056
-398,423	67,447	-0,095	0,069
-397,409	125,743	0,128	-0,116
-396,394	556,735	0,008	0,014
-395,379	-200,000	-0,011	0,106
-394,365	-200,000	0,031	0,194
-393,350	-200,000	0,028	-0,121
-392,336	-147,592	0,022	-0,001
-391,321	-200,000	0,008	-0,039
-390,306	-100,005	-0,098	0,017
-389,292	-200,000	-0,008	0,092
-388,277	-51,012	0,080	0,027
-387,263	134,039	0,061	0,057
-386,248	477,962	0,015	0,025
-385,233	81,666	0,107	-0,083
-384,219	-26,319	-0,104	-0,044
-383,204	-200,000	-0,002	0,018
-382,190	-200,000	-0,009	-0,082
-381,175	-56,392	0,074	-0,023
-380,160	-58,043	-0,098	0,030
-379,146	79,582	0,087	0,067
-378,131	3,387	0,122	0,063
-377,117	-84,662	0,145	-0,032
-376,102	289,203	-0,058	-0,075
-375,088	800,000	0,005	0,011
-374,073	247,322	0,087	-0,105
-373,058	-26,991	0,099	0,041
-372,044	-200,000	0,005	0,094
-371,029	-200,000	0,010	0,079
-370,015	-9,861	0,141	-0,067
-369,000	800,000	-0,033	-0,065
-367,985	425,916	-0,144	-0,223
-366,971	800,000	-0,046	0,145
-365,956	-6,807	-0,067	-0,032
-364,942	-200,000	0,022	0,154
-363,927	-200,000	-0,026	0,116
-362,912	-200,000	-0,000	-0,003
-361,898	3,008	0,085	-0,044
-360,883	-200,000	-0,026	-0,130
-359,869	-200,000	0,023	0,089
-358,854	-91,426	-0,096	-0,019
-357,839	-55,242	0,037	-0,012
-356,825	-0,790	0,066	0,033
-355,810	458,099	-0,007	0,011
-354,796	25,418	-0,023	-0,013
-353,781	-200,000	-0,012	-0,045
-352,766	206,030	-0,052	-0,057
-351,752	25,635	0,018	0,011
-350,737	800,000	0,033	0,086
-349,723	373,730	-0,067	0,098
-348,708	227,703	-0,057	0,066
-347,693	800,000	0,063	-0,137
-346,679	-110,223	-0,076	0,011
-345,664	-200,000	0,018	-0,063
-344,650	-180,999	0,062	-0,001
-343,635	-200,000	0,000	0,145
-342,620	800,000	0,071	0,157
-341,606	-161,303	-0,080	-0,003
-340,591	12,091	-0,113	0,062
-339,577	351,821	0,046	-0,065
-338,562	-113,699	-0,038	0,005
-337,548	356,469	-0,118	0,168
-336,533	173,965	0,076	0,079
-335,518	-200,000	-0,023	0,074
-334,504	-22,100	-0,098	0,042
-333,489	-56,229	-0,037	0,012
-332,475	800,000	0,046	-0,126
-331,460	-105,332	-0,065	-0,010
-330,445	68,932	0,034	-0,025
-329,431	800,000	0,011	0,024
-328,416	365,764	0,025	0,036
-327,402	800,000	0,036	0,090
-326,387	62,445	-0,021	-0,015
-325,372	-200,000	-0,032	0,123
-324,358	-4,444	-0,021	-0,010
-323,343	374,784	0,012	-0,017
-322,329	78,064	-0,051	-0,038
-321,314	-101,844	0,159	0,027
-320,299	800,000	0,015	-0,038
-319,285	373,062	0,043	-0,062
-318,270	5,913	-0,036	-0,019
-317,256	-100,455	-0,109	0,019
-316,241	-200,000	-0,002	-0,033
-315,226	117,032	0,042	0,037
-314,212	-142,929	-0,046	-0,003
-313,197	239,718	0,022	-0,026
-312,183	-200,000	-0,011	0,090
-311,168	-200,000	0,001	0,008
-310,153	93,928	0,008	-0,006
-309,139	130,973	-0,085	0,077
-308,124	-200,000	-0,001	0,103
-307,110	-200,000	-0,028	0,104
-306,095	800,000	-0,047	0,111
-305,080	244,792	-0,015	-0,018
-304,066	575,181	0,049	0,085
-303,051	-190,157	-0,113	0,001
-302,037	-108,354	-0,065	0,010
-301,022	245,510	0,172	0,206
-300,008	-26,382	-0,179	0,075
-298,993	-61,643	0,121	0,036
-297,978	-200,000	0,007	0,134
-296,964	62,863	-0,058	-0,042
-295,949	-108,205	-0,160	0,024
-294,935	-50,160	0,079	-0,026
-293,920	287,720	-0,065	0,084
-292,905	-200,000	-0,005	-0,093
-291,891	49,144	0,042	-0,028
-290,876	76,634	-0,116	0,087
-289,862	-84,812	0,071	-0,016
-288,847	15,755	-0,032	-0,018
-287,832	-200,000	-0,019	-0,110
-286,818	800,000	-0,026	-0,057
-285,803	9,707	0,074	-0,040
-284,789	-74,368	0,087	0,022
-283,774	-200,000	-0,014	-0,045
-282,759	-200,000	0,006	-0,147
-281,745	172,405	-0,053	0,055
-280,730	-200,000	0,006	-0,116
-279,716	256,548	-0,059	-0,073
-278,701	-37,576	0,112	-0,042
-277,686	-110,062	0,056	0,008
-276,672	-200,000	0,025	0,155
-275,657	169,335	-0,136	-0,138
-274,643	188,773	-0,056	-0,059
-273,628	800,000	-0,032	-0,073
-272,613	169,715	0,069	0,071
-271,599	316,110	0,090	0,122
-270,584	-200,000	-0,027	0,135
-269,570	98,063	0,028	0,023
-268,555	-82,300	0,020	0,005
-267,540	373,727	-0,142	-0,206
-266,526	-111,637	0,189	-0,027
-265,511	-200,000	0,011	0,061
-264,497	-200,000	-0,019	0,096
-263,482	-74,172	0,012	-0,003
-262,467	131,599	0,067	0,061
-261,453	-126,071	0,196	0,021
-260,438	-28,694	0,048	-0,019
-259,424	-5,556	-0,120	-0,058
-258,409	272,613	-0,022	-0,028
-257,395	292,484	0,076	-0,099
-256,380	-135,537	0,045	-0,004
-255,365	151,213	0,074	0,072
-254,351	200,520	-0,051	0,056
-253,336	2,895	-0,027	0,014
-252,322	-200,000	-0,030	-0,097
-251,307	354,126	-0,029	-0,041
-250,292	66,551	0,085	0,061
-249,278	-200,000	-0,011	0,041
-248,263	-200,000	0,005	-0,034
-247,249	368,573	0,051	0,074
-246,234	-61,766	-0,068	-0,020
-245,219	129,208	0,045	0,041
-244,205	800,000	0,038	-0,076
-243,190	587,182	-0,068	0,119
-242,176	-200,000	0,017	0,090
-241,161	151,523	-0,095	0,092
-240,146	800,000	-0,080	0,182
-239,132	800,000	-0,011	0,033
-238,117	777,624	-0,009	0,018
-237,103	271,731	0,033	0,042
-236,088	342,612	0,028	-0,039
-235,073	-200,000	0,012	-0,087
-234,059	-33,400	0,109	0,043
-233,044	140,130	-0,044	0,041
-232,030	-200,000	0,004	-0,020
-231,015	123,063	0,035	-0,031
-230,000	44,662	0,045	-0,029
-228,986	768,987	0,061	-0,119
-227,971	800,000	-0,031	0,065
-226,957	-160,350	-0,098	0,004
-225,942	219,329	0,181	0,207
-224,927	64,663	-0,100	-0,072
-223,913	-153,577	-0,174	-0,008
-222,898	37,268	-0,108	-0,068
-221,884	-30,640	0,100	-0,040
-220,869	-92,508	-0,046	0,009
-219,855	-36,821	-0,042	-0,016
-218,840	-200,000	-0,001	0,025
-217,825	-200,000	-0,000	-0,035
-216,811	-37,724	-0,058	0,022
-215,796	800,000	0,059	-0,150
-214,782	800,000	0,062	-0,180
-213,767	800,000	-0,065	0,157
-212,752	-22,836	-0,146	-0,062
-211,738	-200,000	0,001	0,029
-210,723	99,108	-0,060	0,049
-209,709	539,309	0,082	-0,139
-208,694	-200,000	-0,040	0,000
-207,679	268,298	-0,070	-0,087
-206,665	-200,000	-0,119	0,000
-205,650	-200,000	0,012	0,047
-204,636	800,000	0,078	0,186
-203,621	-17,399	-0,078	0,035
-202,606	-79,481	-0,032	-0,008
-201,592	-88,205	-0,119	0,025
-200,577	171,503	0,078	0,080
-199,563	120,687	0,021	0,019
-198,548	800,000	0,047	0,094
-197,533	31,923	0,098	0,060
-196,519	-200,000	0,002	0,025
-195,504	149,045	-0,021	-0,020
-194,490	44,448	-0,137	-0,089
-193,475	34,486	0,069	-0,042
-192,460	183,241	0,016	-0,017
-191,446	-165,344	0,064	0,002
-190,431	-38,367	0,054	0,020
-189,417	27,756	0,032	-0,019
-188,402	99,124	-0,054	0,044
-187,387	159,793	-0,132	-0,130
-186,373	-16,983	0,049	0,022
-185,358	-75,938	-0,044	0,011
-184,344	238,286	0,111	-0,131
-183,329	-200,000	-0,002	0,043
-182,315	-200,000	-0,020	0,300
-181,300	-19,766	-0,123	0,054
-180,285	-13,768	0,030	-0,014
-179,271	296,458	-0,045	-0,059
-178,256	391,895	-0,030	-0,044
-177,242	-200,000	-0,003	0,173
-176,227	179,364	0,068	0,070
-175,212	171,729	0,081	0,083
-174,198	-200,000	0,014	0,047
-173,183	-200,000	-0,020	-0,063
-172,169	-160,632	0,067	0,002
-171,154	-200,000	0,025	-0,096
-170,139	55,326	0,051	0,035
-169,125	-200,000	0,007	0,186
-168,110	-200,000	-0,015	0,054
-167,096	365,455	-0,081	0,116
-166,081	-68,171	-0,127	0,035
-165,066	24,574	-0,159	-0,093
-164,052	203,393	-0,085	-0,093
-163,037	171,149	-0,101	-0,103
-162,023	120,426	0,067	-0,059
-161,008	94,758	0,029	0,023
-159,993	-108,187	-0,097	0,015
-158,979	-118,358	0,110	0,014
-157,964	279,515	0,063	-0,080
-156,950	800,000	-0,044	0,096
-155,935	800,000	-0,058	0,115
-154,920	800,000	0,075	0,176
-153,906	19,958	0,114	0,065
-152,891	800,000	0,009	0,023
-151,877	-122,527	-0,018	-0,002
-150,862	800,000	0,016	-0,034
-149,847	-176,452	-0,108	0,002
-148,833	127,983	0,120	0,109
-147,818	-91,721	-0,134	-0,027
-146,804	-200,000	0,034	0,113
-145,789	-72,883	-0,046	-0,012
-144,775	-103,733	-0,180	0,029
-143,760	-91,514	0,197	0,040
-142,745	800,000	-0,062	0,145
-141,731	-6,882	-0,075	0,036
-140,716	-131,726	0,211	-0,019
-139,702	-200,000	-0,008	-0,044
-138,687	216,929	-0,005	0,005
-137,672	-72,327	0,064	-0,017
-136,658	63,801	-0,163	-0,116
-135,643	-200,000	0,014	-0,045
-134,629	-89,042	0,124	-0,026
-133,614	626,504	-0,014	-0,024
-132,599	-200,000	0,021	0,144
-131,585	-52,873	0,148	0,048
-130,570	-128,398	-0,083	0,008
-129,556	-96,602	-0,150	0,028
-128,541	540,639	0,029	-0,049
-127,526	701,788	-0,056	0,105
-126,512	388,332	0,069	-0,102
-125,497	-63,408	0,122	0,035
-124,483	48,272	-0,104	0,069
-123,468	-200,000	0,005	-0,029
-122,453	-152,718	-0,107	-0,005
-121,439	-12,718	-0,090	0,041
-120,424	127,547	-0,042	0,038
-119,410	-200,000	0,001	0,047
-118,395	348,417	0,039	-0,055
-117,380	-200,000	0,009	-0,208
-116,366	229,877	-0,021	-0,025
-115,351	122,173	-0,139	-0,123
-114,337	50,287	-0,090	-0,060
-113,322	-116,965	0,085	-0,011
-112,307	-200,000	-0,010	0,037
-111,293	-44,316	-0,121	0,043
-110,278	-125,350	0,130	0,014
-109,264	493,705	0,031	-0,051
-108,249	800,000	-0,016	-0,044
-107,234	124,251	0,073	-0,065
-106,220	-200,000	0,016	-0,089
-105,205	-93,859	-0,087	0,017
-104,191	-200,000	0,015	0,138
-103,176	-62,349	-0,079	-0,023
-102,162	201,498	0,045	0,049
-101,147	103,694	-0,056	0,047
-100,132	-73,462	-0,089	0,023
-99,118	11,907	0,076	-0,041
-98,103	505,543	-0,046	0,075
-97,089	-200,000	0,042	0,158
-96,074	167,868	0,060	-0,060
-95,059	-200,000	0,033	0,107
-94,045	-137,838	-0,157	0,012
-93,030	-200,000	0,018	0,093
-92,016	-200,000	-0,034	-0,127
-91,001	163,796	-0,011	0,011
-89,986	-200,000	0,003	-0,078
-88,972	800,000	-0,053	0,105
-87,957	155,037	0,076	-0,074
-86,943	-89,910	-0,099	0,020
-85,928	-173,702	0,036	-0,001
-84,913	456,579	0,044	-0,069
-83,899	678,830	0,029	0,054
-82,884	45,422	-0,066	0,043
-81,870	233,843	-0,064	0,075
-80,855	-159,446	-0,031	0,001
-79,840	-200,000	0,062	0,198
-78,826	-200,000	-0,013	0,067
-77,811	-200,000	0,006	0,063
-76,797	800,000	0,009	-0,024
-75,782	-63,043	-0,050	0,014
-74,767	197,125	0,135	-0,145
-73,753	-68,453	-0,035	0,010
-72,738	800,000	-0,046	0,114
-71,724	72,370	-0,050	0,037
-70,709	-200,000	0,020	-0,134
-69,694	75,640	-0,222	-0,165
-68,680	-200,000	0,022	0,096
-67,665	-200,000	0,043	0,192
-66,651	-86,055	-0,043	-0,009
-65,636	798,803	-0,068	0,133
-64,622	676,181	-0,039	-0,072
-63,607	129,074	-0,051	-0,046
-62,592	636,763	-0,054	0,098
-61,578	-200,000	0,007	-0,129
-60,563	430,672	0,061	0,094
-59,549	-200,000	0,012	0,101
-58,534	58,640	-2,012	-1,393
-57,519	459,993	-1,222	-1,927
-56,505	-200,000	-0,401	-4,546
-55,490	456,317	1,009	1,586
-54,476	800,000	4,993	11,158
-53,461	-200,000	21,745	343,902
-52,446	800,000	763,179	2334,507
-51,432	543,617	1661,240	2809,042
-50,417	71,149	1657,616	1211,574
-49,403	17,188	1531,271	854,817
-48,388	11,287	1455,271	783,891
-47,373	19,293	1447,019	817,777
-46,359	14,753	1435,868	789,891
-45,344	9,546	1431,649	762,786
-44,330	9,545	1429,786	761,761
-43,315	9,486	1428,121	760,560
-42,300	9,475	1426,283	759,500
-41,286	9,526	1424,929	758,989
-40,271	9,457	1423,831	758,050
-39,257	9,509	1422,635	757,628
-38,242	9,527	1421,569	757,116
-37,227	9,501	1420,612	756,454
-36,213	9,498	1419,246	755,682
-35,198	9,521	1417,902	755,045
-34,184	9,558	1417,111	754,769
-33,169	9,435	1415,816	753,471
-32,154	9,524	1414,701	753,265
-31,140	9,508	1413,469	752,502
-30,125	9,576	1412,135	752,082
-29,111	9,499	1411,081	751,132
-28,096	9,479	1410,021	750,443
-27,082	9,438	1408,805	749,573
-26,067	9,495	1407,552	749,142
-25,052	9,422	1406,756	748,347
-24,038	9,518	1405,664	748,184
-23,023	9,490	1404,606	747,462
-22,009	9,453	1403,603	746,726
-20,994	9,417	1402,913	746,163
-19,979	9,496	1401,615	745,809
-18,965	9,385	1400,842	744,851
-17,950	9,360	1399,970	744,244
-16,936	9,396	1399,154	743,946
-15,921	9,318	1398,216	743,056
-14,906	9,396	1397,260	742,881
-13,892	9,411	1396,015	742,259
-12,877	9,366	1395,433	741,710
-11,863	9,378	1394,740	741,369
-10,848	9,404	1393,549	740,828
-9,833	9,297	1392,649	739,823
-8,819	9,303	1391,890	739,419
-7,804	9,270	1391,106	738,820
-6,790	9,259	1390,012	738,160
-5,775	9,285	1388,924	737,673
-4,760	9,276	1387,928	737,073
-3,746	9,264	1387,129	736,562
-2,731	9,302	1386,068	736,148
-1,717	9,290	1385,380	735,695
-0,702	9,249	1383,543	734,505
0,313	13,389	1295,525	706,634
1,327	29,672	686,531	411,201
2,342	46,231	118,593	77,363
3,356	-0,297	16,502	8,245
4,371	14,299	3,556	1,950
5,386	15,437	1,141	0,630
6,400	800,000	0,264	0,574
7,415	24,589	-0,235	-0,137
8,429	49,225	-0,330	-0,218
9,444	172,380	-0,287	-0,291
10,459	151,982	-0,215	-0,207
11,473	42,769	-0,216	-0,139
12,488	-59,219	-0,304	-0,092
13,502	338,327	-0,167	-0,230
14,517	-57,585	-0,485	-0,149
15,531	120,384	-0,414	-0,363
16,546	258,946	-0,281	-0,342
17,561	15,436	-0,392	-0,216
18,575	-104,127	-0,128	-0,021
19,590	78,024	-0,222	-0,166
20,604	-98,025	-0,260	-0,047
21,619	-4,034	-0,501	-0,244
22,634	34,822	-0,309	-0,190
23,648	100,404	-0,378	-0,309
24,663	57,098	-0,323	-0,222
25,677	246,507	-0,223	-0,266
26,692	357,800	-0,238	-0,336
27,707	114,054	-0,318	-0,272
28,721	191,489	-0,309	-0,328
29,736	179,858	-0,331	-0,341
30,750	-49,396	-0,411	-0,137
31,765	-20,514	-0,503	-0,216
32,780	215,971	-0,270	-0,303
33,794	47,850	-0,367	-0,241
34,809	213,640	-0,330	-0,368
35,823	64,239	-0,317	-0,224
36,838	21,291	-0,354	-0,202
37,853	169,137	-0,307	-0,309
38,867	204,375	-0,318	-0,347
39,882	325,483	-0,264	-0,355
40,896	14,888	-0,531	-0,291
41,911	376,198	-0,149	-0,214
42,926	84,540	-0,331	-0,254
43,940	266,303	-0,243	-0,299
44,955	113,157	-0,409	-0,348
45,969	181,224	-0,362	-0,374
46,984	218,004	-0,305	-0,342
47,999	247,549	-0,274	-0,326
49,013	91,757	-0,299	-0,236
50,028	74,744	-0,257	-0,190
51,042	170,493	-0,243	-0,245
52,057	81,712	-0,363	-0,276
53,071	59,942	-0,324	-0,225
54,086	80,853	-0,267	-0,202
55,101	49,167	-0,341	-0,225
56,115	145,381	-0,210	-0,198
57,130	100,365	-0,333	-0,271
58,144	161,809	-0,304	-0,299
59,159	93,502	-0,315	-0,250
60,174	197,260	-0,308	-0,330
61,188	69,709	-0,370	-0,267
62,203	174,014	-0,327	-0,332
63,217	115,259	-0,315	-0,270
64,232	-9,748	-0,366	-0,170
65,247	21,295	-0,362	-0,206
66,261	-6,829	-0,358	-0,170
67,276	124,389	-0,266	-0,234
68,290	11,091	-0,377	-0,201
69,305	21,619	-0,419	-0,238
70,320	50,852	-0,352	-0,233
71,334	-64,419	-0,282	-0,080
72,349	114,746	-0,204	-0,174
73,363	111,446	-0,402	-0,340
74,378	484,713	-0,177	-0,283
75,393	-21,443	-0,401	-0,171
76,407	129,047	-0,303	-0,271
77,422	-18,659	-0,344	-0,150
78,436	154,969	-0,201	-0,193
79,451	-8,613	-0,305	-0,143
80,466	35,021	-0,284	-0,174
81,480	54,019	-0,337	-0,227
82,495	191,277	-0,263	-0,278
83,509	128,417	-0,196	-0,175
84,524	6,706	-0,160	-0,083
85,539	-14,527	-0,223	-0,100
86,553	-4,998	-0,329	-0,158
87,568	116,360	-0,379	-0,325
88,582	342,861	-0,211	-0,290
89,597	-26,449	-0,317	-0,129
90,611	194,542	-0,228	-0,242
91,626	5,266	-0,313	-0,161
92,641	-33,997	-0,262	-0,100
93,655	-39,335	-0,334	-0,122
94,670	65,768	-0,211	-0,149
95,684	223,630	-0,272	-0,307
96,699	11,552	-0,245	-0,131
97,714	-25,296	-0,219	-0,090
98,728	41,793	-0,244	-0,154
99,743	4,736	-0,259	-0,133
100,757	-65,165	-0,152	-0,042
101,772	77,515	-0,291	-0,216
102,787	159,635	-0,200	-0,195
103,801	101,877	-0,331	-0,270
104,816	-9,645	-0,231	-0,107
105,830	-169,996	-0,177	0,004
106,845	-26,899	-0,265	-0,108
107,860	379,037	-0,189	-0,271
108,874	434,761	-0,214	-0,326
109,889	173,379	-0,256	-0,259
110,903	270,356	-0,079	-0,097
111,918	41,911	-0,195	-0,123
112,933	800,000	-0,071	-0,144
113,947	-40,902	-0,221	-0,079
114,962	-20,024	-0,259	-0,111
115,976	125,027	-0,177	-0,156
116,991	91,322	-0,336	-0,264
118,006	194,217	-0,194	-0,206
119,020	57,048	-0,328	-0,223
120,035	63,833	-0,174	-0,122
121,049	362,986	-0,124	-0,174
122,064	23,250	-0,316	-0,181
123,079	-31,551	-0,274	-0,107
124,093	54,112	-0,313	-0,209
125,108	89,226	-0,365	-0,283
126,122	-33,767	-0,320	-0,122
127,137	137,094	-0,169	-0,154
128,151	229,630	-0,154	-0,176
129,166	19,328	-0,195	-0,109
130,181	144,287	-0,187	-0,174
131,195	-112,678	-0,314	-0,043
132,210	40,843	-0,344	-0,216
133,224	54,770	-0,260	-0,175
134,239	148,621	-0,294	-0,277
135,254	-138,127	-0,181	-0,014
136,268	85,402	-0,217	-0,166
137,283	102,532	-0,194	-0,158
138,297	121,955	-0,221	-0,192
139,312	3,487	-0,341	-0,173
140,327	17,335	-0,339	-0,187
141,341	81,595	-0,238	-0,179
142,356	514,298	-0,136	-0,223
143,370	20,757	-0,231	-0,130
144,385	-17,219	-0,345	-0,151
145,400	23,372	-0,293	-0,167
146,414	127,022	-0,311	-0,275
147,429	268,144	-0,160	-0,196
148,443	794,632	-0,135	-0,260
149,458	213,853	-0,301	-0,332
150,473	32,264	-0,254	-0,152
151,487	259,390	-0,142	-0,171
152,502	289,510	-0,151	-0,191
153,516	91,749	-0,210	-0,165
154,531	13,260	-0,192	-0,103
155,546	800,000	-0,173	-0,342
156,560	-155,403	-0,351	-0,016
157,575	101,736	-0,175	-0,142
158,589	800,000	-0,112	-0,261
159,604	12,152	-0,376	-0,200
160,619	188,212	-0,187	-0,194
161,633	488,138	-0,150	-0,239
162,648	48,651	-0,259	-0,168
163,662	14,201	-0,254	-0,137
164,677	-64,029	-0,248	-0,070
165,692	-90,225	-0,268	-0,054
166,706	45,011	-0,182	-0,117
167,721	460,920	-0,145	-0,225
168,735	108,359	-0,168	-0,139
169,750	517,553	-0,161	-0,262
170,764	81,647	-0,159	-0,120
171,779	9,365	-0,144	-0,075
172,794	-85,902	-0,314	-0,067
173,808	238,258	-0,176	-0,203
174,823	-8,937	-0,360	-0,167
175,837	84,316	-0,271	-0,206
176,852	68,941	-0,277	-0,198
177,867	133,916	-0,073	-0,066
178,881	114,193	-0,243	-0,206
179,896	46,743	-0,222	-0,143
180,910	164,915	-0,195	-0,191
181,925	110,912	-0,265	-0,221
182,940	31,007	-0,241	-0,143
183,954	102,748	-0,300	-0,243
184,969	376,149	-0,134	-0,190
185,983	276,158	-0,107	-0,132
186,998	-200,000	-0,004	-0,158
188,013	-112,217	-0,154	-0,021
189,027	336,227	-0,210	-0,284
190,042	-40,797	-0,261	-0,093
191,056	142,761	-0,210	-0,194
192,071	82,385	-0,334	-0,251
193,086	-76,406	-0,180	0,044
194,100	32,468	-0,326	-0,195
195,115	418,819	-0,157	-0,234
196,129	-90,165	-0,140	-0,028
197,144	168,401	-0,249	-0,246
198,159	120,806	-0,235	-0,203
199,173	-24,741	-0,174	-0,071
200,188	-43,233	-0,153	-0,053
201,202	64,823	-0,160	-0,111
202,217	63,988	-0,182	-0,127
203,232	135,582	-0,235	-0,212
204,246	58,388	-0,192	-0,130
205,261	548,790	-0,122	-0,204
206,275	81,136	-0,237	-0,177
207,290	-200,000	-0,052	-0,257
208,304	-125,374	-0,192	0,020
209,319	113,550	-0,306	-0,258
210,334	179,720	-0,196	-0,199
211,348	109,228	-0,282	-0,234
212,363	426,812	-0,131	-0,196
213,377	266,642	-0,191	-0,231
214,392	-20,019	-0,145	-0,062
215,407	81,310	-0,158	-0,118
216,421	145,679	-0,083	-0,077
217,436	430,369	-0,144	-0,217
218,450	-169,543	-0,145	0,004
219,465	209,243	-0,170	-0,184
220,480	371,092	-0,146	-0,205
221,494	267,826	-0,136	-0,165
222,509	566,651	-0,117	-0,197
223,523	800,000	-0,039	-0,095
224,538	425,772	-0,122	-0,182
225,553	162,566	-0,133	-0,129
226,567	672,851	-0,105	-0,190
227,582	-63,250	-0,266	-0,075
228,596	-36,147	-0,147	-0,055
229,611	75,904	-0,167	-0,122
230,626	-200,000	0,007	-0,114
231,640	800,000	-0,091	-0,211
232,655	550,357	-0,127	-0,211
233,669	179,769	-0,155	-0,157
234,684	163,394	-0,060	-0,058
235,699	102,562	-0,102	-0,082
236,713	330,920	-0,105	-0,140
237,728	-200,000	-0,034	-0,174
238,742	118,570	-0,179	-0,153
239,757	249,902	-0,192	-0,225
240,772	239,725	-0,152	-0,175
241,786	128,948	-0,184	-0,162
242,801	-50,637	-0,089	-0,029
243,815	115,513	-0,147	-0,124
244,830	540,722	-0,202	-0,333
245,844	112,665	-0,142	-0,119
246,859	110,653	-0,204	-0,169
247,874	36,630	-0,289	-0,176
248,888	-200,000	-0,051	-0,162
249,903	514,821	-0,121	-0,195
250,917	21,027	-0,154	-0,086
251,932	-11,682	-0,239	-0,108
252,947	59,561	-0,114	-0,078
253,961	23,769	-0,283	-0,160
254,976	279,088	-0,168	-0,208
255,990	800,000	-0,128	-0,253
257,005	581,130	-0,114	-0,193
258,020	-152,246	-0,190	-0,009
259,034	491,710	-0,115	-0,182
260,049	184,614	-0,168	-0,172
261,063	136,221	-0,102	-0,092
262,078	175,689	-0,251	-0,251
263,093	459,519	-0,112	-0,172
264,107	235,552	-0,148	-0,168
265,122	395,793	-0,155	-0,223
266,136	100,689	-0,108	-0,086
267,151	-50,189	-0,203	-0,066
268,166	421,503	-0,097	-0,143
269,180	800,000	-0,156	-0,327
270,195	200,327	-0,166	-0,176
271,209	15,223	-0,150	-0,081
272,224	800,000	0,024	0,048
273,239	248,285	-0,087	-0,101
274,253	466,691	-0,143	-0,221
275,268	686,997	-0,112	-0,202
276,282	-71,081	-0,275	-0,071
277,297	238,898	-0,128	-0,146
278,312	800,000	-0,118	-0,251
279,326	671,136	0,037	-0,066
280,341	479,771	-0,102	-0,159
281,355	57,456	-0,078	-0,052
282,370	-17,933	-0,224	-0,096
283,384	75,590	-0,118	-0,086
284,399	-72,204	-0,193	-0,049
285,414	64,640	-0,193	-0,134
286,428	-200,000	-0,014	-0,132
287,443	361,165	0,063	-0,087
288,457	-63,644	-0,210	-0,059
289,472	-109,829	-0,144	-0,021
290,487	800,000	-0,094	-0,213
291,501	-94,592	-0,136	-0,025
292,516	19,761	-0,081	0,045
293,530	99,735	-0,130	-0,104
294,545	13,173	-0,248	-0,132
295,560	172,699	-0,096	-0,095
296,574	179,480	-0,183	-0,184
297,589	396,876	-0,060	-0,086
298,603	139,760	-0,101	-0,092
299,618	73,026	-0,179	-0,129
300,633	97,710	-0,071	-0,056
301,647	139,057	-0,104	-0,094
302,662	55,786	-0,116	-0,077
303,676	-200,000	-0,001	-0,061
304,691	619,826	-0,150	-0,260
305,706	448,598	-0,157	-0,238
306,720	688,353	-0,082	-0,148
307,735	152,738	-0,171	-0,160
308,749	114,803	-0,202	-0,169
309,764	50,181	-0,047	-0,030
310,779	17,310	-0,144	-0,078
311,793	-76,045	-0,207	-0,050
312,808	203,338	-0,133	-0,141
313,822	323,201	-0,080	-0,105
314,837	107,365	-0,178	-0,145
315,852	270,781	-0,106	-0,129
316,866	159,733	-0,085	-0,081
317,881	346,749	-0,060	-0,081
318,895	-200,000	-0,031	-0,148
319,910	90,492	-0,190	-0,146
320,925	168,020	-0,132	-0,129
321,939	14,630	-0,167	-0,089
322,954	38,457	-0,155	-0,094
323,968	66,269	-0,053	-0,037
324,983	-91,502	-0,048	-0,009
325,997	-200,000	0,002	0,071
327,012	-136,019	-0,159	-0,013
328,027	-65,963	-0,209	-0,057
329,041	800,000	-0,069	-0,131
330,056	-28,869	-0,150	-0,059
331,070	282,906	-0,216	-0,266
332,085	67,331	-0,201	-0,140
333,100	210,625	-0,184	-0,198
334,114	-27,394	-0,084	-0,033
335,129	361,397	-0,155	-0,214
336,143	158,552	-0,176	-0,168
337,158	208,662	-0,158	-0,170
338,173	-14,038	-0,105	-0,046
339,187	15,101	-0,094	-0,050
340,202	-200,000	-0,041	-0,233
341,216	-40,414	-0,173	-0,061
342,231	-200,000	0,027	-0,229
343,246	762,723	-0,057	-0,106
344,260	154,109	-0,154	-0,145
345,275	-104,389	-0,052	-0,008
346,289	-200,000	-0,012	-0,044
347,304	-66,352	-0,110	-0,030
348,319	-27,987	-0,147	-0,058
349,333	-12,820	-0,166	-0,074
350,348	-46,643	-0,110	0,037
351,362	81,845	-0,083	-0,061
352,377	-200,000	-0,073	-0,243
353,392	-200,000	-0,042	-0,167
354,406	134,037	-0,260	-0,230
355,421	205,610	1311,029	1394,990
356,435	158,087	1471,289	1395,454
