DTS Sentinel unit serial number:	SN410029Multiplexer serial number:	ORYXHardware model number:	OX2-SRSoftware version number:	ORYX F/W v4,00 Oryx Data Collector v3.7.2.0data status	okinstallation	B3 Nyhavnadifferential loss correction	single-endedforward channel	channel 1reverse channel	N/Adate	2023/12/04time	22:02:30forward acquisition time	300,00reverse acquisition time	0,00gamma	499,1914k internal	0,3200k external	0,3200temperature offset calibration	1,0000default loss term (dB/km)	0,3820temperature slope calibration	1,0000multiplexer offset coefficient	1,0000multiplexer slope coefficient	1,0000fibre end	0,00T internal ref (°C)	14,56T ext. ref 1 (°C)	-0,50T ext. ref 2 (°C)	-0,50length (m)	temperature (°C)	Stokes	anti-Stokes-744,400	482,469	-0,116	-0,193
-743,385	439,656	-0,222	0,355
-742,371	312,922	-0,085	-0,117
-741,356	-200,000	-0,073	0,271
-740,342	800,000	-0,117	-0,353
-739,327	800,000	-0,125	0,325
-738,312	666,867	-0,144	-0,272
-737,298	800,000	-0,106	0,246
-736,283	228,018	-0,250	-0,297
-735,269	-200,000	0,035	0,176
-734,254	323,282	-0,296	-0,412
-733,239	-123,636	-0,241	-0,027
-732,225	-200,000	0,032	-0,216
-731,210	50,245	0,092	0,063
-730,196	-200,000	-0,038	-0,162
-729,181	-40,811	-0,145	-0,054
-728,167	-95,590	-0,117	-0,023
-727,152	-16,616	0,107	0,049
-726,137	-99,258	-0,032	0,006
-725,123	-61,560	-0,145	0,044
-724,108	-200,000	-0,016	-0,073
-723,094	800,000	-0,081	-0,166
-722,079	137,316	0,047	0,044
-721,064	-200,000	-0,017	-0,072
-720,050	-174,178	-0,045	0,001
-719,035	265,290	0,056	0,072
-718,021	748,503	0,040	-0,080
-717,006	-0,710	-0,063	-0,032
-715,991	1,922	-0,107	-0,056
-714,977	723,091	0,029	-0,056
-713,962	142,698	-0,031	0,030
-712,948	-38,044	0,063	-0,024
-711,933	-70,215	0,035	0,010
-710,918	-200,000	0,001	-0,029
-709,904	800,000	0,067	-0,141
-708,889	-200,000	0,033	-0,153
-707,875	-51,017	-0,019	-0,007
-706,860	800,000	0,025	-0,066
-705,845	-49,151	-0,156	0,054
-704,831	428,328	-0,072	-0,113
-703,816	-115,494	0,138	-0,019
-702,802	658,272	-0,049	0,092
-701,787	-127,957	-0,065	-0,007
-700,772	800,000	-0,069	-0,206
-699,758	30,386	0,084	-0,052
-698,743	-200,000	0,036	-0,194
-697,729	800,000	-0,039	-0,089
-696,714	-47,203	-0,066	0,023
-695,699	-200,000	-0,000	-0,096
-694,685	-200,000	-0,015	-0,066
-693,670	770,821	-0,019	-0,038
-692,656	-17,900	0,077	0,035
-691,641	-32,588	-0,106	0,043
-690,627	-200,000	0,003	-0,066
-689,612	193,499	-0,086	-0,094
-688,597	-102,170	0,066	0,011
-687,583	-200,000	-0,001	0,074
-686,568	-97,583	-0,096	-0,018
-685,554	-76,675	0,045	-0,011
-684,539	-200,000	0,009	-0,070
-683,524	-200,000	0,003	-0,082
-682,510	62,769	-0,095	0,069
-681,495	-53,305	-0,171	-0,057
-680,481	-200,000	0,000	-0,049
-679,466	267,892	0,045	-0,057
-678,451	-200,000	0,004	0,017
-677,437	-200,000	0,003	0,092
-676,422	800,000	0,011	-0,029
-675,408	557,366	-0,040	-0,071
-674,393	-200,000	-0,026	-0,149
-673,378	38,711	-0,121	-0,078
-672,364	124,305	0,037	0,034
-671,349	137,790	-0,131	0,124
-670,335	-200,000	0,002	-0,010
-669,320	301,463	-0,032	-0,043
-668,305	-16,673	-0,071	0,033
-667,291	-124,011	0,078	0,009
-666,276	-200,000	-0,034	-0,113
-665,262	-109,328	-0,055	-0,008
-664,247	-200,000	-0,003	-0,120
-663,232	-200,000	-0,001	-0,042
-662,218	715,200	0,029	-0,055
-661,203	13,837	-0,056	-0,031
-660,189	565,220	0,027	-0,047
-659,174	-72,491	-0,139	-0,037
-658,159	263,012	-0,094	-0,118
-657,145	-200,000	-0,001	-0,042
-656,130	-9,225	0,072	-0,035
-655,116	800,000	-0,010	-0,025
-654,101	287,223	-0,035	0,046
-653,086	-199,699	-0,076	0,000
-652,072	407,451	-0,043	-0,066
-651,057	318,006	0,046	-0,063
-650,043	116,887	-0,124	-0,111
-649,028	-134,458	-0,099	0,009
-648,014	-28,063	-0,118	-0,049
-646,999	800,000	-0,024	0,049
-645,984	-96,939	-0,031	-0,006
-644,970	282,690	-0,087	-0,113
-643,955	-200,000	-0,020	-0,085
-642,941	449,838	-0,121	-0,195
-641,926	-15,980	0,151	-0,069
-640,911	476,389	-0,011	0,019
-639,897	158,834	0,145	0,146
-638,882	-36,241	-0,087	-0,034
-637,868	-200,000	0,015	0,048
-636,853	-200,000	-0,047	-0,157
-635,838	-154,159	0,109	-0,005
-634,824	-200,000	0,005	-0,075
-633,809	45,091	0,093	-0,062
-632,795	294,963	0,079	-0,105
-631,780	144,959	0,088	0,085
-630,765	-3,638	-0,049	-0,025
-629,751	125,234	-0,136	-0,124
-628,736	800,000	-0,007	-0,020
-627,722	23,306	-0,034	-0,020
-626,707	371,289	-0,025	-0,037
-625,692	800,000	0,042	0,108
-624,678	319,143	-0,129	-0,177
-623,663	188,185	0,011	0,012
-622,649	57,958	-0,139	-0,098
-621,634	616,458	-0,049	-0,089
-620,619	722,487	-0,019	0,037
-619,605	-200,000	0,008	0,147
-618,590	-200,000	0,002	0,008
-617,576	-200,000	0,025	-0,090
-616,561	78,029	-0,051	-0,040
-615,546	-200,000	-0,033	-0,114
-614,532	-200,000	-0,034	-0,141
-613,517	-200,000	0,020	-0,128
-612,503	284,056	-0,027	0,036
-611,488	8,454	0,119	-0,065
-610,474	-200,000	-0,003	0,087
-609,459	131,597	0,018	0,016
-608,444	65,096	-0,060	0,044
-607,430	101,713	-0,084	-0,071
-606,415	-152,039	0,093	0,005
-605,401	-113,046	0,097	0,014
-604,386	41,868	-0,105	0,069
-603,371	572,497	-0,098	0,173
-602,357	10,504	-0,034	0,019
-601,342	-57,963	-0,120	-0,038
-600,328	-47,720	-0,128	-0,045
-599,313	-101,585	-0,063	-0,011
-598,298	61,250	0,078	0,056
-597,284	-86,527	-0,052	0,011
-596,269	289,675	0,078	0,103
-595,255	800,000	-0,018	0,041
-594,240	-36,993	-0,017	0,006
-593,225	-43,100	-0,053	0,019
-592,211	800,000	-0,042	0,087
-591,196	800,000	-0,035	-0,084
-590,182	-200,000	0,031	0,120
-589,167	491,693	-0,030	-0,050
-588,152	-24,708	0,035	0,015
-587,138	112,555	-0,086	-0,075
-586,123	-200,000	-0,052	-0,199
-585,109	15,613	-0,211	0,120
-584,094	174,290	0,077	-0,081
-583,079	800,000	-0,060	-0,127
-582,065	-200,000	-0,018	0,191
-581,050	48,389	0,095	0,064
-580,036	-200,000	0,005	0,033
-579,021	40,125	0,030	0,019
-578,006	-118,323	0,059	0,008
-576,992	800,000	0,029	-0,076
-575,977	-200,000	-0,020	-0,077
-574,963	800,000	0,032	0,076
-573,948	315,247	0,065	0,089
-572,934	67,671	-0,030	0,022
-571,919	-22,195	-0,061	-0,027
-570,904	800,000	-0,018	-0,055
-569,890	294,584	0,031	0,041
-568,875	123,886	-0,016	-0,015
-567,861	272,160	0,095	0,121
-566,846	-76,180	0,048	-0,012
-565,831	86,591	-0,048	-0,038
-564,817	800,000	-0,057	-0,149
-563,802	-12,684	-0,190	-0,089
-562,788	620,721	0,035	-0,064
-561,773	483,372	0,017	-0,029
-560,758	26,809	-0,088	0,053
-559,744	11,629	-0,034	-0,019
-558,729	-109,097	0,096	0,015
-557,715	-200,000	0,007	-0,037
-556,700	-172,005	-0,205	0,005
-555,685	234,215	-0,046	-0,054
-554,671	-51,776	-0,041	0,014
-553,656	647,232	0,017	-0,031
-552,642	-62,357	0,086	0,026
-551,627	-8,151	0,055	-0,027
-550,612	800,000	0,031	0,079
-549,598	-30,017	-0,131	0,054
-548,583	51,904	-0,114	-0,078
-547,569	-38,909	-0,093	0,035
-546,554	521,944	0,074	0,125
-545,539	-46,446	0,062	0,022
-544,525	-6,300	-0,019	-0,009
-543,510	173,516	0,063	-0,066
-542,496	475,802	-0,025	-0,040
-541,481	335,150	-0,034	0,047
-540,466	-69,837	0,062	0,017
-539,452	-200,000	-0,025	0,106
-538,437	484,043	-0,036	-0,060
-537,423	-200,000	0,002	0,099
-536,408	-41,912	0,046	-0,017
-535,393	-200,000	0,031	-0,126
-534,379	-48,980	-0,039	-0,014
-533,364	185,748	0,147	0,158
-532,350	191,589	-0,046	0,050
-531,335	-200,000	0,053	0,178
-530,321	-200,000	0,004	0,049
-529,306	-38,324	0,063	-0,024
-528,291	-200,000	0,004	0,055
-527,277	-130,762	-0,185	0,018
-526,262	342,181	-0,054	-0,077
-525,248	-97,564	0,117	-0,022
-524,233	395,974	0,036	-0,054
-523,218	16,291	0,119	0,067
-522,204	-108,688	0,084	0,013
-521,189	-128,198	0,101	-0,010
-520,175	103,537	-0,043	-0,037
-519,160	392,987	-0,031	-0,047
-518,145	216,219	0,066	-0,075
-517,131	-200,000	-0,010	-0,100
-516,116	-102,819	0,136	0,023
-515,102	-10,006	-0,015	-0,007
-514,087	-133,015	0,041	0,004
-513,072	-3,948	0,051	0,025
-512,058	-7,298	0,089	-0,043
-511,043	464,499	0,051	-0,083
-510,029	-200,000	0,025	0,192
-509,014	-63,393	0,036	-0,011
-507,999	45,216	-0,123	0,082
-506,985	-200,000	-0,026	-0,141
-505,970	-130,726	0,046	-0,004
-504,956	212,338	-0,134	-0,152
-503,941	-200,000	-0,012	-0,099
-502,926	325,629	-0,043	0,059
-501,912	213,279	0,031	-0,035
-500,897	800,000	-0,009	-0,019
-499,883	800,000	-0,029	-0,080
-498,868	99,103	0,078	0,065
-497,853	-89,486	-0,066	-0,014
-496,839	74,143	-0,034	0,025
-495,824	-22,152	0,108	0,047
-494,810	-200,000	-0,020	-0,089
-493,795	-200,000	-0,002	-0,127
-492,781	800,000	-0,016	-0,032
-491,766	-200,000	0,008	-0,030
-490,751	-12,968	-0,045	0,021
-489,737	5,430	0,083	-0,044
-488,722	-115,458	0,076	0,010
-487,708	220,136	-0,094	0,108
-486,693	-39,980	-0,071	-0,027
-485,678	-5,891	-0,099	-0,049
-484,664	-139,378	-0,135	0,010
-483,649	-200,000	-0,006	-0,058
-482,635	1,043	-0,060	-0,031
-481,620	36,873	0,078	0,050
-480,605	164,303	0,013	-0,013
-479,591	305,395	-0,055	0,074
-478,576	376,592	0,012	0,018
-477,562	44,041	0,083	0,054
-476,547	129,713	-0,046	0,042
-475,532	247,083	0,038	0,046
-474,518	519,667	0,041	-0,069
-473,503	-159,669	-0,057	-0,002
-472,489	800,000	0,040	-0,092
-471,474	132,275	-0,121	0,112
-470,459	156,619	-0,018	-0,018
-469,445	671,592	0,009	-0,016
-468,430	-62,671	0,091	-0,027
-467,416	113,236	0,068	0,060
-466,401	800,000	0,044	0,127
-465,386	800,000	0,063	0,187
-464,372	67,334	-0,018	0,013
-463,357	-46,046	-0,086	0,030
-462,343	525,362	-0,093	-0,158
-461,328	254,724	-0,039	-0,048
-460,313	-12,767	0,108	-0,050
-459,299	-87,658	0,104	0,022
-458,284	-200,000	0,008	0,051
-457,270	240,836	0,050	0,060
-456,255	-53,946	-0,061	-0,020
-455,241	-200,000	0,053	0,182
-454,226	363,024	0,020	0,029
-453,211	22,319	0,075	0,044
-452,197	800,000	0,010	-0,024
-451,182	800,000	-0,058	0,131
-450,168	102,641	0,090	0,076
-449,153	-200,000	0,040	-0,131
-448,138	-3,580	-0,111	-0,055
-447,124	-79,111	-0,138	-0,034
-446,109	800,000	0,024	-0,060
-445,095	322,348	0,039	-0,053
-444,080	105,994	0,030	0,025
-443,065	-88,436	0,125	-0,027
-442,051	-97,619	0,042	0,008
-441,036	18,866	0,097	-0,056
-440,022	77,355	0,056	-0,043
-439,007	-35,055	0,088	-0,034
-437,992	-88,345	0,046	-0,010
-436,978	-200,000	-0,002	0,052
-435,963	-200,000	0,025	0,123
-434,949	89,539	0,041	0,033
-433,934	390,648	-0,082	-0,122
-432,919	70,323	0,129	-0,096
-431,905	-157,625	-0,017	-0,001
-430,890	437,122	0,050	0,078
-429,876	319,884	0,012	0,016
-428,861	-200,000	0,008	0,045
-427,846	284,609	0,066	-0,086
-426,832	298,957	-0,045	0,060
-425,817	7,336	-0,130	0,070
-424,803	-200,000	0,111	-0,000
-423,788	-12,366	0,164	-0,076
-422,773	22,265	-0,052	0,031
-421,759	54,888	0,154	-0,106
-420,744	167,255	-0,094	-0,096
-419,730	286,288	0,064	-0,083
-418,715	-200,000	0,004	-0,196
-417,701	-44,228	0,050	0,018
-416,686	-200,000	0,000	0,151
-415,671	44,476	0,102	0,067
-414,657	18,982	0,032	-0,018
-413,642	92,303	-0,004	-0,004
-412,628	-89,114	0,076	-0,016
-411,613	395,934	0,049	0,073
-410,598	241,196	0,057	-0,068
-409,584	-200,000	-0,018	0,126
-408,569	800,000	0,029	0,069
-407,555	594,666	-0,038	0,069
-406,540	-200,000	-0,003	0,045
-405,525	-200,000	0,010	0,173
-404,511	-175,757	0,014	0,000
-403,496	512,352	-0,070	-0,118
-402,482	-72,907	-0,130	-0,034
-401,467	207,507	-0,034	0,038
-400,452	-79,412	0,130	-0,031
-399,438	-92,768	-0,025	-0,005
-398,423	-86,668	0,070	-0,015
-397,409	-40,259	-0,058	0,021
-396,394	-154,874	-0,082	0,004
-395,379	-18,815	-0,025	0,011
-394,365	-129,428	0,074	0,007
-393,350	-200,000	0,003	0,080
-392,336	580,113	0,028	0,050
-391,321	-200,000	-0,005	0,063
-390,306	-82,074	-0,104	-0,024
-389,292	-85,520	-0,151	-0,033
-388,277	642,467	0,082	0,150
-387,263	-41,472	0,126	0,046
-386,248	-200,000	0,015	0,159
-385,233	-33,468	0,040	-0,016
-384,219	-27,582	0,079	-0,033
-383,204	63,870	0,066	0,047
-382,190	-105,323	-0,066	-0,011
-381,175	-75,505	0,099	-0,025
-380,160	-21,674	-0,052	0,023
-379,146	-135,629	0,152	0,013
-378,131	360,529	-0,031	0,045
-377,117	425,959	-0,061	0,095
-376,102	-94,474	0,093	-0,018
-375,088	-200,000	0,005	-0,050
-374,073	558,940	0,020	0,035
-373,058	800,000	-0,020	0,046
-372,044	-133,996	0,208	-0,018
-371,029	-200,000	-0,023	-0,136
-370,015	485,079	0,048	-0,078
-369,000	-200,000	0,001	-0,012
-367,985	-114,184	-0,023	0,003
-366,971	-79,599	0,105	-0,025
-365,956	-9,696	-0,021	0,010
-364,942	800,000	-0,011	-0,028
-363,927	-129,426	0,128	0,013
-362,912	-200,000	0,013	0,099
-361,898	47,843	-0,072	-0,048
-360,883	246,247	-0,043	0,052
-359,869	61,652	-0,105	0,075
-358,854	-200,000	0,005	0,104
-357,839	8,847	0,075	0,041
-356,825	800,000	-0,023	0,054
-355,810	306,781	0,071	-0,095
-354,796	-51,768	0,076	-0,025
-353,781	13,090	-0,147	0,081
-352,766	536,702	-0,031	-0,053
-351,752	196,014	0,023	0,025
-350,737	201,892	-0,039	0,043
-349,723	-200,000	-0,026	0,115
-348,708	135,226	0,066	-0,062
-347,693	800,000	-0,012	0,028
-346,679	-200,000	0,010	-0,033
-345,664	-200,000	0,015	-0,069
-344,650	300,222	-0,058	-0,077
-343,635	61,044	0,126	-0,090
-342,620	-73,623	0,099	-0,026
-341,606	17,616	-0,101	0,058
-340,591	-91,938	0,031	-0,006
-339,577	-29,710	-0,150	-0,061
-338,562	578,437	-0,039	-0,069
-337,548	89,490	-0,095	-0,075
-336,533	578,173	-0,032	-0,056
-335,518	124,077	0,025	0,023
-334,504	800,000	-0,034	0,080
-333,489	-173,912	-0,081	0,002
-332,475	235,241	0,053	0,062
-331,460	-200,000	-0,046	-0,192
-330,445	800,000	0,052	-0,129
-329,431	-146,864	-0,074	-0,004
-328,416	346,687	-0,096	0,136
-327,402	800,000	0,005	-0,015
-326,387	-5,830	-0,117	-0,057
-325,372	-71,072	-0,037	-0,010
-324,358	-200,000	-0,042	-0,135
-323,343	800,000	-0,017	-0,034
-322,329	-24,355	-0,045	-0,019
-321,314	-200,000	0,005	0,132
-320,299	-200,000	-0,013	0,117
-319,285	-32,209	-0,032	0,013
-318,270	487,007	-0,053	-0,088
-317,256	-200,000	-0,010	0,063
-316,241	45,132	0,041	0,027
-315,226	800,000	-0,016	0,037
-314,212	-200,000	0,040	0,154
-313,197	800,000	-0,045	-0,123
-312,183	-72,414	0,088	-0,023
-311,168	67,049	-0,046	-0,034
-310,153	74,554	-0,070	-0,053
-309,139	800,000	0,002	-0,007
-308,124	-0,128	-0,019	-0,010
-307,110	-4,439	0,035	0,017
-306,095	-200,000	-0,001	-0,004
-305,080	-28,945	0,100	0,041
-304,066	-200,000	0,023	0,086
-303,051	-10,070	-0,065	-0,031
-302,037	653,688	-0,032	-0,058
-301,022	136,212	0,058	-0,054
-300,008	-52,468	0,127	-0,042
-298,993	-104,395	-0,041	0,007
-297,978	-200,000	0,016	0,082
-296,964	9,000	0,105	-0,057
-295,949	-185,052	0,035	0,000
-294,935	800,000	0,021	0,052
-293,920	145,776	0,050	-0,048
-292,905	-29,784	-0,034	-0,014
-291,891	-43,830	0,220	0,079
-290,876	110,727	0,079	0,068
-289,862	34,534	-0,175	0,109
-288,847	-21,537	0,096	-0,042
-287,832	800,000	-0,003	0,007
-286,818	296,948	0,052	-0,069
-285,803	39,034	0,046	-0,029
-284,789	-200,000	-0,014	-0,063
-283,774	-200,000	-0,004	0,102
-282,759	10,553	0,058	-0,032
-281,745	42,990	0,021	0,014
-280,730	-200,000	-0,024	0,117
-279,716	121,756	-0,033	0,029
-278,701	-63,863	0,158	0,046
-277,686	800,000	-0,015	-0,031
-276,672	-20,685	-0,097	-0,042
-275,657	-200,000	-0,002	-0,123
-274,643	304,980	-0,077	-0,103
-273,628	269,166	0,016	-0,021
-272,613	-200,000	-0,015	-0,070
-271,599	-118,990	-0,081	-0,010
-270,584	-96,417	-0,067	0,012
-269,570	-200,000	-0,012	0,065
-268,555	-36,026	-0,094	0,036
-267,540	800,000	-0,027	0,060
-266,526	800,000	-0,074	-0,155
-265,511	800,000	-0,028	-0,063
-264,497	417,050	0,069	0,106
-263,482	-16,798	0,111	-0,050
-262,467	-57,492	0,061	0,019
-261,453	476,458	0,090	0,145
-260,438	-200,000	-0,025	-0,097
-259,424	118,019	-0,044	-0,039
-258,409	282,190	-0,030	-0,038
-257,395	-200,000	0,001	0,071
-256,380	-200,000	-0,003	-0,055
-255,365	-200,000	0,007	0,130
-254,351	492,041	-0,033	-0,055
-253,336	-200,000	-0,015	-0,123
-252,322	-9,993	-0,018	0,009
-251,307	-200,000	0,042	0,161
-250,292	-200,000	0,045	-0,153
-249,278	-200,000	0,012	-0,086
-248,263	-20,868	0,047	-0,021
-247,249	-93,666	0,036	0,007
-246,234	-130,388	-0,091	0,009
-245,219	185,700	-0,064	0,068
-244,205	-200,000	0,003	-0,037
-243,190	298,176	-0,021	-0,028
-242,176	692,057	-0,031	-0,058
-241,161	-200,000	0,007	-0,060
-240,146	-94,385	-0,116	0,022
-239,132	-200,000	-0,020	-0,135
-238,117	176,972	0,063	0,066
-237,103	329,896	-0,051	0,070
-236,088	32,286	-0,106	-0,065
-235,073	10,202	0,077	0,042
-234,059	35,336	0,079	-0,049
-233,044	-130,091	0,103	0,010
-232,030	-22,193	0,087	0,038
-231,015	-200,000	-0,033	-0,249
-230,000	290,359	0,037	-0,048
-228,986	489,369	-0,007	-0,012
-227,971	221,442	-0,018	0,021
-226,957	446,008	0,050	0,079
-225,942	145,644	-0,036	0,034
-224,927	-36,772	0,141	0,054
-223,913	800,000	-0,057	-0,130
-222,898	741,965	-0,036	-0,070
-221,884	800,000	-0,017	0,049
-220,869	-200,000	-0,015	0,052
-219,855	-200,000	-0,002	0,115
-218,840	261,173	-0,027	-0,034
-217,825	458,920	0,040	-0,063
-216,811	-78,219	-0,133	-0,032
-215,796	162,116	0,044	0,044
-214,782	800,000	-0,034	-0,094
-213,767	715,367	-0,058	0,109
-212,752	126,989	-0,037	0,033
-211,738	187,075	-0,019	0,020
-210,723	473,849	-0,102	0,164
-209,709	-200,000	0,016	-0,082
-208,694	340,008	0,020	-0,028
-207,679	64,531	0,100	-0,072
-206,665	-54,940	-0,135	0,043
-205,650	421,268	0,058	0,088
-204,636	-200,000	-0,010	0,074
-203,621	-132,449	0,011	0,001
-202,606	12,970	-0,015	-0,008
-201,592	82,656	0,062	0,048
-200,577	-200,000	-0,022	-0,145
-199,563	-25,298	-0,055	-0,023
-198,548	84,141	0,085	0,066
-197,533	-200,000	-0,008	0,083
-196,519	-73,227	0,049	-0,013
-195,504	184,268	-0,065	-0,068
-194,490	-18,490	-0,115	0,051
-193,475	110,376	-0,155	-0,133
-192,460	-1,957	0,122	0,061
-191,446	201,841	-0,010	0,011
-190,431	-129,080	0,129	0,013
-189,417	800,000	-0,049	0,135
-188,402	-101,418	0,032	-0,006
-187,387	269,739	0,072	0,090
-186,373	800,000	-0,028	0,078
-185,358	-200,000	-0,003	0,059
-184,344	83,420	0,083	0,064
-183,329	31,170	-0,069	-0,042
-182,315	-200,000	0,004	-0,100
-181,300	800,000	0,015	-0,040
-180,285	800,000	-0,026	-0,067
-179,271	-117,061	-0,134	-0,017
-178,256	639,272	0,073	-0,133
-177,242	-200,000	-0,040	0,125
-176,227	800,000	-0,022	0,047
-175,212	237,853	0,067	0,080
-174,198	34,607	0,081	0,050
-173,183	-200,000	-0,020	0,114
-172,169	-200,000	0,017	0,099
-171,154	34,762	-0,110	-0,068
-170,139	62,102	-0,014	0,010
-169,125	-200,000	-0,009	0,057
-168,110	791,747	0,052	0,102
-167,096	211,436	-0,058	0,065
-166,081	-200,000	-0,015	0,049
-165,066	54,890	-0,110	-0,076
-164,052	13,108	-0,132	0,072
-163,037	-82,674	-0,122	0,028
-162,023	-200,000	0,012	-0,099
-161,008	-200,000	0,001	-0,024
-159,993	-200,000	-0,006	0,114
-158,979	-156,581	0,069	-0,003
-157,964	479,649	-0,038	-0,061
-156,950	124,118	0,156	-0,140
-155,935	508,199	-0,031	0,051
-154,920	354,500	0,068	0,096
-153,906	-38,845	0,053	0,020
-152,891	-200,000	-0,034	0,152
-151,877	-64,673	-0,080	0,023
-150,862	-200,000	0,015	-0,205
-149,847	-200,000	0,027	-0,130
-148,833	-9,994	-0,180	-0,085
-147,818	-200,000	-0,020	0,090
-146,804	15,653	0,028	0,015
-145,789	304,403	-0,035	-0,047
-144,775	97,137	0,109	0,089
-143,760	-200,000	0,013	0,101
-142,745	280,256	0,059	-0,075
-141,731	-71,679	-0,012	0,003
-140,716	-200,000	-0,007	0,098
-139,702	-200,000	0,008	0,146
-138,687	-57,268	0,080	0,025
-137,672	169,543	-0,056	0,057
-136,658	393,770	-0,073	0,108
-135,643	-200,000	-0,002	0,023
-134,629	800,000	-0,063	0,141
-133,614	800,000	0,037	-0,074
-132,599	-182,481	-0,106	-0,001
-131,585	-93,430	0,123	-0,024
-130,570	102,599	-0,101	0,084
-129,556	42,600	0,196	0,126
-128,541	-23,179	-0,060	0,025
-127,526	94,135	-0,023	-0,019
-126,512	286,268	0,069	0,089
-125,497	55,484	-0,076	0,052
-124,483	-200,000	0,027	-0,112
-123,468	-63,783	-0,068	0,020
-122,453	-200,000	0,006	-0,055
-121,439	69,781	-0,109	-0,080
-120,424	215,788	-0,037	0,042
-119,410	-200,000	0,002	0,135
-118,395	800,000	0,054	0,113
-117,380	-19,347	-0,084	0,037
-116,366	-94,237	0,147	0,028
-115,351	-200,000	0,007	0,037
-114,337	-200,000	0,019	-0,061
-113,322	800,000	-0,008	0,023
-112,307	322,360	-0,080	-0,108
-111,293	-200,000	-0,015	0,124
-110,278	97,865	-0,012	-0,009
-109,264	-200,000	-0,027	-0,098
-108,249	179,535	-0,157	-0,163
-107,234	6,861	-0,146	0,077
-106,220	206,372	-0,066	0,073
-105,205	-200,000	0,014	-0,156
-104,191	-127,412	0,092	-0,009
-103,176	-200,000	0,009	0,147
-102,162	-128,775	0,098	0,010
-101,147	-139,289	0,085	-0,006
-100,132	-200,000	0,023	-0,082
-99,118	42,685	-0,033	-0,022
-98,103	800,000	0,069	-0,136
-97,089	330,010	-0,065	0,089
-96,074	-65,909	0,146	-0,041
-95,059	54,942	0,099	0,068
-94,045	-200,000	-0,006	-0,028
-93,030	9,897	-0,154	0,083
-92,016	-200,000	-0,014	0,080
-91,001	22,960	0,101	0,059
-89,986	-133,948	0,057	-0,005
-88,972	23,827	0,044	-0,026
-87,957	-185,271	-0,106	0,001
-86,943	346,852	0,062	0,087
-85,928	800,000	0,014	0,028
-84,913	-200,000	-0,003	-0,092
-83,899	-37,883	-0,165	-0,062
-82,884	-200,000	-0,003	0,055
-81,870	85,087	0,086	-0,067
-80,855	560,716	-0,039	0,067
-79,840	439,547	-0,070	0,109
-78,826	237,466	0,039	-0,046
-77,811	-23,065	-0,100	-0,043
-76,797	800,000	0,035	0,092
-75,782	245,543	-0,073	0,087
-74,767	-24,564	0,119	-0,050
-73,753	761,433	0,082	-0,158
-72,738	-200,000	0,036	0,189
-71,724	-83,011	-0,180	0,041
-70,709	99,487	0,101	-0,082
-69,694	76,409	-0,085	-0,063
-68,680	-121,650	0,087	0,010
-67,665	-200,000	-0,020	0,077
-66,651	140,672	-0,189	0,177
-65,636	-200,000	0,016	-0,062
-64,622	-200,000	-0,030	-0,146
-63,607	-102,399	0,052	0,009
-62,592	372,601	0,022	0,032
-61,578	-81,912	0,128	-0,030
-60,563	232,857	0,064	0,075
-59,549	800,000	-0,040	0,078
-58,534	-55,941	-1,626	-0,511
-57,519	368,178	-1,532	-2,200
-56,505	-200,000	-0,643	-4,570
-55,490	96,707	1,023	0,829
-54,476	800,000	4,985	11,370
-53,461	-200,000	18,572	295,995
-52,446	800,000	730,848	2254,366
-51,432	558,400	1647,291	2825,286
-50,417	78,923	1667,919	1262,968
-49,403	22,492	1541,068	890,196
-48,388	16,434	1464,120	816,366
-47,373	17,793	1454,180	817,341
-46,359	17,032	1444,496	808,224
-45,344	14,693	1439,634	794,289
-44,330	14,623	1438,038	793,042
-43,315	14,620	1436,173	791,968
-42,300	14,640	1434,521	791,121
-41,286	14,663	1433,416	790,592
-40,271	14,604	1432,174	789,591
-39,257	14,614	1430,985	788,952
-38,242	14,643	1429,636	788,319
-37,227	14,700	1428,277	787,809
-36,213	14,706	1426,748	786,961
-35,198	14,657	1425,908	786,235
-34,184	14,695	1424,830	785,788
-33,169	14,640	1423,623	784,830
-32,154	14,684	1422,470	784,373
-31,140	14,679	1421,033	783,524
-30,125	14,665	1420,159	782,946
-29,111	14,674	1418,835	782,227
-28,096	14,657	1417,851	781,572
-27,082	14,603	1416,763	780,689
-26,067	14,612	1415,841	780,190
-25,052	14,606	1414,724	779,520
-24,038	14,570	1413,700	778,752
-23,023	14,565	1412,658	778,127
-22,009	14,567	1411,745	777,602
-20,994	14,548	1410,894	777,014
-19,979	14,535	1409,985	776,422
-18,965	14,551	1409,049	775,950
-17,950	14,560	1407,795	775,271
-16,936	14,497	1407,125	774,576
-15,921	14,527	1405,793	773,952
-14,906	14,494	1405,032	773,346
-13,892	14,490	1404,153	772,816
-12,877	14,462	1403,284	772,174
-11,863	14,540	1402,143	771,881
-10,848	14,464	1401,542	771,163
-9,833	14,465	1400,531	770,580
-8,819	14,475	1399,688	770,135
-7,804	14,360	1398,933	769,156
-6,790	14,399	1397,879	768,725
-5,775	14,355	1396,698	767,840
-4,760	14,426	1395,756	767,623
-3,746	14,399	1394,884	766,986
-2,731	14,413	1394,040	766,558
-1,717	14,397	1393,224	766,002
-0,702	14,431	1391,287	765,065
0,313	18,246	1309,810	737,931
1,327	34,637	705,742	435,547
2,342	53,402	124,196	84,127
3,356	3,335	16,486	8,466
4,371	-11,617	3,250	1,505
5,386	-68,319	0,647	0,177
6,400	-200,000	-0,040	0,153
7,415	-95,380	-0,412	-0,078
8,429	27,855	-0,250	-0,149
9,444	91,874	-0,299	-0,238
10,459	27,917	-0,352	-0,209
11,473	-2,630	-0,253	-0,125
12,488	2,971	-0,288	-0,148
13,502	51,833	-0,240	-0,161
14,517	-5,004	-0,428	-0,207
15,531	-30,964	-0,443	-0,176
16,546	134,202	-0,274	-0,251
17,561	193,154	-0,285	-0,305
18,575	-32,282	-0,324	-0,127
19,590	337,469	-0,174	-0,239
20,604	30,538	-0,358	-0,216
21,619	95,246	-0,484	-0,390
22,634	52,540	-0,418	-0,281
23,648	111,076	-0,388	-0,330
24,663	78,214	-0,432	-0,325
25,677	78,113	-0,336	-0,253
26,692	59,557	-0,364	-0,253
27,707	63,518	-0,378	-0,268
28,721	7,144	-0,373	-0,196
29,736	51,398	-0,388	-0,260
30,750	51,548	-0,446	-0,299
31,765	45,700	-0,456	-0,297
32,780	107,683	-0,302	-0,254
33,794	40,789	-0,298	-0,189
34,809	-69,226	-0,414	-0,111
35,823	-22,367	-0,448	-0,191
36,838	96,767	-0,414	-0,334
37,853	94,993	-0,451	-0,362
38,867	82,457	-0,393	-0,301
39,882	64,648	-0,333	-0,237
40,896	61,258	-0,371	-0,260
41,911	14,064	-0,368	-0,201
42,926	50,793	-0,330	-0,220
43,940	169,215	-0,458	-0,461
44,955	70,844	-0,427	-0,311
45,969	553,296	-0,206	-0,351
46,984	82,053	-0,409	-0,312
47,999	182,535	-0,263	-0,274
49,013	12,865	-0,385	-0,209
50,028	138,847	-0,362	-0,335
51,042	-35,922	-0,335	-0,127
52,057	93,650	-0,326	-0,260
53,071	144,444	-0,272	-0,256
54,086	51,522	-0,350	-0,234
55,101	7,818	-0,304	-0,160
56,115	137,958	-0,331	-0,305
57,130	98,599	-0,297	-0,241
58,144	34,884	-0,366	-0,225
59,159	85,616	-0,377	-0,291
60,174	258,790	-0,260	-0,316
61,188	42,364	-0,382	-0,244
62,203	-23,978	-0,482	-0,202
63,217	122,448	-0,200	-0,176
64,232	143,417	-0,224	-0,210
65,247	0,709	-0,524	-0,263
66,261	232,682	-0,284	-0,329
67,276	28,468	-0,406	-0,241
68,290	-13,318	-0,314	-0,143
69,305	-101,874	-0,395	-0,066
70,320	440,358	-0,217	-0,335
71,334	-97,725	-0,312	-0,056
72,349	87,508	-0,289	-0,225
73,363	21,741	-0,371	-0,212
74,378	90,342	-0,306	-0,241
75,393	180,373	-0,284	-0,294
76,407	24,831	-0,360	-0,209
77,422	219,040	-0,205	-0,231
78,436	-7,330	-0,322	-0,153
79,451	172,791	-0,208	-0,211
80,466	-8,095	-0,349	-0,165
81,480	109,733	-0,248	-0,209
82,495	13,730	-0,397	-0,216
83,509	-20,361	-0,284	-0,122
84,524	131,708	-0,323	-0,292
85,539	305,309	-0,219	-0,287
86,553	44,290	-0,287	-0,185
87,568	390,317	-0,266	-0,388
88,582	174,099	-0,342	-0,347
89,597	179,317	-0,288	-0,296
90,611	77,058	-0,294	-0,219
91,626	-3,406	-0,317	-0,155
92,641	-11,197	-0,255	0,117
93,655	16,236	-0,345	-0,191
94,670	180,143	-0,262	-0,270
95,684	203,608	-0,307	-0,334
96,699	187,466	-0,266	-0,279
97,714	-84,107	-0,242	-0,053
98,728	171,799	-0,235	-0,237
99,743	-27,970	-0,238	-0,096
100,757	39,378	-0,097	-0,061
101,772	139,778	-0,285	-0,264
102,787	59,080	-0,384	-0,264
103,801	98,180	-0,296	-0,239
104,816	140,379	-0,299	-0,277
105,830	-122,232	-0,203	0,023
106,845	50,994	-0,286	-0,190
107,860	185,944	-0,179	-0,186
108,874	-45,312	-0,298	-0,103
109,889	52,836	-0,284	-0,190
110,903	66,576	-0,225	-0,160
111,918	43,608	-0,290	-0,186
112,933	-49,124	-0,240	-0,080
113,947	-110,856	-0,253	-0,036
114,962	79,329	-0,317	-0,238
115,976	53,781	-0,235	-0,158
116,991	18,369	-0,199	-0,111
118,006	143,784	-0,243	-0,227
119,020	220,941	-0,297	-0,334
120,035	606,654	-0,158	-0,278
121,049	124,110	-0,131	-0,115
122,064	83,068	-0,221	-0,169
123,079	-3,875	-0,309	-0,149
124,093	-95,827	-0,347	-0,064
125,108	330,791	-0,281	-0,380
126,122	-54,506	-0,253	-0,080
127,137	148,305	-0,230	-0,218
128,151	309,376	-0,197	-0,259
129,166	67,939	-0,287	-0,205
130,181	3,144	-0,234	-0,119
131,195	71,317	-0,215	-0,156
132,210	115,907	-0,270	-0,231
133,224	44,898	-0,301	-0,193
134,239	44,172	-0,236	-0,151
135,254	35,164	-0,234	-0,143
136,268	-34,815	-0,257	-0,098
137,283	16,048	-0,226	-0,124
138,297	-7,056	-0,327	-0,154
139,312	166,045	-0,294	-0,291
140,327	222,385	-0,263	-0,297
141,341	662,174	-0,112	-0,202
142,356	-69,887	-0,292	-0,077
143,370	3,309	-0,216	-0,110
144,385	51,828	-0,342	-0,227
145,400	49,556	-0,229	-0,150
146,414	251,357	-0,138	-0,164
147,429	129,683	-0,250	-0,224
148,443	2,175	-0,316	-0,159
149,458	156,480	-0,167	-0,161
150,473	55,647	-0,192	-0,130
151,487	117,986	-0,178	-0,153
152,502	196,383	-0,204	-0,217
153,516	164,412	-0,156	-0,154
154,531	-102,196	-0,394	-0,065
155,546	-12,817	-0,168	-0,076
156,560	-3,650	-0,234	-0,113
157,575	-114,502	-0,202	-0,027
158,589	-24,168	-0,323	-0,134
159,604	711,649	-0,107	-0,198
160,619	75,031	-0,239	-0,176
161,633	126,199	-0,256	-0,226
162,648	800,000	-0,108	-0,268
163,662	176,976	-0,246	-0,250
164,677	691,999	-0,133	-0,245
165,692	95,157	-0,209	-0,166
166,706	13,916	-0,256	-0,138
167,721	366,354	-0,218	-0,308
168,735	-51,111	-0,285	-0,093
169,750	236,113	-0,210	-0,243
170,764	119,825	-0,228	-0,197
171,779	13,819	-0,226	-0,122
172,794	120,136	-0,284	-0,246
173,808	-118,079	-0,247	-0,030
174,823	-128,130	-0,228	-0,022
175,837	604,610	-0,132	-0,229
176,852	54,290	-0,312	-0,209
177,867	-50,375	-0,360	-0,118
178,881	25,765	-0,225	-0,130
179,896	208,941	-0,192	-0,210
180,910	82,031	-0,169	-0,127
181,925	53,055	-0,282	-0,188
182,940	69,688	-0,204	-0,146
183,954	-23,496	-0,329	-0,137
184,969	800,000	-0,110	-0,231
185,983	149,641	-0,251	-0,237
186,998	27,156	-0,221	-0,129
188,013	195,706	-0,198	-0,210
189,027	49,843	-0,252	-0,165
190,042	800,000	-0,123	-0,285
191,056	154,688	-0,235	-0,225
192,071	-39,714	-0,238	-0,086
193,086	107,823	-0,134	-0,111
194,100	383,312	-0,130	-0,187
195,115	-124,544	-0,121	0,013
196,129	28,927	-0,250	-0,147
197,144	-2,617	-0,271	-0,132
198,159	604,593	-0,112	-0,195
199,173	342,994	-0,188	-0,257
200,188	205,729	-0,200	-0,216
201,202	113,972	-0,151	-0,128
202,217	100,053	-0,285	-0,229
203,232	226,867	-0,187	-0,212
204,246	118,867	-0,189	-0,163
205,261	95,281	-0,208	-0,165
206,275	92,362	-0,204	-0,159
207,290	5,079	-0,190	-0,097
208,304	-124,242	-0,267	-0,029
209,319	-121,250	-0,217	-0,025
210,334	-44,161	-0,382	-0,132
211,348	-39,994	-0,229	-0,083
212,363	-109,396	-0,135	-0,020
213,377	193,397	-0,127	-0,134
214,392	382,218	-0,138	-0,198
215,407	-42,318	-0,196	-0,069
216,421	-112,656	-0,342	0,047
217,436	51,270	-0,141	-0,093
218,450	800,000	-0,072	-0,207
219,465	52,046	-0,351	-0,232
220,480	205,252	-0,167	-0,180
221,494	212,806	-0,189	-0,207
222,509	38,795	-0,210	-0,130
223,523	76,900	-0,184	-0,136
224,538	114,488	-0,218	-0,184
225,553	180,616	-0,202	-0,206
226,567	-200,000	-0,007	-0,292
227,582	24,029	-0,302	-0,172
228,596	75,435	-0,210	-0,154
229,611	142,251	-0,094	-0,086
230,626	-134,483	-0,130	-0,011
231,640	117,303	-0,171	-0,146
232,655	162,423	-0,179	-0,175
233,669	201,598	-0,154	-0,165
234,684	-96,975	-0,258	-0,046
235,699	-68,374	-0,172	-0,046
236,713	69,406	-0,155	-0,110
237,728	243,251	-0,196	-0,229
238,742	59,696	-0,278	-0,190
239,757	-73,338	-0,262	-0,066
240,772	90,810	-0,221	-0,172
241,786	374,714	-0,189	-0,267
242,801	-26,312	-0,208	-0,084
243,815	-105,986	-0,174	-0,027
244,830	-132,687	-0,080	0,007
245,844	-157,460	-0,273	0,011
246,859	124,799	-0,239	-0,208
247,874	130,655	-0,129	-0,115
248,888	800,000	-0,045	-0,134
249,903	78,713	-0,155	-0,114
250,917	164,371	-0,206	-0,202
251,932	66,597	-0,105	-0,074
252,947	-74,138	-0,209	-0,052
253,961	275,101	-0,024	-0,029
254,976	97,370	-0,218	-0,173
255,990	65,042	-0,230	-0,161
257,005	9,867	-0,253	-0,132
258,020	453,187	-0,133	-0,204
259,034	234,568	-0,075	-0,086
260,049	-109,028	-0,214	-0,031
261,063	-144,795	-0,148	-0,009
262,078	68,956	-0,209	-0,149
263,093	-71,326	-0,245	-0,063
264,107	74,007	-0,075	-0,055
265,122	-0,023	-0,177	-0,087
266,136	601,197	-0,109	-0,187
267,151	-40,691	-0,042	0,015
268,166	-30,571	-0,167	-0,065
269,180	412,597	-0,099	-0,146
270,195	6,521	-0,212	-0,108
271,209	-148,358	-0,150	-0,008
272,224	619,361	-0,125	-0,217
273,239	195,120	-0,102	-0,107
274,253	47,826	-0,143	-0,092
275,268	111,615	-0,104	-0,086
276,282	263,746	-0,140	-0,169
277,297	287,495	-0,130	-0,163
278,312	18,575	-0,196	-0,108
279,326	-108,286	-0,197	-0,029
280,341	204,042	-0,189	-0,203
281,355	-139,314	-0,148	0,011
282,370	87,948	-0,152	-0,117
283,384	-129,886	-0,071	-0,007
284,399	-64,431	-0,204	-0,057
285,414	2,230	-0,113	-0,056
286,428	110,973	-0,073	-0,061
287,443	800,000	-0,065	-0,163
288,457	452,185	-0,038	-0,058
289,472	646,076	-0,124	-0,219
290,487	159,409	-0,202	-0,194
291,501	115,106	-0,227	-0,191
292,516	96,215	-0,170	-0,134
293,530	70,448	-0,095	-0,067
294,545	-2,844	-0,098	-0,047
295,560	-3,686	-0,175	-0,084
296,574	419,869	-0,101	-0,149
297,589	-37,598	-0,262	-0,096
298,603	92,548	-0,190	-0,148
299,618	555,418	-0,182	-0,303
300,633	-200,000	-0,006	-0,055
301,647	70,470	-0,190	-0,135
302,662	737,472	-0,063	-0,117
303,676	204,914	-0,216	-0,231
304,691	222,673	-0,133	-0,148
305,706	255,078	-0,119	-0,140
306,720	158,590	-0,099	-0,095
307,735	367,070	-0,115	-0,161
308,749	800,000	-0,068	-0,160
309,764	185,989	-0,077	-0,079
310,779	7,355	-0,187	-0,096
311,793	-123,014	-0,232	-0,025
312,808	-120,293	-0,219	-0,025
313,822	-117,450	-0,098	0,012
314,837	21,159	-0,163	-0,091
315,852	496,094	-0,113	-0,179
316,866	320,169	-0,148	-0,194
317,881	223,769	-0,147	-0,163
318,895	89,016	-0,194	-0,149
319,910	285,638	-0,095	-0,119
320,925	50,154	-0,294	-0,191
321,939	12,363	-0,170	-0,090
322,954	184,453	-0,072	-0,073
323,968	-57,675	-0,201	-0,060
324,983	477,003	-0,129	-0,201
325,997	-4,870	-0,177	-0,083
327,012	7,507	-0,179	-0,092
328,027	56,245	-0,203	-0,135
329,041	447,601	-0,108	-0,164
330,056	59,846	-0,127	-0,086
331,070	4,146	-0,028	-0,014
332,085	-61,019	-0,017	0,005
333,100	-67,038	-0,088	0,024
334,114	400,954	-0,076	-0,110
335,129	-186,431	-0,197	0,002
336,143	-54,319	-0,198	-0,061
337,158	-183,870	-0,128	-0,001
338,173	-75,716	-0,079	-0,019
339,187	104,269	-0,177	-0,143
340,202	205,202	-0,119	-0,127
341,216	-14,951	-0,256	-0,112
342,231	205,937	-0,160	-0,172
343,246	-143,287	-0,229	0,015
344,260	-76,229	-0,234	-0,056
345,275	54,867	-0,085	-0,057
346,289	-34,324	-0,207	0,078
347,304	-47,189	-0,173	0,058
348,319	102,299	-0,191	-0,153
349,333	3,840	-0,270	-0,135
350,348	470,330	-0,165	-0,256
351,362	800,000	-0,081	-0,158
352,377	46,537	-0,090	-0,057
353,392	-50,133	-0,210	-0,068
354,406	-12,241	-0,221	-0,099
355,421	209,171	1317,055	1416,943
356,435	160,969	1478,086	1417,429
