DTS Sentinel unit serial number:	SN410029Multiplexer serial number:	ORYXHardware model number:	OX2-SRSoftware version number:	ORYX F/W v4,00 Oryx Data Collector v3.7.2.0data status	okinstallation	B3 Nyhavnadifferential loss correction	single-endedforward channel	channel 1reverse channel	N/Adate	2023/12/04time	14:07:30forward acquisition time	300,00reverse acquisition time	0,00gamma	499,1914k internal	0,3201k external	0,3201temperature offset calibration	1,0000default loss term (dB/km)	0,3820temperature slope calibration	1,0000multiplexer offset coefficient	1,0000multiplexer slope coefficient	1,0000fibre end	0,00T internal ref (°C)	14,99T ext. ref 1 (°C)	0,20T ext. ref 2 (°C)	0,18length (m)	temperature (°C)	Stokes	anti-Stokes-744,400	41,809	-0,278	-0,183
-743,385	-200,000	0,039	0,305
-742,371	-200,000	-0,023	-0,099
-741,356	-200,000	-0,040	0,221
-740,342	307,334	-0,194	-0,264
-739,327	-200,000	0,010	0,255
-738,312	59,144	-0,185	-0,132
-737,298	70,879	-0,132	0,099
-736,283	314,177	-0,129	-0,177
-735,269	-200,000	-0,059	0,472
-734,254	128,854	-0,273	-0,253
-733,239	-81,824	-0,205	-0,048
-732,225	253,863	-0,242	-0,302
-731,210	93,280	0,160	0,131
-730,196	800,000	0,026	0,056
-729,181	-134,504	0,025	-0,002
-728,167	345,793	0,118	-0,169
-727,152	571,800	0,045	-0,079
-726,137	44,240	-0,174	-0,116
-725,123	-200,000	-0,036	-0,129
-724,108	-88,598	-0,132	0,028
-723,094	346,311	0,022	-0,031
-722,079	82,932	-0,057	-0,045
-721,064	-123,495	-0,094	-0,011
-720,050	466,445	-0,099	0,161
-719,035	800,000	0,022	0,045
-718,021	-126,170	-0,132	-0,014
-717,006	-200,000	-0,000	0,050
-715,991	-21,767	-0,219	-0,096
-714,977	696,867	-0,071	-0,137
-713,962	-200,000	0,034	-0,130
-712,948	112,059	0,025	0,022
-711,933	-121,725	-0,060	-0,007
-710,918	-200,000	0,003	-0,068
-709,904	332,924	-0,089	-0,126
-708,889	-38,956	-0,105	-0,040
-707,875	73,313	0,070	-0,054
-706,860	91,683	-0,092	-0,075
-705,845	-111,698	0,098	-0,014
-704,831	83,348	0,104	-0,082
-703,816	214,113	-0,039	-0,045
-702,802	-200,000	-0,000	-0,106
-701,787	-94,780	-0,056	0,011
-700,772	-200,000	-0,011	0,092
-699,758	148,658	0,103	0,102
-698,743	-91,919	-0,124	0,025
-697,729	463,942	0,051	0,084
-696,714	57,659	0,101	0,071
-695,699	-41,481	-0,086	0,032
-694,685	54,478	-0,121	0,085
-693,670	-200,000	-0,003	-0,077
-692,656	800,000	-0,002	-0,006
-691,641	800,000	-0,058	0,120
-690,627	-161,165	0,136	0,005
-689,612	-150,227	0,056	-0,003
-688,597	195,040	0,037	0,041
-687,583	148,239	0,039	-0,038
-686,568	-200,000	0,026	-0,130
-685,554	44,271	-0,103	-0,069
-684,539	-40,061	0,068	-0,026
-683,524	757,455	0,035	0,069
-682,510	57,713	0,151	-0,107
-681,495	-164,211	0,100	0,003
-680,481	352,867	-0,042	-0,060
-679,466	512,106	-0,010	0,017
-678,451	-200,000	0,029	-0,106
-677,437	800,000	-0,019	-0,057
-676,422	45,798	0,038	0,025
-675,408	7,265	-0,106	-0,057
-674,393	-200,000	-0,000	0,162
-673,378	754,704	-0,046	-0,091
-672,364	-200,000	0,001	-0,154
-671,349	-200,000	0,012	0,062
-670,335	16,050	-0,090	-0,051
-669,320	-114,045	0,120	0,017
-668,305	-200,000	-0,000	-0,107
-667,291	800,000	-0,042	0,127
-666,276	570,845	-0,028	-0,049
-665,262	-157,816	-0,068	-0,003
-664,247	-140,573	-0,061	0,005
-663,232	-0,258	0,025	-0,013
-662,218	-200,000	-0,003	-0,031
-661,203	-87,207	0,047	0,010
-660,189	633,887	-0,042	0,078
-659,174	444,508	-0,065	-0,104
-658,159	-17,716	0,073	-0,033
-657,145	-22,133	-0,125	-0,055
-656,130	-200,000	-0,009	-0,129
-655,116	-200,000	0,011	0,051
-654,101	11,239	-0,075	0,042
-653,086	-22,324	-0,053	0,023
-652,072	18,549	-0,057	-0,033
-651,057	68,697	-0,083	-0,061
-650,043	9,189	-0,087	-0,047
-649,028	26,346	0,110	-0,066
-648,014	-61,562	0,217	0,066
-646,999	105,475	-0,109	0,093
-645,984	550,498	0,052	-0,091
-644,970	128,966	-0,062	-0,057
-643,955	24,291	0,062	0,037
-642,941	287,244	0,131	-0,172
-641,926	133,374	-0,098	-0,092
-640,911	-142,060	-0,051	-0,004
-639,897	210,212	0,016	0,018
-638,882	-200,000	0,003	-0,105
-637,868	-125,946	0,069	-0,007
-636,853	795,937	-0,054	-0,108
-635,838	362,393	-0,086	-0,125
-634,824	671,269	0,072	0,135
-633,809	-200,000	0,022	-0,151
-632,795	56,031	-0,028	-0,020
-631,780	-144,715	-0,026	0,002
-630,765	647,835	-0,062	-0,115
-629,751	-87,472	-0,072	-0,016
-628,736	-70,491	-0,107	-0,029
-627,722	-23,792	0,021	-0,009
-626,707	-200,000	-0,007	0,108
-625,692	378,587	-0,081	-0,120
-624,678	-117,749	0,173	-0,022
-623,663	-42,828	-0,088	-0,032
-622,649	46,329	-0,151	-0,101
-621,634	162,275	-0,013	-0,013
-620,619	-200,000	0,100	0,000
-619,605	-39,038	-0,131	-0,049
-618,590	-200,000	-0,006	0,063
-617,576	-107,877	-0,101	-0,016
-616,561	35,252	-0,021	-0,013
-615,546	-111,950	-0,124	-0,018
-614,532	675,454	-0,109	-0,206
-613,517	134,203	-0,022	0,021
-612,503	-200,000	0,021	-0,115
-611,488	800,000	-0,085	0,227
-610,474	-200,000	0,003	0,051
-609,459	192,227	-0,071	0,078
-608,444	-200,000	0,017	0,076
-607,430	70,235	-0,071	-0,053
-606,415	104,094	-0,088	-0,075
-605,401	23,156	-0,026	-0,015
-604,386	-11,533	0,087	0,041
-603,371	118,187	-0,110	0,098
-602,357	78,727	0,085	0,066
-601,342	360,489	0,059	-0,086
-600,328	-186,237	0,049	-0,001
-599,313	800,000	-0,039	0,120
-598,298	-200,000	0,004	0,050
-597,284	115,824	-0,095	0,084
-596,269	38,773	0,116	-0,075
-595,255	800,000	0,010	0,024
-594,240	-43,021	0,022	-0,008
-593,225	-62,027	0,041	-0,012
-592,211	800,000	-0,033	-0,086
-591,196	-146,249	0,062	0,004
-590,182	-80,966	0,091	0,022
-589,167	-113,086	0,068	0,010
-588,152	97,117	0,089	-0,073
-587,138	-200,000	0,010	0,096
-586,123	-200,000	-0,021	-0,090
-585,109	100,488	-0,103	-0,086
-584,094	-200,000	0,008	0,064
-583,079	69,500	-0,048	0,036
-582,065	-200,000	0,002	0,046
-581,050	54,490	0,143	-0,099
-580,036	116,493	0,010	-0,009
-579,021	-99,592	-0,047	-0,008
-578,006	-76,617	-0,124	-0,031
-576,992	162,160	-0,110	-0,112
-575,977	800,000	-0,036	0,110
-574,963	190,348	0,070	0,076
-573,948	800,000	-0,021	0,046
-572,934	305,346	0,060	0,081
-571,919	668,372	-0,046	-0,087
-570,904	-200,000	0,014	-0,123
-569,890	231,178	0,043	-0,051
-568,875	800,000	-0,005	-0,012
-567,861	197,996	-0,030	0,033
-566,846	11,321	0,123	-0,068
-565,831	-200,000	0,001	0,017
-564,817	-52,735	-0,160	-0,053
-563,802	145,980	0,051	0,049
-562,788	-160,039	-0,022	0,001
-561,773	-39,419	-0,026	0,010
-560,758	-35,963	-0,138	0,054
-559,744	-165,560	0,096	0,003
-558,729	98,746	-0,049	0,041
-557,715	-91,569	-0,158	-0,032
-556,700	-35,125	-0,026	0,010
-555,685	24,879	0,074	0,044
-554,671	-16,788	-0,113	-0,052
-553,656	-124,726	0,080	-0,009
-552,642	-200,000	-0,015	0,126
-551,627	55,130	0,106	-0,074
-550,612	800,000	-0,066	-0,159
-549,598	800,000	-0,048	-0,122
-548,583	164,400	-0,052	-0,053
-547,569	-200,000	0,001	-0,062
-546,554	-200,000	-0,010	-0,090
-545,539	-57,366	0,111	-0,035
-544,525	-200,000	0,009	0,089
-543,510	-83,490	-0,158	-0,036
-542,496	-200,000	0,006	0,095
-541,481	10,958	0,016	-0,009
-540,466	23,787	0,060	-0,035
-539,452	94,678	0,044	-0,036
-538,437	794,351	0,034	0,068
-537,423	-30,830	0,124	-0,050
-536,408	52,276	0,078	0,054
-535,393	800,000	-0,056	-0,137
-534,379	800,000	-0,035	-0,112
-533,364	31,852	-0,139	0,086
-532,350	635,612	0,041	0,076
-531,335	-130,058	0,053	-0,005
-530,321	394,472	-0,069	0,105
-529,306	-194,879	0,113	-0,001
-528,291	800,000	-0,064	-0,181
-527,277	-92,793	0,127	0,025
-526,262	-200,000	-0,042	0,137
-525,248	29,369	0,146	0,089
-524,233	800,000	0,031	0,069
-523,218	42,984	-0,060	0,040
-522,204	528,777	0,071	0,122
-521,189	317,168	-0,040	0,054
-520,175	621,565	0,019	-0,035
-519,160	-123,259	-0,132	-0,015
-518,145	-200,000	-0,006	0,041
-517,131	314,475	0,116	0,158
-516,116	-200,000	0,012	0,113
-515,102	800,000	0,075	0,183
-514,087	58,678	-0,116	0,082
-513,072	-52,730	-0,143	-0,047
-512,058	396,418	-0,016	0,024
-511,043	41,403	-0,039	-0,026
-510,029	-49,361	0,123	-0,042
-509,014	215,055	0,078	-0,089
-507,999	410,242	-0,091	0,139
-506,985	-200,000	0,001	0,044
-505,970	-79,402	-0,109	0,026
-504,956	19,170	0,032	0,018
-503,941	800,000	0,024	-0,062
-502,926	362,756	-0,014	0,020
-501,912	195,333	0,032	0,035
-500,897	-200,000	-0,002	-0,016
-499,883	-77,608	-0,019	0,005
-498,868	-117,700	-0,028	0,004
-497,853	141,054	0,125	-0,119
-496,839	175,068	0,148	-0,155
-495,824	103,009	0,099	0,084
-494,810	6,240	0,081	0,043
-493,795	137,416	-0,046	-0,043
-492,781	672,120	0,039	-0,073
-491,766	101,792	-0,098	-0,082
-490,751	131,225	0,053	0,049
-489,737	-0,905	-0,014	-0,007
-488,722	-93,564	0,178	0,035
-487,708	-200,000	-0,005	0,125
-486,693	800,000	-0,036	-0,085
-485,678	732,061	-0,038	0,074
-484,664	800,000	-0,061	-0,123
-483,649	800,000	0,005	0,010
-482,635	751,485	-0,007	0,013
-481,620	-105,862	0,062	0,010
-480,605	-82,965	-0,068	0,016
-479,591	-92,903	0,088	0,017
-478,576	254,458	-0,047	-0,058
-477,562	-12,839	-0,067	0,031
-476,547	3,142	0,042	0,022
-475,532	705,975	0,054	-0,103
-474,518	-200,000	0,010	-0,053
-473,503	-79,806	0,047	0,011
-472,489	90,798	0,052	-0,042
-471,474	800,000	-0,020	-0,043
-470,459	-200,000	-0,026	0,104
-469,445	121,839	0,052	-0,047
-468,430	-66,746	0,018	0,005
-467,416	-168,242	0,110	0,003
-466,401	70,160	0,073	0,054
-465,386	800,000	0,032	0,085
-464,372	-52,846	-0,179	0,059
-463,357	-47,946	0,170	0,059
-462,343	40,092	-0,087	-0,056
-461,328	-200,000	-0,040	-0,170
-460,313	-53,309	-0,054	-0,018
-459,299	751,624	0,089	0,174
-458,284	304,924	-0,028	-0,038
-457,270	-59,230	-0,057	0,018
-456,255	-200,000	-0,029	-0,118
-455,241	-200,000	-0,007	-0,054
-454,226	-49,928	-0,144	-0,049
-453,211	-70,138	-0,018	-0,005
-452,197	-144,499	0,030	0,002
-451,182	62,913	0,093	0,067
-450,168	-200,000	-0,029	0,103
-449,153	-75,792	-0,110	0,028
-448,138	70,370	-0,027	-0,020
-447,124	-200,000	0,005	-0,054
-446,109	-157,490	0,128	0,005
-445,095	-200,000	-0,011	-0,078
-444,080	236,589	0,113	0,134
-443,065	-149,417	-0,018	-0,001
-442,051	-55,983	-0,032	0,010
-441,036	-71,855	0,071	-0,019
-440,022	-144,019	-0,108	0,007
-439,007	-200,000	0,004	-0,038
-437,992	-200,000	0,000	0,028
-436,978	161,369	-0,096	0,097
-435,963	-77,263	0,051	0,013
-434,949	40,531	0,112	0,072
-433,934	-154,632	-0,159	0,007
-432,919	-200,000	-0,021	-0,209
-431,905	-138,765	-0,121	0,009
-430,890	800,000	0,071	0,165
-429,876	163,888	0,083	0,084
-428,861	529,615	0,070	-0,119
-427,846	-147,156	-0,046	-0,003
-426,832	388,482	0,045	-0,066
-425,817	0,693	-0,129	0,066
-424,803	82,367	0,052	0,040
-423,788	-10,621	0,056	0,026
-422,773	800,000	0,087	0,197
-421,759	670,976	0,073	-0,137
-420,744	-41,548	0,112	0,041
-419,730	18,830	-0,048	-0,028
-418,715	-18,036	-0,034	0,015
-417,701	-200,000	0,021	-0,101
-416,686	-33,723	-0,105	-0,041
-415,671	125,670	0,121	0,110
-414,657	305,175	0,009	0,012
-413,642	-110,969	-0,022	-0,003
-412,628	365,093	-0,093	-0,135
-411,613	-0,660	-0,088	-0,045
-410,598	213,910	-0,073	-0,083
-409,584	-185,239	-0,043	0,000
-408,569	83,276	0,098	0,077
-407,555	228,012	-0,075	0,088
-406,540	23,357	0,074	0,043
-405,525	357,933	0,009	0,012
-404,511	800,000	-0,053	-0,120
-403,496	142,843	-0,105	-0,101
-402,482	34,257	-0,042	-0,026
-401,467	-122,363	-0,125	0,014
-400,452	116,266	0,079	0,069
-399,438	105,393	-0,096	0,081
-398,423	800,000	0,024	-0,058
-397,409	-200,000	-0,024	-0,160
-396,394	-124,909	0,044	-0,005
-395,379	36,953	0,167	-0,106
-394,365	177,117	0,030	-0,032
-393,350	-200,000	0,022	-0,105
-392,336	583,161	0,019	-0,033
-391,321	83,301	-0,156	0,122
-390,306	400,416	-0,041	-0,062
-389,292	241,386	-0,032	-0,039
-388,277	172,217	0,026	-0,027
-387,263	-200,000	0,023	0,108
-386,248	800,000	-0,024	-0,052
-385,233	496,473	-0,088	0,146
-384,219	800,000	0,019	-0,042
-383,204	11,484	-0,067	-0,037
-382,190	111,474	0,038	0,033
-381,175	16,440	0,040	-0,022
-380,160	46,456	0,026	0,017
-379,146	21,070	0,080	0,046
-378,131	57,387	0,073	0,051
-377,117	214,918	-0,145	0,165
-376,102	-200,000	-0,025	-0,096
-375,088	800,000	-0,037	-0,087
-374,073	96,350	-0,078	0,064
-373,058	193,044	-0,083	0,090
-372,044	-130,507	-0,176	0,017
-371,029	635,679	0,026	-0,048
-370,015	-76,071	-0,047	0,012
-369,000	800,000	0,047	-0,130
-367,985	100,761	-0,076	-0,064
-366,971	243,061	-0,025	-0,030
-365,956	800,000	0,026	-0,054
-364,942	-200,000	0,001	-0,015
-363,927	-27,172	0,053	0,022
-362,912	-161,684	-0,127	0,005
-361,898	-107,764	-0,147	0,023
-360,883	275,063	0,060	-0,076
-359,869	800,000	-0,017	-0,041
-358,854	60,901	0,073	0,052
-357,839	-200,000	0,009	-0,057
-356,825	596,098	0,063	0,113
-355,810	-45,344	0,063	0,022
-354,796	31,219	-0,067	-0,041
-353,781	800,000	-0,033	-0,096
-352,766	-25,969	-0,109	-0,046
-351,752	221,029	0,094	0,108
-350,737	-200,000	-0,004	-0,103
-349,723	800,000	0,029	0,060
-348,708	282,750	0,059	0,076
-347,693	-133,020	-0,109	-0,010
-346,679	-116,243	0,127	-0,017
-345,664	800,000	-0,035	-0,095
-344,650	124,579	0,103	0,093
-343,635	54,532	0,074	0,051
-342,620	519,548	0,069	0,117
-341,606	800,000	0,024	0,062
-340,591	37,264	0,078	0,049
-339,577	-79,015	0,031	0,008
-338,562	-200,000	0,028	-0,096
-337,548	-200,000	0,000	0,036
-336,533	-200,000	-0,012	0,089
-335,518	324,822	0,062	0,085
-334,504	-200,000	0,003	0,118
-333,489	800,000	0,034	-0,087
-332,475	317,454	-0,058	-0,079
-331,460	800,000	0,057	-0,137
-330,445	66,098	-0,080	-0,058
-329,431	262,726	0,019	0,024
-328,416	-148,305	-0,060	0,003
-327,402	-9,677	0,056	-0,027
-326,387	800,000	0,044	0,121
-325,372	440,456	0,030	-0,048
-324,358	-120,118	-0,105	-0,013
-323,343	800,000	0,028	-0,085
-322,329	-126,280	-0,110	0,012
-321,314	800,000	0,034	-0,068
-320,299	115,257	-0,030	0,026
-319,285	-25,909	-0,073	0,031
-318,270	-200,000	0,001	-0,103
-317,256	-200,000	-0,018	-0,061
-316,241	800,000	0,056	-0,113
-315,226	108,208	-0,110	0,094
-314,212	800,000	0,028	0,080
-313,197	800,000	-0,039	0,117
-312,183	-80,977	0,050	0,012
-311,168	-91,263	-0,146	-0,030
-310,153	177,685	0,111	0,115
-309,139	153,649	-0,083	-0,081
-308,124	-0,535	0,059	-0,030
-307,110	-145,421	0,070	-0,004
-306,095	-66,011	0,131	0,037
-305,080	-200,000	-0,027	-0,111
-304,066	-200,000	-0,013	-0,144
-303,051	-200,000	-0,004	-0,067
-302,037	22,173	0,067	-0,039
-301,022	800,000	0,029	-0,076
-300,008	-90,700	0,176	-0,036
-298,993	-51,243	0,173	-0,058
-297,978	-200,000	0,006	0,062
-296,964	-52,148	-0,133	0,044
-295,949	-200,000	-0,010	-0,051
-294,935	-200,000	-0,022	-0,095
-293,920	73,768	0,101	-0,076
-292,905	127,227	-0,031	0,028
-291,891	800,000	0,029	0,060
-290,876	-103,432	-0,046	0,008
-289,862	-47,848	-0,156	0,054
-288,847	422,230	0,031	-0,047
-287,832	432,264	-0,118	-0,183
-286,818	-200,000	0,018	0,112
-285,803	-200,000	-0,018	-0,150
-284,789	-153,651	-0,065	-0,003
-283,774	-98,833	0,019	-0,003
-282,759	800,000	-0,016	-0,037
-281,745	435,636	-0,016	-0,025
-280,730	40,851	-0,072	-0,047
-279,716	-60,623	0,038	-0,011
-278,701	272,754	0,109	0,137
-277,686	-200,000	-0,002	-0,011
-276,672	800,000	-0,082	0,218
-275,657	-161,033	-0,036	0,001
-274,643	200,691	0,058	-0,064
-273,628	800,000	-0,027	0,080
-272,613	800,000	0,037	0,075
-271,599	-129,793	-0,111	0,011
-270,584	-200,000	0,020	-0,066
-269,570	-126,631	-0,098	0,010
-268,555	50,871	-0,026	0,017
-267,540	-137,930	0,073	0,006
-266,526	275,932	0,038	-0,048
-265,511	125,928	-0,031	-0,028
-264,497	250,970	0,024	0,029
-263,482	117,009	0,051	0,045
-262,467	-99,834	-0,074	0,013
-261,453	80,147	-0,057	-0,044
-260,438	-200,000	0,002	-0,149
-259,424	11,149	0,010	-0,006
-258,409	800,000	0,029	0,089
-257,395	-151,996	0,079	0,004
-256,380	-200,000	-0,000	-0,014
-255,365	-200,000	0,011	0,083
-254,351	431,747	-0,064	0,099
-253,336	-200,000	-0,037	0,178
-252,322	522,919	-0,033	0,056
-251,307	-178,810	0,093	-0,001
-250,292	-153,204	-0,189	0,009
-249,278	177,154	-0,034	-0,036
-248,263	-8,441	0,027	0,013
-247,249	800,000	0,029	0,091
-246,234	435,305	-0,047	0,073
-245,219	-200,000	0,005	-0,121
-244,205	-50,455	0,087	-0,029
-243,190	252,019	-0,034	0,041
-242,176	29,100	0,062	0,038
-241,161	106,089	0,059	0,049
-240,146	138,115	-0,024	-0,022
-239,132	-70,065	0,125	0,034
-238,117	14,166	0,055	-0,030
-237,103	-200,000	0,001	0,106
-236,088	-200,000	-0,022	-0,074
-235,073	12,358	0,071	-0,039
-234,059	539,556	0,017	-0,029
-233,044	-146,367	0,075	-0,005
-232,030	482,284	-0,056	0,092
-231,015	122,764	-0,092	0,082
-230,000	-75,954	0,049	-0,012
-228,986	-96,712	-0,053	-0,010
-227,971	112,269	-0,056	-0,049
-226,957	-200,000	0,016	0,111
-225,942	800,000	0,018	0,051
-224,927	566,726	-0,095	0,164
-223,913	-52,471	-0,099	-0,033
-222,898	800,000	0,035	-0,087
-221,884	-35,849	-0,030	-0,012
-220,869	-83,698	0,074	-0,017
-219,855	18,370	0,070	-0,040
-218,840	-95,449	-0,134	-0,025
-217,825	5,420	-0,076	-0,040
-216,811	129,273	0,063	-0,057
-215,796	-200,000	-0,004	0,072
-214,782	36,474	-0,171	-0,107
-213,767	800,000	0,043	0,111
-212,752	-74,780	0,127	-0,032
-211,738	-119,090	0,108	0,013
-210,723	147,388	0,035	-0,034
-209,709	-9,247	0,116	-0,055
-208,694	-108,104	-0,075	-0,012
-207,679	-200,000	-0,028	0,135
-206,665	77,009	0,091	0,069
-205,650	-200,000	-0,008	0,100
-204,636	84,230	-0,012	-0,009
-203,621	361,504	0,036	0,051
-202,606	366,682	-0,046	0,067
-201,592	800,000	-0,014	0,041
-200,577	219,062	0,092	-0,105
-199,563	23,461	0,086	-0,050
-198,548	-88,115	0,081	0,017
-197,533	800,000	0,020	0,063
-196,519	-200,000	0,118	-0,000
-195,504	-85,156	-0,101	-0,022
-194,490	-148,615	-0,107	0,006
-193,475	87,815	0,018	0,014
-192,460	-94,327	-0,120	0,023
-191,446	315,290	0,092	0,124
-190,431	76,163	0,105	0,079
-189,417	-107,908	0,107	-0,016
-188,402	36,411	-0,078	-0,049
-187,387	-200,000	0,030	-0,121
-186,373	-19,933	-0,072	0,032
-185,358	22,779	0,036	-0,021
-184,344	257,618	0,092	-0,113
-183,329	-200,000	0,010	-0,081
-182,315	-157,173	0,031	0,001
-181,300	122,312	-0,044	0,039
-180,285	-200,000	0,026	0,099
-179,271	201,333	0,028	-0,030
-178,256	-37,554	-0,065	-0,025
-177,242	-107,388	0,098	-0,015
-176,227	-200,000	-0,002	-0,022
-175,212	800,000	-0,022	0,057
-174,198	-75,096	0,005	0,001
-173,183	-200,000	-0,012	-0,050
-172,169	-161,269	0,047	-0,002
-171,154	46,933	-0,056	-0,037
-170,139	271,773	-0,051	0,064
-169,125	-200,000	0,022	0,081
-168,110	800,000	0,006	-0,012
-167,096	-129,898	-0,059	0,006
-166,081	425,678	-0,078	0,120
-165,066	-200,000	-0,034	-0,208
-164,052	769,061	-0,066	0,128
-163,037	-200,000	-0,018	0,147
-162,023	-200,000	-0,020	0,172
-161,008	-57,806	0,061	0,019
-159,993	800,000	-0,009	-0,023
-158,979	800,000	0,031	-0,090
-157,964	621,435	-0,025	0,046
-156,950	137,576	0,072	-0,067
-155,935	-200,000	-0,003	0,026
-154,920	-68,514	0,145	0,040
-153,906	207,143	0,056	0,063
-152,891	-20,919	0,132	0,057
-151,877	231,622	0,102	0,119
-150,862	800,000	0,025	0,062
-149,847	800,000	0,033	0,092
-148,833	56,102	0,097	0,067
-147,818	-43,557	-0,082	0,029
-146,804	-121,655	-0,069	0,008
-145,789	-200,000	-0,012	0,044
-144,775	-200,000	0,021	-0,074
-143,760	-200,000	0,000	-0,085
-142,745	-141,917	0,058	-0,004
-141,731	-50,457	0,058	-0,019
-140,716	800,000	-0,030	0,066
-139,702	202,813	0,076	-0,084
-138,687	-157,337	0,094	0,004
-137,672	79,455	-0,034	-0,026
-136,658	-25,832	0,113	-0,047
-135,643	-177,411	-0,091	0,002
-134,629	50,890	-0,048	-0,032
-133,614	-200,000	-0,034	0,128
-132,599	800,000	0,008	0,023
-131,585	-200,000	0,011	0,179
-130,570	-20,914	-0,070	0,031
-129,556	-37,390	-0,164	-0,062
-128,541	-200,000	0,022	-0,138
-127,526	800,000	0,011	-0,025
-126,512	-200,000	0,029	0,130
-125,497	800,000	0,075	0,169
-124,483	-200,000	0,013	0,043
-123,468	800,000	0,006	0,013
-122,453	-200,000	0,018	0,143
-121,439	99,493	-0,094	0,077
-120,424	-21,633	0,107	-0,046
-119,410	800,000	0,048	0,117
-118,395	106,482	0,109	0,092
-117,380	76,541	0,045	-0,034
-116,366	69,723	-0,037	0,027
-115,351	-164,336	0,049	0,002
-114,337	-200,000	-0,028	-0,152
-113,322	-62,786	0,119	0,035
-112,307	81,912	0,085	-0,065
-111,293	30,446	0,032	-0,019
-110,278	-172,098	-0,059	-0,001
-109,264	800,000	-0,021	-0,042
-108,249	-200,000	0,030	-0,113
-107,234	339,052	-0,022	0,030
-106,220	-200,000	-0,040	0,149
-105,205	-200,000	-0,018	-0,110
-104,191	-22,195	-0,085	0,037
-103,176	-200,000	0,020	0,230
-102,162	43,974	-0,091	0,059
-101,147	800,000	-0,028	0,076
-100,132	472,084	0,027	0,044
-99,118	84,277	-0,084	-0,065
-98,103	-200,000	0,013	0,052
-97,089	36,358	0,106	-0,066
-96,074	-28,410	0,067	0,027
-95,059	-184,879	0,016	-0,000
-94,045	272,312	-0,108	-0,135
-93,030	262,624	-0,039	0,048
-92,016	-63,147	-0,117	0,034
-91,001	-200,000	0,005	-0,168
-89,986	274,848	-0,021	-0,026
-88,972	381,482	0,037	-0,054
-87,957	78,317	-0,071	-0,054
-86,943	235,521	0,027	-0,032
-85,928	320,041	-0,075	-0,102
-84,913	191,343	0,061	0,065
-83,899	-200,000	-0,004	0,086
-82,884	104,710	0,058	-0,048
-81,870	-200,000	0,021	0,094
-80,855	-80,157	-0,016	-0,004
-79,840	-120,542	-0,061	-0,007
-78,826	800,000	0,016	-0,034
-77,811	742,346	-0,032	-0,061
-76,797	-26,303	0,054	-0,023
-75,782	800,000	0,037	0,093
-74,767	800,000	0,066	0,178
-73,753	-200,000	0,009	0,041
-72,738	-9,180	0,047	0,022
-71,724	-200,000	0,039	-0,172
-70,709	800,000	-0,044	-0,104
-69,694	-25,448	0,081	0,034
-68,680	-200,000	-0,022	-0,098
-67,665	-10,278	0,136	0,064
-66,651	-200,000	0,015	-0,052
-65,636	-18,045	0,074	0,033
-64,622	100,755	-0,064	0,053
-63,607	-200,000	-0,003	-0,057
-62,592	386,055	-0,106	-0,155
-61,578	487,456	0,074	0,120
-60,563	-105,618	0,053	0,008
-59,549	309,255	-0,076	0,101
-58,534	-105,949	-1,631	-0,258
-57,519	369,863	-1,388	-1,997
-56,505	-200,000	-0,683	-4,591
-55,490	163,159	1,012	1,008
-54,476	800,000	4,786	11,200
-53,461	-200,000	18,352	287,941
-52,446	800,000	727,656	2228,605
-51,432	554,591	1643,306	2810,138
-50,417	79,220	1665,458	1262,373
-49,403	22,834	1539,137	890,649
-48,388	16,825	1462,377	817,132
-47,373	17,835	1452,233	816,295
-46,359	17,226	1442,684	807,981
-45,344	15,126	1437,991	795,302
-44,330	15,020	1436,314	793,838
-43,315	15,076	1434,464	793,047
-42,300	15,075	1433,007	792,208
-41,286	15,107	1431,648	791,575
-40,271	15,058	1430,104	790,458
-39,257	15,038	1429,143	789,802
-38,242	15,109	1427,846	789,388
-37,227	15,084	1426,722	788,619
-36,213	15,086	1425,261	787,789
-35,198	15,066	1424,254	787,105
-34,184	15,120	1423,356	786,835
-33,169	15,035	1422,317	785,826
-32,154	15,136	1420,916	785,499
-31,140	15,173	1419,529	784,873
-30,125	15,159	1418,678	784,307
-29,111	15,145	1417,441	783,524
-28,096	15,105	1416,296	782,674
-27,082	15,046	1415,316	781,824
-26,067	15,000	1414,217	780,972
-25,052	15,031	1412,871	780,343
-24,038	15,020	1412,122	779,846
-23,023	14,940	1411,205	778,933
-22,009	14,975	1410,110	778,461
-20,994	14,997	1409,303	778,090
-19,979	14,999	1408,149	777,428
-18,965	14,960	1407,218	776,702
-17,950	14,926	1406,335	776,025
-16,936	14,952	1405,449	775,629
-15,921	14,906	1404,377	774,790
-14,906	14,896	1403,485	774,223
-13,892	14,907	1402,661	773,786
-12,877	14,900	1401,578	773,125
-11,863	14,923	1400,637	772,681
-10,848	14,912	1399,849	772,168
-9,833	14,858	1398,942	771,385
-8,819	14,888	1397,870	770,902
-7,804	14,860	1397,033	770,281
-6,790	14,854	1395,903	769,600
-5,775	14,822	1394,932	768,887
-4,760	14,817	1394,059	768,349
-3,746	14,796	1393,331	767,822
-2,731	14,817	1392,493	767,426
-1,717	14,779	1391,565	766,708
-0,702	14,840	1389,580	765,867
0,313	18,603	1308,439	738,562
1,327	34,702	706,876	436,312
2,342	52,807	124,808	84,290
3,356	0,693	16,790	8,472
4,371	2,160	3,253	1,657
5,386	59,754	0,455	0,317
6,400	-47,222	0,107	0,037
7,415	20,423	-0,352	-0,201
8,429	80,826	-0,315	-0,240
9,444	23,415	-0,366	-0,213
10,459	172,118	-0,241	-0,245
11,473	22,248	-0,338	-0,194
12,488	92,729	-0,279	-0,222
13,502	100,167	-0,227	-0,186
14,517	100,519	-0,269	-0,221
15,531	128,769	-0,254	-0,229
16,546	-8,147	-0,404	-0,192
17,561	79,303	-0,281	-0,213
18,575	-94,122	-0,189	-0,036
19,590	14,556	-0,295	-0,162
20,604	-143,309	-0,203	-0,014
21,619	67,119	-0,463	-0,333
22,634	10,750	-0,493	-0,265
23,648	324,379	-0,341	-0,462
24,663	72,433	-0,412	-0,303
25,677	137,608	-0,385	-0,356
26,692	11,358	-0,248	-0,134
27,707	-80,767	-0,339	-0,079
28,721	21,816	-0,412	-0,236
29,736	96,084	-0,390	-0,314
30,750	225,478	-0,277	-0,317
31,765	99,946	-0,428	-0,350
32,780	90,303	-0,427	-0,337
33,794	41,957	-0,348	-0,222
34,809	20,034	-0,422	-0,239
35,823	42,826	-0,435	-0,279
36,838	83,762	-0,434	-0,334
37,853	213,487	-0,392	-0,437
38,867	214,025	-0,402	-0,449
39,882	132,642	-0,341	-0,310
40,896	68,560	-0,315	-0,228
41,911	-57,587	-0,392	-0,121
42,926	34,263	-0,341	-0,209
43,940	42,090	-0,354	-0,226
44,955	160,681	-0,345	-0,339
45,969	198,906	-0,283	-0,306
46,984	203,856	-0,241	-0,263
47,999	19,632	-0,370	-0,209
49,013	36,626	-0,214	-0,133
50,028	-68,873	-0,438	-0,118
51,042	170,513	-0,345	-0,349
52,057	95,412	-0,227	-0,182
53,071	43,954	-0,351	-0,226
54,086	52,784	-0,295	-0,198
55,101	162,369	-0,320	-0,316
56,115	27,290	-0,358	-0,211
57,130	46,943	-0,364	-0,238
58,144	177,538	-0,350	-0,360
59,159	210,873	-0,342	-0,379
60,174	90,646	-0,359	-0,283
61,188	30,357	-0,342	-0,205
62,203	92,885	-0,258	-0,205
63,217	21,939	-0,326	-0,187
64,232	-75,378	-0,353	-0,088
65,247	152,688	-0,306	-0,294
66,261	67,092	-0,362	-0,259
67,276	82,572	-0,381	-0,291
68,290	8,376	-0,418	-0,221
69,305	93,055	-0,313	-0,249
70,320	75,286	-0,353	-0,262
71,334	-66,858	-0,371	-0,102
72,349	20,588	-0,254	-0,144
73,363	47,479	-0,362	-0,237
74,378	469,330	-0,209	-0,331
75,393	-82,910	-0,316	-0,071
76,407	427,341	-0,177	-0,269
77,422	11,154	-0,319	-0,171
78,436	-2,007	-0,354	-0,174
79,451	-92,481	-0,299	-0,059
80,466	51,025	-0,329	-0,219
81,480	167,978	-0,329	-0,329
82,495	-71,338	-0,505	-0,132
83,509	-1,798	-0,228	-0,112
84,524	141,738	-0,250	-0,233
85,539	-54,289	-0,173	-0,055
86,553	-93,066	-0,328	-0,064
87,568	-40,511	-0,261	-0,095
88,582	23,789	-0,299	-0,172
89,597	-52,965	-0,254	-0,082
90,611	-41,242	-0,233	-0,084
91,626	89,047	-0,263	-0,206
92,641	94,351	-0,249	-0,198
93,655	23,515	-0,263	-0,151
94,670	148,996	-0,353	-0,335
95,684	84,038	-0,262	-0,200
96,699	101,040	-0,331	-0,270
97,714	58,338	-0,260	-0,179
98,728	504,415	-0,113	-0,184
99,743	-45,623	-0,292	-0,101
100,757	273,808	-0,190	-0,236
101,772	324,828	-0,241	-0,324
102,787	15,789	-0,225	-0,124
103,801	51,760	-0,182	-0,121
104,816	-1,527	-0,345	-0,170
105,830	102,995	-0,225	-0,185
106,845	-29,559	-0,387	-0,154
107,860	188,377	-0,297	-0,312
108,874	166,917	-0,265	-0,264
109,889	96,273	-0,191	-0,153
110,903	157,589	-0,215	-0,208
111,918	-1,185	-0,346	-0,171
112,933	-46,868	-0,175	-0,060
113,947	74,406	-0,208	-0,153
114,962	69,025	-0,251	-0,180
115,976	173,316	-0,202	-0,204
116,991	227,806	-0,199	-0,227
118,006	-13,434	-0,286	-0,129
119,020	131,474	-0,289	-0,260
120,035	206,116	-0,178	-0,195
121,049	-42,631	-0,170	-0,060
122,064	-20,011	-0,248	0,107
123,079	800,000	-0,107	-0,256
124,093	339,115	-0,164	-0,224
125,108	124,605	-0,336	-0,296
126,122	288,638	-0,318	-0,404
127,137	-44,046	-0,220	-0,077
128,151	446,066	-0,206	-0,318
129,166	-25,815	-0,259	-0,106
130,181	108,211	-0,274	-0,228
131,195	73,906	-0,307	-0,225
132,210	178,930	-0,301	-0,308
133,224	166,950	-0,266	-0,265
134,239	-90,577	-0,291	-0,058
135,254	98,089	-0,226	-0,182
136,268	134,278	-0,271	-0,246
137,283	26,604	-0,253	-0,148
138,297	51,949	-0,334	-0,222
139,312	370,682	-0,239	-0,340
140,327	103,654	-0,370	-0,304
141,341	81,678	-0,220	-0,167
142,356	17,894	-0,180	-0,100
143,370	800,000	-0,099	-0,214
144,385	35,632	-0,315	-0,193
145,400	278,591	-0,250	-0,313
146,414	13,706	-0,317	-0,172
147,429	155,774	-0,250	-0,240
148,443	57,529	-0,233	-0,159
149,458	72,834	-0,233	-0,170
150,473	-115,292	-0,183	-0,024
151,487	172,040	-0,225	-0,226
152,502	115,278	-0,232	-0,198
153,516	39,516	-0,288	-0,180
154,531	115,445	-0,181	-0,154
155,546	125,285	-0,291	-0,256
156,560	800,000	-0,104	-0,212
157,575	241,938	-0,189	-0,221
158,589	61,627	-0,228	-0,158
159,604	156,595	-0,213	-0,206
160,619	308,921	-0,246	-0,321
161,633	341,842	-0,194	-0,266
162,648	-115,906	-0,104	-0,013
163,662	137,554	-0,186	-0,170
164,677	23,482	-0,228	-0,130
165,692	62,663	-0,354	-0,246
166,706	-15,450	-0,347	-0,154
167,721	37,788	-0,309	-0,191
168,735	311,985	-0,173	-0,227
169,750	360,086	-0,192	-0,269
170,764	88,209	-0,149	-0,115
171,779	715,534	-0,115	-0,213
172,794	182,086	-0,194	-0,200
173,808	231,162	-0,166	-0,190
174,823	325,636	-0,243	-0,325
175,837	336,537	-0,223	-0,303
176,852	176,359	-0,251	-0,255
177,867	-37,742	-0,210	-0,078
178,881	144,223	-0,209	-0,194
179,896	53,274	-0,269	-0,179
180,910	450,688	-0,104	-0,161
181,925	67,145	-0,282	-0,200
182,940	419,936	-0,199	-0,298
183,954	86,195	-0,233	-0,179
184,969	54,825	-0,249	-0,167
185,983	567,519	-0,111	-0,188
186,998	-130,941	-0,342	-0,031
188,013	-2,375	-0,222	-0,108
189,027	-77,406	-0,183	-0,044
190,042	42,348	-0,203	-0,128
191,056	331,597	-0,065	-0,087
192,071	1,432	-0,230	-0,115
193,086	111,852	-0,299	-0,251
194,100	800,000	-0,115	-0,262
195,115	-200,000	0,005	-0,105
196,129	800,000	-0,065	-0,140
197,144	-57,978	-0,281	-0,085
198,159	-79,124	-0,325	-0,076
199,173	257,031	-0,216	-0,259
200,188	-200,000	-0,031	-0,270
201,202	-62,040	-0,136	0,039
202,217	199,991	-0,244	-0,260
203,232	800,000	-0,069	-0,165
204,246	159,223	-0,233	-0,225
205,261	242,019	-0,114	-0,133
206,275	100,706	-0,092	-0,075
207,290	583,497	-0,139	-0,238
208,304	153,996	-0,176	-0,168
209,319	79,023	-0,260	-0,193
210,334	590,578	-0,204	-0,351
211,348	312,602	-0,142	-0,185
212,363	172,241	-0,236	-0,236
213,377	260,808	-0,195	-0,235
214,392	204,529	-0,285	-0,307
215,407	295,716	-0,196	-0,250
216,421	301,670	-0,193	-0,249
217,436	275,375	-0,164	-0,203
218,450	134,496	-0,158	-0,142
219,465	402,175	-0,107	-0,157
220,480	382,804	-0,148	-0,211
221,494	-20,741	-0,154	-0,065
222,509	-59,635	-0,252	-0,074
223,523	338,654	-0,143	-0,194
224,538	10,437	-0,223	-0,118
225,553	187,965	-0,148	-0,154
226,567	182,040	-0,202	-0,206
227,582	-79,918	-0,350	-0,081
228,596	28,626	-0,122	-0,071
229,611	123,115	-0,147	-0,128
230,626	192,727	-0,093	-0,097
231,640	-120,901	-0,137	0,016
232,655	280,699	-0,197	-0,245
233,669	-53,007	-0,249	-0,079
234,684	-193,915	-0,187	0,001
235,699	157,015	-0,147	-0,141
236,713	461,788	-0,133	-0,207
237,728	-119,498	-0,123	-0,015
238,742	76,742	-0,138	-0,101
239,757	146,137	-0,148	-0,138
240,772	59,831	-0,215	-0,147
241,786	800,000	-0,115	-0,248
242,801	214,643	-0,160	-0,176
243,815	261,523	-0,099	-0,119
244,830	370,735	-0,180	-0,253
245,844	-90,358	-0,285	0,057
246,859	-28,776	-0,289	-0,114
247,874	-7,716	-0,207	-0,096
248,888	295,256	-0,093	-0,118
249,903	142,618	-0,207	-0,191
250,917	21,569	-0,174	-0,098
251,932	26,033	-0,078	-0,045
252,947	68,497	-0,148	-0,105
253,961	8,039	-0,204	-0,106
254,976	467,183	-0,136	-0,211
255,990	-200,000	-0,103	-0,378
257,005	-15,031	-0,125	-0,055
258,020	235,195	-0,224	-0,257
259,034	23,138	-0,296	-0,167
260,049	28,142	-0,150	-0,087
261,063	49,537	-0,324	-0,211
262,078	106,621	-0,189	-0,155
263,093	377,060	-0,205	-0,290
264,107	800,000	-0,154	-0,304
265,122	235,269	-0,092	-0,105
266,136	401,034	-0,070	-0,102
267,151	526,668	-0,105	-0,171
268,166	-2,231	-0,254	-0,123
269,180	-22,777	-0,279	-0,116
270,195	95,553	-0,124	-0,098
271,209	464,764	-0,117	-0,181
272,224	341,110	-0,090	-0,121
273,239	227,972	-0,184	-0,208
274,253	246,178	-0,110	-0,129
275,268	468,513	-0,116	-0,181
276,282	160,507	-0,239	-0,230
277,297	-54,372	-0,306	-0,095
278,312	95,654	-0,090	-0,071
279,326	-29,405	-0,221	-0,087
280,341	151,949	-0,103	-0,097
281,355	-200,000	-0,028	-0,085
282,370	-16,546	-0,191	-0,083
283,384	-20,701	-0,282	-0,119
284,399	-17,888	-0,151	-0,065
285,414	227,140	-0,141	-0,158
286,428	308,605	-0,033	-0,043
287,443	64,379	-0,034	-0,024
288,457	800,000	-0,024	0,065
289,472	95,055	-0,242	-0,190
290,487	-181,847	-0,230	0,003
291,501	-35,783	-0,097	-0,036
292,516	201,251	-0,079	0,084
293,530	800,000	-0,039	-0,116
294,545	12,957	-0,102	-0,054
295,560	62,091	-0,162	-0,111
296,574	197,911	-0,097	-0,103
297,589	-71,113	-0,162	-0,042
298,603	-132,809	-0,254	0,022
299,618	-15,173	-0,133	-0,058
300,633	-161,065	-0,202	0,007
301,647	194,373	-0,146	-0,153
302,662	-65,381	-0,134	-0,037
303,676	-83,704	-0,177	-0,039
304,691	-200,000	-0,006	-0,076
305,706	-200,000	-0,049	-0,167
306,720	800,000	-0,079	-0,168
307,735	395,149	-0,130	-0,188
308,749	-53,269	-0,079	-0,025
309,764	531,533	0,064	-0,104
310,779	-157,473	-0,209	-0,008
311,793	-126,152	-0,266	-0,027
312,808	54,651	-0,187	-0,124
313,822	-80,520	-0,174	-0,040
314,837	800,000	-0,033	-0,100
315,852	-200,000	-0,031	-0,203
316,866	-200,000	-0,023	-0,092
317,881	-200,000	-0,000	-0,082
318,895	-80,565	-0,107	0,024
319,910	606,409	-0,111	-0,192
320,925	380,116	-0,142	-0,200
321,939	97,169	-0,291	-0,230
322,954	450,038	-0,126	-0,192
323,968	-10,594	-0,105	-0,048
324,983	354,907	-0,079	-0,108
325,997	463,198	-0,069	-0,106
327,012	-67,500	-0,122	-0,033
328,027	376,881	-0,155	-0,218
329,041	32,234	-0,180	-0,106
330,056	800,000	-0,037	-0,084
331,070	135,926	-0,073	-0,066
332,085	-4,489	-0,198	0,093
333,100	30,099	-0,110	-0,064
334,114	152,972	-0,109	-0,103
335,129	125,407	-0,196	-0,170
336,143	-54,733	-0,115	-0,036
337,158	3,581	-0,125	-0,062
338,173	800,000	-0,037	-0,073
339,187	22,203	-0,127	-0,071
340,202	-14,850	-0,102	-0,045
341,216	503,360	-0,036	-0,057
342,231	62,821	-0,189	-0,130
343,246	680,757	-0,140	-0,251
344,260	204,513	-0,135	-0,144
345,275	564,559	-0,037	-0,062
346,289	-2,341	-0,168	0,080
347,304	38,215	-0,114	-0,070
348,319	-15,368	-0,088	-0,038
349,333	-55,678	-0,198	-0,061
350,348	334,478	-0,139	-0,186
351,362	-200,000	0,005	-0,030
352,377	-147,174	-0,108	0,006
353,392	450,371	-0,067	-0,101
354,406	10,685	-0,115	0,060
355,421	208,607	1316,075	1413,905
356,435	160,517	1476,976	1414,396
