DTS Sentinel unit serial number:	SN410029Multiplexer serial number:	ORYXHardware model number:	OX2-SRSoftware version number:	ORYX F/W v4,00 Oryx Data Collector v3.7.2.0data status	okinstallation	B3 Nyhavnadifferential loss correction	single-endedforward channel	channel 1reverse channel	N/Adate	2023/12/05time	07:22:30forward acquisition time	300,00reverse acquisition time	0,00gamma	499,1914k internal	0,3200k external	0,3200temperature offset calibration	1,0000default loss term (dB/km)	0,3820temperature slope calibration	1,0000multiplexer offset coefficient	1,0000multiplexer slope coefficient	1,0000fibre end	0,00T internal ref (°C)	13,87T ext. ref 1 (°C)	-1,06T ext. ref 2 (°C)	-1,10length (m)	temperature (°C)	Stokes	anti-Stokes-744,400	376,478	-0,160	-0,239
-743,385	-200,000	-0,032	0,308
-742,371	800,000	-0,090	-0,281
-741,356	-200,000	0,089	0,327
-740,342	-5,568	-0,124	-0,062
-739,327	-200,000	0,018	0,400
-738,312	225,257	-0,163	-0,193
-737,298	-200,000	0,033	0,120
-736,283	262,895	-0,188	-0,238
-735,269	-200,000	0,003	0,124
-734,254	800,000	-0,090	-0,266
-733,239	-106,842	-0,178	0,028
-732,225	388,932	-0,082	-0,124
-731,210	-63,828	0,103	0,031
-730,196	800,000	-0,017	0,051
-729,181	-93,590	-0,052	-0,010
-728,167	249,037	-0,036	0,044
-727,152	800,000	-0,025	0,075
-726,137	800,000	-0,029	-0,089
-725,123	175,200	-0,125	-0,132
-724,108	262,038	-0,123	-0,156
-723,094	523,427	0,072	-0,123
-722,079	-200,000	0,008	-0,037
-721,064	800,000	-0,032	-0,065
-720,050	-7,489	0,148	-0,072
-719,035	-20,323	0,057	-0,025
-718,021	-51,945	-0,133	-0,045
-717,006	-200,000	-0,020	-0,107
-715,991	-200,000	0,041	-0,142
-714,977	-171,369	-0,098	-0,002
-713,962	800,000	0,023	0,056
-712,948	422,051	-0,018	-0,028
-711,933	-200,000	-0,001	0,120
-710,918	250,864	-0,038	-0,047
-709,904	-200,000	-0,002	0,026
-708,889	219,338	0,060	0,070
-707,875	-27,171	0,078	0,033
-706,860	464,722	0,053	0,087
-705,845	-124,046	0,171	0,019
-704,831	800,000	-0,035	-0,094
-703,816	800,000	-0,065	-0,135
-702,802	800,000	-0,046	-0,144
-701,787	-45,911	-0,110	0,039
-700,772	112,979	0,065	-0,057
-699,758	-62,066	-0,071	0,021
-698,743	-200,000	0,001	-0,085
-697,729	-126,692	0,156	-0,017
-696,714	-64,326	-0,207	-0,061
-695,699	800,000	-0,023	-0,070
-694,685	444,275	-0,125	-0,199
-693,670	97,599	-0,161	-0,134
-692,656	146,586	0,071	0,069
-691,641	451,605	0,018	0,029
-690,627	-49,441	-0,078	0,027
-689,612	-200,000	-0,004	-0,058
-688,597	39,867	-0,082	-0,054
-687,583	-35,573	0,059	-0,023
-686,568	800,000	0,022	-0,048
-685,554	-200,000	-0,006	-0,157
-684,539	176,283	0,045	0,048
-683,524	141,690	-0,039	0,038
-682,510	-99,773	0,057	-0,010
-681,495	299,464	-0,040	-0,054
-680,481	-60,509	-0,098	0,030
-679,466	384,207	0,005	0,007
-678,451	60,554	0,008	-0,006
-677,437	-200,000	-0,001	0,022
-676,422	-83,877	0,046	0,011
-675,408	670,321	0,020	0,037
-674,393	-25,709	-0,034	-0,015
-673,378	112,396	-0,079	-0,069
-672,364	-200,000	0,016	-0,061
-671,349	-200,000	0,020	-0,095
-670,335	403,085	0,048	-0,074
-669,320	-96,756	0,126	0,024
-668,305	442,401	-0,008	0,012
-667,291	-200,000	-0,043	-0,201
-666,276	-8,420	-0,045	-0,022
-665,262	-142,758	0,070	-0,005
-664,247	800,000	-0,034	-0,083
-663,232	-200,000	-0,015	0,129
-662,218	-200,000	-0,005	-0,042
-661,203	28,732	0,049	0,030
-660,189	800,000	-0,037	0,100
-659,174	-175,689	-0,069	-0,001
-658,159	14,525	-0,056	0,032
-657,145	800,000	-0,050	-0,105
-656,130	-30,164	-0,057	-0,023
-655,116	430,615	0,023	-0,037
-654,101	-13,836	0,087	-0,040
-653,086	161,777	0,109	-0,111
-652,072	27,819	-0,138	0,084
-651,057	800,000	-0,033	-0,076
-650,043	-152,580	-0,069	-0,004
-649,028	-200,000	-0,030	-0,105
-648,014	-200,000	-0,005	0,078
-646,999	800,000	-0,060	-0,137
-645,984	-200,000	-0,027	0,135
-644,970	-200,000	0,018	0,215
-643,955	800,000	-0,014	-0,031
-642,941	-200,000	-0,014	-0,108
-641,926	-109,901	0,152	-0,023
-640,911	-39,273	-0,037	0,014
-639,897	-200,000	-0,033	0,187
-638,882	-100,166	0,045	-0,008
-637,868	-200,000	0,003	0,042
-636,853	-116,612	-0,107	-0,014
-635,838	-200,000	0,000	-0,099
-634,824	-200,000	0,002	-0,167
-633,809	-35,807	0,052	0,020
-632,795	-148,849	0,070	-0,004
-631,780	56,954	0,056	0,039
-630,765	-200,000	-0,001	-0,109
-629,751	-132,694	-0,158	-0,014
-628,736	160,478	0,006	0,006
-627,722	166,983	-0,109	-0,112
-626,707	-0,190	-0,152	0,078
-625,692	320,034	-0,060	0,082
-624,678	232,973	0,039	-0,047
-623,663	-127,805	-0,140	0,014
-622,649	201,740	-0,088	-0,098
-621,634	680,741	-0,091	-0,172
-620,619	-103,687	-0,028	-0,005
-619,605	-2,838	-0,103	0,052
-618,590	-198,708	-0,059	-0,000
-617,576	-158,356	0,129	0,005
-616,561	103,792	-0,086	0,073
-615,546	-200,000	-0,000	-0,025
-614,532	268,244	-0,033	0,042
-613,517	-61,575	-0,029	0,009
-612,503	533,473	0,076	0,130
-611,488	-105,773	0,108	0,017
-610,474	800,000	0,041	-0,083
-609,459	-189,402	0,086	-0,001
-608,444	130,494	-0,046	0,043
-607,430	800,000	-0,064	-0,149
-606,415	-123,302	-0,076	-0,009
-605,401	800,000	0,024	-0,072
-604,386	-200,000	0,029	0,177
-603,371	-200,000	0,029	0,107
-602,357	800,000	0,047	-0,110
-601,342	-200,000	0,023	-0,098
-600,328	-200,000	-0,022	-0,169
-599,313	97,866	-0,048	0,040
-598,298	119,343	-0,096	0,086
-597,284	-78,144	-0,052	0,013
-596,269	345,183	0,085	-0,122
-595,255	800,000	-0,064	0,155
-594,240	-4,087	-0,045	-0,023
-593,225	-200,000	-0,011	-0,059
-592,211	-200,000	-0,011	-0,064
-591,196	-1,510	-0,060	0,030
-590,182	-85,372	0,109	0,024
-589,167	254,450	0,090	0,112
-588,152	273,335	0,083	-0,106
-587,138	-71,803	0,075	0,020
-586,123	85,773	-0,193	-0,153
-585,109	-200,000	-0,018	-0,129
-584,094	-32,682	0,094	0,037
-583,079	-200,000	0,011	-0,065
-582,065	466,597	0,049	0,080
-581,050	-114,535	-0,103	-0,014
-580,036	22,395	0,042	0,025
-579,021	-69,212	-0,169	0,047
-578,006	41,313	-0,098	0,064
-576,992	39,574	-0,146	-0,094
-575,977	569,198	0,083	0,146
-574,963	739,759	-0,041	-0,079
-573,948	-109,988	-0,093	-0,014
-572,934	-200,000	0,017	0,110
-571,919	304,301	0,035	0,048
-570,904	53,251	0,148	-0,102
-569,890	-200,000	-0,001	-0,006
-568,875	296,229	-0,042	0,056
-567,861	-200,000	-0,036	0,165
-566,846	800,000	-0,024	0,052
-565,831	15,471	-0,057	0,032
-564,817	137,910	-0,037	0,035
-563,802	-200,000	-0,013	0,084
-562,788	365,151	0,114	-0,166
-561,773	444,517	-0,054	-0,086
-560,758	291,415	-0,042	0,055
-559,744	62,934	0,080	-0,058
-558,729	715,932	-0,051	-0,097
-557,715	-68,616	-0,053	-0,015
-556,700	-124,149	-0,067	-0,008
-555,685	46,736	-0,074	0,049
-554,671	800,000	0,046	0,107
-553,656	-200,000	0,022	0,094
-552,642	-200,000	-0,005	0,094
-551,627	-63,272	-0,133	0,039
-550,612	314,372	0,154	-0,210
-549,598	-200,000	0,033	-0,148
-548,583	-76,039	0,099	-0,025
-547,569	-200,000	0,000	-0,080
-546,554	36,116	0,081	0,051
-545,539	-1,603	0,034	0,017
-544,525	-200,000	-0,004	-0,108
-543,510	366,707	0,098	-0,143
-542,496	800,000	-0,105	-0,217
-541,481	120,758	-0,091	-0,082
-540,466	395,918	0,031	0,046
-539,452	-161,235	0,114	0,004
-538,437	26,754	0,088	0,053
-537,423	-140,405	-0,015	-0,001
-536,408	-200,000	0,034	0,144
-535,393	800,000	-0,036	0,077
-534,379	-200,000	0,029	-0,208
-533,364	-200,000	0,016	0,097
-532,350	800,000	-0,044	0,121
-531,335	350,558	0,065	-0,093
-530,321	-21,195	0,071	-0,031
-529,306	-200,000	-0,038	-0,188
-528,291	157,951	0,071	-0,071
-527,277	558,542	0,015	0,027
-526,262	800,000	-0,046	-0,126
-525,248	-200,000	0,006	-0,120
-524,233	-68,676	-0,085	-0,023
-523,218	349,277	-0,009	0,013
-522,204	800,000	-0,024	0,068
-521,189	173,860	-0,067	-0,070
-520,175	41,621	-0,086	-0,056
-519,160	-200,000	0,022	-0,084
-518,145	31,889	-0,101	0,063
-517,131	-83,934	0,118	-0,027
-516,116	-22,111	0,061	0,027
-515,102	800,000	0,033	-0,085
-514,087	-200,000	-0,004	-0,030
-513,072	-77,468	0,043	-0,011
-512,058	-62,251	-0,104	0,031
-511,043	72,714	0,145	0,109
-510,029	800,000	0,022	0,065
-509,014	-200,000	0,003	0,109
-507,999	250,692	0,022	0,026
-506,985	-200,000	0,009	0,051
-505,970	174,162	-0,098	-0,103
-504,956	109,274	-0,044	0,038
-503,941	-200,000	0,016	-0,117
-502,926	137,266	0,099	-0,093
-501,912	322,762	0,057	0,078
-500,897	-200,000	-0,002	0,063
-499,883	-41,483	-0,094	-0,035
-498,868	-106,814	-0,091	0,014
-497,853	-124,164	0,019	-0,002
-496,839	-200,000	0,019	0,064
-495,824	71,472	-0,052	-0,039
-494,810	-4,649	0,104	0,052
-493,795	174,857	-0,034	0,035
-492,781	66,081	0,052	-0,038
-491,766	149,608	-0,093	-0,091
-490,751	-92,365	-0,061	-0,012
-489,737	65,294	-0,108	0,079
-488,722	129,907	-0,033	0,030
-487,708	-200,000	0,000	0,157
-486,693	94,067	0,089	0,072
-485,678	164,384	-0,072	0,073
-484,664	325,648	0,049	-0,068
-483,649	329,105	-0,041	-0,057
-482,635	319,474	-0,057	-0,079
-481,620	625,763	0,071	-0,130
-480,605	-200,000	0,004	0,034
-479,591	-18,470	-0,065	0,029
-478,576	128,015	-0,017	-0,016
-477,562	-54,261	-0,087	-0,028
-476,547	-82,467	0,059	-0,014
-475,532	265,410	-0,014	-0,018
-474,518	-77,352	0,153	-0,038
-473,503	-200,000	0,040	0,132
-472,489	-200,000	-0,011	0,255
-471,474	8,112	0,022	-0,012
-470,459	800,000	-0,043	-0,085
-469,445	-200,000	0,038	-0,185
-468,430	800,000	-0,037	-0,075
-467,416	-82,697	0,066	-0,015
-466,401	-125,488	0,068	-0,007
-465,386	800,000	-0,091	0,226
-464,372	800,000	-0,065	0,198
-463,357	-200,000	-0,004	0,037
-462,343	13,121	-0,098	-0,054
-461,328	97,409	0,057	-0,047
-460,313	800,000	0,035	-0,102
-459,299	800,000	-0,051	0,118
-458,284	626,222	0,055	0,101
-457,270	43,934	0,132	0,087
-456,255	-125,397	0,017	-0,002
-455,241	48,128	-0,103	-0,069
-454,226	-68,872	0,054	-0,015
-453,211	800,000	0,021	0,053
-452,197	-200,000	0,041	-0,144
-451,182	-39,101	0,074	0,028
-450,168	-200,000	0,002	-0,017
-449,153	-56,543	0,164	0,052
-448,138	800,000	-0,021	0,059
-447,124	800,000	0,034	-0,104
-446,109	800,000	-0,008	0,023
-445,095	457,558	0,034	-0,054
-444,080	-117,045	-0,044	-0,006
-443,065	46,560	-0,084	0,056
-442,051	800,000	-0,022	0,059
-441,036	34,761	0,004	0,002
-440,022	9,852	-0,026	0,014
-439,007	-123,341	-0,060	0,007
-437,992	800,000	-0,035	-0,086
-436,978	114,068	0,077	0,067
-435,963	-200,000	0,023	-0,106
-434,949	114,983	0,118	-0,104
-433,934	-200,000	0,024	-0,105
-432,919	-200,000	0,004	-0,034
-431,905	-200,000	-0,015	0,067
-430,890	41,162	0,098	0,063
-429,876	-200,000	0,033	0,153
-428,861	397,499	-0,034	0,051
-427,846	24,955	0,104	0,062
-426,832	-200,000	0,005	0,064
-425,817	10,938	0,094	0,051
-424,803	800,000	-0,043	-0,103
-423,788	518,897	-0,072	0,122
-422,773	362,559	-0,023	0,033
-421,759	-2,946	-0,108	0,054
-420,744	26,663	-0,158	-0,095
-419,730	221,682	0,062	-0,072
-418,715	800,000	-0,005	-0,010
-417,701	-70,269	-0,065	-0,018
-416,686	-41,958	-0,066	0,024
-415,671	278,017	0,014	-0,018
-414,657	-79,985	0,055	-0,013
-413,642	138,664	-0,013	-0,012
-412,628	-74,372	-0,060	-0,016
-411,613	-181,959	-0,131	-0,002
-410,598	109,887	-0,041	-0,036
-409,584	86,820	0,070	-0,056
-408,569	385,392	-0,038	-0,057
-407,555	-49,353	0,094	-0,032
-406,540	-200,000	0,017	0,077
-405,525	-94,311	-0,202	-0,039
-404,511	95,862	0,176	-0,144
-403,496	-200,000	-0,003	0,055
-402,482	104,883	0,072	0,061
-401,467	-200,000	-0,013	0,106
-400,452	800,000	0,034	0,081
-399,438	-200,000	-0,017	-0,119
-398,423	-130,070	0,109	0,011
-397,409	-172,149	-0,125	-0,003
-396,394	669,057	0,079	-0,146
-395,379	109,780	-0,106	-0,092
-394,365	-200,000	0,043	0,154
-393,350	706,162	-0,052	0,099
-392,336	119,798	0,037	0,033
-391,321	244,129	-0,018	0,022
-390,306	-44,469	-0,130	-0,046
-389,292	-200,000	-0,009	-0,122
-388,277	76,707	-0,033	-0,025
-387,263	1,716	0,055	0,028
-386,248	-200,000	-0,016	0,115
-385,233	130,407	-0,036	-0,033
-384,219	-200,000	0,004	-0,012
-383,204	-157,830	-0,135	-0,006
-382,190	-200,000	0,001	-0,084
-381,175	663,193	-0,082	-0,153
-380,160	-119,042	0,120	-0,015
-379,146	138,824	0,159	0,150
-378,131	-200,000	-0,025	0,103
-377,117	-200,000	0,045	-0,157
-376,102	-200,000	-0,015	-0,066
-375,088	135,428	0,043	0,040
-374,073	-175,499	-0,060	-0,001
-373,058	201,787	0,045	0,050
-372,044	-139,147	0,086	0,007
-371,029	111,631	-0,032	-0,028
-370,015	800,000	-0,014	0,029
-369,000	-61,818	0,044	0,013
-367,985	-132,931	-0,095	0,009
-366,971	72,714	-0,079	-0,059
-365,956	-90,990	0,187	0,038
-364,942	800,000	0,039	-0,114
-363,927	-200,000	-0,012	-0,049
-362,912	-13,469	0,020	-0,009
-361,898	-50,900	-0,068	-0,023
-360,883	-200,000	0,018	-0,166
-359,869	-141,430	0,019	0,001
-358,854	-83,180	0,097	0,022
-357,839	50,212	0,155	0,105
-356,825	-114,729	0,156	-0,021
-355,810	-200,000	0,031	0,119
-354,796	-63,493	-0,090	0,026
-353,781	-99,800	0,085	-0,015
-352,766	-181,929	-0,072	0,001
-351,752	-65,719	0,054	0,015
-350,737	-193,346	0,127	-0,001
-349,723	-80,435	0,061	-0,015
-348,708	-200,000	-0,018	0,072
-347,693	-6,116	-0,043	0,021
-346,679	-145,071	-0,042	-0,003
-345,664	12,131	-0,160	-0,088
-344,650	-45,965	0,048	-0,017
-343,635	79,727	0,053	0,041
-342,620	53,086	0,066	-0,045
-341,606	144,369	-0,110	0,105
-340,591	300,699	-0,039	0,052
-339,577	-200,000	0,001	0,073
-338,562	-200,000	-0,015	-0,197
-337,548	8,582	0,079	-0,042
-336,533	197,889	0,065	0,071
-335,518	75,191	0,068	-0,052
-334,504	596,236	-0,020	0,036
-333,489	-62,350	0,047	-0,014
-332,475	800,000	-0,033	0,094
-331,460	-51,140	0,053	-0,018
-330,445	-200,000	0,016	-0,078
-329,431	124,706	0,078	0,071
-328,416	-102,980	-0,037	-0,006
-327,402	-200,000	0,000	0,012
-326,387	-200,000	0,000	0,028
-325,372	800,000	-0,072	-0,160
-324,358	72,480	0,060	-0,045
-323,343	-200,000	0,007	0,037
-322,329	-200,000	-0,020	0,073
-321,314	-17,425	0,117	-0,052
-320,299	489,561	0,023	0,037
-319,285	799,617	0,039	0,078
-318,270	313,913	0,073	-0,099
-317,256	-174,309	0,088	0,002
-316,241	-75,861	-0,064	0,016
-315,226	589,979	0,070	0,124
-314,212	644,809	0,087	0,160
-313,197	389,902	-0,015	0,023
-312,183	-16,461	-0,163	0,074
-311,168	775,173	-0,011	-0,022
-310,153	800,000	-0,051	-0,140
-309,139	227,159	-0,117	-0,136
-308,124	800,000	-0,030	0,068
-307,110	-68,183	-0,070	-0,019
-306,095	593,136	-0,033	0,059
-305,080	44,886	0,116	-0,076
-304,066	800,000	-0,009	-0,024
-303,051	-58,990	-0,166	-0,051
-302,037	-200,000	-0,013	-0,075
-301,022	-200,000	-0,003	0,036
-300,008	-122,940	-0,114	0,013
-298,993	800,000	-0,027	0,062
-297,978	-15,078	0,013	0,006
-296,964	31,033	-0,091	0,056
-295,949	-200,000	-0,027	0,088
-294,935	446,982	-0,033	-0,052
-293,920	-56,607	-0,032	-0,010
-292,905	65,128	0,069	0,050
-291,891	296,459	0,087	0,114
-290,876	240,371	-0,024	-0,029
-289,862	-19,896	-0,066	-0,029
-288,847	79,076	-0,103	0,079
-287,832	645,807	0,034	-0,063
-286,818	22,403	-0,033	0,019
-285,803	-181,296	0,064	-0,001
-284,789	-112,498	-0,101	0,014
-283,774	28,712	-0,066	0,040
-282,759	111,821	-0,065	-0,056
-281,745	-200,000	0,031	-0,161
-280,730	-200,000	0,013	-0,115
-279,716	401,621	0,036	-0,054
-278,701	-74,727	0,121	0,031
-277,686	-137,411	0,052	-0,004
-276,672	-36,168	0,074	-0,028
-275,657	539,013	0,048	0,082
-274,643	-200,000	0,007	-0,125
-273,628	24,937	-0,082	-0,048
-272,613	-200,000	0,007	0,050
-271,599	-168,022	0,094	0,003
-270,584	-200,000	0,052	0,189
-269,570	-200,000	-0,003	0,100
-268,555	225,730	0,146	-0,169
-267,540	-200,000	-0,035	0,111
-266,526	-200,000	0,007	-0,103
-265,511	136,914	-0,063	0,059
-264,497	-16,227	0,099	0,045
-263,482	84,606	0,022	0,017
-262,467	800,000	0,046	0,105
-261,453	-200,000	-0,003	0,035
-260,438	-200,000	0,007	-0,111
-259,424	-75,134	0,091	-0,023
-258,409	-25,662	0,039	0,016
-257,395	33,963	0,081	0,051
-256,380	147,090	-0,025	-0,024
-255,365	271,514	0,125	0,157
-254,351	-116,420	0,094	0,012
-253,336	-78,674	-0,158	-0,038
-252,322	-200,000	0,004	-0,048
-251,307	-154,856	0,096	-0,004
-250,292	-200,000	0,004	0,094
-249,278	-157,233	0,084	-0,004
-248,263	79,667	-0,054	-0,041
-247,249	-97,862	-0,160	-0,029
-246,234	-156,989	-0,153	-0,007
-245,219	800,000	-0,051	0,101
-244,205	70,043	0,085	0,063
-243,190	-154,916	-0,028	-0,001
-242,176	223,782	0,077	0,089
-241,161	-78,423	-0,045	0,011
-240,146	450,542	0,060	0,094
-239,132	754,592	0,072	0,140
-238,117	-14,233	0,043	-0,019
-237,103	634,311	-0,027	0,049
-236,088	-68,262	0,074	0,020
-235,073	11,631	0,227	0,124
-234,059	222,904	0,023	-0,027
-233,044	195,010	0,056	0,061
-232,030	643,435	0,038	-0,069
-231,015	-200,000	0,054	-0,203
-230,000	184,517	0,015	0,016
-228,986	696,212	0,064	-0,120
-227,971	-120,767	0,130	0,015
-226,957	-200,000	0,003	-0,011
-225,942	734,033	-0,035	-0,068
-224,927	800,000	0,021	0,044
-223,913	-76,990	0,049	0,012
-222,898	36,937	-0,043	-0,027
-221,884	800,000	0,006	-0,015
-220,869	800,000	0,003	-0,009
-219,855	99,697	0,029	-0,024
-218,840	339,128	0,012	-0,016
-217,825	-162,018	0,130	-0,005
-216,811	-67,445	-0,037	-0,010
-215,796	-70,234	-0,051	-0,014
-214,782	-200,000	-0,008	0,029
-213,767	-100,394	-0,099	-0,017
-212,752	-54,046	-0,089	0,029
-211,738	-200,000	-0,002	0,043
-210,723	-200,000	-0,007	0,133
-209,709	800,000	-0,067	-0,171
-208,694	435,055	-0,074	-0,114
-207,679	30,192	0,118	0,072
-206,665	538,883	0,037	-0,063
-205,650	-41,398	0,040	-0,015
-204,636	-6,847	0,138	0,066
-203,621	187,603	-0,045	-0,048
-202,606	-149,325	-0,087	0,005
-201,592	762,204	-0,019	0,036
-200,577	-200,000	-0,035	-0,156
-199,563	118,751	-0,032	0,028
-198,548	-100,778	0,156	0,027
-197,533	334,021	0,048	-0,067
-196,519	-64,904	-0,123	0,035
-195,504	-180,216	-0,115	-0,002
-194,490	447,943	0,061	-0,096
-193,475	191,015	0,084	-0,090
-192,460	-112,185	0,112	-0,016
-191,446	-168,396	0,074	0,002
-190,431	587,566	0,053	0,094
-189,417	-200,000	0,017	0,080
-188,402	288,495	-0,039	0,050
-187,387	33,646	-0,179	-0,110
-186,373	332,317	0,051	-0,070
-185,358	-53,764	-0,064	0,021
-184,344	-21,174	0,084	0,036
-183,329	-145,077	-0,026	-0,002
-182,315	800,000	0,009	-0,018
-181,300	-110,799	-0,063	0,009
-180,285	-68,837	-0,095	0,026
-179,271	582,587	0,015	-0,026
-178,256	61,474	-0,104	0,074
-177,242	-15,148	-0,027	-0,012
-176,227	270,651	0,019	0,024
-175,212	-200,000	0,024	0,101
-174,198	800,000	-0,016	0,036
-173,183	14,652	-0,140	0,078
-172,169	-123,601	-0,086	0,010
-171,154	-98,865	0,049	0,009
-170,139	148,533	-0,064	0,062
-169,125	490,325	0,043	0,070
-168,110	-200,000	-0,012	0,177
-167,096	388,879	-0,049	-0,072
-166,081	-200,000	0,013	-0,044
-165,066	800,000	-0,028	0,069
-164,052	-39,594	0,061	0,023
-163,037	800,000	0,035	0,094
-162,023	800,000	0,004	0,011
-161,008	800,000	-0,028	0,076
-159,993	174,262	0,055	0,056
-158,979	-69,114	-0,168	0,046
-157,964	800,000	-0,045	-0,110
-156,950	144,629	-0,079	0,075
-155,935	78,403	-0,047	-0,036
-154,920	288,382	-0,022	-0,029
-153,906	490,433	-0,037	0,060
-152,891	238,722	-0,092	-0,109
-151,877	800,000	-0,052	-0,155
-150,862	110,094	0,028	-0,024
-149,847	520,017	0,038	-0,064
-148,833	-103,576	-0,136	-0,022
-147,818	-200,000	0,024	0,098
-146,804	259,438	0,093	0,114
-145,789	29,121	-0,094	-0,057
-144,775	373,708	-0,121	-0,175
-143,760	800,000	-0,061	-0,156
-142,745	-200,000	-0,018	0,063
-141,731	-200,000	-0,001	-0,050
-140,716	101,617	0,067	-0,055
-139,702	800,000	0,022	0,067
-138,687	-200,000	-0,004	0,073
-137,672	800,000	0,025	-0,069
-136,658	105,805	-0,019	-0,016
-135,643	82,473	0,124	-0,096
-134,629	-42,979	0,136	-0,049
-133,614	-200,000	-0,000	0,036
-132,599	-39,543	-0,127	0,047
-131,585	68,326	0,103	0,075
-130,570	-200,000	-0,034	-0,126
-129,556	-200,000	0,005	0,048
-128,541	119,169	-0,081	-0,071
-127,526	-28,820	-0,105	-0,043
-126,512	-48,831	-0,046	-0,016
-125,497	642,375	0,038	-0,068
-124,483	-72,776	-0,108	-0,028
-123,468	800,000	0,056	-0,130
-122,453	399,345	0,019	0,028
-121,439	51,384	0,109	-0,073
-120,424	800,000	-0,055	0,166
-119,410	-141,436	-0,023	-0,002
-118,395	8,455	0,145	-0,077
-117,380	800,000	-0,006	0,018
-116,366	32,486	0,093	-0,057
-115,351	-72,556	0,067	-0,017
-114,337	96,760	-0,026	-0,021
-113,322	-170,747	-0,086	-0,002
-112,307	-125,582	0,092	0,010
-111,293	541,163	0,055	-0,094
-110,278	-200,000	-0,032	0,187
-109,264	-200,000	0,014	0,082
-108,249	6,785	0,012	0,006
-107,234	-200,000	0,031	-0,143
-106,220	-200,000	-0,005	0,027
-105,205	128,707	0,052	-0,047
-104,191	-51,992	0,095	-0,031
-103,176	479,546	0,050	0,081
-102,162	79,867	-0,119	0,091
-101,147	129,207	-0,039	-0,035
-100,132	800,000	-0,049	-0,144
-99,118	-200,000	-0,012	-0,107
-98,103	473,785	0,015	0,024
-97,089	-119,713	0,092	-0,011
-96,074	-200,000	0,000	0,102
-95,059	-200,000	0,043	-0,222
-94,045	800,000	-0,109	-0,229
-93,030	-200,000	-0,028	-0,089
-92,016	800,000	-0,054	-0,109
-91,001	-12,918	-0,076	-0,035
-89,986	-92,315	0,072	-0,014
-88,972	800,000	0,043	0,106
-87,957	34,000	-0,077	0,047
-86,943	760,197	0,051	-0,098
-85,928	-200,000	-0,012	-0,043
-84,913	75,920	-0,022	0,016
-83,899	800,000	0,019	0,055
-82,884	-6,736	0,017	-0,008
-81,870	800,000	0,042	0,091
-80,855	70,397	-0,067	0,049
-79,840	-81,056	0,132	-0,031
-78,826	-200,000	0,005	-0,114
-77,811	800,000	-0,007	0,020
-76,797	800,000	0,039	0,118
-75,782	-87,647	0,114	-0,024
-74,767	366,489	0,079	-0,113
-73,753	-200,000	0,014	0,065
-72,738	-200,000	0,004	-0,163
-71,724	14,183	-0,134	-0,074
-70,709	476,142	0,017	-0,028
-69,694	-161,099	-0,073	0,003
-68,680	374,051	0,068	-0,099
-67,665	-200,000	-0,002	-0,020
-66,651	162,673	0,074	0,073
-65,636	-200,000	-0,002	-0,025
-64,622	-14,644	0,111	-0,051
-63,607	548,222	0,041	0,069
-62,592	91,261	-0,103	0,082
-61,578	-200,000	0,003	0,026
-60,563	800,000	-0,010	0,027
-59,549	-200,000	0,029	0,150
-58,534	-49,108	-1,520	-0,512
-57,519	314,664	-1,427	-1,909
-56,505	-200,000	-0,540	-4,535
-55,490	183,601	0,944	0,990
-54,476	800,000	4,962	11,522
-53,461	-200,000	18,846	311,793
-52,446	-200,000	738,628	2320,733
-51,432	574,709	1655,056	2871,599
-50,417	79,159	1671,640	1267,002
-49,403	21,896	1544,221	888,992
-48,388	15,754	1467,008	814,669
-47,373	17,821	1456,924	819,028
-46,359	16,830	1446,837	808,572
-45,344	14,024	1442,316	792,568
-44,330	13,926	1440,363	790,992
-43,315	13,900	1438,794	789,979
-42,300	13,912	1437,024	789,029
-41,286	13,952	1435,885	788,565
-40,271	13,892	1434,562	787,522
-39,257	13,899	1433,428	786,900
-38,242	13,979	1432,132	786,539
-37,227	13,978	1430,881	785,815
-36,213	13,995	1429,566	785,146
-35,198	13,992	1428,317	784,410
-34,184	13,991	1427,473	783,912
-33,169	13,950	1425,991	782,871
-32,154	13,996	1424,733	782,369
-31,140	13,977	1423,610	781,633
-30,125	14,053	1422,479	781,340
-29,111	13,992	1421,553	780,510
-28,096	13,968	1420,440	779,757
-27,082	13,919	1419,274	778,853
-26,067	13,898	1418,088	778,074
-25,052	13,889	1416,987	777,396
-24,038	13,853	1416,238	776,786
-23,023	13,883	1415,213	776,332
-22,009	13,887	1414,161	775,744
-20,994	13,860	1413,439	775,192
-19,979	13,891	1412,294	774,677
-18,965	13,842	1411,412	773,933
-17,950	13,804	1410,697	773,333
-16,936	13,826	1409,801	772,913
-15,921	13,820	1408,481	772,130
-14,906	13,821	1407,507	771,571
-13,892	13,824	1406,553	771,032
-12,877	13,833	1405,862	770,662
-11,863	13,793	1404,883	769,912
-10,848	13,818	1403,982	769,500
-9,833	13,790	1403,095	768,853
-8,819	13,729	1402,335	768,125
-7,804	13,717	1401,246	767,439
-6,790	13,708	1400,215	766,806
-5,775	13,725	1399,105	766,246
-4,760	13,735	1398,281	765,810
-3,746	13,728	1397,385	765,254
-2,731	13,694	1396,679	764,681
-1,717	13,670	1395,659	763,983
-0,702	13,669	1393,997	763,035
0,313	17,412	1311,533	735,283
1,327	33,576	705,673	433,074
2,342	51,961	123,841	83,321
3,356	2,367	16,584	8,462
4,371	8,977	3,261	1,736
5,386	-14,698	0,681	0,308
6,400	800,000	-0,060	0,168
7,415	111,454	-0,317	-0,270
8,429	117,706	-0,248	-0,216
9,444	22,864	-0,415	-0,240
10,459	-31,982	-0,289	-0,114
11,473	64,851	-0,306	-0,218
12,488	-30,464	-0,248	-0,099
13,502	-50,569	-0,390	-0,129
14,517	72,117	-0,333	-0,245
15,531	226,177	-0,310	-0,356
16,546	-5,939	-0,329	-0,159
17,561	75,860	-0,401	-0,299
18,575	-37,974	-0,215	-0,080
19,590	90,392	-0,185	-0,146
20,604	16,751	-0,142	-0,079
21,619	197,440	-0,414	-0,447
22,634	69,288	-0,419	-0,304
23,648	419,387	-0,327	-0,496
24,663	8,802	-0,378	-0,201
25,677	-22,785	-0,289	-0,123
26,692	93,192	-0,243	-0,194
27,707	67,445	-0,403	-0,290
28,721	42,341	-0,364	-0,233
29,736	165,861	-0,383	-0,383
30,750	121,079	-0,420	-0,369
31,765	227,198	-0,231	-0,265
32,780	89,530	-0,303	-0,239
33,794	2,012	-0,378	-0,192
34,809	61,603	-0,466	-0,327
35,823	62,371	-0,427	-0,301
36,838	143,899	-0,259	-0,244
37,853	173,489	-0,272	-0,277
38,867	107,646	-0,280	-0,235
39,882	-7,183	-0,320	-0,152
40,896	20,760	-0,471	-0,268
41,911	171,057	-0,240	-0,243
42,926	83,372	-0,271	-0,208
43,940	8,354	-0,386	-0,204
44,955	186,615	-0,336	-0,353
45,969	53,398	-0,449	-0,303
46,984	143,150	-0,261	-0,245
47,999	112,163	-0,290	-0,247
49,013	0,299	-0,426	-0,214
50,028	-71,982	-0,480	-0,125
51,042	50,850	-0,291	-0,194
52,057	97,543	-0,317	-0,257
53,071	152,510	-0,252	-0,243
54,086	138,514	-0,345	-0,319
55,101	3,739	-0,232	-0,119
56,115	79,778	-0,337	-0,254
57,130	-50,650	-0,345	-0,114
58,144	381,607	-0,279	-0,404
59,159	135,689	-0,326	-0,299
60,174	-8,886	-0,448	-0,210
61,188	286,475	-0,279	-0,356
62,203	246,672	-0,242	-0,288
63,217	10,989	-0,285	-0,153
64,232	-59,756	-0,390	-0,117
65,247	19,393	-0,271	-0,153
66,261	283,810	-0,309	-0,392
67,276	199,034	-0,326	-0,352
68,290	145,883	-0,261	-0,247
69,305	64,286	-0,297	-0,210
70,320	26,595	-0,357	-0,210
71,334	256,183	-0,255	-0,308
72,349	30,918	-0,397	-0,239
73,363	317,660	-0,244	-0,325
74,378	33,778	-0,434	-0,265
75,393	67,509	-0,254	-0,182
76,407	98,427	-0,234	-0,190
77,422	172,852	-0,256	-0,259
78,436	10,445	-0,304	-0,162
79,451	88,594	-0,216	-0,169
80,466	576,625	-0,166	-0,286
81,480	-41,922	-0,335	-0,120
82,495	148,710	-0,281	-0,267
83,509	-67,379	-0,343	-0,094
84,524	-47,722	-0,261	-0,088
85,539	-60,982	-0,264	-0,078
86,553	92,290	-0,294	-0,232
87,568	28,883	-0,272	-0,162
88,582	12,565	-0,289	-0,156
89,597	16,490	-0,309	-0,171
90,611	137,118	-0,236	-0,216
91,626	-26,092	-0,233	-0,096
92,641	-93,519	-0,364	-0,070
93,655	-24,852	-0,325	-0,135
94,670	-62,231	-0,334	-0,097
95,684	80,368	-0,335	-0,253
96,699	134,091	-0,208	-0,190
97,714	-66,920	-0,289	-0,079
98,728	62,731	-0,280	-0,196
99,743	47,047	-0,283	-0,185
100,757	105,106	-0,239	-0,198
101,772	409,222	-0,258	-0,384
102,787	-36,598	-0,345	-0,129
103,801	66,070	-0,233	-0,166
104,816	2,359	-0,415	-0,210
105,830	36,206	-0,157	-0,097
106,845	800,000	-0,099	-0,209
107,860	65,602	-0,289	-0,205
108,874	106,615	-0,304	-0,253
109,889	32,908	-0,273	-0,165
110,903	800,000	-0,103	-0,213
111,918	-98,782	-0,346	-0,061
112,933	186,167	-0,250	-0,261
113,947	84,030	-0,211	-0,161
114,962	12,669	-0,308	-0,166
115,976	101,954	-0,277	-0,226
116,991	-94,406	-0,227	-0,043
118,006	-40,287	-0,229	-0,083
119,020	210,076	-0,216	-0,237
120,035	89,755	-0,160	-0,125
121,049	21,162	-0,266	-0,151
122,064	241,027	-0,138	-0,161
123,079	151,559	-0,177	-0,169
124,093	11,150	-0,317	-0,169
125,108	247,232	-0,168	-0,198
126,122	141,616	-0,161	-0,149
127,137	-50,476	-0,224	-0,073
128,151	15,304	-0,176	-0,096
129,166	-147,465	-0,263	-0,015
130,181	-22,184	-0,226	-0,096
131,195	21,362	-0,280	-0,159
132,210	-4,990	-0,331	-0,159
133,224	394,821	-0,176	-0,257
134,239	16,297	-0,179	-0,099
135,254	-70,378	-0,307	-0,081
136,268	29,098	-0,251	-0,149
137,283	242,531	-0,151	-0,178
138,297	72,596	-0,279	-0,203
139,312	-9,187	-0,282	-0,131
140,327	-200,000	-0,050	-0,231
141,341	74,843	-0,226	-0,166
142,356	90,407	-0,193	-0,151
143,370	44,858	-0,229	-0,147
144,385	151,822	-0,270	-0,257
145,400	48,798	-0,295	-0,193
146,414	211,516	-0,243	-0,267
147,429	97,394	-0,265	-0,213
148,443	119,563	-0,221	-0,191
149,458	5,223	-0,226	-0,116
150,473	40,780	-0,253	-0,159
151,487	79,171	-0,281	-0,210
152,502	-50,253	-0,310	-0,102
153,516	8,604	-0,361	-0,189
154,531	11,155	-0,366	-0,195
155,546	98,007	-0,320	-0,257
156,560	108,245	-0,269	-0,224
157,575	-46,661	-0,228	-0,077
158,589	84,111	-0,211	-0,161
159,604	94,630	-0,208	-0,165
160,619	-46,837	-0,307	-0,104
161,633	226,515	-0,246	-0,279
162,648	-38,190	-0,400	-0,147
163,662	-70,071	-0,240	-0,063
164,677	-140,842	-0,156	-0,011
165,692	-23,757	-0,265	-0,110
166,706	17,612	-0,349	-0,193
167,721	325,059	-0,296	-0,395
168,735	119,088	-0,315	-0,272
169,750	133,530	-0,293	-0,264
170,764	-16,928	-0,282	-0,124
171,779	23,123	-0,259	-0,148
172,794	74,524	-0,226	-0,165
173,808	-64,816	-0,151	-0,042
174,823	92,595	-0,320	-0,251
175,837	6,360	-0,271	-0,140
176,852	171,726	-0,227	-0,228
177,867	-20,237	-0,277	-0,118
178,881	167,075	-0,145	-0,144
179,896	44,452	-0,171	-0,109
180,910	-38,599	-0,285	-0,104
181,925	165,997	-0,191	-0,189
182,940	62,235	-0,107	-0,074
183,954	284,376	-0,163	-0,205
184,969	-12,230	-0,235	-0,107
185,983	-169,215	-0,186	-0,005
186,998	-37,582	-0,309	-0,114
188,013	-44,796	-0,138	-0,048
189,027	-108,838	-0,242	-0,036
190,042	139,741	-0,187	-0,172
191,056	-99,526	-0,291	-0,050
192,071	57,513	-0,158	-0,107
193,086	86,912	-0,167	-0,128
194,100	124,412	-0,149	-0,131
195,115	800,000	-0,124	-0,242
196,129	147,172	-0,262	-0,245
197,144	111,277	-0,279	-0,234
198,159	345,341	-0,119	-0,163
199,173	390,033	-0,131	-0,189
200,188	12,714	-0,102	-0,055
201,202	102,112	-0,138	-0,112
202,217	-83,183	-0,243	-0,054
203,232	212,598	-0,148	-0,162
204,246	99,296	-0,168	-0,135
205,261	116,079	-0,195	-0,166
206,275	800,000	-0,074	-0,147
207,290	96,663	-0,195	-0,155
208,304	800,000	-0,141	-0,294
209,319	2,627	-0,124	-0,062
210,334	263,264	-0,192	-0,232
211,348	64,261	-0,185	-0,129
212,363	-3,661	-0,288	-0,139
213,377	82,361	-0,137	-0,103
214,392	175,704	-0,197	-0,199
215,407	130,427	-0,094	-0,083
216,421	-48,443	-0,216	-0,072
217,436	18,712	-0,219	-0,121
218,450	9,399	-0,201	-0,105
219,465	6,721	-0,235	-0,121
220,480	159,278	-0,147	-0,142
221,494	800,000	-0,062	-0,146
222,509	-8,421	-0,150	-0,070
223,523	-113,787	-0,209	-0,028
224,538	178,052	-0,158	-0,160
225,553	249,828	-0,226	-0,267
226,567	-48,792	-0,377	-0,125
227,582	274,458	-0,123	-0,151
228,596	145,403	-0,193	-0,179
229,611	729,774	-0,095	-0,176
230,626	131,234	-0,254	-0,226
231,640	-87,109	-0,255	-0,053
232,655	46,804	-0,248	-0,160
233,669	61,603	-0,255	-0,175
234,684	554,028	-0,159	-0,267
235,699	768,130	-0,124	-0,236
236,713	64,584	-0,164	-0,115
237,728	2,214	-0,204	-0,102
238,742	-0,797	-0,200	-0,098
239,757	15,555	-0,302	-0,164
240,772	85,458	-0,204	-0,155
241,786	-79,293	-0,240	-0,056
242,801	-89,530	-0,164	0,033
243,815	800,000	-0,035	-0,098
244,830	-56,816	-0,232	-0,071
245,844	203,790	-0,067	-0,072
246,859	-63,203	-0,170	-0,048
247,874	60,479	-0,182	-0,124
248,888	800,000	-0,107	-0,252
249,903	107,408	-0,192	-0,158
250,917	61,642	-0,139	-0,096
251,932	84,761	-0,165	-0,125
252,947	-74,795	-0,034	-0,008
253,961	394,671	-0,119	-0,172
254,976	-31,144	-0,131	-0,051
255,990	200,730	-0,180	-0,191
257,005	800,000	-0,083	-0,175
258,020	126,324	-0,126	-0,111
259,034	-82,103	-0,222	-0,050
260,049	-30,234	-0,211	-0,083
261,063	-111,097	-0,259	-0,036
262,078	375,093	-0,167	-0,236
263,093	410,541	-0,158	-0,232
264,107	163,146	-0,277	-0,269
265,122	588,107	-0,138	-0,235
266,136	-147,524	-0,217	-0,012
267,151	-23,603	-0,126	-0,052
268,166	-26,804	-0,138	0,056
269,180	800,000	-0,069	-0,135
270,195	-40,317	-0,274	-0,098
271,209	87,225	-0,177	-0,135
272,224	22,669	-0,225	-0,127
273,239	73,007	-0,138	-0,100
274,253	5,422	-0,182	-0,093
275,268	189,375	-0,124	-0,129
276,282	53,458	-0,147	-0,097
277,297	-161,642	-0,173	-0,006
278,312	-26,264	-0,180	-0,073
279,326	-182,909	-0,184	-0,002
280,341	-200,000	-0,056	-0,234
281,355	-39,965	-0,137	0,049
282,370	354,593	-0,143	-0,197
283,384	40,266	-0,124	-0,077
284,399	229,069	-0,140	-0,158
285,414	5,570	-0,242	-0,123
286,428	251,111	-0,099	-0,117
287,443	-72,970	-0,165	-0,042
288,457	-51,407	-0,252	0,081
289,472	-6,215	-0,100	-0,047
290,487	-51,449	-0,219	-0,070
291,501	157,368	-0,184	-0,176
292,516	-135,006	-0,145	-0,012
293,530	196,507	-0,162	-0,170
294,545	29,554	-0,161	0,094
295,560	-42,485	-0,121	-0,042
296,574	17,101	-0,172	-0,094
297,589	325,725	-0,148	-0,195
298,603	4,531	-0,192	-0,097
299,618	277,807	-0,123	-0,151
300,633	-65,916	-0,216	-0,059
301,647	-46,744	-0,120	0,040
302,662	-56,022	-0,176	0,054
303,676	37,408	-0,142	-0,087
304,691	170,450	-0,164	-0,162
305,706	136,346	-0,083	-0,074
306,720	-69,822	-0,173	-0,045
307,735	800,000	-0,114	-0,292
308,749	-200,000	0,014	-0,144
309,764	13,040	-0,093	-0,050
310,779	-15,763	-0,159	-0,070
311,793	145,308	-0,161	-0,148
312,808	332,234	-0,119	-0,159
313,822	283,702	-0,104	-0,128
314,837	800,000	-0,087	-0,197
315,852	800,000	-0,052	-0,133
316,866	-8,776	-0,097	-0,045
317,881	20,613	-0,174	-0,097
318,895	78,729	-0,151	-0,111
319,910	59,481	-0,141	-0,095
320,925	8,898	-0,226	-0,117
321,939	-111,117	-0,116	0,016
322,954	-43,820	-0,147	-0,051
323,968	252,813	-0,088	-0,103
324,983	-147,555	-0,222	-0,013
325,997	169,334	-0,137	-0,135
327,012	322,506	-0,148	-0,194
328,027	-200,000	-0,049	-0,156
329,041	-130,105	-0,172	-0,016
330,056	-200,000	-0,024	-0,094
331,070	-20,151	-0,077	0,032
332,085	-200,000	-0,059	-0,256
333,100	301,887	-0,113	-0,144
334,114	372,934	-0,150	-0,210
335,129	28,738	-0,238	-0,138
336,143	-125,131	-0,054	0,006
337,158	53,587	-0,185	-0,122
338,173	-50,008	-0,155	-0,050
339,187	128,485	-0,154	0,135
340,202	-16,274	-0,176	-0,076
341,216	-30,809	-0,131	-0,050
342,231	9,250	-0,034	-0,018
343,246	752,739	-0,111	-0,206
344,260	750,983	-0,065	-0,120
345,275	161,712	-0,095	-0,091
346,289	20,502	-0,043	0,024
347,304	-17,762	-0,140	-0,060
348,319	118,589	-0,111	-0,094
349,333	614,332	-0,133	-0,230
350,348	262,791	-0,157	-0,187
351,362	-111,369	-0,172	-0,024
352,377	-80,035	-0,071	-0,016
353,392	458,628	-0,115	-0,175
354,406	-30,096	-0,178	-0,069
355,421	209,508	1315,105	1415,882
356,435	161,241	1475,892	1416,359
