DTS Sentinel unit serial number:	SN410029Multiplexer serial number:	ORYXHardware model number:	OX2-SRSoftware version number:	ORYX F/W v4,00 Oryx Data Collector v3.7.2.0data status	okinstallation	B3 Nyhavnadifferential loss correction	single-endedforward channel	channel 1reverse channel	N/Adate	2023/11/29time	12:12:30forward acquisition time	300,00reverse acquisition time	0,00gamma	499,1914k internal	0,3212k external	0,3212temperature offset calibration	1,0000default loss term (dB/km)	0,3820temperature slope calibration	1,0000multiplexer offset coefficient	1,0000multiplexer slope coefficient	1,0000fibre end	0,00T internal ref (°C)	9,75T ext. ref 1 (°C)	-4,62T ext. ref 2 (°C)	-4,75length (m)	temperature (°C)	Stokes	anti-Stokes-744,400	800,000	-0,154	-0,333
-743,385	-200,000	0,025	0,186
-742,371	104,235	-0,144	-0,122
-741,356	800,000	-0,105	0,291
-740,342	800,000	-0,136	-0,288
-739,327	-200,000	-0,055	0,200
-738,312	631,890	-0,144	-0,265
-737,298	-200,000	-0,005	0,359
-736,283	10,999	-0,226	-0,125
-735,269	-200,000	-0,078	0,343
-734,254	84,256	-0,167	-0,132
-733,239	17,335	-0,258	0,148
-732,225	-200,000	0,013	-0,165
-731,210	-200,000	0,025	0,138
-730,196	-200,000	-0,003	0,017
-729,181	104,732	-0,094	0,081
-728,167	-200,000	0,006	0,111
-727,152	-78,396	-0,077	-0,019
-726,137	-200,000	-0,018	0,070
-725,123	316,766	-0,035	0,048
-724,108	407,510	-0,066	-0,102
-723,094	-114,052	-0,075	0,010
-722,079	-165,993	-0,120	0,004
-721,064	209,441	-0,044	0,050
-720,050	800,000	-0,057	0,134
-719,035	63,158	0,072	0,052
-718,021	-160,474	-0,172	0,007
-717,006	-200,000	0,003	-0,091
-715,991	394,543	-0,044	-0,067
-714,977	70,363	-0,079	-0,059
-713,962	-116,577	-0,098	-0,013
-712,948	-200,000	-0,005	-0,085
-711,933	10,572	-0,030	0,017
-710,918	800,000	0,003	0,008
-709,904	-200,000	-0,044	-0,141
-708,889	230,493	-0,106	-0,126
-707,875	321,228	-0,116	-0,160
-706,860	-200,000	0,015	0,050
-705,845	-200,000	-0,002	0,107
-704,831	-200,000	-0,045	0,151
-703,816	-200,000	-0,015	0,101
-702,802	-200,000	-0,017	-0,082
-701,787	-200,000	-0,007	0,038
-700,772	90,760	-0,032	-0,026
-699,758	-200,000	-0,005	-0,222
-698,743	39,982	-0,017	0,011
-697,729	115,173	0,048	-0,043
-696,714	714,367	-0,055	0,106
-695,699	185,919	0,054	-0,059
-694,685	405,281	-0,065	0,099
-693,670	239,951	0,035	-0,042
-692,656	36,836	-0,096	-0,062
-691,641	432,991	-0,046	-0,073
-690,627	-200,000	0,020	0,141
-689,612	-200,000	-0,045	0,158
-688,597	-181,438	0,148	0,002
-687,583	8,958	-0,046	-0,025
-686,568	339,335	-0,023	-0,032
-685,554	-65,314	-0,004	-0,001
-684,539	-98,082	0,039	-0,007
-683,524	-200,000	-0,001	-0,016
-682,510	-200,000	0,010	0,185
-681,495	-35,376	-0,122	-0,048
-680,481	-137,710	-0,182	-0,015
-679,466	226,702	-0,069	-0,081
-678,451	-52,998	-0,135	0,045
-677,437	-200,000	-0,030	0,100
-676,422	699,274	0,021	-0,041
-675,408	-5,326	-0,042	0,021
-674,393	-9,902	-0,133	0,063
-673,378	-186,569	-0,084	0,001
-672,364	-200,000	0,003	-0,084
-671,349	269,233	0,066	-0,084
-670,335	-200,000	0,006	0,032
-669,320	800,000	-0,046	0,127
-668,305	-19,003	-0,135	-0,060
-667,291	252,970	-0,097	-0,120
-666,276	-200,000	0,002	0,041
-665,262	613,181	-0,077	-0,140
-664,247	39,877	-0,098	-0,064
-663,232	-47,075	0,106	-0,037
-662,218	-200,000	0,006	0,091
-661,203	800,000	0,007	0,020
-660,189	-200,000	0,006	-0,153
-659,174	-200,000	-0,058	0,212
-658,159	-19,787	-0,065	0,029
-657,145	441,761	-0,083	-0,132
-656,130	30,747	0,143	0,089
-655,116	800,000	-0,024	-0,054
-654,101	-48,447	0,101	-0,035
-653,086	800,000	0,036	0,075
-652,072	-200,000	0,018	0,061
-651,057	746,127	-0,041	-0,081
-650,043	-85,983	-0,148	0,033
-649,028	59,256	-0,019	0,013
-648,014	-200,000	-0,001	-0,089
-646,999	141,688	0,113	0,108
-645,984	550,007	0,080	0,139
-644,970	134,574	-0,030	-0,028
-643,955	171,224	-0,008	0,009
-642,941	133,468	-0,073	0,068
-641,926	263,245	-0,064	0,080
-640,911	-44,980	-0,066	-0,024
-639,897	-80,636	0,063	-0,015
-638,882	800,000	0,045	0,113
-637,868	-200,000	-0,022	-0,089
-636,853	723,495	-0,021	-0,041
-635,838	800,000	0,024	-0,069
-634,824	-23,655	-0,059	0,025
-633,809	239,605	0,045	-0,054
-632,795	-115,208	-0,137	-0,018
-631,780	-32,022	0,079	0,032
-630,765	693,618	-0,037	-0,070
-629,751	-76,608	-0,059	-0,015
-628,736	-96,935	-0,145	-0,027
-627,722	-200,000	0,002	-0,094
-626,707	58,408	0,057	0,041
-625,692	13,333	0,058	-0,032
-624,678	-1,654	-0,058	-0,029
-623,663	233,178	0,030	0,036
-622,649	-30,785	-0,093	-0,038
-621,634	345,660	0,075	-0,106
-620,619	175,948	-0,094	-0,099
-619,605	-90,932	0,076	0,016
-618,590	65,060	0,107	0,078
-617,576	415,772	-0,033	0,052
-616,561	-200,000	-0,012	-0,105
-615,546	155,484	-0,036	-0,036
-614,532	-100,247	-0,157	-0,028
-613,517	-200,000	0,044	-0,164
-612,503	387,431	0,039	-0,058
-611,488	-120,366	0,125	-0,015
-610,474	800,000	0,056	0,141
-609,459	70,248	-0,111	0,082
-608,444	800,000	0,013	-0,037
-607,430	462,629	-0,044	-0,071
-606,415	-200,000	-0,012	-0,096
-605,401	484,206	-0,025	-0,040
-604,386	-127,740	-0,023	-0,002
-603,371	84,007	0,080	0,063
-602,357	208,991	0,083	0,094
-601,342	-52,976	-0,110	-0,036
-600,328	107,546	0,075	-0,064
-599,313	-200,000	-0,008	-0,055
-598,298	380,791	0,081	0,120
-597,284	156,082	-0,023	0,022
-596,269	800,000	0,053	0,129
-595,255	312,072	-0,060	0,081
-594,240	292,844	0,066	-0,086
-593,225	-124,928	-0,141	0,015
-592,211	77,036	-0,093	0,071
-591,196	590,698	-0,059	-0,106
-590,182	-80,387	0,107	-0,026
-589,167	49,121	-0,058	-0,039
-588,152	569,727	-0,061	0,107
-587,138	31,866	-0,089	0,055
-586,123	-93,773	0,122	-0,024
-585,109	-82,067	-0,008	0,002
-584,094	-107,734	-0,073	0,011
-583,079	800,000	-0,045	0,092
-582,065	6,986	0,171	0,092
-581,050	223,160	0,021	-0,024
-580,036	-158,524	-0,106	-0,004
-579,021	12,125	0,080	0,044
-578,006	-1,744	-0,162	-0,082
-576,992	-29,969	-0,039	-0,016
-575,977	-52,572	-0,156	0,051
-574,963	17,800	0,120	0,068
-573,948	-105,177	-0,088	0,014
-572,934	-200,000	0,030	0,129
-571,919	7,561	0,067	-0,036
-570,904	-54,036	-0,185	-0,060
-569,890	32,259	0,051	0,032
-568,875	409,440	0,026	-0,040
-567,861	-92,239	-0,072	0,014
-566,846	32,961	-0,132	0,082
-565,831	-200,000	-0,008	0,102
-564,817	17,648	-0,202	-0,115
-563,802	412,322	-0,032	-0,049
-562,788	68,853	0,054	-0,040
-561,773	427,463	-0,046	0,071
-560,758	-112,874	0,060	0,008
-559,744	-66,032	-0,104	0,030
-558,729	-200,000	-0,036	-0,173
-557,715	193,820	0,070	-0,076
-556,700	-122,653	-0,126	-0,014
-555,685	-171,591	0,057	-0,001
-554,671	114,365	-0,126	0,111
-553,656	-83,358	0,079	-0,018
-552,642	592,289	0,009	0,017
-551,627	6,085	0,113	-0,060
-550,612	-155,323	-0,127	-0,006
-549,598	-115,039	-0,031	-0,004
-548,583	-61,607	-0,107	0,032
-547,569	245,581	0,058	0,070
-546,554	-200,000	-0,004	0,124
-545,539	30,068	0,065	-0,040
-544,525	-200,000	-0,051	-0,165
-543,510	386,036	-0,088	0,131
-542,496	243,812	0,019	0,023
-541,481	800,000	0,020	-0,061
-540,466	110,429	0,113	0,097
-539,452	94,115	0,073	0,060
-538,437	-200,000	0,011	-0,069
-537,423	-200,000	0,006	-0,094
-536,408	178,019	-0,052	-0,054
-535,393	-190,738	-0,091	-0,001
-534,379	25,610	0,070	-0,042
-533,364	98,641	-0,130	-0,107
-532,350	-200,000	0,001	-0,050
-531,335	-200,000	-0,006	0,135
-530,321	-117,040	0,133	0,017
-529,306	-200,000	-0,004	0,112
-528,291	-45,574	-0,098	0,035
-527,277	-200,000	-0,006	0,055
-526,262	-200,000	0,021	0,135
-525,248	800,000	0,016	0,033
-524,233	185,666	0,135	0,144
-523,218	-200,000	0,007	0,049
-522,204	581,919	0,089	0,157
-521,189	427,880	-0,108	-0,168
-520,175	154,671	-0,072	-0,071
-519,160	-139,908	0,143	-0,011
-518,145	800,000	-0,030	-0,071
-517,131	-200,000	-0,014	0,054
-516,116	-56,894	0,088	0,028
-515,102	384,827	0,060	-0,089
-514,087	131,470	-0,065	0,060
-513,072	151,111	-0,089	-0,087
-512,058	65,309	0,176	0,128
-511,043	-80,896	0,023	-0,005
-510,029	321,795	0,039	-0,054
-509,014	156,452	-0,092	0,091
-507,999	163,114	-0,075	-0,076
-506,985	800,000	0,070	0,222
-505,970	4,980	0,047	-0,025
-504,956	0,438	-0,029	0,015
-503,941	-200,000	-0,001	0,017
-502,926	24,543	-0,013	0,008
-501,912	-132,371	-0,110	-0,010
-500,897	-123,948	0,095	-0,011
-499,883	333,070	-0,070	-0,097
-498,868	-13,805	0,102	-0,047
-497,853	800,000	0,060	-0,152
-496,839	-200,000	-0,010	-0,034
-495,824	344,254	0,068	0,096
-494,810	-90,391	-0,082	0,017
-493,795	45,449	-0,022	-0,015
-492,781	-200,000	0,015	-0,172
-491,766	74,368	0,111	-0,084
-490,751	252,141	-0,047	-0,057
-489,737	556,120	0,064	-0,111
-488,722	165,522	-0,058	0,059
-487,708	21,265	0,100	0,058
-486,693	-200,000	-0,004	-0,020
-485,678	-200,000	-0,007	0,080
-484,664	-200,000	0,001	-0,146
-483,649	-200,000	-0,008	-0,140
-482,635	800,000	0,056	0,119
-481,620	800,000	-0,017	0,052
-480,605	39,887	0,124	0,080
-479,591	-105,974	-0,128	-0,021
-478,576	-72,509	0,137	0,036
-477,562	-139,990	-0,029	0,002
-476,547	-102,860	-0,204	-0,034
-475,532	7,188	0,096	-0,051
-474,518	481,711	0,020	-0,033
-473,503	-29,310	0,138	0,056
-472,489	69,159	0,076	0,056
-471,474	196,899	0,068	0,075
-470,459	178,764	0,056	-0,059
-469,445	-101,372	-0,105	0,018
-468,430	-200,000	-0,003	0,097
-467,416	-200,000	0,010	0,033
-466,401	-11,412	0,110	-0,052
-465,386	743,909	0,083	0,161
-464,372	11,539	-0,110	0,060
-463,357	58,283	0,038	-0,027
-462,343	-24,711	-0,058	-0,025
-461,328	-200,000	-0,001	0,063
-460,313	-153,695	-0,136	-0,007
-459,299	-200,000	0,017	0,081
-458,284	76,207	0,024	0,018
-457,270	256,471	0,119	-0,146
-456,255	-200,000	-0,029	-0,103
-455,241	-200,000	0,013	-0,052
-454,226	-111,701	0,122	0,018
-453,211	800,000	-0,058	-0,140
-452,197	8,491	0,119	-0,064
-451,182	658,210	0,074	0,137
-450,168	-101,718	-0,077	-0,013
-449,153	-34,459	-0,045	-0,018
-448,138	241,948	-0,012	0,014
-447,124	226,089	-0,019	0,022
-446,109	-159,880	0,073	-0,003
-445,095	-53,603	-0,107	0,035
-444,080	-200,000	-0,004	0,032
-443,065	800,000	0,045	-0,108
-442,051	-200,000	0,001	-0,081
-441,036	800,000	-0,020	-0,062
-440,022	540,276	-0,052	-0,089
-439,007	-124,589	-0,133	0,015
-437,992	76,411	0,135	-0,102
-436,978	166,588	0,121	0,123
-435,963	428,536	-0,030	-0,047
-434,949	231,565	-0,052	0,061
-433,934	-200,000	-0,011	-0,040
-432,919	-72,492	-0,138	-0,036
-431,905	12,511	-0,070	-0,039
-430,890	-95,613	0,125	0,024
-429,876	114,671	0,094	-0,082
-428,861	13,872	0,018	0,010
-427,846	-51,406	0,019	0,006
-426,832	-200,000	0,002	-0,065
-425,817	-34,650	0,017	-0,007
-424,803	800,000	-0,057	-0,172
-423,788	-200,000	-0,033	0,112
-422,773	95,491	0,078	0,064
-421,759	67,931	0,050	0,037
-420,744	-63,132	-0,170	-0,050
-419,730	588,463	-0,063	-0,112
-418,715	-200,000	0,003	0,019
-417,701	-77,852	-0,070	0,017
-416,686	48,936	0,064	0,043
-415,671	172,555	0,112	0,116
-414,657	-60,222	-0,052	0,016
-413,642	-200,000	-0,004	0,119
-412,628	-64,913	0,132	-0,038
-411,613	-200,000	-0,036	-0,137
-410,598	-111,712	-0,105	-0,015
-409,584	800,000	0,032	0,067
-408,569	227,282	0,072	-0,084
-407,555	5,728	0,118	0,062
-406,540	800,000	-0,029	0,058
-405,525	325,469	-0,037	0,051
-404,511	341,803	-0,018	0,025
-403,496	-79,013	-0,086	-0,021
-402,482	-200,000	-0,058	0,204
-401,467	-200,000	0,000	-0,058
-400,452	26,671	-0,037	0,022
-399,438	91,525	-0,063	-0,050
-398,423	-142,965	0,024	-0,002
-397,409	-200,000	-0,009	0,049
-396,394	-200,000	-0,012	-0,100
-395,379	-162,384	-0,089	0,003
-394,365	51,547	0,064	-0,044
-393,350	-63,317	0,080	0,024
-392,336	-200,000	0,017	-0,129
-391,321	-200,000	0,022	0,156
-390,306	391,702	0,040	0,060
-389,292	-200,000	0,013	-0,129
-388,277	196,524	-0,064	-0,070
-387,263	180,672	-0,110	0,115
-386,248	4,556	0,118	0,062
-385,233	-200,000	-0,005	0,035
-384,219	-200,000	-0,013	-0,066
-383,204	17,608	-0,072	0,041
-382,190	250,053	-0,020	0,024
-381,175	800,000	0,032	0,094
-380,160	206,191	0,072	0,081
-379,146	296,648	0,042	0,056
-378,131	-2,640	0,029	-0,014
-377,117	356,927	-0,028	0,040
-376,102	330,692	-0,038	0,052
-375,088	-200,000	0,011	0,249
-374,073	800,000	-0,068	0,143
-373,058	133,831	-0,059	0,054
-372,044	-200,000	0,023	0,142
-371,029	183,753	-0,039	-0,041
-370,015	383,943	0,096	0,141
-369,000	-114,794	-0,098	0,013
-367,985	-34,851	-0,103	-0,040
-366,971	800,000	0,036	-0,095
-365,956	-48,872	0,031	-0,010
-364,942	800,000	-0,043	-0,115
-363,927	552,680	0,032	0,055
-362,912	-140,375	-0,085	0,006
-361,898	-125,218	-0,012	0,001
-360,883	-200,000	0,020	-0,073
-359,869	-200,000	-0,006	-0,188
-358,854	120,587	0,123	0,109
-357,839	705,203	0,030	0,057
-356,825	-200,000	0,048	0,176
-355,810	171,310	-0,025	0,026
-354,796	57,416	-0,053	-0,037
-353,781	-200,000	0,048	-0,153
-352,766	-200,000	-0,027	-0,136
-351,752	69,233	0,048	-0,035
-350,737	-111,118	0,175	-0,025
-349,723	-67,701	0,206	-0,057
-348,708	-93,502	-0,136	0,027
-347,693	-200,000	-0,016	0,085
-346,679	-90,222	-0,118	0,024
-345,664	33,287	-0,093	-0,058
-344,650	27,917	-0,042	0,025
-343,635	800,000	0,019	0,055
-342,620	90,720	-0,068	0,054
-341,606	-200,000	-0,018	0,109
-340,591	-200,000	-0,029	0,140
-339,577	-200,000	0,031	-0,107
-338,562	350,410	-0,064	-0,090
-337,548	600,443	-0,044	0,078
-336,533	-200,000	0,017	-0,086
-335,518	250,239	0,038	-0,046
-334,504	-200,000	0,004	0,042
-333,489	-7,469	-0,029	0,014
-332,475	-200,000	0,002	-0,042
-331,460	278,567	-0,079	-0,101
-330,445	162,552	0,015	0,015
-329,431	-12,552	0,056	0,026
-328,416	15,652	0,099	0,055
-327,402	-110,968	-0,128	0,019
-326,387	-200,000	0,033	0,123
-325,372	256,488	0,075	0,092
-324,358	438,887	-0,086	-0,134
-323,343	-158,381	0,141	-0,006
-322,329	-200,000	-0,023	0,072
-321,314	-200,000	0,011	0,052
-320,299	520,791	0,039	-0,065
-319,285	170,866	0,044	0,044
-318,270	15,510	0,051	0,028
-317,256	-200,000	0,009	0,114
-316,241	163,824	0,031	0,031
-315,226	197,870	-0,075	0,082
-314,212	773,670	0,017	0,033
-313,197	-69,741	-0,135	-0,036
-312,183	104,621	0,090	-0,076
-311,168	800,000	-0,047	-0,096
-310,153	169,083	0,016	-0,017
-309,139	57,621	-0,042	-0,029
-308,124	130,013	0,048	-0,044
-307,110	800,000	-0,037	0,086
-306,095	421,728	0,068	-0,105
-305,080	168,784	0,020	-0,021
-304,066	286,298	-0,043	-0,055
-303,051	-0,814	0,090	-0,045
-302,037	-145,914	-0,053	0,003
-301,022	133,815	0,093	0,086
-300,008	-200,000	-0,013	-0,045
-298,993	-200,000	0,004	0,020
-297,978	-200,000	0,018	-0,063
-296,964	-21,473	0,054	-0,023
-295,949	43,326	-0,048	-0,031
-294,935	-92,242	-0,080	-0,016
-293,920	-133,023	0,080	-0,007
-292,905	-71,560	0,151	0,040
-291,891	-49,733	-0,025	-0,008
-290,876	800,000	-0,009	-0,021
-289,862	485,128	0,092	-0,149
-288,847	-66,739	0,053	-0,015
-287,832	-126,215	0,041	-0,004
-286,818	800,000	-0,029	0,058
-285,803	259,027	-0,039	-0,048
-284,789	800,000	0,044	0,106
-283,774	134,247	-0,038	-0,035
-282,759	102,565	-0,072	-0,060
-281,745	-200,000	-0,015	0,079
-280,730	-200,000	-0,039	-0,128
-279,716	-162,595	0,062	0,002
-278,701	-85,323	-0,077	-0,017
-277,686	143,112	-0,022	0,021
-276,672	-200,000	0,032	0,121
-275,657	41,663	-0,115	0,074
-274,643	-200,000	0,024	-0,091
-273,628	-59,225	0,074	-0,022
-272,613	94,666	0,073	0,059
-271,599	-200,000	-0,007	-0,085
-270,584	-127,791	-0,015	0,002
-269,570	727,578	0,081	0,155
-268,555	59,240	-0,095	-0,066
-267,540	-59,233	0,064	-0,019
-266,526	-103,246	-0,069	-0,012
-265,511	-57,476	-0,036	-0,011
-264,497	75,053	0,040	-0,030
-263,482	320,909	-0,018	-0,024
-262,467	-119,293	0,020	-0,002
-261,453	279,586	0,052	-0,066
-260,438	-4,124	-0,061	-0,030
-259,424	422,086	-0,096	-0,147
-258,409	-177,092	0,099	-0,002
-257,395	-124,162	0,093	0,010
-256,380	117,329	0,093	-0,081
-255,365	254,762	-0,045	-0,054
-254,351	-200,000	0,010	-0,036
-253,336	-5,520	0,141	-0,069
-252,322	800,000	-0,037	-0,104
-251,307	-200,000	-0,007	0,078
-250,292	-170,270	-0,114	0,003
-249,278	800,000	0,030	-0,089
-248,263	800,000	-0,078	-0,179
-247,249	63,792	0,099	0,070
-246,234	-200,000	-0,017	-0,111
-245,219	-126,119	-0,121	-0,013
-244,205	240,916	0,053	-0,063
-243,190	50,799	0,135	-0,091
-242,176	-69,393	-0,120	-0,033
-241,161	-8,434	0,138	0,066
-240,146	723,731	0,056	0,106
-239,132	-200,000	0,010	-0,072
-238,117	123,236	0,015	-0,013
-237,103	188,298	0,057	-0,061
-236,088	209,821	-0,018	0,021
-235,073	-200,000	0,013	0,063
-234,059	358,825	-0,014	0,021
-233,044	177,734	0,023	-0,023
-232,030	800,000	0,118	0,263
-231,015	-124,652	-0,109	-0,012
-230,000	-37,243	0,038	-0,014
-228,986	-200,000	-0,033	0,118
-227,971	-111,259	0,139	0,020
-226,957	-200,000	-0,031	0,121
-225,942	800,000	-0,045	-0,123
-224,927	800,000	0,021	0,049
-223,913	800,000	-0,042	-0,107
-222,898	-146,562	-0,135	0,008
-221,884	800,000	-0,017	0,051
-220,869	-44,273	-0,029	0,010
-219,855	68,571	0,036	-0,026
-218,840	800,000	-0,046	0,130
-217,825	-200,000	-0,019	0,085
-216,811	-159,585	-0,062	-0,002
-215,796	800,000	-0,013	-0,028
-214,782	800,000	0,001	0,002
-213,767	-148,436	-0,147	0,008
-212,752	183,973	0,059	0,062
-211,738	86,049	-0,107	0,084
-210,723	278,234	-0,092	0,117
-209,709	-66,880	0,118	0,033
-208,694	421,416	-0,038	0,058
-207,679	-200,000	-0,007	-0,157
-206,665	215,335	0,004	0,005
-205,650	800,000	-0,040	0,116
-204,636	-67,890	-0,080	0,022
-203,621	141,537	0,072	-0,068
-202,606	392,914	0,020	-0,030
-201,592	119,540	-0,130	0,114
-200,577	-200,000	-0,005	0,054
-199,563	-200,000	0,002	-0,022
-198,548	24,888	0,112	-0,066
-197,533	21,859	0,047	0,027
-196,519	94,425	0,093	-0,075
-195,504	800,000	-0,025	0,074
-194,490	-200,000	0,002	0,039
-193,475	800,000	-0,026	-0,051
-192,460	-200,000	0,028	0,104
-191,446	800,000	0,030	0,082
-190,431	-181,249	0,136	-0,002
-189,417	-200,000	0,017	0,066
-188,402	34,324	0,094	-0,058
-187,387	161,933	0,109	0,108
-186,373	800,000	-0,038	-0,086
-185,358	55,047	-0,065	0,045
-184,344	-49,290	0,029	0,010
-183,329	-200,000	-0,004	-0,043
-182,315	37,052	0,085	-0,053
-181,300	-57,922	-0,026	-0,008
-180,285	581,528	-0,032	-0,055
-179,271	-200,000	-0,010	-0,035
-178,256	-200,000	-0,013	-0,175
-177,242	50,259	0,129	-0,086
-176,227	800,000	0,089	-0,237
-175,212	-9,196	-0,183	0,087
-174,198	800,000	0,024	-0,072
-173,183	-65,668	-0,050	0,014
-172,169	-200,000	-0,027	-0,111
-171,154	-96,641	0,081	-0,015
-170,139	-4,044	-0,093	0,046
-169,125	-69,960	0,077	-0,021
-168,110	-2,956	0,009	-0,004
-167,096	-200,000	0,009	-0,079
-166,081	621,978	0,086	0,154
-165,066	-16,158	-0,034	0,015
-164,052	49,807	-0,129	-0,086
-163,037	-200,000	-0,022	-0,131
-162,023	-200,000	0,032	0,141
-161,008	21,839	-0,146	-0,084
-159,993	41,106	-0,107	0,068
-158,979	-85,964	0,073	-0,016
-157,964	46,729	0,097	-0,064
-156,950	638,798	0,042	0,077
-155,935	346,732	-0,060	-0,083
-154,920	-200,000	-0,001	0,121
-153,906	800,000	-0,027	-0,068
-152,891	106,327	0,033	-0,028
-151,877	-74,243	-0,087	0,022
-150,862	1,055	0,077	0,039
-149,847	-200,000	-0,004	0,081
-148,833	446,996	-0,047	0,073
-147,818	311,739	0,012	-0,016
-146,804	-79,508	-0,095	0,022
-145,789	800,000	0,041	0,098
-144,775	-200,000	-0,023	0,121
-143,760	-200,000	0,001	-0,045
-142,745	174,096	-0,112	-0,115
-141,731	-61,977	-0,054	-0,016
-140,716	36,995	0,098	0,062
-139,702	-38,700	0,061	0,023
-138,687	-200,000	0,005	-0,072
-137,672	50,186	0,028	-0,019
-136,658	22,698	-0,081	-0,047
-135,643	800,000	0,047	-0,095
-134,629	182,909	-0,047	-0,049
-133,614	-161,393	0,073	-0,003
-132,599	-200,000	0,004	0,079
-131,585	33,873	0,059	0,036
-130,570	-76,311	0,019	-0,005
-129,556	-200,000	-0,031	-0,101
-128,541	105,291	-0,109	-0,091
-127,526	96,428	-0,059	-0,048
-126,512	-14,683	-0,107	-0,048
-125,497	-199,726	0,132	-0,000
-124,483	-200,000	0,005	0,103
-123,468	52,864	0,059	-0,040
-122,453	-15,485	0,031	-0,014
-121,439	246,922	-0,008	-0,009
-120,424	-200,000	0,001	-0,026
-119,410	-166,808	-0,022	0,001
-118,395	-130,138	-0,050	0,005
-117,380	-200,000	0,015	0,058
-116,366	192,181	0,033	0,036
-115,351	509,715	-0,121	-0,199
-114,337	55,062	-0,085	-0,058
-113,322	-99,615	-0,069	0,012
-112,307	-65,377	0,216	0,061
-111,293	68,494	0,101	0,073
-110,278	327,945	0,044	0,060
-109,264	241,316	0,023	0,027
-108,249	222,314	0,036	0,041
-107,234	48,839	-0,168	-0,111
-106,220	-200,000	-0,006	0,034
-105,205	-33,696	0,066	0,026
-104,191	-132,107	-0,106	-0,010
-103,176	-200,000	0,006	0,036
-102,162	800,000	0,030	0,086
-101,147	-65,683	-0,022	-0,006
-100,132	56,825	-0,100	-0,069
-99,118	732,343	-0,037	-0,071
-98,103	-47,376	0,092	-0,032
-97,089	-200,000	0,012	-0,063
-96,074	-78,031	0,080	0,019
-95,059	-67,871	-0,073	0,020
-94,045	25,041	-0,144	0,084
-93,030	76,633	-0,072	-0,054
-92,016	-34,728	-0,034	0,013
-91,001	800,000	-0,032	0,074
-89,986	-200,000	0,004	0,038
-88,972	-200,000	-0,013	-0,056
-87,957	-200,000	0,003	0,134
-86,943	-143,450	-0,071	0,005
-85,928	800,000	-0,048	-0,133
-84,913	-0,356	-0,160	-0,080
-83,899	-200,000	0,027	0,122
-82,884	701,525	0,033	0,062
-81,870	-170,806	0,086	0,002
-80,855	449,948	-0,064	0,100
-79,840	-80,723	0,009	-0,002
-78,826	140,786	-0,126	-0,117
-77,811	783,421	0,059	-0,115
-76,797	28,617	-0,102	0,061
-75,782	-49,474	0,138	0,046
-74,767	20,523	0,122	0,069
-73,753	-26,493	-0,088	0,036
-72,738	334,043	0,083	0,114
-71,724	-88,217	-0,080	-0,017
-70,709	2,686	-0,037	0,019
-69,694	-200,000	-0,006	0,037
-68,680	-4,833	0,123	0,059
-67,665	53,393	-0,027	-0,018
-66,651	448,586	0,030	0,047
-65,636	-200,000	-0,043	-0,139
-64,622	-200,000	-0,003	-0,033
-63,607	227,090	-0,070	-0,080
-62,592	-91,057	-0,042	-0,008
-61,578	315,768	0,097	0,130
-60,563	-33,768	0,120	-0,046
-59,549	654,191	-0,126	0,229
-58,534	56,866	-1,892	-1,299
-57,519	354,308	-1,353	-1,903
-56,505	-200,000	-0,319	-4,438
-55,490	566,978	0,835	1,436
-54,476	800,000	5,205	11,466
-53,461	-200,000	21,562	343,570
-52,446	800,000	763,113	2362,912
-51,432	555,845	1664,097	2838,566
-50,417	72,756	1660,378	1221,458
-49,403	17,575	1533,951	858,039
-48,388	11,553	1457,438	786,127
-47,373	19,448	1448,888	819,345
-46,359	15,116	1438,058	792,607
-45,344	9,905	1433,729	765,395
-44,330	9,791	1431,972	763,885
-43,315	9,788	1430,058	762,819
-42,300	9,825	1428,347	762,051
-41,286	9,849	1426,922	761,375
-40,271	9,734	1426,054	760,335
-39,257	9,784	1424,718	759,828
-38,242	9,795	1423,624	759,269
-37,227	9,815	1422,677	758,826
-36,213	9,834	1421,200	758,098
-35,198	9,820	1420,154	757,447
-34,184	9,886	1419,218	757,227
-33,169	9,785	1417,624	755,872
-32,154	9,826	1416,687	755,536
-31,140	9,871	1415,305	754,980
-30,125	9,863	1414,456	754,457
-29,111	9,841	1413,213	753,662
-28,096	9,842	1412,292	753,144
-27,082	9,763	1410,906	752,006
-26,067	9,765	1409,878	751,440
-25,052	9,808	1408,820	751,045
-24,038	9,749	1407,938	750,269
-23,023	9,755	1407,061	749,800
-22,009	9,771	1405,695	749,119
-20,994	9,773	1404,636	748,534
-19,979	9,828	1403,673	748,247
-18,965	9,713	1402,953	747,298
-17,950	9,742	1401,936	746,859
-16,936	9,736	1401,306	746,465
-15,921	9,710	1400,292	745,775
-14,906	9,716	1399,390	745,294
-13,892	9,754	1398,266	744,843
-12,877	9,711	1397,602	744,260
-11,863	9,699	1396,538	743,608
-10,848	9,668	1395,785	743,033
-9,833	9,653	1394,827	742,423
-8,819	9,591	1394,016	741,675
-7,804	9,604	1393,140	741,239
-6,790	9,592	1392,076	740,593
-5,775	9,589	1391,032	739,992
-4,760	9,564	1390,166	739,385
-3,746	9,606	1389,112	738,990
-2,731	9,544	1388,357	738,272
-1,717	9,575	1387,695	738,036
-0,702	9,578	1385,721	736,968
0,313	13,660	1297,809	708,849
1,327	29,794	688,425	412,494
2,342	46,480	119,001	77,702
3,356	-2,373	16,425	8,090
4,371	1,908	3,593	1,821
5,386	12,732	1,133	0,615
6,400	800,000	0,201	0,558
7,415	12,308	-0,219	-0,119
8,429	60,739	-0,298	-0,208
9,444	-105,741	-0,322	-0,051
10,459	91,434	-0,225	-0,178
11,473	-17,980	-0,298	-0,131
12,488	43,049	-0,192	-0,123
13,502	121,268	-0,315	-0,276
14,517	32,223	-0,388	-0,235
15,531	2,187	-0,412	-0,209
16,546	107,187	-0,263	-0,220
17,561	211,313	-0,308	-0,342
18,575	-39,197	-0,176	-0,065
19,590	14,644	-0,335	-0,184
20,604	87,632	-0,218	-0,170
21,619	208,825	-0,410	-0,452
22,634	41,691	-0,458	-0,292
23,648	97,153	-0,400	-0,323
24,663	128,169	-0,299	-0,268
25,677	-70,122	-0,493	-0,131
26,692	128,685	-0,294	-0,264
27,707	15,500	-0,309	-0,170
28,721	-17,778	-0,355	-0,156
29,736	114,735	-0,408	-0,350
30,750	115,440	-0,335	-0,288
31,765	145,340	-0,358	-0,337
32,780	31,386	-0,385	-0,232
33,794	63,346	-0,296	-0,209
34,809	39,664	-0,465	-0,293
35,823	-33,265	-0,440	-0,170
36,838	48,410	-0,218	-0,143
37,853	214,312	-0,376	-0,419
38,867	131,136	-0,372	-0,335
39,882	216,394	-0,359	-0,402
40,896	301,245	-0,241	-0,314
41,911	31,585	-0,368	-0,222
42,926	96,784	-0,329	-0,265
43,940	175,422	-0,365	-0,372
44,955	65,452	-0,357	-0,253
45,969	103,713	-0,422	-0,348
46,984	60,233	-0,392	-0,272
47,999	20,698	-0,328	-0,186
49,013	-51,459	-0,405	-0,132
50,028	-57,635	-0,179	-0,055
51,042	383,124	-0,278	-0,402
52,057	25,075	-0,419	-0,243
53,071	-68,270	-0,407	-0,110
54,086	57,271	-0,356	-0,243
55,101	546,254	-0,115	-0,193
56,115	-75,277	-0,434	-0,108
57,130	3,623	-0,378	-0,193
58,144	37,197	-0,423	-0,262
59,159	28,448	-0,345	-0,204
60,174	52,859	-0,376	-0,252
61,188	269,826	-0,295	-0,364
62,203	-8,702	-0,393	-0,184
63,217	329,127	-0,211	-0,285
64,232	77,758	-0,332	-0,248
65,247	-33,428	-0,363	-0,140
66,261	26,888	-0,398	-0,233
67,276	148,546	-0,278	-0,263
68,290	-27,489	-0,408	-0,165
69,305	353,441	-0,161	-0,225
70,320	98,289	-0,297	-0,239
71,334	-28,031	-0,320	-0,129
72,349	44,355	-0,310	-0,199
73,363	-125,387	-0,264	0,028
74,378	28,447	-0,458	-0,271
75,393	138,848	-0,319	-0,294
76,407	96,701	-0,267	-0,214
77,422	32,537	-0,348	-0,210
78,436	-22,152	-0,336	-0,142
79,451	53,475	-0,333	-0,224
80,466	0,182	-0,336	-0,167
81,480	-47,772	-0,302	-0,102
82,495	-31,284	-0,337	-0,132
83,509	-123,355	-0,212	-0,023
84,524	95,532	-0,221	-0,176
85,539	64,784	-0,226	-0,159
86,553	800,000	-0,127	-0,316
87,568	-21,868	-0,454	-0,192
88,582	30,095	-0,224	-0,133
89,597	44,332	-0,328	-0,210
90,611	50,223	-0,177	-0,117
91,626	-6,640	-0,167	-0,079
92,641	-83,265	-0,437	-0,097
93,655	-107,799	-0,258	0,039
94,670	-0,452	-0,355	-0,176
95,684	241,571	-0,168	-0,196
96,699	-5,266	-0,360	-0,172
97,714	144,733	-0,211	-0,198
98,728	100,193	-0,262	-0,212
99,743	167,603	-0,211	-0,210
100,757	45,290	-0,268	-0,173
101,772	75,238	-0,383	-0,282
102,787	79,845	-0,277	-0,208
103,801	-0,520	-0,293	-0,145
104,816	573,991	-0,159	-0,271
105,830	-19,394	-0,353	-0,152
106,845	-111,214	-0,325	-0,046
107,860	132,757	-0,193	-0,174
108,874	7,202	-0,436	-0,227
109,889	194,197	-0,228	-0,242
110,903	-39,906	-0,416	-0,151
111,918	425,444	-0,201	-0,304
112,933	1,806	-0,305	-0,153
113,947	78,588	-0,155	-0,116
114,962	48,762	-0,359	-0,235
115,976	-26,050	-0,300	-0,123
116,991	-48,755	-0,395	-0,132
118,006	34,732	-0,268	-0,163
119,020	366,196	-0,177	-0,249
120,035	-0,375	-0,292	-0,144
121,049	29,709	-0,204	-0,121
122,064	127,458	-0,318	-0,282
123,079	-32,921	-0,214	-0,083
124,093	-6,138	-0,312	-0,148
125,108	100,192	-0,223	-0,181
126,122	326,168	-0,136	-0,182
127,137	118,542	-0,229	-0,197
128,151	-114,936	-0,143	0,019
129,166	47,622	-0,183	-0,119
130,181	187,370	-0,300	-0,312
131,195	182,231	-0,211	-0,217
132,210	65,715	-0,368	-0,259
133,224	52,172	-0,370	-0,246
134,239	328,801	-0,221	-0,297
135,254	-88,772	-0,318	-0,065
136,268	21,662	-0,082	-0,047
137,283	66,729	-0,320	-0,227
138,297	217,318	-0,219	-0,243
139,312	75,383	-0,242	-0,178
140,327	-5,239	-0,204	-0,097
141,341	8,032	-0,309	-0,161
142,356	552,989	-0,114	-0,192
143,370	-22,466	-0,276	-0,116
144,385	68,011	-0,269	-0,191
145,400	-4,972	-0,288	-0,137
146,414	-143,451	-0,238	-0,016
147,429	106,271	-0,234	-0,193
148,443	252,854	-0,189	-0,225
149,458	-1,806	-0,148	-0,072
150,473	92,497	-0,200	-0,157
151,487	-126,424	-0,261	0,027
152,502	369,763	-0,095	-0,134
153,516	128,160	-0,301	-0,267
154,531	-77,044	-0,299	-0,072
155,546	-166,348	-0,271	-0,008
156,560	74,672	-0,224	-0,164
157,575	-131,492	-0,336	-0,030
158,589	-47,286	-0,211	-0,071
159,604	-140,918	-0,245	-0,017
160,619	92,103	-0,314	-0,246
161,633	107,143	-0,313	-0,259
162,648	68,661	-0,299	-0,213
163,662	17,037	-0,201	-0,111
164,677	-51,516	-0,164	-0,053
165,692	537,175	-0,129	-0,214
166,706	125,356	-0,202	-0,177
167,721	800,000	-0,130	-0,330
168,735	107,147	-0,224	-0,185
169,750	246,961	-0,280	-0,328
170,764	717,047	-0,136	-0,253
171,779	40,199	-0,157	-0,098
172,794	125,740	-0,141	-0,124
173,808	55,845	-0,204	-0,137
174,823	23,865	-0,350	-0,200
175,837	36,200	-0,222	-0,135
176,852	223,819	-0,205	-0,231
177,867	152,471	-0,223	-0,212
178,881	83,126	-0,212	-0,160
179,896	13,589	-0,205	-0,110
180,910	174,597	-0,216	-0,217
181,925	33,534	-0,259	-0,156
182,940	83,846	-0,343	-0,260
183,954	-90,648	-0,181	-0,036
184,969	-200,000	-0,022	-0,202
185,983	82,366	-0,237	-0,178
186,998	28,872	-0,248	-0,146
188,013	69,525	-0,217	-0,155
189,027	31,967	-0,309	-0,184
190,042	14,041	-0,267	-0,144
191,056	148,891	-0,236	-0,221
192,071	66,172	-0,225	-0,158
193,086	29,514	-0,207	-0,122
194,100	-105,523	-0,194	-0,030
195,115	37,346	-0,220	-0,135
196,129	-19,938	-0,207	-0,088
197,144	276,771	-0,188	-0,233
198,159	-9,661	-0,240	-0,110
199,173	-27,790	-0,280	-0,112
200,188	75,194	-0,238	-0,174
201,202	-59,877	-0,272	-0,080
202,217	-50,915	-0,264	-0,085
203,232	-25,428	-0,202	-0,083
204,246	18,050	-0,302	-0,166
205,261	134,448	-0,135	-0,122
206,275	35,691	-0,167	-0,102
207,290	187,426	-0,199	-0,205
208,304	91,747	-0,134	-0,105
209,319	179,695	-0,058	-0,059
210,334	400,636	-0,129	-0,187
211,348	15,076	-0,223	-0,121
212,363	47,681	-0,135	-0,087
213,377	132,744	-0,146	-0,130
214,392	-48,693	-0,185	-0,061
215,407	-98,769	-0,172	0,030
216,421	-132,316	-0,182	0,016
217,436	154,161	-0,248	-0,236
218,450	196,410	-0,210	-0,221
219,465	-38,222	-0,266	-0,097
220,480	15,360	-0,387	-0,209
221,494	-133,880	-0,153	-0,013
222,509	-14,779	-0,080	-0,035
223,523	-76,719	-0,270	-0,065
224,538	170,316	-0,133	-0,132
225,553	800,000	-0,114	-0,256
226,567	-15,926	-0,215	-0,094
227,582	800,000	-0,106	-0,205
228,596	207,765	-0,121	-0,130
229,611	461,484	-0,077	-0,119
230,626	-130,736	-0,276	0,025
231,640	34,394	-0,262	-0,158
232,655	-9,112	-0,289	-0,133
233,669	-57,693	-0,353	-0,106
234,684	163,609	-0,178	-0,173
235,699	800,000	-0,070	-0,141
236,713	800,000	-0,063	-0,148
237,728	-22,235	-0,146	-0,061
238,742	-58,177	-0,155	0,046
239,757	-187,548	-0,220	-0,002
240,772	30,767	-0,352	-0,207
241,786	152,340	-0,254	-0,240
242,801	224,876	-0,166	-0,186
243,815	155,336	-0,081	-0,077
244,830	-200,000	-0,045	-0,218
245,844	800,000	-0,064	-0,129
246,859	158,948	-0,229	-0,219
247,874	-0,247	-0,299	-0,146
248,888	14,191	-0,200	-0,107
249,903	-197,410	-0,135	-0,001
250,917	-145,029	-0,220	-0,014
251,932	135,525	-0,193	-0,174
252,947	-5,980	-0,252	-0,119
253,961	35,836	-0,221	-0,134
254,976	547,509	-0,182	-0,301
255,990	269,457	-0,101	-0,123
257,005	109,905	-0,187	-0,154
258,020	-50,064	-0,102	0,033
259,034	800,000	-0,103	-0,235
260,049	-82,610	-0,226	-0,050
261,063	9,140	-0,177	-0,092
262,078	187,052	-0,175	-0,180
263,093	-106,180	-0,096	0,015
264,107	36,204	-0,217	-0,132
265,122	340,665	-0,162	-0,219
266,136	14,893	-0,109	-0,059
267,151	139,542	-0,061	0,056
268,166	46,310	-0,140	-0,089
269,180	107,524	-0,314	-0,257
270,195	178,464	-0,188	-0,189
271,209	37,789	-0,178	-0,109
272,224	-123,851	-0,206	0,022
273,239	28,252	-0,071	-0,041
274,253	800,000	-0,034	-0,084
275,268	-152,217	-0,179	0,009
276,282	69,416	-0,315	-0,223
277,297	64,962	-0,290	-0,201
278,312	443,139	-0,101	-0,153
279,326	-89,806	-0,175	0,035
280,341	181,821	-0,174	-0,176
281,355	336,684	-0,121	-0,162
282,370	800,000	-0,060	-0,168
283,384	-69,615	-0,282	0,074
284,399	-78,844	-0,156	-0,036
285,414	4,957	-0,204	-0,103
286,428	93,067	-0,053	-0,041
287,443	-200,000	-0,035	-0,221
288,457	-67,553	-0,100	-0,027
289,472	105,659	-0,144	-0,117
290,487	127,315	-0,128	-0,111
291,501	151,156	-0,197	-0,184
292,516	231,908	-0,135	-0,153
293,530	436,192	-0,120	-0,181
294,545	97,240	-0,066	-0,052
295,560	444,130	-0,122	-0,185
296,574	-76,103	-0,085	-0,020
297,589	143,920	-0,179	-0,164
298,603	-138,535	-0,196	-0,015
299,618	23,691	-0,277	-0,156
300,633	-25,743	-0,101	-0,041
301,647	79,208	-0,085	-0,063
302,662	4,661	-0,135	-0,068
303,676	204,356	-0,122	-0,130
304,691	800,000	-0,079	-0,164
305,706	213,337	-0,157	-0,171
306,720	60,697	-0,206	-0,140
307,735	-200,000	-0,062	-0,240
308,749	306,769	-0,130	-0,167
309,764	63,589	-0,196	-0,135
310,779	-93,048	-0,186	-0,035
311,793	-158,482	-0,177	-0,007
312,808	-49,378	-0,142	-0,046
313,822	-197,314	-0,077	0,000
314,837	50,414	-0,241	-0,156
315,852	800,000	-0,104	-0,280
316,866	4,701	-0,213	-0,107
317,881	583,863	-0,062	-0,105
318,895	800,000	-0,102	-0,244
319,910	265,031	-0,144	-0,172
320,925	192,120	-0,152	-0,158
321,939	179,797	-0,099	-0,100
322,954	346,252	-0,113	-0,153
323,968	800,000	-0,046	-0,110
324,983	-174,022	-0,078	-0,002
325,997	-2,764	-0,166	-0,079
327,012	-41,111	-0,190	0,067
328,027	-62,920	-0,314	-0,088
329,041	52,914	-0,179	-0,117
330,056	-36,069	-0,228	-0,084
331,070	63,478	-0,133	-0,091
332,085	800,000	-0,111	-0,228
333,100	162,086	-0,206	-0,198
334,114	22,331	-0,170	-0,095
335,129	-200,000	-0,048	-0,183
336,143	-118,254	-0,224	0,027
337,158	800,000	-0,065	-0,162
338,173	24,394	-0,139	-0,079
339,187	420,071	-0,120	-0,177
340,202	-154,486	-0,175	-0,008
341,216	-45,628	-0,177	-0,060
342,231	99,482	-0,135	-0,107
343,246	717,021	-0,094	-0,171
344,260	-107,355	-0,092	-0,014
345,275	800,000	-0,039	0,103
346,289	-52,990	-0,111	-0,035
347,304	-150,870	-0,210	-0,011
348,319	-99,333	-0,241	-0,041
349,333	417,677	-0,125	-0,183
350,348	218,822	-0,091	-0,100
351,362	181,243	-0,140	-0,140
352,377	-42,661	-0,105	-0,036
353,392	-155,327	-0,168	0,007
354,406	-113,711	-0,121	-0,016
355,421	208,082	1305,279	1395,940
356,435	160,099	1464,816	1396,415
