DTS Sentinel unit serial number:	SN410029Multiplexer serial number:	ORYXHardware model number:	OX2-SRSoftware version number:	ORYX F/W v4,00 Oryx Data Collector v3.7.2.0data status	okinstallation	B3 Nyhavnadifferential loss correction	single-endedforward channel	channel 1reverse channel	N/Adate	2023/11/29time	13:12:30forward acquisition time	300,00reverse acquisition time	0,00gamma	499,1914k internal	0,3212k external	0,3212temperature offset calibration	1,0000default loss term (dB/km)	0,3820temperature slope calibration	1,0000multiplexer offset coefficient	1,0000multiplexer slope coefficient	1,0000fibre end	0,00T internal ref (°C)	10,20T ext. ref 1 (°C)	-3,80T ext. ref 2 (°C)	-3,94length (m)	temperature (°C)	Stokes	anti-Stokes-744,400	159,655	-0,251	-0,253
-743,385	533,022	0,162	0,279
-742,371	146,934	-0,235	-0,229
-741,356	-200,000	0,064	0,251
-740,342	344,960	-0,145	-0,207
-739,327	-200,000	0,013	0,417
-738,312	643,880	-0,117	-0,217
-737,298	-200,000	-0,025	0,210
-736,283	800,000	-0,089	-0,270
-735,269	-200,000	-0,012	0,319
-734,254	800,000	-0,072	-0,182
-733,239	76,614	-0,101	0,077
-732,225	-200,000	-0,053	-0,224
-731,210	14,683	0,092	0,052
-730,196	-55,019	0,097	-0,031
-729,181	63,838	-0,107	-0,078
-728,167	-138,478	0,006	-0,000
-727,152	800,000	-0,025	0,075
-726,137	-99,449	0,036	-0,007
-725,123	-123,593	-0,105	0,012
-724,108	459,328	-0,030	-0,048
-723,094	71,287	-0,112	-0,084
-722,079	-116,771	-0,119	-0,016
-721,064	257,011	-0,031	0,038
-720,050	412,202	-0,023	-0,035
-719,035	-34,023	0,112	0,044
-718,021	-31,226	-0,061	0,025
-717,006	-155,932	-0,233	-0,011
-715,991	-200,000	-0,030	-0,100
-714,977	161,977	0,056	-0,057
-713,962	24,847	0,034	-0,020
-712,948	597,590	-0,040	0,072
-711,933	702,522	0,035	-0,068
-710,918	-200,000	0,018	0,134
-709,904	-24,792	-0,080	0,034
-708,889	800,000	-0,020	-0,057
-707,875	269,338	-0,069	0,088
-706,860	-200,000	0,009	0,054
-705,845	86,557	0,087	0,069
-704,831	-106,975	-0,085	0,013
-703,816	800,000	-0,037	0,102
-702,802	33,697	-0,131	0,082
-701,787	42,333	-0,105	-0,069
-700,772	215,068	-0,083	-0,095
-699,758	24,086	-0,173	-0,103
-698,743	-200,000	0,024	0,079
-697,729	800,000	-0,017	0,045
-696,714	800,000	-0,016	-0,042
-695,699	113,650	-0,111	-0,098
-694,685	800,000	0,038	0,087
-693,670	-130,650	-0,107	0,010
-692,656	800,000	0,054	0,141
-691,641	517,345	-0,046	0,078
-690,627	-140,282	0,093	0,007
-689,612	48,640	-0,118	-0,080
-688,597	480,828	-0,072	-0,119
-687,583	-200,000	-0,004	-0,036
-686,568	402,306	0,023	0,034
-685,554	800,000	0,077	-0,165
-684,539	-200,000	-0,021	0,071
-683,524	214,756	-0,053	0,061
-682,510	-127,488	0,189	-0,020
-681,495	43,636	0,044	0,029
-680,481	160,641	0,062	-0,062
-679,466	800,000	-0,022	0,066
-678,451	-130,271	-0,160	-0,016
-677,437	-200,000	-0,007	0,026
-676,422	121,389	0,127	0,114
-675,408	-61,600	0,062	-0,019
-674,393	800,000	-0,026	0,067
-673,378	800,000	-0,041	0,091
-672,364	-41,400	-0,060	-0,022
-671,349	510,748	-0,066	0,111
-670,335	96,137	0,057	-0,047
-669,320	626,039	0,069	0,127
-668,305	-200,000	0,009	-0,045
-667,291	104,809	0,112	-0,095
-666,276	730,741	-0,076	-0,148
-665,262	5,354	0,039	-0,021
-664,247	-96,769	-0,105	-0,020
-663,232	-3,908	-0,070	-0,035
-662,218	-200,000	-0,002	0,032
-661,203	-76,952	0,179	-0,045
-660,189	-140,826	0,073	0,005
-659,174	240,413	-0,085	0,102
-658,159	-200,000	-0,015	0,149
-657,145	-200,000	0,028	-0,152
-656,130	-200,000	-0,005	0,105
-655,116	-200,000	-0,008	0,041
-654,101	-200,000	0,029	0,103
-653,086	-44,404	-0,225	0,081
-652,072	196,315	-0,092	0,101
-651,057	-30,208	-0,087	-0,035
-650,043	-14,273	-0,108	-0,050
-649,028	49,861	0,104	-0,071
-648,014	360,118	-0,066	0,096
-646,999	-200,000	-0,007	-0,089
-645,984	-200,000	-0,025	0,088
-644,970	-10,284	-0,173	-0,082
-643,955	-7,778	0,065	0,032
-642,941	129,871	-0,136	-0,125
-641,926	171,310	0,093	0,096
-640,911	800,000	-0,012	0,026
-639,897	480,641	-0,037	0,061
-638,882	37,930	-0,094	-0,060
-637,868	-200,000	-0,020	-0,146
-636,853	427,900	0,041	-0,064
-635,838	323,477	0,021	0,030
-634,824	-160,153	-0,033	0,001
-633,809	-126,017	-0,084	-0,009
-632,795	747,082	0,077	0,150
-631,780	146,566	0,098	-0,095
-630,765	-56,091	-0,047	-0,015
-629,751	48,648	0,075	-0,050
-628,736	-200,000	-0,005	0,022
-627,722	-200,000	0,007	-0,100
-626,707	773,548	0,012	-0,023
-625,692	-155,692	0,061	-0,003
-624,678	-200,000	0,000	-0,053
-623,663	-200,000	-0,007	-0,099
-622,649	576,807	0,067	-0,119
-621,634	-4,337	-0,062	-0,031
-620,619	-200,000	-0,005	-0,050
-619,605	-81,431	0,112	-0,026
-618,590	-5,316	0,091	-0,045
-617,576	397,780	0,044	-0,066
-616,561	-200,000	0,012	0,057
-615,546	-34,402	-0,084	0,033
-614,532	16,887	0,060	-0,034
-613,517	-200,000	0,016	0,076
-612,503	-200,000	-0,013	0,049
-611,488	800,000	-0,043	0,119
-610,474	-200,000	0,012	0,090
-609,459	-119,359	-0,136	-0,017
-608,444	800,000	0,031	-0,065
-607,430	564,907	-0,017	-0,029
-606,415	633,854	0,079	-0,144
-605,401	-83,742	0,089	0,020
-604,386	-66,598	-0,088	-0,025
-603,371	-33,956	0,103	0,041
-602,357	800,000	0,017	0,037
-601,342	-45,657	0,018	-0,007
-600,328	375,625	-0,101	-0,148
-599,313	-200,000	0,027	-0,190
-598,298	260,936	-0,040	-0,050
-597,284	346,347	0,048	-0,069
-596,269	60,333	0,123	0,087
-595,255	-78,041	-0,110	-0,027
-594,240	800,000	-0,040	0,100
-593,225	-134,153	-0,047	0,004
-592,211	28,346	0,049	-0,030
-591,196	-56,531	-0,090	-0,029
-590,182	175,862	0,053	0,055
-589,167	-200,000	-0,005	0,019
-588,152	8,914	0,066	0,036
-587,138	-9,593	-0,064	0,031
-586,123	-87,422	-0,087	-0,019
-585,109	117,274	-0,079	0,070
-584,094	27,343	-0,109	0,066
-583,079	-200,000	0,011	-0,267
-582,065	-186,061	-0,081	0,001
-581,050	356,974	-0,063	0,091
-580,036	557,593	0,029	-0,051
-579,021	-200,000	0,012	-0,045
-578,006	225,229	-0,120	-0,141
-576,992	71,641	-0,031	0,023
-575,977	-200,000	0,024	0,127
-574,963	-89,817	0,081	0,017
-573,948	-200,000	0,013	0,148
-572,934	800,000	0,033	0,092
-571,919	-49,110	-0,106	0,036
-570,904	531,037	-0,066	-0,112
-569,890	114,319	-0,051	-0,045
-568,875	64,977	-0,087	-0,063
-567,861	-200,000	-0,016	0,086
-566,846	-144,902	-0,139	-0,009
-565,831	-57,773	-0,043	0,013
-564,817	-200,000	0,028	-0,098
-563,802	80,698	-0,112	-0,087
-562,788	-142,195	-0,132	-0,009
-561,773	129,032	-0,051	-0,047
-560,758	-97,328	0,100	-0,019
-559,744	800,000	-0,020	0,055
-558,729	-200,000	0,011	-0,120
-557,715	398,310	-0,026	-0,040
-556,700	-200,000	0,031	-0,152
-555,685	-160,893	0,127	0,005
-554,671	99,767	-0,083	-0,069
-553,656	-200,000	0,018	0,060
-552,642	2,923	0,049	0,026
-551,627	141,877	0,073	0,070
-550,612	-200,000	-0,019	-0,081
-549,598	-200,000	0,026	-0,135
-548,583	433,149	0,044	-0,068
-547,569	-87,576	0,053	0,012
-546,554	42,253	-0,018	0,012
-545,539	-200,000	-0,001	0,141
-544,525	-43,727	0,133	-0,048
-543,510	-44,473	-0,038	-0,014
-542,496	800,000	0,027	0,071
-541,481	-200,000	-0,026	-0,187
-540,466	-200,000	-0,008	-0,047
-539,452	-200,000	0,002	0,048
-538,437	3,004	0,034	0,018
-537,423	7,167	-0,033	0,018
-536,408	103,410	-0,088	-0,074
-535,393	-200,000	0,014	0,054
-534,379	-200,000	-0,031	-0,105
-533,364	204,891	0,059	-0,066
-532,350	130,268	0,058	0,053
-531,335	88,418	0,022	0,018
-530,321	-6,299	-0,055	0,027
-529,306	-35,304	0,123	-0,048
-528,291	-200,000	-0,026	-0,121
-527,277	189,115	0,044	0,048
-526,262	633,591	-0,025	-0,045
-525,248	-200,000	-0,006	-0,075
-524,233	-111,380	0,059	0,009
-523,218	-40,082	-0,125	0,046
-522,204	-200,000	0,026	-0,088
-521,189	183,158	-0,049	-0,052
-520,175	-200,000	-0,025	-0,163
-519,160	203,802	-0,041	-0,046
-518,145	-200,000	-0,040	-0,150
-517,131	-200,000	-0,007	0,036
-516,116	-200,000	0,002	0,098
-515,102	-200,000	0,001	-0,017
-514,087	75,793	0,051	0,039
-513,072	-67,785	-0,086	0,024
-512,058	-200,000	0,005	0,074
-511,043	403,739	0,044	0,066
-510,029	-126,660	0,161	-0,017
-509,014	-200,000	0,012	0,047
-507,999	158,938	-0,068	0,068
-506,985	-51,751	-0,114	-0,038
-505,970	264,454	0,022	-0,027
-504,956	66,361	0,049	0,036
-503,941	-200,000	0,000	0,022
-502,926	800,000	0,048	0,107
-501,912	-200,000	0,004	0,052
-500,897	-200,000	0,025	-0,128
-499,883	241,848	0,079	0,095
-498,868	295,603	-0,150	-0,198
-497,853	-35,748	0,098	-0,038
-496,839	-55,357	0,063	-0,020
-495,824	36,290	0,065	-0,041
-494,810	-200,000	0,009	-0,046
-493,795	-147,049	0,108	0,007
-492,781	-200,000	-0,017	0,076
-491,766	143,507	-0,051	-0,049
-490,751	558,636	0,053	-0,092
-489,737	273,291	-0,043	-0,054
-488,722	24,244	0,096	0,057
-487,708	126,612	-0,025	0,022
-486,693	249,670	-0,080	0,097
-485,678	-200,000	0,024	0,099
-484,664	-200,000	-0,011	-0,071
-483,649	-85,469	0,113	-0,025
-482,635	599,436	0,033	0,058
-481,620	12,931	0,032	0,018
-480,605	105,835	0,080	0,068
-479,591	188,208	0,129	0,138
-478,576	111,917	-0,076	0,065
-477,562	-58,780	0,031	-0,009
-476,547	-200,000	-0,031	-0,178
-475,532	367,375	-0,059	-0,085
-474,518	192,489	0,050	0,054
-473,503	800,000	0,044	0,106
-472,489	800,000	-0,034	-0,079
-471,474	800,000	0,020	0,060
-470,459	-62,918	-0,236	-0,069
-469,445	-99,432	0,051	-0,009
-468,430	-200,000	-0,015	0,083
-467,416	583,380	-0,043	0,076
-466,401	482,964	0,027	0,045
-465,386	258,872	0,056	0,069
-464,372	-200,000	-0,009	-0,156
-463,357	23,987	-0,073	-0,043
-462,343	13,837	-0,087	0,048
-461,328	435,676	-0,072	-0,112
-460,313	248,492	0,046	0,056
-459,299	-200,000	0,021	0,098
-458,284	-200,000	0,029	0,109
-457,270	-200,000	-0,052	0,181
-456,255	260,632	0,042	-0,052
-455,241	-185,274	-0,036	-0,000
-454,226	-103,065	-0,144	-0,024
-453,211	628,656	0,084	-0,153
-452,197	-83,059	-0,103	0,024
-451,182	140,361	-0,086	0,081
-450,168	36,635	-0,045	0,029
-449,153	-200,000	0,006	-0,048
-448,138	496,306	-0,026	0,044
-447,124	800,000	0,022	0,060
-446,109	-106,948	-0,085	0,013
-445,095	-73,373	0,021	0,006
-444,080	13,651	0,028	-0,016
-443,065	93,413	0,077	0,062
-442,051	322,379	-0,053	0,072
-441,036	-10,116	-0,061	0,029
-440,022	-101,148	-0,121	-0,021
-439,007	42,398	0,056	-0,037
-437,992	-118,734	0,075	-0,009
-436,978	-100,938	0,054	0,009
-435,963	559,637	0,023	0,039
-434,949	40,412	0,125	0,080
-433,934	-110,016	-0,159	0,024
-432,919	22,518	-0,135	-0,079
-431,905	32,754	0,117	-0,072
-430,890	71,987	-0,096	-0,072
-429,876	18,691	0,071	0,040
-428,861	13,666	0,086	-0,048
-427,846	17,456	-0,166	-0,094
-426,832	-135,306	-0,089	0,007
-425,817	800,000	-0,037	-0,089
-424,803	-25,348	-0,168	0,071
-423,788	162,317	0,020	0,020
-422,773	-18,374	0,112	0,050
-421,759	76,730	-0,032	0,024
-420,744	-36,908	-0,168	0,064
-419,730	800,000	0,061	-0,132
-418,715	-141,202	0,055	-0,004
-417,701	-121,353	0,236	0,028
-416,686	-90,919	0,006	-0,001
-415,671	-78,072	0,015	0,004
-414,657	657,790	0,047	-0,087
-413,642	-200,000	-0,009	-0,036
-412,628	-144,019	-0,027	0,002
-411,613	-141,148	-0,130	-0,009
-410,598	-77,905	-0,051	0,013
-409,584	800,000	0,061	0,163
-408,569	-39,686	0,034	-0,013
-407,555	-66,535	0,107	0,030
-406,540	-112,655	-0,138	0,019
-405,525	-200,000	-0,007	-0,037
-404,511	-14,995	-0,098	0,045
-403,496	-128,589	-0,042	0,004
-402,482	800,000	-0,007	-0,015
-401,467	129,172	0,146	0,133
-400,452	-130,442	-0,092	0,009
-399,438	-61,483	-0,073	-0,022
-398,423	-162,768	-0,071	-0,002
-397,409	138,278	0,082	-0,077
-396,394	-21,652	-0,063	0,027
-395,379	-200,000	-0,000	0,005
-394,365	-124,586	-0,036	0,004
-393,350	-80,431	0,077	-0,018
-392,336	-200,000	-0,005	0,019
-391,321	153,043	-0,044	-0,043
-390,306	-23,076	-0,027	-0,011
-389,292	-200,000	0,023	-0,135
-388,277	305,289	0,040	0,053
-387,263	-12,447	-0,058	0,027
-386,248	800,000	-0,037	0,080
-385,233	800,000	-0,030	0,073
-384,219	-200,000	-0,024	0,110
-383,204	800,000	-0,069	0,147
-382,190	328,853	0,005	-0,007
-381,175	-200,000	0,008	-0,099
-380,160	411,506	0,026	0,039
-379,146	-200,000	0,009	0,050
-378,131	-92,615	0,064	-0,013
-377,117	331,442	0,038	0,053
-376,102	40,310	0,075	-0,048
-375,088	-144,632	-0,119	0,008
-374,073	800,000	-0,015	0,035
-373,058	64,999	0,101	0,073
-372,044	-200,000	-0,028	0,167
-371,029	240,271	0,119	0,141
-370,015	800,000	-0,017	-0,044
-369,000	-17,293	-0,059	0,027
-367,985	106,335	0,087	-0,073
-366,971	-114,903	-0,049	0,007
-365,956	-64,459	-0,044	0,013
-364,942	337,834	0,045	0,063
-363,927	-200,000	-0,006	0,038
-362,912	-200,000	0,020	-0,082
-361,898	250,864	0,055	-0,067
-360,883	-129,459	0,014	0,001
-359,869	-200,000	0,083	-0,281
-358,854	222,960	0,034	-0,039
-357,839	-145,441	0,156	-0,010
-356,825	-3,478	0,058	-0,029
-355,810	138,782	-0,099	-0,093
-354,796	-200,000	0,005	0,068
-353,781	256,648	0,056	-0,069
-352,766	-84,618	-0,133	-0,030
-351,752	91,304	0,071	-0,057
-350,737	-45,711	0,059	-0,021
-349,723	-60,519	0,007	0,002
-348,708	-200,000	0,005	-0,080
-347,693	172,049	0,031	0,031
-346,679	4,454	0,049	-0,026
-345,664	22,045	0,062	0,036
-344,650	-200,000	0,015	0,082
-343,635	-149,942	0,123	-0,007
-342,620	-127,728	0,012	0,001
-341,606	80,712	0,076	0,058
-340,591	-116,479	0,048	-0,006
-339,577	-200,000	0,015	-0,089
-338,562	800,000	-0,050	-0,131
-337,548	46,153	0,025	-0,017
-336,533	-9,129	0,032	0,015
-335,518	110,258	0,063	0,054
-334,504	30,415	0,076	-0,046
-333,489	-57,926	-0,094	0,029
-332,475	-183,836	-0,040	-0,000
-331,460	73,877	0,070	-0,052
-330,445	-200,000	-0,027	-0,202
-329,431	664,807	-0,053	-0,098
-328,416	-200,000	-0,004	0,041
-327,402	-147,977	0,125	-0,007
-326,387	-163,289	-0,130	-0,004
-325,372	334,772	-0,015	-0,021
-324,358	345,713	0,104	-0,146
-323,343	-110,324	-0,142	-0,021
-322,329	-184,404	0,079	-0,001
-321,314	-98,956	0,130	0,023
-320,299	800,000	0,035	0,085
-319,285	800,000	-0,016	0,039
-318,270	-88,982	-0,073	0,015
-317,256	800,000	-0,033	0,078
-316,241	-20,832	0,149	-0,065
-315,226	-200,000	0,026	0,094
-314,212	91,997	0,074	0,060
-313,197	-200,000	0,002	0,074
-312,183	-50,206	-0,160	-0,054
-311,168	-95,762	0,103	-0,019
-310,153	-96,180	0,050	-0,009
-309,139	48,959	0,031	-0,020
-308,124	-200,000	-0,039	0,219
-307,110	52,440	-0,010	-0,007
-306,095	-200,000	-0,004	-0,072
-305,080	94,614	0,034	0,027
-304,066	-74,265	0,085	0,022
-303,051	124,834	-0,104	-0,093
-302,037	-79,108	0,087	-0,021
-301,022	363,824	0,075	-0,108
-300,008	9,246	0,192	-0,103
-298,993	-200,000	0,020	-0,129
-297,978	-200,000	0,005	0,027
-296,964	130,343	-0,147	0,134
-295,949	800,000	-0,039	0,082
-294,935	104,088	0,047	-0,040
-293,920	-100,503	0,166	0,029
-292,905	800,000	0,043	0,105
-291,891	167,392	0,093	0,094
-290,876	-11,501	-0,098	0,046
-289,862	451,204	0,021	-0,034
-288,847	232,179	-0,138	-0,161
-287,832	-200,000	0,008	-0,066
-286,818	-161,564	0,089	-0,003
-285,803	-107,942	-0,028	0,004
-284,789	113,929	-0,063	0,055
-283,774	45,553	0,079	0,052
-282,759	-200,000	-0,003	0,053
-281,745	-60,060	0,227	-0,069
-280,730	-122,430	-0,116	-0,013
-279,716	-104,093	-0,029	-0,005
-278,701	-112,121	0,106	0,015
-277,686	-97,948	0,160	-0,029
-276,672	-69,741	0,037	-0,010
-275,657	-83,788	-0,121	0,027
-274,643	800,000	-0,020	0,058
-273,628	-200,000	0,001	-0,061
-272,613	-195,516	-0,137	0,001
-271,599	-1,209	0,071	0,036
-270,584	317,543	0,038	0,052
-269,570	-200,000	-0,019	-0,060
-268,555	761,503	0,055	0,107
-267,540	800,000	-0,025	0,074
-266,526	-200,000	-0,025	-0,089
-265,511	-151,533	-0,092	-0,005
-264,497	646,667	0,046	-0,085
-263,482	375,857	-0,079	-0,114
-262,467	687,586	0,011	0,020
-261,453	-10,180	-0,102	-0,048
-260,438	-200,000	-0,004	-0,045
-259,424	-200,000	0,019	-0,094
-258,409	61,984	-0,106	-0,075
-257,395	800,000	0,019	-0,053
-256,380	-200,000	0,002	-0,037
-255,365	-90,394	-0,103	0,021
-254,351	-200,000	-0,028	0,101
-253,336	-200,000	-0,004	-0,053
-252,322	139,089	-0,101	-0,095
-251,307	-107,053	-0,092	-0,014
-250,292	-105,791	0,069	-0,011
-249,278	800,000	-0,034	0,095
-248,263	800,000	0,028	-0,070
-247,249	76,559	0,014	-0,011
-246,234	369,950	0,035	0,051
-245,219	800,000	-0,040	0,089
-244,205	118,898	-0,019	0,017
-243,190	800,000	0,060	0,128
-242,176	-200,000	-0,005	0,072
-241,161	269,910	0,084	-0,105
-240,146	-97,055	-0,016	-0,003
-239,132	-200,000	0,010	0,058
-238,117	245,909	-0,044	-0,052
-237,103	28,039	-0,114	-0,068
-236,088	182,211	-0,043	-0,045
-235,073	114,992	-0,038	0,033
-234,059	446,379	-0,054	0,084
-233,044	-51,138	0,046	0,015
-232,030	-200,000	0,008	0,037
-231,015	42,907	-0,095	0,061
-230,000	102,545	-0,098	-0,081
-228,986	-106,948	0,039	0,006
-227,971	-97,584	-0,098	0,018
-226,957	-34,155	0,126	0,049
-225,942	800,000	-0,018	-0,040
-224,927	-39,216	0,040	-0,015
-223,913	92,299	-0,073	0,058
-222,898	-89,735	-0,032	0,007
-221,884	18,502	-0,086	-0,048
-220,869	98,435	-0,066	0,054
-219,855	338,148	0,105	0,145
-218,840	-63,074	-0,119	-0,035
-217,825	137,783	-0,014	0,013
-216,811	68,155	-0,069	-0,050
-215,796	306,314	-0,052	0,069
-214,782	185,443	0,085	0,090
-213,767	-200,000	0,006	0,059
-212,752	4,809	0,079	0,041
-211,738	67,635	0,087	-0,063
-210,723	-7,021	-0,024	0,012
-209,709	-200,000	0,035	0,120
-208,694	224,692	-0,137	-0,158
-207,679	-200,000	-0,008	-0,089
-206,665	71,811	0,082	0,061
-205,650	724,962	0,049	0,093
-204,636	141,149	-0,020	0,019
-203,621	14,842	0,064	0,036
-202,606	800,000	0,069	0,158
-201,592	-200,000	0,024	0,168
-200,577	-83,429	-0,189	-0,043
-199,563	135,825	-0,038	0,035
-198,548	-64,880	0,074	0,021
-197,533	169,018	-0,101	0,103
-196,519	391,126	-0,063	0,092
-195,504	36,606	0,032	0,020
-194,490	109,681	0,087	0,074
-193,475	50,114	-0,042	-0,028
-192,460	-94,823	-0,043	-0,008
-191,446	135,185	0,046	0,043
-190,431	289,840	0,031	-0,040
-189,417	14,835	0,103	0,057
-188,402	226,584	-0,045	-0,051
-187,387	-144,683	-0,120	-0,008
-186,373	-200,000	0,024	-0,123
-185,358	-200,000	0,012	0,041
-184,344	-141,175	0,065	0,005
-183,329	100,042	0,080	0,066
-182,315	-48,527	0,129	0,044
-181,300	20,755	-0,013	0,007
-180,285	2,558	-0,041	0,021
-179,271	435,487	-0,037	0,057
-178,256	-24,381	-0,030	-0,013
-177,242	292,943	0,022	0,029
-176,227	-200,000	-0,020	0,069
-175,212	-200,000	-0,013	0,042
-174,198	68,624	0,090	-0,065
-173,183	-200,000	-0,034	-0,149
-172,169	149,156	0,038	0,036
-171,154	8,384	0,040	-0,021
-170,139	800,000	0,065	0,186
-169,125	800,000	-0,034	0,068
-168,110	758,083	0,039	0,076
-167,096	-74,285	-0,105	0,027
-166,081	-32,942	-0,118	0,046
-165,066	-200,000	0,040	-0,150
-164,052	-200,000	-0,005	-0,120
-163,037	-200,000	-0,011	0,097
-162,023	-3,848	-0,048	0,023
-161,008	76,406	0,123	0,093
-159,993	35,777	0,099	0,061
-158,979	71,437	0,036	-0,026
-157,964	-87,020	-0,064	-0,014
-156,950	253,293	-0,066	0,080
-155,935	-200,000	0,035	0,168
-154,920	-200,000	0,020	0,117
-153,906	-145,285	0,039	0,002
-152,891	-200,000	0,013	-0,068
-151,877	494,699	-0,053	-0,087
-150,862	-16,658	-0,101	0,045
-149,847	-29,169	-0,101	-0,041
-148,833	-80,483	0,107	0,025
-147,818	660,216	0,034	0,062
-146,804	-53,492	0,102	0,033
-145,789	107,313	-0,039	0,033
-144,775	-200,000	0,031	0,166
-143,760	275,870	0,055	-0,069
-142,745	-200,000	0,014	-0,102
-141,731	800,000	0,058	0,148
-140,716	-200,000	-0,008	0,144
-139,702	-143,878	0,096	-0,006
-138,687	-200,000	-0,023	0,169
-137,672	51,282	0,078	-0,052
-136,658	-19,680	0,028	0,012
-135,643	-109,753	-0,063	-0,009
-134,629	-38,703	0,023	-0,009
-133,614	-36,159	0,082	0,031
-132,599	6,426	0,108	0,057
-131,585	-14,647	0,032	-0,015
-130,570	184,621	-0,115	-0,121
-129,556	800,000	-0,013	-0,036
-128,541	-62,772	-0,127	0,037
-127,526	800,000	-0,028	-0,069
-126,512	190,922	-0,030	0,032
-125,497	304,335	-0,051	-0,068
-124,483	89,524	-0,015	-0,012
-123,468	53,733	0,161	-0,109
-122,453	800,000	0,024	-0,063
-121,439	94,417	-0,101	0,081
-120,424	156,721	-0,077	0,075
-119,410	-200,000	0,011	-0,052
-118,395	86,335	0,119	-0,093
-117,380	800,000	-0,051	0,130
-116,366	317,262	-0,051	0,068
-115,351	-37,423	0,056	0,021
-114,337	444,333	-0,053	-0,083
-113,322	63,797	-0,096	-0,068
-112,307	-110,921	0,133	0,019
-111,293	-200,000	0,043	0,193
-110,278	-200,000	-0,017	-0,087
-109,264	-85,422	0,186	0,041
-108,249	800,000	0,037	-0,108
-107,234	-200,000	-0,018	-0,128
-106,220	30,477	-0,025	0,015
-105,205	208,540	0,024	0,027
-104,191	-171,092	-0,066	0,002
-103,176	-182,437	-0,031	0,000
-102,162	-200,000	-0,011	-0,078
-101,147	-200,000	-0,018	0,067
-100,132	800,000	-0,007	-0,016
-99,118	-200,000	-0,007	0,063
-98,103	274,486	0,063	0,079
-97,089	11,663	0,117	0,063
-96,074	77,930	-0,087	0,066
-95,059	643,933	0,024	0,043
-94,045	-200,000	0,002	0,007
-93,030	151,248	-0,042	-0,041
-92,016	259,172	0,060	0,073
-91,001	173,081	-0,048	0,049
-89,986	540,258	-0,040	0,067
-88,972	800,000	0,028	-0,081
-87,957	-80,968	0,139	-0,032
-86,943	52,431	0,067	0,045
-85,928	252,763	-0,065	0,079
-84,913	800,000	0,013	-0,030
-83,899	725,598	-0,063	0,119
-82,884	499,523	0,061	-0,100
-81,870	216,382	0,072	0,081
-80,855	-64,639	-0,101	0,029
-79,840	800,000	0,057	0,139
-78,826	-44,240	-0,103	-0,036
-77,811	-200,000	0,054	-0,210
-76,797	-200,000	0,006	-0,024
-75,782	800,000	-0,021	0,043
-74,767	38,111	0,059	-0,037
-73,753	-129,798	-0,127	0,012
-72,738	800,000	-0,025	-0,056
-71,724	409,858	-0,069	0,104
-70,709	-200,000	0,005	0,113
-69,694	-15,067	-0,108	0,049
-68,680	-200,000	0,053	-0,167
-67,665	-200,000	-0,005	0,079
-66,651	60,831	0,026	-0,018
-65,636	-138,540	-0,028	-0,002
-64,622	3,156	-0,093	0,048
-63,607	-92,826	-0,069	0,014
-62,592	-200,000	0,001	0,089
-61,578	5,960	0,050	-0,026
-60,563	-15,958	0,034	-0,015
-59,549	800,000	-0,036	-0,092
-58,534	12,230	-2,047	-1,109
-57,519	547,941	-1,215	-2,060
-56,505	-200,000	-0,365	-4,334
-55,490	344,494	0,965	1,340
-54,476	800,000	5,165	11,294
-53,461	-200,000	21,141	338,088
-52,446	800,000	758,189	2349,242
-51,432	557,537	1660,994	2836,776
-50,417	73,503	1661,265	1225,928
-49,403	18,069	1534,783	861,014
-48,388	12,017	1458,028	788,702
-47,373	19,283	1448,884	818,562
-46,359	15,464	1438,330	794,422
-45,344	10,286	1434,041	767,387
-44,330	10,268	1432,033	766,194
-43,315	10,237	1430,435	765,163
-42,300	10,228	1428,532	764,072
-41,286	10,264	1427,506	763,663
-40,271	10,239	1426,038	762,727
-39,257	10,226	1425,184	762,178
-38,242	10,280	1423,833	761,682
-37,227	10,258	1422,773	760,981
-36,213	10,290	1421,503	760,425
-35,198	10,324	1420,051	759,777
-34,184	10,311	1419,469	759,376
-33,169	10,238	1418,077	758,254
-32,154	10,268	1416,997	757,789
-31,140	10,281	1415,745	757,148
-30,125	10,383	1414,566	756,968
-29,111	10,315	1413,625	756,115
-28,096	10,288	1412,342	755,272
-27,082	10,261	1410,965	754,379
-26,067	10,178	1410,386	753,651
-25,052	10,266	1409,136	753,368
-24,038	10,281	1408,171	752,891
-23,023	10,207	1407,176	751,982
-22,009	10,209	1406,138	751,406
-20,994	10,202	1405,163	750,826
-19,979	10,177	1404,352	750,243
-18,965	10,212	1403,346	749,841
-17,950	10,197	1402,352	749,209
-16,936	10,169	1401,619	748,657
-15,921	10,139	1400,717	748,008
-14,906	10,159	1399,814	747,589
-13,892	10,200	1398,572	747,086
-12,877	10,156	1397,852	746,468
-11,863	10,121	1397,255	745,955
-10,848	10,114	1396,129	745,291
-9,833	10,107	1395,244	744,758
-8,819	10,046	1394,568	744,086
-7,804	10,041	1393,564	743,498
-6,790	10,092	1392,382	743,072
-5,775	10,048	1391,342	742,284
-4,760	10,085	1390,502	741,980
-3,746	10,077	1389,393	741,320
-2,731	10,055	1388,706	740,823
-1,717	9,996	1387,978	740,135
-0,702	10,028	1386,049	739,221
0,313	14,157	1298,989	711,638
1,327	30,593	690,066	415,276
2,342	47,066	119,551	78,285
3,356	1,374	16,468	8,319
4,371	-2,791	3,509	1,723
5,386	-26,350	0,948	0,390
6,400	-200,000	0,176	0,582
7,415	-186,004	-0,186	0,002
8,429	15,850	-0,293	-0,162
9,444	110,487	-0,297	-0,252
10,459	108,141	-0,262	-0,220
11,473	215,043	-0,174	-0,195
12,488	-17,569	-0,315	-0,139
13,502	-25,448	-0,295	-0,122
14,517	213,652	-0,241	-0,269
15,531	-1,719	-0,335	-0,166
16,546	129,770	-0,304	-0,274
17,561	63,533	-0,288	-0,203
18,575	-100,994	-0,227	-0,039
19,590	343,483	-0,171	-0,236
20,604	65,877	-0,187	-0,133
21,619	29,119	-0,503	-0,300
22,634	85,880	-0,511	-0,396
23,648	79,754	-0,411	-0,311
24,663	189,762	-0,425	-0,449
25,677	68,648	-0,407	-0,294
26,692	50,664	-0,339	-0,226
27,707	184,306	-0,297	-0,309
28,721	-7,099	-0,514	-0,244
29,736	153,571	-0,361	-0,348
30,750	62,305	-0,500	-0,351
31,765	61,836	-0,485	-0,339
32,780	50,746	-0,419	-0,279
33,794	105,961	-0,290	-0,241
34,809	105,556	-0,280	-0,233
35,823	5,219	-0,455	-0,235
36,838	203,333	-0,353	-0,384
37,853	61,183	-0,323	-0,225
38,867	20,730	-0,396	-0,225
39,882	142,315	-0,194	-0,181
40,896	94,697	-0,324	-0,259
41,911	122,722	-0,168	-0,147
42,926	61,318	-0,325	-0,227
43,940	1,283	-0,290	-0,146
44,955	67,650	-0,441	-0,316
45,969	84,023	-0,244	-0,187
46,984	277,040	-0,320	-0,401
47,999	-1,280	-0,392	-0,194
49,013	74,718	-0,351	-0,259
50,028	94,769	-0,337	-0,269
51,042	88,174	-0,347	-0,270
52,057	96,506	-0,343	-0,275
53,071	84,744	-0,380	-0,292
54,086	132,091	-0,270	-0,244
55,101	-37,957	-0,370	-0,137
56,115	-48,287	-0,422	-0,142
57,130	-63,158	-0,355	-0,102
58,144	-60,958	-0,475	-0,140
59,159	90,554	-0,365	-0,286
60,174	15,415	-0,310	-0,170
61,188	80,463	-0,309	-0,233
62,203	28,906	-0,319	-0,189
63,217	70,298	-0,265	-0,192
64,232	36,495	-0,258	-0,159
65,247	545,717	-0,268	-0,450
66,261	85,253	-0,338	-0,260
67,276	33,216	-0,407	-0,247
68,290	46,897	-0,357	-0,232
69,305	140,879	-0,244	-0,226
70,320	-22,835	-0,286	-0,120
71,334	172,519	-0,238	-0,241
72,349	440,868	-0,285	-0,438
73,363	93,252	-0,355	-0,281
74,378	-16,429	-0,236	-0,105
75,393	800,000	-0,131	-0,256
76,407	26,441	-0,332	-0,194
77,422	-22,166	-0,277	-0,117
78,436	-42,616	-0,374	-0,133
79,451	41,832	-0,281	-0,178
80,466	220,851	-0,241	-0,271
81,480	167,259	-0,227	-0,226
82,495	104,656	-0,247	-0,203
83,509	3,065	-0,301	-0,153
84,524	333,583	-0,153	-0,207
85,539	-10,536	-0,349	-0,161
86,553	109,822	-0,202	-0,170
87,568	135,238	-0,277	-0,252
88,582	102,750	-0,356	-0,292
89,597	15,941	-0,344	-0,189
90,611	227,528	-0,164	-0,187
91,626	-59,645	-0,238	-0,071
92,641	-166,224	-0,341	0,010
93,655	-2,169	-0,307	-0,150
94,670	69,450	-0,312	-0,224
95,684	-56,475	-0,362	-0,112
96,699	11,055	-0,203	-0,108
97,714	194,999	-0,202	-0,214
98,728	-50,129	-0,180	-0,059
99,743	146,702	-0,219	-0,206
100,757	22,220	-0,252	-0,144
101,772	-22,303	-0,344	-0,145
102,787	28,518	-0,230	-0,136
103,801	65,447	-0,367	-0,259
104,816	-46,430	-0,315	-0,108
105,830	-6,618	-0,252	-0,119
106,845	17,869	-0,194	-0,108
107,860	-80,682	-0,280	-0,065
108,874	27,865	-0,265	-0,155
109,889	104,554	-0,295	-0,242
110,903	3,797	-0,154	-0,078
111,918	94,545	-0,256	-0,203
112,933	274,601	-0,143	-0,177
113,947	244,791	-0,169	-0,199
114,962	8,328	-0,211	-0,110
115,976	-10,467	-0,330	-0,152
116,991	38,126	-0,273	-0,169
118,006	232,499	-0,261	-0,300
119,020	-22,459	-0,278	-0,117
120,035	-9,096	-0,221	-0,103
121,049	-30,631	-0,143	-0,056
122,064	58,767	-0,234	-0,160
123,079	-29,775	-0,180	-0,071
124,093	28,252	-0,254	-0,149
125,108	153,257	-0,202	-0,193
126,122	-67,346	-0,400	-0,109
127,137	194,586	-0,219	-0,232
128,151	-72,024	-0,297	-0,076
129,166	-49,639	-0,190	0,063
130,181	234,397	-0,137	-0,158
131,195	258,194	-0,158	-0,190
132,210	-9,612	-0,456	-0,211
133,224	111,043	-0,265	-0,223
134,239	37,357	-0,258	-0,159
135,254	90,489	-0,147	-0,115
136,268	73,354	-0,155	-0,113
137,283	336,037	-0,150	-0,203
138,297	41,802	-0,232	-0,146
139,312	106,748	-0,341	-0,282
140,327	64,153	-0,207	-0,145
141,341	27,421	-0,231	-0,135
142,356	98,447	-0,191	-0,153
143,370	11,252	-0,217	-0,116
144,385	50,943	-0,348	-0,230
145,400	61,820	-0,191	-0,132
146,414	-3,682	-0,273	-0,131
147,429	225,507	-0,200	-0,226
148,443	121,891	-0,348	-0,302
149,458	716,515	-0,114	-0,211
150,473	-30,642	-0,183	-0,072
151,487	167,800	-0,193	-0,191
152,502	-68,405	-0,296	-0,079
153,516	216,942	-0,152	-0,168
154,531	-13,857	-0,304	-0,136
155,546	6,428	-0,333	-0,172
156,560	34,426	-0,208	-0,126
157,575	156,147	-0,178	-0,171
158,589	184,127	-0,232	-0,239
159,604	171,796	-0,230	-0,230
160,619	114,337	-0,324	-0,275
161,633	-16,772	-0,176	-0,077
162,648	107,768	-0,241	-0,200
163,662	4,079	-0,170	-0,086
164,677	-39,141	-0,241	-0,088
165,692	-13,137	-0,231	0,104
166,706	203,286	-0,295	-0,317
167,721	164,381	-0,137	-0,135
168,735	-154,828	-0,254	-0,011
169,750	91,934	-0,203	-0,159
170,764	159,170	-0,126	-0,122
171,779	321,710	-0,199	-0,264
172,794	61,159	-0,219	-0,151
173,808	83,549	-0,302	-0,228
174,823	64,947	-0,298	-0,209
175,837	-7,318	-0,428	-0,201
176,852	93,695	-0,178	-0,140
177,867	380,101	-0,146	-0,209
178,881	-76,958	-0,214	0,052
179,896	-95,249	-0,198	0,037
180,910	31,582	-0,331	-0,197
181,925	-61,705	-0,224	-0,065
182,940	319,748	-0,212	-0,280
183,954	-2,114	-0,267	-0,130
184,969	423,425	-0,144	-0,216
185,983	251,337	-0,147	-0,174
186,998	25,464	-0,129	-0,074
188,013	27,009	-0,287	-0,167
189,027	127,525	-0,202	-0,178
190,042	99,297	-0,165	-0,132
191,056	203,661	-0,175	-0,188
192,071	135,800	-0,219	-0,198
193,086	376,478	-0,104	-0,148
194,100	-28,121	-0,135	-0,054
195,115	22,983	-0,258	-0,146
196,129	119,011	-0,233	-0,200
197,144	-22,031	-0,308	-0,129
198,159	265,798	-0,240	-0,291
199,173	-43,176	-0,218	-0,076
200,188	20,832	-0,245	-0,137
201,202	-31,651	-0,176	-0,068
202,217	327,239	-0,155	-0,206
203,232	374,272	-0,100	-0,141
204,246	14,953	-0,300	-0,162
205,261	577,904	-0,143	-0,244
206,275	262,809	-0,215	-0,259
207,290	-200,000	0,003	-0,110
208,304	-24,651	-0,225	-0,092
209,319	286,328	-0,180	-0,225
210,334	14,287	-0,188	-0,101
211,348	194,552	-0,241	-0,253
212,363	-68,438	-0,255	-0,068
213,377	244,078	-0,163	-0,190
214,392	43,515	-0,192	-0,122
215,407	50,071	-0,253	-0,165
216,421	158,547	-0,162	-0,156
217,436	28,500	-0,256	-0,149
218,450	-10,903	-0,127	-0,058
219,465	104,327	-0,256	-0,209
220,480	284,731	-0,048	-0,060
221,494	-129,315	-0,223	-0,021
222,509	-64,439	-0,218	-0,061
223,523	-37,245	-0,236	-0,087
224,538	-46,199	-0,296	-0,100
225,553	96,668	-0,292	-0,231
226,567	76,200	-0,245	-0,179
227,582	55,350	-0,151	-0,101
228,596	-3,112	-0,072	-0,035
229,611	27,288	-0,187	-0,108
230,626	-102,599	-0,133	0,022
231,640	-86,224	-0,151	-0,032
232,655	54,926	-0,148	-0,099
233,669	201,272	-0,109	-0,116
234,684	341,041	-0,087	-0,117
235,699	-61,244	-0,132	0,038
236,713	243,810	-0,037	-0,043
237,728	-19,213	-0,171	-0,073
238,742	253,377	-0,172	-0,204
239,757	367,915	-0,113	-0,158
240,772	43,086	-0,206	-0,129
241,786	83,649	-0,226	-0,170
242,801	5,146	-0,193	-0,098
243,815	-42,649	-0,196	-0,069
244,830	319,076	-0,138	-0,181
245,844	-51,848	-0,197	-0,063
246,859	132,227	-0,203	-0,181
247,874	204,348	-0,171	-0,183
248,888	-200,000	-0,070	-0,224
249,903	-200,000	-0,039	-0,171
250,917	102,396	-0,104	-0,084
251,932	271,287	-0,081	-0,099
252,947	29,454	-0,243	-0,142
253,961	-79,012	-0,230	-0,053
254,976	347,135	-0,126	-0,171
255,990	232,158	-0,092	-0,105
257,005	69,390	-0,232	-0,164
258,020	86,312	-0,142	-0,108
259,034	92,095	-0,154	-0,120
260,049	-63,832	-0,067	-0,019
261,063	-72,252	-0,081	0,020
262,078	158,568	-0,111	-0,106
263,093	-40,037	-0,174	0,062
264,107	-58,084	-0,231	-0,069
265,122	-34,636	-0,141	-0,053
266,136	-138,056	-0,172	-0,013
267,151	670,774	-0,107	-0,192
268,166	-106,616	-0,300	-0,046
269,180	50,369	-0,111	-0,072
270,195	569,741	-0,120	-0,201
271,209	-80,759	-0,191	-0,043
272,224	66,118	-0,121	-0,084
273,239	18,173	-0,150	-0,082
274,253	-77,329	-0,201	0,048
275,268	119,348	-0,174	-0,148
276,282	30,143	-0,266	-0,156
277,297	-35,277	-0,206	-0,077
278,312	-37,731	-0,150	-0,055
279,326	-167,137	-0,077	-0,002
280,341	-38,159	-0,139	0,051
281,355	800,000	-0,051	-0,130
282,370	-0,698	-0,204	-0,099
283,384	111,932	-0,140	-0,116
284,399	-200,000	-0,070	-0,227
285,414	800,000	-0,068	-0,188
286,428	84,173	-0,133	-0,100
287,443	304,868	-0,080	-0,102
288,457	-94,875	-0,142	0,026
289,472	-200,000	-0,028	-0,238
290,487	123,880	-0,110	-0,095
291,501	18,765	-0,193	-0,106
292,516	-54,344	-0,127	-0,039
293,530	-72,258	-0,203	0,051
294,545	711,344	-0,089	-0,163
295,560	33,425	-0,137	-0,081
296,574	-200,000	-0,023	-0,118
297,589	193,532	-0,023	-0,024
298,603	53,230	-0,138	-0,091
299,618	182,912	-0,108	-0,109
300,633	372,296	-0,043	-0,061
301,647	-33,495	-0,074	-0,028
302,662	800,000	-0,053	-0,134
303,676	-31,924	-0,156	-0,060
304,691	234,665	-0,223	-0,253
305,706	211,678	-0,144	-0,155
306,720	321,563	-0,104	-0,137
307,735	-153,170	-0,177	-0,008
308,749	39,440	-0,092	-0,056
309,764	27,253	-0,127	-0,073
310,779	-200,000	-0,006	-0,056
311,793	-69,577	-0,109	-0,028
312,808	19,586	-0,208	-0,115
313,822	-48,720	-0,248	-0,081
314,837	13,254	-0,190	-0,100
315,852	-200,000	-0,005	-0,073
316,866	-200,000	-0,001	-0,113
317,881	-132,280	-0,192	0,017
318,895	202,921	-0,176	-0,187
319,910	56,454	-0,189	-0,126
320,925	116,562	-0,131	-0,110
321,939	131,262	-0,148	-0,130
322,954	-17,668	-0,183	-0,078
323,968	-62,869	-0,133	0,038
324,983	-18,082	-0,183	-0,078
325,997	117,536	-0,113	-0,095
327,012	-111,755	-0,104	0,014
328,027	-17,935	-0,123	-0,053
329,041	-34,995	-0,077	0,029
330,056	800,000	-0,046	-0,099
331,070	-43,613	-0,134	-0,046
332,085	-17,541	-0,062	-0,027
333,100	140,015	-0,061	-0,055
334,114	55,508	-0,178	-0,118
335,129	-162,578	-0,102	-0,003
336,143	597,508	-0,052	-0,089
337,158	-106,059	-0,176	0,027
338,173	108,573	-0,081	-0,066
339,187	558,709	-0,111	-0,184
340,202	273,715	-0,059	-0,072
341,216	137,932	-0,164	-0,147
342,231	497,057	-0,075	-0,119
343,246	-12,969	-0,083	-0,037
344,260	-200,000	0,014	-0,109
345,275	314,796	-0,073	-0,095
346,289	27,933	-0,095	0,054
347,304	-38,792	-0,149	-0,053
348,319	34,953	-0,191	-0,114
349,333	-200,000	-0,011	0,048
350,348	202,742	-0,154	-0,162
351,362	61,210	-0,113	-0,077
352,377	190,715	-0,154	-0,158
353,392	-1,911	-0,119	-0,057
354,406	-21,789	-0,224	-0,093
355,421	207,023	1308,009	1395,677
356,435	159,237	1467,914	1396,171
