DTS Sentinel unit serial number:	SN410029Multiplexer serial number:	ORYXHardware model number:	OX2-SRSoftware version number:	ORYX F/W v4,00 Oryx Data Collector v3.7.2.0data status	okinstallation	B3 Nyhavnadifferential loss correction	single-endedforward channel	channel 1reverse channel	N/Adate	2023/12/02time	11:17:30forward acquisition time	300,00reverse acquisition time	0,00gamma	499,1914k internal	0,3198k external	0,3198temperature offset calibration	1,0000default loss term (dB/km)	0,3820temperature slope calibration	1,0000multiplexer offset coefficient	1,0000multiplexer slope coefficient	1,0000fibre end	0,00T internal ref (°C)	14,13T ext. ref 1 (°C)	-1,35T ext. ref 2 (°C)	-1,39length (m)	temperature (°C)	Stokes	anti-Stokes-744,400	-66,696	-0,330	-0,094
-743,385	151,828	0,155	0,154
-742,371	-36,049	-0,199	-0,078
-741,356	-200,000	0,005	0,273
-740,342	-46,502	-0,140	-0,050
-739,327	-200,000	0,003	0,274
-738,312	344,540	-0,187	-0,267
-737,298	-200,000	-0,033	0,205
-736,283	85,155	-0,223	-0,178
-735,269	-200,000	0,007	0,350
-734,254	36,189	-0,202	-0,129
-733,239	16,871	-0,226	0,130
-732,225	800,000	-0,136	-0,348
-731,210	770,477	0,105	0,210
-730,196	31,668	-0,063	0,039
-729,181	180,956	-0,134	0,143
-728,167	800,000	-0,049	-0,111
-727,152	-200,000	-0,021	-0,094
-726,137	83,996	-0,045	-0,036
-725,123	-25,257	0,023	-0,010
-724,108	800,000	-0,071	-0,214
-723,094	-200,000	-0,018	0,084
-722,079	-26,808	0,039	-0,017
-721,064	-111,897	-0,055	-0,008
-720,050	70,571	-0,032	0,024
-719,035	800,000	-0,058	0,179
-718,021	-120,699	-0,242	-0,029
-717,006	14,662	0,017	-0,009
-715,991	-184,609	-0,048	0,001
-714,977	192,612	-0,086	-0,094
-713,962	-121,485	-0,120	-0,014
-712,948	-200,000	0,006	-0,038
-711,933	139,206	0,061	-0,058
-710,918	-176,258	0,073	-0,001
-709,904	-200,000	-0,008	-0,057
-708,889	220,673	-0,085	-0,100
-707,875	350,507	-0,059	-0,085
-706,860	435,129	-0,074	-0,118
-705,845	-97,892	0,174	-0,032
-704,831	-108,801	0,073	0,011
-703,816	268,244	-0,097	-0,123
-702,802	-118,719	0,127	-0,016
-701,787	56,865	-0,113	-0,080
-700,772	800,000	0,033	-0,095
-699,758	691,564	-0,023	-0,044
-698,743	-200,000	-0,008	-0,085
-697,729	59,748	0,033	0,024
-696,714	-15,415	-0,069	-0,032
-695,699	93,713	-0,121	0,099
-694,685	-200,000	-0,010	-0,071
-693,670	-120,719	-0,126	0,015
-692,656	-156,639	-0,160	0,007
-691,641	800,000	-0,023	0,062
-690,627	25,187	-0,051	-0,030
-689,612	-101,062	-0,039	-0,007
-688,597	800,000	0,065	-0,138
-687,583	293,429	0,018	-0,023
-686,568	36,855	-0,089	-0,057
-685,554	269,820	-0,061	-0,078
-684,539	126,670	0,070	-0,065
-683,524	27,838	-0,081	0,049
-682,510	26,481	0,079	0,048
-681,495	61,936	-0,119	0,086
-680,481	641,205	0,052	-0,096
-679,466	-200,000	-0,005	-0,199
-678,451	329,173	0,018	-0,026
-677,437	-79,548	-0,037	-0,009
-676,422	-97,604	-0,070	0,013
-675,408	-200,000	0,016	-0,052
-674,393	18,050	0,127	-0,073
-673,378	200,019	0,069	0,077
-672,364	-116,728	-0,127	-0,017
-671,349	-68,334	0,067	-0,019
-670,335	243,937	0,013	-0,016
-669,320	-200,000	-0,004	-0,025
-668,305	-200,000	0,003	0,016
-667,291	-200,000	0,010	0,093
-666,276	-200,000	-0,015	-0,106
-665,262	135,482	-0,160	-0,151
-664,247	445,200	0,021	-0,033
-663,232	-183,401	0,009	0,000
-662,218	-98,477	0,130	-0,024
-661,203	-36,370	-0,210	0,082
-660,189	800,000	-0,018	-0,039
-659,174	-200,000	0,047	-0,160
-658,159	-184,116	-0,133	-0,002
-657,145	-129,270	-0,044	0,004
-656,130	-93,504	0,041	-0,008
-655,116	-200,000	0,019	-0,068
-654,101	-200,000	-0,013	0,050
-653,086	527,074	-0,066	0,113
-652,072	82,080	-0,167	-0,131
-651,057	800,000	-0,028	-0,064
-650,043	89,891	-0,152	-0,123
-649,028	-122,291	0,079	0,009
-648,014	-200,000	-0,037	0,135
-646,999	-200,000	0,045	0,174
-645,984	-180,573	-0,174	-0,003
-644,970	-200,000	-0,014	-0,118
-643,955	-142,842	-0,026	0,002
-642,941	800,000	-0,052	-0,115
-641,926	60,693	-0,058	-0,042
-640,911	-200,000	-0,022	-0,099
-639,897	42,221	0,124	0,081
-638,882	-6,002	-0,033	0,017
-637,868	480,522	-0,033	-0,055
-636,853	132,379	0,005	0,005
-635,838	54,027	-0,082	-0,057
-634,824	616,841	-0,061	0,112
-633,809	-109,107	0,134	-0,020
-632,795	-200,000	0,009	0,065
-631,780	-200,000	0,018	0,124
-630,765	-200,000	-0,039	-0,148
-629,751	385,479	0,034	-0,050
-628,736	-200,000	-0,005	0,044
-627,722	45,645	0,034	-0,023
-626,707	-102,854	0,173	-0,030
-625,692	485,377	-0,062	-0,103
-624,678	259,511	-0,092	-0,115
-623,663	-110,128	0,111	0,017
-622,649	-200,000	0,000	-0,029
-621,634	-200,000	-0,025	-0,097
-620,619	218,630	-0,076	-0,088
-619,605	800,000	0,044	-0,090
-618,590	800,000	0,033	-0,082
-617,576	800,000	-0,017	-0,053
-616,561	-200,000	0,002	-0,092
-615,546	151,007	0,137	-0,135
-614,532	-80,140	-0,152	0,037
-613,517	-200,000	-0,021	0,074
-612,503	305,307	0,046	0,062
-611,488	432,009	-0,035	0,055
-610,474	378,749	0,048	0,071
-609,459	27,035	-0,051	0,031
-608,444	-86,550	-0,150	0,033
-607,430	432,194	-0,104	-0,163
-606,415	38,325	-0,179	-0,116
-605,401	-200,000	0,024	0,104
-604,386	-31,159	0,058	0,023
-603,371	8,518	-0,020	-0,011
-602,357	-200,000	0,022	0,091
-601,342	800,000	0,047	-0,118
-600,328	-112,462	-0,054	0,008
-599,313	-84,034	-0,040	-0,009
-598,298	-83,027	-0,061	-0,014
-597,284	-200,000	-0,016	0,185
-596,269	37,952	-0,061	0,039
-595,255	-200,000	-0,015	-0,066
-594,240	-200,000	-0,015	0,056
-593,225	223,038	-0,043	0,050
-592,211	-200,000	-0,033	-0,145
-591,196	800,000	-0,055	-0,116
-590,182	-200,000	0,000	-0,013
-589,167	-30,396	0,044	0,018
-588,152	288,631	0,035	0,046
-587,138	129,015	-0,086	-0,080
-586,123	800,000	-0,053	-0,122
-585,109	-200,000	-0,016	-0,083
-584,094	-200,000	-0,011	-0,090
-583,079	752,231	0,051	-0,100
-582,065	-186,818	-0,045	0,000
-581,050	55,846	0,137	0,096
-580,036	140,654	0,030	-0,029
-579,021	44,273	0,048	-0,032
-578,006	800,000	0,006	-0,019
-576,992	56,472	-0,029	0,021
-575,977	-200,000	-0,007	0,028
-574,963	28,962	0,162	0,099
-573,948	60,048	-0,051	-0,036
-572,934	413,178	-0,021	-0,033
-571,919	-200,000	-0,026	-0,088
-570,904	373,136	0,015	-0,023
-569,890	-71,433	-0,074	0,020
-568,875	-200,000	0,006	0,056
-567,861	-200,000	-0,049	-0,187
-566,846	-157,639	0,108	-0,005
-565,831	386,936	-0,046	0,069
-564,817	386,997	-0,037	-0,055
-563,802	537,259	-0,050	0,087
-562,788	154,358	-0,048	0,048
-561,773	254,421	0,044	0,055
-560,758	492,323	0,021	0,035
-559,744	-76,705	0,122	-0,031
-558,729	-95,044	-0,225	-0,043
-557,715	64,905	-0,135	0,098
-556,700	-200,000	-0,012	-0,130
-555,685	67,946	0,117	-0,087
-554,671	123,447	-0,067	0,061
-553,656	-200,000	0,019	-0,092
-552,642	800,000	-0,066	0,146
-551,627	190,086	-0,090	-0,098
-550,612	-200,000	-0,053	-0,182
-549,598	-92,407	-0,120	0,024
-548,583	17,311	0,049	-0,028
-547,569	-132,428	-0,075	-0,007
-546,554	218,137	-0,102	-0,118
-545,539	-123,053	0,056	0,006
-544,525	-130,945	-0,020	0,002
-543,510	800,000	-0,045	0,116
-542,496	-91,877	0,077	-0,016
-541,481	207,227	0,028	0,031
-540,466	-96,342	-0,138	-0,026
-539,452	76,893	0,080	0,061
-538,437	65,204	-0,060	0,044
-537,423	-78,816	-0,113	0,028
-536,408	-101,770	0,117	-0,020
-535,393	-200,000	0,005	-0,055
-534,379	-66,606	0,097	0,028
-533,364	-45,184	0,038	-0,013
-532,350	466,538	0,080	-0,131
-531,335	-120,502	0,163	0,020
-530,321	254,357	-0,106	0,131
-529,306	2,590	0,027	-0,014
-528,291	283,479	-0,041	-0,054
-527,277	182,081	-0,079	0,084
-526,262	-124,299	-0,073	0,008
-525,248	-73,326	0,079	-0,021
-524,233	-117,925	-0,110	0,014
-523,218	123,960	0,139	-0,126
-522,204	102,386	0,073	0,062
-521,189	271,509	-0,087	-0,111
-520,175	31,049	0,114	-0,070
-519,160	-200,000	-0,023	-0,182
-518,145	-53,026	0,073	0,024
-517,131	233,350	0,016	0,019
-516,116	-60,806	0,126	0,038
-515,102	159,728	-0,063	0,064
-514,087	183,593	0,062	0,066
-513,072	-144,067	0,028	0,002
-512,058	-27,174	-0,105	0,044
-511,043	341,559	0,068	0,097
-510,029	59,571	0,112	0,080
-509,014	-200,000	0,015	0,055
-507,999	417,930	0,083	-0,128
-506,985	30,753	-0,065	0,040
-505,970	-31,048	-0,051	-0,021
-504,956	-15,469	0,078	0,036
-503,941	257,571	0,032	-0,039
-502,926	-200,000	-0,003	0,124
-501,912	-33,390	0,009	-0,004
-500,897	-200,000	-0,006	-0,196
-499,883	-27,629	-0,131	0,055
-498,868	800,000	0,039	-0,115
-497,853	800,000	-0,055	-0,123
-496,839	621,713	0,058	-0,106
-495,824	-106,405	0,076	0,012
-494,810	800,000	-0,018	0,046
-493,795	601,933	0,032	0,057
-492,781	381,117	-0,046	-0,069
-491,766	-200,000	-0,024	-0,119
-490,751	-85,685	-0,110	0,025
-489,737	-200,000	-0,017	-0,162
-488,722	800,000	-0,048	-0,110
-487,708	-200,000	-0,000	0,092
-486,693	-200,000	0,034	0,168
-485,678	-200,000	-0,009	0,049
-484,664	20,038	-0,091	-0,053
-483,649	121,084	-0,061	-0,055
-482,635	-34,575	-0,168	0,066
-481,620	800,000	-0,049	0,100
-480,605	0,266	0,024	-0,012
-479,591	227,373	-0,080	0,093
-478,576	800,000	0,063	-0,126
-477,562	-200,000	-0,037	-0,197
-476,547	-200,000	-0,005	0,039
-475,532	-43,141	-0,018	0,007
-474,518	800,000	-0,031	-0,071
-473,503	-200,000	0,045	0,183
-472,489	13,002	-0,091	0,051
-471,474	-200,000	0,084	0,000
-470,459	-200,000	-0,002	0,016
-469,445	421,479	-0,045	0,070
-468,430	287,253	-0,038	0,050
-467,416	-139,133	0,034	-0,003
-466,401	-24,089	0,054	-0,023
-465,386	86,878	-0,062	0,049
-464,372	-91,713	0,116	0,024
-463,357	267,061	-0,092	0,116
-462,343	-66,455	0,230	0,065
-461,328	-83,639	-0,132	-0,030
-460,313	800,000	0,017	0,041
-459,299	-19,948	0,122	0,054
-458,284	800,000	0,036	-0,076
-457,270	-101,756	-0,048	-0,008
-456,255	61,464	-0,107	-0,077
-455,241	575,772	-0,060	-0,106
-454,226	357,827	-0,022	0,032
-453,211	66,554	0,042	-0,031
-452,197	94,881	0,017	0,014
-451,182	-200,000	-0,030	-0,153
-450,168	800,000	-0,037	0,079
-449,153	-200,000	0,013	-0,094
-448,138	-133,755	-0,040	0,004
-447,124	-200,000	0,029	-0,099
-446,109	508,996	-0,079	-0,133
-445,095	800,000	0,031	0,089
-444,080	-110,515	0,112	0,017
-443,065	-64,970	-0,045	-0,013
-442,051	198,069	-0,067	-0,074
-441,036	326,374	0,069	-0,096
-440,022	339,795	-0,035	-0,049
-439,007	-200,000	-0,019	-0,065
-437,992	-11,339	-0,073	-0,034
-436,978	398,615	-0,056	0,084
-435,963	94,364	0,092	-0,075
-434,949	-22,277	-0,026	-0,011
-433,934	66,381	0,060	0,044
-432,919	800,000	0,060	0,176
-431,905	-200,000	-0,012	0,060
-430,890	215,371	0,070	0,080
-429,876	-114,857	0,133	0,018
-428,861	121,336	-0,066	0,060
-427,846	11,674	0,035	0,019
-426,832	105,508	0,114	-0,097
-425,817	-200,000	-0,024	-0,111
-424,803	311,155	-0,067	-0,090
-423,788	-17,628	-0,046	0,021
-422,773	-200,000	0,029	0,151
-421,759	-21,734	0,103	-0,045
-420,744	-152,172	-0,136	-0,007
-419,730	609,910	-0,046	-0,083
-418,715	-132,349	-0,126	-0,012
-417,701	80,882	0,091	0,070
-416,686	-200,000	0,002	0,014
-415,671	775,590	0,036	-0,072
-414,657	501,661	0,030	-0,050
-413,642	-84,805	0,183	-0,041
-412,628	133,445	-0,048	-0,044
-411,613	-200,000	-0,023	-0,088
-410,598	146,772	0,038	-0,037
-409,584	34,215	0,089	-0,055
-408,569	-94,017	0,125	0,024
-407,555	-77,570	0,141	0,035
-406,540	-200,000	-0,014	0,057
-405,525	396,584	0,034	0,051
-404,511	260,767	-0,037	-0,046
-403,496	-1,913	0,085	-0,043
-402,482	-200,000	-0,010	-0,063
-401,467	-26,428	0,086	-0,036
-400,452	-59,680	-0,025	-0,008
-399,438	-110,832	-0,141	0,021
-398,423	-120,028	0,063	0,008
-397,409	78,257	-0,048	0,037
-396,394	42,654	0,042	0,027
-395,379	40,572	0,048	-0,031
-394,365	31,115	0,031	-0,019
-393,350	800,000	-0,045	0,126
-392,336	66,166	-0,058	0,042
-391,321	-200,000	-0,012	0,190
-390,306	-200,000	-0,004	0,014
-389,292	-17,761	-0,045	-0,020
-388,277	309,797	-0,019	-0,026
-387,263	282,795	0,028	-0,036
-386,248	-200,000	0,042	0,133
-385,233	800,000	-0,012	0,036
-384,219	708,030	0,045	0,086
-383,204	-16,482	-0,052	-0,024
-382,190	68,208	-0,017	-0,013
-381,175	800,000	-0,057	-0,123
-380,160	8,429	0,116	-0,063
-379,146	-100,541	0,085	0,015
-378,131	-149,759	0,147	-0,008
-377,117	594,202	0,078	-0,139
-376,102	800,000	-0,027	0,063
-375,088	-105,613	-0,046	0,007
-374,073	11,120	0,044	-0,024
-373,058	-200,000	-0,023	0,106
-372,044	-200,000	0,012	-0,077
-371,029	-200,000	0,010	0,061
-370,015	487,940	0,058	0,095
-369,000	-200,000	-0,045	0,198
-367,985	-145,870	-0,127	-0,008
-366,971	66,034	0,025	-0,018
-365,956	-69,419	0,133	-0,036
-364,942	76,528	-0,052	0,040
-363,927	775,589	-0,080	0,157
-362,912	-160,240	0,088	0,003
-361,898	-200,000	0,004	-0,103
-360,883	-87,179	0,010	0,002
-359,869	231,408	-0,114	-0,135
-358,854	387,194	0,031	0,046
-357,839	800,000	-0,082	0,203
-356,825	-200,000	-0,032	0,120
-355,810	26,975	0,153	0,092
-354,796	-84,854	-0,118	0,026
-353,781	154,194	-0,022	0,021
-352,766	3,757	-0,040	0,021
-351,752	-189,265	0,125	0,001
-350,737	-23,087	0,041	0,018
-349,723	-200,000	0,036	0,123
-348,708	21,036	0,010	0,006
-347,693	625,355	-0,015	0,026
-346,679	800,000	-0,029	0,086
-345,664	-117,373	0,109	0,014
-344,650	164,213	-0,063	0,064
-343,635	-200,000	-0,028	0,107
-342,620	381,861	0,074	0,109
-341,606	800,000	-0,050	0,141
-340,591	449,536	-0,017	0,027
-339,577	-24,122	-0,017	-0,007
-338,562	132,760	0,078	0,072
-337,548	-200,000	0,021	-0,163
-336,533	-72,240	0,105	-0,028
-335,518	-99,846	0,081	-0,014
-334,504	64,635	0,086	-0,062
-333,489	50,468	-0,037	-0,025
-332,475	194,762	-0,043	0,047
-331,460	-200,000	0,033	-0,136
-330,445	44,107	0,052	-0,034
-329,431	149,555	0,081	-0,079
-328,416	787,048	0,036	0,072
-327,402	34,531	0,041	-0,026
-326,387	-200,000	0,012	0,051
-325,372	492,515	0,079	-0,129
-324,358	11,801	-0,202	0,111
-323,343	800,000	-0,070	0,207
-322,329	16,373	0,080	0,045
-321,314	-34,007	0,099	-0,039
-320,299	-102,089	0,087	0,015
-319,285	-200,000	-0,005	0,056
-318,270	800,000	-0,023	0,053
-317,256	354,209	0,034	-0,048
-316,241	-31,180	0,066	-0,026
-315,226	705,427	0,056	-0,107
-314,212	-129,924	0,114	-0,011
-313,197	26,104	0,060	-0,036
-312,183	716,948	0,035	0,067
-311,168	-126,084	-0,065	0,007
-310,153	781,921	-0,009	-0,018
-309,139	-30,129	-0,026	0,011
-308,124	-140,612	-0,065	0,005
-307,110	-51,770	-0,060	0,020
-306,095	304,525	0,037	0,049
-305,080	55,754	-0,018	0,013
-304,066	265,935	0,019	0,024
-303,051	190,954	0,072	-0,078
-302,037	-85,487	-0,097	0,022
-301,022	-115,342	0,076	0,010
-300,008	53,599	-0,013	0,009
-298,993	25,352	-0,060	-0,035
-297,978	-200,000	0,016	0,088
-296,964	-68,635	0,175	-0,048
-295,949	-59,674	-0,163	-0,050
-294,935	800,000	-0,038	-0,083
-293,920	-200,000	-0,007	-0,216
-292,905	-43,292	0,084	-0,030
-291,891	-19,705	0,073	0,032
-290,876	64,115	-0,018	0,013
-289,862	687,975	-0,053	-0,100
-288,847	800,000	-0,024	-0,067
-287,832	-200,000	-0,020	-0,106
-286,818	324,320	0,019	0,026
-285,803	87,354	-0,099	0,078
-284,789	231,214	0,067	0,078
-283,774	57,375	-0,037	-0,026
-282,759	-101,138	-0,084	0,015
-281,745	-24,002	-0,168	-0,071
-280,730	800,000	0,023	0,050
-279,716	298,063	0,018	-0,024
-278,701	487,741	0,029	-0,048
-277,686	39,974	0,153	0,098
-276,672	800,000	0,046	0,107
-275,657	-200,000	-0,026	-0,109
-274,643	110,403	0,047	-0,040
-273,628	-155,362	-0,121	-0,006
-272,613	-200,000	-0,007	-0,062
-271,599	3,622	0,134	0,069
-270,584	-8,214	-0,126	0,060
-269,570	-0,117	0,061	0,031
-268,555	314,051	-0,116	-0,156
-267,540	192,974	-0,067	-0,072
-266,526	51,754	-0,072	0,049
-265,511	363,895	0,058	0,084
-264,497	24,123	-0,001	-0,000
-263,482	197,489	0,158	0,172
-262,467	-97,466	-0,041	0,008
-261,453	-200,000	-0,019	0,083
-260,438	123,310	-0,031	-0,028
-259,424	-106,526	-0,020	-0,003
-258,409	-139,713	0,051	0,004
-257,395	-57,593	-0,137	-0,043
-256,380	-58,497	0,033	0,010
-255,365	800,000	0,011	0,031
-254,351	-200,000	-0,066	0,000
-253,336	800,000	-0,026	-0,061
-252,322	-65,485	0,088	0,025
-251,307	800,000	0,008	-0,017
-250,292	27,194	-0,095	0,057
-249,278	-78,076	-0,088	0,021
-248,263	-186,482	0,082	0,001
-247,249	248,221	0,059	0,071
-246,234	-71,582	-0,084	-0,022
-245,219	147,678	-0,058	-0,055
-244,205	800,000	0,030	-0,075
-243,190	97,007	-0,040	0,033
-242,176	800,000	-0,023	0,064
-241,161	-11,543	0,154	-0,072
-240,146	-200,000	-0,020	-0,098
-239,132	483,243	-0,034	-0,055
-238,117	31,781	-0,081	-0,050
-237,103	-117,244	0,143	-0,018
-236,088	800,000	-0,060	-0,128
-235,073	-200,000	0,015	0,110
-234,059	-200,000	0,011	0,104
-233,044	468,903	0,130	0,209
-232,030	-136,818	0,134	-0,011
-231,015	800,000	-0,029	0,076
-230,000	404,444	-0,093	-0,140
-228,986	800,000	-0,028	0,078
-227,971	-117,665	0,043	-0,005
-226,957	100,470	0,040	0,033
-225,942	-200,000	0,005	0,088
-224,927	151,348	-0,053	-0,052
-223,913	585,020	0,072	-0,127
-222,898	203,957	-0,021	0,023
-221,884	365,934	0,039	0,057
-220,869	5,704	-0,057	0,030
-219,855	-47,015	0,194	0,067
-218,840	-107,725	-0,055	0,008
-217,825	68,386	0,079	-0,058
-216,811	-116,774	0,184	0,024
-215,796	-82,554	-0,180	0,041
-214,782	-200,000	-0,019	-0,135
-213,767	134,715	0,055	0,051
-212,752	-200,000	-0,006	0,048
-211,738	-109,852	-0,162	0,024
-210,723	-200,000	-0,020	-0,124
-209,709	-123,395	-0,050	0,006
-208,694	-200,000	0,014	-0,110
-207,679	120,535	0,029	-0,026
-206,665	46,499	-0,044	-0,029
-205,650	-200,000	0,018	0,086
-204,636	295,413	0,039	-0,051
-203,621	175,745	0,037	0,039
-202,606	800,000	-0,043	-0,123
-201,592	39,444	-0,070	0,044
-200,577	-192,491	0,018	0,000
-199,563	200,903	-0,083	0,091
-198,548	-200,000	-0,030	0,110
-197,533	800,000	-0,024	-0,057
-196,519	-36,629	0,045	0,017
-195,504	800,000	-0,021	0,041
-194,490	122,445	0,067	-0,059
-193,475	-200,000	-0,014	0,045
-192,460	735,992	-0,042	-0,080
-191,446	113,603	0,128	0,111
-190,431	-200,000	0,017	0,097
-189,417	-79,408	0,108	0,026
-188,402	-64,656	-0,119	-0,034
-187,387	-110,896	-0,132	-0,019
-186,373	54,926	-0,087	0,060
-185,358	419,399	0,020	-0,030
-184,344	169,077	-0,045	-0,046
-183,329	-200,000	-0,003	0,147
-182,315	-66,422	0,178	0,050
-181,300	800,000	0,018	-0,036
-180,285	-200,000	0,003	0,036
-179,271	68,990	-0,118	-0,086
-178,256	270,684	0,065	-0,081
-177,242	-137,580	0,102	-0,008
-176,227	279,566	0,063	0,080
-175,212	-200,000	0,023	0,109
-174,198	451,711	-0,018	-0,029
-173,183	-63,709	-0,114	0,033
-172,169	-46,870	-0,075	-0,026
-171,154	93,493	-0,035	-0,028
-170,139	38,180	0,120	0,076
-169,125	-200,000	-0,028	0,250
-168,110	189,414	0,020	-0,021
-167,096	800,000	0,043	0,119
-166,081	-60,699	-0,193	-0,058
-165,066	86,036	-0,016	0,013
-164,052	-50,660	0,056	0,019
-163,037	-49,493	0,065	-0,022
-162,023	-200,000	0,012	0,072
-161,008	-162,871	0,043	0,001
-159,993	384,899	-0,038	0,056
-158,979	-200,000	-0,021	0,127
-157,964	315,162	0,037	-0,050
-156,950	-122,902	-0,218	-0,025
-155,935	637,837	0,021	-0,038
-154,920	-94,655	-0,120	-0,023
-153,906	-200,000	0,010	0,085
-152,891	105,214	0,114	-0,096
-151,877	-200,000	0,031	-0,143
-150,862	-200,000	-0,024	0,105
-149,847	-163,825	0,096	0,003
-148,833	-200,000	0,040	0,143
-147,818	-200,000	-0,019	0,112
-146,804	-200,000	-0,025	0,143
-145,789	8,162	-0,070	0,037
-144,775	800,000	0,027	-0,073
-143,760	189,783	-0,007	-0,007
-142,745	229,333	0,016	0,019
-141,731	-134,560	-0,063	0,005
-140,716	164,685	0,058	0,058
-139,702	800,000	0,043	0,094
-138,687	49,957	-0,145	0,097
-137,672	-200,000	-0,010	0,051
-136,658	250,357	-0,112	0,136
-135,643	-40,859	0,057	0,021
-134,629	210,033	-0,046	-0,051
-133,614	27,925	0,043	-0,026
-132,599	-61,864	0,069	0,020
-131,585	102,937	-0,044	0,036
-130,570	-200,000	-0,034	-0,145
-129,556	-62,326	-0,139	-0,041
-128,541	-200,000	-0,005	-0,041
-127,526	-200,000	0,001	0,067
-126,512	-56,361	-0,068	0,021
-125,497	800,000	0,039	0,101
-124,483	-200,000	-0,002	0,048
-123,468	183,858	0,078	0,082
-122,453	-71,676	-0,102	0,027
-121,439	800,000	-0,042	0,128
-120,424	-200,000	0,005	-0,041
-119,410	-200,000	-0,006	-0,045
-118,395	255,456	-0,025	-0,031
-117,380	165,193	0,143	0,144
-116,366	800,000	-0,022	0,059
-115,351	277,726	0,027	-0,035
-114,337	296,524	-0,113	-0,147
-113,322	-200,000	-0,009	0,104
-112,307	-96,423	-0,014	-0,003
-111,293	258,488	-0,044	0,054
-110,278	-66,580	-0,049	-0,014
-109,264	-150,424	-0,026	-0,001
-108,249	45,284	-0,062	-0,040
-107,234	342,352	-0,191	-0,267
-106,220	-200,000	0,011	-0,066
-105,205	-1,927	-0,109	0,054
-104,191	44,023	0,077	0,050
-103,176	800,000	-0,031	-0,080
-102,162	-95,376	0,053	-0,010
-101,147	800,000	-0,033	-0,087
-100,132	-77,453	-0,088	-0,021
-99,118	293,164	-0,056	-0,072
-98,103	33,347	-0,028	0,017
-97,089	-56,075	-0,108	-0,034
-96,074	-200,000	-0,009	0,095
-95,059	-200,000	0,005	0,129
-94,045	-45,444	-0,067	-0,023
-93,030	-87,631	-0,163	-0,035
-92,016	-44,820	-0,052	-0,018
-91,001	-200,000	-0,006	0,024
-89,986	337,172	-0,107	-0,147
-88,972	-200,000	0,033	0,118
-87,957	-200,000	-0,011	0,114
-86,943	454,308	-0,023	-0,036
-85,928	46,059	-0,119	-0,078
-84,913	681,343	-0,073	0,135
-83,899	626,792	-0,069	-0,124
-82,884	314,007	-0,041	0,055
-81,870	53,321	-0,039	-0,026
-80,855	-200,000	0,016	-0,118
-79,840	-200,000	-0,011	-0,126
-78,826	333,661	-0,045	-0,061
-77,811	-126,969	0,035	0,004
-76,797	29,614	0,039	-0,023
-75,782	488,852	0,027	-0,044
-74,767	4,990	0,049	-0,026
-73,753	215,557	0,051	-0,057
-72,738	459,322	0,066	-0,105
-71,724	800,000	-0,061	-0,145
-70,709	289,732	-0,076	-0,098
-69,694	495,873	0,027	-0,045
-68,680	116,265	-0,016	-0,013
-67,665	78,555	0,096	-0,073
-66,651	298,206	-0,030	0,039
-65,636	32,109	-0,061	-0,037
-64,622	60,750	-0,131	-0,092
-63,607	-178,675	-0,126	-0,002
-62,592	800,000	-0,031	-0,072
-61,578	-200,000	-0,015	0,067
-60,563	-120,316	0,093	0,011
-59,549	-200,000	-0,007	-0,056
-58,534	10,927	-1,500	-0,810
-57,519	371,485	-1,428	-2,060
-56,505	-200,000	-0,458	-4,494
-55,490	195,657	0,821	0,886
-54,476	800,000	5,068	11,430
-53,461	-200,000	18,675	304,585
-52,446	800,000	737,204	2294,717
-51,432	567,517	1653,256	2856,467
-50,417	78,869	1669,250	1264,779
-49,403	22,070	1542,224	889,476
-48,388	15,995	1464,948	815,382
-47,373	17,799	1455,166	818,622
-46,359	16,901	1445,309	808,738
-45,344	14,253	1440,644	793,413
-44,330	14,192	1438,688	792,015
-43,315	14,170	1436,994	790,944
-42,300	14,168	1435,341	789,995
-41,286	14,247	1433,994	789,599
-40,271	14,211	1432,743	788,707
-39,257	14,176	1431,791	787,986
-38,242	14,229	1430,136	787,296
-37,227	14,258	1429,070	786,813
-36,213	14,237	1427,804	785,985
-35,198	14,236	1426,594	785,286
-34,184	14,260	1425,887	784,976
-33,169	14,233	1424,361	783,978
-32,154	14,246	1423,255	783,403
-31,140	14,261	1422,048	782,775
-30,125	14,272	1420,917	782,175
-29,111	14,241	1419,789	781,377
-28,096	14,213	1418,611	780,567
-27,082	14,177	1417,623	779,822
-26,067	14,175	1416,577	779,204
-25,052	14,166	1415,637	778,614
-24,038	14,188	1414,441	778,030
-23,023	14,122	1413,507	777,176
-22,009	14,118	1412,577	776,613
-20,994	14,094	1411,684	775,980
-19,979	14,147	1410,530	775,564
-18,965	14,100	1409,797	774,908
-17,950	14,077	1408,879	774,263
-16,936	14,095	1407,887	773,775
-15,921	14,043	1406,732	772,863
-14,906	14,046	1405,896	772,387
-13,892	14,069	1405,079	772,016
-12,877	14,066	1404,305	771,546
-11,863	14,044	1403,404	770,920
-10,848	14,078	1402,070	770,314
-9,833	13,998	1401,577	769,637
-8,819	13,973	1400,504	768,902
-7,804	13,975	1399,737	768,460
-6,790	13,977	1398,448	767,734
-5,775	13,914	1397,616	766,953
-4,760	13,976	1396,582	766,642
-3,746	13,935	1395,881	766,037
-2,731	13,939	1394,897	765,482
-1,717	13,951	1393,905	764,968
-0,702	13,935	1392,173	763,911
0,313	17,738	1310,638	736,820
1,327	33,986	705,897	434,518
2,342	52,056	124,032	83,557
3,356	2,901	16,678	8,547
4,371	6,694	3,190	1,675
5,386	-83,758	0,600	0,134
6,400	196,673	0,099	0,107
7,415	120,859	-0,161	-0,142
8,429	164,103	-0,272	-0,271
9,444	215,545	-0,202	-0,227
10,459	68,932	-0,325	-0,236
11,473	490,404	-0,153	-0,248
12,488	34,489	-0,327	-0,202
13,502	-0,230	-0,302	-0,151
14,517	110,100	-0,279	-0,237
15,531	124,352	-0,256	-0,228
16,546	249,419	-0,229	-0,275
17,561	83,790	-0,304	-0,235
18,575	-194,399	-0,214	-0,001
19,590	-6,621	-0,227	-0,109
20,604	-37,883	-0,217	-0,081
21,619	75,341	-0,494	-0,368
22,634	349,491	-0,317	-0,444
23,648	35,350	-0,436	-0,270
24,663	274,405	-0,305	-0,382
25,677	22,741	-0,364	-0,210
26,692	96,057	-0,357	-0,288
27,707	206,470	-0,267	-0,294
28,721	272,952	-0,260	-0,326
29,736	86,313	-0,355	-0,276
30,750	281,592	-0,307	-0,389
31,765	86,402	-0,412	-0,320
32,780	223,385	-0,289	-0,330
33,794	297,105	-0,270	-0,351
34,809	52,641	-0,414	-0,279
35,823	-64,607	-0,444	-0,126
36,838	27,978	-0,502	-0,298
37,853	167,077	-0,274	-0,275
38,867	91,917	-0,278	-0,221
39,882	61,893	-0,355	-0,249
40,896	27,321	-0,389	-0,230
41,911	-71,260	-0,375	-0,099
42,926	-12,264	-0,381	-0,175
43,940	40,645	-0,479	-0,304
44,955	34,171	-0,394	-0,242
45,969	59,283	-0,370	-0,257
46,984	27,058	-0,396	-0,234
47,999	76,654	-0,276	-0,206
49,013	85,362	-0,248	-0,192
50,028	800,000	-0,135	-0,327
51,042	145,237	-0,401	-0,379
52,057	190,444	-0,285	-0,303
53,071	58,632	-0,425	-0,294
54,086	-42,913	-0,341	-0,121
55,101	156,642	-0,250	-0,244
56,115	90,792	-0,361	-0,285
57,130	-93,205	-0,392	-0,076
58,144	87,186	-0,391	-0,304
59,159	17,202	-0,391	-0,218
60,174	35,481	-0,326	-0,201
61,188	169,855	-0,287	-0,289
62,203	298,460	-0,275	-0,357
63,217	2,438	-0,338	-0,172
64,232	-77,436	-0,381	-0,093
65,247	2,600	-0,337	-0,172
66,261	85,966	-0,376	-0,291
67,276	109,558	-0,332	-0,280
68,290	27,255	-0,437	-0,258
69,305	13,343	-0,466	-0,254
70,320	9,090	-0,393	-0,209
71,334	39,721	-0,350	-0,221
72,349	-17,679	-0,367	-0,162
73,363	71,214	-0,398	-0,290
74,378	48,191	-0,432	-0,284
75,393	180,573	-0,277	-0,287
76,407	113,749	-0,246	-0,210
77,422	-92,530	-0,398	-0,078
78,436	-43,480	-0,346	-0,122
79,451	172,613	-0,226	-0,229
80,466	90,862	-0,284	-0,224
81,480	8,117	-0,440	-0,231
82,495	224,899	-0,187	-0,213
83,509	-85,863	-0,322	-0,070
84,524	118,089	-0,213	-0,185
85,539	57,826	-0,278	-0,191
86,553	16,586	-0,362	-0,201
87,568	168,579	-0,232	-0,233
88,582	-35,471	-0,349	-0,132
89,597	345,957	-0,251	-0,348
90,611	11,986	-0,330	-0,178
91,626	58,556	-0,290	-0,200
92,641	8,822	-0,302	-0,159
93,655	17,943	-0,257	-0,143
94,670	22,180	-0,312	-0,179
95,684	42,813	-0,258	-0,165
96,699	51,746	-0,278	-0,185
97,714	55,740	-0,245	-0,167
98,728	-67,901	-0,247	-0,067
99,743	20,645	-0,305	-0,173
100,757	110,492	-0,214	-0,180
101,772	73,881	-0,278	-0,204
102,787	82,141	-0,392	-0,298
103,801	-17,130	-0,325	-0,144
104,816	45,471	-0,338	-0,218
105,830	42,431	-0,304	-0,194
106,845	-63,806	-0,298	-0,085
107,860	231,759	-0,174	-0,200
108,874	21,801	-0,279	-0,159
109,889	3,598	-0,313	-0,160
110,903	604,109	-0,182	-0,320
111,918	-35,513	-0,246	-0,093
112,933	169,543	-0,272	-0,272
113,947	-96,663	-0,192	-0,035
114,962	-166,991	-0,167	0,005
115,976	83,624	-0,307	-0,234
116,991	-31,212	-0,373	-0,147
118,006	-95,992	-0,210	-0,039
119,020	178,738	-0,273	-0,279
120,035	147,172	-0,144	-0,136
121,049	326,197	-0,158	-0,213
122,064	236,635	-0,196	-0,227
123,079	30,941	-0,278	-0,167
124,093	152,422	-0,275	-0,264
125,108	-16,608	-0,330	-0,146
126,122	214,352	-0,194	-0,215
127,137	174,859	-0,199	-0,202
128,151	660,561	-0,135	-0,245
129,166	422,691	-0,146	-0,220
130,181	255,509	-0,168	-0,202
131,195	41,967	-0,310	-0,196
132,210	36,468	-0,225	-0,139
133,224	95,504	-0,089	-0,071
134,239	-68,818	-0,217	-0,058
135,254	93,850	-0,220	-0,174
136,268	35,632	-0,210	-0,129
137,283	110,718	-0,356	-0,300
138,297	-29,161	-0,389	-0,155
139,312	-20,891	-0,310	-0,133
140,327	564,405	-0,148	-0,252
141,341	-26,382	-0,238	-0,097
142,356	-20,578	-0,239	-0,102
143,370	-6,366	-0,267	-0,127
144,385	93,140	-0,294	-0,233
145,400	800,000	-0,119	-0,246
146,414	14,017	-0,295	-0,160
147,429	108,018	-0,299	-0,249
148,443	-58,504	-0,285	-0,086
149,458	35,099	-0,254	-0,155
150,473	-163,769	-0,178	0,006
151,487	121,348	-0,267	-0,232
152,502	179,660	-0,116	-0,119
153,516	61,082	-0,150	-0,104
154,531	597,944	-0,187	-0,326
155,546	343,287	-0,202	-0,278
156,560	123,985	-0,227	-0,199
157,575	-135,660	-0,291	0,024
158,589	150,784	-0,097	-0,093
159,604	13,839	-0,246	-0,133
160,619	339,813	-0,312	-0,427
161,633	58,839	-0,237	-0,162
162,648	147,990	-0,258	-0,243
163,662	-13,375	-0,184	-0,083
164,677	-64,017	-0,254	-0,072
165,692	-80,052	-0,349	-0,081
166,706	152,646	-0,281	-0,268
167,721	-75,172	-0,252	-0,062
168,735	1,137	-0,228	-0,114
169,750	-0,464	-0,208	-0,103
170,764	-140,303	-0,227	0,016
171,779	56,095	-0,205	-0,139
172,794	83,534	-0,128	-0,097
173,808	117,450	-0,155	-0,133
174,823	-164,570	-0,153	0,005
175,837	157,342	-0,266	-0,257
176,852	337,899	-0,209	-0,284
177,867	-16,112	-0,186	-0,082
178,881	27,876	-0,210	-0,123
179,896	37,232	-0,277	-0,171
180,910	-61,310	-0,088	-0,026
181,925	-115,051	-0,325	-0,042
182,940	88,370	-0,301	-0,233
183,954	-25,865	-0,324	-0,133
184,969	-0,481	-0,221	-0,109
185,983	-167,378	-0,215	0,006
186,998	25,440	-0,223	-0,129
188,013	169,048	-0,188	-0,187
189,027	163,277	-0,238	-0,233
190,042	233,464	-0,151	-0,173
191,056	41,257	-0,216	-0,136
192,071	125,346	-0,178	-0,156
193,086	175,821	-0,119	-0,120
194,100	108,634	-0,100	-0,083
195,115	144,238	-0,258	-0,240
196,129	52,690	-0,343	-0,228
197,144	0,198	-0,346	-0,171
198,159	-185,774	-0,229	0,002
199,173	800,000	-0,135	-0,300
200,188	35,170	-0,145	-0,088
201,202	250,886	-0,160	-0,190
202,217	775,846	-0,122	-0,232
203,232	-45,159	-0,370	-0,127
204,246	240,422	-0,267	-0,311
205,261	-3,046	-0,148	-0,072
206,275	59,241	-0,122	-0,084
207,290	19,736	-0,214	-0,120
208,304	45,312	-0,218	-0,139
209,319	-40,007	-0,188	-0,068
210,334	51,479	-0,160	0,105
211,348	230,244	-0,088	-0,101
212,363	9,453	-0,240	-0,126
213,377	250,772	-0,074	-0,088
214,392	-2,398	-0,227	-0,110
215,407	287,349	-0,050	-0,063
216,421	800,000	-0,061	-0,143
217,436	800,000	-0,133	-0,348
218,450	169,599	-0,306	-0,304
219,465	31,814	-0,228	-0,136
220,480	69,747	-0,280	-0,200
221,494	-107,656	-0,114	-0,017
222,509	273,119	-0,112	-0,138
223,523	-41,168	-0,142	-0,051
224,538	-139,840	-0,159	-0,012
225,553	157,644	-0,199	-0,192
226,567	128,459	-0,159	-0,141
227,582	105,275	-0,182	-0,149
228,596	566,107	-0,136	-0,231
229,611	800,000	-0,101	-0,225
230,626	151,923	-0,110	-0,104
231,640	56,761	-0,158	-0,107
232,655	-30,040	-0,263	-0,103
233,669	-3,532	-0,276	-0,133
234,684	800,000	-0,087	-0,182
235,699	111,475	-0,121	-0,101
236,713	-34,752	-0,183	-0,069
237,728	-21,148	-0,115	-0,048
238,742	-81,758	-0,213	0,048
239,757	785,925	-0,093	-0,178
240,772	141,158	-0,224	-0,206
241,786	56,525	-0,250	-0,169
242,801	48,459	-0,145	-0,094
243,815	235,379	-0,168	-0,193
244,830	-70,329	-0,222	-0,058
245,844	63,890	-0,156	-0,109
246,859	316,527	-0,207	-0,272
247,874	41,401	-0,175	-0,109
248,888	49,792	-0,195	-0,127
249,903	-103,365	-0,265	-0,043
250,917	-14,142	-0,260	0,116
251,932	-90,558	-0,147	0,029
252,947	-88,218	-0,348	-0,072
253,961	30,678	-0,221	-0,131
254,976	134,838	-0,202	-0,182
255,990	-200,000	-0,057	-0,227
257,005	266,574	-0,016	-0,020
258,020	5,803	-0,187	-0,095
259,034	120,201	-0,177	-0,152
260,049	-100,185	-0,258	-0,044
261,063	-184,587	-0,055	0,001
262,078	36,537	-0,143	-0,087
263,093	668,979	-0,065	-0,118
264,107	113,417	-0,164	-0,138
265,122	183,090	-0,173	-0,177
266,136	102,702	-0,219	-0,177
267,151	-33,985	-0,244	-0,093
268,166	-113,664	-0,246	-0,033
269,180	229,948	-0,186	-0,211
270,195	457,651	-0,136	-0,209
271,209	-46,140	-0,211	-0,071
272,224	191,355	-0,140	-0,145
273,239	-123,383	-0,132	-0,014
274,253	-67,423	-0,131	-0,035
275,268	315,020	-0,211	-0,276
276,282	-103,238	-0,216	-0,035
277,297	93,360	-0,138	-0,108
278,312	113,765	-0,193	-0,162
279,326	-56,063	-0,174	-0,053
280,341	-101,706	-0,210	0,035
281,355	20,216	-0,087	-0,049
282,370	800,000	-0,054	-0,117
283,384	-32,678	-0,223	-0,085
284,399	-200,000	-0,046	-0,148
285,414	-156,769	-0,167	-0,007
286,428	15,639	-0,175	-0,095
287,443	-120,656	-0,119	-0,014
288,457	159,319	-0,167	-0,160
289,472	-45,248	-0,260	-0,089
290,487	-59,919	-0,145	-0,043
291,501	-28,911	-0,183	-0,072
292,516	27,766	-0,197	-0,114
293,530	107,937	-0,217	-0,178
294,545	35,039	-0,097	0,058
295,560	-141,215	-0,144	-0,010
296,574	-49,338	-0,086	0,028
297,589	-118,904	-0,268	-0,032
298,603	-50,089	-0,189	-0,061
299,618	-11,795	-0,251	-0,113
300,633	465,140	-0,117	-0,181
301,647	782,400	-0,127	-0,242
302,662	39,510	-0,072	0,045
303,676	314,723	-0,156	-0,203
304,691	230,649	-0,152	-0,172
305,706	189,003	-0,103	-0,106
306,720	523,202	-0,181	-0,295
307,735	230,026	-0,133	-0,150
308,749	800,000	-0,101	-0,203
309,764	-32,589	-0,117	0,045
310,779	-26,454	-0,232	-0,093
311,793	185,869	-0,188	-0,193
312,808	18,584	-0,295	-0,162
313,822	-21,165	-0,206	-0,086
314,837	37,174	-0,138	-0,084
315,852	-21,845	-0,142	-0,059
316,866	425,545	-0,137	-0,204
317,881	-200,000	-0,021	-0,071
318,895	151,831	-0,180	-0,169
319,910	-14,750	-0,175	0,077
320,925	15,269	-0,085	-0,046
321,939	169,216	-0,081	-0,079
322,954	-52,038	-0,171	-0,054
323,968	-9,654	-0,144	-0,066
324,983	-58,613	-0,087	-0,026
325,997	-39,792	-0,231	-0,083
327,012	129,857	-0,120	-0,106
328,027	-18,823	-0,173	-0,074
329,041	800,000	-0,097	-0,188
330,056	671,376	-0,101	-0,181
331,070	39,652	-0,206	-0,127
332,085	22,318	-0,057	-0,032
333,100	-114,393	-0,149	-0,020
334,114	-91,538	-0,126	-0,024
335,129	-108,266	-0,271	-0,040
336,143	101,714	-0,162	-0,130
337,158	437,219	-0,125	-0,188
338,173	800,000	-0,098	-0,199
339,187	562,063	-0,097	-0,161
340,202	-13,755	-0,241	-0,107
341,216	-200,000	-0,032	-0,197
342,231	100,824	-0,191	-0,153
343,246	293,973	-0,092	-0,115
344,260	145,702	-0,082	-0,076
345,275	800,000	-0,043	-0,104
346,289	-28,363	-0,061	0,024
347,304	333,361	-0,085	-0,113
348,319	257,869	-0,161	-0,190
349,333	-200,000	-0,028	-0,087
350,348	108,704	-0,211	-0,173
351,362	-144,789	-0,104	-0,006
352,377	209,395	-0,036	0,039
353,392	321,506	-0,172	-0,226
354,406	91,769	-0,222	-0,172
355,421	208,323	1311,858	1409,984
356,435	160,283	1472,262	1410,477
