DTS Sentinel unit serial number:	SN410029Multiplexer serial number:	ORYXHardware model number:	OX2-SRSoftware version number:	ORYX F/W v4,00 Oryx Data Collector v3.7.2.0data status	okinstallation	B3 Nyhavnadifferential loss correction	single-endedforward channel	channel 1reverse channel	N/Adate	2023/12/01time	23:37:30forward acquisition time	300,00reverse acquisition time	0,00gamma	499,1914k internal	0,3196k external	0,3196temperature offset calibration	1,0000default loss term (dB/km)	0,3820temperature slope calibration	1,0000multiplexer offset coefficient	1,0000multiplexer slope coefficient	1,0000fibre end	0,00T internal ref (°C)	15,94T ext. ref 1 (°C)	1,49T ext. ref 2 (°C)	1,48length (m)	temperature (°C)	Stokes	anti-Stokes-744,400	260,770	-0,228	-0,288
-743,385	-200,000	0,108	0,355
-742,371	599,564	-0,168	-0,305
-741,356	800,000	0,175	0,379
-740,342	-17,502	-0,284	-0,130
-739,327	-200,000	-0,010	0,246
-738,312	86,322	-0,371	-0,298
-737,298	-200,000	0,050	0,208
-736,283	269,418	-0,318	-0,408
-735,269	-200,000	0,026	0,201
-734,254	499,267	-0,220	-0,371
-733,239	128,997	-0,178	0,166
-732,225	800,000	-0,088	-0,264
-731,210	-200,000	0,016	0,061
-730,196	357,471	0,044	-0,065
-729,181	415,437	-0,084	-0,131
-728,167	-200,000	-0,039	-0,219
-727,152	123,888	0,111	-0,101
-726,137	-200,000	-0,004	0,018
-725,123	739,042	-0,076	-0,150
-724,108	617,868	0,017	-0,031
-723,094	-82,011	-0,180	-0,043
-722,079	800,000	-0,020	-0,062
-721,064	-142,117	-0,103	0,007
-720,050	158,179	-0,092	-0,093
-719,035	-20,988	-0,121	-0,054
-718,021	240,622	0,064	-0,077
-717,006	22,279	-0,116	-0,069
-715,991	-200,000	0,015	-0,097
-714,977	-200,000	0,009	-0,161
-713,962	326,276	-0,070	-0,098
-712,948	-27,578	0,038	-0,016
-711,933	-142,171	0,101	-0,007
-710,918	-200,000	-0,029	-0,114
-709,904	-55,603	-0,134	-0,043
-708,889	-200,000	0,021	-0,122
-707,875	-27,618	-0,099	-0,042
-706,860	-200,000	-0,003	-0,029
-705,845	800,000	0,055	0,165
-704,831	17,033	0,059	0,034
-703,816	-200,000	0,027	0,097
-702,802	527,734	0,016	0,028
-701,787	488,468	0,016	0,026
-700,772	-200,000	-0,007	-0,130
-699,758	3,831	-0,104	-0,055
-698,743	-38,826	-0,023	-0,009
-697,729	599,227	-0,055	-0,099
-696,714	74,110	-0,101	0,077
-695,699	13,427	-0,132	-0,074
-694,685	-200,000	0,009	-0,082
-693,670	111,229	-0,058	-0,051
-692,656	800,000	0,027	0,085
-691,641	-48,025	0,069	-0,024
-690,627	119,711	0,041	0,037
-689,612	297,021	0,128	-0,171
-688,597	381,399	-0,031	0,046
-687,583	-71,618	-0,153	-0,041
-686,568	22,801	-0,012	0,007
-685,554	-34,326	-0,112	0,045
-684,539	7,945	-0,004	0,002
-683,524	63,236	0,084	0,061
-682,510	416,482	-0,082	0,127
-681,495	-200,000	-0,008	0,110
-680,481	117,158	-0,152	-0,136
-679,466	290,121	0,031	-0,041
-678,451	-200,000	-0,018	-0,182
-677,437	-17,307	0,093	-0,043
-676,422	-200,000	-0,015	0,064
-675,408	-146,023	-0,030	-0,002
-674,393	800,000	0,031	0,065
-673,378	128,793	0,034	0,032
-672,364	-200,000	0,005	-0,071
-671,349	79,535	0,055	-0,042
-670,335	800,000	-0,042	-0,092
-669,320	303,634	0,027	0,037
-668,305	215,712	0,081	0,093
-667,291	800,000	0,021	-0,062
-666,276	-146,192	-0,065	0,004
-665,262	65,946	-0,085	-0,062
-664,247	-82,282	-0,019	-0,005
-663,232	-200,000	-0,004	0,059
-662,218	-125,582	-0,071	-0,008
-661,203	183,269	0,062	-0,066
-660,189	-72,525	-0,014	0,004
-659,174	-200,000	-0,028	-0,112
-658,159	158,728	-0,076	-0,077
-657,145	-132,307	0,033	0,003
-656,130	156,781	-0,010	-0,010
-655,116	-121,396	0,088	-0,011
-654,101	-73,603	0,101	0,026
-653,086	35,113	-0,130	0,083
-652,072	-2,148	-0,081	0,041
-651,057	-4,533	-0,018	-0,009
-650,043	58,005	0,201	-0,143
-649,028	-200,000	-0,040	-0,147
-648,014	-200,000	0,003	0,051
-646,999	3,487	0,127	0,067
-645,984	-73,712	-0,017	-0,005
-644,970	79,951	-0,101	-0,078
-643,955	-200,000	0,023	0,172
-642,941	-200,000	-0,012	-0,131
-641,926	256,403	-0,086	-0,107
-640,911	-16,208	0,082	-0,038
-639,897	6,314	0,127	0,068
-638,882	-25,214	0,068	-0,029
-637,868	-114,444	0,068	-0,009
-636,853	20,777	-0,201	-0,118
-635,838	-154,436	-0,052	0,002
-634,824	-74,043	0,138	-0,036
-633,809	800,000	-0,035	0,075
-632,795	-200,000	-0,035	0,155
-631,780	-186,938	-0,123	-0,001
-630,765	800,000	-0,031	0,091
-629,751	472,500	0,036	-0,059
-628,736	-137,825	-0,154	-0,012
-627,722	447,656	-0,078	-0,125
-626,707	379,422	0,091	0,135
-625,692	28,691	0,044	0,027
-624,678	-200,000	0,025	-0,099
-623,663	33,958	0,044	-0,028
-622,649	113,981	-0,072	-0,063
-621,634	-200,000	0,028	-0,195
-620,619	150,222	0,047	-0,046
-619,605	-200,000	-0,023	0,213
-618,590	32,184	0,036	0,022
-617,576	82,582	0,164	0,129
-616,561	-46,015	-0,077	0,027
-615,546	-97,628	-0,041	-0,008
-614,532	235,770	-0,066	-0,079
-613,517	-53,192	0,065	-0,022
-612,503	-200,000	-0,014	0,106
-611,488	-200,000	0,013	0,082
-610,474	259,888	0,044	0,056
-609,459	-129,550	-0,055	0,005
-608,444	-78,767	0,021	0,005
-607,430	-200,000	-0,001	0,025
-606,415	-82,867	0,028	-0,007
-605,401	748,882	-0,016	-0,031
-604,386	-200,000	-0,009	-0,073
-603,371	6,153	0,104	0,056
-602,357	-200,000	-0,024	-0,102
-601,342	-43,460	-0,171	-0,062
-600,328	409,989	-0,045	0,070
-599,313	6,403	0,069	0,037
-598,298	-30,015	0,053	-0,022
-597,284	127,756	0,071	-0,065
-596,269	-200,000	0,005	0,054
-595,255	800,000	0,038	-0,091
-594,240	324,175	-0,083	0,115
-593,225	-31,004	-0,079	-0,032
-592,211	800,000	-0,017	-0,050
-591,196	100,496	0,041	-0,034
-590,182	-196,444	-0,173	0,001
-589,167	-200,000	0,003	0,103
-588,152	-49,074	0,071	-0,024
-587,138	-104,976	-0,059	-0,010
-586,123	-79,210	-0,151	-0,037
-585,109	-200,000	-0,033	-0,132
-584,094	97,713	0,042	-0,035
-583,079	-83,897	0,091	0,021
-582,065	-51,571	-0,028	0,010
-581,050	-148,863	-0,122	-0,007
-580,036	-200,000	0,000	-0,007
-579,021	-200,000	0,011	-0,094
-578,006	800,000	0,025	0,055
-576,992	-200,000	0,020	-0,074
-575,977	92,922	0,054	-0,044
-574,963	-191,501	0,110	-0,001
-573,948	800,000	-0,009	0,022
-572,934	87,069	0,020	-0,016
-571,919	-200,000	-0,002	0,016
-570,904	153,794	0,019	0,019
-569,890	90,532	-0,116	0,094
-568,875	-0,681	-0,055	-0,028
-567,861	-58,628	0,082	0,026
-566,846	-14,327	0,028	-0,013
-565,831	178,196	-0,071	-0,075
-564,817	-200,000	-0,011	0,038
-563,802	-165,509	-0,110	0,003
-562,788	-200,000	-0,002	-0,082
-561,773	-200,000	-0,016	0,054
-560,758	-200,000	0,005	0,129
-559,744	269,169	0,055	-0,070
-558,729	331,274	-0,006	0,009
-557,715	438,073	-0,066	-0,104
-556,700	800,000	0,099	-0,222
-555,685	19,068	-0,195	-0,113
-554,671	-200,000	-0,023	-0,093
-553,656	556,242	0,029	0,052
-552,642	-200,000	-0,008	0,129
-551,627	-113,182	0,060	0,008
-550,612	800,000	-0,004	0,009
-549,598	360,331	-0,050	-0,072
-548,583	507,913	0,084	0,142
-547,569	10,532	-0,044	-0,024
-546,554	-200,000	0,017	0,093
-545,539	800,000	0,030	0,069
-544,525	-200,000	0,000	-0,012
-543,510	-89,663	-0,069	-0,014
-542,496	-126,110	-0,039	0,004
-541,481	800,000	-0,050	0,104
-540,466	-200,000	0,040	-0,171
-539,452	-1,051	0,046	0,024
-538,437	-139,486	0,061	0,005
-537,423	-200,000	-0,005	0,062
-536,408	106,220	0,102	0,087
-535,393	283,920	-0,077	-0,101
-534,379	-200,000	-0,037	-0,123
-533,364	-200,000	-0,020	-0,153
-532,350	135,673	-0,091	0,086
-531,335	-7,301	0,068	-0,033
-530,321	-47,410	-0,022	-0,008
-529,306	19,628	0,085	0,050
-528,291	138,876	-0,098	0,093
-527,277	800,000	0,018	0,043
-526,262	-104,189	0,113	-0,019
-525,248	-200,000	0,049	0,170
-524,233	-200,000	-0,005	-0,049
-523,218	-200,000	-0,010	-0,065
-522,204	-200,000	-0,014	-0,068
-521,189	800,000	-0,031	-0,083
-520,175	800,000	-0,012	0,035
-519,160	-57,865	-0,055	0,017
-518,145	800,000	-0,043	0,087
-517,131	69,669	0,102	0,076
-516,116	-72,353	-0,053	-0,014
-515,102	-97,072	0,066	-0,012
-514,087	-50,698	-0,247	0,083
-513,072	-200,000	-0,018	-0,096
-512,058	-22,967	0,111	0,048
-511,043	-18,372	0,136	0,061
-510,029	800,000	-0,036	-0,080
-509,014	-18,629	0,081	0,036
-507,999	116,597	-0,060	-0,053
-506,985	800,000	-0,060	-0,124
-505,970	197,415	0,049	-0,054
-504,956	351,502	-0,054	-0,077
-503,941	307,867	0,087	-0,118
-502,926	394,020	0,017	-0,025
-501,912	264,826	-0,030	-0,037
-500,897	-200,000	-0,003	0,064
-499,883	-30,739	-0,042	-0,017
-498,868	800,000	0,082	-0,172
-497,853	14,113	-0,046	-0,026
-496,839	800,000	-0,035	-0,087
-495,824	-17,010	-0,043	0,020
-494,810	277,357	0,042	0,054
-493,795	349,977	0,036	0,051
-492,781	-108,866	-0,051	-0,008
-491,766	-100,349	-0,111	0,020
-490,751	174,405	0,045	-0,047
-489,737	13,710	-0,149	-0,083
-488,722	796,057	0,049	0,097
-487,708	533,086	-0,034	0,059
-486,693	157,602	-0,034	0,034
-485,678	335,149	-0,065	-0,091
-484,664	-75,954	0,053	-0,013
-483,649	350,309	-0,128	0,184
-482,635	-200,000	0,008	0,034
-481,620	-127,046	-0,057	0,006
-480,605	-22,986	0,081	0,035
-479,591	800,000	0,013	-0,034
-478,576	159,276	-0,080	-0,080
-477,562	361,676	0,014	0,020
-476,547	-135,960	-0,181	-0,015
-475,532	-200,000	-0,009	-0,059
-474,518	97,321	-0,068	0,056
-473,503	800,000	0,041	0,098
-472,489	-200,000	0,010	-0,096
-471,474	-200,000	0,005	0,082
-470,459	322,813	-0,024	0,033
-469,445	-200,000	-0,037	-0,156
-468,430	-54,699	-0,044	-0,014
-467,416	800,000	0,054	-0,129
-466,401	386,848	-0,039	-0,058
-465,386	-91,017	-0,088	0,018
-464,372	108,859	0,057	-0,049
-463,357	-121,488	-0,033	0,004
-462,343	800,000	0,010	-0,029
-461,328	47,644	-0,040	0,027
-460,313	34,095	-0,043	0,027
-459,299	-200,000	0,003	0,124
-458,284	-200,000	-0,007	0,066
-457,270	-172,167	-0,072	-0,002
-456,255	-140,952	-0,147	-0,011
-455,241	800,000	-0,031	-0,091
-454,226	448,614	0,068	0,108
-453,211	164,148	0,049	-0,050
-452,197	800,000	0,035	0,107
-451,182	288,457	0,083	0,108
-450,168	-195,900	-0,073	-0,000
-449,153	-48,482	-0,066	-0,023
-448,138	305,398	-0,153	-0,206
-447,124	-200,000	0,000	-0,162
-446,109	47,224	-0,072	0,048
-445,095	-200,000	-0,012	0,062
-444,080	800,000	-0,025	0,058
-443,065	40,942	0,054	0,035
-442,051	684,763	-0,052	0,098
-441,036	50,102	0,083	-0,056
-440,022	41,351	-0,081	-0,052
-439,007	-36,964	-0,064	0,024
-437,992	-200,000	0,017	0,058
-436,978	800,000	0,007	-0,020
-435,963	217,960	-0,075	0,087
-434,949	106,439	-0,100	-0,085
-433,934	-200,000	0,019	0,083
-432,919	800,000	0,073	0,179
-431,905	-86,982	0,102	-0,022
-430,890	51,039	0,097	-0,066
-429,876	-200,000	-0,025	0,136
-428,861	166,025	-0,095	0,097
-427,846	-10,789	-0,074	0,035
-426,832	-149,739	-0,015	0,001
-425,817	330,375	-0,132	-0,184
-424,803	-200,000	-0,020	0,082
-423,788	-53,642	0,038	-0,013
-422,773	138,525	0,032	0,030
-421,759	-55,350	0,090	-0,029
-420,744	-44,625	0,099	-0,035
-419,730	800,000	0,043	0,128
-418,715	153,163	-0,075	-0,074
-417,701	225,497	0,028	-0,033
-416,686	-200,000	0,026	-0,113
-415,671	-200,000	0,016	0,102
-414,657	56,239	0,055	-0,038
-413,642	-200,000	-0,019	0,120
-412,628	260,957	-0,108	0,135
-411,613	-200,000	-0,019	-0,089
-410,598	7,551	-0,055	0,029
-409,584	11,168	-0,049	-0,027
-408,569	563,656	0,008	-0,014
-407,555	800,000	0,038	-0,080
-406,540	-92,474	-0,001	-0,000
-405,525	775,576	-0,027	0,054
-404,511	-73,196	0,095	0,025
-403,496	-200,000	-0,018	-0,161
-402,482	800,000	0,050	0,111
-401,467	38,161	0,077	-0,049
-400,452	-200,000	-0,004	-0,073
-399,438	317,453	-0,062	-0,085
-398,423	800,000	-0,031	0,094
-397,409	800,000	-0,011	0,022
-396,394	-200,000	-0,036	-0,118
-395,379	63,244	0,033	-0,024
-394,365	-34,656	0,054	0,021
-393,350	-81,579	0,118	-0,028
-392,336	136,006	0,062	0,058
-391,321	573,343	-0,062	0,110
-390,306	-135,452	-0,078	-0,007
-389,292	-200,000	-0,011	-0,111
-388,277	304,548	-0,035	-0,047
-387,263	116,758	0,052	0,045
-386,248	-200,000	0,061	0,214
-385,233	-32,661	-0,029	-0,012
-384,219	12,519	0,044	-0,025
-383,204	69,709	0,107	-0,079
-382,190	321,881	-0,052	-0,071
-381,175	-200,000	-0,009	0,079
-380,160	-183,363	-0,052	0,001
-379,146	258,202	0,055	-0,068
-378,131	100,725	0,045	0,038
-377,117	-182,640	-0,172	-0,002
-376,102	800,000	0,002	-0,005
-375,088	-200,000	0,032	-0,200
-374,073	605,539	-0,040	0,071
-373,058	-54,452	0,052	0,017
-372,044	75,172	0,069	0,052
-371,029	-99,381	0,100	0,018
-370,015	800,000	0,064	0,148
-369,000	-18,727	-0,024	0,011
-367,985	-200,000	-0,004	-0,141
-366,971	-54,214	-0,074	0,024
-365,956	-200,000	0,005	0,082
-364,942	-139,887	0,164	-0,012
-363,927	-200,000	0,013	0,225
-362,912	207,769	-0,018	-0,020
-361,898	-200,000	-0,057	-0,212
-360,883	-152,428	0,126	-0,006
-359,869	136,162	0,087	-0,082
-358,854	-200,000	0,020	-0,104
-357,839	3,934	0,138	-0,072
-356,825	576,242	-0,058	-0,102
-355,810	-13,205	0,044	-0,020
-354,796	-200,000	0,007	0,056
-353,781	348,512	0,035	0,050
-352,766	25,652	-0,091	0,054
-351,752	611,535	0,019	-0,033
-350,737	800,000	0,018	0,040
-349,723	415,212	0,053	-0,081
-348,708	265,755	-0,014	0,018
-347,693	-18,484	0,030	-0,013
-346,679	-200,000	-0,015	-0,105
-345,664	627,132	-0,015	0,027
-344,650	37,522	0,075	0,048
-343,635	-26,187	-0,077	0,032
-342,620	51,983	0,042	0,028
-341,606	-78,452	0,085	-0,021
-340,591	-79,992	0,086	0,021
-339,577	-200,000	-0,002	-0,113
-338,562	212,305	-0,046	0,053
-337,548	-0,383	0,057	-0,029
-336,533	-77,188	0,094	0,023
-335,518	197,774	0,099	0,109
-334,504	284,963	0,029	-0,037
-333,489	784,093	-0,023	-0,045
-332,475	-97,761	-0,046	0,008
-331,460	129,921	-0,101	-0,093
-330,445	-81,196	0,051	-0,012
-329,431	-57,610	0,063	0,020
-328,416	-200,000	-0,007	0,144
-327,402	342,889	-0,098	0,138
-326,387	124,312	0,120	-0,108
-325,372	57,906	-0,127	-0,089
-324,358	800,000	0,008	0,016
-323,343	312,769	-0,049	0,067
-322,329	-99,372	-0,037	0,007
-321,314	-200,000	0,020	0,069
-320,299	800,000	0,026	0,076
-319,285	196,399	0,101	0,111
-318,270	-105,509	-0,051	0,008
-317,256	79,415	-0,080	-0,061
-316,241	451,037	0,089	0,142
-315,226	800,000	0,046	0,122
-314,212	-43,446	0,174	0,063
-313,197	272,043	-0,042	-0,053
-312,183	-200,000	0,012	0,069
-311,168	-200,000	0,005	0,105
-310,153	-45,084	-0,053	0,019
-309,139	-115,216	-0,110	0,015
-308,124	-43,771	0,027	-0,010
-307,110	-5,061	0,091	-0,045
-306,095	800,000	0,019	-0,060
-305,080	-200,000	-0,009	0,141
-304,066	62,747	-0,101	0,072
-303,051	-200,000	-0,007	0,073
-302,037	-178,446	-0,091	0,001
-301,022	-23,292	0,095	-0,041
-300,008	-200,000	0,018	0,095
-298,993	99,966	0,040	0,033
-297,978	-200,000	-0,015	0,049
-296,964	800,000	0,049	-0,131
-295,949	-200,000	-0,000	-0,106
-294,935	311,892	-0,051	-0,068
-293,920	800,000	-0,007	-0,021
-292,905	-128,344	0,151	0,015
-291,891	-30,272	0,070	0,028
-290,876	-9,926	0,150	0,071
-289,862	140,358	-0,116	0,109
-288,847	88,584	0,006	0,005
-287,832	67,941	0,110	-0,080
-286,818	25,920	0,177	0,105
-285,803	-200,000	0,014	-0,089
-284,789	167,785	0,083	-0,084
-283,774	166,646	-0,105	0,106
-282,759	800,000	-0,037	0,108
-281,745	-117,017	-0,056	-0,007
-280,730	-200,000	0,050	0,177
-279,716	800,000	-0,029	0,061
-278,701	106,543	0,073	-0,062
-277,686	-200,000	0,002	-0,048
-276,672	-141,640	-0,070	-0,005
-275,657	129,538	0,095	-0,087
-274,643	58,975	-0,142	-0,100
-273,628	56,308	-0,068	-0,047
-272,613	800,000	0,051	-0,116
-271,599	-147,450	0,125	0,007
-270,584	-200,000	0,004	0,057
-269,570	800,000	-0,052	0,111
-268,555	800,000	0,032	0,063
-267,540	-200,000	0,008	-0,036
-266,526	92,673	-0,075	-0,061
-265,511	-54,718	-0,071	0,023
-264,497	-200,000	-0,002	-0,057
-263,482	-200,000	0,021	0,075
-262,467	-81,863	0,026	0,006
-261,453	43,961	0,063	0,041
-260,438	25,881	-0,091	0,054
-259,424	31,405	0,087	-0,054
-258,409	-12,946	0,060	-0,028
-257,395	-190,687	-0,053	0,000
-256,380	546,335	0,025	0,043
-255,365	489,734	-0,022	0,036
-254,351	523,179	0,024	0,040
-253,336	-42,094	-0,108	0,039
-252,322	-114,875	-0,092	-0,012
-251,307	800,000	-0,026	-0,061
-250,292	737,476	-0,094	-0,181
-249,278	186,259	0,034	0,037
-248,263	-138,406	0,084	-0,006
-247,249	-126,859	0,032	-0,003
-246,234	-200,000	0,036	0,202
-245,219	282,240	0,072	0,093
-244,205	-200,000	0,000	-0,031
-243,190	666,521	0,066	0,122
-242,176	44,674	0,104	0,068
-241,161	-200,000	-0,017	0,086
-240,146	176,661	-0,047	-0,049
-239,132	326,004	-0,082	-0,112
-238,117	60,026	-0,102	-0,072
-237,103	-50,033	-0,067	0,023
-236,088	-14,841	0,022	0,010
-235,073	233,041	0,077	0,091
-234,059	75,223	-0,039	-0,029
-233,044	-48,687	0,047	-0,016
-232,030	196,094	-0,034	-0,037
-231,015	-65,444	0,036	-0,010
-230,000	-200,000	-0,002	-0,106
-228,986	525,579	-0,086	-0,145
-227,971	27,203	-0,075	-0,045
-226,957	-200,000	0,013	0,084
-225,942	800,000	0,022	0,058
-224,927	-200,000	0,018	0,076
-223,913	48,536	-0,067	0,045
-222,898	800,000	0,014	-0,040
-221,884	41,773	0,077	-0,050
-220,869	-58,948	0,069	0,021
-219,855	-96,404	-0,109	0,020
-218,840	-200,000	0,041	0,167
-217,825	84,644	0,063	0,049
-216,811	-200,000	0,010	-0,147
-215,796	-200,000	0,003	-0,034
-214,782	-12,592	0,120	-0,056
-213,767	-139,580	0,072	0,005
-212,752	800,000	0,030	0,074
-211,738	226,631	-0,013	-0,015
-210,723	-3,836	-0,071	0,035
-209,709	-200,000	0,038	-0,144
-208,694	-200,000	0,010	-0,128
-207,679	-200,000	0,015	-0,131
-206,665	415,839	0,033	0,050
-205,650	-84,342	0,023	-0,005
-204,636	479,798	0,122	0,198
-203,621	800,000	-0,051	-0,115
-202,606	67,966	-0,046	0,033
-201,592	-180,080	-0,096	-0,001
-200,577	800,000	0,006	0,016
-199,563	122,812	-0,136	-0,122
-198,548	128,923	-0,040	0,036
-197,533	117,157	0,061	0,054
-196,519	49,504	-0,044	0,029
-195,504	800,000	-0,030	0,080
-194,490	276,924	-0,035	-0,044
-193,475	800,000	0,051	-0,107
-192,460	-107,601	-0,042	0,007
-191,446	-200,000	0,017	-0,094
-190,431	-200,000	0,022	0,070
-189,417	-200,000	0,005	0,125
-188,402	169,279	-0,050	-0,051
-187,387	19,182	-0,109	0,062
-186,373	-53,110	0,112	0,036
-185,358	47,099	-0,040	0,026
-184,344	6,188	0,148	-0,078
-183,329	800,000	-0,036	0,106
-182,315	36,478	0,083	0,052
-181,300	35,304	0,074	-0,046
-180,285	-200,000	-0,003	-0,029
-179,271	-43,139	-0,081	-0,029
-178,256	208,171	-0,017	-0,019
-177,242	105,896	0,061	0,051
-176,227	432,032	-0,063	-0,098
-175,212	129,945	0,112	0,102
-174,198	124,538	-0,038	0,034
-173,183	-97,532	0,050	-0,009
-172,169	-200,000	-0,019	-0,176
-171,154	156,349	0,062	0,061
-170,139	638,026	0,072	-0,131
-169,125	-41,178	-0,060	0,022
-168,110	135,739	0,026	-0,025
-167,096	454,111	0,007	-0,011
-166,081	153,898	-0,104	0,102
-165,066	765,089	-0,117	-0,226
-164,052	-200,000	-0,020	-0,075
-163,037	33,121	0,107	0,066
-162,023	-96,367	-0,104	-0,019
-161,008	87,917	0,087	-0,069
-159,993	-43,002	-0,014	-0,005
-158,979	-145,989	-0,044	-0,003
-157,964	89,951	0,027	0,022
-156,950	41,291	-0,111	0,071
-155,935	-31,230	0,119	-0,047
-154,920	274,482	0,018	-0,023
-153,906	-33,554	0,191	0,075
-152,891	6,758	-0,082	0,043
-151,877	800,000	0,045	-0,135
-150,862	-129,140	-0,053	-0,005
-149,847	-200,000	-0,033	-0,105
-148,833	-31,059	0,166	-0,066
-147,818	-123,457	0,125	0,014
-146,804	107,969	-0,042	0,036
-145,789	800,000	-0,034	0,101
-144,775	800,000	0,030	-0,081
-143,760	-48,409	-0,092	0,031
-142,745	284,045	0,049	-0,063
-141,731	333,340	0,075	-0,103
-140,716	-200,000	0,004	0,032
-139,702	-200,000	0,147	0,000
-138,687	116,368	0,035	-0,030
-137,672	30,345	-0,104	-0,063
-136,658	-80,689	-0,016	-0,004
-135,643	800,000	-0,036	0,109
-134,629	-42,387	0,088	0,032
-133,614	-200,000	-0,004	0,031
-132,599	800,000	-0,027	-0,062
-131,585	-200,000	-0,008	0,053
-130,570	16,273	0,023	-0,013
-129,556	-17,430	0,053	-0,024
-128,541	-200,000	-0,025	-0,091
-127,526	546,920	-0,007	-0,012
-126,512	357,382	0,052	0,074
-125,497	-53,588	0,054	0,017
-124,483	-80,696	0,053	-0,013
-123,468	-200,000	-0,010	-0,133
-122,453	213,769	-0,013	-0,015
-121,439	32,601	-0,133	-0,082
-120,424	800,000	0,040	-0,083
-119,410	-3,753	-0,068	-0,034
-118,395	-21,885	0,089	-0,038
-117,380	-97,996	-0,196	0,036
-116,366	-85,332	0,063	-0,014
-115,351	800,000	0,007	0,016
-114,337	-73,528	0,027	-0,007
-113,322	16,837	-0,079	-0,044
-112,307	-130,773	-0,106	0,010
-111,293	800,000	0,039	-0,106
-110,278	7,979	0,070	0,037
-109,264	798,544	-0,053	0,104
-108,249	-200,000	0,013	-0,063
-107,234	354,187	-0,034	-0,049
-106,220	221,422	-0,101	-0,115
-105,205	800,000	0,019	0,045
-104,191	-36,664	0,071	0,027
-103,176	-85,792	-0,108	0,024
-102,162	192,483	0,054	0,058
-101,147	108,781	-0,040	-0,034
-100,132	143,992	-0,041	-0,038
-99,118	425,031	-0,096	0,147
-98,103	800,000	-0,031	-0,072
-97,089	-200,000	0,008	0,057
-96,074	-200,000	0,007	0,023
-95,059	-200,000	-0,014	-0,070
-94,045	-200,000	-0,020	0,111
-93,030	505,020	0,015	0,025
-92,016	219,477	0,023	-0,027
-91,001	-54,149	0,038	0,012
-89,986	404,393	0,013	0,019
-88,972	9,393	0,139	0,075
-87,957	-200,000	-0,009	0,075
-86,943	-156,855	0,041	-0,002
-85,928	800,000	-0,022	-0,044
-84,913	-174,825	-0,146	-0,003
-83,899	272,712	0,066	0,083
-82,884	-113,683	0,171	-0,023
-81,870	205,854	0,052	-0,058
-80,855	-25,805	-0,036	0,015
-79,840	-200,000	0,018	-0,232
-78,826	-50,841	-0,086	-0,028
-77,811	343,490	0,065	-0,091
-76,797	-99,826	-0,084	0,015
-75,782	800,000	-0,033	0,065
-74,767	-200,000	0,026	-0,100
-73,753	342,915	0,033	-0,047
-72,738	136,103	-0,133	-0,123
-71,724	-68,819	-0,063	0,017
-70,709	-200,000	0,029	-0,147
-69,694	-200,000	0,012	-0,135
-68,680	800,000	-0,034	-0,080
-67,665	12,233	0,145	0,079
-66,651	61,454	-0,099	-0,070
-65,636	-200,000	0,028	-0,095
-64,622	-35,274	-0,127	-0,049
-63,607	-200,000	0,008	-0,112
-62,592	-200,000	-0,010	-0,122
-61,578	-200,000	-0,022	0,094
-60,563	-117,610	-0,048	-0,006
-59,549	-200,000	0,003	0,083
-58,534	-82,592	-1,422	-0,324
-57,519	349,495	-1,597	-2,243
-56,505	-200,000	-0,573	-4,387
-55,490	92,138	0,995	0,794
-54,476	800,000	4,744	11,200
-53,461	-200,000	17,611	280,590
-52,446	800,000	719,508	2221,021
-51,432	562,490	1634,068	2814,468
-50,417	81,012	1658,166	1267,756
-49,403	23,818	1532,216	892,928
-48,388	17,773	1455,690	819,182
-47,373	18,220	1445,071	815,316
-46,359	17,889	1435,675	808,405
-45,344	16,070	1431,207	797,213
-44,330	15,980	1429,265	795,670
-43,315	15,976	1427,426	794,597
-42,300	16,020	1425,733	793,831
-41,286	16,028	1424,678	793,249
-40,271	16,034	1423,356	792,512
-39,257	16,055	1421,998	791,822
-38,242	16,011	1420,960	791,007
-37,227	16,092	1419,482	790,534
-36,213	16,097	1418,075	789,742
-35,198	16,018	1417,022	788,751
-34,184	16,035	1416,362	788,436
-33,169	15,998	1414,903	787,414
-32,154	16,012	1414,044	786,974
-31,140	16,019	1412,657	786,202
-30,125	16,108	1411,184	785,767
-29,111	16,037	1410,320	784,925
-28,096	16,022	1409,307	784,257
-27,082	16,001	1408,108	783,462
-26,067	16,004	1406,867	782,754
-25,052	15,980	1405,873	782,056
-24,038	16,012	1404,770	781,565
-23,023	15,915	1403,877	780,584
-22,009	15,933	1402,833	780,056
-20,994	15,884	1401,960	779,309
-19,979	15,890	1401,155	778,859
-18,965	15,893	1399,980	778,189
-17,950	15,894	1398,931	777,579
-16,936	15,929	1398,043	777,217
-15,921	15,826	1397,022	776,142
-14,906	15,840	1396,013	775,616
-13,892	15,928	1394,924	775,388
-12,877	15,873	1394,039	774,612
-11,863	15,899	1393,262	774,270
-10,848	15,830	1392,459	773,474
-9,833	15,827	1391,223	772,741
-8,819	15,823	1390,409	772,239
-7,804	15,822	1389,430	771,659
-6,790	15,751	1388,536	770,806
-5,775	15,752	1387,500	770,207
-4,760	15,709	1386,840	769,608
-3,746	15,771	1385,671	769,215
-2,731	15,742	1384,917	768,635
-1,717	15,728	1384,010	768,034
-0,702	15,729	1382,393	767,111
0,313	19,537	1303,280	740,774
1,327	36,016	706,698	439,869
2,342	55,265	125,263	85,699
3,356	3,810	16,611	8,568
4,371	13,493	3,182	1,744
5,386	-1,783	0,551	0,274
6,400	-200,000	0,010	0,135
7,415	57,724	-0,223	-0,154
8,429	257,034	-0,197	-0,241
9,444	23,119	-0,438	-0,254
10,459	59,184	-0,318	-0,221
11,473	-97,146	-0,412	-0,076
12,488	-121,848	-0,268	-0,031
13,502	96,278	-0,322	-0,260
14,517	190,340	-0,307	-0,327
15,531	78,330	-0,374	-0,283
16,546	-27,183	-0,349	-0,143
17,561	14,438	-0,347	-0,191
18,575	-121,989	-0,261	-0,030
19,590	204,393	-0,233	-0,256
20,604	-86,594	-0,374	-0,080
21,619	-29,351	-0,445	-0,179
22,634	170,528	-0,364	-0,369
23,648	110,832	-0,361	-0,307
24,663	-64,026	-0,348	-0,100
25,677	0,063	-0,403	-0,202
26,692	315,783	-0,296	-0,396
27,707	-31,309	-0,398	-0,158
28,721	127,463	-0,261	-0,234
29,736	193,414	-0,413	-0,442
30,750	375,410	-0,310	-0,448
31,765	210,960	-0,338	-0,377
32,780	800,000	-0,202	-0,396
33,794	50,902	-0,235	-0,157
34,809	58,257	-0,355	-0,245
35,823	70,791	-0,371	-0,271
36,838	17,083	-0,431	-0,241
37,853	86,299	-0,354	-0,275
38,867	33,339	-0,346	-0,212
39,882	217,831	-0,243	-0,274
40,896	28,090	-0,282	-0,168
41,911	54,125	-0,388	-0,263
42,926	41,829	-0,332	-0,212
43,940	-21,879	-0,397	-0,170
44,955	124,862	-0,340	-0,302
45,969	506,979	-0,206	-0,339
46,984	106,933	-0,339	-0,284
47,999	63,257	-0,375	-0,265
49,013	153,322	-0,285	-0,276
50,028	-34,837	-0,308	-0,118
51,042	-106,656	-0,415	-0,064
52,057	78,620	-0,277	-0,208
53,071	195,399	-0,246	-0,264
54,086	85,957	-0,401	-0,311
55,101	420,025	-0,243	-0,369
56,115	158,944	-0,315	-0,309
57,130	35,799	-0,387	-0,240
58,144	147,176	-0,318	-0,302
59,159	55,658	-0,463	-0,316
60,174	67,467	-0,195	-0,140
61,188	59,425	-0,305	-0,212
62,203	287,093	-0,228	-0,290
63,217	94,644	-0,343	-0,275
64,232	140,963	-0,361	-0,337
65,247	27,457	-0,434	-0,257
66,261	58,080	-0,390	-0,269
67,276	14,751	-0,396	-0,217
68,290	188,530	-0,302	-0,319
69,305	72,315	-0,283	-0,208
70,320	112,054	-0,228	-0,194
71,334	-28,682	-0,350	-0,141
72,349	-97,354	-0,347	-0,063
73,363	-12,597	-0,216	-0,099
74,378	111,659	-0,287	-0,244
75,393	41,602	-0,383	-0,244
76,407	135,080	-0,328	-0,300
77,422	69,479	-0,344	-0,249
78,436	33,916	-0,343	-0,209
79,451	-30,418	-0,393	-0,156
80,466	568,851	-0,207	-0,356
81,480	523,720	-0,160	-0,266
82,495	141,107	-0,343	-0,320
83,509	15,073	-0,193	-0,106
84,524	800,000	-0,124	-0,307
85,539	21,911	-0,387	-0,221
86,553	-1,127	-0,214	-0,106
87,568	51,889	-0,240	-0,160
88,582	-53,633	-0,372	-0,119
89,597	192,269	-0,219	-0,232
90,611	-58,197	-0,158	-0,048
91,626	380,908	-0,134	-0,194
92,641	341,954	-0,173	-0,238
93,655	-90,940	-0,330	-0,066
94,670	-87,508	-0,240	-0,051
95,684	-66,000	-0,350	-0,097
96,699	205,270	-0,224	-0,245
97,714	188,201	-0,227	-0,239
98,728	292,714	-0,197	-0,253
99,743	119,013	-0,265	-0,230
100,757	81,089	-0,212	-0,161
101,772	146,978	-0,270	-0,255
102,787	-43,576	-0,294	-0,104
103,801	150,945	-0,260	-0,249
104,816	131,400	-0,220	-0,199
105,830	171,022	-0,179	-0,180
106,845	-91,134	-0,375	-0,075
107,860	9,688	-0,256	-0,136
108,874	-47,486	-0,300	-0,102
109,889	-50,707	-0,370	-0,121
110,903	294,824	-0,317	-0,408
111,918	170,866	-0,206	-0,208
112,933	-5,975	-0,279	-0,133
113,947	-13,510	-0,138	-0,062
114,962	-200,000	-0,089	-0,343
115,976	800,000	-0,126	-0,254
116,991	433,070	-0,232	-0,354
118,006	224,142	-0,211	-0,239
119,020	151,933	-0,199	-0,190
120,035	715,286	-0,098	-0,183
121,049	-30,384	-0,216	-0,085
122,064	-57,680	-0,189	-0,058
123,079	13,119	-0,320	-0,173
124,093	36,344	-0,254	-0,157
125,108	13,043	-0,284	-0,154
126,122	203,532	-0,251	-0,273
127,137	105,965	-0,228	-0,189
128,151	231,843	-0,169	-0,194
129,166	170,878	-0,280	-0,281
130,181	16,168	-0,264	-0,145
131,195	5,861	-0,379	-0,196
132,210	-2,025	-0,374	-0,183
133,224	132,516	-0,192	-0,174
134,239	380,438	-0,137	-0,197
135,254	-68,133	-0,268	-0,073
136,268	82,300	-0,253	-0,192
137,283	-39,136	-0,271	-0,099
138,297	7,007	-0,275	-0,143
139,312	119,882	-0,344	-0,298
140,327	-28,415	-0,390	-0,157
141,341	134,270	-0,234	-0,213
142,356	305,758	-0,101	-0,131
143,370	245,630	-0,213	-0,251
144,385	144,417	-0,194	-0,181
145,400	145,961	-0,385	-0,361
146,414	21,939	-0,259	-0,147
147,429	470,380	-0,203	-0,320
148,443	145,857	-0,243	-0,228
149,458	90,872	-0,309	-0,242
150,473	-17,179	-0,208	-0,091
151,487	44,415	-0,225	-0,144
152,502	48,750	-0,306	-0,200
153,516	96,256	-0,218	-0,174
154,531	560,803	-0,181	-0,307
155,546	160,065	-0,226	-0,220
156,560	85,689	-0,116	-0,089
157,575	800,000	-0,123	-0,239
158,589	48,412	-0,163	-0,106
159,604	75,022	-0,190	-0,140
160,619	82,986	-0,246	-0,187
161,633	5,112	-0,247	-0,126
162,648	100,586	-0,198	-0,160
163,662	131,288	-0,239	-0,214
164,677	-131,276	-0,406	-0,037
165,692	-77,815	-0,342	-0,082
166,706	288,740	-0,194	-0,245
167,721	445,582	-0,283	-0,436
168,735	188,559	-0,200	-0,209
169,750	82,863	-0,171	-0,130
170,764	40,048	-0,152	-0,095
171,779	-107,947	-0,234	-0,035
172,794	163,919	-0,175	-0,172
173,808	-162,847	-0,166	-0,006
174,823	224,786	-0,300	-0,340
175,837	54,621	-0,253	-0,170
176,852	139,587	-0,255	-0,234
177,867	166,459	-0,140	-0,138
178,881	-1,530	-0,032	0,016
179,896	800,000	-0,059	-0,152
180,910	246,674	-0,229	-0,269
181,925	-20,218	-0,187	-0,080
182,940	182,268	-0,320	-0,329
183,954	246,054	-0,138	-0,163
184,969	679,349	-0,142	-0,259
185,983	-20,600	-0,227	-0,097
186,998	139,687	-0,178	-0,164
188,013	-200,000	-0,071	-0,251
189,027	-69,760	-0,221	-0,058
190,042	93,501	-0,177	-0,140
191,056	80,232	-0,145	-0,108
192,071	157,686	-0,149	-0,144
193,086	460,113	-0,134	-0,209
194,100	800,000	-0,098	-0,221
195,115	-76,420	-0,213	-0,052
196,129	235,150	-0,225	-0,260
197,144	130,938	-0,217	-0,194
198,159	192,852	-0,224	-0,235
199,173	-200,000	-0,044	-0,175
200,188	-69,934	-0,193	-0,051
201,202	800,000	-0,099	-0,231
202,217	422,580	-0,149	-0,224
203,232	153,871	-0,128	-0,122
204,246	39,276	-0,268	-0,166
205,261	208,198	-0,164	-0,178
206,275	205,796	-0,170	-0,184
207,290	10,776	-0,294	-0,155
208,304	-200,000	-0,024	-0,120
209,319	2,392	-0,370	-0,185
210,334	244,103	-0,113	-0,132
211,348	216,668	-0,173	-0,191
212,363	51,634	-0,230	-0,152
213,377	800,000	-0,082	-0,227
214,392	3,857	-0,219	-0,111
215,407	189,392	-0,164	-0,171
216,421	60,930	-0,237	-0,163
217,436	114,078	-0,264	-0,223
218,450	-19,645	-0,243	-0,104
219,465	83,981	-0,224	-0,170
220,480	90,063	-0,192	-0,149
221,494	481,479	-0,133	-0,210
222,509	183,323	-0,262	-0,270
223,523	-200,000	-0,242	-0,001
224,538	154,716	-0,182	-0,174
225,553	63,199	-0,190	-0,132
226,567	6,128	-0,198	-0,102
227,582	-95,077	-0,149	-0,028
228,596	-177,200	-0,251	-0,004
229,611	-200,000	-0,070	-0,252
230,626	-200,000	-0,027	-0,129
231,640	86,189	-0,196	-0,150
232,655	354,349	-0,157	-0,217
233,669	800,000	-0,148	-0,316
234,684	5,689	-0,281	-0,144
235,699	-155,135	-0,180	-0,008
236,713	-53,395	-0,193	-0,061
237,728	351,266	-0,111	-0,153
238,742	173,421	-0,181	-0,181
239,757	332,622	-0,117	-0,158
240,772	210,899	-0,217	-0,237
241,786	56,869	-0,234	-0,158
242,801	800,000	-0,086	-0,231
243,815	287,731	-0,072	-0,090
244,830	-85,415	-0,204	0,044
245,844	-28,788	-0,040	0,016
246,859	29,736	-0,238	-0,140
247,874	92,046	-0,192	-0,150
248,888	432,375	-0,150	-0,226
249,903	-120,400	-0,247	-0,029
250,917	-91,599	-0,209	-0,041
251,932	-118,132	-0,184	-0,023
252,947	-173,855	-0,189	-0,004
253,961	-200,000	-0,046	-0,343
254,976	-200,000	-0,071	-0,254
255,990	-200,000	-0,063	-0,254
257,005	358,018	-0,073	-0,102
258,020	246,628	-0,119	-0,139
259,034	-170,599	-0,152	-0,004
260,049	65,723	-0,178	-0,125
261,063	-200,000	-0,098	-0,311
262,078	800,000	-0,055	-0,146
263,093	74,009	-0,148	-0,107
264,107	90,891	-0,238	-0,185
265,122	20,542	-0,207	-0,116
266,136	107,763	-0,160	-0,132
267,151	-1,237	-0,305	-0,149
268,166	-46,326	-0,157	-0,053
269,180	303,995	-0,092	-0,118
270,195	125,169	-0,156	-0,136
271,209	199,108	-0,147	-0,157
272,224	3,563	-0,190	-0,095
273,239	79,358	-0,206	-0,153
274,253	95,946	-0,216	-0,171
275,268	181,294	-0,172	-0,175
276,282	8,951	-0,224	-0,117
277,297	417,663	-0,135	-0,200
278,312	-42,383	-0,097	-0,034
279,326	100,432	-0,178	-0,143
280,341	-98,911	-0,052	-0,009
281,355	58,375	-0,125	-0,084
282,370	381,962	-0,135	-0,192
283,384	-136,242	-0,151	-0,012
284,399	800,000	-0,079	-0,180
285,414	185,020	-0,183	-0,188
286,428	-108,117	-0,203	0,030
287,443	-99,592	-0,187	-0,032
288,457	-32,738	-0,171	-0,065
289,472	145,974	-0,240	-0,223
290,487	150,321	-0,065	-0,061
291,501	129,888	-0,099	-0,088
292,516	279,582	-0,054	-0,067
293,530	-47,121	-0,198	-0,066
294,545	62,143	-0,083	-0,057
295,560	-22,439	-0,065	-0,027
296,574	-92,694	-0,250	-0,048
297,589	376,944	-0,167	-0,237
298,603	0,960	-0,263	-0,130
299,618	-119,159	-0,213	0,025
300,633	37,721	-0,150	-0,092
301,647	109,883	0,020	0,017
302,662	34,389	-0,143	-0,086
303,676	-200,000	-0,004	-0,086
304,691	26,573	-0,143	-0,082
305,706	-200,000	0,021	-0,104
306,720	18,364	-0,152	-0,084
307,735	18,988	-0,209	-0,115
308,749	-18,014	-0,204	-0,088
309,764	114,612	-0,181	-0,152
310,779	-200,000	-0,044	-0,227
311,793	250,507	-0,129	-0,151
312,808	147,744	-0,192	-0,179
313,822	113,075	-0,261	-0,218
314,837	800,000	-0,043	-0,114
315,852	-4,735	-0,253	-0,120
316,866	87,006	-0,127	-0,097
317,881	169,382	-0,088	-0,087
318,895	296,480	-0,078	-0,099
319,910	31,217	-0,137	-0,081
320,925	26,184	-0,198	-0,114
321,939	212,156	-0,216	-0,234
322,954	800,000	-0,051	-0,123
323,968	-8,967	-0,162	-0,074
324,983	145,581	-0,079	-0,073
325,997	43,286	-0,064	-0,040
327,012	208,002	-0,159	-0,172
328,027	204,253	-0,139	-0,149
329,041	124,119	-0,096	-0,083
330,056	116,528	-0,231	-0,195
331,070	-79,231	-0,111	-0,026
332,085	-200,000	-0,033	-0,154
333,100	-81,583	-0,108	-0,024
334,114	-200,000	-0,032	-0,116
335,129	43,387	-0,152	-0,096
336,143	346,583	-0,106	-0,145
337,158	800,000	-0,097	-0,188
338,173	5,683	-0,147	-0,074
339,187	6,869	-0,018	0,009
340,202	146,102	-0,127	-0,118
341,216	149,993	-0,127	-0,119
342,231	143,954	-0,123	-0,112
343,246	-67,774	-0,119	-0,032
344,260	709,074	-0,070	-0,127
345,275	800,000	-0,044	0,118
346,289	147,218	-0,213	-0,197
347,304	632,997	-0,092	-0,161
348,319	523,245	-0,120	-0,195
349,333	283,996	-0,102	-0,127
350,348	165,367	-0,107	-0,104
351,362	-73,522	-0,138	-0,034
352,377	422,432	0,042	-0,062
353,392	575,297	-0,065	-0,109
354,406	48,049	-0,156	-0,100
355,421	210,113	1312,873	1417,118
356,435	161,734	1473,420	1417,636
