DTS Sentinel unit serial number:	SN410029Multiplexer serial number:	ORYXHardware model number:	OX2-SRSoftware version number:	ORYX F/W v4,00 Oryx Data Collector v3.7.2.0data status	okinstallation	B3 Nyhavnadifferential loss correction	single-endedforward channel	channel 1reverse channel	N/Adate	2023/12/01time	16:07:30forward acquisition time	300,00reverse acquisition time	0,00gamma	499,1914k internal	0,3207k external	0,3207temperature offset calibration	1,0000default loss term (dB/km)	0,3820temperature slope calibration	1,0000multiplexer offset coefficient	1,0000multiplexer slope coefficient	1,0000fibre end	0,00T internal ref (°C)	12,82T ext. ref 1 (°C)	-0,69T ext. ref 2 (°C)	-0,73length (m)	temperature (°C)	Stokes	anti-Stokes-744,400	-200,000	-0,078	-0,432
-743,385	-200,000	-0,073	0,310
-742,371	800,000	-0,095	-0,202
-741,356	-200,000	0,017	0,416
-740,342	800,000	-0,075	-0,164
-739,327	-200,000	-0,065	0,352
-738,312	-200,000	-0,049	-0,174
-737,298	800,000	-0,037	0,104
-736,283	386,656	-0,222	-0,334
-735,269	-200,000	0,053	0,293
-734,254	39,280	-0,353	-0,229
-733,239	233,995	-0,123	0,148
-732,225	549,650	-0,117	-0,205
-731,210	-200,000	0,027	0,204
-730,196	-200,000	0,018	-0,147
-729,181	-44,141	0,063	-0,023
-728,167	91,584	0,033	0,027
-727,152	547,980	-0,034	-0,059
-726,137	800,000	0,068	-0,160
-725,123	66,318	-0,175	-0,129
-724,108	299,621	-0,026	-0,034
-723,094	350,116	-0,098	-0,141
-722,079	-200,000	0,004	0,060
-721,064	800,000	-0,071	0,157
-720,050	-13,224	0,114	-0,054
-719,035	-200,000	0,024	-0,082
-718,021	397,074	-0,114	-0,174
-717,006	-200,000	0,006	-0,038
-715,991	-97,843	-0,189	-0,035
-714,977	-200,000	0,009	-0,052
-713,962	-129,739	0,188	-0,019
-712,948	5,710	0,061	0,033
-711,933	-55,111	-0,177	-0,058
-710,918	75,226	-0,134	-0,102
-709,904	-118,308	-0,081	-0,010
-708,889	-27,889	-0,109	-0,045
-707,875	439,927	0,009	0,014
-706,860	-200,000	-0,021	0,149
-705,845	402,925	0,012	0,019
-704,831	456,627	0,007	-0,012
-703,816	-200,000	-0,005	0,048
-702,802	-32,809	-0,079	0,032
-701,787	-200,000	0,014	0,074
-700,772	24,425	-0,064	-0,038
-699,758	-6,539	0,115	0,057
-698,743	-88,140	0,169	-0,036
-697,729	-168,392	-0,068	0,002
-696,714	222,704	0,048	0,056
-695,699	-104,561	-0,099	0,016
-694,685	-159,728	-0,036	-0,001
-693,670	800,000	-0,033	-0,073
-692,656	-200,000	-0,027	-0,155
-691,641	251,978	-0,036	-0,044
-690,627	37,037	0,156	0,100
-689,612	131,795	0,045	0,042
-688,597	-75,462	-0,132	0,034
-687,583	407,255	0,039	-0,060
-686,568	136,814	-0,030	-0,028
-685,554	-200,000	-0,030	-0,125
-684,539	70,451	0,076	0,057
-683,524	261,489	0,089	0,112
-682,510	183,174	-0,067	0,072
-681,495	800,000	0,098	-0,205
-680,481	-18,109	-0,050	-0,023
-679,466	-200,000	0,008	-0,098
-678,451	800,000	-0,035	0,092
-677,437	21,294	-0,071	-0,042
-676,422	-8,636	-0,023	-0,011
-675,408	-200,000	0,105	0,000
-674,393	20,078	-0,058	0,034
-673,378	12,577	-0,091	-0,051
-672,364	272,148	0,072	-0,092
-671,349	800,000	-0,042	-0,106
-670,335	800,000	0,056	0,127
-669,320	28,144	0,118	0,072
-668,305	-11,946	0,226	0,107
-667,291	-144,366	-0,160	0,011
-666,276	247,426	0,068	-0,083
-665,262	168,101	0,056	-0,058
-664,247	-124,586	-0,088	-0,010
-663,232	373,430	0,087	0,129
-662,218	-27,836	0,110	0,046
-661,203	308,927	0,078	0,106
-660,189	-31,353	-0,095	0,039
-659,174	64,133	-0,042	0,030
-658,159	-8,029	0,036	-0,017
-657,145	-127,705	-0,198	0,020
-656,130	-83,407	0,114	-0,026
-655,116	-90,662	0,119	0,025
-654,101	-98,245	-0,075	0,014
-653,086	466,982	0,079	-0,128
-652,072	136,079	-0,110	-0,103
-651,057	800,000	-0,041	0,127
-650,043	211,492	-0,040	-0,046
-649,028	-14,050	0,028	-0,013
-648,014	-200,000	0,019	0,119
-646,999	-144,196	0,030	0,002
-645,984	800,000	0,042	0,090
-644,970	95,997	-0,049	0,041
-643,955	732,288	0,043	-0,083
-642,941	30,132	0,061	-0,037
-641,926	-9,192	-0,088	-0,042
-640,911	-200,000	-0,003	0,032
-639,897	75,920	-0,081	0,062
-638,882	258,150	0,085	0,105
-637,868	7,209	-0,047	-0,025
-636,853	-39,278	-0,111	-0,042
-635,838	-200,000	0,022	-0,117
-634,824	384,220	0,052	0,078
-633,809	131,051	-0,051	0,047
-632,795	39,457	0,064	-0,041
-631,780	-57,292	0,110	-0,035
-630,765	-101,602	-0,111	0,019
-629,751	609,169	0,065	-0,117
-628,736	-61,820	-0,025	0,007
-627,722	412,004	-0,038	0,058
-626,707	-200,000	-0,025	-0,100
-625,692	21,135	0,037	-0,022
-624,678	662,450	-0,082	0,153
-623,663	110,249	0,031	-0,027
-622,649	175,714	0,053	-0,056
-621,634	-103,658	-0,039	0,007
-620,619	-107,507	0,036	-0,006
-619,605	-200,000	-0,011	0,191
-618,590	260,188	0,086	0,108
-617,576	30,339	-0,033	0,020
-616,561	800,000	0,015	0,044
-615,546	139,709	-0,116	0,110
-614,532	104,395	-0,079	-0,067
-613,517	-140,608	0,044	-0,003
-612,503	-200,000	0,029	0,170
-611,488	159,461	0,051	-0,052
-610,474	-70,894	0,105	0,028
-609,459	-10,382	0,087	0,042
-608,444	557,312	0,039	0,068
-607,430	129,128	-0,073	-0,067
-606,415	800,000	-0,014	-0,035
-605,401	-200,000	0,023	0,170
-604,386	-200,000	-0,040	0,199
-603,371	800,000	0,063	0,131
-602,357	-200,000	-0,003	0,197
-601,342	5,671	-0,179	0,095
-600,328	-113,354	0,072	-0,010
-599,313	-59,398	-0,130	-0,040
-598,298	-200,000	-0,006	-0,058
-597,284	800,000	-0,086	0,227
-596,269	170,032	0,103	0,106
-595,255	377,865	0,067	0,100
-594,240	-200,000	-0,039	-0,151
-593,225	-155,376	0,059	-0,003
-592,211	63,904	-0,117	-0,085
-591,196	800,000	0,017	-0,040
-590,182	-200,000	-0,028	0,140
-589,167	-200,000	-0,016	0,093
-588,152	466,254	-0,052	0,085
-587,138	78,178	0,083	-0,063
-586,123	-73,529	-0,166	-0,043
-585,109	75,862	0,047	-0,036
-584,094	201,941	0,060	-0,067
-583,079	-200,000	0,014	0,049
-582,065	-77,950	0,101	-0,025
-581,050	-200,000	-0,014	-0,045
-580,036	-5,641	-0,134	0,066
-579,021	-151,679	0,043	-0,002
-578,006	133,033	-0,077	-0,072
-576,992	66,988	-0,113	-0,083
-575,977	-200,000	0,007	-0,057
-574,963	57,770	0,092	-0,065
-573,948	216,370	-0,044	-0,050
-572,934	-200,000	-0,027	0,112
-571,919	604,496	-0,032	-0,057
-570,904	459,540	0,010	-0,016
-569,890	-189,998	-0,017	0,000
-568,875	-45,017	0,057	-0,021
-567,861	800,000	0,060	0,166
-566,846	720,122	-0,070	0,136
-565,831	-93,281	0,053	-0,011
-564,817	5,133	-0,057	-0,030
-563,802	21,163	-0,083	0,049
-562,788	627,736	-0,095	-0,174
-561,773	-200,000	-0,048	0,263
-560,758	176,912	0,076	0,079
-559,744	384,824	0,051	-0,077
-558,729	-175,270	-0,122	-0,002
-557,715	352,379	0,012	-0,018
-556,700	-200,000	0,002	-0,207
-555,685	800,000	0,096	-0,255
-554,671	114,387	-0,060	0,052
-553,656	498,018	0,059	0,098
-552,642	124,931	0,065	0,059
-551,627	-2,371	-0,141	-0,071
-550,612	243,704	0,038	-0,046
-549,598	303,595	-0,051	-0,068
-548,583	-94,287	-0,034	0,007
-547,569	-200,000	0,010	-0,060
-546,554	-200,000	0,004	0,083
-545,539	456,559	-0,011	-0,018
-544,525	-200,000	-0,001	0,059
-543,510	-105,032	0,017	-0,003
-542,496	2,965	-0,033	0,017
-541,481	435,883	0,053	-0,084
-540,466	63,108	-0,066	-0,048
-539,452	-200,000	-0,001	0,021
-538,437	234,687	0,058	0,069
-537,423	6,027	0,073	-0,039
-536,408	-124,978	-0,076	0,008
-535,393	-200,000	-0,018	-0,083
-534,379	-200,000	0,001	0,061
-533,364	-67,434	-0,142	0,040
-532,350	800,000	0,017	0,054
-531,335	289,928	0,055	0,072
-530,321	82,040	0,023	0,018
-529,306	573,666	-0,026	0,045
-528,291	278,173	-0,091	-0,116
-527,277	-72,979	0,018	-0,005
-526,262	800,000	-0,042	-0,117
-525,248	3,717	0,064	0,033
-524,233	-200,000	0,004	-0,028
-523,218	364,064	0,026	-0,038
-522,204	-200,000	0,025	-0,086
-521,189	41,218	-0,071	0,046
-520,175	172,444	0,112	-0,116
-519,160	5,739	0,076	-0,040
-518,145	-200,000	0,032	-0,105
-517,131	56,313	0,159	0,111
-516,116	-200,000	-0,010	-0,113
-515,102	-6,306	0,020	0,010
-514,087	800,000	0,018	-0,049
-513,072	-200,000	-0,003	0,045
-512,058	164,043	-0,025	-0,025
-511,043	-200,000	-0,015	0,056
-510,029	800,000	0,032	0,068
-509,014	-200,000	0,020	-0,080
-507,999	35,891	0,069	0,044
-506,985	-200,000	0,011	0,041
-505,970	35,703	-0,119	-0,075
-504,956	-50,315	-0,037	-0,012
-503,941	369,427	-0,047	-0,068
-502,926	-200,000	0,025	0,117
-501,912	180,970	0,056	0,059
-500,897	99,541	0,123	0,103
-499,883	800,000	-0,031	-0,062
-498,868	-107,022	0,035	0,005
-497,853	304,131	0,020	0,027
-496,839	-200,000	0,003	-0,080
-495,824	121,036	0,160	0,143
-494,810	418,641	0,086	0,133
-493,795	-87,469	-0,028	-0,006
-492,781	-67,095	0,125	-0,035
-491,766	637,542	0,037	0,068
-490,751	8,902	-0,044	0,024
-489,737	454,378	-0,043	-0,069
-488,722	-60,816	-0,112	0,034
-487,708	-200,000	-0,001	0,060
-486,693	435,451	-0,036	-0,057
-485,678	800,000	-0,053	-0,110
-484,664	-200,000	-0,015	0,055
-483,649	562,536	-0,035	-0,062
-482,635	128,687	-0,147	0,134
-481,620	143,527	0,062	-0,059
-480,605	-163,850	0,196	-0,006
-479,591	244,195	0,116	0,140
-478,576	235,535	-0,026	0,030
-477,562	99,627	-0,089	-0,074
-476,547	-33,954	-0,105	0,041
-475,532	800,000	-0,028	0,084
-474,518	800,000	0,077	-0,178
-473,503	-116,544	0,180	-0,024
-472,489	800,000	-0,036	-0,076
-471,474	-200,000	0,013	-0,056
-470,459	800,000	-0,014	-0,033
-469,445	-105,434	-0,132	-0,021
-468,430	-63,968	-0,022	-0,006
-467,416	132,132	0,139	-0,129
-466,401	-129,979	-0,043	0,004
-465,386	181,751	0,027	-0,029
-464,372	474,389	-0,027	0,043
-463,357	800,000	0,028	0,079
-462,343	-79,080	-0,151	0,037
-461,328	-200,000	0,005	-0,169
-460,313	-200,000	-0,001	0,166
-459,299	-147,874	0,059	0,003
-458,284	26,284	-0,066	0,039
-457,270	40,783	0,073	-0,047
-456,255	39,002	-0,093	-0,059
-455,241	800,000	-0,026	-0,079
-454,226	38,628	-0,111	-0,071
-453,211	396,349	-0,089	0,134
-452,197	-114,135	0,078	-0,011
-451,182	612,715	0,040	0,073
-450,168	331,913	-0,065	0,091
-449,153	-54,464	0,026	-0,008
-448,138	-114,257	-0,196	0,027
-447,124	-33,539	0,053	-0,021
-446,109	95,596	-0,069	-0,056
-445,095	25,966	0,070	0,042
-444,080	-33,278	-0,095	0,037
-443,065	-158,631	0,061	0,002
-442,051	401,416	0,046	-0,070
-441,036	800,000	-0,034	-0,076
-440,022	-200,000	-0,011	-0,043
-439,007	-17,627	0,101	0,045
-437,992	126,281	0,033	0,030
-436,978	-165,065	-0,183	0,006
-435,963	-200,000	-0,002	0,007
-434,949	574,376	0,083	-0,147
-433,934	-133,115	-0,141	0,013
-432,919	-4,829	-0,088	-0,043
-431,905	-94,130	0,037	-0,007
-430,890	145,772	0,006	-0,006
-429,876	-200,000	-0,009	-0,186
-428,861	722,980	0,019	-0,037
-427,846	800,000	0,009	0,022
-426,832	-200,000	-0,029	-0,131
-425,817	-200,000	-0,000	0,017
-424,803	-200,000	-0,002	0,070
-423,788	596,289	-0,029	0,052
-422,773	186,230	0,057	-0,061
-421,759	77,665	0,068	-0,052
-420,744	423,259	0,024	0,037
-419,730	-200,000	-0,001	-0,053
-418,715	-200,000	0,012	0,128
-417,701	17,308	-0,064	-0,036
-416,686	800,000	0,050	-0,137
-415,671	-200,000	0,005	-0,167
-414,657	154,461	-0,153	0,150
-413,642	-89,502	-0,098	0,020
-412,628	205,664	-0,035	0,039
-411,613	-66,202	-0,140	-0,040
-410,598	-42,135	-0,121	0,044
-409,584	-200,000	0,022	-0,073
-408,569	738,935	0,064	0,124
-407,555	-54,567	0,143	0,046
-406,540	96,003	0,099	0,081
-405,525	372,607	0,004	0,006
-404,511	-200,000	0,004	-0,055
-403,496	-102,364	-0,147	-0,025
-402,482	235,639	-0,029	0,035
-401,467	12,328	-0,093	0,051
-400,452	586,536	-0,030	0,053
-399,438	-30,033	-0,144	0,059
-398,423	-115,214	-0,068	0,009
-397,409	332,549	-0,037	-0,051
-396,394	800,000	0,060	-0,129
-395,379	-200,000	-0,002	0,106
-394,365	55,872	-0,072	-0,050
-393,350	202,091	0,091	0,101
-392,336	523,904	-0,033	-0,055
-391,321	-200,000	-0,020	-0,068
-390,306	-200,000	-0,000	-0,018
-389,292	800,000	-0,056	-0,144
-388,277	800,000	-0,004	0,011
-387,263	-156,460	-0,023	0,001
-386,248	800,000	-0,008	0,016
-385,233	800,000	0,036	-0,072
-384,219	598,461	-0,053	-0,094
-383,204	800,000	-0,065	-0,135
-382,190	-50,139	-0,170	-0,057
-381,175	399,216	0,062	-0,094
-380,160	184,826	0,091	0,097
-379,146	505,840	0,061	0,101
-378,131	-200,000	0,001	0,047
-377,117	-200,000	-0,000	-0,067
-376,102	47,955	0,019	-0,012
-375,088	-200,000	-0,010	-0,097
-374,073	556,343	-0,035	-0,061
-373,058	-144,853	0,042	0,003
-372,044	-200,000	0,019	0,076
-371,029	-200,000	-0,012	-0,101
-370,015	-200,000	-0,070	-0,270
-369,000	800,000	0,017	-0,052
-367,985	-34,370	-0,055	0,021
-366,971	9,759	0,169	-0,091
-365,956	-182,380	-0,050	-0,001
-364,942	800,000	0,008	-0,024
-363,927	445,053	0,076	0,120
-362,912	-200,000	-0,122	0,000
-361,898	305,992	0,012	0,015
-360,883	176,943	-0,033	0,035
-359,869	9,870	0,043	-0,023
-358,854	-200,000	-0,015	-0,095
-357,839	231,574	-0,129	-0,151
-356,825	51,985	0,099	0,067
-355,810	-184,535	-0,096	0,001
-354,796	-104,815	0,118	0,019
-353,781	-104,649	0,089	-0,015
-352,766	545,112	0,016	0,028
-351,752	43,661	-0,083	-0,054
-350,737	800,000	-0,017	0,045
-349,723	79,031	0,088	0,067
-348,708	-200,000	-0,012	0,150
-347,693	-200,000	-0,011	0,058
-346,679	800,000	-0,020	-0,053
-345,664	-84,772	-0,085	-0,019
-344,650	-176,688	0,150	-0,003
-343,635	33,516	-0,070	-0,043
-342,620	605,965	-0,061	0,110
-341,606	-65,823	0,094	0,027
-340,591	-200,000	-0,028	0,093
-339,577	-200,000	-0,016	-0,061
-338,562	67,618	0,077	0,056
-337,548	-141,872	0,101	-0,007
-336,533	74,587	0,047	0,035
-335,518	175,449	0,049	0,051
-334,504	800,000	0,027	0,085
-333,489	-124,826	0,089	0,010
-332,475	-200,000	-0,010	-0,082
-331,460	800,000	0,117	-0,256
-330,445	148,816	-0,037	-0,036
-329,431	323,173	0,047	0,064
-328,416	133,652	0,125	0,115
-327,402	101,073	0,091	0,075
-326,387	2,986	0,075	-0,039
-325,372	70,816	-0,070	-0,052
-324,358	-34,738	0,052	0,020
-323,343	589,643	-0,052	-0,093
-322,329	800,000	-0,006	-0,015
-321,314	-200,000	-0,054	0,209
-320,299	86,324	-0,093	-0,073
-319,285	272,059	0,054	0,069
-318,270	-75,192	-0,039	0,010
-317,256	555,776	-0,066	-0,114
-316,241	800,000	-0,019	-0,048
-315,226	-200,000	-0,011	-0,131
-314,212	58,950	-0,035	-0,024
-313,197	-200,000	-0,019	0,098
-312,183	-54,615	0,129	-0,042
-311,168	-135,370	-0,128	0,011
-310,153	-138,580	0,097	0,007
-309,139	-54,933	-0,133	-0,043
-308,124	294,002	0,060	0,079
-307,110	36,981	-0,177	0,111
-306,095	138,201	0,039	-0,036
-305,080	171,671	0,108	0,111
-304,066	-200,000	-0,035	0,154
-303,051	-200,000	0,006	0,076
-302,037	800,000	0,055	-0,127
-301,022	-1,061	-0,112	-0,056
-300,008	-200,000	-0,012	0,137
-298,993	144,294	0,071	0,068
-297,978	109,261	-0,122	-0,104
-296,964	800,000	0,035	-0,090
-295,949	334,316	-0,080	-0,110
-294,935	269,433	0,042	0,052
-293,920	-84,852	0,066	0,015
-292,905	665,296	0,041	0,077
-291,891	-142,347	0,132	-0,009
-290,876	3,104	-0,122	0,063
-289,862	325,068	-0,128	0,175
-288,847	-102,302	-0,224	0,038
-287,832	800,000	0,021	-0,061
-286,818	-1,784	-0,041	-0,021
-285,803	-127,569	-0,057	-0,006
-284,789	-142,669	0,099	0,007
-283,774	-98,738	-0,138	0,025
-282,759	800,000	0,077	0,184
-281,745	-66,200	0,040	0,011
-280,730	-48,180	0,019	-0,006
-279,716	-32,436	0,089	0,035
-278,701	194,040	0,066	-0,071
-277,686	-157,287	0,138	0,006
-276,672	-160,537	-0,040	-0,002
-275,657	800,000	0,021	-0,044
-274,643	30,973	-0,090	0,055
-273,628	68,566	-0,100	-0,073
-272,613	-200,000	-0,011	-0,047
-271,599	303,890	0,034	-0,045
-270,584	515,663	0,065	0,108
-269,570	-200,000	0,013	-0,050
-268,555	800,000	-0,035	-0,078
-267,540	374,031	0,077	0,111
-266,526	-103,786	-0,165	0,027
-265,511	85,884	-0,054	-0,042
-264,497	569,123	0,034	0,059
-263,482	800,000	0,046	-0,095
-262,467	89,173	0,050	0,039
-261,453	-200,000	0,025	-0,128
-260,438	25,787	0,145	0,086
-259,424	800,000	-0,078	-0,190
-258,409	45,647	-0,058	0,038
-257,395	189,831	0,048	-0,051
-256,380	-76,105	0,106	-0,026
-255,365	-19,954	0,100	0,044
-254,351	-73,587	0,117	-0,030
-253,336	-77,212	-0,112	0,028
-252,322	5,770	0,107	-0,056
-251,307	98,032	-0,112	-0,092
-250,292	-200,000	-0,000	0,089
-249,278	-200,000	-0,005	0,148
-248,263	72,252	0,092	-0,068
-247,249	143,543	-0,052	-0,049
-246,234	-68,692	0,035	-0,010
-245,219	231,617	-0,046	-0,054
-244,205	216,879	-0,146	-0,166
-243,190	-200,000	0,015	-0,098
-242,176	800,000	-0,048	-0,148
-241,161	-5,950	0,037	0,018
-240,146	-200,000	-0,009	0,059
-239,132	223,800	-0,044	-0,051
-238,117	-161,555	-0,069	-0,002
-237,103	113,812	-0,112	-0,097
-236,088	-200,000	-0,015	-0,070
-235,073	-9,461	-0,105	-0,050
-234,059	247,399	0,089	0,107
-233,044	-200,000	0,009	0,034
-232,030	800,000	0,022	-0,068
-231,015	-200,000	0,015	0,133
-230,000	177,883	0,064	-0,066
-228,986	-200,000	-0,009	-0,098
-227,971	484,062	0,055	0,090
-226,957	69,748	0,042	-0,030
-225,942	-42,834	0,103	0,037
-224,927	800,000	-0,025	0,056
-223,913	92,997	0,039	0,031
-222,898	-21,148	-0,042	0,018
-221,884	-99,389	-0,042	0,007
-220,869	43,978	0,055	0,036
-219,855	264,797	0,105	0,131
-218,840	215,248	0,085	0,095
-217,825	800,000	0,039	-0,093
-216,811	-123,294	-0,201	-0,023
-215,796	-200,000	0,008	0,028
-214,782	-121,741	-0,048	0,006
-213,767	104,085	0,088	-0,074
-212,752	-200,000	0,027	0,093
-211,738	56,584	0,070	0,048
-210,723	157,691	-0,031	0,030
-209,709	-158,211	0,071	-0,003
-208,694	-124,641	-0,058	-0,006
-207,679	-80,396	-0,044	-0,010
-206,665	-80,163	-0,052	-0,012
-205,650	24,756	0,107	-0,063
-204,636	-46,060	0,097	-0,034
-203,621	-200,000	0,011	-0,100
-202,606	7,078	-0,015	-0,008
-201,592	-200,000	0,005	0,021
-200,577	139,561	0,035	-0,033
-199,563	191,655	0,064	0,069
-198,548	744,235	-0,049	0,093
-197,533	79,837	-0,084	0,064
-196,519	18,022	0,008	0,005
-195,504	-21,130	-0,082	-0,035
-194,490	-88,369	0,142	-0,030
-193,475	22,818	-0,081	0,047
-192,460	33,933	0,025	-0,015
-191,446	800,000	0,013	0,029
-190,431	294,971	-0,095	-0,123
-189,417	-200,000	0,009	0,033
-188,402	159,664	-0,075	0,074
-187,387	-34,957	-0,097	0,037
-186,373	8,109	0,061	-0,033
-185,358	-200,000	0,010	-0,097
-184,344	-200,000	-0,019	-0,083
-183,329	-51,457	0,108	0,036
-182,315	-66,479	0,023	0,006
-181,300	715,870	-0,069	0,131
-180,285	-114,861	-0,044	0,006
-179,271	112,249	-0,037	-0,032
-178,256	-80,165	0,030	0,007
-177,242	524,877	0,037	0,063
-176,227	-72,351	0,223	0,058
-175,212	-200,000	-0,006	0,117
-174,198	-200,000	0,018	0,131
-173,183	2,595	-0,136	0,070
-172,169	28,297	0,094	-0,056
-171,154	-40,142	-0,071	-0,026
-170,139	-39,863	0,157	-0,058
-169,125	-98,999	-0,065	0,012
-168,110	144,891	-0,064	0,061
-167,096	72,652	-0,032	0,024
-166,081	-117,604	0,141	-0,018
-165,066	129,749	-0,076	-0,069
-164,052	499,334	-0,040	0,065
-163,037	-200,000	-0,003	-0,079
-162,023	-18,585	0,162	-0,071
-161,008	-36,953	0,130	-0,049
-159,993	-200,000	-0,009	-0,079
-158,979	-200,000	-0,026	-0,159
-157,964	-200,000	0,019	-0,074
-156,950	800,000	0,080	-0,160
-155,935	-154,692	0,110	0,005
-154,920	227,780	0,131	0,152
-153,906	383,950	0,086	0,126
-152,891	358,178	-0,055	-0,077
-151,877	1,164	0,121	-0,061
-150,862	800,000	-0,009	-0,027
-149,847	-181,677	-0,107	0,001
-148,833	371,255	-0,044	0,063
-147,818	-200,000	0,018	-0,100
-146,804	110,953	0,055	0,047
-145,789	-28,022	-0,026	0,011
-144,775	-118,304	0,052	-0,006
-143,760	-145,873	-0,195	-0,012
-142,745	800,000	0,053	0,121
-141,731	540,854	0,058	0,099
-140,716	10,086	0,049	-0,026
-139,702	171,235	0,082	0,084
-138,687	-200,000	0,038	0,139
-137,672	388,108	-0,071	-0,105
-136,658	-25,462	0,021	0,009
-135,643	-200,000	0,004	-0,142
-134,629	42,754	0,061	0,039
-133,614	-200,000	0,001	0,006
-132,599	0,549	0,071	-0,036
-131,585	238,152	0,045	0,053
-130,570	-45,358	-0,033	-0,012
-129,556	129,788	-0,139	0,126
-128,541	697,507	0,038	0,071
-127,526	232,094	-0,044	0,051
-126,512	115,033	0,084	-0,073
-125,497	188,257	0,019	0,020
-124,483	-135,223	-0,113	0,010
-123,468	433,353	-0,041	-0,064
-122,453	-124,349	-0,057	-0,006
-121,439	800,000	-0,016	0,046
-120,424	-25,699	-0,074	-0,031
-119,410	59,713	-0,044	-0,031
-118,395	800,000	-0,008	0,019
-117,380	-99,435	0,104	-0,018
-116,366	403,390	0,066	0,099
-115,351	-106,795	-0,104	0,016
-114,337	-64,558	0,160	-0,046
-113,322	116,364	-0,089	0,078
-112,307	-11,633	0,109	0,050
-111,293	-74,951	0,074	-0,019
-110,278	-117,632	0,067	0,008
-109,264	-100,058	-0,084	-0,015
-108,249	-200,000	-0,008	-0,039
-107,234	-4,613	0,093	0,045
-106,220	78,138	0,090	0,068
-105,205	273,196	-0,124	0,155
-104,191	-96,408	0,150	-0,028
-103,176	362,408	0,008	-0,012
-102,162	800,000	0,016	-0,045
-101,147	-31,886	0,086	0,034
-100,132	-79,755	-0,104	-0,025
-99,118	263,859	-0,054	0,067
-98,103	353,230	0,077	0,108
-97,089	228,428	0,067	-0,077
-96,074	-86,900	0,009	-0,002
-95,059	19,124	-0,056	-0,032
-94,045	207,315	0,023	-0,026
-93,030	310,421	-0,018	-0,023
-92,016	-200,000	-0,024	-0,135
-91,001	-125,554	-0,072	0,008
-89,986	-200,000	-0,057	0,221
-88,972	498,467	0,088	0,144
-87,957	-26,416	-0,034	0,014
-86,943	-200,000	0,008	0,045
-85,928	-173,019	-0,116	-0,002
-84,913	45,935	-0,114	-0,074
-83,899	34,533	0,057	-0,035
-82,884	800,000	0,024	0,068
-81,870	-90,653	0,131	0,027
-80,855	6,359	0,098	0,052
-79,840	-200,000	0,007	-0,166
-78,826	-200,000	0,020	-0,120
-77,811	-200,000	0,001	-0,050
-76,797	263,167	-0,097	-0,120
-75,782	52,919	0,018	-0,012
-74,767	373,065	0,053	0,077
-73,753	800,000	0,038	-0,080
-72,738	-128,762	-0,099	0,010
-71,724	800,000	0,037	0,079
-70,709	800,000	-0,037	-0,090
-69,694	-86,400	-0,155	0,033
-68,680	529,174	-0,023	0,039
-67,665	207,494	0,024	-0,027
-66,651	185,928	0,068	0,071
-65,636	604,367	-0,061	0,108
-64,622	57,144	-0,134	-0,092
-63,607	-200,000	0,016	0,075
-62,592	18,909	0,101	0,057
-61,578	214,142	0,039	-0,044
-60,563	116,098	-0,072	0,063
-59,549	-200,000	0,028	0,165
-58,534	4,028	-1,722	-0,887
-57,519	446,073	-1,338	-2,086
-56,505	-200,000	-0,351	-4,443
-55,490	380,091	0,844	1,226
-54,476	800,000	4,897	11,143
-53,461	-200,000	19,205	324,215
-52,446	-200,000	739,583	2332,720
-51,432	572,767	1650,852	2854,425
-50,417	77,520	1666,228	1251,926
-49,403	20,809	1539,694	879,007
-48,388	14,724	1462,008	805,191
-47,373	18,276	1452,259	816,877
-46,359	16,696	1442,112	803,599
-45,344	12,982	1437,507	783,293
-44,330	12,860	1435,727	781,707
-43,315	12,875	1434,093	780,860
-42,300	12,877	1432,375	779,902
-41,286	12,893	1431,255	779,339
-40,271	12,843	1429,813	778,285
-39,257	12,854	1428,505	777,593
-38,242	12,891	1427,194	777,027
-37,227	12,917	1425,862	776,391
-36,213	12,899	1424,556	775,564
-35,198	12,946	1423,382	775,117
-34,184	12,947	1422,409	774,563
-33,169	12,865	1421,289	773,534
-32,154	12,931	1420,162	773,204
-31,140	12,965	1418,935	772,662
-30,125	13,010	1417,703	772,174
-29,111	12,898	1416,973	771,216
-28,096	12,932	1415,754	770,683
-27,082	12,834	1414,781	769,662
-26,067	12,864	1413,584	769,121
-25,052	12,862	1412,486	768,486
-24,038	12,830	1411,507	767,769
-23,023	12,832	1410,367	767,131
-22,009	12,845	1409,447	766,661
-20,994	12,824	1408,628	766,088
-19,979	12,832	1407,807	765,647
-18,965	12,827	1406,697	764,990
-17,950	12,784	1405,964	764,360
-16,936	12,832	1404,862	763,953
-15,921	12,755	1403,784	762,978
-14,906	12,786	1402,948	762,638
-13,892	12,779	1401,979	762,048
-12,877	12,771	1401,180	761,546
-11,863	12,730	1400,314	760,856
-10,848	12,761	1399,403	760,473
-9,833	12,718	1398,404	759,703
-8,819	12,642	1397,780	758,979
-7,804	12,682	1396,809	758,609
-6,790	12,646	1396,005	757,974
-5,775	12,703	1394,679	757,486
-4,760	12,691	1393,787	756,917
-3,746	12,630	1392,936	756,146
-2,731	12,633	1392,325	755,797
-1,717	12,655	1391,139	755,223
-0,702	12,666	1389,226	754,205
0,313	16,631	1306,106	727,327
1,327	33,172	700,738	428,221
2,342	51,008	122,654	81,978
3,356	2,321	16,606	8,453
4,371	4,457	3,232	1,668
5,386	-16,906	0,557	0,247
6,400	-200,000	-0,007	0,304
7,415	160,815	-0,163	-0,161
8,429	131,980	-0,297	-0,270
9,444	70,929	-0,400	-0,292
10,459	107,815	-0,160	-0,134
11,473	69,761	-0,257	-0,187
12,488	-13,863	-0,261	-0,119
13,502	7,856	-0,333	-0,175
14,517	-15,454	-0,314	-0,141
15,531	5,227	-0,466	-0,241
16,546	218,940	-0,233	-0,263
17,561	122,705	-0,245	-0,216
18,575	192,249	-0,162	-0,172
19,590	644,368	-0,173	-0,313
20,604	85,886	-0,180	-0,139
21,619	45,145	-0,389	-0,252
22,634	31,380	-0,387	-0,234
23,648	11,303	-0,463	-0,249
24,663	59,730	-0,342	-0,237
25,677	55,734	-0,329	-0,224
26,692	44,131	-0,379	-0,244
27,707	122,755	-0,375	-0,330
28,721	-14,866	-0,382	-0,172
29,736	14,918	-0,297	-0,163
30,750	435,617	-0,278	-0,428
31,765	85,236	-0,334	-0,258
32,780	159,794	-0,367	-0,360
33,794	180,783	-0,167	-0,173
34,809	142,925	-0,288	-0,269
35,823	38,796	-0,415	-0,261
36,838	127,517	-0,285	-0,255
37,853	69,832	-0,504	-0,365
38,867	48,471	-0,410	-0,270
39,882	20,285	-0,463	-0,262
40,896	457,850	-0,231	-0,363
41,911	151,945	-0,233	-0,223
42,926	189,224	-0,251	-0,265
43,940	106,888	-0,306	-0,255
44,955	21,068	-0,382	-0,218
45,969	-125,588	-0,340	-0,036
46,984	-43,223	-0,429	-0,152
47,999	3,266	-0,410	-0,209
49,013	72,290	-0,384	-0,281
50,028	-77,101	-0,330	-0,080
51,042	78,687	-0,361	-0,271
52,057	81,709	-0,389	-0,295
53,071	110,983	-0,433	-0,366
54,086	68,253	-0,362	-0,260
55,101	66,757	-0,275	-0,196
56,115	52,480	-0,362	-0,243
57,130	50,327	-0,347	-0,230
58,144	143,530	-0,335	-0,314
59,159	108,745	-0,423	-0,355
60,174	-60,867	-0,337	-0,099
61,188	283,732	-0,290	-0,367
62,203	-46,422	-0,317	-0,109
63,217	37,028	-0,378	-0,234
64,232	-5,666	-0,348	-0,167
65,247	38,499	-0,303	-0,189
66,261	68,506	-0,237	-0,170
67,276	131,839	-0,313	-0,283
68,290	254,209	-0,230	-0,277
69,305	-56,753	-0,400	-0,123
70,320	167,210	-0,249	-0,249
71,334	-22,775	-0,339	-0,143
72,349	18,509	-0,278	-0,156
73,363	39,555	-0,308	-0,193
74,378	75,702	-0,271	-0,201
75,393	119,793	-0,343	-0,299
76,407	-23,447	-0,413	-0,173
77,422	-95,186	-0,328	-0,062
78,436	54,941	-0,423	-0,286
79,451	-43,260	-0,332	-0,117
80,466	229,988	-0,311	-0,357
81,480	267,157	-0,183	-0,225
82,495	120,207	-0,325	-0,282
83,509	-89,084	-0,248	-0,051
84,524	-20,729	-0,337	-0,144
85,539	63,508	-0,231	-0,162
86,553	72,557	-0,323	-0,236
87,568	1,143	-0,418	-0,210
88,582	45,821	-0,316	-0,204
89,597	-10,038	-0,267	-0,124
90,611	89,556	-0,259	-0,202
91,626	49,867	-0,323	-0,213
92,641	4,297	-0,325	-0,166
93,655	-42,857	-0,313	-0,111
94,670	29,226	-0,336	-0,199
95,684	234,960	-0,220	-0,255
96,699	80,460	-0,200	-0,151
97,714	146,595	-0,316	-0,298
98,728	-21,913	-0,304	-0,129
99,743	43,829	-0,242	-0,155
100,757	29,528	-0,274	-0,163
101,772	63,345	-0,294	-0,206
102,787	265,845	-0,167	-0,204
103,801	507,023	-0,209	-0,340
104,816	119,000	-0,342	-0,296
105,830	524,662	-0,174	-0,288
106,845	-48,501	-0,200	-0,067
107,860	62,512	-0,208	-0,145
108,874	54,770	-0,285	-0,192
109,889	-0,493	-0,404	-0,200
110,903	434,463	-0,203	-0,310
111,918	38,540	-0,302	-0,188
112,933	45,696	-0,211	-0,136
113,947	31,861	-0,176	-0,106
114,962	-16,575	-0,192	-0,085
115,976	-8,563	-0,367	-0,172
116,991	603,297	-0,177	-0,309
118,006	744,409	-0,140	-0,265
119,020	133,414	-0,251	-0,227
120,035	514,342	-0,120	-0,196
121,049	260,678	-0,139	-0,168
122,064	77,388	-0,083	-0,062
123,079	-9,911	-0,263	-0,122
124,093	125,862	-0,211	-0,186
125,108	45,181	-0,318	-0,204
126,122	267,831	-0,206	-0,252
127,137	176,776	-0,177	-0,179
128,151	28,258	-0,302	-0,177
129,166	67,775	-0,309	-0,220
130,181	208,125	-0,195	-0,213
131,195	339,171	-0,211	-0,288
132,210	800,000	-0,106	-0,262
133,224	-71,679	-0,344	-0,089
134,239	74,012	-0,218	-0,159
135,254	800,000	-0,085	-0,201
136,268	7,382	-0,330	-0,172
137,283	320,645	-0,204	-0,271
138,297	50,741	-0,280	-0,184
139,312	146,881	-0,321	-0,301
140,327	231,405	-0,217	-0,248
141,341	-77,232	-0,218	-0,053
142,356	231,001	-0,297	-0,340
143,370	800,000	-0,118	-0,248
144,385	52,413	-0,214	-0,142
145,400	49,795	-0,364	-0,239
146,414	116,869	-0,270	-0,231
147,429	388,290	-0,180	-0,261
148,443	96,281	-0,264	-0,211
149,458	-79,454	-0,149	-0,035
150,473	25,558	-0,225	-0,130
151,487	74,755	-0,240	-0,176
152,502	209,082	-0,150	-0,164
153,516	155,279	-0,254	-0,244
154,531	150,522	-0,193	-0,183
155,546	-4,956	-0,409	-0,196
156,560	135,730	-0,202	-0,183
157,575	-49,604	-0,213	-0,070
158,589	-68,096	-0,266	-0,072
159,604	46,936	-0,393	-0,254
160,619	128,987	-0,221	-0,196
161,633	171,116	-0,214	-0,214
162,648	5,753	-0,189	-0,097
163,662	800,000	-0,100	-0,254
164,677	-77,559	-0,191	-0,046
165,692	-16,019	-0,208	-0,092
166,706	62,146	-0,190	-0,132
167,721	551,558	-0,188	-0,315
168,735	387,544	-0,184	-0,266
169,750	43,236	-0,355	-0,225
170,764	21,012	-0,198	-0,112
171,779	-129,236	-0,323	-0,031
172,794	115,172	-0,217	-0,184
173,808	800,000	-0,068	-0,171
174,823	92,344	-0,186	-0,146
175,837	89,673	-0,254	-0,197
176,852	12,629	-0,289	-0,155
177,867	343,782	-0,141	-0,192
178,881	265,848	-0,148	-0,180
179,896	359,401	-0,175	-0,245
180,910	-57,816	-0,203	-0,061
181,925	-56,974	-0,218	-0,067
182,940	47,112	-0,265	-0,171
183,954	43,445	-0,259	-0,164
184,969	224,684	-0,165	-0,185
185,983	-112,617	-0,290	0,040
186,998	-135,676	-0,196	-0,016
188,013	47,612	-0,269	-0,174
189,027	96,309	-0,309	-0,246
190,042	100,303	-0,222	-0,179
191,056	87,518	-0,257	-0,198
192,071	38,223	-0,268	-0,166
193,086	82,230	-0,212	-0,160
194,100	104,626	-0,167	-0,136
195,115	256,501	-0,179	-0,214
196,129	121,673	-0,200	-0,173
197,144	55,598	-0,254	-0,170
198,159	394,512	-0,073	-0,106
199,173	195,741	-0,118	-0,125
200,188	433,077	-0,129	-0,194
201,202	71,057	-0,235	-0,169
202,217	245,720	-0,169	-0,198
203,232	-39,363	-0,212	-0,077
204,246	196,182	-0,168	-0,177
205,261	800,000	-0,107	-0,276
206,275	70,266	-0,199	-0,143
207,290	800,000	-0,096	-0,189
208,304	-74,001	-0,219	-0,055
209,319	-57,001	-0,131	-0,040
210,334	26,691	-0,192	-0,111
211,348	800,000	-0,096	-0,246
212,363	117,575	-0,220	-0,188
213,377	190,641	-0,173	-0,180
214,392	-167,948	-0,183	0,005
215,407	343,887	-0,131	-0,178
216,421	21,596	-0,219	-0,123
217,436	-108,729	-0,245	-0,036
218,450	36,649	-0,146	-0,089
219,465	83,467	-0,191	-0,144
220,480	-129,037	-0,227	-0,022
221,494	-133,606	-0,133	0,011
222,509	723,267	-0,152	-0,281
223,523	242,237	-0,112	-0,130
224,538	40,133	-0,227	-0,141
225,553	199,796	-0,163	-0,173
226,567	26,337	-0,241	-0,139
227,582	126,953	-0,217	-0,191
228,596	-15,923	-0,082	-0,036
229,611	151,410	-0,138	-0,130
230,626	116,525	-0,139	-0,118
231,640	116,774	-0,220	-0,187
232,655	164,511	-0,237	-0,231
233,669	-82,340	-0,140	-0,031
234,684	160,663	-0,127	-0,123
235,699	-84,171	-0,204	0,044
236,713	264,855	-0,175	-0,212
237,728	538,876	-0,117	-0,193
238,742	10,933	-0,266	-0,140
239,757	-61,619	-0,360	-0,104
240,772	0,810	-0,220	-0,109
241,786	66,387	-0,214	-0,150
242,801	-51,436	-0,157	-0,050
243,815	79,491	-0,201	-0,149
244,830	-39,759	-0,178	0,064
245,844	-113,402	-0,193	-0,026
246,859	-110,502	-0,134	-0,019
247,874	283,323	-0,137	-0,170
248,888	-120,652	-0,204	0,024
249,903	55,862	-0,198	-0,132
250,917	-111,554	-0,085	0,012
251,932	-200,000	-0,031	-0,134
252,947	18,269	-0,115	-0,063
253,961	-123,401	-0,196	-0,021
254,976	486,617	-0,102	-0,161
255,990	413,211	-0,202	-0,298
257,005	800,000	-0,090	-0,191
258,020	-52,615	-0,177	-0,056
259,034	176,681	-0,049	-0,049
260,049	-81,551	-0,241	-0,054
261,063	123,041	-0,220	-0,190
262,078	21,482	-0,303	-0,170
263,093	119,485	-0,169	-0,145
264,107	5,269	-0,060	-0,031
265,122	-55,017	-0,193	-0,060
266,136	-200,000	0,007	-0,154
267,151	483,869	-0,104	-0,163
268,166	162,073	-0,139	-0,134
269,180	169,511	-0,172	-0,170
270,195	38,493	-0,243	-0,149
271,209	800,000	-0,085	-0,217
272,224	52,580	-0,170	-0,112
273,239	-200,000	-0,036	-0,137
274,253	705,035	-0,111	-0,202
275,268	68,122	-0,197	-0,139
276,282	800,000	-0,103	-0,203
277,297	-53,405	-0,094	0,029
278,312	-76,282	-0,168	-0,040
279,326	497,474	-0,057	-0,091
280,341	399,438	-0,071	-0,103
281,355	-75,999	-0,201	-0,049
282,370	174,212	-0,133	-0,132
283,384	375,004	-0,184	-0,259
284,399	2,776	-0,242	-0,121
285,414	-46,286	-0,119	-0,040
286,428	41,660	-0,117	-0,073
287,443	-200,000	-0,002	-0,133
288,457	105,787	-0,248	-0,202
289,472	227,176	-0,172	-0,193
290,487	189,975	-0,119	-0,123
291,501	116,427	-0,184	-0,155
292,516	-34,120	-0,148	-0,056
293,530	66,868	-0,275	-0,192
294,545	-200,000	-0,049	-0,243
295,560	73,808	-0,155	-0,112
296,574	-77,038	-0,081	0,019
297,589	392,855	-0,096	-0,138
298,603	-27,376	-0,159	-0,063
299,618	410,906	-0,116	-0,170
300,633	-73,395	-0,233	-0,058
301,647	411,577	-0,096	-0,140
302,662	-36,277	-0,166	0,061
303,676	69,561	-0,175	-0,124
304,691	115,382	-0,219	-0,184
305,706	130,056	-0,134	-0,118
306,720	20,086	-0,103	-0,057
307,735	-200,000	-0,029	-0,253
308,749	-11,632	-0,147	-0,066
309,764	323,928	-0,078	-0,103
310,779	-105,250	-0,170	-0,026
311,793	-6,017	-0,213	-0,100
312,808	158,683	-0,140	-0,134
313,822	127,037	-0,181	-0,157
314,837	615,335	-0,105	-0,182
315,852	-113,066	-0,202	0,027
316,866	260,838	-0,080	-0,095
317,881	2,560	-0,143	-0,071
318,895	-53,937	-0,149	-0,046
319,910	116,825	-0,134	-0,113
320,925	130,673	-0,141	-0,124
321,939	96,130	-0,123	-0,096
322,954	-200,000	-0,049	-0,157
323,968	800,000	-0,070	0,133
324,983	104,092	-0,232	-0,187
325,997	76,921	-0,155	-0,113
327,012	-169,004	-0,091	0,002
328,027	27,736	-0,093	-0,054
329,041	-200,000	-0,008	-0,129
330,056	80,360	-0,079	0,058
331,070	-17,215	-0,132	-0,057
332,085	129,567	-0,134	-0,117
333,100	138,585	-0,059	-0,053
334,114	-66,912	-0,158	-0,042
335,129	140,301	-0,178	-0,161
336,143	21,958	-0,214	-0,119
337,158	101,204	-0,075	-0,060
338,173	-200,000	0,023	-0,099
339,187	-127,932	-0,105	-0,010
340,202	282,161	-0,071	-0,088
341,216	-200,000	-0,039	-0,126
342,231	-151,466	-0,188	-0,009
343,246	-5,696	-0,104	-0,048
344,260	-129,691	-0,198	-0,018
345,275	-11,586	-0,103	0,046
346,289	-200,000	-0,005	0,052
347,304	-35,332	-0,153	-0,057
348,319	56,982	-0,132	-0,088
349,333	-82,262	-0,238	-0,053
350,348	123,091	-0,197	-0,169
351,362	353,501	-0,109	-0,148
352,377	25,396	-0,172	-0,098
353,392	39,424	-0,163	-0,100
354,406	-6,533	-0,208	-0,097
355,421	209,577	1313,758	1411,669
356,435	161,304	1474,380	1412,170
