DTS Sentinel unit serial number:	SN410029Multiplexer serial number:	ORYXHardware model number:	OX2-SRSoftware version number:	ORYX F/W v4,00 Oryx Data Collector v3.7.2.0data status	okinstallation	B3 Nyhavnadifferential loss correction	single-endedforward channel	channel 1reverse channel	N/Adate	2023/11/29time	20:12:30forward acquisition time	300,00reverse acquisition time	0,00gamma	499,1914k internal	0,3210k external	0,3210temperature offset calibration	1,0000default loss term (dB/km)	0,3820temperature slope calibration	1,0000multiplexer offset coefficient	1,0000multiplexer slope coefficient	1,0000fibre end	0,00T internal ref (°C)	10,87T ext. ref 1 (°C)	-4,27T ext. ref 2 (°C)	-4,35length (m)	temperature (°C)	Stokes	anti-Stokes-744,400	-200,000	-0,072	-0,237
-743,385	-200,000	-0,047	0,270
-742,371	246,830	-0,118	-0,145
-741,356	-200,000	0,020	0,235
-740,342	158,921	-0,197	-0,199
-739,327	-200,000	-0,015	0,254
-738,312	-82,323	-0,329	-0,077
-737,298	-200,000	-0,016	0,156
-736,283	453,907	-0,211	-0,340
-735,269	800,000	0,081	0,216
-734,254	69,622	-0,146	-0,109
-733,239	19,460	-0,121	0,070
-732,225	800,000	-0,078	-0,230
-731,210	2,512	0,185	0,097
-730,196	36,821	-0,180	0,115
-729,181	341,358	-0,104	-0,148
-728,167	-3,762	0,076	-0,038
-727,152	-79,345	-0,175	0,043
-726,137	206,434	-0,053	0,060
-725,123	-200,000	0,015	-0,053
-724,108	-45,976	-0,160	-0,057
-723,094	72,821	-0,141	-0,106
-722,079	111,284	0,007	0,006
-721,064	-163,774	-0,094	0,003
-720,050	352,411	0,054	-0,078
-719,035	-23,970	0,096	-0,041
-718,021	800,000	0,029	-0,084
-717,006	98,663	-0,131	-0,109
-715,991	272,450	-0,028	0,036
-714,977	592,358	-0,028	-0,051
-713,962	245,552	-0,034	-0,042
-712,948	-106,122	0,094	-0,015
-711,933	800,000	-0,038	0,079
-710,918	209,189	-0,067	-0,076
-709,904	-109,515	0,013	-0,002
-708,889	0,712	-0,056	-0,029
-707,875	-109,192	-0,120	-0,018
-706,860	77,470	-0,011	0,008
-705,845	230,899	0,051	-0,061
-704,831	-200,000	-0,001	-0,077
-703,816	-84,364	0,218	0,050
-702,802	-44,333	-0,097	-0,035
-701,787	55,679	-0,127	-0,089
-700,772	-5,981	-0,076	0,038
-699,758	-200,000	0,005	0,123
-698,743	-200,000	-0,033	0,117
-697,729	-200,000	0,024	0,220
-696,714	-38,741	0,079	-0,030
-695,699	16,274	-0,073	0,042
-694,685	25,252	-0,095	-0,057
-693,670	800,000	-0,051	0,120
-692,656	-200,000	0,009	0,053
-691,641	-200,000	0,020	0,130
-690,627	235,325	0,074	0,088
-689,612	17,731	0,136	0,078
-688,597	-68,721	-0,216	-0,060
-687,583	-62,762	-0,119	-0,035
-686,568	110,980	-0,077	-0,067
-685,554	-200,000	0,002	-0,067
-684,539	22,711	-0,041	0,024
-683,524	-200,000	-0,003	-0,077
-682,510	-200,000	0,008	0,049
-681,495	-61,732	-0,133	-0,040
-680,481	212,157	0,039	-0,045
-679,466	-11,380	0,104	0,049
-678,451	369,282	0,070	-0,103
-677,437	-138,794	0,076	-0,006
-676,422	136,945	0,087	-0,082
-675,408	9,583	0,045	-0,024
-674,393	-130,958	-0,080	-0,008
-673,378	-129,127	-0,100	-0,010
-672,364	-3,426	-0,037	-0,019
-671,349	18,771	-0,074	0,043
-670,335	99,941	-0,107	0,089
-669,320	-142,792	0,122	0,008
-668,305	800,000	0,043	0,111
-667,291	-120,339	0,104	-0,013
-666,276	-200,000	0,002	-0,063
-665,262	-200,000	-0,035	-0,158
-664,247	394,078	-0,071	-0,108
-663,232	73,315	-0,154	0,117
-662,218	-52,407	0,050	-0,017
-661,203	88,560	0,034	-0,028
-660,189	-200,000	0,019	0,083
-659,174	277,487	-0,089	0,114
-658,159	-12,030	-0,119	0,056
-657,145	178,158	-0,038	-0,040
-656,130	-141,707	-0,104	0,007
-655,116	285,031	0,044	-0,058
-654,101	-200,000	-0,012	0,098
-653,086	20,451	0,105	-0,061
-652,072	-200,000	-0,001	0,029
-651,057	44,918	-0,055	0,037
-650,043	184,502	0,052	-0,055
-649,028	-200,000	-0,010	0,201
-648,014	26,599	-0,117	0,071
-646,999	800,000	0,050	0,125
-645,984	675,975	0,111	-0,210
-644,970	173,336	-0,112	-0,117
-643,955	549,317	-0,071	-0,123
-642,941	118,506	-0,109	0,097
-641,926	507,238	0,073	0,123
-640,911	800,000	0,016	0,037
-639,897	367,783	0,059	-0,087
-638,882	-104,092	-0,097	0,016
-637,868	-200,000	-0,004	-0,044
-636,853	469,343	0,036	-0,059
-635,838	766,475	0,048	-0,096
-634,824	620,647	-0,022	-0,039
-633,809	-19,882	0,088	0,039
-632,795	-87,066	0,073	0,016
-631,780	317,677	-0,102	0,140
-630,765	-200,000	-0,006	0,070
-629,751	-1,073	-0,145	-0,074
-628,736	-178,601	-0,040	0,001
-627,722	363,632	0,062	0,091
-626,707	160,484	0,059	-0,059
-625,692	434,113	0,002	-0,004
-624,678	-29,181	-0,176	0,073
-623,663	442,329	0,022	-0,035
-622,649	-128,998	-0,076	0,008
-621,634	800,000	-0,054	-0,135
-620,619	210,050	-0,058	-0,066
-619,605	77,498	-0,053	0,040
-618,590	20,609	-0,073	-0,042
-617,576	-70,293	0,129	-0,035
-616,561	572,061	-0,033	0,058
-615,546	308,642	-0,064	0,087
-614,532	-58,075	-0,054	-0,017
-613,517	117,611	0,039	0,035
-612,503	227,998	-0,029	-0,034
-611,488	392,862	0,066	0,099
-610,474	800,000	-0,050	0,110
-609,459	218,819	0,020	-0,024
-608,444	105,542	-0,068	-0,058
-607,430	-112,819	-0,187	-0,026
-606,415	-200,000	-0,009	0,068
-605,401	-200,000	-0,045	0,185
-604,386	121,743	-0,045	-0,040
-603,371	-77,371	0,130	-0,032
-602,357	-104,027	0,077	0,013
-601,342	-200,000	0,033	-0,125
-600,328	-200,000	0,010	-0,083
-599,313	-47,881	-0,091	0,031
-598,298	-200,000	-0,007	0,028
-597,284	-33,970	0,053	0,021
-596,269	800,000	0,034	0,100
-595,255	800,000	0,014	-0,044
-594,240	-200,000	-0,022	0,095
-593,225	-175,350	-0,116	-0,002
-592,211	677,101	0,007	-0,014
-591,196	-200,000	-0,029	0,107
-590,182	470,658	-0,033	0,054
-589,167	800,000	-0,034	0,070
-588,152	597,545	0,094	0,169
-587,138	-200,000	-0,006	-0,086
-586,123	-200,000	0,015	-0,058
-585,109	-116,401	-0,174	0,023
-584,094	-200,000	0,034	0,119
-583,079	-62,951	-0,112	-0,033
-582,065	69,504	0,072	0,054
-581,050	396,139	0,039	0,059
-580,036	45,701	0,126	-0,083
-579,021	-93,879	0,143	-0,028
-578,006	718,644	0,018	0,035
-576,992	800,000	-0,023	0,068
-575,977	-92,581	0,058	-0,012
-574,963	17,854	0,056	0,032
-573,948	800,000	0,030	-0,073
-572,934	44,581	-0,176	-0,116
-571,919	-52,815	-0,026	0,008
-570,904	-200,000	0,022	-0,088
-569,890	146,379	-0,055	-0,054
-568,875	-200,000	0,026	-0,107
-567,861	800,000	-0,055	0,123
-566,846	-44,944	0,090	-0,032
-565,831	740,709	0,057	0,111
-564,817	412,507	-0,038	-0,059
-563,802	73,586	-0,180	-0,136
-562,788	-70,902	0,048	-0,013
-561,773	5,066	0,131	-0,069
-560,758	124,315	0,070	0,064
-559,744	-75,044	-0,098	-0,025
-558,729	-22,716	0,137	0,059
-557,715	-92,743	-0,091	-0,018
-556,700	-200,000	-0,020	-0,137
-555,685	-200,000	-0,031	0,106
-554,671	-130,018	0,215	0,021
-553,656	140,526	0,045	0,043
-552,642	112,475	0,096	0,083
-551,627	-64,123	0,006	0,002
-550,612	-65,226	-0,144	0,041
-549,598	800,000	-0,059	-0,129
-548,583	800,000	0,071	-0,147
-547,569	24,888	0,063	-0,038
-546,554	-69,587	0,093	0,025
-545,539	130,269	0,085	-0,079
-544,525	223,968	-0,051	-0,059
-543,510	800,000	-0,016	-0,037
-542,496	546,881	0,045	-0,078
-541,481	-173,581	-0,138	0,003
-540,466	-200,000	0,029	0,103
-539,452	313,302	0,019	0,026
-538,437	-200,000	0,014	0,154
-537,423	35,206	0,100	-0,063
-536,408	-200,000	0,001	0,007
-535,393	-200,000	-0,008	-0,157
-534,379	83,959	0,046	-0,036
-533,364	155,831	0,116	-0,115
-532,350	11,748	0,082	0,045
-531,335	-200,000	-0,019	0,063
-530,321	-140,923	-0,052	-0,004
-529,306	434,074	-0,030	0,047
-528,291	57,200	-0,062	0,043
-527,277	-200,000	-0,029	-0,253
-526,262	154,971	0,075	0,074
-525,248	-61,531	0,175	-0,053
-524,233	-200,000	0,024	0,106
-523,218	-97,100	-0,055	-0,010
-522,204	-68,263	0,056	0,015
-521,189	58,489	-0,032	-0,023
-520,175	800,000	-0,024	-0,050
-519,160	782,631	-0,035	-0,070
-518,145	13,349	0,138	0,077
-517,131	23,948	0,153	-0,091
-516,116	467,718	0,101	0,163
-515,102	-162,169	-0,033	-0,001
-514,087	800,000	0,017	-0,042
-513,072	800,000	-0,059	-0,184
-512,058	136,178	0,041	-0,038
-511,043	-38,806	0,092	-0,035
-510,029	-12,578	-0,122	0,057
-509,014	-36,684	0,118	0,045
-507,999	-200,000	-0,030	-0,141
-506,985	8,402	-0,156	-0,084
-505,970	-58,599	-0,082	-0,025
-504,956	800,000	-0,025	-0,054
-503,941	-200,000	0,017	0,065
-502,926	96,176	0,072	-0,059
-501,912	336,636	0,062	0,086
-500,897	563,532	-0,007	-0,012
-499,883	55,817	-0,168	0,117
-498,868	-125,585	0,031	0,003
-497,853	-157,737	-0,049	0,002
-496,839	-200,000	0,017	-0,118
-495,824	59,269	0,109	0,077
-494,810	-46,729	-0,018	-0,006
-493,795	-200,000	0,007	0,125
-492,781	125,207	0,101	0,092
-491,766	-112,850	-0,050	-0,007
-490,751	625,641	0,062	-0,113
-489,737	40,866	-0,068	-0,044
-488,722	-200,000	-0,009	-0,184
-487,708	-40,096	0,068	-0,025
-486,693	-112,531	-0,132	-0,019
-485,678	800,000	-0,004	0,013
-484,664	63,754	0,051	-0,037
-483,649	-200,000	-0,008	-0,114
-482,635	-200,000	0,008	-0,120
-481,620	800,000	-0,007	-0,018
-480,605	-152,189	-0,029	-0,002
-479,591	271,002	-0,018	-0,023
-478,576	418,156	0,029	-0,045
-477,562	800,000	0,061	-0,158
-476,547	-174,306	-0,079	-0,002
-475,532	-200,000	0,005	0,026
-474,518	800,000	0,017	0,043
-473,503	191,149	0,072	-0,078
-472,489	-188,859	-0,050	-0,000
-471,474	35,961	-0,054	0,034
-470,459	422,681	-0,064	-0,098
-469,445	525,968	-0,085	-0,144
-468,430	316,908	-0,047	0,064
-467,416	88,016	0,054	-0,043
-466,401	96,353	0,081	0,066
-465,386	800,000	-0,069	0,150
-464,372	-121,630	0,170	0,020
-463,357	-32,992	-0,160	-0,063
-462,343	-92,981	-0,067	0,013
-461,328	202,865	-0,075	0,084
-460,313	88,888	-0,007	0,005
-459,299	-85,091	-0,014	-0,003
-458,284	-56,822	0,022	0,007
-457,270	-200,000	-0,003	0,027
-456,255	800,000	0,049	0,103
-455,241	180,267	-0,097	0,102
-454,226	27,324	-0,109	-0,066
-453,211	-200,000	0,005	-0,063
-452,197	-84,754	-0,074	-0,017
-451,182	161,623	0,092	0,093
-450,168	61,630	0,057	-0,041
-449,153	164,627	-0,101	-0,102
-448,138	281,390	-0,117	0,151
-447,124	-200,000	0,002	0,034
-446,109	268,677	0,045	-0,057
-445,095	-200,000	-0,001	-0,052
-444,080	136,887	-0,035	0,033
-443,065	-26,341	-0,114	0,048
-442,051	166,216	0,016	-0,017
-441,036	-200,000	-0,005	-0,108
-440,022	46,357	-0,064	0,042
-439,007	92,568	0,031	0,025
-437,992	-72,515	0,136	0,036
-436,978	800,000	0,090	0,190
-435,963	-113,338	-0,102	0,014
-434,949	-200,000	-0,018	0,057
-433,934	4,226	-0,157	-0,082
-432,919	-42,478	0,061	-0,022
-431,905	800,000	0,023	-0,070
-430,890	-62,412	0,149	-0,044
-429,876	-200,000	0,007	0,031
-428,861	-68,271	-0,100	0,028
-427,846	800,000	-0,036	-0,109
-426,832	-200,000	-0,004	-0,049
-425,817	252,222	-0,063	-0,077
-424,803	108,664	0,059	-0,050
-423,788	-144,442	-0,043	-0,003
-422,773	800,000	0,062	0,125
-421,759	-104,225	0,109	0,018
-420,744	-200,000	-0,013	-0,111
-419,730	-71,901	-0,033	0,009
-418,715	-200,000	-0,034	-0,136
-417,701	800,000	0,079	-0,182
-416,686	-110,004	-0,039	0,006
-415,671	155,723	0,055	-0,054
-414,657	278,491	-0,017	0,022
-413,642	-55,115	-0,140	-0,045
-412,628	-28,854	-0,135	-0,055
-411,613	490,567	0,021	0,035
-410,598	126,897	0,073	0,066
-409,584	218,740	0,042	0,048
-408,569	-68,464	0,101	-0,028
-407,555	517,364	-0,053	0,089
-406,540	463,407	-0,068	0,109
-405,525	41,261	0,092	0,059
-404,511	800,000	-0,018	-0,047
-403,496	-200,000	0,003	0,046
-402,482	-62,286	0,099	-0,029
-401,467	78,087	-0,018	0,014
-400,452	-200,000	0,030	0,120
-399,438	-95,258	0,070	0,013
-398,423	376,454	0,034	-0,049
-397,409	244,724	-0,104	-0,125
-396,394	59,577	-0,055	-0,039
-395,379	-132,590	0,091	0,008
-394,365	-35,863	-0,082	-0,032
-393,350	-50,534	0,180	0,060
-392,336	-169,881	-0,078	0,002
-391,321	-126,700	0,058	0,006
-390,306	189,412	-0,009	-0,010
-389,292	709,594	-0,028	0,053
-388,277	447,935	-0,051	0,080
-387,263	-73,209	-0,098	0,026
-386,248	206,955	0,041	0,046
-385,233	800,000	0,010	-0,031
-384,219	152,707	-0,041	0,040
-383,204	-153,295	-0,007	0,000
-382,190	-200,000	-0,140	-0,000
-381,175	800,000	-0,073	-0,151
-380,160	-141,646	0,124	0,009
-379,146	800,000	-0,019	0,045
-378,131	-200,000	-0,002	0,069
-377,117	10,943	-0,083	-0,045
-376,102	-14,189	0,065	0,030
-375,088	-29,495	-0,070	0,029
-374,073	-200,000	-0,027	-0,088
-373,058	-200,000	0,012	0,041
-372,044	-200,000	0,009	0,099
-371,029	217,914	-0,079	0,090
-370,015	800,000	-0,021	-0,044
-369,000	-200,000	0,007	-0,045
-367,985	426,131	-0,057	-0,089
-366,971	800,000	-0,029	0,077
-365,956	93,110	-0,082	-0,066
-364,942	-200,000	0,016	0,074
-363,927	389,559	-0,089	-0,132
-362,912	-200,000	-0,004	0,102
-361,898	800,000	-0,011	-0,028
-360,883	-140,608	-0,092	-0,007
-359,869	629,236	-0,016	-0,030
-358,854	314,185	0,012	-0,016
-357,839	48,837	0,076	0,051
-356,825	-58,080	0,114	0,035
-355,810	-200,000	0,001	-0,046
-354,796	70,332	0,037	0,027
-353,781	207,486	0,117	0,130
-352,766	6,495	-0,062	-0,033
-351,752	-200,000	0,016	-0,055
-350,737	-45,043	0,037	0,013
-349,723	-200,000	-0,029	-0,135
-348,708	800,000	0,014	0,044
-347,693	-68,587	-0,152	0,042
-346,679	-200,000	-0,010	-0,101
-345,664	111,263	0,075	0,064
-344,650	191,648	0,100	0,108
-343,635	-162,601	0,009	-0,000
-342,620	255,379	0,014	0,017
-341,606	-57,965	-0,089	0,028
-340,591	328,353	-0,080	-0,110
-339,577	-99,512	0,102	0,018
-338,562	376,417	-0,029	0,042
-337,548	776,035	-0,050	-0,098
-336,533	13,671	-0,078	0,043
-335,518	33,322	0,106	0,065
-334,504	-59,585	0,049	-0,015
-333,489	-121,779	-0,111	0,013
-332,475	800,000	0,013	-0,038
-331,460	-200,000	-0,012	-0,095
-330,445	-44,814	-0,043	0,015
-329,431	-200,000	0,006	0,077
-328,416	27,072	0,194	0,116
-327,402	-200,000	-0,019	0,140
-326,387	-200,000	0,001	0,111
-325,372	737,502	0,045	-0,086
-324,358	74,286	-0,105	-0,079
-323,343	800,000	0,031	0,085
-322,329	45,772	-0,034	0,023
-321,314	-6,789	-0,045	-0,022
-320,299	729,655	-0,094	-0,179
-319,285	-200,000	0,038	-0,136
-318,270	-55,203	0,080	0,025
-317,256	102,767	0,047	0,039
-316,241	800,000	-0,025	0,065
-315,226	73,289	-0,035	0,026
-314,212	1,734	0,050	-0,026
-313,197	116,079	-0,041	0,036
-312,183	-96,359	0,061	-0,011
-311,168	235,774	-0,048	0,057
-310,153	-200,000	-0,001	-0,059
-309,139	800,000	-0,071	-0,149
-308,124	50,703	0,147	-0,099
-307,110	202,381	-0,046	0,051
-306,095	31,447	0,145	-0,089
-305,080	84,586	-0,106	0,083
-304,066	-73,000	0,027	0,007
-303,051	-71,458	-0,148	-0,039
-302,037	344,492	-0,022	0,031
-301,022	800,000	-0,058	0,139
-300,008	217,931	0,120	0,137
-298,993	800,000	0,024	0,051
-297,978	402,114	-0,034	0,051
-296,964	-200,000	0,017	-0,055
-295,949	-200,000	-0,001	-0,057
-294,935	55,917	-0,071	-0,049
-293,920	128,786	-0,067	0,061
-292,905	800,000	0,036	0,072
-291,891	728,885	0,007	-0,014
-290,876	459,828	0,064	0,102
-289,862	800,000	0,021	-0,045
-288,847	-106,838	-0,141	0,022
-287,832	-94,823	0,046	0,009
-286,818	-200,000	-0,015	0,062
-285,803	13,332	0,196	0,108
-284,789	88,342	-0,066	-0,052
-283,774	23,777	0,043	0,025
-282,759	-79,559	0,057	-0,014
-281,745	113,311	-0,097	-0,084
-280,730	800,000	0,049	-0,127
-279,716	-200,000	-0,021	-0,067
-278,701	687,097	0,063	0,118
-277,686	800,000	0,033	-0,077
-276,672	16,397	0,055	0,031
-275,657	-8,717	0,170	0,081
-274,643	800,000	-0,030	-0,064
-273,628	393,245	-0,094	-0,140
-272,613	-82,173	0,179	0,041
-271,599	-94,609	0,093	-0,018
-270,584	414,027	0,077	0,116
-269,570	-200,000	0,013	0,081
-268,555	25,597	0,079	-0,047
-267,540	61,393	-0,037	-0,026
-266,526	-200,000	0,003	-0,043
-265,511	-200,000	0,015	-0,055
-264,497	-27,507	0,115	-0,047
-263,482	398,427	0,016	-0,023
-262,467	35,705	-0,154	-0,096
-261,453	-40,589	0,123	-0,045
-260,438	266,174	-0,029	-0,036
-259,424	-112,133	-0,139	0,020
-258,409	579,575	0,018	-0,031
-257,395	-200,000	-0,011	-0,149
-256,380	45,612	0,205	-0,135
-255,365	-200,000	-0,002	-0,029
-254,351	180,244	0,052	0,055
-253,336	38,767	-0,062	0,039
-252,322	35,803	0,113	-0,070
-251,307	-162,595	0,050	0,002
-250,292	-200,000	0,001	0,117
-249,278	573,856	-0,041	-0,072
-248,263	-124,074	0,046	-0,005
-247,249	315,514	0,077	0,104
-246,234	-109,131	-0,080	0,012
-245,219	-57,930	-0,061	-0,019
-244,205	800,000	0,007	-0,018
-243,190	-200,000	0,021	0,100
-242,176	800,000	0,057	0,112
-241,161	40,886	0,127	0,081
-240,146	348,921	0,060	0,084
-239,132	800,000	-0,065	-0,131
-238,117	-61,137	-0,016	0,005
-237,103	800,000	-0,030	-0,081
-236,088	-200,000	0,000	-0,103
-235,073	12,707	0,046	0,025
-234,059	93,692	0,072	0,058
-233,044	447,770	0,034	-0,053
-232,030	41,735	-0,024	0,015
-231,015	68,759	-0,061	-0,045
-230,000	269,240	-0,073	-0,091
-228,986	800,000	-0,041	-0,105
-227,971	800,000	-0,013	0,033
-226,957	800,000	0,039	-0,104
-225,942	800,000	-0,027	0,068
-224,927	56,881	-0,083	0,057
-223,913	41,360	-0,152	0,098
-222,898	6,750	0,068	-0,036
-221,884	-200,000	0,014	-0,099
-220,869	-38,480	0,145	0,054
-219,855	-37,803	-0,038	-0,014
-218,840	-200,000	0,007	-0,022
-217,825	90,209	0,155	0,123
-216,811	25,202	0,078	0,046
-215,796	741,683	-0,035	0,068
-214,782	-113,108	-0,160	-0,022
-213,767	-200,000	0,022	0,089
-212,752	-8,128	0,132	-0,063
-211,738	-200,000	0,033	-0,114
-210,723	-200,000	-0,000	0,098
-209,709	-199,185	-0,151	0,001
-208,694	2,409	-0,072	0,037
-207,679	0,651	-0,174	0,088
-206,665	800,000	-0,072	0,147
-205,650	-200,000	0,030	-0,106
-204,636	81,257	-0,081	0,062
-203,621	-44,493	-0,063	0,022
-202,606	665,174	0,020	-0,036
-201,592	82,530	-0,085	-0,065
-200,577	151,166	0,054	-0,052
-199,563	166,320	-0,022	-0,022
-198,548	95,020	-0,013	-0,010
-197,533	226,071	0,088	-0,101
-196,519	800,000	-0,079	0,173
-195,504	105,237	-0,077	-0,065
-194,490	57,295	0,048	-0,033
-193,475	165,782	-0,071	-0,072
-192,460	43,312	0,229	0,148
-191,446	234,649	0,050	-0,059
-190,431	113,269	-0,097	0,083
-189,417	486,106	0,055	0,090
-188,402	-5,062	-0,096	0,047
-187,387	141,047	0,035	-0,033
-186,373	-200,000	0,003	-0,012
-185,358	561,676	0,035	-0,061
-184,344	294,438	0,088	0,114
-183,329	-84,021	0,028	0,006
-182,315	163,451	-0,107	0,107
-181,300	800,000	0,034	0,095
-180,285	-165,499	0,061	0,002
-179,271	43,371	-0,043	-0,028
-178,256	-200,000	0,018	0,100
-177,242	-200,000	0,006	0,038
-176,227	800,000	-0,058	0,119
-175,212	546,324	0,065	-0,111
-174,198	-200,000	0,024	0,098
-173,183	800,000	-0,049	-0,097
-172,169	-200,000	-0,013	-0,050
-171,154	-200,000	-0,019	-0,062
-170,139	800,000	0,023	0,054
-169,125	203,595	0,108	-0,119
-168,110	800,000	0,046	0,091
-167,096	120,917	-0,019	0,016
-166,081	768,446	-0,081	0,157
-165,066	-200,000	0,011	-0,113
-164,052	-200,000	-0,015	0,115
-163,037	185,783	-0,041	0,043
-162,023	234,628	0,036	0,042
-161,008	541,977	0,065	0,110
-159,993	54,313	0,034	0,023
-158,979	51,803	-0,034	-0,023
-157,964	243,090	-0,126	-0,150
-156,950	-141,114	0,047	0,003
-155,935	800,000	-0,058	0,126
-154,920	-176,379	0,053	-0,001
-153,906	502,323	-0,055	-0,090
-152,891	66,806	0,104	0,075
-151,877	91,520	0,100	0,080
-150,862	-67,551	0,011	-0,003
-149,847	-200,000	0,000	-0,080
-148,833	800,000	-0,025	0,055
-147,818	30,986	-0,021	0,013
-146,804	101,234	0,067	-0,055
-145,789	-133,689	-0,024	0,002
-144,775	-200,000	0,011	0,081
-143,760	213,909	-0,084	-0,094
-142,745	-75,756	-0,053	-0,013
-141,731	232,904	0,058	0,068
-140,716	519,922	0,011	-0,018
-139,702	800,000	-0,020	-0,053
-138,687	-102,637	-0,060	0,010
-137,672	552,776	-0,019	0,032
-136,658	-61,404	-0,038	0,011
-135,643	-44,220	-0,055	0,020
-134,629	-102,500	0,124	-0,021
-133,614	800,000	0,033	-0,076
-132,599	250,856	0,093	0,112
-131,585	-77,565	0,110	0,027
-130,570	-44,793	0,064	-0,023
-129,556	-163,806	0,070	0,002
-128,541	210,824	0,016	-0,018
-127,526	70,109	-0,175	-0,128
-126,512	412,215	0,066	0,099
-125,497	117,049	0,081	0,070
-124,483	54,181	0,007	0,004
-123,468	-200,000	-0,040	0,157
-122,453	-135,489	0,100	0,008
-121,439	58,129	0,077	0,053
-120,424	386,963	-0,070	-0,103
-119,410	-119,210	-0,206	-0,025
-118,395	-149,461	0,201	-0,011
-117,380	713,065	0,011	-0,021
-116,366	31,936	0,155	0,094
-115,351	-118,093	-0,005	-0,001
-114,337	350,773	0,050	-0,070
-113,322	-200,000	0,005	-0,056
-112,307	401,116	0,097	-0,144
-111,293	18,492	0,062	0,035
-110,278	253,185	0,007	-0,008
-109,264	-96,881	-0,099	0,018
-108,249	351,190	0,063	0,089
-107,234	-200,000	0,003	-0,054
-106,220	-107,775	-0,076	-0,012
-105,205	-92,427	0,061	-0,012
-104,191	-200,000	0,004	0,025
-103,176	800,000	0,011	0,029
-102,162	-200,000	0,011	-0,067
-101,147	162,579	0,009	-0,009
-100,132	19,045	-0,102	-0,058
-99,118	-200,000	0,010	-0,087
-98,103	27,609	-0,111	0,066
-97,089	-5,657	0,113	0,054
-96,074	800,000	0,046	0,141
-95,059	-115,549	-0,190	0,025
-94,045	-143,719	0,002	0,000
-93,030	115,659	-0,030	-0,026
-92,016	108,723	-0,079	0,067
-91,001	-16,341	0,146	-0,065
-89,986	800,000	-0,055	0,114
-88,972	-44,968	-0,005	-0,002
-87,957	72,576	-0,050	0,037
-86,943	133,621	-0,084	-0,077
-85,928	-200,000	0,000	0,107
-84,913	-33,960	-0,050	0,019
-83,899	-1,582	-0,121	-0,060
-82,884	800,000	0,031	-0,077
-81,870	643,310	-0,033	0,060
-80,855	-197,347	0,099	-0,000
-79,840	-157,598	0,099	0,004
-78,826	-49,963	-0,177	0,059
-77,811	278,201	-0,086	-0,108
-76,797	71,085	0,050	0,037
-75,782	-62,161	-0,092	0,027
-74,767	-49,158	-0,088	-0,030
-73,753	-34,933	0,105	0,040
-72,738	-200,000	-0,001	-0,040
-71,724	-56,065	0,125	-0,039
-70,709	57,062	-0,107	0,074
-69,694	48,159	0,099	-0,065
-68,680	344,068	0,048	0,067
-67,665	-200,000	-0,015	0,134
-66,651	-111,566	-0,197	0,028
-65,636	-20,281	-0,169	0,073
-64,622	-127,130	0,142	0,014
-63,607	800,000	0,042	-0,117
-62,592	-105,321	-0,061	0,010
-61,578	492,396	0,037	-0,061
-60,563	-4,210	0,104	-0,051
-59,549	753,920	-0,067	-0,128
-58,534	29,818	-1,873	-1,124
-57,519	438,096	-1,314	-2,030
-56,505	-200,000	-0,283	-4,386
-55,490	506,784	0,835	1,373
-54,476	800,000	5,160	11,246
-53,461	-200,000	20,848	329,395
-52,446	800,000	757,340	2323,350
-51,432	549,895	1662,337	2824,937
-50,417	73,422	1664,090	1228,322
-49,403	18,697	1537,155	866,040
-48,388	12,734	1460,143	793,788
-47,373	18,989	1450,981	818,822
-46,359	15,858	1440,393	797,909
-45,344	11,051	1435,890	772,483
-44,330	10,923	1434,090	770,870
-43,315	10,914	1432,360	769,870
-42,300	10,964	1430,323	768,983
-41,286	10,931	1429,260	768,222
-40,271	10,882	1427,824	767,189
-39,257	10,919	1426,615	766,684
-38,242	10,963	1425,500	766,264
-37,227	10,977	1424,440	765,729
-36,213	10,940	1423,357	764,941
-35,198	10,915	1422,349	764,251
-34,184	10,968	1421,372	763,943
-33,169	10,884	1420,115	762,842
-32,154	10,994	1418,878	762,668
-31,140	10,966	1417,758	761,904
-30,125	11,040	1416,398	761,489
-29,111	11,021	1415,393	760,831
-28,096	11,001	1413,986	759,949
-27,082	10,943	1412,908	759,065
-26,067	10,887	1412,220	758,406
-25,052	10,921	1411,002	757,881
-24,038	10,902	1410,108	757,282
-23,023	10,918	1409,022	756,744
-22,009	10,924	1407,972	756,178
-20,994	10,857	1407,097	755,362
-19,979	10,869	1406,093	754,850
-18,965	10,899	1405,083	754,416
-17,950	10,820	1404,394	753,649
-16,936	10,820	1403,673	753,231
-15,921	10,789	1402,557	752,458
-14,906	10,826	1401,554	752,065
-13,892	10,874	1400,292	751,580
-12,877	10,814	1399,733	750,971
-11,863	10,782	1399,140	750,477
-10,848	10,810	1397,741	749,827
-9,833	10,741	1397,207	749,188
-8,819	10,721	1396,285	748,573
-7,804	10,694	1395,512	748,001
-6,790	10,731	1394,337	747,512
-5,775	10,768	1393,216	747,053
-4,760	10,783	1392,205	746,551
-3,746	10,799	1391,353	746,142
-2,731	10,746	1390,510	745,414
-1,717	10,703	1389,710	744,757
-0,702	10,625	1388,075	743,491
0,313	14,794	1301,436	716,149
1,327	31,153	692,681	418,360
2,342	48,136	120,144	79,130
3,356	2,822	16,415	8,376
4,371	5,005	3,436	1,778
5,386	-27,562	0,696	0,284
6,400	-200,000	0,075	0,456
7,415	-139,091	-0,168	-0,013
8,429	10,029	-0,352	-0,188
9,444	-9,597	-0,396	-0,186
10,459	114,785	-0,189	-0,162
11,473	28,503	-0,197	-0,117
12,488	-86,836	-0,236	-0,050
13,502	141,117	-0,186	-0,173
14,517	-84,380	-0,338	-0,075
15,531	13,607	-0,303	-0,165
16,546	51,793	-0,384	-0,257
17,561	250,221	-0,238	-0,285
18,575	-155,807	-0,142	0,006
19,590	495,723	-0,148	-0,240
20,604	65,129	-0,217	-0,155
21,619	115,953	-0,409	-0,352
22,634	98,050	-0,428	-0,347
23,648	60,983	-0,568	-0,397
24,663	147,547	-0,409	-0,388
25,677	35,436	-0,258	-0,159
26,692	-79,436	-0,435	-0,103
27,707	126,320	-0,249	-0,222
28,721	54,558	-0,275	-0,186
29,736	11,542	-0,366	-0,197
30,750	234,429	-0,306	-0,356
31,765	-71,255	-0,441	-0,116
32,780	322,389	-0,217	-0,292
33,794	202,901	-0,306	-0,334
34,809	-41,149	-0,444	-0,160
35,823	153,203	-0,225	-0,217
36,838	-24,097	-0,425	-0,178
37,853	45,907	-0,381	-0,247
38,867	383,214	-0,253	-0,367
39,882	506,997	-0,151	-0,247
40,896	332,493	-0,189	-0,257
41,911	72,970	-0,365	-0,267
42,926	107,442	-0,235	-0,196
43,940	23,648	-0,419	-0,242
44,955	61,266	-0,423	-0,295
45,969	126,370	-0,306	-0,272
46,984	70,391	-0,241	-0,175
47,999	26,095	-0,292	-0,171
49,013	145,311	-0,269	-0,253
50,028	16,580	-0,326	-0,180
51,042	35,819	-0,420	-0,259
52,057	38,752	-0,323	-0,202
53,071	9,710	-0,219	-0,116
54,086	35,294	-0,408	-0,251
55,101	31,208	-0,207	-0,125
56,115	41,902	-0,382	-0,243
57,130	-25,817	-0,318	-0,131
58,144	8,440	-0,394	-0,207
59,159	224,629	-0,277	-0,315
60,174	-4,355	-0,401	-0,194
61,188	7,375	-0,347	-0,182
62,203	-16,903	-0,299	-0,132
63,217	-65,540	-0,344	-0,096
64,232	132,037	-0,287	-0,259
65,247	179,685	-0,261	-0,269
66,261	93,752	-0,360	-0,286
67,276	122,424	-0,350	-0,307
68,290	470,308	-0,198	-0,314
69,305	-5,902	-0,380	-0,182
70,320	45,048	-0,278	-0,180
71,334	139,505	-0,344	-0,317
72,349	-3,934	-0,269	-0,130
73,363	64,302	-0,241	-0,170
74,378	-3,573	-0,335	-0,163
75,393	-82,613	-0,328	-0,074
76,407	130,222	-0,300	-0,270
77,422	60,127	-0,294	-0,203
78,436	-40,113	-0,310	-0,113
79,451	283,295	-0,304	-0,383
80,466	25,237	-0,309	-0,179
81,480	66,686	-0,318	-0,226
82,495	-200,000	-0,015	-0,281
83,509	88,178	-0,272	-0,212
84,524	-96,595	-0,268	-0,049
85,539	47,317	-0,276	-0,180
86,553	-16,884	-0,369	-0,163
87,568	230,721	-0,229	-0,263
88,582	-61,517	-0,454	-0,133
89,597	19,970	-0,394	-0,222
90,611	227,029	-0,221	-0,252
91,626	52,791	-0,258	-0,173
92,641	27,482	-0,166	-0,097
93,655	-10,637	-0,358	-0,165
94,670	102,659	-0,222	-0,181
95,684	12,331	-0,306	-0,164
96,699	61,146	-0,251	-0,174
97,714	171,080	-0,159	-0,160
98,728	12,499	-0,260	-0,140
99,743	142,987	-0,254	-0,236
100,757	-116,071	-0,243	-0,031
101,772	87,856	-0,318	-0,246
102,787	29,034	-0,337	-0,199
103,801	20,794	-0,371	-0,209
104,816	122,294	-0,147	-0,129
105,830	-37,591	-0,206	-0,076
106,845	199,894	-0,179	-0,192
107,860	-49,947	-0,219	-0,072
108,874	133,411	-0,238	-0,215
109,889	-12,398	-0,405	-0,184
110,903	33,302	-0,209	-0,126
111,918	79,747	-0,299	-0,225
112,933	41,108	-0,293	-0,184
113,947	-53,927	-0,334	-0,106
114,962	-29,571	-0,227	-0,090
115,976	24,898	-0,295	-0,170
116,991	195,967	-0,284	-0,302
118,006	77,946	-0,282	-0,210
119,020	-42,298	-0,246	-0,087
120,035	157,478	-0,190	-0,183
121,049	-98,981	-0,223	-0,039
122,064	58,355	-0,242	-0,165
123,079	418,613	-0,182	-0,272
124,093	92,730	-0,280	-0,220
125,108	67,210	-0,142	-0,101
126,122	25,275	-0,345	-0,199
127,137	89,788	-0,265	-0,206
128,151	-84,207	-0,299	-0,066
129,166	-57,678	-0,285	-0,087
130,181	113,168	-0,219	-0,185
131,195	23,522	-0,338	-0,194
132,210	25,797	-0,310	-0,180
133,224	84,520	-0,156	-0,119
134,239	163,189	-0,306	-0,300
135,254	15,595	-0,190	-0,104
136,268	-47,208	-0,368	-0,124
137,283	-44,474	-0,259	-0,090
138,297	93,346	-0,323	-0,255
139,312	101,841	-0,232	-0,189
140,327	-29,892	-0,322	-0,127
141,341	-9,161	-0,267	-0,124
142,356	84,205	-0,173	-0,131
143,370	-45,042	-0,265	-0,091
144,385	-47,625	-0,239	-0,080
145,400	49,852	-0,248	-0,163
146,414	57,321	-0,273	-0,186
147,429	106,023	-0,259	-0,214
148,443	88,150	-0,261	-0,202
149,458	-6,937	-0,286	-0,135
150,473	-33,727	-0,303	-0,116
151,487	-4,663	-0,315	-0,151
152,502	-26,514	-0,323	-0,131
153,516	-26,218	-0,338	-0,138
154,531	335,793	-0,261	-0,353
155,546	319,191	-0,269	-0,356
156,560	-135,295	-0,188	0,015
157,575	-29,599	-0,269	-0,107
158,589	-51,456	-0,268	-0,087
159,604	14,195	-0,301	-0,163
160,619	564,880	-0,187	-0,316
161,633	45,549	-0,210	-0,135
162,648	-92,722	-0,215	-0,042
163,662	-54,714	-0,207	-0,065
164,677	86,099	-0,163	-0,125
165,692	-153,984	-0,236	-0,011
166,706	44,439	-0,348	-0,222
167,721	327,053	-0,242	-0,323
168,735	-55,223	-0,233	-0,072
169,750	304,350	-0,163	-0,210
170,764	106,939	-0,162	-0,134
171,779	271,641	-0,231	-0,284
172,794	-32,655	-0,293	-0,113
173,808	-148,436	-0,223	-0,013
174,823	75,502	-0,192	-0,141
175,837	64,134	-0,201	-0,141
176,852	-140,527	-0,206	-0,015
177,867	72,157	-0,091	0,066
178,881	740,364	-0,103	-0,194
179,896	272,559	-0,218	-0,268
180,910	9,120	-0,248	-0,129
181,925	198,673	-0,200	-0,213
182,940	64,238	-0,284	-0,198
183,954	163,966	-0,245	-0,239
184,969	-37,220	-0,271	-0,100
185,983	-68,302	-0,254	-0,068
186,998	118,113	-0,158	-0,135
188,013	338,562	-0,126	-0,170
189,027	151,301	-0,123	-0,116
190,042	24,425	-0,228	-0,130
191,056	14,170	-0,336	-0,181
192,071	-122,408	-0,163	-0,018
193,086	-121,236	-0,240	-0,028
194,100	93,833	-0,161	-0,127
195,115	800,000	-0,072	-0,220
196,129	-21,098	-0,145	-0,061
197,144	67,245	-0,243	-0,172
198,159	79,723	-0,200	-0,149
199,173	521,828	-0,159	-0,260
200,188	113,515	-0,276	-0,233
201,202	237,110	-0,204	-0,235
202,217	354,385	-0,115	-0,158
203,232	800,000	-0,102	-0,222
204,246	268,222	-0,164	-0,199
205,261	46,657	-0,186	-0,119
206,275	-54,075	-0,305	-0,095
207,290	77,455	-0,163	-0,120
208,304	-200,000	-0,033	-0,267
209,319	254,137	-0,187	-0,222
210,334	14,404	-0,308	-0,166
211,348	141,130	-0,206	-0,189
212,363	416,185	-0,114	-0,169
213,377	199,005	-0,141	-0,150
214,392	-101,751	-0,160	-0,027
215,407	-1,260	-0,267	-0,130
216,421	-25,420	-0,223	-0,091
217,436	-31,581	-0,207	-0,080
218,450	321,695	-0,086	-0,113
219,465	50,124	-0,168	-0,110
220,480	21,175	-0,298	-0,167
221,494	-45,434	-0,193	0,066
222,509	300,175	-0,034	-0,044
223,523	-65,427	-0,198	-0,055
224,538	118,741	-0,162	-0,138
225,553	-40,386	-0,072	-0,026
226,567	336,026	-0,101	-0,136
227,582	-158,808	-0,203	0,008
228,596	43,457	-0,168	-0,106
229,611	-70,092	-0,103	-0,027
230,626	-32,038	-0,195	-0,075
231,640	17,404	-0,304	-0,166
232,655	254,495	-0,196	-0,232
233,669	499,818	-0,135	-0,216
234,684	-39,876	-0,266	-0,096
235,699	-108,203	-0,091	-0,013
236,713	-200,000	-0,010	-0,213
237,728	51,092	-0,206	-0,135
238,742	68,444	-0,106	-0,075
239,757	-106,949	-0,091	-0,014
240,772	224,800	-0,152	-0,171
241,786	377,901	-0,161	-0,228
242,801	119,404	-0,164	-0,141
243,815	-127,874	-0,159	-0,016
244,830	-114,223	-0,251	0,033
245,844	-12,071	-0,196	-0,088
246,859	-146,255	-0,227	0,014
247,874	-158,182	-0,229	-0,009
248,888	38,352	-0,177	-0,108
249,903	49,347	-0,128	-0,083
250,917	65,537	-0,102	-0,071
251,932	116,279	-0,092	-0,077
252,947	-27,147	-0,243	-0,097
253,961	-200,000	-0,040	-0,174
254,976	37,892	-0,201	-0,123
255,990	222,699	-0,127	-0,142
257,005	-38,179	-0,279	-0,101
258,020	-42,504	-0,212	-0,074
259,034	114,818	-0,161	-0,135
260,049	556,921	-0,052	-0,087
261,063	25,971	-0,079	-0,045
262,078	-115,329	-0,237	0,030
263,093	210,933	-0,134	-0,146
264,107	330,447	-0,233	-0,310
265,122	-22,455	-0,171	-0,071
266,136	59,917	-0,158	-0,108
267,151	58,685	-0,114	-0,077
268,166	38,752	-0,180	-0,111
269,180	147,285	-0,087	-0,080
270,195	52,808	-0,244	-0,161
271,209	48,307	-0,176	-0,113
272,224	17,311	-0,218	-0,119
273,239	94,195	-0,091	-0,071
274,253	-53,774	-0,195	0,061
275,268	382,726	-0,125	-0,178
276,282	-104,253	-0,201	-0,032
277,297	785,160	-0,092	-0,174
278,312	398,477	-0,182	-0,263
279,326	-133,615	-0,155	0,013
280,341	-200,000	-0,011	0,076
281,355	-35,832	-0,043	0,016
282,370	335,533	-0,100	-0,134
283,384	-158,680	-0,158	-0,006
284,399	396,106	-0,154	-0,222
285,414	800,000	-0,079	-0,205
286,428	421,024	-0,084	-0,125
287,443	-47,924	-0,105	-0,035
288,457	113,307	-0,062	-0,052
289,472	-71,518	-0,111	0,028
290,487	94,088	-0,194	-0,152
291,501	-12,585	-0,195	-0,087
292,516	-146,071	-0,210	-0,013
293,530	-74,929	-0,229	-0,056
294,545	800,000	-0,017	-0,043
295,560	-118,515	-0,060	0,007
296,574	633,515	-0,088	-0,155
297,589	60,626	-0,127	-0,086
298,603	318,902	-0,221	-0,289
299,618	484,103	-0,163	-0,257
300,633	129,460	-0,141	-0,124
301,647	54,880	-0,066	-0,044
302,662	-169,251	0,091	-0,002
303,676	-79,597	-0,122	0,028
304,691	7,481	-0,246	-0,126
305,706	687,669	-0,071	-0,129
306,720	-152,612	-0,143	0,007
307,735	677,012	-0,043	-0,077
308,749	366,370	-0,084	-0,117
309,764	249,555	-0,092	-0,107
310,779	472,121	-0,107	-0,166
311,793	361,221	-0,164	-0,226
312,808	674,318	-0,115	-0,205
313,822	-1,728	-0,206	-0,099
314,837	-84,858	-0,105	-0,022
315,852	800,000	-0,147	-0,292
316,866	-200,000	-0,031	-0,113
317,881	125,112	-0,080	-0,069
318,895	-156,152	-0,129	-0,006
319,910	-66,035	-0,247	-0,067
320,925	-7,361	-0,166	-0,077
321,939	800,000	-0,100	-0,220
322,954	-113,822	-0,226	-0,030
323,968	22,873	-0,057	0,032
324,983	-46,045	-0,086	0,029
325,997	-146,581	-0,193	-0,011
327,012	-11,638	-0,176	-0,079
328,027	171,436	-0,155	-0,153
329,041	-44,564	-0,077	-0,026
330,056	-176,118	-0,219	-0,004
331,070	67,098	-0,168	-0,117
332,085	-162,599	-0,166	-0,005
333,100	39,450	-0,234	-0,143
334,114	774,826	-0,079	-0,148
335,129	-6,404	-0,117	-0,054
336,143	204,345	-0,061	-0,065
337,158	-64,057	-0,080	-0,022
338,173	22,902	-0,116	-0,065
339,187	-1,642	-0,106	-0,051
340,202	-26,212	-0,166	-0,066
341,216	-125,802	-0,189	0,019
342,231	89,106	-0,152	-0,116
343,246	-200,000	-0,262	-0,000
344,260	134,919	-0,154	-0,137
345,275	297,606	-0,054	-0,068
346,289	-108,921	-0,093	-0,013
347,304	214,309	-0,089	-0,096
348,319	94,276	-0,039	0,030
349,333	20,127	-0,190	-0,104
350,348	-196,576	-0,093	-0,000
351,362	-102,573	-0,162	-0,026
352,377	108,555	-0,189	-0,155
353,392	-68,524	-0,124	-0,033
354,406	411,345	-0,035	0,050
355,421	205,989	1310,734	1396,271
356,435	158,404	1470,941	1396,758
