DTS Sentinel unit serial number:	SN410029Multiplexer serial number:	ORYXHardware model number:	OX2-SRSoftware version number:	ORYX F/W v4,00 Oryx Data Collector v3.7.2.0data status	okinstallation	B3 Nyhavnadifferential loss correction	single-endedforward channel	channel 1reverse channel	N/Adate	2023/11/30time	16:17:30forward acquisition time	300,00reverse acquisition time	0,00gamma	499,1914k internal	0,3205k external	0,3205temperature offset calibration	1,0000default loss term (dB/km)	0,3820temperature slope calibration	1,0000multiplexer offset coefficient	1,0000multiplexer slope coefficient	1,0000fibre end	0,00T internal ref (°C)	12,79T ext. ref 1 (°C)	-1,65T ext. ref 2 (°C)	-1,69length (m)	temperature (°C)	Stokes	anti-Stokes-744,400	27,245	-0,308	-0,188
-743,385	800,000	0,082	0,245
-742,371	662,573	-0,128	-0,240
-741,356	800,000	0,154	0,353
-740,342	-200,000	-0,014	-0,225
-739,327	-200,000	-0,054	0,196
-738,312	190,161	-0,192	-0,209
-737,298	-200,000	0,019	0,316
-736,283	673,948	-0,170	-0,321
-735,269	-200,000	-0,012	0,323
-734,254	452,831	-0,121	-0,195
-733,239	129,773	-0,193	0,180
-732,225	800,000	0,009	-0,029
-731,210	77,708	0,160	0,124
-730,196	409,125	-0,053	0,082
-729,181	800,000	-0,046	0,120
-728,167	800,000	0,016	-0,035
-727,152	800,000	-0,034	0,079
-726,137	-144,334	-0,045	0,003
-725,123	179,647	-0,057	-0,060
-724,108	81,006	0,137	-0,108
-723,094	74,480	0,044	0,034
-722,079	-200,000	-0,007	-0,046
-721,064	-26,638	0,080	-0,034
-720,050	-200,000	0,003	0,050
-719,035	33,027	0,033	-0,020
-718,021	176,042	-0,102	0,108
-717,006	229,919	-0,092	-0,110
-715,991	528,888	-0,094	-0,162
-714,977	-47,118	-0,153	-0,054
-713,962	572,194	0,069	-0,123
-712,948	-15,591	-0,092	0,042
-711,933	800,000	0,063	0,167
-710,918	205,282	-0,020	0,022
-709,904	560,399	-0,024	0,043
-708,889	-121,424	-0,113	0,013
-707,875	-93,332	-0,117	0,023
-706,860	-88,379	-0,098	0,021
-705,845	800,000	-0,049	0,131
-704,831	-39,657	0,085	-0,032
-703,816	99,524	0,027	0,023
-702,802	-102,614	-0,080	-0,014
-701,787	-200,000	0,005	-0,121
-700,772	345,563	-0,087	-0,124
-699,758	-1,612	0,036	0,018
-698,743	-112,933	0,077	-0,011
-697,729	-200,000	0,021	0,132
-696,714	-73,137	0,068	-0,018
-695,699	708,522	-0,064	-0,124
-694,685	202,086	0,030	-0,033
-693,670	800,000	-0,021	-0,043
-692,656	-200,000	0,004	-0,041
-691,641	94,370	0,106	0,087
-690,627	649,563	-0,063	0,118
-689,612	-60,147	0,076	0,023
-688,597	587,947	-0,054	-0,097
-687,583	-157,347	-0,116	-0,005
-686,568	-54,203	-0,167	0,055
-685,554	-138,684	0,019	-0,002
-684,539	-200,000	-0,013	-0,092
-683,524	-108,117	0,061	-0,009
-682,510	402,693	-0,098	0,150
-681,495	219,412	0,058	0,068
-680,481	-200,000	0,029	-0,123
-679,466	213,028	-0,056	-0,064
-678,451	98,407	-0,072	0,060
-677,437	138,023	0,008	-0,007
-676,422	43,294	0,095	0,063
-675,408	-20,920	0,036	0,016
-674,393	-42,642	0,049	-0,018
-673,378	800,000	-0,036	0,101
-672,364	17,857	0,069	-0,040
-671,349	160,403	-0,074	-0,075
-670,335	371,738	-0,051	0,075
-669,320	428,825	0,018	0,029
-668,305	-200,000	0,004	-0,079
-667,291	50,762	-0,090	0,061
-666,276	800,000	0,031	0,079
-665,262	278,134	-0,091	0,118
-664,247	800,000	0,052	-0,109
-663,232	77,473	0,085	-0,066
-662,218	80,794	-0,133	0,104
-661,203	246,892	-0,016	0,020
-660,189	111,233	-0,076	0,066
-659,174	-80,845	0,056	-0,013
-658,159	-200,000	-0,030	-0,148
-657,145	674,814	-0,050	-0,094
-656,130	-3,131	-0,165	-0,083
-655,116	7,742	0,088	-0,047
-654,101	377,149	0,084	-0,124
-653,086	77,379	-0,086	-0,066
-652,072	-200,000	0,005	-0,050
-651,057	800,000	0,035	-0,083
-650,043	173,147	-0,072	-0,076
-649,028	249,085	0,068	-0,084
-648,014	-97,601	0,084	0,016
-646,999	32,027	-0,109	-0,068
-645,984	726,266	0,030	0,058
-644,970	-200,000	-0,006	-0,118
-643,955	-34,400	-0,056	-0,022
-642,941	800,000	-0,039	-0,119
-641,926	159,342	0,086	-0,087
-640,911	299,884	0,043	-0,057
-639,897	-200,000	0,015	-0,073
-638,882	-200,000	-0,021	0,150
-637,868	66,033	-0,085	0,062
-636,853	692,199	-0,006	0,011
-635,838	-200,000	-0,006	-0,161
-634,824	212,693	-0,097	-0,111
-633,809	212,369	0,050	-0,057
-632,795	-21,661	-0,039	-0,017
-631,780	-200,000	-0,030	-0,179
-630,765	-55,792	-0,061	0,020
-629,751	144,979	-0,099	0,096
-628,736	-43,981	-0,099	-0,036
-627,722	26,125	-0,060	-0,036
-626,707	-68,185	0,038	-0,011
-625,692	-165,251	0,069	0,002
-624,678	631,796	0,026	0,048
-623,663	88,429	0,098	0,078
-622,649	-89,616	-0,160	0,034
-621,634	-34,527	-0,127	-0,050
-620,619	546,196	0,038	-0,067
-619,605	50,324	0,126	0,086
-618,590	-200,000	0,001	0,156
-617,576	94,986	-0,126	0,103
-616,561	193,270	-0,065	-0,071
-615,546	-200,000	-0,006	-0,084
-614,532	367,340	0,045	-0,066
-613,517	563,728	-0,054	-0,095
-612,503	-200,000	-0,026	0,114
-611,488	-200,000	-0,004	0,047
-610,474	800,000	0,016	0,051
-609,459	110,703	-0,070	-0,060
-608,444	800,000	-0,026	-0,057
-607,430	-40,434	-0,092	0,035
-606,415	66,466	-0,073	0,054
-605,401	-200,000	-0,008	0,217
-604,386	370,706	0,141	0,207
-603,371	-69,401	0,166	0,046
-602,357	-200,000	-0,009	0,106
-601,342	-100,477	0,098	0,017
-600,328	-25,185	-0,044	-0,019
-599,313	-200,000	-0,011	-0,113
-598,298	105,557	0,014	0,012
-597,284	-24,390	0,140	-0,060
-596,269	231,988	0,016	-0,020
-595,255	83,886	-0,003	-0,002
-594,240	56,856	0,074	0,052
-593,225	106,628	0,034	-0,029
-592,211	-122,303	-0,115	0,013
-591,196	-89,037	0,105	-0,022
-590,182	-156,124	-0,128	-0,006
-589,167	-178,521	0,045	0,001
-588,152	-4,260	0,116	-0,058
-587,138	46,646	0,081	-0,054
-586,123	11,581	-0,083	0,046
-585,109	-200,000	-0,019	0,120
-584,094	-200,000	-0,036	0,139
-583,079	28,642	0,112	-0,068
-582,065	-200,000	-0,077	-0,000
-581,050	-32,626	0,045	-0,018
-580,036	85,593	0,100	-0,079
-579,021	644,334	0,031	-0,057
-578,006	2,873	-0,122	0,064
-576,992	280,338	-0,092	-0,118
-575,977	800,000	-0,029	-0,074
-574,963	-200,000	-0,004	-0,020
-573,948	-8,072	0,118	0,057
-572,934	-15,044	-0,141	0,065
-571,919	-200,000	0,009	-0,086
-570,904	-1,150	-0,089	-0,045
-569,890	-148,640	-0,076	0,004
-568,875	-48,299	0,100	-0,035
-567,861	328,482	-0,035	-0,048
-566,846	-72,800	0,216	0,057
-565,831	-200,000	0,059	0,218
-564,817	-63,252	-0,087	-0,026
-563,802	-40,299	0,053	-0,020
-562,788	-66,261	0,025	0,007
-561,773	-200,000	-0,004	0,052
-560,758	800,000	0,013	0,034
-559,744	-48,716	0,006	-0,002
-558,729	-200,000	0,040	0,206
-557,715	549,924	-0,029	0,051
-556,700	113,363	0,099	-0,086
-555,685	-200,000	0,007	-0,072
-554,671	800,000	-0,026	0,057
-553,656	-200,000	-0,012	0,078
-552,642	-29,331	0,101	-0,042
-551,627	-154,528	-0,141	0,007
-550,612	-101,251	0,090	0,016
-549,598	-166,147	-0,090	0,003
-548,583	123,807	0,092	-0,084
-547,569	-200,000	0,006	-0,062
-546,554	-5,796	0,191	0,094
-545,539	-44,046	0,118	-0,042
-544,525	-200,000	-0,042	-0,155
-543,510	800,000	0,019	0,060
-542,496	37,818	-0,046	-0,030
-541,481	100,182	-0,167	0,140
-540,466	6,459	0,089	0,047
-539,452	-127,207	-0,141	-0,015
-538,437	-200,000	-0,013	-0,073
-537,423	186,759	0,027	-0,029
-536,408	800,000	-0,063	-0,151
-535,393	-200,000	0,013	0,099
-534,379	61,811	-0,053	0,038
-533,364	800,000	-0,028	0,060
-532,350	173,819	0,030	0,031
-531,335	30,209	-0,076	-0,046
-530,321	46,998	0,029	0,019
-529,306	-200,000	0,019	-0,104
-528,291	125,469	-0,035	0,032
-527,277	455,273	-0,028	-0,046
-526,262	62,319	-0,070	-0,050
-525,248	-200,000	0,005	-0,109
-524,233	-10,736	-0,059	0,028
-523,218	187,499	-0,038	-0,041
-522,204	-157,147	-0,091	-0,004
-521,189	800,000	-0,029	-0,065
-520,175	104,270	-0,028	0,024
-519,160	293,068	-0,096	-0,127
-518,145	-83,171	-0,029	-0,007
-517,131	-200,000	-0,007	0,190
-516,116	800,000	0,030	-0,085
-515,102	-118,582	-0,095	-0,012
-514,087	-32,680	-0,156	-0,062
-513,072	-117,485	-0,106	0,014
-512,058	39,358	-0,112	-0,072
-511,043	336,719	-0,084	-0,117
-510,029	-105,929	0,104	0,017
-509,014	-131,860	-0,058	0,005
-507,999	-9,024	0,107	0,052
-506,985	-20,639	-0,089	-0,039
-505,970	-200,000	-0,008	-0,172
-504,956	-200,000	-0,012	0,059
-503,941	-0,263	0,093	0,048
-502,926	479,082	-0,038	-0,063
-501,912	34,940	0,072	0,045
-500,897	161,519	0,106	0,107
-499,883	18,600	-0,090	-0,052
-498,868	-160,007	0,135	-0,005
-497,853	322,336	0,015	-0,021
-496,839	-79,009	0,015	0,004
-495,824	-41,992	0,125	-0,046
-494,810	-48,071	0,149	0,051
-493,795	119,213	-0,014	0,013
-492,781	-200,000	-0,005	-0,023
-491,766	-200,000	-0,008	-0,095
-490,751	800,000	0,023	0,049
-489,737	-200,000	0,001	0,033
-488,722	407,049	-0,088	0,135
-487,708	-200,000	-0,023	0,157
-486,693	800,000	0,079	0,165
-485,678	33,805	0,042	-0,026
-484,664	270,274	-0,107	-0,136
-483,649	470,303	-0,038	-0,062
-482,635	277,160	-0,058	-0,074
-481,620	-200,000	0,002	0,078
-480,605	800,000	0,094	0,205
-479,591	402,568	-0,076	0,116
-478,576	435,522	-0,064	0,100
-477,562	535,434	-0,049	-0,084
-476,547	-200,000	-0,007	0,067
-475,532	-200,000	-0,013	-0,179
-474,518	281,086	0,053	-0,069
-473,503	149,406	-0,055	-0,054
-472,489	-144,613	-0,121	0,008
-471,474	569,477	-0,085	-0,149
-470,459	-200,000	-0,024	-0,092
-469,445	-200,000	0,005	-0,123
-468,430	-200,000	0,003	0,015
-467,416	31,610	0,038	0,023
-466,401	-19,601	0,067	-0,029
-465,386	-200,000	0,031	0,186
-464,372	151,342	-0,022	-0,021
-463,357	800,000	0,024	-0,073
-462,343	-91,716	-0,009	0,002
-461,328	-6,806	-0,085	0,041
-460,313	-11,615	0,017	-0,008
-459,299	448,178	-0,042	0,067
-458,284	-106,838	0,016	-0,002
-457,270	-200,000	-0,001	-0,066
-456,255	150,827	-0,067	-0,065
-455,241	-179,392	-0,055	0,001
-454,226	-47,063	-0,111	-0,039
-453,211	800,000	-0,030	0,067
-452,197	-139,487	0,104	-0,008
-451,182	-200,000	0,000	-0,015
-450,168	-200,000	0,011	0,115
-449,153	-159,043	-0,059	0,002
-448,138	-19,752	0,063	0,028
-447,124	-200,000	-0,014	-0,063
-446,109	12,076	-0,063	-0,034
-445,095	121,132	0,121	0,108
-444,080	800,000	0,017	-0,051
-443,065	-200,000	0,000	0,139
-442,051	260,596	-0,087	0,108
-441,036	34,996	-0,055	0,035
-440,022	-190,528	0,059	-0,000
-439,007	-72,540	0,064	0,017
-437,992	-200,000	0,042	0,145
-436,978	25,860	-0,084	0,050
-435,963	-0,030	0,098	0,050
-434,949	154,725	0,010	-0,010
-433,934	-52,539	-0,057	0,019
-432,919	-60,080	-0,119	-0,036
-431,905	187,797	0,084	-0,090
-430,890	-200,000	-0,013	0,086
-429,876	-200,000	-0,024	0,096
-428,861	97,953	-0,055	-0,046
-427,846	536,489	0,057	-0,097
-426,832	91,110	-0,069	-0,055
-425,817	237,205	0,057	-0,068
-424,803	-200,000	0,035	0,115
-423,788	87,330	0,141	-0,111
-422,773	61,866	-0,077	-0,055
-421,759	-81,752	0,065	0,015
-420,744	-200,000	-0,015	0,198
-419,730	800,000	0,012	-0,028
-418,715	-93,572	-0,026	0,005
-417,701	488,574	-0,036	0,059
-416,686	-129,634	0,108	-0,011
-415,671	505,393	-0,013	-0,021
-414,657	-61,800	0,065	-0,019
-413,642	-138,179	-0,148	-0,012
-412,628	-144,004	-0,142	-0,009
-411,613	62,672	-0,053	-0,038
-410,598	-64,153	0,078	-0,023
-409,584	690,400	0,039	0,073
-408,569	-200,000	-0,001	0,088
-407,555	175,005	-0,015	0,016
-406,540	-56,391	0,065	0,021
-405,525	800,000	-0,029	0,078
-404,511	675,956	-0,030	-0,056
-403,496	41,438	-0,063	-0,041
-402,482	507,114	0,053	0,089
-401,467	-200,000	-0,003	0,032
-400,452	-43,760	0,277	0,100
-399,438	-21,731	-0,038	-0,017
-398,423	-90,758	0,083	0,017
-397,409	17,548	-0,002	0,001
-396,394	63,713	-0,058	0,042
-395,379	-200,000	-0,027	0,097
-394,365	800,000	0,082	0,177
-393,350	40,406	0,136	0,088
-392,336	325,364	0,049	-0,067
-391,321	161,692	0,046	-0,046
-390,306	-90,023	0,021	0,004
-389,292	-74,788	-0,146	-0,037
-388,277	-6,706	-0,064	0,031
-387,263	-34,086	0,087	-0,034
-386,248	-200,000	-0,010	-0,072
-385,233	-19,179	-0,021	0,009
-384,219	583,290	0,074	-0,131
-383,204	259,810	-0,019	-0,024
-382,190	203,640	-0,032	-0,036
-381,175	31,145	-0,105	0,064
-380,160	-94,172	-0,111	-0,022
-379,146	383,837	0,094	0,139
-378,131	224,699	0,127	0,148
-377,117	437,040	0,054	0,084
-376,102	-200,000	-0,004	0,018
-375,088	-96,792	-0,051	0,009
-374,073	-44,082	-0,071	-0,025
-373,058	445,610	0,062	-0,097
-372,044	170,928	0,086	0,088
-371,029	-200,000	-0,001	0,044
-370,015	-167,041	-0,030	0,001
-369,000	-39,083	-0,064	0,024
-367,985	-200,000	-0,025	-0,090
-366,971	800,000	0,042	-0,102
-365,956	28,613	0,098	-0,059
-364,942	169,512	0,045	-0,046
-363,927	800,000	-0,064	0,182
-362,912	-75,012	0,123	-0,031
-361,898	-200,000	0,020	-0,067
-360,883	-200,000	-0,041	-0,152
-359,869	-102,331	-0,039	-0,007
-358,854	-61,445	0,172	-0,051
-357,839	-31,570	-0,046	0,019
-356,825	-34,772	0,083	0,032
-355,810	625,784	0,137	-0,248
-354,796	543,393	0,052	-0,089
-353,781	134,716	-0,078	-0,072
-352,766	99,320	0,021	0,017
-351,752	-200,000	-0,008	0,121
-350,737	-121,822	-0,067	0,008
-349,723	800,000	0,037	-0,081
-348,708	43,352	0,178	0,116
-347,693	-72,596	0,076	0,020
-346,679	9,735	-0,046	-0,025
-345,664	-127,374	-0,125	-0,013
-344,650	-104,872	0,062	0,010
-343,635	34,185	0,077	0,048
-342,620	-30,525	0,122	0,049
-341,606	-200,000	-0,028	0,142
-340,591	-102,258	-0,121	0,021
-339,577	464,530	-0,073	-0,117
-338,562	42,819	-0,041	-0,026
-337,548	138,256	-0,069	-0,064
-336,533	44,913	0,059	-0,039
-335,518	24,599	-0,131	-0,077
-334,504	355,887	-0,033	0,047
-333,489	-70,928	-0,106	-0,028
-332,475	-29,539	0,118	0,048
-331,460	-99,917	-0,146	0,026
-330,445	262,862	0,051	-0,064
-329,431	366,551	-0,042	0,061
-328,416	-59,158	0,134	0,041
-327,402	-200,000	0,011	0,085
-326,387	28,311	-0,030	-0,018
-325,372	-200,000	0,004	0,089
-324,358	229,432	0,107	-0,125
-323,343	388,591	-0,051	-0,076
-322,329	32,486	-0,080	0,049
-321,314	-200,000	-0,029	0,105
-320,299	-200,000	0,008	0,091
-319,285	340,828	0,033	0,047
-318,270	698,953	0,055	-0,103
-317,256	800,000	0,053	-0,147
-316,241	-200,000	-0,011	-0,239
-315,226	-200,000	-0,010	0,081
-314,212	-200,000	0,004	0,097
-313,197	-200,000	0,011	-0,055
-312,183	-110,203	0,085	0,013
-311,168	80,566	-0,124	-0,096
-310,153	-117,957	-0,141	0,018
-309,139	-200,000	-0,036	-0,115
-308,124	-14,129	0,098	-0,045
-307,110	-149,815	-0,088	0,005
-306,095	167,895	0,041	0,042
-305,080	172,823	0,079	0,081
-304,066	-200,000	-0,006	0,068
-303,051	-76,182	0,037	0,009
-302,037	141,047	-0,076	-0,072
-301,022	-200,000	0,042	-0,139
-300,008	93,840	0,089	0,072
-298,993	-140,426	0,072	-0,005
-297,978	283,242	0,021	0,027
-296,964	610,078	-0,047	0,083
-295,949	-200,000	-0,015	-0,062
-294,935	69,493	-0,024	0,018
-293,920	34,210	0,047	0,029
-292,905	800,000	-0,041	0,087
-291,891	-100,066	0,169	0,030
-290,876	147,104	-0,089	-0,085
-289,862	461,326	0,059	-0,095
-288,847	-42,029	0,152	-0,055
-287,832	-200,000	-0,015	-0,095
-286,818	292,714	-0,046	0,060
-285,803	84,084	0,090	-0,070
-284,789	-200,000	0,003	0,024
-283,774	239,310	-0,002	0,002
-282,759	233,930	-0,081	-0,095
-281,745	76,749	0,025	-0,019
-280,730	-52,500	-0,066	0,022
-279,716	-200,000	-0,011	-0,040
-278,701	-120,959	0,103	0,012
-277,686	299,319	0,041	-0,054
-276,672	-200,000	-0,005	0,023
-275,657	-200,000	-0,018	0,136
-274,643	46,458	-0,038	0,025
-273,628	-200,000	-0,011	-0,050
-272,613	97,994	-0,165	0,135
-271,599	70,382	-0,058	-0,043
-270,584	64,459	0,156	0,112
-269,570	-68,460	-0,108	-0,030
-268,555	225,326	-0,083	-0,095
-267,540	-109,940	-0,099	0,015
-266,526	-200,000	-0,015	-0,123
-265,511	-200,000	-0,024	-0,088
-264,497	723,661	0,058	-0,111
-263,482	800,000	-0,016	0,034
-262,467	-37,287	-0,079	0,030
-261,453	48,828	-0,135	0,090
-260,438	-200,000	0,003	-0,085
-259,424	-200,000	-0,004	-0,071
-258,409	12,088	-0,114	-0,062
-257,395	177,385	0,051	0,053
-256,380	10,747	0,082	0,045
-255,365	800,000	-0,038	0,100
-254,351	-43,657	0,066	0,024
-253,336	-99,325	-0,067	-0,012
-252,322	-97,920	0,097	-0,018
-251,307	-200,000	0,003	-0,040
-250,292	-200,000	0,004	-0,016
-249,278	-200,000	-0,017	-0,167
-248,263	-56,754	0,088	-0,027
-247,249	-37,739	-0,109	0,041
-246,234	-10,115	0,075	0,035
-245,219	384,544	-0,055	-0,080
-244,205	-200,000	0,017	0,087
-243,190	-5,623	-0,079	0,039
-242,176	-200,000	0,010	-0,140
-241,161	481,048	-0,078	0,127
-240,146	-200,000	0,030	0,096
-239,132	-200,000	0,002	-0,072
-238,117	-200,000	0,012	-0,102
-237,103	128,003	0,114	-0,103
-236,088	-8,095	-0,160	0,077
-235,073	143,742	0,127	0,121
-234,059	-200,000	0,012	0,134
-233,044	577,054	0,105	0,183
-232,030	-34,091	-0,033	0,013
-231,015	753,331	0,032	-0,062
-230,000	-200,000	0,000	-0,038
-228,986	-200,000	0,006	-0,093
-227,971	79,120	0,066	0,050
-226,957	661,091	0,015	-0,028
-225,942	79,202	-0,073	0,056
-224,927	-200,000	-0,029	-0,106
-223,913	84,280	-0,086	-0,067
-222,898	501,216	-0,072	-0,118
-221,884	97,986	0,056	0,046
-220,869	13,688	0,102	-0,056
-219,855	-42,368	-0,057	0,020
-218,840	490,050	-0,007	-0,012
-217,825	-0,736	-0,102	0,051
-216,811	338,171	0,068	-0,094
-215,796	128,367	0,072	-0,065
-214,782	-200,000	0,003	-0,026
-213,767	800,000	0,026	0,076
-212,752	29,835	-0,033	0,020
-211,738	800,000	0,049	0,120
-210,723	-10,547	0,068	0,032
-209,709	24,339	0,109	0,064
-208,694	800,000	0,070	-0,158
-207,679	800,000	0,024	0,059
-206,665	-176,602	-0,229	0,004
-205,650	-200,000	0,000	0,068
-204,636	-200,000	0,010	0,059
-203,621	800,000	0,029	0,060
-202,606	747,135	-0,033	0,063
-201,592	-56,433	0,051	-0,016
-200,577	59,247	0,078	0,054
-199,563	-40,112	-0,090	-0,033
-198,548	609,046	-0,030	-0,054
-197,533	-200,000	0,027	0,188
-196,519	682,174	0,034	0,063
-195,504	-39,352	-0,071	-0,026
-194,490	66,048	-0,022	-0,016
-193,475	8,927	-0,122	-0,065
-192,460	339,603	-0,028	0,039
-191,446	209,722	0,107	0,120
-190,431	800,000	0,038	0,077
-189,417	-200,000	-0,008	0,034
-188,402	57,511	0,081	-0,056
-187,387	-200,000	-0,030	-0,145
-186,373	-38,015	-0,124	-0,046
-185,358	87,726	0,088	-0,069
-184,344	-74,620	0,189	0,048
-183,329	35,277	0,081	-0,050
-182,315	383,453	-0,031	-0,045
-181,300	-47,314	-0,030	-0,010
-180,285	-200,000	0,021	-0,116
-179,271	662,495	0,104	-0,192
-178,256	529,108	0,042	0,070
-177,242	-72,100	0,145	0,038
-176,227	685,296	0,063	0,117
-175,212	800,000	0,036	0,075
-174,198	-15,614	0,121	0,055
-173,183	-152,226	-0,165	-0,008
-172,169	-200,000	-0,010	0,101
-171,154	440,095	-0,047	-0,073
-170,139	9,677	-0,102	-0,055
-169,125	-200,000	0,037	0,129
-168,110	-119,547	0,026	0,003
-167,096	-116,581	0,061	0,008
-166,081	-125,372	-0,155	-0,017
-165,066	-94,671	-0,099	0,019
-164,052	-2,008	0,058	0,029
-163,037	-118,043	-0,104	-0,013
-162,023	-200,000	-0,017	-0,055
-161,008	-38,155	0,057	0,021
-159,993	-16,259	0,028	-0,013
-158,979	4,167	-0,099	0,051
-157,964	-116,384	0,196	0,025
-156,950	90,765	-0,125	-0,099
-155,935	-30,702	-0,058	0,023
-154,920	-200,000	0,003	-0,040
-153,906	81,280	0,100	-0,077
-152,891	-200,000	0,010	0,136
-151,877	-144,778	-0,120	-0,008
-150,862	659,584	-0,031	-0,058
-149,847	112,496	0,131	-0,113
-148,833	206,170	-0,043	0,048
-147,818	-200,000	0,004	0,077
-146,804	506,022	0,031	0,051
-145,789	-200,000	-0,001	0,006
-144,775	-200,000	-0,003	0,043
-143,760	36,923	-0,098	-0,062
-142,745	-80,510	0,116	0,027
-141,731	-25,417	0,199	-0,083
-140,716	-200,000	0,000	-0,099
-139,702	772,005	0,060	-0,117
-138,687	800,000	0,010	-0,030
-137,672	-48,224	-0,051	-0,017
-136,658	20,376	-0,037	0,021
-135,643	-200,000	0,001	-0,070
-134,629	800,000	0,011	-0,030
-133,614	109,820	0,027	-0,023
-132,599	-200,000	0,033	-0,169
-131,585	-133,111	0,124	0,011
-130,570	-200,000	0,000	0,024
-129,556	310,325	0,052	0,069
-128,541	623,634	0,031	-0,055
-127,526	157,841	0,056	0,055
-126,512	526,488	-0,055	-0,092
-125,497	-126,761	-0,179	-0,018
-124,483	-76,311	0,075	0,019
-123,468	113,469	-0,028	-0,024
-122,453	-200,000	0,002	0,020
-121,439	-200,000	0,003	-0,028
-120,424	-200,000	-0,000	0,205
-119,410	-107,614	0,182	-0,028
-118,395	-31,509	0,088	-0,035
-117,380	49,393	0,098	0,065
-116,366	-94,312	-0,146	0,028
-115,351	-151,988	-0,074	0,004
-114,337	800,000	-0,060	-0,130
-113,322	800,000	-0,030	0,060
-112,307	499,498	0,054	0,089
-111,293	281,075	0,081	0,103
-110,278	77,477	0,097	0,073
-109,264	-118,028	-0,098	0,012
-108,249	-1,374	-0,132	0,066
-107,234	-62,041	0,043	0,013
-106,220	423,632	-0,006	0,009
-105,205	-4,919	-0,048	-0,024
-104,191	16,053	0,077	-0,043
-103,176	53,015	0,019	0,013
-102,162	-161,693	0,076	0,003
-101,147	248,478	-0,041	0,049
-100,132	105,123	0,082	-0,069
-99,118	800,000	0,030	-0,062
-98,103	40,223	-0,078	0,049
-97,089	87,285	0,096	-0,075
-96,074	-32,176	-0,146	0,057
-95,059	82,570	0,048	-0,037
-94,045	-165,869	0,047	0,001
-93,030	-200,000	-0,045	-0,162
-92,016	-117,740	-0,064	0,008
-91,001	508,324	0,060	0,100
-89,986	577,899	0,047	0,082
-88,972	-114,263	0,072	0,010
-87,957	453,434	-0,011	-0,017
-86,943	800,000	-0,040	-0,102
-85,928	140,181	-0,026	0,024
-84,913	-157,445	-0,140	-0,006
-83,899	-49,739	0,062	0,021
-82,884	-200,000	0,026	0,134
-81,870	132,835	-0,027	-0,025
-80,855	248,433	-0,099	0,119
-79,840	180,601	-0,096	-0,100
-78,826	-200,000	-0,001	0,041
-77,811	-20,979	-0,094	0,040
-76,797	800,000	0,008	0,022
-75,782	62,334	0,087	0,061
-74,767	181,970	-0,079	-0,083
-73,753	598,787	0,072	-0,126
-72,738	45,982	-0,020	0,013
-71,724	207,187	0,063	0,070
-70,709	51,330	-0,121	-0,081
-69,694	227,917	0,064	-0,074
-68,680	195,955	-0,043	-0,046
-67,665	800,000	0,034	0,103
-66,651	-61,619	0,095	-0,028
-65,636	800,000	-0,008	-0,017
-64,622	-73,753	-0,060	-0,015
-63,607	-127,367	-0,062	-0,006
-62,592	586,315	0,015	-0,026
-61,578	734,598	-0,050	-0,095
-60,563	48,483	0,087	-0,058
-59,549	-38,294	-0,033	-0,012
-58,534	-16,216	-1,668	-0,746
-57,519	349,733	-1,442	-2,020
-56,505	-200,000	-0,313	-4,320
-55,490	381,264	0,830	1,208
-54,476	800,000	4,906	11,251
-53,461	-200,000	19,412	326,540
-52,446	-200,000	741,242	2334,951
-51,432	571,113	1651,472	2853,746
-50,417	77,370	1665,636	1251,397
-49,403	20,720	1539,257	878,780
-48,388	14,677	1461,462	805,101
-47,373	18,375	1451,834	817,554
-46,359	16,748	1441,564	803,977
-45,344	12,987	1436,955	783,440
-44,330	12,800	1435,145	781,531
-43,315	12,851	1433,500	780,846
-42,300	12,847	1431,932	779,942
-41,286	12,837	1430,755	779,222
-40,271	12,839	1429,221	778,365
-39,257	12,814	1427,880	777,487
-38,242	12,856	1426,590	776,951
-37,227	12,887	1425,480	776,465
-36,213	12,886	1423,963	775,600
-35,198	12,837	1423,261	774,955
-34,184	12,942	1422,136	774,807
-33,169	12,846	1420,798	773,594
-32,154	12,904	1419,612	773,192
-31,140	12,899	1418,603	772,591
-30,125	12,918	1417,263	771,920
-29,111	12,917	1416,122	771,261
-28,096	12,905	1415,025	770,575
-27,082	12,820	1414,313	769,762
-26,067	12,841	1413,159	769,200
-25,052	12,855	1411,941	768,573
-24,038	12,792	1411,007	767,740
-23,023	12,783	1409,856	767,037
-22,009	12,795	1408,863	766,524
-20,994	12,794	1408,043	766,045
-19,979	12,760	1407,376	765,492
-18,965	12,741	1406,186	764,723
-17,950	12,770	1405,351	764,374
-16,936	12,810	1404,258	763,939
-15,921	12,703	1403,492	762,992
-14,906	12,744	1402,352	762,533
-13,892	12,745	1401,678	762,141
-12,877	12,769	1400,527	761,593
-11,863	12,749	1399,596	760,968
-10,848	12,654	1398,954	760,144
-9,833	12,673	1398,060	759,719
-8,819	12,663	1397,112	759,125
-7,804	12,629	1396,173	758,426
-6,790	12,667	1395,248	758,072
-5,775	12,652	1394,282	757,448
-4,760	12,634	1393,279	756,789
-3,746	12,623	1392,357	756,207
-2,731	12,591	1391,673	755,657
-1,717	12,598	1390,732	755,147
-0,702	12,602	1388,728	754,048
0,313	16,536	1305,122	726,764
1,327	32,934	699,535	427,176
2,342	50,512	122,354	81,629
3,356	1,138	16,632	8,405
4,371	12,598	3,320	1,805
5,386	-5,129	0,584	0,283
6,400	-200,000	0,010	0,294
7,415	-54,541	-0,259	-0,082
8,429	-5,566	-0,357	-0,172
9,444	-44,953	-0,410	-0,143
10,459	39,593	-0,233	-0,147
11,473	128,260	-0,311	-0,279
12,488	176,159	-0,177	-0,182
13,502	27,321	-0,291	-0,172
14,517	-92,722	-0,316	-0,062
15,531	108,442	-0,337	-0,284
16,546	219,939	-0,290	-0,328
17,561	-77,085	-0,317	-0,077
18,575	10,932	-0,207	-0,111
19,590	221,673	-0,246	-0,279
20,604	-52,506	-0,414	-0,134
21,619	164,606	-0,318	-0,316
22,634	24,834	-0,484	-0,282
23,648	74,972	-0,405	-0,301
24,663	25,739	-0,528	-0,310
25,677	19,055	-0,316	-0,178
26,692	140,362	-0,280	-0,261
27,707	85,694	-0,341	-0,264
28,721	26,134	-0,349	-0,205
29,736	263,279	-0,283	-0,347
30,750	142,526	-0,395	-0,370
31,765	-64,130	-0,459	-0,131
32,780	13,036	-0,348	-0,189
33,794	4,907	-0,429	-0,221
34,809	-36,249	-0,468	-0,177
35,823	177,950	-0,370	-0,381
36,838	129,628	-0,380	-0,342
37,853	124,913	-0,346	-0,307
38,867	104,463	-0,360	-0,298
39,882	70,509	-0,319	-0,232
40,896	159,373	-0,299	-0,293
41,911	33,971	-0,345	-0,211
42,926	-7,479	-0,253	-0,120
43,940	40,376	-0,313	-0,198
44,955	140,389	-0,406	-0,377
45,969	58,336	-0,519	-0,358
46,984	15,514	-0,329	-0,181
47,999	135,206	-0,247	-0,226
49,013	122,059	-0,271	-0,238
50,028	165,426	-0,332	-0,330
51,042	45,929	-0,427	-0,278
52,057	12,105	-0,272	-0,147
53,071	95,883	-0,390	-0,313
54,086	3,485	-0,320	-0,164
55,101	57,433	-0,259	-0,178
56,115	82,925	-0,282	-0,216
57,130	171,796	-0,243	-0,246
58,144	214,191	-0,291	-0,324
59,159	266,344	-0,225	-0,277
60,174	38,365	-0,335	-0,209
61,188	-41,649	-0,312	-0,112
62,203	11,126	-0,363	-0,194
63,217	67,349	-0,248	-0,177
64,232	161,411	-0,336	-0,330
65,247	234,394	-0,322	-0,374
66,261	176,374	-0,362	-0,370
67,276	47,352	-0,283	-0,185
68,290	-52,530	-0,361	-0,117
69,305	376,140	-0,188	-0,270
70,320	27,846	-0,296	-0,175
71,334	19,867	-0,305	-0,172
72,349	16,036	-0,436	-0,241
73,363	153,032	-0,326	-0,313
74,378	60,963	-0,465	-0,324
75,393	8,142	-0,312	-0,164
76,407	60,091	-0,168	-0,117
77,422	69,397	-0,204	-0,147
78,436	-5,516	-0,259	-0,124
79,451	115,745	-0,355	-0,305
80,466	97,142	-0,313	-0,252
81,480	105,251	-0,344	-0,285
82,495	285,569	-0,270	-0,343
83,509	-0,419	-0,459	-0,228
84,524	85,082	-0,162	-0,125
85,539	14,741	-0,157	-0,086
86,553	7,274	-0,282	-0,147
87,568	66,284	-0,284	-0,202
88,582	68,399	-0,331	-0,238
89,597	122,003	-0,278	-0,243
90,611	238,865	-0,191	-0,223
91,626	22,568	-0,316	-0,181
92,641	-6,663	-0,188	-0,090
93,655	204,084	-0,209	-0,227
94,670	-56,712	-0,365	-0,112
95,684	56,133	-0,350	-0,238
96,699	305,516	-0,204	-0,266
97,714	-7,966	-0,349	-0,164
98,728	225,688	-0,184	-0,210
99,743	152,868	-0,181	-0,173
100,757	25,329	-0,309	-0,180
101,772	64,302	-0,317	-0,224
102,787	-19,385	-0,336	-0,145
103,801	25,388	-0,239	-0,139
104,816	151,679	-0,299	-0,285
105,830	68,670	-0,289	-0,207
106,845	800,000	-0,091	-0,199
107,860	92,200	-0,241	-0,190
108,874	84,161	-0,246	-0,188
109,889	291,889	-0,302	-0,386
110,903	735,262	-0,177	-0,333
111,918	-26,745	-0,325	-0,132
112,933	-53,637	-0,280	-0,089
113,947	78,739	-0,209	-0,157
114,962	-11,103	-0,128	-0,059
115,976	155,059	-0,281	-0,271
116,991	103,194	-0,210	-0,172
118,006	-11,741	-0,292	-0,133
119,020	287,299	-0,236	-0,299
120,035	45,834	-0,260	-0,168
121,049	-82,771	-0,227	-0,051
122,064	-91,479	-0,221	-0,044
123,079	36,703	-0,219	-0,135
124,093	711,039	-0,150	-0,278
125,108	-3,407	-0,367	-0,178
126,122	89,031	-0,247	-0,192
127,137	97,681	-0,220	-0,177
128,151	-50,346	-0,195	-0,064
129,166	-106,180	-0,344	-0,053
130,181	-21,087	-0,297	-0,126
131,195	258,453	-0,238	-0,287
132,210	800,000	-0,121	-0,268
133,224	351,638	-0,165	-0,229
134,239	47,026	-0,197	-0,128
135,254	7,298	-0,264	-0,137
136,268	-105,640	-0,195	0,031
137,283	-44,141	-0,328	-0,114
138,297	127,547	-0,207	-0,183
139,312	286,699	-0,215	-0,272
140,327	72,520	-0,220	-0,160
141,341	-194,877	-0,312	-0,002
142,356	43,524	-0,283	-0,180
143,370	-200,000	-0,059	-0,288
144,385	155,407	-0,236	-0,227
145,400	227,973	-0,230	-0,262
146,414	52,799	-0,195	-0,130
147,429	13,820	-0,329	-0,178
148,443	134,557	-0,156	-0,141
149,458	289,054	-0,194	-0,246
150,473	223,725	-0,252	-0,284
151,487	-86,730	-0,247	-0,052
152,502	95,895	-0,362	-0,288
153,516	115,869	-0,261	-0,222
154,531	43,268	-0,190	-0,121
155,546	243,410	-0,205	-0,240
156,560	59,342	-0,211	-0,145
157,575	-93,497	-0,320	-0,061
158,589	3,526	-0,222	-0,113
159,604	91,594	-0,183	-0,143
160,619	620,525	-0,204	-0,359
161,633	505,752	-0,117	-0,190
162,648	13,078	-0,254	-0,136
163,662	-14,271	-0,192	-0,086
164,677	-126,310	-0,267	0,027
165,692	7,035	-0,232	-0,120
166,706	-3,495	-0,275	-0,133
167,721	214,150	-0,207	-0,229
168,735	69,771	-0,211	-0,152
169,750	-8,820	-0,289	-0,134
170,764	62,076	-0,238	-0,165
171,779	-89,937	-0,183	-0,037
172,794	198,978	-0,074	-0,079
173,808	65,449	-0,305	-0,215
174,823	190,824	-0,134	-0,140
175,837	16,350	-0,306	-0,167
176,852	800,000	-0,090	-0,204
177,867	445,367	-0,121	-0,186
178,881	-108,719	-0,180	-0,027
179,896	151,436	-0,193	-0,183
180,910	105,705	-0,222	-0,183
181,925	32,064	-0,235	-0,140
182,940	99,265	-0,309	-0,248
183,954	144,328	-0,247	-0,230
184,969	80,018	-0,166	-0,124
185,983	800,000	-0,081	-0,169
186,998	170,506	-0,213	-0,212
188,013	444,337	-0,123	-0,188
189,027	363,633	-0,185	-0,259
190,042	80,181	-0,207	-0,155
191,056	128,088	-0,240	-0,213
192,071	15,061	-0,137	-0,075
193,086	285,771	-0,103	-0,129
194,100	35,658	-0,119	-0,073
195,115	565,888	-0,127	-0,215
196,129	29,259	-0,310	-0,182
197,144	74,140	-0,263	-0,192
198,159	118,448	-0,191	-0,163
199,173	105,321	-0,196	-0,160
200,188	130,017	-0,098	-0,087
201,202	102,550	-0,221	-0,179
202,217	-66,499	-0,199	-0,054
203,232	22,742	-0,321	-0,182
204,246	81,507	-0,132	-0,099
205,261	130,384	-0,199	-0,177
206,275	542,975	-0,104	-0,173
207,290	-159,265	-0,144	-0,006
208,304	357,713	-0,078	-0,108
209,319	740,376	-0,111	-0,208
210,334	94,019	-0,134	-0,106
211,348	58,240	-0,227	-0,154
212,363	127,092	-0,227	-0,200
213,377	-43,333	-0,306	-0,107
214,392	128,853	-0,186	-0,164
215,407	238,695	-0,088	-0,102
216,421	800,000	-0,035	-0,096
217,436	-200,000	-0,046	-0,228
218,450	198,920	-0,114	-0,121
219,465	358,081	-0,132	-0,183
220,480	173,200	-0,221	-0,221
221,494	71,628	-0,093	-0,067
222,509	118,128	-0,195	-0,166
223,523	137,488	-0,206	-0,186
224,538	-144,457	-0,185	-0,012
225,553	-41,797	-0,237	-0,084
226,567	32,393	-0,273	-0,163
227,582	410,994	-0,129	-0,190
228,596	370,412	-0,135	-0,190
229,611	800,000	-0,106	-0,265
230,626	520,494	-0,177	-0,289
231,640	186,311	-0,181	-0,186
232,655	-66,016	-0,249	-0,068
233,669	94,590	-0,175	-0,138
234,684	-14,162	-0,203	-0,090
235,699	128,827	-0,152	-0,134
236,713	-200,000	0,010	-0,245
237,728	36,677	-0,203	-0,124
238,742	-74,664	-0,165	-0,041
239,757	80,892	-0,206	-0,153
240,772	385,812	-0,162	-0,232
241,786	22,639	-0,189	-0,107
242,801	-28,397	-0,167	-0,067
243,815	199,765	-0,139	-0,147
244,830	-179,711	-0,164	-0,002
245,844	800,000	0,049	-0,116
246,859	381,240	-0,144	-0,205
247,874	231,431	-0,131	-0,148
248,888	800,000	-0,060	-0,166
249,903	24,184	-0,118	-0,067
250,917	-121,455	-0,347	0,039
251,932	364,752	-0,104	-0,145
252,947	48,863	-0,110	-0,071
253,961	35,573	-0,169	-0,103
254,976	-2,966	-0,164	-0,079
255,990	65,894	-0,126	-0,088
257,005	-24,241	-0,111	-0,045
258,020	62,723	-0,188	-0,130
259,034	800,000	-0,053	-0,103
260,049	-62,618	-0,176	-0,050
261,063	17,414	-0,131	-0,072
262,078	78,478	-0,222	-0,164
263,093	158,870	-0,161	-0,155
264,107	74,429	-0,166	-0,121
265,122	-36,749	-0,186	-0,068
266,136	38,735	-0,088	-0,054
267,151	660,032	-0,080	-0,143
268,166	-20,882	-0,241	-0,102
269,180	102,968	-0,114	-0,092
270,195	87,640	-0,250	-0,191
271,209	-200,000	-0,068	-0,212
272,224	19,093	-0,062	-0,034
273,239	-3,264	-0,213	0,102
274,253	-122,325	-0,143	-0,016
275,268	-114,079	-0,127	0,017
276,282	800,000	-0,137	-0,280
277,297	80,680	-0,206	-0,153
278,312	231,079	-0,171	-0,194
279,326	-88,538	-0,108	-0,022
280,341	-99,658	-0,243	0,042
281,355	172,825	-0,180	-0,178
282,370	-14,782	-0,137	0,060
283,384	-1,109	-0,246	-0,119
284,399	-200,000	-0,014	-0,091
285,414	58,662	-0,232	-0,157
286,428	11,316	-0,159	-0,083
287,443	800,000	0,022	-0,042
288,457	241,771	-0,205	-0,236
289,472	139,874	-0,090	-0,081
290,487	311,688	-0,132	-0,171
291,501	7,924	-0,110	-0,057
292,516	-200,000	-0,245	0,000
293,530	9,467	-0,095	-0,049
294,545	-61,829	-0,252	-0,072
295,560	699,488	-0,098	0,178
296,574	-158,828	-0,140	-0,005
297,589	-200,000	-0,053	-0,176
298,603	219,947	-0,168	-0,185
299,618	5,565	-0,143	-0,072
300,633	-100,555	-0,129	0,022
301,647	-53,613	-0,148	-0,046
302,662	43,695	-0,144	0,090
303,676	24,460	-0,206	-0,117
304,691	-69,905	-0,048	-0,013
305,706	-22,489	-0,159	-0,066
306,720	-25,098	-0,224	-0,091
307,735	-200,000	-0,009	-0,192
308,749	800,000	-0,053	-0,153
309,764	595,078	-0,041	-0,070
310,779	-131,159	-0,081	0,007
311,793	143,920	-0,199	-0,182
312,808	800,000	-0,107	-0,209
313,822	262,510	-0,154	-0,183
314,837	45,089	-0,191	-0,121
315,852	21,943	-0,131	-0,073
316,866	-129,971	-0,059	-0,006
317,881	-81,636	-0,123	-0,028
318,895	-154,720	-0,191	-0,009
319,910	-29,344	-0,152	0,060
320,925	-153,759	-0,237	0,011
321,939	74,944	-0,087	-0,063
322,954	-17,642	-0,175	-0,075
323,968	-200,000	-0,004	-0,128
324,983	69,024	-0,125	-0,088
325,997	-57,330	-0,164	0,049
327,012	-65,191	-0,241	-0,066
328,027	-148,117	-0,209	-0,012
329,041	32,698	-0,181	-0,107
330,056	83,252	-0,146	-0,109
331,070	-200,000	-0,016	0,063
332,085	-52,684	-0,219	0,069
333,100	300,037	-0,138	-0,175
334,114	357,797	-0,131	-0,180
335,129	-25,206	-0,304	-0,123
336,143	41,804	-0,144	-0,089
337,158	-81,649	-0,143	0,032
338,173	252,776	-0,099	-0,116
339,187	770,973	-0,090	-0,169
340,202	-43,814	-0,123	-0,042
341,216	-77,596	-0,153	-0,036
342,231	800,000	-0,050	-0,146
343,246	281,336	-0,105	-0,129
344,260	26,862	-0,169	-0,097
345,275	-35,644	-0,209	-0,077
346,289	99,264	-0,080	-0,064
347,304	116,344	-0,118	-0,099
348,319	24,024	-0,260	-0,147
349,333	183,749	-0,150	-0,153
350,348	0,934	-0,176	-0,086
351,362	530,753	-0,117	-0,190
352,377	211,971	-0,094	-0,102
353,392	-200,000	-0,009	-0,037
354,406	765,351	-0,071	0,133
355,421	206,734	1312,720	1402,699
356,435	159,006	1473,195	1403,201
