DTS Sentinel unit serial number:	SN410029Multiplexer serial number:	ORYXHardware model number:	OX2-SRSoftware version number:	ORYX F/W v4,00 Oryx Data Collector v3.7.2.0data status	okinstallation	B3 Nyhavnadifferential loss correction	single-endedforward channel	channel 1reverse channel	N/Adate	2023/11/29time	13:37:30forward acquisition time	300,00reverse acquisition time	0,00gamma	499,1914k internal	0,3212k external	0,3212temperature offset calibration	1,0000default loss term (dB/km)	0,3820temperature slope calibration	1,0000multiplexer offset coefficient	1,0000multiplexer slope coefficient	1,0000fibre end	0,00T internal ref (°C)	10,45T ext. ref 1 (°C)	-3,50T ext. ref 2 (°C)	-3,63length (m)	temperature (°C)	Stokes	anti-Stokes-744,400	-200,000	-0,078	-0,306
-743,385	800,000	0,139	0,337
-742,371	621,968	-0,120	-0,220
-741,356	-200,000	0,096	0,365
-740,342	464,888	-0,088	-0,143
-739,327	-200,000	0,012	0,145
-738,312	120,479	-0,195	-0,176
-737,298	-200,000	0,002	0,180
-736,283	800,000	-0,143	-0,326
-735,269	-200,000	-0,000	0,194
-734,254	38,161	-0,251	-0,161
-733,239	-114,005	-0,183	0,025
-732,225	355,803	-0,166	-0,241
-731,210	172,108	0,136	0,142
-730,196	-74,940	-0,049	-0,013
-729,181	-70,987	0,058	0,016
-728,167	-81,505	-0,123	-0,029
-727,152	-200,000	-0,006	0,040
-726,137	-187,023	-0,121	0,001
-725,123	4,737	-0,104	-0,055
-724,108	-200,000	-0,010	0,097
-723,094	-33,562	-0,200	0,080
-722,079	-112,511	-0,088	-0,013
-721,064	255,927	0,066	0,083
-720,050	-170,183	-0,094	0,002
-719,035	-122,414	-0,186	0,022
-718,021	-119,315	0,082	-0,010
-717,006	123,987	-0,060	0,055
-715,991	364,020	-0,116	-0,169
-714,977	548,355	-0,082	-0,142
-713,962	589,766	-0,051	-0,091
-712,948	800,000	0,035	-0,107
-711,933	116,911	0,074	-0,066
-710,918	-58,784	0,063	0,020
-709,904	800,000	0,051	-0,102
-708,889	800,000	-0,089	-0,197
-707,875	800,000	-0,048	-0,129
-706,860	-200,000	-0,014	0,093
-705,845	-29,629	0,117	0,048
-704,831	800,000	0,040	0,094
-703,816	557,289	-0,078	-0,137
-702,802	78,661	-0,079	-0,061
-701,787	-200,000	-0,007	-0,088
-700,772	-200,000	-0,011	-0,182
-699,758	-188,964	0,154	-0,001
-698,743	800,000	0,006	0,013
-697,729	405,166	-0,049	0,075
-696,714	-116,210	0,059	0,008
-695,699	-172,348	-0,128	0,003
-694,685	261,751	0,069	0,087
-693,670	-200,000	-0,008	-0,121
-692,656	-200,000	0,003	-0,028
-691,641	72,820	0,127	0,096
-690,627	-44,225	0,079	0,029
-689,612	-73,629	-0,038	-0,010
-688,597	24,501	0,031	-0,018
-687,583	370,432	-0,013	0,020
-686,568	-200,000	-0,001	-0,025
-685,554	82,864	-0,059	-0,046
-684,539	104,215	-0,052	-0,045
-683,524	132,770	-0,035	0,033
-682,510	-200,000	-0,010	-0,099
-681,495	43,636	-0,042	-0,028
-680,481	33,964	-0,045	-0,028
-679,466	-70,655	-0,138	0,037
-678,451	800,000	0,008	-0,025
-677,437	428,675	-0,046	0,072
-676,422	-106,946	0,071	-0,011
-675,408	72,268	0,135	-0,102
-674,393	272,671	-0,071	-0,091
-673,378	-92,549	-0,116	-0,023
-672,364	23,261	-0,092	0,055
-671,349	800,000	0,023	-0,057
-670,335	800,000	-0,054	0,158
-669,320	70,476	0,135	0,101
-668,305	-185,020	-0,053	0,001
-667,291	-200,000	-0,029	-0,188
-666,276	243,107	0,087	-0,106
-665,262	-19,578	-0,084	-0,038
-664,247	225,440	0,090	-0,105
-663,232	173,273	-0,052	0,054
-662,218	-200,000	-0,001	0,031
-661,203	507,383	0,034	0,058
-660,189	-200,000	-0,020	0,093
-659,174	-200,000	0,020	-0,115
-658,159	-200,000	-0,028	-0,159
-657,145	389,377	-0,023	0,034
-656,130	69,636	0,037	-0,027
-655,116	-200,000	-0,013	-0,093
-654,101	-60,670	0,029	0,009
-653,086	800,000	-0,018	-0,054
-652,072	-141,537	-0,031	0,002
-651,057	98,323	0,086	-0,071
-650,043	129,358	-0,104	-0,096
-649,028	93,320	-0,117	-0,096
-648,014	-185,385	0,115	-0,001
-646,999	-110,310	-0,142	0,021
-645,984	-200,000	0,031	0,139
-644,970	-42,532	-0,030	-0,011
-643,955	-167,120	-0,085	-0,002
-642,941	-91,804	-0,156	-0,032
-641,926	-200,000	-0,018	-0,071
-640,911	-138,960	-0,096	0,007
-639,897	-117,677	0,141	0,018
-638,882	-200,000	0,001	0,060
-637,868	-25,336	-0,115	-0,049
-636,853	800,000	0,052	-0,106
-635,838	150,848	-0,134	-0,132
-634,824	-127,618	-0,132	-0,014
-633,809	-161,183	0,057	-0,002
-632,795	-107,747	-0,035	0,005
-631,780	233,621	-0,071	-0,085
-630,765	-77,419	0,063	-0,016
-629,751	316,307	0,041	0,056
-628,736	32,234	0,111	-0,069
-627,722	-68,744	0,021	0,006
-626,707	-200,000	-0,003	0,114
-625,692	-200,000	0,003	-0,027
-624,678	356,888	-0,042	0,060
-623,663	-200,000	-0,010	0,081
-622,649	-200,000	-0,003	0,047
-621,634	-78,776	-0,070	-0,017
-620,619	171,728	0,074	-0,077
-619,605	800,000	0,013	0,040
-618,590	800,000	0,014	0,031
-617,576	800,000	-0,028	0,062
-616,561	-200,000	-0,018	-0,086
-615,546	375,033	-0,157	-0,231
-614,532	154,824	0,073	-0,072
-613,517	800,000	-0,066	-0,192
-612,503	-148,320	0,101	0,006
-611,488	-84,069	0,141	0,032
-610,474	604,461	0,062	0,111
-609,459	127,061	0,046	-0,042
-608,444	61,546	-0,168	-0,120
-607,430	-200,000	-0,022	-0,114
-606,415	192,748	0,032	-0,035
-605,401	168,987	0,031	0,032
-604,386	209,146	-0,106	0,120
-603,371	-200,000	-0,022	0,070
-602,357	-200,000	0,019	-0,108
-601,342	242,920	-0,118	0,143
-600,328	800,000	0,039	-0,101
-599,313	69,901	-0,037	0,028
-598,298	800,000	0,020	-0,042
-597,284	-200,000	0,025	-0,117
-596,269	-147,286	0,108	-0,006
-595,255	-121,180	0,097	0,012
-594,240	-108,740	-0,113	0,017
-593,225	-156,868	-0,043	0,002
-592,211	739,943	0,021	-0,041
-591,196	-45,091	0,082	0,029
-590,182	468,269	0,073	0,119
-589,167	93,632	0,063	-0,051
-588,152	-200,000	-0,012	0,118
-587,138	800,000	-0,057	-0,117
-586,123	800,000	-0,061	-0,125
-585,109	-200,000	-0,033	-0,140
-584,094	-42,212	0,115	-0,042
-583,079	348,135	0,066	-0,094
-582,065	761,550	-0,019	-0,038
-581,050	377,200	-0,090	0,133
-580,036	134,134	-0,111	-0,103
-579,021	188,708	-0,092	-0,100
-578,006	791,194	0,052	-0,103
-576,992	194,591	-0,081	-0,089
-575,977	169,242	0,122	-0,126
-574,963	-115,832	0,040	-0,005
-573,948	269,206	0,043	0,055
-572,934	55,826	-0,061	0,042
-571,919	478,486	-0,107	-0,175
-570,904	-200,000	-0,023	0,098
-569,890	-200,000	0,039	-0,146
-568,875	800,000	-0,032	0,077
-567,861	72,711	-0,063	0,047
-566,846	-200,000	0,019	0,067
-565,831	23,121	-0,100	0,059
-564,817	6,266	0,042	-0,022
-563,802	-200,000	-0,009	-0,076
-562,788	800,000	-0,082	-0,218
-561,773	-44,187	0,120	-0,043
-560,758	159,630	0,102	-0,102
-559,744	-30,528	0,034	-0,014
-558,729	-125,733	-0,081	-0,009
-557,715	86,501	0,033	-0,026
-556,700	139,222	-0,036	0,034
-555,685	477,072	0,089	-0,145
-554,671	8,486	0,020	0,011
-553,656	215,546	-0,034	-0,038
-552,642	298,617	0,074	0,098
-551,627	-39,053	-0,083	0,031
-550,612	-112,973	0,049	0,007
-549,598	800,000	-0,062	-0,180
-548,583	-200,000	0,014	-0,130
-547,569	85,374	0,096	-0,075
-546,554	800,000	-0,011	0,024
-545,539	-200,000	-0,033	0,192
-544,525	-200,000	-0,004	0,026
-543,510	795,659	-0,041	-0,081
-542,496	386,927	0,052	0,077
-541,481	-200,000	0,017	0,066
-540,466	83,475	-0,034	0,027
-539,452	483,842	-0,012	0,020
-538,437	96,546	0,140	0,116
-537,423	-56,311	-0,016	0,005
-536,408	-200,000	0,025	-0,091
-535,393	-200,000	-0,011	0,109
-534,379	-200,000	-0,007	0,066
-533,364	80,730	0,090	0,070
-532,350	-29,470	0,067	0,027
-531,335	390,618	-0,076	0,114
-530,321	-69,456	-0,120	-0,033
-529,306	-12,029	-0,099	0,047
-528,291	-200,000	-0,006	0,091
-527,277	-200,000	-0,011	0,130
-526,262	-102,813	0,046	0,008
-525,248	-200,000	-0,008	0,045
-524,233	222,956	0,071	0,083
-523,218	132,693	-0,072	0,067
-522,204	-200,000	0,000	-0,039
-521,189	-200,000	0,015	0,092
-520,175	166,585	-0,058	-0,059
-519,160	-90,432	-0,045	-0,009
-518,145	-200,000	0,018	0,061
-517,131	15,810	0,086	0,048
-516,116	195,994	-0,095	0,104
-515,102	164,381	0,060	-0,061
-514,087	113,148	0,018	0,016
-513,072	148,828	0,055	-0,054
-512,058	27,184	0,045	-0,027
-511,043	93,764	-0,086	-0,070
-510,029	39,347	-0,047	-0,030
-509,014	-42,133	0,062	-0,022
-507,999	-111,965	0,061	-0,009
-506,985	-175,463	-0,112	0,002
-505,970	-200,000	-0,005	-0,091
-504,956	-141,348	0,047	-0,003
-503,941	800,000	0,027	-0,072
-502,926	604,703	-0,042	0,076
-501,912	800,000	-0,021	0,049
-500,897	-200,000	0,001	0,032
-499,883	800,000	-0,025	0,056
-498,868	-200,000	-0,049	-0,162
-497,853	155,564	-0,076	-0,075
-496,839	211,155	-0,060	0,068
-495,824	-63,351	0,055	-0,016
-494,810	62,735	0,067	0,048
-493,795	97,324	-0,073	0,060
-492,781	-84,551	0,111	-0,025
-491,766	130,655	0,033	-0,031
-490,751	-200,000	0,008	-0,070
-489,737	701,800	-0,068	0,129
-488,722	-32,283	0,141	-0,056
-487,708	62,386	-0,058	0,041
-486,693	-136,057	0,083	0,007
-485,678	118,159	-0,068	0,060
-484,664	-200,000	0,014	-0,157
-483,649	800,000	-0,048	-0,105
-482,635	349,139	0,064	-0,091
-481,620	-112,585	0,047	-0,007
-480,605	317,364	-0,080	0,109
-479,591	-200,000	-0,002	0,031
-478,576	-200,000	0,000	0,028
-477,562	-200,000	-0,014	0,069
-476,547	800,000	0,053	-0,140
-475,532	32,093	-0,080	0,049
-474,518	-200,000	0,020	0,090
-473,503	-37,200	-0,012	-0,005
-472,489	800,000	-0,036	0,084
-471,474	-200,000	0,013	-0,068
-470,459	62,987	0,010	-0,007
-469,445	278,248	-0,054	-0,069
-468,430	272,167	0,047	0,059
-467,416	-59,922	-0,082	-0,025
-466,401	-200,000	-0,035	0,116
-465,386	-23,591	0,098	0,042
-464,372	-200,000	0,015	-0,074
-463,357	-172,188	0,055	0,001
-462,343	-61,318	0,052	-0,016
-461,328	-200,000	0,014	0,070
-460,313	176,172	-0,037	0,039
-459,299	198,407	0,046	0,050
-458,284	-101,930	0,092	0,016
-457,270	-200,000	0,028	0,121
-456,255	358,300	-0,043	-0,062
-455,241	400,683	-0,031	0,047
-454,226	800,000	0,012	-0,037
-453,211	-109,687	0,131	-0,020
-452,197	191,887	0,036	0,039
-451,182	-35,909	0,066	-0,026
-450,168	-28,615	-0,068	-0,028
-449,153	-40,187	0,029	0,011
-448,138	-200,000	-0,049	-0,198
-447,124	-150,034	-0,048	-0,003
-446,109	-200,000	-0,004	-0,045
-445,095	-200,000	0,005	0,051
-444,080	786,214	0,053	0,104
-443,065	-200,000	-0,008	0,079
-442,051	-23,017	-0,069	-0,030
-441,036	-171,631	-0,058	0,001
-440,022	800,000	-0,074	-0,165
-439,007	69,442	0,064	-0,047
-437,992	-61,108	0,085	-0,026
-436,978	-110,026	0,134	-0,020
-435,963	137,173	-0,044	0,041
-434,949	-200,000	0,007	-0,116
-433,934	-200,000	-0,002	-0,047
-432,919	800,000	-0,010	0,021
-431,905	282,056	-0,104	0,134
-430,890	-76,573	0,108	0,027
-429,876	-200,000	0,023	0,077
-428,861	220,973	0,008	0,009
-427,846	-133,372	-0,068	0,006
-426,832	-200,000	0,011	-0,091
-425,817	426,033	-0,034	-0,053
-424,803	399,847	-0,050	-0,076
-423,788	800,000	-0,053	-0,114
-422,773	-97,142	0,137	0,025
-421,759	111,744	-0,065	0,057
-420,744	577,319	-0,011	0,019
-419,730	29,399	-0,113	0,068
-418,715	-94,216	-0,049	-0,010
-417,701	-200,000	0,014	-0,050
-416,686	-96,665	-0,074	0,014
-415,671	170,976	0,102	0,104
-414,657	-200,000	-0,002	0,143
-413,642	800,000	-0,031	-0,064
-412,628	-63,209	-0,070	0,021
-411,613	-173,477	0,173	0,004
-410,598	800,000	-0,063	-0,155
-409,584	-151,959	0,084	-0,004
-408,569	243,889	-0,010	0,012
-407,555	-165,353	0,126	0,004
-406,540	-135,553	0,065	-0,005
-405,525	-200,000	0,009	-0,155
-404,511	178,660	-0,064	-0,067
-403,496	25,036	0,070	0,041
-402,482	800,000	-0,073	-0,156
-401,467	12,226	0,142	0,078
-400,452	800,000	0,057	0,176
-399,438	598,822	0,054	0,095
-398,423	-200,000	-0,023	-0,117
-397,409	800,000	0,043	-0,103
-396,394	800,000	-0,006	-0,015
-395,379	555,798	-0,079	-0,137
-394,365	800,000	0,042	0,084
-393,350	-200,000	0,036	0,190
-392,336	99,066	0,103	0,085
-391,321	-64,390	-0,065	-0,019
-390,306	200,062	0,067	0,074
-389,292	-16,489	-0,123	-0,056
-388,277	145,477	-0,060	0,058
-387,263	107,868	0,113	0,096
-386,248	117,090	-0,067	0,059
-385,233	-127,965	-0,096	-0,010
-384,219	-84,229	-0,116	-0,026
-383,204	224,604	0,141	-0,163
-382,190	-200,000	-0,010	-0,136
-381,175	210,782	0,083	-0,093
-380,160	800,000	0,037	0,077
-379,146	148,980	0,084	0,082
-378,131	-161,168	0,007	-0,000
-377,117	-81,347	-0,144	-0,034
-376,102	151,111	-0,045	-0,044
-375,088	-200,000	-0,021	-0,093
-374,073	-200,000	-0,007	-0,035
-373,058	-67,323	-0,110	0,031
-372,044	-200,000	0,008	0,102
-371,029	173,927	0,038	-0,039
-370,015	-108,437	-0,041	0,006
-369,000	-200,000	-0,026	0,085
-367,985	800,000	-0,012	-0,027
-366,971	-58,264	-0,068	-0,021
-365,956	457,198	-0,028	-0,045
-364,942	-54,989	-0,029	0,009
-363,927	-200,000	0,005	0,198
-362,912	-200,000	0,050	0,167
-361,898	558,201	0,001	0,002
-360,883	800,000	-0,060	-0,153
-359,869	-200,000	0,012	0,042
-358,854	-200,000	-0,002	0,080
-357,839	-118,180	0,081	0,010
-356,825	147,966	-0,004	-0,003
-355,810	246,606	0,046	-0,055
-354,796	215,401	-0,049	0,055
-353,781	3,724	0,041	0,022
-352,766	188,509	-0,058	-0,062
-351,752	356,320	-0,015	-0,021
-350,737	-123,235	0,077	0,009
-349,723	-171,331	0,094	0,002
-348,708	-61,212	0,135	0,040
-347,693	293,657	-0,044	-0,058
-346,679	136,448	0,031	0,029
-345,664	417,891	0,039	0,060
-344,650	239,897	0,085	-0,101
-343,635	287,719	0,079	0,102
-342,620	-200,000	-0,003	0,072
-341,606	-200,000	-0,018	0,104
-340,591	224,615	0,087	0,100
-339,577	236,059	0,078	-0,092
-338,562	178,541	-0,049	0,051
-337,548	656,776	0,018	-0,033
-336,533	133,574	0,070	-0,064
-335,518	331,400	-0,069	-0,096
-334,504	249,583	-0,073	-0,088
-333,489	89,052	-0,029	-0,023
-332,475	92,771	-0,061	0,049
-331,460	-7,077	-0,040	-0,019
-330,445	-2,914	0,114	-0,056
-329,431	-200,000	-0,018	0,081
-328,416	-200,000	0,025	-0,134
-327,402	-200,000	0,025	-0,121
-326,387	800,000	-0,064	0,143
-325,372	260,140	0,043	0,053
-324,358	-16,095	-0,129	0,058
-323,343	-166,276	0,148	0,004
-322,329	-200,000	-0,001	0,018
-321,314	649,506	-0,027	0,050
-320,299	344,644	0,058	-0,081
-319,285	125,344	-0,051	-0,046
-318,270	150,872	-0,029	-0,029
-317,256	213,184	-0,061	-0,069
-316,241	-200,000	0,005	0,051
-315,226	-200,000	0,020	0,152
-314,212	800,000	-0,038	0,077
-313,197	167,127	-0,030	-0,030
-312,183	102,660	-0,055	-0,046
-311,168	-78,654	-0,149	-0,036
-310,153	-63,710	-0,149	-0,043
-309,139	-200,000	0,004	0,079
-308,124	167,562	0,057	0,058
-307,110	79,235	0,023	0,017
-306,095	-83,365	-0,129	0,029
-305,080	54,287	-0,194	-0,133
-304,066	-94,754	0,099	0,019
-303,051	-200,000	-0,018	-0,083
-302,037	-49,432	0,055	-0,019
-301,022	-36,408	0,083	-0,032
-300,008	19,037	-0,069	0,039
-298,993	64,273	0,076	0,055
-297,978	-200,000	0,003	0,193
-296,964	-200,000	-0,007	-0,041
-295,949	791,161	-0,055	-0,108
-294,935	-65,255	-0,027	-0,008
-293,920	-48,450	-0,095	0,032
-292,905	-200,000	-0,035	0,157
-291,891	195,194	-0,054	-0,059
-290,876	-37,554	0,063	-0,024
-289,862	283,479	-0,121	0,156
-288,847	-200,000	0,005	-0,141
-287,832	-56,537	0,065	-0,020
-286,818	-200,000	-0,004	0,160
-285,803	30,045	0,170	0,103
-284,789	-200,000	-0,026	0,124
-283,774	108,308	0,051	0,043
-282,759	-103,958	-0,074	0,012
-281,745	9,847	0,078	-0,042
-280,730	-200,000	-0,056	-0,186
-279,716	-81,992	0,135	0,031
-278,701	-200,000	0,004	0,086
-277,686	-50,250	0,076	0,026
-276,672	222,582	0,077	-0,088
-275,657	-200,000	-0,040	0,193
-274,643	800,000	0,024	0,066
-273,628	-130,458	0,009	0,001
-272,613	400,211	0,054	-0,081
-271,599	-27,477	-0,081	0,033
-270,584	-129,834	0,045	-0,004
-269,570	800,000	0,016	-0,033
-268,555	-200,000	0,013	-0,097
-267,540	-100,484	-0,060	0,010
-266,526	493,661	-0,051	-0,084
-265,511	-100,058	0,123	0,022
-264,497	575,531	0,061	-0,106
-263,482	222,510	-0,046	-0,053
-262,467	438,757	0,040	0,063
-261,453	120,157	0,061	-0,054
-260,438	320,845	0,039	-0,053
-259,424	800,000	0,052	-0,112
-258,409	-200,000	0,014	0,134
-257,395	181,806	-0,020	-0,021
-256,380	-200,000	0,025	0,102
-255,365	690,141	0,034	0,064
-254,351	268,559	0,119	-0,149
-253,336	-92,988	-0,080	-0,016
-252,322	178,678	0,053	0,055
-251,307	614,299	0,036	-0,065
-250,292	-126,769	0,135	-0,014
-249,278	-127,184	-0,101	0,010
-248,263	-200,000	0,025	0,169
-247,249	-200,000	0,010	0,075
-246,234	-200,000	-0,088	-0,000
-245,219	800,000	-0,038	-0,105
-244,205	800,000	-0,015	-0,041
-243,190	475,221	-0,028	-0,045
-242,176	64,770	0,063	0,045
-241,161	-200,000	0,009	0,120
-240,146	133,338	-0,158	0,145
-239,132	145,468	0,027	0,025
-238,117	-63,523	0,042	-0,012
-237,103	-200,000	-0,003	0,052
-236,088	605,515	-0,033	-0,059
-235,073	79,615	0,024	0,018
-234,059	-89,959	-0,036	0,007
-233,044	448,449	0,061	-0,095
-232,030	-200,000	-0,056	0,214
-231,015	-42,144	-0,035	-0,013
-230,000	2,638	0,065	-0,033
-228,986	482,668	0,051	0,083
-227,971	-15,558	-0,151	-0,068
-226,957	-45,224	0,071	0,025
-225,942	-6,325	-0,073	0,035
-224,927	-9,269	0,168	0,079
-223,913	-23,141	-0,086	-0,037
-222,898	54,137	0,185	-0,126
-221,884	-100,659	-0,055	-0,010
-220,869	94,988	0,126	0,102
-219,855	-43,908	-0,099	-0,035
-218,840	-200,000	-0,016	-0,093
-217,825	44,600	0,049	0,032
-216,811	230,765	-0,040	0,046
-215,796	-200,000	0,003	-0,103
-214,782	-200,000	-0,006	0,097
-213,767	212,537	0,044	0,049
-212,752	-84,570	0,096	-0,021
-211,738	800,000	-0,028	-0,084
-210,723	-2,679	-0,093	0,046
-209,709	-200,000	-0,035	-0,122
-208,694	-200,000	0,006	-0,098
-207,679	-200,000	0,008	-0,138
-206,665	-53,278	-0,192	0,062
-205,650	101,639	-0,042	0,034
-204,636	-200,000	-0,015	0,067
-203,621	657,184	0,036	0,067
-202,606	81,129	-0,023	-0,018
-201,592	394,650	-0,066	-0,098
-200,577	-200,000	-0,021	-0,148
-199,563	-137,569	0,123	-0,010
-198,548	13,138	0,096	0,053
-197,533	110,770	0,059	0,050
-196,519	-200,000	0,003	-0,115
-195,504	-115,452	-0,057	-0,008
-194,490	-98,349	-0,089	-0,016
-193,475	249,233	0,111	-0,134
-192,460	204,561	-0,024	0,026
-191,446	256,851	0,052	0,064
-190,431	-200,000	0,008	0,101
-189,417	-200,000	0,009	0,057
-188,402	-62,871	-0,122	-0,035
-187,387	53,270	-0,132	-0,089
-186,373	-200,000	-0,007	0,140
-185,358	389,962	0,041	0,061
-184,344	-200,000	0,020	0,073
-183,329	-200,000	0,004	0,042
-182,315	-200,000	-0,060	0,190
-181,300	75,610	-0,047	0,035
-180,285	51,863	-0,083	-0,056
-179,271	-200,000	0,038	-0,124
-178,256	223,564	-0,108	0,123
-177,242	404,684	0,046	0,069
-176,227	-1,010	-0,081	-0,040
-175,212	-200,000	0,015	0,089
-174,198	192,538	-0,057	0,061
-173,183	-88,574	-0,165	-0,035
-172,169	-200,000	-0,017	-0,063
-171,154	-82,947	0,111	0,025
-170,139	-200,000	0,041	0,165
-169,125	677,431	0,092	0,171
-168,110	138,627	0,073	0,068
-167,096	-200,000	0,009	-0,082
-166,081	-200,000	-0,033	-0,143
-165,066	54,260	-0,128	0,087
-164,052	308,592	-0,026	0,034
-163,037	-200,000	-0,022	0,131
-162,023	769,846	0,076	0,148
-161,008	80,637	0,148	-0,113
-159,993	800,000	-0,045	-0,097
-158,979	-81,238	0,194	0,045
-157,964	-200,000	0,016	-0,130
-156,950	-200,000	-0,031	-0,118
-155,935	-200,000	-0,001	-0,023
-154,920	49,472	-0,053	0,036
-153,906	800,000	0,040	0,080
-152,891	-151,758	0,020	-0,001
-151,877	421,440	-0,048	0,074
-150,862	-4,719	-0,083	-0,040
-149,847	-200,000	-0,037	-0,135
-148,833	332,156	-0,023	0,031
-147,818	779,178	-0,028	0,054
-146,804	800,000	-0,036	0,097
-145,789	800,000	0,021	-0,053
-144,775	-56,997	0,106	-0,033
-143,760	87,342	0,070	-0,055
-142,745	-52,363	-0,201	0,065
-141,731	46,898	0,040	-0,027
-140,716	-200,000	-0,020	-0,070
-139,702	495,085	0,030	0,049
-138,687	320,771	0,029	0,039
-137,672	800,000	-0,027	-0,059
-136,658	483,619	-0,044	-0,072
-135,643	47,454	-0,024	-0,016
-134,629	113,014	0,127	0,109
-133,614	-200,000	-0,002	-0,041
-132,599	327,988	0,106	0,144
-131,585	-135,814	-0,073	0,006
-130,570	-200,000	-0,028	-0,138
-129,556	211,263	0,061	-0,068
-128,541	248,748	-0,073	-0,088
-127,526	333,342	-0,109	0,149
-126,512	800,000	0,012	0,029
-125,497	91,653	-0,030	-0,024
-124,483	-80,879	-0,106	-0,025
-123,468	-200,000	0,006	-0,176
-122,453	79,120	-0,067	0,051
-121,439	-47,184	-0,150	-0,052
-120,424	800,000	0,015	-0,030
-119,410	-55,362	-0,045	-0,014
-118,395	800,000	0,041	0,081
-117,380	38,461	-0,058	-0,037
-116,366	6,937	-0,032	0,017
-115,351	-76,805	0,051	0,013
-114,337	-54,101	-0,131	-0,042
-113,322	800,000	0,040	-0,082
-112,307	-152,444	-0,047	-0,002
-111,293	-200,000	-0,035	0,127
-110,278	-17,648	-0,021	-0,009
-109,264	-200,000	0,028	-0,091
-108,249	270,004	-0,079	-0,099
-107,234	152,566	0,162	-0,157
-106,220	800,000	-0,011	0,034
-105,205	34,866	0,108	0,067
-104,191	39,923	0,030	-0,019
-103,176	-141,485	0,113	0,008
-102,162	211,812	0,033	-0,037
-101,147	-80,667	0,042	-0,010
-100,132	-60,486	-0,180	0,054
-99,118	177,327	-0,087	0,090
-98,103	-12,749	0,047	-0,022
-97,089	6,569	-0,078	0,041
-96,074	-200,000	0,032	0,124
-95,059	-200,000	-0,011	-0,200
-94,045	-200,000	0,004	0,094
-93,030	339,875	-0,149	-0,207
-92,016	-30,085	0,065	0,026
-91,001	148,581	0,141	-0,134
-89,986	-13,343	-0,085	-0,039
-88,972	759,360	-0,029	-0,056
-87,957	-200,000	0,000	-0,020
-86,943	-141,135	-0,053	-0,004
-85,928	-173,499	-0,148	-0,003
-84,913	272,431	-0,044	-0,055
-83,899	-200,000	0,001	-0,062
-82,884	-200,000	0,025	0,090
-81,870	-200,000	-0,014	0,065
-80,855	303,359	-0,043	0,057
-79,840	386,456	0,047	0,068
-78,826	-27,580	0,021	0,008
-77,811	3,434	-0,067	0,034
-76,797	-125,342	-0,039	-0,004
-75,782	601,257	-0,102	0,179
-74,767	-156,512	0,105	0,005
-73,753	-109,854	0,023	-0,003
-72,738	23,064	-0,037	-0,021
-71,724	-200,000	-0,007	-0,075
-70,709	-68,017	-0,179	-0,049
-69,694	-119,752	-0,085	0,010
-68,680	87,463	-0,091	0,071
-67,665	-200,000	0,030	0,106
-66,651	178,879	0,084	-0,086
-65,636	-26,420	0,149	-0,062
-64,622	-200,000	-0,024	-0,085
-63,607	-142,016	0,104	0,007
-62,592	394,089	-0,016	0,023
-61,578	380,614	-0,070	-0,101
-60,563	-4,165	0,043	-0,021
-59,549	800,000	-0,056	0,148
-58,534	41,553	-1,978	-1,261
-57,519	494,543	-1,268	-2,062
-56,505	-200,000	-0,366	-4,393
-55,490	468,804	0,831	1,321
-54,476	800,000	5,216	11,325
-53,461	-200,000	20,995	333,876
-52,446	800,000	757,722	2335,299
-51,432	553,267	1660,850	2827,727
-50,417	73,341	1662,054	1225,678
-49,403	18,338	1534,958	862,471
-48,388	12,318	1458,240	790,271
-47,373	19,136	1449,195	818,037
-46,359	15,633	1438,498	795,317
-45,344	10,588	1434,184	768,900
-44,330	10,477	1432,438	767,406
-43,315	10,475	1430,587	766,371
-42,300	10,467	1428,857	765,377
-41,286	10,500	1427,676	764,870
-40,271	10,455	1426,336	763,911
-39,257	10,481	1425,125	763,354
-38,242	10,485	1424,301	762,901
-37,227	10,510	1423,030	762,309
-36,213	10,554	1421,696	761,774
-35,198	10,567	1420,420	761,117
-34,184	10,577	1419,493	760,638
-33,169	10,474	1418,411	759,546
-32,154	10,520	1417,472	759,225
-31,140	10,532	1416,131	758,537
-30,125	10,575	1414,889	758,044
-29,111	10,595	1413,772	757,509
-28,096	10,529	1412,719	756,603
-27,082	10,501	1411,606	755,846
-26,067	10,519	1410,329	755,217
-25,052	10,475	1409,500	754,538
-24,038	10,489	1408,342	753,953
-23,023	10,441	1407,658	753,334
-22,009	10,486	1406,391	752,835
-20,994	10,463	1405,332	752,130
-19,979	10,463	1404,538	751,674
-18,965	10,449	1403,562	751,060
-17,950	10,419	1402,603	750,374
-16,936	10,429	1401,785	749,953
-15,921	10,365	1400,911	749,158
-14,906	10,376	1399,892	748,638
-13,892	10,412	1398,898	748,244
-12,877	10,378	1398,171	747,665
-11,863	10,389	1397,279	747,208
-10,848	10,341	1396,441	746,508
-9,833	10,334	1395,641	746,020
-8,819	10,295	1394,698	745,304
-7,804	10,274	1393,979	744,794
-6,790	10,288	1392,925	744,266
-5,775	10,342	1391,606	743,782
-4,760	10,297	1390,708	743,062
-3,746	10,294	1389,877	742,578
-2,731	10,281	1389,043	742,040
-1,717	10,325	1388,198	741,763
-0,702	10,254	1386,409	740,451
0,313	14,401	1299,401	712,914
1,327	30,715	690,896	416,050
2,342	47,771	119,738	78,677
3,356	-1,195	16,480	8,183
4,371	-9,912	3,527	1,648
5,386	-18,636	1,003	0,439
6,400	-200,000	0,182	0,569
7,415	-54,595	-0,304	-0,096
8,429	19,668	-0,211	-0,119
9,444	-43,758	-0,414	-0,146
10,459	144,049	-0,249	-0,234
11,473	-2,717	-0,290	-0,142
12,488	-154,735	-0,331	0,015
13,502	-116,954	-0,373	-0,047
14,517	160,835	-0,355	-0,349
15,531	24,433	-0,438	-0,254
16,546	24,810	-0,395	-0,230
17,561	16,276	-0,418	-0,232
18,575	178,359	-0,156	-0,161
19,590	624,345	-0,090	-0,160
20,604	-59,638	-0,268	-0,080
21,619	33,116	-0,503	-0,306
22,634	100,865	-0,415	-0,339
23,648	86,043	-0,379	-0,293
24,663	78,702	-0,364	-0,274
25,677	-72,548	-0,405	-0,104
26,692	-98,046	-0,360	-0,065
27,707	53,717	-0,327	-0,221
28,721	5,406	-0,356	-0,184
29,736	220,666	-0,434	-0,490
30,750	267,940	-0,348	-0,429
31,765	47,325	-0,436	-0,285
32,780	44,865	-0,338	-0,218
33,794	90,164	-0,332	-0,261
34,809	37,441	-0,378	-0,235
35,823	182,700	-0,243	-0,252
36,838	67,859	-0,333	-0,239
37,853	-30,649	-0,498	-0,197
38,867	29,162	-0,344	-0,205
39,882	63,122	-0,328	-0,231
40,896	-44,655	-0,258	-0,090
41,911	-5,005	-0,444	-0,214
42,926	123,148	-0,347	-0,305
43,940	35,166	-0,326	-0,200
44,955	167,829	-0,312	-0,312
45,969	132,141	-0,375	-0,339
46,984	105,803	-0,294	-0,244
47,999	120,190	-0,240	-0,209
49,013	65,954	-0,323	-0,229
50,028	-65,632	-0,320	-0,090
51,042	175,833	-0,263	-0,268
52,057	-20,922	-0,306	-0,131
53,071	-5,368	-0,457	-0,220
54,086	21,720	-0,344	-0,196
55,101	-93,121	-0,468	-0,091
56,115	45,418	-0,328	-0,212
57,130	-81,678	-0,369	-0,084
58,144	15,359	-0,447	-0,245
59,159	38,458	-0,310	-0,194
60,174	97,918	-0,289	-0,234
61,188	87,043	-0,348	-0,269
62,203	95,260	-0,283	-0,226
63,217	-110,650	-0,363	-0,052
64,232	18,408	-0,313	-0,175
65,247	167,764	-0,302	-0,301
66,261	148,301	-0,384	-0,363
67,276	181,312	-0,319	-0,329
68,290	-38,326	-0,282	-0,104
69,305	63,144	-0,349	-0,245
70,320	-26,668	-0,275	-0,112
71,334	-44,398	-0,396	-0,138
72,349	128,840	-0,371	-0,332
73,363	14,638	-0,357	-0,195
74,378	15,576	-0,293	-0,161
75,393	73,775	-0,343	-0,252
76,407	6,400	-0,297	-0,154
77,422	-15,937	-0,297	-0,132
78,436	-53,194	-0,276	-0,088
79,451	9,153	-0,284	-0,150
80,466	-61,479	-0,430	-0,126
81,480	87,704	-0,343	-0,266
82,495	90,700	-0,289	-0,227
83,509	-123,590	-0,329	-0,036
84,524	69,630	-0,267	-0,192
85,539	800,000	-0,128	-0,281
86,553	54,716	-0,339	-0,229
87,568	356,972	-0,217	-0,304
88,582	-28,147	-0,249	-0,100
89,597	65,498	-0,319	-0,226
90,611	60,098	-0,215	-0,149
91,626	103,299	-0,272	-0,223
92,641	-26,387	-0,283	-0,116
93,655	-46,116	-0,374	-0,128
94,670	163,024	-0,251	-0,247
95,684	-10,137	-0,375	-0,173
96,699	38,088	-0,378	-0,234
97,714	75,165	-0,250	-0,184
98,728	-59,066	-0,271	-0,081
99,743	60,596	-0,267	-0,184
100,757	13,910	-0,320	-0,174
101,772	55,095	-0,323	-0,218
102,787	-58,080	-0,240	-0,073
103,801	127,149	-0,242	-0,214
104,816	-28,172	-0,363	-0,146
105,830	54,304	-0,289	-0,194
106,845	-1,337	-0,263	-0,129
107,860	65,887	-0,322	-0,228
108,874	-12,589	-0,312	-0,142
109,889	163,833	-0,220	-0,216
110,903	264,465	-0,235	-0,287
111,918	-49,111	-0,287	-0,095
112,933	196,099	-0,146	-0,155
113,947	-78,735	-0,207	-0,049
114,962	32,823	-0,372	-0,225
115,976	15,366	-0,307	-0,168
116,991	-5,138	-0,311	-0,149
118,006	-88,241	-0,299	-0,062
119,020	-43,994	-0,314	-0,110
120,035	103,266	-0,185	-0,151
121,049	-55,643	-0,103	0,032
122,064	-70,554	-0,175	-0,046
123,079	794,328	-0,088	-0,169
124,093	39,019	-0,318	-0,198
125,108	8,249	-0,306	-0,160
126,122	90,967	-0,275	-0,215
127,137	800,000	-0,141	-0,275
128,151	389,796	-0,169	-0,245
129,166	-139,639	-0,253	-0,019
130,181	18,144	-0,206	-0,114
131,195	168,916	-0,213	-0,212
132,210	-130,363	-0,344	-0,032
133,224	-57,655	-0,222	-0,067
134,239	47,741	-0,336	-0,218
135,254	51,265	-0,261	-0,172
136,268	-17,847	-0,222	-0,097
137,283	-65,288	-0,260	-0,072
138,297	101,710	-0,259	-0,210
139,312	639,293	-0,181	-0,323
140,327	-22,987	-0,215	-0,090
141,341	-35,353	-0,186	-0,070
142,356	30,606	-0,309	-0,184
143,370	124,661	-0,179	-0,157
144,385	154,014	-0,268	-0,256
145,400	32,619	-0,318	-0,191
146,414	246,317	-0,265	-0,311
147,429	10,683	-0,282	-0,149
148,443	145,998	-0,190	-0,177
149,458	36,370	-0,249	-0,152
150,473	-8,803	-0,091	-0,042
151,487	5,715	-0,275	-0,141
152,502	568,367	-0,169	-0,287
153,516	49,726	-0,258	-0,169
154,531	214,938	-0,215	-0,238
155,546	147,431	-0,220	-0,206
156,560	23,586	-0,186	-0,106
157,575	511,116	-0,162	-0,264
158,589	256,751	-0,204	-0,244
159,604	-28,334	-0,191	-0,077
160,619	6,707	-0,264	-0,136
161,633	204,321	-0,285	-0,308
162,648	243,510	-0,189	-0,221
163,662	60,792	-0,242	-0,167
164,677	22,029	-0,196	-0,111
165,692	-13,817	-0,268	-0,120
166,706	50,600	-0,213	-0,140
167,721	187,808	-0,195	-0,202
168,735	31,794	-0,276	-0,165
169,750	478,425	-0,187	-0,295
170,764	168,032	-0,253	-0,250
171,779	37,848	-0,213	-0,131
172,794	-29,474	-0,168	-0,066
173,808	-43,324	-0,165	-0,058
174,823	-29,865	-0,178	-0,070
175,837	167,959	-0,143	-0,141
176,852	774,748	-0,112	-0,213
177,867	111,688	-0,204	-0,171
178,881	113,453	-0,255	-0,215
179,896	-68,436	-0,254	-0,068
180,910	1,590	-0,278	-0,138
181,925	-123,666	-0,205	-0,022
182,940	66,955	-0,243	-0,172
183,954	371,362	-0,185	-0,261
184,969	60,670	-0,279	-0,191
185,983	-25,558	-0,198	0,081
186,998	46,335	-0,172	-0,110
188,013	151,959	-0,264	-0,250
189,027	146,655	-0,215	-0,200
190,042	308,052	-0,222	-0,288
191,056	128,602	-0,170	-0,150
192,071	52,820	-0,328	-0,217
193,086	76,481	-0,238	-0,175
194,100	-45,709	-0,138	-0,047
195,115	6,355	-0,261	-0,134
196,129	314,364	-0,186	-0,244
197,144	60,175	-0,263	-0,180
198,159	85,895	-0,210	-0,160
199,173	57,332	-0,181	-0,122
200,188	27,229	-0,148	-0,086
201,202	-200,000	-0,049	-0,151
202,217	-200,000	-0,035	-0,177
203,232	-42,117	-0,185	-0,065
204,246	800,000	-0,098	-0,200
205,261	203,862	-0,192	-0,206
206,275	141,060	-0,086	-0,079
207,290	-200,000	-0,067	-0,252
208,304	31,361	-0,159	-0,094
209,319	153,541	-0,226	-0,215
210,334	-42,803	-0,240	-0,084
211,348	182,669	-0,193	-0,198
212,363	183,097	-0,168	-0,172
213,377	-44,023	-0,126	-0,044
214,392	22,218	-0,146	-0,082
215,407	218,833	-0,122	-0,135
216,421	144,308	-0,129	-0,119
217,436	135,991	-0,211	-0,190
218,450	76,130	-0,174	-0,127
219,465	253,720	-0,108	-0,127
220,480	146,151	-0,225	-0,209
221,494	-171,607	-0,188	0,004
222,509	56,410	-0,067	-0,045
223,523	20,600	-0,188	-0,105
224,538	163,403	-0,172	-0,167
225,553	800,000	-0,113	-0,289
226,567	59,508	-0,335	-0,228
227,582	72,607	-0,299	-0,215
228,596	235,058	-0,177	-0,202
229,611	80,758	-0,094	-0,070
230,626	-19,571	-0,151	-0,064
231,640	128,265	-0,076	-0,067
232,655	175,183	-0,298	-0,299
233,669	71,133	-0,261	-0,186
234,684	107,833	-0,143	-0,117
235,699	-84,654	-0,221	-0,048
236,713	245,884	-0,076	-0,088
237,728	102,590	-0,145	-0,117
238,742	-70,627	-0,194	-0,050
239,757	630,707	-0,107	-0,187
240,772	74,505	-0,142	-0,103
241,786	311,840	-0,144	-0,187
242,801	190,394	-0,166	-0,172
243,815	494,482	-0,043	-0,068
244,830	108,007	-0,190	-0,156
245,844	-65,800	-0,283	-0,078
246,859	111,435	-0,242	-0,201
247,874	-200,000	0,001	-0,237
248,888	12,936	-0,182	-0,097
249,903	518,111	-0,155	-0,251
250,917	-78,862	-0,203	-0,047
251,932	800,000	-0,023	-0,057
252,947	800,000	-0,070	-0,145
253,961	-83,873	-0,212	0,046
254,976	93,911	-0,159	-0,124
255,990	-45,007	-0,253	-0,087
257,005	85,229	-0,194	-0,147
258,020	128,245	-0,124	-0,109
259,034	400,900	-0,059	-0,086
260,049	-34,852	-0,204	-0,076
261,063	188,590	-0,136	-0,140
262,078	109,745	-0,236	-0,195
263,093	765,631	-0,037	-0,070
264,107	31,163	-0,245	-0,145
265,122	72,693	-0,061	-0,043
266,136	17,541	-0,280	-0,153
267,151	134,544	-0,139	-0,124
268,166	-149,884	-0,316	-0,017
269,180	-0,353	-0,254	-0,124
270,195	186,819	-0,163	-0,168
271,209	127,995	-0,232	-0,204
272,224	-29,280	-0,133	-0,052
273,239	129,671	-0,124	-0,109
274,253	23,084	-0,181	-0,102
275,268	800,000	-0,054	-0,122
276,282	800,000	-0,064	-0,128
277,297	-28,799	-0,227	-0,090
278,312	516,741	-0,095	-0,153
279,326	-40,288	-0,239	-0,085
280,341	-61,546	-0,150	-0,043
281,355	-137,275	-0,166	0,013
282,370	464,774	-0,123	-0,189
283,384	724,181	-0,123	-0,226
284,399	-158,140	-0,267	0,011
285,414	-177,834	-0,224	0,004
286,428	-37,997	-0,198	-0,072
287,443	98,966	-0,112	-0,089
288,457	269,217	-0,052	-0,063
289,472	-172,237	-0,053	-0,001
290,487	181,125	-0,236	-0,238
291,501	372,623	-0,158	-0,222
292,516	512,471	-0,136	-0,219
293,530	-136,820	-0,203	0,016
294,545	800,000	-0,076	-0,162
295,560	-4,857	-0,135	0,064
296,574	800,000	-0,053	-0,142
297,589	800,000	-0,073	-0,216
298,603	88,213	-0,134	-0,102
299,618	800,000	-0,084	-0,166
300,633	-147,826	-0,172	-0,010
301,647	-74,270	-0,099	0,024
302,662	800,000	-0,023	-0,046
303,676	161,521	-0,133	0,128
304,691	-73,574	-0,250	-0,062
305,706	-110,633	-0,036	0,005
306,720	800,000	-0,088	-0,177
307,735	411,761	-0,100	-0,146
308,749	79,066	-0,145	-0,107
309,764	-138,197	-0,195	-0,015
310,779	-135,742	-0,129	0,010
311,793	346,487	-0,087	-0,118
312,808	410,528	-0,102	-0,149
313,822	552,939	-0,098	-0,162
314,837	82,751	-0,172	-0,128
315,852	-62,194	-0,199	0,057
316,866	-92,925	-0,193	0,037
317,881	-52,014	-0,169	-0,054
318,895	-61,081	-0,173	-0,050
319,910	231,020	-0,150	-0,168
320,925	412,309	-0,065	-0,095
321,939	-26,675	-0,186	-0,074
322,954	118,096	-0,138	-0,116
323,968	-200,000	-0,030	-0,167
324,983	247,707	-0,074	-0,085
325,997	-91,434	-0,229	0,044
327,012	800,000	-0,100	-0,195
328,027	-0,587	-0,196	-0,095
329,041	49,832	-0,196	-0,126
330,056	43,876	-0,074	-0,046
331,070	-22,437	-0,113	-0,047
332,085	674,302	-0,074	-0,133
333,100	-19,390	-0,144	-0,061
334,114	374,754	-0,106	-0,148
335,129	350,681	-0,117	-0,159
336,143	124,487	-0,064	-0,055
337,158	81,041	-0,160	-0,118
338,173	232,416	-0,104	-0,117
339,187	-7,607	-0,072	-0,033
340,202	42,736	-0,136	-0,085
341,216	-83,795	-0,196	-0,042
342,231	83,684	-0,140	-0,105
343,246	-181,778	-0,184	0,002
344,260	800,000	-0,052	-0,149
345,275	-22,458	-0,188	-0,078
346,289	704,283	-0,045	-0,081
347,304	593,896	-0,038	-0,064
348,319	154,091	-0,105	-0,099
349,333	561,344	-0,066	-0,110
350,348	800,000	-0,116	-0,283
351,362	-200,000	0,003	-0,176
352,377	-4,734	-0,032	-0,015
353,392	-64,385	-0,124	-0,034
354,406	552,224	-0,049	-0,081
355,421	208,245	1306,040	1397,255
356,435	160,236	1465,674	1397,749
