DTS Sentinel unit serial number:	SN410029Multiplexer serial number:	ORYXHardware model number:	OX2-SRSoftware version number:	ORYX F/W v4,00 Oryx Data Collector v3.7.2.0data status	okinstallation	B3 Nyhavnadifferential loss correction	single-endedforward channel	channel 1reverse channel	N/Adate	2023/12/03time	21:17:30forward acquisition time	300,00reverse acquisition time	0,00gamma	499,1914k internal	0,3199k external	0,3199temperature offset calibration	1,0000default loss term (dB/km)	0,3820temperature slope calibration	1,0000multiplexer offset coefficient	1,0000multiplexer slope coefficient	1,0000fibre end	0,00T internal ref (°C)	13,65T ext. ref 1 (°C)	-1,82T ext. ref 2 (°C)	-1,83length (m)	temperature (°C)	Stokes	anti-Stokes-744,400	102,352	-0,186	-0,158
-743,385	-200,000	0,040	0,349
-742,371	720,852	-0,160	-0,310
-741,356	-200,000	-0,012	0,361
-740,342	-44,473	-0,255	-0,092
-739,327	-200,000	0,020	0,291
-738,312	62,214	-0,286	-0,208
-737,298	616,355	-0,101	0,185
-736,283	159,532	-0,170	-0,172
-735,269	-200,000	0,020	0,313
-734,254	-200,000	-0,024	-0,105
-733,239	214,311	-0,167	0,193
-732,225	169,023	-0,187	-0,195
-731,210	37,039	0,117	0,075
-730,196	-200,000	0,027	0,112
-729,181	247,429	-0,021	0,026
-728,167	44,357	0,025	-0,017
-727,152	-35,779	-0,092	-0,036
-726,137	433,663	-0,055	-0,087
-725,123	-200,000	-0,002	-0,017
-724,108	-35,602	-0,194	0,076
-723,094	-200,000	-0,020	-0,066
-722,079	800,000	0,046	-0,113
-721,064	-172,324	-0,141	-0,003
-720,050	283,161	0,027	0,036
-719,035	-200,000	-0,005	-0,099
-718,021	800,000	-0,013	-0,032
-717,006	800,000	0,054	-0,117
-715,991	-98,567	-0,140	0,026
-714,977	-146,092	-0,093	0,006
-713,962	800,000	0,021	0,053
-712,948	-93,098	0,059	0,012
-711,933	-200,000	-0,028	-0,125
-710,918	123,291	-0,090	0,082
-709,904	785,325	0,032	0,064
-708,889	79,443	-0,084	0,065
-707,875	-116,656	-0,120	-0,016
-706,860	99,108	-0,063	-0,053
-705,845	260,983	-0,028	-0,036
-704,831	-97,201	-0,178	0,033
-703,816	669,911	-0,067	0,128
-702,802	-40,521	-0,099	-0,037
-701,787	-122,058	-0,035	-0,004
-700,772	-85,835	0,098	-0,022
-699,758	800,000	0,027	0,078
-698,743	-200,000	-0,018	-0,086
-697,729	137,219	-0,050	0,048
-696,714	-53,500	-0,052	-0,017
-695,699	800,000	-0,039	0,093
-694,685	-84,342	0,037	-0,008
-693,670	-131,626	-0,145	0,014
-692,656	-12,206	0,025	-0,012
-691,641	363,644	0,062	-0,091
-690,627	-169,403	0,115	-0,003
-689,612	800,000	-0,048	0,131
-688,597	800,000	-0,016	0,035
-687,583	-200,000	0,058	-0,200
-686,568	31,096	-0,040	-0,025
-685,554	800,000	0,047	-0,111
-684,539	800,000	0,030	-0,061
-683,524	-25,671	0,073	0,031
-682,510	188,033	-0,083	0,090
-681,495	198,729	-0,074	-0,082
-680,481	-200,000	-0,011	-0,051
-679,466	176,459	-0,068	-0,072
-678,451	800,000	-0,034	-0,093
-677,437	-38,211	0,093	0,036
-676,422	141,923	-0,127	0,123
-675,408	-82,967	0,126	0,029
-674,393	115,997	-0,071	0,063
-673,378	-200,000	0,010	-0,102
-672,364	-200,000	-0,002	-0,069
-671,349	-196,391	0,114	-0,001
-670,335	-200,000	0,013	-0,049
-669,320	800,000	0,006	0,015
-668,305	-59,006	-0,048	-0,015
-667,291	-71,719	-0,073	0,020
-666,276	-200,000	-0,009	-0,247
-665,262	-200,000	0,025	0,148
-664,247	37,455	0,049	-0,032
-663,232	51,228	0,024	-0,017
-662,218	-200,000	-0,005	-0,066
-661,203	392,998	0,045	0,068
-660,189	800,000	0,040	-0,100
-659,174	117,306	-0,021	0,019
-658,159	183,416	-0,069	-0,074
-657,145	-29,542	0,090	0,037
-656,130	183,660	0,053	-0,056
-655,116	105,253	-0,075	0,064
-654,101	-200,000	-0,019	0,133
-653,086	496,176	-0,022	0,038
-652,072	-60,724	0,051	0,016
-651,057	800,000	0,031	-0,079
-650,043	-72,900	-0,067	-0,018
-649,028	56,492	0,136	-0,096
-648,014	-143,680	-0,089	-0,006
-646,999	64,029	-0,080	0,058
-645,984	800,000	-0,024	-0,047
-644,970	-200,000	-0,015	-0,170
-643,955	567,305	-0,048	0,085
-642,941	25,137	-0,080	-0,048
-641,926	778,918	0,042	0,083
-640,911	15,830	0,156	0,089
-639,897	511,837	0,009	0,015
-638,882	60,208	-0,086	0,062
-637,868	-3,758	0,019	-0,010
-636,853	-30,987	-0,133	0,054
-635,838	-33,293	-0,179	0,071
-634,824	-24,357	0,120	-0,052
-633,809	-200,000	0,009	-0,042
-632,795	71,568	0,021	0,015
-631,780	800,000	-0,012	-0,024
-630,765	-73,963	-0,142	0,037
-629,751	38,487	-0,058	-0,037
-628,736	42,720	0,054	-0,036
-627,722	-200,000	-0,001	-0,014
-626,707	-93,978	-0,169	-0,033
-625,692	535,322	0,076	0,132
-624,678	94,215	-0,045	0,037
-623,663	63,084	0,029	-0,021
-622,649	43,087	0,057	-0,038
-621,634	-200,000	-0,028	-0,103
-620,619	405,521	0,044	-0,068
-619,605	-111,255	-0,110	-0,016
-618,590	650,579	0,029	0,053
-617,576	-23,143	0,117	-0,051
-616,561	605,722	-0,026	0,048
-615,546	81,439	-0,097	-0,076
-614,532	242,781	-0,059	-0,072
-613,517	800,000	0,080	-0,208
-612,503	440,695	-0,034	0,053
-611,488	-200,000	0,012	0,080
-610,474	-32,239	0,064	0,026
-609,459	300,518	0,055	0,074
-608,444	-200,000	-0,028	-0,110
-607,430	-200,000	0,002	-0,081
-606,415	61,008	0,037	-0,027
-605,401	299,072	-0,044	0,059
-604,386	-200,000	0,023	-0,108
-603,371	240,617	-0,116	-0,141
-602,357	-133,222	0,095	0,009
-601,342	198,249	0,082	0,091
-600,328	535,264	-0,039	-0,066
-599,313	185,396	-0,035	-0,038
-598,298	-200,000	-0,003	-0,155
-597,284	-200,000	-0,010	0,072
-596,269	-81,214	0,037	-0,009
-595,255	293,742	-0,113	0,149
-594,240	-162,988	-0,028	0,001
-593,225	800,000	-0,037	-0,088
-592,211	-200,000	-0,037	-0,139
-591,196	800,000	-0,060	-0,124
-590,182	-200,000	-0,027	0,128
-589,167	-152,903	0,098	-0,005
-588,152	129,523	0,082	-0,076
-587,138	375,860	-0,016	0,024
-586,123	-200,000	0,001	-0,028
-585,109	-200,000	-0,017	-0,175
-584,094	39,710	-0,104	0,067
-583,079	-123,973	-0,103	0,012
-582,065	800,000	-0,011	0,028
-581,050	800,000	0,026	-0,071
-580,036	254,913	-0,064	-0,080
-579,021	125,522	-0,046	0,042
-578,006	294,455	0,083	-0,110
-576,992	147,508	-0,066	-0,064
-575,977	785,064	0,015	-0,030
-574,963	-0,891	0,067	0,034
-573,948	800,000	0,016	0,032
-572,934	5,936	0,091	0,049
-571,919	73,530	-0,135	-0,102
-570,904	14,562	-0,040	0,022
-569,890	623,274	-0,021	0,039
-568,875	-200,000	0,024	-0,154
-567,861	-164,540	0,138	-0,004
-566,846	800,000	0,007	-0,021
-565,831	800,000	0,046	0,144
-564,817	-25,321	-0,179	-0,076
-563,802	-168,041	-0,101	0,003
-562,788	50,147	0,085	0,058
-561,773	800,000	0,031	-0,092
-560,758	147,838	0,047	-0,046
-559,744	-200,000	0,016	0,080
-558,729	-145,022	-0,120	0,008
-557,715	57,202	-0,066	-0,046
-556,700	-163,733	-0,129	-0,004
-555,685	-40,506	-0,068	0,025
-554,671	-23,094	0,097	0,042
-553,656	165,385	0,044	0,045
-552,642	-50,522	-0,057	0,019
-551,627	-127,088	0,069	0,007
-550,612	201,430	-0,014	-0,015
-549,598	515,740	0,059	-0,100
-548,583	-200,000	-0,020	0,177
-547,569	-200,000	-0,061	-0,000
-546,554	-70,856	0,108	0,029
-545,539	800,000	0,030	0,089
-544,525	-64,042	0,101	-0,029
-543,510	103,818	-0,051	0,043
-542,496	800,000	0,028	-0,088
-541,481	800,000	0,014	-0,029
-540,466	117,165	-0,071	-0,063
-539,452	128,607	0,050	-0,046
-538,437	-200,000	-0,040	0,175
-537,423	29,140	0,022	0,013
-536,408	278,066	0,071	-0,092
-535,393	-70,974	-0,102	-0,028
-534,379	53,011	-0,142	0,098
-533,364	-200,000	0,026	-0,099
-532,350	800,000	-0,023	0,048
-531,335	-91,870	0,096	-0,019
-530,321	-161,241	-0,099	-0,004
-529,306	-200,000	-0,001	0,094
-528,291	800,000	-0,037	0,096
-527,277	-61,541	0,106	-0,032
-526,262	-200,000	0,009	0,034
-525,248	800,000	-0,064	0,176
-524,233	275,292	0,057	0,073
-523,218	57,996	0,065	0,046
-522,204	34,038	0,039	-0,024
-521,189	-63,606	-0,074	-0,022
-520,175	-137,081	0,092	0,007
-519,160	24,072	0,053	-0,032
-518,145	96,611	0,051	-0,043
-517,131	13,162	-0,055	-0,031
-516,116	-54,772	0,067	-0,022
-515,102	-21,416	0,069	0,030
-514,087	181,266	-0,090	-0,096
-513,072	800,000	0,013	0,036
-512,058	426,202	0,068	0,106
-511,043	16,971	-0,060	-0,034
-510,029	800,000	0,041	0,087
-509,014	-200,000	0,011	0,038
-507,999	800,000	-0,055	0,125
-506,985	-99,006	-0,075	-0,014
-505,970	800,000	0,039	0,087
-504,956	800,000	-0,018	-0,038
-503,941	457,526	0,048	0,078
-502,926	56,719	0,070	-0,049
-501,912	80,840	0,140	0,109
-500,897	-120,428	-0,078	0,009
-499,883	12,652	0,119	-0,066
-498,868	-200,000	-0,165	0,000
-497,853	265,511	-0,092	-0,117
-496,839	-38,935	0,011	0,004
-495,824	-200,000	-0,032	0,117
-494,810	-75,321	0,092	0,023
-493,795	-200,000	-0,004	0,012
-492,781	-53,946	-0,045	-0,015
-491,766	-111,812	-0,100	-0,014
-490,751	-68,757	-0,196	-0,054
-489,737	-200,000	-0,002	0,011
-488,722	-200,000	0,008	0,063
-487,708	86,185	0,074	-0,058
-486,693	83,728	-0,003	-0,003
-485,678	-200,000	0,017	0,059
-484,664	42,001	0,095	-0,062
-483,649	187,054	0,174	-0,187
-482,635	-76,255	0,088	0,022
-481,620	51,358	0,095	0,065
-480,605	-200,000	0,058	0,000
-479,591	-130,831	-0,017	-0,002
-478,576	-106,962	-0,058	-0,009
-477,562	-200,000	0,010	0,103
-476,547	39,202	0,064	-0,041
-475,532	-97,270	0,095	0,018
-474,518	-19,558	-0,117	0,052
-473,503	-181,942	0,143	-0,002
-472,489	154,833	-0,067	0,067
-471,474	-200,000	0,003	-0,043
-470,459	-200,000	-0,001	0,087
-469,445	100,964	-0,020	-0,016
-468,430	-110,696	0,051	-0,008
-467,416	-38,920	0,105	0,040
-466,401	21,324	0,134	0,078
-465,386	-200,000	-0,002	0,072
-464,372	86,573	0,019	0,015
-463,357	767,436	-0,012	-0,024
-462,343	192,934	-0,107	-0,116
-461,328	69,087	-0,069	-0,051
-460,313	800,000	-0,013	0,031
-459,299	7,570	0,049	-0,026
-458,284	-108,371	0,110	0,017
-457,270	249,838	-0,056	0,068
-456,255	42,692	0,024	0,016
-455,241	191,688	-0,042	-0,046
-454,226	485,812	-0,013	0,022
-453,211	147,685	-0,123	0,119
-452,197	16,016	0,055	-0,031
-451,182	-130,897	0,122	0,012
-450,168	75,950	-0,129	0,098
-449,153	-200,000	-0,016	0,077
-448,138	-56,538	-0,144	0,046
-447,124	-170,641	-0,154	-0,004
-446,109	255,613	0,065	-0,080
-445,095	-124,186	0,029	-0,003
-444,080	698,817	-0,005	0,010
-443,065	-200,000	0,037	-0,152
-442,051	800,000	-0,011	0,034
-441,036	-200,000	-0,009	-0,189
-440,022	-200,000	0,014	-0,059
-439,007	12,777	0,027	0,015
-437,992	800,000	-0,002	-0,007
-436,978	-200,000	0,017	0,075
-435,963	-200,000	0,054	0,252
-434,949	-98,474	-0,056	-0,010
-433,934	393,176	0,051	-0,076
-432,919	143,763	0,134	-0,128
-431,905	800,000	0,059	-0,124
-430,890	86,087	0,112	0,088
-429,876	-80,004	0,108	0,026
-428,861	392,649	-0,037	-0,056
-427,846	-136,205	0,078	0,006
-426,832	-200,000	0,001	0,054
-425,817	-200,000	0,016	-0,071
-424,803	313,314	0,055	-0,075
-423,788	575,485	-0,053	-0,093
-422,773	11,986	0,073	0,040
-421,759	-200,000	0,046	0,161
-420,744	800,000	0,033	0,075
-419,730	-175,794	0,143	0,003
-418,715	598,676	-0,059	-0,106
-417,701	367,423	-0,002	-0,003
-416,686	-2,465	0,025	0,012
-415,671	-137,021	0,087	0,007
-414,657	39,881	0,120	0,077
-413,642	-80,788	-0,113	0,027
-412,628	76,373	0,030	0,023
-411,613	-200,000	-0,003	0,010
-410,598	800,000	0,055	-0,110
-409,584	337,580	-0,034	-0,048
-408,569	-19,608	0,047	0,021
-407,555	-34,663	-0,134	-0,052
-406,540	79,677	-0,089	0,069
-405,525	-29,681	-0,094	-0,039
-404,511	800,000	-0,063	-0,133
-403,496	-200,000	0,009	0,090
-402,482	451,610	-0,122	0,195
-401,467	-138,633	-0,058	0,005
-400,452	-11,123	0,154	-0,073
-399,438	-87,640	0,051	0,011
-398,423	-15,865	-0,035	0,016
-397,409	800,000	-0,026	0,071
-396,394	-200,000	-0,011	0,088
-395,379	-173,284	-0,081	-0,002
-394,365	47,718	0,055	-0,037
-393,350	86,838	0,107	-0,085
-392,336	-200,000	-0,029	0,142
-391,321	-64,418	-0,050	0,014
-390,306	766,653	0,073	0,143
-389,292	44,387	0,084	0,056
-388,277	-200,000	0,004	0,030
-387,263	-135,535	-0,033	0,003
-386,248	281,217	0,036	-0,046
-385,233	38,379	-0,190	0,121
-384,219	-163,857	0,091	-0,003
-383,204	221,097	-0,114	-0,131
-382,190	329,773	-0,054	-0,074
-381,175	616,398	0,070	-0,126
-380,160	233,913	-0,082	0,097
-379,146	109,924	0,105	0,090
-378,131	-200,000	0,020	0,090
-377,117	244,724	-0,040	0,049
-376,102	76,473	0,052	0,040
-375,088	81,404	-0,158	-0,122
-374,073	48,312	0,143	-0,096
-373,058	408,673	0,051	-0,078
-372,044	13,180	0,079	0,044
-371,029	180,045	0,012	0,013
-370,015	-38,459	-0,120	0,045
-369,000	-200,000	-0,035	0,119
-367,985	-28,693	0,055	0,023
-366,971	-200,000	-0,016	-0,103
-365,956	35,895	-0,099	0,062
-364,942	466,891	0,033	-0,053
-363,927	-200,000	0,003	0,049
-362,912	-69,478	0,142	0,039
-361,898	-182,089	-0,068	0,001
-360,883	-69,806	-0,137	0,037
-359,869	783,202	-0,049	0,097
-358,854	417,187	-0,052	-0,079
-357,839	-200,000	0,029	-0,118
-356,825	-65,518	0,159	-0,046
-355,810	64,233	0,079	0,057
-354,796	-131,283	-0,090	0,008
-353,781	-197,945	-0,122	-0,001
-352,766	609,467	-0,026	-0,047
-351,752	-27,989	0,139	-0,057
-350,737	-200,000	0,004	-0,049
-349,723	139,364	-0,104	-0,098
-348,708	800,000	0,036	-0,089
-347,693	-43,176	-0,066	0,024
-346,679	-38,375	-0,094	-0,036
-345,664	-200,000	0,000	-0,056
-344,650	98,413	-0,178	-0,147
-343,635	528,608	0,043	0,073
-342,620	-98,050	0,168	0,031
-341,606	77,439	-0,033	-0,025
-340,591	-178,887	0,130	-0,002
-339,577	-120,848	-0,013	-0,002
-338,562	143,034	0,067	-0,064
-337,548	800,000	-0,046	-0,096
-336,533	82,543	0,114	0,089
-335,518	-200,000	0,008	0,162
-334,504	-57,276	0,068	0,021
-333,489	800,000	0,039	-0,078
-332,475	19,565	-0,009	-0,005
-331,460	40,048	0,021	-0,014
-330,445	305,567	-0,035	0,047
-329,431	521,438	0,032	0,054
-328,416	59,757	0,122	0,086
-327,402	170,554	-0,068	-0,069
-326,387	33,821	0,038	-0,023
-325,372	-88,022	-0,053	0,011
-324,358	371,496	0,115	-0,168
-323,343	-200,000	0,003	0,029
-322,329	800,000	-0,031	0,087
-321,314	781,957	0,028	-0,055
-320,299	124,435	0,052	0,047
-319,285	-200,000	-0,010	0,112
-318,270	-76,613	-0,024	-0,006
-317,256	221,382	0,046	-0,053
-316,241	-200,000	0,020	-0,104
-315,226	-22,114	0,041	0,018
-314,212	-74,534	-0,067	0,017
-313,197	2,873	-0,179	0,093
-312,183	-67,441	0,062	-0,017
-311,168	255,660	0,043	-0,053
-310,153	30,629	0,146	0,089
-309,139	-5,011	-0,155	-0,076
-308,124	-6,067	0,188	-0,092
-307,110	-22,553	0,113	-0,049
-306,095	12,034	0,093	0,051
-305,080	-200,000	-0,014	0,171
-304,066	-200,000	0,001	-0,081
-303,051	608,336	-0,037	0,066
-302,037	94,730	-0,068	0,055
-301,022	91,083	0,013	0,011
-300,008	690,902	-0,040	0,075
-298,993	-18,563	0,024	-0,011
-297,978	800,000	0,034	0,071
-296,964	-58,038	-0,117	-0,036
-295,949	800,000	-0,013	0,030
-294,935	800,000	0,019	0,043
-293,920	114,704	0,074	0,065
-292,905	426,772	0,043	-0,067
-291,891	594,741	0,055	0,097
-290,876	-2,161	0,096	-0,048
-289,862	461,414	-0,067	-0,107
-288,847	120,672	0,041	0,037
-287,832	275,532	-0,032	-0,041
-286,818	692,019	-0,046	-0,087
-285,803	800,000	-0,065	0,151
-284,789	299,367	0,059	-0,078
-283,774	-45,480	-0,124	-0,044
-282,759	-92,229	0,074	0,015
-281,745	567,631	-0,065	-0,113
-280,730	16,859	-0,026	0,014
-279,716	-200,000	-0,005	-0,032
-278,701	-33,862	-0,068	-0,027
-277,686	-200,000	0,046	0,158
-276,672	-200,000	-0,022	0,141
-275,657	-114,373	0,042	-0,006
-274,643	800,000	-0,031	-0,084
-273,628	-36,666	0,068	0,026
-272,613	0,601	-0,089	0,045
-271,599	769,030	0,078	0,153
-270,584	800,000	0,071	0,149
-269,570	19,917	0,059	0,034
-268,555	800,000	-0,027	-0,084
-267,540	619,087	-0,046	0,083
-266,526	800,000	-0,018	0,044
-265,511	-38,596	0,037	0,014
-264,497	84,093	-0,047	-0,037
-263,482	330,745	0,049	0,068
-262,467	23,099	0,061	-0,036
-261,453	-200,000	-0,001	-0,054
-260,438	-166,329	0,061	-0,002
-259,424	-200,000	0,011	0,047
-258,409	-98,556	-0,087	-0,016
-257,395	-200,000	0,000	0,066
-256,380	-200,000	-0,006	0,124
-255,365	21,956	-0,204	0,118
-254,351	49,351	0,049	0,033
-253,336	-200,000	-0,016	-0,054
-252,322	731,067	-0,030	-0,057
-251,307	350,760	-0,052	-0,074
-250,292	293,601	-0,009	0,012
-249,278	275,468	-0,036	0,046
-248,263	-18,986	-0,129	-0,057
-247,249	-59,543	0,027	0,008
-246,234	800,000	0,058	-0,131
-245,219	208,483	-0,061	0,069
-244,205	-200,000	-0,019	-0,069
-243,190	800,000	0,002	-0,006
-242,176	-3,161	0,124	0,061
-241,161	-33,978	-0,085	0,033
-240,146	65,373	0,075	0,054
-239,132	800,000	0,049	0,123
-238,117	-73,043	-0,126	-0,033
-237,103	-38,615	-0,102	0,038
-236,088	314,113	-0,048	-0,064
-235,073	-200,000	0,008	0,028
-234,059	-200,000	0,013	-0,044
-233,044	-9,484	-0,034	0,016
-232,030	205,213	0,019	-0,021
-231,015	-13,520	-0,140	0,064
-230,000	-59,084	0,033	0,010
-228,986	317,328	0,022	0,029
-227,971	-200,000	0,005	0,060
-226,957	26,111	0,184	0,110
-225,942	-121,564	0,034	-0,004
-224,927	-200,000	-0,013	0,126
-223,913	-47,935	-0,029	-0,010
-222,898	176,162	-0,054	-0,056
-221,884	53,082	-0,163	-0,111
-220,869	-200,000	-0,019	-0,106
-219,855	101,329	0,072	-0,060
-218,840	-200,000	0,053	0,178
-217,825	-54,714	-0,116	-0,037
-216,811	800,000	-0,037	0,094
-215,796	511,668	0,010	0,017
-214,782	800,000	-0,046	-0,136
-213,767	-137,765	-0,113	-0,009
-212,752	-200,000	0,008	-0,075
-211,738	800,000	-0,011	0,031
-210,723	800,000	-0,020	-0,045
-209,709	382,440	-0,039	0,057
-208,694	800,000	0,074	-0,189
-207,679	800,000	-0,028	-0,060
-206,665	-200,000	0,004	-0,120
-205,650	-5,340	0,081	0,040
-204,636	-105,535	0,259	0,041
-203,621	-32,765	-0,134	0,053
-202,606	760,645	-0,024	0,046
-201,592	199,557	-0,070	-0,077
-200,577	800,000	0,009	0,019
-199,563	-162,330	0,085	0,003
-198,548	-200,000	0,007	0,051
-197,533	-72,280	0,079	0,021
-196,519	536,778	0,012	-0,021
-195,504	-53,341	-0,038	0,012
-194,490	8,310	-0,178	-0,095
-193,475	334,158	-0,013	-0,019
-192,460	800,000	0,047	-0,122
-191,446	-73,260	0,165	-0,043
-190,431	-5,658	-0,048	0,023
-189,417	-4,012	0,023	-0,011
-188,402	-200,000	0,002	-0,038
-187,387	-136,279	-0,089	0,007
-186,373	-200,000	-0,005	-0,045
-185,358	422,478	-0,104	-0,160
-184,344	527,587	0,085	0,143
-183,329	-61,927	-0,051	-0,015
-182,315	-49,093	-0,040	0,013
-181,300	-200,000	-0,014	-0,077
-180,285	195,328	-0,029	-0,031
-179,271	-200,000	-0,021	-0,115
-178,256	-200,000	0,009	-0,080
-177,242	-45,745	0,054	0,019
-176,227	248,328	-0,027	0,032
-175,212	-200,000	0,019	0,092
-174,198	265,151	0,017	-0,021
-173,183	-200,000	0,011	0,075
-172,169	-27,446	-0,142	0,058
-171,154	800,000	0,053	-0,121
-170,139	-200,000	-0,006	-0,072
-169,125	321,222	0,044	0,060
-168,110	-200,000	0,008	0,041
-167,096	112,445	-0,016	0,014
-166,081	120,207	-0,045	0,040
-165,066	-200,000	-0,013	-0,143
-164,052	689,064	-0,037	-0,069
-163,037	630,735	-0,044	-0,079
-162,023	154,095	0,024	0,023
-161,008	800,000	-0,022	0,059
-159,993	800,000	0,008	0,022
-158,979	539,657	-0,008	0,013
-157,964	270,905	-0,039	-0,048
-156,950	200,448	0,006	-0,006
-155,935	-123,554	-0,105	0,012
-154,920	-123,530	0,061	0,007
-153,906	-139,688	0,117	-0,009
-152,891	-88,133	0,126	-0,027
-151,877	84,459	-0,109	0,085
-150,862	-200,000	0,058	-0,000
-149,847	-200,000	0,002	-0,099
-148,833	-200,000	-0,001	-0,083
-147,818	-200,000	0,018	0,094
-146,804	333,736	-0,063	0,087
-145,789	-90,202	0,087	-0,018
-144,775	38,364	-0,142	0,089
-143,760	-76,276	0,077	-0,019
-142,745	141,082	-0,066	-0,062
-141,731	319,745	0,044	0,060
-140,716	381,016	-0,025	0,037
-139,702	49,832	0,129	0,086
-138,687	-200,000	-0,020	-0,081
-137,672	-200,000	-0,015	-0,091
-136,658	800,000	-0,060	-0,182
-135,643	-44,947	0,033	-0,012
-134,629	-48,105	0,041	0,014
-133,614	-81,983	-0,086	0,020
-132,599	403,295	-0,023	0,034
-131,585	-200,000	0,017	0,180
-130,570	-44,148	-0,086	-0,030
-129,556	-35,927	0,115	0,044
-128,541	145,918	-0,147	-0,140
-127,526	-200,000	0,009	-0,064
-126,512	250,503	0,056	0,068
-125,497	291,044	-0,019	-0,025
-124,483	145,915	-0,105	-0,100
-123,468	506,492	-0,045	0,075
-122,453	-110,282	-0,093	0,014
-121,439	-19,165	-0,057	-0,025
-120,424	519,078	0,033	-0,055
-119,410	-63,360	0,074	0,021
-118,395	355,920	-0,038	0,054
-117,380	252,000	0,019	-0,023
-116,366	192,870	-0,124	0,133
-115,351	-174,192	-0,054	-0,001
-114,337	-200,000	-0,027	-0,124
-113,322	-134,550	0,182	0,016
-112,307	-200,000	-0,003	-0,069
-111,293	-200,000	0,013	0,218
-110,278	800,000	-0,061	0,132
-109,264	-200,000	-0,008	0,039
-108,249	800,000	0,031	-0,067
-107,234	160,044	-0,042	-0,042
-106,220	800,000	0,017	-0,034
-105,205	-156,532	-0,060	-0,003
-104,191	-104,801	0,203	-0,033
-103,176	-49,390	-0,035	-0,012
-102,162	-120,970	0,120	0,014
-101,147	800,000	0,029	-0,082
-100,132	-200,000	-0,021	-0,112
-99,118	150,766	-0,077	0,075
-98,103	-200,000	0,009	0,068
-97,089	-200,000	0,014	0,087
-96,074	-123,424	0,143	0,016
-95,059	357,626	0,013	0,019
-94,045	2,500	-0,077	0,039
-93,030	96,654	-0,018	0,014
-92,016	-200,000	0,001	-0,116
-91,001	-59,622	0,015	-0,005
-89,986	73,124	0,038	-0,028
-88,972	-49,397	0,158	0,053
-87,957	-18,474	0,018	-0,008
-86,943	82,357	-0,087	-0,067
-85,928	16,893	-0,087	0,049
-84,913	158,176	-0,082	-0,080
-83,899	800,000	-0,073	-0,162
-82,884	-86,005	0,182	0,040
-81,870	131,587	0,042	0,039
-80,855	72,163	0,063	0,046
-79,840	111,611	-0,108	-0,092
-78,826	364,646	-0,106	-0,152
-77,811	800,000	-0,037	-0,113
-76,797	800,000	0,081	-0,203
-75,782	216,017	-0,027	0,030
-74,767	348,635	-0,044	0,062
-73,753	-200,000	0,000	0,125
-72,738	119,608	-0,056	-0,049
-71,724	52,412	-0,060	-0,040
-70,709	512,213	0,073	-0,121
-69,694	265,514	0,030	-0,037
-68,680	758,089	0,029	0,056
-67,665	800,000	0,035	-0,106
-66,651	220,071	0,049	0,055
-65,636	800,000	0,046	0,096
-64,622	800,000	0,031	0,094
-63,607	66,422	0,051	-0,037
-62,592	233,551	0,053	-0,062
-61,578	117,720	0,079	-0,069
-60,563	-133,917	-0,102	-0,009
-59,549	236,007	0,075	0,088
-58,534	-40,349	-1,729	-0,634
-57,519	452,149	-1,337	-2,101
-56,505	-200,000	-0,614	-4,326
-55,490	230,716	1,012	1,176
-54,476	800,000	4,887	11,199
-53,461	-200,000	19,100	319,220
-52,446	-200,000	740,344	2337,518
-51,432	575,817	1656,284	2877,252
-50,417	78,823	1672,653	1266,631
-49,403	21,650	1544,920	888,542
-48,388	15,558	1467,376	814,287
-47,373	18,026	1457,675	820,816
-46,359	16,841	1447,599	809,419
-45,344	13,791	1442,864	792,112
-44,330	13,691	1441,022	790,589
-43,315	13,689	1439,225	789,564
-42,300	13,707	1437,598	788,726
-41,286	13,748	1436,182	788,114
-40,271	13,707	1434,773	787,113
-39,257	13,726	1433,681	786,572
-38,242	13,756	1432,733	786,164
-37,227	13,715	1431,386	785,199
-36,213	13,753	1430,008	784,593
-35,198	13,764	1428,677	783,887
-34,184	13,785	1428,025	783,593
-33,169	13,737	1426,669	782,592
-32,154	13,763	1425,442	782,013
-31,140	13,739	1424,215	781,192
-30,125	13,795	1423,110	780,822
-29,111	13,752	1421,907	779,926
-28,096	13,740	1420,796	779,228
-27,082	13,670	1419,734	778,288
-26,067	13,689	1418,520	777,678
-25,052	13,684	1417,587	777,114
-24,038	13,651	1416,597	776,383
-23,023	13,651	1415,571	775,792
-22,009	13,719	1414,442	775,462
-20,994	13,650	1413,701	774,701
-19,979	13,613	1412,700	773,948
-18,965	13,604	1411,920	773,449
-17,950	13,608	1411,079	772,976
-16,936	13,628	1410,106	772,506
-15,921	13,580	1408,903	771,588
-14,906	13,574	1407,742	770,895
-13,892	13,559	1407,041	770,411
-12,877	13,594	1406,060	770,008
-11,863	13,606	1405,084	769,499
-10,848	13,587	1404,321	768,960
-9,833	13,545	1403,564	768,320
-8,819	13,552	1402,430	767,701
-7,804	13,480	1401,809	766,996
-6,790	13,494	1400,545	766,337
-5,775	13,482	1399,450	765,652
-4,760	13,478	1398,662	765,174
-3,746	13,443	1397,996	764,616
-2,731	13,490	1396,853	764,180
-1,717	13,405	1396,189	763,392
-0,702	13,460	1394,324	762,594
0,313	17,209	1311,446	734,689
1,327	33,354	704,877	432,273
2,342	51,334	123,655	82,987
3,356	3,565	16,541	8,511
4,371	3,158	3,335	1,711
5,386	-73,648	0,734	0,188
6,400	204,948	0,058	0,064
7,415	-117,464	-0,286	-0,036
8,429	-81,294	-0,375	-0,087
9,444	122,769	-0,288	-0,255
10,459	69,925	-0,365	-0,266
11,473	231,134	-0,270	-0,313
12,488	47,700	-0,320	-0,211
13,502	-77,939	-0,334	-0,081
14,517	-120,699	-0,260	-0,031
15,531	-10,596	-0,393	-0,183
16,546	121,808	-0,308	-0,271
17,561	208,020	-0,378	-0,418
18,575	68,387	-0,155	-0,112
19,590	30,620	-0,353	-0,213
20,604	124,236	-0,221	-0,196
21,619	136,168	-0,335	-0,309
22,634	119,011	-0,337	-0,294
23,648	97,772	-0,505	-0,410
24,663	78,052	-0,408	-0,307
25,677	49,026	-0,330	-0,219
26,692	-5,652	-0,406	-0,196
27,707	185,266	-0,292	-0,306
28,721	8,653	-0,363	-0,193
29,736	-136,017	-0,347	-0,028
30,750	-47,531	-0,505	-0,172
31,765	74,054	-0,346	-0,256
32,780	224,852	-0,227	-0,259
33,794	68,645	-0,311	-0,225
34,809	150,242	-0,288	-0,276
35,823	-14,127	-0,399	-0,181
36,838	363,112	-0,210	-0,299
37,853	269,912	-0,354	-0,441
38,867	131,694	-0,325	-0,295
39,882	53,504	-0,377	-0,255
40,896	4,958	-0,350	-0,181
41,911	42,102	-0,399	-0,255
42,926	93,007	-0,350	-0,279
43,940	77,407	-0,386	-0,290
44,955	55,324	-0,356	-0,242
45,969	36,035	-0,391	-0,242
46,984	32,161	-0,354	-0,215
47,999	55,751	-0,329	-0,225
49,013	22,674	-0,336	-0,194
50,028	154,041	-0,278	-0,269
51,042	34,508	-0,431	-0,265
52,057	73,430	-0,328	-0,242
53,071	111,972	-0,226	-0,192
54,086	31,275	-0,393	-0,237
55,101	235,683	-0,291	-0,340
56,115	-24,597	-0,326	-0,136
57,130	40,805	-0,418	-0,265
58,144	85,776	-0,327	-0,253
59,159	-49,259	-0,346	-0,116
60,174	-5,625	-0,390	-0,187
61,188	123,192	-0,276	-0,244
62,203	89,633	-0,280	-0,220
63,217	50,222	-0,284	-0,188
64,232	227,815	-0,227	-0,261
65,247	-46,850	-0,379	-0,130
66,261	69,625	-0,435	-0,315
67,276	25,014	-0,329	-0,191
68,290	41,793	-0,365	-0,233
69,305	72,262	-0,222	-0,162
70,320	69,341	-0,248	-0,179
71,334	20,208	-0,354	-0,200
72,349	26,118	-0,311	-0,182
73,363	375,185	-0,218	-0,313
74,378	88,202	-0,340	-0,265
75,393	434,896	-0,268	-0,411
76,407	114,851	-0,182	-0,156
77,422	62,674	-0,325	-0,229
78,436	104,356	-0,192	-0,159
79,451	140,027	-0,244	-0,226
80,466	105,146	-0,291	-0,242
81,480	171,291	-0,284	-0,287
82,495	-106,869	-0,256	-0,039
83,509	254,592	-0,188	-0,227
84,524	702,539	-0,141	-0,263
85,539	6,883	-0,347	-0,181
86,553	31,580	-0,311	-0,188
87,568	146,134	-0,281	-0,265
88,582	94,204	-0,269	-0,215
89,597	481,171	-0,127	-0,204
90,611	-7,505	-0,301	-0,143
91,626	-51,052	-0,359	-0,118
92,641	-22,893	-0,258	-0,109
93,655	48,664	-0,337	-0,221
94,670	80,445	-0,268	-0,202
95,684	89,225	-0,229	-0,179
96,699	77,227	-0,302	-0,225
97,714	16,450	-0,300	-0,166
98,728	-41,266	-0,296	-0,107
99,743	31,612	-0,299	-0,180
100,757	63,314	-0,267	-0,188
101,772	-83,398	-0,391	-0,087
102,787	-40,574	-0,349	-0,127
103,801	48,756	-0,421	-0,277
104,816	257,667	-0,243	-0,294
105,830	-37,563	-0,364	-0,136
106,845	-77,457	-0,402	-0,097
107,860	363,281	-0,218	-0,308
108,874	-61,758	-0,438	-0,128
109,889	67,644	-0,296	-0,212
110,903	196,401	-0,295	-0,316
111,918	10,204	-0,190	-0,101
112,933	-15,986	-0,317	-0,141
113,947	6,049	-0,215	-0,111
114,962	55,308	-0,265	-0,179
115,976	16,221	-0,303	-0,167
116,991	50,078	-0,308	-0,203
118,006	146,364	-0,297	-0,280
119,020	-13,785	-0,280	-0,127
120,035	-67,027	-0,210	-0,058
121,049	61,141	-0,218	-0,151
122,064	16,070	-0,188	-0,103
123,079	174,677	-0,274	-0,278
124,093	-124,735	-0,301	-0,032
125,108	55,050	-0,217	-0,147
126,122	64,128	-0,252	-0,177
127,137	57,494	-0,227	-0,155
128,151	-76,955	-0,281	-0,068
129,166	75,399	-0,318	-0,234
130,181	28,256	-0,143	-0,084
131,195	256,883	-0,269	-0,325
132,210	134,779	-0,264	-0,240
133,224	204,316	-0,227	-0,246
134,239	83,615	-0,214	-0,163
135,254	-33,393	-0,206	-0,079
136,268	274,141	-0,191	-0,237
137,283	-200,000	-0,063	-0,248
138,297	239,592	-0,150	-0,175
139,312	65,551	-0,227	-0,161
140,327	-25,927	-0,264	-0,108
141,341	88,128	-0,252	-0,195
142,356	317,587	-0,205	-0,272
143,370	-61,924	-0,286	-0,083
144,385	87,586	-0,235	-0,181
145,400	165,819	-0,192	-0,190
146,414	-49,514	-0,286	-0,095
147,429	325,352	-0,206	-0,277
148,443	220,697	-0,244	-0,273
149,458	-74,218	-0,312	-0,078
150,473	89,144	-0,261	-0,203
151,487	78,749	-0,228	-0,170
152,502	46,383	-0,300	-0,194
153,516	-41,359	-0,378	-0,135
154,531	186,291	-0,215	-0,224
155,546	-153,952	-0,258	-0,012
156,560	-135,591	-0,244	-0,020
157,575	4,955	-0,258	-0,132
158,589	-20,807	-0,225	-0,096
159,604	40,267	-0,210	-0,132
160,619	-19,332	-0,355	-0,153
161,633	-33,033	-0,275	-0,106
162,648	24,971	-0,123	-0,071
163,662	28,008	-0,320	-0,188
164,677	218,514	-0,206	-0,230
165,692	30,571	-0,205	-0,122
166,706	238,376	-0,152	-0,177
167,721	19,604	-0,240	-0,134
168,735	126,187	-0,327	-0,289
169,750	40,461	-0,181	-0,114
170,764	117,592	-0,189	-0,162
171,779	163,234	-0,198	-0,194
172,794	-167,155	-0,207	-0,006
173,808	75,685	-0,288	-0,212
174,823	171,009	-0,253	-0,253
175,837	26,342	-0,278	-0,162
176,852	132,390	-0,195	-0,175
177,867	94,830	-0,178	-0,141
178,881	64,188	-0,111	-0,078
179,896	139,752	-0,192	0,176
180,910	-53,958	-0,281	-0,089
181,925	206,827	-0,231	-0,251
182,940	510,643	-0,138	-0,224
183,954	95,145	-0,298	-0,236
184,969	-98,884	-0,362	-0,064
185,983	94,618	-0,148	-0,117
186,998	-200,000	-0,039	-0,164
188,013	41,619	-0,222	-0,140
189,027	46,436	-0,198	-0,128
190,042	127,769	-0,195	-0,173
191,056	34,404	-0,212	-0,129
192,071	749,026	0,023	-0,044
193,086	28,394	-0,286	-0,168
194,100	-59,185	-0,129	-0,038
195,115	-108,734	-0,176	0,026
196,129	230,618	-0,124	-0,142
197,144	-183,555	-0,278	-0,003
198,159	119,781	-0,169	-0,146
199,173	755,268	-0,082	-0,156
200,188	134,996	-0,180	-0,162
201,202	112,158	-0,055	-0,046
202,217	455,358	-0,079	-0,122
203,232	511,589	-0,119	-0,194
204,246	101,765	-0,215	-0,175
205,261	290,600	-0,122	-0,154
206,275	19,662	-0,174	-0,097
207,290	464,410	-0,123	-0,192
208,304	708,014	-0,093	-0,171
209,319	-133,400	-0,202	-0,017
210,334	800,000	-0,086	-0,210
211,348	-42,279	-0,292	-0,103
212,363	134,896	-0,187	-0,169
213,377	800,000	-0,076	-0,208
214,392	178,555	-0,217	-0,221
215,407	62,783	-0,241	-0,167
216,421	-87,921	-0,221	-0,046
217,436	42,564	-0,326	-0,206
218,450	388,699	-0,202	-0,291
219,465	212,060	-0,251	-0,276
220,480	-64,694	-0,220	-0,061
221,494	73,737	-0,174	-0,126
222,509	287,451	-0,195	-0,245
223,523	390,282	-0,124	-0,179
224,538	61,207	-0,209	-0,144
225,553	111,861	-0,189	-0,158
226,567	61,450	-0,211	-0,145
227,582	158,480	-0,178	-0,172
228,596	-85,386	-0,142	-0,031
229,611	-96,847	-0,209	0,038
230,626	168,529	-0,160	-0,159
231,640	-58,033	-0,250	-0,075
232,655	48,181	-0,233	-0,151
233,669	48,418	-0,203	-0,132
234,684	-83,956	-0,174	-0,038
235,699	-47,671	-0,287	-0,096
236,713	98,064	-0,163	-0,130
237,728	-4,746	-0,151	-0,072
238,742	346,736	-0,148	-0,202
239,757	93,039	-0,175	-0,137
240,772	-2,276	-0,258	-0,125
241,786	115,524	-0,158	-0,134
242,801	107,471	-0,210	-0,173
243,815	159,766	-0,115	-0,111
244,830	281,260	-0,129	-0,161
245,844	172,530	-0,127	-0,127
246,859	113,538	-0,217	-0,183
247,874	447,956	-0,118	-0,180
248,888	199,983	-0,135	-0,144
249,903	800,000	-0,061	-0,179
250,917	800,000	-0,043	-0,089
251,932	510,805	-0,085	-0,138
252,947	64,198	-0,156	-0,109
253,961	145,955	-0,146	-0,136
254,976	3,639	-0,184	-0,093
255,990	-94,893	-0,183	-0,034
257,005	800,000	-0,058	-0,114
258,020	506,304	-0,184	-0,296
259,034	-151,320	-0,271	0,014
260,049	443,226	-0,056	-0,086
261,063	33,588	-0,249	-0,150
262,078	86,990	-0,174	-0,133
263,093	253,249	-0,187	-0,221
264,107	182,018	-0,154	-0,157
265,122	-200,000	0,000	-0,204
266,136	-200,000	-0,017	-0,096
267,151	696,733	-0,065	-0,119
268,166	800,000	-0,092	-0,261
269,180	8,590	-0,171	-0,089
270,195	26,591	-0,187	-0,108
271,209	-200,000	-0,035	-0,161
272,224	-76,497	-0,252	-0,061
273,239	-115,686	-0,111	-0,014
274,253	105,597	-0,168	-0,137
275,268	640,261	-0,115	-0,203
276,282	188,063	-0,175	-0,181
277,297	800,000	-0,099	-0,289
278,312	191,650	-0,124	-0,129
279,326	-52,135	-0,054	-0,017
280,341	89,845	-0,140	-0,108
281,355	800,000	-0,044	-0,098
282,370	-108,096	-0,082	0,012
283,384	9,488	-0,181	-0,094
284,399	-70,464	-0,171	-0,045
285,414	-200,000	-0,022	-0,143
286,428	171,370	-0,252	-0,250
287,443	272,268	-0,092	-0,113
288,457	124,802	-0,167	-0,145
289,472	-93,681	-0,143	-0,027
290,487	-17,328	-0,218	-0,094
291,501	-152,308	-0,224	-0,011
292,516	157,239	-0,109	-0,104
293,530	-93,614	-0,075	0,014
294,545	25,912	-0,150	-0,086
295,560	70,574	-0,098	-0,070
296,574	36,253	-0,162	-0,098
297,589	214,812	-0,081	-0,089
298,603	20,402	-0,142	-0,079
299,618	642,985	-0,142	-0,251
300,633	-117,571	-0,140	-0,017
301,647	-200,000	-0,055	-0,172
302,662	-141,726	-0,219	-0,015
303,676	-76,614	-0,127	-0,031
304,691	481,836	-0,070	-0,110
305,706	-81,491	-0,247	0,056
306,720	800,000	-0,086	-0,252
307,735	-149,178	-0,208	-0,011
308,749	-32,163	-0,136	-0,052
309,764	523,143	-0,078	0,127
310,779	-12,070	-0,193	-0,087
311,793	287,777	-0,162	-0,202
312,808	427,706	-0,144	-0,214
313,822	-23,908	-0,111	-0,046
314,837	464,408	-0,122	-0,188
315,852	217,739	-0,153	-0,169
316,866	-75,320	-0,112	0,027
317,881	44,126	-0,095	-0,060
318,895	436,302	-0,111	-0,167
319,910	223,734	-0,172	-0,192
320,925	-131,435	-0,276	-0,025
321,939	800,000	-0,031	-0,084
322,954	43,404	-0,062	0,039
323,968	-24,984	-0,139	-0,057
324,983	111,014	-0,092	-0,076
325,997	215,347	-0,189	-0,207
327,012	-92,366	-0,195	-0,037
328,027	42,782	-0,190	-0,119
329,041	800,000	-0,139	-0,265
330,056	800,000	-0,088	-0,239
331,070	-200,000	-0,022	-0,155
332,085	-200,000	-0,026	-0,097
333,100	90,399	-0,115	-0,089
334,114	143,505	-0,159	-0,146
335,129	-200,000	-0,030	-0,193
336,143	353,469	-0,103	-0,141
337,158	119,721	-0,131	-0,111
338,173	43,712	-0,108	-0,068
339,187	-87,227	-0,120	-0,025
340,202	247,556	-0,123	-0,143
341,216	140,596	-0,119	-0,108
342,231	555,469	-0,094	-0,157
343,246	48,665	-0,120	-0,077
344,260	800,000	-0,044	-0,129
345,275	375,258	-0,139	-0,195
346,289	13,707	-0,122	-0,065
347,304	53,735	-0,134	-0,088
348,319	-200,000	0,057	-0,187
349,333	5,059	-0,236	-0,119
350,348	152,118	-0,130	-0,122
351,362	360,060	-0,084	-0,116
352,377	26,636	-0,139	-0,080
353,392	75,777	-0,064	-0,046
354,406	137,001	-0,199	-0,179
355,421	207,669	1316,107	1412,011
356,435	159,756	1477,000	1412,490
