DTS Sentinel unit serial number:	SN410029Multiplexer serial number:	ORYXHardware model number:	OX2-SRSoftware version number:	ORYX F/W v4,00 Oryx Data Collector v3.7.2.0data status	okinstallation	B3 Nyhavnadifferential loss correction	single-endedforward channel	channel 1reverse channel	N/Adate	2023/12/05time	05:57:30forward acquisition time	300,00reverse acquisition time	0,00gamma	499,1914k internal	0,3201k external	0,3201temperature offset calibration	1,0000default loss term (dB/km)	0,3820temperature slope calibration	1,0000multiplexer offset coefficient	1,0000multiplexer slope coefficient	1,0000fibre end	0,00T internal ref (°C)	14,00T ext. ref 1 (°C)	-1,02T ext. ref 2 (°C)	-1,04length (m)	temperature (°C)	Stokes	anti-Stokes-744,400	217,384	-0,217	-0,252
-743,385	728,283	-0,133	0,260
-742,371	510,096	-0,096	-0,163
-741,356	-200,000	0,052	0,399
-740,342	223,864	-0,170	-0,200
-739,327	-200,000	-0,057	0,310
-738,312	376,954	-0,177	-0,264
-737,298	-200,000	0,086	0,319
-736,283	213,721	-0,200	-0,230
-735,269	800,000	0,107	0,260
-734,254	91,314	-0,288	-0,235
-733,239	-200,000	0,013	0,103
-732,225	480,049	-0,195	-0,323
-731,210	-32,006	0,102	0,041
-730,196	800,000	0,043	-0,126
-729,181	-76,750	0,055	0,014
-728,167	412,449	-0,074	-0,115
-727,152	-15,314	-0,128	0,059
-726,137	800,000	-0,023	0,070
-725,123	59,017	-0,042	0,030
-724,108	355,380	-0,015	-0,022
-723,094	-34,455	-0,110	-0,043
-722,079	-200,000	-0,006	-0,076
-721,064	-200,000	0,047	0,154
-720,050	-75,760	0,144	-0,037
-719,035	-65,579	-0,093	-0,027
-718,021	39,067	-0,042	0,027
-717,006	-105,421	-0,113	-0,018
-715,991	257,915	-0,104	-0,131
-714,977	800,000	0,026	0,077
-713,962	66,363	-0,089	0,065
-712,948	800,000	-0,021	-0,065
-711,933	30,866	-0,064	-0,040
-710,918	-121,415	-0,130	0,015
-709,904	595,597	0,085	-0,153
-708,889	-121,025	-0,051	0,006
-707,875	-30,615	-0,122	0,050
-706,860	-176,215	-0,061	0,001
-705,845	237,623	0,029	-0,035
-704,831	-89,501	0,143	0,030
-703,816	-200,000	-0,022	0,156
-702,802	800,000	0,015	0,048
-701,787	-200,000	-0,002	-0,106
-700,772	50,227	-0,102	0,070
-699,758	-200,000	0,024	-0,085
-698,743	383,383	0,051	0,076
-697,729	800,000	0,048	-0,099
-696,714	-53,232	0,050	0,017
-695,699	-58,014	-0,080	-0,025
-694,685	800,000	-0,088	-0,224
-693,670	800,000	-0,048	-0,119
-692,656	699,384	0,084	-0,160
-691,641	-69,272	0,030	-0,008
-690,627	-140,315	0,067	-0,005
-689,612	-165,127	0,107	-0,003
-688,597	-200,000	-0,003	0,088
-687,583	-200,000	0,004	-0,054
-686,568	644,041	0,041	-0,076
-685,554	-200,000	-0,002	-0,021
-684,539	-200,000	-0,039	0,126
-683,524	-88,554	0,035	0,008
-682,510	-101,236	-0,110	-0,019
-681,495	-55,589	0,028	-0,009
-680,481	-73,673	-0,104	-0,027
-679,466	-200,000	-0,011	0,045
-678,451	354,112	-0,085	-0,122
-677,437	-200,000	-0,007	0,035
-676,422	-12,732	0,141	0,066
-675,408	-174,285	-0,046	0,001
-674,393	-111,022	-0,123	0,018
-673,378	412,218	-0,051	-0,079
-672,364	-200,000	0,004	-0,032
-671,349	-105,406	-0,044	-0,007
-670,335	176,936	0,035	0,037
-669,320	-200,000	0,000	-0,004
-668,305	676,658	0,033	-0,062
-667,291	62,242	-0,110	-0,080
-666,276	-67,221	-0,042	0,012
-665,262	153,138	-0,105	-0,104
-664,247	-1,186	0,013	0,007
-663,232	-62,771	0,151	-0,045
-662,218	800,000	-0,016	-0,038
-661,203	-200,000	0,003	-0,091
-660,189	-94,519	0,044	-0,009
-659,174	-100,773	-0,086	0,015
-658,159	78,696	-0,073	-0,056
-657,145	-200,000	0,001	-0,098
-656,130	-200,000	0,029	0,107
-655,116	-78,774	0,151	-0,037
-654,101	-74,827	-0,097	-0,025
-653,086	800,000	-0,042	0,105
-652,072	266,055	0,053	0,067
-651,057	260,952	-0,082	-0,102
-650,043	105,894	-0,101	-0,086
-649,028	-57,850	0,045	0,014
-648,014	-90,593	0,081	0,017
-646,999	148,280	-0,011	-0,011
-645,984	-200,000	-0,012	-0,109
-644,970	800,000	-0,022	0,062
-643,955	9,866	0,118	-0,065
-642,941	-33,027	-0,084	-0,033
-641,926	73,329	-0,060	0,045
-640,911	800,000	0,041	0,103
-639,897	-200,000	0,013	-0,058
-638,882	-200,000	-0,010	0,037
-637,868	-200,000	0,000	0,026
-636,853	26,367	-0,086	0,052
-635,838	-200,000	0,001	0,086
-634,824	798,283	-0,024	-0,048
-633,809	-200,000	-0,000	0,059
-632,795	130,026	0,044	0,041
-631,780	132,914	0,053	0,050
-630,765	-142,052	-0,099	0,007
-629,751	78,550	-0,045	0,035
-628,736	128,048	-0,048	-0,044
-627,722	-119,677	-0,107	0,013
-626,707	-83,035	0,045	-0,010
-625,692	800,000	-0,029	0,068
-624,678	345,781	0,053	0,075
-623,663	83,945	0,015	0,012
-622,649	224,335	-0,090	-0,106
-621,634	34,143	-0,155	0,098
-620,619	383,138	0,065	-0,097
-619,605	-200,000	-0,001	-0,041
-618,590	403,912	0,022	0,033
-617,576	-200,000	-0,003	0,044
-616,561	-200,000	0,025	-0,103
-615,546	-7,827	0,170	-0,083
-614,532	-200,000	-0,032	-0,189
-613,517	-115,636	0,031	0,004
-612,503	-200,000	0,025	0,135
-611,488	-63,564	-0,019	-0,006
-610,474	10,384	-0,049	0,027
-609,459	-200,000	-0,031	0,111
-608,444	-187,820	-0,045	0,000
-607,430	800,000	-0,021	-0,053
-606,415	420,182	-0,034	-0,053
-605,401	489,016	-0,003	0,005
-604,386	370,311	0,025	-0,036
-603,371	139,694	-0,063	0,060
-602,357	99,594	-0,073	-0,061
-601,342	-69,461	-0,071	-0,019
-600,328	269,605	-0,049	-0,063
-599,313	-63,208	-0,058	-0,017
-598,298	94,311	-0,162	-0,133
-597,284	53,444	0,085	-0,059
-596,269	335,721	0,056	0,078
-595,255	-4,125	-0,108	-0,054
-594,240	-200,000	-0,007	-0,076
-593,225	-54,778	-0,149	0,048
-592,211	-200,000	0,016	-0,112
-591,196	346,697	0,043	-0,061
-590,182	382,819	-0,071	0,106
-589,167	-200,000	0,007	0,056
-588,152	261,827	0,017	-0,022
-587,138	-200,000	0,022	-0,106
-586,123	-200,000	-0,030	-0,196
-585,109	800,000	-0,029	-0,094
-584,094	-200,000	-0,032	-0,106
-583,079	-66,707	0,045	-0,013
-582,065	419,578	-0,023	-0,036
-581,050	-132,397	-0,106	0,010
-580,036	449,976	0,033	0,053
-579,021	-28,560	-0,118	0,049
-578,006	-200,000	0,018	-0,088
-576,992	-200,000	-0,003	0,042
-575,977	-200,000	-0,002	0,100
-574,963	317,868	0,103	0,142
-573,948	129,841	-0,102	0,094
-572,934	-117,673	-0,108	0,014
-571,919	-106,340	0,107	-0,017
-570,904	83,536	0,026	-0,021
-569,890	-97,740	0,181	-0,034
-568,875	-200,000	0,010	-0,063
-567,861	230,451	0,020	0,023
-566,846	595,733	0,039	0,069
-565,831	800,000	0,062	-0,141
-564,817	-156,159	0,011	-0,000
-563,802	-200,000	-0,008	-0,101
-562,788	800,000	-0,047	-0,145
-561,773	-200,000	0,006	-0,052
-560,758	-134,733	0,137	-0,012
-559,744	-200,000	-0,023	-0,132
-558,729	150,690	0,053	-0,052
-557,715	-12,615	-0,051	-0,024
-556,700	800,000	0,024	-0,069
-555,685	-62,543	-0,121	-0,036
-554,671	-200,000	0,006	-0,140
-553,656	-141,521	0,107	-0,008
-552,642	664,436	-0,029	0,055
-551,627	800,000	0,041	-0,122
-550,612	-200,000	0,011	-0,115
-549,598	800,000	-0,058	-0,130
-548,583	709,081	0,127	-0,243
-547,569	-26,313	-0,038	-0,016
-546,554	-200,000	0,010	0,036
-545,539	201,594	-0,088	0,098
-544,525	312,414	0,011	-0,016
-543,510	449,435	0,124	-0,198
-542,496	28,192	-0,101	-0,061
-541,481	-122,932	-0,211	-0,024
-540,466	426,729	0,060	-0,093
-539,452	734,944	-0,039	0,075
-538,437	-74,146	0,100	0,026
-537,423	220,760	-0,071	0,082
-536,408	-200,000	0,005	-0,027
-535,393	-155,074	-0,165	0,008
-534,379	18,863	0,036	0,021
-533,364	311,189	0,070	-0,095
-532,350	-200,000	-0,003	0,014
-531,335	125,534	0,119	-0,108
-530,321	800,000	0,038	0,113
-529,306	66,518	0,056	0,041
-528,291	-38,230	0,117	-0,044
-527,277	212,291	-0,028	-0,032
-526,262	311,677	0,014	-0,019
-525,248	449,184	-0,067	0,107
-524,233	-200,000	-0,000	0,099
-523,218	16,595	-0,123	0,070
-522,204	800,000	-0,017	-0,042
-521,189	21,110	-0,098	0,057
-520,175	-36,949	-0,005	0,002
-519,160	14,990	-0,090	0,051
-518,145	-200,000	-0,002	-0,040
-517,131	800,000	-0,012	-0,024
-516,116	-109,835	0,060	0,009
-515,102	370,975	-0,026	0,039
-514,087	-69,276	0,139	-0,038
-513,072	18,928	0,033	0,019
-512,058	162,118	0,071	-0,072
-511,043	-34,948	-0,067	-0,026
-510,029	78,592	-0,092	0,070
-509,014	635,049	0,073	0,134
-507,999	80,504	0,005	-0,004
-506,985	404,123	-0,035	0,053
-505,970	-200,000	-0,045	0,155
-504,956	-3,105	-0,056	-0,028
-503,941	-200,000	-0,023	-0,091
-502,926	287,590	-0,042	0,055
-501,912	-200,000	0,020	0,157
-500,897	798,692	0,047	0,094
-499,883	384,502	0,045	0,067
-498,868	-200,000	-0,022	-0,096
-497,853	-53,418	0,053	-0,017
-496,839	50,651	-0,097	0,066
-495,824	108,749	0,011	-0,009
-494,810	-200,000	0,027	0,173
-493,795	30,141	-0,073	0,045
-492,781	800,000	-0,026	0,054
-491,766	102,387	-0,096	-0,081
-490,751	-23,300	-0,031	-0,013
-489,737	-200,000	-0,005	0,054
-488,722	800,000	0,033	0,101
-487,708	64,046	0,082	-0,060
-486,693	-12,731	-0,056	0,026
-485,678	-56,443	-0,085	0,027
-484,664	519,142	-0,038	0,064
-483,649	800,000	0,070	-0,140
-482,635	125,722	-0,063	0,057
-481,620	-33,628	0,050	0,020
-480,605	800,000	0,030	0,083
-479,591	300,443	0,016	-0,021
-478,576	525,802	0,056	-0,095
-477,562	-200,000	-0,002	0,095
-476,547	800,000	0,026	-0,059
-475,532	318,173	-0,089	-0,122
-474,518	395,410	0,051	0,077
-473,503	-53,126	0,054	0,018
-472,489	430,202	0,070	0,110
-471,474	-50,935	-0,079	-0,026
-470,459	63,193	-0,080	0,058
-469,445	800,000	-0,062	0,166
-468,430	-193,242	0,108	-0,001
-467,416	-44,851	0,049	-0,018
-466,401	-200,000	0,006	0,101
-465,386	337,452	0,100	0,141
-464,372	511,918	-0,035	0,059
-463,357	800,000	-0,056	-0,122
-462,343	357,744	-0,111	-0,159
-461,328	649,477	0,023	-0,043
-460,313	-200,000	0,017	0,152
-459,299	-29,921	0,174	0,071
-458,284	658,174	-0,057	0,106
-457,270	-97,889	-0,062	0,011
-456,255	716,352	-0,077	0,147
-455,241	-200,000	0,011	0,056
-454,226	-126,588	-0,062	-0,006
-453,211	-97,946	0,045	-0,008
-452,197	286,837	0,092	-0,119
-451,182	2,240	0,070	0,036
-450,168	461,896	-0,051	-0,083
-449,153	82,106	0,024	-0,019
-448,138	-28,287	0,170	-0,070
-447,124	68,599	-0,044	-0,032
-446,109	783,250	0,048	0,096
-445,095	-6,952	0,102	-0,050
-444,080	682,658	-0,020	-0,037
-443,065	114,551	-0,070	-0,062
-442,051	-101,948	-0,099	0,017
-441,036	-200,000	-0,017	-0,113
-440,022	-200,000	0,018	-0,071
-439,007	800,000	0,007	-0,023
-437,992	21,248	0,084	-0,049
-436,978	-50,148	0,116	0,039
-435,963	10,671	0,130	-0,071
-434,949	800,000	-0,019	0,042
-433,934	-200,000	0,016	-0,071
-432,919	160,501	-0,061	-0,062
-431,905	0,980	0,099	-0,051
-430,890	20,570	-0,111	0,064
-429,876	-200,000	0,022	0,137
-428,861	-200,000	-0,006	0,110
-427,846	800,000	-0,003	0,008
-426,832	-200,000	-0,005	0,047
-425,817	22,368	-0,051	0,030
-424,803	-132,210	0,176	0,016
-423,788	164,086	0,048	-0,048
-422,773	800,000	0,045	0,098
-421,759	-98,981	0,040	-0,007
-420,744	109,587	0,125	-0,108
-419,730	-30,808	-0,042	-0,017
-418,715	69,403	0,058	-0,043
-417,701	-200,000	-0,007	-0,055
-416,686	171,195	-0,115	0,118
-415,671	70,693	0,092	-0,069
-414,657	-200,000	-0,027	0,099
-413,642	-33,170	0,087	0,035
-412,628	52,700	-0,095	-0,065
-411,613	800,000	-0,043	-0,117
-410,598	-200,000	0,014	0,096
-409,584	-200,000	-0,016	0,178
-408,569	-155,307	-0,027	-0,001
-407,555	-87,721	0,068	-0,015
-406,540	800,000	-0,025	0,075
-405,525	266,158	0,041	0,052
-404,511	64,455	0,092	0,067
-403,496	-120,965	0,108	0,013
-402,482	301,984	-0,045	-0,060
-401,467	-200,000	-0,008	0,109
-400,452	109,578	0,028	0,024
-399,438	800,000	0,034	-0,082
-398,423	123,706	0,051	-0,046
-397,409	-85,823	-0,109	0,024
-396,394	-81,839	-0,054	0,013
-395,379	-200,000	0,022	0,108
-394,365	501,485	0,032	-0,054
-393,350	-73,181	0,108	-0,028
-392,336	247,555	0,129	0,157
-391,321	119,839	-0,019	0,017
-390,306	-200,000	-0,034	-0,120
-389,292	728,341	-0,026	-0,051
-388,277	-1,148	0,177	0,089
-387,263	197,777	-0,108	0,119
-386,248	51,571	0,048	0,032
-385,233	-200,000	0,012	0,055
-384,219	-200,000	-0,018	0,089
-383,204	-44,337	-0,030	0,011
-382,190	68,147	0,113	0,083
-381,175	-200,000	0,025	0,095
-380,160	80,895	-0,058	0,045
-379,146	-111,613	0,168	-0,024
-378,131	-3,917	0,031	0,015
-377,117	7,325	0,037	0,020
-376,102	108,732	0,039	-0,033
-375,088	-200,000	-0,002	0,028
-374,073	172,050	-0,058	-0,060
-373,058	307,150	0,106	0,143
-372,044	-200,000	0,045	-0,161
-371,029	-146,586	0,104	0,006
-370,015	137,436	-0,075	0,071
-369,000	309,312	-0,063	-0,085
-367,985	-160,077	-0,109	-0,004
-366,971	-142,300	0,019	-0,001
-365,956	1,533	0,114	0,058
-364,942	315,883	0,073	0,100
-363,927	800,000	0,054	0,119
-362,912	264,081	-0,018	0,022
-361,898	-105,965	0,069	0,011
-360,883	744,403	-0,020	0,039
-359,869	-200,000	-0,012	0,047
-358,854	33,238	0,135	-0,084
-357,839	800,000	-0,058	0,133
-356,825	-200,000	0,001	0,153
-355,810	91,051	0,066	0,053
-354,796	-2,602	-0,151	0,075
-353,781	-36,545	-0,030	0,011
-352,766	33,856	0,102	-0,064
-351,752	-200,000	0,001	0,081
-350,737	267,659	0,008	0,011
-349,723	3,067	-0,078	0,040
-348,708	185,271	0,057	0,061
-347,693	-200,000	-0,022	0,076
-346,679	85,698	-0,054	-0,043
-345,664	-2,013	-0,187	-0,094
-344,650	-200,000	0,001	-0,038
-343,635	40,243	0,032	0,021
-342,620	-21,764	0,091	0,039
-341,606	-200,000	-0,020	0,189
-340,591	-200,000	0,050	-0,000
-339,577	-200,000	0,001	0,035
-338,562	-149,834	0,234	0,013
-337,548	301,125	0,097	-0,128
-336,533	451,142	0,065	-0,102
-335,518	800,000	-0,022	0,045
-334,504	800,000	0,048	0,102
-333,489	497,766	-0,021	0,035
-332,475	318,522	0,068	-0,093
-331,460	509,811	0,067	-0,111
-330,445	14,820	0,068	0,038
-329,431	-28,194	-0,023	-0,009
-328,416	-75,348	-0,082	0,021
-327,402	16,966	-0,043	-0,024
-326,387	85,770	0,103	-0,081
-325,372	243,251	-0,082	-0,099
-324,358	-110,172	0,039	0,006
-323,343	-200,000	-0,021	-0,089
-322,329	431,634	-0,060	0,093
-321,314	54,225	0,096	0,066
-320,299	-200,000	-0,019	0,089
-319,285	593,957	-0,040	-0,072
-318,270	17,740	-0,139	-0,079
-317,256	800,000	-0,054	-0,137
-316,241	594,579	0,086	-0,152
-315,226	800,000	-0,025	0,073
-314,212	-200,000	-0,033	0,176
-313,197	-200,000	0,001	-0,057
-312,183	800,000	-0,075	-0,176
-311,168	-200,000	0,022	-0,088
-310,153	-200,000	0,005	-0,044
-309,139	-106,740	-0,014	-0,002
-308,124	351,247	0,016	0,023
-307,110	197,636	0,086	0,094
-306,095	-200,000	-0,012	0,056
-305,080	-62,517	-0,072	-0,021
-304,066	316,007	-0,093	0,125
-303,051	-200,000	0,009	-0,135
-302,037	-101,170	-0,123	-0,021
-301,022	-200,000	-0,021	-0,080
-300,008	17,812	-0,033	-0,019
-298,993	-72,032	0,178	-0,047
-297,978	116,687	0,034	0,030
-296,964	41,671	-0,067	-0,043
-295,949	-200,000	-0,031	-0,101
-294,935	800,000	-0,018	0,041
-293,920	103,418	0,096	-0,081
-292,905	57,691	-0,054	-0,037
-291,891	-40,655	-0,073	-0,027
-290,876	53,922	-0,054	-0,037
-289,862	-121,024	-0,102	-0,012
-288,847	-54,061	0,070	-0,023
-287,832	360,450	-0,027	-0,039
-286,818	170,054	-0,085	-0,087
-285,803	-200,000	0,008	-0,117
-284,789	563,480	-0,044	0,076
-283,774	259,005	0,066	0,081
-282,759	-20,361	-0,060	-0,026
-281,745	-147,472	0,091	0,005
-280,730	328,491	0,060	0,083
-279,716	35,708	0,049	-0,031
-278,701	-200,000	-0,010	-0,042
-277,686	-44,461	0,135	-0,048
-276,672	-200,000	-0,013	0,216
-275,657	-93,486	0,067	-0,013
-274,643	800,000	0,028	-0,066
-273,628	800,000	-0,010	-0,030
-272,613	43,533	-0,062	0,041
-271,599	290,043	-0,149	0,194
-270,584	-200,000	-0,005	-0,026
-269,570	800,000	-0,038	0,096
-268,555	10,407	-0,140	0,076
-267,540	-41,411	0,046	-0,017
-266,526	288,283	0,049	-0,064
-265,511	-85,623	-0,170	-0,037
-264,497	39,931	0,026	-0,016
-263,482	21,529	0,029	-0,017
-262,467	124,127	0,115	0,103
-261,453	341,564	-0,049	0,068
-260,438	12,879	-0,110	-0,061
-259,424	-38,451	-0,056	0,021
-258,409	800,000	0,043	0,099
-257,395	-75,102	-0,080	0,020
-256,380	-193,323	-0,115	0,001
-255,365	504,728	0,012	0,020
-254,351	-149,339	-0,090	-0,005
-253,336	601,039	0,032	-0,057
-252,322	-200,000	-0,027	0,085
-251,307	-200,000	0,023	-0,091
-250,292	-132,879	0,052	-0,005
-249,278	800,000	0,008	0,022
-248,263	-200,000	-0,024	0,109
-247,249	176,456	0,139	-0,144
-246,234	800,000	-0,063	0,145
-245,219	-157,623	-0,162	0,007
-244,205	29,406	0,100	-0,061
-243,190	800,000	0,060	-0,121
-242,176	-200,000	-0,006	0,127
-241,161	19,893	-0,020	0,012
-240,146	342,896	0,048	0,068
-239,132	-81,566	0,050	0,012
-238,117	800,000	-0,049	-0,117
-237,103	28,589	-0,129	-0,078
-236,088	97,707	-0,129	-0,105
-235,073	-80,673	-0,081	0,019
-234,059	130,230	0,112	-0,102
-233,044	-200,000	0,009	-0,041
-232,030	40,671	-0,033	0,021
-231,015	-126,617	-0,088	-0,009
-230,000	87,627	-0,208	-0,164
-228,986	-6,569	0,091	-0,044
-227,971	-96,857	-0,040	-0,007
-226,957	-200,000	0,011	0,102
-225,942	-200,000	0,004	0,031
-224,927	-200,000	0,001	-0,083
-223,913	800,000	0,033	-0,067
-222,898	12,629	-0,142	-0,078
-221,884	22,715	-0,069	-0,040
-220,869	-83,703	0,022	-0,005
-219,855	-200,000	-0,017	-0,065
-218,840	109,333	0,062	-0,053
-217,825	254,843	0,053	0,065
-216,811	164,044	-0,021	-0,021
-215,796	-26,397	-0,009	-0,004
-214,782	6,455	0,138	-0,073
-213,767	53,389	-0,060	-0,041
-212,752	545,985	0,076	0,130
-211,738	18,814	0,134	0,076
-210,723	571,357	0,012	-0,021
-209,709	800,000	-0,050	-0,139
-208,694	40,239	-0,103	-0,066
-207,679	-102,636	-0,115	-0,019
-206,665	283,545	0,036	0,047
-205,650	-5,674	0,173	0,084
-204,636	-60,822	-0,079	-0,024
-203,621	223,306	0,091	0,105
-202,606	407,421	0,035	-0,053
-201,592	-148,767	-0,033	-0,002
-200,577	800,000	-0,009	-0,025
-199,563	800,000	-0,058	0,138
-198,548	203,013	0,012	0,013
-197,533	-7,243	0,145	-0,070
-196,519	-55,541	0,097	-0,031
-195,504	696,845	-0,055	-0,103
-194,490	-200,000	0,011	-0,073
-193,475	308,592	-0,121	-0,161
-192,460	-200,000	0,014	0,096
-191,446	118,845	0,087	0,076
-190,431	-200,000	-0,015	0,109
-189,417	-135,619	0,087	0,007
-188,402	7,310	-0,114	0,060
-187,387	213,519	-0,093	-0,105
-186,373	351,483	0,023	0,032
-185,358	-200,000	0,001	-0,155
-184,344	-33,561	-0,126	-0,049
-183,329	472,623	0,065	0,105
-182,315	-200,000	-0,013	0,107
-181,300	57,462	-0,118	-0,082
-180,285	200,414	-0,105	-0,115
-179,271	-110,710	-0,164	0,024
-178,256	17,801	0,141	0,079
-177,242	-200,000	0,028	0,123
-176,227	-200,000	0,034	0,129
-175,212	-131,438	0,030	-0,003
-174,198	-200,000	0,011	0,077
-173,183	800,000	-0,026	0,075
-172,169	800,000	-0,032	-0,090
-171,154	-200,000	-0,001	-0,032
-170,139	478,840	0,024	0,039
-169,125	-39,597	0,110	0,041
-168,110	-42,333	0,080	0,029
-167,096	50,530	-0,039	-0,027
-166,081	346,708	0,078	0,110
-165,066	-200,000	-0,003	-0,064
-164,052	-200,000	0,017	-0,234
-163,037	134,699	0,063	-0,058
-162,023	-24,871	0,021	0,009
-161,008	-200,000	-0,024	-0,078
-159,993	2,174	0,049	0,025
-158,979	-158,017	0,049	0,002
-157,964	-200,000	0,016	-0,078
-156,950	-35,850	-0,133	0,051
-155,935	-105,849	-0,079	0,013
-154,920	-58,508	-0,067	-0,021
-153,906	800,000	0,050	0,129
-152,891	619,906	-0,026	-0,046
-151,877	-200,000	-0,008	-0,122
-150,862	800,000	0,043	0,096
-149,847	-200,000	0,003	0,061
-148,833	121,332	-0,117	0,103
-147,818	800,000	0,045	0,127
-146,804	198,223	0,065	0,071
-145,789	253,424	-0,043	0,052
-144,775	-53,559	0,045	-0,014
-143,760	599,304	-0,042	-0,074
-142,745	-200,000	-0,044	0,000
-141,731	43,105	0,145	-0,094
-140,716	-200,000	0,002	0,093
-139,702	-125,410	0,080	-0,009
-138,687	249,177	-0,028	0,033
-137,672	-134,418	0,191	0,016
-136,658	530,383	-0,051	-0,085
-135,643	800,000	0,004	-0,012
-134,629	164,821	-0,030	0,030
-133,614	-68,591	-0,143	0,039
-132,599	-50,736	0,106	0,035
-131,585	-200,000	-0,020	-0,178
-130,570	800,000	0,052	-0,111
-129,556	57,794	-0,052	0,036
-128,541	-39,144	-0,056	0,021
-127,526	-80,323	0,053	0,012
-126,512	-200,000	-0,005	-0,042
-125,497	166,996	-0,058	0,058
-124,483	29,109	0,052	-0,031
-123,468	-200,000	0,004	-0,020
-122,453	193,638	-0,057	-0,061
-121,439	800,000	-0,100	-0,204
-120,424	245,693	-0,075	-0,090
-119,410	139,584	0,066	0,062
-118,395	-86,008	-0,086	-0,019
-117,380	-14,049	0,052	-0,024
-116,366	108,397	0,032	0,027
-115,351	-200,000	0,019	-0,162
-114,337	125,020	-0,046	-0,041
-113,322	462,471	-0,049	0,077
-112,307	40,764	0,165	-0,106
-111,293	28,679	0,123	0,074
-110,278	-200,000	0,016	0,107
-109,264	220,824	0,078	-0,089
-108,249	-200,000	0,014	-0,054
-107,234	800,000	-0,035	0,080
-106,220	800,000	0,021	-0,053
-105,205	359,545	-0,084	0,119
-104,191	178,891	0,136	0,142
-103,176	8,452	-0,151	0,080
-102,162	371,242	-0,078	0,112
-101,147	-200,000	-0,010	-0,056
-100,132	63,574	-0,071	0,050
-99,118	9,868	0,029	-0,016
-98,103	513,453	0,078	0,130
-97,089	-94,620	0,074	0,014
-96,074	-34,252	0,112	0,044
-95,059	-118,615	0,183	0,023
-94,045	561,075	-0,030	0,052
-93,030	-56,538	0,048	-0,015
-92,016	800,000	-0,014	-0,038
-91,001	72,538	0,092	0,068
-89,986	326,044	-0,050	0,068
-88,972	199,859	0,040	0,044
-87,957	-134,142	-0,046	0,004
-86,943	-81,038	0,058	-0,014
-85,928	-200,000	-0,005	-0,016
-84,913	57,799	-0,103	-0,071
-83,899	800,000	0,030	-0,075
-82,884	-144,451	-0,088	0,006
-81,870	61,137	0,162	-0,114
-80,855	335,323	0,059	0,082
-79,840	-33,831	0,115	0,045
-78,826	-200,000	-0,007	0,078
-77,811	-36,836	-0,071	0,027
-76,797	-99,732	-0,193	-0,034
-75,782	-200,000	-0,009	-0,070
-74,767	239,683	0,096	0,114
-73,753	-87,745	0,071	0,015
-72,738	-200,000	0,004	0,075
-71,724	-200,000	0,006	0,156
-70,709	49,894	-0,086	-0,057
-69,694	-34,109	-0,043	0,017
-68,680	456,209	0,087	-0,137
-67,665	-200,000	-0,007	0,044
-66,651	77,993	-0,042	0,031
-65,636	-82,888	0,074	0,017
-64,622	-200,000	-0,017	-0,128
-63,607	-151,341	-0,107	-0,006
-62,592	-200,000	0,003	-0,032
-61,578	-200,000	0,011	0,063
-60,563	-167,199	0,080	0,002
-59,549	363,233	-0,125	0,179
-58,534	-11,205	-1,544	-0,718
-57,519	476,832	-1,267	-2,036
-56,505	-200,000	-0,612	-4,567
-55,490	119,169	1,069	0,936
-54,476	800,000	4,961	11,522
-53,461	-200,000	18,948	308,843
-52,446	-200,000	737,895	2307,873
-51,432	571,844	1654,238	2863,842
-50,417	79,182	1670,793	1266,206
-49,403	22,056	1543,526	889,212
-48,388	15,887	1466,451	814,834
-47,373	17,766	1456,524	818,364
-46,359	16,821	1446,643	808,248
-45,344	14,100	1442,199	792,697
-44,330	14,018	1440,238	791,196
-43,315	14,078	1438,318	790,397
-42,300	14,069	1436,682	789,423
-41,286	14,110	1435,655	789,026
-40,271	14,071	1434,235	788,029
-39,257	14,049	1432,901	787,158
-38,242	14,097	1431,568	786,622
-37,227	14,074	1430,630	785,967
-36,213	14,106	1429,190	785,295
-35,198	14,126	1427,860	784,630
-34,184	14,150	1427,023	784,254
-33,169	14,106	1425,706	783,291
-32,154	14,140	1424,660	782,845
-31,140	14,102	1423,377	781,928
-30,125	14,096	1422,478	781,375
-29,111	14,125	1421,114	780,731
-28,096	14,100	1420,044	779,993
-27,082	14,053	1418,962	779,150
-26,067	14,020	1417,877	778,367
-25,052	14,015	1416,872	777,759
-24,038	13,998	1415,944	777,140
-23,023	14,005	1414,880	776,559
-22,009	14,017	1414,040	776,121
-20,994	14,006	1413,077	775,509
-19,979	14,021	1412,095	775,009
-18,965	14,000	1411,117	774,344
-17,950	13,961	1410,178	773,616
-16,936	13,945	1409,193	772,969
-15,921	13,888	1408,212	772,135
-14,906	13,909	1407,267	771,683
-13,892	13,959	1406,204	771,305
-12,877	13,922	1405,668	770,806
-11,863	13,913	1404,659	770,181
-10,848	13,941	1403,568	769,684
-9,833	13,887	1402,924	769,050
-8,819	13,840	1402,022	768,304
-7,804	13,836	1401,054	767,723
-6,790	13,881	1399,854	767,247
-5,775	13,864	1398,784	766,549
-4,760	13,879	1397,835	766,069
-3,746	13,853	1397,017	765,470
-2,731	13,815	1396,514	764,987
-1,717	13,799	1395,693	764,432
-0,702	13,832	1393,588	763,405
0,313	17,686	1311,370	736,227
1,327	34,121	705,804	434,312
2,342	52,330	124,125	83,640
3,356	3,528	16,598	8,532
4,371	-7,416	3,271	1,561
5,386	62,323	0,553	0,390
6,400	-200,000	-0,083	0,287
7,415	-43,511	-0,180	-0,064
8,429	103,592	-0,246	-0,204
9,444	277,670	-0,236	-0,297
10,459	-43,677	-0,354	-0,126
11,473	303,758	-0,212	-0,278
12,488	151,198	-0,374	-0,360
13,502	2,964	-0,310	-0,159
14,517	167,452	-0,343	-0,345
15,531	11,816	-0,326	-0,176
16,546	1,875	-0,281	-0,143
17,561	106,624	-0,328	-0,274
18,575	192,373	-0,158	-0,168
19,590	381,920	-0,228	-0,332
20,604	-18,496	-0,314	-0,138
21,619	89,094	-0,421	-0,331
22,634	161,738	-0,446	-0,441
23,648	97,157	-0,385	-0,312
24,663	39,287	-0,460	-0,290
25,677	200,039	-0,276	-0,300
26,692	100,363	-0,312	-0,256
27,707	194,348	-0,370	-0,396
28,721	203,858	-0,411	-0,450
29,736	206,197	-0,249	-0,274
30,750	45,058	-0,436	-0,283
31,765	146,708	-0,343	-0,325
32,780	-3,374	-0,303	-0,148
33,794	-0,644	-0,353	-0,176
34,809	240,057	-0,268	-0,316
35,823	78,755	-0,379	-0,286
36,838	17,205	-0,430	-0,240
37,853	4,852	-0,528	-0,273
38,867	315,579	-0,255	-0,340
39,882	164,540	-0,302	-0,300
40,896	5,762	-0,347	-0,180
41,911	126,588	-0,230	-0,205
42,926	11,001	-0,502	-0,269
43,940	96,636	-0,302	-0,244
44,955	113,675	-0,388	-0,333
45,969	112,544	-0,274	-0,234
46,984	64,081	-0,338	-0,240
47,999	140,679	-0,269	-0,250
49,013	41,609	-0,352	-0,224
50,028	111,079	-0,302	-0,257
51,042	135,420	-0,288	-0,264
52,057	81,946	-0,226	-0,172
53,071	-140,075	-0,286	-0,021
54,086	44,438	-0,314	-0,203
55,101	186,486	-0,259	-0,272
56,115	-18,879	-0,336	-0,147
57,130	-11,280	-0,493	-0,228
58,144	76,938	-0,390	-0,292
59,159	7,329	-0,420	-0,220
60,174	36,148	-0,464	-0,287
61,188	63,246	-0,364	-0,257
62,203	-5,659	-0,336	-0,161
63,217	2,509	-0,338	-0,171
64,232	-74,358	-0,230	-0,058
65,247	-38,159	-0,426	-0,158
66,261	56,967	-0,403	-0,276
67,276	270,409	-0,294	-0,365
68,290	97,434	-0,344	-0,278
69,305	44,149	-0,382	-0,246
70,320	-84,195	-0,257	-0,057
71,334	800,000	-0,095	-0,272
72,349	26,669	-0,431	-0,253
73,363	-21,208	-0,390	-0,167
74,378	-38,641	-0,450	-0,166
75,393	45,483	-0,312	-0,202
76,407	-1,099	-0,204	-0,101
77,422	27,838	-0,252	-0,149
78,436	65,243	-0,305	-0,217
79,451	243,819	-0,290	-0,342
80,466	65,983	-0,376	-0,267
81,480	381,528	-0,276	-0,399
82,495	-111,473	-0,397	-0,056
83,509	226,785	-0,283	-0,323
84,524	4,889	-0,368	-0,189
85,539	28,138	-0,254	-0,150
86,553	-46,576	-0,326	-0,112
87,568	11,066	-0,390	-0,209
88,582	-60,803	-0,347	-0,102
89,597	110,478	-0,291	-0,246
90,611	344,912	-0,176	-0,243
91,626	53,693	-0,329	-0,221
92,641	-10,398	-0,343	-0,159
93,655	-70,729	-0,295	-0,078
94,670	54,403	-0,344	-0,232
95,684	274,515	-0,263	-0,328
96,699	42,014	-0,212	-0,135
97,714	-14,286	-0,276	-0,124
98,728	-7,842	-0,165	-0,078
99,743	-22,284	-0,210	-0,089
100,757	-17,699	-0,233	-0,102
101,772	33,461	-0,363	-0,221
102,787	58,511	-0,254	-0,174
103,801	-142,311	-0,279	-0,019
104,816	-26,961	-0,295	-0,120
105,830	32,421	-0,306	-0,185
106,845	30,191	-0,250	-0,149
107,860	-36,861	-0,311	-0,117
108,874	31,383	-0,403	-0,242
109,889	97,220	-0,223	-0,179
110,903	10,585	-0,319	-0,170
111,918	471,483	-0,227	-0,359
112,933	-98,589	-0,288	-0,051
113,947	154,582	-0,249	-0,240
114,962	159,538	-0,242	-0,236
115,976	21,048	-0,277	-0,157
116,991	38,789	-0,270	-0,169
118,006	-9,538	-0,430	-0,200
119,020	-43,975	-0,343	-0,120
120,035	-87,880	-0,164	-0,034
121,049	-17,168	-0,164	-0,072
122,064	29,641	-0,272	-0,162
123,079	144,890	-0,400	-0,375
124,093	58,510	-0,381	-0,261
125,108	145,292	-0,201	-0,189
126,122	-30,495	-0,262	-0,104
127,137	137,868	-0,186	-0,171
128,151	-34,905	-0,299	-0,114
129,166	66,524	-0,264	-0,187
130,181	76,291	-0,215	-0,159
131,195	71,250	-0,283	-0,205
132,210	117,520	-0,244	-0,210
133,224	15,520	-0,218	-0,119
134,239	27,468	-0,233	-0,137
135,254	37,977	-0,308	-0,191
136,268	-58,552	-0,189	-0,057
137,283	-33,777	-0,360	-0,138
138,297	226,741	-0,238	-0,270
139,312	36,407	-0,207	-0,127
140,327	293,129	-0,175	-0,224
141,341	267,699	-0,178	-0,219
142,356	176,893	-0,197	-0,200
143,370	47,147	-0,171	-0,111
144,385	-139,780	-0,288	0,021
145,400	63,744	-0,352	-0,247
146,414	-22,105	-0,309	-0,131
147,429	82,829	-0,221	-0,168
148,443	568,995	-0,081	-0,138
149,458	1,296	-0,269	-0,134
150,473	39,328	-0,189	-0,118
151,487	67,989	-0,159	-0,114
152,502	78,073	-0,266	-0,198
153,516	6,909	-0,382	-0,198
154,531	-31,599	-0,383	-0,149
155,546	-70,454	-0,121	-0,032
156,560	-6,325	-0,229	-0,109
157,575	-75,635	-0,273	-0,067
158,589	86,687	-0,169	-0,130
159,604	-25,066	-0,357	-0,147
160,619	296,884	-0,273	-0,350
161,633	55,833	-0,270	-0,182
162,648	478,073	-0,129	-0,204
163,662	-191,247	-0,242	-0,002
164,677	800,000	-0,102	-0,250
165,692	-57,957	-0,320	-0,097
166,706	183,564	-0,215	-0,222
167,721	-85,849	-0,151	-0,032
168,735	25,916	-0,273	-0,158
169,750	158,696	-0,238	-0,231
170,764	80,293	-0,240	-0,180
171,779	-25,818	-0,273	-0,112
172,794	-1,029	-0,174	-0,086
173,808	267,577	-0,156	-0,191
174,823	800,000	-0,120	-0,345
175,837	54,350	-0,237	-0,159
176,852	38,309	-0,334	-0,207
177,867	101,870	-0,240	-0,195
178,881	288,795	-0,152	-0,192
179,896	800,000	-0,076	-0,173
180,910	148,490	-0,151	-0,142
181,925	-59,770	-0,331	-0,098
182,940	-109,400	-0,246	-0,036
183,954	222,525	-0,112	-0,126
184,969	40,948	-0,223	-0,140
185,983	748,937	-0,130	-0,246
186,998	-25,478	-0,235	-0,096
188,013	107,393	-0,173	-0,143
189,027	131,222	-0,167	-0,149
190,042	46,990	-0,228	-0,148
191,056	37,041	-0,203	-0,125
192,071	90,104	-0,269	-0,209
193,086	434,871	-0,109	-0,166
194,100	221,436	-0,208	-0,233
195,115	55,726	-0,210	-0,141
196,129	616,730	-0,104	-0,183
197,144	332,221	-0,153	-0,206
198,159	800,000	-0,116	-0,243
199,173	149,101	-0,227	-0,213
200,188	570,537	-0,108	-0,183
201,202	-46,529	-0,166	-0,056
202,217	-9,719	-0,193	-0,089
203,232	0,991	-0,325	-0,162
204,246	4,083	-0,247	-0,125
205,261	31,580	-0,139	-0,083
206,275	4,823	-0,283	-0,144
207,290	258,782	-0,122	-0,147
208,304	204,075	-0,081	-0,087
209,319	131,034	-0,259	-0,231
210,334	-93,161	-0,284	-0,054
211,348	63,587	-0,191	-0,133
212,363	35,679	-0,278	-0,169
213,377	105,192	-0,196	-0,160
214,392	-62,706	-0,172	-0,049
215,407	-32,551	-0,182	-0,070
216,421	-149,321	-0,158	0,009
217,436	-15,116	-0,171	-0,076
218,450	-103,953	-0,221	-0,035
219,465	18,699	-0,096	-0,053
220,480	269,812	-0,171	-0,208
221,494	800,000	-0,110	-0,221
222,509	188,419	-0,155	-0,161
223,523	264,090	-0,094	-0,114
224,538	184,855	-0,145	-0,149
225,553	111,095	-0,103	-0,086
226,567	239,956	-0,109	-0,127
227,582	223,597	-0,111	-0,125
228,596	-57,790	-0,068	-0,021
229,611	13,687	-0,229	-0,123
230,626	786,829	-0,141	-0,269
231,640	367,248	-0,189	-0,265
232,655	-44,204	-0,318	-0,110
233,669	-16,294	-0,187	-0,082
234,684	450,941	-0,119	-0,184
235,699	286,101	-0,175	-0,220
236,713	156,378	0,054	-0,052
237,728	43,982	-0,202	-0,128
238,742	321,118	-0,096	-0,127
239,757	38,214	-0,277	-0,171
240,772	-173,767	-0,190	0,004
241,786	26,768	-0,220	-0,127
242,801	302,889	-0,048	-0,061
243,815	528,522	-0,107	-0,176
244,830	144,111	-0,239	-0,221
245,844	-3,817	-0,148	-0,071
246,859	19,555	-0,380	-0,211
247,874	9,243	-0,204	-0,107
248,888	176,304	-0,129	-0,130
249,903	-78,588	-0,185	-0,043
250,917	-147,372	-0,124	-0,007
251,932	-67,210	-0,291	-0,079
252,947	218,454	-0,160	-0,177
253,961	-23,039	-0,207	-0,086
254,976	74,782	-0,209	-0,152
255,990	698,985	-0,114	-0,209
257,005	487,887	-0,128	-0,204
258,020	-10,780	-0,180	-0,082
259,034	-75,494	-0,197	-0,048
260,049	261,593	-0,173	-0,208
261,063	21,327	-0,237	-0,133
262,078	245,826	-0,153	-0,178
263,093	-13,776	-0,196	-0,088
264,107	31,965	-0,150	-0,089
265,122	164,284	-0,233	-0,227
266,136	330,834	-0,120	-0,161
267,151	-15,643	-0,078	-0,034
268,166	64,598	-0,173	-0,120
269,180	-60,814	-0,329	-0,096
270,195	139,598	-0,227	-0,207
271,209	54,347	-0,222	-0,147
272,224	13,764	-0,248	0,133
273,239	542,186	0,045	-0,075
274,253	-22,890	-0,170	-0,071
275,268	-132,356	-0,317	-0,028
276,282	96,781	-0,227	-0,180
277,297	652,062	-0,173	-0,307
278,312	-11,444	-0,189	-0,086
279,326	232,294	-0,124	-0,141
280,341	-48,847	-0,114	-0,037
281,355	238,638	-0,101	0,116
282,370	16,088	-0,244	-0,133
283,384	-200,000	0,018	-0,115
284,399	84,770	-0,172	-0,130
285,414	364,137	-0,096	-0,134
286,428	29,220	-0,177	-0,104
287,443	637,093	-0,067	-0,118
288,457	800,000	-0,094	-0,183
289,472	191,996	-0,193	-0,201
290,487	50,292	-0,217	-0,141
291,501	-3,615	-0,162	-0,077
292,516	-51,660	-0,199	-0,064
293,530	-105,267	-0,260	0,040
294,545	22,107	-0,148	-0,083
295,560	-10,140	-0,124	-0,057
296,574	-88,035	-0,157	-0,032
297,589	101,488	-0,147	-0,118
298,603	-200,000	-0,027	-0,129
299,618	36,069	-0,100	-0,061
300,633	-155,537	-0,186	-0,008
301,647	-141,760	-0,144	-0,010
302,662	-88,399	-0,204	-0,042
303,676	-60,411	-0,079	0,023
304,691	87,783	-0,222	-0,169
305,706	411,751	-0,098	-0,144
306,720	800,000	-0,055	-0,121
307,735	-147,652	-0,172	-0,010
308,749	188,647	-0,082	-0,085
309,764	-156,642	-0,104	0,004
310,779	130,178	-0,052	0,046
311,793	800,000	-0,063	-0,138
312,808	301,790	-0,064	0,082
313,822	48,273	-0,203	-0,131
314,837	800,000	0,017	-0,045
315,852	-200,000	-0,003	-0,086
316,866	228,692	-0,167	-0,188
317,881	-14,584	-0,122	-0,054
318,895	146,215	-0,207	-0,191
319,910	85,983	-0,221	-0,167
320,925	124,613	-0,111	-0,096
321,939	800,000	-0,046	-0,126
322,954	204,355	0,033	-0,036
323,968	287,201	-0,106	-0,132
324,983	26,734	-0,130	-0,075
325,997	-47,930	-0,064	-0,021
327,012	74,159	-0,183	-0,132
328,027	48,713	-0,186	-0,119
329,041	417,265	-0,127	-0,186
330,056	-200,000	-0,002	0,035
331,070	-62,335	-0,135	-0,038
332,085	-100,167	-0,088	-0,015
333,100	492,356	-0,092	-0,145
334,114	270,625	-0,141	-0,171
335,129	327,616	-0,169	-0,223
336,143	-99,908	-0,162	0,028
337,158	28,820	-0,181	-0,105
338,173	-127,854	-0,113	-0,011
339,187	-86,310	-0,103	-0,022
340,202	49,792	-0,118	-0,076
341,216	399,995	-0,098	-0,142
342,231	-27,684	-0,164	-0,065
343,246	51,630	-0,150	-0,098
344,260	-62,533	-0,123	-0,035
345,275	800,000	-0,106	-0,219
346,289	-200,000	-0,015	-0,131
347,304	96,283	-0,170	-0,133
348,319	569,721	-0,133	-0,224
349,333	67,071	-0,077	-0,054
350,348	-33,977	-0,091	0,034
351,362	209,999	-0,029	-0,031
352,377	-200,000	0,001	-0,048
353,392	-200,000	-0,006	-0,086
354,406	194,766	-0,120	-0,125
355,421	209,912	1314,776	1416,449
356,435	161,576	1475,506	1416,941
