DTS Sentinel unit serial number:	SN410029Multiplexer serial number:	ORYXHardware model number:	OX2-SRSoftware version number:	ORYX F/W v4,00 Oryx Data Collector v3.7.2.0data status	okinstallation	B3 Nyhavnadifferential loss correction	single-endedforward channel	channel 1reverse channel	N/Adate	2023/12/04time	04:52:30forward acquisition time	300,00reverse acquisition time	0,00gamma	499,1914k internal	0,3206k external	0,3206temperature offset calibration	1,0000default loss term (dB/km)	0,3820temperature slope calibration	1,0000multiplexer offset coefficient	1,0000multiplexer slope coefficient	1,0000fibre end	0,00T internal ref (°C)	11,95T ext. ref 1 (°C)	-3,03T ext. ref 2 (°C)	-3,06length (m)	temperature (°C)	Stokes	anti-Stokes-744,400	349,127	-0,182	-0,262
-743,385	800,000	0,154	0,324
-742,371	79,439	-0,362	-0,281
-741,356	-200,000	-0,009	0,236
-740,342	627,369	-0,132	-0,243
-739,327	-200,000	-0,043	0,297
-738,312	61,140	-0,215	-0,155
-737,298	-200,000	0,015	0,335
-736,283	21,836	-0,315	-0,186
-735,269	800,000	0,081	0,165
-734,254	114,809	-0,115	-0,102
-733,239	800,000	-0,074	0,178
-732,225	-15,495	-0,073	-0,034
-731,210	0,018	0,147	0,076
-730,196	-200,000	-0,003	0,017
-729,181	280,105	-0,024	-0,031
-728,167	-21,918	-0,226	0,099
-727,152	109,118	0,064	-0,055
-726,137	21,669	-0,152	-0,089
-725,123	161,067	0,036	0,037
-724,108	-200,000	0,014	-0,098
-723,094	-70,230	0,077	-0,021
-722,079	800,000	-0,056	-0,144
-721,064	-31,562	0,133	-0,054
-720,050	44,846	-0,070	-0,047
-719,035	405,841	0,038	0,058
-718,021	-136,229	-0,108	0,009
-717,006	-109,474	-0,104	0,016
-715,991	800,000	-0,036	-0,082
-714,977	-200,000	-0,000	0,081
-713,962	-57,717	-0,100	-0,032
-712,948	-200,000	-0,010	-0,070
-711,933	-65,573	0,113	0,033
-710,918	210,707	-0,060	-0,069
-709,904	30,202	0,079	0,049
-708,889	201,434	-0,035	0,039
-707,875	-104,563	0,108	0,018
-706,860	-200,000	-0,003	0,059
-705,845	127,936	-0,069	-0,063
-704,831	-200,000	-0,008	-0,049
-703,816	-35,984	-0,120	0,047
-702,802	339,852	0,080	-0,114
-701,787	492,346	-0,040	-0,066
-700,772	148,756	-0,056	0,055
-699,758	515,536	0,037	0,063
-698,743	-126,803	0,018	0,002
-697,729	-53,986	0,116	0,038
-696,714	296,741	-0,091	-0,121
-695,699	-174,715	-0,121	0,002
-694,685	95,454	-0,075	-0,062
-693,670	-30,543	-0,098	0,040
-692,656	800,000	-0,046	-0,134
-691,641	-101,072	0,110	0,019
-690,627	-200,000	0,016	0,055
-689,612	-200,000	0,008	0,134
-688,597	-134,673	-0,099	0,009
-687,583	-103,298	-0,120	0,020
-686,568	-93,159	0,073	-0,015
-685,554	-200,000	0,010	-0,037
-684,539	61,427	0,091	0,066
-683,524	-157,543	-0,161	0,007
-682,510	602,254	0,047	-0,086
-681,495	-75,175	-0,100	0,026
-680,481	-101,761	0,064	-0,011
-679,466	167,436	-0,053	-0,054
-678,451	206,602	0,052	-0,059
-677,437	742,854	-0,046	-0,089
-676,422	734,401	0,040	0,077
-675,408	372,707	0,071	0,106
-674,393	153,368	0,027	0,027
-673,378	302,440	-0,022	-0,029
-672,364	131,067	-0,039	-0,036
-671,349	-62,987	-0,105	-0,031
-670,335	-88,537	-0,050	0,011
-669,320	63,215	-0,043	0,031
-668,305	-77,608	0,019	-0,005
-667,291	18,856	-0,112	-0,065
-666,276	171,334	0,125	-0,130
-665,262	-25,254	-0,057	-0,024
-664,247	-200,000	-0,012	-0,079
-663,232	-6,767	0,036	0,018
-662,218	183,787	0,060	0,064
-661,203	188,184	-0,058	-0,063
-660,189	-200,000	-0,016	-0,163
-659,174	196,626	-0,076	-0,084
-658,159	-200,000	-0,019	-0,093
-657,145	230,396	-0,030	-0,036
-656,130	-127,733	0,083	-0,009
-655,116	-200,000	0,015	0,088
-654,101	-135,006	0,147	-0,013
-653,086	-0,768	-0,132	-0,067
-652,072	619,278	0,010	-0,019
-651,057	401,858	-0,035	-0,054
-650,043	-200,000	-0,001	-0,030
-649,028	-200,000	0,020	-0,091
-648,014	-98,388	-0,019	0,003
-646,999	381,244	0,038	0,057
-645,984	-200,000	-0,014	-0,072
-644,970	-200,000	-0,029	-0,143
-643,955	345,105	-0,065	-0,093
-642,941	-27,610	-0,050	0,021
-641,926	-200,000	0,025	0,097
-640,911	57,977	-0,065	-0,046
-639,897	46,551	-0,040	0,027
-638,882	94,258	-0,043	-0,035
-637,868	-36,240	0,027	-0,010
-636,853	-108,450	0,071	0,011
-635,838	-200,000	-0,004	-0,064
-634,824	-200,000	0,000	-0,113
-633,809	800,000	-0,027	-0,060
-632,795	-34,961	0,115	-0,045
-631,780	-110,717	0,061	-0,009
-630,765	229,007	-0,028	0,033
-629,751	-3,437	0,077	-0,038
-628,736	-42,140	0,095	-0,035
-627,722	90,688	-0,121	-0,098
-626,707	800,000	0,061	-0,156
-625,692	388,197	0,034	-0,051
-624,678	61,117	-0,032	-0,023
-623,663	800,000	-0,067	-0,148
-622,649	-200,000	-0,046	-0,170
-621,634	111,688	0,063	-0,055
-620,619	800,000	-0,032	0,089
-619,605	-27,555	-0,111	-0,046
-618,590	182,371	0,113	0,120
-617,576	-14,124	0,161	0,075
-616,561	-200,000	0,012	0,058
-615,546	-200,000	0,009	-0,094
-614,532	235,069	-0,064	-0,076
-613,517	-200,000	-0,014	-0,142
-612,503	-64,636	-0,023	-0,007
-611,488	2,439	0,117	-0,061
-610,474	-200,000	-0,028	0,089
-609,459	290,897	0,053	0,070
-608,444	-99,953	-0,178	-0,032
-607,430	-63,689	-0,177	0,052
-606,415	-39,332	-0,202	-0,076
-605,401	-98,211	-0,056	-0,010
-604,386	163,478	0,061	0,062
-603,371	-200,000	0,009	0,059
-602,357	184,753	-0,047	0,051
-601,342	-200,000	0,010	-0,098
-600,328	41,328	0,108	-0,071
-599,313	800,000	0,034	-0,088
-598,298	-134,246	0,054	-0,005
-597,284	713,446	0,055	-0,106
-596,269	-127,735	0,118	0,012
-595,255	-200,000	0,029	0,140
-594,240	-200,000	0,006	0,138
-593,225	-21,407	-0,072	0,031
-592,211	-200,000	-0,027	-0,136
-591,196	-151,597	0,130	0,007
-590,182	800,000	0,075	0,154
-589,167	47,974	0,117	0,079
-588,152	-200,000	0,015	0,073
-587,138	-200,000	-0,014	-0,054
-586,123	-200,000	-0,006	-0,160
-585,109	163,139	-0,102	-0,103
-584,094	800,000	-0,047	-0,127
-583,079	27,987	0,043	-0,026
-582,065	800,000	-0,048	-0,109
-581,050	37,435	0,026	0,016
-580,036	-177,232	-0,021	0,000
-579,021	123,849	-0,095	-0,086
-578,006	-139,813	-0,057	-0,004
-576,992	800,000	0,023	0,055
-575,977	130,571	-0,055	-0,051
-574,963	-16,996	0,099	0,045
-573,948	-200,000	0,017	0,102
-572,934	70,663	0,094	0,070
-571,919	-200,000	0,020	-0,105
-570,904	46,872	-0,109	-0,073
-569,890	541,920	0,043	-0,075
-568,875	-117,571	-0,071	-0,009
-567,861	606,892	0,054	0,097
-566,846	58,555	-0,037	0,026
-565,831	-200,000	0,011	-0,037
-564,817	-55,192	-0,072	-0,023
-563,802	588,068	0,021	0,038
-562,788	64,412	0,083	0,060
-561,773	127,000	0,051	-0,047
-560,758	159,294	0,059	0,060
-559,744	800,000	0,033	-0,070
-558,729	800,000	-0,013	0,035
-557,715	306,917	-0,011	-0,015
-556,700	800,000	-0,039	-0,113
-555,685	223,371	-0,054	-0,063
-554,671	128,422	0,059	-0,054
-553,656	-19,008	-0,043	0,019
-552,642	25,483	-0,004	0,003
-551,627	-200,000	0,030	0,105
-550,612	800,000	0,046	0,122
-549,598	492,543	0,019	-0,032
-548,583	-33,526	0,156	0,062
-547,569	652,521	-0,021	-0,039
-546,554	-200,000	-0,041	0,161
-545,539	58,607	0,085	0,060
-544,525	800,000	-0,056	0,153
-543,510	15,558	0,081	-0,046
-542,496	-200,000	-0,010	-0,083
-541,481	15,193	0,118	0,066
-540,466	-200,000	-0,004	0,111
-539,452	-56,241	-0,155	-0,050
-538,437	63,195	0,077	0,056
-537,423	85,322	0,063	-0,049
-536,408	-200,000	-0,002	-0,067
-535,393	614,013	0,029	0,052
-534,379	170,770	-0,052	-0,054
-533,364	-28,900	-0,129	0,053
-532,350	467,823	0,068	-0,110
-531,335	78,289	-0,044	-0,033
-530,321	96,785	0,022	-0,018
-529,306	402,160	-0,068	0,104
-528,291	-77,267	-0,017	-0,004
-527,277	722,930	0,037	-0,072
-526,262	-200,000	0,004	0,125
-525,248	658,105	0,034	0,063
-524,233	-200,000	-0,011	-0,072
-523,218	-200,000	0,036	0,155
-522,204	800,000	0,029	-0,083
-521,189	-200,000	-0,020	-0,084
-520,175	235,611	-0,090	0,107
-519,160	800,000	-0,014	-0,038
-518,145	303,160	0,034	0,045
-517,131	-200,000	-0,010	-0,066
-516,116	-200,000	0,005	-0,082
-515,102	42,863	-0,117	0,077
-514,087	-151,097	0,140	-0,007
-513,072	121,817	-0,059	-0,053
-512,058	-10,629	-0,091	-0,043
-511,043	116,035	-0,142	0,125
-510,029	161,054	-0,100	0,101
-509,014	494,750	0,062	0,102
-507,999	-7,823	0,071	0,035
-506,985	453,750	-0,025	-0,041
-505,970	65,395	0,126	-0,091
-504,956	-98,359	-0,075	-0,014
-503,941	-21,947	-0,085	0,037
-502,926	-200,000	0,035	0,145
-501,912	36,050	-0,027	-0,017
-500,897	-105,579	0,113	-0,018
-499,883	255,108	0,017	-0,021
-498,868	800,000	0,014	0,031
-497,853	800,000	0,039	-0,119
-496,839	121,736	0,083	-0,075
-495,824	109,160	-0,093	-0,080
-494,810	180,149	0,028	0,029
-493,795	-200,000	-0,014	0,067
-492,781	235,233	-0,093	-0,110
-491,766	800,000	-0,076	0,159
-490,751	800,000	0,022	0,046
-489,737	416,078	0,088	0,135
-488,722	334,829	0,069	-0,096
-487,708	194,058	-0,029	0,031
-486,693	-200,000	0,026	0,119
-485,678	-63,463	-0,077	-0,023
-484,664	-200,000	-0,030	-0,137
-483,649	-200,000	-0,154	-0,000
-482,635	-162,751	0,108	-0,004
-481,620	-200,000	0,004	0,054
-480,605	-200,000	-0,012	0,041
-479,591	10,452	0,066	0,036
-478,576	-3,090	-0,218	0,109
-477,562	669,008	0,021	-0,040
-476,547	-40,995	-0,079	-0,029
-475,532	141,331	-0,058	-0,055
-474,518	133,694	0,053	-0,050
-473,503	-82,105	-0,020	-0,005
-472,489	-150,105	-0,056	0,003
-471,474	-169,561	0,144	-0,004
-470,459	56,352	0,085	0,059
-469,445	431,630	-0,075	0,118
-468,430	800,000	0,038	-0,118
-467,416	416,833	-0,036	0,056
-466,401	106,285	0,071	0,061
-465,386	-131,837	0,112	-0,010
-464,372	800,000	0,077	0,178
-463,357	426,852	-0,062	-0,096
-462,343	282,354	0,104	0,134
-461,328	145,838	-0,029	-0,028
-460,313	-11,865	0,114	-0,054
-459,299	142,703	-0,038	0,037
-458,284	-61,398	-0,133	-0,040
-457,270	-200,000	-0,004	0,074
-456,255	239,835	0,026	0,032
-455,241	-59,022	-0,118	-0,036
-454,226	768,835	-0,042	-0,083
-453,211	-200,000	0,017	0,090
-452,197	-200,000	0,010	-0,063
-451,182	-20,409	0,143	-0,063
-450,168	-200,000	0,003	0,038
-449,153	16,822	0,090	-0,051
-448,138	456,023	0,035	-0,056
-447,124	313,731	0,055	-0,074
-446,109	-114,108	0,062	-0,008
-445,095	-200,000	0,010	-0,110
-444,080	594,765	-0,081	0,145
-443,065	-200,000	0,017	0,101
-442,051	-56,380	-0,088	0,028
-441,036	-52,657	-0,020	0,006
-440,022	201,263	-0,055	-0,061
-439,007	-200,000	0,006	0,135
-437,992	-200,000	-0,030	0,216
-436,978	800,000	-0,004	-0,010
-435,963	134,996	0,130	0,122
-434,949	181,417	0,077	0,081
-433,934	-27,104	-0,151	0,063
-432,919	427,951	-0,064	0,099
-431,905	-84,895	0,040	-0,009
-430,890	-65,769	0,156	0,044
-429,876	-200,000	0,016	0,122
-428,861	-124,344	0,079	0,009
-427,846	710,841	0,025	0,048
-426,832	-156,059	0,056	0,002
-425,817	-200,000	-0,007	0,041
-424,803	52,603	-0,076	0,052
-423,788	-84,019	0,104	0,024
-422,773	-134,800	-0,045	-0,004
-421,759	325,941	0,066	0,091
-420,744	125,413	-0,104	-0,094
-419,730	-32,157	0,041	0,016
-418,715	39,529	-0,134	0,086
-417,701	800,000	-0,013	0,035
-416,686	50,624	0,108	-0,073
-415,671	-200,000	-0,009	0,145
-414,657	48,808	0,113	-0,076
-413,642	5,636	-0,054	-0,029
-412,628	-149,557	0,068	0,004
-411,613	72,712	-0,140	-0,104
-410,598	-200,000	0,004	0,049
-409,584	-5,796	0,039	-0,019
-408,569	-91,105	-0,029	-0,006
-407,555	-40,528	0,079	0,029
-406,540	-200,000	0,047	0,169
-405,525	-200,000	-0,010	-0,058
-404,511	457,902	-0,064	0,102
-403,496	-62,913	0,116	-0,034
-402,482	-200,000	0,026	-0,092
-401,467	-5,700	0,082	0,040
-400,452	46,330	0,140	-0,093
-399,438	75,599	-0,016	-0,012
-398,423	-200,000	-0,004	0,133
-397,409	78,122	-0,083	-0,064
-396,394	-200,000	-0,010	-0,033
-395,379	-34,322	-0,100	-0,039
-394,365	800,000	-0,006	-0,015
-393,350	-130,822	-0,046	-0,004
-392,336	-200,000	0,006	-0,079
-391,321	29,562	-0,060	-0,037
-390,306	121,552	0,076	-0,068
-389,292	-85,636	-0,173	-0,038
-388,277	-22,488	0,125	-0,054
-387,263	-77,129	-0,091	-0,023
-386,248	-200,000	0,005	-0,028
-385,233	146,248	-0,026	-0,025
-384,219	-8,164	0,080	-0,039
-383,204	-200,000	0,031	-0,118
-382,190	103,663	-0,161	-0,135
-381,175	298,602	-0,026	0,034
-380,160	83,834	-0,028	-0,022
-379,146	-200,000	0,014	-0,047
-378,131	-200,000	0,006	-0,027
-377,117	74,020	0,092	0,069
-376,102	98,364	0,092	0,076
-375,088	-200,000	-0,033	-0,183
-374,073	94,856	0,045	0,036
-373,058	188,597	-0,052	0,055
-372,044	-154,129	-0,100	-0,005
-371,029	-200,000	0,006	-0,034
-370,015	-103,023	-0,096	-0,016
-369,000	-200,000	0,041	-0,139
-367,985	-14,590	-0,076	-0,035
-366,971	-13,003	0,141	-0,066
-365,956	-52,032	-0,138	-0,045
-364,942	67,401	0,129	0,094
-363,927	-112,882	0,033	-0,005
-362,912	114,274	0,085	-0,074
-361,898	800,000	-0,046	-0,129
-360,883	-200,000	0,023	-0,078
-359,869	-200,000	0,019	0,092
-358,854	-54,650	-0,126	-0,041
-357,839	-79,580	0,059	-0,014
-356,825	29,426	0,032	0,020
-355,810	800,000	0,007	-0,019
-354,796	-98,789	0,123	-0,022
-353,781	-200,000	0,001	-0,213
-352,766	800,000	-0,037	-0,116
-351,752	142,969	0,093	0,089
-350,737	-8,917	-0,081	-0,039
-349,723	800,000	-0,053	0,152
-348,708	-101,589	-0,062	0,011
-347,693	216,125	-0,072	-0,082
-346,679	-200,000	0,005	0,025
-345,664	800,000	0,043	-0,087
-344,650	-200,000	-0,001	0,039
-343,635	800,000	0,053	0,144
-342,620	54,682	0,044	-0,030
-341,606	-200,000	-0,035	0,140
-340,591	27,773	0,215	0,129
-339,577	-168,491	-0,153	-0,004
-338,562	63,465	-0,088	-0,063
-337,548	-24,052	0,083	0,035
-336,533	24,207	0,061	-0,036
-335,518	-63,099	-0,121	0,035
-334,504	675,549	0,075	0,139
-333,489	-144,167	0,085	-0,006
-332,475	-200,000	0,047	-0,177
-331,460	-57,828	-0,096	-0,030
-330,445	214,577	0,028	0,031
-329,431	-140,514	0,041	0,003
-328,416	-76,856	0,011	-0,003
-327,402	139,368	0,160	0,150
-326,387	-48,161	-0,083	0,028
-325,372	800,000	0,060	0,158
-324,358	-2,694	-0,134	-0,067
-323,343	139,212	0,059	0,056
-322,329	-166,618	0,135	0,004
-321,314	43,332	0,071	0,046
-320,299	246,343	-0,102	-0,123
-319,285	-24,266	-0,053	0,022
-318,270	109,276	0,023	0,019
-317,256	-200,000	-0,013	-0,109
-316,241	-28,160	0,121	-0,050
-315,226	605,237	0,049	-0,087
-314,212	182,239	0,043	0,045
-313,197	-200,000	-0,013	-0,177
-312,183	-72,000	0,011	0,003
-311,168	-28,833	-0,066	-0,027
-310,153	261,766	0,064	-0,079
-309,139	115,867	-0,090	-0,078
-308,124	-112,131	0,054	0,008
-307,110	-93,585	0,125	-0,024
-306,095	800,000	0,052	0,118
-305,080	-157,754	-0,026	-0,001
-304,066	356,316	-0,112	0,159
-303,051	99,276	-0,056	-0,046
-302,037	800,000	-0,060	0,144
-301,022	32,988	0,078	0,048
-300,008	-73,021	0,078	-0,020
-298,993	457,501	0,024	0,039
-297,978	165,988	-0,064	0,064
-296,964	-181,392	-0,087	-0,001
-295,949	800,000	-0,044	-0,118
-294,935	-200,000	0,039	-0,124
-293,920	-76,921	-0,035	0,009
-292,905	-166,124	-0,127	0,004
-291,891	414,553	-0,056	-0,086
-290,876	-143,270	0,051	-0,003
-289,862	-200,000	-0,008	-0,037
-288,847	-5,939	-0,103	0,050
-287,832	-13,806	-0,033	0,015
-286,818	800,000	-0,038	0,107
-285,803	800,000	-0,078	0,161
-284,789	155,650	-0,071	0,070
-283,774	55,805	0,041	0,028
-282,759	-200,000	-0,021	-0,068
-281,745	-109,145	-0,054	-0,008
-280,730	192,227	-0,117	-0,127
-279,716	-47,590	-0,060	0,021
-278,701	-125,882	0,081	-0,009
-277,686	-99,025	0,028	-0,005
-276,672	-200,000	0,020	0,087
-275,657	54,303	-0,031	0,022
-274,643	-137,537	-0,102	-0,008
-273,628	-23,318	-0,052	-0,022
-272,613	182,743	0,075	0,079
-271,599	280,971	0,106	0,135
-270,584	445,652	0,051	-0,080
-269,570	-200,000	0,019	0,116
-268,555	-200,000	-0,040	0,180
-267,540	-200,000	0,016	-0,067
-266,526	679,971	0,040	-0,075
-265,511	102,594	-0,077	-0,065
-264,497	222,745	-0,052	-0,060
-263,482	303,567	-0,068	0,091
-262,467	-62,544	-0,058	-0,017
-261,453	800,000	-0,046	0,110
-260,438	-200,000	0,024	0,214
-259,424	800,000	0,014	0,030
-258,409	21,781	-0,102	-0,059
-257,395	117,234	-0,067	-0,059
-256,380	-200,000	0,002	0,085
-255,365	293,831	-0,063	-0,082
-254,351	-58,484	0,082	0,025
-253,336	-134,922	-0,045	0,004
-252,322	-200,000	-0,001	-0,028
-251,307	222,924	0,052	0,060
-250,292	-8,954	0,105	-0,050
-249,278	-69,756	0,031	-0,008
-248,263	-33,244	-0,079	0,031
-247,249	-200,000	-0,005	0,056
-246,234	-123,934	0,023	-0,003
-245,219	-200,000	0,016	-0,066
-244,205	447,030	0,018	-0,029
-243,190	291,412	0,083	-0,107
-242,176	-104,975	-0,038	-0,006
-241,161	-84,225	0,153	0,034
-240,146	-200,000	-0,017	0,065
-239,132	-200,000	0,000	0,081
-238,117	-200,000	0,001	0,077
-237,103	-200,000	0,010	-0,039
-236,088	-77,707	0,129	-0,032
-235,073	-200,000	-0,007	-0,026
-234,059	-200,000	0,032	0,113
-233,044	-68,268	0,054	-0,015
-232,030	18,187	-0,076	0,043
-231,015	-2,409	0,018	-0,009
-230,000	-200,000	-0,044	-0,336
-228,986	578,745	-0,059	-0,103
-227,971	576,760	0,019	-0,033
-226,957	-107,683	-0,158	-0,024
-225,942	612,999	-0,048	0,085
-224,927	-200,000	-0,026	0,232
-223,913	800,000	-0,061	-0,139
-222,898	258,891	0,105	-0,129
-221,884	800,000	0,032	0,102
-220,869	-63,245	0,105	0,031
-219,855	443,964	0,093	0,146
-218,840	-149,849	0,139	0,008
-217,825	800,000	0,017	-0,052
-216,811	-200,000	0,014	-0,078
-215,796	109,154	-0,081	-0,069
-214,782	-11,106	0,096	0,045
-213,767	-102,749	-0,068	-0,011
-212,752	800,000	-0,044	0,128
-211,738	-200,000	0,018	0,155
-210,723	-79,370	-0,113	-0,027
-209,709	-200,000	-0,023	-0,075
-208,694	-200,000	0,005	0,041
-207,679	-200,000	-0,009	-0,115
-206,665	-200,000	-0,009	-0,053
-205,650	-3,107	0,067	0,033
-204,636	142,519	0,109	0,103
-203,621	517,078	0,089	0,149
-202,606	800,000	-0,010	0,030
-201,592	99,582	-0,090	-0,074
-200,577	369,999	-0,012	-0,018
-199,563	-200,000	-0,009	-0,118
-198,548	322,772	0,051	-0,070
-197,533	7,296	-0,062	0,033
-196,519	-200,000	0,001	0,236
-195,504	141,849	-0,040	0,037
-194,490	-47,353	-0,057	-0,019
-193,475	228,934	0,053	-0,062
-192,460	-145,757	0,043	-0,003
-191,446	254,094	-0,090	0,109
-190,431	-37,678	0,109	0,041
-189,417	793,785	-0,022	0,044
-188,402	-95,769	-0,084	-0,016
-187,387	505,961	-0,072	-0,119
-186,373	-31,590	0,063	0,025
-185,358	160,883	0,048	0,047
-184,344	-3,529	-0,092	-0,046
-183,329	137,488	0,096	-0,089
-182,315	-77,221	-0,114	0,028
-181,300	-62,572	-0,100	0,029
-180,285	-200,000	-0,006	0,071
-179,271	-200,000	0,025	-0,172
-178,256	-200,000	0,008	-0,052
-177,242	-35,880	-0,031	0,012
-176,227	319,283	0,031	-0,041
-175,212	-200,000	0,022	0,096
-174,198	-98,715	-0,052	-0,009
-173,183	20,180	0,082	0,047
-172,169	541,834	-0,045	0,076
-171,154	255,195	0,011	-0,013
-170,139	-200,000	-0,020	-0,148
-169,125	-164,785	0,096	0,003
-168,110	793,809	-0,033	-0,066
-167,096	-200,000	0,003	0,148
-166,081	-16,497	-0,115	0,051
-165,066	-37,042	-0,068	-0,026
-164,052	426,762	-0,081	-0,125
-163,037	-49,076	-0,104	0,035
-162,023	-200,000	-0,027	0,107
-161,008	-31,859	0,017	0,007
-159,993	-200,000	0,033	-0,136
-158,979	457,535	0,032	-0,050
-157,964	800,000	-0,050	-0,113
-156,950	75,976	-0,038	-0,028
-155,935	800,000	0,025	0,058
-154,920	15,484	-0,074	0,041
-153,906	230,461	0,027	0,032
-152,891	-4,458	-0,025	0,012
-151,877	-32,923	-0,082	0,032
-150,862	800,000	0,048	-0,095
-149,847	-156,507	0,106	0,005
-148,833	800,000	0,007	-0,021
-147,818	800,000	0,048	0,100
-146,804	-100,174	-0,110	0,019
-145,789	466,789	-0,067	0,107
-144,775	58,959	0,017	0,012
-143,760	69,616	-0,103	-0,075
-142,745	800,000	-0,033	-0,070
-141,731	-200,000	-0,012	0,073
-140,716	-200,000	0,049	0,195
-139,702	-200,000	-0,016	0,159
-138,687	81,114	0,103	0,079
-137,672	-200,000	0,001	-0,058
-136,658	-43,641	0,045	0,016
-135,643	57,181	0,126	-0,087
-134,629	-200,000	0,009	-0,072
-133,614	-200,000	-0,013	0,049
-132,599	67,571	0,008	-0,006
-131,585	800,000	-0,032	-0,074
-130,570	800,000	-0,023	-0,045
-129,556	-200,000	-0,000	0,034
-128,541	-200,000	-0,020	-0,173
-127,526	-200,000	0,002	-0,030
-126,512	-200,000	0,027	-0,171
-125,497	-200,000	-0,002	0,118
-124,483	77,852	0,073	0,055
-123,468	-39,519	-0,037	0,014
-122,453	800,000	-0,045	-0,093
-121,439	-123,374	-0,104	0,012
-120,424	601,683	-0,020	0,035
-119,410	-4,370	0,084	-0,041
-118,395	-9,063	-0,057	0,027
-117,380	68,622	0,074	-0,053
-116,366	-200,000	0,000	0,007
-115,351	800,000	-0,034	-0,073
-114,337	642,803	-0,024	-0,044
-113,322	-130,183	-0,035	-0,003
-112,307	-80,710	0,069	-0,016
-111,293	115,300	0,069	-0,060
-110,278	800,000	0,013	-0,030
-109,264	800,000	-0,022	0,063
-108,249	-200,000	0,014	-0,057
-107,234	-133,472	-0,125	-0,011
-106,220	455,973	0,031	0,049
-105,205	133,150	-0,095	0,087
-104,191	-200,000	-0,014	0,079
-103,176	97,921	0,133	0,108
-102,162	-92,607	0,139	-0,027
-101,147	-26,441	-0,032	-0,013
-100,132	-121,473	0,045	-0,005
-99,118	103,162	0,034	0,028
-98,103	396,257	0,038	0,057
-97,089	-141,236	-0,080	-0,006
-96,074	14,182	0,014	-0,008
-95,059	417,644	-0,003	0,005
-94,045	-200,000	0,007	-0,037
-93,030	800,000	-0,044	-0,098
-92,016	27,118	-0,075	-0,044
-91,001	120,245	-0,099	-0,087
-89,986	-75,257	0,158	0,040
-88,972	-200,000	0,048	-0,168
-87,957	349,716	-0,058	-0,081
-86,943	-200,000	-0,008	0,080
-85,928	58,268	-0,082	-0,057
-84,913	-36,496	-0,078	0,030
-83,899	-200,000	0,018	-0,061
-82,884	-200,000	0,001	0,109
-81,870	-200,000	0,012	-0,071
-80,855	-39,543	-0,097	-0,036
-79,840	-65,968	0,083	-0,023
-78,826	85,893	-0,050	0,039
-77,811	-136,518	-0,210	-0,017
-76,797	80,727	0,098	-0,075
-75,782	-200,000	0,010	0,073
-74,767	352,390	-0,029	-0,040
-73,753	538,115	0,064	0,108
-72,738	-123,205	0,079	-0,009
-71,724	-58,324	-0,090	-0,028
-70,709	146,922	0,088	-0,084
-69,694	-90,700	-0,086	0,017
-68,680	-200,000	-0,031	0,114
-67,665	-61,907	0,214	0,063
-66,651	201,315	0,039	0,042
-65,636	-200,000	-0,019	0,106
-64,622	-200,000	-0,002	0,054
-63,607	43,897	0,010	-0,007
-62,592	4,551	0,078	-0,040
-61,578	-200,000	0,000	0,056
-60,563	-200,000	0,005	0,026
-59,549	-200,000	0,016	0,134
-58,534	22,351	-1,859	-1,071
-57,519	384,115	-1,350	-1,971
-56,505	-200,000	-0,682	-4,647
-55,490	321,071	1,082	1,458
-54,476	800,000	4,916	11,126
-53,461	-200,000	20,373	324,554
-52,446	800,000	752,300	2311,486
-51,432	549,009	1662,814	2827,488
-50,417	74,711	1671,498	1241,968
-49,403	19,860	1544,619	877,288
-48,388	13,844	1467,167	804,032
-47,373	18,439	1457,524	820,909
-46,359	16,275	1446,911	804,535
-45,344	12,097	1442,410	781,996
-44,330	11,961	1440,831	780,458
-43,315	11,985	1438,988	779,541
-42,300	12,000	1437,152	778,588
-41,286	12,079	1435,784	778,194
-40,271	12,033	1434,419	777,205
-39,257	11,988	1433,350	776,379
-38,242	12,082	1431,887	776,004
-37,227	12,005	1431,012	775,131
-36,213	12,022	1429,587	774,410
-35,198	12,050	1428,504	773,926
-34,184	12,078	1427,595	773,538
-33,169	11,952	1426,241	772,172
-32,154	12,068	1425,094	772,070
-31,140	12,057	1423,785	771,279
-30,125	12,103	1422,522	770,782
-29,111	12,065	1421,504	770,019
-28,096	12,058	1420,539	769,435
-27,082	11,984	1419,249	768,358
-26,067	11,967	1418,388	767,780
-25,052	11,999	1417,299	767,309
-24,038	12,026	1416,105	766,762
-23,023	11,999	1415,081	766,049
-22,009	11,968	1414,021	765,300
-20,994	11,959	1413,285	764,830
-19,979	11,934	1412,360	764,180
-18,965	11,960	1411,477	763,794
-17,950	11,952	1410,465	763,177
-16,936	11,916	1409,678	762,552
-15,921	11,858	1408,741	761,743
-14,906	11,914	1407,504	761,310
-13,892	11,935	1406,677	760,926
-12,877	11,861	1405,946	760,155
-11,863	11,836	1405,163	759,586
-10,848	11,823	1404,252	759,002
-9,833	11,842	1403,067	758,423
-8,819	11,784	1402,462	757,794
-7,804	11,777	1401,621	757,274
-6,790	11,811	1400,354	756,718
-5,775	11,804	1399,520	756,205
-4,760	11,791	1398,254	755,430
-3,746	11,807	1397,638	755,142
-2,731	11,751	1396,754	754,376
-1,717	11,776	1395,966	754,039
-0,702	11,748	1394,088	752,865
0,313	15,783	1308,782	725,398
1,327	31,928	699,529	424,799
2,342	49,733	121,747	80,907
3,356	2,864	16,485	8,425
4,371	10,508	3,330	1,787
5,386	5,352	0,697	0,362
6,400	-200,000	-0,028	0,310
7,415	383,219	-0,128	-0,186
8,429	45,776	-0,339	-0,221
9,444	21,012	-0,459	-0,262
10,459	43,410	-0,379	-0,244
11,473	624,816	-0,114	-0,203
12,488	153,607	-0,288	-0,279
13,502	315,091	-0,255	-0,340
14,517	105,439	-0,343	-0,286
15,531	114,748	-0,289	-0,249
16,546	84,788	-0,349	-0,269
17,561	344,795	-0,250	-0,348
18,575	-120,319	-0,291	0,035
19,590	488,615	-0,118	-0,190
20,604	-86,107	-0,274	-0,059
21,619	61,099	-0,466	-0,326
22,634	110,384	-0,411	-0,348
23,648	152,400	-0,410	-0,395
24,663	135,013	-0,340	-0,312
25,677	-54,410	-0,376	-0,119
26,692	-1,419	-0,558	-0,276
27,707	328,336	-0,199	-0,270
28,721	45,406	-0,320	-0,208
29,736	89,578	-0,379	-0,298
30,750	188,035	-0,359	-0,378
31,765	212,765	-0,300	-0,334
32,780	-7,757	-0,360	-0,171
33,794	122,443	-0,390	-0,344
34,809	148,328	-0,287	-0,273
35,823	303,751	-0,265	-0,347
36,838	310,336	-0,351	-0,463
37,853	38,553	-0,381	-0,239
38,867	160,644	-0,330	-0,325
39,882	61,830	-0,444	-0,311
40,896	190,421	-0,301	-0,319
41,911	138,454	-0,288	-0,266
42,926	-51,597	-0,414	-0,135
43,940	62,172	-0,425	-0,298
44,955	-45,133	-0,450	-0,156
45,969	101,149	-0,343	-0,281
46,984	45,597	-0,467	-0,303
47,999	-57,721	-0,411	-0,126
49,013	70,537	-0,226	-0,164
50,028	70,114	-0,389	-0,282
51,042	94,508	-0,339	-0,270
52,057	224,127	-0,253	-0,287
53,071	169,383	-0,357	-0,359
54,086	-65,100	-0,338	-0,095
55,101	60,756	-0,263	-0,183
56,115	102,083	-0,249	-0,205
57,130	-9,479	-0,287	-0,134
58,144	132,359	-0,316	-0,287
59,159	19,210	-0,486	-0,273
60,174	267,855	-0,344	-0,424
61,188	179,873	-0,357	-0,368
62,203	86,552	-0,358	-0,277
63,217	23,182	-0,350	-0,202
64,232	-0,799	-0,306	-0,152
65,247	40,999	-0,346	-0,219
66,261	-70,629	-0,339	-0,089
67,276	138,530	-0,375	-0,345
68,290	146,204	-0,337	-0,317
69,305	-27,150	-0,359	-0,146
70,320	119,720	-0,213	-0,185
71,334	-28,689	-0,366	-0,147
72,349	82,788	-0,243	-0,185
73,363	88,303	-0,312	-0,243
74,378	168,405	-0,225	-0,225
75,393	315,828	-0,256	-0,340
76,407	140,280	-0,222	-0,206
77,422	800,000	-0,096	-0,247
78,436	102,312	-0,258	-0,211
79,451	26,970	-0,297	-0,174
80,466	68,151	-0,372	-0,267
81,480	60,853	-0,345	-0,240
82,495	65,727	-0,241	-0,171
83,509	120,425	-0,238	-0,207
84,524	-27,325	-0,316	-0,129
85,539	134,592	-0,181	-0,164
86,553	328,479	-0,137	-0,185
87,568	61,447	-0,352	-0,245
88,582	118,584	-0,333	-0,288
89,597	1,445	-0,257	-0,129
90,611	-40,310	-0,299	-0,109
91,626	46,557	-0,342	-0,222
92,641	-35,337	-0,365	-0,138
93,655	238,787	-0,200	-0,234
94,670	34,557	-0,297	-0,181
95,684	24,789	-0,300	-0,174
96,699	37,215	-0,259	-0,160
97,714	-22,482	-0,304	-0,128
98,728	382,807	-0,134	-0,193
99,743	-22,476	-0,298	-0,126
100,757	34,958	-0,273	-0,167
101,772	24,530	-0,278	-0,161
102,787	315,371	-0,259	-0,342
103,801	105,429	-0,226	-0,187
104,816	178,890	-0,229	-0,235
105,830	214,568	-0,267	-0,296
106,845	106,400	-0,249	-0,207
107,860	49,242	-0,360	-0,236
108,874	-21,020	-0,314	-0,134
109,889	39,833	-0,262	-0,164
110,903	105,599	-0,272	-0,225
111,918	7,491	-0,372	-0,194
112,933	-5,517	-0,247	-0,118
113,947	250,475	-0,142	-0,170
114,962	277,045	-0,148	-0,185
115,976	51,659	-0,223	-0,148
116,991	224,460	-0,217	-0,246
118,006	34,603	-0,275	-0,168
119,020	106,280	-0,261	-0,216
120,035	159,052	-0,133	-0,129
121,049	17,080	-0,257	-0,142
122,064	127,323	-0,192	-0,170
123,079	184,271	-0,214	-0,221
124,093	-62,161	-0,367	-0,106
125,108	-22,863	-0,252	-0,106
126,122	448,171	-0,146	-0,225
127,137	-25,697	-0,327	-0,134
128,151	157,268	-0,165	-0,159
129,166	4,842	-0,158	-0,081
130,181	11,673	-0,373	-0,200
131,195	243,004	-0,358	-0,420
132,210	135,729	-0,302	-0,274
133,224	-45,590	-0,281	-0,097
134,239	-62,535	-0,293	-0,084
135,254	19,990	-0,295	-0,166
136,268	50,650	-0,169	-0,111
137,283	71,054	-0,254	-0,184
138,297	249,171	-0,194	-0,230
139,312	11,387	-0,422	-0,225
140,327	309,960	-0,190	-0,249
141,341	-43,040	-0,214	-0,075
142,356	61,165	-0,293	-0,203
143,370	-200,000	-0,047	-0,236
144,385	-45,163	-0,245	-0,084
145,400	-47,960	-0,346	-0,116
146,414	284,523	-0,232	-0,292
147,429	105,040	-0,216	-0,178
148,443	395,024	-0,153	-0,223
149,458	19,449	-0,222	-0,124
150,473	37,871	-0,184	-0,114
151,487	-77,781	-0,142	0,034
152,502	111,869	-0,243	-0,205
153,516	11,375	-0,191	-0,102
154,531	68,265	-0,232	-0,165
155,546	95,660	-0,197	-0,157
156,560	128,836	-0,076	-0,068
157,575	-120,784	-0,122	0,014
158,589	66,490	-0,179	-0,126
159,604	305,938	-0,154	-0,200
160,619	186,849	-0,267	-0,277
161,633	-89,258	-0,239	-0,049
162,648	29,966	-0,233	-0,138
163,662	39,147	-0,210	-0,130
164,677	77,098	-0,175	-0,130
165,692	356,197	-0,207	-0,288
166,706	75,535	-0,322	-0,237
167,721	156,829	-0,183	-0,176
168,735	83,027	-0,345	-0,261
169,750	-57,620	-0,239	-0,073
170,764	-44,181	-0,248	-0,086
171,779	152,098	-0,163	-0,155
172,794	6,393	-0,212	-0,109
173,808	171,173	-0,157	-0,157
174,823	307,813	-0,170	-0,222
175,837	254,556	-0,188	-0,224
176,852	-4,479	-0,149	-0,071
177,867	8,573	-0,175	-0,092
178,881	-61,060	-0,227	-0,066
179,896	36,077	-0,043	-0,026
180,910	-107,233	-0,238	-0,036
181,925	170,284	-0,117	-0,117
182,940	-5,194	-0,312	-0,149
183,954	661,611	-0,158	-0,285
184,969	98,577	-0,177	-0,142
185,983	123,673	-0,202	-0,176
186,998	43,634	-0,197	-0,125
188,013	25,784	-0,196	-0,113
189,027	-39,410	-0,259	-0,094
190,042	221,750	-0,194	-0,217
191,056	217,639	-0,206	-0,229
192,071	157,405	-0,138	-0,133
193,086	67,391	-0,204	-0,145
194,100	41,733	-0,166	-0,104
195,115	130,370	-0,211	-0,188
196,129	148,855	-0,239	-0,224
197,144	38,042	-0,269	-0,166
198,159	-35,157	-0,230	-0,087
199,173	82,726	-0,149	-0,112
200,188	312,135	-0,207	-0,271
201,202	-77,680	-0,136	-0,032
202,217	139,375	-0,187	-0,171
203,232	-20,315	-0,340	-0,145
204,246	11,831	-0,295	-0,157
205,261	20,651	-0,231	-0,129
206,275	-18,732	-0,270	-0,116
207,290	13,747	-0,260	-0,140
208,304	63,871	-0,174	-0,121
209,319	123,943	-0,176	-0,153
210,334	-80,432	-0,266	0,061
211,348	30,228	-0,153	-0,090
212,363	57,448	-0,211	-0,143
213,377	122,647	-0,128	-0,111
214,392	375,351	-0,222	-0,314
215,407	-73,934	-0,101	-0,025
216,421	10,678	-0,205	-0,108
217,436	50,137	-0,177	-0,115
218,450	204,958	-0,185	-0,199
219,465	145,538	-0,277	-0,257
220,480	57,187	-0,182	-0,123
221,494	-105,835	-0,095	-0,015
222,509	212,939	-0,115	-0,126
223,523	294,209	-0,142	-0,180
224,538	-53,836	-0,235	-0,074
225,553	-2,181	-0,137	-0,066
226,567	140,810	-0,242	-0,222
227,582	-105,278	-0,237	-0,037
228,596	192,921	-0,146	-0,153
229,611	635,153	-0,096	-0,169
230,626	20,577	-0,194	-0,109
231,640	800,000	-0,066	-0,186
232,655	53,197	-0,154	-0,102
233,669	142,204	-0,188	-0,173
234,684	193,718	-0,236	-0,248
235,699	71,076	-0,243	-0,174
236,713	461,289	-0,106	-0,164
237,728	800,000	-0,081	-0,191
238,742	191,988	-0,117	-0,122
239,757	217,523	-0,092	-0,101
240,772	800,000	-0,107	-0,324
241,786	210,347	-0,162	-0,176
242,801	-101,239	-0,234	-0,039
243,815	30,255	-0,137	-0,081
244,830	143,939	-0,073	-0,067
245,844	18,084	-0,120	-0,066
246,859	280,759	-0,154	-0,191
247,874	364,167	-0,143	-0,199
248,888	800,000	-0,021	-0,053
249,903	-101,578	-0,176	0,029
250,917	800,000	-0,112	-0,273
251,932	380,141	-0,136	-0,193
252,947	188,063	-0,164	-0,169
253,961	-58,489	-0,187	-0,056
254,976	198,994	-0,067	-0,071
255,990	-90,665	-0,226	-0,045
257,005	74,923	-0,117	-0,085
258,020	15,058	-0,203	-0,110
259,034	47,529	-0,139	-0,090
260,049	-73,168	-0,122	-0,031
261,063	2,860	-0,241	-0,120
262,078	23,939	-0,328	-0,186
263,093	96,171	-0,218	-0,172
264,107	40,262	-0,276	-0,171
265,122	25,638	-0,111	-0,064
266,136	-144,926	-0,197	0,012
267,151	800,000	-0,029	-0,073
268,166	86,905	-0,224	-0,170
269,180	118,799	-0,153	-0,131
270,195	173,635	-0,257	-0,256
271,209	15,208	-0,174	-0,094
272,224	90,066	-0,167	-0,129
273,239	121,607	-0,202	-0,173
274,253	-44,695	-0,124	-0,043
275,268	-77,501	-0,225	-0,053
276,282	35,666	-0,267	-0,162
277,297	158,678	-0,103	-0,098
278,312	-200,000	-0,022	-0,187
279,326	-30,438	-0,085	-0,033
280,341	11,309	-0,170	-0,089
281,355	-134,461	-0,113	-0,009
282,370	-200,000	-0,047	-0,152
283,384	768,997	-0,112	-0,210
284,399	290,824	-0,095	-0,120
285,414	226,336	-0,129	-0,145
286,428	220,437	-0,147	-0,163
287,443	-200,000	0,005	-0,028
288,457	-10,860	-0,183	-0,083
289,472	-58,613	-0,122	-0,036
290,487	108,272	-0,182	-0,149
291,501	-47,846	-0,221	-0,073
292,516	14,584	-0,097	-0,052
293,530	110,403	-0,184	-0,152
294,545	101,174	-0,175	-0,140
295,560	642,933	-0,042	-0,075
296,574	529,472	-0,102	-0,166
297,589	75,137	-0,172	-0,124
298,603	27,114	-0,274	-0,158
299,618	-33,855	-0,183	-0,069
300,633	-68,352	-0,230	-0,061
301,647	27,112	-0,107	-0,062
302,662	11,498	-0,171	-0,090
303,676	93,824	-0,063	0,049
304,691	-110,745	-0,266	0,037
305,706	91,878	-0,252	-0,195
306,720	344,262	-0,147	-0,199
307,735	7,806	-0,103	-0,053
308,749	-73,847	-0,162	-0,040
309,764	257,952	-0,036	0,043
310,779	89,753	-0,195	-0,149
311,793	211,888	-0,100	-0,108
312,808	113,133	-0,111	-0,093
313,822	702,577	-0,072	-0,131
314,837	678,909	-0,065	-0,117
315,852	-200,000	0,022	-0,140
316,866	-84,425	-0,232	-0,050
317,881	800,000	-0,041	-0,086
318,895	137,302	-0,069	-0,062
319,910	25,448	-0,186	-0,106
320,925	800,000	-0,072	-0,146
321,939	154,880	-0,218	-0,206
322,954	-7,836	-0,171	-0,079
323,968	-200,000	-0,005	0,121
324,983	12,514	-0,096	-0,051
325,997	129,985	-0,170	-0,149
327,012	486,555	-0,161	-0,253
328,027	-200,000	-0,057	-0,176
329,041	780,035	-0,056	-0,105
330,056	-120,910	-0,123	0,014
331,070	-94,618	-0,104	0,019
332,085	96,420	-0,153	-0,120
333,100	219,076	-0,141	-0,155
334,114	-200,000	-0,016	-0,115
335,129	561,324	-0,109	-0,181
336,143	543,294	-0,050	-0,082
337,158	116,666	-0,080	-0,067
338,173	800,000	-0,039	-0,117
339,187	-200,000	-0,014	-0,112
340,202	-121,571	-0,080	0,009
341,216	312,907	-0,125	-0,162
342,231	26,620	-0,089	-0,051
343,246	166,739	-0,152	-0,148
344,260	-79,328	-0,116	-0,027
345,275	-36,531	-0,102	-0,037
346,289	-200,000	-0,041	-0,185
347,304	-95,147	-0,224	-0,041
348,319	800,000	-0,050	0,104
349,333	79,410	-0,133	-0,098
350,348	67,661	-0,203	-0,142
351,362	7,222	-0,125	-0,064
352,377	25,005	-0,194	-0,110
353,392	90,804	-0,100	-0,076
354,406	-104,456	-0,227	-0,036
355,421	207,914	1315,004	1408,461
356,435	159,950	1475,776	1408,933
