DTS Sentinel unit serial number:	SN410029Multiplexer serial number:	ORYXHardware model number:	OX2-SRSoftware version number:	ORYX F/W v4,00 Oryx Data Collector v3.7.2.0data status	okinstallation	B3 Nyhavnadifferential loss correction	single-endedforward channel	channel 1reverse channel	N/Adate	2023/11/30time	04:02:31forward acquisition time	300,00reverse acquisition time	0,00gamma	499,1914k internal	0,3211k external	0,3211temperature offset calibration	1,0000default loss term (dB/km)	0,3820temperature slope calibration	1,0000multiplexer offset coefficient	1,0000multiplexer slope coefficient	1,0000fibre end	0,00T internal ref (°C)	10,13T ext. ref 1 (°C)	-5,37T ext. ref 2 (°C)	-5,45length (m)	temperature (°C)	Stokes	anti-Stokes-744,400	225,213	-0,102	-0,120
-743,385	-200,000	0,018	0,429
-742,371	87,348	-0,112	-0,089
-741,356	-200,000	-0,040	0,252
-740,342	193,975	-0,262	-0,288
-739,327	-200,000	-0,059	0,264
-738,312	277,969	-0,205	-0,266
-737,298	-200,000	0,036	0,276
-736,283	-68,671	-0,206	-0,057
-735,269	-200,000	-0,056	0,248
-734,254	494,023	-0,187	-0,312
-733,239	-15,526	-0,226	0,104
-732,225	221,909	-0,138	-0,161
-731,210	-16,058	0,153	0,070
-730,196	11,928	-0,159	-0,088
-729,181	74,968	0,024	-0,018
-728,167	-156,590	-0,080	-0,004
-727,152	-35,895	-0,043	0,017
-726,137	1,690	-0,082	-0,043
-725,123	-200,000	-0,027	0,088
-724,108	-21,557	0,061	0,027
-723,094	543,445	-0,082	-0,142
-722,079	-65,032	-0,111	-0,032
-721,064	-83,396	0,107	0,025
-720,050	800,000	0,039	-0,117
-719,035	-150,714	0,042	0,002
-718,021	-200,000	0,012	0,066
-717,006	800,000	-0,028	0,058
-715,991	86,817	-0,119	-0,095
-714,977	667,348	0,061	-0,115
-713,962	-15,646	-0,080	-0,037
-712,948	107,335	-0,117	-0,101
-711,933	94,633	-0,153	-0,126
-710,918	-200,000	0,004	-0,046
-709,904	-130,246	0,076	-0,007
-708,889	-200,000	0,019	-0,094
-707,875	504,611	-0,012	0,021
-706,860	163,252	-0,095	0,097
-705,845	136,132	0,076	0,071
-704,831	516,995	0,021	0,036
-703,816	538,236	-0,060	-0,104
-702,802	36,119	-0,020	-0,013
-701,787	-200,000	0,039	-0,148
-700,772	439,633	-0,095	0,151
-699,758	-200,000	0,121	0,000
-698,743	-106,586	0,118	-0,019
-697,729	487,691	0,010	-0,017
-696,714	246,838	-0,069	0,085
-695,699	43,721	0,079	0,053
-694,685	-30,146	0,151	-0,062
-693,670	136,596	-0,064	0,060
-692,656	-9,236	-0,173	0,083
-691,641	-96,575	0,143	0,027
-690,627	213,843	-0,055	0,063
-689,612	-83,812	0,070	0,016
-688,597	74,243	-0,125	-0,095
-687,583	-22,609	-0,127	0,055
-686,568	114,735	-0,170	-0,150
-685,554	-6,390	0,038	-0,019
-684,539	-35,985	-0,089	0,035
-683,524	-110,536	-0,050	-0,007
-682,510	-2,562	0,098	-0,049
-681,495	-79,950	-0,044	-0,011
-680,481	76,900	-0,056	0,043
-679,466	38,042	-0,063	-0,040
-678,451	-200,000	-0,028	-0,103
-677,437	800,000	0,078	0,231
-676,422	800,000	-0,061	0,130
-675,408	34,637	0,160	-0,101
-674,393	89,347	-0,101	0,081
-673,378	-97,339	-0,112	0,021
-672,364	-61,526	-0,079	0,024
-671,349	800,000	-0,050	-0,107
-670,335	85,297	-0,031	0,024
-669,320	-200,000	-0,022	-0,079
-668,305	800,000	0,092	0,217
-667,291	-32,283	-0,059	0,024
-666,276	306,115	-0,067	-0,090
-665,262	128,772	-0,017	0,016
-664,247	86,450	-0,098	-0,078
-663,232	800,000	0,036	-0,081
-662,218	30,564	-0,070	-0,043
-661,203	-35,945	-0,044	-0,017
-660,189	-49,195	-0,161	0,055
-659,174	12,541	-0,043	-0,024
-658,159	-116,375	-0,126	0,017
-657,145	71,817	-0,089	-0,067
-656,130	-200,000	0,028	-0,171
-655,116	-59,270	-0,080	-0,025
-654,101	-52,156	0,042	0,014
-653,086	-29,297	0,142	-0,059
-652,072	-200,000	0,027	-0,126
-651,057	298,110	-0,059	-0,078
-650,043	-200,000	0,018	-0,113
-649,028	-61,605	-0,083	-0,025
-648,014	-200,000	-0,013	-0,079
-646,999	190,560	-0,115	0,125
-645,984	-104,597	0,042	0,007
-644,970	45,518	0,083	0,056
-643,955	-18,124	-0,027	-0,012
-642,941	180,570	-0,061	0,065
-641,926	669,986	-0,024	-0,044
-640,911	218,213	0,086	-0,099
-639,897	-51,871	0,031	-0,010
-638,882	9,415	-0,083	-0,045
-637,868	-28,172	-0,050	0,021
-636,853	-200,000	-0,001	0,008
-635,838	86,953	-0,127	-0,101
-634,824	-73,375	-0,019	-0,005
-633,809	235,905	-0,094	-0,113
-632,795	-200,000	-0,046	0,228
-631,780	0,693	0,079	0,041
-630,765	-200,000	-0,002	-0,031
-629,751	386,789	-0,046	-0,069
-628,736	295,786	-0,124	-0,164
-627,722	74,551	-0,040	-0,030
-626,707	-119,575	-0,025	0,003
-625,692	233,870	0,086	-0,102
-624,678	800,000	0,035	0,080
-623,663	-36,058	-0,085	-0,033
-622,649	-185,493	-0,098	-0,001
-621,634	116,230	-0,168	-0,148
-620,619	202,854	-0,027	0,030
-619,605	-200,000	0,002	-0,120
-618,590	116,233	0,091	-0,080
-617,576	-21,693	-0,153	-0,067
-616,561	-200,000	-0,018	0,103
-615,546	57,846	-0,084	0,059
-614,532	-200,000	-0,028	-0,173
-613,517	-82,822	-0,128	0,029
-612,503	270,484	0,027	0,034
-611,488	-200,000	0,036	-0,155
-610,474	1,656	-0,027	0,014
-609,459	139,531	-0,004	0,004
-608,444	-48,438	-0,080	-0,028
-607,430	-200,000	0,013	-0,091
-606,415	118,835	-0,053	0,047
-605,401	-200,000	0,017	-0,123
-604,386	800,000	-0,033	0,067
-603,371	150,816	-0,056	-0,055
-602,357	280,560	-0,020	0,026
-601,342	-120,681	0,014	0,002
-600,328	133,172	-0,117	-0,109
-599,313	-13,464	-0,193	-0,090
-598,298	-81,450	0,057	0,013
-597,284	-200,000	-0,025	-0,096
-596,269	114,692	-0,084	0,074
-595,255	800,000	-0,029	0,059
-594,240	92,470	-0,039	0,032
-593,225	800,000	0,060	-0,170
-592,211	188,186	-0,029	-0,031
-591,196	-200,000	-0,018	0,065
-590,182	-114,597	0,037	-0,005
-589,167	114,136	-0,157	0,137
-588,152	800,000	0,008	0,020
-587,138	120,455	0,034	0,031
-586,123	-39,910	-0,089	-0,033
-585,109	234,367	-0,087	-0,104
-584,094	584,879	-0,022	0,040
-583,079	-171,749	-0,224	-0,005
-582,065	-162,481	-0,103	0,004
-581,050	-200,000	0,011	-0,037
-580,036	-200,000	-0,006	0,072
-579,021	-200,000	-0,012	0,107
-578,006	-200,000	0,011	-0,116
-576,992	800,000	0,057	-0,115
-575,977	-200,000	-0,030	0,106
-574,963	398,309	-0,025	0,038
-573,948	134,572	-0,035	0,033
-572,934	151,396	-0,062	0,061
-571,919	800,000	0,046	0,099
-570,904	-57,564	0,028	0,009
-569,890	42,178	-0,102	-0,067
-568,875	56,909	0,061	-0,043
-567,861	-122,181	-0,012	0,001
-566,846	98,857	0,108	-0,090
-565,831	506,243	-0,048	-0,081
-564,817	-194,796	-0,078	-0,000
-563,802	-118,280	-0,120	0,015
-562,788	-200,000	-0,012	0,054
-561,773	-200,000	0,016	-0,103
-560,758	-66,780	0,127	-0,036
-559,744	800,000	0,011	-0,029
-558,729	-116,602	0,144	-0,019
-557,715	153,443	0,040	0,040
-556,700	152,579	0,022	-0,021
-555,685	257,688	0,047	-0,058
-554,671	800,000	0,025	0,072
-553,656	-24,970	-0,051	0,022
-552,642	-200,000	-0,002	0,164
-551,627	-200,000	0,015	0,067
-550,612	-200,000	0,001	-0,102
-549,598	-1,426	0,144	-0,073
-548,583	-96,125	-0,078	-0,015
-547,569	800,000	-0,024	-0,064
-546,554	-200,000	0,007	0,095
-545,539	61,865	0,104	0,074
-544,525	58,992	0,058	-0,041
-543,510	-139,008	0,207	0,016
-542,496	-200,000	-0,023	-0,133
-541,481	457,824	0,044	-0,070
-540,466	43,725	0,040	-0,027
-539,452	-200,000	0,012	-0,103
-538,437	-132,019	0,035	0,003
-537,423	19,688	0,016	0,009
-536,408	244,667	0,126	-0,153
-535,393	94,149	0,125	-0,102
-534,379	-58,100	-0,081	0,025
-533,364	-200,000	0,026	-0,177
-532,350	-55,423	0,066	-0,021
-531,335	-200,000	0,022	0,138
-530,321	680,497	0,059	-0,112
-529,306	-184,080	0,062	-0,001
-528,291	150,087	0,055	-0,054
-527,277	238,500	-0,135	-0,161
-526,262	26,316	0,139	-0,083
-525,248	-90,222	0,062	0,013
-524,233	800,000	-0,025	0,058
-523,218	-200,000	-0,019	0,135
-522,204	-200,000	-0,002	0,144
-521,189	103,530	-0,040	-0,034
-520,175	-35,208	0,062	0,024
-519,160	216,543	0,139	-0,159
-518,145	-144,612	0,058	-0,004
-517,131	-55,002	0,010	-0,003
-516,116	454,222	0,008	-0,013
-515,102	159,486	0,116	0,116
-514,087	-200,000	-0,011	0,104
-513,072	800,000	0,044	-0,104
-512,058	-200,000	0,004	-0,250
-511,043	262,378	0,049	0,061
-510,029	-10,515	-0,047	0,022
-509,014	76,489	0,077	-0,059
-507,999	337,622	-0,069	0,097
-506,985	242,373	-0,062	-0,075
-505,970	-159,395	-0,066	-0,003
-504,956	211,110	-0,028	0,031
-503,941	-27,786	0,152	-0,063
-502,926	108,536	0,097	0,083
-501,912	-200,000	0,011	-0,075
-500,897	560,612	0,060	-0,105
-499,883	-200,000	-0,047	-0,159
-498,868	-200,000	0,005	-0,042
-497,853	5,290	0,021	0,011
-496,839	-58,896	0,195	-0,060
-495,824	2,070	0,053	-0,028
-494,810	-71,442	0,041	0,011
-493,795	-200,000	0,000	0,088
-492,781	800,000	-0,008	0,018
-491,766	554,630	0,021	0,037
-490,751	597,826	-0,070	-0,126
-489,737	-42,092	0,082	-0,030
-488,722	282,907	0,103	0,133
-487,708	59,384	0,091	0,064
-486,693	614,693	-0,035	0,064
-485,678	-152,449	0,102	0,005
-484,664	-9,801	-0,046	-0,022
-483,649	64,222	0,060	-0,043
-482,635	13,460	0,065	0,036
-481,620	625,845	0,076	0,138
-480,605	398,552	0,042	-0,063
-479,591	800,000	0,023	-0,059
-478,576	800,000	-0,016	0,049
-477,562	-23,183	-0,145	0,062
-476,547	-68,040	0,041	0,011
-475,532	43,555	-0,114	-0,074
-474,518	-200,000	0,004	0,054
-473,503	44,053	0,101	0,066
-472,489	-106,197	-0,071	-0,011
-471,474	800,000	-0,081	0,187
-470,459	-27,250	0,089	0,037
-469,445	16,733	-0,129	-0,073
-468,430	800,000	-0,106	-0,244
-467,416	208,343	-0,066	-0,074
-466,401	282,167	0,026	0,034
-465,386	-70,785	0,040	-0,011
-464,372	-200,000	0,034	-0,115
-463,357	38,502	0,016	-0,010
-462,343	689,220	-0,082	0,154
-461,328	492,946	0,108	-0,179
-460,313	800,000	0,006	0,016
-459,299	4,170	-0,123	-0,064
-458,284	338,829	-0,093	0,130
-457,270	800,000	-0,019	-0,047
-456,255	-200,000	-0,000	-0,140
-455,241	479,110	-0,024	-0,039
-454,226	-148,929	0,094	-0,005
-453,211	-83,455	0,207	0,047
-452,197	-124,841	0,129	-0,014
-451,182	-2,202	0,070	0,035
-450,168	122,092	0,082	-0,073
-449,153	622,681	-0,084	-0,152
-448,138	140,598	-0,020	-0,019
-447,124	312,166	0,007	-0,009
-446,109	-200,000	0,036	-0,130
-445,095	429,939	-0,034	-0,054
-444,080	-2,753	0,084	0,042
-443,065	793,506	-0,021	0,041
-442,051	54,691	-0,060	0,042
-441,036	15,825	-0,074	-0,041
-440,022	75,014	-0,147	-0,111
-439,007	800,000	-0,040	0,082
-437,992	-200,000	0,021	-0,093
-436,978	54,369	-0,024	0,016
-435,963	241,925	0,026	0,031
-434,949	-200,000	-0,003	0,123
-433,934	496,275	0,099	0,163
-432,919	136,085	0,048	0,044
-431,905	800,000	0,053	-0,145
-430,890	68,081	-0,028	0,020
-429,876	-114,746	0,108	0,015
-428,861	-200,000	-0,019	0,084
-427,846	23,672	-0,045	-0,026
-426,832	800,000	-0,071	-0,182
-425,817	-46,259	-0,077	0,027
-424,803	288,993	-0,046	-0,060
-423,788	547,756	-0,059	-0,102
-422,773	134,352	0,106	0,099
-421,759	-28,888	-0,039	-0,016
-420,744	-119,230	0,192	-0,024
-419,730	-200,000	-0,043	-0,149
-418,715	-200,000	-0,025	-0,107
-417,701	-200,000	0,025	0,099
-416,686	-200,000	0,030	0,128
-415,671	8,239	-0,083	-0,045
-414,657	206,986	0,060	-0,067
-413,642	-200,000	-0,000	0,013
-412,628	-200,000	0,031	0,152
-411,613	-200,000	0,003	-0,063
-410,598	-48,669	0,011	-0,004
-409,584	357,540	-0,065	0,093
-408,569	-129,039	0,207	-0,021
-407,555	-48,323	-0,154	-0,053
-406,540	282,453	-0,042	0,054
-405,525	-25,014	-0,091	0,038
-404,511	-200,000	-0,001	-0,017
-403,496	800,000	0,045	-0,138
-402,482	-200,000	0,007	0,092
-401,467	415,921	-0,024	0,036
-400,452	122,222	0,137	0,123
-399,438	-200,000	0,004	-0,075
-398,423	-57,789	-0,157	-0,049
-397,409	800,000	-0,030	0,087
-396,394	-143,640	0,060	-0,004
-395,379	-63,915	-0,033	0,010
-394,365	-147,390	0,139	-0,008
-393,350	-200,000	0,002	-0,047
-392,336	-77,381	0,016	0,004
-391,321	-200,000	-0,004	-0,014
-390,306	729,018	-0,087	-0,167
-389,292	-200,000	0,028	-0,121
-388,277	-55,647	0,017	0,005
-387,263	563,953	-0,033	-0,058
-386,248	-10,178	-0,009	0,004
-385,233	71,619	-0,041	-0,030
-384,219	800,000	0,019	0,038
-383,204	-129,110	-0,057	-0,006
-382,190	800,000	-0,030	0,064
-381,175	0,404	-0,090	-0,046
-380,160	-200,000	0,020	0,190
-379,146	607,569	-0,022	0,040
-378,131	-21,509	-0,079	-0,034
-377,117	-41,248	0,013	-0,005
-376,102	520,140	-0,019	-0,031
-375,088	-200,000	0,011	-0,099
-374,073	-29,037	0,056	-0,023
-373,058	800,000	0,048	0,117
-372,044	-8,505	0,048	0,023
-371,029	7,630	0,067	0,036
-370,015	800,000	-0,027	0,070
-369,000	-103,885	0,152	0,025
-367,985	-105,593	-0,050	0,008
-366,971	-71,480	0,087	-0,023
-365,956	-200,000	0,017	0,108
-364,942	-51,563	0,073	0,024
-363,927	800,000	0,056	0,133
-362,912	-200,000	-0,011	0,055
-361,898	800,000	-0,034	-0,082
-360,883	30,696	-0,141	0,086
-359,869	155,946	0,112	-0,111
-358,854	-133,841	0,027	-0,002
-357,839	117,105	0,090	0,079
-356,825	45,502	0,060	0,040
-355,810	439,126	-0,061	-0,095
-354,796	-200,000	0,025	0,181
-353,781	376,058	-0,069	-0,101
-352,766	-140,229	-0,033	-0,002
-351,752	-18,582	0,067	-0,030
-350,737	85,809	0,159	0,124
-349,723	309,767	0,054	0,072
-348,708	-200,000	-0,024	-0,153
-347,693	-200,000	-0,024	0,087
-346,679	216,375	0,005	0,006
-345,664	-26,928	-0,092	-0,038
-344,650	82,855	0,162	0,125
-343,635	-200,000	-0,048	0,160
-342,620	800,000	0,060	0,124
-341,606	-200,000	-0,003	0,138
-340,591	244,909	-0,027	-0,032
-339,577	85,746	-0,088	-0,069
-338,562	-200,000	0,018	-0,164
-337,548	152,743	-0,075	0,073
-336,533	-200,000	0,019	-0,059
-335,518	-53,755	0,068	0,022
-334,504	178,367	-0,108	-0,113
-333,489	-200,000	-0,011	0,053
-332,475	-7,383	-0,082	0,040
-331,460	124,184	-0,088	-0,079
-330,445	-200,000	-0,025	0,098
-329,431	-30,876	-0,135	-0,054
-328,416	-50,669	-0,030	-0,010
-327,402	-200,000	0,021	0,115
-326,387	-10,005	0,065	0,030
-325,372	-8,935	0,082	-0,039
-324,358	-200,000	0,001	-0,029
-323,343	-82,390	-0,119	-0,027
-322,329	456,764	0,025	0,040
-321,314	-149,449	0,041	0,002
-320,299	-127,435	0,090	0,009
-319,285	10,539	0,135	0,073
-318,270	-92,462	-0,076	0,015
-317,256	-200,000	0,014	-0,224
-316,241	-64,643	0,058	0,017
-315,226	286,025	0,041	0,052
-314,212	138,904	0,076	0,071
-313,197	11,742	0,087	0,048
-312,183	-200,000	0,006	0,032
-311,168	-200,000	0,001	-0,036
-310,153	-83,489	0,069	-0,016
-309,139	-175,981	-0,041	-0,001
-308,124	-200,000	-0,058	0,197
-307,110	677,865	0,021	0,040
-306,095	186,142	0,095	0,101
-305,080	-166,656	0,045	-0,001
-304,066	-118,842	-0,103	0,013
-303,051	-134,491	0,079	-0,007
-302,037	-200,000	-0,013	-0,065
-301,022	-163,900	-0,142	-0,005
-300,008	800,000	-0,050	-0,123
-298,993	-157,674	0,086	0,004
-297,978	800,000	0,070	0,196
-296,964	-200,000	-0,025	0,120
-295,949	16,244	-0,047	-0,026
-294,935	-39,029	0,075	-0,028
-293,920	-200,000	-0,008	0,068
-292,905	-200,000	-0,001	0,077
-291,891	800,000	0,022	0,062
-290,876	800,000	0,034	0,085
-289,862	-119,957	-0,072	0,009
-288,847	91,491	0,068	-0,055
-287,832	221,458	-0,019	-0,021
-286,818	676,246	0,025	0,046
-285,803	-200,000	0,007	0,060
-284,789	-81,601	-0,099	0,023
-283,774	119,430	0,038	0,033
-282,759	12,313	0,086	0,047
-281,745	-77,634	-0,080	-0,020
-280,730	-200,000	0,016	0,092
-279,716	273,856	-0,055	0,069
-278,701	-145,879	0,085	0,005
-277,686	1,830	0,180	0,092
-276,672	-200,000	0,005	-0,030
-275,657	-10,832	-0,031	0,015
-274,643	-60,373	-0,092	-0,028
-273,628	25,851	-0,094	-0,056
-272,613	-26,196	0,012	0,005
-271,599	427,006	0,019	-0,030
-270,584	12,854	0,069	0,038
-269,570	178,386	0,056	0,058
-268,555	800,000	0,027	-0,069
-267,540	26,271	-0,144	-0,085
-266,526	174,911	-0,011	-0,011
-265,511	219,171	-0,071	0,081
-264,497	800,000	0,018	0,051
-263,482	800,000	0,048	0,100
-262,467	119,260	0,057	0,050
-261,453	234,445	-0,058	-0,068
-260,438	-17,779	-0,103	0,046
-259,424	-200,000	0,003	0,134
-258,409	-76,230	0,064	-0,016
-257,395	-120,275	-0,066	0,008
-256,380	272,890	-0,093	0,118
-255,365	-193,604	-0,096	0,001
-254,351	-200,000	-0,021	0,162
-253,336	800,000	0,041	0,127
-252,322	800,000	0,025	0,051
-251,307	-200,000	0,013	-0,147
-250,292	17,405	-0,097	-0,055
-249,278	131,001	0,159	0,145
-248,263	-22,207	-0,096	0,041
-247,249	-200,000	-0,015	0,063
-246,234	-200,000	0,000	-0,194
-245,219	-84,996	0,142	-0,031
-244,205	800,000	0,009	0,022
-243,190	-139,531	0,119	0,009
-242,176	54,113	-0,032	0,022
-241,161	202,770	0,083	-0,091
-240,146	-118,252	0,037	0,005
-239,132	433,366	-0,072	0,111
-238,117	147,924	-0,084	-0,081
-237,103	-200,000	-0,021	-0,123
-236,088	372,928	0,049	-0,071
-235,073	-200,000	-0,003	0,027
-234,059	537,086	0,029	-0,049
-233,044	800,000	0,045	-0,090
-232,030	12,240	0,132	-0,072
-231,015	-200,000	0,022	-0,079
-230,000	800,000	-0,021	0,043
-228,986	36,783	-0,060	-0,037
-227,971	586,387	0,042	-0,074
-226,957	-200,000	0,038	0,127
-225,942	317,197	0,025	0,033
-224,927	-200,000	0,033	0,146
-223,913	-200,000	-0,028	-0,097
-222,898	800,000	-0,059	-0,156
-221,884	87,813	-0,133	0,104
-220,869	-151,058	0,195	-0,010
-219,855	800,000	-0,037	0,073
-218,840	-200,000	0,002	-0,009
-217,825	-200,000	0,002	-0,015
-216,811	-200,000	-0,010	-0,036
-215,796	-24,733	-0,073	-0,031
-214,782	-116,776	-0,129	-0,017
-213,767	-200,000	0,020	0,074
-212,752	180,589	-0,083	0,087
-211,738	800,000	0,040	0,099
-210,723	44,577	0,106	-0,069
-209,709	322,396	-0,044	-0,060
-208,694	47,222	-0,049	-0,032
-207,679	-200,000	0,004	0,025
-206,665	-200,000	0,002	-0,142
-205,650	495,369	0,055	0,090
-204,636	35,020	0,047	0,029
-203,621	800,000	0,060	0,124
-202,606	31,473	-0,217	0,132
-201,592	-200,000	-0,016	0,110
-200,577	293,836	0,021	0,027
-199,563	60,354	0,028	-0,020
-198,548	-200,000	-0,025	0,103
-197,533	-200,000	-0,014	0,060
-196,519	64,322	-0,064	0,045
-195,504	24,358	0,042	-0,025
-194,490	-113,102	-0,107	-0,015
-193,475	441,851	0,076	-0,119
-192,460	-129,958	-0,184	0,018
-191,446	800,000	0,061	0,168
-190,431	359,464	0,028	0,040
-189,417	499,602	0,047	0,076
-188,402	-144,428	-0,118	-0,008
-187,387	238,642	-0,108	0,128
-186,373	-200,000	0,001	-0,121
-185,358	432,211	-0,045	-0,070
-184,344	800,000	-0,048	0,134
-183,329	800,000	0,044	0,099
-182,315	-9,779	0,075	-0,035
-181,300	-31,700	0,157	-0,062
-180,285	228,333	0,023	-0,027
-179,271	426,549	-0,073	-0,112
-178,256	-200,000	0,005	-0,017
-177,242	78,531	0,023	-0,017
-176,227	-66,101	0,021	-0,006
-175,212	-89,658	-0,031	-0,006
-174,198	-59,588	0,125	0,038
-173,183	-200,000	0,007	0,022
-172,169	233,258	-0,057	-0,067
-171,154	-200,000	0,019	0,068
-170,139	11,257	0,150	0,081
-169,125	80,616	-0,100	0,077
-168,110	72,991	0,014	-0,010
-167,096	311,343	-0,078	0,104
-166,081	-94,864	-0,021	0,004
-165,066	800,000	-0,071	0,156
-164,052	-200,000	-0,001	-0,117
-163,037	-200,000	-0,004	-0,012
-162,023	-162,450	0,115	-0,004
-161,008	275,250	0,076	0,096
-159,993	-100,095	-0,200	0,035
-158,979	800,000	0,020	0,042
-157,964	-142,401	-0,127	-0,009
-156,950	141,525	-0,164	-0,154
-155,935	251,345	0,123	-0,148
-154,920	-200,000	0,009	-0,100
-153,906	-200,000	0,000	0,027
-152,891	-52,465	-0,089	0,029
-151,877	800,000	-0,037	-0,103
-150,862	99,269	0,083	0,068
-149,847	-200,000	0,002	-0,145
-148,833	-92,800	-0,145	-0,028
-147,818	-15,855	0,008	-0,004
-146,804	-200,000	0,004	-0,015
-145,789	118,286	-0,087	0,076
-144,775	-200,000	0,007	0,041
-143,760	360,634	-0,058	-0,082
-142,745	-11,665	-0,062	-0,029
-141,731	800,000	0,040	-0,097
-140,716	-200,000	0,003	-0,040
-139,702	-108,966	0,228	0,034
-138,687	18,965	0,091	0,052
-137,672	800,000	0,046	-0,143
-136,658	313,201	0,033	-0,044
-135,643	-200,000	-0,003	-0,080
-134,629	53,276	-0,055	-0,037
-133,614	-200,000	-0,026	0,173
-132,599	35,058	-0,073	-0,045
-131,585	-200,000	0,009	0,032
-130,570	800,000	0,076	-0,163
-129,556	800,000	-0,046	0,127
-128,541	-107,581	0,085	0,013
-127,526	562,187	-0,024	0,042
-126,512	800,000	0,032	0,084
-125,497	800,000	0,007	0,020
-124,483	800,000	0,056	0,163
-123,468	-27,764	-0,120	0,049
-122,453	-200,000	0,002	-0,174
-121,439	38,169	0,042	0,026
-120,424	51,324	-0,152	0,102
-119,410	-200,000	-0,051	0,170
-118,395	-200,000	-0,004	0,105
-117,380	134,269	0,069	0,064
-116,366	-76,793	0,119	-0,029
-115,351	-68,476	-0,144	-0,039
-114,337	-116,270	-0,139	-0,018
-113,322	-200,000	-0,013	0,079
-112,307	-200,000	0,034	-0,128
-111,293	653,361	-0,021	0,038
-110,278	-200,000	-0,011	0,125
-109,264	800,000	0,028	0,061
-108,249	-200,000	-0,018	-0,103
-107,234	-157,166	-0,026	0,001
-106,220	-117,079	-0,141	-0,018
-105,205	706,845	0,020	0,037
-104,191	-200,000	-0,016	0,105
-103,176	547,043	-0,033	0,056
-102,162	68,309	-0,157	0,114
-101,147	232,740	-0,076	-0,088
-100,132	603,615	-0,044	-0,078
-99,118	67,002	-0,034	0,024
-98,103	341,709	0,051	0,071
-97,089	800,000	-0,018	-0,049
-96,074	800,000	0,044	0,092
-95,059	217,840	0,063	0,072
-94,045	335,328	0,011	-0,015
-93,030	-53,014	-0,165	-0,053
-92,016	-76,375	-0,075	0,018
-91,001	-200,000	0,012	0,041
-89,986	206,849	-0,075	0,082
-88,972	-200,000	0,000	-0,010
-87,957	37,886	0,118	-0,074
-86,943	71,225	-0,076	0,056
-85,928	-200,000	0,019	0,163
-84,913	-47,205	0,122	-0,042
-83,899	800,000	0,057	0,121
-82,884	701,488	0,043	0,081
-81,870	163,048	0,003	0,002
-80,855	421,355	-0,095	0,144
-79,840	339,641	0,033	0,045
-78,826	-200,000	-0,006	-0,058
-77,811	38,338	-0,102	0,064
-76,797	800,000	-0,038	-0,080
-75,782	800,000	0,061	-0,145
-74,767	527,259	0,037	0,061
-73,753	44,650	0,034	-0,022
-72,738	-71,651	-0,124	-0,032
-71,724	250,327	-0,026	-0,031
-70,709	800,000	-0,051	-0,121
-69,694	40,549	-0,075	-0,048
-68,680	-5,329	-0,059	0,029
-67,665	-22,274	0,056	0,024
-66,651	-24,673	-0,070	0,029
-65,636	-132,869	-0,141	-0,013
-64,622	765,507	0,042	-0,081
-63,607	209,793	0,089	-0,099
-62,592	800,000	-0,073	0,205
-61,578	-200,000	0,007	0,115
-60,563	-108,783	-0,132	0,020
-59,549	11,390	0,126	0,068
-58,534	52,582	-1,777	-1,196
-57,519	478,122	-1,244	-1,995
-56,505	-200,000	-0,371	-4,414
-55,490	401,043	0,971	1,443
-54,476	800,000	5,061	11,225
-53,461	-200,000	21,394	340,994
-52,446	800,000	760,064	2361,066
-51,432	560,186	1662,891	2846,379
-50,417	73,676	1661,818	1227,618
-49,403	18,050	1535,145	861,403
-48,388	11,959	1458,789	789,091
-47,373	19,486	1449,782	820,310
-46,359	15,488	1438,960	795,144
-45,344	10,254	1434,847	767,917
-44,330	10,192	1433,063	766,633
-43,315	10,169	1431,186	765,490
-42,300	10,150	1429,571	764,507
-41,286	10,252	1428,100	764,177
-40,271	10,148	1427,210	763,176
-39,257	10,160	1425,957	762,529
-38,242	10,250	1424,607	762,207
-37,227	10,202	1423,558	761,388
-36,213	10,221	1422,364	760,806
-35,198	10,209	1421,229	760,115
-34,184	10,199	1420,317	759,547
-33,169	10,145	1418,976	758,548
-32,154	10,238	1417,798	758,325
-31,140	10,260	1416,477	757,693
-30,125	10,234	1415,705	757,128
-29,111	10,220	1414,442	756,357
-28,096	10,221	1413,207	755,669
-27,082	10,151	1411,929	754,629
-26,067	10,130	1411,113	754,064
-25,052	10,150	1409,979	753,522
-24,038	10,191	1408,858	753,084
-23,023	10,192	1407,996	752,597
-22,009	10,204	1407,044	752,116
-20,994	10,148	1406,014	751,271
-19,979	10,130	1405,054	750,645
-18,965	10,137	1404,015	750,095
-17,950	10,146	1403,223	749,682
-16,936	10,152	1402,235	749,151
-15,921	10,052	1401,366	748,191
-14,906	10,076	1400,600	747,868
-13,892	10,120	1399,464	747,436
-12,877	10,068	1398,744	746,779
-11,863	10,067	1398,002	746,347
-10,848	10,052	1396,937	745,679
-9,833	10,015	1396,302	745,141
-8,819	9,972	1395,367	744,411
-7,804	9,971	1394,439	743,883
-6,790	9,956	1393,445	743,254
-5,775	9,970	1392,330	742,696
-4,760	9,998	1391,227	742,204
-3,746	9,977	1390,391	741,632
-2,731	10,008	1389,477	741,261
-1,717	9,957	1388,687	740,574
-0,702	9,941	1386,766	739,445
0,313	14,081	1299,693	711,931
1,327	30,383	690,208	415,027
2,342	46,777	119,644	78,261
3,356	0,896	16,455	8,289
4,371	4,696	3,497	1,806
5,386	9,791	1,199	0,639
6,400	-200,000	0,152	0,529
7,415	-196,312	-0,252	-0,001
8,429	104,293	-0,264	-0,219
9,444	56,475	-0,275	-0,188
10,459	92,908	-0,355	-0,283
11,473	-36,120	-0,405	-0,153
12,488	104,938	-0,194	-0,161
13,502	-51,311	-0,327	-0,107
14,517	-115,911	-0,410	-0,053
15,531	37,642	-0,373	-0,233
16,546	59,314	-0,443	-0,307
17,561	-17,373	-0,452	-0,200
18,575	-19,373	-0,107	-0,047
19,590	63,462	-0,204	-0,144
20,604	119,089	-0,261	-0,227
21,619	127,742	-0,423	-0,379
22,634	153,659	-0,386	-0,372
23,648	42,827	-0,378	-0,242
24,663	48,737	-0,435	-0,287
25,677	47,600	-0,331	-0,217
26,692	67,830	-0,232	-0,167
27,707	147,307	-0,356	-0,338
28,721	173,096	-0,371	-0,377
29,736	76,154	-0,357	-0,266
30,750	725,699	-0,250	-0,471
31,765	93,757	-0,289	-0,230
32,780	-40,487	-0,372	-0,135
33,794	29,491	-0,357	-0,213
34,809	-20,416	-0,470	-0,202
35,823	28,692	-0,352	-0,209
36,838	186,437	-0,403	-0,422
37,853	262,222	-0,294	-0,359
38,867	98,976	-0,397	-0,322
39,882	114,876	-0,302	-0,259
40,896	62,441	-0,283	-0,198
41,911	97,935	-0,282	-0,228
42,926	40,755	-0,289	-0,183
43,940	104,580	-0,299	-0,247
44,955	53,628	-0,340	-0,229
45,969	152,676	-0,345	-0,331
46,984	574,070	-0,218	-0,375
47,999	67,410	-0,356	-0,255
49,013	15,259	-0,380	-0,209
50,028	-26,490	-0,326	-0,133
51,042	315,026	-0,250	-0,332
52,057	241,116	-0,264	-0,310
53,071	162,382	-0,326	-0,322
54,086	175,630	-0,211	-0,215
55,101	102,314	-0,389	-0,319
56,115	96,165	-0,357	-0,286
57,130	-36,041	-0,440	-0,166
58,144	-104,704	-0,296	-0,047
59,159	33,878	-0,499	-0,304
60,174	-1,654	-0,210	-0,104
61,188	110,072	-0,344	-0,290
62,203	40,854	-0,303	-0,191
63,217	-24,572	-0,335	-0,139
64,232	145,673	-0,261	-0,245
65,247	24,020	-0,305	-0,176
66,261	54,875	-0,378	-0,256
67,276	147,580	-0,337	-0,319
68,290	118,730	-0,226	-0,196
69,305	-122,096	-0,190	-0,022
70,320	266,694	-0,255	-0,313
71,334	33,133	-0,274	-0,166
72,349	-103,694	-0,224	-0,036
73,363	-42,307	-0,400	-0,142
74,378	199,011	-0,296	-0,318
75,393	24,363	-0,227	-0,131
76,407	586,438	-0,172	-0,297
77,422	282,577	-0,158	-0,198
78,436	22,903	-0,298	-0,171
79,451	370,645	-0,153	-0,218
80,466	22,330	-0,323	-0,185
81,480	17,986	-0,410	-0,228
82,495	-38,102	-0,305	-0,113
83,509	-96,443	-0,288	-0,053
84,524	317,127	-0,157	-0,208
85,539	-43,762	-0,452	-0,158
86,553	-124,992	-0,277	-0,029
87,568	-54,393	-0,217	-0,068
88,582	93,628	-0,367	-0,290
89,597	2,561	-0,261	-0,132
90,611	239,289	-0,140	-0,164
91,626	217,359	-0,100	-0,111
92,641	-140,038	-0,210	-0,015
93,655	48,733	-0,329	-0,215
94,670	-57,263	-0,346	-0,106
95,684	54,019	-0,373	-0,250
96,699	202,865	-0,273	-0,295
97,714	162,613	-0,228	-0,224
98,728	-33,495	-0,266	-0,102
99,743	63,239	-0,297	-0,208
100,757	-71,817	-0,159	-0,041
101,772	-27,606	-0,340	-0,138
102,787	108,950	-0,200	-0,167
103,801	24,176	-0,283	-0,163
104,816	156,447	-0,168	-0,162
105,830	204,282	-0,137	-0,149
106,845	56,185	-0,234	-0,159
107,860	18,964	-0,175	-0,097
108,874	-35,700	-0,236	-0,089
109,889	67,213	-0,257	-0,183
110,903	-30,042	-0,360	-0,143
111,918	-0,129	-0,339	-0,168
112,933	-72,940	-0,403	-0,103
113,947	-108,748	-0,116	-0,017
114,962	800,000	-0,148	-0,297
115,976	-87,945	-0,317	-0,066
116,991	184,021	-0,263	-0,272
118,006	247,160	-0,204	-0,241
119,020	154,722	-0,165	-0,158
120,035	99,325	-0,310	-0,250
121,049	-148,049	-0,178	0,010
122,064	-116,051	-0,219	-0,028
123,079	317,806	-0,156	-0,207
124,093	118,401	-0,283	-0,244
125,108	-32,733	-0,265	-0,102
126,122	83,881	-0,263	-0,200
127,137	338,403	-0,240	-0,327
128,151	-60,088	-0,246	-0,073
129,166	-28,146	-0,281	-0,113
130,181	-46,418	-0,233	-0,079
131,195	39,449	-0,350	-0,218
132,210	630,546	-0,154	-0,272
133,224	-32,368	-0,321	-0,124
134,239	-9,669	-0,171	-0,079
135,254	-31,040	-0,320	-0,125
136,268	67,079	-0,249	-0,177
137,283	149,878	-0,272	-0,257
138,297	126,851	-0,295	-0,261
139,312	12,094	-0,332	-0,178
140,327	57,110	-0,187	-0,127
141,341	-43,333	-0,354	-0,124
142,356	10,137	-0,299	-0,158
143,370	800,000	-0,090	-0,187
144,385	95,302	-0,156	-0,124
145,400	103,286	-0,252	-0,206
146,414	8,612	-0,196	-0,103
147,429	230,599	-0,254	-0,290
148,443	800,000	-0,106	-0,232
149,458	82,871	-0,186	-0,140
150,473	35,716	-0,188	-0,115
151,487	5,545	-0,255	-0,131
152,502	101,275	-0,252	-0,204
153,516	521,620	-0,157	-0,258
154,531	167,151	-0,243	-0,241
155,546	-131,056	-0,246	-0,023
156,560	-200,000	-0,017	-0,196
157,575	12,283	-0,253	-0,135
158,589	-129,401	-0,215	-0,020
159,604	56,768	-0,266	-0,180
160,619	42,173	-0,355	-0,224
161,633	27,810	-0,247	-0,144
162,648	128,804	-0,238	-0,211
163,662	39,439	-0,143	-0,089
164,677	51,095	-0,201	-0,132
165,692	2,474	-0,245	-0,123
166,706	53,850	-0,216	-0,144
167,721	77,454	-0,303	-0,224
168,735	-1,101	-0,206	-0,101
169,750	-161,532	-0,262	0,009
170,764	447,100	-0,128	-0,197
171,779	-110,922	-0,264	-0,037
172,794	288,391	-0,156	-0,196
173,808	-120,373	-0,231	0,027
174,823	-31,987	-0,316	-0,122
175,837	598,877	-0,213	-0,369
176,852	323,719	-0,188	-0,249
177,867	-2,279	-0,258	-0,125
178,881	28,315	-0,151	-0,088
179,896	-1,956	-0,180	-0,087
180,910	160,854	-0,198	-0,192
181,925	349,919	-0,182	-0,250
182,940	108,451	-0,265	-0,220
183,954	104,081	-0,199	-0,162
184,969	225,717	-0,183	-0,206
185,983	667,148	-0,158	-0,285
186,998	134,230	-0,136	-0,122
188,013	320,808	-0,216	-0,286
189,027	522,446	-0,203	-0,333
190,042	237,789	-0,201	-0,231
191,056	-46,196	-0,094	-0,032
192,071	800,000	-0,135	-0,274
193,086	181,555	-0,279	-0,285
194,100	800,000	-0,090	-0,205
195,115	54,293	-0,211	-0,141
196,129	103,324	-0,141	-0,114
197,144	283,663	-0,215	-0,268
198,159	148,283	-0,140	-0,132
199,173	49,696	-0,226	-0,147
200,188	-13,906	-0,310	-0,138
201,202	-200,000	-0,163	0,000
202,217	800,000	-0,032	-0,061
203,232	188,269	-0,180	-0,187
204,246	466,687	-0,140	-0,218
205,261	13,603	-0,331	-0,177
206,275	14,919	-0,213	-0,115
207,290	-19,219	-0,179	-0,077
208,304	50,408	-0,279	-0,182
209,319	774,372	-0,065	-0,123
210,334	135,703	-0,164	-0,148
211,348	373,545	-0,161	-0,228
212,363	247,375	-0,217	-0,255
213,377	244,016	-0,182	-0,212
214,392	-178,131	-0,121	-0,002
215,407	57,928	-0,244	-0,165
216,421	-200,000	-0,038	-0,130
217,436	-92,517	-0,245	-0,047
218,450	269,279	-0,159	-0,193
219,465	-1,482	-0,172	-0,084
220,480	-194,878	-0,290	-0,002
221,494	-4,180	-0,151	-0,072
222,509	93,205	-0,123	-0,096
223,523	-51,647	-0,218	-0,070
224,538	169,949	-0,139	-0,137
225,553	-101,757	-0,088	0,015
226,567	72,301	-0,353	-0,254
227,582	221,406	-0,240	-0,266
228,596	120,014	-0,208	-0,179
229,611	13,207	-0,201	-0,107
230,626	95,686	-0,242	-0,191
231,640	118,240	-0,181	-0,154
232,655	15,418	-0,226	-0,122
233,669	166,030	-0,183	-0,179
234,684	154,143	-0,286	-0,271
235,699	34,912	-0,247	-0,149
236,713	-200,000	-0,037	-0,186
237,728	82,899	-0,170	-0,128
238,742	11,313	-0,296	-0,156
239,757	140,142	-0,229	-0,208
240,772	-12,857	-0,291	-0,131
241,786	800,000	-0,132	-0,259
242,801	40,849	-0,107	-0,067
243,815	51,653	-0,101	-0,066
244,830	-11,879	-0,187	-0,084
245,844	398,301	-0,075	-0,109
246,859	-45,299	-0,257	-0,088
247,874	207,021	-0,288	-0,311
248,888	212,140	-0,161	-0,175
249,903	50,358	-0,209	-0,136
250,917	142,925	-0,212	-0,194
251,932	18,614	-0,119	-0,065
252,947	452,261	-0,122	-0,186
253,961	317,370	-0,142	-0,185
254,976	800,000	-0,056	-0,124
255,990	-34,889	-0,132	-0,050
257,005	393,055	-0,167	-0,240
258,020	-75,348	-0,210	-0,051
259,034	56,913	-0,093	-0,063
260,049	-65,012	-0,244	-0,067
261,063	550,560	-0,169	-0,281
262,078	99,172	-0,214	-0,170
263,093	26,173	-0,289	-0,166
264,107	54,583	-0,208	-0,138
265,122	212,332	-0,136	-0,148
266,136	8,296	-0,085	-0,044
267,151	778,258	-0,113	-0,213
268,166	525,553	-0,125	-0,203
269,180	-200,000	-0,015	-0,183
270,195	-2,557	-0,126	-0,061
271,209	54,695	-0,173	-0,115
272,224	149,494	-0,175	-0,163
273,239	-160,822	-0,145	-0,005
274,253	-200,000	-0,065	-0,204
275,268	-32,990	-0,177	0,067
276,282	8,017	-0,191	-0,099
277,297	374,452	-0,224	-0,315
278,312	163,356	-0,169	-0,164
279,326	6,980	-0,149	-0,076
280,341	-1,142	-0,176	-0,085
281,355	800,000	-0,076	-0,168
282,370	-33,720	-0,104	0,039
283,384	-100,430	-0,304	-0,051
284,399	52,761	-0,196	-0,129
285,414	800,000	-0,071	-0,169
286,428	130,924	-0,084	-0,074
287,443	-71,944	-0,042	0,011
288,457	-103,919	-0,282	-0,045
289,472	106,072	-0,126	-0,103
290,487	51,819	-0,161	-0,105
291,501	42,608	-0,161	-0,101
292,516	70,655	-0,308	-0,219
293,530	137,287	-0,183	-0,164
294,545	62,476	-0,050	0,034
295,560	139,093	-0,162	-0,147
296,574	667,689	-0,047	-0,084
297,589	-87,642	-0,156	-0,032
298,603	57,828	-0,140	-0,094
299,618	492,424	-0,102	-0,161
300,633	800,000	-0,082	-0,190
301,647	13,061	-0,087	-0,046
302,662	137,638	-0,075	0,068
303,676	800,000	-0,070	-0,138
304,691	52,380	-0,275	-0,180
305,706	198,810	-0,222	-0,234
306,720	66,092	-0,101	-0,070
307,735	-10,251	-0,143	-0,065
308,749	13,507	-0,086	-0,046
309,764	800,000	-0,075	-0,189
310,779	147,352	-0,082	0,076
311,793	237,277	-0,161	-0,183
312,808	-89,152	-0,153	-0,031
313,822	66,808	-0,242	-0,169
314,837	-20,023	-0,202	-0,085
315,852	-142,818	-0,122	0,008
316,866	-200,000	-0,055	-0,191
317,881	98,431	-0,059	-0,047
318,895	68,553	-0,105	-0,074
319,910	131,246	-0,085	-0,075
320,925	458,405	-0,089	-0,136
321,939	-71,262	-0,115	-0,029
322,954	308,927	-0,022	0,028
323,968	-129,827	-0,040	0,004
324,983	-200,000	-0,055	-0,200
325,997	79,670	-0,211	-0,155
327,012	199,450	-0,229	-0,241
328,027	85,041	-0,115	-0,086
329,041	236,775	-0,158	-0,180
330,056	-124,578	-0,163	-0,017
331,070	-112,482	-0,200	0,027
332,085	-1,777	-0,103	0,050
333,100	-22,202	-0,148	-0,061
334,114	-22,661	-0,212	-0,087
335,129	105,085	-0,184	-0,148
336,143	68,544	-0,142	-0,100
337,158	-200,000	-0,024	-0,146
338,173	-146,138	-0,027	0,002
339,187	102,510	-0,060	0,048
340,202	236,391	-0,118	-0,134
341,216	372,022	-0,141	-0,197
342,231	-104,316	-0,182	0,029
343,246	54,912	-0,169	-0,111
344,260	188,117	-0,085	-0,087
345,275	-200,000	0,004	-0,209
346,289	110,100	-0,139	-0,114
347,304	-111,654	-0,247	-0,034
348,319	213,815	-0,115	-0,124
349,333	48,796	-0,216	-0,138
350,348	238,969	-0,153	-0,174
351,362	-200,000	-0,023	-0,128
352,377	177,404	-0,156	-0,155
353,392	-200,000	0,004	-0,192
354,406	9,729	-0,108	-0,056
355,421	208,065	1310,710	1402,170
356,435	160,085	1470,914	1402,646
