DTS Sentinel unit serial number:	SN410029Multiplexer serial number:	ORYXHardware model number:	OX2-SRSoftware version number:	ORYX F/W v4,00 Oryx Data Collector v3.7.2.0data status	okinstallation	B3 Nyhavnadifferential loss correction	single-endedforward channel	channel 1reverse channel	N/Adate	2023/12/01time	19:02:30forward acquisition time	300,00reverse acquisition time	0,00gamma	499,1914k internal	0,3201k external	0,3201temperature offset calibration	1,0000default loss term (dB/km)	0,3820temperature slope calibration	1,0000multiplexer offset coefficient	1,0000multiplexer slope coefficient	1,0000fibre end	0,00T internal ref (°C)	15,22T ext. ref 1 (°C)	1,13T ext. ref 2 (°C)	1,11length (m)	temperature (°C)	Stokes	anti-Stokes-744,400	117,999	-0,300	-0,269
-743,385	-200,000	0,032	0,174
-742,371	120,243	-0,247	-0,223
-741,356	-200,000	-0,017	0,364
-740,342	-200,000	-0,037	-0,186
-739,327	-200,000	-0,042	0,279
-738,312	48,989	-0,281	-0,192
-737,298	-200,000	0,025	0,191
-736,283	297,676	-0,214	-0,287
-735,269	800,000	0,122	0,315
-734,254	241,083	-0,150	-0,182
-733,239	135,165	-0,207	0,195
-732,225	-200,000	-0,035	-0,233
-731,210	-80,612	0,041	0,010
-730,196	39,774	0,075	0,049
-729,181	445,502	-0,051	-0,082
-728,167	-96,669	-0,059	0,011
-727,152	10,916	-0,180	0,099
-726,137	-200,000	0,001	-0,015
-725,123	-87,608	-0,218	-0,047
-724,108	800,000	0,008	-0,024
-723,094	-200,000	-0,010	-0,113
-722,079	-200,000	0,007	-0,093
-721,064	-200,000	-0,043	-0,157
-720,050	111,423	-0,046	-0,040
-719,035	0,699	-0,010	-0,005
-718,021	800,000	-0,058	-0,119
-717,006	-200,000	-0,003	-0,118
-715,991	-200,000	-0,018	-0,177
-714,977	-200,000	0,017	-0,102
-713,962	-64,303	-0,037	-0,011
-712,948	-200,000	-0,028	-0,107
-711,933	-131,030	-0,190	-0,018
-710,918	188,173	0,100	-0,109
-709,904	800,000	-0,047	-0,111
-708,889	557,947	-0,076	0,133
-707,875	-200,000	-0,007	0,077
-706,860	800,000	0,060	-0,125
-705,845	-5,904	-0,094	0,046
-704,831	-39,795	-0,068	0,026
-703,816	-200,000	-0,007	0,023
-702,802	139,599	0,059	-0,056
-701,787	506,351	-0,081	-0,137
-700,772	218,577	-0,016	-0,019
-699,758	147,435	0,104	0,102
-698,743	35,168	0,144	0,092
-697,729	176,157	-0,081	0,085
-696,714	-164,922	-0,207	-0,007
-695,699	-200,000	-0,003	-0,036
-694,685	57,268	-0,089	-0,063
-693,670	84,089	0,185	0,146
-692,656	-62,492	0,014	-0,004
-691,641	-63,384	0,099	-0,029
-690,627	418,496	-0,088	0,137
-689,612	771,254	-0,035	-0,069
-688,597	-93,361	-0,090	-0,018
-687,583	-200,000	-0,060	-0,236
-686,568	-200,000	-0,046	-0,183
-685,554	-137,308	-0,022	-0,002
-684,539	-200,000	-0,016	0,075
-683,524	-200,000	-0,002	0,083
-682,510	-200,000	-0,019	-0,083
-681,495	-200,000	0,038	-0,151
-680,481	-133,698	0,122	-0,011
-679,466	-164,673	-0,119	0,004
-678,451	-200,000	0,005	-0,101
-677,437	-34,418	-0,111	-0,044
-676,422	-88,763	-0,044	0,009
-675,408	800,000	0,050	-0,115
-674,393	-200,000	0,007	0,032
-673,378	78,280	-0,222	0,172
-672,364	-111,386	-0,061	-0,009
-671,349	800,000	0,064	-0,135
-670,335	11,992	0,079	-0,044
-669,320	-39,522	0,066	-0,025
-668,305	-47,193	-0,035	0,012
-667,291	-71,053	0,116	-0,031
-666,276	395,617	0,027	0,040
-665,262	744,187	0,053	-0,104
-664,247	240,451	-0,084	-0,102
-663,232	-128,570	0,138	0,014
-662,218	-68,376	0,141	0,039
-661,203	376,152	-0,081	0,120
-660,189	-200,000	-0,032	0,131
-659,174	800,000	0,009	-0,024
-658,159	-139,893	-0,174	0,013
-657,145	216,472	-0,012	-0,014
-656,130	277,332	0,026	-0,033
-655,116	280,109	-0,063	-0,082
-654,101	53,903	-0,082	0,057
-653,086	800,000	0,068	-0,139
-652,072	-178,023	0,083	-0,001
-651,057	-2,671	-0,218	0,110
-650,043	-11,443	-0,108	-0,051
-649,028	-55,264	0,071	0,023
-648,014	93,761	-0,052	-0,043
-646,999	-73,330	0,110	0,029
-645,984	-200,000	-0,037	0,129
-644,970	-43,797	-0,184	-0,067
-643,955	-58,833	0,067	-0,021
-642,941	-90,466	-0,120	0,025
-641,926	724,554	0,116	-0,225
-640,911	-200,000	0,035	-0,118
-639,897	-103,113	-0,103	0,018
-638,882	800,000	-0,078	0,164
-637,868	-41,620	-0,088	-0,032
-636,853	800,000	-0,023	0,065
-635,838	-175,064	-0,094	0,002
-634,824	-140,130	-0,089	-0,007
-633,809	-29,109	0,038	0,016
-632,795	800,000	0,034	0,095
-631,780	-59,496	-0,142	-0,044
-630,765	-200,000	0,007	0,077
-629,751	-200,000	0,000	-0,088
-628,736	671,082	0,030	0,056
-627,722	283,515	-0,081	0,106
-626,707	800,000	-0,037	0,088
-625,692	-150,774	0,048	0,003
-624,678	18,022	0,062	-0,036
-623,663	-157,126	0,105	-0,005
-622,649	36,995	-0,057	0,037
-621,634	16,193	0,031	0,018
-620,619	800,000	-0,015	0,037
-619,605	-200,000	0,010	-0,189
-618,590	-200,000	0,019	-0,091
-617,576	192,178	0,059	0,064
-616,561	-99,120	-0,054	0,010
-615,546	-57,957	-0,069	-0,022
-614,532	-200,000	-0,019	-0,080
-613,517	-200,000	0,011	-0,058
-612,503	53,955	-0,057	0,040
-611,488	-200,000	0,006	-0,041
-610,474	-66,399	-0,134	0,038
-609,459	522,094	0,022	0,038
-608,444	-69,702	-0,058	-0,016
-607,430	444,453	0,036	-0,058
-606,415	634,349	-0,053	-0,098
-605,401	-83,676	0,035	-0,008
-604,386	247,636	-0,007	0,009
-603,371	-52,988	0,104	0,034
-602,357	59,760	0,039	-0,028
-601,342	382,255	-0,083	0,123
-600,328	800,000	-0,035	-0,108
-599,313	260,876	-0,071	0,089
-598,298	-137,179	-0,111	0,009
-597,284	-122,910	0,084	0,010
-596,269	800,000	-0,055	-0,131
-595,255	800,000	-0,052	-0,111
-594,240	800,000	0,053	-0,131
-593,225	-0,249	-0,104	-0,053
-592,211	-200,000	-0,030	0,144
-591,196	-200,000	0,002	-0,054
-590,182	26,997	-0,045	-0,027
-589,167	800,000	-0,019	0,048
-588,152	177,553	-0,068	0,072
-587,138	-82,664	0,100	0,023
-586,123	1,055	0,136	0,070
-585,109	18,834	-0,024	0,014
-584,094	240,418	-0,042	0,051
-583,079	-52,775	0,031	-0,010
-582,065	-25,167	0,117	0,050
-581,050	-179,945	-0,057	-0,001
-580,036	1,694	-0,104	-0,054
-579,021	-120,116	0,057	0,007
-578,006	800,000	-0,076	-0,189
-576,992	800,000	-0,086	-0,203
-575,977	524,219	0,038	-0,064
-574,963	279,794	0,087	0,113
-573,948	196,610	0,036	0,040
-572,934	231,880	0,041	-0,049
-571,919	-58,886	-0,096	-0,030
-570,904	60,608	-0,065	-0,047
-569,890	800,000	0,014	-0,043
-568,875	256,392	0,044	0,055
-567,861	-130,256	-0,104	-0,010
-566,846	72,430	-0,067	0,051
-565,831	-200,000	-0,002	0,103
-564,817	-200,000	0,010	0,067
-563,802	588,549	-0,029	-0,052
-562,788	154,005	-0,091	0,090
-561,773	61,926	0,138	0,099
-560,758	-24,464	0,102	-0,044
-559,744	153,803	-0,116	-0,115
-558,729	-200,000	-0,010	-0,189
-557,715	335,571	-0,042	-0,059
-556,700	208,615	-0,093	0,105
-555,685	800,000	-0,050	0,128
-554,671	-13,376	-0,247	-0,115
-553,656	-200,000	0,001	0,121
-552,642	-200,000	-0,019	-0,112
-551,627	-87,580	0,039	0,008
-550,612	800,000	-0,045	0,097
-549,598	-200,000	-0,001	0,011
-548,583	75,209	-0,046	-0,035
-547,569	800,000	-0,024	-0,076
-546,554	-200,000	0,028	0,101
-545,539	-200,000	0,015	0,075
-544,525	99,845	0,096	0,080
-543,510	-105,068	-0,004	0,001
-542,496	-200,000	0,019	-0,067
-541,481	800,000	0,034	-0,075
-540,466	61,027	0,133	0,095
-539,452	-87,559	0,051	0,011
-538,437	-200,000	0,074	0,000
-537,423	-182,574	0,031	-0,000
-536,408	-79,877	0,186	-0,045
-535,393	131,645	-0,044	-0,041
-534,379	800,000	-0,094	-0,283
-533,364	-32,097	-0,028	0,011
-532,350	800,000	0,008	-0,025
-531,335	-110,115	0,113	-0,017
-530,321	-125,590	-0,050	-0,005
-529,306	30,852	-0,112	-0,069
-528,291	-107,350	-0,118	-0,018
-527,277	-125,170	0,122	0,013
-526,262	-200,000	-0,013	0,068
-525,248	-92,335	-0,061	0,012
-524,233	-109,014	0,068	-0,010
-523,218	128,321	-0,026	0,024
-522,204	-96,249	-0,094	0,018
-521,189	69,016	-0,061	-0,045
-520,175	-72,635	0,065	0,017
-519,160	800,000	-0,048	-0,108
-518,145	-60,352	0,086	-0,026
-517,131	82,897	0,139	0,109
-516,116	800,000	0,038	-0,089
-515,102	-93,815	-0,031	-0,006
-514,087	9,414	0,051	0,028
-513,072	63,448	-0,121	-0,087
-512,058	-154,932	0,083	-0,004
-511,043	-200,000	-0,023	0,095
-510,029	370,095	0,055	0,081
-509,014	-77,710	0,113	0,028
-507,999	-200,000	0,005	0,093
-506,985	-200,000	0,002	-0,095
-505,970	-141,828	-0,119	0,008
-504,956	214,330	-0,066	-0,076
-503,941	404,871	-0,055	-0,084
-502,926	305,009	0,041	0,055
-501,912	-151,373	-0,067	-0,004
-500,897	133,596	-0,086	0,080
-499,883	214,974	0,047	-0,054
-498,868	-46,974	0,006	-0,002
-497,853	12,499	-0,122	-0,068
-496,839	800,000	0,020	0,053
-495,824	37,375	0,008	-0,005
-494,810	142,276	-0,041	0,039
-493,795	140,323	-0,003	0,003
-492,781	622,717	0,045	0,083
-491,766	800,000	-0,037	-0,083
-490,751	800,000	-0,019	-0,052
-489,737	18,265	-0,094	-0,054
-488,722	677,464	0,042	-0,079
-487,708	559,394	0,056	0,098
-486,693	800,000	0,051	-0,150
-485,678	-25,430	0,036	-0,015
-484,664	800,000	0,022	-0,047
-483,649	51,232	-0,066	-0,045
-482,635	800,000	0,068	-0,163
-481,620	85,737	0,097	0,077
-480,605	254,039	-0,074	0,091
-479,591	-82,077	0,119	0,028
-478,576	800,000	-0,026	-0,053
-477,562	241,762	0,101	-0,121
-476,547	800,000	0,018	-0,037
-475,532	231,743	-0,015	0,017
-474,518	264,997	0,073	0,092
-473,503	741,346	-0,034	-0,067
-472,489	30,607	0,013	-0,008
-471,474	-7,825	-0,107	0,052
-470,459	-200,000	-0,011	-0,113
-469,445	800,000	-0,026	-0,077
-468,430	-200,000	-0,002	-0,028
-467,416	800,000	0,030	0,064
-466,401	9,074	0,054	0,029
-465,386	-54,540	-0,133	0,043
-464,372	500,070	0,028	-0,047
-463,357	-200,000	-0,020	-0,090
-462,343	-200,000	-0,044	-0,198
-461,328	-200,000	0,010	-0,145
-460,313	-188,531	0,082	-0,001
-459,299	800,000	0,044	0,135
-458,284	800,000	-0,020	0,052
-457,270	256,598	0,081	0,100
-456,255	352,751	0,123	0,176
-455,241	-134,491	-0,221	-0,019
-454,226	509,945	0,114	-0,192
-453,211	800,000	-0,019	-0,041
-452,197	-200,000	0,041	-0,146
-451,182	136,932	0,055	0,051
-450,168	292,678	0,053	0,070
-449,153	-200,000	0,004	0,035
-448,138	-101,972	-0,084	0,014
-447,124	90,363	0,067	-0,054
-446,109	83,612	0,090	0,070
-445,095	-200,000	-0,012	-0,057
-444,080	685,998	0,014	0,027
-443,065	195,391	0,057	0,063
-442,051	619,841	0,040	0,073
-441,036	144,993	-0,107	-0,103
-440,022	-46,590	0,157	0,055
-439,007	-200,000	0,003	-0,066
-437,992	105,438	0,086	0,073
-436,978	-117,813	-0,074	0,009
-435,963	-200,000	-0,008	-0,132
-434,949	-200,000	-0,012	0,056
-433,934	-200,000	-0,006	-0,019
-432,919	67,746	-0,033	-0,024
-431,905	115,323	0,114	-0,100
-430,890	466,792	-0,018	-0,029
-429,876	-200,000	0,015	-0,089
-428,861	204,186	0,027	0,030
-427,846	211,552	0,037	-0,042
-426,832	137,437	-0,062	0,059
-425,817	223,399	-0,057	0,067
-424,803	30,632	-0,024	0,015
-423,788	-93,330	0,135	0,027
-422,773	-38,454	0,276	0,104
-421,759	3,599	0,084	0,044
-420,744	160,128	-0,019	-0,019
-419,730	436,482	-0,038	0,060
-418,715	141,121	-0,095	-0,090
-417,701	-133,517	-0,065	-0,006
-416,686	223,522	0,068	-0,078
-415,671	-200,000	-0,004	0,113
-414,657	800,000	-0,026	0,053
-413,642	-200,000	-0,005	-0,017
-412,628	323,952	-0,075	-0,104
-411,613	-200,000	-0,007	-0,054
-410,598	-200,000	0,007	0,044
-409,584	-70,219	0,138	-0,037
-408,569	117,171	0,152	-0,134
-407,555	800,000	0,045	0,116
-406,540	24,967	0,086	0,051
-405,525	-200,000	-0,010	0,116
-404,511	-200,000	-0,005	-0,075
-403,496	267,040	-0,059	0,074
-402,482	407,783	0,073	-0,111
-401,467	37,674	-0,103	0,065
-400,452	800,000	-0,041	0,110
-399,438	-200,000	-0,005	0,088
-398,423	-99,008	-0,065	-0,012
-397,409	240,279	0,068	0,081
-396,394	-200,000	-0,004	-0,060
-395,379	224,219	-0,051	-0,059
-394,365	800,000	-0,050	-0,115
-393,350	-200,000	0,013	0,075
-392,336	-200,000	-0,025	0,097
-391,321	-200,000	0,001	-0,084
-390,306	800,000	-0,029	-0,079
-389,292	-44,908	0,075	0,026
-388,277	-75,520	0,064	0,016
-387,263	-200,000	0,009	0,095
-386,248	-139,945	-0,029	-0,002
-385,233	-200,000	0,011	0,085
-384,219	-200,000	-0,015	0,106
-383,204	178,171	-0,061	-0,063
-382,190	800,000	0,024	-0,072
-381,175	280,459	-0,009	-0,012
-380,160	310,631	-0,004	-0,006
-379,146	317,159	0,036	0,048
-378,131	737,692	0,030	0,058
-377,117	800,000	0,026	0,065
-376,102	-200,000	0,024	-0,102
-375,088	-20,065	-0,100	-0,044
-374,073	170,026	-0,006	-0,006
-373,058	800,000	-0,034	0,093
-372,044	-200,000	-0,018	0,084
-371,029	151,552	0,084	0,082
-370,015	395,192	-0,084	0,126
-369,000	141,530	-0,041	-0,039
-367,985	-200,000	0,014	-0,086
-366,971	107,805	0,045	-0,038
-365,956	800,000	0,021	0,051
-364,942	-122,774	0,094	0,011
-363,927	-200,000	-0,035	-0,138
-362,912	297,430	0,029	0,038
-361,898	-40,894	-0,119	-0,044
-360,883	-200,000	0,036	-0,174
-359,869	72,093	0,172	-0,128
-358,854	-22,117	-0,163	-0,071
-357,839	86,634	0,059	0,046
-356,825	-1,889	0,098	-0,049
-355,810	-200,000	-0,037	0,143
-354,796	463,212	-0,062	0,099
-353,781	800,000	0,025	0,051
-352,766	-200,000	0,000	-0,106
-351,752	-200,000	-0,001	0,012
-350,737	-200,000	0,004	0,036
-349,723	636,963	0,065	0,119
-348,708	104,355	-0,022	0,019
-347,693	26,304	0,169	-0,101
-346,679	-17,581	-0,124	-0,056
-345,664	-66,278	0,034	-0,009
-344,650	-31,422	-0,079	-0,032
-343,635	-54,286	0,159	0,052
-342,620	75,943	-0,060	0,046
-341,606	800,000	0,020	0,062
-340,591	-200,000	-0,013	-0,096
-339,577	800,000	-0,033	-0,079
-338,562	9,168	0,013	-0,007
-337,548	491,489	0,073	-0,119
-336,533	-28,626	0,051	0,021
-335,518	-200,000	-0,001	-0,099
-334,504	54,967	-0,110	0,076
-333,489	800,000	-0,026	0,070
-332,475	-200,000	-0,006	0,031
-331,460	3,855	-0,138	-0,072
-330,445	-200,000	-0,046	-0,186
-329,431	142,250	0,107	0,102
-328,416	62,233	0,080	0,057
-327,402	800,000	-0,029	0,074
-326,387	320,577	-0,031	-0,042
-325,372	-27,410	-0,058	0,024
-324,358	-50,511	0,030	0,010
-323,343	-96,437	-0,014	-0,003
-322,329	-171,633	-0,104	0,002
-321,314	204,833	0,031	-0,035
-320,299	800,000	0,023	0,064
-319,285	800,000	0,053	0,163
-318,270	800,000	-0,030	-0,075
-317,256	66,996	-0,105	0,076
-316,241	-200,000	0,009	-0,076
-315,226	359,848	0,022	-0,032
-314,212	32,519	0,059	0,037
-313,197	22,487	-0,084	0,049
-312,183	-193,600	0,066	-0,000
-311,168	-200,000	-0,072	0,000
-310,153	-60,088	-0,052	0,016
-309,139	-59,574	-0,092	0,028
-308,124	538,315	0,017	0,028
-307,110	116,196	0,055	-0,048
-306,095	-188,747	0,195	0,002
-305,080	-200,000	-0,028	0,110
-304,066	-200,000	0,012	-0,216
-303,051	800,000	0,007	0,021
-302,037	800,000	-0,051	-0,137
-301,022	38,423	0,094	-0,060
-300,008	-152,667	0,098	-0,005
-298,993	25,348	0,068	-0,040
-297,978	64,426	0,069	-0,050
-296,964	744,702	-0,045	-0,087
-295,949	-35,451	0,055	0,021
-294,935	-200,000	0,004	0,069
-293,920	0,121	0,125	-0,063
-292,905	108,577	0,074	0,063
-291,891	113,595	0,161	0,140
-290,876	-200,000	0,043	0,188
-289,862	-29,781	-0,172	-0,070
-288,847	-200,000	0,004	-0,108
-287,832	332,648	0,075	-0,104
-286,818	164,488	0,071	-0,071
-285,803	-200,000	-0,013	0,068
-284,789	244,114	-0,039	0,047
-283,774	-200,000	0,003	0,038
-282,759	501,052	0,011	-0,019
-281,745	800,000	-0,082	-0,179
-280,730	800,000	-0,037	0,095
-279,716	-200,000	-0,004	-0,039
-278,701	-112,405	0,196	0,028
-277,686	259,025	-0,036	-0,044
-276,672	-56,070	0,147	-0,047
-275,657	214,405	-0,052	0,059
-274,643	800,000	0,036	-0,112
-273,628	43,571	0,057	-0,037
-272,613	210,932	0,074	-0,083
-271,599	686,660	0,041	0,077
-270,584	-106,395	0,050	-0,008
-269,570	388,636	-0,059	0,088
-268,555	134,595	-0,109	-0,101
-267,540	-75,983	0,012	0,003
-266,526	800,000	0,014	-0,041
-265,511	120,156	-0,098	-0,087
-264,497	51,529	0,095	0,064
-263,482	-200,000	0,020	0,097
-262,467	148,386	-0,081	-0,078
-261,453	-140,171	-0,052	0,004
-260,438	-200,000	0,003	-0,089
-259,424	-166,936	-0,119	-0,003
-258,409	-200,000	-0,011	-0,141
-257,395	303,129	-0,064	0,084
-256,380	-200,000	-0,002	0,115
-255,365	-34,818	0,022	-0,008
-254,351	209,022	0,120	0,135
-253,336	-200,000	-0,028	0,113
-252,322	41,093	-0,052	-0,033
-251,307	-94,193	0,067	-0,013
-250,292	268,903	0,108	0,135
-249,278	-200,000	-0,026	-0,157
-248,263	800,000	-0,049	0,106
-247,249	269,297	-0,065	0,082
-246,234	-160,006	-0,068	-0,003
-245,219	59,019	-0,033	0,023
-244,205	-10,861	0,118	0,055
-243,190	430,784	-0,016	0,025
-242,176	216,686	0,067	0,076
-241,161	767,975	0,034	0,067
-240,146	290,556	-0,052	0,068
-239,132	-47,420	-0,034	-0,012
-238,117	-200,000	-0,034	-0,119
-237,103	565,329	0,034	0,059
-236,088	582,270	0,034	0,059
-235,073	-77,208	0,140	-0,034
-234,059	-2,821	0,086	0,043
-233,044	-122,348	-0,173	-0,020
-232,030	-20,092	-0,068	-0,030
-231,015	800,000	0,013	0,039
-230,000	-56,986	0,053	0,016
-228,986	51,015	-0,059	0,040
-227,971	371,009	-0,071	0,103
-226,957	-147,777	0,181	0,011
-225,942	116,475	0,087	0,076
-224,927	800,000	-0,052	-0,110
-223,913	87,491	-0,033	-0,026
-222,898	312,589	0,006	-0,008
-221,884	-200,000	-0,011	0,091
-220,869	556,785	0,012	0,021
-219,855	800,000	0,096	0,225
-218,840	107,710	0,184	0,156
-217,825	4,627	-0,107	0,056
-216,811	-29,982	-0,036	-0,015
-215,796	-200,000	-0,013	-0,068
-214,782	-200,000	0,010	-0,049
-213,767	-104,179	0,085	0,014
-212,752	571,661	0,085	0,147
-211,738	-21,334	-0,068	-0,029
-210,723	223,608	-0,033	0,038
-209,709	-200,000	0,017	-0,116
-208,694	183,423	-0,048	-0,050
-207,679	-65,064	-0,112	-0,032
-206,665	-200,000	-0,003	-0,023
-205,650	400,819	-0,041	0,062
-204,636	-200,000	-0,018	0,083
-203,621	-200,000	-0,015	0,131
-202,606	-180,566	-0,012	-0,000
-201,592	-41,285	0,039	-0,014
-200,577	-200,000	0,050	0,170
-199,563	24,086	-0,079	-0,046
-198,548	18,222	0,033	-0,019
-197,533	-30,889	-0,203	0,081
-196,519	244,686	0,020	0,024
-195,504	-18,478	-0,113	-0,050
-194,490	4,935	-0,087	0,046
-193,475	-200,000	0,000	0,054
-192,460	800,000	0,053	-0,129
-191,446	447,206	-0,071	0,112
-190,431	-75,521	0,122	0,031
-189,417	-71,933	-0,083	0,022
-188,402	175,759	0,046	0,047
-187,387	-200,000	0,014	0,122
-186,373	-200,000	-0,014	0,068
-185,358	162,356	-0,055	-0,055
-184,344	-200,000	0,011	-0,154
-183,329	-16,626	-0,027	-0,012
-182,315	-200,000	-0,003	0,188
-181,300	-200,000	0,012	0,051
-180,285	-200,000	0,010	0,061
-179,271	-200,000	0,022	0,130
-178,256	258,099	-0,048	-0,059
-177,242	596,997	-0,059	-0,105
-176,227	106,078	-0,050	0,042
-175,212	-200,000	0,001	-0,046
-174,198	772,575	-0,020	0,038
-173,183	-200,000	-0,010	0,065
-172,169	-200,000	0,000	-0,068
-171,154	-137,125	-0,066	0,005
-170,139	-104,125	-0,062	0,010
-169,125	617,436	0,020	-0,036
-168,110	-200,000	0,014	-0,056
-167,096	-100,388	-0,129	0,023
-166,081	34,352	-0,108	0,067
-165,066	-200,000	-0,025	0,096
-164,052	-149,998	0,171	0,009
-163,037	308,862	0,044	-0,058
-162,023	-200,000	-0,013	-0,069
-161,008	206,881	0,029	-0,032
-159,993	-28,947	-0,062	-0,025
-158,979	-200,000	-0,002	-0,109
-157,964	413,038	-0,049	0,075
-156,950	-113,995	0,081	-0,011
-155,935	800,000	0,032	-0,087
-154,920	800,000	-0,034	0,093
-153,906	113,393	-0,132	-0,113
-152,891	-122,000	0,137	-0,016
-151,877	-200,000	0,010	0,046
-150,862	-200,000	-0,015	-0,103
-149,847	-12,980	-0,072	-0,033
-148,833	-17,215	-0,133	0,059
-147,818	64,396	0,178	0,127
-146,804	78,449	0,073	0,055
-145,789	-50,598	0,127	-0,042
-144,775	111,015	0,051	-0,044
-143,760	-87,948	-0,014	0,003
-142,745	-55,958	-0,135	-0,043
-141,731	-33,463	0,045	-0,018
-140,716	98,918	-0,098	-0,080
-139,702	-200,000	-0,019	-0,121
-138,687	149,741	-0,067	-0,064
-137,672	56,388	-0,067	0,046
-136,658	-90,200	0,201	0,041
-135,643	-74,965	0,025	-0,006
-134,629	-200,000	-0,020	-0,115
-133,614	758,478	-0,047	-0,091
-132,599	-199,608	0,064	0,000
-131,585	-200,000	0,002	0,157
-130,570	445,855	-0,015	0,024
-129,556	-200,000	0,028	-0,104
-128,541	-113,445	0,109	0,015
-127,526	-200,000	-0,010	-0,060
-126,512	315,174	0,060	0,081
-125,497	592,506	-0,030	-0,053
-124,483	-102,222	0,102	0,017
-123,468	800,000	-0,037	0,110
-122,453	-200,000	-0,060	0,000
-121,439	280,934	0,023	0,029
-120,424	220,937	-0,075	-0,086
-119,410	800,000	-0,018	-0,052
-118,395	256,492	0,138	-0,169
-117,380	-200,000	-0,017	0,064
-116,366	360,407	-0,031	0,045
-115,351	-167,861	0,045	0,001
-114,337	-118,137	-0,140	-0,017
-113,322	800,000	0,031	-0,070
-112,307	53,674	-0,056	0,038
-111,293	730,982	-0,070	0,134
-110,278	591,574	-0,062	0,109
-109,264	800,000	0,022	-0,065
-108,249	-74,370	-0,051	-0,013
-107,234	316,784	-0,102	-0,137
-106,220	223,757	-0,061	-0,070
-105,205	-69,489	-0,144	0,039
-104,191	227,340	0,082	0,095
-103,176	462,943	0,027	-0,043
-102,162	-89,266	-0,061	0,013
-101,147	-200,000	0,010	0,048
-100,132	546,340	0,053	-0,090
-99,118	27,010	-0,079	-0,047
-98,103	130,303	-0,086	-0,078
-97,089	393,658	0,106	0,156
-96,074	-106,069	0,100	-0,016
-95,059	-62,307	0,033	0,010
-94,045	487,920	0,027	0,043
-93,030	10,230	-0,088	-0,047
-92,016	-29,322	-0,075	-0,030
-91,001	140,463	0,054	0,051
-89,986	-105,315	0,074	0,012
-88,972	111,090	0,077	0,065
-87,957	-37,962	-0,189	0,071
-86,943	82,128	-0,061	0,047
-85,928	131,998	-0,044	-0,040
-84,913	447,173	-0,037	0,058
-83,899	504,731	-0,015	-0,025
-82,884	345,914	-0,035	0,049
-81,870	-200,000	-0,003	0,068
-80,855	41,096	-0,103	0,066
-79,840	104,798	0,085	0,071
-78,826	-200,000	0,002	0,069
-77,811	270,578	-0,050	-0,062
-76,797	344,421	-0,088	0,123
-75,782	136,805	-0,030	-0,028
-74,767	617,896	0,020	0,036
-73,753	491,068	-0,087	0,142
-72,738	512,818	0,062	0,103
-71,724	58,081	-0,133	-0,092
-70,709	132,785	0,130	-0,119
-69,694	246,289	-0,092	0,110
-68,680	800,000	0,023	-0,052
-67,665	-200,000	-0,015	-0,155
-66,651	-26,678	-0,026	-0,011
-65,636	-200,000	0,016	-0,082
-64,622	-200,000	0,033	-0,105
-63,607	-200,000	-0,017	-0,109
-62,592	-200,000	0,054	0,000
-61,578	-200,000	-0,010	-0,045
-60,563	337,624	0,112	0,155
-59,549	35,767	-0,077	0,048
-58,534	-75,946	-1,505	-0,374
-57,519	360,061	-1,621	-2,304
-56,505	-200,000	-0,406	-4,384
-55,490	202,387	0,777	0,850
-54,476	800,000	4,819	11,267
-53,461	-200,000	18,035	286,687
-52,446	800,000	723,869	2226,939
-51,432	558,490	1638,307	2809,841
-50,417	79,883	1661,028	1262,509
-49,403	23,116	1535,270	889,941
-48,388	17,052	1458,954	816,412
-47,373	17,936	1448,630	814,846
-46,359	17,468	1438,941	807,133
-45,344	15,347	1434,497	794,513
-44,330	15,297	1432,503	793,139
-43,315	15,265	1430,932	792,087
-42,300	15,299	1429,143	791,222
-41,286	15,301	1428,235	790,697
-40,271	15,327	1426,713	789,951
-39,257	15,248	1425,729	788,999
-38,242	15,372	1424,027	788,614
-37,227	15,329	1422,976	787,797
-36,213	15,312	1421,744	787,002
-35,198	15,304	1420,481	786,233
-34,184	15,339	1419,808	785,997
-33,169	15,263	1418,324	784,786
-32,154	15,328	1417,283	784,481
-31,140	15,381	1415,788	783,872
-30,125	15,406	1414,733	783,375
-29,111	15,322	1413,811	782,439
-28,096	15,316	1412,858	781,855
-27,082	15,271	1411,673	780,954
-26,067	15,266	1410,320	780,154
-25,052	15,253	1409,460	779,585
-24,038	15,219	1408,538	778,883
-23,023	15,202	1407,584	778,247
-22,009	15,240	1406,327	777,697
-20,994	15,166	1405,539	776,888
-19,979	15,187	1404,635	776,453
-18,965	15,148	1403,589	775,662
-17,950	15,153	1402,655	775,138
-16,936	15,159	1401,875	774,704
-15,921	15,165	1400,398	773,889
-14,906	15,204	1399,494	773,536
-13,892	15,167	1398,783	772,944
-12,877	15,114	1397,828	772,139
-11,863	15,113	1397,093	771,696
-10,848	15,146	1395,932	771,177
-9,833	15,093	1395,159	770,475
-8,819	15,078	1393,988	769,729
-7,804	15,027	1393,346	769,107
-6,790	15,094	1392,037	768,665
-5,775	15,089	1390,971	768,023
-4,760	15,048	1390,197	767,377
-3,746	15,086	1389,332	767,041
-2,731	15,056	1388,604	766,472
-1,717	15,049	1387,709	765,914
-0,702	15,044	1386,049	764,944
0,313	18,955	1305,928	738,751
1,327	35,495	706,309	437,833
2,342	54,919	124,805	85,133
3,356	3,631	16,588	8,534
4,371	4,189	3,166	1,634
5,386	71,190	0,476	0,349
6,400	-200,000	0,010	0,140
7,415	160,849	-0,253	-0,251
8,429	197,493	-0,202	-0,218
9,444	120,918	-0,415	-0,365
10,459	128,045	-0,266	-0,239
11,473	-32,636	-0,316	-0,124
12,488	2,890	-0,149	-0,076
13,502	-116,875	-0,377	-0,048
14,517	96,614	-0,281	-0,228
15,531	129,183	-0,340	-0,306
16,546	-36,985	-0,380	-0,143
17,561	79,779	-0,356	-0,270
18,575	47,427	-0,167	-0,110
19,590	295,783	-0,199	-0,258
20,604	-125,331	-0,265	-0,028
21,619	141,849	-0,282	-0,264
22,634	-1,047	-0,431	-0,215
23,648	281,447	-0,347	-0,440
24,663	87,521	-0,379	-0,296
25,677	138,434	-0,296	-0,274
26,692	36,825	-0,305	-0,190
27,707	84,833	-0,335	-0,259
28,721	-29,737	-0,394	-0,158
29,736	-46,028	-0,449	-0,155
30,750	89,277	-0,315	-0,247
31,765	35,648	-0,489	-0,303
32,780	41,787	-0,403	-0,257
33,794	376,284	-0,311	-0,449
34,809	271,983	-0,287	-0,357
35,823	92,721	-0,400	-0,318
36,838	75,032	-0,325	-0,241
37,853	60,421	-0,427	-0,298
38,867	117,593	-0,224	-0,194
39,882	96,056	-0,413	-0,332
40,896	13,706	-0,345	-0,189
41,911	-97,335	-0,339	-0,062
42,926	192,042	-0,397	-0,423
43,940	50,207	-0,415	-0,276
44,955	-24,961	-0,394	-0,164
45,969	135,635	-0,330	-0,303
46,984	42,025	-0,350	-0,224
47,999	-14,402	-0,303	-0,137
49,013	1,307	-0,370	-0,187
50,028	54,968	-0,318	-0,216
51,042	96,805	-0,320	-0,258
52,057	-10,390	-0,462	-0,215
53,071	149,477	-0,200	-0,191
54,086	-12,092	-0,450	-0,207
55,101	53,042	-0,293	-0,197
56,115	20,148	-0,405	-0,230
57,130	7,340	-0,360	-0,189
58,144	144,748	-0,407	-0,383
59,159	33,089	-0,358	-0,218
60,174	11,468	-0,393	-0,212
61,188	178,283	-0,290	-0,298
62,203	-15,338	-0,383	-0,172
63,217	45,364	-0,201	-0,130
64,232	-26,594	-0,335	-0,137
65,247	163,167	-0,272	-0,269
66,261	74,402	-0,427	-0,315
67,276	407,750	-0,220	-0,329
68,290	188,176	-0,295	-0,311
69,305	-55,395	-0,347	-0,109
70,320	53,611	-0,237	-0,160
71,334	-21,610	-0,313	-0,134
72,349	-120,751	-0,358	-0,042
73,363	88,565	-0,255	-0,199
74,378	47,617	-0,341	-0,224
75,393	143,355	-0,309	-0,290
76,407	22,399	-0,327	-0,187
77,422	2,156	-0,270	-0,136
78,436	84,984	-0,253	-0,195
79,451	-57,748	-0,319	-0,097
80,466	216,235	-0,259	-0,289
81,480	160,223	-0,370	-0,363
82,495	167,657	-0,326	-0,326
83,509	-42,560	-0,296	-0,105
84,524	-17,879	-0,288	-0,126
85,539	-3,998	-0,263	-0,127
86,553	-31,560	-0,244	-0,096
87,568	-13,919	-0,342	-0,155
88,582	-48,871	-0,243	-0,081
89,597	800,000	-0,125	-0,284
90,611	150,424	-0,161	-0,154
91,626	216,853	-0,200	-0,224
92,641	-29,770	-0,323	-0,129
93,655	252,739	-0,282	-0,338
94,670	344,703	-0,199	-0,275
95,684	82,980	-0,259	-0,197
96,699	258,812	-0,242	-0,294
97,714	389,821	-0,272	-0,397
98,728	-44,713	-0,177	-0,062
99,743	36,559	-0,228	-0,141
100,757	-170,639	-0,327	-0,008
101,772	142,223	-0,336	-0,312
102,787	210,299	-0,213	-0,235
103,801	177,498	-0,269	-0,275
104,816	-200,000	-0,272	0,001
105,830	-15,609	-0,253	-0,113
106,845	241,033	-0,191	-0,223
107,860	49,183	-0,190	-0,125
108,874	-57,315	-0,452	-0,138
109,889	163,076	-0,269	-0,266
110,903	180,360	-0,202	-0,208
111,918	-44,298	-0,234	-0,082
112,933	45,300	-0,245	-0,158
113,947	-10,674	-0,330	-0,152
114,962	31,803	-0,147	-0,089
115,976	-73,349	-0,323	-0,082
116,991	-73,357	-0,274	-0,070
118,006	147,296	-0,343	-0,324
119,020	800,000	-0,078	-0,154
120,035	-56,402	-0,161	-0,050
121,049	-105,213	-0,167	-0,026
122,064	-113,096	-0,287	-0,039
123,079	47,187	-0,255	-0,166
124,093	152,305	-0,193	-0,185
125,108	275,078	-0,194	-0,241
126,122	46,825	-0,218	-0,142
127,137	50,638	-0,163	-0,108
128,151	-38,666	-0,105	-0,039
129,166	530,105	-0,123	-0,204
130,181	12,091	-0,318	-0,171
131,195	76,229	-0,318	-0,235
132,210	-17,092	-0,238	-0,105
133,224	120,389	-0,205	-0,178
134,239	61,201	-0,188	-0,131
135,254	6,141	-0,371	-0,192
136,268	146,620	-0,179	-0,168
137,283	4,774	-0,333	-0,170
138,297	79,906	-0,275	-0,206
139,312	272,682	-0,148	-0,183
140,327	-4,787	-0,186	-0,089
141,341	345,595	-0,140	-0,193
142,356	58,053	-0,282	-0,193
143,370	331,541	-0,221	-0,299
144,385	-86,535	-0,316	-0,067
145,400	-31,946	-0,168	-0,066
146,414	193,630	-0,288	-0,305
147,429	529,794	-0,230	-0,382
148,443	246,080	-0,152	-0,180
149,458	59,636	-0,192	-0,132
150,473	-12,761	-0,252	-0,114
151,487	-80,428	-0,334	-0,077
152,502	-20,351	-0,248	-0,106
153,516	282,428	-0,214	-0,269
154,531	226,401	-0,194	-0,220
155,546	38,311	-0,247	-0,153
156,560	-97,340	-0,172	-0,031
157,575	-60,752	-0,150	-0,044
158,589	126,921	-0,098	-0,087
159,604	64,531	-0,277	-0,195
160,619	59,246	-0,333	-0,228
161,633	-35,890	-0,287	-0,108
162,648	74,830	-0,300	-0,220
163,662	42,390	-0,217	-0,138
164,677	675,578	-0,151	-0,275
165,692	800,000	-0,039	-0,113
166,706	158,084	-0,184	-0,178
167,721	370,966	-0,152	-0,215
168,735	800,000	-0,104	-0,224
169,750	660,878	-0,107	-0,193
170,764	325,193	-0,213	-0,285
171,779	800,000	-0,057	-0,147
172,794	102,786	-0,202	-0,165
173,808	148,025	-0,151	-0,142
174,823	380,865	-0,218	-0,313
175,837	75,348	-0,294	-0,216
176,852	113,875	-0,226	-0,191
177,867	60,068	-0,199	-0,137
178,881	800,000	-0,086	-0,219
179,896	-65,750	-0,230	-0,064
180,910	776,950	-0,105	-0,201
181,925	-18,822	-0,275	-0,119
182,940	1,269	-0,201	-0,100
183,954	140,690	-0,196	-0,181
184,969	198,107	-0,185	-0,197
185,983	219,330	-0,094	-0,105
186,998	800,000	-0,093	-0,197
188,013	13,249	-0,246	-0,132
189,027	224,674	-0,222	-0,250
190,042	34,810	-0,282	-0,171
191,056	63,323	-0,252	-0,176
192,071	-168,212	-0,201	0,005
193,086	-200,000	-0,379	-0,001
194,100	32,313	-0,161	-0,096
195,115	-71,147	-0,188	-0,049
196,129	718,091	-0,109	-0,202
197,144	33,982	-0,297	-0,180
198,159	73,145	-0,286	-0,208
199,173	-22,174	-0,164	-0,069
200,188	241,061	-0,163	-0,189
201,202	-71,742	-0,207	0,053
202,217	800,000	-0,013	0,027
203,232	62,039	-0,186	-0,129
204,246	4,351	-0,246	-0,125
205,261	800,000	-0,116	-0,253
206,275	337,866	-0,234	-0,318
207,290	323,850	-0,085	-0,113
208,304	142,337	-0,182	-0,168
209,319	114,715	-0,227	-0,192
210,334	13,344	-0,178	-0,095
211,348	123,925	-0,165	-0,144
212,363	191,824	-0,233	-0,244
213,377	800,000	-0,111	-0,213
214,392	-200,000	0,009	-0,136
215,407	77,437	-0,184	-0,135
216,421	173,059	-0,187	-0,187
217,436	61,241	-0,186	-0,128
218,450	122,906	-0,140	-0,121
219,465	-77,743	-0,221	-0,053
220,480	212,852	-0,149	-0,164
221,494	-162,741	-0,307	-0,010
222,509	-200,000	0,008	0,038
223,523	-54,602	-0,051	-0,016
224,538	245,558	-0,162	-0,190
225,553	145,827	-0,283	-0,263
226,567	56,750	-0,250	-0,168
227,582	-25,820	-0,274	-0,112
228,596	79,512	-0,218	-0,162
229,611	790,510	-0,062	-0,119
230,626	660,202	-0,102	-0,182
231,640	-150,016	-0,139	0,007
232,655	357,920	-0,124	-0,172
233,669	800,000	-0,079	-0,160
234,684	45,495	-0,200	-0,128
235,699	52,521	-0,125	-0,083
236,713	87,666	-0,195	-0,149
237,728	19,687	-0,187	-0,104
238,742	168,743	-0,113	-0,112
239,757	5,992	-0,198	-0,101
240,772	229,201	-0,181	-0,205
241,786	-22,784	-0,264	-0,110
242,801	-53,660	-0,179	-0,056
243,815	-99,604	-0,138	-0,024
244,830	18,630	-0,106	-0,059
245,844	-157,708	-0,162	-0,007
246,859	112,882	-0,205	-0,172
247,874	53,585	-0,239	-0,159
248,888	302,116	-0,170	-0,218
249,903	-200,000	-0,032	-0,272
250,917	-23,500	-0,113	0,047
251,932	7,793	-0,178	-0,092
252,947	800,000	-0,067	-0,188
253,961	-4,072	-0,257	-0,123
254,976	143,655	-0,103	-0,095
255,990	8,467	-0,180	-0,094
257,005	-157,044	-0,203	0,008
258,020	-17,336	-0,228	-0,099
259,034	421,540	-0,170	-0,252
260,049	-21,217	-0,180	-0,076
261,063	-14,205	-0,114	-0,051
262,078	425,613	-0,174	-0,260
263,093	341,801	-0,073	-0,099
264,107	772,660	-0,085	-0,160
265,122	111,819	-0,153	-0,128
266,136	47,718	-0,179	-0,116
267,151	77,395	-0,151	-0,111
268,166	185,765	-0,121	-0,124
269,180	-200,000	-0,077	-0,297
270,195	124,986	-0,129	-0,112
271,209	121,796	-0,145	-0,125
272,224	304,436	-0,194	-0,249
273,239	-43,299	-0,260	-0,090
274,253	174,125	-0,148	-0,148
275,268	97,330	-0,140	-0,111
276,282	180,021	-0,102	-0,104
277,297	-200,000	-0,014	-0,129
278,312	378,945	-0,097	-0,138
279,326	-22,891	-0,138	-0,057
280,341	53,783	-0,131	-0,087
281,355	-67,516	-0,081	-0,022
282,370	424,104	-0,147	-0,220
283,384	192,440	-0,217	-0,227
284,399	800,000	-0,116	-0,241
285,414	37,339	-0,214	-0,131
286,428	67,181	-0,180	-0,126
287,443	-68,218	-0,158	-0,042
288,457	-77,147	-0,167	-0,040
289,472	181,676	-0,167	-0,170
290,487	-0,705	-0,216	-0,105
291,501	341,178	-0,149	-0,201
292,516	87,733	-0,184	-0,141
293,530	-78,606	-0,189	-0,044
294,545	800,000	-0,018	0,050
295,560	-20,525	-0,046	0,019
296,574	39,220	-0,125	0,077
297,589	38,654	-0,201	-0,123
298,603	32,784	-0,212	-0,126
299,618	42,496	-0,217	-0,136
300,633	669,763	-0,043	-0,078
301,647	-146,282	-0,213	0,013
302,662	-120,818	-0,049	-0,006
303,676	5,075	-0,105	0,053
304,691	-3,605	-0,077	-0,037
305,706	-92,906	-0,199	-0,038
306,720	1,130	-0,145	-0,072
307,735	-119,500	-0,149	-0,018
308,749	62,146	-0,104	-0,071
309,764	75,643	-0,199	-0,144
310,779	377,342	-0,066	-0,093
311,793	-200,000	-0,038	-0,133
312,808	104,311	-0,216	-0,175
313,822	28,341	-0,191	-0,111
314,837	77,155	-0,063	-0,046
315,852	-200,000	0,010	-0,066
316,866	-124,275	-0,133	-0,014
317,881	154,701	-0,114	-0,108
318,895	-90,685	-0,223	-0,044
319,910	-146,866	-0,279	-0,016
320,925	18,072	-0,085	-0,046
321,939	-41,255	-0,142	-0,050
322,954	753,343	-0,091	-0,171
323,968	-89,607	-0,206	-0,041
324,983	-25,236	-0,177	0,072
325,997	-40,098	-0,026	-0,009
327,012	-112,014	-0,084	-0,012
328,027	166,639	-0,155	-0,151
329,041	-12,207	-0,209	-0,094
330,056	-73,557	-0,183	-0,046
331,070	-131,021	-0,210	-0,019
332,085	-64,802	-0,240	-0,066
333,100	18,688	-0,135	-0,074
334,114	-13,491	-0,119	-0,053
335,129	47,562	-0,137	0,088
336,143	100,163	-0,173	-0,138
337,158	-75,783	-0,223	-0,054
338,173	-119,419	-0,127	0,015
339,187	720,532	-0,062	-0,114
340,202	-200,000	-0,043	-0,173
341,216	434,760	-0,130	-0,194
342,231	13,548	-0,195	-0,103
343,246	-62,265	-0,178	-0,051
344,260	194,846	-0,202	-0,211
345,275	28,400	-0,108	-0,063
346,289	-13,585	-0,128	-0,057
347,304	517,254	-0,087	-0,140
348,319	-65,839	-0,171	-0,047
349,333	305,060	-0,096	-0,122
350,348	107,599	-0,162	-0,132
351,362	766,897	-0,029	-0,054
352,377	97,762	-0,147	0,116
353,392	602,842	-0,089	-0,152
354,406	62,284	-0,086	-0,059
355,421	207,656	1315,610	1410,670
356,435	159,747	1476,474	1411,186
