DTS Sentinel unit serial number:	SN410029Multiplexer serial number:	ORYXHardware model number:	OX2-SRSoftware version number:	ORYX F/W v4,00 Oryx Data Collector v3.7.2.0data status	okinstallation	B3 Nyhavnadifferential loss correction	single-endedforward channel	channel 1reverse channel	N/Adate	2023/11/30time	22:47:30forward acquisition time	300,00reverse acquisition time	0,00gamma	499,1914k internal	0,3210k external	0,3210temperature offset calibration	1,0000default loss term (dB/km)	0,3820temperature slope calibration	1,0000multiplexer offset coefficient	1,0000multiplexer slope coefficient	1,0000fibre end	0,00T internal ref (°C)	9,92T ext. ref 1 (°C)	-5,22T ext. ref 2 (°C)	-5,34length (m)	temperature (°C)	Stokes	anti-Stokes-744,400	267,520	-0,155	-0,197
-743,385	-200,000	0,071	0,262
-742,371	-132,363	-0,133	-0,012
-741,356	-200,000	0,004	0,294
-740,342	-200,000	0,001	-0,155
-739,327	-200,000	-0,035	0,216
-738,312	164,280	-0,188	-0,192
-737,298	-200,000	0,024	0,144
-736,283	172,613	-0,192	-0,201
-735,269	-200,000	0,031	0,241
-734,254	-200,000	-0,055	-0,222
-733,239	34,981	-0,204	0,129
-732,225	-82,006	-0,281	-0,066
-731,210	80,364	0,168	0,131
-730,196	-95,189	-0,053	0,010
-729,181	-11,504	-0,114	0,054
-728,167	-10,219	-0,113	0,054
-727,152	115,104	0,100	-0,088
-726,137	39,401	-0,139	-0,090
-725,123	-17,866	0,047	-0,021
-724,108	334,691	-0,110	-0,155
-723,094	-37,331	-0,167	-0,064
-722,079	800,000	-0,035	-0,073
-721,064	-87,711	0,054	0,012
-720,050	101,541	0,027	0,022
-719,035	-62,674	0,082	0,025
-718,021	-200,000	0,011	-0,041
-717,006	-162,651	-0,226	0,008
-715,991	42,153	-0,157	-0,103
-714,977	800,000	-0,064	-0,159
-713,962	613,051	-0,010	-0,018
-712,948	-200,000	-0,012	-0,097
-711,933	-200,000	-0,004	-0,022
-710,918	800,000	0,041	0,095
-709,904	-80,150	-0,151	0,036
-708,889	-200,000	-0,010	-0,201
-707,875	-200,000	0,000	-0,022
-706,860	-200,000	-0,021	-0,159
-705,845	13,833	-0,023	0,013
-704,831	40,085	0,052	-0,034
-703,816	-200,000	-0,025	0,120
-702,802	428,933	0,049	0,076
-701,787	316,804	-0,026	0,036
-700,772	-84,610	-0,125	-0,028
-699,758	31,108	0,051	-0,032
-698,743	-172,495	0,096	-0,002
-697,729	800,000	0,016	-0,040
-696,714	800,000	0,046	0,137
-695,699	521,025	0,059	0,101
-694,685	-117,722	-0,174	0,022
-693,670	-200,000	-0,008	0,052
-692,656	800,000	0,015	0,040
-691,641	-200,000	-0,030	-0,124
-690,627	-200,000	-0,014	0,099
-689,612	-69,266	-0,072	0,020
-688,597	66,657	0,081	0,059
-687,583	198,336	-0,065	0,071
-686,568	249,499	-0,043	-0,053
-685,554	-200,000	-0,012	-0,145
-684,539	152,273	0,062	-0,061
-683,524	364,845	0,036	0,053
-682,510	-200,000	0,016	-0,156
-681,495	37,707	-0,049	0,031
-680,481	-144,794	0,061	-0,004
-679,466	-146,167	-0,083	0,005
-678,451	-200,000	0,043	-0,220
-677,437	-200,000	-0,004	-0,132
-676,422	105,309	0,043	-0,036
-675,408	-110,933	0,152	0,022
-674,393	69,611	-0,111	-0,083
-673,378	159,526	0,052	0,053
-672,364	-200,000	-0,006	0,053
-671,349	800,000	-0,067	-0,172
-670,335	65,974	-0,144	-0,105
-669,320	-50,590	-0,046	-0,016
-668,305	79,162	0,051	-0,040
-667,291	160,090	0,091	-0,091
-666,276	-31,452	-0,091	-0,037
-665,262	42,020	-0,060	-0,039
-664,247	800,000	0,053	-0,165
-663,232	105,896	0,070	0,060
-662,218	165,838	-0,026	0,027
-661,203	-27,236	0,124	-0,052
-660,189	653,525	0,087	0,163
-659,174	366,260	-0,117	-0,172
-658,159	385,285	-0,117	-0,175
-657,145	765,881	0,051	-0,101
-656,130	149,298	0,095	0,093
-655,116	-200,000	0,011	-0,068
-654,101	112,024	0,079	0,069
-653,086	40,564	-0,142	-0,093
-652,072	113,881	-0,027	-0,024
-651,057	-200,000	0,008	0,038
-650,043	-152,108	-0,082	0,004
-649,028	62,506	0,158	0,114
-648,014	-200,000	-0,016	-0,059
-646,999	608,223	-0,024	0,044
-645,984	-64,692	-0,068	0,020
-644,970	800,000	0,030	0,081
-643,955	281,600	-0,038	0,049
-642,941	-79,734	-0,105	-0,025
-641,926	-200,000	0,013	0,228
-640,911	65,399	-0,007	-0,005
-639,897	-200,000	0,018	-0,081
-638,882	-200,000	-0,003	-0,041
-637,868	460,464	-0,046	-0,075
-636,853	83,455	0,045	-0,035
-635,838	521,403	-0,031	-0,053
-634,824	115,516	-0,066	0,058
-633,809	-138,779	-0,089	0,007
-632,795	-200,000	0,006	0,110
-631,780	800,000	0,044	0,102
-630,765	101,574	-0,172	0,145
-629,751	91,833	-0,104	-0,084
-628,736	-200,000	-0,028	-0,144
-627,722	-69,256	-0,038	-0,011
-626,707	-24,798	0,019	-0,008
-625,692	74,983	0,068	-0,051
-624,678	-48,565	-0,133	0,046
-623,663	-16,506	0,116	0,053
-622,649	-200,000	0,027	-0,138
-621,634	-69,422	-0,125	0,034
-620,619	-4,678	-0,131	-0,065
-619,605	-83,572	0,074	-0,017
-618,590	-200,000	0,011	0,133
-617,576	-200,000	0,010	-0,080
-616,561	22,320	-0,079	-0,047
-615,546	-200,000	-0,038	-0,202
-614,532	764,120	0,036	-0,071
-613,517	562,995	0,007	-0,012
-612,503	116,567	0,043	-0,038
-611,488	-42,906	0,166	-0,060
-610,474	52,112	-0,104	0,072
-609,459	-200,000	0,037	0,177
-608,444	-54,452	-0,086	-0,028
-607,430	-71,652	0,113	-0,030
-606,415	800,000	-0,036	-0,084
-605,401	800,000	0,023	0,057
-604,386	-200,000	0,008	0,116
-603,371	-5,946	0,110	-0,054
-602,357	-132,841	-0,045	0,004
-601,342	99,591	0,083	0,069
-600,328	138,737	-0,116	0,110
-599,313	-79,023	-0,040	0,010
-598,298	-112,364	-0,091	-0,013
-597,284	-200,000	-0,016	0,080
-596,269	-75,683	0,051	-0,013
-595,255	-156,996	-0,062	-0,003
-594,240	800,000	0,054	-0,134
-593,225	-200,000	0,018	-0,133
-592,211	136,222	-0,142	-0,134
-591,196	24,542	-0,059	-0,035
-590,182	-96,002	0,038	-0,007
-589,167	-200,000	0,008	0,095
-588,152	-200,000	0,039	-0,141
-587,138	-19,774	-0,044	0,020
-586,123	684,687	-0,064	0,122
-585,109	50,076	0,010	-0,007
-584,094	-200,000	-0,035	-0,114
-583,079	44,533	0,102	-0,067
-582,065	-200,000	0,010	-0,039
-581,050	-52,096	0,171	0,057
-580,036	-200,000	0,013	-0,053
-579,021	-200,000	-0,025	-0,110
-578,006	-83,863	-0,054	-0,012
-576,992	263,648	-0,085	0,107
-575,977	-55,267	0,119	-0,038
-574,963	23,285	0,061	0,036
-573,948	26,181	0,052	-0,031
-572,934	-200,000	0,004	-0,084
-571,919	-115,032	-0,100	-0,013
-570,904	-200,000	-0,044	-0,165
-569,890	-90,005	0,120	0,025
-568,875	157,313	0,112	-0,112
-567,861	68,359	0,113	0,083
-566,846	800,000	0,041	-0,110
-565,831	-2,105	-0,055	-0,028
-564,817	32,603	-0,037	0,023
-563,802	800,000	0,043	-0,133
-562,788	724,280	-0,032	-0,063
-561,773	-72,950	0,123	-0,032
-560,758	97,685	-0,073	-0,061
-559,744	135,789	0,089	0,084
-558,729	-200,000	0,017	0,129
-557,715	800,000	0,019	-0,042
-556,700	800,000	-0,028	0,079
-555,685	-200,000	0,004	0,092
-554,671	320,454	0,077	-0,105
-553,656	278,528	-0,057	-0,074
-552,642	800,000	0,023	0,054
-551,627	375,360	-0,032	-0,047
-550,612	-10,228	-0,036	0,017
-549,598	140,833	0,033	-0,031
-548,583	-42,481	-0,129	-0,047
-547,569	-73,666	0,087	-0,023
-546,554	511,458	0,022	-0,037
-545,539	-138,525	0,052	-0,004
-544,525	-120,685	0,037	0,004
-543,510	-52,878	-0,111	0,037
-542,496	-53,164	-0,127	0,042
-541,481	117,485	-0,083	-0,074
-540,466	800,000	0,012	-0,035
-539,452	108,776	-0,008	-0,007
-538,437	36,905	-0,092	0,059
-537,423	57,437	-0,035	-0,024
-536,408	-200,000	-0,032	0,122
-535,393	-21,834	-0,100	-0,043
-534,379	0,603	0,136	-0,070
-533,364	-46,361	0,083	0,029
-532,350	-136,257	0,153	0,013
-531,335	-200,000	-0,015	-0,068
-530,321	800,000	-0,017	0,036
-529,306	800,000	-0,034	0,082
-528,291	390,564	-0,085	-0,128
-527,277	33,236	-0,057	-0,036
-526,262	-107,459	-0,125	0,020
-525,248	-6,563	0,108	-0,053
-524,233	349,571	-0,038	0,054
-523,218	466,765	-0,027	0,044
-522,204	-116,092	-0,100	0,013
-521,189	-200,000	-0,001	0,045
-520,175	-10,200	-0,063	-0,030
-519,160	-47,608	-0,142	-0,049
-518,145	-200,000	0,026	-0,083
-517,131	180,609	0,131	0,139
-516,116	424,146	-0,045	-0,070
-515,102	-15,318	0,116	0,053
-514,087	83,051	-0,073	0,057
-513,072	8,490	-0,153	-0,083
-512,058	-200,000	-0,000	-0,037
-511,043	-200,000	-0,011	0,045
-510,029	800,000	0,037	0,074
-509,014	-147,139	0,045	0,003
-507,999	118,500	-0,040	-0,035
-506,985	-50,516	0,058	0,019
-505,970	-18,869	-0,115	-0,051
-504,956	722,853	-0,073	-0,141
-503,941	309,502	0,022	-0,029
-502,926	284,733	0,093	0,121
-501,912	800,000	0,045	-0,098
-500,897	93,149	-0,081	-0,066
-499,883	-49,411	-0,071	-0,024
-498,868	-200,000	0,002	-0,018
-497,853	11,132	-0,160	0,088
-496,839	17,269	-0,072	0,041
-495,824	219,148	-0,016	0,019
-494,810	231,279	-0,122	0,144
-493,795	-121,920	0,047	-0,005
-492,781	341,040	-0,065	-0,092
-491,766	-12,101	-0,009	-0,004
-490,751	18,335	-0,061	-0,035
-489,737	302,950	-0,054	-0,072
-488,722	-45,180	-0,105	-0,037
-487,708	-24,291	0,055	0,024
-486,693	-31,358	-0,087	0,035
-485,678	-200,000	0,026	0,086
-484,664	348,230	0,013	-0,019
-483,649	46,995	0,029	0,019
-482,635	-4,619	-0,126	0,062
-481,620	-55,998	-0,042	-0,013
-480,605	-79,134	0,150	-0,036
-479,591	-200,000	-0,024	0,104
-478,576	37,065	0,092	0,058
-477,562	339,189	-0,056	-0,078
-476,547	-34,171	0,159	-0,062
-475,532	108,622	0,099	0,085
-474,518	550,249	-0,048	-0,082
-473,503	16,899	0,076	0,043
-472,489	-200,000	-0,027	0,101
-471,474	800,000	-0,013	0,034
-470,459	411,987	-0,052	0,080
-469,445	-130,886	-0,107	0,010
-468,430	194,029	-0,018	-0,019
-467,416	800,000	0,034	0,070
-466,401	-41,106	0,067	0,025
-465,386	-71,799	0,092	0,024
-464,372	-112,188	0,117	-0,017
-463,357	288,842	0,060	0,078
-462,343	-4,539	0,095	-0,047
-461,328	243,436	-0,033	0,039
-460,313	-168,557	-0,040	-0,001
-459,299	-65,853	0,082	-0,023
-458,284	-54,136	-0,094	0,030
-457,270	-0,670	0,035	0,018
-456,255	46,852	-0,067	0,045
-455,241	238,068	0,074	-0,088
-454,226	34,704	-0,100	-0,063
-453,211	132,739	0,072	0,067
-452,197	-119,258	0,090	-0,011
-451,182	31,222	0,088	0,054
-450,168	800,000	-0,024	0,064
-449,153	800,000	-0,029	-0,064
-448,138	150,804	0,045	0,044
-447,124	800,000	-0,023	0,067
-446,109	-200,000	0,010	0,100
-445,095	111,492	0,056	-0,048
-444,080	-200,000	0,007	0,036
-443,065	-165,120	0,055	-0,002
-442,051	218,556	-0,036	0,041
-441,036	209,080	-0,070	-0,079
-440,022	-200,000	-0,002	0,026
-439,007	-69,640	-0,084	0,023
-437,992	-109,469	-0,050	0,007
-436,978	-107,772	0,162	-0,025
-435,963	-200,000	-0,003	-0,056
-434,949	34,977	-0,112	-0,070
-433,934	800,000	-0,043	0,097
-432,919	-53,637	-0,133	0,043
-431,905	-56,549	0,127	0,040
-430,890	800,000	0,026	-0,067
-429,876	-146,840	-0,113	-0,007
-428,861	515,900	-0,093	0,156
-427,846	213,744	0,040	0,045
-426,832	147,226	0,017	0,016
-425,817	-55,796	0,055	0,017
-424,803	172,459	0,036	0,037
-423,788	-55,959	-0,059	0,019
-422,773	-200,000	0,001	0,032
-421,759	12,484	0,124	0,068
-420,744	800,000	-0,032	-0,074
-419,730	-200,000	-0,006	-0,040
-418,715	-82,172	0,038	-0,009
-417,701	800,000	-0,026	-0,080
-416,686	240,445	0,081	0,097
-415,671	159,977	0,100	0,100
-414,657	800,000	0,054	0,167
-413,642	800,000	0,012	0,026
-412,628	280,692	0,012	-0,015
-411,613	466,837	0,036	-0,058
-410,598	28,152	-0,070	0,042
-409,584	-200,000	-0,023	0,099
-408,569	196,293	0,077	0,084
-407,555	800,000	-0,086	0,181
-406,540	800,000	-0,053	0,121
-405,525	-200,000	0,012	-0,075
-404,511	-57,023	-0,112	0,035
-403,496	-200,000	0,016	-0,058
-402,482	0,257	-0,093	-0,047
-401,467	-200,000	0,115	0,000
-400,452	-161,073	0,141	-0,005
-399,438	175,758	0,024	0,025
-398,423	-186,300	0,074	-0,001
-397,409	247,309	0,041	0,050
-396,394	-200,000	-0,008	-0,081
-395,379	800,000	-0,028	-0,074
-394,365	-78,733	0,047	0,011
-393,350	-44,848	0,133	0,047
-392,336	-200,000	-0,006	-0,136
-391,321	-85,135	-0,131	-0,029
-390,306	800,000	-0,042	-0,131
-389,292	-123,776	0,020	-0,002
-388,277	-108,842	-0,031	0,005
-387,263	-125,509	0,119	-0,013
-386,248	206,318	-0,069	0,077
-385,233	800,000	0,042	0,101
-384,219	-200,000	0,021	0,070
-383,204	-32,635	-0,095	-0,038
-382,190	-3,132	0,126	-0,063
-381,175	559,546	0,053	0,092
-380,160	90,578	0,073	-0,058
-379,146	800,000	0,039	0,094
-378,131	47,451	-0,010	0,007
-377,117	149,524	0,086	-0,083
-376,102	114,204	-0,038	-0,033
-375,088	-14,995	0,087	0,040
-374,073	-159,184	-0,060	-0,002
-373,058	-113,313	0,030	-0,004
-372,044	65,332	0,112	0,081
-371,029	582,242	0,047	-0,082
-370,015	-80,928	-0,091	0,021
-369,000	-173,710	-0,068	0,001
-367,985	63,644	-0,074	-0,053
-366,971	-121,699	-0,080	0,009
-365,956	-200,000	0,024	0,090
-364,942	123,122	0,064	0,058
-363,927	-42,667	0,039	-0,014
-362,912	-90,499	0,158	-0,032
-361,898	588,676	-0,046	-0,082
-360,883	-110,910	-0,128	-0,019
-359,869	-200,000	-0,038	-0,127
-358,854	-200,000	0,020	0,121
-357,839	32,570	0,161	0,099
-356,825	-20,197	0,069	0,030
-355,810	-200,000	0,159	0,000
-354,796	257,090	-0,084	-0,104
-353,781	-200,000	-0,030	-0,104
-352,766	445,031	-0,028	-0,044
-351,752	422,478	-0,071	-0,109
-350,737	-200,000	-0,004	-0,043
-349,723	-74,292	0,099	0,025
-348,708	677,727	0,039	0,073
-347,693	-6,689	-0,183	0,088
-346,679	-200,000	-0,001	-0,047
-345,664	-200,000	0,007	-0,080
-344,650	72,038	0,064	0,047
-343,635	-200,000	-0,016	0,052
-342,620	-81,358	0,028	-0,007
-341,606	-200,000	0,032	0,151
-340,591	179,603	-0,067	0,070
-339,577	800,000	0,021	-0,042
-338,562	239,457	-0,063	-0,075
-337,548	79,201	0,065	0,050
-336,533	-4,530	-0,101	0,050
-335,518	-200,000	0,006	0,154
-334,504	-200,000	0,009	0,058
-333,489	-83,601	-0,112	0,025
-332,475	800,000	0,045	-0,094
-331,460	248,127	-0,075	0,091
-330,445	-200,000	0,016	0,095
-329,431	-106,550	0,078	0,012
-328,416	-65,462	0,088	-0,025
-327,402	-57,381	-0,017	0,005
-326,387	167,252	-0,044	0,045
-325,372	-200,000	-0,026	-0,154
-324,358	502,319	-0,051	0,084
-323,343	47,644	-0,082	-0,054
-322,329	-200,000	0,006	-0,054
-321,314	-200,000	0,003	0,053
-320,299	667,714	0,040	0,075
-319,285	16,890	-0,013	-0,007
-318,270	305,496	0,058	-0,076
-317,256	-106,144	-0,141	-0,022
-316,241	253,414	0,030	-0,036
-315,226	800,000	-0,017	0,051
-314,212	300,330	0,034	-0,044
-313,197	-24,733	0,097	-0,041
-312,183	-24,752	0,073	-0,031
-311,168	170,045	0,084	-0,086
-310,153	-200,000	-0,030	-0,144
-309,139	-69,857	-0,058	0,016
-308,124	800,000	-0,078	-0,176
-307,110	-200,000	0,004	-0,024
-306,095	-6,032	0,141	0,068
-305,080	176,991	0,085	0,089
-304,066	521,432	-0,055	-0,093
-303,051	1,778	0,029	0,015
-302,037	800,000	0,043	0,096
-301,022	-55,973	-0,160	0,051
-300,008	-100,985	0,092	-0,016
-298,993	-126,117	-0,013	-0,001
-297,978	42,383	0,018	0,011
-296,964	-16,902	0,089	-0,040
-295,949	800,000	0,059	-0,127
-294,935	393,281	-0,097	-0,144
-293,920	-182,138	-0,059	0,001
-292,905	-200,000	-0,006	0,187
-291,891	-200,000	-0,009	-0,066
-290,876	528,492	0,007	0,011
-289,862	173,854	0,104	0,107
-288,847	800,000	-0,019	-0,054
-287,832	-85,563	-0,055	-0,012
-286,818	800,000	-0,037	-0,076
-285,803	308,311	-0,117	0,156
-284,789	84,399	0,105	0,082
-283,774	800,000	-0,054	0,164
-282,759	-67,833	-0,075	0,021
-281,745	26,466	0,163	0,097
-280,730	60,509	-0,178	-0,126
-279,716	-200,000	0,007	-0,067
-278,701	-200,000	-0,001	-0,157
-277,686	34,742	-0,045	0,028
-276,672	800,000	-0,021	0,044
-275,657	-200,000	-0,009	-0,040
-274,643	-200,000	0,014	0,066
-273,628	154,048	0,122	-0,119
-272,613	-50,149	-0,097	0,033
-271,599	491,298	0,075	0,122
-270,584	128,076	0,115	0,105
-269,570	-117,893	-0,203	0,026
-268,555	453,933	0,032	-0,051
-267,540	0,234	0,032	0,016
-266,526	-200,000	0,008	-0,043
-265,511	-43,417	-0,049	0,017
-264,497	121,962	0,014	0,013
-263,482	-75,389	0,182	0,046
-262,467	281,992	0,029	0,037
-261,453	203,556	0,041	0,045
-260,438	-75,801	-0,064	0,016
-259,424	-200,000	0,008	-0,040
-258,409	205,765	-0,065	-0,072
-257,395	-200,000	0,033	-0,180
-256,380	276,891	0,061	-0,078
-255,365	202,579	0,028	0,030
-254,351	800,000	0,033	0,066
-253,336	-17,631	-0,068	-0,030
-252,322	82,935	-0,158	-0,122
-251,307	306,280	-0,065	-0,086
-250,292	-200,000	-0,008	-0,035
-249,278	-53,589	0,076	0,025
-248,263	-100,470	0,158	0,028
-247,249	368,490	-0,038	0,056
-246,234	273,930	0,015	-0,019
-245,219	-95,051	0,076	0,014
-244,205	138,470	-0,059	-0,055
-243,190	-200,000	-0,030	0,111
-242,176	-135,683	0,036	-0,003
-241,161	350,335	0,034	0,048
-240,146	322,194	0,078	0,106
-239,132	-59,534	-0,122	0,037
-238,117	800,000	-0,057	-0,118
-237,103	800,000	-0,024	0,047
-236,088	-96,914	-0,183	0,034
-235,073	514,792	0,018	-0,029
-234,059	-200,000	0,018	0,127
-233,044	338,709	-0,012	-0,017
-232,030	-200,000	-0,023	-0,123
-231,015	509,362	-0,037	-0,062
-230,000	-200,000	-0,015	-0,050
-228,986	26,668	-0,047	0,028
-227,971	311,914	0,045	0,060
-226,957	800,000	0,059	-0,186
-225,942	37,178	0,164	-0,103
-224,927	800,000	0,035	0,080
-223,913	-95,672	-0,206	0,039
-222,898	-200,000	0,013	-0,162
-221,884	-31,905	-0,063	-0,025
-220,869	-200,000	0,015	-0,061
-219,855	-89,986	0,027	-0,005
-218,840	-200,000	0,013	0,101
-217,825	758,994	0,081	0,156
-216,811	668,674	-0,049	0,090
-215,796	-200,000	-0,037	-0,194
-214,782	-132,598	0,070	0,006
-213,767	-200,000	0,018	0,105
-212,752	-9,179	0,149	-0,071
-211,738	-200,000	0,014	0,066
-210,723	21,999	-0,091	-0,053
-209,709	276,296	-0,085	0,108
-208,694	800,000	-0,034	-0,106
-207,679	-179,754	-0,108	-0,002
-206,665	86,860	-0,054	0,042
-205,650	397,720	-0,095	0,141
-204,636	86,951	-0,029	-0,023
-203,621	439,051	-0,057	-0,089
-202,606	80,848	-0,106	-0,081
-201,592	359,249	-0,038	-0,054
-200,577	193,438	0,072	-0,077
-199,563	-66,877	0,088	-0,025
-198,548	800,000	-0,027	-0,083
-197,533	800,000	-0,037	-0,089
-196,519	-200,000	0,014	0,059
-195,504	435,983	-0,021	-0,033
-194,490	309,410	-0,038	-0,051
-193,475	-200,000	-0,011	0,101
-192,460	-113,275	-0,021	-0,003
-191,446	-36,827	0,098	-0,037
-190,431	-82,935	0,052	-0,012
-189,417	583,178	0,013	0,023
-188,402	36,360	0,076	0,047
-187,387	800,000	-0,029	-0,091
-186,373	-19,081	-0,207	-0,091
-185,358	800,000	-0,017	-0,034
-184,344	-200,000	-0,004	0,098
-183,329	-152,417	0,092	-0,005
-182,315	-200,000	0,012	-0,058
-181,300	-11,051	-0,121	0,056
-180,285	228,811	0,059	0,068
-179,271	104,664	0,062	-0,052
-178,256	-107,139	0,140	0,022
-177,242	-91,635	0,098	-0,020
-176,227	-106,228	0,159	0,025
-175,212	-189,691	0,094	-0,001
-174,198	-106,090	-0,161	0,025
-173,183	-122,025	0,022	-0,003
-172,169	-200,000	-0,041	-0,133
-171,154	-200,000	-0,015	0,065
-170,139	800,000	0,057	0,150
-169,125	-17,777	0,141	0,062
-168,110	-200,000	-0,042	0,163
-167,096	-179,437	0,063	-0,001
-166,081	-200,000	0,039	-0,169
-165,066	193,993	0,033	-0,036
-164,052	800,000	-0,030	-0,075
-163,037	-20,596	0,198	-0,086
-162,023	-108,703	0,034	0,005
-161,008	-200,000	-0,011	0,115
-159,993	165,680	0,040	-0,040
-158,979	56,865	0,085	0,058
-157,964	-0,771	-0,181	-0,090
-156,950	370,748	0,030	-0,043
-155,935	251,014	0,048	0,058
-154,920	-200,000	0,008	-0,038
-153,906	1,463	-0,072	0,037
-152,891	-200,000	0,013	0,124
-151,877	-38,982	-0,035	0,013
-150,862	173,023	-0,067	-0,068
-149,847	5,555	0,104	0,054
-148,833	-37,545	0,141	-0,053
-147,818	-1,640	0,108	-0,054
-146,804	27,503	0,070	-0,041
-145,789	92,662	0,065	0,052
-144,775	23,424	-0,066	0,038
-143,760	-26,936	0,022	-0,009
-142,745	-200,000	-0,015	-0,112
-141,731	65,031	0,076	0,054
-140,716	-200,000	0,013	-0,044
-139,702	260,577	-0,039	-0,048
-138,687	-17,306	-0,045	-0,020
-137,672	-93,317	0,126	-0,025
-136,658	800,000	-0,009	0,022
-135,643	-126,690	-0,143	0,015
-134,629	800,000	-0,037	-0,090
-133,614	-90,834	0,205	-0,041
-132,599	157,747	0,056	0,055
-131,585	389,239	0,046	0,068
-130,570	245,421	0,009	0,011
-129,556	141,124	-0,044	-0,041
-128,541	-200,000	-0,046	-0,162
-127,526	-94,256	0,116	-0,022
-126,512	327,231	0,075	0,102
-125,497	-104,933	0,108	-0,017
-124,483	-99,125	-0,029	0,005
-123,468	-200,000	-0,005	-0,017
-122,453	-106,245	-0,050	-0,008
-121,439	163,159	-0,084	-0,083
-120,424	-200,000	-0,019	0,065
-119,410	469,564	-0,058	0,092
-118,395	194,816	0,069	0,075
-117,380	-178,689	-0,069	0,001
-116,366	108,975	0,114	0,097
-115,351	262,789	-0,086	-0,106
-114,337	800,000	0,044	-0,105
-113,322	297,682	-0,043	-0,056
-112,307	800,000	0,024	-0,070
-111,293	621,744	0,046	-0,082
-110,278	664,876	-0,038	-0,070
-109,264	699,140	0,022	0,042
-108,249	-200,000	0,001	-0,084
-107,234	800,000	0,045	-0,136
-106,220	279,293	0,144	-0,182
-105,205	251,555	0,041	-0,049
-104,191	122,587	-0,050	0,044
-103,176	725,841	-0,066	0,126
-102,162	7,293	0,038	0,020
-101,147	800,000	0,039	0,093
-100,132	-200,000	-0,043	-0,208
-99,118	-200,000	0,002	0,056
-98,103	-30,230	-0,102	0,041
-97,089	-145,423	-0,077	-0,005
-96,074	-200,000	0,030	0,128
-95,059	93,421	0,070	0,056
-94,045	-200,000	-0,023	-0,104
-93,030	59,407	-0,153	-0,106
-92,016	-13,709	-0,067	0,031
-91,001	298,014	0,048	0,062
-89,986	-200,000	0,035	0,123
-88,972	-157,047	0,132	-0,006
-87,957	-154,376	-0,084	0,004
-86,943	-1,002	0,118	0,059
-85,928	-200,000	-0,001	-0,032
-84,913	-23,548	-0,055	0,023
-83,899	-200,000	-0,007	-0,070
-82,884	800,000	-0,064	0,141
-81,870	174,118	-0,033	0,034
-80,855	501,618	0,032	-0,052
-79,840	-183,526	-0,081	-0,001
-78,826	84,308	-0,049	0,038
-77,811	-7,609	0,090	-0,043
-76,797	393,025	-0,099	-0,146
-75,782	-200,000	0,008	0,107
-74,767	635,377	0,001	-0,001
-73,753	72,924	0,096	-0,071
-72,738	360,856	-0,103	-0,146
-71,724	-86,323	0,165	-0,036
-70,709	-200,000	0,022	0,118
-69,694	51,948	-0,059	-0,039
-68,680	29,225	0,129	-0,077
-67,665	430,660	0,077	0,119
-66,651	-39,237	0,139	-0,051
-65,636	-200,000	0,004	0,077
-64,622	800,000	-0,038	-0,087
-63,607	365,888	-0,085	-0,122
-62,592	52,411	-0,050	-0,034
-61,578	-200,000	0,005	-0,032
-60,563	-98,716	0,161	-0,029
-59,549	376,829	-0,085	0,123
-58,534	48,507	-1,843	-1,217
-57,519	618,797	-1,229	-2,189
-56,505	-200,000	-0,492	-4,625
-55,490	372,363	0,880	1,265
-54,476	800,000	5,288	11,752
-53,461	-200,000	21,636	345,591
-52,446	800,000	763,346	2366,936
-51,432	556,158	1666,498	2844,893
-50,417	73,020	1663,229	1225,583
-49,403	17,771	1536,704	861,052
-48,388	11,748	1460,353	789,086
-47,373	19,624	1451,744	822,265
-46,359	15,305	1440,895	795,515
-45,344	10,039	1436,866	768,140
-44,330	9,973	1434,791	766,684
-43,315	9,959	1433,129	765,699
-42,300	9,977	1431,195	764,719
-41,286	9,990	1429,865	764,039
-40,271	9,927	1428,649	763,063
-39,257	9,979	1427,575	762,703
-38,242	10,011	1426,362	762,178
-37,227	9,984	1425,327	761,465
-36,213	9,964	1424,069	760,668
-35,198	10,011	1422,944	760,259
-34,184	10,054	1421,881	759,868
-33,169	9,978	1420,553	758,769
-32,154	10,011	1419,608	758,386
-31,140	10,005	1418,311	757,638
-30,125	10,054	1417,206	757,246
-29,111	9,980	1416,158	756,310
-28,096	9,973	1414,840	755,540
-27,082	9,938	1413,540	754,651
-26,067	9,964	1412,626	754,259
-25,052	9,950	1411,650	753,642
-24,038	9,973	1410,568	753,143
-23,023	10,000	1409,697	752,774
-22,009	9,957	1408,709	752,014
-20,994	9,945	1407,698	751,386
-19,979	9,976	1406,744	750,992
-18,965	9,918	1405,699	750,134
-17,950	9,915	1404,853	749,642
-16,936	9,897	1404,007	749,075
-15,921	9,841	1403,211	748,361
-14,906	9,848	1402,208	747,825
-13,892	9,890	1401,024	747,361
-12,877	9,892	1400,309	746,961
-11,863	9,866	1399,537	746,396
-10,848	9,802	1398,817	745,688
-9,833	9,773	1397,783	744,970
-8,819	9,755	1396,911	744,395
-7,804	9,738	1396,122	743,866
-6,790	9,796	1394,981	743,496
-5,775	9,736	1393,955	742,644
-4,760	9,794	1392,846	742,290
-3,746	9,750	1392,136	741,678
-2,731	9,766	1391,091	741,166
-1,717	9,747	1390,279	740,616
-0,702	9,731	1388,577	739,604
0,313	13,750	1300,702	711,215
1,327	29,919	690,219	414,081
2,342	46,290	119,488	77,991
3,356	2,385	16,608	8,450
4,371	6,522	3,581	1,871
5,386	9,844	0,987	0,527
6,400	-200,000	0,167	0,566
7,415	-45,919	-0,201	-0,069
8,429	76,204	-0,220	-0,164
9,444	-12,315	-0,407	-0,187
10,459	315,808	-0,220	-0,293
11,473	21,867	-0,277	-0,159
12,488	42,955	-0,244	-0,156
13,502	-85,394	-0,352	-0,077
14,517	29,615	-0,309	-0,185
15,531	169,021	-0,217	-0,218
16,546	-39,481	-0,481	-0,177
17,561	144,940	-0,258	-0,243
18,575	188,347	-0,123	-0,130
19,590	23,274	-0,291	-0,168
20,604	-86,403	-0,263	-0,057
21,619	258,123	-0,247	-0,301
22,634	138,642	-0,405	-0,375
23,648	56,852	-0,417	-0,286
24,663	77,045	-0,368	-0,275
25,677	184,070	-0,327	-0,341
26,692	289,830	-0,202	-0,259
27,707	60,889	-0,335	-0,233
28,721	-16,473	-0,458	-0,204
29,736	133,874	-0,357	-0,325
30,750	79,544	-0,456	-0,344
31,765	137,348	-0,331	-0,304
32,780	123,435	-0,240	-0,212
33,794	-52,533	-0,254	-0,082
34,809	-15,375	-0,469	-0,210
35,823	48,205	-0,238	-0,156
36,838	-22,532	-0,442	-0,187
37,853	119,931	-0,336	-0,293
38,867	306,111	-0,314	-0,412
39,882	21,180	-0,335	-0,191
40,896	153,034	-0,260	-0,251
41,911	3,057	-0,305	-0,155
42,926	395,800	-0,222	-0,327
43,940	-58,222	-0,453	-0,138
44,955	17,363	-0,477	-0,265
45,969	96,116	-0,455	-0,365
46,984	56,298	-0,372	-0,253
47,999	-59,639	-0,295	-0,088
49,013	-36,293	-0,330	-0,124
50,028	4,835	-0,295	-0,152
51,042	70,253	-0,393	-0,285
52,057	10,984	-0,372	-0,199
53,071	-67,104	-0,348	-0,096
54,086	58,106	-0,173	-0,119
55,101	152,164	-0,301	-0,288
56,115	26,432	-0,276	-0,161
57,130	151,872	-0,278	-0,266
58,144	127,435	-0,423	-0,377
59,159	21,424	-0,366	-0,208
60,174	421,707	-0,188	-0,284
61,188	11,820	-0,463	-0,249
62,203	233,380	-0,220	-0,255
63,217	-6,733	-0,341	-0,162
64,232	-29,271	-0,284	-0,114
65,247	58,499	-0,374	-0,257
66,261	7,778	-0,418	-0,219
67,276	47,059	-0,453	-0,295
68,290	239,346	-0,187	-0,219
69,305	69,598	-0,294	-0,212
70,320	3,478	-0,236	-0,120
71,334	21,764	-0,277	-0,158
72,349	-62,512	-0,306	-0,088
73,363	117,309	-0,410	-0,353
74,378	39,645	-0,457	-0,286
75,393	333,453	-0,133	-0,181
76,407	45,801	-0,334	-0,216
77,422	72,657	-0,172	-0,126
78,436	140,432	-0,270	-0,250
79,451	55,654	-0,238	-0,161
80,466	-3,931	-0,360	-0,174
81,480	58,351	-0,284	-0,195
82,495	94,679	-0,226	-0,180
83,509	296,492	-0,343	-0,441
84,524	1,977	-0,180	-0,090
85,539	81,865	-0,171	-0,129
86,553	40,753	-0,257	-0,162
87,568	-67,684	-0,285	-0,078
88,582	13,261	-0,520	-0,281
89,597	252,378	-0,181	-0,216
90,611	75,096	-0,249	-0,184
91,626	-32,116	-0,298	-0,116
92,641	-3,239	-0,284	-0,138
93,655	-63,046	-0,379	-0,109
94,670	305,618	-0,222	-0,290
95,684	149,530	-0,229	-0,217
96,699	-44,547	-0,312	-0,109
97,714	-10,792	-0,270	-0,124
98,728	418,865	-0,218	-0,327
99,743	-102,018	-0,213	0,036
100,757	86,124	-0,177	-0,136
101,772	86,688	-0,167	-0,129
102,787	63,355	-0,205	-0,144
103,801	378,840	-0,226	-0,324
104,816	104,737	-0,215	-0,177
105,830	-48,693	-0,364	-0,122
106,845	-55,577	-0,290	-0,090
107,860	-100,037	-0,343	-0,059
108,874	1,036	-0,289	-0,144
109,889	229,285	-0,232	-0,265
110,903	274,523	-0,233	-0,289
111,918	269,445	-0,172	-0,212
112,933	212,647	-0,180	-0,199
113,947	-136,556	-0,274	0,022
114,962	-13,997	-0,210	-0,095
115,976	220,881	-0,103	-0,116
116,991	-33,020	-0,284	-0,110
118,006	164,464	-0,241	-0,237
119,020	297,010	-0,168	-0,215
120,035	24,083	-0,361	-0,208
121,049	40,536	-0,210	-0,132
122,064	-31,255	-0,231	-0,091
123,079	48,713	-0,210	-0,138
124,093	39,440	-0,251	-0,157
125,108	341,020	-0,179	-0,245
126,122	-27,442	-0,397	-0,161
127,137	-78,083	-0,234	-0,056
128,151	61,045	-0,277	-0,192
129,166	104,294	-0,177	-0,145
130,181	44,144	-0,241	-0,154
131,195	293,020	-0,175	-0,223
132,210	17,679	-0,368	-0,204
133,224	247,634	-0,118	-0,140
134,239	160,925	-0,151	-0,147
135,254	10,553	-0,227	-0,120
136,268	216,937	-0,211	-0,234
137,283	25,935	-0,231	-0,134
138,297	187,454	-0,199	-0,207
139,312	157,552	-0,222	-0,215
140,327	-200,000	-0,086	-0,281
141,341	65,560	-0,247	-0,174
142,356	71,803	-0,273	-0,198
143,370	117,249	-0,194	-0,166
144,385	245,156	-0,185	-0,217
145,400	178,760	-0,279	-0,284
146,414	93,163	-0,269	-0,212
147,429	132,371	-0,165	-0,148
148,443	212,990	-0,157	-0,173
149,458	23,131	-0,241	-0,138
150,473	-53,406	-0,255	-0,081
151,487	-36,322	-0,273	-0,102
152,502	105,960	-0,197	-0,162
153,516	343,422	-0,178	-0,243
154,531	55,476	-0,194	-0,130
155,546	-68,124	-0,181	-0,049
156,560	-9,279	-0,147	-0,068
157,575	67,614	-0,216	-0,153
158,589	-13,246	-0,165	-0,074
159,604	119,375	-0,249	-0,214
160,619	331,582	-0,210	-0,282
161,633	-32,791	-0,250	-0,096
162,648	185,750	-0,179	-0,185
163,662	-10,538	-0,198	-0,091
164,677	14,462	-0,244	-0,132
165,692	148,575	-0,165	-0,155
166,706	326,045	-0,182	-0,242
167,721	25,753	-0,287	-0,166
168,735	95,642	-0,382	-0,303
169,750	188,465	-0,182	-0,189
170,764	203,175	-0,123	-0,133
171,779	246,482	-0,153	-0,180
172,794	323,016	-0,197	-0,262
173,808	-132,623	-0,252	-0,022
174,823	2,199	-0,211	-0,106
175,837	157,663	-0,206	-0,198
176,852	377,553	-0,191	-0,273
177,867	225,712	-0,140	-0,157
178,881	22,587	-0,236	-0,134
179,896	-16,212	-0,211	-0,093
180,910	12,458	-0,268	-0,143
181,925	-42,669	-0,339	-0,119
182,940	55,790	-0,310	-0,208
183,954	82,154	-0,298	-0,224
184,969	230,755	-0,208	-0,237
185,983	107,773	-0,196	-0,162
186,998	221,461	-0,169	-0,188
188,013	150,233	-0,130	-0,123
189,027	65,001	-0,240	-0,168
190,042	80,469	-0,274	-0,205
191,056	123,133	-0,174	-0,151
192,071	133,796	-0,264	-0,237
193,086	-200,000	-0,251	0,000
194,100	-3,497	-0,193	-0,093
195,115	271,353	-0,195	-0,239
196,129	663,354	-0,146	-0,263
197,144	196,471	-0,179	-0,190
198,159	73,945	-0,274	-0,199
199,173	88,751	-0,189	-0,146
200,188	-7,216	-0,213	-0,100
201,202	15,459	-0,144	-0,078
202,217	190,351	-0,134	-0,140
203,232	-54,416	-0,289	-0,090
204,246	14,441	-0,211	-0,114
205,261	104,825	-0,132	-0,108
206,275	800,000	-0,065	-0,141
207,290	104,535	-0,253	-0,206
208,304	-200,000	-0,091	-0,280
209,319	646,094	-0,141	-0,251
210,334	340,583	-0,273	-0,370
211,348	-45,541	-0,316	-0,108
212,363	170,765	-0,193	-0,192
213,377	-200,000	-0,018	-0,104
214,392	-122,248	-0,110	-0,012
215,407	-98,021	-0,167	0,029
216,421	236,189	-0,166	-0,191
217,436	712,821	0,045	-0,084
218,450	-147,059	-0,135	-0,008
219,465	-110,898	-0,214	-0,030
220,480	-148,927	-0,114	-0,006
221,494	800,000	-0,039	-0,077
222,509	-50,350	-0,186	-0,061
223,523	-12,939	-0,131	-0,059
224,538	104,719	-0,234	-0,190
225,553	-54,137	-0,299	-0,093
226,567	39,952	-0,335	-0,208
227,582	-41,466	-0,200	-0,071
228,596	-78,654	-0,138	-0,032
229,611	4,525	-0,071	0,036
230,626	131,048	-0,111	-0,099
231,640	27,308	-0,165	-0,096
232,655	-47,659	-0,346	-0,115
233,669	-111,612	-0,232	0,032
234,684	68,008	-0,226	-0,160
235,699	-200,000	-0,009	-0,113
236,713	-59,784	-0,128	0,038
237,728	82,254	-0,106	-0,080
238,742	193,776	-0,135	-0,141
239,757	63,137	-0,236	-0,163
240,772	53,526	-0,205	-0,136
241,786	142,658	-0,141	-0,129
242,801	-137,301	-0,187	-0,014
243,815	51,714	-0,136	-0,089
244,830	-54,388	-0,310	-0,097
245,844	-148,130	-0,176	-0,010
246,859	22,264	-0,220	-0,124
247,874	67,845	-0,231	-0,163
248,888	211,769	-0,189	-0,205
249,903	37,993	-0,085	-0,052
250,917	800,000	-0,076	-0,168
251,932	53,593	-0,195	-0,129
252,947	-200,000	-0,016	-0,181
253,961	360,938	-0,121	-0,167
254,976	531,214	-0,082	-0,134
255,990	-83,736	-0,225	-0,049
257,005	308,022	-0,173	-0,223
258,020	-167,570	-0,188	-0,005
259,034	-36,923	-0,180	-0,066
260,049	-32,799	-0,198	-0,076
261,063	299,317	-0,170	-0,217
262,078	28,674	-0,276	-0,161
263,093	800,000	-0,092	-0,227
264,107	88,009	-0,209	-0,160
265,122	13,213	-0,251	-0,134
266,136	-28,031	-0,214	-0,085
267,151	-15,301	-0,265	-0,116
268,166	-51,216	-0,210	-0,067
269,180	-49,906	-0,210	-0,068
270,195	452,235	-0,161	-0,246
271,209	-3,493	-0,182	-0,087
272,224	-1,919	-0,244	-0,118
273,239	546,621	-0,158	-0,261
274,253	-39,974	-0,295	-0,105
275,268	-116,514	-0,110	-0,014
276,282	-33,512	-0,166	-0,063
277,297	5,859	-0,194	-0,099
278,312	80,381	-0,138	-0,102
279,326	800,000	-0,020	-0,060
280,341	-108,639	-0,201	-0,029
281,355	112,923	-0,069	-0,058
282,370	14,099	-0,180	-0,096
283,384	800,000	-0,086	-0,179
284,399	665,966	-0,140	-0,249
285,414	131,076	-0,081	-0,071
286,428	81,844	-0,183	-0,136
287,443	63,869	-0,202	-0,139
288,457	91,556	-0,066	-0,051
289,472	-125,396	-0,138	0,014
290,487	151,897	-0,264	-0,248
291,501	184,192	-0,135	-0,138
292,516	30,553	-0,192	-0,113
293,530	365,951	-0,086	-0,120
294,545	-200,000	-0,044	-0,211
295,560	-17,189	-0,132	-0,057
296,574	63,580	-0,163	-0,112
297,589	9,156	-0,117	-0,061
298,603	-162,504	-0,265	-0,009
299,618	68,302	-0,129	-0,091
300,633	-40,396	-0,237	-0,084
301,647	54,792	-0,145	-0,096
302,662	209,890	-0,003	-0,004
303,676	303,261	-0,085	-0,109
304,691	90,113	-0,107	-0,082
305,706	-200,000	-0,043	-0,186
306,720	180,291	-0,174	-0,176
307,735	-200,000	-0,052	-0,286
308,749	-24,148	-0,258	-0,105
309,764	-200,000	0,004	-0,049
310,779	53,905	-0,192	-0,126
311,793	268,137	-0,144	-0,174
312,808	-3,240	-0,235	-0,112
313,822	73,989	-0,168	-0,121
314,837	51,571	-0,080	-0,052
315,852	74,318	-0,095	-0,068
316,866	-125,879	-0,026	-0,003
317,881	-7,584	-0,180	-0,083
318,895	-13,166	-0,242	-0,107
319,910	-200,000	-0,013	-0,199
320,925	193,615	-0,134	-0,139
321,939	-4,166	-0,124	-0,059
322,954	-117,023	-0,178	0,022
323,968	-175,221	-0,135	0,002
324,983	441,300	-0,090	-0,136
325,997	81,042	-0,125	-0,092
327,012	213,943	-0,201	-0,219
328,027	204,095	-0,074	-0,078
329,041	119,304	-0,180	-0,153
330,056	49,399	-0,145	-0,093
331,070	8,360	-0,142	-0,073
332,085	-1,273	-0,066	0,032
333,100	51,626	-0,050	-0,032
334,114	-31,719	-0,251	-0,096
335,129	174,399	-0,067	-0,066
336,143	-97,209	-0,146	-0,026
337,158	83,692	-0,202	-0,151
338,173	247,390	-0,067	-0,078
339,187	401,173	-0,031	-0,045
340,202	235,778	-0,072	-0,081
341,216	-135,330	-0,267	-0,022
342,231	-200,000	-0,027	-0,218
343,246	-69,376	-0,236	-0,062
344,260	-120,301	-0,192	-0,022
345,275	6,764	-0,170	-0,086
346,289	-166,687	-0,113	0,003
347,304	319,704	-0,144	-0,187
348,319	215,251	-0,158	-0,172
349,333	216,106	-0,170	-0,185
350,348	123,941	-0,110	-0,095
351,362	800,000	-0,079	-0,190
352,377	-89,030	-0,067	-0,013
353,392	169,039	-0,017	0,017
354,406	800,000	-0,055	-0,120
355,421	208,647	1310,053	1403,534
356,435	160,556	1470,167	1403,999
