DTS Sentinel unit serial number:	SN410029Multiplexer serial number:	ORYXHardware model number:	OX2-SRSoftware version number:	ORYX F/W v4,00 Oryx Data Collector v3.7.2.0data status	okinstallation	B3 Nyhavnadifferential loss correction	single-endedforward channel	channel 1reverse channel	N/Adate	2023/12/04time	08:07:30forward acquisition time	300,00reverse acquisition time	0,00gamma	499,1914k internal	0,3205k external	0,3205temperature offset calibration	1,0000default loss term (dB/km)	0,3820temperature slope calibration	1,0000multiplexer offset coefficient	1,0000multiplexer slope coefficient	1,0000fibre end	0,00T internal ref (°C)	12,56T ext. ref 1 (°C)	-1,79T ext. ref 2 (°C)	-1,81length (m)	temperature (°C)	Stokes	anti-Stokes-744,400	274,447	-0,229	-0,295
-743,385	-200,000	-0,023	0,205
-742,371	363,536	-0,199	-0,291
-741,356	-200,000	0,013	0,237
-740,342	240,920	-0,082	-0,099
-739,327	-200,000	-0,000	0,298
-738,312	800,000	-0,156	-0,405
-737,298	-200,000	-0,023	0,341
-736,283	380,758	-0,150	-0,225
-735,269	800,000	0,128	0,303
-734,254	800,000	-0,148	-0,312
-733,239	-79,614	-0,185	0,045
-732,225	-36,374	-0,114	-0,044
-731,210	73,179	0,058	0,044
-730,196	223,259	-0,028	-0,033
-729,181	-200,000	-0,014	-0,050
-728,167	425,878	0,036	-0,057
-727,152	-84,940	-0,071	-0,016
-726,137	403,694	0,063	-0,096
-725,123	405,191	-0,046	-0,071
-724,108	800,000	-0,062	-0,128
-723,094	-100,734	-0,148	0,026
-722,079	-200,000	0,008	-0,035
-721,064	45,719	-0,085	-0,057
-720,050	800,000	-0,031	-0,065
-719,035	294,019	-0,049	-0,065
-718,021	414,854	0,040	-0,062
-717,006	321,525	-0,052	0,072
-715,991	100,496	-0,066	-0,056
-714,977	-200,000	0,010	-0,114
-713,962	116,885	0,085	0,076
-712,948	-1,049	0,082	0,042
-711,933	-57,355	-0,068	0,022
-710,918	87,915	0,098	-0,078
-709,904	-200,000	-0,010	-0,066
-708,889	800,000	-0,051	-0,124
-707,875	150,488	-0,115	-0,113
-706,860	-151,994	-0,103	-0,005
-705,845	-200,000	-0,028	-0,190
-704,831	800,000	0,013	-0,035
-703,816	-200,000	-0,013	0,054
-702,802	-76,077	-0,088	-0,022
-701,787	30,554	-0,126	-0,078
-700,772	800,000	-0,020	-0,051
-699,758	153,254	0,053	-0,053
-698,743	30,541	-0,064	0,040
-697,729	-200,000	0,005	-0,085
-696,714	-109,136	0,086	0,013
-695,699	800,000	0,024	-0,077
-694,685	-47,454	-0,056	0,019
-693,670	-200,000	-0,041	-0,135
-692,656	56,353	0,116	0,081
-691,641	-200,000	-0,015	0,054
-690,627	38,346	0,103	0,066
-689,612	800,000	-0,030	-0,063
-688,597	-131,644	-0,024	-0,002
-687,583	-90,520	-0,102	-0,021
-686,568	65,128	-0,080	0,059
-685,554	90,402	0,064	-0,052
-684,539	204,308	-0,085	0,095
-683,524	-200,000	-0,070	0,000
-682,510	-200,000	-0,020	0,158
-681,495	-200,000	-0,025	0,100
-680,481	800,000	-0,041	-0,104
-679,466	304,406	-0,041	-0,055
-678,451	-200,000	0,000	-0,030
-677,437	-200,000	0,032	0,187
-676,422	-50,004	0,165	0,056
-675,408	186,319	-0,042	-0,045
-674,393	144,172	-0,023	0,022
-673,378	687,034	-0,040	-0,076
-672,364	-136,987	-0,092	-0,008
-671,349	-8,202	0,078	-0,038
-670,335	-133,349	-0,026	-0,002
-669,320	6,372	-0,039	0,021
-668,305	800,000	0,017	-0,052
-667,291	800,000	0,031	0,084
-666,276	420,852	-0,011	-0,016
-665,262	424,526	-0,098	-0,153
-664,247	554,487	0,046	-0,081
-663,232	268,117	0,046	0,059
-662,218	-67,865	-0,038	0,011
-661,203	-163,901	-0,092	-0,003
-660,189	128,141	0,046	-0,042
-659,174	-200,000	-0,003	-0,027
-658,159	-94,380	-0,063	0,012
-657,145	800,000	-0,031	0,077
-656,130	-38,380	0,153	0,058
-655,116	-61,986	-0,115	0,034
-654,101	-29,051	0,074	0,031
-653,086	-79,264	0,020	0,005
-652,072	-62,428	-0,094	0,028
-651,057	-200,000	0,048	-0,154
-650,043	-67,398	-0,111	-0,031
-649,028	-200,000	-0,006	-0,107
-648,014	239,360	0,059	0,071
-646,999	-39,836	-0,071	0,027
-645,984	-139,616	0,025	-0,002
-644,970	79,119	-0,040	-0,031
-643,955	-49,062	-0,118	-0,041
-642,941	-200,000	-0,031	-0,122
-641,926	800,000	-0,038	-0,118
-640,911	800,000	0,022	0,067
-639,897	-200,000	-0,010	0,165
-638,882	-169,161	0,083	-0,002
-637,868	800,000	0,071	0,175
-636,853	-154,519	-0,058	0,003
-635,838	-29,122	0,068	-0,028
-634,824	-146,630	-0,062	0,004
-633,809	-80,524	-0,123	-0,029
-632,795	-121,099	0,089	-0,011
-631,780	800,000	-0,023	-0,062
-630,765	-172,536	-0,158	0,004
-629,751	-119,591	-0,108	0,013
-628,736	1,356	-0,090	0,047
-627,722	64,981	-0,030	-0,022
-626,707	-2,549	0,171	0,086
-625,692	548,083	-0,018	-0,030
-624,678	-120,754	0,105	0,013
-623,663	800,000	-0,021	0,054
-622,649	261,305	-0,034	-0,042
-621,634	-15,526	-0,137	0,063
-620,619	-6,335	-0,068	-0,034
-619,605	-132,413	-0,061	-0,006
-618,590	-125,024	0,081	0,009
-617,576	-200,000	-0,024	-0,171
-616,561	82,074	-0,055	0,043
-615,546	-200,000	-0,006	0,090
-614,532	55,233	-0,173	-0,121
-613,517	-16,852	-0,080	-0,036
-612,503	-136,503	0,074	-0,006
-611,488	297,828	0,065	0,086
-610,474	-200,000	-0,001	0,044
-609,459	741,473	0,028	0,054
-608,444	132,426	-0,052	-0,049
-607,430	155,395	-0,099	-0,098
-606,415	59,843	-0,082	-0,058
-605,401	-3,459	0,129	-0,065
-604,386	102,012	0,101	0,085
-603,371	-109,246	0,071	0,011
-602,357	368,934	0,060	0,087
-601,342	-56,019	0,108	-0,034
-600,328	221,628	-0,123	-0,143
-599,313	800,000	0,049	-0,135
-598,298	-49,648	0,049	0,017
-597,284	291,378	0,067	-0,089
-596,269	800,000	-0,085	0,171
-595,255	-200,000	0,028	0,130
-594,240	32,543	-0,073	-0,045
-593,225	-179,337	-0,050	0,001
-592,211	-29,807	-0,007	0,003
-591,196	42,048	0,109	-0,071
-590,182	-144,321	0,141	-0,009
-589,167	-73,014	0,080	0,021
-588,152	-85,443	-0,038	-0,009
-587,138	-200,000	0,012	-0,069
-586,123	-89,631	-0,076	0,016
-585,109	-200,000	0,018	-0,077
-584,094	53,832	-0,024	0,017
-583,079	270,276	0,084	0,107
-582,065	-200,000	0,026	-0,146
-581,050	-200,000	-0,013	-0,067
-580,036	10,580	-0,047	-0,026
-579,021	259,832	-0,099	-0,123
-578,006	69,240	-0,073	-0,054
-576,992	-84,313	-0,114	0,026
-575,977	-183,557	0,149	0,002
-574,963	-98,180	0,038	0,007
-573,948	-200,000	-0,015	-0,054
-572,934	115,021	-0,044	0,039
-571,919	22,615	-0,059	-0,035
-570,904	18,586	-0,180	0,103
-569,890	800,000	0,020	0,060
-568,875	21,400	-0,037	-0,021
-567,861	206,207	0,040	-0,045
-566,846	129,912	0,094	0,087
-565,831	143,637	0,035	-0,034
-564,817	800,000	0,019	0,045
-563,802	-17,714	-0,116	-0,052
-562,788	-200,000	0,015	0,072
-561,773	133,481	-0,041	0,039
-560,758	292,526	0,121	0,160
-559,744	152,914	-0,073	-0,072
-558,729	-200,000	0,011	-0,054
-557,715	-84,054	-0,105	-0,024
-556,700	797,270	-0,056	-0,111
-555,685	800,000	0,027	-0,054
-554,671	-169,487	0,009	0,000
-553,656	94,665	-0,112	0,091
-552,642	-78,290	-0,132	0,032
-551,627	629,281	-0,088	0,161
-550,612	-200,000	0,008	-0,135
-549,598	800,000	-0,037	0,087
-548,583	652,514	-0,045	-0,084
-547,569	-200,000	-0,017	-0,106
-546,554	134,722	0,081	-0,076
-545,539	57,840	0,046	0,032
-544,525	113,382	0,123	-0,108
-543,510	28,381	0,006	-0,004
-542,496	-14,531	-0,086	-0,040
-541,481	-124,985	0,085	0,009
-540,466	301,320	0,053	-0,071
-539,452	-200,000	0,004	0,118
-538,437	67,661	0,035	0,026
-537,423	197,080	0,054	0,059
-536,408	-131,835	-0,128	0,012
-535,393	-200,000	0,000	-0,122
-534,379	235,348	-0,103	-0,123
-533,364	-200,000	0,005	-0,064
-532,350	800,000	0,022	-0,053
-531,335	-123,480	0,027	-0,003
-530,321	-200,000	0,001	0,128
-529,306	-153,702	-0,066	0,003
-528,291	-34,779	0,073	0,028
-527,277	-83,023	-0,054	-0,012
-526,262	800,000	0,024	-0,062
-525,248	298,751	0,004	0,006
-524,233	72,677	0,104	0,078
-523,218	536,920	-0,024	0,041
-522,204	279,561	-0,030	0,038
-521,189	39,888	-0,052	-0,034
-520,175	164,509	-0,054	0,055
-519,160	-40,372	0,154	-0,057
-518,145	426,680	0,037	0,058
-517,131	-52,836	-0,056	-0,018
-516,116	-200,000	-0,003	0,096
-515,102	626,395	-0,063	0,115
-514,087	-13,867	-0,109	-0,051
-513,072	-24,241	0,081	0,035
-512,058	-95,460	0,020	0,004
-511,043	544,228	-0,075	-0,129
-510,029	161,974	0,098	0,099
-509,014	-200,000	0,012	0,108
-507,999	-84,135	-0,094	0,021
-506,985	133,377	-0,020	-0,019
-505,970	63,390	-0,048	-0,035
-504,956	79,913	-0,059	0,046
-503,941	-200,000	0,019	0,130
-502,926	-196,584	-0,053	-0,000
-501,912	72,556	-0,049	0,037
-500,897	200,720	-0,094	-0,104
-499,883	24,224	0,084	0,050
-498,868	239,398	0,081	-0,098
-497,853	-142,713	-0,075	0,005
-496,839	47,766	-0,071	0,047
-495,824	-200,000	0,002	-0,010
-494,810	-66,477	0,192	-0,055
-493,795	-200,000	-0,004	0,065
-492,781	-153,877	-0,100	0,005
-491,766	-35,702	-0,135	0,053
-490,751	-200,000	0,002	-0,084
-489,737	29,259	-0,029	0,018
-488,722	-200,000	0,003	0,042
-487,708	-92,354	0,142	-0,028
-486,693	-19,851	0,069	0,030
-485,678	94,429	-0,074	0,060
-484,664	800,000	-0,020	-0,061
-483,649	39,418	-0,038	-0,024
-482,635	-200,000	0,025	0,088
-481,620	800,000	0,071	-0,215
-480,605	800,000	0,019	-0,058
-479,591	381,538	-0,079	0,116
-478,576	-31,388	0,074	-0,030
-477,562	-2,133	-0,077	-0,039
-476,547	487,037	0,032	-0,053
-475,532	-179,225	-0,140	0,002
-474,518	-200,000	0,011	0,062
-473,503	388,031	-0,012	0,018
-472,489	273,628	0,069	-0,088
-471,474	-37,487	0,092	0,035
-470,459	-38,348	-0,173	-0,065
-469,445	492,574	-0,038	-0,063
-468,430	695,962	0,068	-0,130
-467,416	800,000	-0,010	0,023
-466,401	-32,423	0,097	-0,039
-465,386	337,834	0,039	0,055
-464,372	-84,401	-0,100	0,023
-463,357	18,421	0,051	-0,029
-462,343	-200,000	0,003	-0,240
-461,328	-174,982	-0,081	-0,002
-460,313	800,000	-0,014	-0,040
-459,299	-18,264	0,081	0,036
-458,284	76,925	-0,069	-0,053
-457,270	-127,226	0,063	0,007
-456,255	202,406	-0,085	0,094
-455,241	-200,000	0,015	0,093
-454,226	-200,000	-0,003	-0,054
-453,211	145,177	-0,049	-0,047
-452,197	-104,724	0,220	0,036
-451,182	-200,000	-0,029	0,097
-450,168	-36,140	0,073	-0,028
-449,153	520,228	-0,014	-0,023
-448,138	-102,195	-0,122	-0,021
-447,124	102,560	0,054	0,045
-446,109	-200,000	-0,004	0,156
-445,095	-90,580	0,012	0,002
-444,080	14,917	0,028	-0,015
-443,065	-200,000	-0,007	-0,080
-442,051	-143,015	-0,090	-0,006
-441,036	-200,000	0,011	-0,115
-440,022	-200,000	0,001	0,008
-439,007	138,173	-0,041	0,038
-437,992	-53,877	0,129	-0,042
-436,978	-23,248	0,132	0,057
-435,963	-35,747	-0,138	0,053
-434,949	20,406	0,083	0,048
-433,934	-200,000	-0,001	-0,092
-432,919	-91,602	-0,097	-0,020
-431,905	-200,000	0,009	-0,071
-430,890	136,801	0,088	-0,083
-429,876	-76,661	-0,142	0,035
-428,861	-74,609	0,102	0,026
-427,846	308,509	-0,015	0,020
-426,832	-35,403	0,045	-0,017
-425,817	-200,000	-0,008	-0,069
-424,803	800,000	0,050	-0,135
-423,788	-200,000	0,005	0,099
-422,773	-80,527	0,189	0,045
-421,759	-0,698	-0,025	-0,013
-420,744	-56,634	-0,180	-0,057
-419,730	800,000	0,007	-0,017
-418,715	272,037	-0,044	0,055
-417,701	800,000	-0,026	0,054
-416,686	198,339	0,076	0,083
-415,671	800,000	-0,019	-0,038
-414,657	148,817	0,036	-0,035
-413,642	-200,000	0,026	-0,104
-412,628	96,837	0,013	-0,011
-411,613	-174,313	-0,012	-0,000
-410,598	800,000	0,020	-0,063
-409,584	0,831	-0,055	0,028
-408,569	301,012	0,040	0,053
-407,555	-200,000	-0,036	0,117
-406,540	-200,000	-0,006	0,157
-405,525	272,336	-0,071	0,090
-404,511	-46,000	-0,045	0,016
-403,496	83,439	-0,014	-0,011
-402,482	339,477	0,049	-0,069
-401,467	453,064	0,040	0,064
-400,452	-200,000	0,017	0,072
-399,438	409,185	0,078	0,118
-398,423	62,678	-0,066	0,048
-397,409	144,821	0,018	0,017
-396,394	800,000	-0,048	-0,133
-395,379	10,609	0,059	-0,032
-394,365	182,103	0,112	-0,118
-393,350	158,074	-0,019	-0,019
-392,336	-200,000	0,044	0,189
-391,321	295,896	-0,074	0,097
-390,306	-200,000	-0,018	0,085
-389,292	109,536	-0,044	0,038
-388,277	70,875	0,060	-0,045
-387,263	577,626	0,028	-0,049
-386,248	800,000	0,062	0,144
-385,233	-200,000	-0,005	0,072
-384,219	-200,000	-0,023	0,175
-383,204	-5,084	-0,011	-0,005
-382,190	-200,000	0,006	-0,019
-381,175	-4,896	-0,039	0,019
-380,160	-69,885	0,203	-0,055
-379,146	-200,000	-0,024	-0,151
-378,131	219,761	0,061	0,070
-377,117	-200,000	0,021	-0,090
-376,102	-135,742	-0,222	-0,019
-375,088	534,569	0,068	0,116
-374,073	-150,835	0,069	0,004
-373,058	-81,041	-0,177	0,042
-372,044	6,224	0,161	-0,085
-371,029	271,405	0,038	-0,048
-370,015	-200,000	-0,015	-0,060
-369,000	-60,089	0,051	-0,015
-367,985	-70,574	-0,124	-0,033
-366,971	282,432	-0,041	-0,053
-365,956	-123,862	0,133	0,015
-364,942	-66,770	0,058	-0,016
-363,927	-200,000	-0,000	0,111
-362,912	800,000	-0,065	-0,130
-361,898	-10,162	0,066	-0,031
-360,883	162,912	-0,131	-0,132
-359,869	-68,944	-0,105	0,029
-358,854	-200,000	0,006	0,103
-357,839	-6,406	-0,054	0,026
-356,825	-149,255	0,161	0,009
-355,810	181,085	-0,103	0,108
-354,796	-12,071	0,060	-0,028
-353,781	111,653	0,025	-0,022
-352,766	164,684	0,124	-0,126
-351,752	131,231	-0,071	-0,065
-350,737	198,492	0,104	0,113
-349,723	-200,000	-0,012	0,090
-348,708	37,711	0,096	0,061
-347,693	-60,713	-0,128	-0,038
-346,679	640,937	0,029	-0,053
-345,664	-200,000	-0,019	-0,100
-344,650	-200,000	-0,015	-0,082
-343,635	-34,296	0,085	-0,033
-342,620	5,237	0,162	0,085
-341,606	680,855	0,085	-0,160
-340,591	-81,611	-0,185	-0,043
-339,577	661,774	-0,047	-0,086
-338,562	57,678	0,059	-0,041
-337,548	800,000	0,020	0,053
-336,533	142,548	0,087	-0,083
-335,518	-7,105	0,070	0,034
-334,504	-200,000	0,020	0,107
-333,489	800,000	-0,049	-0,101
-332,475	-200,000	0,021	-0,072
-331,460	-109,010	-0,291	0,044
-330,445	-53,267	0,029	-0,009
-329,431	533,523	-0,011	0,019
-328,416	-200,000	-0,004	0,053
-327,402	80,505	0,068	-0,052
-326,387	-13,289	-0,061	0,028
-325,372	209,563	-0,041	-0,045
-324,358	800,000	-0,059	-0,132
-323,343	-200,000	-0,008	0,044
-322,329	-200,000	-0,021	0,134
-321,314	-200,000	-0,032	0,136
-320,299	800,000	0,043	0,087
-319,285	201,704	-0,091	0,100
-318,270	-34,291	0,101	-0,040
-317,256	-200,000	-0,006	-0,150
-316,241	-59,536	-0,037	0,011
-315,226	-200,000	0,009	-0,116
-314,212	800,000	-0,029	-0,064
-313,197	309,886	0,040	0,053
-312,183	458,138	0,017	-0,027
-311,168	27,666	-0,131	-0,079
-310,153	349,570	0,035	0,050
-309,139	-200,000	-0,007	-0,064
-308,124	-43,540	-0,134	0,048
-307,110	-127,987	0,064	0,007
-306,095	-38,499	0,055	0,021
-305,080	-48,653	-0,062	0,021
-304,066	800,000	0,064	0,130
-303,051	-200,000	-0,025	0,101
-302,037	116,322	0,075	0,066
-301,022	-119,923	0,080	0,010
-300,008	-200,000	0,016	0,117
-298,993	-200,000	-0,007	0,083
-297,978	-200,000	-0,004	0,037
-296,964	-145,331	-0,116	0,007
-295,949	357,556	-0,054	0,077
-294,935	-11,065	-0,046	-0,022
-293,920	800,000	-0,009	0,024
-292,905	-200,000	-0,005	0,112
-291,891	-200,000	0,022	-0,082
-290,876	433,541	0,077	-0,119
-289,862	290,358	0,018	-0,023
-288,847	-167,494	-0,134	-0,004
-287,832	401,158	0,008	0,011
-286,818	158,883	0,106	0,105
-285,803	499,329	-0,061	-0,101
-284,789	166,556	-0,094	-0,095
-283,774	-118,530	-0,104	0,013
-282,759	-75,343	-0,150	-0,038
-281,745	49,149	-0,088	0,059
-280,730	6,042	0,069	-0,037
-279,716	800,000	0,029	0,060
-278,701	-60,235	-0,100	-0,030
-277,686	-200,000	0,016	0,072
-276,672	85,158	0,118	-0,092
-275,657	-200,000	-0,037	0,152
-274,643	-200,000	-0,020	0,081
-273,628	-200,000	-0,005	-0,104
-272,613	800,000	-0,010	-0,021
-271,599	-41,645	-0,045	-0,016
-270,584	-11,875	-0,101	-0,047
-269,570	800,000	0,015	0,046
-268,555	800,000	0,050	0,116
-267,540	221,262	0,020	-0,023
-266,526	56,145	0,084	-0,058
-265,511	57,167	-0,036	0,025
-264,497	800,000	0,115	0,229
-263,482	800,000	0,047	0,119
-262,467	800,000	-0,027	0,055
-261,453	-116,543	0,031	0,004
-260,438	-103,116	-0,070	-0,012
-259,424	215,479	-0,028	-0,031
-258,409	800,000	-0,013	-0,031
-257,395	-0,828	0,145	0,073
-256,380	87,022	-0,082	0,064
-255,365	-200,000	0,017	-0,101
-254,351	423,784	-0,044	0,067
-253,336	-61,670	-0,006	0,002
-252,322	247,497	-0,057	-0,069
-251,307	487,101	-0,065	-0,107
-250,292	219,581	0,049	-0,056
-249,278	-200,000	0,002	-0,012
-248,263	800,000	-0,006	0,018
-247,249	98,438	0,029	-0,023
-246,234	84,564	-0,038	-0,029
-245,219	177,094	-0,034	-0,035
-244,205	800,000	-0,040	-0,086
-243,190	-103,108	0,221	-0,037
-242,176	-163,304	0,109	-0,004
-241,161	-10,223	-0,072	-0,034
-240,146	105,462	0,143	0,120
-239,132	-200,000	0,008	0,033
-238,117	-38,175	-0,130	0,049
-237,103	16,293	-0,103	-0,058
-236,088	-8,075	-0,009	0,004
-235,073	-55,227	0,101	0,032
-234,059	111,340	0,068	0,058
-233,044	-2,539	0,038	-0,019
-232,030	246,300	0,090	0,109
-231,015	-200,000	-0,001	-0,109
-230,000	44,149	0,137	-0,090
-228,986	-200,000	0,016	0,059
-227,971	-200,000	-0,012	0,057
-226,957	-1,917	0,111	-0,056
-225,942	129,578	-0,118	-0,107
-224,927	800,000	-0,020	0,046
-223,913	-200,000	0,001	-0,031
-222,898	415,231	-0,033	0,051
-221,884	-100,286	0,126	-0,022
-220,869	28,993	0,094	0,057
-219,855	50,575	0,076	0,051
-218,840	-200,000	-0,023	-0,116
-217,825	680,455	0,048	0,089
-216,811	-85,403	0,048	0,011
-215,796	-200,000	0,010	-0,101
-214,782	9,349	0,048	-0,026
-213,767	-200,000	0,001	0,084
-212,752	800,000	0,050	0,108
-211,738	58,303	0,080	-0,056
-210,723	-11,411	-0,045	0,021
-209,709	-200,000	0,013	-0,107
-208,694	-83,984	-0,066	0,015
-207,679	-50,720	-0,133	0,044
-206,665	300,252	0,075	-0,098
-205,650	260,223	0,053	-0,065
-204,636	140,282	-0,067	-0,063
-203,621	256,069	-0,052	-0,063
-202,606	-189,368	0,097	-0,001
-201,592	481,742	-0,088	-0,143
-200,577	-200,000	0,004	0,066
-199,563	-200,000	0,024	0,075
-198,548	-114,991	0,048	0,006
-197,533	42,726	0,060	-0,039
-196,519	-168,886	0,110	0,003
-195,504	-78,863	-0,082	-0,020
-194,490	-200,000	0,001	-0,119
-193,475	-200,000	-0,053	-0,201
-192,460	-200,000	-0,013	0,047
-191,446	234,634	0,088	0,103
-190,431	24,866	-0,033	0,019
-189,417	-147,919	0,101	-0,006
-188,402	-44,516	-0,127	-0,045
-187,387	800,000	-0,050	-0,102
-186,373	-100,408	0,043	0,008
-185,358	-169,835	-0,038	-0,001
-184,344	125,769	-0,067	0,060
-183,329	22,493	0,130	-0,075
-182,315	-200,000	0,002	0,024
-181,300	84,872	-0,014	-0,011
-180,285	-200,000	0,010	0,046
-179,271	-69,951	-0,168	0,045
-178,256	651,415	-0,046	-0,084
-177,242	-200,000	0,005	-0,112
-176,227	-108,031	-0,028	0,004
-175,212	22,482	-0,057	-0,033
-174,198	132,700	-0,062	0,057
-173,183	800,000	-0,045	-0,102
-172,169	487,744	0,065	0,105
-171,154	-50,493	0,091	0,030
-170,139	-48,718	0,083	0,028
-169,125	-117,898	-0,025	0,003
-168,110	8,662	0,174	0,093
-167,096	-200,000	-0,009	0,188
-166,081	-200,000	0,007	0,068
-165,066	259,463	0,050	-0,062
-164,052	-68,736	0,018	-0,005
-163,037	-22,240	0,123	-0,053
-162,023	98,748	-0,079	0,064
-161,008	800,000	-0,005	0,014
-159,993	140,954	0,087	0,082
-158,979	-200,000	-0,004	-0,065
-157,964	-200,000	-0,006	0,044
-156,950	55,811	0,120	0,083
-155,935	-200,000	0,016	-0,062
-154,920	-173,958	-0,033	0,001
-153,906	800,000	0,067	0,183
-152,891	98,626	0,091	0,074
-151,877	401,600	0,054	-0,081
-150,862	158,890	-0,148	0,146
-149,847	30,608	-0,062	0,037
-148,833	-200,000	0,005	-0,172
-147,818	223,693	-0,015	-0,018
-146,804	-20,391	-0,020	0,009
-145,789	43,189	0,110	0,071
-144,775	149,758	-0,116	-0,111
-143,760	800,000	-0,013	-0,036
-142,745	-200,000	0,013	-0,060
-141,731	-200,000	0,009	-0,034
-140,716	-200,000	-0,004	-0,090
-139,702	-200,000	0,012	-0,061
-138,687	332,946	0,093	-0,128
-137,672	105,147	0,054	-0,045
-136,658	800,000	-0,051	-0,127
-135,643	270,137	-0,032	-0,039
-134,629	265,226	-0,031	-0,038
-133,614	-42,690	0,073	-0,026
-132,599	800,000	0,042	0,092
-131,585	800,000	0,042	0,131
-130,570	-200,000	0,003	-0,040
-129,556	-200,000	-0,011	0,042
-128,541	313,828	0,089	-0,118
-127,526	-200,000	-0,009	0,087
-126,512	-59,481	0,081	0,025
-125,497	-124,127	-0,066	0,007
-124,483	79,973	0,043	-0,033
-123,468	-75,217	0,107	-0,027
-122,453	-66,268	0,052	0,015
-121,439	-47,155	-0,164	-0,056
-120,424	800,000	-0,079	0,157
-119,410	263,109	0,061	-0,075
-118,395	99,961	0,043	-0,035
-117,380	190,495	-0,023	-0,024
-116,366	767,648	0,021	-0,040
-115,351	126,963	-0,103	-0,093
-114,337	-8,193	0,056	-0,027
-113,322	-200,000	0,017	-0,072
-112,307	800,000	-0,015	-0,032
-111,293	-200,000	0,007	0,049
-110,278	44,126	0,059	0,038
-109,264	-200,000	-0,006	0,109
-108,249	17,043	0,186	-0,104
-107,234	800,000	-0,049	0,099
-106,220	183,739	0,068	-0,071
-105,205	-100,769	0,163	-0,028
-104,191	-200,000	0,003	-0,116
-103,176	55,818	-0,108	0,074
-102,162	257,598	0,058	0,071
-101,147	51,841	-0,023	-0,016
-100,132	800,000	-0,040	-0,103
-99,118	416,503	-0,074	-0,112
-98,103	-17,193	0,079	-0,035
-97,089	-176,073	-0,019	-0,000
-96,074	-31,447	-0,069	-0,027
-95,059	-80,344	0,186	0,044
-94,045	-63,317	-0,091	-0,026
-93,030	-16,786	0,128	0,057
-92,016	103,734	-0,065	-0,054
-91,001	380,544	0,043	-0,063
-89,986	800,000	-0,046	0,110
-88,972	-200,000	0,056	0,240
-87,957	-173,924	0,096	0,002
-86,943	-200,000	-0,000	-0,049
-85,928	534,133	-0,070	0,118
-84,913	-200,000	0,003	0,031
-83,899	-200,000	-0,022	0,115
-82,884	800,000	0,058	-0,125
-81,870	-200,000	-0,013	0,138
-80,855	-4,340	0,100	0,049
-79,840	574,232	-0,073	0,127
-78,826	-200,000	-0,005	-0,044
-77,811	-52,900	-0,111	-0,036
-76,797	346,435	0,007	0,009
-75,782	312,219	0,078	-0,104
-74,767	-70,825	-0,123	0,033
-73,753	-200,000	0,038	0,159
-72,738	-107,974	0,125	-0,019
-71,724	8,129	-0,024	0,013
-70,709	-106,054	-0,061	0,010
-69,694	613,890	0,074	-0,132
-68,680	-64,811	0,106	0,030
-67,665	-200,000	0,041	0,149
-66,651	149,091	-0,045	0,043
-65,636	401,178	0,060	0,089
-64,622	328,372	0,051	-0,070
-63,607	318,702	0,086	-0,116
-62,592	800,000	-0,014	0,041
-61,578	484,951	-0,038	-0,062
-60,563	154,947	0,034	-0,033
-59,549	-200,000	-0,023	0,101
-58,534	-6,916	-1,751	-0,838
-57,519	475,883	-1,322	-2,120
-56,505	-200,000	-0,492	-4,481
-55,490	265,435	1,097	1,356
-54,476	800,000	4,940	10,873
-53,461	-200,000	19,632	325,147
-52,446	800,000	746,535	2326,752
-51,432	562,323	1658,107	2847,803
-50,417	76,505	1670,406	1250,725
-49,403	20,476	1543,607	880,131
-48,388	14,412	1466,228	806,540
-47,373	18,238	1456,082	819,392
-46,359	16,484	1445,892	805,229
-45,344	12,699	1441,331	784,547
-44,330	12,535	1439,529	782,747
-43,315	12,595	1437,978	782,159
-42,300	12,634	1436,132	781,313
-41,286	12,646	1434,815	780,623
-40,271	12,583	1433,480	779,564
-39,257	12,602	1432,328	778,998
-38,242	12,633	1430,889	778,329
-37,227	12,603	1429,716	777,521
-36,213	12,612	1428,504	776,870
-35,198	12,661	1427,263	776,399
-34,184	12,651	1426,480	775,896
-33,169	12,651	1424,738	774,919
-32,154	12,653	1423,866	774,423
-31,140	12,700	1422,496	773,866
-30,125	12,696	1421,254	773,142
-29,111	12,714	1420,289	772,670
-28,096	12,641	1419,297	771,758
-27,082	12,562	1418,347	770,838
-26,067	12,573	1417,188	770,227
-25,052	12,597	1416,006	769,666
-24,038	12,586	1415,082	769,085
-23,023	12,599	1414,018	768,534
-22,009	12,579	1412,988	767,854
-20,994	12,537	1412,019	767,096
-19,979	12,527	1411,393	766,681
-18,965	12,514	1410,415	766,057
-17,950	12,517	1409,239	765,405
-16,936	12,555	1408,429	765,111
-15,921	12,470	1407,408	764,126
-14,906	12,480	1406,638	763,725
-13,892	12,490	1405,673	763,217
-12,877	12,479	1404,743	762,630
-11,863	12,509	1403,760	762,207
-10,848	12,516	1402,794	761,686
-9,833	12,443	1402,023	760,896
-8,819	12,455	1401,186	760,468
-7,804	12,413	1400,342	759,786
-6,790	12,383	1399,400	759,103
-5,775	12,448	1398,154	758,700
-4,760	12,449	1397,129	758,119
-3,746	12,394	1396,336	757,401
-2,731	12,379	1395,366	756,778
-1,717	12,355	1394,717	756,282
-0,702	12,380	1392,895	755,382
0,313	16,355	1308,818	728,130
1,327	32,689	701,070	427,608
2,342	50,303	122,458	81,627
3,356	0,997	16,551	8,358
4,371	2,676	3,170	1,619
5,386	16,631	0,525	0,292
6,400	-200,000	0,001	0,311
7,415	171,521	-0,173	-0,176
8,429	-8,375	-0,388	-0,184
9,444	-23,827	-0,252	-0,106
10,459	-11,618	-0,342	-0,158
11,473	60,235	-0,235	-0,164
12,488	68,529	-0,356	-0,257
13,502	150,751	-0,214	-0,205
14,517	127,991	-0,321	-0,288
15,531	40,155	-0,401	-0,254
16,546	162,460	-0,317	-0,314
17,561	197,433	-0,316	-0,341
18,575	-16,182	-0,194	-0,087
19,590	71,616	-0,225	-0,165
20,604	11,090	-0,384	-0,207
21,619	39,546	-0,487	-0,307
22,634	21,674	-0,437	-0,250
23,648	151,022	-0,416	-0,400
24,663	139,151	-0,364	-0,337
25,677	53,768	-0,374	-0,253
26,692	86,778	-0,225	-0,175
27,707	62,926	-0,338	-0,238
28,721	41,136	-0,402	-0,255
29,736	63,484	-0,482	-0,341
30,750	161,371	-0,318	-0,314
31,765	357,957	-0,287	-0,405
32,780	187,103	-0,274	-0,288
33,794	34,661	-0,397	-0,244
34,809	138,056	-0,346	-0,320
35,823	158,981	-0,298	-0,292
36,838	39,349	-0,420	-0,264
37,853	227,935	-0,349	-0,401
38,867	39,192	-0,332	-0,209
39,882	316,765	-0,240	-0,321
40,896	159,301	-0,327	-0,321
41,911	45,774	-0,378	-0,246
42,926	98,886	-0,259	-0,211
43,940	-69,727	-0,420	-0,112
44,955	214,837	-0,318	-0,355
45,969	125,939	-0,337	-0,300
46,984	119,500	-0,340	-0,296
47,999	-44,002	-0,410	-0,144
49,013	84,188	-0,275	-0,212
50,028	2,774	-0,322	-0,164
51,042	77,919	-0,337	-0,252
52,057	88,181	-0,336	-0,262
53,071	17,622	-0,296	-0,165
54,086	31,589	-0,342	-0,207
55,101	53,799	-0,361	-0,244
56,115	1,980	-0,375	-0,189
57,130	48,824	-0,336	-0,221
58,144	-37,510	-0,275	-0,103
59,159	51,805	-0,305	-0,204
60,174	31,202	-0,444	-0,267
61,188	156,528	-0,298	-0,289
62,203	63,065	-0,236	-0,166
63,217	4,593	-0,194	-0,100
64,232	25,039	-0,377	-0,219
65,247	128,369	-0,309	-0,277
66,261	201,769	-0,359	-0,389
67,276	54,574	-0,404	-0,273
68,290	201,472	-0,232	-0,252
69,305	-117,229	-0,473	-0,060
70,320	143,871	-0,208	-0,195
71,334	218,193	-0,304	-0,341
72,349	99,807	-0,277	-0,225
73,363	46,024	-0,241	-0,157
74,378	242,772	-0,248	-0,293
75,393	36,329	-0,333	-0,206
76,407	800,000	-0,068	-0,200
77,422	59,442	-0,340	-0,235
78,436	-27,637	-0,244	-0,099
79,451	205,807	-0,211	-0,230
80,466	283,213	-0,247	-0,312
81,480	195,557	-0,227	-0,242
82,495	-1,386	-0,349	-0,172
83,509	-14,633	-0,330	-0,148
84,524	-95,385	-0,298	-0,056
85,539	92,989	-0,314	-0,249
86,553	199,431	-0,207	-0,223
87,568	59,256	-0,300	-0,207
88,582	2,924	-0,274	-0,139
89,597	332,618	-0,236	-0,320
90,611	122,575	-0,180	-0,158
91,626	79,290	-0,251	-0,188
92,641	-92,632	-0,302	-0,059
93,655	-26,591	-0,331	-0,135
94,670	-45,662	-0,394	-0,136
95,684	-9,106	-0,312	-0,146
96,699	150,966	-0,233	-0,222
97,714	266,070	-0,214	-0,262
98,728	164,582	-0,157	-0,155
99,743	37,900	-0,182	-0,113
100,757	115,333	-0,286	-0,244
101,772	198,843	-0,215	-0,231
102,787	123,314	-0,248	-0,218
103,801	128,740	-0,332	-0,296
104,816	8,956	-0,365	-0,192
105,830	-38,750	-0,180	-0,066
106,845	-145,736	-0,189	-0,012
107,860	-55,602	-0,351	-0,109
108,874	-197,928	-0,207	-0,001
109,889	-3,829	-0,293	-0,142
110,903	-38,492	-0,256	-0,094
111,918	184,679	-0,230	-0,239
112,933	-69,000	-0,320	-0,086
113,947	85,788	-0,206	-0,158
114,962	544,046	-0,220	-0,369
115,976	-1,869	-0,150	-0,074
116,991	19,490	-0,207	-0,116
118,006	8,389	-0,342	-0,179
119,020	96,132	-0,128	-0,102
120,035	327,344	-0,156	-0,209
121,049	-61,649	-0,284	-0,083
122,064	104,557	-0,285	-0,234
123,079	219,482	-0,237	-0,265
124,093	74,099	-0,249	-0,182
125,108	74,102	-0,250	-0,183
126,122	324,656	-0,138	-0,185
127,137	224,427	-0,098	-0,111
128,151	187,491	-0,197	-0,206
129,166	-72,658	-0,353	-0,090
130,181	115,699	-0,201	-0,172
131,195	66,371	-0,199	-0,141
132,210	390,491	-0,129	-0,187
133,224	-75,551	-0,288	-0,071
134,239	-50,982	-0,236	-0,077
135,254	29,048	-0,205	-0,121
136,268	-23,146	-0,337	-0,141
137,283	213,692	-0,193	-0,214
138,297	71,990	-0,299	-0,217
139,312	202,409	-0,274	-0,296
140,327	146,008	-0,098	-0,092
141,341	701,054	-0,104	-0,193
142,356	141,517	-0,266	-0,246
143,370	-143,609	-0,096	-0,006
144,385	37,283	-0,174	-0,107
145,400	22,905	-0,314	-0,179
146,414	19,792	-0,193	-0,108
147,429	127,539	-0,288	-0,255
148,443	-47,430	-0,188	-0,063
149,458	117,930	-0,201	-0,172
150,473	-96,010	-0,249	-0,046
151,487	-16,356	-0,218	-0,096
152,502	35,624	-0,249	-0,152
153,516	-67,147	-0,282	-0,077
154,531	-34,051	-0,174	-0,066
155,546	-71,807	-0,308	-0,079
156,560	120,146	-0,172	-0,149
157,575	150,872	-0,162	-0,153
158,589	44,083	-0,341	-0,218
159,604	38,814	-0,201	-0,125
160,619	28,254	-0,258	-0,152
161,633	213,713	-0,165	-0,183
162,648	294,505	-0,143	-0,182
163,662	-166,013	-0,185	-0,005
164,677	212,510	-0,218	-0,240
165,692	4,667	-0,163	-0,083
166,706	69,815	-0,208	-0,149
167,721	248,552	-0,195	-0,230
168,735	377,865	-0,156	-0,223
169,750	221,772	-0,254	-0,285
170,764	68,469	-0,208	-0,148
171,779	2,695	-0,279	-0,140
172,794	293,424	-0,175	-0,223
173,808	259,573	-0,201	-0,242
174,823	-5,617	-0,186	-0,088
175,837	22,263	-0,266	-0,151
176,852	-73,075	-0,273	-0,069
177,867	-9,869	-0,276	-0,127
178,881	565,725	-0,142	-0,241
179,896	-55,710	-0,270	-0,084
180,910	-51,133	-0,328	-0,106
181,925	-104,249	-0,279	-0,045
182,940	52,268	-0,288	-0,191
183,954	71,887	-0,133	-0,096
184,969	-27,668	-0,197	-0,079
185,983	180,933	-0,178	-0,182
186,998	617,361	-0,108	-0,189
188,013	-28,271	-0,251	-0,100
189,027	80,385	-0,289	-0,216
190,042	418,736	-0,162	-0,241
191,056	800,000	-0,115	-0,285
192,071	70,708	-0,147	-0,105
193,086	-78,241	-0,125	-0,030
194,100	107,258	-0,207	-0,171
195,115	83,709	-0,177	-0,134
196,129	-33,161	-0,311	-0,119
197,144	-39,876	-0,252	-0,091
198,159	-14,523	-0,309	-0,138
199,173	730,322	-0,047	-0,088
200,188	47,067	-0,108	-0,070
201,202	666,894	-0,119	-0,215
202,217	-98,114	-0,167	-0,030
203,232	51,934	-0,143	-0,095
204,246	111,347	-0,238	-0,199
205,261	800,000	-0,107	-0,292
206,275	194,950	-0,164	-0,174
207,290	737,330	-0,099	-0,184
208,304	543,361	-0,099	-0,165
209,319	127,794	-0,204	-0,180
210,334	5,844	-0,194	-0,100
211,348	428,067	-0,171	-0,257
212,363	143,473	-0,164	-0,151
213,377	-35,457	-0,172	-0,064
214,392	-200,000	-0,049	-0,240
215,407	-114,431	-0,127	0,017
216,421	719,356	-0,103	-0,191
217,436	125,680	-0,133	-0,117
218,450	592,217	-0,066	-0,113
219,465	-24,093	-0,197	-0,081
220,480	15,780	-0,247	-0,134
221,494	269,572	-0,100	-0,122
222,509	11,516	-0,155	-0,082
223,523	5,756	-0,233	-0,119
224,538	230,551	-0,209	-0,237
225,553	800,000	-0,130	-0,259
226,567	471,202	-0,157	-0,245
227,582	160,108	-0,287	-0,277
228,596	-33,897	-0,120	-0,046
229,611	-200,000	-0,009	-0,207
230,626	-12,336	-0,166	-0,075
231,640	-6,226	-0,169	-0,080
232,655	484,023	-0,130	-0,205
233,669	800,000	-0,140	-0,277
234,684	179,606	-0,159	-0,161
235,699	305,689	-0,111	-0,143
236,713	800,000	0,051	-0,118
237,728	-44,163	-0,095	-0,033
238,742	119,529	-0,087	-0,074
239,757	-200,000	-0,195	0,001
240,772	167,542	-0,294	-0,289
241,786	-200,000	-0,040	-0,197
242,801	604,644	-0,145	-0,251
243,815	631,052	-0,122	-0,214
244,830	15,534	-0,230	-0,124
245,844	15,229	-0,181	-0,098
246,859	-13,651	-0,241	-0,107
247,874	-121,079	-0,213	-0,024
248,888	800,000	-0,072	-0,140
249,903	219,838	-0,175	-0,194
250,917	-117,497	-0,155	-0,019
251,932	-44,136	-0,277	0,096
252,947	422,586	-0,097	-0,144
253,961	800,000	-0,133	-0,325
254,976	-80,103	-0,215	-0,049
255,990	66,170	-0,198	-0,138
257,005	-162,665	-0,077	-0,003
258,020	110,528	-0,073	-0,061
259,034	-200,000	0,032	-0,110
260,049	-50,652	-0,200	-0,065
261,063	-36,805	-0,204	-0,075
262,078	800,000	-0,104	-0,202
263,093	271,543	-0,179	-0,218
264,107	19,792	-0,202	-0,112
265,122	71,297	-0,118	-0,084
266,136	413,246	-0,106	-0,156
267,151	800,000	-0,142	-0,282
268,166	45,286	-0,143	-0,091
269,180	22,917	-0,162	-0,092
270,195	34,958	-0,186	-0,112
271,209	-103,724	-0,142	-0,023
272,224	253,267	-0,107	-0,126
273,239	502,359	-0,134	-0,215
274,253	560,114	-0,121	-0,203
275,268	481,851	-0,132	-0,208
276,282	407,981	-0,107	-0,157
277,297	-17,009	-0,195	-0,084
278,312	179,159	-0,162	-0,163
279,326	-39,903	-0,097	0,035
280,341	227,567	-0,091	-0,103
281,355	264,801	-0,041	-0,049
282,370	-41,389	-0,224	-0,079
283,384	-200,000	-0,017	-0,245
284,399	36,066	-0,183	-0,111
285,414	-200,000	-0,029	-0,168
286,428	-155,701	-0,181	0,008
287,443	179,749	-0,062	-0,062
288,457	94,394	-0,158	-0,123
289,472	-200,000	-0,083	-0,267
290,487	24,896	-0,201	-0,115
291,501	230,888	-0,093	-0,105
292,516	400,923	-0,088	-0,127
293,530	-0,726	-0,185	-0,090
294,545	644,564	-0,089	-0,157
295,560	-82,642	-0,181	0,040
296,574	80,625	-0,164	-0,122
297,589	-171,519	-0,216	-0,005
298,603	-92,998	-0,183	-0,035
299,618	800,000	-0,067	-0,135
300,633	760,919	-0,127	-0,237
301,647	145,057	-0,136	-0,125
302,662	1,407	-0,055	-0,027
303,676	435,798	-0,077	0,116
304,691	-164,990	-0,118	0,004
305,706	64,878	-0,137	-0,095
306,720	-97,254	-0,193	-0,034
307,735	-96,997	-0,316	-0,056
308,749	138,529	-0,157	-0,142
309,764	-138,138	-0,160	0,012
310,779	55,868	-0,146	-0,097
311,793	19,325	-0,100	0,055
312,808	402,604	-0,097	-0,141
313,822	259,062	-0,165	-0,196
314,837	552,286	-0,121	-0,200
315,852	769,823	-0,026	-0,048
316,866	106,291	-0,095	0,077
317,881	-111,232	-0,160	-0,022
318,895	-200,000	-0,060	-0,195
319,910	-38,561	-0,131	-0,047
320,925	167,817	-0,174	-0,170
321,939	163,354	-0,151	-0,146
322,954	35,578	-0,055	-0,033
323,968	-14,599	-0,086	0,038
324,983	98,655	-0,130	-0,103
325,997	-11,109	-0,167	-0,075
327,012	-3,606	-0,171	-0,081
328,027	168,193	-0,083	-0,082
329,041	83,209	-0,093	-0,069
330,056	-63,058	-0,191	0,054
331,070	800,000	-0,065	-0,197
332,085	-82,179	-0,134	0,030
333,100	-151,481	-0,292	-0,015
334,114	-51,225	-0,234	-0,075
335,129	38,969	-0,182	-0,111
336,143	67,661	-0,211	-0,147
337,158	800,000	-0,143	-0,290
338,173	-26,346	-0,145	0,058
339,187	-47,187	-0,085	0,028
340,202	-129,903	-0,084	0,008
341,216	255,418	-0,168	-0,198
342,231	215,019	-0,171	-0,186
343,246	117,854	-0,150	-0,126
344,260	30,571	-0,139	-0,082
345,275	-4,002	-0,121	0,057
346,289	-19,746	-0,150	-0,063
347,304	131,264	-0,125	-0,110
348,319	-166,527	-0,224	0,006
349,333	210,573	-0,237	-0,256
350,348	800,000	-0,067	-0,168
351,362	240,824	-0,151	-0,173
352,377	-82,902	-0,170	-0,037
353,392	-14,916	-0,081	-0,036
354,406	22,032	-0,141	0,079
355,421	208,479	1316,350	1412,068
356,435	160,415	1477,266	1412,548
