DTS Sentinel unit serial number:	SN410029Multiplexer serial number:	ORYXHardware model number:	OX2-SRSoftware version number:	ORYX F/W v4,00 Oryx Data Collector v3.7.2.0data status	okinstallation	B3 Nyhavnadifferential loss correction	single-endedforward channel	channel 1reverse channel	N/Adate	2023/12/04time	18:02:30forward acquisition time	300,00reverse acquisition time	0,00gamma	499,1914k internal	0,3200k external	0,3200temperature offset calibration	1,0000default loss term (dB/km)	0,3820temperature slope calibration	1,0000multiplexer offset coefficient	1,0000multiplexer slope coefficient	1,0000fibre end	0,00T internal ref (°C)	15,01T ext. ref 1 (°C)	-0,09T ext. ref 2 (°C)	-0,09length (m)	temperature (°C)	Stokes	anti-Stokes-744,400	800,000	-0,086	-0,232
-743,385	800,000	0,076	0,244
-742,371	800,000	-0,093	-0,233
-741,356	-200,000	-0,026	0,269
-740,342	-200,000	-0,034	-0,162
-739,327	-200,000	-0,021	0,242
-738,312	112,166	-0,286	-0,252
-737,298	-200,000	0,099	0,339
-736,283	-200,000	-0,077	-0,281
-735,269	-200,000	-0,039	0,274
-734,254	235,643	-0,257	-0,310
-733,239	800,000	-0,084	0,198
-732,225	-200,000	-0,053	-0,185
-731,210	-23,698	0,111	-0,048
-730,196	-200,000	-0,029	-0,103
-729,181	-124,527	-0,071	0,008
-728,167	397,762	-0,061	-0,093
-727,152	190,129	-0,107	0,116
-726,137	772,381	-0,013	-0,026
-725,123	-117,905	0,064	0,008
-724,108	-200,000	0,015	-0,186
-723,094	82,033	-0,073	-0,057
-722,079	-49,231	-0,078	0,027
-721,064	-200,000	0,019	0,070
-720,050	231,752	-0,093	-0,112
-719,035	-200,000	-0,045	-0,172
-718,021	71,752	-0,087	-0,066
-717,006	25,102	-0,157	-0,095
-715,991	-71,757	-0,103	-0,028
-714,977	18,922	-0,053	0,031
-713,962	7,250	-0,105	0,057
-712,948	128,506	-0,062	-0,058
-711,933	-200,000	0,016	-0,089
-710,918	-128,485	-0,137	-0,014
-709,904	-200,000	0,016	-0,111
-708,889	71,059	-0,089	-0,067
-707,875	-80,395	-0,160	-0,038
-706,860	-200,000	-0,021	0,201
-705,845	-109,793	0,079	0,012
-704,831	-200,000	-0,021	-0,079
-703,816	190,569	0,021	0,023
-702,802	-83,086	-0,182	-0,042
-701,787	799,117	-0,089	-0,179
-700,772	95,196	-0,074	-0,061
-699,758	34,869	0,094	-0,060
-698,743	156,452	0,025	0,025
-697,729	37,025	0,048	0,030
-696,714	482,757	-0,076	0,125
-695,699	-200,000	-0,002	-0,016
-694,685	-70,633	-0,051	-0,014
-693,670	800,000	-0,095	-0,286
-692,656	17,899	0,113	-0,065
-691,641	-200,000	0,012	-0,085
-690,627	800,000	-0,093	0,258
-689,612	9,084	-0,028	0,016
-688,597	267,374	-0,057	-0,073
-687,583	-200,000	0,019	-0,119
-686,568	1,894	-0,088	0,046
-685,554	-81,649	0,094	0,022
-684,539	-44,003	0,146	-0,053
-683,524	369,820	-0,034	-0,050
-682,510	800,000	-0,058	0,142
-681,495	-8,782	-0,019	0,009
-680,481	-200,000	-0,012	0,136
-679,466	800,000	-0,055	-0,144
-678,451	-127,512	-0,143	0,015
-677,437	-90,017	0,192	0,040
-676,422	-185,461	-0,108	-0,001
-675,408	-150,812	-0,034	0,002
-674,393	-109,256	-0,104	-0,016
-673,378	800,000	-0,047	-0,116
-672,364	-105,810	-0,062	0,010
-671,349	-32,710	0,043	-0,017
-670,335	25,367	-0,138	-0,083
-669,320	180,526	0,059	0,063
-668,305	11,996	-0,055	0,030
-667,291	-200,000	-0,026	0,121
-666,276	-200,000	0,013	-0,063
-665,262	687,094	-0,089	-0,170
-664,247	-200,000	-0,050	-0,166
-663,232	527,391	-0,025	-0,043
-662,218	-200,000	0,004	0,098
-661,203	-30,576	-0,067	-0,028
-660,189	800,000	-0,015	0,030
-659,174	-200,000	-0,006	0,034
-658,159	-140,829	-0,151	-0,011
-657,145	-200,000	0,017	-0,158
-656,130	-200,000	-0,020	-0,176
-655,116	-158,691	0,108	-0,004
-654,101	619,962	-0,080	0,147
-653,086	341,275	0,041	0,058
-652,072	-80,833	-0,033	0,008
-651,057	307,581	-0,139	-0,189
-650,043	72,319	-0,193	-0,146
-649,028	297,606	0,036	0,048
-648,014	-115,004	-0,042	-0,006
-646,999	520,976	-0,064	-0,110
-645,984	64,500	0,058	0,042
-644,970	-68,072	-0,012	0,003
-643,955	646,382	0,028	-0,051
-642,941	-154,318	-0,075	0,004
-641,926	-26,881	0,085	0,036
-640,911	162,910	-0,014	0,014
-639,897	352,009	0,040	0,058
-638,882	-200,000	0,028	-0,107
-637,868	187,495	-0,009	0,009
-636,853	1,382	-0,083	-0,043
-635,838	-200,000	0,002	-0,045
-634,824	-78,999	-0,152	0,037
-633,809	-82,251	0,046	-0,011
-632,795	-71,286	-0,118	0,032
-631,780	-0,419	-0,083	0,043
-630,765	-139,146	-0,119	0,009
-629,751	185,913	-0,058	-0,063
-628,736	-200,000	-0,056	-0,237
-627,722	181,096	-0,051	-0,055
-626,707	-125,549	0,121	0,013
-625,692	95,532	-0,071	0,059
-624,678	209,278	-0,055	0,063
-623,663	346,112	0,067	0,095
-622,649	-200,000	-0,024	-0,084
-621,634	-4,116	0,038	0,019
-620,619	-200,000	0,011	-0,063
-619,605	-1,279	0,068	-0,035
-618,590	23,915	-0,053	-0,032
-617,576	-200,000	-0,014	0,063
-616,561	-200,000	0,006	-0,032
-615,546	-200,000	-0,008	-0,125
-614,532	12,005	0,147	-0,082
-613,517	-181,790	-0,217	0,003
-612,503	107,487	0,010	-0,008
-611,488	-200,000	-0,005	0,073
-610,474	-15,572	0,083	-0,038
-609,459	28,100	-0,054	0,033
-608,444	39,746	0,237	0,154
-607,430	-24,299	-0,145	-0,062
-606,415	-200,000	0,006	-0,081
-605,401	-29,652	0,048	0,020
-604,386	39,222	0,079	-0,051
-603,371	-90,230	0,022	-0,005
-602,357	96,813	-0,074	-0,062
-601,342	-66,187	0,043	-0,012
-600,328	605,247	-0,014	0,026
-599,313	550,128	-0,037	0,065
-598,298	-200,000	0,015	-0,062
-597,284	-200,000	-0,014	-0,057
-596,269	114,249	0,093	0,082
-595,255	418,235	-0,091	-0,142
-594,240	800,000	0,014	-0,030
-593,225	393,087	-0,056	-0,085
-592,211	-200,000	-0,033	-0,187
-591,196	-39,218	-0,112	-0,042
-590,182	321,952	0,065	-0,090
-589,167	214,795	-0,027	0,032
-588,152	-94,752	0,129	0,025
-587,138	220,278	0,015	0,018
-586,123	460,437	-0,061	-0,098
-585,109	-70,843	-0,048	-0,013
-584,094	219,905	-0,057	0,066
-583,079	-200,000	0,002	-0,114
-582,065	-38,130	0,044	0,017
-581,050	4,265	0,100	0,053
-580,036	22,379	0,023	0,013
-579,021	-200,000	-0,024	0,090
-578,006	4,611	0,060	0,032
-576,992	-84,395	-0,143	-0,032
-575,977	-200,000	-0,001	-0,090
-574,963	424,573	0,031	0,049
-573,948	534,164	-0,081	0,140
-572,934	-28,425	-0,130	-0,054
-571,919	729,130	-0,047	0,091
-570,904	800,000	0,052	-0,129
-569,890	108,477	-0,034	-0,029
-568,875	-170,331	-0,169	-0,004
-567,861	-73,295	0,054	-0,014
-566,846	656,347	0,045	0,084
-565,831	-7,998	0,073	0,035
-564,817	431,165	0,029	-0,045
-563,802	279,804	-0,014	0,018
-562,788	-57,518	0,059	0,018
-561,773	-41,697	0,087	-0,032
-560,758	800,000	-0,017	-0,043
-559,744	-134,447	-0,109	0,010
-558,729	91,825	-0,074	0,060
-557,715	-200,000	-0,023	-0,131
-556,700	-86,431	-0,066	-0,015
-555,685	-200,000	-0,026	0,143
-554,671	-200,000	0,005	-0,093
-553,656	-200,000	-0,009	-0,046
-552,642	458,921	0,041	0,067
-551,627	99,140	0,023	0,019
-550,612	-200,000	-0,009	-0,045
-549,598	12,721	-0,089	0,050
-548,583	236,130	0,049	0,059
-547,569	721,930	-0,053	-0,102
-546,554	-200,000	-0,001	-0,012
-545,539	800,000	-0,018	-0,037
-544,525	800,000	0,030	-0,063
-543,510	-50,648	-0,055	-0,019
-542,496	-62,315	0,057	-0,017
-541,481	62,780	-0,101	-0,073
-540,466	-25,095	0,105	-0,045
-539,452	-200,000	0,010	0,088
-538,437	-200,000	0,009	0,030
-537,423	79,114	0,057	0,044
-536,408	626,710	-0,034	0,063
-535,393	800,000	0,020	0,053
-534,379	222,622	0,029	-0,034
-533,364	43,909	0,087	0,058
-532,350	-151,689	0,035	-0,002
-531,335	800,000	-0,032	-0,098
-530,321	671,100	-0,070	0,131
-529,306	-122,463	-0,090	0,010
-528,291	800,000	-0,052	-0,142
-527,277	800,000	-0,031	-0,087
-526,262	382,027	0,069	0,102
-525,248	160,719	0,077	-0,077
-524,233	72,069	-0,058	0,044
-523,218	187,114	0,123	0,132
-522,204	552,425	-0,041	-0,071
-521,189	479,948	-0,051	-0,084
-520,175	-71,891	-0,100	0,027
-519,160	-64,745	-0,114	-0,033
-518,145	71,282	0,089	0,066
-517,131	29,992	0,151	0,092
-516,116	800,000	0,021	-0,052
-515,102	-200,000	-0,005	0,027
-514,087	-200,000	-0,006	0,110
-513,072	-200,000	-0,044	-0,180
-512,058	-200,000	-0,006	-0,061
-511,043	12,987	0,036	0,020
-510,029	-166,167	0,167	0,005
-509,014	133,805	0,071	0,066
-507,999	-48,794	0,193	-0,066
-506,985	-200,000	-0,014	-0,073
-505,970	162,021	-0,043	-0,044
-504,956	800,000	-0,026	-0,055
-503,941	29,083	-0,090	-0,055
-502,926	-200,000	0,035	-0,121
-501,912	210,490	-0,079	-0,090
-500,897	800,000	-0,051	-0,130
-499,883	-200,000	-0,002	-0,087
-498,868	800,000	-0,026	-0,077
-497,853	-200,000	-0,007	0,083
-496,839	-200,000	0,033	0,000
-495,824	18,293	-0,107	0,061
-494,810	182,895	-0,089	0,095
-493,795	-169,762	0,059	-0,001
-492,781	184,322	-0,047	0,050
-491,766	-200,000	-0,002	-0,039
-490,751	-42,627	0,072	-0,026
-489,737	-30,904	0,102	-0,041
-488,722	800,000	0,047	0,120
-487,708	-28,903	-0,090	-0,037
-486,693	-134,996	0,190	0,016
-485,678	800,000	-0,047	0,121
-484,664	238,568	0,079	0,095
-483,649	127,961	-0,053	0,049
-482,635	-200,000	-0,014	-0,126
-481,620	459,516	-0,019	-0,030
-480,605	-61,974	-0,026	-0,008
-479,591	252,831	0,061	0,075
-478,576	583,345	0,001	-0,002
-477,562	-200,000	-0,001	0,004
-476,547	383,962	-0,034	-0,051
-475,532	180,972	0,097	0,102
-474,518	-200,000	-0,003	0,092
-473,503	2,418	-0,103	0,053
-472,489	-6,897	-0,110	-0,053
-471,474	-42,381	0,042	0,015
-470,459	-69,672	-0,067	0,018
-469,445	104,127	0,042	0,035
-468,430	536,129	-0,013	-0,023
-467,416	-37,928	-0,089	0,034
-466,401	338,843	0,050	-0,070
-465,386	800,000	-0,013	0,039
-464,372	240,485	-0,039	0,047
-463,357	-122,839	0,027	0,003
-462,343	-133,505	-0,125	-0,011
-461,328	-66,103	0,076	-0,022
-460,313	800,000	0,069	0,180
-459,299	88,815	-0,051	-0,040
-458,284	134,812	0,054	0,051
-457,270	-105,447	0,063	-0,010
-456,255	651,125	-0,089	-0,165
-455,241	-9,472	-0,117	-0,056
-454,226	264,898	-0,043	-0,054
-453,211	80,632	0,087	-0,067
-452,197	130,651	0,072	-0,066
-451,182	-200,000	0,010	0,090
-450,168	232,353	-0,102	0,121
-449,153	225,584	0,069	-0,080
-448,138	-17,451	-0,135	-0,061
-447,124	121,144	0,025	0,022
-446,109	46,518	0,071	-0,047
-445,095	800,000	-0,018	-0,048
-444,080	729,876	0,028	0,054
-443,065	311,126	-0,059	-0,080
-442,051	800,000	-0,009	-0,021
-441,036	-103,472	0,060	0,010
-440,022	14,692	-0,050	0,028
-439,007	-51,037	0,121	-0,041
-437,992	-135,701	0,107	0,009
-436,978	38,359	-0,093	-0,059
-435,963	800,000	0,053	0,107
-434,949	-103,999	-0,057	0,010
-433,934	-84,976	-0,173	0,039
-432,919	621,392	-0,041	0,075
-431,905	-139,038	-0,151	0,012
-430,890	-66,846	0,025	0,007
-429,876	577,728	-0,005	0,009
-428,861	30,561	-0,062	-0,038
-427,846	209,846	-0,047	-0,053
-426,832	-62,747	0,102	-0,030
-425,817	135,320	0,050	-0,047
-424,803	-200,000	0,029	-0,136
-423,788	-200,000	0,010	-0,039
-422,773	28,550	0,140	0,085
-421,759	-73,726	-0,147	0,038
-420,744	-116,361	0,045	0,006
-419,730	-200,000	-0,010	0,067
-418,715	-200,000	0,020	-0,091
-417,701	575,397	0,012	-0,022
-416,686	800,000	0,040	0,094
-415,671	4,037	0,060	-0,031
-414,657	76,964	0,078	-0,059
-413,642	6,279	0,078	-0,042
-412,628	-200,000	0,008	-0,032
-411,613	-112,296	0,123	-0,018
-410,598	15,923	-0,024	-0,013
-409,584	362,395	-0,036	-0,052
-408,569	-63,274	0,147	0,043
-407,555	-79,566	0,140	-0,034
-406,540	126,262	-0,022	0,020
-405,525	800,000	-0,053	-0,123
-404,511	-200,000	-0,017	-0,097
-403,496	-200,000	0,003	-0,071
-402,482	511,845	0,072	-0,122
-401,467	-200,000	-0,031	0,107
-400,452	800,000	0,078	0,156
-399,438	-200,000	0,009	0,111
-398,423	-200,000	0,004	0,133
-397,409	589,004	-0,041	0,073
-396,394	360,030	-0,083	-0,119
-395,379	-200,000	0,027	-0,128
-394,365	144,564	-0,094	-0,091
-393,350	-115,564	0,090	0,012
-392,336	246,454	-0,094	-0,114
-391,321	222,893	-0,033	0,038
-390,306	-200,000	0,003	-0,077
-389,292	511,058	-0,033	-0,055
-388,277	1,436	-0,091	-0,047
-387,263	-16,549	0,175	-0,079
-386,248	63,420	0,083	0,059
-385,233	800,000	0,026	-0,072
-384,219	96,515	-0,033	-0,027
-383,204	162,061	-0,099	0,099
-382,190	26,936	-0,066	0,039
-381,175	-112,703	-0,154	-0,022
-380,160	23,365	0,055	-0,032
-379,146	316,737	-0,120	0,163
-378,131	-200,000	0,003	0,041
-377,117	-50,779	0,112	0,038
-376,102	-200,000	0,025	-0,094
-375,088	314,240	-0,046	-0,062
-374,073	800,000	0,012	-0,030
-373,058	-67,668	0,076	0,021
-372,044	469,098	-0,044	0,071
-371,029	566,189	-0,072	0,125
-370,015	68,809	0,030	-0,022
-369,000	800,000	-0,069	0,171
-367,985	16,033	-0,009	0,005
-366,971	81,247	-0,160	0,124
-365,956	800,000	0,042	0,087
-364,942	-0,157	0,009	-0,004
-363,927	-200,000	0,018	-0,061
-362,912	-83,449	-0,036	-0,008
-361,898	231,034	-0,071	-0,083
-360,883	-200,000	-0,008	0,070
-359,869	106,983	-0,038	-0,032
-358,854	407,670	0,049	-0,074
-357,839	-200,000	-0,017	-0,059
-356,825	-73,897	0,135	-0,035
-355,810	-156,942	-0,117	-0,005
-354,796	-182,715	0,074	-0,001
-353,781	-200,000	0,014	0,072
-352,766	-200,000	-0,004	-0,101
-351,752	403,142	-0,061	0,092
-350,737	133,413	0,042	0,039
-349,723	6,648	-0,064	0,034
-348,708	-200,000	0,026	0,184
-347,693	117,327	-0,074	0,065
-346,679	157,592	-0,009	0,009
-345,664	800,000	0,048	-0,099
-344,650	46,858	-0,034	0,023
-343,635	9,178	0,079	0,043
-342,620	189,813	0,016	0,017
-341,606	-109,706	-0,035	-0,005
-340,591	-200,000	0,015	-0,143
-339,577	-200,000	0,003	-0,152
-338,562	-122,958	0,040	0,005
-337,548	164,096	0,038	-0,039
-336,533	145,827	-0,048	0,046
-335,518	61,662	0,097	-0,069
-334,504	-200,000	0,054	0,176
-333,489	697,707	-0,077	0,145
-332,475	-200,000	-0,020	-0,104
-331,460	-6,096	0,065	0,032
-330,445	267,611	0,097	-0,121
-329,431	-47,821	0,109	-0,038
-328,416	331,200	-0,038	-0,052
-327,402	598,076	-0,032	-0,058
-326,387	217,219	-0,096	0,110
-325,372	-150,616	-0,170	-0,009
-324,358	-142,221	0,018	-0,001
-323,343	-200,000	0,034	-0,113
-322,329	62,940	0,046	-0,033
-321,314	-200,000	0,015	0,094
-320,299	20,182	0,145	0,083
-319,285	296,558	-0,080	0,105
-318,270	36,719	-0,077	0,049
-317,256	-200,000	-0,018	-0,119
-316,241	-200,000	0,004	-0,066
-315,226	-73,594	0,077	0,020
-314,212	70,204	-0,085	0,063
-313,197	174,711	0,092	0,095
-312,183	-200,000	0,027	0,145
-311,168	-20,234	-0,087	-0,038
-310,153	-146,602	-0,065	-0,004
-309,139	185,470	-0,040	0,043
-308,124	99,707	0,139	0,115
-307,110	-108,758	0,074	0,011
-306,095	800,000	0,023	-0,064
-305,080	-200,000	-0,015	0,099
-304,066	324,148	0,010	-0,013
-303,051	86,595	-0,087	-0,069
-302,037	-16,369	0,028	-0,012
-301,022	220,270	0,073	-0,084
-300,008	251,126	-0,038	0,046
-298,993	-82,172	0,214	0,049
-297,978	-47,522	-0,047	0,016
-296,964	-77,793	-0,069	-0,017
-295,949	-200,000	0,014	-0,085
-294,935	64,265	-0,066	-0,048
-293,920	-158,232	-0,068	-0,003
-292,905	-88,133	0,179	-0,038
-291,891	800,000	-0,022	-0,063
-290,876	-200,000	0,034	0,110
-289,862	-200,000	0,007	-0,041
-288,847	55,115	-0,015	-0,010
-287,832	646,112	-0,039	0,071
-286,818	-127,375	0,076	-0,008
-285,803	2,348	0,044	0,022
-284,789	97,416	-0,073	-0,060
-283,774	-200,000	-0,007	-0,043
-282,759	-50,962	0,145	0,049
-281,745	449,835	-0,040	0,063
-280,730	121,735	-0,088	0,078
-279,716	71,069	-0,065	0,048
-278,701	573,138	-0,016	-0,027
-277,686	777,233	-0,037	0,073
-276,672	222,354	0,255	0,294
-275,657	-133,408	-0,106	0,009
-274,643	-86,548	-0,058	-0,013
-273,628	-200,000	0,012	-0,187
-272,613	800,000	0,029	-0,082
-271,599	-132,275	-0,045	-0,004
-270,584	-200,000	-0,046	0,173
-269,570	379,378	-0,053	0,078
-268,555	-48,390	-0,053	0,018
-267,540	466,515	-0,022	-0,035
-266,526	-200,000	0,004	0,043
-265,511	800,000	0,016	-0,048
-264,497	-200,000	-0,001	0,051
-263,482	-200,000	-0,006	0,094
-262,467	-52,123	0,147	0,048
-261,453	372,628	0,083	0,121
-260,438	-200,000	0,019	-0,072
-259,424	3,291	-0,068	-0,035
-258,409	-86,153	-0,060	0,013
-257,395	-28,971	-0,093	0,038
-256,380	357,860	0,075	0,107
-255,365	-8,660	0,121	-0,058
-254,351	97,811	0,136	0,112
-253,336	-200,000	0,002	-0,104
-252,322	-43,383	0,057	0,020
-251,307	225,889	-0,052	-0,061
-250,292	-200,000	-0,018	-0,084
-249,278	800,000	0,030	0,092
-248,263	-55,474	0,134	0,042
-247,249	-43,519	0,086	0,031
-246,234	-90,210	0,036	-0,007
-245,219	-47,072	-0,039	0,013
-244,205	-19,303	-0,010	-0,004
-243,190	18,485	0,164	-0,093
-242,176	34,745	-0,182	0,114
-241,161	-200,000	0,036	0,202
-240,146	104,874	-0,126	0,106
-239,132	152,613	0,054	-0,052
-238,117	-7,696	-0,159	-0,076
-237,103	-116,437	-0,121	0,016
-236,088	-115,754	-0,074	-0,010
-235,073	-200,000	0,011	0,134
-234,059	-142,686	0,102	-0,007
-233,044	146,144	-0,042	0,040
-232,030	375,868	0,043	0,063
-231,015	-85,569	-0,181	-0,040
-230,000	124,196	-0,127	-0,114
-228,986	67,217	0,102	0,074
-227,971	800,000	0,017	-0,042
-226,957	-77,668	0,149	0,036
-225,942	-35,484	0,038	-0,015
-224,927	-118,731	-0,029	0,004
-223,913	217,197	-0,065	-0,074
-222,898	354,806	0,029	0,041
-221,884	468,181	0,044	0,071
-220,869	67,032	0,066	0,048
-219,855	-55,700	-0,079	0,025
-218,840	94,547	-0,021	-0,017
-217,825	28,743	0,036	-0,022
-216,811	170,853	-0,067	-0,069
-215,796	-16,248	0,112	0,050
-214,782	-200,000	0,017	0,104
-213,767	286,139	-0,028	-0,036
-212,752	-48,815	0,156	0,053
-211,738	308,740	-0,016	0,021
-210,723	109,648	-0,077	-0,066
-209,709	-200,000	-0,018	0,095
-208,694	404,337	-0,028	0,042
-207,679	81,362	-0,081	0,062
-206,665	75,434	-0,074	-0,056
-205,650	57,837	-0,016	-0,011
-204,636	237,853	0,104	0,123
-203,621	-74,843	0,067	0,017
-202,606	-135,085	0,041	-0,003
-201,592	800,000	0,021	-0,058
-200,577	-23,384	0,029	0,012
-199,563	-84,922	0,026	0,006
-198,548	-200,000	0,017	0,220
-197,533	52,741	0,068	-0,046
-196,519	-200,000	0,000	-0,051
-195,504	800,000	0,036	0,083
-194,490	-141,959	-0,081	0,006
-193,475	32,129	-0,048	-0,029
-192,460	181,821	0,043	-0,045
-191,446	-116,583	0,093	0,012
-190,431	92,000	-0,100	-0,080
-189,417	326,745	0,056	0,077
-188,402	304,669	-0,076	0,100
-187,387	-200,000	-0,006	-0,027
-186,373	144,572	-0,087	-0,083
-185,358	-107,027	-0,065	0,010
-184,344	-200,000	0,002	0,074
-183,329	52,754	0,073	-0,049
-182,315	205,511	0,079	0,088
-181,300	-94,213	0,160	-0,031
-180,285	-60,783	0,085	-0,025
-179,271	-162,305	-0,145	-0,005
-178,256	-5,930	-0,111	-0,054
-177,242	84,222	-0,069	0,053
-176,227	-200,000	0,041	0,169
-175,212	652,915	-0,051	-0,094
-174,198	45,931	-0,082	-0,054
-173,183	98,706	-0,050	0,041
-172,169	-73,151	0,115	0,030
-171,154	-181,199	0,022	-0,000
-170,139	713,301	0,032	-0,061
-169,125	29,387	-0,009	0,005
-168,110	286,428	-0,056	0,072
-167,096	135,620	0,042	-0,039
-166,081	768,599	0,087	-0,169
-165,066	-152,774	-0,105	0,005
-164,052	-199,102	0,109	-0,000
-163,037	10,586	-0,061	0,033
-162,023	186,578	0,046	-0,049
-161,008	219,874	0,037	0,043
-159,993	-106,163	0,039	-0,006
-158,979	-72,439	0,072	0,019
-157,964	-200,000	0,048	-0,188
-156,950	-51,284	-0,061	-0,020
-155,935	-200,000	-0,009	-0,140
-154,920	800,000	0,032	-0,088
-153,906	100,510	0,149	0,123
-152,891	-43,019	-0,070	0,025
-151,877	-39,235	0,067	-0,025
-150,862	354,011	0,038	-0,053
-149,847	800,000	0,019	0,048
-148,833	800,000	0,050	-0,114
-147,818	-109,145	-0,024	-0,004
-146,804	164,215	0,036	0,036
-145,789	-200,000	0,013	0,048
-144,775	5,938	-0,136	0,071
-143,760	267,376	-0,071	-0,089
-142,745	72,032	0,120	0,088
-141,731	-146,148	-0,079	0,005
-140,716	246,199	-0,055	0,066
-139,702	382,829	0,028	0,041
-138,687	-72,434	0,150	0,039
-137,672	-102,261	-0,060	0,010
-136,658	70,399	0,064	-0,047
-135,643	800,000	-0,093	-0,197
-134,629	-68,003	-0,045	0,012
-133,614	-200,000	-0,003	-0,064
-132,599	468,928	0,090	0,144
-131,585	-123,411	0,041	-0,005
-130,570	-200,000	0,018	0,073
-129,556	61,252	-0,135	-0,095
-128,541	-57,372	-0,034	0,011
-127,526	98,498	-0,073	-0,059
-126,512	-145,620	-0,056	0,003
-125,497	-200,000	0,007	0,065
-124,483	-200,000	0,002	-0,053
-123,468	800,000	0,024	-0,075
-122,453	800,000	0,022	-0,062
-121,439	-159,600	-0,048	0,002
-120,424	800,000	0,016	0,049
-119,410	-200,000	-0,006	0,055
-118,395	284,930	0,097	0,125
-117,380	-87,333	0,031	-0,007
-116,366	98,399	-0,024	0,020
-115,351	-200,000	-0,016	-0,087
-114,337	-27,688	0,032	-0,013
-113,322	-200,000	0,005	-0,020
-112,307	90,687	-0,116	0,092
-111,293	686,607	0,063	0,117
-110,278	-33,650	-0,030	-0,012
-109,264	-44,834	0,059	0,021
-108,249	-120,653	-0,133	-0,016
-107,234	639,574	0,045	-0,081
-106,220	114,321	0,080	-0,069
-105,205	-200,000	-0,022	0,144
-104,191	-53,571	0,124	-0,040
-103,176	-134,078	0,148	0,013
-102,162	-200,000	0,009	0,049
-101,147	-103,775	0,085	-0,014
-100,132	193,706	-0,021	0,023
-99,118	258,905	-0,103	-0,126
-98,103	464,400	0,062	0,099
-97,089	150,236	0,079	0,076
-96,074	184,079	0,066	-0,070
-95,059	800,000	-0,028	0,070
-94,045	415,712	-0,055	0,084
-93,030	-158,815	-0,139	0,006
-92,016	-200,000	0,023	-0,204
-91,001	11,437	-0,131	-0,071
-89,986	-33,137	0,096	0,037
-88,972	100,923	-0,038	-0,032
-87,957	144,609	-0,061	0,058
-86,943	752,236	0,095	0,183
-85,928	-200,000	-0,001	-0,214
-84,913	144,636	0,098	-0,093
-83,899	19,064	0,041	0,023
-82,884	194,193	0,083	0,089
-81,870	-200,000	0,002	0,012
-80,855	-200,000	0,003	0,012
-79,840	-144,557	-0,022	0,001
-78,826	349,932	-0,030	-0,042
-77,811	3,755	-0,091	0,047
-76,797	800,000	-0,062	-0,129
-75,782	-200,000	-0,024	-0,123
-74,767	291,578	0,086	0,111
-73,753	39,619	0,033	0,021
-72,738	193,754	0,113	-0,121
-71,724	108,958	0,086	-0,073
-70,709	-200,000	0,009	-0,151
-69,694	-111,764	0,099	0,014
-68,680	63,003	0,075	-0,053
-67,665	-200,000	0,025	0,160
-66,651	800,000	0,056	-0,121
-65,636	800,000	-0,025	0,063
-64,622	517,187	-0,038	0,064
-63,607	442,779	-0,045	-0,070
-62,592	105,351	-0,028	-0,024
-61,578	800,000	-0,009	0,022
-60,563	-200,000	-0,011	-0,048
-59,549	-123,943	-0,044	-0,005
-58,534	-29,211	-1,438	-0,581
-57,519	502,691	-1,302	-2,140
-56,505	-200,000	-0,544	-4,605
-55,490	97,583	1,055	0,859
-54,476	800,000	4,775	11,256
-53,461	-200,000	18,196	287,293
-52,446	800,000	726,963	2228,163
-51,432	555,394	1643,252	2812,502
-50,417	79,321	1665,701	1263,433
-49,403	22,917	1539,432	891,496
-48,388	16,860	1462,600	817,665
-47,373	17,832	1452,577	816,713
-46,359	17,313	1442,923	808,765
-45,344	15,147	1438,401	795,858
-44,330	15,038	1436,484	794,247
-43,315	15,082	1434,709	793,442
-42,300	15,125	1433,040	792,695
-41,286	15,088	1432,090	791,960
-40,271	15,115	1430,677	791,274
-39,257	15,088	1429,618	790,528
-38,242	15,135	1428,036	789,846
-37,227	15,158	1426,750	789,211
-36,213	15,155	1425,405	788,423
-35,198	15,149	1424,437	787,829
-34,184	15,154	1423,488	787,295
-33,169	15,096	1422,368	786,369
-32,154	15,106	1421,421	785,862
-31,140	15,130	1419,977	785,146
-30,125	15,169	1418,665	784,572
-29,111	15,121	1417,902	783,895
-28,096	15,118	1416,502	783,074
-27,082	15,004	1415,628	782,024
-26,067	15,046	1414,356	781,489
-25,052	15,038	1413,397	780,891
-24,038	15,034	1412,462	780,324
-23,023	15,020	1411,204	779,531
-22,009	15,012	1410,181	778,901
-20,994	14,994	1409,429	778,369
-19,979	14,952	1408,626	777,697
-18,965	14,986	1407,359	777,128
-17,950	14,971	1406,591	776,600
-16,936	14,987	1405,616	776,110
-15,921	14,892	1404,600	775,072
-14,906	14,983	1403,566	774,893
-13,892	15,003	1402,693	774,476
-12,877	14,925	1401,840	773,611
-11,863	14,941	1400,903	773,137
-10,848	14,932	1400,053	772,597
-9,833	14,903	1399,187	771,953
-8,819	14,880	1398,210	771,277
-7,804	14,829	1397,567	770,654
-6,790	14,827	1396,404	769,972
-5,775	14,840	1395,184	769,329
-4,760	14,848	1394,339	768,873
-3,746	14,815	1393,645	768,306
-2,731	14,863	1392,654	767,951
-1,717	14,809	1391,850	767,228
-0,702	14,800	1390,015	766,144
0,313	18,541	1309,168	738,921
1,327	34,737	707,255	436,754
2,342	52,717	124,969	84,387
3,356	5,236	16,701	8,684
4,371	3,485	3,195	1,642
5,386	-88,643	0,475	0,099
6,400	25,236	0,041	0,024
7,415	100,916	-0,207	-0,170
8,429	178,056	-0,149	-0,154
9,444	235,768	-0,264	-0,309
10,459	-87,582	-0,484	-0,103
11,473	50,146	-0,378	-0,252
12,488	100,671	-0,265	-0,218
13,502	-11,110	-0,380	-0,176
14,517	-20,652	-0,306	-0,132
15,531	16,163	-0,479	-0,266
16,546	0,355	-0,432	-0,218
17,561	124,338	-0,244	-0,217
18,575	-17,812	-0,280	-0,124
19,590	71,313	-0,186	-0,136
20,604	3,219	-0,257	-0,131
21,619	-3,241	-0,443	-0,217
22,634	-34,566	-0,530	-0,204
23,648	59,124	-0,344	-0,239
24,663	92,936	-0,467	-0,373
25,677	259,738	-0,304	-0,372
26,692	466,349	-0,218	-0,345
27,707	31,924	-0,308	-0,187
28,721	158,717	-0,339	-0,333
29,736	89,318	-0,415	-0,326
30,750	63,390	-0,500	-0,353
31,765	81,043	-0,408	-0,311
32,780	103,724	-0,391	-0,324
33,794	54,069	-0,353	-0,239
34,809	20,821	-0,403	-0,230
35,823	54,951	-0,366	-0,249
36,838	227,226	-0,369	-0,424
37,853	121,808	-0,323	-0,284
38,867	133,229	-0,278	-0,253
39,882	13,865	-0,277	-0,151
40,896	22,668	-0,456	-0,263
41,911	-25,849	-0,417	-0,173
42,926	10,249	-0,416	-0,223
43,940	177,171	-0,367	-0,377
44,955	107,760	-0,349	-0,293
45,969	100,912	-0,312	-0,256
46,984	201,731	-0,252	-0,274
47,999	-14,453	-0,254	-0,115
49,013	40,156	-0,390	-0,247
50,028	68,188	-0,270	-0,195
51,042	54,936	-0,380	-0,258
52,057	3,032	-0,406	-0,207
53,071	23,433	-0,426	-0,246
54,086	-40,571	-0,353	-0,128
55,101	10,927	-0,364	-0,195
56,115	-19,286	-0,348	-0,151
57,130	39,825	-0,291	-0,184
58,144	113,198	-0,361	-0,308
59,159	148,911	-0,294	-0,280
60,174	31,402	-0,347	-0,209
61,188	97,909	-0,326	-0,264
62,203	-23,395	-0,313	-0,132
63,217	73,436	-0,158	-0,116
64,232	89,994	-0,316	-0,249
65,247	48,683	-0,376	-0,248
66,261	20,703	-0,423	-0,240
67,276	-36,825	-0,373	-0,140
68,290	97,966	-0,236	-0,191
69,305	46,697	-0,307	-0,200
70,320	125,564	-0,326	-0,289
71,334	148,469	-0,327	-0,311
72,349	58,803	-0,284	-0,196
73,363	-31,592	-0,330	-0,130
74,378	-5,759	-0,326	-0,156
75,393	280,373	-0,196	-0,247
76,407	147,635	-0,200	-0,190
77,422	707,595	-0,151	-0,281
78,436	-134,367	-0,259	0,022
79,451	-76,551	-0,368	-0,090
80,466	33,986	-0,342	-0,209
81,480	267,910	-0,204	-0,251
82,495	517,112	-0,194	-0,320
83,509	4,409	-0,205	-0,105
84,524	130,113	-0,249	-0,224
85,539	72,480	-0,283	-0,207
86,553	44,216	-0,312	-0,201
87,568	-33,901	-0,329	-0,127
88,582	23,774	-0,296	-0,171
89,597	260,560	-0,289	-0,352
90,611	70,364	-0,375	-0,272
91,626	53,428	-0,303	-0,204
92,641	201,893	-0,229	-0,249
93,655	-15,782	-0,277	-0,123
94,670	81,586	-0,327	-0,248
95,684	136,039	-0,246	-0,225
96,699	-78,719	-0,501	-0,119
97,714	83,427	-0,255	-0,195
98,728	38,350	-0,292	-0,182
99,743	59,384	-0,242	-0,167
100,757	20,501	-0,344	-0,195
101,772	248,690	-0,187	-0,223
102,787	51,529	-0,298	-0,198
103,801	71,478	-0,375	-0,273
104,816	116,206	-0,212	-0,182
105,830	127,269	-0,297	-0,264
106,845	-13,252	-0,218	-0,099
107,860	55,855	-0,290	-0,197
108,874	205,050	-0,232	-0,253
109,889	147,536	-0,308	-0,291
110,903	-93,438	-0,289	-0,056
111,918	282,164	-0,255	-0,321
112,933	288,747	-0,195	-0,248
113,947	0,391	-0,316	-0,158
114,962	-138,388	-0,237	0,018
115,976	-25,094	-0,287	-0,119
116,991	-32,829	-0,323	-0,125
118,006	573,081	-0,197	-0,338
119,020	59,596	-0,265	-0,183
120,035	-25,329	-0,244	-0,100
121,049	-2,544	-0,194	-0,095
122,064	194,787	-0,180	-0,191
123,079	53,666	-0,327	-0,220
124,093	-9,741	-0,275	-0,128
125,108	86,832	-0,345	-0,267
126,122	149,653	-0,200	-0,190
127,137	174,041	-0,249	-0,252
128,151	160,800	-0,191	-0,187
129,166	153,314	-0,237	-0,228
130,181	87,151	-0,196	-0,152
131,195	25,484	-0,238	-0,138
132,210	-55,175	-0,359	-0,112
133,224	219,969	-0,233	-0,262
134,239	217,263	-0,263	-0,294
135,254	474,004	-0,196	-0,311
136,268	191,841	-0,196	-0,207
137,283	64,490	-0,249	-0,175
138,297	45,109	-0,307	-0,198
139,312	171,969	-0,288	-0,290
140,327	187,470	-0,286	-0,299
141,341	-118,867	-0,382	-0,046
142,356	100,141	-0,246	-0,200
143,370	95,033	-0,230	-0,183
144,385	362,992	-0,213	-0,300
145,400	331,927	-0,220	-0,298
146,414	86,775	-0,199	-0,153
147,429	190,012	-0,247	-0,259
148,443	100,096	-0,195	-0,158
149,458	102,145	-0,264	-0,215
150,473	-13,591	-0,265	-0,119
151,487	-88,463	-0,309	-0,064
152,502	40,947	-0,225	-0,142
153,516	187,634	-0,247	-0,258
154,531	-37,737	-0,226	-0,083
155,546	42,901	-0,327	-0,208
156,560	154,051	-0,200	-0,192
157,575	94,430	-0,244	-0,194
158,589	-26,867	-0,271	-0,110
159,604	43,065	-0,254	-0,161
160,619	43,137	-0,221	-0,141
161,633	-14,485	-0,358	-0,160
162,648	-25,329	-0,229	-0,094
163,662	-51,005	-0,270	-0,088
164,677	269,855	-0,116	-0,142
165,692	800,000	-0,101	-0,307
166,706	164,947	-0,148	-0,146
167,721	64,711	-0,291	-0,204
168,735	78,828	-0,246	-0,184
169,750	352,330	-0,159	-0,220
170,764	800,000	-0,137	-0,321
171,779	30,858	-0,184	-0,110
172,794	-33,365	-0,255	-0,098
173,808	-126,193	-0,196	0,020
174,823	800,000	-0,108	-0,234
175,837	189,215	-0,191	-0,199
176,852	-4,000	-0,163	-0,078
177,867	295,633	-0,147	-0,188
178,881	305,866	-0,113	-0,147
179,896	-80,324	-0,237	-0,055
180,910	134,469	-0,199	-0,179
181,925	9,766	-0,210	-0,111
182,940	117,400	-0,144	-0,123
183,954	-32,604	-0,242	-0,093
184,969	55,691	-0,175	-0,118
185,983	-200,000	0,014	-0,085
186,998	200,732	-0,189	-0,202
188,013	92,133	-0,196	-0,153
189,027	344,161	-0,184	-0,252
190,042	273,494	-0,293	-0,361
191,056	133,872	-0,215	-0,194
192,071	285,622	-0,165	-0,207
193,086	486,744	-0,131	-0,208
194,100	97,268	-0,267	-0,213
195,115	70,871	-0,247	-0,178
196,129	39,801	-0,274	-0,171
197,144	800,000	-0,102	-0,199
198,159	-79,419	-0,180	-0,042
199,173	125,243	-0,194	-0,170
200,188	-15,625	-0,217	-0,096
201,202	-61,529	-0,139	-0,040
202,217	54,998	-0,158	-0,106
203,232	185,577	-0,164	-0,169
204,246	214,585	-0,197	-0,217
205,261	211,616	-0,218	-0,238
206,275	215,606	-0,167	-0,185
207,290	80,600	-0,207	-0,155
208,304	-168,898	-0,227	-0,006
209,319	-147,220	-0,171	0,010
210,334	447,559	-0,048	-0,073
211,348	164,791	-0,153	-0,150
212,363	87,056	-0,231	-0,177
213,377	122,159	-0,201	-0,174
214,392	90,115	-0,256	-0,198
215,407	2,033	-0,159	-0,079
216,421	-200,000	0,029	-0,157
217,436	114,974	-0,318	-0,269
218,450	-5,836	-0,217	-0,103
219,465	213,690	-0,147	-0,161
220,480	69,977	-0,227	-0,162
221,494	94,435	-0,181	-0,143
222,509	-24,324	-0,264	-0,109
223,523	165,136	-0,171	-0,168
224,538	164,643	-0,174	-0,170
225,553	191,454	-0,330	-0,345
226,567	389,726	-0,160	-0,231
227,582	800,000	-0,109	-0,234
228,596	619,035	-0,113	-0,198
229,611	130,385	-0,191	-0,170
230,626	29,424	-0,205	-0,120
231,640	116,329	-0,192	-0,163
232,655	-200,000	-0,043	-0,285
233,669	344,600	-0,148	-0,201
234,684	365,007	-0,111	-0,156
235,699	233,793	-0,146	-0,167
236,713	-76,364	-0,158	0,038
237,728	37,139	-0,173	-0,106
238,742	180,249	-0,118	-0,120
239,757	-59,323	-0,107	-0,032
240,772	318,382	-0,157	-0,206
241,786	678,602	-0,153	-0,278
242,801	157,372	-0,193	-0,185
243,815	241,853	-0,137	-0,159
244,830	-31,764	-0,140	-0,054
245,844	-200,000	-0,086	-0,274
246,859	800,000	-0,094	-0,242
247,874	79,329	-0,164	-0,122
248,888	186,645	-0,184	-0,190
249,903	800,000	-0,124	-0,285
250,917	457,167	-0,087	-0,134
251,932	383,777	-0,096	-0,137
252,947	-141,140	-0,287	0,020
253,961	79,320	-0,187	-0,139
254,976	1,289	-0,225	-0,111
255,990	231,023	-0,142	-0,161
257,005	-97,419	-0,211	-0,038
258,020	-200,000	-0,062	-0,208
259,034	-68,124	-0,149	-0,040
260,049	-61,887	-0,138	-0,040
261,063	139,324	-0,233	-0,212
262,078	303,401	-0,222	-0,286
263,093	-183,340	-0,319	-0,004
264,107	106,264	-0,170	-0,139
265,122	-41,346	-0,211	-0,075
266,136	269,681	-0,122	-0,149
267,151	349,114	-0,090	-0,123
268,166	149,836	-0,159	-0,149
269,180	-200,000	-0,017	-0,127
270,195	-200,000	-0,008	-0,196
271,209	-62,002	-0,262	-0,075
272,224	62,404	-0,140	-0,097
273,239	-63,336	-0,253	-0,071
274,253	-50,345	-0,219	-0,071
275,268	-97,215	-0,184	-0,033
276,282	-121,450	-0,268	-0,030
277,297	-31,931	-0,208	-0,080
278,312	215,984	-0,160	-0,176
279,326	51,585	-0,303	-0,198
280,341	-9,953	-0,142	0,065
281,355	74,473	-0,126	-0,092
282,370	29,782	-0,259	-0,152
283,384	154,392	-0,213	-0,202
284,399	213,761	-0,228	-0,250
285,414	-8,236	-0,221	-0,102
286,428	121,754	-0,173	-0,149
287,443	-200,000	-0,061	-0,200
288,457	369,468	-0,139	-0,195
289,472	-200,000	-0,166	0,000
290,487	-17,230	-0,177	-0,077
291,501	190,472	-0,142	-0,147
292,516	-27,467	-0,257	-0,103
293,530	93,227	-0,098	-0,077
294,545	-1,468	-0,137	-0,066
295,560	101,295	-0,136	0,109
296,574	-24,450	-0,211	-0,086
297,589	-133,535	-0,190	-0,016
298,603	124,841	-0,153	-0,132
299,618	13,059	-0,164	-0,087
300,633	388,511	-0,114	-0,163
301,647	-90,181	-0,296	-0,059
302,662	136,692	-0,114	-0,103
303,676	6,218	-0,241	-0,123
304,691	125,989	-0,205	-0,178
305,706	800,000	-0,112	-0,254
306,720	-81,572	-0,117	-0,026
307,735	299,888	-0,077	-0,099
308,749	-200,000	-0,027	-0,098
309,764	302,334	-0,116	-0,148
310,779	61,192	-0,119	-0,082
311,793	163,927	-0,090	-0,087
312,808	800,000	-0,133	-0,261
313,822	-1,604	-0,156	-0,075
314,837	800,000	-0,060	-0,183
315,852	800,000	-0,041	-0,105
316,866	-45,688	-0,241	-0,082
317,881	679,165	-0,099	-0,179
318,895	-200,000	-0,018	-0,219
319,910	166,591	-0,210	-0,205
320,925	66,658	-0,162	-0,113
321,939	-173,094	-0,205	0,004
322,954	-114,574	-0,109	-0,014
323,968	-23,425	-0,091	0,038
324,983	197,351	-0,077	-0,081
325,997	118,508	-0,183	-0,155
327,012	800,000	-0,055	-0,108
328,027	12,521	-0,169	-0,089
329,041	-200,000	-0,018	-0,060
330,056	411,939	-0,105	0,153
331,070	161,292	-0,137	-0,131
332,085	125,202	-0,200	-0,173
333,100	353,052	-0,061	-0,083
334,114	36,136	-0,187	-0,113
335,129	800,000	-0,102	-0,205
336,143	7,450	-0,181	-0,093
337,158	-141,637	-0,122	0,008
338,173	174,132	-0,016	0,015
339,187	532,758	-0,114	-0,186
340,202	-34,965	-0,170	0,063
341,216	399,720	-0,168	-0,243
342,231	94,294	-0,159	-0,124
343,246	-200,000	-0,036	-0,264
344,260	35,741	-0,136	-0,082
345,275	800,000	-0,104	-0,204
346,289	-82,398	-0,068	-0,015
347,304	292,741	-0,090	-0,112
348,319	-82,434	-0,262	-0,058
349,333	-65,877	-0,164	-0,045
350,348	800,000	-0,077	-0,175
351,362	800,000	-0,066	-0,148
352,377	-197,065	-0,181	0,001
353,392	323,513	-0,120	-0,158
354,406	-151,648	-0,167	0,008
355,421	208,975	1317,208	1416,653
356,435	160,820	1478,254	1417,169
