DTS Sentinel unit serial number:	SN410029Multiplexer serial number:	ORYXHardware model number:	OX2-SRSoftware version number:	ORYX F/W v4,00 Oryx Data Collector v3.7.2.0data status	okinstallation	B3 Nyhavnadifferential loss correction	single-endedforward channel	channel 1reverse channel	N/Adate	2023/11/28time	20:07:30forward acquisition time	300,00reverse acquisition time	0,00gamma	499,1914k internal	0,3212k external	0,3212temperature offset calibration	1,0000default loss term (dB/km)	0,3820temperature slope calibration	1,0000multiplexer offset coefficient	1,0000multiplexer slope coefficient	1,0000fibre end	0,00T internal ref (°C)	7,84T ext. ref 1 (°C)	-6,72T ext. ref 2 (°C)	-6,87length (m)	temperature (°C)	Stokes	anti-Stokes-744,400	258,134	-0,217	-0,271
-743,385	-200,000	-0,048	0,262
-742,371	180,475	-0,121	-0,129
-741,356	-200,000	-0,031	0,338
-740,342	152,160	-0,279	-0,276
-739,327	-200,000	-0,060	0,386
-738,312	-200,000	-0,063	-0,223
-737,298	800,000	-0,049	0,136
-736,283	800,000	-0,131	-0,266
-735,269	-200,000	-0,027	0,183
-734,254	467,309	-0,165	-0,269
-733,239	6,658	-0,230	0,124
-732,225	406,852	-0,136	-0,209
-731,210	-39,343	0,114	0,043
-730,196	-200,000	-0,006	0,062
-729,181	481,532	0,015	0,024
-728,167	800,000	0,067	-0,145
-727,152	800,000	-0,053	-0,147
-726,137	-200,000	0,022	0,133
-725,123	493,304	-0,046	-0,077
-724,108	74,604	-0,156	-0,119
-723,094	100,146	-0,024	-0,021
-722,079	-200,000	0,001	-0,123
-721,064	-88,454	-0,095	-0,020
-720,050	800,000	-0,042	-0,095
-719,035	566,993	-0,074	-0,131
-718,021	-200,000	0,000	0,067
-717,006	-79,365	0,029	-0,007
-715,991	-200,000	-0,014	-0,112
-714,977	-25,089	-0,139	0,059
-713,962	-104,770	0,054	0,009
-712,948	-47,252	-0,173	-0,061
-711,933	-14,674	0,092	0,043
-710,918	-118,373	-0,110	-0,014
-709,904	-24,791	-0,159	-0,068
-708,889	443,250	0,050	-0,080
-707,875	-76,874	-0,104	0,026
-706,860	-200,000	-0,001	-0,107
-705,845	-93,382	-0,124	0,025
-704,831	-200,000	-0,007	0,090
-703,816	127,675	-0,139	0,128
-702,802	4,759	0,196	-0,104
-701,787	-200,000	-0,028	-0,160
-700,772	150,288	-0,118	0,116
-699,758	800,000	-0,022	0,052
-698,743	447,091	0,018	0,029
-697,729	50,378	0,046	0,032
-696,714	800,000	-0,043	0,105
-695,699	-200,000	0,033	-0,108
-694,685	66,806	-0,099	-0,072
-693,670	800,000	0,050	0,109
-692,656	-200,000	-0,025	0,158
-691,641	-27,840	-0,012	-0,005
-690,627	-112,164	0,101	0,015
-689,612	-75,869	-0,133	-0,034
-688,597	33,924	-0,052	-0,033
-687,583	83,512	-0,052	-0,041
-686,568	-200,000	0,018	-0,118
-685,554	-200,000	-0,007	-0,190
-684,539	-60,375	0,041	-0,013
-683,524	3,560	0,053	-0,028
-682,510	-200,000	0,014	0,137
-681,495	641,514	0,018	-0,034
-680,481	310,490	-0,124	-0,169
-679,466	-57,809	-0,140	-0,044
-678,451	207,561	0,115	-0,130
-677,437	391,620	-0,038	-0,057
-676,422	-200,000	0,000	0,157
-675,408	146,062	-0,039	0,038
-674,393	-200,000	-0,007	-0,029
-673,378	182,712	0,046	-0,049
-672,364	195,175	-0,209	-0,230
-671,349	50,191	-0,052	-0,035
-670,335	-85,382	0,136	-0,030
-669,320	38,957	-0,125	-0,081
-668,305	-200,000	0,010	0,207
-667,291	335,839	0,045	-0,063
-666,276	800,000	-0,017	0,050
-665,262	-200,000	0,004	-0,128
-664,247	-200,000	0,018	-0,120
-663,232	-200,000	-0,067	0,254
-662,218	404,791	-0,066	0,101
-661,203	-25,410	-0,106	-0,045
-660,189	-4,361	-0,029	-0,014
-659,174	325,977	-0,047	0,065
-658,159	133,976	-0,113	-0,106
-657,145	134,667	-0,029	-0,027
-656,130	307,794	0,028	-0,038
-655,116	12,999	0,056	0,031
-654,101	-10,850	-0,062	0,029
-653,086	-165,522	-0,167	0,005
-652,072	800,000	-0,029	0,080
-651,057	90,077	-0,139	-0,112
-650,043	366,700	-0,080	0,117
-649,028	348,453	-0,049	-0,070
-648,014	-9,625	0,129	0,062
-646,999	-124,035	0,222	-0,025
-645,984	-200,000	0,048	0,000
-644,970	-200,000	-0,007	0,023
-643,955	-200,000	0,008	0,030
-642,941	131,798	0,047	-0,044
-641,926	-50,356	-0,057	-0,019
-640,911	800,000	-0,008	0,020
-639,897	79,267	-0,094	0,072
-638,882	-63,214	0,191	0,056
-637,868	51,617	-0,098	-0,067
-636,853	-200,000	-0,009	-0,203
-635,838	-30,320	0,041	0,017
-634,824	-12,516	-0,034	0,016
-633,809	-86,537	0,038	-0,008
-632,795	-50,185	0,076	0,026
-631,780	-84,920	-0,075	-0,017
-630,765	270,250	-0,052	-0,067
-629,751	335,595	0,005	-0,007
-628,736	184,798	-0,047	0,051
-627,722	-200,000	0,007	0,067
-626,707	-200,000	-0,004	-0,031
-625,692	12,912	0,043	-0,024
-624,678	238,693	-0,059	-0,071
-623,663	390,168	0,037	-0,055
-622,649	-108,007	-0,031	0,005
-621,634	800,000	0,010	-0,023
-620,619	-133,888	-0,038	0,003
-619,605	762,414	-0,044	0,086
-618,590	-21,248	-0,096	0,042
-617,576	-41,454	0,059	-0,022
-616,561	-200,000	-0,005	-0,028
-615,546	-124,838	-0,034	-0,004
-614,532	-200,000	-0,050	-0,180
-613,517	800,000	-0,027	0,084
-612,503	-70,687	0,039	0,011
-611,488	-17,092	-0,064	0,029
-610,474	800,000	0,024	-0,069
-609,459	47,434	-0,091	-0,061
-608,444	270,847	-0,020	0,025
-607,430	-200,000	0,010	0,087
-606,415	800,000	0,031	0,065
-605,401	-159,988	-0,149	-0,006
-604,386	-200,000	0,043	-0,137
-603,371	193,590	0,086	0,094
-602,357	260,185	-0,016	0,020
-601,342	465,214	0,018	-0,029
-600,328	463,008	-0,055	0,089
-599,313	117,656	-0,018	-0,016
-598,298	-200,000	0,024	-0,189
-597,284	463,242	0,032	-0,051
-596,269	-200,000	0,001	0,035
-595,255	154,791	-0,046	0,046
-594,240	-200,000	0,013	-0,074
-593,225	-20,815	0,084	-0,037
-592,211	-17,292	-0,122	-0,055
-591,196	11,547	-0,082	-0,045
-590,182	-61,259	-0,102	-0,031
-589,167	-192,180	0,157	0,001
-588,152	-39,683	0,064	0,024
-587,138	314,878	-0,037	-0,050
-586,123	-97,316	-0,067	-0,013
-585,109	-200,000	-0,020	-0,119
-584,094	-200,000	0,016	-0,132
-583,079	-200,000	0,007	0,030
-582,065	-19,170	0,047	0,021
-581,050	46,921	-0,093	-0,062
-580,036	-200,000	-0,010	0,184
-579,021	44,408	-0,058	-0,038
-578,006	569,474	-0,055	0,097
-576,992	66,529	-0,115	-0,084
-575,977	-200,000	-0,010	0,092
-574,963	-46,579	0,147	-0,052
-573,948	-137,979	0,072	0,006
-572,934	-200,000	0,010	-0,082
-571,919	-200,000	0,003	-0,071
-570,904	-41,880	-0,171	0,063
-569,890	743,590	-0,033	0,063
-568,875	-107,141	-0,117	-0,018
-567,861	317,713	0,017	0,023
-566,846	27,442	-0,027	0,016
-565,831	-200,000	0,005	0,136
-564,817	-9,547	-0,072	-0,035
-563,802	-200,000	0,006	-0,157
-562,788	-117,868	-0,017	0,002
-561,773	107,482	-0,088	0,075
-560,758	57,141	0,069	0,048
-559,744	273,285	-0,140	0,178
-558,729	570,917	-0,062	0,108
-557,715	800,000	-0,044	-0,117
-556,700	-164,564	-0,109	-0,003
-555,685	417,210	-0,023	-0,035
-554,671	800,000	-0,024	0,058
-553,656	115,921	0,043	-0,037
-552,642	-2,413	0,047	-0,023
-551,627	634,148	0,067	0,122
-550,612	-200,000	0,020	0,074
-549,598	-128,653	-0,132	-0,013
-548,583	22,528	0,046	-0,027
-547,569	-200,000	0,007	-0,047
-546,554	800,000	0,015	-0,046
-545,539	-10,793	0,059	0,028
-544,525	-200,000	0,022	-0,095
-543,510	12,862	0,032	0,018
-542,496	-41,833	-0,020	0,007
-541,481	85,765	-0,104	0,082
-540,466	193,672	-0,044	-0,048
-539,452	-200,000	-0,004	-0,018
-538,437	800,000	0,081	0,201
-537,423	39,486	-0,038	-0,024
-536,408	-79,178	0,011	-0,003
-535,393	32,475	0,032	-0,020
-534,379	-200,000	0,036	-0,208
-533,364	800,000	-0,005	0,013
-532,350	-35,677	0,108	0,042
-531,335	72,570	0,058	-0,043
-530,321	0,616	0,066	0,034
-529,306	-157,982	-0,077	0,003
-528,291	-55,318	0,073	-0,024
-527,277	52,633	0,080	0,055
-526,262	-140,907	-0,089	0,006
-525,248	-107,403	-0,033	-0,005
-524,233	-200,000	0,042	0,189
-523,218	800,000	-0,016	-0,037
-522,204	590,198	0,048	-0,086
-521,189	800,000	-0,022	-0,057
-520,175	467,449	-0,086	0,140
-519,160	-200,000	-0,005	0,035
-518,145	2,174	0,081	-0,042
-517,131	102,794	-0,021	0,018
-516,116	-94,860	0,102	0,020
-515,102	155,991	-0,082	0,082
-514,087	-20,473	-0,132	-0,058
-513,072	66,682	-0,043	-0,032
-512,058	287,669	-0,073	0,095
-511,043	550,281	0,012	0,021
-510,029	800,000	-0,020	-0,064
-509,014	-200,000	0,032	0,186
-507,999	-200,000	-0,003	0,173
-506,985	7,711	0,104	0,056
-505,970	-200,000	0,001	-0,155
-504,956	27,651	0,042	-0,025
-503,941	263,706	0,034	-0,042
-502,926	97,826	0,031	0,026
-501,912	320,156	0,088	-0,120
-500,897	-200,000	0,057	-0,187
-499,883	800,000	-0,079	0,170
-498,868	369,676	0,055	-0,080
-497,853	-39,945	-0,092	-0,034
-496,839	578,161	-0,067	0,118
-495,824	-50,345	0,078	-0,026
-494,810	800,000	0,040	-0,085
-493,795	800,000	-0,053	0,120
-492,781	800,000	-0,052	-0,132
-491,766	-200,000	0,022	-0,132
-490,751	97,683	-0,163	-0,134
-489,737	120,250	-0,030	0,026
-488,722	352,995	0,086	-0,123
-487,708	-18,087	0,148	0,066
-486,693	-122,590	0,107	0,012
-485,678	-200,000	-0,009	0,039
-484,664	-71,189	0,043	0,012
-483,649	151,579	0,037	0,036
-482,635	-200,000	-0,015	-0,051
-481,620	-200,000	0,009	0,143
-480,605	-56,058	-0,016	-0,005
-479,591	2,608	0,143	0,074
-478,576	-117,412	-0,138	-0,018
-477,562	229,513	-0,045	-0,053
-476,547	-200,000	-0,011	-0,107
-475,532	101,156	-0,053	0,044
-474,518	800,000	0,030	0,064
-473,503	16,526	0,036	-0,020
-472,489	69,222	0,075	0,055
-471,474	-200,000	-0,011	-0,087
-470,459	800,000	-0,056	-0,130
-469,445	12,303	0,194	-0,107
-468,430	145,839	-0,125	-0,121
-467,416	281,040	-0,066	0,086
-466,401	55,450	0,131	0,091
-465,386	128,644	0,115	-0,105
-464,372	185,379	0,081	0,087
-463,357	-200,000	0,012	0,058
-462,343	800,000	-0,032	-0,065
-461,328	-25,866	-0,017	-0,007
-460,313	-6,841	0,067	-0,033
-459,299	27,227	-0,066	0,040
-458,284	47,058	0,039	-0,026
-457,270	-112,840	-0,213	0,030
-456,255	800,000	-0,064	-0,133
-455,241	-200,000	-0,001	-0,070
-454,226	144,081	-0,041	-0,039
-453,211	47,954	0,083	-0,056
-452,197	800,000	0,022	0,067
-451,182	-200,000	0,020	-0,085
-450,168	47,410	0,043	-0,029
-449,153	800,000	-0,020	-0,053
-448,138	-200,000	0,012	-0,154
-447,124	-200,000	-0,008	-0,084
-446,109	182,317	0,028	-0,030
-445,095	-200,000	-0,008	0,083
-444,080	-37,045	0,033	0,013
-443,065	20,235	0,160	0,092
-442,051	-200,000	0,023	-0,106
-441,036	-200,000	-0,012	-0,145
-440,022	331,854	-0,020	0,028
-439,007	469,793	-0,034	0,055
-437,992	374,173	0,078	0,114
-436,978	800,000	0,021	0,056
-435,963	-200,000	-0,008	-0,099
-434,949	-200,000	0,006	0,080
-433,934	800,000	0,023	0,051
-432,919	213,729	-0,038	-0,044
-431,905	-200,000	0,010	-0,129
-430,890	44,037	-0,091	0,059
-429,876	-113,579	0,086	0,012
-428,861	-200,000	0,052	0,174
-427,846	-17,677	-0,128	0,057
-426,832	135,379	0,025	-0,024
-425,817	-43,838	-0,076	0,027
-424,803	-191,155	-0,064	-0,000
-423,788	-31,589	0,054	0,022
-422,773	-200,000	0,017	0,179
-421,759	287,454	0,081	0,105
-420,744	87,045	-0,075	0,059
-419,730	-200,000	-0,022	-0,118
-418,715	232,692	-0,055	0,065
-417,701	-1,982	0,043	-0,021
-416,686	237,874	0,039	-0,046
-415,671	-14,066	0,097	-0,045
-414,657	47,167	0,111	0,074
-413,642	800,000	-0,067	0,173
-412,628	-7,196	0,006	0,003
-411,613	255,743	-0,032	-0,039
-410,598	83,280	0,100	-0,078
-409,584	800,000	-0,024	0,055
-408,569	177,753	0,098	-0,103
-407,555	-154,481	0,146	0,007
-406,540	-21,011	-0,102	-0,045
-405,525	-84,939	0,096	-0,021
-404,511	-171,323	-0,231	-0,005
-403,496	575,966	-0,067	-0,117
-402,482	382,171	0,080	-0,118
-401,467	-200,000	0,011	0,071
-400,452	800,000	-0,036	0,094
-399,438	351,341	0,035	0,050
-398,423	800,000	0,032	-0,069
-397,409	-59,013	-0,121	0,037
-396,394	29,382	-0,030	0,018
-395,379	-196,839	0,090	0,000
-394,365	624,658	0,061	-0,111
-393,350	-18,063	0,079	0,035
-392,336	-30,163	0,109	0,044
-391,321	53,104	-0,056	0,038
-390,306	-200,000	0,023	-0,081
-389,292	237,409	0,079	-0,094
-388,277	-200,000	-0,046	-0,185
-387,263	-200,000	-0,003	0,023
-386,248	-55,836	0,162	0,051
-385,233	339,839	-0,060	0,084
-384,219	208,298	-0,071	0,079
-383,204	-54,253	0,113	-0,036
-382,190	96,636	-0,027	0,022
-381,175	789,786	-0,053	0,105
-380,160	118,317	-0,092	0,081
-379,146	-23,002	0,103	0,044
-378,131	-29,159	-0,057	0,023
-377,117	-200,000	0,014	0,049
-376,102	-200,000	-0,006	-0,044
-375,088	455,592	0,051	0,081
-374,073	20,499	-0,027	-0,015
-373,058	-200,000	0,001	0,074
-372,044	20,667	-0,013	-0,007
-371,029	800,000	-0,045	0,090
-370,015	-72,000	0,037	0,010
-369,000	-200,000	0,003	0,047
-367,985	-200,000	0,005	-0,066
-366,971	-5,032	-0,028	-0,014
-365,956	75,983	-0,024	-0,018
-364,942	557,619	0,023	0,040
-363,927	-157,888	0,094	-0,004
-362,912	112,279	0,081	0,070
-361,898	-56,722	-0,147	-0,046
-360,883	-200,000	0,140	0,000
-359,869	512,221	-0,110	-0,184
-358,854	25,927	-0,067	0,040
-357,839	800,000	0,019	0,057
-356,825	318,133	0,069	-0,093
-355,810	144,481	0,082	-0,078
-354,796	-200,000	0,007	-0,127
-353,781	-108,036	-0,055	0,009
-352,766	413,868	-0,064	-0,098
-351,752	800,000	-0,051	-0,108
-350,737	20,668	0,173	-0,100
-349,723	-153,063	0,130	-0,006
-348,708	177,087	-0,033	0,034
-347,693	82,463	-0,133	-0,103
-346,679	114,571	-0,127	-0,110
-345,664	-200,000	-0,012	-0,072
-344,650	36,629	0,091	-0,057
-343,635	-200,000	0,053	0,193
-342,620	-41,216	-0,089	0,032
-341,606	-114,377	0,051	0,007
-340,591	-79,869	0,134	-0,032
-339,577	-200,000	0,032	0,119
-338,562	800,000	-0,013	-0,036
-337,548	800,000	-0,034	-0,072
-336,533	32,137	-0,061	-0,037
-335,518	-86,930	0,207	0,045
-334,504	-3,293	-0,103	0,051
-333,489	-20,074	0,075	0,033
-332,475	-150,629	-0,099	-0,005
-331,460	44,440	-0,099	0,065
-330,445	-17,543	-0,158	-0,071
-329,431	-200,000	0,014	0,061
-328,416	775,343	-0,060	0,117
-327,402	-170,295	0,190	-0,005
-326,387	-88,928	-0,057	-0,012
-325,372	800,000	0,039	-0,090
-324,358	41,995	-0,103	0,067
-323,343	-124,496	0,169	-0,018
-322,329	173,143	0,032	0,033
-321,314	-200,000	0,035	0,112
-320,299	800,000	0,056	0,144
-319,285	-200,000	-0,002	0,028
-318,270	-200,000	-0,017	-0,085
-317,256	33,578	-0,136	-0,084
-316,241	-200,000	-0,004	0,021
-315,226	96,763	-0,102	-0,084
-314,212	143,467	-0,074	0,071
-313,197	-30,285	-0,056	0,022
-312,183	800,000	0,039	0,118
-311,168	120,660	-0,078	-0,069
-310,153	72,753	-0,046	0,034
-309,139	75,572	0,090	0,068
-308,124	328,182	0,056	0,076
-307,110	-1,051	-0,044	-0,022
-306,095	-102,253	0,131	0,022
-305,080	-62,709	0,049	0,014
-304,066	261,846	-0,020	-0,025
-303,051	-200,000	0,018	-0,098
-302,037	497,880	-0,093	-0,152
-301,022	170,112	0,067	0,069
-300,008	800,000	-0,047	0,095
-298,993	-112,704	0,190	0,027
-297,978	800,000	-0,066	0,154
-296,964	434,549	0,024	-0,037
-295,949	-19,818	-0,080	-0,035
-294,935	594,152	-0,063	-0,111
-293,920	226,373	0,034	-0,039
-292,905	-200,000	0,013	0,059
-291,891	-35,151	0,006	0,002
-290,876	102,235	-0,060	0,050
-289,862	-200,000	-0,008	0,050
-288,847	178,920	-0,069	-0,071
-287,832	99,953	0,054	-0,044
-286,818	-53,171	-0,097	0,031
-285,803	97,230	-0,038	-0,031
-284,789	129,222	0,051	0,046
-283,774	324,328	-0,115	0,157
-282,759	-30,526	-0,102	0,041
-281,745	354,654	0,012	0,017
-280,730	-16,630	-0,162	-0,073
-279,716	266,006	0,032	-0,039
-278,701	80,619	0,096	0,073
-277,686	196,507	0,092	-0,100
-276,672	16,363	0,096	-0,054
-275,657	495,513	-0,053	-0,087
-274,643	315,919	-0,048	-0,065
-273,628	719,143	0,005	0,010
-272,613	-124,815	0,103	-0,011
-271,599	173,593	-0,045	-0,046
-270,584	-200,000	-0,000	-0,059
-269,570	-200,000	0,031	0,124
-268,555	-200,000	-0,001	-0,017
-267,540	-71,572	-0,119	0,031
-266,526	-71,431	0,059	0,016
-265,511	280,186	0,078	0,099
-264,497	-200,000	0,003	-0,032
-263,482	-200,000	0,014	0,151
-262,467	-29,393	-0,023	0,009
-261,453	462,723	-0,071	-0,113
-260,438	-103,494	0,030	-0,005
-259,424	-89,854	-0,071	-0,015
-258,409	118,506	0,051	0,045
-257,395	205,101	0,055	-0,061
-256,380	619,095	0,055	0,099
-255,365	241,795	0,091	0,109
-254,351	728,580	-0,006	0,012
-253,336	-200,000	-0,011	-0,069
-252,322	375,254	-0,033	-0,048
-251,307	-200,000	-0,004	0,088
-250,292	-200,000	0,000	-0,004
-249,278	-200,000	0,028	-0,118
-248,263	-51,564	0,106	0,035
-247,249	69,144	-0,009	0,007
-246,234	401,576	0,014	0,021
-245,219	132,464	-0,107	0,098
-244,205	800,000	0,034	0,073
-243,190	800,000	0,058	0,120
-242,176	-131,122	-0,030	0,003
-241,161	-63,445	0,048	0,014
-240,146	104,032	0,015	0,012
-239,132	-200,000	0,015	0,055
-238,117	-13,429	-0,175	0,081
-237,103	154,551	0,092	-0,090
-236,088	567,259	0,025	0,043
-235,073	-31,845	0,087	-0,034
-234,059	-145,124	0,038	-0,002
-233,044	180,628	0,012	-0,012
-232,030	181,379	-0,111	0,116
-231,015	284,555	0,055	0,071
-230,000	-36,156	-0,041	0,016
-228,986	-200,000	-0,014	0,074
-227,971	-200,000	0,031	0,117
-226,957	-147,751	-0,020	0,001
-225,942	800,000	-0,070	-0,168
-224,927	446,695	-0,023	-0,036
-223,913	85,048	-0,123	-0,096
-222,898	607,729	0,071	-0,126
-221,884	-36,699	-0,066	0,025
-220,869	542,602	-0,041	0,070
-219,855	-200,000	-0,029	0,147
-218,840	360,874	-0,023	0,033
-217,825	-200,000	0,011	0,166
-216,811	582,368	-0,025	-0,043
-215,796	4,673	0,052	0,027
-214,782	-150,535	0,097	-0,005
-213,767	-79,601	0,082	-0,019
-212,752	-200,000	-0,016	-0,138
-211,738	-134,530	0,075	0,006
-210,723	-74,625	0,087	-0,022
-209,709	7,128	0,033	-0,018
-208,694	800,000	-0,036	-0,111
-207,679	800,000	-0,029	-0,064
-206,665	65,821	0,167	0,120
-205,650	800,000	-0,024	0,056
-204,636	643,827	0,021	0,038
-203,621	228,112	-0,095	0,110
-202,606	-200,000	-0,034	-0,148
-201,592	800,000	-0,040	0,084
-200,577	4,690	-0,077	-0,040
-199,563	-84,140	0,107	-0,024
-198,548	363,356	0,092	0,131
-197,533	-53,089	0,102	0,033
-196,519	-86,028	-0,147	0,032
-195,504	339,491	0,078	-0,108
-194,490	96,515	-0,058	0,047
-193,475	800,000	0,022	-0,047
-192,460	647,484	0,012	-0,022
-191,446	-70,098	0,136	-0,037
-190,431	123,541	0,071	0,063
-189,417	643,456	0,013	-0,024
-188,402	-200,000	0,012	0,049
-187,387	524,576	-0,052	-0,088
-186,373	-155,223	-0,084	-0,004
-185,358	-200,000	-0,002	-0,015
-184,344	800,000	-0,032	0,088
-183,329	14,866	0,069	-0,038
-182,315	245,136	-0,033	0,040
-181,300	800,000	-0,006	0,018
-180,285	68,415	-0,178	0,129
-179,271	-132,185	-0,120	0,011
-178,256	263,585	-0,028	-0,034
-177,242	30,512	0,092	-0,056
-176,227	-73,702	0,068	-0,017
-175,212	613,275	-0,064	0,113
-174,198	-121,351	-0,051	-0,006
-173,183	-195,222	-0,068	-0,000
-172,169	-77,027	-0,083	-0,020
-171,154	-200,000	0,029	-0,161
-170,139	-200,000	0,007	-0,058
-169,125	-142,669	-0,114	0,008
-168,110	-102,734	-0,119	-0,020
-167,096	477,254	0,027	0,043
-166,081	106,635	-0,017	-0,014
-165,066	12,130	-0,163	-0,089
-164,052	292,956	-0,089	0,115
-163,037	-17,143	0,055	-0,024
-162,023	180,661	-0,071	0,074
-161,008	322,206	0,011	0,015
-159,993	-43,001	0,231	-0,083
-158,979	42,038	-0,028	-0,018
-157,964	579,892	0,056	-0,097
-156,950	10,222	-0,129	-0,069
-155,935	-87,334	0,057	-0,012
-154,920	-96,321	-0,029	0,005
-153,906	24,313	0,094	0,055
-152,891	-85,166	0,049	-0,011
-151,877	93,738	0,008	0,006
-150,862	8,638	-0,206	-0,109
-149,847	718,344	0,024	0,046
-148,833	-200,000	0,007	0,026
-147,818	692,412	0,047	0,087
-146,804	437,795	-0,067	0,103
-145,789	31,708	0,063	-0,038
-144,775	-200,000	-0,024	-0,121
-143,760	-200,000	-0,003	0,028
-142,745	594,063	-0,076	0,133
-141,731	-200,000	-0,006	0,046
-140,716	407,135	0,047	0,070
-139,702	169,831	-0,061	0,062
-138,687	-61,547	-0,106	0,031
-137,672	169,216	0,048	-0,048
-136,658	-67,576	-0,083	-0,023
-135,643	800,000	-0,030	0,088
-134,629	606,545	0,014	-0,026
-133,614	-200,000	0,038	-0,198
-132,599	-169,976	0,117	0,003
-131,585	-58,179	-0,071	-0,022
-130,570	-200,000	0,012	-0,061
-129,556	-53,842	-0,086	0,028
-128,541	-200,000	0,031	-0,157
-127,526	-200,000	-0,005	-0,022
-126,512	468,346	0,087	0,139
-125,497	-200,000	-0,012	0,055
-124,483	10,102	-0,164	0,088
-123,468	-200,000	0,030	0,125
-122,453	63,020	-0,192	0,136
-121,439	-200,000	0,003	0,071
-120,424	109,274	-0,096	0,081
-119,410	-131,472	-0,076	-0,007
-118,395	218,756	-0,048	0,054
-117,380	378,883	0,055	0,079
-116,366	800,000	0,028	-0,061
-115,351	-200,000	0,001	0,003
-114,337	-200,000	0,023	0,103
-113,322	-89,640	-0,036	0,007
-112,307	-123,875	0,064	-0,007
-111,293	2,271	0,170	0,087
-110,278	800,000	-0,057	0,174
-109,264	-200,000	0,031	0,151
-108,249	800,000	-0,016	0,044
-107,234	-180,466	0,074	0,001
-106,220	-103,033	-0,050	-0,008
-105,205	-200,000	-0,014	-0,063
-104,191	-5,253	-0,113	-0,055
-103,176	-121,104	0,246	0,029
-102,162	127,294	-0,031	0,028
-101,147	-51,853	-0,103	-0,034
-100,132	-182,729	0,020	-0,000
-99,118	63,747	-0,088	0,062
-98,103	800,000	-0,050	0,105
-97,089	800,000	-0,032	0,083
-96,074	800,000	-0,025	0,079
-95,059	-200,000	-0,017	0,058
-94,045	693,725	0,032	-0,059
-93,030	3,308	-0,059	0,030
-92,016	27,585	0,061	0,036
-91,001	424,798	-0,022	-0,033
-89,986	800,000	0,059	0,137
-88,972	-138,982	0,023	0,002
-87,957	-36,521	-0,020	0,008
-86,943	123,552	0,065	-0,057
-85,928	123,501	0,055	-0,049
-84,913	-166,163	-0,150	0,004
-83,899	196,783	0,100	0,108
-82,884	-200,000	-0,024	0,166
-81,870	132,563	0,072	0,066
-80,855	-200,000	-0,006	0,036
-79,840	297,263	-0,119	0,154
-78,826	-29,636	-0,056	-0,022
-77,811	-200,000	0,007	-0,051
-76,797	-127,827	-0,175	0,018
-75,782	-16,710	0,225	-0,100
-74,767	612,202	-0,018	-0,032
-73,753	-48,556	-0,093	-0,031
-72,738	-200,000	-0,022	-0,130
-71,724	13,972	0,065	-0,035
-70,709	95,030	-0,061	-0,049
-69,694	-82,551	0,092	-0,021
-68,680	-93,042	0,105	-0,020
-67,665	800,000	0,041	-0,097
-66,651	-200,000	0,003	-0,010
-65,636	48,156	-0,028	0,019
-64,622	186,281	0,022	0,023
-63,607	800,000	0,049	-0,098
-62,592	-200,000	-0,011	-0,048
-61,578	257,017	-0,031	0,038
-60,563	191,585	0,087	0,092
-59,549	105,884	-0,083	-0,069
-58,534	71,453	-2,110	-1,544
-57,519	518,075	-1,187	-1,967
-56,505	-200,000	-0,194	-4,351
-55,490	589,300	1,038	1,812
-54,476	800,000	5,173	11,234
-53,461	-200,000	22,427	345,236
-52,446	800,000	755,248	2285,777
-51,432	531,441	1639,299	2745,303
-50,417	67,466	1637,663	1177,895
-49,403	15,481	1515,328	837,015
-48,388	9,688	1441,478	768,481
-47,373	19,199	1434,413	809,878
-46,359	13,267	1422,675	775,310
-45,344	8,014	1418,871	748,434
-44,330	7,993	1416,785	747,204
-43,315	7,909	1415,170	745,929
-42,300	7,933	1413,073	744,908
-41,286	7,958	1412,107	744,483
-40,271	7,944	1410,830	743,717
-39,257	7,942	1409,766	743,118
-38,242	7,967	1408,666	742,622
-37,227	7,913	1407,650	741,807
-36,213	7,887	1406,358	740,975
-35,198	7,923	1404,947	740,369
-34,184	8,004	1403,918	740,179
-33,169	7,891	1402,775	739,015
-32,154	7,931	1401,788	738,654
-31,140	7,921	1400,694	738,003
-30,125	7,963	1399,421	737,496
-29,111	7,939	1398,222	736,726
-28,096	7,906	1397,287	736,050
-27,082	7,895	1395,894	735,236
-26,067	7,883	1394,872	734,612
-25,052	7,893	1393,842	734,087
-24,038	7,889	1392,961	733,578
-23,023	7,889	1392,122	733,103
-22,009	7,859	1391,087	732,390
-20,994	7,859	1389,836	731,704
-19,979	7,824	1389,042	731,097
-18,965	7,790	1388,271	730,504
-17,950	7,783	1387,327	729,945
-16,936	7,789	1386,518	729,520
-15,921	7,771	1385,320	728,774
-14,906	7,794	1384,332	728,334
-13,892	7,811	1383,372	727,877
-12,877	7,723	1382,726	727,102
-11,863	7,748	1381,898	726,753
-10,848	7,767	1380,950	726,312
-9,833	7,787	1379,825	725,787
-8,819	7,665	1379,158	724,844
-7,804	7,665	1378,251	724,341
-6,790	7,737	1377,001	723,986
-5,775	7,709	1376,144	723,379
-4,760	7,716	1375,159	722,861
-3,746	7,714	1374,293	722,368
-2,731	7,721	1373,387	721,898
-1,717	7,690	1372,704	721,366
-0,702	7,702	1370,905	720,447
0,313	11,687	1281,452	691,439
1,327	27,511	674,484	399,063
2,342	42,569	115,852	74,187
3,356	-2,554	16,469	8,101
4,371	-7,929	3,886	1,841
5,386	1,289	1,401	0,707
6,400	800,000	0,310	0,656
7,415	800,000	-0,135	-0,309
8,429	-18,584	-0,222	-0,097
9,444	-31,336	-0,264	-0,104
10,459	136,667	-0,285	-0,262
11,473	-1,573	-0,351	-0,174
12,488	90,912	-0,195	-0,154
13,502	-95,873	-0,333	-0,062
14,517	-137,037	-0,240	-0,019
15,531	42,571	-0,362	-0,232
16,546	71,554	-0,294	-0,214
17,561	-23,608	-0,469	-0,197
18,575	-58,323	-0,148	-0,045
19,590	723,814	-0,136	-0,257
20,604	-135,937	-0,336	-0,027
21,619	57,397	-0,366	-0,251
22,634	104,821	-0,496	-0,411
23,648	167,224	-0,364	-0,364
24,663	30,159	-0,387	-0,232
25,677	70,881	-0,326	-0,237
26,692	83,749	-0,396	-0,303
27,707	-84,068	-0,393	-0,087
28,721	79,194	-0,438	-0,330
29,736	71,056	-0,448	-0,326
30,750	300,517	-0,410	-0,533
31,765	83,352	-0,465	-0,356
32,780	218,109	-0,169	-0,190
33,794	23,125	-0,367	-0,211
34,809	65,578	-0,439	-0,312
35,823	62,577	-0,353	-0,248
36,838	188,504	-0,305	-0,321
37,853	76,301	-0,352	-0,262
38,867	68,785	-0,328	-0,236
39,882	11,461	-0,250	-0,134
40,896	445,590	-0,168	-0,261
41,911	-43,148	-0,363	-0,128
42,926	80,999	-0,335	-0,254
43,940	128,611	-0,348	-0,312
44,955	90,040	-0,475	-0,373
45,969	11,047	-0,246	-0,132
46,984	128,591	-0,311	-0,278
47,999	103,388	-0,257	-0,211
49,013	161,540	-0,169	-0,166
50,028	-29,304	-0,369	-0,148
51,042	51,769	-0,377	-0,252
52,057	-19,162	-0,323	-0,140
53,071	-92,131	-0,356	-0,070
54,086	63,679	-0,271	-0,191
55,101	23,442	-0,335	-0,193
56,115	-21,282	-0,302	-0,129
57,130	27,922	-0,259	-0,153
58,144	175,471	-0,302	-0,307
59,159	-62,484	-0,477	-0,138
60,174	106,421	-0,267	-0,222
61,188	110,338	-0,261	-0,220
62,203	39,233	-0,263	-0,165
63,217	-74,639	-0,520	-0,130
64,232	104,992	-0,231	-0,191
65,247	47,044	-0,273	-0,178
66,261	-20,896	-0,395	-0,169
67,276	10,831	-0,338	-0,180
68,290	121,434	-0,362	-0,316
69,305	254,266	-0,267	-0,321
70,320	134,506	-0,314	-0,285
71,334	-17,755	-0,270	-0,118
72,349	37,933	-0,330	-0,205
73,363	-9,378	-0,381	-0,178
74,378	162,383	-0,367	-0,361
75,393	36,890	-0,290	-0,179
76,407	-176,677	-0,304	-0,005
77,422	-74,827	-0,374	-0,093
78,436	-127,674	-0,241	-0,024
79,451	-23,062	-0,290	-0,122
80,466	1,202	-0,208	-0,104
81,480	-8,189	-0,341	-0,160
82,495	78,510	-0,302	-0,226
83,509	101,526	-0,187	-0,152
84,524	20,437	-0,258	-0,146
85,539	111,394	-0,223	-0,188
86,553	-74,572	-0,232	-0,058
87,568	76,290	-0,322	-0,238
88,582	-0,009	-0,262	-0,130
89,597	-3,878	-0,320	-0,155
90,611	-111,133	-0,257	-0,036
91,626	-98,786	-0,338	-0,060
92,641	-1,173	-0,387	-0,191
93,655	-18,576	-0,284	-0,123
94,670	144,465	-0,232	-0,217
95,684	9,724	-0,249	-0,132
96,699	73,507	-0,239	-0,175
97,714	100,185	-0,259	-0,210
98,728	800,000	-0,179	-0,385
99,743	-61,485	-0,304	-0,089
100,757	-178,661	-0,239	0,004
101,772	-9,825	-0,304	-0,141
102,787	131,096	-0,268	-0,241
103,801	135,628	-0,234	-0,213
104,816	-9,684	-0,409	-0,190
105,830	-33,135	-0,235	-0,091
106,845	135,357	-0,232	-0,211
107,860	-36,357	-0,387	-0,145
108,874	84,143	-0,253	-0,193
109,889	69,465	-0,334	-0,240
110,903	-43,512	-0,333	-0,117
111,918	213,554	-0,107	-0,119
112,933	-60,483	-0,343	-0,101
113,947	1,241	-0,195	-0,097
114,962	59,940	-0,293	-0,202
115,976	111,399	-0,201	-0,169
116,991	-124,633	-0,225	-0,024
118,006	57,937	-0,361	-0,246
119,020	571,150	-0,109	-0,185
120,035	28,869	-0,225	-0,133
121,049	127,571	-0,141	-0,125
122,064	17,150	-0,207	-0,114
123,079	5,288	-0,341	-0,175
124,093	177,860	-0,192	-0,195
125,108	0,800	-0,235	-0,117
126,122	334,036	-0,142	-0,192
127,137	425,814	-0,050	-0,075
128,151	800,000	-0,083	-0,169
129,166	-39,067	-0,214	-0,078
130,181	265,703	-0,184	-0,224
131,195	61,054	-0,274	-0,189
132,210	179,890	-0,249	-0,255
133,224	48,606	-0,300	-0,195
134,239	-28,408	-0,290	-0,116
135,254	381,370	-0,169	-0,242
136,268	66,684	-0,294	-0,208
137,283	139,680	-0,192	-0,176
138,297	231,456	-0,206	-0,236
139,312	-159,648	-0,292	-0,011
140,327	186,205	-0,212	-0,220
141,341	5,270	-0,223	-0,114
142,356	54,945	-0,165	-0,111
143,370	-75,009	-0,201	-0,050
144,385	121,760	-0,321	-0,279
145,400	110,624	-0,267	-0,224
146,414	162,037	-0,328	-0,320
147,429	61,566	-0,247	-0,171
148,443	362,733	-0,192	-0,269
149,458	91,964	-0,139	-0,109
150,473	63,494	-0,229	-0,160
151,487	120,978	-0,225	-0,195
152,502	238,128	-0,139	-0,161
153,516	-19,422	-0,228	-0,098
154,531	100,510	-0,249	-0,201
155,546	66,378	-0,213	-0,150
156,560	77,899	-0,201	-0,149
157,575	66,817	-0,153	-0,108
158,589	800,000	-0,077	-0,193
159,604	91,127	-0,217	-0,169
160,619	246,268	-0,260	-0,305
161,633	-91,076	-0,158	-0,031
162,648	76,890	-0,196	-0,144
163,662	-24,576	-0,249	-0,102
164,677	90,596	-0,242	-0,189
165,692	9,189	-0,181	-0,095
166,706	535,488	-0,096	-0,160
167,721	-86,344	-0,210	-0,044
168,735	-26,051	-0,324	-0,132
169,750	103,336	-0,177	-0,144
170,764	-117,509	-0,289	-0,036
171,779	-3,553	-0,153	-0,074
172,794	237,248	-0,157	-0,181
173,808	71,967	-0,277	-0,200
174,823	697,467	-0,128	-0,235
175,837	43,338	-0,171	-0,108
176,852	312,333	-0,087	-0,114
177,867	52,937	-0,200	-0,133
178,881	73,507	-0,212	-0,154
179,896	83,906	-0,167	-0,126
180,910	-98,262	-0,275	-0,049
181,925	-63,510	-0,276	-0,078
182,940	618,012	-0,144	-0,252
183,954	-73,456	-0,241	-0,061
184,969	-36,769	-0,157	-0,058
185,983	15,556	-0,188	-0,102
186,998	35,228	-0,223	-0,136
188,013	-132,099	-0,406	-0,036
189,027	19,362	-0,234	-0,130
190,042	206,992	-0,163	-0,176
191,056	104,195	-0,276	-0,225
192,071	153,176	-0,166	-0,158
193,086	554,286	-0,108	-0,180
194,100	800,000	-0,152	-0,300
195,115	78,399	-0,187	-0,138
196,129	13,176	-0,274	-0,147
197,144	146,735	-0,175	-0,163
198,159	62,769	-0,253	-0,175
199,173	751,711	-0,131	-0,246
200,188	800,000	-0,074	-0,196
201,202	-23,569	-0,271	-0,112
202,217	-21,482	-0,192	-0,081
203,232	21,088	-0,111	-0,062
204,246	78,562	-0,093	-0,068
205,261	69,098	-0,276	-0,196
206,275	-131,853	-0,196	-0,018
207,290	-48,314	-0,182	-0,060
208,304	800,000	-0,034	-0,100
209,319	390,286	-0,097	-0,140
210,334	800,000	-0,104	-0,257
211,348	17,862	-0,205	-0,113
212,363	-23,926	-0,260	-0,107
213,377	242,978	-0,101	-0,117
214,392	-71,823	-0,228	-0,058
215,407	56,163	-0,082	-0,055
216,421	324,291	-0,080	-0,106
217,436	53,921	-0,290	-0,192
218,450	43,984	-0,307	-0,194
219,465	800,000	-0,094	-0,216
220,480	38,912	-0,247	-0,153
221,494	234,462	-0,172	-0,196
222,509	22,475	-0,164	-0,092
223,523	-11,288	-0,233	-0,106
224,538	52,891	-0,178	-0,118
225,553	279,138	-0,181	-0,223
226,567	64,127	-0,250	-0,174
227,582	-135,914	-0,175	-0,014
228,596	219,313	-0,129	-0,142
229,611	-200,000	-0,032	-0,107
230,626	211,695	-0,132	-0,143
231,640	-48,114	-0,077	-0,026
232,655	-9,556	-0,046	0,021
233,669	-200,000	-0,126	0,000
234,684	1,707	-0,186	-0,092
235,699	16,601	-0,033	0,018
236,713	-29,244	-0,302	0,119
237,728	136,790	-0,137	-0,124
238,742	31,367	-0,222	-0,132
239,757	155,496	-0,139	-0,133
240,772	225,763	-0,206	-0,231
241,786	-60,019	-0,201	-0,059
242,801	46,407	-0,250	-0,160
243,815	-200,000	-0,028	-0,105
244,830	33,145	-0,162	-0,097
245,844	453,173	-0,124	-0,189
246,859	-28,716	-0,203	-0,080
247,874	126,148	-0,194	-0,169
248,888	644,258	-0,154	-0,273
249,903	757,529	-0,033	-0,061
250,917	7,984	-0,226	-0,117
251,932	34,723	-0,154	-0,093
252,947	31,441	-0,176	0,104
253,961	75,226	-0,148	-0,108
254,976	45,156	-0,153	-0,097
255,990	247,528	-0,161	-0,188
257,005	800,000	-0,044	-0,095
258,020	-200,000	-0,041	-0,197
259,034	142,237	-0,170	-0,155
260,049	-147,779	-0,093	0,005
261,063	-24,963	-0,126	-0,051
262,078	318,260	-0,171	-0,224
263,093	100,193	-0,122	-0,098
264,107	-21,744	-0,120	-0,050
265,122	-133,559	-0,271	-0,023
266,136	317,844	-0,080	-0,105
267,151	-78,118	-0,155	-0,037
268,166	135,560	-0,144	-0,129
269,180	-161,121	-0,256	0,009
270,195	-15,394	-0,103	-0,045
271,209	448,858	-0,139	-0,211
272,224	35,315	-0,221	-0,133
273,239	107,629	-0,082	-0,068
274,253	-39,936	-0,197	-0,070
275,268	143,589	-0,134	-0,123
276,282	-14,394	-0,175	-0,077
277,297	52,845	-0,197	-0,130
278,312	120,564	-0,102	-0,087
279,326	-119,480	-0,110	0,013
280,341	205,816	-0,160	-0,171
281,355	-139,536	-0,166	-0,012
282,370	800,000	-0,110	-0,240
283,384	143,968	-0,198	-0,181
284,399	128,731	-0,143	-0,126
285,414	-200,000	-0,031	-0,127
286,428	27,886	-0,165	-0,096
287,443	-110,811	-0,150	-0,021
288,457	-200,000	0,019	-0,090
289,472	470,246	-0,084	-0,130
290,487	327,157	-0,104	-0,137
291,501	-158,909	-0,290	-0,011
292,516	-34,900	-0,173	-0,065
293,530	800,000	-0,052	-0,137
294,545	800,000	-0,034	-0,097
295,560	-116,406	-0,198	0,025
296,574	-134,229	-0,303	0,025
297,589	-12,513	-0,123	-0,055
298,603	158,277	-0,138	-0,131
299,618	-36,339	-0,265	-0,098
300,633	-153,895	-0,242	-0,011
301,647	-3,334	-0,069	0,033
302,662	111,594	-0,129	-0,107
303,676	459,790	-0,148	-0,226
304,691	117,512	-0,135	-0,114
305,706	115,984	-0,133	-0,111
306,720	366,006	-0,169	-0,235
307,735	490,349	-0,083	-0,131
308,749	-188,138	-0,086	0,001
309,764	60,007	-0,180	-0,122
310,779	226,865	-0,094	-0,104
311,793	166,612	-0,135	-0,131
312,808	-3,998	-0,284	-0,135
313,822	41,194	-0,162	-0,100
314,837	166,715	-0,157	-0,153
315,852	-200,000	-0,025	-0,165
316,866	37,326	-0,039	0,024
317,881	-76,782	-0,246	-0,059
318,895	-24,065	-0,156	0,063
319,910	-85,075	-0,259	-0,055
320,925	-13,872	-0,192	-0,085
321,939	287,211	-0,107	-0,133
322,954	-143,029	-0,190	0,012
323,968	-200,000	-0,003	0,104
324,983	-81,903	-0,116	0,026
325,997	-41,574	-0,191	0,067
327,012	-35,025	-0,260	-0,097
328,027	-141,337	-0,145	0,010
329,041	-50,936	-0,034	0,011
330,056	-200,000	0,004	-0,047
331,070	-200,000	-0,028	0,144
332,085	-62,790	-0,183	0,051
333,100	266,885	-0,128	-0,153
334,114	134,079	-0,164	-0,145
335,129	-1,248	-0,294	-0,142
336,143	-200,000	-0,001	-0,133
337,158	-125,305	-0,059	-0,006
338,173	-35,918	-0,133	0,049
339,187	265,469	-0,086	-0,102
340,202	96,932	-0,158	-0,124
341,216	72,000	-0,118	-0,084
342,231	157,637	-0,136	-0,129
343,246	-35,912	-0,235	-0,087
344,260	102,296	-0,061	-0,049
345,275	-140,885	-0,167	-0,012
346,289	-11,635	-0,206	-0,092
347,304	-85,757	-0,150	0,032
348,319	-70,617	-0,233	0,060
349,333	24,130	-0,234	-0,132
350,348	152,268	-0,237	-0,221
351,362	-200,000	-0,037	-0,128
352,377	255,419	-0,097	-0,114
353,392	14,135	-0,086	0,045
354,406	-25,039	-0,126	-0,051
355,421	206,356	1306,212	1391,553
356,435	158,703	1465,847	1392,021
