DTS Sentinel unit serial number:	SN410029Multiplexer serial number:	ORYXHardware model number:	OX2-SRSoftware version number:	ORYX F/W v4,00 Oryx Data Collector v3.7.2.0data status	okinstallation	B3 Nyhavnadifferential loss correction	single-endedforward channel	channel 1reverse channel	N/Adate	2023/12/03time	09:27:30forward acquisition time	300,00reverse acquisition time	0,00gamma	499,1914k internal	0,3201k external	0,3201temperature offset calibration	1,0000default loss term (dB/km)	0,3820temperature slope calibration	1,0000multiplexer offset coefficient	1,0000multiplexer slope coefficient	1,0000fibre end	0,00T internal ref (°C)	13,36T ext. ref 1 (°C)	-1,68T ext. ref 2 (°C)	-1,70length (m)	temperature (°C)	Stokes	anti-Stokes-744,400	1,413	-0,220	-0,115
-743,385	-200,000	-0,004	0,233
-742,371	-22,288	-0,132	-0,058
-741,356	-200,000	0,040	0,377
-740,342	42,976	-0,238	-0,157
-739,327	800,000	0,120	0,322
-738,312	35,748	-0,169	-0,108
-737,298	-200,000	-0,042	0,288
-736,283	227,565	-0,136	-0,161
-735,269	-200,000	0,061	0,389
-734,254	288,658	-0,225	-0,297
-733,239	-149,511	-0,172	0,010
-732,225	14,301	-0,239	-0,135
-731,210	60,449	0,146	0,105
-730,196	15,498	0,096	0,055
-729,181	-32,136	-0,047	0,019
-728,167	479,526	-0,029	0,048
-727,152	-17,889	-0,080	-0,036
-726,137	737,511	-0,031	-0,060
-725,123	264,007	-0,108	-0,137
-724,108	-200,000	-0,007	-0,054
-723,094	233,377	-0,052	-0,062
-722,079	-200,000	-0,008	0,054
-721,064	-131,987	-0,095	-0,009
-720,050	-124,254	0,076	-0,009
-719,035	-121,138	-0,049	0,006
-718,021	800,000	-0,041	-0,107
-717,006	800,000	0,079	-0,224
-715,991	93,705	-0,126	-0,104
-714,977	114,907	0,112	-0,100
-713,962	-28,623	0,032	0,013
-712,948	-200,000	0,022	-0,193
-711,933	800,000	-0,035	0,074
-710,918	-122,865	0,143	0,017
-709,904	800,000	0,025	0,079
-708,889	341,620	0,059	0,083
-707,875	702,019	-0,019	0,036
-706,860	82,453	0,138	-0,109
-705,845	399,068	-0,045	-0,068
-704,831	-43,246	0,057	-0,021
-703,816	169,508	-0,016	0,016
-702,802	-200,000	-0,009	0,091
-701,787	162,878	-0,086	-0,088
-700,772	-200,000	0,021	-0,114
-699,758	16,489	-0,053	-0,030
-698,743	30,453	-0,097	-0,060
-697,729	9,198	0,088	-0,048
-696,714	-98,586	-0,047	-0,009
-695,699	137,003	-0,033	-0,032
-694,685	-200,000	-0,038	-0,122
-693,670	-200,000	-0,006	-0,031
-692,656	800,000	-0,033	-0,097
-691,641	-200,000	0,004	0,032
-690,627	-200,000	0,011	0,073
-689,612	800,000	0,014	-0,033
-688,597	-97,862	-0,162	0,030
-687,583	-200,000	-0,017	-0,057
-686,568	198,669	0,049	-0,054
-685,554	4,755	0,065	-0,034
-684,539	-200,000	0,029	-0,116
-683,524	136,998	0,123	-0,117
-682,510	-200,000	-0,012	0,248
-681,495	-200,000	0,016	0,110
-680,481	-132,177	-0,118	-0,011
-679,466	-200,000	0,015	-0,137
-678,451	-21,720	0,067	0,030
-677,437	-150,323	0,048	0,003
-676,422	-59,311	-0,111	-0,034
-675,408	-137,496	0,040	0,003
-674,393	800,000	-0,020	-0,062
-673,378	-100,980	-0,136	0,024
-672,364	207,622	-0,089	-0,101
-671,349	83,511	-0,051	-0,040
-670,335	229,120	0,114	-0,135
-669,320	28,065	0,077	0,047
-668,305	-15,009	-0,085	0,039
-667,291	-92,719	-0,028	-0,006
-666,276	-85,919	-0,072	-0,016
-665,262	-200,000	-0,029	-0,164
-664,247	800,000	0,077	-0,172
-663,232	-7,448	-0,073	0,036
-662,218	-191,223	0,057	-0,000
-661,203	-127,193	-0,114	-0,012
-660,189	676,892	0,028	0,052
-659,174	-170,358	0,033	0,001
-658,159	135,289	-0,037	-0,035
-657,145	-46,217	-0,135	-0,048
-656,130	70,633	-0,083	-0,063
-655,116	191,709	0,060	0,065
-654,101	199,255	-0,069	-0,077
-653,086	800,000	0,041	-0,108
-652,072	-200,000	-0,001	0,022
-651,057	-200,000	0,005	-0,053
-650,043	-200,000	0,024	-0,175
-649,028	14,750	-0,064	-0,036
-648,014	-200,000	-0,038	0,139
-646,999	-126,404	-0,030	0,003
-645,984	180,797	-0,083	-0,089
-644,970	191,514	-0,059	-0,064
-643,955	137,094	-0,106	-0,101
-642,941	158,923	-0,120	-0,121
-641,926	256,833	0,069	-0,086
-640,911	-200,000	0,006	-0,077
-639,897	-200,000	0,004	-0,132
-638,882	57,508	-0,114	-0,081
-637,868	-118,768	-0,062	0,008
-636,853	11,592	-0,048	-0,026
-635,838	146,766	0,023	-0,022
-634,824	-200,000	0,025	-0,087
-633,809	-4,639	-0,120	-0,060
-632,795	-94,075	0,193	-0,038
-631,780	-200,000	0,016	0,068
-630,765	800,000	-0,064	0,137
-629,751	93,737	0,068	-0,055
-628,736	343,549	0,025	0,036
-627,722	-1,303	-0,101	-0,052
-626,707	-90,780	-0,036	-0,007
-625,692	-200,000	-0,014	0,107
-624,678	-200,000	-0,006	0,034
-623,663	-117,298	-0,005	0,001
-622,649	-71,872	0,076	0,020
-621,634	-132,393	-0,019	-0,002
-620,619	-116,094	-0,154	-0,021
-619,605	176,058	0,076	-0,080
-618,590	-84,754	-0,115	0,026
-617,576	-39,247	0,002	0,001
-616,561	-200,000	0,013	-0,066
-615,546	177,787	-0,105	0,111
-614,532	35,013	0,104	-0,065
-613,517	-200,000	-0,017	-0,163
-612,503	187,037	-0,061	-0,066
-611,488	800,000	-0,013	-0,034
-610,474	45,293	-0,101	0,067
-609,459	-63,653	-0,073	0,022
-608,444	-200,000	-0,002	0,095
-607,430	-200,000	0,013	-0,046
-606,415	-49,026	-0,072	-0,025
-605,401	-69,357	0,049	0,013
-604,386	800,000	0,018	0,041
-603,371	-200,000	0,020	-0,153
-602,357	-29,494	0,050	-0,021
-601,342	-140,025	-0,084	0,006
-600,328	-200,000	0,005	-0,083
-599,313	-171,313	0,145	-0,003
-598,298	49,740	-0,115	-0,078
-597,284	107,593	-0,070	0,060
-596,269	219,141	-0,044	-0,051
-595,255	-200,000	0,004	0,094
-594,240	-200,000	0,007	0,091
-593,225	188,914	0,046	-0,050
-592,211	94,461	0,070	0,057
-591,196	-147,025	-0,123	0,007
-590,182	167,572	-0,054	-0,056
-589,167	-200,000	0,012	0,059
-588,152	-200,000	-0,031	0,125
-587,138	-43,998	0,088	0,032
-586,123	800,000	-0,034	-0,082
-585,109	269,456	0,056	-0,071
-584,094	800,000	-0,079	-0,180
-583,079	-200,000	0,010	-0,095
-582,065	78,025	0,013	0,010
-581,050	800,000	-0,039	0,102
-580,036	-200,000	0,007	0,060
-579,021	-200,000	-0,024	0,082
-578,006	-200,000	0,009	-0,108
-576,992	-200,000	0,001	-0,120
-575,977	-147,181	0,119	0,007
-574,963	-200,000	-0,005	-0,019
-573,948	479,245	0,075	0,124
-572,934	114,884	-0,072	0,064
-571,919	-26,072	-0,154	-0,065
-570,904	87,439	-0,050	-0,040
-569,890	-200,000	0,024	0,084
-568,875	174,877	0,043	-0,045
-567,861	-200,000	0,002	0,048
-566,846	-34,095	-0,077	0,031
-565,831	-10,375	0,043	-0,020
-564,817	-80,889	-0,104	-0,025
-563,802	-4,799	-0,078	-0,039
-562,788	749,313	-0,041	-0,081
-561,773	-117,796	0,030	0,004
-560,758	159,793	0,097	0,098
-559,744	-82,935	-0,158	-0,037
-558,729	-157,184	0,052	-0,002
-557,715	-200,000	0,009	-0,070
-556,700	-34,806	-0,047	0,019
-555,685	-43,756	-0,127	-0,046
-554,671	198,577	0,097	0,108
-553,656	756,545	0,065	-0,128
-552,642	-200,000	-0,010	0,042
-551,627	97,248	0,023	0,019
-550,612	121,574	0,081	0,073
-549,598	154,272	-0,055	0,054
-548,583	300,798	-0,015	-0,020
-547,569	187,877	0,077	0,084
-546,554	336,727	0,130	0,183
-545,539	800,000	-0,010	-0,023
-544,525	301,203	-0,038	-0,051
-543,510	-200,000	0,022	-0,113
-542,496	198,182	-0,061	-0,067
-541,481	-200,000	0,035	-0,119
-540,466	62,549	0,073	0,052
-539,452	-200,000	-0,016	0,094
-538,437	138,012	-0,059	0,056
-537,423	800,000	0,017	0,042
-536,408	800,000	0,013	0,033
-535,393	435,238	-0,103	-0,163
-534,379	800,000	-0,010	-0,030
-533,364	-77,638	0,106	0,026
-532,350	-45,721	0,110	0,039
-531,335	-115,425	0,083	0,011
-530,321	800,000	-0,057	0,145
-529,306	-55,214	-0,049	-0,016
-528,291	800,000	-0,018	-0,056
-527,277	-200,000	0,005	0,092
-526,262	208,440	-0,034	0,038
-525,248	108,055	-0,051	-0,044
-524,233	192,001	-0,053	0,058
-523,218	104,699	0,066	0,056
-522,204	-200,000	-0,010	0,082
-521,189	158,356	-0,024	-0,024
-520,175	800,000	-0,037	-0,075
-519,160	36,966	0,075	-0,048
-518,145	-107,392	-0,066	-0,010
-517,131	-200,000	0,027	0,152
-516,116	-8,872	-0,075	-0,036
-515,102	592,979	0,050	0,090
-514,087	-200,000	0,001	-0,020
-513,072	-42,301	0,049	0,018
-512,058	800,000	-0,032	-0,070
-511,043	21,470	0,064	-0,038
-510,029	-5,664	0,082	-0,040
-509,014	-101,670	0,097	0,017
-507,999	-119,691	-0,055	-0,007
-506,985	-30,583	-0,077	-0,031
-505,970	800,000	-0,057	-0,127
-504,956	57,665	-0,073	-0,051
-503,941	-120,145	-0,089	-0,011
-502,926	-40,351	-0,175	0,065
-501,912	-20,642	0,090	-0,040
-500,897	-140,156	0,089	0,007
-499,883	-80,716	0,067	0,016
-498,868	738,231	-0,022	-0,043
-497,853	524,155	0,041	-0,070
-496,839	147,356	0,110	0,107
-495,824	-200,000	0,020	0,117
-494,810	81,022	0,037	-0,029
-493,795	-200,000	0,034	-0,126
-492,781	-82,029	-0,108	0,025
-491,766	84,204	-0,051	-0,040
-490,751	-74,211	0,080	-0,021
-489,737	-153,313	0,046	0,002
-488,722	243,943	-0,071	0,086
-487,708	384,292	0,079	0,117
-486,693	-200,000	0,026	0,132
-485,678	332,156	-0,038	-0,053
-484,664	-99,567	-0,120	0,022
-483,649	-200,000	-0,003	-0,110
-482,635	430,588	-0,016	-0,024
-481,620	-200,000	0,022	0,098
-480,605	-99,462	0,251	-0,045
-479,591	-35,273	0,061	0,024
-478,576	800,000	-0,017	0,036
-477,562	-109,085	0,131	-0,020
-476,547	274,068	-0,106	-0,135
-475,532	-8,485	-0,015	-0,007
-474,518	-176,445	-0,010	0,000
-473,503	800,000	0,024	0,061
-472,489	3,930	-0,058	0,030
-471,474	-133,885	-0,063	-0,006
-470,459	-127,491	0,134	-0,014
-469,445	234,249	-0,069	-0,081
-468,430	54,886	0,080	0,056
-467,416	179,501	0,035	0,037
-466,401	59,103	-0,041	0,029
-465,386	-200,000	0,022	0,072
-464,372	185,208	-0,054	0,058
-463,357	-147,921	-0,007	-0,000
-462,343	-200,000	0,018	-0,056
-461,328	-200,000	0,013	0,072
-460,313	-200,000	0,005	0,086
-459,299	-61,935	-0,092	0,027
-458,284	-200,000	0,012	-0,092
-457,270	92,929	0,042	0,034
-456,255	-200,000	-0,001	-0,092
-455,241	21,777	-0,029	-0,017
-454,226	-149,025	-0,099	-0,006
-453,211	-74,521	-0,092	-0,024
-452,197	800,000	0,042	0,101
-451,182	24,864	-0,015	-0,009
-450,168	-200,000	-0,009	-0,078
-449,153	-200,000	0,007	0,062
-448,138	800,000	0,007	0,020
-447,124	800,000	0,049	-0,108
-446,109	313,395	0,090	0,121
-445,095	-200,000	-0,010	0,110
-444,080	-19,802	0,086	-0,038
-443,065	100,731	-0,105	0,088
-442,051	745,786	-0,035	-0,067
-441,036	232,154	-0,073	-0,086
-440,022	-200,000	-0,001	-0,073
-439,007	800,000	-0,034	-0,088
-437,992	65,246	-0,079	0,057
-436,978	-200,000	0,002	0,097
-435,963	-56,162	0,196	-0,062
-434,949	-71,758	-0,121	0,032
-433,934	-200,000	0,001	-0,006
-432,919	20,270	-0,094	0,054
-431,905	-200,000	-0,016	-0,059
-430,890	-77,170	-0,015	0,004
-429,876	-200,000	-0,001	-0,047
-428,861	77,203	0,043	0,033
-427,846	-200,000	0,019	0,101
-426,832	-42,229	-0,114	-0,042
-425,817	-200,000	-0,003	0,118
-424,803	-91,549	0,099	-0,020
-423,788	12,242	0,061	-0,033
-422,773	270,713	0,060	-0,076
-421,759	800,000	0,017	0,044
-420,744	125,260	-0,040	-0,036
-419,730	-53,158	-0,073	-0,024
-418,715	800,000	0,067	-0,163
-417,701	557,977	0,051	-0,088
-416,686	-53,165	-0,007	0,002
-415,671	800,000	-0,047	0,102
-414,657	56,798	-0,090	0,063
-413,642	-200,000	0,015	0,064
-412,628	800,000	0,035	0,099
-411,613	-52,489	-0,066	-0,022
-410,598	-200,000	-0,041	-0,148
-409,584	-67,071	0,072	0,020
-408,569	189,555	-0,063	-0,068
-407,555	-200,000	-0,006	0,070
-406,540	-181,186	0,061	-0,001
-405,525	-53,221	-0,063	0,020
-404,511	532,830	-0,069	0,118
-403,496	-126,613	0,072	0,008
-402,482	201,299	-0,087	-0,097
-401,467	-120,272	0,124	0,015
-400,452	385,772	0,080	0,119
-399,438	69,923	-0,061	0,045
-398,423	-102,624	-0,142	-0,024
-397,409	-200,000	0,016	-0,142
-396,394	170,535	0,007	0,007
-395,379	-114,155	0,096	0,013
-394,365	526,489	0,063	-0,107
-393,350	-200,000	0,018	0,000
-392,336	202,551	0,037	-0,041
-391,321	-97,930	-0,060	-0,011
-390,306	-147,837	-0,095	-0,006
-389,292	-2,038	0,042	-0,021
-388,277	-200,000	0,051	-0,201
-387,263	-51,440	-0,085	0,028
-386,248	-8,757	-0,052	-0,025
-385,233	67,121	0,063	-0,046
-384,219	-59,040	0,103	-0,032
-383,204	677,379	-0,075	-0,140
-382,190	149,273	0,113	0,110
-381,175	-122,100	0,109	-0,013
-380,160	-35,993	0,176	-0,068
-379,146	29,640	0,037	-0,023
-378,131	-200,000	0,021	0,135
-377,117	476,199	0,018	-0,029
-376,102	-116,304	-0,086	0,011
-375,088	-6,498	0,046	-0,022
-374,073	-179,756	0,101	0,002
-373,058	264,835	-0,017	-0,021
-372,044	150,466	0,027	-0,027
-371,029	-142,519	-0,080	-0,006
-370,015	56,449	-0,043	-0,030
-369,000	-186,150	-0,039	0,000
-367,985	800,000	0,002	0,005
-366,971	-200,000	-0,015	-0,092
-365,956	-200,000	-0,021	-0,101
-364,942	-200,000	-0,005	-0,061
-363,927	-117,536	0,060	0,008
-362,912	54,811	0,067	0,046
-361,898	234,037	0,044	-0,052
-360,883	-70,307	-0,171	0,046
-359,869	800,000	0,055	-0,111
-358,854	800,000	0,048	-0,110
-357,839	-15,985	0,129	0,059
-356,825	800,000	0,016	-0,036
-355,810	168,336	0,051	0,052
-354,796	-145,517	-0,076	0,005
-353,781	-130,648	-0,042	-0,004
-352,766	800,000	0,034	0,095
-351,752	317,012	-0,042	0,057
-350,737	-64,203	-0,048	0,014
-349,723	-37,404	0,045	0,017
-348,708	-200,000	0,001	0,034
-347,693	254,265	-0,040	-0,049
-346,679	-200,000	-0,035	0,166
-345,664	-46,441	-0,148	0,052
-344,650	-95,743	-0,100	-0,019
-343,635	-145,524	-0,082	0,005
-342,620	-200,000	0,154	0,000
-341,606	773,456	-0,071	0,140
-340,591	-49,548	0,152	0,051
-339,577	62,394	0,080	0,057
-338,562	-200,000	0,025	-0,081
-337,548	9,287	-0,020	-0,011
-336,533	800,000	0,035	0,080
-335,518	-200,000	0,036	0,172
-334,504	800,000	0,008	-0,024
-333,489	-200,000	-0,013	-0,100
-332,475	800,000	0,024	-0,053
-331,460	-27,575	-0,053	-0,022
-330,445	-200,000	-0,005	0,036
-329,431	172,835	0,109	0,112
-328,416	153,414	0,122	0,120
-327,402	-200,000	0,002	0,246
-326,387	-154,181	0,135	0,006
-325,372	-24,473	-0,134	-0,057
-324,358	-200,000	-0,009	-0,108
-323,343	139,881	0,064	-0,060
-322,329	-99,434	0,142	0,025
-321,314	80,768	0,101	0,078
-320,299	800,000	0,068	0,141
-319,285	-200,000	-0,021	0,072
-318,270	800,000	0,013	0,028
-317,256	-126,568	0,168	-0,018
-316,241	238,192	-0,092	-0,109
-315,226	132,334	-0,138	-0,127
-314,212	589,456	0,063	0,112
-313,197	108,123	0,036	-0,030
-312,183	83,969	0,052	-0,041
-311,168	-7,264	-0,057	-0,028
-310,153	255,024	-0,016	0,020
-309,139	-46,657	0,110	-0,038
-308,124	335,374	-0,088	-0,123
-307,110	60,625	0,057	-0,040
-306,095	-200,000	-0,022	0,142
-305,080	-200,000	-0,001	0,066
-304,066	-200,000	-0,007	0,046
-303,051	172,571	-0,042	0,043
-302,037	101,339	0,043	0,035
-301,022	-191,232	0,179	-0,001
-300,008	-60,910	-0,094	-0,028
-298,993	-125,288	0,117	0,013
-297,978	-53,497	-0,049	-0,016
-296,964	800,000	-0,020	0,044
-295,949	351,919	-0,031	0,044
-294,935	96,960	-0,077	0,063
-293,920	-67,183	0,058	0,016
-292,905	11,891	-0,071	0,039
-291,891	-94,678	0,045	0,009
-290,876	-85,534	0,158	-0,035
-289,862	-100,494	0,036	0,006
-288,847	124,104	-0,054	0,049
-287,832	93,084	-0,016	-0,013
-286,818	30,520	-0,050	-0,031
-285,803	-200,000	0,011	0,189
-284,789	800,000	0,024	0,062
-283,774	-200,000	-0,013	-0,060
-282,759	-200,000	0,009	-0,053
-281,745	582,187	0,087	-0,153
-280,730	550,428	0,054	-0,092
-279,716	307,317	-0,053	-0,071
-278,701	341,941	0,020	-0,028
-277,686	-34,643	0,097	-0,038
-276,672	708,175	-0,063	0,120
-275,657	-3,773	0,048	-0,024
-274,643	-4,072	0,047	0,023
-273,628	188,590	-0,045	-0,049
-272,613	800,000	0,026	-0,066
-271,599	-200,000	0,034	0,177
-270,584	-200,000	0,028	0,175
-269,570	171,468	0,048	-0,050
-268,555	-108,389	0,028	-0,004
-267,540	-47,930	-0,077	0,026
-266,526	463,718	0,004	-0,006
-265,511	105,751	-0,038	-0,032
-264,497	-200,000	0,025	-0,103
-263,482	-200,000	-0,002	0,114
-262,467	-200,000	-0,015	0,080
-261,453	-200,000	0,029	-0,112
-260,438	-200,000	-0,018	-0,083
-259,424	-71,928	-0,060	-0,016
-258,409	-171,156	0,063	-0,001
-257,395	-134,524	-0,076	0,007
-256,380	800,000	0,025	0,069
-255,365	-109,814	0,087	0,013
-254,351	-200,000	0,004	-0,043
-253,336	106,214	-0,033	-0,028
-252,322	-200,000	0,061	-0,244
-251,307	-200,000	-0,001	-0,093
-250,292	213,984	-0,059	0,067
-249,278	128,244	0,071	0,064
-248,263	-200,000	-0,006	0,071
-247,249	259,894	-0,102	0,125
-246,234	-144,017	-0,036	-0,002
-245,219	-200,000	-0,012	-0,079
-244,205	-5,602	-0,044	0,021
-243,190	94,814	-0,104	0,085
-242,176	-15,972	0,085	-0,039
-241,161	-200,000	0,005	-0,023
-240,146	-39,818	0,086	-0,032
-239,132	-180,789	-0,188	0,003
-238,117	-200,000	-0,006	0,147
-237,103	135,402	-0,022	-0,020
-236,088	-200,000	0,001	0,048
-235,073	-46,563	0,153	0,053
-234,059	-200,000	-0,013	0,169
-233,044	761,208	-0,062	-0,120
-232,030	-200,000	0,003	-0,016
-231,015	566,623	-0,017	0,030
-230,000	-200,000	-0,016	0,113
-228,986	-17,104	-0,042	0,019
-227,971	800,000	-0,046	-0,101
-226,957	-200,000	0,015	0,056
-225,942	8,488	0,044	-0,024
-224,927	350,659	-0,037	-0,052
-223,913	800,000	-0,043	-0,100
-222,898	112,913	-0,072	0,062
-221,884	28,559	-0,031	-0,019
-220,869	238,426	0,043	-0,051
-219,855	-200,000	-0,001	0,109
-218,840	-200,000	0,014	0,092
-217,825	800,000	0,028	0,082
-216,811	12,135	-0,078	-0,043
-215,796	800,000	-0,053	-0,116
-214,782	399,080	0,033	-0,050
-213,767	-63,134	-0,082	-0,024
-212,752	0,957	0,038	0,020
-211,738	279,671	-0,078	-0,100
-210,723	-63,964	0,038	0,011
-209,709	93,449	-0,088	-0,071
-208,694	-147,056	-0,091	-0,005
-207,679	40,485	0,052	-0,033
-206,665	269,814	0,007	-0,009
-205,650	357,023	-0,077	0,110
-204,636	-200,000	0,003	0,052
-203,621	4,039	-0,017	-0,009
-202,606	1,680	-0,060	-0,031
-201,592	-200,000	0,023	0,075
-200,577	-125,156	0,118	-0,013
-199,563	-101,767	0,042	-0,007
-198,548	-147,367	-0,041	0,002
-197,533	-20,216	0,033	-0,014
-196,519	-200,000	0,005	-0,095
-195,504	574,020	-0,087	0,152
-194,490	-200,000	0,036	0,123
-193,475	411,552	0,039	-0,059
-192,460	71,109	-0,142	0,105
-191,446	-77,646	0,097	0,024
-190,431	-200,000	0,018	0,067
-189,417	-56,765	0,098	0,031
-188,402	317,702	0,051	-0,069
-187,387	86,019	0,032	0,025
-186,373	800,000	-0,050	-0,121
-185,358	-200,000	-0,001	-0,175
-184,344	263,432	0,002	-0,003
-183,329	800,000	-0,060	0,165
-182,315	-74,839	0,091	0,023
-181,300	-200,000	0,012	-0,132
-180,285	228,739	0,027	0,032
-179,271	-200,000	0,012	0,116
-178,256	-200,000	0,017	0,079
-177,242	48,833	0,021	0,014
-176,227	-200,000	0,041	0,151
-175,212	-123,634	-0,136	-0,015
-174,198	800,000	0,032	0,073
-173,183	-98,023	0,031	-0,006
-172,169	-200,000	-0,010	-0,127
-171,154	210,457	-0,113	-0,127
-170,139	-200,000	0,031	0,132
-169,125	-183,076	0,209	-0,003
-168,110	-200,000	0,015	0,085
-167,096	-90,702	0,053	0,011
-166,081	800,000	0,056	0,131
-165,066	800,000	-0,029	-0,076
-164,052	-200,000	0,030	-0,107
-163,037	-200,000	0,017	-0,159
-162,023	-200,000	0,001	-0,033
-161,008	267,346	-0,071	0,088
-159,993	178,690	-0,058	-0,060
-158,979	-171,640	0,114	0,003
-157,964	116,169	-0,128	-0,111
-156,950	800,000	-0,018	0,045
-155,935	-200,000	-0,021	0,081
-154,920	234,667	-0,018	0,022
-153,906	-200,000	0,009	-0,119
-152,891	244,409	0,088	-0,105
-151,877	-104,068	0,017	-0,003
-150,862	-200,000	-0,014	-0,111
-149,847	800,000	0,026	-0,053
-148,833	-41,029	-0,027	-0,010
-147,818	-200,000	0,011	-0,078
-146,804	305,704	0,060	0,079
-145,789	92,815	0,065	0,052
-144,775	-17,401	-0,141	-0,063
-143,760	-89,943	0,068	-0,014
-142,745	173,614	-0,093	0,096
-141,731	502,476	0,026	-0,042
-140,716	439,775	-0,036	0,057
-139,702	235,535	0,063	0,074
-138,687	800,000	0,042	-0,090
-137,672	-154,363	0,061	-0,003
-136,658	-200,000	0,010	0,075
-135,643	-51,095	0,213	0,071
-134,629	-200,000	0,031	-0,128
-133,614	-200,000	-0,033	0,153
-132,599	195,490	0,131	0,142
-131,585	-200,000	-0,019	0,169
-130,570	102,286	-0,028	0,023
-129,556	-200,000	-0,008	0,081
-128,541	-42,356	-0,172	-0,062
-127,526	393,558	0,059	-0,087
-126,512	-200,000	0,008	-0,175
-125,497	-111,066	0,159	-0,023
-124,483	-1,459	0,120	0,060
-123,468	392,305	0,037	0,054
-122,453	-95,935	0,071	-0,013
-121,439	-200,000	0,006	-0,121
-120,424	26,261	-0,140	-0,083
-119,410	-200,000	0,006	0,036
-118,395	289,995	-0,094	0,121
-117,380	-31,839	-0,064	0,025
-116,366	-60,793	-0,124	0,037
-115,351	-200,000	0,038	0,127
-114,337	195,943	0,061	-0,066
-113,322	-200,000	-0,182	0,000
-112,307	318,100	0,051	-0,069
-111,293	137,055	0,023	0,021
-110,278	631,827	0,057	-0,104
-109,264	-60,231	-0,058	0,017
-108,249	-112,956	0,004	0,001
-107,234	800,000	-0,033	0,100
-106,220	-42,349	0,035	0,013
-105,205	25,280	0,073	0,043
-104,191	235,510	0,077	-0,090
-103,176	385,967	-0,057	0,083
-102,162	157,191	-0,020	0,020
-101,147	629,876	-0,042	0,075
-100,132	-64,653	0,134	-0,038
-99,118	-23,611	-0,135	-0,057
-98,103	-200,000	-0,007	-0,026
-97,089	210,482	0,041	-0,045
-96,074	-55,205	-0,105	0,033
-95,059	-200,000	-0,011	0,091
-94,045	45,910	0,098	0,064
-93,030	-63,096	0,076	-0,022
-92,016	349,608	0,038	-0,053
-91,001	56,648	-0,061	-0,042
-89,986	-128,557	0,102	-0,010
-88,972	-200,000	0,013	-0,106
-87,957	714,505	0,065	0,123
-86,943	-128,046	-0,081	-0,008
-85,928	800,000	-0,009	0,020
-84,913	-200,000	0,004	0,015
-83,899	-77,352	-0,068	0,017
-82,884	4,503	0,095	0,049
-81,870	0,899	0,104	0,053
-80,855	-200,000	-0,010	-0,099
-79,840	800,000	-0,067	0,143
-78,826	-111,344	-0,030	-0,004
-77,811	800,000	0,031	-0,063
-76,797	88,296	-0,076	0,059
-75,782	-200,000	-0,016	-0,072
-74,767	-119,555	0,112	0,014
-73,753	800,000	0,069	0,166
-72,738	556,352	-0,064	0,110
-71,724	49,569	-0,097	-0,065
-70,709	451,978	-0,076	-0,119
-69,694	-128,747	-0,122	0,012
-68,680	-108,387	0,040	-0,006
-67,665	398,132	0,030	-0,045
-66,651	800,000	0,033	-0,074
-65,636	-200,000	-0,008	0,089
-64,622	-22,536	-0,039	0,017
-63,607	800,000	0,038	-0,110
-62,592	-57,185	-0,083	-0,026
-61,578	-61,204	-0,136	-0,040
-60,563	-55,738	0,112	-0,035
-59,549	163,671	-0,031	-0,031
-58,534	-9,383	-1,577	-0,743
-57,519	439,712	-1,329	-2,062
-56,505	-200,000	-0,421	-4,548
-55,490	279,161	1,068	1,352
-54,476	800,000	4,719	11,109
-53,461	-200,000	19,081	319,553
-52,446	-200,000	740,292	2335,022
-51,432	574,304	1655,393	2870,663
-50,417	78,349	1671,447	1262,410
-49,403	21,344	1544,255	885,977
-48,388	15,233	1466,692	811,755
-47,373	17,947	1456,771	819,350
-46,359	16,744	1446,641	807,848
-45,344	13,505	1441,940	789,678
-44,330	13,383	1440,091	788,050
-43,315	13,419	1438,461	787,296
-42,300	13,429	1436,595	786,294
-41,286	13,409	1435,508	785,570
-40,271	13,388	1434,197	784,722
-39,257	13,375	1432,738	783,830
-38,242	13,401	1431,783	783,402
-37,227	13,458	1430,371	782,869
-36,213	13,407	1429,209	781,957
-35,198	13,441	1427,876	781,359
-34,184	13,464	1426,921	780,913
-33,169	13,408	1425,671	779,936
-32,154	13,496	1424,469	779,665
-31,140	13,465	1423,270	778,831
-30,125	13,525	1422,228	778,510
-29,111	13,477	1421,096	777,634
-28,096	13,453	1419,872	776,821
-27,082	13,405	1418,876	776,017
-26,067	13,367	1417,879	775,262
-25,052	13,401	1416,678	774,734
-24,038	13,387	1415,673	774,091
-23,023	13,391	1414,621	773,502
-22,009	13,376	1413,465	772,770
-20,994	13,362	1412,731	772,272
-19,979	13,383	1411,911	771,889
-18,965	13,357	1411,022	771,254
-17,950	13,308	1410,058	770,466
-16,936	13,334	1409,143	770,057
-15,921	13,334	1407,860	769,323
-14,906	13,238	1407,277	768,528
-13,892	13,282	1406,246	768,139
-12,877	13,330	1405,154	767,737
-11,863	13,304	1404,365	767,152
-10,848	13,271	1403,543	766,521
-9,833	13,242	1402,585	765,832
-8,819	13,179	1401,796	765,076
-7,804	13,196	1400,843	764,606
-6,790	13,233	1399,753	764,151
-5,775	13,208	1398,690	763,422
-4,760	13,225	1397,816	762,995
-3,746	13,186	1396,921	762,294
-2,731	13,140	1396,278	761,700
-1,717	13,175	1395,213	761,254
-0,702	13,159	1393,418	760,172
0,313	17,032	1310,209	732,712
1,327	33,274	704,190	431,363
2,342	51,730	123,295	82,842
3,356	0,548	16,634	8,384
4,371	6,605	3,256	1,707
5,386	84,512	0,509	0,393
6,400	-200,000	-0,026	0,283
7,415	35,241	-0,349	-0,216
8,429	-22,762	-0,262	-0,111
9,444	800,000	-0,140	-0,277
10,459	142,474	-0,238	-0,223
11,473	-25,600	-0,402	-0,167
12,488	-138,733	-0,296	0,023
13,502	0,380	-0,272	-0,137
14,517	127,832	-0,286	-0,257
15,531	136,325	-0,365	-0,337
16,546	297,484	-0,325	-0,423
17,561	226,863	-0,400	-0,460
18,575	-187,311	-0,236	-0,002
19,590	141,934	-0,286	-0,268
20,604	-78,874	-0,351	-0,084
21,619	227,587	-0,266	-0,306
22,634	157,334	-0,462	-0,452
23,648	101,623	-0,341	-0,281
24,663	163,258	-0,331	-0,329
25,677	98,792	-0,345	-0,281
26,692	-49,936	-0,345	-0,115
27,707	122,337	-0,371	-0,327
28,721	-18,523	-0,459	-0,202
29,736	-2,676	-0,442	-0,218
30,750	95,680	-0,447	-0,359
31,765	69,491	-0,390	-0,283
32,780	-6,093	-0,420	-0,202
33,794	-72,609	-0,370	-0,096
34,809	-50,615	-0,472	-0,156
35,823	102,808	-0,396	-0,327
36,838	190,294	-0,318	-0,337
37,853	61,538	-0,504	-0,353
38,867	16,257	-0,429	-0,238
39,882	70,259	-0,321	-0,233
40,896	26,862	-0,443	-0,261
41,911	96,189	-0,256	-0,206
42,926	29,877	-0,327	-0,196
43,940	60,731	-0,383	-0,267
44,955	103,650	-0,263	-0,218
45,969	231,122	-0,327	-0,378
46,984	151,045	-0,335	-0,321
47,999	56,103	-0,265	-0,181
49,013	284,568	-0,197	-0,250
50,028	152,655	-0,253	-0,244
51,042	-7,551	-0,388	-0,184
52,057	84,822	-0,376	-0,290
53,071	62,577	-0,372	-0,261
54,086	7,068	-0,304	-0,159
55,101	83,855	-0,325	-0,250
56,115	2,636	-0,227	-0,115
57,130	169,623	-0,291	-0,293
58,144	14,773	-0,396	-0,217
59,159	5,424	-0,368	-0,190
60,174	100,829	-0,396	-0,324
61,188	111,767	-0,362	-0,307
62,203	78,685	-0,387	-0,291
63,217	187,806	-0,236	-0,248
64,232	195,217	-0,261	-0,279
65,247	145,237	-0,331	-0,312
66,261	198,375	-0,300	-0,323
67,276	21,495	-0,402	-0,230
68,290	219,246	-0,339	-0,382
69,305	218,877	-0,336	-0,378
70,320	254,815	-0,251	-0,303
71,334	-42,147	-0,229	-0,082
72,349	113,264	-0,269	-0,229
73,363	71,070	-0,302	-0,219
74,378	197,322	-0,293	-0,314
75,393	-19,944	-0,269	-0,116
76,407	-40,388	-0,305	-0,111
77,422	218,294	-0,199	-0,223
78,436	232,253	-0,167	-0,192
79,451	60,175	-0,201	-0,140
80,466	145,743	-0,208	-0,196
81,480	10,951	-0,302	-0,161
82,495	19,721	-0,378	-0,213
83,509	173,099	-0,263	-0,266
84,524	114,075	-0,253	-0,216
85,539	-12,913	-0,282	-0,128
86,553	-100,864	-0,251	-0,043
87,568	49,397	-0,286	-0,189
88,582	-48,862	-0,385	-0,129
89,597	-45,462	-0,330	-0,114
90,611	192,046	-0,267	-0,283
91,626	-35,107	-0,267	-0,102
92,641	41,894	-0,214	-0,136
93,655	80,359	-0,214	-0,161
94,670	130,397	-0,290	-0,261
95,684	119,697	-0,268	-0,233
96,699	149,257	-0,219	-0,208
97,714	-3,883	-0,354	-0,172
98,728	18,758	-0,314	-0,176
99,743	76,317	-0,345	-0,256
100,757	67,320	-0,287	-0,205
101,772	118,068	-0,215	-0,186
102,787	-11,153	-0,422	-0,194
103,801	290,015	-0,233	-0,297
104,816	509,591	-0,122	-0,199
105,830	0,152	-0,164	-0,082
106,845	-21,367	-0,173	-0,074
107,860	484,552	-0,142	-0,227
108,874	202,890	-0,181	-0,196
109,889	429,132	-0,178	-0,270
110,903	25,395	-0,220	-0,128
111,918	-118,986	-0,217	-0,026
112,933	-56,885	-0,272	-0,084
113,947	-19,746	-0,234	-0,101
114,962	51,226	-0,266	-0,176
115,976	75,462	-0,249	-0,184
116,991	-6,170	-0,344	-0,164
118,006	-15,787	-0,361	-0,161
119,020	14,906	-0,248	-0,136
120,035	-53,540	-0,318	-0,101
121,049	68,857	-0,200	-0,143
122,064	97,600	-0,231	-0,186
123,079	-100,346	-0,291	-0,050
124,093	61,798	-0,296	-0,206
125,108	-60,254	-0,436	-0,129
126,122	67,943	-0,269	-0,192
127,137	307,380	-0,111	-0,145
128,151	196,461	-0,190	-0,203
129,166	1,078	-0,287	-0,143
130,181	-9,793	-0,221	-0,103
131,195	199,479	-0,121	-0,130
132,210	93,283	-0,299	-0,236
133,224	27,901	-0,304	-0,179
134,239	33,153	-0,277	-0,168
135,254	395,008	-0,161	-0,235
136,268	566,314	-0,095	-0,162
137,283	16,959	-0,223	-0,123
138,297	350,428	-0,205	-0,285
139,312	162,085	-0,196	-0,192
140,327	76,123	-0,372	-0,275
141,341	77,291	-0,320	-0,238
142,356	-28,116	-0,223	-0,090
143,370	-136,031	-0,092	0,007
144,385	-74,831	-0,286	-0,071
145,400	51,236	-0,226	-0,149
146,414	6,369	-0,253	-0,131
147,429	41,807	-0,259	-0,164
148,443	340,189	-0,132	-0,180
149,458	130,874	-0,265	-0,237
150,473	-115,766	-0,167	-0,022
151,487	246,720	-0,209	-0,247
152,502	74,172	-0,239	-0,175
153,516	117,443	-0,264	-0,227
154,531	176,935	-0,246	-0,250
155,546	199,511	-0,193	-0,207
156,560	-191,184	-0,288	0,002
157,575	800,000	-0,102	-0,298
158,589	209,483	-0,180	-0,197
159,604	91,711	-0,315	-0,247
160,619	-19,604	-0,306	-0,132
161,633	12,207	-0,296	-0,158
162,648	622,467	-0,185	-0,326
163,662	96,602	-0,227	-0,181
164,677	198,603	-0,247	-0,264
165,692	151,585	-0,222	-0,211
166,706	138,393	-0,271	-0,248
167,721	77,757	-0,346	-0,257
168,735	42,827	-0,290	-0,184
169,750	-126,464	-0,198	-0,020
170,764	-108,681	-0,242	-0,036
171,779	157,138	-0,195	-0,188
172,794	138,560	-0,148	-0,135
173,808	117,176	-0,221	-0,190
174,823	205,297	-0,203	-0,220
175,837	312,379	-0,184	-0,241
176,852	-60,261	-0,266	-0,078
177,867	24,112	-0,154	-0,088
178,881	79,779	-0,175	-0,131
179,896	219,338	-0,154	-0,172
180,910	270,742	-0,148	-0,182
181,925	163,051	-0,224	-0,219
182,940	25,541	-0,312	-0,180
183,954	-4,929	-0,190	-0,091
184,969	281,043	-0,117	-0,146
185,983	12,675	-0,144	-0,077
186,998	-4,243	-0,263	-0,126
188,013	549,335	-0,140	-0,235
189,027	800,000	-0,086	-0,192
190,042	414,195	-0,132	-0,196
191,056	288,166	-0,161	-0,204
192,071	-48,258	-0,152	-0,051
193,086	254,289	-0,127	-0,151
194,100	165,863	-0,207	-0,204
195,115	184,052	-0,217	-0,224
196,129	-31,287	-0,300	-0,117
197,144	69,302	-0,193	-0,138
198,159	713,994	-0,160	-0,296
199,173	759,496	-0,135	-0,255
200,188	72,273	-0,158	-0,114
201,202	282,481	-0,104	-0,130
202,217	101,364	-0,190	-0,154
203,232	10,166	-0,261	-0,137
204,246	-200,000	-0,012	-0,093
205,261	44,563	-0,304	-0,194
206,275	9,591	-0,229	-0,120
207,290	313,602	-0,097	-0,127
208,304	562,223	-0,067	-0,113
209,319	109,172	-0,162	-0,135
210,334	280,345	-0,145	-0,180
211,348	-37,247	-0,229	-0,085
212,363	630,144	-0,065	-0,115
213,377	635,680	-0,149	-0,264
214,392	-18,007	-0,246	-0,107
215,407	106,653	-0,153	-0,126
216,421	-158,404	-0,178	0,007
217,436	416,863	-0,146	-0,218
218,450	-200,000	-0,066	-0,225
219,465	-4,285	-0,164	-0,078
220,480	71,114	-0,228	-0,164
221,494	-63,815	-0,208	-0,059
222,509	-114,878	-0,245	0,032
223,523	451,658	-0,157	-0,241
224,538	74,052	-0,249	-0,181
225,553	800,000	-0,132	-0,272
226,567	418,082	-0,150	-0,224
227,582	50,055	-0,211	-0,138
228,596	123,053	-0,103	-0,089
229,611	-78,870	-0,124	-0,029
230,626	55,458	-0,074	-0,049
231,640	116,992	-0,211	-0,179
232,655	196,764	-0,218	-0,231
233,669	-96,367	-0,300	-0,054
234,684	149,574	-0,228	-0,214
235,699	-200,000	-0,014	-0,194
236,713	201,619	-0,070	-0,074
237,728	345,520	-0,094	-0,128
238,742	-7,247	-0,155	-0,072
239,757	163,015	-0,128	-0,124
240,772	359,431	-0,094	-0,131
241,786	64,491	-0,287	-0,200
242,801	-58,152	-0,259	-0,078
243,815	489,554	-0,135	-0,215
244,830	-109,877	-0,205	0,030
245,844	99,615	-0,210	-0,169
246,859	41,047	-0,147	-0,091
247,874	207,083	-0,166	-0,179
248,888	116,807	-0,257	-0,219
249,903	-200,000	-0,043	-0,269
250,917	36,866	-0,078	-0,048
251,932	-42,575	-0,094	-0,033
252,947	-161,737	-0,129	0,004
253,961	54,545	-0,202	-0,135
254,976	212,606	-0,157	-0,171
255,990	269,624	-0,186	-0,226
257,005	60,767	-0,260	-0,178
258,020	-200,000	0,011	-0,236
259,034	800,000	-0,089	-0,180
260,049	22,131	-0,242	-0,137
261,063	125,393	-0,125	-0,109
262,078	-52,042	-0,275	-0,088
263,093	318,018	-0,159	-0,209
264,107	-65,958	-0,180	-0,050
265,122	792,377	-0,136	-0,260
266,136	44,041	-0,080	0,050
267,151	-136,914	-0,295	-0,023
268,166	-34,392	-0,167	-0,063
269,180	175,126	-0,183	-0,183
270,195	126,876	-0,176	-0,154
271,209	683,582	-0,108	-0,196
272,224	136,398	-0,229	-0,206
273,239	92,888	-0,181	-0,141
274,253	-132,772	-0,155	0,013
275,268	533,830	-0,123	-0,202
276,282	88,218	-0,148	-0,113
277,297	800,000	-0,096	-0,263
278,312	111,741	-0,122	-0,102
279,326	234,404	-0,125	-0,143
280,341	-200,000	-0,028	-0,132
281,355	225,892	-0,130	-0,146
282,370	483,603	-0,100	-0,158
283,384	479,087	-0,144	-0,227
284,399	624,061	-0,087	-0,153
285,414	-12,833	-0,160	-0,072
286,428	43,845	-0,274	-0,173
287,443	65,718	-0,107	-0,075
288,457	-50,540	-0,113	0,036
289,472	284,232	-0,084	-0,104
290,487	712,365	-0,083	-0,152
291,501	42,800	-0,079	-0,050
292,516	188,711	-0,216	-0,223
293,530	111,027	-0,234	-0,195
294,545	-58,602	-0,040	-0,012
295,560	-70,779	-0,172	-0,044
296,574	564,994	-0,071	-0,120
297,589	60,111	-0,217	-0,148
298,603	318,293	-0,138	-0,180
299,618	5,924	-0,212	-0,108
300,633	73,574	-0,204	-0,147
301,647	40,113	-0,218	-0,135
302,662	65,246	-0,135	-0,094
303,676	417,574	-0,131	-0,194
304,691	-17,814	-0,248	-0,107
305,706	145,529	-0,130	-0,120
306,720	386,630	-0,149	-0,212
307,735	733,855	-0,095	-0,176
308,749	93,337	-0,246	-0,191
309,764	481,044	-0,093	-0,147
310,779	-28,859	-0,147	-0,058
311,793	20,966	-0,201	-0,112
312,808	-127,979	0,023	0,002
313,822	466,704	-0,072	-0,112
314,837	-200,000	-0,021	0,068
315,852	-115,463	-0,137	-0,018
316,866	79,681	-0,185	-0,136
317,881	129,152	-0,181	-0,159
318,895	199,062	-0,172	-0,182
319,910	-200,000	0,002	-0,154
320,925	800,000	-0,076	-0,206
321,939	114,085	-0,175	-0,147
322,954	-11,582	-0,184	0,083
323,968	30,434	-0,106	0,062
324,983	33,325	-0,198	-0,118
325,997	751,849	-0,038	-0,071
327,012	4,941	-0,162	-0,082
328,027	59,416	-0,119	-0,081
329,041	-152,537	-0,159	-0,008
330,056	119,830	-0,064	-0,055
331,070	-57,918	-0,023	0,007
332,085	-99,259	-0,065	-0,011
333,100	-12,315	-0,072	-0,032
334,114	67,089	-0,144	-0,101
335,129	97,287	-0,217	-0,171
336,143	400,300	-0,130	-0,188
337,158	-200,000	0,024	-0,142
338,173	242,279	-0,081	-0,094
339,187	-125,143	-0,130	0,014
340,202	-26,420	-0,122	-0,049
341,216	361,373	-0,084	-0,116
342,231	457,963	-0,116	-0,178
343,246	-150,882	-0,227	-0,012
344,260	-200,000	-0,059	-0,217
345,275	-200,000	-0,040	-0,148
346,289	85,367	-0,031	0,023
347,304	53,575	-0,239	-0,157
348,319	-0,945	-0,140	-0,068
349,333	18,525	-0,152	-0,083
350,348	-200,000	-0,020	-0,102
351,362	176,528	-0,140	-0,139
352,377	327,238	-0,101	-0,133
353,392	-95,416	-0,136	-0,025
354,406	216,892	-0,097	-0,106
355,421	208,195	1316,972	1413,548
356,435	160,183	1477,974	1414,033
