DTS Sentinel unit serial number:	SN410029Multiplexer serial number:	ORYXHardware model number:	OX2-SRSoftware version number:	ORYX F/W v4,00 Oryx Data Collector v3.7.2.0data status	okinstallation	B3 Nyhavnadifferential loss correction	single-endedforward channel	channel 1reverse channel	N/Adate	2023/12/02time	23:37:30forward acquisition time	300,00reverse acquisition time	0,00gamma	499,1914k internal	0,3201k external	0,3201temperature offset calibration	1,0000default loss term (dB/km)	0,3820temperature slope calibration	1,0000multiplexer offset coefficient	1,0000multiplexer slope coefficient	1,0000fibre end	0,00T internal ref (°C)	13,25T ext. ref 1 (°C)	-1,70T ext. ref 2 (°C)	-1,71length (m)	temperature (°C)	Stokes	anti-Stokes-744,400	294,415	-0,168	-0,223
-743,385	-200,000	-0,039	0,275
-742,371	800,000	-0,087	-0,207
-741,356	-200,000	0,017	0,310
-740,342	48,027	-0,206	-0,140
-739,327	-200,000	-0,005	0,422
-738,312	86,556	-0,213	-0,171
-737,298	-200,000	-0,002	0,221
-736,283	213,054	-0,193	-0,222
-735,269	-200,000	0,075	0,419
-734,254	93,124	-0,272	-0,223
-733,239	-21,438	-0,239	0,106
-732,225	800,000	-0,076	-0,240
-731,210	207,533	0,129	0,147
-730,196	-8,186	0,159	-0,078
-729,181	-136,773	-0,179	-0,015
-728,167	273,839	-0,011	0,015
-727,152	-28,002	-0,102	-0,043
-726,137	172,878	-0,062	0,065
-725,123	138,804	-0,053	0,050
-724,108	33,391	-0,037	-0,023
-723,094	-86,046	-0,164	0,036
-722,079	481,712	0,036	0,059
-721,064	-64,747	0,012	-0,004
-720,050	403,622	0,061	0,094
-719,035	87,302	-0,058	-0,047
-718,021	-14,984	-0,057	-0,026
-717,006	32,788	-0,083	-0,052
-715,991	176,153	-0,144	-0,153
-714,977	139,621	-0,120	-0,115
-713,962	-171,439	-0,129	-0,003
-712,948	226,078	-0,049	0,057
-711,933	-200,000	-0,006	0,059
-710,918	-113,813	0,039	0,005
-709,904	-56,444	-0,047	-0,015
-708,889	-200,000	-0,012	-0,088
-707,875	252,470	0,020	-0,025
-706,860	530,248	0,070	0,121
-705,845	-11,084	0,019	0,009
-704,831	71,167	-0,098	-0,074
-703,816	-61,192	-0,041	0,012
-702,802	61,030	-0,095	-0,068
-701,787	137,741	-0,160	-0,152
-700,772	-75,575	0,050	0,013
-699,758	229,157	-0,086	-0,102
-698,743	-100,199	0,030	-0,005
-697,729	248,181	0,044	-0,054
-696,714	-200,000	-0,019	-0,075
-695,699	-50,498	0,040	-0,014
-694,685	147,064	-0,022	-0,022
-693,670	-167,896	-0,065	0,002
-692,656	800,000	-0,052	-0,162
-691,641	-15,539	0,046	0,021
-690,627	-155,432	0,070	0,003
-689,612	-89,122	0,134	0,028
-688,597	317,340	-0,041	0,057
-687,583	558,908	-0,045	-0,079
-686,568	136,689	-0,053	-0,050
-685,554	800,000	0,033	-0,070
-684,539	-200,000	0,004	-0,092
-683,524	-200,000	-0,020	0,283
-682,510	-200,000	0,021	0,109
-681,495	173,097	-0,094	0,098
-680,481	800,000	-0,021	-0,048
-679,466	15,858	-0,166	-0,094
-678,451	351,631	0,034	0,049
-677,437	0,962	0,074	0,038
-676,422	-200,000	0,003	-0,079
-675,408	-71,858	-0,102	-0,027
-674,393	-174,795	-0,113	0,002
-673,378	184,412	-0,065	-0,070
-672,364	170,030	-0,111	-0,116
-671,349	-96,104	-0,046	0,009
-670,335	-200,000	-0,011	0,050
-669,320	-42,729	-0,032	-0,012
-668,305	-200,000	-0,018	0,111
-667,291	-46,096	0,053	-0,019
-666,276	-73,274	-0,208	-0,055
-665,262	147,099	-0,104	-0,102
-664,247	-200,000	-0,001	-0,049
-663,232	546,595	0,033	0,057
-662,218	164,381	-0,129	0,132
-661,203	-119,923	0,086	-0,011
-660,189	-35,228	-0,112	-0,044
-659,174	-81,377	0,084	0,020
-658,159	-111,689	-0,264	-0,038
-657,145	-48,476	-0,066	0,023
-656,130	800,000	0,071	0,206
-655,116	6,421	0,084	0,045
-654,101	-166,399	-0,076	-0,002
-653,086	-200,000	-0,011	0,111
-652,072	-200,000	-0,042	-0,151
-651,057	-200,000	0,018	-0,127
-650,043	69,175	-0,170	-0,126
-649,028	4,202	-0,060	0,032
-648,014	-99,721	0,163	0,029
-646,999	800,000	-0,022	0,060
-645,984	157,910	0,114	-0,114
-644,970	181,854	0,011	-0,011
-643,955	-12,577	-0,144	-0,068
-642,941	-34,865	-0,006	-0,002
-641,926	799,559	-0,006	-0,012
-640,911	-200,000	0,021	0,077
-639,897	-200,000	0,005	-0,043
-638,882	649,649	-0,038	0,071
-637,868	134,244	0,057	0,054
-636,853	-200,000	0,021	0,069
-635,838	222,245	-0,053	0,062
-634,824	-119,079	-0,077	-0,010
-633,809	800,000	0,012	-0,024
-632,795	739,113	0,018	-0,035
-631,780	-80,590	0,045	-0,011
-630,765	56,942	0,056	-0,040
-629,751	-130,339	-0,102	0,010
-628,736	573,651	-0,102	-0,181
-627,722	59,388	-0,052	-0,037
-626,707	-19,891	0,066	-0,030
-625,692	342,407	0,084	-0,119
-624,678	-43,085	0,134	0,049
-623,663	44,951	-0,134	0,089
-622,649	-151,246	-0,004	-0,000
-621,634	43,135	-0,036	-0,024
-620,619	141,561	0,020	0,020
-619,605	52,202	-0,121	0,084
-618,590	-200,000	-0,017	0,148
-617,576	-200,000	-0,018	-0,062
-616,561	321,676	0,098	0,135
-615,546	-110,919	-0,094	-0,014
-614,532	-41,018	0,059	0,022
-613,517	-76,700	-0,122	-0,031
-612,503	800,000	0,041	-0,089
-611,488	-200,000	0,009	0,040
-610,474	701,341	0,078	-0,149
-609,459	-34,079	0,067	-0,026
-608,444	-31,327	-0,150	0,061
-607,430	-200,000	0,009	0,138
-606,415	-200,000	-0,140	0,000
-605,401	563,478	0,073	-0,129
-604,386	331,989	0,058	0,081
-603,371	209,904	0,078	-0,088
-602,357	20,221	-0,151	-0,088
-601,342	489,245	-0,077	0,127
-600,328	800,000	0,011	-0,026
-599,313	-155,567	-0,068	0,003
-598,298	-12,415	-0,058	0,028
-597,284	800,000	0,016	0,034
-596,269	-200,000	-0,011	0,064
-595,255	-122,412	0,029	-0,003
-594,240	32,057	-0,055	-0,034
-593,225	-75,888	-0,135	-0,034
-592,211	-105,798	-0,126	-0,020
-591,196	-43,546	-0,032	0,011
-590,182	597,222	-0,040	-0,072
-589,167	800,000	-0,029	0,069
-588,152	-101,650	-0,073	-0,013
-587,138	-68,771	-0,007	-0,002
-586,123	781,162	0,052	-0,103
-585,109	-200,000	-0,016	0,111
-584,094	563,381	0,022	-0,039
-583,079	306,182	0,095	-0,128
-582,065	-200,000	-0,000	-0,031
-581,050	200,581	-0,081	0,090
-580,036	800,000	-0,042	0,097
-579,021	800,000	0,012	0,032
-578,006	6,120	0,073	-0,039
-576,992	-128,554	-0,054	-0,005
-575,977	240,324	0,044	-0,053
-574,963	800,000	-0,054	0,146
-573,948	80,203	-0,048	0,037
-572,934	800,000	-0,046	-0,107
-571,919	-29,093	0,066	-0,027
-570,904	800,000	0,017	-0,044
-569,890	-200,000	-0,024	-0,117
-568,875	667,824	0,031	0,058
-567,861	-200,000	0,008	-0,146
-566,846	466,464	0,057	-0,092
-565,831	192,970	-0,024	-0,026
-564,817	-138,386	-0,139	-0,011
-563,802	-123,991	-0,112	-0,013
-562,788	-24,205	0,050	-0,021
-561,773	6,980	0,126	0,067
-560,758	800,000	0,037	-0,078
-559,744	800,000	-0,009	-0,020
-558,729	-13,648	0,089	0,041
-557,715	-73,730	-0,216	-0,056
-556,700	147,158	-0,042	0,041
-555,685	-200,000	0,003	0,136
-554,671	286,594	-0,041	0,053
-553,656	33,978	0,048	0,030
-552,642	-179,544	-0,224	0,003
-551,627	-200,000	-0,012	0,149
-550,612	-200,000	0,003	0,020
-549,598	680,006	-0,056	0,105
-548,583	140,260	0,064	-0,061
-547,569	125,744	-0,078	0,071
-546,554	701,084	0,072	-0,138
-545,539	62,214	0,017	-0,013
-544,525	-45,673	-0,106	-0,037
-543,510	-200,000	0,009	-0,166
-542,496	380,895	0,081	-0,120
-541,481	87,128	-0,083	0,066
-540,466	-90,634	0,027	-0,006
-539,452	534,161	-0,034	-0,058
-538,437	106,026	0,055	0,047
-537,423	800,000	0,078	0,209
-536,408	283,168	-0,091	-0,118
-535,393	200,203	0,090	-0,100
-534,379	13,386	0,077	0,043
-533,364	52,745	-0,132	-0,091
-532,350	-200,000	0,028	0,200
-531,335	1,627	0,058	-0,030
-530,321	-200,000	0,006	0,140
-529,306	417,192	-0,027	0,041
-528,291	-200,000	-0,005	-0,153
-527,277	-104,644	-0,062	-0,010
-526,262	162,011	-0,092	-0,093
-525,248	193,009	0,090	-0,098
-524,233	-200,000	0,016	-0,074
-523,218	243,605	0,042	0,051
-522,204	-200,000	0,013	-0,047
-521,189	-55,665	-0,079	0,025
-520,175	63,461	0,049	-0,035
-519,160	442,846	0,057	-0,090
-518,145	800,000	-0,012	0,030
-517,131	-200,000	0,042	-0,163
-516,116	20,825	-0,070	-0,041
-515,102	376,207	0,009	0,013
-514,087	-131,002	0,159	-0,015
-513,072	205,174	0,018	-0,020
-512,058	22,438	-0,085	-0,050
-511,043	800,000	0,025	0,064
-510,029	800,000	-0,044	-0,099
-509,014	459,859	0,062	0,100
-507,999	67,062	0,033	0,024
-506,985	-200,000	-0,026	-0,139
-505,970	-162,592	-0,022	-0,001
-504,956	800,000	-0,051	-0,137
-503,941	589,961	0,073	-0,129
-502,926	709,078	0,067	0,127
-501,912	181,455	0,049	0,052
-500,897	-200,000	0,015	0,156
-499,883	-200,000	-0,024	0,078
-498,868	453,139	-0,046	-0,073
-497,853	-86,095	-0,111	-0,025
-496,839	20,161	-0,101	-0,058
-495,824	37,786	0,031	-0,020
-494,810	-200,000	0,014	0,054
-493,795	233,025	-0,048	0,057
-492,781	800,000	0,031	0,087
-491,766	-200,000	-0,001	0,053
-490,751	135,051	-0,066	-0,062
-489,737	115,052	-0,068	0,059
-488,722	346,854	0,034	0,048
-487,708	-38,003	0,141	-0,054
-486,693	206,951	0,022	0,025
-485,678	-200,000	0,017	-0,109
-484,664	32,256	-0,077	0,047
-483,649	-200,000	0,007	-0,050
-482,635	-30,804	-0,030	0,012
-481,620	163,106	0,024	0,025
-480,605	443,233	0,039	-0,062
-479,591	37,632	0,069	0,044
-478,576	-200,000	-0,009	0,056
-477,562	14,784	-0,048	-0,027
-476,547	-23,731	0,033	0,014
-475,532	-200,000	-0,042	-0,151
-474,518	-200,000	-0,010	0,059
-473,503	-48,806	-0,059	-0,020
-472,489	-102,916	0,071	0,012
-471,474	52,025	-0,023	0,015
-470,459	542,686	0,013	-0,023
-469,445	34,611	-0,009	-0,006
-468,430	-200,000	0,003	-0,133
-467,416	-200,000	0,033	0,127
-466,401	-200,000	0,044	0,160
-465,386	437,179	-0,018	-0,029
-464,372	-200,000	0,001	0,028
-463,357	-20,432	-0,099	0,044
-462,343	-87,386	-0,097	-0,021
-461,328	-153,028	0,128	-0,006
-460,313	222,295	-0,027	0,032
-459,299	290,383	0,119	0,156
-458,284	609,655	0,038	0,068
-457,270	-200,000	0,037	0,141
-456,255	752,741	-0,055	-0,107
-455,241	-43,940	-0,057	0,021
-454,226	601,634	0,031	-0,056
-453,211	800,000	0,046	-0,122
-452,197	40,282	0,089	0,057
-451,182	147,726	-0,127	0,123
-450,168	191,796	-0,100	0,108
-449,153	-59,640	-0,059	0,018
-448,138	-64,701	-0,127	-0,037
-447,124	-200,000	-0,015	-0,123
-446,109	-68,855	-0,186	0,051
-445,095	23,049	0,109	0,064
-444,080	-200,000	0,017	0,086
-443,065	-64,262	-0,139	-0,040
-442,051	800,000	-0,048	0,102
-441,036	-145,241	-0,012	0,001
-440,022	127,658	-0,036	-0,033
-439,007	353,188	-0,037	0,052
-437,992	34,001	0,109	-0,068
-436,978	-116,449	0,114	0,015
-435,963	95,170	-0,070	0,057
-434,949	78,505	-0,081	0,062
-433,934	-200,000	-0,004	-0,076
-432,919	44,776	-0,028	-0,019
-431,905	80,405	0,064	0,050
-430,890	-137,517	0,123	-0,010
-429,876	-34,616	-0,108	-0,042
-428,861	111,038	0,040	0,035
-427,846	153,821	-0,118	-0,116
-426,832	195,299	-0,049	0,054
-425,817	-102,017	-0,018	-0,003
-424,803	-200,000	-0,003	-0,119
-423,788	217,956	0,063	0,072
-422,773	800,000	0,034	0,074
-421,759	101,619	0,110	0,092
-420,744	-200,000	0,012	0,094
-419,730	-200,000	0,015	-0,081
-418,715	437,227	-0,082	-0,128
-417,701	157,086	-0,037	-0,037
-416,686	800,000	-0,027	0,078
-415,671	317,667	-0,049	0,067
-414,657	-40,507	-0,096	-0,035
-413,642	-11,859	0,058	-0,027
-412,628	-200,000	-0,027	-0,124
-411,613	-200,000	0,008	0,067
-410,598	-5,084	0,140	-0,069
-409,584	-85,907	0,066	-0,015
-408,569	-48,417	0,095	0,033
-407,555	-200,000	0,017	0,063
-406,540	197,037	0,081	-0,089
-405,525	800,000	0,002	0,005
-404,511	-131,403	-0,174	-0,016
-403,496	204,564	0,119	-0,132
-402,482	800,000	0,014	0,038
-401,467	-60,243	0,084	-0,026
-400,452	-34,403	0,012	-0,005
-399,438	-142,160	-0,050	-0,003
-398,423	-120,845	0,035	-0,004
-397,409	127,199	0,114	0,104
-396,394	149,549	-0,077	-0,075
-395,379	285,092	0,060	0,078
-394,365	-200,000	0,000	0,101
-393,350	132,942	0,063	0,058
-392,336	425,009	-0,052	0,080
-391,321	251,035	-0,026	-0,032
-390,306	-200,000	-0,008	-0,029
-389,292	7,220	-0,030	-0,016
-388,277	293,159	-0,004	0,005
-387,263	-200,000	-0,019	0,069
-386,248	360,391	0,081	0,116
-385,233	-200,000	-0,008	0,101
-384,219	44,452	-0,112	-0,073
-383,204	-200,000	0,034	-0,129
-382,190	-96,074	-0,168	-0,032
-381,175	-200,000	-0,008	0,102
-380,160	50,038	0,093	-0,063
-379,146	-79,492	-0,079	0,019
-378,131	68,354	-0,025	0,018
-377,117	-78,271	-0,143	0,035
-376,102	326,467	0,081	-0,112
-375,088	-31,867	-0,090	0,036
-374,073	-119,275	-0,039	0,005
-373,058	-81,575	-0,109	-0,025
-372,044	-2,820	0,027	0,014
-371,029	26,249	-0,066	0,039
-370,015	246,032	0,025	-0,030
-369,000	800,000	0,040	-0,088
-367,985	156,398	-0,050	-0,049
-366,971	434,965	-0,044	0,068
-365,956	-200,000	-0,010	0,150
-364,942	-200,000	0,033	-0,110
-363,927	428,385	-0,029	-0,046
-362,912	398,866	-0,069	0,103
-361,898	269,985	0,079	-0,100
-360,883	227,104	-0,086	-0,100
-359,869	361,068	0,069	-0,100
-358,854	800,000	-0,050	0,103
-357,839	-128,288	0,038	0,004
-356,825	800,000	0,012	-0,032
-355,810	27,677	-0,040	0,024
-354,796	-129,941	-0,043	-0,004
-353,781	-7,229	-0,131	0,063
-352,766	67,855	0,085	-0,062
-351,752	20,221	-0,083	-0,048
-350,737	149,489	0,039	0,038
-349,723	632,028	0,052	-0,095
-348,708	57,692	-0,040	-0,028
-347,693	-6,705	-0,075	0,036
-346,679	-190,708	-0,105	-0,001
-345,664	538,958	0,039	0,067
-344,650	579,977	0,020	0,035
-343,635	-200,000	0,005	-0,072
-342,620	2,573	0,051	0,026
-341,606	-200,000	0,002	0,048
-340,591	800,000	0,048	-0,108
-339,577	151,040	0,064	0,062
-338,562	98,952	-0,088	-0,073
-337,548	800,000	0,017	-0,035
-336,533	520,710	-0,028	0,047
-335,518	-200,000	-0,005	-0,020
-334,504	-63,392	-0,045	0,013
-333,489	776,791	-0,047	-0,092
-332,475	-200,000	0,003	0,123
-331,460	-200,000	0,006	-0,083
-330,445	142,582	0,011	0,010
-329,431	-5,887	0,090	-0,044
-328,416	475,432	0,012	-0,020
-327,402	67,942	0,074	0,054
-326,387	800,000	-0,012	-0,031
-325,372	291,347	0,033	0,042
-324,358	800,000	-0,083	0,200
-323,343	-73,832	-0,139	-0,036
-322,329	445,283	-0,024	-0,038
-321,314	-200,000	0,017	0,066
-320,299	-200,000	-0,012	-0,104
-319,285	-44,557	0,091	-0,032
-318,270	800,000	0,034	0,074
-317,256	545,869	-0,039	-0,067
-316,241	571,751	-0,049	-0,086
-315,226	-128,896	0,136	-0,014
-314,212	25,629	0,052	-0,031
-313,197	9,081	0,117	-0,063
-312,183	60,363	0,109	-0,077
-311,168	137,033	-0,126	0,118
-310,153	132,565	-0,014	-0,013
-309,139	800,000	0,005	-0,011
-308,124	-200,000	0,004	-0,106
-307,110	-200,000	0,012	0,069
-306,095	-85,502	0,083	-0,018
-305,080	800,000	-0,031	0,076
-304,066	-82,933	-0,246	0,056
-303,051	-105,913	-0,061	-0,010
-302,037	800,000	0,057	-0,121
-301,022	-200,000	0,009	-0,055
-300,008	120,759	0,066	0,058
-298,993	-120,044	-0,133	0,016
-297,978	800,000	0,017	0,045
-296,964	-200,000	0,017	-0,111
-295,949	-200,000	0,019	-0,071
-294,935	459,187	-0,086	0,137
-293,920	-85,970	0,178	-0,039
-292,905	-200,000	-0,006	0,031
-291,891	-200,000	0,049	0,158
-290,876	730,424	-0,035	0,068
-289,862	21,393	0,087	0,051
-288,847	-139,936	0,054	0,004
-287,832	143,477	0,106	-0,101
-286,818	-81,438	-0,091	0,021
-285,803	770,409	0,051	0,100
-284,789	115,822	0,099	0,086
-283,774	800,000	-0,028	-0,082
-282,759	-78,534	0,035	0,008
-281,745	800,000	-0,084	-0,262
-280,730	-109,276	0,093	-0,014
-279,716	101,697	0,079	-0,066
-278,701	800,000	0,021	-0,059
-277,686	41,409	0,135	0,087
-276,672	-200,000	0,001	-0,004
-275,657	-37,831	0,054	0,020
-274,643	235,983	-0,095	-0,112
-273,628	-200,000	0,018	-0,116
-272,613	-68,566	-0,013	-0,003
-271,599	-70,237	0,157	-0,042
-270,584	-65,491	0,209	0,059
-269,570	-200,000	0,021	0,101
-268,555	-200,000	-0,006	0,045
-267,540	594,403	-0,054	-0,095
-266,526	-200,000	0,043	-0,248
-265,511	75,939	-0,127	-0,096
-264,497	-82,892	0,142	0,032
-263,482	-200,000	-0,017	0,105
-262,467	303,426	-0,073	0,097
-261,453	577,619	0,056	-0,098
-260,438	-200,000	-0,013	0,047
-259,424	-41,165	-0,097	-0,036
-258,409	438,550	0,031	-0,048
-257,395	-60,319	0,055	0,017
-256,380	-43,864	0,064	0,023
-255,365	759,597	-0,026	-0,050
-254,351	222,567	-0,101	-0,116
-253,336	-12,369	0,079	0,037
-252,322	-71,809	-0,063	-0,017
-251,307	-200,000	-0,003	0,031
-250,292	65,330	0,074	0,053
-249,278	-200,000	-0,016	-0,082
-248,263	-200,000	0,015	0,070
-247,249	-39,300	0,028	-0,010
-246,234	-200,000	-0,023	0,087
-245,219	-39,028	0,118	-0,044
-244,205	800,000	0,013	-0,030
-243,190	384,333	-0,077	0,113
-242,176	543,415	-0,059	0,101
-241,161	-106,715	0,059	-0,009
-240,146	-139,557	-0,025	-0,002
-239,132	372,665	-0,022	0,031
-238,117	-124,256	-0,121	0,013
-237,103	-94,692	0,061	0,012
-236,088	40,243	-0,112	0,072
-235,073	800,000	0,049	0,147
-234,059	340,300	0,054	0,076
-233,044	-53,561	0,106	0,034
-232,030	-200,000	0,040	0,182
-231,015	-200,000	-0,016	-0,211
-230,000	76,436	-0,139	-0,105
-228,986	-200,000	0,002	-0,011
-227,971	-200,000	0,013	-0,054
-226,957	-200,000	-0,008	0,074
-225,942	21,387	-0,054	-0,031
-224,927	-200,000	-0,025	0,098
-223,913	62,876	0,084	-0,060
-222,898	-98,264	-0,048	0,009
-221,884	-87,286	0,053	0,011
-220,869	-30,705	0,157	0,063
-219,855	-200,000	-0,001	0,041
-218,840	-155,668	0,127	0,006
-217,825	-200,000	0,010	-0,238
-216,811	48,781	-0,111	0,074
-215,796	-46,054	0,076	0,027
-214,782	-46,314	0,022	-0,008
-213,767	293,740	0,039	-0,051
-212,752	-200,000	-0,004	0,047
-211,738	800,000	-0,026	-0,054
-210,723	-48,203	0,114	0,039
-209,709	800,000	-0,027	0,058
-208,694	-99,843	-0,136	-0,024
-207,679	-200,000	0,004	-0,097
-206,665	185,360	0,118	-0,124
-205,650	723,493	0,150	0,285
-204,636	-200,000	0,027	0,100
-203,621	-76,585	0,035	0,009
-202,606	-163,907	-0,120	-0,004
-201,592	204,317	-0,065	-0,072
-200,577	-200,000	0,004	-0,133
-199,563	422,901	0,026	0,039
-198,548	78,077	0,111	-0,084
-197,533	9,629	0,091	0,049
-196,519	800,000	0,016	0,041
-195,504	-96,602	-0,111	0,021
-194,490	-200,000	0,012	-0,137
-193,475	800,000	0,044	-0,109
-192,460	155,789	0,022	0,022
-191,446	27,370	0,149	0,089
-190,431	-32,294	-0,018	-0,007
-189,417	800,000	-0,054	0,145
-188,402	21,880	-0,080	0,046
-187,387	198,039	-0,010	0,011
-186,373	-200,000	-0,017	-0,058
-185,358	392,616	-0,016	0,024
-184,344	355,263	-0,047	-0,066
-183,329	324,841	0,082	0,112
-182,315	92,400	0,084	0,068
-181,300	-188,394	0,138	-0,001
-180,285	223,260	-0,061	0,070
-179,271	327,582	0,089	-0,122
-178,256	800,000	-0,014	0,027
-177,242	304,036	0,099	0,131
-176,227	11,021	-0,052	0,028
-175,212	170,256	0,045	0,046
-174,198	-131,577	0,068	0,006
-173,183	27,567	-0,123	-0,074
-172,169	-15,874	0,023	0,010
-171,154	-89,050	-0,065	0,013
-170,139	-64,151	-0,082	0,024
-169,125	131,821	0,116	-0,106
-168,110	-200,000	0,018	-0,070
-167,096	-200,000	0,008	0,073
-166,081	-15,360	-0,138	-0,063
-165,066	-38,229	0,136	-0,051
-164,052	-49,013	0,063	-0,021
-163,037	30,917	-0,056	0,034
-162,023	-29,499	0,018	0,007
-161,008	80,837	0,074	0,057
-159,993	-15,637	0,074	-0,033
-158,979	92,196	-0,078	0,062
-157,964	800,000	0,064	-0,126
-156,950	-88,344	0,122	0,026
-155,935	140,015	0,057	0,053
-154,920	211,011	-0,023	0,025
-153,906	-200,000	0,042	0,164
-152,891	-33,937	-0,095	0,037
-151,877	100,289	0,032	0,026
-150,862	63,217	-0,160	-0,114
-149,847	130,904	-0,074	0,068
-148,833	44,636	0,145	0,094
-147,818	55,683	0,015	-0,010
-146,804	127,679	0,009	0,008
-145,789	-83,529	0,062	0,014
-144,775	59,651	0,095	0,066
-143,760	216,368	-0,061	-0,069
-142,745	-120,001	-0,143	-0,017
-141,731	-147,759	0,046	0,003
-140,716	33,538	0,049	-0,030
-139,702	606,814	0,019	0,034
-138,687	800,000	0,045	0,105
-137,672	457,807	-0,027	-0,043
-136,658	560,391	0,070	0,120
-135,643	800,000	0,030	-0,075
-134,629	171,437	-0,088	-0,089
-133,614	-200,000	0,011	-0,065
-132,599	-200,000	0,017	-0,072
-131,585	352,485	-0,066	-0,093
-130,570	800,000	0,083	-0,185
-129,556	800,000	0,044	-0,122
-128,541	-95,324	-0,047	0,009
-127,526	233,854	0,082	0,096
-126,512	-200,000	-0,000	-0,070
-125,497	800,000	0,020	0,048
-124,483	325,748	-0,085	0,116
-123,468	-200,000	0,021	0,096
-122,453	-200,000	-0,014	-0,070
-121,439	-22,070	0,073	-0,031
-120,424	-200,000	-0,008	-0,090
-119,410	-4,482	0,159	-0,078
-118,395	-31,074	0,056	-0,022
-117,380	-200,000	0,014	-0,055
-116,366	-39,309	-0,073	0,027
-115,351	-200,000	-0,002	0,049
-114,337	255,407	-0,082	0,100
-113,322	-200,000	-0,012	0,053
-112,307	36,190	-0,066	0,041
-111,293	-41,207	0,043	-0,016
-110,278	35,916	0,144	0,089
-109,264	-200,000	-0,008	-0,073
-108,249	306,226	0,041	-0,054
-107,234	-200,000	0,005	-0,077
-106,220	-78,905	0,007	0,002
-105,205	-64,768	0,119	-0,034
-104,191	-200,000	-0,004	-0,028
-103,176	-20,562	0,085	-0,037
-102,162	84,860	0,020	0,016
-101,147	-200,000	-0,013	0,085
-100,132	25,463	0,061	0,036
-99,118	516,771	0,049	-0,082
-98,103	-200,000	-0,035	-0,129
-97,089	444,276	0,075	0,117
-96,074	77,479	-0,048	-0,036
-95,059	346,025	-0,008	-0,012
-94,045	800,000	-0,020	-0,057
-93,030	13,837	-0,049	0,027
-92,016	-110,229	-0,125	-0,018
-91,001	11,340	-0,045	0,024
-89,986	8,330	-0,045	0,024
-88,972	-90,039	0,103	-0,021
-87,957	90,813	-0,139	0,111
-86,943	40,867	-0,049	0,031
-85,928	350,253	0,109	-0,153
-84,913	469,148	-0,056	0,090
-83,899	-17,282	0,045	-0,020
-82,884	-200,000	0,021	0,072
-81,870	232,078	0,057	0,067
-80,855	9,977	0,105	0,056
-79,840	538,983	-0,017	-0,029
-78,826	211,308	0,064	0,072
-77,811	-200,000	-0,015	-0,112
-76,797	186,150	-0,052	0,055
-75,782	17,238	-0,113	-0,063
-74,767	-200,000	0,003	0,010
-73,753	-200,000	0,007	0,039
-72,738	-112,173	-0,043	0,006
-71,724	-32,927	-0,064	0,025
-70,709	72,063	-0,131	-0,096
-69,694	-137,230	0,167	-0,013
-68,680	-144,545	0,130	0,008
-67,665	125,367	0,011	-0,010
-66,651	-122,771	0,104	-0,012
-65,636	123,114	-0,085	0,075
-64,622	101,871	0,118	0,098
-63,607	-200,000	-0,030	-0,121
-62,592	359,212	-0,095	-0,135
-61,578	248,804	0,087	0,104
-60,563	-200,000	0,000	0,066
-59,549	472,689	-0,060	0,096
-58,534	-27,716	-1,803	-0,737
-57,519	385,937	-1,389	-2,036
-56,505	-200,000	-0,442	-4,579
-55,490	217,814	0,990	1,120
-54,476	800,000	4,959	11,483
-53,461	-200,000	19,205	320,386
-52,446	-200,000	741,336	2334,214
-51,432	572,961	1656,055	2868,802
-50,417	78,061	1671,500	1260,840
-49,403	21,230	1544,160	885,240
-48,388	15,128	1466,696	811,153
-47,373	17,949	1456,909	819,341
-46,359	16,669	1446,593	807,370
-45,344	13,373	1442,018	788,997
-44,330	13,254	1440,141	787,366
-43,315	13,304	1438,200	786,515
-42,300	13,287	1436,794	785,631
-41,286	13,360	1435,151	785,053
-40,271	13,281	1434,195	784,121
-39,257	13,303	1432,774	783,417
-38,242	13,336	1431,570	782,886
-37,227	13,362	1430,256	782,260
-36,213	13,349	1428,857	781,404
-35,198	13,295	1427,713	780,488
-34,184	13,373	1427,026	780,453
-33,169	13,313	1425,530	779,317
-32,154	13,328	1424,385	778,731
-31,140	13,345	1423,112	778,085
-30,125	13,372	1422,018	777,585
-29,111	13,362	1421,012	776,958
-28,096	13,322	1419,893	776,127
-27,082	13,319	1418,628	775,389
-26,067	13,284	1417,671	774,668
-25,052	13,325	1416,479	774,180
-24,038	13,244	1415,559	773,267
-23,023	13,294	1414,682	772,992
-22,009	13,240	1413,606	772,118
-20,994	13,244	1412,507	771,505
-19,979	13,247	1411,791	771,101
-18,965	13,231	1410,739	770,421
-17,950	13,262	1409,864	770,054
-16,936	13,218	1409,014	769,355
-15,921	13,209	1407,831	768,636
-14,906	13,189	1407,016	768,070
-13,892	13,217	1406,038	767,635
-12,877	13,212	1405,177	767,112
-11,863	13,214	1404,315	766,618
-10,848	13,183	1403,478	765,988
-9,833	13,128	1402,656	765,250
-8,819	13,081	1401,689	764,476
-7,804	13,065	1400,985	763,986
-6,790	13,045	1399,926	763,284
-5,775	13,141	1398,515	762,933
-4,760	13,144	1397,507	762,367
-3,746	13,090	1396,789	761,690
-2,731	13,083	1395,987	761,190
-1,717	13,052	1395,257	760,619
-0,702	13,072	1393,265	759,597
0,313	16,982	1310,050	732,319
1,327	33,438	703,675	431,374
2,342	51,451	123,299	82,726
3,356	5,315	16,449	8,553
4,371	14,246	3,301	1,815
5,386	32,633	0,601	0,367
6,400	-200,000	-0,019	0,261
7,415	-121,153	-0,239	-0,028
8,429	512,140	-0,167	-0,276
9,444	-63,657	-0,394	-0,114
10,459	178,659	-0,174	-0,180
11,473	212,152	-0,261	-0,291
12,488	12,565	-0,167	-0,091
13,502	17,123	-0,416	-0,232
14,517	280,151	-0,192	-0,243
15,531	205,310	-0,356	-0,391
16,546	-100,484	-0,248	-0,043
17,561	119,227	-0,284	-0,248
18,575	-120,609	-0,274	-0,032
19,590	40,823	-0,206	-0,131
20,604	-46,412	-0,316	-0,109
21,619	88,552	-0,464	-0,364
22,634	38,276	-0,408	-0,256
23,648	87,887	-0,472	-0,369
24,663	97,311	-0,304	-0,246
25,677	41,707	-0,418	-0,267
26,692	188,011	-0,351	-0,370
27,707	-23,062	-0,327	-0,138
28,721	19,380	-0,371	-0,210
29,736	99,955	-0,340	-0,278
30,750	34,493	-0,374	-0,230
31,765	58,538	-0,470	-0,325
32,780	-5,672	-0,387	-0,187
33,794	9,045	-0,324	-0,172
34,809	56,261	-0,381	-0,261
35,823	94,273	-0,326	-0,261
36,838	97,069	-0,349	-0,282
37,853	42,574	-0,433	-0,277
38,867	102,293	-0,342	-0,282
39,882	34,780	-0,369	-0,227
40,896	219,047	-0,187	-0,211
41,911	45,404	-0,253	-0,164
42,926	54,192	-0,416	-0,282
43,940	53,812	-0,359	-0,243
44,955	137,977	-0,318	-0,294
45,969	77,473	-0,388	-0,291
46,984	108,664	-0,288	-0,242
47,999	72,682	-0,227	-0,167
49,013	-62,095	-0,287	-0,084
50,028	65,751	-0,334	-0,238
51,042	16,908	-0,264	-0,147
52,057	166,631	-0,222	-0,222
53,071	30,841	-0,205	-0,123
54,086	448,754	-0,233	-0,362
55,101	140,098	-0,335	-0,311
56,115	86,329	-0,370	-0,287
57,130	1,142	-0,374	-0,189
58,144	-26,070	-0,377	-0,155
59,159	82,836	-0,375	-0,287
60,174	-11,166	-0,299	-0,138
61,188	-29,757	-0,504	-0,201
62,203	-105,832	-0,306	-0,048
63,217	-58,704	-0,350	-0,106
64,232	46,496	-0,438	-0,286
65,247	-90,434	-0,332	-0,067
66,261	-58,460	-0,439	-0,133
67,276	-51,331	-0,341	-0,112
68,290	77,998	-0,240	-0,180
69,305	-12,668	-0,399	-0,182
70,320	-79,706	-0,351	-0,082
71,334	-15,234	-0,311	-0,139
72,349	-90,347	-0,337	-0,068
73,363	-53,864	-0,408	-0,130
74,378	-21,736	-0,392	-0,167
75,393	-8,555	-0,361	-0,170
76,407	-165,539	-0,288	0,009
77,422	-32,924	-0,249	-0,097
78,436	-47,158	-0,385	-0,131
79,451	57,543	-0,230	-0,158
80,466	26,795	-0,271	-0,159
81,480	-37,579	-0,353	-0,131
82,495	24,277	-0,410	-0,237
83,509	184,402	-0,258	-0,269
84,524	25,880	-0,294	-0,172
85,539	18,919	-0,233	-0,131
86,553	-103,063	-0,360	-0,059
87,568	152,457	-0,231	-0,222
88,582	-31,404	-0,276	-0,108
89,597	177,229	-0,233	-0,239
90,611	-32,915	-0,264	-0,102
91,626	166,787	-0,132	-0,131
92,641	-59,397	-0,240	-0,072
93,655	-163,125	-0,315	0,010
94,670	-6,519	-0,200	-0,095
95,684	8,125	-0,307	-0,161
96,699	120,087	-0,220	-0,192
97,714	-18,528	-0,175	-0,076
98,728	17,706	-0,196	-0,109
99,743	-111,054	-0,307	-0,044
100,757	-50,580	-0,264	-0,087
101,772	254,342	-0,142	-0,171
102,787	138,901	-0,279	-0,257
103,801	77,214	-0,184	-0,137
104,816	17,992	-0,287	-0,160
105,830	18,877	-0,232	-0,130
106,845	-58,357	-0,258	-0,078
107,860	-9,581	-0,335	-0,156
108,874	58,705	-0,270	-0,186
109,889	258,393	-0,197	-0,238
110,903	-65,829	-0,247	-0,069
111,918	66,968	-0,216	-0,154
112,933	-109,012	-0,269	-0,040
113,947	-122,367	-0,225	0,025
114,962	-64,068	-0,275	-0,078
115,976	34,509	-0,322	-0,197
116,991	-93,361	-0,269	-0,052
118,006	134,585	-0,230	-0,209
119,020	145,882	-0,184	-0,172
120,035	-97,022	-0,244	-0,044
121,049	-61,360	-0,320	-0,094
122,064	-3,254	-0,223	-0,108
123,079	-138,576	-0,284	-0,022
124,093	800,000	-0,122	-0,301
125,108	-59,679	-0,365	-0,109
126,122	-41,780	-0,286	-0,102
127,137	35,877	-0,175	-0,107
128,151	123,242	-0,180	-0,158
129,166	-33,514	-0,172	-0,066
130,181	23,289	-0,345	-0,198
131,195	102,245	-0,250	-0,204
132,210	-51,044	-0,290	-0,095
133,224	188,290	-0,206	-0,215
134,239	231,687	-0,168	-0,193
135,254	224,009	-0,183	-0,206
136,268	-57,620	-0,299	-0,091
137,283	13,853	-0,247	-0,134
138,297	256,721	-0,204	-0,246
139,312	26,143	-0,220	-0,128
140,327	28,839	-0,259	-0,153
141,341	37,725	-0,229	-0,142
142,356	363,675	-0,154	-0,217
143,370	80,654	-0,264	-0,199
144,385	110,037	-0,267	-0,224
145,400	-98,426	-0,350	-0,062
146,414	133,925	-0,283	-0,256
147,429	-8,222	-0,297	-0,139
148,443	800,000	-0,111	-0,246
149,458	118,094	-0,207	-0,178
150,473	303,823	-0,212	-0,276
151,487	-116,784	-0,148	-0,019
152,502	-5,949	-0,320	-0,152
153,516	152,031	-0,289	-0,275
154,531	237,523	-0,120	-0,139
155,546	186,982	-0,225	-0,234
156,560	72,894	-0,159	-0,115
157,575	326,333	-0,152	-0,204
158,589	-200,000	0,010	-0,098
159,604	12,488	-0,202	-0,108
160,619	174,301	-0,235	-0,237
161,633	86,252	-0,260	-0,200
162,648	215,886	-0,234	-0,259
163,662	116,483	-0,181	-0,155
164,677	-200,000	-0,032	-0,223
165,692	135,545	-0,202	-0,183
166,706	223,223	-0,198	-0,223
167,721	325,778	-0,176	-0,236
168,735	129,118	-0,296	-0,263
169,750	-23,253	-0,347	-0,145
170,764	-43,354	-0,194	-0,068
171,779	122,881	-0,176	-0,154
172,794	326,313	-0,156	-0,208
173,808	136,843	-0,225	-0,205
174,823	150,571	-0,204	-0,193
175,837	67,148	-0,246	-0,174
176,852	800,000	-0,110	-0,257
177,867	-69,870	-0,167	-0,044
178,881	25,058	-0,225	-0,130
179,896	-44,257	-0,232	-0,081
180,910	113,185	-0,241	-0,204
181,925	-110,186	-0,148	-0,021
182,940	6,474	-0,197	-0,101
183,954	15,948	-0,185	-0,101
184,969	142,380	-0,129	-0,119
185,983	-117,977	-0,301	0,037
186,998	-159,606	-0,240	-0,009
188,013	-135,868	-0,235	-0,019
189,027	-31,103	-0,325	-0,127
190,042	32,674	-0,301	-0,181
191,056	269,900	-0,182	-0,223
192,071	140,086	-0,181	-0,166
193,086	-37,374	-0,232	-0,086
194,100	7,668	-0,151	-0,078
195,115	90,216	-0,308	-0,239
196,129	800,000	-0,096	-0,223
197,144	206,893	-0,199	-0,216
198,159	21,091	-0,286	-0,161
199,173	43,972	-0,278	-0,176
200,188	-39,532	-0,212	-0,077
201,202	-25,541	-0,146	-0,060
202,217	-64,093	-0,156	0,044
203,232	729,379	-0,108	-0,202
204,246	66,997	-0,129	-0,091
205,261	-171,119	-0,376	-0,009
206,275	501,972	-0,151	-0,244
207,290	800,000	-0,122	-0,329
208,304	789,449	-0,090	-0,173
209,319	-200,000	-0,072	-0,274
210,334	196,235	-0,142	-0,151
211,348	213,873	-0,231	-0,255
212,363	-5,840	-0,221	-0,105
213,377	7,943	-0,270	-0,140
214,392	164,818	-0,221	-0,217
215,407	-25,424	-0,229	-0,094
216,421	-5,267	-0,162	-0,077
217,436	255,134	-0,121	-0,144
218,450	-37,233	-0,229	-0,085
219,465	198,589	-0,287	-0,305
220,480	196,165	-0,151	-0,160
221,494	64,326	-0,230	-0,160
222,509	140,300	-0,155	-0,142
223,523	-133,292	-0,090	0,008
224,538	28,515	-0,252	-0,148
225,553	514,233	-0,148	-0,241
226,567	0,481	-0,210	-0,104
227,582	-42,814	-0,157	-0,055
228,596	85,014	-0,186	-0,141
229,611	-200,000	-0,043	-0,144
230,626	9,882	-0,195	-0,102
231,640	231,886	-0,230	-0,262
232,655	11,023	-0,172	-0,091
233,669	65,020	-0,182	-0,127
234,684	-22,829	-0,329	-0,137
235,699	-51,823	-0,148	-0,047
236,713	-119,947	-0,133	0,016
237,728	394,124	-0,104	-0,151
238,742	115,056	-0,183	-0,154
239,757	7,303	-0,157	0,081
240,772	368,553	-0,217	-0,305
241,786	451,294	-0,161	-0,248
242,801	-5,354	-0,275	-0,130
243,815	208,387	-0,166	-0,180
244,830	796,393	-0,052	-0,100
245,844	467,685	-0,087	-0,136
246,859	10,198	-0,181	-0,095
247,874	36,970	-0,188	-0,115
248,888	-98,277	-0,198	-0,035
249,903	800,000	-0,089	-0,214
250,917	-64,860	-0,220	-0,061
251,932	157,893	-0,142	-0,136
252,947	-55,024	-0,239	-0,074
253,961	156,245	-0,132	-0,126
254,976	473,530	-0,054	-0,085
255,990	-37,063	-0,248	-0,092
257,005	101,145	-0,209	-0,168
258,020	304,797	-0,167	-0,215
259,034	-46,507	-0,272	0,092
260,049	800,000	0,011	-0,032
261,063	209,733	-0,147	-0,159
262,078	800,000	-0,079	-0,166
263,093	-134,677	-0,156	0,013
264,107	87,896	-0,159	-0,122
265,122	-28,888	-0,127	-0,050
266,136	-200,000	-0,056	-0,183
267,151	-32,973	-0,081	-0,031
268,166	448,028	-0,110	-0,167
269,180	28,075	-0,157	-0,091
270,195	184,506	-0,134	-0,137
271,209	95,288	-0,200	-0,157
272,224	158,566	-0,103	-0,098
273,239	10,886	-0,176	-0,092
274,253	-200,000	-0,026	-0,155
275,268	110,329	-0,188	-0,156
276,282	193,676	-0,241	-0,252
277,297	601,106	-0,116	-0,200
278,312	-200,000	-0,040	-0,225
279,326	800,000	-0,078	-0,164
280,341	64,416	-0,190	-0,132
281,355	-200,000	-0,018	-0,065
282,370	201,164	-0,171	-0,182
283,384	490,323	-0,084	-0,132
284,399	-96,247	-0,174	-0,032
285,414	-89,191	-0,170	-0,034
286,428	230,425	-0,129	-0,146
287,443	131,870	-0,099	-0,088
288,457	-200,000	0,001	-0,095
289,472	-34,945	-0,131	-0,049
290,487	760,132	-0,082	-0,154
291,501	7,214	-0,299	-0,154
292,516	124,463	-0,135	-0,117
293,530	378,806	-0,120	-0,169
294,545	800,000	-0,037	-0,096
295,560	-135,333	-0,137	0,011
296,574	-86,131	-0,098	-0,021
297,589	-195,564	-0,153	0,001
298,603	182,333	-0,170	-0,173
299,618	664,729	-0,093	-0,167
300,633	333,374	-0,091	-0,122
301,647	-71,783	-0,130	0,033
302,662	58,553	-0,121	-0,081
303,676	-147,245	-0,129	0,007
304,691	800,000	-0,050	-0,123
305,706	-200,000	-0,004	-0,101
306,720	511,005	-0,129	-0,208
307,735	-7,302	-0,138	0,064
308,749	270,640	-0,121	-0,146
309,764	69,018	-0,154	-0,109
310,779	260,578	-0,081	-0,097
311,793	800,000	-0,059	-0,127
312,808	-69,489	-0,192	-0,050
313,822	-95,158	-0,220	-0,041
314,837	-130,940	-0,114	-0,010
315,852	-65,637	-0,143	0,039
316,866	19,914	-0,160	-0,088
317,881	100,516	-0,072	-0,057
318,895	218,372	-0,103	-0,114
319,910	184,069	-0,051	-0,052
320,925	-98,704	-0,177	-0,031
321,939	-80,154	-0,136	0,031
322,954	546,330	-0,095	-0,156
323,968	-200,000	-0,127	-0,000
324,983	-103,966	-0,102	0,016
325,997	-85,233	-0,177	-0,038
327,012	27,492	-0,206	-0,119
328,027	-128,957	-0,203	0,019
329,041	89,567	-0,139	-0,107
330,056	67,552	-0,188	-0,132
331,070	-43,745	-0,191	-0,066
332,085	20,499	-0,076	-0,042
333,100	52,892	-0,171	-0,112
334,114	11,924	-0,156	-0,082
335,129	752,536	-0,126	-0,235
336,143	-53,294	-0,217	-0,068
337,158	110,512	-0,130	-0,108
338,173	320,450	-0,149	-0,195
339,187	800,000	0,006	0,012
340,202	-96,313	-0,155	-0,028
341,216	70,400	-0,086	-0,061
342,231	125,225	-0,202	-0,175
343,246	56,871	-0,099	-0,066
344,260	259,205	-0,049	-0,058
345,275	33,606	-0,112	-0,067
346,289	-12,912	-0,145	-0,064
347,304	441,968	-0,066	-0,099
348,319	349,662	-0,152	-0,206
349,333	194,345	-0,131	-0,136
350,348	-200,000	0,009	-0,101
351,362	76,614	-0,169	-0,123
352,377	-122,744	-0,113	0,012
353,392	331,544	0,018	-0,024
354,406	-200,000	0,009	0,056
355,421	211,659	1311,848	1418,360
356,435	162,998	1472,200	1418,858
