DTS Sentinel unit serial number:	SN410029Multiplexer serial number:	ORYXHardware model number:	OX2-SRSoftware version number:	ORYX F/W v4,00 Oryx Data Collector v3.7.2.0data status	okinstallation	B3 Nyhavnadifferential loss correction	single-endedforward channel	channel 1reverse channel	N/Adate	2023/12/01time	04:32:30forward acquisition time	300,00reverse acquisition time	0,00gamma	499,1914k internal	0,3212k external	0,3212temperature offset calibration	1,0000default loss term (dB/km)	0,3820temperature slope calibration	1,0000multiplexer offset coefficient	1,0000multiplexer slope coefficient	1,0000fibre end	0,00T internal ref (°C)	8,06T ext. ref 1 (°C)	-7,16T ext. ref 2 (°C)	-7,29length (m)	temperature (°C)	Stokes	anti-Stokes-744,400	800,000	-0,103	-0,241
-743,385	800,000	-0,096	0,241
-742,371	78,976	-0,187	-0,145
-741,356	-200,000	0,024	0,239
-740,342	-200,000	-0,070	-0,265
-739,327	-200,000	-0,016	0,303
-738,312	178,140	-0,232	-0,245
-737,298	800,000	0,033	0,078
-736,283	647,843	-0,219	-0,407
-735,269	381,151	-0,081	0,120
-734,254	114,534	-0,122	-0,108
-733,239	-11,547	-0,152	-0,072
-732,225	800,000	-0,111	-0,227
-731,210	285,971	0,136	0,178
-730,196	36,344	0,030	0,019
-729,181	135,540	0,012	-0,011
-728,167	127,223	-0,035	0,032
-727,152	769,830	-0,050	-0,099
-726,137	-151,192	-0,185	0,010
-725,123	188,937	-0,017	-0,018
-724,108	461,395	0,101	-0,164
-723,094	257,972	-0,085	-0,107
-722,079	273,472	-0,038	0,049
-721,064	57,449	-0,051	0,036
-720,050	-200,000	-0,022	0,091
-719,035	-200,000	0,001	-0,084
-718,021	111,654	-0,030	0,026
-717,006	-72,375	-0,034	0,009
-715,991	578,316	-0,051	-0,091
-714,977	-22,839	-0,074	-0,032
-713,962	-200,000	-0,010	0,108
-712,948	-200,000	-0,024	0,128
-711,933	-73,308	-0,058	0,015
-710,918	-200,000	-0,009	-0,034
-709,904	-200,000	-0,012	-0,109
-708,889	800,000	-0,033	-0,068
-707,875	108,430	-0,042	0,036
-706,860	346,883	0,028	0,041
-705,845	-114,369	-0,080	-0,011
-704,831	34,799	0,070	-0,044
-703,816	-200,000	-0,011	-0,037
-702,802	-164,442	-0,107	0,003
-701,787	-36,195	-0,090	-0,035
-700,772	248,617	-0,052	0,064
-699,758	-59,001	0,064	-0,020
-698,743	800,000	0,042	-0,109
-697,729	43,679	0,106	0,070
-696,714	800,000	-0,060	-0,125
-695,699	-32,393	-0,129	0,052
-694,685	64,889	-0,027	0,020
-693,670	800,000	0,036	0,090
-692,656	-145,261	-0,095	0,006
-691,641	-86,058	-0,052	0,012
-690,627	-143,006	-0,030	0,002
-689,612	168,502	-0,049	-0,051
-688,597	-93,419	-0,070	-0,014
-687,583	319,664	-0,105	-0,145
-686,568	800,000	-0,041	-0,106
-685,554	-175,814	-0,105	0,002
-684,539	-157,866	0,100	-0,004
-683,524	47,246	0,024	0,016
-682,510	-57,515	-0,068	0,021
-681,495	-200,000	0,019	-0,086
-680,481	0,653	-0,126	-0,065
-679,466	-190,145	-0,129	0,001
-678,451	800,000	0,033	-0,074
-677,437	580,813	0,059	-0,106
-676,422	-200,000	-0,006	0,111
-675,408	417,630	0,028	0,044
-674,393	141,799	-0,111	-0,106
-673,378	34,303	-0,127	0,080
-672,364	-200,000	-0,011	0,042
-671,349	-200,000	0,005	-0,069
-670,335	734,442	0,068	0,133
-669,320	25,014	-0,065	-0,039
-668,305	31,432	0,070	-0,044
-667,291	163,954	0,060	-0,061
-666,276	-102,063	-0,073	-0,013
-665,262	-200,000	0,002	-0,037
-664,247	77,984	0,006	0,004
-663,232	-200,000	0,015	-0,093
-662,218	87,067	0,113	-0,090
-661,203	800,000	-0,026	-0,071
-660,189	-200,000	-0,036	-0,274
-659,174	-27,389	0,067	0,028
-658,159	-124,166	0,107	-0,012
-657,145	800,000	-0,019	-0,050
-656,130	-200,000	-0,029	-0,126
-655,116	800,000	-0,023	0,051
-654,101	-200,000	-0,001	-0,010
-653,086	-200,000	-0,009	0,035
-652,072	-200,000	0,009	-0,099
-651,057	90,520	-0,065	0,052
-650,043	-68,679	0,041	-0,011
-649,028	-200,000	-0,046	0,168
-648,014	-99,062	0,097	0,018
-646,999	584,521	0,111	0,199
-645,984	318,046	0,132	0,181
-644,970	-200,000	0,121	0,000
-643,955	-100,435	-0,137	-0,024
-642,941	-200,000	0,010	0,064
-641,926	128,740	0,048	-0,044
-640,911	164,852	0,065	0,066
-639,897	800,000	0,066	-0,140
-638,882	-111,514	-0,135	0,020
-637,868	-43,755	0,074	-0,027
-636,853	131,585	-0,085	-0,079
-635,838	-12,899	0,019	-0,009
-634,824	36,465	-0,055	-0,035
-633,809	32,812	0,043	0,027
-632,795	-55,116	0,098	-0,031
-631,780	53,177	-0,048	0,033
-630,765	800,000	-0,011	-0,033
-629,751	-200,000	-0,014	-0,084
-628,736	-76,846	0,091	0,023
-627,722	-200,000	-0,001	-0,079
-626,707	-200,000	-0,024	0,091
-625,692	314,774	-0,087	0,118
-624,678	307,311	0,056	-0,076
-623,663	-200,000	-0,005	-0,085
-622,649	-200,000	0,025	0,079
-621,634	-129,247	-0,168	0,017
-620,619	-200,000	-0,042	0,158
-619,605	58,015	0,102	0,072
-618,590	-200,000	-0,019	0,074
-617,576	-35,128	0,096	-0,038
-616,561	800,000	-0,039	0,097
-615,546	140,165	-0,058	0,055
-614,532	800,000	0,008	-0,022
-613,517	226,429	-0,086	0,101
-612,503	400,857	0,011	0,017
-611,488	-140,798	0,053	-0,004
-610,474	186,803	0,160	0,172
-609,459	196,354	0,024	0,026
-608,444	-80,274	0,037	-0,009
-607,430	233,400	-0,068	-0,081
-606,415	471,384	-0,087	-0,142
-605,401	-200,000	0,007	0,025
-604,386	-200,000	-0,013	-0,073
-603,371	-157,289	0,159	0,007
-602,357	-200,000	0,008	-0,059
-601,342	-200,000	0,006	-0,021
-600,328	182,024	-0,057	0,060
-599,313	96,205	-0,051	0,042
-598,298	34,588	0,144	-0,090
-597,284	800,000	0,044	-0,091
-596,269	-200,000	0,014	-0,157
-595,255	90,903	0,102	0,082
-594,240	-46,767	0,094	-0,033
-593,225	-14,141	-0,130	0,060
-592,211	50,437	-0,094	-0,064
-591,196	800,000	0,029	-0,082
-590,182	576,094	0,028	-0,049
-589,167	635,956	0,055	-0,101
-588,152	109,953	-0,063	-0,054
-587,138	-200,000	0,008	0,114
-586,123	-86,557	0,099	-0,022
-585,109	-200,000	-0,008	-0,064
-584,094	-200,000	0,007	-0,073
-583,079	-200,000	0,010	-0,057
-582,065	160,146	0,024	-0,024
-581,050	-107,344	-0,108	-0,017
-580,036	220,145	-0,076	0,087
-579,021	647,086	-0,028	0,051
-578,006	800,000	-0,069	-0,152
-576,992	-140,773	-0,056	-0,004
-575,977	194,080	0,056	-0,062
-574,963	-200,000	-0,023	0,124
-573,948	-200,000	0,011	0,116
-572,934	800,000	0,018	-0,041
-571,919	-200,000	-0,036	-0,131
-570,904	-62,698	-0,108	-0,032
-569,890	-52,988	-0,091	0,030
-568,875	39,908	-0,073	-0,047
-567,861	154,349	0,145	0,143
-566,846	800,000	-0,074	0,183
-565,831	26,922	-0,110	0,066
-564,817	120,916	0,041	0,037
-563,802	148,246	0,084	-0,082
-562,788	-106,835	-0,063	-0,010
-561,773	-76,968	-0,080	-0,020
-560,758	800,000	0,061	0,140
-559,744	-200,000	-0,008	0,063
-558,729	30,292	0,090	-0,055
-557,715	-11,209	0,110	0,052
-556,700	800,000	-0,008	0,019
-555,685	472,732	-0,105	-0,171
-554,671	566,163	0,045	-0,079
-553,656	483,641	-0,016	-0,026
-552,642	-200,000	0,005	0,179
-551,627	94,325	-0,027	-0,022
-550,612	-200,000	-0,010	0,077
-549,598	800,000	-0,039	0,119
-548,583	10,616	-0,084	0,046
-547,569	-200,000	0,005	-0,126
-546,554	62,858	0,051	0,036
-545,539	164,660	0,104	0,106
-544,525	800,000	-0,056	-0,133
-543,510	-132,139	-0,116	-0,011
-542,496	800,000	-0,023	-0,058
-541,481	-14,371	-0,125	-0,058
-540,466	-71,875	0,200	-0,053
-539,452	800,000	0,046	0,123
-538,437	142,115	0,012	0,012
-537,423	47,838	-0,042	0,028
-536,408	800,000	0,030	-0,062
-535,393	-113,249	-0,128	-0,018
-534,379	170,242	-0,092	0,095
-533,364	140,421	-0,060	0,057
-532,350	-41,766	-0,045	0,017
-531,335	-93,823	0,123	0,024
-530,321	95,040	0,076	0,062
-529,306	27,488	0,025	-0,015
-528,291	800,000	0,028	-0,059
-527,277	95,092	0,084	-0,069
-526,262	311,759	0,022	0,030
-525,248	-52,580	0,071	-0,024
-524,233	-100,497	0,075	0,013
-523,218	800,000	0,027	0,063
-522,204	-92,086	-0,154	0,031
-521,189	800,000	0,062	-0,123
-520,175	-200,000	-0,002	-0,013
-519,160	-121,352	-0,237	-0,028
-518,145	-2,103	0,145	0,073
-517,131	-92,530	0,034	0,007
-516,116	67,213	0,116	0,085
-515,102	235,504	0,070	0,084
-514,087	155,518	-0,018	-0,018
-513,072	513,898	0,052	-0,088
-512,058	-168,456	-0,032	0,001
-511,043	800,000	-0,046	0,138
-510,029	252,898	0,073	-0,090
-509,014	115,826	-0,048	-0,042
-507,999	131,086	0,014	-0,013
-506,985	800,000	-0,061	-0,130
-505,970	395,303	-0,062	-0,093
-504,956	52,574	-0,094	-0,065
-503,941	-200,000	-0,006	-0,044
-502,926	107,735	0,039	-0,033
-501,912	-200,000	-0,001	0,009
-500,897	77,481	-0,089	0,068
-499,883	800,000	-0,059	0,133
-498,868	252,270	-0,028	-0,034
-497,853	74,538	0,015	0,011
-496,839	512,432	0,066	0,110
-495,824	800,000	0,032	-0,067
-494,810	201,178	-0,029	0,033
-493,795	20,293	0,047	0,027
-492,781	-200,000	0,000	-0,033
-491,766	-52,101	-0,095	-0,032
-490,751	800,000	-0,025	-0,075
-489,737	-116,048	-0,072	0,009
-488,722	-43,924	0,113	0,041
-487,708	-129,543	0,212	-0,021
-486,693	-200,000	0,027	-0,114
-485,678	-174,435	0,049	-0,001
-484,664	-200,000	-0,003	-0,098
-483,649	-134,068	-0,027	0,002
-482,635	-83,732	0,074	-0,017
-481,620	-200,000	0,016	-0,127
-480,605	101,156	-0,029	0,024
-479,591	-200,000	0,033	0,153
-478,576	105,039	0,039	0,033
-477,562	-48,005	-0,178	-0,062
-476,547	800,000	0,044	-0,133
-475,532	-200,000	-0,025	-0,110
-474,518	23,227	0,103	-0,061
-473,503	800,000	-0,034	0,079
-472,489	757,221	0,048	0,093
-471,474	-127,240	-0,046	0,005
-470,459	-200,000	0,029	-0,107
-469,445	208,319	-0,070	-0,078
-468,430	563,984	-0,006	0,011
-467,416	337,113	0,036	-0,050
-466,401	-149,622	0,150	0,008
-465,386	-200,000	-0,012	0,062
-464,372	-51,555	0,037	0,012
-463,357	542,265	-0,036	0,062
-462,343	540,889	-0,062	-0,106
-461,328	-136,737	-0,119	0,010
-460,313	-200,000	-0,010	0,113
-459,299	-200,000	0,014	-0,087
-458,284	-200,000	-0,005	0,035
-457,270	-16,792	0,103	0,046
-456,255	-200,000	-0,010	-0,059
-455,241	800,000	0,064	-0,127
-454,226	268,838	-0,104	-0,131
-453,211	-200,000	-0,001	-0,154
-452,197	-200,000	0,007	-0,062
-451,182	403,131	0,090	0,137
-450,168	158,996	0,040	0,040
-449,153	28,085	-0,047	-0,028
-448,138	-56,586	0,147	-0,046
-447,124	-200,000	-0,022	-0,206
-446,109	33,680	0,046	0,028
-445,095	-128,420	0,093	0,009
-444,080	470,871	-0,022	-0,036
-443,065	185,530	-0,035	0,037
-442,051	-97,850	0,098	-0,018
-441,036	73,158	-0,067	0,050
-440,022	-35,933	-0,072	-0,028
-439,007	43,130	-0,035	0,023
-437,992	-200,000	-0,012	0,152
-436,978	-41,885	0,171	0,063
-435,963	12,122	-0,067	-0,037
-434,949	800,000	-0,048	-0,118
-433,934	18,896	0,118	0,068
-432,919	11,882	0,061	-0,033
-431,905	121,802	0,037	-0,033
-430,890	-200,000	0,024	-0,125
-429,876	-200,000	0,022	0,112
-428,861	-200,000	-0,017	-0,110
-427,846	-200,000	-0,016	-0,091
-426,832	-200,000	-0,023	0,181
-425,817	-121,364	-0,161	-0,019
-424,803	-200,000	-0,032	0,114
-423,788	-28,306	0,133	0,055
-422,773	-112,400	0,068	0,010
-421,759	-200,000	0,008	0,034
-420,744	-200,000	0,001	0,041
-419,730	800,000	-0,016	0,037
-418,715	147,805	-0,043	-0,041
-417,701	-10,215	-0,069	-0,032
-416,686	-200,000	-0,009	0,182
-415,671	194,752	0,050	-0,054
-414,657	-200,000	-0,013	-0,142
-413,642	800,000	0,016	0,045
-412,628	-200,000	-0,003	0,036
-411,613	-127,919	-0,116	0,012
-410,598	-200,000	-0,026	-0,161
-409,584	91,729	-0,111	-0,089
-408,569	333,693	-0,067	-0,093
-407,555	-101,608	0,028	0,005
-406,540	800,000	0,017	-0,036
-405,525	11,792	-0,049	0,027
-404,511	-200,000	-0,028	-0,089
-403,496	-107,895	0,039	-0,006
-402,482	588,981	0,034	-0,061
-401,467	-200,000	-0,019	0,099
-400,452	157,039	-0,090	0,089
-399,438	-200,000	0,008	-0,082
-398,423	-200,000	0,018	0,113
-397,409	-200,000	0,005	0,062
-396,394	-200,000	0,022	-0,095
-395,379	193,211	0,080	0,086
-394,365	-130,459	0,121	0,012
-393,350	-159,777	0,027	-0,001
-392,336	509,571	0,053	0,088
-391,321	326,678	-0,012	0,017
-390,306	-111,560	-0,195	0,028
-389,292	-83,580	-0,044	-0,010
-388,277	-172,043	0,076	0,002
-387,263	27,547	0,076	0,045
-386,248	317,064	0,043	0,058
-385,233	193,326	0,017	0,018
-384,219	242,270	0,054	0,065
-383,204	381,239	0,061	-0,090
-382,190	800,000	0,017	-0,050
-381,175	-200,000	0,047	0,166
-380,160	-4,235	0,145	-0,072
-379,146	-95,285	0,156	-0,030
-378,131	250,118	-0,090	0,109
-377,117	-107,625	-0,012	-0,002
-376,102	-26,254	-0,071	-0,029
-375,088	-65,128	-0,062	-0,018
-374,073	800,000	0,040	-0,104
-373,058	-182,709	0,182	0,002
-372,044	-88,458	0,044	-0,009
-371,029	800,000	0,025	0,074
-370,015	800,000	-0,018	-0,050
-369,000	-200,000	-0,010	-0,143
-367,985	179,216	-0,064	0,067
-366,971	-200,000	0,008	-0,086
-365,956	-47,585	0,081	-0,028
-364,942	-200,000	-0,009	0,104
-363,927	-200,000	0,017	0,088
-362,912	800,000	-0,024	0,053
-361,898	-200,000	-0,018	0,166
-360,883	727,197	0,080	-0,152
-359,869	402,965	-0,106	-0,159
-358,854	-124,945	-0,120	-0,013
-357,839	-200,000	0,024	0,101
-356,825	13,164	0,062	0,034
-355,810	45,477	0,072	0,047
-354,796	24,829	-0,183	0,108
-353,781	170,338	0,086	-0,088
-352,766	-200,000	-0,011	-0,049
-351,752	-56,812	0,119	0,037
-350,737	132,510	0,143	0,132
-349,723	800,000	-0,061	0,129
-348,708	-200,000	-0,022	-0,086
-347,693	168,107	-0,120	-0,122
-346,679	546,342	-0,076	-0,131
-345,664	18,264	0,094	-0,054
-344,650	-72,744	0,034	0,009
-343,635	800,000	-0,031	-0,076
-342,620	283,838	0,070	-0,090
-341,606	-172,442	0,103	-0,002
-340,591	46,131	-0,044	-0,029
-339,577	280,658	-0,102	-0,131
-338,562	247,448	0,050	-0,060
-337,548	800,000	-0,043	-0,104
-336,533	-44,842	0,098	0,035
-335,518	-200,000	-0,019	0,177
-334,504	-200,000	0,004	0,196
-333,489	338,278	0,015	0,021
-332,475	-78,754	-0,048	0,012
-331,460	800,000	-0,044	-0,097
-330,445	800,000	0,038	0,095
-329,431	50,371	0,008	0,006
-328,416	-6,438	0,081	-0,039
-327,402	519,036	-0,032	0,054
-326,387	-200,000	0,016	0,114
-325,372	-200,000	0,023	-0,124
-324,358	-64,504	-0,132	-0,038
-323,343	-200,000	0,008	-0,063
-322,329	800,000	0,027	0,062
-321,314	-200,000	0,030	0,159
-320,299	-200,000	-0,012	0,076
-319,285	800,000	-0,041	0,089
-318,270	800,000	0,012	0,027
-317,256	-200,000	-0,002	-0,144
-316,241	59,960	-0,112	0,079
-315,226	-200,000	0,017	0,161
-314,212	800,000	0,057	0,153
-313,197	-38,438	-0,147	0,055
-312,183	-200,000	0,020	0,119
-311,168	123,046	-0,057	0,051
-310,153	96,451	-0,107	-0,087
-309,139	-200,000	-0,015	-0,066
-308,124	98,614	-0,097	-0,079
-307,110	800,000	0,014	0,030
-306,095	-200,000	-0,006	0,055
-305,080	-14,391	0,043	0,020
-304,066	21,820	-0,079	0,046
-303,051	-200,000	0,014	0,053
-302,037	145,611	-0,091	0,087
-301,022	-23,263	0,086	0,037
-300,008	246,776	0,016	0,019
-298,993	28,323	-0,066	0,040
-297,978	-14,106	-0,087	-0,040
-296,964	77,879	-0,087	0,066
-295,949	176,087	-0,149	-0,154
-294,935	-200,000	-0,003	-0,092
-293,920	114,022	-0,032	-0,028
-292,905	42,991	0,116	0,075
-291,891	-200,000	0,003	0,056
-290,876	33,266	-0,097	0,060
-289,862	-154,389	-0,175	0,008
-288,847	98,543	0,064	-0,053
-287,832	-200,000	0,043	-0,157
-286,818	-81,989	0,124	0,029
-285,803	-96,338	0,035	-0,006
-284,789	231,317	-0,126	0,148
-283,774	-200,000	-0,006	0,078
-282,759	289,833	-0,134	-0,173
-281,745	355,014	-0,016	0,023
-280,730	8,094	-0,158	-0,084
-279,716	-200,000	0,010	-0,068
-278,701	800,000	0,028	-0,055
-277,686	-68,848	-0,064	-0,017
-276,672	148,112	-0,055	0,052
-275,657	-200,000	-0,018	-0,065
-274,643	-200,000	-0,000	0,006
-273,628	-48,007	-0,068	0,023
-272,613	800,000	-0,043	-0,127
-271,599	-133,534	0,114	-0,010
-270,584	-9,075	-0,086	0,041
-269,570	-83,872	0,198	0,045
-268,555	18,638	-0,181	0,103
-267,540	-200,000	-0,001	0,019
-266,526	-34,015	-0,179	-0,070
-265,511	584,129	0,087	0,152
-264,497	-32,035	-0,119	-0,047
-263,482	57,740	0,199	0,138
-262,467	-200,000	0,047	0,217
-261,453	800,000	-0,042	-0,107
-260,438	-73,284	0,052	-0,013
-259,424	303,362	0,125	-0,165
-258,409	260,226	-0,027	0,033
-257,395	32,302	-0,099	-0,061
-256,380	54,771	0,064	0,044
-255,365	-200,000	-0,018	0,121
-254,351	-200,000	-0,002	-0,029
-253,336	-82,757	-0,143	0,033
-252,322	-200,000	0,016	-0,189
-251,307	800,000	-0,038	-0,084
-250,292	-200,000	-0,025	0,097
-249,278	-86,181	0,087	-0,019
-248,263	-92,537	0,050	-0,010
-247,249	-73,486	-0,114	0,029
-246,234	94,265	0,048	-0,039
-245,219	166,201	-0,106	-0,107
-244,205	644,932	-0,012	-0,022
-243,190	800,000	0,027	0,080
-242,176	121,397	0,126	0,112
-241,161	-96,424	-0,065	0,012
-240,146	-63,971	0,095	0,027
-239,132	-118,070	-0,116	0,015
-238,117	10,589	0,017	-0,009
-237,103	-200,000	0,010	-0,033
-236,088	-200,000	-0,017	-0,078
-235,073	-45,392	0,028	-0,010
-234,059	-38,555	0,103	-0,038
-233,044	-168,306	0,058	0,002
-232,030	463,052	0,056	0,090
-231,015	-200,000	0,027	-0,112
-230,000	485,811	-0,076	-0,124
-228,986	-200,000	-0,009	-0,043
-227,971	-36,756	0,133	-0,051
-226,957	-200,000	0,001	0,125
-225,942	-200,000	-0,005	0,054
-224,927	198,974	0,017	-0,019
-223,913	-200,000	-0,009	-0,136
-222,898	800,000	-0,073	-0,157
-221,884	457,316	-0,077	0,122
-220,869	-24,106	0,059	0,025
-219,855	79,086	0,040	-0,030
-218,840	-200,000	0,035	0,128
-217,825	-200,000	-0,008	0,079
-216,811	-115,052	0,005	-0,001
-215,796	128,831	-0,078	-0,071
-214,782	261,917	-0,019	0,023
-213,767	-105,061	0,009	-0,001
-212,752	800,000	-0,045	-0,119
-211,738	-200,000	0,035	0,150
-210,723	-96,296	-0,006	0,001
-209,709	184,129	-0,067	-0,071
-208,694	90,193	-0,048	-0,038
-207,679	-121,318	0,129	0,015
-206,665	2,247	-0,028	-0,014
-205,650	-21,283	0,039	0,017
-204,636	173,150	0,012	0,013
-203,621	148,851	0,073	0,070
-202,606	132,073	-0,034	-0,031
-201,592	-49,145	-0,045	0,015
-200,577	-109,571	-0,091	0,013
-199,563	-115,687	0,067	-0,009
-198,548	-200,000	0,048	-0,173
-197,533	311,723	0,004	0,005
-196,519	58,154	-0,097	0,067
-195,504	-155,841	-0,017	-0,001
-194,490	-134,921	0,044	0,004
-193,475	-200,000	0,002	-0,153
-192,460	293,200	-0,036	0,047
-191,446	-200,000	-0,001	0,133
-190,431	-200,000	-0,026	0,130
-189,417	35,278	0,078	0,048
-188,402	123,729	-0,077	0,068
-187,387	-200,000	-0,019	-0,148
-186,373	-35,706	0,090	0,034
-185,358	-86,906	-0,164	-0,035
-184,344	15,599	0,084	0,047
-183,329	507,156	0,033	0,054
-182,315	14,009	-0,089	-0,049
-181,300	252,150	-0,104	-0,126
-180,285	-58,782	-0,083	0,025
-179,271	-1,158	0,007	-0,003
-178,256	-108,081	0,145	-0,022
-177,242	80,097	0,094	-0,071
-176,227	800,000	0,026	-0,060
-175,212	594,766	-0,043	0,076
-174,198	-200,000	0,005	0,035
-173,183	249,489	-0,029	-0,035
-172,169	486,606	-0,021	-0,034
-171,154	-200,000	-0,009	-0,069
-170,139	-59,699	-0,112	-0,034
-169,125	217,244	0,121	-0,137
-168,110	-200,000	0,035	0,158
-167,096	110,838	-0,123	0,105
-166,081	-200,000	-0,005	-0,110
-165,066	-200,000	-0,000	-0,108
-164,052	-95,930	0,087	0,016
-163,037	-200,000	0,005	-0,036
-162,023	-200,000	-0,011	-0,047
-161,008	800,000	0,014	0,028
-159,993	800,000	0,028	-0,081
-158,979	150,512	0,073	0,070
-157,964	800,000	-0,031	-0,087
-156,950	-60,393	-0,100	0,030
-155,935	-20,402	-0,054	-0,023
-154,920	640,006	0,081	0,147
-153,906	800,000	0,028	0,074
-152,891	17,354	0,047	-0,026
-151,877	153,338	-0,043	0,042
-150,862	143,576	-0,115	-0,108
-149,847	209,397	-0,018	0,020
-148,833	113,410	-0,108	0,093
-147,818	-200,000	0,023	-0,080
-146,804	-200,000	-0,017	0,142
-145,789	4,493	0,033	-0,017
-144,775	731,861	0,036	-0,068
-143,760	112,659	-0,096	-0,082
-142,745	-200,000	0,022	0,070
-141,731	-200,000	-0,001	-0,119
-140,716	-94,179	-0,112	0,022
-139,702	800,000	0,070	0,176
-138,687	-200,000	-0,018	0,105
-137,672	-21,665	-0,085	0,037
-136,658	101,588	-0,047	-0,039
-135,643	488,707	-0,038	0,061
-134,629	-154,103	0,057	-0,003
-133,614	-164,417	0,158	0,005
-132,599	-45,098	0,153	-0,054
-131,585	104,535	0,108	0,090
-130,570	660,115	-0,063	0,116
-129,556	139,833	0,033	0,030
-128,541	438,681	-0,078	-0,120
-127,526	130,520	0,184	-0,167
-126,512	800,000	-0,061	-0,140
-125,497	154,117	0,087	0,084
-124,483	5,058	0,148	0,077
-123,468	-200,000	-0,009	-0,106
-122,453	-200,000	-0,019	0,059
-121,439	-63,280	-0,104	-0,030
-120,424	48,523	0,037	-0,024
-119,410	385,124	-0,059	0,086
-118,395	39,231	0,040	0,025
-117,380	201,021	0,076	0,082
-116,366	611,423	-0,062	-0,111
-115,351	133,238	0,072	-0,065
-114,337	-109,745	0,099	0,015
-113,322	-134,971	-0,125	0,011
-112,307	-200,000	0,003	-0,081
-111,293	59,372	0,078	0,054
-110,278	800,000	0,048	0,123
-109,264	-8,014	0,050	-0,024
-108,249	457,934	-0,050	-0,078
-107,234	309,045	-0,061	-0,080
-106,220	-104,721	-0,056	0,009
-105,205	-52,622	-0,099	-0,032
-104,191	46,925	-0,115	0,075
-103,176	-113,228	-0,198	-0,027
-102,162	-115,917	0,167	0,022
-101,147	263,242	-0,090	-0,110
-100,132	141,253	-0,065	-0,061
-99,118	-56,993	0,078	0,024
-98,103	632,620	-0,029	0,053
-97,089	-200,000	0,017	-0,056
-96,074	-22,772	-0,050	-0,021
-95,059	188,050	0,022	0,023
-94,045	256,750	-0,077	-0,094
-93,030	202,994	-0,072	-0,079
-92,016	741,760	-0,068	0,131
-91,001	216,711	0,064	-0,072
-89,986	-200,000	0,003	-0,088
-88,972	-200,000	0,012	0,075
-87,957	-200,000	-0,034	0,110
-86,943	-26,445	-0,059	-0,024
-85,928	-111,446	-0,092	0,013
-84,913	-125,133	-0,204	-0,022
-83,899	800,000	0,032	-0,075
-82,884	322,085	0,070	0,094
-81,870	57,806	0,060	-0,041
-80,855	186,995	0,099	-0,104
-79,840	-147,349	0,137	0,008
-78,826	253,736	-0,023	0,027
-77,811	-200,000	0,007	0,066
-76,797	800,000	0,029	-0,087
-75,782	-200,000	0,020	0,093
-74,767	230,274	-0,056	0,065
-73,753	54,970	0,136	0,093
-72,738	195,251	-0,128	-0,137
-71,724	800,000	-0,085	-0,192
-70,709	171,783	0,131	-0,133
-69,694	187,194	-0,061	-0,064
-68,680	-200,000	-0,006	-0,022
-67,665	-103,622	0,051	0,008
-66,651	216,622	0,090	0,101
-65,636	800,000	0,051	0,132
-64,622	800,000	0,035	-0,085
-63,607	-80,072	-0,070	-0,017
-62,592	292,081	0,059	0,076
-61,578	455,010	0,065	0,103
-60,563	648,456	0,055	0,100
-59,549	383,026	-0,072	0,104
-58,534	65,144	-2,060	-1,467
-57,519	485,987	-1,118	-1,805
-56,505	-200,000	-0,474	-4,479
-55,490	672,069	0,887	1,630
-54,476	800,000	5,326	11,603
-53,461	-200,000	22,476	346,681
-52,446	800,000	756,940	2293,449
-51,432	533,943	1643,234	2757,099
-50,417	68,036	1642,098	1183,938
-49,403	15,704	1519,587	840,466
-48,388	9,901	1445,641	771,699
-47,373	19,277	1438,281	812,404
-46,359	13,406	1426,776	778,177
-45,344	8,244	1422,768	751,553
-44,330	8,151	1420,805	750,050
-43,315	8,105	1419,195	748,950
-42,300	8,161	1417,185	748,128
-41,286	8,179	1415,972	747,539
-40,271	8,197	1414,646	746,893
-39,257	8,187	1413,594	746,261
-38,242	8,154	1412,551	745,526
-37,227	8,159	1411,500	744,965
-36,213	8,155	1410,193	744,228
-35,198	8,161	1408,713	743,448
-34,184	8,191	1407,955	743,156
-33,169	8,110	1406,717	742,093
-32,154	8,185	1405,664	741,863
-31,140	8,153	1404,383	741,005
-30,125	8,168	1403,364	740,509
-29,111	8,156	1402,159	739,786
-28,096	8,104	1401,217	739,021
-27,082	8,056	1399,783	738,008
-26,067	8,093	1398,665	737,564
-25,052	8,044	1397,786	736,840
-24,038	8,090	1396,660	736,432
-23,023	8,035	1395,894	735,744
-22,009	8,056	1394,661	735,165
-20,994	8,071	1393,633	734,660
-19,979	8,069	1392,787	734,176
-18,965	8,047	1391,846	733,549
-17,950	8,015	1390,745	732,792
-16,936	7,998	1390,044	732,315
-15,921	7,998	1389,040	731,759
-14,906	7,998	1388,020	731,190
-13,892	8,026	1387,068	730,791
-12,877	8,019	1386,313	730,332
-11,863	7,978	1385,456	729,663
-10,848	7,993	1384,606	729,256
-9,833	7,932	1383,630	728,428
-8,819	7,929	1382,842	727,972
-7,804	7,924	1381,811	727,376
-6,790	7,899	1380,999	726,805
-5,775	7,892	1379,985	726,214
-4,760	7,914	1378,904	725,714
-3,746	7,954	1377,927	725,354
-2,731	7,924	1377,112	724,760
-1,717	7,917	1376,305	724,276
-0,702	7,896	1374,700	723,305
0,313	11,849	1284,863	693,945
1,327	27,436	676,928	400,332
2,342	42,993	116,363	74,670
3,356	-1,458	16,663	8,258
4,371	-2,064	3,933	1,941
5,386	-3,969	1,298	0,632
6,400	332,094	0,383	0,522
7,415	77,550	-0,177	-0,133
8,429	246,258	-0,195	-0,232
9,444	111,800	-0,172	-0,146
10,459	64,776	-0,333	-0,236
11,473	265,354	-0,247	-0,304
12,488	-86,783	-0,188	-0,040
13,502	-79,506	-0,217	-0,051
14,517	-18,026	-0,295	-0,130
15,531	47,990	-0,265	-0,174
16,546	34,478	-0,351	-0,215
17,561	164,926	-0,396	-0,394
18,575	251,455	-0,088	-0,106
19,590	142,909	-0,182	-0,170
20,604	-161,978	-0,436	-0,015
21,619	104,924	-0,388	-0,322
22,634	78,171	-0,430	-0,323
23,648	208,814	-0,308	-0,339
24,663	127,368	-0,317	-0,283
25,677	68,860	-0,318	-0,229
26,692	-52,352	-0,389	-0,126
27,707	16,123	-0,329	-0,182
28,721	276,223	-0,384	-0,481
29,736	183,217	-0,335	-0,349
30,750	77,841	-0,431	-0,323
31,765	65,225	-0,434	-0,308
32,780	33,636	-0,343	-0,209
33,794	45,536	-0,343	-0,222
34,809	-47,713	-0,439	-0,149
35,823	124,474	-0,292	-0,258
36,838	-19,698	-0,420	-0,182
37,853	106,595	-0,339	-0,283
38,867	-0,223	-0,448	-0,223
39,882	123,623	-0,284	-0,251
40,896	540,940	-0,170	-0,285
41,911	23,011	-0,293	-0,169
42,926	168,683	-0,279	-0,280
43,940	96,736	-0,393	-0,316
44,955	21,983	-0,377	-0,215
45,969	-11,658	-0,249	-0,114
46,984	119,415	-0,266	-0,231
47,999	28,035	-0,340	-0,201
49,013	215,115	-0,193	-0,216
50,028	34,392	-0,423	-0,259
51,042	1,611	-0,294	-0,148
52,057	21,496	-0,412	-0,235
53,071	-24,418	-0,355	-0,148
54,086	20,291	-0,320	-0,181
55,101	-7,970	-0,363	-0,171
56,115	41,841	-0,312	-0,198
57,130	15,491	-0,271	-0,149
58,144	42,874	-0,369	-0,235
59,159	99,505	-0,462	-0,375
60,174	79,281	-0,350	-0,263
61,188	160,707	-0,237	-0,232
62,203	119,562	-0,273	-0,237
63,217	6,196	-0,325	-0,169
64,232	-72,134	-0,353	-0,091
65,247	65,815	-0,332	-0,235
66,261	21,203	-0,504	-0,286
67,276	213,080	-0,336	-0,372
68,290	306,364	-0,216	-0,282
69,305	153,285	-0,283	-0,272
70,320	138,243	-0,172	-0,158
71,334	17,905	-0,292	-0,162
72,349	3,785	-0,277	-0,141
73,363	100,409	-0,325	-0,265
74,378	24,247	-0,491	-0,283
75,393	272,189	-0,164	-0,204
76,407	11,500	-0,326	-0,175
77,422	83,546	-0,295	-0,225
78,436	-58,492	-0,261	-0,079
79,451	16,508	-0,199	-0,110
80,466	29,868	-0,409	-0,243
81,480	140,739	-0,240	-0,222
82,495	-48,401	-0,282	-0,095
83,509	257,161	-0,161	-0,194
84,524	47,291	-0,282	-0,184
85,539	30,402	-0,243	-0,145
86,553	-75,500	-0,214	-0,053
87,568	131,752	-0,293	-0,263
88,582	84,264	-0,247	-0,189
89,597	44,807	-0,404	-0,259
90,611	585,481	-0,083	-0,143
91,626	41,715	-0,263	-0,166
92,641	48,092	-0,310	-0,203
93,655	-30,320	-0,322	-0,127
94,670	26,831	-0,286	-0,167
95,684	121,142	-0,363	-0,316
96,699	-1,490	-0,209	-0,102
97,714	30,179	-0,239	-0,142
98,728	94,300	-0,312	-0,248
99,743	-9,218	-0,228	-0,106
100,757	-24,192	-0,298	-0,124
101,772	158,935	-0,220	-0,214
102,787	181,707	-0,178	-0,183
103,801	30,834	-0,348	-0,208
104,816	-65,578	-0,255	-0,071
105,830	531,025	-0,134	-0,223
106,845	315,279	-0,128	-0,169
107,860	67,278	-0,247	-0,176
108,874	108,111	-0,280	-0,233
109,889	24,012	-0,241	-0,138
110,903	-25,492	-0,323	-0,132
111,918	800,000	-0,109	-0,246
112,933	-15,936	-0,138	-0,061
113,947	374,973	-0,158	-0,225
114,962	221,972	-0,179	-0,201
115,976	200,767	-0,184	-0,197
116,991	39,093	-0,276	-0,172
118,006	45,880	-0,394	-0,254
119,020	60,110	-0,183	-0,126
120,035	800,000	-0,114	-0,240
121,049	-8,965	-0,320	-0,149
122,064	5,582	-0,310	-0,159
123,079	-120,818	-0,239	0,028
124,093	475,361	-0,145	-0,230
125,108	-7,341	-0,317	-0,149
126,122	-200,000	-0,048	-0,156
127,137	39,117	-0,245	-0,152
128,151	54,851	-0,230	-0,154
129,166	38,914	-0,272	-0,169
130,181	328,264	-0,194	-0,260
131,195	282,061	-0,147	-0,184
132,210	98,701	-0,243	-0,195
133,224	121,405	-0,168	-0,146
134,239	229,394	-0,234	-0,267
135,254	288,765	-0,115	-0,146
136,268	68,863	-0,252	-0,180
137,283	-171,495	-0,310	-0,007
138,297	-167,954	-0,187	0,005
139,312	100,003	-0,270	-0,218
140,327	101,560	-0,248	-0,201
141,341	0,361	-0,302	-0,150
142,356	-25,405	-0,231	-0,095
143,370	63,930	-0,351	-0,245
144,385	81,550	-0,208	-0,157
145,400	102,880	-0,316	-0,258
146,414	104,737	-0,304	-0,250
147,429	494,476	-0,174	-0,279
148,443	-41,896	-0,197	-0,070
149,458	40,008	-0,218	-0,136
150,473	-7,080	-0,183	-0,086
151,487	-23,576	-0,221	-0,092
152,502	209,316	-0,153	-0,167
153,516	-1,064	-0,370	-0,181
154,531	-89,527	-0,220	-0,045
155,546	34,769	-0,156	-0,095
156,560	-0,868	-0,245	-0,120
157,575	115,376	-0,166	-0,141
158,589	800,000	-0,092	-0,271
159,604	94,427	-0,274	-0,216
160,619	17,251	-0,232	-0,128
161,633	274,641	-0,245	-0,302
162,648	82,755	-0,322	-0,243
163,662	74,465	-0,150	-0,110
164,677	198,121	-0,184	-0,196
165,692	55,282	-0,280	-0,188
166,706	83,380	-0,260	-0,197
167,721	39,204	-0,258	-0,160
168,735	131,021	-0,215	-0,192
169,750	-6,060	-0,176	-0,083
170,764	800,000	-0,093	-0,201
171,779	-104,589	-0,287	-0,045
172,794	-76,541	-0,190	0,046
173,808	231,961	-0,161	-0,184
174,823	-200,000	-0,003	-0,313
175,837	599,440	-0,062	-0,108
176,852	262,731	-0,226	-0,273
177,867	83,478	-0,155	-0,117
178,881	-16,010	-0,188	-0,082
179,896	78,126	-0,178	-0,132
180,910	77,178	-0,312	-0,230
181,925	800,000	-0,136	-0,285
182,940	61,129	-0,284	-0,196
183,954	18,452	-0,306	-0,169
184,969	-138,866	-0,271	-0,020
185,983	800,000	-0,055	-0,140
186,998	103,189	-0,136	-0,111
188,013	-81,080	-0,206	-0,047
189,027	109,035	-0,174	-0,145
190,042	17,191	-0,186	-0,102
191,056	-83,108	-0,213	-0,047
192,071	-43,022	-0,190	-0,067
193,086	41,774	-0,155	-0,097
194,100	321,830	-0,121	-0,160
195,115	288,911	-0,104	-0,131
196,129	114,378	-0,189	-0,160
197,144	393,962	-0,121	-0,176
198,159	99,366	-0,268	-0,215
199,173	-36,817	-0,158	-0,058
200,188	510,896	-0,098	-0,159
201,202	-84,217	-0,228	-0,050
202,217	89,704	-0,254	-0,196
203,232	-62,236	-0,186	-0,053
204,246	179,214	-0,186	-0,189
205,261	111,745	-0,337	-0,282
206,275	138,631	-0,062	-0,056
207,290	335,161	-0,129	-0,173
208,304	-95,119	-0,134	-0,025
209,319	8,479	-0,284	-0,148
210,334	-22,767	-0,259	-0,108
211,348	208,236	-0,218	-0,236
212,363	99,169	-0,164	-0,131
213,377	800,000	-0,147	-0,334
214,392	800,000	-0,107	-0,209
215,407	3,029	-0,230	-0,115
216,421	-114,160	-0,177	-0,023
217,436	77,091	-0,155	-0,114
218,450	-63,672	-0,225	-0,063
219,465	297,127	-0,199	-0,253
220,480	468,953	-0,147	-0,229
221,494	120,038	-0,111	-0,095
222,509	-105,416	-0,250	-0,039
223,523	-86,924	-0,218	-0,046
224,538	800,000	-0,080	-0,179
225,553	-54,261	-0,193	-0,060
226,567	114,432	-0,137	-0,115
227,582	-146,064	-0,136	-0,008
228,596	178,623	-0,201	-0,203
229,611	121,744	-0,192	-0,166
230,626	-18,174	-0,122	-0,053
231,640	239,131	-0,164	-0,188
232,655	88,957	-0,215	-0,165
233,669	111,792	-0,189	-0,158
234,684	50,055	-0,218	-0,142
235,699	147,047	-0,211	-0,196
236,713	-101,865	-0,205	0,034
237,728	-36,184	-0,115	-0,043
238,742	8,842	-0,157	-0,082
239,757	217,077	-0,106	-0,116
240,772	129,117	-0,177	-0,156
241,786	-118,160	-0,209	-0,025
242,801	41,638	-0,239	-0,149
243,815	-63,006	-0,186	-0,053
244,830	60,807	-0,107	-0,073
245,844	-35,978	-0,252	-0,094
246,859	121,805	-0,291	-0,251
247,874	-84,205	-0,204	-0,044
248,888	379,806	-0,106	-0,150
249,903	34,729	-0,181	-0,109
250,917	83,292	-0,131	-0,098
251,932	211,635	-0,173	-0,188
252,947	63,895	-0,133	-0,092
253,961	35,457	-0,159	-0,096
254,976	173,012	-0,230	-0,228
255,990	79,781	-0,222	-0,164
257,005	365,834	-0,093	-0,130
258,020	-182,681	-0,041	-0,001
259,034	44,865	-0,138	-0,087
260,049	250,417	-0,195	-0,229
261,063	32,149	-0,281	-0,167
262,078	139,391	-0,181	-0,164
263,093	-41,822	-0,250	-0,088
264,107	-90,921	-0,153	0,030
265,122	-200,000	-0,026	-0,084
266,136	576,593	-0,087	-0,146
267,151	166,627	-0,097	-0,095
268,166	92,095	-0,114	-0,089
269,180	-91,811	-0,210	-0,041
270,195	-10,311	-0,153	0,070
271,209	266,331	-0,072	-0,087
272,224	479,203	-0,167	-0,261
273,239	-76,509	-0,209	-0,050
274,253	668,685	-0,116	-0,207
275,268	-48,185	-0,195	-0,064
276,282	34,887	-0,253	-0,152
277,297	13,287	-0,184	-0,098
278,312	142,437	-0,183	-0,168
279,326	147,960	-0,168	-0,156
280,341	24,974	-0,073	0,042
281,355	-47,283	-0,178	-0,059
282,370	211,608	-0,124	-0,135
283,384	526,935	-0,145	-0,236
284,399	-151,370	-0,134	0,007
285,414	800,000	-0,058	-0,119
286,428	76,524	-0,205	-0,149
287,443	748,956	-0,014	0,027
288,457	-102,799	-0,140	-0,023
289,472	60,708	-0,157	-0,107
290,487	656,629	-0,208	-0,369
291,501	101,367	-0,189	-0,151
292,516	787,909	-0,126	-0,238
293,530	568,296	-0,110	-0,185
294,545	-200,000	-0,020	-0,076
295,560	36,514	-0,177	0,107
296,574	-50,140	-0,228	-0,074
297,589	-54,166	-0,248	-0,077
298,603	115,280	-0,262	-0,220
299,618	61,169	-0,215	-0,146
300,633	44,338	-0,167	-0,105
301,647	5,957	-0,160	-0,081
302,662	-56,416	-0,187	-0,057
303,676	-200,000	-0,004	-0,065
304,691	139,859	-0,166	-0,150
305,706	245,134	-0,146	-0,169
306,720	5,755	-0,120	-0,061
307,735	-182,598	-0,026	0,000
308,749	-26,699	-0,087	-0,035
309,764	73,444	-0,023	-0,017
310,779	-43,304	-0,140	-0,048
311,793	-19,469	-0,225	-0,095
312,808	-48,703	-0,170	-0,056
313,822	51,126	-0,107	-0,069
314,837	361,259	-0,132	-0,181
315,852	-86,660	-0,105	-0,022
316,866	-116,837	-0,114	-0,014
317,881	0,646	-0,007	0,003
318,895	150,954	-0,165	-0,154
319,910	604,160	-0,134	-0,229
320,925	407,998	-0,136	-0,198
321,939	800,000	-0,120	-0,245
322,954	-18,854	-0,170	-0,072
323,968	386,716	-0,041	-0,059
324,983	149,727	-0,170	-0,158
325,997	-68,616	-0,161	-0,043
327,012	1,415	-0,173	-0,085
328,027	244,310	-0,175	-0,202
329,041	468,674	-0,108	-0,167
330,056	-58,142	-0,012	0,004
331,070	623,732	-0,029	-0,050
332,085	70,549	-0,092	-0,065
333,100	-43,582	-0,140	-0,048
334,114	-157,790	-0,098	-0,004
335,129	-200,000	-0,044	-0,304
336,143	125,996	0,075	-0,065
337,158	-105,966	-0,161	-0,025
338,173	-200,000	-0,015	0,086
339,187	800,000	0,011	-0,020
340,202	153,198	-0,225	-0,211
341,216	131,419	-0,165	-0,145
342,231	56,010	-0,234	-0,155
343,246	800,000	-0,076	-0,185
344,260	-45,350	-0,144	-0,049
345,275	800,000	-0,063	-0,155
346,289	194,597	-0,107	-0,111
347,304	430,325	-0,166	-0,247
348,319	-200,000	-0,013	-0,137
349,333	-143,367	-0,128	0,008
350,348	198,931	-0,161	-0,169
351,362	800,000	0,045	-0,096
352,377	-200,000	0,002	0,094
353,392	59,233	-0,124	-0,083
354,406	-147,801	-0,257	0,014
355,421	205,114	1311,756	1393,639
356,435	157,689	1472,068	1394,084
