DTS Sentinel unit serial number:	SN410029Multiplexer serial number:	ORYXHardware model number:	OX2-SRSoftware version number:	ORYX F/W v4,00 Oryx Data Collector v3.7.2.0data status	okinstallation	B3 Nyhavnadifferential loss correction	single-endedforward channel	channel 1reverse channel	N/Adate	2023/12/02time	19:32:30forward acquisition time	300,00reverse acquisition time	0,00gamma	499,1914k internal	0,3200k external	0,3200temperature offset calibration	1,0000default loss term (dB/km)	0,3820temperature slope calibration	1,0000multiplexer offset coefficient	1,0000multiplexer slope coefficient	1,0000fibre end	0,00T internal ref (°C)	13,37T ext. ref 1 (°C)	-1,88T ext. ref 2 (°C)	-1,90length (m)	temperature (°C)	Stokes	anti-Stokes-744,400	270,738	-0,172	-0,221
-743,385	-200,000	0,032	0,258
-742,371	115,450	-0,328	-0,292
-741,356	509,671	0,208	0,353
-740,342	800,000	-0,051	-0,127
-739,327	-200,000	-0,037	0,249
-738,312	49,875	-0,299	-0,204
-737,298	800,000	0,088	0,232
-736,283	90,807	-0,119	-0,097
-735,269	-200,000	-0,018	0,309
-734,254	-42,789	-0,266	-0,098
-733,239	800,000	-0,073	0,215
-732,225	-200,000	-0,015	-0,189
-731,210	5,377	0,085	0,045
-730,196	65,291	0,067	-0,049
-729,181	-200,000	-0,007	-0,079
-728,167	-65,051	-0,107	-0,031
-727,152	-200,000	0,007	-0,038
-726,137	-13,077	0,074	-0,035
-725,123	-164,133	-0,023	0,001
-724,108	-91,391	-0,110	-0,023
-723,094	-200,000	-0,033	-0,156
-722,079	14,301	0,134	-0,076
-721,064	-167,687	-0,061	0,002
-720,050	164,462	-0,050	0,051
-719,035	-200,000	-0,014	-0,095
-718,021	-107,776	0,039	-0,006
-717,006	-200,000	-0,011	-0,125
-715,991	-3,652	-0,185	-0,093
-714,977	732,079	0,085	-0,166
-713,962	-152,034	-0,114	-0,006
-712,948	-200,000	-0,024	-0,113
-711,933	-200,000	-0,022	0,098
-710,918	-5,519	-0,064	0,032
-709,904	-200,000	-0,006	0,085
-708,889	-200,000	-0,011	0,155
-707,875	423,414	-0,001	0,001
-706,860	70,227	0,158	0,119
-705,845	30,984	-0,065	0,040
-704,831	66,480	0,081	-0,060
-703,816	225,762	-0,041	-0,049
-702,802	-200,000	0,034	0,000
-701,787	405,558	-0,048	-0,073
-700,772	-37,967	-0,028	0,011
-699,758	-200,000	0,004	-0,168
-698,743	599,114	-0,055	0,100
-697,729	-200,000	0,007	-0,085
-696,714	800,000	-0,015	0,045
-695,699	302,837	0,021	-0,028
-694,685	157,454	0,034	-0,034
-693,670	800,000	-0,057	-0,163
-692,656	-200,000	-0,017	-0,115
-691,641	800,000	-0,028	0,076
-690,627	-12,240	-0,108	-0,051
-689,612	-71,145	-0,099	0,027
-688,597	-154,302	0,150	0,007
-687,583	71,766	-0,159	-0,120
-686,568	-124,758	-0,013	0,001
-685,554	-49,706	0,113	-0,039
-684,539	91,445	-0,009	-0,007
-683,524	-200,000	-0,043	-0,154
-682,510	179,344	0,037	0,039
-681,495	-200,000	-0,024	0,128
-680,481	-200,000	-0,029	-0,096
-679,466	-71,461	0,033	-0,009
-678,451	0,895	0,034	0,018
-677,437	800,000	0,056	0,123
-676,422	800,000	-0,039	-0,096
-675,408	-200,000	0,022	0,085
-674,393	208,239	-0,058	-0,066
-673,378	-101,345	0,033	-0,006
-672,364	-101,286	-0,123	0,022
-671,349	-29,414	-0,095	-0,039
-670,335	-200,000	0,001	-0,045
-669,320	95,460	0,086	-0,071
-668,305	-148,277	0,053	0,003
-667,291	389,093	-0,032	0,048
-666,276	353,799	-0,131	-0,189
-665,262	379,756	-0,054	-0,081
-664,247	-117,284	-0,044	0,006
-663,232	-200,000	0,008	0,132
-662,218	-103,070	0,076	0,013
-661,203	594,985	-0,018	0,032
-660,189	-104,255	-0,029	0,005
-659,174	-200,000	0,003	0,015
-658,159	-44,524	-0,076	-0,027
-657,145	19,158	0,055	-0,032
-656,130	-200,000	-0,014	-0,115
-655,116	-5,320	-0,091	0,045
-654,101	174,639	-0,029	-0,030
-653,086	120,397	0,048	0,043
-652,072	185,640	0,085	-0,092
-651,057	800,000	-0,096	-0,262
-650,043	396,033	-0,064	-0,097
-649,028	-200,000	0,009	0,093
-648,014	800,000	-0,006	0,014
-646,999	-200,000	-0,005	-0,124
-645,984	-95,605	0,076	-0,015
-644,970	-42,173	0,217	-0,080
-643,955	485,196	0,050	-0,083
-642,941	-200,000	0,007	-0,159
-641,926	530,538	0,063	-0,109
-640,911	376,531	-0,042	0,063
-639,897	-61,308	0,131	-0,040
-638,882	-200,000	-0,018	0,065
-637,868	800,000	-0,045	-0,114
-636,853	120,940	-0,091	-0,082
-635,838	-200,000	-0,012	-0,041
-634,824	-200,000	-0,022	-0,138
-633,809	-87,023	-0,110	-0,024
-632,795	-3,657	0,069	-0,034
-631,780	-81,614	0,086	0,020
-630,765	96,554	0,070	-0,058
-629,751	-8,687	0,018	-0,009
-628,736	310,231	0,086	0,117
-627,722	-66,152	-0,107	-0,031
-626,707	-200,000	0,017	-0,061
-625,692	-200,000	0,009	-0,117
-624,678	80,306	-0,085	0,066
-623,663	800,000	0,023	0,053
-622,649	-55,868	-0,123	0,039
-621,634	282,019	0,049	-0,064
-620,619	-67,372	-0,092	0,026
-619,605	379,818	-0,024	0,036
-618,590	-25,252	0,055	-0,024
-617,576	13,469	-0,024	0,013
-616,561	-200,000	-0,048	-0,180
-615,546	-41,571	-0,103	0,038
-614,532	229,000	-0,125	-0,148
-613,517	529,783	0,056	0,096
-612,503	-100,666	-0,036	0,006
-611,488	144,257	0,075	0,072
-610,474	-200,000	0,031	0,141
-609,459	-200,000	-0,008	0,068
-608,444	-28,560	-0,156	0,065
-607,430	-135,698	-0,172	0,015
-606,415	800,000	-0,037	-0,086
-605,401	106,787	0,083	-0,071
-604,386	88,159	0,082	-0,066
-603,371	-86,013	-0,077	0,017
-602,357	-200,000	0,002	0,105
-601,342	-0,758	-0,090	-0,046
-600,328	33,027	-0,076	-0,048
-599,313	800,000	-0,017	0,046
-598,298	-89,427	-0,131	-0,028
-597,284	-200,000	0,021	-0,142
-596,269	67,594	0,016	0,012
-595,255	-25,727	0,146	0,062
-594,240	73,702	-0,092	-0,070
-593,225	800,000	-0,037	-0,115
-592,211	-13,283	-0,075	-0,035
-591,196	-84,443	-0,117	-0,027
-590,182	621,171	0,051	0,092
-589,167	-68,808	0,170	0,047
-588,152	800,000	-0,010	0,032
-587,138	65,137	0,100	0,073
-586,123	-200,000	0,007	-0,027
-585,109	800,000	-0,036	-0,084
-584,094	-158,936	-0,062	0,002
-583,079	46,070	-0,089	-0,060
-582,065	-26,564	-0,178	0,075
-581,050	-200,000	-0,003	-0,024
-580,036	-200,000	-0,019	-0,115
-579,021	-85,240	-0,088	0,020
-578,006	-200,000	-0,005	-0,058
-576,992	148,212	0,046	0,045
-575,977	292,665	-0,031	-0,041
-574,963	76,771	0,115	0,088
-573,948	-19,505	0,047	-0,021
-572,934	-42,113	-0,081	0,030
-571,919	49,940	-0,077	0,053
-570,904	156,849	-0,089	-0,088
-569,890	667,096	-0,032	0,060
-568,875	235,035	0,093	0,111
-567,861	116,869	0,079	0,070
-566,846	-53,000	-0,079	-0,026
-565,831	458,816	0,060	-0,097
-564,817	-200,000	0,002	0,022
-563,802	372,036	-0,040	-0,059
-562,788	225,323	-0,126	-0,148
-561,773	-139,148	0,148	0,011
-560,758	11,555	-0,045	-0,025
-559,744	137,968	0,089	-0,084
-558,729	-45,208	-0,014	0,005
-557,715	693,567	0,043	-0,081
-556,700	155,690	0,053	-0,052
-555,685	322,078	-0,106	-0,146
-554,671	124,338	0,078	-0,071
-553,656	88,495	-0,038	0,031
-552,642	-200,000	0,156	-0,000
-551,627	42,346	-0,038	-0,025
-550,612	-111,949	0,040	-0,006
-549,598	229,012	-0,073	0,086
-548,583	-25,611	0,041	-0,017
-547,569	40,875	-0,020	0,013
-546,554	779,648	0,064	0,126
-545,539	268,014	0,075	0,096
-544,525	197,008	-0,081	0,089
-543,510	-130,411	0,121	0,012
-542,496	38,902	0,092	-0,060
-541,481	-200,000	0,024	-0,156
-540,466	-69,593	0,122	-0,033
-539,452	-19,233	-0,051	-0,023
-538,437	-200,000	0,016	0,060
-537,423	29,762	0,083	-0,051
-536,408	15,324	-0,129	-0,073
-535,393	-200,000	-0,004	-0,035
-534,379	-6,855	0,021	0,010
-533,364	-97,826	-0,132	-0,024
-532,350	390,936	0,034	-0,051
-531,335	-22,874	-0,108	-0,047
-530,321	551,913	0,045	0,079
-529,306	270,650	0,057	0,073
-528,291	-200,000	-0,006	0,051
-527,277	800,000	-0,023	-0,073
-526,262	47,437	-0,046	-0,031
-525,248	34,992	0,065	0,041
-524,233	800,000	-0,006	0,014
-523,218	355,155	0,027	-0,039
-522,204	-200,000	0,038	-0,133
-521,189	-66,088	-0,152	0,043
-520,175	-23,318	0,053	0,023
-519,160	800,000	-0,055	-0,134
-518,145	27,743	0,091	0,055
-517,131	75,641	0,046	0,035
-516,116	317,268	-0,035	0,048
-515,102	256,233	-0,049	0,060
-514,087	-54,705	-0,148	0,048
-513,072	-38,918	-0,085	-0,032
-512,058	-6,959	0,108	-0,053
-511,043	18,095	0,093	-0,053
-510,029	93,160	0,079	-0,064
-509,014	139,045	0,113	0,107
-507,999	197,714	-0,084	0,092
-506,985	314,050	-0,076	-0,103
-505,970	-200,000	0,003	-0,024
-504,956	241,032	0,061	-0,073
-503,941	-200,000	0,022	-0,073
-502,926	28,001	0,040	0,024
-501,912	-40,188	0,073	0,027
-500,897	101,216	0,054	0,046
-499,883	-52,128	0,126	-0,042
-498,868	-63,092	-0,116	-0,034
-497,853	4,008	0,046	0,024
-496,839	800,000	-0,020	0,061
-495,824	-200,000	0,001	-0,089
-494,810	800,000	-0,033	0,099
-493,795	-34,987	-0,131	-0,051
-492,781	-200,000	0,002	0,009
-491,766	-18,702	0,109	0,049
-490,751	-4,758	0,048	0,024
-489,737	-174,245	0,037	-0,001
-488,722	182,250	0,030	-0,032
-487,708	-51,578	0,111	0,037
-486,693	-200,000	-0,032	0,105
-485,678	-200,000	-0,006	-0,072
-484,664	-30,785	-0,052	0,021
-483,649	-112,994	-0,025	-0,004
-482,635	510,953	0,034	-0,057
-481,620	344,594	-0,037	-0,053
-480,605	-23,728	0,134	0,057
-479,591	64,282	0,057	0,041
-478,576	-200,000	0,009	-0,039
-477,562	-200,000	-0,033	0,106
-476,547	99,261	-0,052	0,043
-475,532	134,870	0,149	0,139
-474,518	65,138	0,021	0,015
-473,503	73,707	0,098	0,074
-472,489	-200,000	-0,012	0,052
-471,474	-134,715	0,053	-0,005
-470,459	108,931	-0,089	-0,076
-469,445	-29,290	-0,141	0,058
-468,430	365,605	-0,035	0,051
-467,416	-200,000	-0,028	0,213
-466,401	96,314	0,089	0,073
-465,386	175,838	-0,056	-0,058
-464,372	336,157	-0,057	-0,079
-463,357	-200,000	-0,015	-0,111
-462,343	-200,000	-0,022	-0,136
-461,328	-163,183	0,064	-0,002
-460,313	-200,000	-0,002	0,049
-459,299	111,818	0,061	-0,053
-458,284	2,698	0,064	0,033
-457,270	800,000	0,050	-0,133
-456,255	-103,884	-0,133	-0,022
-455,241	-117,313	-0,096	-0,012
-454,226	-200,000	-0,002	-0,124
-453,211	-200,000	0,039	0,130
-452,197	69,901	-0,014	0,010
-451,182	301,511	0,109	-0,145
-450,168	-200,000	-0,024	-0,114
-449,153	-57,392	0,021	-0,006
-448,138	89,338	-0,128	0,103
-447,124	-82,984	0,068	0,016
-446,109	-136,025	-0,019	-0,002
-445,095	51,966	-0,037	-0,026
-444,080	-0,519	-0,061	0,031
-443,065	-65,163	0,070	0,020
-442,051	186,922	-0,051	-0,055
-441,036	-142,046	0,060	-0,004
-440,022	55,057	-0,037	0,026
-439,007	206,802	-0,033	0,037
-437,992	-152,891	0,112	-0,006
-436,978	196,804	-0,046	-0,050
-435,963	-200,000	-0,020	0,131
-434,949	373,878	-0,037	0,054
-433,934	54,490	-0,049	0,034
-432,919	-200,000	0,004	-0,176
-431,905	-200,000	-0,032	-0,123
-430,890	800,000	0,006	0,013
-429,876	-200,000	0,001	0,107
-428,861	393,570	0,011	0,017
-427,846	100,422	0,111	0,093
-426,832	635,332	-0,037	0,069
-425,817	800,000	-0,056	-0,149
-424,803	175,732	0,032	-0,033
-423,788	-200,000	-0,042	0,147
-422,773	-73,271	0,168	0,044
-421,759	-200,000	-0,018	0,080
-420,744	800,000	0,048	-0,129
-419,730	-200,000	0,033	-0,141
-418,715	-200,000	-0,035	-0,133
-417,701	125,060	0,071	0,064
-416,686	259,805	-0,021	-0,026
-415,671	800,000	0,046	0,114
-414,657	128,942	0,030	0,028
-413,642	-62,405	0,061	-0,018
-412,628	-71,658	-0,119	-0,032
-411,613	-64,762	-0,025	0,007
-410,598	-47,003	-0,149	-0,052
-409,584	-200,000	-0,032	-0,103
-408,569	-155,589	-0,036	-0,002
-407,555	-200,000	-0,008	0,088
-406,540	-200,000	0,029	-0,128
-405,525	147,570	-0,028	-0,028
-404,511	-29,637	0,054	0,022
-403,496	7,670	0,078	0,042
-402,482	-88,940	0,076	0,016
-401,467	109,074	-0,053	0,045
-400,452	-200,000	-0,019	0,133
-399,438	0,037	-0,091	-0,046
-398,423	120,143	-0,033	0,030
-397,409	-84,880	0,028	0,006
-396,394	-160,201	-0,043	-0,002
-395,379	-200,000	-0,019	-0,079
-394,365	800,000	0,055	0,129
-393,350	391,821	0,007	0,010
-392,336	-132,119	0,060	-0,006
-391,321	331,866	-0,066	0,091
-390,306	-64,318	-0,055	-0,016
-389,292	-138,365	0,076	0,006
-388,277	20,093	-0,069	-0,040
-387,263	790,641	-0,044	0,086
-386,248	419,881	-0,053	0,082
-385,233	-200,000	-0,008	-0,071
-384,219	24,320	-0,007	-0,004
-383,204	365,450	0,117	-0,170
-382,190	23,117	-0,076	-0,045
-381,175	-43,522	0,090	0,032
-380,160	41,921	0,064	0,041
-379,146	60,561	-0,025	-0,018
-378,131	-72,318	-0,106	-0,028
-377,117	85,026	-0,066	0,052
-376,102	172,382	-0,127	-0,131
-375,088	37,964	0,098	-0,062
-374,073	115,073	-0,062	-0,054
-373,058	41,599	0,118	-0,076
-372,044	-200,000	-0,006	0,117
-371,029	-99,948	0,189	-0,033
-370,015	-200,000	-0,018	-0,084
-369,000	61,215	-0,186	-0,132
-367,985	-200,000	-0,001	-0,096
-366,971	247,582	-0,042	-0,051
-365,956	-200,000	0,023	0,106
-364,942	502,390	0,049	0,082
-363,927	2,170	0,112	0,058
-362,912	-200,000	0,001	0,096
-361,898	13,670	-0,006	0,003
-360,883	800,000	-0,023	0,061
-359,869	18,656	0,093	0,053
-358,854	-200,000	-0,002	0,035
-357,839	800,000	-0,025	-0,067
-356,825	-200,000	-0,006	-0,046
-355,810	432,345	0,095	0,148
-354,796	224,839	-0,049	-0,056
-353,781	8,399	-0,141	0,076
-352,766	800,000	-0,084	-0,171
-351,752	-10,871	0,006	-0,003
-350,737	-200,000	0,018	0,062
-349,723	-142,104	-0,017	-0,001
-348,708	-48,964	0,077	0,026
-347,693	37,324	-0,154	0,097
-346,679	10,022	-0,119	0,065
-345,664	-200,000	-0,009	0,107
-344,650	-148,783	0,046	0,003
-343,635	-200,000	-0,033	-0,168
-342,620	183,419	0,079	0,084
-341,606	800,000	-0,015	0,040
-340,591	800,000	-0,035	-0,071
-339,577	800,000	-0,036	-0,094
-338,562	323,923	0,044	-0,060
-337,548	-130,635	0,042	-0,004
-336,533	223,608	-0,057	0,066
-335,518	800,000	-0,047	0,130
-334,504	800,000	-0,019	0,038
-333,489	686,033	0,064	0,121
-332,475	-200,000	-0,012	-0,123
-331,460	190,358	0,099	-0,106
-330,445	133,024	0,039	0,036
-329,431	126,316	0,074	0,067
-328,416	-42,877	0,211	0,076
-327,402	-1,578	0,032	0,016
-326,387	-200,000	-0,001	0,041
-325,372	-200,000	-0,022	-0,162
-324,358	-200,000	-0,002	0,075
-323,343	-105,376	-0,073	0,012
-322,329	150,675	0,047	-0,046
-321,314	-35,812	0,051	0,020
-320,299	-200,000	0,009	0,171
-319,285	-3,552	-0,051	0,025
-318,270	86,043	-0,059	0,047
-317,256	49,176	-0,104	0,070
-316,241	-109,914	-0,038	0,006
-315,226	800,000	0,017	0,038
-314,212	-200,000	0,007	0,050
-313,197	177,697	0,031	0,033
-312,183	18,878	0,082	0,047
-311,168	204,465	-0,085	0,095
-310,153	17,141	0,092	-0,052
-309,139	325,375	-0,062	-0,085
-308,124	422,555	0,058	-0,090
-307,110	800,000	0,016	-0,038
-306,095	21,333	0,105	0,061
-305,080	-200,000	-0,004	0,065
-304,066	514,716	-0,019	0,031
-303,051	800,000	0,020	-0,060
-302,037	-144,641	0,092	0,006
-301,022	-200,000	-0,005	-0,018
-300,008	-200,000	0,013	-0,045
-298,993	800,000	0,014	0,041
-297,978	-46,162	-0,037	0,013
-296,964	67,909	-0,040	0,029
-295,949	-143,993	0,109	-0,007
-294,935	-200,000	0,019	-0,095
-293,920	104,545	0,120	-0,101
-292,905	-200,000	-0,001	-0,118
-291,891	278,152	0,113	-0,144
-290,876	-79,557	-0,123	0,029
-289,862	-137,894	0,211	0,017
-288,847	-200,000	0,010	0,046
-287,832	118,319	-0,080	-0,070
-286,818	388,631	0,076	-0,113
-285,803	-148,575	0,158	0,009
-284,789	-200,000	-0,002	0,061
-283,774	52,010	0,071	0,048
-282,759	618,570	-0,020	0,037
-281,745	-22,108	-0,094	-0,041
-280,730	-200,000	0,009	-0,051
-279,716	-200,000	0,014	-0,069
-278,701	708,245	0,041	0,078
-277,686	-200,000	-0,009	0,073
-276,672	-63,975	0,116	0,034
-275,657	800,000	-0,019	0,058
-274,643	181,477	0,085	-0,090
-273,628	-200,000	0,012	-0,064
-272,613	-89,211	0,237	0,049
-271,599	-200,000	-0,042	0,136
-270,584	90,636	0,194	0,155
-269,570	800,000	0,070	0,161
-268,555	-200,000	0,006	-0,021
-267,540	-93,457	0,061	-0,012
-266,526	-200,000	-0,040	-0,127
-265,511	-106,673	0,119	0,019
-264,497	-133,155	0,026	-0,002
-263,482	800,000	0,062	-0,131
-262,467	72,990	0,112	0,083
-261,453	-200,000	-0,027	0,173
-260,438	-64,817	-0,117	-0,034
-259,424	404,120	-0,095	0,143
-258,409	800,000	0,013	0,029
-257,395	-102,790	0,083	0,014
-256,380	-106,600	0,097	0,015
-255,365	132,084	0,060	-0,055
-254,351	-200,000	0,024	0,093
-253,336	53,348	-0,076	0,052
-252,322	308,507	-0,082	-0,110
-251,307	-80,033	0,124	-0,029
-250,292	800,000	-0,011	-0,025
-249,278	71,939	-0,018	-0,013
-248,263	562,226	0,103	-0,178
-247,249	212,692	-0,059	0,067
-246,234	-82,080	-0,132	0,031
-245,219	-110,782	0,082	0,012
-244,205	800,000	0,037	-0,073
-243,190	-200,000	-0,017	-0,092
-242,176	-14,501	0,053	0,024
-241,161	175,574	0,057	0,059
-240,146	-200,000	-0,051	0,177
-239,132	-200,000	-0,032	0,147
-238,117	-200,000	0,008	0,071
-237,103	-113,826	-0,039	0,005
-236,088	383,230	-0,090	-0,133
-235,073	-200,000	0,006	0,044
-234,059	456,071	0,086	0,136
-233,044	-200,000	-0,046	0,158
-232,030	-143,580	-0,069	0,005
-231,015	635,613	-0,063	-0,114
-230,000	703,795	-0,031	0,058
-228,986	55,030	-0,049	-0,034
-227,971	-200,000	-0,030	0,196
-226,957	-200,000	-0,002	0,116
-225,942	-200,000	0,004	-0,033
-224,927	-200,000	0,005	0,053
-223,913	-12,205	-0,079	-0,037
-222,898	-70,179	-0,182	0,049
-221,884	425,372	-0,021	-0,033
-220,869	203,061	0,007	-0,007
-219,855	-39,888	-0,092	-0,034
-218,840	-200,000	0,004	0,095
-217,825	-200,000	0,002	-0,092
-216,811	344,423	-0,028	-0,039
-215,796	245,775	-0,065	-0,079
-214,782	200,245	0,068	0,075
-213,767	461,471	-0,032	0,052
-212,752	29,104	-0,057	0,035
-211,738	207,498	-0,078	0,087
-210,723	-200,000	-0,006	0,051
-209,709	-55,964	0,056	-0,018
-208,694	-68,569	-0,080	0,022
-207,679	-37,922	0,069	0,026
-206,665	-200,000	-0,019	0,183
-205,650	-200,000	0,018	0,083
-204,636	-5,030	0,019	-0,009
-203,621	72,926	-0,054	0,040
-202,606	800,000	-0,046	-0,140
-201,592	-25,804	-0,079	0,033
-200,577	-135,662	-0,019	-0,002
-199,563	194,658	-0,063	-0,068
-198,548	533,036	0,031	0,052
-197,533	320,964	-0,073	0,099
-196,519	311,898	0,030	0,040
-195,504	266,068	0,043	-0,054
-194,490	-54,217	0,034	-0,011
-193,475	-53,497	-0,068	0,022
-192,460	165,544	-0,055	0,055
-191,446	-91,209	0,053	0,011
-190,431	800,000	0,024	0,056
-189,417	-200,000	0,009	0,059
-188,402	189,680	-0,073	-0,078
-187,387	-200,000	-0,009	-0,089
-186,373	321,446	-0,039	-0,053
-185,358	178,783	-0,087	-0,091
-184,344	47,546	-0,117	0,078
-183,329	304,240	-0,045	0,059
-182,315	159,025	-0,056	0,055
-181,300	-186,913	-0,034	-0,000
-180,285	-200,000	-0,005	-0,056
-179,271	800,000	-0,015	-0,033
-178,256	-21,130	-0,117	-0,051
-177,242	-200,000	0,016	0,078
-176,227	-200,000	-0,004	0,031
-175,212	361,097	0,098	-0,140
-174,198	49,472	-0,155	-0,103
-173,183	-177,745	-0,078	-0,001
-172,169	141,964	0,139	-0,131
-171,154	-144,914	-0,208	-0,013
-170,139	-200,000	-0,006	-0,123
-169,125	685,525	0,092	0,172
-168,110	-60,665	0,052	0,015
-167,096	23,110	-0,035	0,020
-166,081	-200,000	-0,030	-0,096
-165,066	-200,000	-0,009	-0,152
-164,052	-176,199	-0,082	-0,001
-163,037	-200,000	0,004	0,095
-162,023	800,000	0,042	0,123
-161,008	166,014	-0,032	0,033
-159,993	-128,785	0,116	-0,011
-158,979	195,745	-0,118	-0,128
-157,964	800,000	0,062	-0,133
-156,950	-61,320	-0,140	0,042
-155,935	84,215	0,081	0,063
-154,920	800,000	-0,041	0,104
-153,906	-146,826	0,093	-0,006
-152,891	-200,000	-0,002	0,023
-151,877	-200,000	0,002	0,008
-150,862	-200,000	0,006	-0,051
-149,847	-200,000	0,022	-0,080
-148,833	800,000	0,026	0,056
-147,818	-96,683	0,160	-0,030
-146,804	-200,000	-0,001	0,069
-145,789	33,359	0,056	-0,035
-144,775	14,495	-0,037	0,020
-143,760	27,881	-0,078	-0,047
-142,745	-120,777	-0,034	0,004
-141,731	800,000	-0,026	0,059
-140,716	-200,000	-0,003	0,028
-139,702	-200,000	0,016	0,219
-138,687	13,092	-0,161	0,088
-137,672	800,000	-0,012	-0,036
-136,658	-67,686	0,032	0,009
-135,643	-200,000	-0,011	-0,034
-134,629	-200,000	0,016	0,202
-133,614	-158,920	0,134	0,005
-132,599	508,174	-0,076	0,126
-131,585	-155,784	0,104	0,005
-130,570	800,000	-0,011	-0,034
-129,556	795,652	-0,034	-0,067
-128,541	-53,795	-0,095	-0,030
-127,526	800,000	0,021	-0,055
-126,512	41,150	0,040	-0,026
-125,497	-119,990	-0,122	0,015
-124,483	-96,107	0,106	-0,020
-123,468	-101,202	0,127	0,022
-122,453	-12,017	-0,136	0,063
-121,439	467,233	0,032	0,052
-120,424	-200,000	-0,002	-0,141
-119,410	218,336	-0,050	-0,057
-118,395	-102,231	0,170	0,029
-117,380	800,000	-0,063	0,126
-116,366	-46,172	0,062	0,022
-115,351	-46,744	0,138	0,048
-114,337	175,247	-0,049	-0,050
-113,322	800,000	0,021	0,057
-112,307	-31,428	0,091	-0,036
-111,293	595,334	0,043	0,075
-110,278	-200,000	0,017	0,120
-109,264	150,064	-0,159	0,153
-108,249	-200,000	-0,029	0,102
-107,234	-200,000	0,016	0,151
-106,220	800,000	-0,080	0,187
-105,205	10,701	0,017	0,009
-104,191	26,907	0,126	-0,075
-103,176	800,000	-0,022	0,047
-102,162	800,000	0,042	0,089
-101,147	-18,537	-0,142	-0,063
-100,132	274,537	-0,035	-0,044
-99,118	-50,527	-0,093	-0,031
-98,103	800,000	-0,022	-0,062
-97,089	800,000	-0,040	0,078
-96,074	215,122	0,081	-0,091
-95,059	-200,000	0,005	-0,023
-94,045	800,000	0,033	-0,094
-93,030	-9,839	-0,075	0,035
-92,016	608,075	-0,045	0,080
-91,001	293,224	0,113	-0,147
-89,986	-153,204	0,080	-0,004
-88,972	-78,542	-0,029	-0,007
-87,957	132,600	-0,016	-0,015
-86,943	-200,000	-0,021	0,092
-85,928	-42,945	0,056	0,020
-84,913	-200,000	0,037	-0,140
-83,899	313,847	0,053	0,071
-82,884	216,445	0,048	-0,054
-81,870	109,766	0,051	0,043
-80,855	800,000	-0,043	-0,089
-79,840	52,862	-0,063	-0,042
-78,826	-113,758	0,028	-0,004
-77,811	800,000	0,020	-0,060
-76,797	-20,939	0,058	0,025
-75,782	57,954	0,108	0,075
-74,767	-72,364	-0,032	0,008
-73,753	111,399	-0,070	-0,060
-72,738	-200,000	0,006	0,086
-71,724	-200,000	0,014	0,060
-70,709	-200,000	-0,013	-0,112
-69,694	391,272	-0,051	-0,076
-68,680	4,642	0,064	-0,033
-67,665	280,225	0,148	-0,188
-66,651	-89,418	0,078	0,016
-65,636	106,777	0,027	-0,023
-64,622	-200,000	-0,009	0,174
-63,607	800,000	-0,078	-0,165
-62,592	23,707	-0,039	0,023
-61,578	-105,572	0,047	-0,007
-60,563	800,000	0,040	0,091
-59,549	304,993	0,082	0,108
-58,534	-11,239	-1,663	-0,773
-57,519	341,423	-1,490	-2,068
-56,505	-200,000	-0,539	-4,602
-55,490	198,168	0,860	0,932
-54,476	800,000	4,943	11,292
-53,461	-200,000	19,094	319,452
-52,446	-200,000	740,004	2334,210
-51,432	573,392	1655,345	2869,316
-50,417	78,438	1671,189	1262,918
-49,403	21,363	1544,093	886,149
-48,388	15,195	1466,792	811,781
-47,373	17,959	1456,699	819,523
-46,359	16,725	1446,649	807,920
-45,344	13,539	1441,775	789,901
-44,330	13,403	1440,014	788,255
-43,315	13,415	1438,375	787,385
-42,300	13,447	1436,628	786,548
-41,286	13,480	1435,378	785,993
-40,271	13,430	1433,994	784,965
-39,257	13,425	1432,753	784,230
-38,242	13,444	1431,673	783,699
-37,227	13,438	1430,211	782,838
-36,213	13,477	1428,889	782,267
-35,198	13,468	1427,718	781,552
-34,184	13,478	1426,875	781,107
-33,169	13,458	1425,329	780,135
-32,154	13,512	1424,342	779,822
-31,140	13,486	1423,049	778,960
-30,125	13,494	1421,953	778,365
-29,111	13,473	1420,969	777,698
-28,096	13,467	1419,720	776,956
-27,082	13,397	1418,748	776,061
-26,067	13,419	1417,342	775,366
-25,052	13,401	1416,613	774,852
-24,038	13,361	1415,726	774,147
-23,023	13,422	1414,325	773,635
-22,009	13,388	1413,376	772,929
-20,994	13,389	1412,539	772,445
-19,979	13,335	1411,822	771,768
-18,965	13,365	1410,855	771,347
-17,950	13,328	1410,078	770,718
-16,936	13,319	1409,014	770,064
-15,921	13,288	1407,731	769,187
-14,906	13,318	1406,821	768,802
-13,892	13,354	1405,917	768,447
-12,877	13,351	1405,120	767,964
-11,863	13,308	1404,106	767,180
-10,848	13,350	1403,396	766,955
-9,833	13,288	1402,305	766,040
-8,819	13,226	1401,611	765,343
-7,804	13,224	1400,738	764,828
-6,790	13,231	1399,690	764,256
-5,775	13,221	1398,514	763,537
-4,760	13,264	1397,475	763,139
-3,746	13,218	1396,710	762,479
-2,731	13,206	1395,994	762,000
-1,717	13,200	1395,081	761,446
-0,702	13,176	1393,180	760,268
0,313	16,976	1310,284	732,653
1,327	33,093	704,384	431,150
2,342	51,329	123,338	82,730
3,356	1,900	16,715	8,503
4,371	10,344	3,199	1,718
5,386	-16,556	0,621	0,277
6,400	-200,000	0,002	0,204
7,415	700,187	-0,113	-0,210
8,429	-2,167	-0,209	-0,104
9,444	31,935	-0,368	-0,224
10,459	53,530	-0,059	-0,040
11,473	7,538	-0,218	-0,115
12,488	-54,817	-0,384	-0,122
13,502	89,052	-0,249	-0,196
14,517	13,884	-0,359	-0,197
15,531	187,589	-0,269	-0,285
16,546	84,779	-0,262	-0,203
17,561	-22,078	-0,489	-0,209
18,575	224,535	-0,177	-0,202
19,590	209,782	-0,221	-0,246
20,604	-145,703	-0,181	-0,011
21,619	136,720	-0,536	-0,495
22,634	92,712	-0,445	-0,355
23,648	68,674	-0,303	-0,220
24,663	-14,463	-0,320	-0,145
25,677	211,209	-0,373	-0,415
26,692	119,013	-0,304	-0,265
27,707	91,978	-0,364	-0,289
28,721	-17,581	-0,397	-0,175
29,736	196,214	-0,335	-0,360
30,750	214,974	-0,296	-0,332
31,765	195,276	-0,342	-0,367
32,780	113,252	-0,345	-0,295
33,794	617,597	-0,166	-0,296
34,809	25,958	-0,333	-0,195
35,823	14,114	-0,395	-0,216
36,838	119,904	-0,359	-0,314
37,853	-34,489	-0,388	-0,149
38,867	149,417	-0,318	-0,304
39,882	62,484	-0,386	-0,272
40,896	302,773	-0,224	-0,293
41,911	58,009	-0,222	-0,153
42,926	71,530	-0,362	-0,265
43,940	80,018	-0,296	-0,224
44,955	52,233	-0,479	-0,321
45,969	51,624	-0,459	-0,307
46,984	47,663	-0,347	-0,228
47,999	-0,734	-0,328	-0,163
49,013	67,326	-0,251	-0,180
50,028	42,676	-0,291	-0,186
51,042	161,402	-0,349	-0,344
52,057	289,932	-0,179	-0,229
53,071	148,930	-0,285	-0,271
54,086	-63,541	-0,292	-0,084
55,101	96,132	-0,332	-0,267
56,115	-73,826	-0,324	-0,082
57,130	43,157	-0,357	-0,229
58,144	82,177	-0,379	-0,289
59,159	176,813	-0,348	-0,357
60,174	96,219	-0,352	-0,283
61,188	155,127	-0,331	-0,321
62,203	198,514	-0,276	-0,298
63,217	202,643	-0,315	-0,343
64,232	158,929	-0,284	-0,278
65,247	245,957	-0,293	-0,348
66,261	-67,610	-0,377	-0,103
67,276	-0,984	-0,428	-0,212
68,290	16,331	-0,397	-0,220
69,305	554,127	-0,199	-0,338
70,320	106,124	-0,345	-0,287
71,334	128,645	-0,255	-0,229
72,349	-47,654	-0,294	-0,100
73,363	-21,086	-0,344	-0,147
74,378	135,478	-0,330	-0,302
75,393	-32,243	-0,332	-0,130
76,407	28,044	-0,199	-0,118
77,422	158,986	-0,198	-0,194
78,436	51,694	-0,182	-0,122
79,451	197,118	-0,196	-0,211
80,466	189,652	-0,208	-0,220
81,480	-3,080	-0,424	-0,207
82,495	-41,000	-0,354	-0,128
83,509	164,643	-0,271	-0,268
84,524	-33,531	-0,253	-0,098
85,539	-21,292	-0,351	-0,150
86,553	6,191	-0,285	-0,148
87,568	58,862	-0,302	-0,208
88,582	-24,680	-0,319	-0,133
89,597	61,755	-0,285	-0,199
90,611	-152,828	-0,285	0,014
91,626	88,331	-0,303	-0,236
92,641	113,931	-0,228	-0,194
93,655	-18,061	-0,244	-0,107
94,670	140,158	-0,361	-0,334
95,684	229,778	-0,252	-0,290
96,699	85,485	-0,294	-0,227
97,714	94,516	-0,259	-0,206
98,728	44,594	-0,207	-0,133
99,743	-11,065	-0,353	-0,163
100,757	-39,280	-0,234	-0,086
101,772	800,000	-0,106	-0,269
102,787	142,883	-0,318	-0,296
103,801	151,499	-0,238	-0,227
104,816	-78,880	-0,338	-0,080
105,830	30,939	-0,329	-0,197
106,845	323,725	-0,216	-0,290
107,860	-8,199	-0,379	-0,178
108,874	79,609	-0,281	-0,211
109,889	-27,857	-0,280	-0,113
110,903	24,178	-0,321	-0,185
111,918	10,820	-0,273	-0,146
112,933	7,828	-0,330	-0,173
113,947	0,145	-0,277	-0,138
114,962	346,691	-0,186	-0,258
115,976	800,000	-0,176	-0,408
116,991	17,030	-0,363	-0,201
118,006	-79,800	-0,312	-0,073
119,020	28,376	-0,364	-0,215
120,035	-50,132	-0,381	-0,126
121,049	70,570	-0,204	-0,148
122,064	-79,999	-0,227	-0,053
123,079	-0,695	-0,358	-0,177
124,093	398,125	-0,176	-0,258
125,108	31,569	-0,299	-0,179
126,122	-51,030	-0,214	-0,070
127,137	800,000	-0,107	-0,232
128,151	-12,218	-0,220	-0,101
129,166	-156,968	-0,185	-0,008
130,181	140,515	-0,172	-0,159
131,195	176,380	-0,198	-0,201
132,210	52,795	-0,351	-0,234
133,224	100,349	-0,195	-0,158
134,239	-55,469	-0,282	-0,088
135,254	369,646	-0,138	-0,197
136,268	43,588	-0,103	-0,066
137,283	-10,415	-0,294	-0,136
138,297	10,104	-0,314	-0,166
139,312	-91,551	-0,371	-0,073
140,327	98,641	-0,218	-0,175
141,341	229,962	-0,199	-0,227
142,356	495,478	-0,088	-0,142
143,370	244,858	-0,162	-0,191
144,385	106,544	-0,254	-0,210
145,400	-19,433	-0,228	-0,098
146,414	-2,941	-0,278	-0,135
147,429	74,671	-0,193	-0,142
148,443	385,814	-0,128	-0,186
149,458	9,729	-0,205	-0,108
150,473	-47,656	-0,305	-0,103
151,487	800,000	-0,051	-0,125
152,502	-6,974	-0,242	-0,114
153,516	136,898	-0,153	-0,139
154,531	244,045	-0,226	-0,265
155,546	221,837	-0,127	-0,143
156,560	-29,746	-0,184	-0,073
157,575	-49,272	-0,174	-0,058
158,589	84,849	-0,244	-0,186
159,604	1,374	-0,258	-0,129
160,619	142,416	-0,272	-0,252
161,633	252,700	-0,204	-0,244
162,648	7,651	-0,272	-0,142
163,662	508,883	-0,165	-0,269
164,677	192,880	-0,215	-0,226
165,692	26,380	-0,276	-0,161
166,706	172,158	-0,230	-0,231
167,721	13,125	-0,176	-0,095
168,735	-44,253	-0,327	-0,114
169,750	110,528	-0,241	-0,202
170,764	131,040	-0,129	-0,116
171,779	-7,626	-0,191	-0,090
172,794	256,770	-0,122	-0,146
173,808	189,798	-0,137	-0,144
174,823	-116,795	-0,269	0,034
175,837	134,957	-0,245	-0,222
176,852	75,640	-0,203	-0,149
177,867	156,467	-0,207	-0,200
178,881	-129,464	-0,190	-0,018
179,896	-102,976	-0,145	-0,024
180,910	7,856	-0,344	-0,179
181,925	116,492	-0,172	-0,147
182,940	557,620	-0,176	-0,296
183,954	92,616	-0,280	-0,220
184,969	109,550	-0,214	-0,178
185,983	220,083	-0,133	-0,149
186,998	193,159	-0,123	-0,130
188,013	205,827	-0,185	-0,200
189,027	184,835	-0,242	-0,250
190,042	353,209	-0,120	-0,166
191,056	52,110	-0,162	-0,107
192,071	47,779	-0,194	-0,126
193,086	66,954	-0,185	-0,131
194,100	53,214	-0,124	-0,083
195,115	234,364	-0,216	-0,248
196,129	81,794	-0,223	-0,168
197,144	-70,256	-0,156	-0,041
198,159	-200,000	-0,049	-0,303
199,173	-46,691	-0,138	-0,047
200,188	38,773	-0,284	-0,176
201,202	65,395	-0,197	-0,138
202,217	266,812	-0,189	-0,230
203,232	140,294	-0,136	-0,125
204,246	192,100	-0,218	-0,229
205,261	4,563	-0,282	-0,143
206,275	275,864	-0,160	-0,198
207,290	800,000	-0,103	-0,229
208,304	189,908	-0,183	-0,191
209,319	140,698	-0,084	-0,077
210,334	299,946	-0,196	-0,251
211,348	-200,000	-0,072	-0,287
212,363	141,090	-0,185	-0,170
213,377	313,226	-0,258	-0,337
214,392	348,916	-0,090	-0,124
215,407	-15,374	-0,118	-0,052
216,421	13,286	-0,229	-0,123
217,436	-2,392	-0,228	-0,111
218,450	188,443	-0,227	-0,236
219,465	97,987	-0,246	-0,196
220,480	120,905	-0,227	-0,196
221,494	123,805	-0,126	-0,109
222,509	368,268	-0,126	-0,178
223,523	200,783	-0,138	-0,147
224,538	-200,000	-0,042	-0,197
225,553	99,797	-0,107	-0,086
226,567	340,648	-0,130	-0,176
227,582	49,170	-0,243	-0,158
228,596	52,704	0,081	-0,053
229,611	-28,217	-0,197	-0,078
230,626	-172,279	-0,095	-0,002
231,640	800,000	-0,032	-0,074
232,655	-89,611	-0,310	-0,063
233,669	-34,742	-0,239	-0,090
234,684	-30,436	-0,211	-0,083
235,699	570,145	-0,087	-0,147
236,713	-61,514	-0,219	-0,063
237,728	0,147	-0,157	-0,077
238,742	-24,083	-0,239	-0,099
239,757	209,476	-0,160	-0,174
240,772	8,297	-0,175	-0,091
241,786	184,768	-0,156	-0,160
242,801	-197,830	-0,082	-0,000
243,815	-60,055	-0,198	-0,058
244,830	-200,000	-0,072	-0,242
245,844	130,233	-0,195	-0,173
246,859	-3,812	-0,165	-0,079
247,874	800,000	-0,100	-0,223
248,888	48,370	-0,247	-0,160
249,903	-37,887	-0,253	-0,093
250,917	-171,219	-0,156	0,004
251,932	800,000	-0,046	-0,123
252,947	375,584	-0,064	-0,090
253,961	12,845	-0,147	-0,078
254,976	388,716	-0,138	-0,198
255,990	40,723	-0,230	-0,143
257,005	153,190	-0,195	-0,185
258,020	245,212	-0,145	-0,169
259,034	87,566	-0,110	-0,084
260,049	78,683	-0,137	-0,101
261,063	33,833	-0,222	-0,134
262,078	74,682	-0,200	-0,145
263,093	-27,172	-0,149	-0,060
264,107	306,035	-0,194	-0,250
265,122	-200,000	-0,009	-0,092
266,136	683,693	-0,082	-0,149
267,151	70,695	-0,212	-0,152
268,166	-45,970	-0,090	0,030
269,180	174,801	-0,171	-0,172
270,195	16,036	-0,260	-0,141
271,209	800,000	-0,077	-0,183
272,224	238,861	-0,105	-0,120
273,239	4,389	-0,083	-0,042
274,253	10,810	-0,288	-0,151
275,268	646,349	-0,121	-0,214
276,282	102,938	-0,197	-0,159
277,297	108,662	-0,215	-0,177
278,312	29,137	-0,239	-0,140
279,326	-73,712	-0,180	-0,045
280,341	83,615	-0,197	-0,148
281,355	12,005	-0,153	-0,081
282,370	-85,953	-0,083	-0,018
283,384	545,803	-0,062	-0,103
284,399	209,360	-0,192	-0,208
285,414	-24,481	-0,128	-0,052
286,428	223,281	-0,152	-0,169
287,443	-56,746	-0,195	-0,059
288,457	645,722	-0,140	-0,248
289,472	381,809	-0,147	-0,208
290,487	-39,408	-0,297	-0,107
291,501	-117,804	-0,172	-0,021
292,516	-134,008	-0,163	-0,014
293,530	293,525	-0,189	-0,238
294,545	-13,781	-0,199	-0,088
295,560	-89,079	-0,098	-0,020
296,574	150,817	-0,144	-0,135
297,589	340,453	-0,108	-0,146
298,603	183,372	-0,141	-0,144
299,618	-200,000	-0,031	-0,153
300,633	-37,425	-0,145	-0,053
301,647	155,957	-0,150	-0,142
302,662	129,014	-0,158	-0,139
303,676	-104,335	-0,217	-0,034
304,691	162,141	-0,122	-0,118
305,706	59,252	-0,158	-0,107
306,720	101,330	-0,118	-0,095
307,735	-108,346	-0,097	-0,014
308,749	-157,028	-0,142	0,006
309,764	615,847	-0,043	-0,074
310,779	49,002	-0,204	-0,132
311,793	118,315	-0,125	-0,106
312,808	251,612	-0,085	-0,100
313,822	-200,000	0,001	-0,087
314,837	278,268	-0,144	-0,177
315,852	-19,263	-0,139	-0,059
316,866	236,584	-0,087	-0,100
317,881	-73,169	-0,216	-0,054
318,895	172,116	-0,135	-0,134
319,910	-16,632	-0,195	-0,085
320,925	15,306	-0,060	-0,032
321,939	449,608	-0,051	-0,077
322,954	165,375	-0,058	-0,056
323,968	-42,054	-0,074	0,026
324,983	-117,603	-0,128	-0,016
325,997	156,916	-0,159	-0,151
327,012	23,321	-0,127	-0,072
328,027	-78,650	-0,145	0,034
329,041	368,425	-0,035	-0,049
330,056	19,861	-0,160	-0,088
331,070	72,096	-0,079	0,056
332,085	688,736	-0,046	-0,082
333,100	-49,715	-0,184	0,060
334,114	59,034	-0,232	-0,157
335,129	147,523	-0,099	-0,092
336,143	432,442	-0,089	-0,132
337,158	161,005	-0,102	-0,098
338,173	36,462	-0,169	0,102
339,187	-200,000	0,002	-0,042
340,202	4,044	-0,132	0,066
341,216	79,007	-0,051	-0,037
342,231	-62,324	-0,173	-0,049
343,246	-16,052	-0,078	-0,034
344,260	182,209	-0,186	-0,188
345,275	26,473	-0,218	-0,125
346,289	-192,597	-0,104	0,001
347,304	-200,000	0,005	-0,242
348,319	477,100	-0,089	-0,139
349,333	-115,526	-0,120	-0,015
350,348	169,575	-0,171	-0,168
351,362	118,952	-0,192	-0,163
352,377	-200,000	-0,044	0,197
353,392	-23,009	-0,143	-0,059
354,406	-129,932	-0,108	0,010
355,421	208,094	1311,109	1407,220
356,435	160,102	1471,393	1407,706
