DTS Sentinel unit serial number:	SN410029Multiplexer serial number:	ORYXHardware model number:	OX2-SRSoftware version number:	ORYX F/W v4,00 Oryx Data Collector v3.7.2.0data status	okinstallation	B3 Nyhavnadifferential loss correction	single-endedforward channel	channel 1reverse channel	N/Adate	2023/11/30time	03:22:30forward acquisition time	300,00reverse acquisition time	0,00gamma	499,1914k internal	0,3210k external	0,3210temperature offset calibration	1,0000default loss term (dB/km)	0,3820temperature slope calibration	1,0000multiplexer offset coefficient	1,0000multiplexer slope coefficient	1,0000fibre end	0,00T internal ref (°C)	10,21T ext. ref 1 (°C)	-5,43T ext. ref 2 (°C)	-5,55length (m)	temperature (°C)	Stokes	anti-Stokes-744,400	800,000	-0,104	-0,235
-743,385	-200,000	-0,052	0,231
-742,371	-143,415	-0,193	0,013
-741,356	-200,000	0,089	0,294
-740,342	245,063	-0,099	-0,121
-739,327	800,000	-0,110	0,312
-738,312	-10,600	-0,111	-0,053
-737,298	-200,000	-0,065	0,466
-736,283	603,495	-0,176	-0,319
-735,269	-200,000	-0,017	0,256
-734,254	681,651	-0,130	-0,246
-733,239	25,034	-0,238	0,143
-732,225	-55,886	-0,212	-0,068
-731,210	-200,000	-0,015	0,082
-730,196	-80,896	-0,098	0,023
-729,181	118,802	-0,071	0,064
-728,167	-95,268	0,070	-0,014
-727,152	-43,983	-0,038	-0,014
-726,137	24,947	-0,100	-0,060
-725,123	-200,000	-0,016	0,057
-724,108	37,224	0,080	-0,051
-723,094	-200,000	-0,022	-0,141
-722,079	800,000	-0,036	0,075
-721,064	536,219	-0,070	-0,121
-720,050	800,000	-0,027	-0,083
-719,035	56,998	0,117	0,083
-718,021	73,954	-0,047	-0,036
-717,006	402,625	-0,015	-0,022
-715,991	800,000	0,039	-0,085
-714,977	-97,695	0,222	-0,041
-713,962	352,969	-0,023	0,034
-712,948	413,622	0,015	0,022
-711,933	-152,989	-0,037	0,002
-710,918	-200,000	-0,009	-0,033
-709,904	-200,000	-0,093	0,000
-708,889	-92,495	0,087	-0,018
-707,875	-81,598	-0,138	-0,032
-706,860	-21,589	-0,151	0,066
-705,845	-200,000	0,053	0,183
-704,831	-174,077	-0,116	0,002
-703,816	800,000	-0,008	0,021
-702,802	-122,868	0,137	0,016
-701,787	48,670	-0,205	-0,139
-700,772	-200,000	-0,024	-0,087
-699,758	-3,773	0,104	-0,052
-698,743	124,234	0,019	-0,017
-697,729	800,000	0,008	0,023
-696,714	800,000	0,060	0,184
-695,699	-45,387	0,086	-0,031
-694,685	-200,000	-0,027	-0,102
-693,670	800,000	0,030	-0,080
-692,656	12,658	-0,089	-0,050
-691,641	-59,254	0,081	0,025
-690,627	377,492	0,051	0,076
-689,612	79,671	-0,098	-0,076
-688,597	-200,000	0,004	0,115
-687,583	-200,000	0,000	-0,139
-686,568	72,008	0,034	-0,026
-685,554	43,946	-0,038	0,025
-684,539	517,995	-0,050	0,086
-683,524	309,551	0,085	0,115
-682,510	530,423	0,050	0,085
-681,495	379,677	-0,031	0,047
-680,481	-200,000	0,000	-0,043
-679,466	156,360	-0,057	-0,057
-678,451	-72,748	0,145	-0,038
-677,437	167,136	-0,037	-0,038
-676,422	-200,000	-0,003	-0,042
-675,408	-200,000	-0,030	0,112
-674,393	18,393	-0,077	-0,044
-673,378	800,000	0,052	-0,117
-672,364	-200,000	0,002	-0,143
-671,349	-200,000	-0,035	0,197
-670,335	-46,852	0,110	0,039
-669,320	-94,110	0,034	-0,007
-668,305	-200,000	-0,022	0,107
-667,291	-200,000	-0,014	-0,050
-666,276	-66,668	0,043	-0,012
-665,262	800,000	-0,066	-0,140
-664,247	329,965	0,060	0,084
-663,232	-81,553	0,067	-0,016
-662,218	-114,752	-0,079	-0,011
-661,203	800,000	-0,113	0,255
-660,189	800,000	-0,046	0,119
-659,174	-109,318	-0,130	-0,020
-658,159	-107,551	-0,039	-0,006
-657,145	800,000	0,073	0,148
-656,130	124,838	-0,024	0,022
-655,116	-200,000	-0,003	-0,035
-654,101	-200,000	0,008	-0,064
-653,086	81,154	0,131	0,102
-652,072	800,000	-0,043	0,103
-651,057	-100,936	-0,146	0,026
-650,043	-116,350	-0,092	0,012
-649,028	-200,000	0,001	0,018
-648,014	296,960	0,025	0,033
-646,999	-1,504	0,090	-0,046
-645,984	36,656	-0,127	-0,081
-644,970	800,000	-0,017	-0,044
-643,955	-118,537	-0,089	0,011
-642,941	-18,430	0,146	-0,066
-641,926	781,512	-0,015	-0,030
-640,911	-178,867	0,127	-0,002
-639,897	19,116	0,138	-0,080
-638,882	-200,000	0,008	0,040
-637,868	685,917	0,032	-0,060
-636,853	496,940	0,048	-0,080
-635,838	800,000	0,087	-0,249
-634,824	800,000	0,066	-0,191
-633,809	-15,410	-0,192	0,088
-632,795	656,170	-0,010	0,018
-631,780	-89,778	0,124	0,026
-630,765	-200,000	0,004	0,098
-629,751	570,465	-0,114	0,201
-628,736	496,108	-0,055	-0,092
-627,722	-200,000	-0,032	-0,147
-626,707	-145,521	-0,092	0,006
-625,692	-14,245	0,082	-0,038
-624,678	-200,000	0,016	0,114
-623,663	512,786	-0,051	0,087
-622,649	605,229	-0,061	-0,111
-621,634	-114,062	0,069	-0,009
-620,619	-95,316	-0,021	-0,004
-619,605	-200,000	0,002	-0,031
-618,590	-78,998	0,126	0,031
-617,576	-129,168	-0,076	-0,008
-616,561	-141,801	0,050	-0,004
-615,546	-89,162	-0,094	0,020
-614,532	-1,252	-0,148	0,075
-613,517	-43,786	-0,151	0,054
-612,503	-119,187	0,031	0,004
-611,488	-47,834	-0,095	0,033
-610,474	229,189	0,047	-0,055
-609,459	604,273	-0,061	-0,110
-608,444	154,039	-0,038	-0,038
-607,430	177,806	-0,038	-0,040
-606,415	-68,383	0,139	-0,039
-605,401	127,752	0,053	-0,049
-604,386	42,414	-0,022	-0,014
-603,371	800,000	0,033	0,102
-602,357	86,301	-0,137	-0,109
-601,342	25,021	-0,050	-0,030
-600,328	677,998	-0,068	-0,128
-599,313	248,156	-0,054	0,067
-598,298	67,685	0,078	0,057
-597,284	654,801	-0,025	0,046
-596,269	242,789	-0,026	0,032
-595,255	-200,000	-0,004	0,090
-594,240	-200,000	-0,016	0,146
-593,225	-105,976	-0,144	0,023
-592,211	674,200	-0,083	-0,156
-591,196	82,567	-0,044	0,034
-590,182	800,000	0,029	0,059
-589,167	-200,000	0,039	0,152
-588,152	5,379	0,127	-0,067
-587,138	-73,796	-0,012	-0,003
-586,123	-170,490	0,036	0,001
-585,109	-200,000	-0,011	-0,069
-584,094	177,096	-0,059	-0,062
-583,079	32,297	-0,069	-0,043
-582,065	214,282	0,058	0,066
-581,050	254,302	-0,054	0,067
-580,036	80,097	0,018	-0,014
-579,021	-200,000	0,018	-0,199
-578,006	72,847	-0,044	0,033
-576,992	-69,322	-0,054	-0,015
-575,977	800,000	-0,074	0,150
-574,963	800,000	0,038	0,078
-573,948	167,295	0,043	0,044
-572,934	800,000	-0,051	-0,115
-571,919	800,000	0,034	-0,082
-570,904	-9,441	0,073	-0,035
-569,890	-200,000	-0,005	-0,023
-568,875	76,875	0,133	0,102
-567,861	-200,000	-0,024	0,091
-566,846	800,000	-0,026	0,079
-565,831	800,000	-0,036	0,082
-564,817	-5,520	-0,105	-0,052
-563,802	-200,000	0,009	0,031
-562,788	-73,512	0,041	0,011
-561,773	-68,075	-0,057	-0,016
-560,758	-200,000	-0,003	-0,089
-559,744	-200,000	0,028	-0,114
-558,729	-26,848	-0,122	0,051
-557,715	353,242	0,059	0,085
-556,700	800,000	-0,038	-0,084
-555,685	-200,000	-0,014	0,047
-554,671	800,000	-0,066	0,177
-553,656	23,796	0,078	-0,046
-552,642	-200,000	-0,025	0,148
-551,627	55,923	-0,052	0,036
-550,612	800,000	-0,024	-0,063
-549,598	-120,916	-0,033	0,004
-548,583	-200,000	-0,014	0,065
-547,569	15,053	-0,096	0,054
-546,554	-200,000	-0,016	-0,051
-545,539	-137,875	-0,135	0,011
-544,525	8,610	0,040	-0,022
-543,510	-134,363	-0,057	0,005
-542,496	702,960	0,047	-0,090
-541,481	-4,724	0,061	-0,030
-540,466	7,157	-0,022	-0,012
-539,452	-79,696	-0,032	-0,008
-538,437	308,568	0,066	-0,089
-537,423	56,821	-0,040	-0,028
-536,408	800,000	-0,025	-0,075
-535,393	800,000	0,035	-0,092
-534,379	0,276	-0,038	-0,019
-533,364	-200,000	-0,009	-0,134
-532,350	-200,000	-0,005	0,019
-531,335	-1,291	0,024	0,012
-530,321	10,221	0,081	0,044
-529,306	-82,850	-0,035	-0,008
-528,291	329,690	-0,017	-0,024
-527,277	-200,000	-0,028	-0,173
-526,262	-200,000	0,025	-0,111
-525,248	-200,000	0,001	0,099
-524,233	800,000	-0,020	0,061
-523,218	-200,000	-0,007	0,198
-522,204	143,118	0,108	-0,103
-521,189	338,427	0,082	-0,115
-520,175	4,644	0,098	-0,052
-519,160	234,590	0,067	0,080
-518,145	28,633	-0,100	0,061
-517,131	800,000	0,054	0,126
-516,116	800,000	-0,060	0,126
-515,102	124,784	-0,073	-0,067
-514,087	14,123	0,128	0,071
-513,072	-99,545	-0,169	-0,030
-512,058	-151,175	-0,126	-0,007
-511,043	800,000	-0,064	-0,137
-510,029	-200,000	-0,012	0,155
-509,014	-200,000	0,001	-0,077
-507,999	420,930	-0,065	0,100
-506,985	9,251	0,015	0,008
-505,970	210,661	-0,025	-0,028
-504,956	485,854	0,024	0,040
-503,941	-169,117	-0,104	0,003
-502,926	-43,329	0,082	0,030
-501,912	800,000	-0,012	-0,025
-500,897	605,931	0,009	0,015
-499,883	296,642	-0,079	-0,105
-498,868	-136,091	0,016	0,001
-497,853	-98,391	0,033	0,006
-496,839	29,602	0,071	-0,044
-495,824	-98,576	0,196	0,036
-494,810	-36,664	-0,118	0,045
-493,795	-200,000	0,002	-0,070
-492,781	80,144	0,080	0,062
-491,766	134,145	-0,110	-0,102
-490,751	800,000	-0,021	-0,067
-489,737	-131,929	0,077	0,007
-488,722	218,160	-0,038	-0,044
-487,708	322,594	0,040	0,054
-486,693	-200,000	0,014	0,090
-485,678	-200,000	0,022	0,072
-484,664	-200,000	0,004	-0,041
-483,649	-200,000	-0,051	-0,163
-482,635	-17,748	0,124	-0,055
-481,620	-70,086	-0,176	0,048
-480,605	-119,507	0,156	0,019
-479,591	255,165	0,060	0,074
-478,576	800,000	0,022	0,053
-477,562	-32,418	0,028	0,011
-476,547	309,855	-0,078	-0,104
-475,532	-116,344	0,069	-0,009
-474,518	800,000	0,052	0,120
-473,503	-200,000	0,004	0,021
-472,489	-200,000	-0,030	-0,163
-471,474	-200,000	-0,001	-0,123
-470,459	467,696	-0,025	-0,041
-469,445	-38,454	-0,038	0,014
-468,430	800,000	-0,010	0,028
-467,416	5,768	0,102	0,054
-466,401	-200,000	0,023	0,143
-465,386	-35,514	0,214	0,083
-464,372	-18,043	-0,129	0,058
-463,357	800,000	0,059	0,156
-462,343	800,000	-0,069	-0,142
-461,328	-44,177	-0,012	0,004
-460,313	-200,000	0,001	0,143
-459,299	-200,000	-0,028	0,117
-458,284	-200,000	0,016	-0,051
-457,270	393,418	0,071	0,107
-456,255	-112,614	-0,069	0,010
-455,241	113,115	0,090	0,078
-454,226	800,000	0,034	0,091
-453,211	-200,000	-0,007	0,067
-452,197	-200,000	-0,013	0,055
-451,182	-200,000	0,011	0,056
-450,168	790,492	-0,098	0,195
-449,153	387,841	-0,066	0,098
-448,138	384,063	-0,063	-0,094
-447,124	-200,000	0,030	-0,097
-446,109	185,099	0,094	0,100
-445,095	-28,642	0,072	-0,030
-444,080	800,000	-0,049	0,121
-443,065	164,797	-0,097	0,098
-442,051	110,859	-0,059	0,051
-441,036	-200,000	0,007	-0,120
-440,022	-90,537	-0,110	0,023
-439,007	800,000	0,023	0,071
-437,992	-150,411	-0,055	-0,003
-436,978	9,423	0,057	0,031
-435,963	466,062	-0,070	0,112
-434,949	-78,466	-0,060	0,015
-433,934	-200,000	0,002	-0,054
-432,919	-142,600	0,051	-0,004
-431,905	253,377	0,014	-0,018
-430,890	86,133	0,022	-0,018
-429,876	-200,000	0,004	-0,035
-428,861	-147,358	0,045	-0,003
-427,846	800,000	-0,007	0,022
-426,832	40,700	-0,035	-0,022
-425,817	800,000	-0,048	-0,125
-424,803	693,299	-0,008	0,015
-423,788	370,476	0,053	0,078
-422,773	-14,817	0,181	0,083
-421,759	255,890	-0,116	0,143
-420,744	800,000	0,004	-0,010
-419,730	-20,615	-0,144	-0,063
-418,715	604,148	0,027	0,049
-417,701	800,000	-0,061	-0,144
-416,686	-200,000	-0,002	-0,026
-415,671	470,391	0,036	-0,059
-414,657	-42,450	-0,042	-0,015
-413,642	-76,733	0,059	-0,015
-412,628	-200,000	0,016	-0,097
-411,613	-60,791	0,055	-0,017
-410,598	-177,063	-0,088	0,002
-409,584	-200,000	0,034	0,122
-408,569	-30,022	0,060	-0,024
-407,555	66,462	-0,093	-0,068
-406,540	-30,156	0,038	0,015
-405,525	-30,800	-0,110	-0,044
-404,511	-200,000	0,020	-0,097
-403,496	-119,928	-0,148	0,018
-402,482	48,494	-0,065	-0,043
-401,467	271,622	0,062	0,078
-400,452	16,014	-0,053	-0,030
-399,438	273,586	0,042	0,053
-398,423	484,401	0,044	-0,072
-397,409	-117,370	-0,280	-0,036
-396,394	800,000	0,034	0,083
-395,379	-1,013	0,060	-0,030
-394,365	-200,000	0,007	0,087
-393,350	-130,935	0,121	0,011
-392,336	-200,000	0,006	-0,100
-391,321	32,137	-0,071	0,043
-390,306	-200,000	-0,001	-0,086
-389,292	41,614	0,070	0,045
-388,277	-58,846	-0,113	-0,035
-387,263	800,000	-0,022	-0,070
-386,248	800,000	0,044	0,091
-385,233	88,745	0,094	0,075
-384,219	-200,000	0,011	-0,038
-383,204	326,420	-0,080	0,110
-382,190	-128,302	-0,043	0,004
-381,175	800,000	0,050	-0,107
-380,160	5,618	0,095	0,050
-379,146	-200,000	0,013	-0,053
-378,131	235,711	-0,084	0,100
-377,117	-11,500	-0,031	0,014
-376,102	393,507	0,049	-0,073
-375,088	-200,000	-0,019	-0,071
-374,073	87,763	0,168	-0,133
-373,058	561,288	0,050	0,087
-372,044	389,482	0,040	0,059
-371,029	48,044	0,028	0,018
-370,015	57,471	-0,060	-0,042
-369,000	-124,592	0,065	-0,007
-367,985	800,000	0,037	0,076
-366,971	-3,760	0,070	-0,035
-365,956	-83,283	0,096	0,022
-364,942	800,000	-0,034	0,079
-363,927	229,479	-0,033	-0,039
-362,912	-200,000	0,012	-0,072
-361,898	444,785	0,052	0,082
-360,883	-200,000	-0,013	0,065
-359,869	-50,985	-0,245	-0,082
-358,854	-200,000	-0,001	-0,076
-357,839	-73,441	0,103	0,027
-356,825	317,942	0,070	0,095
-355,810	544,000	-0,023	-0,039
-354,796	-38,878	-0,012	-0,005
-353,781	-200,000	-0,026	-0,095
-352,766	93,093	0,045	-0,036
-351,752	-48,914	0,151	-0,051
-350,737	-55,979	0,026	-0,008
-349,723	180,938	-0,108	-0,114
-348,708	126,255	0,084	0,076
-347,693	-200,000	0,016	0,109
-346,679	517,837	0,072	-0,121
-345,664	-119,302	-0,047	-0,006
-344,650	11,502	0,125	-0,068
-343,635	379,329	0,055	-0,080
-342,620	-200,000	0,056	0,189
-341,606	800,000	0,017	-0,047
-340,591	728,112	-0,036	-0,070
-339,577	-15,409	-0,020	-0,009
-338,562	-200,000	-0,011	0,040
-337,548	-200,000	-0,022	-0,153
-336,533	38,953	-0,026	0,017
-335,518	-200,000	-0,054	0,185
-334,504	-200,000	-0,004	0,045
-333,489	-24,460	-0,106	0,045
-332,475	-200,000	-0,003	-0,060
-331,460	99,498	-0,054	-0,045
-330,445	-200,000	-0,051	0,269
-329,431	40,937	0,130	0,083
-328,416	279,800	-0,061	-0,078
-327,402	-200,000	-0,047	0,165
-326,387	800,000	0,039	0,118
-325,372	12,128	-0,025	0,014
-324,358	800,000	-0,004	-0,009
-323,343	-200,000	-0,005	-0,172
-322,329	42,998	0,043	0,028
-321,314	308,233	0,087	0,117
-320,299	-63,200	0,101	0,029
-319,285	-91,648	-0,207	0,042
-318,270	800,000	-0,061	-0,132
-317,256	-140,476	-0,138	0,010
-316,241	-126,488	0,129	0,014
-315,226	-57,401	0,139	0,043
-314,212	95,326	0,083	0,067
-313,197	-108,427	-0,070	0,011
-312,183	-200,000	0,019	-0,140
-311,168	-200,000	-0,029	-0,099
-310,153	273,297	-0,099	-0,125
-309,139	432,565	-0,065	0,101
-308,124	-35,601	-0,046	0,018
-307,110	800,000	0,022	-0,056
-306,095	383,790	0,023	0,033
-305,080	116,313	0,008	0,007
-304,066	-55,215	0,032	-0,010
-303,051	-105,642	0,085	0,014
-302,037	326,739	0,009	-0,012
-301,022	-152,403	-0,059	-0,003
-300,008	144,210	0,116	-0,110
-298,993	-200,000	0,004	-0,050
-297,978	-200,000	0,017	0,112
-296,964	-10,705	-0,158	-0,074
-295,949	365,751	-0,024	-0,034
-294,935	396,571	-0,112	-0,167
-293,920	-200,000	-0,001	0,076
-292,905	28,809	0,031	0,018
-291,891	800,000	-0,097	0,197
-290,876	-200,000	0,059	0,192
-289,862	-200,000	-0,001	-0,057
-288,847	247,989	0,098	-0,118
-287,832	-133,434	-0,152	0,013
-286,818	-145,309	-0,090	-0,006
-285,803	-200,000	0,020	0,079
-284,789	320,462	0,013	-0,018
-283,774	11,273	-0,112	0,061
-282,759	233,135	-0,103	-0,121
-281,745	-167,078	-0,061	0,002
-280,730	-200,000	0,021	-0,078
-279,716	-50,891	0,194	-0,065
-278,701	279,417	-0,046	0,058
-277,686	72,056	0,158	0,117
-276,672	-200,000	-0,029	0,150
-275,657	-98,105	-0,024	-0,004
-274,643	-179,906	0,060	0,001
-273,628	353,659	-0,019	-0,027
-272,613	74,025	0,068	-0,051
-271,599	38,178	0,004	-0,003
-270,584	-167,672	0,032	0,001
-269,570	87,718	-0,124	-0,098
-268,555	800,000	0,029	0,057
-267,540	329,386	-0,104	-0,143
-266,526	-200,000	0,019	-0,102
-265,511	-200,000	-0,003	-0,109
-264,497	127,100	-0,027	0,024
-263,482	78,285	0,115	-0,087
-262,467	42,182	0,078	-0,050
-261,453	-73,293	-0,008	0,002
-260,438	324,224	-0,055	-0,074
-259,424	55,071	0,044	0,030
-258,409	-200,000	-0,018	-0,064
-257,395	-200,000	0,003	0,171
-256,380	77,209	0,099	0,075
-255,365	800,000	-0,020	-0,055
-254,351	673,791	0,016	-0,030
-253,336	-78,368	0,094	-0,023
-252,322	380,865	-0,074	-0,109
-251,307	-200,000	-0,037	-0,144
-250,292	-84,791	0,122	-0,027
-249,278	-200,000	0,025	0,091
-248,263	102,558	-0,066	-0,055
-247,249	-200,000	0,006	-0,047
-246,234	-128,690	0,079	-0,008
-245,219	-75,312	-0,058	-0,015
-244,205	-200,000	0,004	-0,027
-243,190	660,856	0,068	-0,125
-242,176	78,006	0,091	0,069
-241,161	510,656	-0,031	-0,052
-240,146	800,000	0,014	-0,045
-239,132	-175,649	-0,168	0,003
-238,117	-200,000	-0,014	0,052
-237,103	-200,000	-0,040	0,177
-236,088	-135,744	0,065	0,005
-235,073	-11,038	0,095	0,044
-234,059	10,832	0,035	0,019
-233,044	465,486	0,034	-0,054
-232,030	-111,693	0,093	0,013
-231,015	-140,491	-0,130	-0,009
-230,000	-200,000	-0,003	-0,013
-228,986	-200,000	0,028	-0,108
-227,971	-200,000	0,021	0,086
-226,957	-200,000	-0,035	0,112
-225,942	-159,225	0,137	-0,005
-224,927	151,195	-0,025	-0,024
-223,913	268,172	0,030	-0,037
-222,898	-200,000	-0,003	0,010
-221,884	-133,510	-0,027	0,002
-220,869	800,000	0,066	-0,141
-219,855	-200,000	0,004	0,115
-218,840	12,206	-0,039	0,021
-217,825	-33,850	0,134	0,052
-216,811	800,000	0,019	0,057
-215,796	-200,000	0,012	-0,048
-214,782	41,016	-0,049	-0,032
-213,767	-200,000	0,008	-0,092
-212,752	-55,196	0,093	0,030
-211,738	185,568	0,074	0,078
-210,723	-200,000	-0,039	0,123
-209,709	-200,000	0,007	-0,110
-208,694	800,000	0,030	-0,067
-207,679	800,000	0,064	-0,135
-206,665	800,000	0,037	-0,094
-205,650	234,609	0,032	-0,038
-204,636	-120,827	0,093	-0,011
-203,621	-82,648	0,094	-0,021
-202,606	136,705	0,007	-0,007
-201,592	-103,816	-0,069	0,011
-200,577	-200,000	-0,020	0,062
-199,563	65,614	0,167	-0,120
-198,548	-103,393	-0,071	0,012
-197,533	800,000	0,042	0,090
-196,519	-25,780	-0,058	0,024
-195,504	-200,000	-0,001	0,003
-194,490	-200,000	0,011	0,047
-193,475	231,600	0,043	-0,050
-192,460	420,288	0,044	-0,067
-191,446	800,000	-0,025	0,053
-190,431	-82,879	0,118	-0,027
-189,417	589,440	-0,041	0,073
-188,402	39,026	-0,019	0,012
-187,387	769,837	-0,045	0,087
-186,373	231,474	-0,067	0,078
-185,358	-200,000	0,024	0,082
-184,344	-200,000	-0,005	-0,085
-183,329	146,377	-0,021	0,020
-182,315	85,016	0,023	0,018
-181,300	-200,000	0,027	0,153
-180,285	202,821	-0,027	-0,030
-179,271	144,295	-0,079	-0,075
-178,256	16,697	-0,032	-0,018
-177,242	-200,000	0,002	0,133
-176,227	-200,000	0,002	0,126
-175,212	595,903	-0,049	0,087
-174,198	-200,000	0,011	-0,040
-173,183	-200,000	0,008	-0,205
-172,169	254,304	-0,059	-0,072
-171,154	-164,619	-0,131	0,004
-170,139	800,000	-0,025	0,059
-169,125	-200,000	-0,030	0,168
-168,110	222,530	0,054	-0,062
-167,096	69,422	-0,103	-0,075
-166,081	-77,120	-0,109	-0,027
-165,066	-200,000	0,010	-0,121
-164,052	332,116	0,072	-0,099
-163,037	-71,809	0,082	0,022
-162,023	-50,377	0,099	0,033
-161,008	109,171	-0,061	-0,052
-159,993	-114,158	0,175	0,024
-158,979	101,313	-0,081	-0,067
-157,964	-200,000	-0,013	-0,043
-156,950	-138,357	0,034	0,003
-155,935	-31,937	0,093	0,037
-154,920	800,000	-0,027	0,062
-153,906	-76,673	-0,029	0,007
-152,891	167,781	0,070	0,071
-151,877	-200,000	0,017	0,071
-150,862	-108,274	-0,078	-0,012
-149,847	-67,234	0,159	-0,044
-148,833	-168,271	-0,098	0,003
-147,818	-13,035	0,155	-0,071
-146,804	-200,000	0,009	-0,035
-145,789	-84,938	0,020	-0,005
-144,775	606,669	0,030	-0,053
-143,760	-200,000	0,013	-0,143
-142,745	-162,212	0,041	0,001
-141,731	-200,000	-0,020	-0,128
-140,716	-200,000	-0,014	0,079
-139,702	-137,541	-0,125	0,010
-138,687	-200,000	-0,026	0,118
-137,672	238,482	-0,038	-0,045
-136,658	-200,000	-0,003	0,119
-135,643	575,556	-0,087	-0,151
-134,629	-77,345	-0,068	-0,016
-133,614	57,173	0,154	0,107
-132,599	234,432	0,088	0,103
-131,585	-63,940	0,124	0,036
-130,570	-47,265	-0,133	0,046
-129,556	-2,484	0,105	-0,052
-128,541	800,000	-0,043	0,091
-127,526	-123,714	0,060	0,007
-126,512	-200,000	0,016	0,084
-125,497	-200,000	0,013	0,112
-124,483	-24,258	-0,027	0,011
-123,468	-200,000	-0,010	0,053
-122,453	800,000	0,020	0,056
-121,439	-200,000	0,016	0,069
-120,424	-32,340	-0,132	-0,052
-119,410	-147,964	0,054	0,003
-118,395	-123,616	-0,041	-0,005
-117,380	395,387	0,105	0,156
-116,366	205,587	-0,063	0,069
-115,351	-34,131	-0,028	-0,011
-114,337	-164,076	0,060	-0,002
-113,322	160,757	0,024	0,023
-112,307	230,762	-0,012	-0,014
-111,293	-200,000	0,019	0,140
-110,278	-30,647	-0,099	-0,039
-109,264	541,408	0,044	0,074
-108,249	185,633	0,024	0,025
-107,234	138,825	-0,014	0,013
-106,220	101,238	0,087	-0,072
-105,205	800,000	-0,022	0,043
-104,191	-131,866	0,139	-0,013
-103,176	575,894	-0,002	-0,003
-102,162	-15,655	0,009	0,004
-101,147	800,000	0,040	-0,109
-100,132	-200,000	0,006	-0,137
-99,118	473,920	0,028	0,044
-98,103	116,597	0,072	0,062
-97,089	800,000	-0,036	0,102
-96,074	-99,309	-0,065	0,011
-95,059	-95,543	0,127	0,024
-94,045	-135,027	0,065	0,005
-93,030	-200,000	-0,002	0,131
-92,016	-50,573	0,082	-0,027
-91,001	800,000	0,028	-0,058
-89,986	13,479	0,091	0,050
-88,972	10,307	0,092	0,049
-87,957	115,285	0,030	-0,026
-86,943	641,175	0,026	-0,046
-85,928	9,296	0,100	-0,053
-84,913	800,000	-0,006	-0,019
-83,899	194,777	0,019	-0,020
-82,884	15,893	0,046	-0,026
-81,870	-200,000	-0,007	-0,034
-80,855	-137,639	-0,062	0,005
-79,840	201,395	0,043	0,047
-78,826	800,000	-0,022	0,061
-77,811	121,878	-0,051	-0,045
-76,797	109,239	-0,133	-0,113
-75,782	-200,000	-0,026	-0,108
-74,767	-200,000	0,006	-0,073
-73,753	800,000	0,017	-0,047
-72,738	31,005	-0,091	0,055
-71,724	800,000	-0,060	0,134
-70,709	-117,674	0,051	-0,006
-69,694	800,000	0,009	0,023
-68,680	193,253	-0,068	0,073
-67,665	-200,000	0,008	0,037
-66,651	44,466	0,098	0,063
-65,636	-64,668	-0,082	0,023
-64,622	-200,000	0,003	-0,165
-63,607	8,665	-0,107	0,057
-62,592	-153,640	0,081	-0,004
-61,578	258,873	-0,030	0,037
-60,563	108,805	-0,063	0,053
-59,549	-200,000	0,033	0,149
-58,534	9,604	-2,060	-1,099
-57,519	410,768	-1,399	-2,102
-56,505	-200,000	-0,312	-4,406
-55,490	715,993	0,767	1,443
-54,476	800,000	5,073	11,225
-53,461	-200,000	21,239	339,497
-52,446	800,000	759,146	2356,904
-51,432	559,506	1662,033	2843,919
-50,417	73,733	1661,533	1227,874
-49,403	18,159	1535,105	862,054
-48,388	12,035	1458,803	789,578
-47,373	19,353	1449,631	819,706
-46,359	15,502	1438,927	795,303
-45,344	10,346	1434,727	768,397
-44,330	10,260	1432,909	766,984
-43,315	10,215	1431,071	765,756
-42,300	10,266	1429,180	764,955
-41,286	10,278	1428,120	764,417
-40,271	10,241	1426,885	763,547
-39,257	10,267	1425,656	762,983
-38,242	10,253	1424,567	762,305
-37,227	10,312	1423,381	761,920
-36,213	10,288	1422,131	761,108
-35,198	10,283	1421,069	760,483
-34,184	10,351	1420,034	760,223
-33,169	10,271	1418,755	759,128
-32,154	10,300	1417,678	758,657
-31,140	10,345	1416,319	758,112
-30,125	10,369	1415,435	757,724
-29,111	10,329	1414,161	756,826
-28,096	10,288	1413,093	756,029
-27,082	10,249	1411,900	755,178
-26,067	10,186	1410,960	754,352
-25,052	10,265	1409,604	753,966
-24,038	10,243	1408,829	753,417
-23,023	10,261	1407,986	753,019
-22,009	10,223	1406,849	752,206
-20,994	10,210	1405,889	751,600
-19,979	10,246	1404,979	751,252
-18,965	10,223	1403,880	750,529
-17,950	10,201	1403,082	749,969
-16,936	10,143	1402,264	749,232
-15,921	10,139	1401,371	748,708
-14,906	10,130	1400,362	748,096
-13,892	10,171	1399,277	747,675
-12,877	10,136	1398,731	747,195
-11,863	10,164	1397,588	746,685
-10,848	10,105	1396,818	745,966
-9,833	10,110	1395,990	745,520
-8,819	10,058	1395,138	744,796
-7,804	10,049	1394,143	744,194
-6,790	10,120	1392,907	743,833
-5,775	10,075	1392,085	743,156
-4,760	10,103	1390,998	742,672
-3,746	10,088	1390,126	742,112
-2,731	10,084	1389,262	741,598
-1,717	10,031	1388,416	740,876
-0,702	10,051	1386,490	739,911
0,313	14,102	1299,527	712,032
1,327	30,359	690,391	415,140
2,342	47,336	119,456	78,362
3,356	1,349	16,375	8,274
4,371	6,570	3,463	1,810
5,386	6,958	1,010	0,529
6,400	-200,000	0,020	0,436
7,415	-66,483	-0,197	-0,055
8,429	-28,434	-0,307	-0,124
9,444	225,419	-0,237	-0,271
10,459	137,613	-0,230	-0,212
11,473	27,580	-0,282	-0,167
12,488	-7,636	-0,293	-0,139
13,502	-105,968	-0,330	-0,052
14,517	-81,809	-0,358	-0,082
15,531	189,901	-0,173	-0,183
16,546	7,370	-0,332	-0,174
17,561	-0,589	-0,323	-0,161
18,575	-57,979	-0,201	-0,061
19,590	189,527	-0,266	-0,281
20,604	24,770	-0,238	-0,139
21,619	87,858	-0,359	-0,280
22,634	138,697	-0,430	-0,398
23,648	88,111	-0,359	-0,280
24,663	391,252	-0,249	-0,365
25,677	-17,047	-0,361	-0,160
26,692	38,321	-0,466	-0,292
27,707	109,460	-0,333	-0,280
28,721	54,774	-0,447	-0,303
29,736	79,204	-0,460	-0,346
30,750	369,709	-0,274	-0,391
31,765	-10,849	-0,379	-0,175
32,780	-8,255	-0,460	-0,217
33,794	60,890	-0,341	-0,238
34,809	-36,424	-0,391	-0,147
35,823	99,744	-0,354	-0,288
36,838	39,595	-0,398	-0,251
37,853	108,634	-0,362	-0,304
38,867	112,316	-0,356	-0,303
39,882	66,667	-0,496	-0,355
40,896	37,129	-0,385	-0,239
41,911	16,018	-0,412	-0,227
42,926	-19,878	-0,365	-0,158
43,940	197,990	-0,340	-0,365
44,955	119,722	-0,369	-0,322
45,969	4,324	-0,382	-0,196
46,984	-10,456	-0,443	-0,205
47,999	26,292	-0,413	-0,242
49,013	90,612	-0,333	-0,262
50,028	80,620	-0,338	-0,255
51,042	17,233	-0,376	-0,209
52,057	107,365	-0,400	-0,334
53,071	-34,378	-0,316	-0,121
54,086	53,810	-0,203	-0,136
55,101	27,379	-0,323	-0,190
56,115	70,554	-0,261	-0,189
57,130	58,697	-0,336	-0,231
58,144	-17,923	-0,484	-0,212
59,159	-21,430	-0,514	-0,219
60,174	154,328	-0,267	-0,258
61,188	-54,617	-0,322	-0,101
62,203	156,352	-0,200	-0,194
63,217	-38,844	-0,237	-0,087
64,232	148,412	-0,176	-0,167
65,247	-92,495	-0,332	-0,065
66,261	26,045	-0,451	-0,263
67,276	70,881	-0,367	-0,266
68,290	77,817	-0,315	-0,235
69,305	65,739	-0,274	-0,194
70,320	-69,847	-0,217	-0,058
71,334	-98,442	-0,500	0,089
72,349	118,912	-0,271	-0,235
73,363	143,632	-0,324	-0,302
74,378	192,210	-0,251	-0,265
75,393	206,434	-0,253	-0,276
76,407	-30,555	-0,364	-0,144
77,422	-53,970	-0,217	-0,069
78,436	-78,302	-0,373	-0,089
79,451	-30,601	-0,408	-0,161
80,466	125,586	-0,375	-0,332
81,480	70,493	-0,242	-0,175
82,495	102,146	-0,238	-0,195
83,509	-29,761	-0,283	-0,113
84,524	-26,943	-0,200	-0,081
85,539	323,783	-0,217	-0,291
86,553	48,778	-0,264	-0,173
87,568	103,313	-0,254	-0,208
88,582	-41,047	-0,369	-0,133
89,597	22,401	-0,283	-0,162
90,611	68,192	-0,300	-0,215
91,626	8,468	-0,183	-0,096
92,641	12,874	-0,276	-0,149
93,655	246,127	-0,205	-0,242
94,670	-190,082	-0,345	0,003
95,684	6,594	-0,394	-0,204
96,699	-45,135	-0,320	-0,111
97,714	361,634	-0,212	-0,299
98,728	58,310	-0,391	-0,267
99,743	-4,918	-0,313	-0,150
100,757	98,295	-0,348	-0,280
101,772	-18,829	-0,258	-0,112
102,787	27,327	-0,353	-0,207
103,801	-83,278	-0,298	-0,066
104,816	139,269	-0,300	-0,276
105,830	388,023	-0,169	-0,245
106,845	4,384	-0,249	-0,127
107,860	339,270	-0,178	-0,243
108,874	-13,798	-0,384	-0,173
109,889	51,940	-0,302	-0,200
110,903	42,985	-0,290	-0,185
111,918	95,003	-0,169	-0,135
112,933	38,845	-0,273	-0,170
113,947	123,782	-0,198	-0,174
114,962	-26,427	-0,236	-0,096
115,976	-41,749	-0,264	-0,094
116,991	-51,143	-0,326	-0,106
118,006	-10,492	-0,359	-0,165
119,020	28,675	-0,317	-0,187
120,035	82,512	-0,302	-0,229
121,049	-144,267	-0,209	-0,013
122,064	-46,577	-0,222	-0,076
123,079	50,022	-0,183	-0,120
124,093	-75,450	-0,304	-0,075
125,108	31,946	-0,333	-0,200
126,122	25,829	-0,320	-0,186
127,137	-23,606	-0,218	-0,091
128,151	-55,316	-0,242	-0,075
129,166	143,321	-0,255	-0,237
130,181	82,633	-0,238	-0,180
131,195	231,641	-0,253	-0,290
132,210	227,938	-0,252	-0,286
133,224	84,109	-0,252	-0,192
134,239	-123,736	-0,168	-0,018
135,254	162,576	-0,225	-0,220
136,268	97,450	-0,286	-0,229
137,283	165,464	-0,217	-0,214
138,297	220,275	-0,255	-0,286
139,312	115,483	-0,283	-0,241
140,327	137,059	-0,257	-0,234
141,341	74,146	-0,295	-0,216
142,356	-175,316	-0,151	0,003
143,370	111,926	-0,194	-0,163
144,385	55,390	-0,270	-0,182
145,400	-85,905	-0,223	-0,048
146,414	142,390	-0,299	-0,276
147,429	-6,270	-0,263	-0,124
148,443	-20,214	-0,205	-0,087
149,458	-130,712	-0,066	0,006
150,473	16,262	-0,207	-0,113
151,487	39,971	-0,354	-0,221
152,502	3,434	-0,277	-0,140
153,516	171,069	-0,255	-0,255
154,531	-24,441	-0,224	-0,093
155,546	158,315	-0,248	-0,240
156,560	34,544	-0,237	-0,144
157,575	-62,422	-0,320	-0,092
158,589	97,347	-0,225	-0,180
159,604	-93,307	-0,310	-0,059
160,619	-83,079	-0,240	-0,053
161,633	132,295	-0,362	-0,324
162,648	375,232	-0,228	-0,324
163,662	170,281	-0,122	-0,122
164,677	185,327	-0,138	-0,143
165,692	77,920	-0,168	-0,124
166,706	318,811	-0,212	-0,280
167,721	62,308	-0,250	-0,173
168,735	400,073	-0,132	-0,193
169,750	249,035	-0,247	-0,291
170,764	217,002	-0,212	-0,235
171,779	-186,441	-0,237	0,002
172,794	65,821	-0,179	-0,126
173,808	496,093	-0,112	-0,180
174,823	-21,589	-0,285	-0,120
175,837	96,772	-0,285	-0,226
176,852	2,612	-0,200	-0,100
177,867	603,997	-0,091	-0,159
178,881	188,302	-0,226	-0,235
179,896	68,241	-0,197	-0,140
180,910	-51,128	-0,262	-0,085
181,925	53,621	-0,304	-0,202
182,940	95,732	-0,194	-0,154
183,954	-31,591	-0,306	-0,119
184,969	-36,228	-0,179	-0,067
185,983	55,824	-0,219	-0,147
186,998	-36,820	-0,241	-0,089
188,013	274,156	-0,180	-0,221
189,027	-26,405	-0,184	-0,074
190,042	-147,002	-0,258	-0,015
191,056	124,209	-0,139	-0,121
192,071	25,050	-0,193	-0,111
193,086	80,213	-0,170	-0,127
194,100	170,979	-0,056	-0,056
195,115	-21,259	-0,285	-0,120
196,129	-71,628	-0,178	-0,046
197,144	-75,579	-0,241	-0,059
198,159	-72,554	-0,335	-0,085
199,173	54,721	-0,098	-0,065
200,188	-20,744	-0,170	-0,072
201,202	280,380	-0,120	-0,150
202,217	107,904	-0,185	-0,153
203,232	21,378	-0,346	-0,194
204,246	56,873	-0,183	-0,123
205,261	79,277	-0,262	-0,194
206,275	94,450	-0,202	-0,159
207,290	513,493	-0,087	-0,142
208,304	-26,794	-0,297	-0,120
209,319	2,411	-0,113	-0,057
210,334	260,305	-0,096	-0,115
211,348	589,449	-0,200	-0,342
212,363	64,726	-0,267	-0,187
213,377	-27,382	-0,293	-0,117
214,392	-119,537	-0,337	0,040
215,407	-21,978	-0,156	-0,065
216,421	172,809	-0,232	-0,232
217,436	50,012	-0,185	-0,121
218,450	-148,577	-0,184	-0,010
219,465	-50,433	-0,202	-0,066
220,480	160,311	-0,186	-0,179
221,494	206,677	-0,213	-0,230
222,509	50,155	-0,210	-0,137
223,523	-197,803	-0,102	-0,000
224,538	184,019	-0,130	-0,134
225,553	-200,000	-0,085	-0,273
226,567	-123,041	-0,281	-0,031
227,582	8,260	-0,167	-0,086
228,596	454,802	-0,091	-0,139
229,611	15,608	-0,183	-0,099
230,626	-133,616	-0,138	0,012
231,640	52,560	-0,136	-0,090
232,655	-132,065	-0,188	-0,017
233,669	150,453	-0,200	-0,188
234,684	-31,850	-0,302	-0,116
235,699	28,973	-0,185	-0,108
236,713	28,874	-0,166	-0,097
237,728	-133,474	-0,267	0,023
238,742	-82,235	-0,212	-0,047
239,757	188,850	-0,154	-0,160
240,772	-200,000	-0,129	0,000
241,786	137,351	-0,157	-0,141
242,801	10,567	-0,147	-0,077
243,815	-70,980	-0,227	-0,059
244,830	10,132	-0,154	-0,081
245,844	9,592	-0,170	-0,089
246,859	17,690	-0,266	-0,146
247,874	101,169	-0,195	-0,157
248,888	104,896	-0,174	-0,142
249,903	225,692	-0,156	-0,174
250,917	29,690	-0,146	-0,085
251,932	800,000	-0,085	-0,171
252,947	-162,691	-0,243	-0,008
253,961	-84,603	-0,174	-0,037
254,976	141,414	-0,222	-0,203
255,990	108,009	-0,188	-0,154
257,005	-99,848	-0,189	-0,032
258,020	-200,000	-0,031	-0,219
259,034	33,850	-0,167	-0,100
260,049	-70,850	-0,120	-0,031
261,063	300,052	-0,119	-0,152
262,078	387,984	-0,160	-0,229
263,093	-123,640	-0,189	-0,020
264,107	124,910	-0,245	-0,213
265,122	126,391	-0,082	-0,072
266,136	90,726	-0,140	-0,108
267,151	258,145	-0,101	-0,120
268,166	136,563	-0,185	-0,166
269,180	-4,674	-0,236	-0,112
270,195	17,735	-0,243	-0,133
271,209	383,229	-0,123	-0,175
272,224	18,950	-0,268	-0,148
273,239	172,259	-0,167	-0,165
274,253	80,712	-0,098	-0,073
275,268	106,682	-0,030	-0,024
276,282	-117,100	-0,178	-0,022
277,297	104,085	-0,184	-0,149
278,312	800,000	-0,066	-0,167
279,326	-95,106	-0,156	0,029
280,341	-159,212	-0,123	0,005
281,355	121,544	-0,070	-0,060
282,370	-90,611	-0,202	-0,040
283,384	-56,244	-0,222	-0,068
284,399	186,199	-0,127	-0,131
285,414	-3,643	-0,249	-0,119
286,428	296,447	-0,017	0,022
287,443	-68,689	-0,172	-0,046
288,457	-200,000	-0,054	-0,174
289,472	770,817	-0,075	-0,140
290,487	102,578	-0,183	-0,147
291,501	-200,000	-0,111	-0,391
292,516	7,380	-0,267	-0,137
293,530	115,118	-0,048	-0,040
294,545	-200,000	-0,004	-0,040
295,560	-136,073	-0,196	0,016
296,574	580,545	-0,094	-0,158
297,589	98,847	-0,190	-0,151
298,603	186,022	-0,115	-0,117
299,618	-29,574	-0,224	-0,087
300,633	208,618	-0,175	-0,189
301,647	-60,645	-0,145	-0,042
302,662	-75,705	-0,071	-0,017
303,676	-81,217	-0,127	-0,028
304,691	4,334	-0,251	-0,126
305,706	27,826	-0,194	-0,112
306,720	361,703	-0,161	-0,223
307,735	140,423	-0,071	-0,064
308,749	660,909	-0,009	-0,016
309,764	-149,384	0,028	-0,001
310,779	205,458	-0,137	-0,146
311,793	-161,464	-0,169	0,006
312,808	-2,331	-0,158	-0,076
313,822	-121,700	-0,091	0,010
314,837	-30,282	-0,133	-0,052
315,852	-107,980	-0,179	-0,026
316,866	384,357	-0,076	0,108
317,881	-125,860	-0,303	0,031
318,895	774,855	-0,116	-0,218
319,910	410,484	-0,137	-0,200
320,925	110,619	-0,117	-0,096
321,939	235,762	-0,151	-0,171
322,954	378,984	-0,044	-0,061
323,968	800,000	-0,065	-0,166
324,983	47,935	-0,218	-0,140
325,997	10,434	-0,187	-0,097
327,012	19,410	-0,159	-0,087
328,027	-59,630	-0,191	-0,056
329,041	19,350	-0,160	-0,088
330,056	498,950	-0,037	-0,059
331,070	800,000	-0,070	-0,184
332,085	2,598	-0,125	-0,062
333,100	82,070	-0,150	-0,111
334,114	-74,202	-0,200	-0,049
335,129	-3,846	-0,324	-0,153
336,143	800,000	-0,158	-0,307
337,158	116,234	-0,086	0,072
338,173	800,000	0,059	-0,157
339,187	-32,103	-0,088	0,034
340,202	83,109	-0,112	0,083
341,216	-36,098	-0,226	-0,083
342,231	-19,890	-0,298	-0,126
343,246	284,031	-0,096	-0,118
344,260	-13,215	-0,214	-0,095
345,275	261,275	-0,105	-0,125
346,289	-28,810	-0,097	-0,038
347,304	-25,398	-0,075	0,030
348,319	-89,290	-0,064	-0,013
349,333	28,331	-0,115	-0,067
350,348	123,041	-0,194	-0,166
351,362	57,492	-0,103	0,069
352,377	9,935	-0,082	-0,043
353,392	315,062	-0,092	-0,119
354,406	106,949	-0,107	-0,087
355,421	207,478	1310,188	1400,034
356,435	159,609	1470,324	1400,505
