DTS Sentinel unit serial number:	SN410029Multiplexer serial number:	ORYXHardware model number:	OX2-SRSoftware version number:	ORYX F/W v4,00 Oryx Data Collector v3.7.2.0data status	okinstallation	B3 Nyhavnadifferential loss correction	single-endedforward channel	channel 1reverse channel	N/Adate	2023/11/29time	06:12:31forward acquisition time	300,00reverse acquisition time	0,00gamma	499,1914k internal	0,3211k external	0,3211temperature offset calibration	1,0000default loss term (dB/km)	0,3820temperature slope calibration	1,0000multiplexer offset coefficient	1,0000multiplexer slope coefficient	1,0000fibre end	0,00T internal ref (°C)	8,98T ext. ref 1 (°C)	-6,48T ext. ref 2 (°C)	-6,60length (m)	temperature (°C)	Stokes	anti-Stokes-744,400	380,146	-0,149	-0,222
-743,385	-200,000	-0,027	0,254
-742,371	-200,000	-0,050	-0,233
-741,356	-200,000	-0,054	0,279
-740,342	126,643	-0,161	-0,148
-739,327	800,000	-0,078	0,205
-738,312	165,404	-0,239	-0,245
-737,298	129,441	-0,285	0,264
-736,283	315,681	-0,172	-0,236
-735,269	-200,000	0,068	0,336
-734,254	-14,149	-0,247	-0,115
-733,239	57,197	-0,227	0,160
-732,225	-200,000	-0,129	0,000
-731,210	-185,226	0,196	-0,002
-730,196	-167,403	-0,084	0,002
-729,181	-200,000	0,039	0,144
-728,167	154,842	0,058	0,058
-727,152	-53,677	-0,080	-0,026
-726,137	-200,000	-0,005	-0,124
-725,123	-200,000	0,021	0,094
-724,108	-44,294	-0,051	-0,019
-723,094	-75,962	-0,094	-0,024
-722,079	-200,000	0,022	-0,085
-721,064	491,919	-0,039	-0,065
-720,050	-61,402	-0,092	0,028
-719,035	-200,000	0,011	-0,078
-718,021	148,610	-0,077	0,075
-717,006	64,079	-0,158	0,115
-715,991	342,023	-0,054	-0,076
-714,977	-48,617	-0,023	-0,008
-713,962	358,174	-0,033	-0,047
-712,948	48,966	0,073	-0,050
-711,933	29,083	-0,086	0,053
-710,918	-200,000	0,002	0,021
-709,904	800,000	-0,041	-0,123
-708,889	-59,070	-0,029	0,009
-707,875	-2,257	-0,110	-0,056
-706,860	-200,000	-0,016	-0,054
-705,845	-200,000	0,009	0,056
-704,831	800,000	0,039	0,100
-703,816	92,500	-0,095	-0,078
-702,802	800,000	-0,040	0,086
-701,787	-135,147	-0,111	-0,009
-700,772	-80,629	-0,132	-0,032
-699,758	159,055	0,082	0,082
-698,743	169,043	-0,067	0,069
-697,729	-200,000	-0,018	0,128
-696,714	127,823	0,085	-0,078
-695,699	250,930	0,030	-0,037
-694,685	800,000	-0,055	-0,168
-693,670	-22,745	-0,146	-0,063
-692,656	125,597	0,038	-0,035
-691,641	-134,192	0,101	-0,009
-690,627	-200,000	0,030	0,164
-689,612	-84,863	0,046	0,010
-688,597	78,959	0,024	-0,018
-687,583	106,785	-0,071	0,061
-686,568	-200,000	-0,017	0,055
-685,554	-200,000	-0,029	0,108
-684,539	-200,000	0,009	-0,037
-683,524	28,109	-0,054	-0,033
-682,510	-54,742	-0,051	0,017
-681,495	-200,000	-0,017	-0,123
-680,481	-200,000	0,008	-0,092
-679,466	800,000	-0,016	-0,043
-678,451	800,000	0,008	0,021
-677,437	491,087	-0,031	0,052
-676,422	800,000	-0,022	0,046
-675,408	655,262	0,072	-0,134
-674,393	568,125	-0,023	-0,041
-673,378	294,674	0,016	0,022
-672,364	570,951	0,060	-0,106
-671,349	-200,000	0,001	-0,077
-670,335	800,000	-0,029	-0,090
-669,320	-44,524	0,142	-0,051
-668,305	-7,706	-0,043	-0,021
-667,291	-87,090	-0,139	0,030
-666,276	-34,073	-0,097	-0,039
-665,262	800,000	0,057	-0,181
-664,247	800,000	-0,062	0,125
-663,232	800,000	-0,036	0,108
-662,218	280,499	0,081	0,105
-661,203	-100,629	-0,113	0,020
-660,189	-119,827	-0,105	0,013
-659,174	20,091	0,094	-0,055
-658,159	787,338	-0,085	-0,169
-657,145	302,300	-0,092	-0,123
-656,130	-200,000	-0,032	-0,127
-655,116	419,987	0,053	-0,083
-654,101	-26,439	0,018	0,008
-653,086	211,442	-0,011	0,013
-652,072	-200,000	0,028	-0,105
-651,057	-170,957	-0,094	-0,002
-650,043	-151,402	-0,061	0,003
-649,028	328,237	0,047	-0,065
-648,014	-11,790	-0,047	0,022
-646,999	-200,000	-0,016	-0,068
-645,984	-102,787	-0,076	0,013
-644,970	-200,000	-0,008	-0,103
-643,955	800,000	-0,033	0,088
-642,941	-200,000	-0,000	-0,072
-641,926	115,161	0,055	0,049
-640,911	-78,996	0,045	-0,011
-639,897	-200,000	0,018	0,066
-638,882	800,000	0,042	-0,087
-637,868	4,836	-0,138	-0,073
-636,853	-115,290	-0,193	0,026
-635,838	800,000	0,020	0,054
-634,824	134,903	0,075	0,070
-633,809	32,642	-0,042	0,026
-632,795	137,201	-0,067	0,064
-631,780	800,000	-0,008	0,018
-630,765	-120,894	-0,115	-0,014
-629,751	179,670	0,101	-0,107
-628,736	275,066	0,150	-0,192
-627,722	-200,000	0,002	-0,049
-626,707	-189,840	-0,107	-0,001
-625,692	-3,975	-0,025	-0,013
-624,678	-80,106	0,069	-0,017
-623,663	-154,346	-0,052	-0,002
-622,649	-200,000	0,012	-0,061
-621,634	379,027	-0,040	-0,059
-620,619	-200,000	-0,033	-0,122
-619,605	91,519	-0,069	0,056
-618,590	0,902	-0,064	0,033
-617,576	-200,000	0,005	0,108
-616,561	-30,233	-0,153	-0,062
-615,546	800,000	0,059	-0,137
-614,532	133,216	-0,048	-0,045
-613,517	103,664	0,044	0,037
-612,503	-101,212	0,063	0,011
-611,488	-171,468	0,027	-0,001
-610,474	-127,986	0,087	-0,009
-609,459	-200,000	0,007	-0,046
-608,444	-44,099	-0,065	-0,024
-607,430	285,114	-0,036	-0,046
-606,415	584,057	0,112	-0,199
-605,401	58,210	0,077	0,054
-604,386	511,952	-0,050	0,084
-603,371	-200,000	0,014	0,114
-602,357	-200,000	-0,024	-0,161
-601,342	310,069	-0,097	0,131
-600,328	-200,000	-0,002	-0,158
-599,313	131,642	-0,093	-0,086
-598,298	-152,869	0,153	-0,008
-597,284	-200,000	-0,009	0,055
-596,269	286,528	0,042	0,055
-595,255	-92,126	-0,159	0,032
-594,240	39,954	0,063	0,040
-593,225	-200,000	0,047	-0,277
-592,211	-200,000	0,063	-0,225
-591,196	-131,070	0,059	-0,006
-590,182	-200,000	-0,042	-0,164
-589,167	-200,000	0,028	0,140
-588,152	75,053	0,130	-0,099
-587,138	74,243	-0,078	-0,059
-586,123	0,745	-0,104	0,054
-585,109	560,112	-0,035	-0,060
-584,094	96,180	-0,109	-0,090
-583,079	220,764	0,069	0,080
-582,065	26,194	-0,072	0,043
-581,050	-200,000	0,003	-0,025
-580,036	-123,831	-0,125	-0,014
-579,021	-200,000	0,017	-0,100
-578,006	382,286	0,069	-0,102
-576,992	-200,000	0,008	0,114
-575,977	-154,191	-0,075	0,004
-574,963	800,000	0,038	-0,101
-573,948	231,316	0,139	0,164
-572,934	48,319	0,061	-0,041
-571,919	-200,000	-0,004	-0,097
-570,904	-200,000	-0,026	-0,102
-569,890	-44,370	0,017	-0,006
-568,875	-72,024	0,067	0,018
-567,861	-130,890	-0,075	0,007
-566,846	720,512	-0,118	0,227
-565,831	-200,000	0,013	-0,050
-564,817	-88,537	0,081	-0,017
-563,802	157,793	0,007	-0,007
-562,788	-103,377	-0,015	0,003
-561,773	-41,421	-0,044	-0,016
-560,758	400,248	-0,047	-0,072
-559,744	51,821	0,126	0,086
-558,729	-14,296	-0,171	0,079
-557,715	-200,000	0,015	-0,053
-556,700	-200,000	0,008	-0,151
-555,685	800,000	-0,018	-0,055
-554,671	-19,481	0,091	-0,041
-553,656	800,000	0,038	0,086
-552,642	2,692	0,080	0,041
-551,627	553,444	0,007	0,013
-550,612	-200,000	-0,012	-0,103
-549,598	-200,000	-0,011	-0,053
-548,583	91,611	-0,072	0,058
-547,569	-200,000	0,041	-0,212
-546,554	-200,000	-0,005	-0,193
-545,539	-200,000	0,010	0,042
-544,525	-200,000	-0,026	0,099
-543,510	-50,301	-0,018	0,006
-542,496	-200,000	-0,023	-0,105
-541,481	-156,454	-0,135	0,006
-540,466	300,596	-0,041	0,054
-539,452	168,777	0,071	0,072
-538,437	800,000	-0,019	0,057
-537,423	800,000	-0,014	0,040
-536,408	-42,671	-0,112	0,041
-535,393	-200,000	-0,010	0,120
-534,379	-9,099	-0,171	0,082
-533,364	-39,130	0,011	0,004
-532,350	764,481	0,038	-0,074
-531,335	57,526	0,015	0,010
-530,321	44,545	-0,086	-0,057
-529,306	-6,370	-0,125	-0,061
-528,291	-61,546	-0,116	0,035
-527,277	800,000	0,042	-0,090
-526,262	-112,657	0,022	0,003
-525,248	181,418	-0,037	0,039
-524,233	368,879	-0,016	-0,024
-523,218	-200,000	-0,010	-0,060
-522,204	-41,098	-0,077	-0,028
-521,189	139,506	-0,131	-0,124
-520,175	-41,580	0,040	0,015
-519,160	-56,937	-0,137	-0,043
-518,145	-28,169	0,031	0,013
-517,131	56,645	0,128	0,089
-516,116	7,718	-0,160	0,086
-515,102	118,145	0,051	-0,045
-514,087	-200,000	0,011	0,055
-513,072	-200,000	-0,028	-0,090
-512,058	-200,000	0,015	-0,062
-511,043	800,000	-0,026	-0,053
-510,029	-52,496	0,182	-0,060
-509,014	-200,000	0,014	-0,069
-507,999	800,000	-0,057	-0,116
-506,985	-200,000	0,015	-0,087
-505,970	216,586	0,050	-0,057
-504,956	-71,230	-0,096	0,026
-503,941	348,836	-0,020	0,028
-502,926	-134,668	0,083	-0,007
-501,912	-41,924	0,119	0,044
-500,897	-22,139	0,082	0,036
-499,883	-200,000	0,003	0,033
-498,868	-200,000	0,009	-0,049
-497,853	-53,925	-0,076	0,025
-496,839	39,724	0,189	0,122
-495,824	487,474	-0,040	0,066
-494,810	-83,074	0,090	0,021
-493,795	-18,982	-0,006	0,003
-492,781	-7,280	0,042	0,020
-491,766	93,037	-0,033	0,027
-490,751	13,422	-0,065	0,036
-489,737	3,904	0,149	-0,078
-488,722	-200,000	-0,036	-0,168
-487,708	774,022	0,050	-0,099
-486,693	-63,784	-0,067	-0,019
-485,678	-86,332	-0,188	-0,041
-484,664	637,765	-0,030	-0,054
-483,649	-200,000	0,009	0,101
-482,635	162,054	-0,103	-0,103
-481,620	-200,000	0,010	0,052
-480,605	-200,000	-0,013	0,137
-479,591	-200,000	0,026	0,138
-478,576	-81,098	-0,114	0,027
-477,562	-200,000	0,008	-0,107
-476,547	-92,103	-0,197	-0,040
-475,532	329,761	-0,049	-0,068
-474,518	187,903	0,076	0,081
-473,503	-10,962	0,090	-0,042
-472,489	-200,000	-0,027	-0,118
-471,474	438,455	0,010	0,016
-470,459	-200,000	-0,020	0,074
-469,445	188,400	0,144	-0,155
-468,430	-200,000	-0,009	-0,031
-467,416	3,881	0,079	0,041
-466,401	28,146	0,056	-0,034
-465,386	203,928	-0,086	0,096
-464,372	-200,000	-0,035	0,121
-463,357	-87,559	-0,079	0,017
-462,343	-200,000	-0,001	-0,004
-461,328	800,000	-0,037	-0,094
-460,313	714,534	-0,062	0,118
-459,299	246,982	-0,103	0,125
-458,284	-96,225	-0,001	-0,000
-457,270	-13,209	-0,098	-0,045
-456,255	800,000	-0,045	0,091
-455,241	25,191	0,057	-0,034
-454,226	-81,421	-0,023	0,005
-453,211	119,088	0,066	0,059
-452,197	103,632	0,140	0,118
-451,182	800,000	0,089	0,219
-450,168	-200,000	0,009	-0,039
-449,153	293,612	0,086	-0,113
-448,138	-200,000	-0,018	-0,098
-447,124	-91,575	-0,045	0,009
-446,109	26,622	-0,062	-0,037
-445,095	-152,287	-0,036	-0,002
-444,080	-1,786	0,076	-0,038
-443,065	800,000	-0,018	-0,048
-442,051	-33,262	-0,085	0,034
-441,036	211,789	-0,061	-0,069
-440,022	-200,000	-0,010	0,157
-439,007	396,905	-0,101	0,152
-437,992	199,127	0,039	-0,043
-436,978	667,604	-0,066	-0,122
-435,963	-200,000	0,005	0,090
-434,949	-200,000	0,022	0,155
-433,934	125,385	-0,059	0,054
-432,919	-21,132	0,096	0,042
-431,905	-200,000	0,010	0,129
-430,890	102,245	-0,037	0,031
-429,876	0,187	-0,100	-0,051
-428,861	-200,000	0,030	0,165
-427,846	-200,000	0,013	-0,057
-426,832	81,186	-0,110	-0,085
-425,817	137,517	0,059	0,055
-424,803	-200,000	-0,006	0,035
-423,788	-200,000	-0,022	0,081
-422,773	50,024	0,072	-0,048
-421,759	-158,805	0,107	-0,004
-420,744	-89,248	0,062	0,013
-419,730	478,973	-0,055	0,089
-418,715	234,618	0,098	-0,116
-417,701	136,266	-0,039	0,036
-416,686	124,348	0,068	-0,061
-415,671	-200,000	-0,002	0,084
-414,657	800,000	0,051	0,140
-413,642	124,917	-0,133	0,120
-412,628	800,000	0,035	-0,094
-411,613	-200,000	0,010	0,087
-410,598	90,619	-0,059	0,048
-409,584	220,346	0,097	-0,112
-408,569	800,000	0,037	0,091
-407,555	-200,000	0,015	0,175
-406,540	-101,047	0,107	-0,019
-405,525	-78,717	-0,065	-0,016
-404,511	-200,000	0,001	-0,075
-403,496	-26,938	-0,050	-0,021
-402,482	-40,551	0,039	-0,014
-401,467	52,407	0,086	-0,059
-400,452	800,000	0,050	-0,130
-399,438	357,054	-0,073	0,105
-398,423	-125,295	-0,129	-0,014
-397,409	139,828	0,119	-0,112
-396,394	-66,126	0,005	-0,001
-395,379	-36,394	0,066	-0,025
-394,365	63,557	0,034	0,024
-393,350	-58,355	-0,103	-0,032
-392,336	216,250	-0,055	0,063
-391,321	429,456	-0,066	-0,102
-390,306	800,000	-0,070	-0,212
-389,292	-200,000	0,005	0,024
-388,277	20,190	-0,036	0,021
-387,263	-200,000	-0,011	0,074
-386,248	135,309	0,139	0,130
-385,233	800,000	0,025	-0,069
-384,219	151,606	-0,108	-0,105
-383,204	313,054	0,041	0,055
-382,190	-48,400	0,150	0,051
-381,175	91,847	0,025	-0,020
-380,160	416,151	0,049	-0,076
-379,146	116,258	0,037	0,033
-378,131	-136,756	0,070	-0,006
-377,117	177,481	0,057	0,059
-376,102	-200,000	-0,030	-0,100
-375,088	-59,150	0,068	-0,021
-374,073	-59,915	-0,086	0,026
-373,058	49,675	-0,089	0,060
-372,044	-122,442	0,114	0,013
-371,029	139,396	0,051	0,048
-370,015	-172,203	-0,058	0,001
-369,000	22,885	-0,057	0,033
-367,985	-76,459	-0,103	-0,026
-366,971	-167,323	-0,066	0,002
-365,956	47,358	0,071	-0,047
-364,942	-200,000	0,005	0,055
-363,927	-200,000	0,030	-0,121
-362,912	-47,246	-0,131	0,045
-361,898	-200,000	-0,016	-0,155
-360,883	-42,378	-0,076	0,027
-359,869	-115,074	-0,028	-0,004
-358,854	43,276	0,125	-0,081
-357,839	52,615	-0,016	0,011
-356,825	-77,692	-0,053	-0,013
-355,810	10,174	0,025	-0,014
-354,796	255,398	0,111	-0,136
-353,781	46,748	-0,048	-0,032
-352,766	-20,628	-0,029	-0,013
-351,752	-29,468	-0,090	-0,037
-350,737	800,000	-0,038	-0,101
-349,723	-88,046	-0,130	0,028
-348,708	429,419	-0,047	-0,073
-347,693	-48,060	-0,097	-0,033
-346,679	-200,000	-0,002	0,015
-345,664	124,708	-0,038	-0,034
-344,650	-115,348	0,020	0,003
-343,635	800,000	0,069	0,148
-342,620	-45,609	0,140	-0,049
-341,606	223,391	0,082	0,095
-340,591	241,999	0,067	-0,080
-339,577	496,870	-0,077	0,127
-338,562	-200,000	-0,030	-0,096
-337,548	20,560	0,076	0,044
-336,533	-110,192	0,233	0,034
-335,518	228,737	-0,098	0,114
-334,504	-66,409	-0,087	0,025
-333,489	-129,759	0,153	0,015
-332,475	-200,000	-0,008	-0,056
-331,460	-200,000	0,005	-0,168
-330,445	800,000	0,064	0,129
-329,431	105,739	0,065	-0,055
-328,416	-200,000	0,027	-0,105
-327,402	267,765	-0,043	0,054
-326,387	-14,015	-0,037	-0,017
-325,372	-200,000	0,016	-0,074
-324,358	63,341	-0,080	0,057
-323,343	327,359	0,072	-0,098
-322,329	20,661	0,058	-0,033
-321,314	-200,000	0,001	-0,036
-320,299	-116,866	0,149	-0,019
-319,285	-162,225	-0,118	0,004
-318,270	-200,000	0,017	0,106
-317,256	-200,000	0,025	-0,233
-316,241	78,939	0,059	-0,045
-315,226	-57,840	-0,044	-0,014
-314,212	24,039	-0,043	-0,025
-313,197	-200,000	-0,015	0,129
-312,183	28,241	-0,082	-0,049
-311,168	-58,317	0,080	-0,025
-310,153	5,954	0,063	-0,033
-309,139	97,826	-0,034	-0,028
-308,124	34,794	-0,092	-0,057
-307,110	800,000	0,070	0,199
-306,095	-200,000	-0,056	0,195
-305,080	-164,777	0,141	-0,004
-304,066	-200,000	0,043	-0,171
-303,051	800,000	-0,029	0,069
-302,037	-138,251	0,015	0,001
-301,022	-57,174	0,026	0,008
-300,008	-200,000	-0,013	0,086
-298,993	311,572	0,128	0,171
-297,978	-27,829	-0,137	0,056
-296,964	-156,359	-0,069	0,003
-295,949	-200,000	-0,006	0,117
-294,935	-52,992	0,014	-0,004
-293,920	-200,000	0,024	-0,078
-292,905	-55,603	0,142	0,045
-291,891	159,451	-0,078	0,077
-290,876	30,928	0,141	0,086
-289,862	114,057	-0,057	0,050
-288,847	383,741	0,005	0,007
-287,832	481,254	-0,060	-0,098
-286,818	255,126	0,083	0,101
-285,803	597,621	0,039	-0,070
-284,789	-38,976	0,156	-0,058
-283,774	214,696	0,054	0,061
-282,759	-130,342	0,032	0,003
-281,745	-200,000	-0,005	-0,154
-280,730	182,227	-0,091	-0,096
-279,716	-200,000	0,006	0,021
-278,701	14,578	0,057	0,032
-277,686	111,574	0,047	0,041
-276,672	669,847	-0,035	0,065
-275,657	-112,805	0,055	0,008
-274,643	-200,000	0,008	-0,221
-273,628	-146,623	0,103	0,006
-272,613	-200,000	0,005	0,048
-271,599	47,770	0,092	0,061
-270,584	800,000	-0,018	-0,045
-269,570	67,281	0,120	0,087
-268,555	100,653	0,077	0,064
-267,540	-122,451	-0,119	-0,014
-266,526	-12,694	-0,058	-0,027
-265,511	800,000	-0,029	-0,091
-264,497	-200,000	0,035	0,123
-263,482	-200,000	-0,017	0,126
-262,467	37,803	0,078	-0,049
-261,453	-200,000	0,043	0,145
-260,438	800,000	-0,046	0,117
-259,424	-77,098	-0,060	-0,015
-258,409	226,926	-0,073	-0,085
-257,395	71,282	0,052	0,038
-256,380	-72,368	0,159	-0,042
-255,365	109,201	0,138	0,117
-254,351	510,628	-0,074	0,123
-253,336	470,988	0,042	0,067
-252,322	-35,255	0,117	0,045
-251,307	800,000	-0,001	0,003
-250,292	110,607	-0,106	0,091
-249,278	-200,000	-0,038	0,164
-248,263	30,471	-0,154	0,093
-247,249	-200,000	-0,012	0,146
-246,234	-200,000	-0,020	-0,097
-245,219	-200,000	0,001	0,040
-244,205	-81,055	-0,042	-0,010
-243,190	800,000	0,057	-0,142
-242,176	-200,000	0,008	0,055
-241,161	800,000	-0,022	0,058
-240,146	93,876	0,073	-0,058
-239,132	-145,754	-0,095	-0,006
-238,117	-90,306	0,176	0,036
-237,103	308,904	0,058	0,077
-236,088	22,171	-0,100	-0,058
-235,073	-4,946	-0,048	0,023
-234,059	75,712	-0,055	-0,041
-233,044	774,122	0,027	0,052
-232,030	800,000	-0,049	0,107
-231,015	660,060	-0,063	0,116
-230,000	-200,000	-0,011	-0,050
-228,986	1,315	-0,023	-0,012
-227,971	-200,000	0,003	0,014
-226,957	-200,000	-0,008	-0,032
-225,942	324,116	0,041	0,055
-224,927	-100,153	0,019	0,003
-223,913	-120,646	-0,058	0,007
-222,898	800,000	0,015	0,037
-221,884	-117,545	0,013	-0,002
-220,869	20,275	0,043	-0,025
-219,855	-90,992	0,044	0,009
-218,840	800,000	-0,008	0,023
-217,825	-130,941	-0,016	-0,002
-216,811	-200,000	0,007	-0,086
-215,796	-96,405	-0,042	0,008
-214,782	-200,000	0,010	0,124
-213,767	-200,000	0,023	-0,113
-212,752	-119,391	0,090	0,011
-211,738	110,409	-0,053	0,045
-210,723	-200,000	0,010	0,080
-209,709	-200,000	0,017	-0,060
-208,694	116,529	-0,064	-0,056
-207,679	1,807	0,067	0,034
-206,665	12,423	-0,049	0,027
-205,650	45,349	-0,072	0,047
-204,636	-138,079	0,041	-0,003
-203,621	-200,000	-0,008	-0,032
-202,606	144,338	0,039	0,037
-201,592	-108,152	-0,179	0,027
-200,577	-200,000	-0,016	0,117
-199,563	39,798	0,077	-0,049
-198,548	800,000	0,024	-0,058
-197,533	7,305	0,075	-0,039
-196,519	800,000	-0,057	-0,129
-195,504	-43,931	-0,057	-0,020
-194,490	800,000	-0,057	0,148
-193,475	-200,000	-0,007	0,093
-192,460	-200,000	0,015	-0,056
-191,446	-97,792	0,069	0,013
-190,431	-59,497	-0,053	-0,016
-189,417	-200,000	0,005	0,095
-188,402	-15,627	-0,066	-0,030
-187,387	57,974	0,057	-0,040
-186,373	602,471	0,044	-0,079
-185,358	-96,719	-0,038	-0,007
-184,344	-200,000	-0,008	-0,096
-183,329	800,000	0,014	-0,029
-182,315	800,000	0,093	0,196
-181,300	-151,389	-0,123	0,006
-180,285	800,000	0,008	-0,020
-179,271	-140,166	-0,029	-0,002
-178,256	-200,000	-0,019	0,187
-177,242	-87,673	0,134	-0,028
-176,227	-200,000	-0,026	0,240
-175,212	182,745	0,026	-0,027
-174,198	464,673	-0,034	-0,053
-173,183	-200,000	-0,008	0,030
-172,169	128,104	0,034	-0,031
-171,154	278,524	-0,032	-0,041
-170,139	-45,762	0,200	-0,070
-169,125	-200,000	-0,005	-0,111
-168,110	312,229	-0,084	0,112
-167,096	267,418	-0,037	0,046
-166,081	-50,085	-0,114	-0,038
-165,066	143,778	0,058	0,055
-164,052	-200,000	0,002	0,034
-163,037	-83,836	-0,054	0,012
-162,023	140,400	0,089	0,083
-161,008	752,727	-0,074	0,143
-159,993	29,464	0,167	-0,100
-158,979	-200,000	0,004	0,072
-157,964	-200,000	-0,005	-0,053
-156,950	-200,000	-0,028	-0,154
-155,935	800,000	0,044	-0,108
-154,920	-110,546	0,163	-0,024
-153,906	756,369	-0,064	0,123
-152,891	-100,825	0,087	-0,015
-151,877	56,425	-0,104	-0,071
-150,862	429,059	-0,047	-0,072
-149,847	129,868	0,067	-0,061
-148,833	160,524	0,046	-0,046
-147,818	-200,000	-0,023	0,136
-146,804	-10,090	0,196	0,092
-145,789	-153,947	-0,084	0,004
-144,775	204,023	-0,085	0,094
-143,760	-94,898	-0,040	-0,008
-142,745	-200,000	0,016	-0,131
-141,731	-176,123	-0,023	-0,000
-140,716	800,000	-0,021	-0,042
-139,702	-200,000	0,031	-0,107
-138,687	21,351	-0,104	-0,060
-137,672	-27,192	-0,102	-0,042
-136,658	200,076	-0,041	-0,044
-135,643	-200,000	-0,025	-0,084
-134,629	-52,372	0,111	0,036
-133,614	303,462	0,056	0,074
-132,599	422,604	0,056	-0,086
-131,585	-71,686	0,041	-0,011
-130,570	600,981	-0,008	-0,015
-129,556	-24,679	-0,114	-0,048
-128,541	-35,244	-0,072	-0,027
-127,526	-200,000	0,038	-0,118
-126,512	800,000	-0,026	0,056
-125,497	-50,646	0,089	0,029
-124,483	36,685	-0,037	0,023
-123,468	800,000	0,028	0,073
-122,453	332,522	-0,090	-0,123
-121,439	-147,997	0,060	0,003
-120,424	-200,000	-0,012	-0,055
-119,410	-17,631	0,080	0,035
-118,395	800,000	0,038	0,081
-117,380	800,000	-0,006	-0,015
-116,366	93,565	0,184	-0,147
-115,351	-136,932	0,045	0,004
-114,337	199,318	-0,089	-0,096
-113,322	-200,000	-0,022	-0,089
-112,307	25,408	-0,068	0,040
-111,293	-14,106	0,065	0,030
-110,278	755,278	-0,015	0,029
-109,264	60,206	-0,103	0,072
-108,249	-9,208	-0,197	-0,093
-107,234	800,000	-0,069	-0,189
-106,220	-200,000	0,001	-0,196
-105,205	-91,837	0,029	0,006
-104,191	255,099	0,018	-0,022
-103,176	0,884	0,057	0,029
-102,162	-200,000	0,014	-0,055
-101,147	-100,720	-0,069	0,012
-100,132	296,331	0,029	-0,038
-99,118	-141,502	-0,116	-0,008
-98,103	252,560	-0,049	-0,059
-97,089	663,086	0,052	0,096
-96,074	438,049	-0,036	0,055
-95,059	552,602	-0,095	0,163
-94,045	-200,000	0,009	0,077
-93,030	-200,000	0,017	0,058
-92,016	800,000	-0,012	0,034
-91,001	539,574	0,046	-0,078
-89,986	-200,000	0,027	0,086
-88,972	113,874	0,060	-0,051
-87,957	73,373	0,154	0,114
-86,943	248,932	-0,060	-0,072
-85,928	-137,761	-0,072	-0,006
-84,913	-200,000	-0,064	-0,220
-83,899	-200,000	0,012	-0,074
-82,884	40,478	-0,089	-0,057
-81,870	800,000	0,065	0,145
-80,855	30,646	-0,060	0,036
-79,840	-200,000	-0,006	-0,039
-78,826	355,983	0,067	0,094
-77,811	-16,787	-0,161	-0,072
-76,797	-200,000	-0,036	-0,194
-75,782	-77,108	0,111	0,027
-74,767	-200,000	-0,006	-0,093
-73,753	-56,973	-0,115	0,036
-72,738	2,853	-0,122	-0,062
-71,724	-200,000	-0,027	-0,183
-70,709	299,254	-0,022	-0,029
-69,694	1,077	0,079	-0,040
-68,680	-200,000	0,000	-0,094
-67,665	-200,000	-0,018	0,095
-66,651	-200,000	0,020	0,085
-65,636	480,466	0,027	-0,043
-64,622	-200,000	-0,004	-0,104
-63,607	107,012	-0,091	-0,076
-62,592	162,810	-0,025	0,024
-61,578	-5,096	0,084	-0,041
-60,563	-143,577	-0,100	0,007
-59,549	800,000	0,032	-0,078
-58,534	59,298	-1,991	-1,382
-57,519	410,632	-1,273	-1,911
-56,505	-200,000	-0,293	-4,458
-55,490	753,836	0,892	1,709
-54,476	800,000	5,207	11,369
-53,461	-200,000	21,794	337,145
-52,446	800,000	758,917	2297,057
-51,432	533,448	1652,959	2773,238
-50,417	69,245	1650,845	1196,786
-49,403	16,625	1525,381	848,581
-48,388	10,786	1449,940	778,507
-47,373	18,976	1441,991	813,325
-46,359	14,175	1430,765	784,246
-45,344	9,096	1426,575	757,852
-44,330	9,095	1424,869	756,911
-43,315	9,030	1423,147	755,657
-42,300	9,055	1421,256	754,744
-41,286	9,058	1420,138	754,133
-40,271	9,073	1418,848	753,487
-39,257	9,050	1417,706	752,742
-38,242	9,052	1416,497	752,082
-37,227	9,074	1415,490	751,621
-36,213	9,060	1414,368	750,928
-35,198	9,063	1412,956	750,163
-34,184	9,104	1412,033	749,838
-33,169	8,979	1410,796	748,562
-32,154	9,034	1409,764	748,242
-31,140	9,050	1408,302	747,512
-30,125	9,120	1407,081	747,162
-29,111	9,047	1406,223	746,336
-28,096	9,064	1404,944	745,707
-27,082	8,991	1403,720	744,687
-26,067	8,991	1402,675	744,105
-25,052	9,020	1401,638	743,659
-24,038	9,018	1400,424	742,975
-23,023	9,022	1399,763	742,616
-22,009	8,971	1398,855	741,864
-20,994	8,956	1397,940	741,281
-19,979	9,040	1396,704	740,986
-18,965	8,972	1396,005	740,268
-17,950	9,025	1394,672	739,779
-16,936	8,981	1393,855	739,115
-15,921	8,879	1393,093	738,208
-14,906	8,899	1392,124	737,759
-13,892	8,984	1391,031	737,541
-12,877	8,958	1390,445	737,083
-11,863	8,877	1389,794	736,333
-10,848	8,913	1388,535	735,803
-9,833	8,886	1387,650	735,182
-8,819	8,825	1386,882	734,465
-7,804	8,818	1385,932	733,898
-6,790	8,834	1384,783	733,335
-5,775	8,840	1383,784	732,802
-4,760	8,839	1382,918	732,314
-3,746	8,866	1381,825	731,829
-2,731	8,858	1381,142	731,400
-1,717	8,815	1380,431	730,798
-0,702	8,838	1378,524	729,865
0,313	12,813	1290,187	701,169
1,327	28,745	682,428	406,628
2,342	44,226	117,421	75,837
3,356	-0,848	16,560	8,243
4,371	4,516	3,684	1,900
5,386	-22,860	1,327	0,562
6,400	800,000	0,321	0,641
7,415	-48,140	-0,245	-0,083
8,429	14,023	-0,224	-0,122
9,444	24,719	-0,356	-0,208
10,459	25,446	-0,156	-0,091
11,473	-87,736	-0,380	-0,080
12,488	-32,329	-0,292	-0,114
13,502	115,417	-0,254	-0,219
14,517	28,371	-0,393	-0,233
15,531	38,420	-0,390	-0,244
16,546	298,154	-0,216	-0,280
17,561	192,120	-0,307	-0,327
18,575	-87,493	-0,265	-0,056
19,590	237,744	-0,109	-0,128
20,604	-102,064	-0,177	-0,030
21,619	207,221	-0,384	-0,423
22,634	186,903	-0,341	-0,358
23,648	171,424	-0,419	-0,424
24,663	683,758	-0,219	-0,405
25,677	69,677	-0,329	-0,239
26,692	64,871	-0,214	-0,152
27,707	214,479	-0,260	-0,290
28,721	106,107	-0,355	-0,296
29,736	235,845	-0,252	-0,294
30,750	40,397	-0,540	-0,341
31,765	97,587	-0,419	-0,338
32,780	12,109	-0,408	-0,220
33,794	-35,708	-0,323	-0,123
34,809	90,698	-0,361	-0,284
35,823	144,853	-0,300	-0,282
36,838	160,936	-0,297	-0,292
37,853	-7,031	-0,375	-0,178
38,867	174,943	-0,412	-0,420
39,882	6,547	-0,455	-0,237
40,896	121,335	-0,341	-0,298
41,911	-47,553	-0,390	-0,132
42,926	-30,784	-0,379	-0,150
43,940	9,395	-0,326	-0,173
44,955	-3,458	-0,323	-0,158
45,969	15,542	-0,412	-0,227
46,984	-88,320	-0,309	-0,064
47,999	196,910	-0,231	-0,248
49,013	-2,222	-0,350	-0,172
50,028	33,368	-0,384	-0,233
51,042	71,026	-0,474	-0,344
52,057	486,500	-0,231	-0,372
53,071	132,178	-0,333	-0,301
54,086	-3,704	-0,390	-0,189
55,101	40,334	-0,240	-0,151
56,115	66,309	-0,334	-0,238
57,130	47,171	-0,384	-0,250
58,144	-62,282	-0,420	-0,122
59,159	25,092	-0,460	-0,267
60,174	8,732	-0,441	-0,233
61,188	113,301	-0,290	-0,247
62,203	46,042	-0,348	-0,226
63,217	15,420	-0,255	-0,140
64,232	23,366	-0,321	-0,184
65,247	100,136	-0,324	-0,263
66,261	84,887	-0,346	-0,265
67,276	277,322	-0,259	-0,324
68,290	115,510	-0,322	-0,276
69,305	46,232	-0,280	-0,182
70,320	8,456	-0,276	-0,145
71,334	224,061	-0,215	-0,244
72,349	-23,118	-0,301	-0,127
73,363	76,508	-0,333	-0,247
74,378	36,036	-0,348	-0,214
75,393	283,624	-0,178	-0,225
76,407	-62,084	-0,316	-0,092
77,422	29,061	-0,359	-0,213
78,436	37,832	-0,211	-0,131
79,451	79,182	-0,172	-0,129
80,466	130,565	-0,294	-0,264
81,480	55,330	-0,272	-0,184
82,495	81,480	-0,302	-0,229
83,509	-98,594	-0,404	-0,071
84,524	33,591	-0,296	-0,180
85,539	120,737	-0,178	-0,155
86,553	-55,469	-0,327	-0,102
87,568	37,191	-0,358	-0,222
88,582	181,968	-0,274	-0,282
89,597	-11,202	-0,350	-0,161
90,611	249,117	-0,164	-0,194
91,626	426,258	-0,120	-0,182
92,641	-22,624	-0,194	-0,082
93,655	43,814	-0,255	-0,163
94,670	39,641	-0,223	-0,140
95,684	189,819	-0,214	-0,225
96,699	138,487	-0,262	-0,240
97,714	137,021	-0,220	-0,201
98,728	2,034	-0,256	-0,129
99,743	357,701	-0,190	-0,266
100,757	-58,509	-0,220	-0,066
101,772	295,877	-0,288	-0,370
102,787	66,414	-0,209	-0,148
103,801	157,964	-0,157	-0,152
104,816	-4,998	-0,155	-0,074
105,830	-105,321	-0,247	-0,039
106,845	-10,289	-0,203	-0,094
107,860	438,125	-0,195	-0,298
108,874	351,552	-0,222	-0,308
109,889	95,507	-0,271	-0,216
110,903	58,865	-0,213	-0,146
111,918	-53,157	-0,316	-0,101
112,933	437,341	-0,127	-0,194
113,947	-171,016	-0,232	-0,005
114,962	109,599	-0,248	-0,207
115,976	644,716	-0,151	-0,271
116,991	-14,672	-0,253	-0,113
118,006	20,939	-0,286	-0,161
119,020	-47,971	-0,340	-0,114
120,035	145,151	-0,203	-0,189
121,049	-116,511	-0,223	-0,028
122,064	-100,763	-0,252	-0,043
123,079	313,122	-0,134	-0,176
124,093	75,209	-0,269	-0,198
125,108	28,317	-0,316	-0,186
126,122	115,693	-0,290	-0,248
127,137	79,781	-0,262	-0,196
128,151	136,012	-0,190	-0,173
129,166	94,537	-0,220	-0,174
130,181	320,522	-0,206	-0,274
131,195	170,399	-0,198	-0,198
132,210	64,871	-0,216	-0,152
133,224	191,693	-0,205	-0,216
134,239	390,361	-0,139	-0,202
135,254	97,729	-0,138	-0,111
136,268	80,290	-0,246	-0,184
137,283	-73,425	-0,198	-0,050
138,297	-59,235	-0,236	-0,070
139,312	306,214	-0,213	-0,277
140,327	-155,132	-0,190	-0,009
141,341	50,854	-0,200	-0,132
142,356	-180,542	-0,199	-0,003
143,370	-81,011	-0,226	0,052
144,385	342,550	-0,200	-0,273
145,400	414,438	-0,147	-0,219
146,414	105,429	-0,263	-0,217
147,429	296,305	-0,180	-0,231
148,443	97,852	-0,235	-0,188
149,458	106,837	-0,277	-0,228
150,473	-76,184	-0,342	-0,083
151,487	133,475	-0,205	-0,185
152,502	97,026	-0,313	-0,250
153,516	140,708	-0,210	-0,193
154,531	67,479	-0,251	-0,178
155,546	107,988	-0,218	-0,181
156,560	115,859	-0,183	-0,156
157,575	177,696	-0,185	-0,187
158,589	141,626	-0,211	-0,194
159,604	53,454	-0,161	-0,107
160,619	215,243	-0,264	-0,292
161,633	-52,277	-0,407	-0,130
162,648	280,502	-0,263	-0,328
163,662	-79,109	-0,284	-0,067
164,677	-62,491	-0,288	-0,083
165,692	608,072	-0,105	-0,182
166,706	-97,705	-0,281	-0,050
167,721	-21,784	-0,261	-0,110
168,735	59,321	-0,318	-0,218
169,750	28,013	-0,238	-0,139
170,764	283,947	-0,165	-0,207
171,779	8,836	-0,150	-0,078
172,794	10,604	-0,171	-0,090
173,808	-1,776	-0,244	-0,119
174,823	37,818	-0,339	-0,209
175,837	86,141	-0,243	-0,186
176,852	317,500	-0,142	-0,186
177,867	104,787	-0,341	-0,279
178,881	147,075	-0,153	-0,143
179,896	126,247	-0,232	-0,204
180,910	24,447	-0,156	-0,089
181,925	72,569	-0,205	-0,148
182,940	691,626	-0,183	-0,333
183,954	-2,301	-0,222	-0,108
184,969	-39,827	-0,273	-0,098
185,983	91,443	-0,154	-0,120
186,998	128,567	-0,141	-0,125
188,013	174,343	-0,149	-0,149
189,027	125,940	-0,265	-0,232
190,042	800,000	-0,127	-0,248
191,056	346,278	-0,151	-0,207
192,071	800,000	-0,092	-0,202
193,086	746,366	-0,083	-0,155
194,100	257,714	-0,171	-0,204
195,115	332,395	-0,076	-0,102
196,129	303,715	-0,090	-0,116
197,144	-29,935	-0,294	-0,116
198,159	-63,999	-0,195	-0,055
199,173	-75,132	-0,131	-0,032
200,188	-146,112	-0,140	-0,008
201,202	639,519	-0,083	-0,147
202,217	206,691	-0,125	-0,135
203,232	-141,789	-0,259	-0,018
204,246	250,293	-0,176	-0,207
205,261	-45,608	-0,307	-0,105
206,275	122,680	-0,307	-0,266
207,290	423,052	-0,136	-0,204
208,304	-49,412	-0,210	-0,069
209,319	290,017	-0,172	-0,217
210,334	54,653	-0,295	-0,197
211,348	613,805	-0,112	-0,194
212,363	106,648	-0,180	-0,148
213,377	274,746	-0,154	-0,189
214,392	211,446	-0,093	-0,101
215,407	52,378	-0,216	-0,142
216,421	108,578	-0,113	-0,093
217,436	-112,127	-0,202	-0,028
218,450	202,415	-0,181	-0,193
219,465	-50,328	-0,313	-0,102
220,480	129,775	-0,169	-0,150
221,494	-6,741	-0,198	-0,093
222,509	-97,999	-0,115	-0,020
223,523	-161,009	-0,230	-0,008
224,538	-46,171	-0,281	-0,095
225,553	-131,245	-0,130	-0,012
226,567	800,000	-0,108	-0,268
227,582	-200,000	-0,065	-0,224
228,596	49,973	-0,110	-0,071
229,611	71,367	-0,128	-0,092
230,626	-144,895	-0,229	0,014
231,640	18,171	-0,155	-0,085
232,655	-3,517	-0,191	-0,092
233,669	-200,000	-0,037	-0,163
234,684	236,209	-0,151	-0,173
235,699	247,561	-0,210	-0,246
236,713	-37,663	-0,180	-0,066
237,728	1,221	-0,191	-0,095
238,742	-53,378	-0,136	0,043
239,757	-106,911	-0,297	-0,045
240,772	55,116	-0,268	-0,178
241,786	800,000	-0,078	-0,157
242,801	-129,915	-0,096	-0,009
243,815	16,626	-0,244	-0,133
244,830	-200,000	0,001	-0,074
245,844	111,566	-0,249	-0,207
246,859	800,000	-0,102	-0,200
247,874	85,530	-0,310	-0,235
248,888	-17,002	-0,241	-0,105
249,903	188,238	-0,128	-0,132
250,917	-86,069	-0,229	0,048
251,932	-182,996	-0,224	-0,003
252,947	614,571	-0,114	-0,198
253,961	800,000	-0,113	-0,227
254,976	175,126	-0,210	-0,210
255,990	167,834	-0,163	-0,160
257,005	164,515	-0,173	-0,168
258,020	-93,792	-0,057	0,011
259,034	-168,843	-0,191	-0,005
260,049	53,392	-0,172	-0,113
261,063	272,572	-0,094	-0,115
262,078	800,000	-0,084	-0,181
263,093	23,543	-0,265	-0,150
264,107	-154,912	-0,194	0,009
265,122	-54,773	-0,195	-0,060
266,136	90,437	-0,106	-0,082
267,151	-54,011	-0,218	0,068
268,166	-11,984	-0,175	-0,079
269,180	-95,044	-0,187	-0,034
270,195	-42,393	-0,132	0,046
271,209	123,076	-0,162	-0,140
272,224	-92,251	-0,158	-0,030
273,239	-200,000	-0,065	-0,210
274,253	800,000	-0,025	-0,053
275,268	122,386	-0,196	-0,169
276,282	12,368	-0,239	-0,126
277,297	181,421	-0,123	-0,124
278,312	11,854	-0,216	-0,114
279,326	800,000	-0,071	-0,168
280,341	800,000	-0,032	-0,069
281,355	31,402	-0,244	-0,144
282,370	-40,094	-0,185	-0,066
283,384	258,241	-0,138	-0,164
284,399	297,017	-0,163	-0,206
285,414	-14,485	-0,176	-0,077
286,428	389,528	-0,131	-0,187
287,443	48,852	-0,162	-0,104
288,457	-89,350	-0,149	-0,030
289,472	-62,912	-0,334	-0,094
290,487	1,390	-0,197	-0,097
291,501	-161,447	-0,242	-0,008
292,516	-41,490	-0,205	-0,072
293,530	-17,678	-0,186	-0,080
294,545	279,767	-0,175	-0,216
295,560	-200,000	-0,007	-0,146
296,574	103,383	-0,207	-0,167
297,589	-31,383	-0,239	-0,092
298,603	307,253	-0,181	-0,232
299,618	490,776	-0,062	-0,098
300,633	-200,000	-0,018	-0,203
301,647	-101,614	-0,116	-0,019
302,662	108,767	-0,096	-0,079
303,676	202,191	-0,190	-0,201
304,691	36,940	-0,135	-0,082
305,706	-155,581	-0,278	-0,012
306,720	-185,959	-0,176	0,002
307,735	-200,000	-0,008	0,032
308,749	65,333	-0,192	-0,133
309,764	4,812	-0,139	-0,070
310,779	-96,072	-0,131	0,024
311,793	-184,654	-0,160	-0,002
312,808	-27,348	-0,147	-0,058
313,822	86,005	-0,122	-0,092
314,837	800,000	-0,087	-0,214
315,852	126,617	-0,175	-0,152
316,866	24,890	0,022	0,012
317,881	44,666	-0,080	-0,050
318,895	-94,610	-0,183	0,034
319,910	184,024	-0,137	-0,139
320,925	231,230	-0,247	-0,277
321,939	334,953	-0,152	-0,202
322,954	176,814	-0,122	-0,122
323,968	-91,201	-0,287	-0,056
324,983	-200,000	-0,020	-0,121
325,997	-200,000	0,019	-0,117
327,012	2,097	-0,131	-0,064
328,027	288,694	-0,073	-0,091
329,041	54,185	-0,200	-0,132
330,056	-200,000	-0,027	-0,095
331,070	566,766	-0,069	-0,115
332,085	654,032	-0,057	-0,100
333,100	-192,299	-0,118	-0,001
334,114	794,039	-0,105	-0,200
335,129	642,780	-0,083	-0,146
336,143	-42,013	-0,183	-0,064
337,158	40,184	-0,132	-0,081
338,173	-66,418	-0,106	-0,029
339,187	-74,619	-0,103	0,025
340,202	388,525	-0,171	-0,244
341,216	46,324	-0,264	-0,167
342,231	11,413	-0,232	-0,121
343,246	-200,000	0,013	-0,263
344,260	690,246	-0,065	-0,117
345,275	0,677	-0,143	-0,070
346,289	161,457	-0,062	-0,059
347,304	-98,209	-0,115	0,020
348,319	-145,499	-0,079	0,005
349,333	471,959	-0,194	-0,300
350,348	22,978	-0,198	-0,111
351,362	-200,000	-0,006	-0,047
352,377	106,501	-0,075	0,061
353,392	157,518	-0,241	-0,229
354,406	88,450	-0,162	-0,123
355,421	206,415	1306,875	1392,829
356,435	158,748	1466,611	1393,306
