DTS Sentinel unit serial number:	SN410029Multiplexer serial number:	ORYXHardware model number:	OX2-SRSoftware version number:	ORYX F/W v4,00 Oryx Data Collector v3.7.2.0data status	okinstallation	B3 Nyhavnadifferential loss correction	single-endedforward channel	channel 1reverse channel	N/Adate	2023/12/04time	17:52:30forward acquisition time	300,00reverse acquisition time	0,00gamma	499,1914k internal	0,3200k external	0,3200temperature offset calibration	1,0000default loss term (dB/km)	0,3820temperature slope calibration	1,0000multiplexer offset coefficient	1,0000multiplexer slope coefficient	1,0000fibre end	0,00T internal ref (°C)	15,04T ext. ref 1 (°C)	-0,05T ext. ref 2 (°C)	-0,06length (m)	temperature (°C)	Stokes	anti-Stokes-744,400	391,046	-0,093	-0,140
-743,385	-200,000	0,083	0,477
-742,371	214,205	-0,138	-0,160
-741,356	-200,000	0,080	0,299
-740,342	282,240	-0,109	-0,143
-739,327	-200,000	0,005	0,286
-738,312	40,569	-0,298	-0,195
-737,298	-200,000	-0,003	0,215
-736,283	-44,190	-0,182	-0,066
-735,269	-200,000	0,037	0,295
-734,254	7,014	-0,237	-0,128
-733,239	197,918	-0,134	0,149
-732,225	206,990	-0,146	-0,166
-731,210	55,341	0,139	0,098
-730,196	112,076	0,073	0,064
-729,181	231,545	-0,028	-0,033
-728,167	-43,319	0,055	0,020
-727,152	-200,000	-0,001	-0,012
-726,137	74,490	-0,085	0,065
-725,123	258,432	-0,128	-0,160
-724,108	-11,533	-0,214	-0,102
-723,094	-19,558	-0,123	-0,055
-722,079	239,493	-0,066	-0,080
-721,064	800,000	0,056	0,153
-720,050	-14,688	-0,143	-0,066
-719,035	-33,732	0,021	-0,008
-718,021	-200,000	0,005	0,038
-717,006	317,987	-0,115	-0,159
-715,991	590,704	-0,041	-0,075
-714,977	-200,000	0,006	-0,174
-713,962	361,971	-0,054	0,079
-712,948	101,046	0,088	-0,074
-711,933	413,234	-0,011	0,017
-710,918	800,000	0,029	-0,062
-709,904	-96,483	-0,168	-0,032
-708,889	-200,000	-0,041	-0,185
-707,875	238,165	-0,039	-0,047
-706,860	217,063	0,031	-0,035
-705,845	-21,138	0,030	0,013
-704,831	800,000	-0,017	-0,040
-703,816	800,000	-0,048	0,142
-702,802	-88,370	0,117	0,025
-701,787	-118,109	-0,057	0,007
-700,772	-18,649	-0,218	-0,099
-699,758	41,016	0,118	-0,077
-698,743	120,642	-0,043	-0,039
-697,729	800,000	0,032	-0,098
-696,714	-200,000	0,011	0,073
-695,699	44,980	-0,097	0,065
-694,685	65,839	0,032	-0,023
-693,670	800,000	0,063	-0,134
-692,656	179,717	-0,021	-0,022
-691,641	46,378	-0,017	0,011
-690,627	-23,276	0,115	-0,050
-689,612	710,460	0,034	0,066
-688,597	-62,733	-0,135	-0,040
-687,583	176,457	-0,082	-0,086
-686,568	64,521	-0,137	-0,100
-685,554	-31,594	0,124	-0,050
-684,539	-200,000	-0,006	0,043
-683,524	-130,590	0,017	0,002
-682,510	-85,048	-0,114	0,026
-681,495	-98,372	-0,135	0,025
-680,481	800,000	-0,042	-0,106
-679,466	800,000	-0,032	-0,085
-678,451	-35,921	0,130	-0,051
-677,437	-61,121	0,094	-0,028
-676,422	-200,000	-0,021	0,129
-675,408	800,000	0,026	-0,073
-674,393	-200,000	0,015	-0,135
-673,378	-148,865	-0,122	-0,007
-672,364	-200,000	-0,015	-0,104
-671,349	-21,629	0,050	0,022
-670,335	-55,741	-0,087	0,028
-669,320	-102,743	-0,120	-0,020
-668,305	411,037	0,029	-0,044
-667,291	13,973	-0,060	-0,034
-666,276	-200,000	0,028	-0,118
-665,262	206,901	0,059	-0,067
-664,247	800,000	0,011	-0,027
-663,232	542,841	0,035	-0,060
-662,218	800,000	0,032	-0,092
-661,203	460,537	-0,031	-0,050
-660,189	-200,000	-0,006	0,066
-659,174	-200,000	0,015	-0,162
-658,159	349,258	0,046	0,065
-657,145	107,867	0,103	-0,089
-656,130	-200,000	-0,007	0,062
-655,116	800,000	0,048	-0,148
-654,101	118,108	-0,088	0,079
-653,086	167,498	0,019	-0,020
-652,072	-106,841	-0,072	-0,012
-651,057	20,860	-0,069	-0,040
-650,043	-200,000	-0,000	-0,027
-649,028	627,155	-0,071	-0,130
-648,014	-200,000	0,023	-0,103
-646,999	-87,579	-0,108	-0,023
-645,984	-72,144	-0,109	0,029
-644,970	513,654	-0,007	-0,012
-643,955	196,675	-0,037	0,041
-642,941	-200,000	0,005	0,096
-641,926	-198,323	-0,036	0,000
-640,911	-200,000	-0,001	-0,006
-639,897	-200,000	-0,023	0,089
-638,882	-200,000	0,028	0,101
-637,868	583,950	-0,032	0,056
-636,853	-200,000	0,005	0,117
-635,838	9,933	0,053	-0,029
-634,824	7,190	-0,106	-0,057
-633,809	97,120	0,105	-0,087
-632,795	-67,361	-0,099	-0,028
-631,780	800,000	-0,084	0,217
-630,765	161,479	-0,050	0,050
-629,751	-200,000	-0,012	-0,089
-628,736	42,757	-0,150	-0,099
-627,722	-83,384	0,050	0,011
-626,707	-200,000	-0,008	0,079
-625,692	193,433	-0,039	0,043
-624,678	380,497	-0,021	0,032
-623,663	-200,000	-0,010	-0,062
-622,649	-120,227	-0,171	-0,021
-621,634	196,377	0,080	-0,088
-620,619	80,478	-0,039	-0,031
-619,605	-76,314	-0,072	-0,018
-618,590	606,257	0,081	0,147
-617,576	122,234	-0,137	0,124
-616,561	800,000	-0,025	0,063
-615,546	727,062	-0,016	-0,032
-614,532	-49,587	-0,091	0,031
-613,517	800,000	-0,018	-0,050
-612,503	175,086	-0,049	-0,051
-611,488	-48,531	0,084	-0,029
-610,474	-58,232	0,160	-0,050
-609,459	-53,958	-0,136	-0,045
-608,444	-141,441	0,149	0,011
-607,430	-71,084	-0,107	0,029
-606,415	800,000	-0,050	0,124
-605,401	115,150	-0,099	0,088
-604,386	-200,000	0,008	0,180
-603,371	41,823	-0,090	0,059
-602,357	-200,000	-0,024	-0,078
-601,342	-59,515	0,220	0,068
-600,328	-200,000	-0,014	-0,086
-599,313	0,636	0,135	-0,070
-598,298	85,120	-0,076	-0,060
-597,284	194,474	-0,033	0,036
-596,269	-59,226	0,128	0,040
-595,255	-200,000	0,004	0,146
-594,240	456,920	0,018	0,030
-593,225	-200,000	0,004	-0,057
-592,211	-200,000	-0,023	-0,102
-591,196	-4,706	-0,033	0,016
-590,182	-200,000	0,024	0,120
-589,167	152,452	-0,036	0,036
-588,152	119,837	-0,084	0,075
-587,138	-139,865	-0,044	-0,003
-586,123	-200,000	-0,006	-0,089
-585,109	386,904	-0,049	0,073
-584,094	-168,316	-0,101	0,003
-583,079	-200,000	0,028	-0,122
-582,065	-17,256	0,126	0,057
-581,050	-200,000	0,029	-0,097
-580,036	-200,000	0,008	0,045
-579,021	118,256	-0,120	-0,107
-578,006	-109,585	0,077	0,012
-576,992	-155,204	0,172	-0,008
-575,977	438,609	0,031	0,049
-574,963	-114,463	-0,039	0,005
-573,948	535,368	-0,063	0,108
-572,934	-37,253	-0,076	0,029
-571,919	-200,000	0,003	-0,181
-570,904	-42,207	-0,132	0,048
-569,890	-101,713	0,091	0,016
-568,875	655,136	0,062	0,115
-567,861	619,582	0,047	-0,085
-566,846	800,000	0,020	-0,052
-565,831	-138,965	0,065	-0,005
-564,817	20,042	0,020	-0,012
-563,802	-173,455	-0,190	-0,004
-562,788	-127,616	-0,095	0,010
-561,773	-104,281	0,137	0,023
-560,758	-16,342	0,106	-0,048
-559,744	143,644	-0,025	-0,024
-558,729	571,167	-0,033	0,058
-557,715	183,327	-0,070	0,075
-556,700	-69,947	-0,120	0,033
-555,685	-49,886	0,123	0,042
-554,671	800,000	0,054	-0,112
-553,656	-72,599	0,137	0,036
-552,642	93,921	-0,089	0,072
-551,627	284,960	-0,021	-0,028
-550,612	66,645	0,072	-0,053
-549,598	-12,502	0,073	-0,034
-548,583	-77,981	-0,087	-0,022
-547,569	-0,064	-0,087	0,045
-546,554	-151,080	0,111	-0,006
-545,539	-200,000	-0,001	-0,225
-544,525	229,509	0,049	0,058
-543,510	192,704	-0,071	0,078
-542,496	83,810	-0,094	-0,074
-541,481	-200,000	-0,030	0,107
-540,466	-53,251	0,223	0,074
-539,452	-33,221	0,094	0,037
-538,437	170,240	0,093	-0,096
-537,423	51,938	-0,082	-0,056
-536,408	-162,659	0,175	0,006
-535,393	167,804	-0,029	-0,030
-534,379	120,027	-0,146	-0,131
-533,364	-31,796	0,114	-0,046
-532,350	-176,611	-0,099	-0,002
-531,335	-200,000	-0,008	0,041
-530,321	800,000	0,027	0,065
-529,306	-200,000	0,013	-0,053
-528,291	42,967	-0,049	0,032
-527,277	-150,569	0,065	-0,004
-526,262	215,883	-0,070	0,081
-525,248	201,337	0,069	0,077
-524,233	-200,000	-0,019	0,081
-523,218	73,623	0,118	0,089
-522,204	-200,000	0,016	-0,061
-521,189	-200,000	-0,022	0,106
-520,175	11,467	-0,024	-0,013
-519,160	3,271	-0,100	-0,052
-518,145	574,431	-0,098	-0,173
-517,131	-200,000	0,015	0,053
-516,116	-61,076	0,059	0,018
-515,102	-109,741	-0,107	0,016
-514,087	635,000	-0,091	-0,167
-513,072	322,890	0,055	-0,075
-512,058	309,021	-0,022	-0,030
-511,043	695,201	0,048	0,092
-510,029	201,065	0,027	0,030
-509,014	519,720	-0,035	-0,059
-507,999	34,292	0,026	-0,016
-506,985	423,858	-0,017	0,026
-505,970	-82,479	-0,076	0,018
-504,956	24,186	0,052	0,031
-503,941	-74,995	0,160	-0,041
-502,926	43,945	0,112	0,074
-501,912	-200,000	-0,004	0,145
-500,897	-33,444	0,100	0,040
-499,883	-200,000	-0,016	-0,115
-498,868	800,000	-0,037	-0,086
-497,853	-200,000	0,023	-0,123
-496,839	-24,226	-0,013	0,005
-495,824	655,905	0,061	0,114
-494,810	-200,000	-0,007	-0,098
-493,795	677,125	0,081	0,152
-492,781	800,000	0,044	-0,105
-491,766	-178,921	-0,104	0,002
-490,751	-200,000	0,008	0,050
-489,737	235,973	0,093	-0,111
-488,722	-60,027	0,131	-0,040
-487,708	40,250	0,147	-0,095
-486,693	113,675	0,126	0,111
-485,678	-141,849	0,178	0,013
-484,664	111,548	-0,093	-0,081
-483,649	-133,940	-0,212	-0,019
-482,635	-160,021	-0,060	0,002
-481,620	800,000	0,069	0,140
-480,605	-27,838	-0,137	0,057
-479,591	800,000	-0,030	0,080
-478,576	800,000	-0,020	0,043
-477,562	-105,995	0,066	-0,011
-476,547	800,000	-0,042	-0,123
-475,532	559,270	-0,038	0,067
-474,518	-199,476	0,106	0,000
-473,503	452,137	0,080	-0,127
-472,489	252,978	-0,076	-0,094
-471,474	800,000	-0,018	0,044
-470,459	-91,455	-0,071	-0,015
-469,445	169,283	-0,047	-0,048
-468,430	-89,263	-0,141	-0,030
-467,416	636,170	-0,020	-0,037
-466,401	-47,282	0,044	-0,015
-465,386	4,163	0,045	0,024
-464,372	727,129	0,017	0,033
-463,357	-111,797	0,065	-0,009
-462,343	66,531	-0,074	0,054
-461,328	574,626	0,045	0,079
-460,313	-71,881	0,048	0,013
-459,299	-108,872	-0,040	-0,006
-458,284	245,673	0,012	-0,014
-457,270	253,506	0,047	0,058
-456,255	-32,585	-0,094	0,038
-455,241	453,630	0,041	0,066
-454,226	108,763	-0,063	0,054
-453,211	-100,253	-0,167	0,030
-452,197	350,059	-0,007	-0,010
-451,182	-200,000	0,025	0,138
-450,168	-67,994	0,157	-0,044
-449,153	-200,000	-0,003	-0,028
-448,138	59,510	-0,018	-0,012
-447,124	6,191	-0,069	0,037
-446,109	-156,648	0,157	0,007
-445,095	-106,495	0,034	-0,005
-444,080	318,987	0,044	0,061
-443,065	-200,000	-0,005	0,161
-442,051	73,047	0,036	-0,027
-441,036	-200,000	-0,005	-0,187
-440,022	-11,500	-0,017	-0,008
-439,007	-145,847	0,030	-0,002
-437,992	-7,752	0,117	-0,057
-436,978	209,812	0,038	-0,043
-435,963	271,756	0,100	0,127
-434,949	164,217	-0,016	0,016
-433,934	800,000	0,052	-0,130
-432,919	123,052	-0,022	0,019
-431,905	517,114	0,043	-0,073
-430,890	15,206	-0,141	0,079
-429,876	800,000	0,064	0,162
-428,861	800,000	-0,014	-0,041
-427,846	-200,000	0,008	0,125
-426,832	-27,205	0,032	-0,013
-425,817	800,000	-0,063	-0,168
-424,803	-33,864	-0,067	0,026
-423,788	800,000	-0,011	0,034
-422,773	-116,522	-0,095	-0,012
-421,759	105,939	-0,021	0,017
-420,744	-200,000	-0,014	0,097
-419,730	393,198	-0,027	-0,041
-418,715	287,076	0,108	-0,140
-417,701	622,926	-0,084	-0,153
-416,686	225,725	0,044	-0,051
-415,671	117,723	0,116	-0,103
-414,657	21,651	-0,015	0,008
-413,642	800,000	-0,060	-0,151
-412,628	-200,000	-0,024	-0,097
-411,613	-181,765	0,077	0,001
-410,598	-200,000	0,006	0,088
-409,584	-200,000	-0,003	0,072
-408,569	-157,846	0,112	0,005
-407,555	-200,000	0,007	0,040
-406,540	-64,121	0,114	0,033
-405,525	-30,360	-0,104	-0,042
-404,511	324,076	-0,106	-0,146
-403,496	-200,000	-0,034	-0,111
-402,482	154,824	0,037	0,036
-401,467	-200,000	0,040	0,203
-400,452	-10,300	0,056	-0,026
-399,438	800,000	-0,034	-0,093
-398,423	219,008	-0,038	-0,043
-397,409	-126,572	-0,091	-0,010
-396,394	-200,000	-0,033	-0,131
-395,379	179,010	0,037	-0,039
-394,365	-175,822	0,061	-0,001
-393,350	617,849	-0,056	0,101
-392,336	-49,677	-0,016	0,005
-391,321	800,000	-0,030	0,063
-390,306	800,000	0,025	0,053
-389,292	6,253	-0,146	0,077
-388,277	656,802	-0,066	-0,122
-387,263	-200,000	0,004	0,060
-386,248	41,706	0,092	0,060
-385,233	800,000	-0,008	0,024
-384,219	228,736	0,050	0,059
-383,204	-70,511	0,102	0,027
-382,190	-136,572	-0,174	-0,014
-381,175	119,098	-0,061	-0,054
-380,160	800,000	0,029	0,073
-379,146	-109,185	0,122	0,018
-378,131	280,467	-0,058	0,074
-377,117	509,287	-0,023	-0,039
-376,102	58,260	0,050	0,035
-375,088	319,904	-0,058	0,079
-374,073	-63,347	-0,111	-0,032
-373,058	-200,000	0,008	0,128
-372,044	230,598	0,074	0,087
-371,029	-87,450	0,045	0,010
-370,015	-58,346	-0,016	0,005
-369,000	-200,000	-0,002	-0,026
-367,985	355,601	-0,059	0,084
-366,971	500,106	-0,103	-0,172
-365,956	725,843	0,033	-0,064
-364,942	-200,000	-0,027	0,109
-363,927	800,000	0,050	0,121
-362,912	484,068	0,030	-0,048
-361,898	332,416	0,007	0,010
-360,883	14,514	0,030	0,017
-359,869	522,804	-0,053	0,089
-358,854	-152,504	0,119	0,006
-357,839	505,981	0,103	-0,171
-356,825	423,861	-0,102	0,158
-355,810	-46,527	-0,046	-0,016
-354,796	-200,000	0,010	-0,118
-353,781	-30,230	-0,062	0,025
-352,766	800,000	0,034	-0,089
-351,752	-200,000	0,002	-0,040
-350,737	122,839	-0,065	0,059
-349,723	-130,295	0,091	-0,009
-348,708	299,781	0,070	0,092
-347,693	408,330	0,035	-0,054
-346,679	789,678	0,021	-0,042
-345,664	63,775	-0,044	0,031
-344,650	-200,000	-0,016	-0,080
-343,635	-200,000	0,011	-0,074
-342,620	-15,425	0,094	0,043
-341,606	65,023	0,026	0,019
-340,591	-200,000	-0,010	0,080
-339,577	800,000	0,070	-0,156
-338,562	800,000	0,059	-0,121
-337,548	-200,000	0,032	-0,190
-336,533	133,540	0,080	-0,074
-335,518	-200,000	-0,002	0,093
-334,504	-99,099	-0,119	0,021
-333,489	-200,000	0,036	-0,141
-332,475	20,152	0,074	-0,042
-331,460	800,000	-0,036	-0,089
-330,445	-97,302	0,134	-0,025
-329,431	302,174	-0,038	-0,050
-328,416	43,659	-0,119	0,078
-327,402	405,042	-0,050	0,075
-326,387	800,000	0,021	0,059
-325,372	-200,000	0,004	-0,016
-324,358	800,000	-0,025	-0,055
-323,343	-19,138	0,106	-0,047
-322,329	-200,000	0,053	-0,196
-321,314	94,357	-0,102	0,083
-320,299	41,818	-0,037	-0,024
-319,285	27,182	0,124	0,075
-318,270	-168,332	-0,150	0,004
-317,256	-103,397	-0,059	0,010
-316,241	184,688	-0,023	-0,025
-315,226	-142,812	-0,150	0,010
-314,212	-200,000	0,036	0,175
-313,197	-82,132	-0,188	0,044
-312,183	105,815	0,062	-0,053
-311,168	-24,272	-0,075	-0,032
-310,153	800,000	-0,031	-0,096
-309,139	-84,776	-0,059	0,013
-308,124	435,318	0,063	0,098
-307,110	800,000	0,022	0,057
-306,095	187,150	0,098	0,105
-305,080	-63,430	0,154	0,045
-304,066	800,000	-0,065	-0,131
-303,051	171,606	-0,141	-0,145
-302,037	-45,631	-0,115	-0,040
-301,022	-102,389	0,050	0,008
-300,008	800,000	0,022	-0,045
-298,993	-173,520	0,101	-0,002
-297,978	40,276	0,044	0,028
-296,964	-37,207	0,089	-0,034
-295,949	-115,322	-0,134	-0,018
-294,935	-160,283	0,047	-0,002
-293,920	-99,203	-0,049	-0,009
-292,905	51,189	0,111	-0,075
-291,891	-200,000	0,024	-0,135
-290,876	-40,412	0,079	0,029
-289,862	-23,540	0,043	0,018
-288,847	-200,000	0,026	0,093
-287,832	-200,000	0,004	-0,101
-286,818	-2,886	-0,060	0,030
-285,803	65,758	0,051	0,037
-284,789	800,000	-0,041	0,115
-283,774	-79,151	0,142	0,034
-282,759	-104,076	-0,177	0,029
-281,745	-46,893	0,073	-0,025
-280,730	-200,000	-0,012	0,092
-279,716	451,092	0,054	-0,085
-278,701	-95,356	-0,042	0,008
-277,686	-107,443	0,102	0,016
-276,672	-57,257	0,108	-0,034
-275,657	-179,026	-0,099	-0,002
-274,643	-200,000	-0,031	0,172
-273,628	-103,932	-0,150	-0,025
-272,613	-113,073	0,156	0,022
-271,599	198,571	0,137	-0,149
-270,584	249,777	-0,102	0,124
-269,570	-200,000	0,021	0,196
-268,555	-200,000	0,002	0,101
-267,540	228,370	-0,066	0,077
-266,526	800,000	0,040	-0,091
-265,511	800,000	0,024	-0,065
-264,497	-200,000	-0,025	-0,115
-263,482	-145,571	-0,069	-0,004
-262,467	16,783	0,127	0,071
-261,453	-200,000	0,005	0,046
-260,438	-200,000	-0,004	-0,077
-259,424	418,056	0,079	-0,121
-258,409	228,332	-0,091	-0,106
-257,395	-200,000	0,003	0,056
-256,380	-200,000	0,000	-0,008
-255,365	-200,000	0,029	-0,152
-254,351	616,367	0,038	-0,069
-253,336	554,917	-0,106	-0,184
-252,322	-200,000	0,007	-0,052
-251,307	-107,339	-0,101	-0,016
-250,292	800,000	0,020	-0,058
-249,278	253,766	0,105	0,128
-248,263	36,000	0,090	-0,056
-247,249	-200,000	-0,005	-0,095
-246,234	-200,000	-0,005	-0,139
-245,219	-62,748	-0,042	-0,012
-244,205	-30,778	0,025	-0,010
-243,190	-200,000	0,005	0,045
-242,176	11,986	0,066	-0,036
-241,161	-200,000	0,002	-0,009
-240,146	-200,000	0,008	0,096
-239,132	-200,000	-0,007	0,068
-238,117	163,197	0,057	0,058
-237,103	800,000	0,026	-0,075
-236,088	-200,000	-0,011	-0,069
-235,073	-200,000	0,036	0,119
-234,059	-151,403	0,063	0,003
-233,044	-200,000	0,006	0,059
-232,030	2,632	-0,074	-0,038
-231,015	383,118	0,165	-0,242
-230,000	-200,000	-0,018	0,087
-228,986	-95,360	0,064	-0,012
-227,971	-12,176	-0,049	0,023
-226,957	-200,000	-0,003	0,044
-225,942	308,512	0,077	-0,102
-224,927	800,000	-0,013	0,029
-223,913	800,000	-0,048	0,102
-222,898	800,000	0,047	-0,108
-221,884	168,403	-0,102	-0,104
-220,869	359,758	0,015	-0,022
-219,855	-176,017	-0,131	0,002
-218,840	800,000	-0,052	0,116
-217,825	-200,000	-0,018	0,137
-216,811	331,183	-0,084	-0,116
-215,796	-42,188	0,124	0,045
-214,782	-71,813	0,077	-0,020
-213,767	-200,000	0,003	-0,060
-212,752	375,937	0,060	0,088
-211,738	-10,180	-0,092	0,043
-210,723	-200,000	-0,051	0,261
-209,709	274,828	-0,034	-0,043
-208,694	120,651	0,045	-0,040
-207,679	330,131	-0,006	0,008
-206,665	20,103	-0,105	-0,060
-205,650	75,509	0,047	0,035
-204,636	-200,000	0,030	0,104
-203,621	-200,000	-0,013	-0,067
-202,606	28,299	0,021	-0,013
-201,592	-197,802	0,095	-0,000
-200,577	-31,931	0,078	-0,031
-199,563	-35,907	0,035	-0,014
-198,548	360,437	-0,024	0,034
-197,533	-1,084	-0,065	0,032
-196,519	289,045	-0,113	0,146
-195,504	69,420	0,059	0,043
-194,490	-200,000	-0,001	0,020
-193,475	-60,038	0,018	-0,005
-192,460	122,196	-0,068	0,060
-191,446	59,910	0,047	-0,033
-190,431	800,000	0,093	0,192
-189,417	-200,000	-0,026	-0,191
-188,402	456,264	-0,045	-0,071
-187,387	144,102	-0,125	-0,119
-186,373	378,811	-0,044	-0,064
-185,358	495,362	-0,081	0,133
-184,344	716,773	-0,029	-0,056
-183,329	-200,000	0,011	-0,148
-182,315	-67,381	-0,074	-0,020
-181,300	252,586	-0,051	-0,062
-180,285	-200,000	0,014	-0,091
-179,271	171,636	0,013	0,013
-178,256	76,604	-0,059	-0,045
-177,242	734,199	0,021	0,041
-176,227	800,000	0,053	-0,122
-175,212	193,593	-0,054	-0,059
-174,198	-1,296	-0,194	-0,097
-173,183	734,426	-0,010	-0,019
-172,169	800,000	0,029	-0,083
-171,154	-161,011	0,140	0,005
-170,139	800,000	0,036	0,111
-169,125	-200,000	0,016	0,108
-168,110	-122,704	-0,058	0,007
-167,096	681,236	-0,050	0,093
-166,081	800,000	0,031	0,096
-165,066	-200,000	-0,006	-0,154
-164,052	226,648	-0,015	-0,018
-163,037	-200,000	0,017	0,121
-162,023	-79,129	0,076	-0,018
-161,008	253,796	-0,073	0,089
-159,993	-200,000	-0,003	0,046
-158,979	800,000	-0,038	0,082
-157,964	3,123	-0,122	-0,063
-156,950	12,973	0,085	0,046
-155,935	-200,000	0,006	0,061
-154,920	130,323	0,130	0,118
-153,906	304,577	-0,098	0,130
-152,891	68,248	0,065	0,047
-151,877	800,000	0,066	0,153
-150,862	-62,961	-0,128	0,037
-149,847	-85,518	0,060	0,013
-148,833	-200,000	-0,017	-0,084
-147,818	800,000	0,067	0,156
-146,804	195,906	0,034	-0,037
-145,789	665,296	-0,046	0,085
-144,775	-34,524	0,031	-0,012
-143,760	800,000	-0,004	0,009
-142,745	800,000	-0,018	-0,052
-141,731	-82,302	0,110	-0,025
-140,716	800,000	-0,065	-0,135
-139,702	-12,438	-0,059	0,027
-138,687	428,897	0,042	-0,064
-137,672	31,579	0,144	-0,088
-136,658	4,823	-0,058	0,030
-135,643	613,250	0,076	-0,137
-134,629	-49,548	-0,019	-0,006
-133,614	-24,381	0,120	-0,051
-132,599	73,656	-0,015	0,011
-131,585	427,647	-0,048	0,074
-130,570	210,742	-0,061	0,068
-129,556	800,000	0,012	0,025
-128,541	607,362	0,149	-0,265
-127,526	104,067	-0,064	-0,054
-126,512	-200,000	-0,012	0,054
-125,497	-145,939	-0,147	-0,009
-124,483	-77,272	-0,038	-0,009
-123,468	567,954	0,028	0,048
-122,453	800,000	0,012	-0,039
-121,439	-68,792	-0,052	-0,014
-120,424	-200,000	-0,005	-0,130
-119,410	-200,000	-0,006	-0,053
-118,395	560,245	0,045	0,077
-117,380	800,000	-0,004	0,011
-116,366	-113,784	-0,110	0,015
-115,351	-7,429	0,074	0,035
-114,337	-112,030	0,057	0,008
-113,322	391,202	-0,060	-0,089
-112,307	39,320	0,156	-0,099
-111,293	-200,000	-0,021	0,123
-110,278	196,332	0,113	0,122
-109,264	161,239	-0,055	-0,055
-108,249	-24,530	-0,078	-0,033
-107,234	653,200	0,057	0,105
-106,220	-83,642	0,047	-0,011
-105,205	18,312	-0,056	-0,032
-104,191	800,000	-0,026	-0,058
-103,176	126,080	0,081	0,073
-102,162	210,347	-0,039	0,044
-101,147	202,990	0,041	0,046
-100,132	-200,000	-0,014	-0,159
-99,118	-200,000	0,006	0,054
-98,103	161,103	0,032	0,032
-97,089	-0,374	0,116	0,058
-96,074	345,053	-0,054	-0,075
-95,059	-200,000	-0,004	0,114
-94,045	-130,905	0,096	0,009
-93,030	800,000	-0,028	-0,058
-92,016	-112,472	-0,044	-0,006
-91,001	-200,000	0,017	-0,061
-89,986	44,080	-0,032	0,021
-88,972	-200,000	0,030	0,143
-87,957	-200,000	-0,010	-0,061
-86,943	191,418	-0,038	0,041
-85,928	-200,000	-0,034	-0,123
-84,913	559,138	-0,072	0,124
-83,899	-43,337	-0,024	-0,009
-82,884	800,000	-0,026	0,057
-81,870	-200,000	0,094	0,000
-80,855	-19,049	-0,106	-0,047
-79,840	-200,000	0,019	-0,103
-78,826	-26,631	0,103	-0,042
-77,811	39,166	-0,092	0,058
-76,797	-200,000	-0,008	0,041
-75,782	-132,671	0,146	0,013
-74,767	800,000	0,090	0,277
-73,753	-200,000	0,022	0,113
-72,738	615,523	0,022	0,039
-71,724	-200,000	-0,011	-0,134
-70,709	800,000	0,005	0,014
-69,694	-200,000	-0,043	-0,154
-68,680	-187,635	-0,041	-0,000
-67,665	800,000	0,035	-0,093
-66,651	-200,000	0,001	0,021
-65,636	110,812	-0,096	-0,082
-64,622	23,955	-0,033	0,019
-63,607	-22,940	0,026	-0,011
-62,592	165,560	0,066	-0,066
-61,578	-27,802	0,098	0,040
-60,563	-4,415	0,099	0,048
-59,549	33,202	-0,037	-0,023
-58,534	-74,306	-1,499	-0,381
-57,519	462,341	-1,429	-2,266
-56,505	-200,000	-0,593	-4,607
-55,490	86,831	1,033	0,807
-54,476	800,000	4,857	11,370
-53,461	-200,000	18,203	287,273
-52,446	800,000	727,079	2227,282
-51,432	554,629	1643,341	2811,068
-50,417	79,320	1665,486	1263,258
-49,403	22,918	1539,116	891,316
-48,388	16,853	1462,496	817,566
-47,373	17,852	1452,401	816,700
-46,359	17,252	1442,821	808,412
-45,344	15,186	1438,108	795,875
-44,330	15,057	1436,397	794,282
-43,315	15,092	1434,681	793,468
-42,300	15,076	1433,033	792,452
-41,286	15,191	1431,666	792,208
-40,271	15,122	1430,397	791,146
-39,257	15,123	1429,123	790,414
-38,242	15,154	1427,927	789,872
-37,227	15,170	1426,644	789,205
-36,213	15,168	1425,336	788,439
-35,198	15,168	1424,205	787,786
-34,184	15,189	1423,368	787,387
-33,169	15,088	1422,159	786,212
-32,154	15,141	1421,162	785,879
-31,140	15,180	1419,696	785,224
-30,125	15,196	1418,589	784,654
-29,111	15,157	1417,570	783,874
-28,096	15,123	1416,469	783,077
-27,082	15,059	1415,421	782,164
-26,067	15,069	1414,166	781,485
-25,052	15,100	1412,934	780,920
-24,038	15,064	1412,011	780,209
-23,023	15,037	1411,100	779,548
-22,009	15,049	1410,098	779,023
-20,994	15,006	1409,333	778,364
-19,979	15,008	1408,420	777,841
-18,965	14,979	1407,358	777,088
-17,950	14,979	1406,363	776,506
-16,936	15,004	1405,413	776,067
-15,921	14,998	1404,235	775,360
-14,906	14,959	1403,372	774,668
-13,892	15,034	1402,600	774,563
-12,877	14,978	1401,569	773,701
-11,863	14,948	1400,968	773,202
-10,848	14,930	1399,994	772,549
-9,833	14,946	1398,987	772,035
-8,819	14,890	1398,057	771,232
-7,804	14,873	1397,235	770,668
-6,790	14,890	1395,978	770,024
-5,775	14,867	1394,936	769,313
-4,760	14,899	1394,212	769,031
-3,746	14,882	1393,242	768,386
-2,731	14,887	1392,487	767,963
-1,717	14,867	1391,568	767,333
-0,702	14,848	1389,726	766,198
0,313	18,581	1308,888	738,932
1,327	34,715	707,231	436,686
2,342	53,566	124,797	84,607
3,356	2,848	16,731	8,565
4,371	12,278	3,125	1,698
5,386	-46,823	0,507	0,175
6,400	-200,000	-0,027	0,200
7,415	-38,522	-0,344	-0,128
8,429	-18,824	-0,382	-0,168
9,444	103,776	-0,264	-0,219
10,459	-17,558	-0,240	-0,106
11,473	22,267	-0,276	-0,159
12,488	-80,033	-0,239	-0,056
13,502	-0,529	-0,292	-0,146
14,517	-21,953	-0,338	-0,145
15,531	97,181	-0,290	-0,235
16,546	14,357	-0,445	-0,245
17,561	61,571	-0,304	-0,214
18,575	49,201	-0,107	-0,071
19,590	-23,601	-0,194	-0,082
20,604	-170,468	-0,266	0,006
21,619	27,958	-0,479	-0,284
22,634	47,779	-0,387	-0,254
23,648	169,856	-0,378	-0,382
24,663	75,723	-0,470	-0,351
25,677	106,525	-0,388	-0,325
26,692	75,733	-0,410	-0,306
27,707	-8,706	-0,363	-0,171
28,721	161,258	-0,314	-0,310
29,736	124,403	-0,411	-0,365
30,750	82,414	-0,443	-0,339
31,765	110,928	-0,363	-0,308
32,780	128,551	-0,256	-0,230
33,794	60,850	-0,403	-0,281
34,809	158,320	-0,299	-0,292
35,823	73,126	-0,388	-0,286
36,838	15,688	-0,374	-0,207
37,853	121,522	-0,311	-0,273
38,867	205,820	-0,248	-0,273
39,882	136,414	-0,350	-0,322
40,896	214,152	-0,249	-0,279
41,911	-4,964	-0,449	-0,217
42,926	93,220	-0,308	-0,246
43,940	170,866	-0,368	-0,372
44,955	-38,326	-0,392	-0,146
45,969	4,724	-0,441	-0,228
46,984	61,461	-0,358	-0,251
47,999	-2,970	-0,305	-0,150
49,013	70,959	-0,254	-0,185
50,028	-70,767	-0,485	-0,128
51,042	197,261	-0,254	-0,273
52,057	198,789	-0,211	-0,228
53,071	33,154	-0,511	-0,311
54,086	79,691	-0,387	-0,292
55,101	50,247	-0,286	-0,190
56,115	186,502	-0,196	-0,206
57,130	24,299	-0,320	-0,186
58,144	205,475	-0,315	-0,345
59,159	-35,106	-0,413	-0,158
60,174	-83,202	-0,376	-0,084
61,188	6,188	-0,349	-0,182
62,203	-11,408	-0,450	-0,208
63,217	-20,593	-0,326	-0,140
64,232	68,132	-0,298	-0,214
65,247	71,111	-0,321	-0,234
66,261	-5,285	-0,362	-0,174
67,276	26,122	-0,416	-0,244
68,290	116,566	-0,285	-0,246
69,305	197,289	-0,282	-0,303
70,320	-78,539	-0,254	-0,061
71,334	44,061	-0,248	-0,159
72,349	-44,110	-0,455	-0,160
73,363	94,409	-0,335	-0,268
74,378	229,163	-0,246	-0,283
75,393	12,995	-0,424	-0,230
76,407	-101,395	-0,288	-0,049
77,422	4,014	-0,300	-0,154
78,436	-21,667	-0,422	-0,180
79,451	-72,105	-0,345	-0,089
80,466	-2,362	-0,276	-0,135
81,480	-177,188	-0,357	-0,006
82,495	115,627	-0,261	-0,224
83,509	93,598	-0,280	-0,223
84,524	-27,854	-0,214	0,087
85,539	33,158	-0,362	-0,220
86,553	75,641	-0,321	-0,238
87,568	111,595	-0,255	-0,216
88,582	5,182	-0,346	-0,178
89,597	26,481	-0,279	-0,163
90,611	-51,415	-0,308	-0,100
91,626	-131,976	-0,297	-0,027
92,641	-113,958	-0,288	-0,039
93,655	-122,479	-0,280	-0,032
94,670	-26,522	-0,303	-0,124
95,684	6,606	-0,415	-0,216
96,699	-32,645	-0,400	-0,155
97,714	104,158	-0,170	-0,140
98,728	-120,751	-0,187	0,022
99,743	-37,791	-0,168	0,062
100,757	11,390	-0,285	-0,153
101,772	-113,387	-0,255	0,035
102,787	28,448	-0,271	-0,160
103,801	-19,961	-0,367	-0,158
104,816	153,439	-0,136	-0,130
105,830	39,532	-0,280	-0,176
106,845	17,015	-0,181	-0,100
107,860	656,520	-0,156	-0,283
108,874	282,114	-0,189	-0,239
109,889	47,230	-0,251	-0,164
110,903	68,903	-0,233	-0,168
111,918	56,911	-0,287	-0,195
112,933	-34,512	-0,257	-0,098
113,947	-40,907	-0,265	0,095
114,962	61,514	-0,208	-0,145
115,976	70,356	-0,168	-0,122
116,991	35,526	-0,423	-0,260
118,006	27,026	-0,396	-0,232
119,020	-30,278	-0,350	-0,139
120,035	225,526	-0,183	-0,208
121,049	72,112	-0,197	-0,143
122,064	81,832	-0,242	-0,184
123,079	347,465	-0,169	-0,233
124,093	44,645	-0,368	-0,236
125,108	800,000	-0,136	-0,327
126,122	165,748	-0,306	-0,303
127,137	49,334	-0,236	-0,155
128,151	118,573	-0,143	-0,123
129,166	800,000	-0,124	-0,269
130,181	-16,772	-0,370	-0,163
131,195	29,115	-0,354	-0,209
132,210	81,140	-0,306	-0,231
133,224	-41,659	-0,256	-0,091
134,239	163,900	-0,232	-0,228
135,254	122,601	-0,134	-0,117
136,268	-111,210	-0,210	-0,030
137,283	800,000	-0,113	-0,240
138,297	25,977	-0,238	-0,138
139,312	27,659	-0,267	-0,157
140,327	112,713	-0,260	-0,220
141,341	114,649	-0,217	-0,185
142,356	91,787	-0,240	-0,189
143,370	-95,552	-0,310	-0,058
144,385	8,366	-0,269	-0,141
145,400	67,998	-0,197	-0,141
146,414	-44,569	-0,396	-0,137
147,429	-55,394	-0,361	-0,112
148,443	-148,545	-0,328	-0,018
149,458	-11,547	-0,243	-0,111
150,473	-6,882	-0,141	-0,067
151,487	166,440	-0,176	-0,174
152,502	178,649	-0,198	-0,202
153,516	283,430	-0,205	-0,258
154,531	49,101	-0,221	-0,145
155,546	-17,354	-0,179	-0,078
156,560	-0,686	-0,273	-0,135
157,575	-28,233	-0,188	-0,075
158,589	107,468	-0,303	-0,251
159,604	193,503	-0,193	-0,204
160,619	170,017	-0,257	-0,257
161,633	190,902	-0,225	-0,237
162,648	163,026	-0,258	-0,253
163,662	101,597	-0,174	-0,141
164,677	-17,201	-0,347	-0,152
165,692	74,045	-0,214	-0,156
166,706	800,000	-0,110	-0,228
167,721	311,094	-0,209	-0,273
168,735	313,356	-0,209	-0,275
169,750	77,963	-0,053	-0,040
170,764	108,892	-0,134	-0,112
171,779	116,610	-0,159	-0,136
172,794	-32,191	-0,279	-0,108
173,808	-0,448	-0,245	-0,121
174,823	692,535	-0,207	-0,379
175,837	2,700	-0,340	-0,171
176,852	83,623	-0,279	-0,212
177,867	800,000	-0,096	-0,227
178,881	87,805	-0,149	-0,115
179,896	-146,986	-0,212	0,012
180,910	-44,308	-0,158	-0,055
181,925	46,909	-0,275	-0,178
182,940	106,293	-0,206	-0,170
183,954	458,899	-0,118	-0,184
184,969	-2,573	-0,297	-0,144
185,983	173,721	-0,144	-0,145
186,998	225,019	-0,107	-0,121
188,013	-73,652	-0,231	-0,058
189,027	262,493	-0,221	-0,268
190,042	37,785	-0,239	-0,148
191,056	187,676	-0,168	-0,175
192,071	667,167	-0,174	-0,315
193,086	-200,000	-0,007	-0,063
194,100	-2,134	-0,198	-0,096
195,115	88,592	-0,173	-0,134
196,129	-93,009	-0,206	-0,040
197,144	-51,477	-0,134	-0,043
198,159	23,757	-0,262	-0,150
199,173	236,074	-0,149	-0,172
200,188	-63,638	-0,163	-0,046
201,202	-112,731	-0,139	0,019
202,217	135,549	-0,094	-0,085
203,232	291,691	-0,180	-0,228
204,246	-79,899	-0,345	-0,080
205,261	-84,897	-0,272	-0,059
206,275	142,560	-0,191	-0,177
207,290	800,000	-0,041	-0,086
208,304	351,319	-0,149	-0,205
209,319	-94,496	-0,144	0,027
210,334	38,231	-0,203	-0,125
211,348	-200,000	-0,066	-0,358
212,363	49,799	-0,209	-0,136
213,377	-56,009	-0,250	-0,077
214,392	76,431	-0,184	-0,135
215,407	-125,896	-0,280	-0,029
216,421	-73,389	-0,086	-0,022
217,436	218,199	-0,267	-0,297
218,450	245,148	-0,179	-0,209
219,465	-91,146	-0,366	-0,072
220,480	56,375	-0,133	-0,089
221,494	-64,429	-0,096	-0,027
222,509	70,193	-0,128	-0,092
223,523	800,000	-0,083	-0,179
224,538	263,865	-0,117	-0,142
225,553	379,011	-0,137	-0,195
226,567	286,804	-0,225	-0,282
227,582	20,694	-0,097	-0,054
228,596	768,362	-0,108	-0,204
229,611	298,466	-0,229	-0,293
230,626	67,008	-0,189	-0,133
231,640	108,760	-0,200	-0,165
232,655	333,268	-0,140	-0,188
233,669	760,757	-0,095	-0,179
234,684	2,505	-0,231	-0,116
235,699	25,960	-0,222	-0,128
236,713	370,671	-0,051	-0,072
237,728	-23,567	-0,183	-0,076
238,742	80,309	-0,126	-0,094
239,757	51,337	-0,269	-0,177
240,772	322,058	-0,176	-0,232
241,786	19,710	-0,209	-0,116
242,801	66,541	-0,273	-0,192
243,815	-147,519	-0,153	-0,009
244,830	137,205	-0,151	-0,137
245,844	-22,485	-0,090	-0,037
246,859	115,551	-0,115	-0,098
247,874	131,708	-0,212	-0,189
248,888	107,160	-0,224	-0,185
249,903	9,713	-0,232	-0,121
250,917	61,536	-0,195	-0,134
251,932	258,708	-0,104	-0,125
252,947	185,412	-0,201	-0,207
253,961	4,901	-0,168	-0,085
254,976	95,730	-0,177	-0,140
255,990	-5,985	-0,293	-0,138
257,005	73,769	-0,085	-0,061
258,020	93,730	-0,163	-0,128
259,034	510,768	-0,122	-0,197
260,049	-2,979	-0,199	-0,096
261,063	118,478	-0,135	-0,115
262,078	45,990	-0,141	-0,090
263,093	191,687	-0,179	-0,186
264,107	-98,496	-0,225	-0,039
265,122	48,879	-0,276	-0,179
266,136	435,376	-0,163	-0,245
267,151	455,397	-0,100	-0,154
268,166	149,781	-0,224	-0,210
269,180	45,325	-0,220	-0,140
270,195	227,176	-0,259	-0,292
271,209	304,972	-0,135	-0,174
272,224	425,720	-0,168	-0,251
273,239	800,000	-0,081	-0,194
274,253	64,608	-0,172	-0,120
275,268	-190,363	-0,226	0,002
276,282	414,475	-0,154	-0,227
277,297	564,296	-0,099	-0,166
278,312	242,962	-0,120	-0,139
279,326	-200,000	-0,018	-0,104
280,341	-200,000	-0,005	-0,173
281,355	215,138	-0,170	-0,187
282,370	-50,469	-0,232	-0,075
283,384	-107,934	-0,285	-0,042
284,399	241,396	-0,163	-0,188
285,414	-63,038	-0,178	-0,050
286,428	-72,248	-0,155	0,039
287,443	-0,941	-0,214	-0,104
288,457	114,418	-0,148	-0,124
289,472	-33,765	-0,174	-0,066
290,487	-17,089	-0,226	-0,098
291,501	417,501	-0,154	-0,227
292,516	28,703	-0,191	-0,111
293,530	-89,978	-0,202	0,040
294,545	213,735	-0,201	-0,219
295,560	-69,632	-0,128	-0,034
296,574	714,094	-0,149	-0,274
297,589	683,947	-0,113	-0,204
298,603	-200,000	-0,053	-0,161
299,618	-18,985	-0,262	-0,112
300,633	800,000	-0,044	-0,108
301,647	117,679	-0,098	-0,083
302,662	33,019	-0,074	-0,044
303,676	-135,017	-0,114	-0,009
304,691	53,860	-0,246	-0,163
305,706	13,044	-0,237	-0,126
306,720	123,541	-0,177	-0,153
307,735	-200,000	-0,017	-0,135
308,749	137,450	-0,122	-0,110
309,764	123,004	-0,101	-0,087
310,779	285,777	-0,149	-0,185
311,793	55,776	-0,198	-0,132
312,808	-43,086	-0,115	-0,040
313,822	65,587	-0,133	-0,093
314,837	-200,000	-0,010	-0,109
315,852	800,000	-0,045	-0,122
316,866	-106,812	-0,051	0,008
317,881	239,725	-0,113	-0,130
318,895	64,399	-0,109	-0,076
319,910	277,020	-0,103	-0,126
320,925	800,000	-0,105	-0,259
321,939	11,217	-0,200	-0,105
322,954	563,464	-0,108	-0,180
323,968	40,232	-0,193	-0,119
324,983	-161,125	-0,112	0,004
325,997	-73,575	-0,121	0,030
327,012	-65,051	-0,124	-0,034
328,027	50,857	-0,160	-0,104
329,041	6,135	-0,216	-0,110
330,056	249,142	-0,045	0,053
331,070	-99,700	-0,045	0,008
332,085	-102,553	-0,269	-0,044
333,100	-200,000	0,006	-0,138
334,114	99,494	-0,125	-0,099
335,129	-55,918	-0,155	-0,047
336,143	44,575	-0,252	-0,159
337,158	440,460	-0,097	-0,146
338,173	101,036	-0,107	-0,085
339,187	94,716	-0,148	-0,116
340,202	431,420	-0,115	-0,171
341,216	-106,031	-0,224	-0,034
342,231	-200,000	-0,034	-0,207
343,246	6,755	-0,056	-0,029
344,260	49,421	-0,089	0,057
345,275	529,245	-0,063	0,103
346,289	-159,823	-0,215	-0,008
347,304	-10,780	-0,219	-0,099
348,319	147,221	-0,147	-0,136
349,333	64,919	-0,190	-0,131
350,348	-200,000	-0,034	-0,178
351,362	-200,000	-0,091	-0,280
352,377	800,000	0,008	-0,017
353,392	13,180	-0,138	-0,073
354,406	217,774	-0,081	-0,089
355,421	209,170	1317,358	1417,394
356,435	160,973	1478,411	1417,886
