DTS Sentinel unit serial number:	SN410029Multiplexer serial number:	ORYXHardware model number:	OX2-SRSoftware version number:	ORYX F/W v4,00 Oryx Data Collector v3.7.2.0data status	okinstallation	B3 Nyhavnadifferential loss correction	single-endedforward channel	channel 1reverse channel	N/Adate	2023/11/30time	13:12:30forward acquisition time	300,00reverse acquisition time	0,00gamma	499,1914k internal	0,3213k external	0,3213temperature offset calibration	1,0000default loss term (dB/km)	0,3820temperature slope calibration	1,0000multiplexer offset coefficient	1,0000multiplexer slope coefficient	1,0000fibre end	0,00T internal ref (°C)	10,36T ext. ref 1 (°C)	-3,25T ext. ref 2 (°C)	-3,32length (m)	temperature (°C)	Stokes	anti-Stokes-744,400	800,000	-0,100	-0,302
-743,385	-200,000	-0,036	0,295
-742,371	371,840	-0,152	-0,224
-741,356	-200,000	-0,059	0,388
-740,342	-2,269	-0,210	-0,106
-739,327	565,450	-0,118	0,208
-738,312	95,720	-0,282	-0,233
-737,298	-200,000	-0,030	0,133
-736,283	166,500	-0,277	-0,285
-735,269	-200,000	-0,050	0,408
-734,254	347,781	-0,156	-0,223
-733,239	96,875	-0,255	0,211
-732,225	-200,000	0,028	-0,165
-731,210	1,470	0,137	0,071
-730,196	-200,000	0,017	-0,125
-729,181	-16,598	0,043	-0,020
-728,167	-163,583	-0,120	0,004
-727,152	91,710	0,062	0,051
-726,137	-8,464	-0,094	-0,046
-725,123	181,881	-0,043	-0,046
-724,108	-200,000	0,036	-0,148
-723,094	-200,000	0,003	-0,169
-722,079	800,000	0,013	-0,032
-721,064	32,839	0,058	-0,036
-720,050	800,000	-0,082	-0,166
-719,035	-145,797	0,087	-0,006
-718,021	800,000	-0,067	-0,142
-717,006	-200,000	0,002	-0,105
-715,991	-165,636	0,032	0,001
-714,977	800,000	-0,028	-0,080
-713,962	-114,773	-0,112	0,015
-712,948	-200,000	0,012	0,057
-711,933	748,193	0,042	-0,082
-710,918	0,515	-0,147	0,076
-709,904	-198,579	0,050	-0,000
-708,889	154,862	-0,095	-0,095
-707,875	-200,000	0,002	-0,081
-706,860	-200,000	-0,008	0,110
-705,845	-200,000	0,002	0,160
-704,831	-2,820	0,099	-0,050
-703,816	215,858	0,036	0,041
-702,802	-152,262	-0,158	-0,008
-701,787	-200,000	-0,013	-0,060
-700,772	348,462	-0,046	-0,065
-699,758	207,396	-0,025	0,028
-698,743	416,009	0,019	-0,029
-697,729	27,212	0,072	0,044
-696,714	373,363	-0,049	-0,073
-695,699	-200,000	0,024	-0,117
-694,685	229,104	-0,093	-0,110
-693,670	423,343	-0,104	-0,162
-692,656	192,468	0,038	0,042
-691,641	-200,000	-0,008	-0,045
-690,627	301,777	-0,084	-0,112
-689,612	-13,479	0,083	0,039
-688,597	-200,000	0,002	-0,126
-687,583	-85,341	-0,054	0,012
-686,568	334,996	0,026	0,036
-685,554	-107,079	0,096	0,015
-684,539	357,504	0,061	0,089
-683,524	-129,405	0,073	0,007
-682,510	-8,840	-0,211	-0,102
-681,495	103,524	0,119	-0,101
-680,481	-150,210	-0,138	-0,008
-679,466	-200,000	-0,040	-0,165
-678,451	34,692	-0,027	0,017
-677,437	800,000	-0,025	-0,063
-676,422	46,874	0,081	0,055
-675,408	-200,000	0,018	0,062
-674,393	60,266	-0,112	-0,080
-673,378	-200,000	0,002	0,111
-672,364	636,010	-0,075	-0,138
-671,349	33,487	0,113	-0,071
-670,335	800,000	0,015	0,032
-669,320	800,000	0,036	-0,077
-668,305	-200,000	0,005	0,135
-667,291	-200,000	0,009	-0,042
-666,276	-200,000	0,001	-0,043
-665,262	-72,756	-0,058	-0,015
-664,247	800,000	0,038	-0,114
-663,232	646,889	-0,048	-0,089
-662,218	-200,000	0,003	-0,073
-661,203	-96,959	0,117	-0,022
-660,189	188,808	-0,021	-0,023
-659,174	-200,000	0,012	-0,057
-658,159	657,382	0,027	-0,050
-657,145	470,496	-0,045	0,074
-656,130	800,000	-0,039	-0,111
-655,116	-45,389	-0,056	-0,020
-654,101	435,633	-0,015	0,024
-653,086	-200,000	-0,009	0,098
-652,072	33,713	0,064	-0,040
-651,057	-59,638	0,029	-0,009
-650,043	768,255	-0,055	-0,109
-649,028	-200,000	0,002	-0,201
-648,014	800,000	0,033	0,106
-646,999	800,000	-0,045	0,140
-645,984	64,478	-0,036	-0,026
-644,970	-200,000	0,010	-0,058
-643,955	-78,197	0,031	0,008
-642,941	-200,000	-0,026	-0,129
-641,926	-54,406	-0,066	-0,022
-640,911	-93,201	0,059	-0,012
-639,897	101,542	0,046	0,039
-638,882	-200,000	-0,020	-0,108
-637,868	800,000	-0,034	0,072
-636,853	211,898	0,100	-0,114
-635,838	-140,958	-0,170	-0,012
-634,824	334,691	-0,064	-0,090
-633,809	800,000	0,020	-0,056
-632,795	-148,228	0,108	-0,006
-631,780	114,710	-0,056	0,049
-630,765	174,837	-0,095	-0,100
-629,751	-110,245	-0,152	-0,023
-628,736	-32,158	-0,177	0,071
-627,722	98,071	-0,029	-0,024
-626,707	-200,000	-0,001	0,069
-625,692	-200,000	-0,025	-0,110
-624,678	31,901	-0,107	-0,066
-623,663	-125,751	0,084	0,009
-622,649	-75,169	0,039	0,010
-621,634	161,643	-0,084	-0,085
-620,619	50,681	0,053	-0,036
-619,605	-200,000	-0,022	-0,125
-618,590	-200,000	0,015	0,086
-617,576	-200,000	-0,041	0,151
-616,561	800,000	0,052	-0,128
-615,546	-161,847	-0,085	-0,003
-614,532	239,567	-0,017	0,020
-613,517	683,898	-0,048	-0,091
-612,503	800,000	-0,026	-0,073
-611,488	119,956	0,022	0,020
-610,474	219,951	0,143	0,165
-609,459	-200,000	-0,000	0,020
-608,444	-200,000	-0,008	-0,210
-607,430	-200,000	-0,004	-0,153
-606,415	-91,162	-0,009	0,002
-605,401	-179,272	-0,070	-0,001
-604,386	-137,354	0,111	0,009
-603,371	88,155	-0,011	0,009
-602,357	198,522	-0,054	-0,059
-601,342	342,512	-0,023	-0,032
-600,328	-200,000	-0,005	-0,035
-599,313	273,612	-0,043	0,055
-598,298	-46,693	-0,136	-0,048
-597,284	-200,000	-0,020	0,079
-596,269	191,799	0,056	0,061
-595,255	115,808	0,118	0,104
-594,240	800,000	-0,003	-0,006
-593,225	-54,413	0,035	-0,011
-592,211	-15,156	0,087	-0,040
-591,196	111,108	0,043	-0,037
-590,182	22,451	0,106	0,062
-589,167	-117,238	-0,073	-0,009
-588,152	-200,000	-0,031	0,198
-587,138	308,342	0,074	0,099
-586,123	800,000	-0,052	-0,158
-585,109	-200,000	-0,009	-0,050
-584,094	122,729	-0,126	0,114
-583,079	133,082	0,074	0,069
-582,065	-200,000	-0,014	0,052
-581,050	-200,000	-0,009	0,103
-580,036	82,035	-0,146	-0,114
-579,021	-33,773	0,074	-0,029
-578,006	102,331	-0,135	-0,113
-576,992	-200,000	-0,004	-0,088
-575,977	124,083	-0,091	0,083
-574,963	-91,262	0,149	-0,030
-573,948	-200,000	0,011	0,106
-572,934	800,000	-0,006	0,015
-571,919	-150,643	-0,086	-0,005
-570,904	-125,139	-0,081	0,009
-569,890	-200,000	0,063	0,000
-568,875	273,984	-0,063	-0,080
-567,861	-200,000	-0,021	0,093
-566,846	-132,963	0,181	-0,016
-565,831	91,844	-0,094	0,076
-564,817	800,000	0,038	-0,080
-563,802	-148,936	-0,070	-0,004
-562,788	-67,878	0,061	-0,017
-561,773	123,202	0,072	-0,065
-560,758	-200,000	0,028	-0,097
-559,744	-144,512	-0,093	0,006
-558,729	-200,000	-0,003	0,066
-557,715	-200,000	-0,002	0,082
-556,700	-85,600	0,044	-0,010
-555,685	-200,000	-0,006	-0,157
-554,671	-200,000	-0,018	-0,057
-553,656	-200,000	-0,023	0,094
-552,642	18,712	-0,062	-0,036
-551,627	-15,678	0,055	0,025
-550,612	-200,000	0,017	0,104
-549,598	-148,383	-0,042	-0,002
-548,583	36,386	-0,174	-0,110
-547,569	-143,375	0,097	-0,007
-546,554	37,566	-0,041	-0,026
-545,539	341,366	0,014	-0,020
-544,525	128,942	-0,057	0,052
-543,510	122,801	-0,046	0,041
-542,496	-97,742	0,049	-0,009
-541,481	546,486	-0,070	0,121
-540,466	-200,000	0,023	0,097
-539,452	-43,085	0,108	-0,039
-538,437	-81,520	0,116	-0,027
-537,423	125,026	-0,055	0,050
-536,408	-90,536	0,082	0,017
-535,393	283,497	0,064	-0,083
-534,379	800,000	-0,042	-0,094
-533,364	157,122	-0,101	-0,100
-532,350	-200,000	-0,002	0,137
-531,335	-57,993	-0,089	0,028
-530,321	9,936	-0,055	-0,030
-529,306	22,343	-0,080	0,047
-528,291	800,000	-0,040	-0,123
-527,277	364,853	0,018	0,026
-526,262	68,804	-0,041	-0,031
-525,248	-200,000	-0,009	0,119
-524,233	-200,000	0,004	0,093
-523,218	-9,072	0,112	-0,054
-522,204	35,920	-0,030	-0,019
-521,189	-200,000	-0,017	0,113
-520,175	214,417	-0,069	-0,079
-519,160	-200,000	-0,025	-0,088
-518,145	171,337	-0,048	-0,049
-517,131	223,134	0,067	-0,077
-516,116	800,000	-0,055	0,166
-515,102	-86,490	0,090	0,020
-514,087	-9,629	-0,029	0,014
-513,072	147,582	-0,114	0,110
-512,058	800,000	0,043	-0,094
-511,043	55,635	-0,056	0,039
-510,029	-80,194	0,029	0,007
-509,014	-22,271	-0,155	-0,067
-507,999	-160,475	0,063	-0,002
-506,985	26,016	-0,039	-0,023
-505,970	-200,000	0,025	-0,150
-504,956	-200,000	0,009	-0,029
-503,941	-200,000	0,011	0,188
-502,926	-200,000	-0,044	0,213
-501,912	29,786	0,151	0,092
-500,897	378,072	0,045	0,067
-499,883	-200,000	-0,004	0,039
-498,868	800,000	-0,020	-0,059
-497,853	-200,000	0,009	-0,082
-496,839	36,282	0,059	-0,037
-495,824	273,572	0,208	0,265
-494,810	-200,000	0,014	0,130
-493,795	58,031	-0,093	-0,065
-492,781	373,842	-0,017	0,025
-491,766	-93,488	0,111	-0,022
-490,751	-80,235	-0,118	-0,028
-489,737	-200,000	0,019	-0,128
-488,722	-200,000	0,008	0,049
-487,708	-105,437	0,153	-0,025
-486,693	-200,000	-0,007	-0,048
-485,678	7,305	-0,039	0,021
-484,664	-74,198	-0,065	-0,017
-483,649	800,000	-0,072	-0,181
-482,635	800,000	0,016	0,042
-481,620	-200,000	0,042	0,183
-480,605	220,101	-0,063	0,073
-479,591	547,371	0,026	0,046
-478,576	324,440	-0,024	0,032
-477,562	-100,091	-0,072	0,013
-476,547	247,319	-0,006	0,008
-475,532	193,909	0,030	0,032
-474,518	-200,000	0,010	0,044
-473,503	266,915	0,128	0,160
-472,489	-200,000	-0,001	0,060
-471,474	25,012	0,039	0,023
-470,459	-159,609	-0,114	0,004
-469,445	-149,594	0,058	-0,003
-468,430	309,379	0,074	0,099
-467,416	-33,401	-0,120	0,047
-466,401	-114,581	0,037	0,005
-465,386	-200,000	0,022	0,075
-464,372	-87,305	-0,050	0,011
-463,357	-73,655	-0,063	-0,016
-462,343	45,137	-0,036	-0,024
-461,328	-200,000	0,015	0,061
-460,313	42,085	-0,053	-0,034
-459,299	-200,000	0,013	0,085
-458,284	-200,000	-0,033	-0,177
-457,270	-200,000	0,050	0,176
-456,255	800,000	-0,050	0,103
-455,241	753,471	0,055	0,107
-454,226	-8,651	-0,178	0,085
-453,211	537,562	0,069	-0,118
-452,197	-9,930	-0,091	0,043
-451,182	441,707	0,072	0,114
-450,168	-187,509	0,130	0,001
-449,153	-115,534	0,248	0,033
-448,138	232,705	-0,027	-0,031
-447,124	-130,033	-0,127	0,012
-446,109	214,614	0,066	0,075
-445,095	-200,000	-0,001	-0,024
-444,080	-200,000	0,035	0,116
-443,065	800,000	0,071	-0,186
-442,051	419,530	0,014	-0,022
-441,036	-200,000	0,002	-0,043
-440,022	-145,194	0,110	-0,007
-439,007	-48,291	0,063	-0,022
-437,992	-200,000	0,001	-0,018
-436,978	-105,323	0,026	0,004
-435,963	800,000	-0,028	-0,059
-434,949	-129,274	0,040	0,004
-433,934	-200,000	-0,014	-0,094
-432,919	223,228	-0,098	-0,113
-431,905	800,000	0,076	-0,172
-430,890	85,211	-0,084	0,066
-429,876	174,637	-0,095	0,099
-428,861	-200,000	-0,007	0,066
-427,846	-200,000	-0,010	0,050
-426,832	-95,039	-0,051	0,010
-425,817	-200,000	0,030	-0,179
-424,803	67,134	0,123	0,090
-423,788	47,383	-0,122	-0,081
-422,773	426,427	0,049	0,076
-421,759	-200,000	-0,039	0,128
-420,744	64,360	0,126	-0,091
-419,730	655,510	0,019	-0,036
-418,715	130,030	0,028	-0,026
-417,701	11,330	0,165	-0,090
-416,686	-15,460	0,062	-0,028
-415,671	7,675	0,056	-0,030
-414,657	121,440	-0,045	-0,040
-413,642	-114,629	0,125	0,017
-412,628	-59,948	0,047	0,014
-411,613	544,293	-0,071	-0,122
-410,598	-86,806	-0,036	0,008
-409,584	-200,000	0,025	0,137
-408,569	-45,949	-0,073	0,025
-407,555	41,700	-0,069	0,045
-406,540	-0,840	0,104	-0,052
-405,525	-132,824	-0,098	-0,009
-404,511	72,476	0,063	-0,047
-403,496	-37,766	0,077	-0,029
-402,482	59,693	0,062	-0,044
-401,467	8,428	0,011	0,006
-400,452	-51,464	-0,107	0,036
-399,438	-200,000	-0,003	-0,023
-398,423	33,815	0,058	-0,036
-397,409	-200,000	-0,001	-0,042
-396,394	-162,162	0,089	0,003
-395,379	-200,000	-0,011	0,036
-394,365	611,005	-0,041	0,074
-393,350	153,072	0,015	0,015
-392,336	77,347	-0,095	-0,072
-391,321	76,398	-0,066	0,050
-390,306	173,091	-0,108	-0,111
-389,292	110,370	-0,093	-0,080
-388,277	-97,608	-0,037	-0,007
-387,263	769,544	-0,032	0,063
-386,248	139,024	0,068	0,064
-385,233	291,461	0,055	0,072
-384,219	520,102	0,014	0,023
-383,204	60,827	-0,050	-0,035
-382,190	222,754	0,028	-0,033
-381,175	-0,535	0,084	-0,042
-380,160	37,999	-0,059	0,038
-379,146	-200,000	-0,019	0,120
-378,131	494,650	0,073	0,121
-377,117	-17,368	-0,092	0,041
-376,102	-200,000	-0,007	-0,036
-375,088	419,218	-0,066	-0,102
-374,073	-200,000	-0,005	0,020
-373,058	-109,001	0,040	0,006
-372,044	-200,000	-0,001	0,030
-371,029	-137,697	0,160	0,013
-370,015	800,000	-0,030	-0,093
-369,000	-200,000	-0,031	0,121
-367,985	-30,643	0,070	-0,028
-366,971	-130,050	-0,167	0,016
-365,956	313,023	0,128	0,172
-364,942	451,056	0,030	-0,047
-363,927	653,191	-0,006	0,012
-362,912	86,346	0,067	-0,053
-361,898	58,991	-0,109	-0,077
-360,883	-193,531	-0,033	-0,000
-359,869	-30,711	0,039	0,016
-358,854	100,454	0,132	-0,110
-357,839	-13,576	0,119	-0,055
-356,825	800,000	0,025	0,058
-355,810	-200,000	0,009	0,046
-354,796	-119,075	0,058	0,007
-353,781	800,000	-0,066	-0,145
-352,766	96,321	0,087	0,071
-351,752	-200,000	0,022	0,080
-350,737	17,968	0,132	0,075
-349,723	-200,000	-0,010	0,089
-348,708	-200,000	0,005	0,028
-347,693	-107,723	-0,064	0,010
-346,679	326,045	-0,052	-0,071
-345,664	178,305	-0,122	-0,127
-344,650	800,000	0,037	-0,078
-343,635	-200,000	0,005	0,049
-342,620	-119,395	0,184	-0,023
-341,606	800,000	-0,005	-0,012
-340,591	-109,449	-0,093	0,014
-339,577	-132,898	-0,115	-0,010
-338,562	-29,868	-0,123	-0,050
-337,548	24,196	0,040	0,024
-336,533	-171,123	0,106	0,003
-335,518	800,000	0,017	-0,054
-334,504	-200,000	-0,004	0,053
-333,489	131,947	0,057	0,052
-332,475	-200,000	0,011	0,039
-331,460	144,317	0,026	-0,025
-330,445	800,000	0,058	-0,181
-329,431	-140,381	-0,080	-0,006
-328,416	-200,000	0,003	0,123
-327,402	272,024	-0,075	0,094
-326,387	-200,000	0,021	-0,096
-325,372	-95,945	-0,133	-0,025
-324,358	-98,883	0,080	0,014
-323,343	-80,995	0,119	0,028
-322,329	-200,000	0,007	0,082
-321,314	274,248	0,063	-0,080
-320,299	-200,000	0,034	-0,157
-319,285	-200,000	0,014	-0,092
-318,270	-200,000	-0,004	-0,055
-317,256	-200,000	-0,001	-0,047
-316,241	-37,811	-0,042	0,016
-315,226	-200,000	-0,016	0,058
-314,212	323,402	-0,035	0,047
-313,197	51,748	-0,018	0,013
-312,183	517,636	-0,087	-0,145
-311,168	-200,000	-0,018	-0,062
-310,153	-200,000	-0,024	-0,076
-309,139	-31,513	-0,103	-0,041
-308,124	800,000	0,009	0,022
-307,110	-91,034	0,096	-0,019
-306,095	-200,000	0,009	0,050
-305,080	800,000	-0,016	-0,042
-304,066	-25,372	-0,035	-0,015
-303,051	-133,022	0,131	-0,012
-302,037	-200,000	-0,004	-0,085
-301,022	-151,986	-0,127	0,006
-300,008	99,866	0,092	0,076
-298,993	800,000	0,018	0,040
-297,978	110,243	0,107	0,092
-296,964	52,651	-0,080	-0,054
-295,949	-1,302	0,160	-0,080
-294,935	-3,360	-0,139	-0,069
-293,920	11,284	0,145	0,079
-292,905	-191,892	0,046	0,000
-291,891	-109,512	0,160	-0,024
-290,876	94,070	-0,115	0,092
-289,862	-200,000	0,016	-0,077
-288,847	-200,000	-0,002	0,015
-287,832	-200,000	-0,007	-0,182
-286,818	7,599	0,058	-0,031
-285,803	174,068	0,025	-0,025
-284,789	53,924	-0,049	0,033
-283,774	-99,235	0,118	-0,021
-282,759	290,171	-0,111	-0,144
-281,745	-200,000	0,015	-0,181
-280,730	-83,902	-0,180	-0,041
-279,716	-200,000	0,013	0,108
-278,701	-138,255	0,101	0,008
-277,686	313,363	0,040	0,053
-276,672	-200,000	-0,035	0,131
-275,657	658,899	-0,036	0,066
-274,643	800,000	-0,030	-0,084
-273,628	-94,542	0,030	0,006
-272,613	-200,000	-0,025	-0,162
-271,599	466,663	-0,049	0,079
-270,584	124,445	-0,025	-0,022
-269,570	434,721	0,060	-0,093
-268,555	-200,000	0,028	0,144
-267,540	-43,800	-0,073	-0,026
-266,526	-60,127	0,166	-0,050
-265,511	29,974	-0,020	-0,012
-264,497	93,910	0,059	-0,048
-263,482	800,000	-0,051	0,101
-262,467	-108,922	0,086	-0,013
-261,453	-200,000	-0,009	0,042
-260,438	694,612	0,044	-0,083
-259,424	800,000	0,061	-0,124
-258,409	-191,072	-0,183	-0,001
-257,395	-37,095	-0,061	-0,023
-256,380	196,699	-0,033	-0,036
-255,365	470,404	0,061	0,098
-254,351	800,000	-0,020	0,051
-253,336	122,032	0,068	-0,060
-252,322	81,636	-0,131	-0,100
-251,307	446,566	-0,072	-0,113
-250,292	-200,000	-0,011	0,039
-249,278	265,972	-0,042	0,052
-248,263	-123,456	0,091	0,010
-247,249	-200,000	0,030	0,153
-246,234	298,995	-0,036	0,048
-245,219	-200,000	-0,001	0,104
-244,205	800,000	-0,027	-0,061
-243,190	-167,890	-0,015	-0,000
-242,176	50,819	-0,033	-0,022
-241,161	458,096	0,028	-0,044
-240,146	800,000	0,014	-0,030
-239,132	365,747	-0,111	-0,160
-238,117	800,000	-0,044	-0,102
-237,103	106,508	-0,149	-0,125
-236,088	-200,000	-0,001	0,036
-235,073	131,059	0,089	0,081
-234,059	0,005	0,074	0,037
-233,044	-200,000	-0,005	0,142
-232,030	-134,483	-0,088	-0,008
-231,015	151,833	0,017	0,017
-230,000	58,925	0,073	-0,051
-228,986	-146,692	0,134	-0,008
-227,971	-61,375	0,075	0,022
-226,957	-200,000	-0,020	0,088
-225,942	-200,000	0,006	0,027
-224,927	-200,000	-0,000	0,023
-223,913	-179,582	-0,094	-0,001
-222,898	46,589	-0,079	0,052
-221,884	-133,271	-0,054	-0,005
-220,869	712,810	0,041	0,078
-219,855	-200,000	-0,013	-0,069
-218,840	251,406	0,095	0,114
-217,825	176,176	0,079	-0,081
-216,811	-136,000	-0,096	-0,008
-215,796	-200,000	0,021	0,073
-214,782	333,662	0,046	-0,064
-213,767	127,603	0,064	0,057
-212,752	-200,000	0,158	-0,000
-211,738	276,138	0,028	0,036
-210,723	462,237	0,080	0,128
-209,709	800,000	-0,018	-0,042
-208,694	133,209	0,016	-0,015
-207,679	4,626	-0,100	-0,052
-206,665	35,515	0,047	0,029
-205,650	-200,000	0,009	0,246
-204,636	800,000	-0,020	0,045
-203,621	-81,810	0,099	0,023
-202,606	-35,958	0,095	0,036
-201,592	470,493	0,058	-0,092
-200,577	-200,000	0,010	0,043
-199,563	-200,000	0,016	0,116
-198,548	-22,597	0,008	-0,003
-197,533	-200,000	0,003	0,113
-196,519	-17,638	0,053	-0,023
-195,504	-135,846	-0,056	-0,005
-194,490	-200,000	-0,194	-0,001
-193,475	391,131	0,070	0,103
-192,460	140,545	0,050	0,046
-191,446	-13,925	0,087	0,040
-190,431	-142,060	-0,089	0,006
-189,417	800,000	-0,066	0,145
-188,402	162,112	0,084	-0,084
-187,387	-200,000	0,007	-0,065
-186,373	679,648	-0,052	-0,097
-185,358	-200,000	-0,020	-0,120
-184,344	800,000	0,022	0,049
-183,329	-200,000	-0,001	0,139
-182,315	473,410	0,003	0,005
-181,300	-200,000	0,023	0,143
-180,285	55,308	-0,062	-0,042
-179,271	399,201	0,073	-0,109
-178,256	-200,000	-0,035	-0,116
-177,242	-57,573	-0,040	-0,012
-176,227	-200,000	-0,001	0,095
-175,212	800,000	0,023	0,055
-174,198	-7,365	0,142	0,068
-173,183	-84,541	-0,097	0,022
-172,169	296,918	-0,065	-0,084
-171,154	-166,295	-0,051	0,001
-170,139	800,000	-0,036	0,074
-169,125	72,064	-0,100	-0,074
-168,110	-200,000	-0,025	-0,095
-167,096	163,224	-0,010	0,010
-166,081	101,254	-0,099	0,082
-165,066	-200,000	-0,014	-0,073
-164,052	-124,662	-0,114	0,012
-163,037	-120,690	-0,049	-0,006
-162,023	208,950	0,060	0,066
-161,008	253,002	0,040	0,049
-159,993	-158,334	0,042	-0,002
-158,979	12,021	-0,055	-0,030
-157,964	404,156	0,088	-0,132
-156,950	-200,000	0,017	-0,065
-155,935	124,228	0,053	0,047
-154,920	39,149	-0,091	-0,058
-153,906	240,506	0,047	-0,056
-152,891	298,573	-0,029	-0,038
-151,877	141,551	-0,069	0,065
-150,862	800,000	0,061	0,130
-149,847	-61,949	-0,108	0,032
-148,833	-200,000	-0,003	-0,096
-147,818	498,271	0,101	0,165
-146,804	395,663	0,058	0,086
-145,789	-200,000	-0,040	0,184
-144,775	-200,000	-0,009	-0,103
-143,760	43,393	0,091	0,058
-142,745	215,368	0,019	-0,022
-141,731	800,000	-0,016	-0,046
-140,716	-50,139	-0,155	0,052
-139,702	103,936	0,131	0,109
-138,687	800,000	-0,022	0,043
-137,672	443,285	-0,066	0,102
-136,658	-200,000	-0,024	0,124
-135,643	800,000	0,016	0,038
-134,629	163,079	-0,023	-0,023
-133,614	45,931	0,134	0,088
-132,599	-200,000	-0,016	0,162
-131,585	14,280	0,104	0,057
-130,570	-200,000	-0,007	-0,182
-129,556	800,000	-0,010	-0,032
-128,541	-200,000	-0,002	-0,082
-127,526	-200,000	0,024	-0,126
-126,512	-74,459	-0,112	0,028
-125,497	800,000	0,077	0,156
-124,483	-99,874	0,093	-0,016
-123,468	-200,000	0,057	-0,186
-122,453	-200,000	-0,031	-0,141
-121,439	800,000	-0,043	0,102
-120,424	58,452	0,030	-0,021
-119,410	311,078	-0,029	0,039
-118,395	306,867	-0,078	0,103
-117,380	30,337	0,115	0,069
-116,366	800,000	0,017	-0,034
-115,351	-200,000	-0,025	0,089
-114,337	800,000	0,019	0,041
-113,322	800,000	-0,056	0,141
-112,307	559,711	-0,042	0,072
-111,293	173,692	-0,088	0,090
-110,278	-88,752	0,059	0,012
-109,264	-33,046	0,094	0,037
-108,249	-200,000	-0,022	-0,159
-107,234	-94,439	-0,012	0,002
-106,220	-87,675	-0,132	-0,028
-105,205	-86,340	-0,097	0,021
-104,191	25,707	0,088	0,052
-103,176	-148,940	0,042	-0,002
-102,162	-96,425	0,103	-0,019
-101,147	-153,626	-0,052	0,003
-100,132	181,912	0,123	-0,128
-99,118	24,562	-0,034	-0,020
-98,103	-76,458	-0,068	-0,017
-97,089	-53,654	-0,050	0,016
-96,074	-51,117	-0,068	0,023
-95,059	-200,000	-0,004	-0,017
-94,045	800,000	-0,092	-0,211
-93,030	800,000	0,036	0,078
-92,016	-33,950	-0,157	-0,061
-91,001	-24,909	0,056	0,023
-89,986	-200,000	-0,011	0,148
-88,972	-74,834	0,042	0,010
-87,957	143,097	0,030	-0,028
-86,943	280,994	-0,034	-0,043
-85,928	-130,282	-0,209	-0,020
-84,913	137,797	0,087	-0,081
-83,899	121,525	-0,059	0,052
-82,884	462,178	0,060	0,094
-81,870	52,311	-0,044	0,030
-80,855	357,097	0,050	0,070
-79,840	800,000	0,016	0,038
-78,826	-172,851	-0,121	0,003
-77,811	-200,000	-0,005	0,043
-76,797	79,888	0,047	-0,035
-75,782	103,984	0,084	-0,070
-74,767	606,187	0,034	-0,060
-73,753	657,600	-0,015	-0,027
-72,738	800,000	-0,044	0,090
-71,724	121,736	-0,054	0,048
-70,709	-200,000	0,008	-0,059
-69,694	277,537	0,041	-0,052
-68,680	-200,000	0,011	0,193
-67,665	-102,944	0,155	0,026
-66,651	185,061	-0,078	-0,082
-65,636	-24,028	-0,078	-0,033
-64,622	-23,733	-0,010	-0,004
-63,607	33,310	-0,198	0,121
-62,592	-124,929	0,060	0,006
-61,578	460,586	0,086	-0,136
-60,563	-72,339	0,074	0,019
-59,549	-200,000	0,025	0,090
-58,534	19,225	-2,035	-1,150
-57,519	439,017	-1,299	-2,007
-56,505	-200,000	-0,380	-4,547
-55,490	548,180	0,867	1,471
-54,476	800,000	5,052	11,245
-53,461	-200,000	21,011	337,182
-52,446	800,000	757,993	2343,167
-51,432	555,723	1661,771	2833,618
-50,417	73,589	1663,115	1227,405
-49,403	18,252	1536,445	862,645
-48,388	12,209	1459,578	790,261
-47,373	19,315	1450,185	819,233
-46,359	15,593	1439,674	795,566
-45,344	10,497	1435,147	768,780
-44,330	10,389	1433,567	767,389
-43,315	10,385	1431,667	766,320
-42,300	10,414	1429,876	765,472
-41,286	10,444	1428,675	764,937
-40,271	10,384	1427,633	764,069
-39,257	10,378	1426,374	763,334
-38,242	10,444	1425,102	762,937
-37,227	10,406	1424,078	762,176
-36,213	10,450	1422,637	761,584
-35,198	10,416	1421,779	760,936
-34,184	10,438	1420,849	760,509
-33,169	10,417	1419,441	759,624
-32,154	10,464	1418,189	759,150
-31,140	10,432	1417,169	758,419
-30,125	10,491	1416,042	758,067
-29,111	10,475	1415,028	757,419
-28,096	10,437	1413,635	756,462
-27,082	10,408	1412,568	755,728
-26,067	10,367	1411,727	755,054
-25,052	10,420	1410,412	754,568
-24,038	10,422	1409,331	753,971
-23,023	10,389	1408,497	753,340
-22,009	10,399	1407,459	752,801
-20,994	10,377	1406,406	752,106
-19,979	10,373	1405,731	751,696
-18,965	10,333	1404,831	751,000
-17,950	10,365	1403,875	750,605
-16,936	10,323	1402,924	749,875
-15,921	10,260	1401,996	749,053
-14,906	10,283	1400,945	748,570
-13,892	10,288	1400,070	748,096
-12,877	10,297	1399,366	747,732
-11,863	10,306	1398,373	747,215
-10,848	10,321	1397,385	746,724
-9,833	10,229	1396,619	745,857
-8,819	10,204	1395,760	745,254
-7,804	10,221	1394,740	744,760
-6,790	10,210	1393,751	744,149
-5,775	10,208	1392,864	743,639
-4,760	10,224	1391,855	743,145
-3,746	10,195	1390,906	742,476
-2,731	10,164	1390,124	741,884
-1,717	10,183	1389,166	741,429
-0,702	10,154	1387,462	740,359
0,313	14,297	1300,658	712,970
1,327	30,557	691,608	416,013
2,342	47,652	120,010	78,789
3,356	1,630	16,568	8,381
4,371	7,740	3,534	1,860
5,386	-25,769	1,010	0,418
6,400	800,000	0,237	0,611
7,415	42,175	-0,078	-0,050
8,429	226,828	-0,134	-0,153
9,444	-116,177	-0,376	-0,049
10,459	0,320	-0,192	-0,096
11,473	84,131	-0,272	-0,209
12,488	129,235	-0,072	-0,065
13,502	73,409	-0,379	-0,279
14,517	-169,790	-0,204	-0,005
15,531	237,318	-0,355	-0,415
16,546	102,049	-0,327	-0,268
17,561	207,989	-0,257	-0,283
18,575	-36,871	-0,261	-0,098
19,590	160,251	-0,241	-0,236
20,604	-52,386	-0,327	-0,106
21,619	2,336	-0,490	-0,248
22,634	117,849	-0,308	-0,267
23,648	160,159	-0,423	-0,415
24,663	93,235	-0,338	-0,269
25,677	217,198	-0,210	-0,235
26,692	116,426	-0,320	-0,276
27,707	42,674	-0,322	-0,206
28,721	224,314	-0,261	-0,298
29,736	112,180	-0,361	-0,307
30,750	35,512	-0,321	-0,198
31,765	163,921	-0,271	-0,268
32,780	99,390	-0,331	-0,269
33,794	222,430	-0,255	-0,289
34,809	92,361	-0,428	-0,339
35,823	70,896	-0,390	-0,283
36,838	94,703	-0,469	-0,374
37,853	195,185	-0,338	-0,362
38,867	89,140	-0,410	-0,320
39,882	220,689	-0,253	-0,286
40,896	18,856	-0,464	-0,260
41,911	22,303	-0,263	-0,150
42,926	11,781	-0,488	-0,262
43,940	131,138	-0,371	-0,334
44,955	-30,381	-0,390	-0,155
45,969	109,102	-0,283	-0,238
46,984	77,431	-0,231	-0,173
47,999	-39,816	-0,329	-0,120
49,013	77,610	-0,250	-0,187
50,028	-3,767	-0,328	-0,159
51,042	56,270	-0,325	-0,221
52,057	79,590	-0,276	-0,208
53,071	73,319	-0,339	-0,249
54,086	230,979	-0,205	-0,236
55,101	294,754	-0,276	-0,355
56,115	-26,083	-0,353	-0,145
57,130	13,714	-0,459	-0,249
58,144	44,282	-0,243	-0,156
59,159	50,884	-0,422	-0,280
60,174	62,413	-0,265	-0,186
61,188	106,781	-0,373	-0,310
62,203	25,759	-0,329	-0,192
63,217	22,211	-0,441	-0,252
64,232	107,136	-0,352	-0,293
65,247	-78,170	-0,237	-0,057
66,261	326,092	-0,187	-0,252
67,276	70,524	-0,274	-0,199
68,290	223,686	-0,232	-0,262
69,305	109,418	-0,288	-0,242
70,320	72,006	-0,369	-0,269
71,334	69,942	-0,252	-0,182
72,349	45,603	-0,405	-0,262
73,363	123,322	-0,416	-0,366
74,378	79,870	-0,298	-0,224
75,393	-59,060	-0,287	-0,086
76,407	125,572	-0,252	-0,223
77,422	30,705	-0,286	-0,171
78,436	-19,061	-0,169	-0,073
79,451	51,251	-0,380	-0,252
80,466	10,211	-0,286	-0,152
81,480	31,910	-0,344	-0,207
82,495	231,185	-0,225	-0,258
83,509	178,441	-0,271	-0,277
84,524	-5,990	-0,344	-0,164
85,539	124,329	-0,151	-0,133
86,553	130,923	-0,321	-0,288
87,568	1,783	-0,318	-0,160
88,582	16,429	-0,456	-0,251
89,597	192,580	-0,239	-0,253
90,611	149,930	-0,281	-0,266
91,626	117,163	-0,204	-0,175
92,641	151,869	-0,184	-0,175
93,655	254,071	-0,199	-0,238
94,670	65,309	-0,300	-0,212
95,684	-32,292	-0,376	-0,146
96,699	2,837	-0,268	-0,135
97,714	-176,133	-0,323	-0,006
98,728	174,185	-0,274	-0,277
99,743	-2,485	-0,308	-0,150
100,757	-9,353	-0,242	-0,112
101,772	63,651	-0,330	-0,231
102,787	115,062	-0,214	-0,183
103,801	63,352	-0,324	-0,227
104,816	495,206	-0,238	-0,384
105,830	489,617	-0,149	-0,239
106,845	-115,323	-0,244	-0,032
107,860	205,592	-0,236	-0,256
108,874	111,420	-0,157	-0,133
109,889	207,343	-0,184	-0,201
110,903	302,981	-0,188	-0,243
111,918	192,271	-0,229	-0,241
112,933	451,816	-0,255	-0,395
113,947	265,203	-0,220	-0,268
114,962	-20,462	-0,308	-0,132
115,976	-23,657	-0,162	-0,068
116,991	62,509	-0,370	-0,257
118,006	-1,951	-0,216	-0,106
119,020	153,850	-0,207	-0,198
120,035	-92,043	-0,232	-0,045
121,049	-97,190	-0,210	-0,038
122,064	-26,934	-0,279	0,113
123,079	-121,484	-0,331	-0,038
124,093	329,171	-0,237	-0,318
125,108	140,565	-0,249	-0,229
126,122	281,750	-0,211	-0,264
127,137	153,432	-0,125	-0,120
128,151	-200,000	-0,314	0,000
129,166	75,633	-0,188	-0,138
130,181	228,491	-0,183	-0,208
131,195	3,482	-0,308	-0,156
132,210	291,663	-0,188	-0,240
133,224	-103,759	-0,310	-0,050
134,239	3,342	-0,171	-0,086
135,254	124,484	-0,164	-0,144
136,268	174,025	-0,268	-0,270
137,283	-53,557	-0,268	-0,085
138,297	143,313	-0,261	-0,242
139,312	-61,132	-0,426	-0,124
140,327	-7,338	-0,306	-0,144
141,341	19,726	-0,278	-0,155
142,356	161,947	-0,224	-0,218
143,370	88,111	-0,200	-0,154
144,385	65,087	-0,242	-0,170
145,400	146,602	-0,240	-0,225
146,414	148,560	-0,162	-0,153
147,429	254,122	-0,246	-0,293
148,443	-29,858	-0,063	-0,025
149,458	79,703	-0,250	-0,186
150,473	77,936	-0,304	-0,225
151,487	239,930	-0,242	-0,281
152,502	800,000	-0,117	-0,279
153,516	137,234	-0,139	-0,126
154,531	-25,725	-0,354	-0,144
155,546	106,453	-0,232	-0,192
156,560	77,097	-0,112	-0,083
157,575	124,860	-0,149	-0,130
158,589	213,213	-0,205	-0,226
159,604	-12,523	-0,272	-0,123
160,619	162,012	-0,311	-0,303
161,633	105,768	-0,225	-0,185
162,648	20,966	-0,295	-0,166
163,662	-14,387	-0,268	-0,120
164,677	-98,478	-0,181	-0,032
165,692	74,043	-0,260	-0,189
166,706	97,772	-0,275	-0,220
167,721	257,481	-0,152	-0,182
168,735	40,216	-0,269	-0,168
169,750	762,365	-0,116	-0,220
170,764	578,994	-0,142	-0,243
171,779	-60,260	-0,204	-0,060
172,794	-29,330	-0,195	-0,077
173,808	-102,030	-0,248	-0,041
174,823	97,953	-0,161	-0,128
175,837	216,156	-0,232	-0,256
176,852	231,384	-0,154	-0,176
177,867	334,990	-0,223	-0,301
178,881	65,233	-0,299	-0,209
179,896	-53,940	-0,093	-0,029
180,910	23,946	-0,283	-0,161
181,925	148,720	-0,186	-0,174
182,940	360,205	-0,189	-0,263
183,954	115,194	-0,276	-0,234
184,969	230,439	-0,184	-0,209
185,983	139,046	-0,086	-0,078
186,998	194,122	-0,089	-0,093
188,013	144,147	-0,206	-0,191
189,027	1,804	-0,201	-0,100
190,042	316,889	-0,226	-0,297
191,056	296,123	-0,230	-0,293
192,071	121,440	-0,288	-0,249
193,086	110,573	-0,153	-0,128
194,100	204,761	-0,146	-0,158
195,115	8,710	-0,184	-0,096
196,129	639,755	-0,142	-0,251
197,144	-24,901	-0,243	-0,100
198,159	-71,730	-0,102	-0,026
199,173	-85,359	-0,248	-0,053
200,188	90,026	-0,195	-0,151
201,202	413,108	-0,126	-0,186
202,217	800,000	-0,095	-0,238
203,232	160,597	-0,204	-0,197
204,246	89,268	-0,320	-0,247
205,261	-200,000	-0,066	-0,225
206,275	-200,000	-0,025	-0,092
207,290	57,525	-0,213	-0,144
208,304	129,376	-0,221	-0,196
209,319	-59,187	-0,186	-0,055
210,334	800,000	-0,079	-0,163
211,348	-13,582	-0,182	-0,081
212,363	-2,526	-0,209	-0,101
213,377	135,553	-0,184	-0,166
214,392	90,182	-0,274	-0,212
215,407	110,848	-0,153	-0,127
216,421	-29,479	-0,206	-0,081
217,436	108,730	-0,209	-0,173
218,450	-71,937	-0,284	-0,073
219,465	349,523	-0,198	-0,272
220,480	2,254	-0,096	0,048
221,494	9,387	-0,265	-0,138
222,509	66,009	-0,248	-0,174
223,523	435,540	-0,144	-0,218
224,538	-106,597	-0,163	-0,025
225,553	-49,242	-0,144	-0,047
226,567	88,388	-0,297	-0,228
227,582	-91,821	-0,211	0,041
228,596	268,198	-0,167	-0,203
229,611	-26,498	-0,117	-0,047
230,626	196,001	-0,136	-0,143
231,640	40,810	-0,239	-0,149
232,655	800,000	-0,122	-0,303
233,669	491,405	-0,142	-0,225
234,684	114,890	-0,196	-0,165
235,699	460,876	-0,023	0,035
236,713	-122,741	-0,157	0,017
237,728	129,260	-0,191	-0,169
238,742	35,893	-0,243	-0,147
239,757	64,982	-0,120	-0,083
240,772	394,643	-0,147	-0,212
241,786	800,000	-0,054	-0,106
242,801	95,358	-0,104	-0,082
243,815	70,594	-0,182	-0,129
244,830	-98,071	-0,203	0,036
245,844	-53,487	-0,177	-0,055
246,859	-57,440	-0,284	-0,086
247,874	338,658	-0,030	-0,040
248,888	313,936	-0,167	-0,217
249,903	211,571	-0,139	-0,151
250,917	-147,939	-0,182	-0,010
251,932	626,337	-0,096	-0,169
252,947	239,252	-0,058	-0,066
253,961	269,667	-0,161	-0,196
254,976	124,282	-0,184	-0,160
255,990	-53,474	-0,149	-0,047
257,005	29,771	-0,131	-0,077
258,020	24,564	-0,171	-0,097
259,034	205,931	-0,167	-0,180
260,049	354,253	-0,115	-0,158
261,063	-70,539	-0,131	0,034
262,078	176,281	-0,220	-0,220
263,093	72,485	-0,228	-0,164
264,107	-3,756	-0,202	-0,096
265,122	200,491	-0,197	-0,208
266,136	-200,000	0,010	-0,140
267,151	73,540	-0,197	-0,142
268,166	171,948	-0,274	-0,272
269,180	-20,664	-0,283	-0,119
270,195	230,947	-0,161	-0,182
271,209	-60,358	-0,213	-0,062
272,224	348,282	-0,010	-0,013
273,239	319,320	-0,062	-0,081
274,253	129,876	-0,221	-0,195
275,268	127,323	-0,169	-0,147
276,282	42,615	-0,177	-0,110
277,297	197,909	-0,119	-0,125
278,312	-200,000	0,030	-0,129
279,326	204,448	-0,125	-0,134
280,341	20,292	-0,258	-0,143
281,355	103,472	-0,160	-0,129
282,370	74,023	-0,065	-0,047
283,384	-57,538	-0,141	-0,042
284,399	-200,000	-0,083	-0,268
285,414	95,216	-0,286	-0,224
286,428	-127,309	-0,082	-0,008
287,443	800,000	-0,056	-0,151
288,457	10,837	-0,118	-0,062
289,472	33,762	-0,182	-0,108
290,487	-200,000	-0,072	-0,249
291,501	-133,800	-0,245	-0,021
292,516	41,080	-0,150	-0,093
293,530	-116,759	-0,160	-0,020
294,545	459,844	-0,097	-0,148
295,560	-120,434	-0,141	-0,016
296,574	-128,770	-0,164	-0,016
297,589	800,000	-0,086	-0,165
298,603	179,301	-0,195	-0,196
299,618	103,335	-0,232	-0,187
300,633	556,620	-0,065	-0,108
301,647	-29,424	-0,127	-0,050
302,662	123,987	-0,167	-0,144
303,676	-0,888	-0,226	-0,109
304,691	473,191	-0,152	-0,237
305,706	210,733	-0,059	-0,064
306,720	-43,710	-0,207	-0,071
307,735	7,438	-0,106	-0,054
308,749	-200,000	0,007	-0,096
309,764	-93,381	-0,126	-0,024
310,779	99,435	-0,250	-0,198
311,793	104,467	-0,280	-0,226
312,808	121,949	-0,128	-0,110
313,822	63,754	-0,214	-0,147
314,837	800,000	0,019	-0,038
315,852	105,513	-0,161	-0,130
316,866	-131,274	0,011	0,001
317,881	-104,655	-0,130	-0,020
318,895	-37,006	-0,134	-0,049
319,910	-200,000	-0,049	-0,218
320,925	-127,468	-0,152	-0,015
321,939	71,204	-0,162	-0,115
322,954	-102,137	-0,082	-0,013
323,968	43,889	-0,050	0,032
324,983	-128,271	-0,139	0,013
325,997	255,308	-0,142	-0,167
327,012	-83,780	-0,161	-0,035
328,027	-79,196	-0,222	-0,051
329,041	387,307	-0,131	-0,186
330,056	-93,798	-0,169	-0,032
331,070	28,120	-0,075	-0,043
332,085	400,151	-0,108	-0,156
333,100	64,982	-0,226	-0,156
334,114	-200,000	-0,086	-0,318
335,129	126,333	-0,185	-0,160
336,143	-200,000	-0,058	-0,230
337,158	-41,701	-0,090	-0,031
338,173	-200,000	0,004	-0,155
339,187	-10,664	-0,084	-0,038
340,202	-124,420	-0,221	0,023
341,216	-200,000	-0,050	-0,161
342,231	12,654	-0,201	-0,106
343,246	167,849	-0,150	-0,146
344,260	800,000	-0,109	-0,215
345,275	71,702	-0,125	-0,088
346,289	-108,493	-0,049	-0,007
347,304	-45,563	-0,188	-0,063
348,319	3,363	-0,156	-0,077
349,333	86,293	-0,106	-0,080
350,348	180,716	-0,113	-0,114
351,362	330,340	-0,129	-0,170
352,377	-4,941	-0,142	0,067
353,392	4,509	-0,062	-0,031
354,406	-156,749	-0,078	0,003
355,421	206,105	1314,280	1399,204
356,435	158,493	1474,922	1399,673
