DTS Sentinel unit serial number:	SN410029Multiplexer serial number:	ORYXHardware model number:	OX2-SRSoftware version number:	ORYX F/W v4,00 Oryx Data Collector v3.7.2.0data status	okinstallation	B3 Nyhavnadifferential loss correction	single-endedforward channel	channel 1reverse channel	N/Adate	2023/12/03time	20:17:30forward acquisition time	300,00reverse acquisition time	0,00gamma	499,1914k internal	0,3198k external	0,3198temperature offset calibration	1,0000default loss term (dB/km)	0,3820temperature slope calibration	1,0000multiplexer offset coefficient	1,0000multiplexer slope coefficient	1,0000fibre end	0,00T internal ref (°C)	14,01T ext. ref 1 (°C)	-1,31T ext. ref 2 (°C)	-1,34length (m)	temperature (°C)	Stokes	anti-Stokes-744,400	257,970	-0,209	-0,262
-743,385	-200,000	0,048	0,311
-742,371	254,331	-0,150	-0,187
-741,356	-200,000	-0,061	0,316
-740,342	27,481	-0,234	-0,143
-739,327	800,000	0,129	0,379
-738,312	47,667	-0,278	-0,188
-737,298	-200,000	0,071	0,459
-736,283	78,292	-0,133	-0,103
-735,269	-200,000	0,040	0,272
-734,254	608,118	-0,139	-0,254
-733,239	65,119	-0,127	0,093
-732,225	615,322	-0,072	-0,131
-731,210	-200,000	0,029	0,094
-730,196	478,660	-0,024	-0,039
-729,181	800,000	0,071	-0,146
-728,167	-25,536	-0,078	0,033
-727,152	51,816	0,065	-0,045
-726,137	778,811	-0,045	-0,089
-725,123	356,344	-0,014	0,020
-724,108	-135,958	0,033	-0,003
-723,094	-87,810	0,067	-0,015
-722,079	147,170	-0,042	-0,041
-721,064	-77,961	0,107	0,027
-720,050	-77,591	-0,090	-0,023
-719,035	-16,549	0,011	0,005
-718,021	-115,951	0,031	0,004
-717,006	0,642	-0,173	-0,090
-715,991	228,775	-0,151	-0,180
-714,977	-126,306	-0,134	-0,014
-713,962	-200,000	-0,015	0,114
-712,948	-64,830	0,104	0,030
-711,933	0,512	-0,088	-0,046
-710,918	27,258	-0,101	0,061
-709,904	800,000	-0,019	0,046
-708,889	800,000	-0,050	-0,144
-707,875	-151,850	0,044	0,002
-706,860	-157,391	0,049	0,002
-705,845	37,797	0,064	-0,041
-704,831	-200,000	0,000	-0,095
-703,816	-42,228	0,053	-0,019
-702,802	-200,000	0,024	-0,135
-701,787	168,590	-0,020	-0,021
-700,772	800,000	0,023	-0,062
-699,758	800,000	-0,037	-0,079
-698,743	22,649	0,110	0,065
-697,729	800,000	0,030	-0,083
-696,714	-188,843	-0,118	0,001
-695,699	-200,000	-0,013	0,065
-694,685	-91,179	0,103	0,021
-693,670	-200,000	0,009	0,080
-692,656	-25,277	-0,062	0,027
-691,641	715,524	0,053	-0,103
-690,627	63,179	0,018	0,013
-689,612	-200,000	0,003	-0,073
-688,597	800,000	-0,018	-0,047
-687,583	-200,000	-0,005	-0,056
-686,568	800,000	-0,021	-0,054
-685,554	-200,000	0,010	0,091
-684,539	191,891	-0,081	-0,088
-683,524	241,251	0,046	0,056
-682,510	57,730	-0,001	-0,001
-681,495	147,250	0,073	0,071
-680,481	-146,541	0,077	0,005
-679,466	78,181	0,110	-0,085
-678,451	601,669	-0,015	0,026
-677,437	-200,000	0,008	-0,125
-676,422	62,144	0,125	0,091
-675,408	-200,000	0,032	-0,162
-674,393	447,090	0,063	-0,101
-673,378	114,361	-0,114	0,101
-672,364	-200,000	-0,021	-0,142
-671,349	559,529	-0,088	-0,154
-670,335	-47,271	0,097	0,034
-669,320	800,000	0,030	0,086
-668,305	-7,527	-0,086	0,042
-667,291	77,819	-0,026	-0,020
-666,276	127,374	0,126	0,116
-665,262	26,336	0,036	0,022
-664,247	-116,870	-0,160	0,021
-663,232	29,241	-0,055	-0,034
-662,218	-9,344	0,099	0,048
-661,203	159,582	0,051	0,052
-660,189	657,669	0,033	-0,062
-659,174	-200,000	-0,107	0,000
-658,159	-14,175	-0,054	-0,025
-657,145	122,241	-0,105	-0,095
-656,130	-46,324	0,135	0,048
-655,116	39,669	0,023	0,015
-654,101	52,593	0,080	0,055
-653,086	-12,386	-0,071	-0,034
-652,072	-81,104	0,080	0,019
-651,057	-200,000	-0,027	0,086
-650,043	-200,000	0,002	-0,014
-649,028	222,885	0,103	0,121
-648,014	500,809	0,038	-0,064
-646,999	-55,365	-0,055	0,018
-645,984	-73,026	0,029	-0,008
-644,970	337,851	-0,105	0,149
-643,955	800,000	0,017	-0,037
-642,941	-124,591	-0,085	-0,009
-641,926	-20,718	-0,046	-0,020
-640,911	-200,000	-0,037	-0,132
-639,897	-2,904	0,110	0,056
-638,882	-200,000	0,014	-0,076
-637,868	35,141	0,041	-0,026
-636,853	268,549	-0,024	0,031
-635,838	570,861	0,086	-0,152
-634,824	-200,000	-0,026	-0,137
-633,809	241,929	-0,069	-0,084
-632,795	84,064	0,168	0,133
-631,780	49,083	-0,095	0,064
-630,765	100,681	-0,102	-0,086
-629,751	-145,569	-0,180	0,011
-628,736	-200,000	0,001	-0,049
-627,722	43,939	-0,015	0,010
-626,707	-200,000	0,003	0,066
-625,692	42,275	0,069	0,045
-624,678	53,812	0,051	0,035
-623,663	-103,273	-0,117	0,020
-622,649	305,355	0,054	-0,073
-621,634	-200,000	0,004	-0,072
-620,619	-200,000	-0,001	-0,064
-619,605	-200,000	-0,000	-0,062
-618,590	-81,287	0,062	-0,015
-617,576	208,253	-0,090	0,102
-616,561	-124,596	-0,105	-0,012
-615,546	223,875	-0,028	-0,033
-614,532	-111,605	0,063	-0,009
-613,517	-200,000	0,005	-0,045
-612,503	-79,322	0,099	0,024
-611,488	2,904	0,134	-0,070
-610,474	58,586	0,066	0,047
-609,459	29,972	0,075	0,046
-608,444	-129,332	-0,159	0,016
-607,430	637,952	-0,050	-0,092
-606,415	-200,000	-0,004	-0,052
-605,401	62,759	0,210	0,152
-604,386	112,391	-0,082	0,072
-603,371	-35,526	0,115	-0,045
-602,357	9,877	-0,031	-0,017
-601,342	-200,000	-0,031	0,101
-600,328	-85,766	-0,105	-0,023
-599,313	-116,900	0,067	-0,009
-598,298	618,593	-0,054	-0,099
-597,284	-3,575	-0,078	-0,039
-596,269	226,927	0,063	-0,074
-595,255	-17,982	0,021	-0,010
-594,240	-200,000	-0,006	-0,119
-593,225	572,336	0,022	-0,039
-592,211	381,460	-0,122	-0,182
-591,196	16,377	-0,013	-0,007
-590,182	-24,915	-0,009	-0,004
-589,167	-21,577	-0,139	0,061
-588,152	-200,000	-0,008	0,072
-587,138	-200,000	0,022	-0,110
-586,123	261,257	-0,036	-0,046
-585,109	23,612	0,045	-0,027
-584,094	275,722	-0,025	-0,032
-583,079	114,581	0,081	0,071
-582,065	-200,000	0,003	0,053
-581,050	800,000	0,022	-0,054
-580,036	-76,802	-0,111	-0,028
-579,021	-16,966	0,020	0,009
-578,006	800,000	0,067	-0,190
-576,992	-200,000	-0,016	-0,134
-575,977	174,138	-0,047	-0,049
-574,963	-170,658	0,121	0,003
-573,948	295,931	0,064	-0,085
-572,934	9,734	-0,048	-0,026
-571,919	494,322	-0,024	-0,040
-570,904	0,698	-0,258	-0,133
-569,890	126,995	0,038	0,034
-568,875	117,468	-0,109	-0,097
-567,861	28,945	0,100	0,061
-566,846	800,000	-0,039	-0,096
-565,831	-200,000	0,003	0,042
-564,817	532,617	-0,033	-0,057
-563,802	-200,000	-0,041	-0,131
-562,788	587,802	-0,042	-0,075
-561,773	-67,427	-0,151	-0,042
-560,758	359,715	0,073	-0,105
-559,744	-59,482	-0,066	-0,020
-558,729	-99,009	0,198	-0,036
-557,715	-158,549	-0,157	0,006
-556,700	566,191	-0,055	-0,098
-555,685	-53,857	-0,117	0,038
-554,671	524,876	0,040	0,068
-553,656	800,000	0,029	-0,073
-552,642	460,308	-0,044	-0,071
-551,627	-80,293	-0,038	0,009
-550,612	-200,000	-0,039	-0,143
-549,598	-200,000	-0,050	-0,179
-548,583	-79,006	0,082	-0,020
-547,569	-181,799	0,036	-0,000
-546,554	-108,467	0,070	-0,011
-545,539	42,034	-0,082	-0,053
-544,525	-110,635	-0,051	-0,008
-543,510	-200,000	-0,035	-0,144
-542,496	-79,915	-0,098	0,024
-541,481	-18,927	0,136	-0,061
-540,466	800,000	-0,028	-0,057
-539,452	357,834	0,029	-0,042
-538,437	2,669	0,036	0,019
-537,423	45,231	-0,081	0,054
-536,408	-200,000	0,007	0,057
-535,393	760,395	-0,031	-0,062
-534,379	-48,828	-0,123	-0,042
-533,364	800,000	-0,003	-0,008
-532,350	-50,464	0,100	0,034
-531,335	380,948	0,089	0,132
-530,321	-200,000	0,013	0,083
-529,306	-200,000	-0,031	-0,103
-528,291	32,379	-0,115	0,072
-527,277	-3,227	-0,097	0,048
-526,262	120,863	0,009	0,008
-525,248	-64,963	0,181	0,052
-524,233	-43,081	-0,097	0,035
-523,218	122,977	0,022	0,020
-522,204	-71,568	-0,136	0,036
-521,189	-16,595	-0,085	-0,039
-520,175	191,270	0,096	-0,104
-519,160	366,425	-0,030	0,044
-518,145	177,665	0,023	0,024
-517,131	147,520	0,066	-0,065
-516,116	-126,149	0,076	-0,008
-515,102	-7,046	0,061	-0,030
-514,087	800,000	-0,060	-0,134
-513,072	-159,983	-0,172	0,007
-512,058	-200,000	0,002	-0,134
-511,043	23,251	-0,059	-0,035
-510,029	293,511	0,048	0,064
-509,014	-3,749	0,039	-0,020
-507,999	800,000	-0,017	0,044
-506,985	-111,692	-0,124	0,018
-505,970	-200,000	0,000	-0,068
-504,956	-200,000	0,007	-0,072
-503,941	800,000	0,015	0,039
-502,926	465,610	0,032	-0,052
-501,912	-200,000	-0,013	0,043
-500,897	165,893	-0,020	-0,020
-499,883	22,784	-0,163	0,096
-498,868	33,359	-0,136	-0,085
-497,853	545,832	0,075	-0,130
-496,839	800,000	0,015	-0,037
-495,824	400,220	0,035	-0,053
-494,810	-14,721	0,095	0,044
-493,795	-96,177	0,040	-0,008
-492,781	40,609	0,105	-0,068
-491,766	800,000	-0,016	0,036
-490,751	800,000	-0,017	-0,052
-489,737	-200,000	0,023	0,089
-488,722	180,597	-0,124	0,132
-487,708	-34,069	-0,045	-0,018
-486,693	-179,900	0,090	0,001
-485,678	178,371	-0,052	-0,055
-484,664	72,718	-0,042	-0,032
-483,649	-38,065	-0,156	0,060
-482,635	-200,000	0,015	0,100
-481,620	127,167	-0,084	0,076
-480,605	92,860	0,117	0,095
-479,591	-55,190	0,030	-0,010
-478,576	-62,378	0,064	0,019
-477,562	19,811	-0,119	-0,069
-476,547	-200,000	0,014	-0,046
-475,532	305,920	-0,102	0,137
-474,518	399,698	0,051	-0,077
-473,503	-71,582	-0,079	-0,021
-472,489	502,018	-0,049	0,082
-471,474	800,000	-0,020	0,056
-470,459	38,492	-0,057	-0,036
-469,445	-200,000	0,014	-0,166
-468,430	-28,271	0,040	0,016
-467,416	-3,915	0,033	0,017
-466,401	-200,000	-0,007	0,076
-465,386	-15,128	0,113	0,052
-464,372	-200,000	0,004	0,026
-463,357	-200,000	0,005	0,094
-462,343	-77,293	-0,087	-0,022
-461,328	133,380	0,084	-0,078
-460,313	-139,055	-0,119	0,009
-459,299	-67,386	0,108	0,030
-458,284	316,874	-0,069	0,094
-457,270	-17,615	-0,099	-0,045
-456,255	96,316	-0,188	-0,155
-455,241	43,712	-0,099	-0,065
-454,226	800,000	0,021	0,046
-453,211	410,098	0,026	-0,040
-452,197	-81,825	-0,071	0,017
-451,182	-32,201	0,067	-0,027
-450,168	-200,000	0,019	0,065
-449,153	38,632	-0,038	0,025
-448,138	622,957	-0,048	-0,088
-447,124	130,567	-0,034	-0,031
-446,109	-30,378	0,090	0,037
-445,095	800,000	-0,046	0,101
-444,080	800,000	-0,060	0,168
-443,065	151,643	0,184	0,181
-442,051	520,061	-0,042	0,072
-441,036	421,576	-0,077	0,120
-440,022	800,000	0,033	-0,096
-439,007	-200,000	0,008	-0,089
-437,992	-83,031	-0,043	0,010
-436,978	-200,000	-0,003	0,037
-435,963	-12,736	0,154	0,072
-434,949	-200,000	-0,000	0,074
-433,934	472,762	-0,050	0,081
-432,919	-88,263	-0,150	-0,032
-431,905	79,853	0,120	0,093
-430,890	336,735	0,059	0,083
-429,876	-53,235	0,148	0,048
-428,861	316,192	0,037	-0,050
-427,846	368,131	-0,068	-0,100
-426,832	-102,744	-0,053	-0,009
-425,817	-200,000	0,060	-0,193
-424,803	-46,573	0,102	-0,036
-423,788	800,000	-0,058	0,119
-422,773	-97,851	0,099	0,018
-421,759	589,352	-0,016	-0,029
-420,744	3,610	0,035	0,018
-419,730	-200,000	-0,006	0,072
-418,715	-89,811	0,038	0,008
-417,701	-19,585	-0,111	0,049
-416,686	800,000	0,015	0,035
-415,671	-116,051	0,154	0,020
-414,657	416,444	-0,020	-0,031
-413,642	287,395	-0,078	0,102
-412,628	-140,359	-0,079	0,006
-411,613	-200,000	0,027	-0,100
-410,598	-126,739	0,095	0,010
-409,584	135,417	-0,060	-0,056
-408,569	-200,000	0,007	0,067
-407,555	-200,000	0,033	-0,110
-406,540	-69,379	0,075	0,021
-405,525	800,000	0,015	0,034
-404,511	328,139	0,030	0,041
-403,496	-109,898	-0,166	-0,025
-402,482	331,217	0,110	0,153
-401,467	95,825	0,051	0,042
-400,452	800,000	0,122	0,243
-399,438	312,155	-0,006	-0,008
-398,423	800,000	-0,016	0,049
-397,409	-119,626	-0,091	0,011
-396,394	-122,543	-0,072	0,008
-395,379	-16,231	0,076	-0,035
-394,365	567,480	0,067	0,118
-393,350	800,000	0,028	-0,070
-392,336	-1,279	-0,039	0,020
-391,321	-51,032	0,027	0,009
-390,306	81,435	-0,092	0,071
-389,292	800,000	-0,051	-0,144
-388,277	631,248	-0,064	-0,117
-387,263	653,266	0,073	0,135
-386,248	59,633	0,079	-0,056
-385,233	-3,707	0,168	0,083
-384,219	-55,129	0,033	-0,011
-383,204	-200,000	-0,015	-0,193
-382,190	-170,857	-0,127	0,003
-381,175	-56,968	0,117	-0,037
-380,160	-136,701	0,168	0,014
-379,146	-81,018	0,092	-0,022
-378,131	455,438	0,126	0,201
-377,117	110,201	-0,093	-0,080
-376,102	-94,456	-0,021	-0,004
-375,088	6,338	-0,224	0,119
-374,073	-200,000	-0,031	-0,112
-373,058	189,454	-0,098	-0,106
-372,044	210,208	0,026	0,029
-371,029	-4,448	0,070	-0,035
-370,015	187,392	0,043	0,046
-369,000	800,000	-0,006	-0,013
-367,985	-1,981	-0,019	0,010
-366,971	107,030	-0,088	0,075
-365,956	-200,000	0,009	-0,064
-364,942	-63,371	0,144	0,042
-363,927	239,809	-0,028	0,033
-362,912	92,791	-0,076	-0,061
-361,898	106,395	0,050	-0,042
-360,883	-200,000	-0,014	-0,110
-359,869	-200,000	-0,008	0,055
-358,854	-23,808	0,098	-0,042
-357,839	-200,000	-0,017	-0,062
-356,825	-32,834	0,166	0,066
-355,810	152,326	-0,069	-0,068
-354,796	132,118	0,059	0,055
-353,781	216,246	-0,106	-0,121
-352,766	29,236	-0,062	0,037
-351,752	5,380	0,098	0,052
-350,737	-200,000	0,010	0,081
-349,723	699,105	0,032	0,061
-348,708	-200,000	-0,004	0,066
-347,693	-133,466	0,094	-0,008
-346,679	55,212	0,017	0,012
-345,664	800,000	-0,059	-0,150
-344,650	-6,014	0,049	-0,024
-343,635	121,680	-0,041	-0,037
-342,620	-138,543	-0,042	-0,003
-341,606	67,760	0,055	0,041
-340,591	-200,000	0,025	-0,173
-339,577	-98,738	-0,021	-0,004
-338,562	-200,000	-0,021	0,080
-337,548	-200,000	-0,049	0,213
-336,533	-200,000	-0,019	0,073
-335,518	-200,000	-0,005	0,133
-334,504	-54,291	0,088	0,029
-333,489	105,885	-0,109	-0,092
-332,475	88,421	-0,121	-0,096
-331,460	-107,992	-0,075	-0,012
-330,445	-48,763	0,068	0,023
-329,431	-103,676	-0,153	0,025
-328,416	707,376	0,040	-0,075
-327,402	-200,000	-0,019	0,098
-326,387	68,825	0,048	-0,035
-325,372	-0,399	-0,068	0,034
-324,358	-94,344	-0,029	-0,006
-323,343	49,612	0,070	0,047
-322,329	-200,000	0,028	0,120
-321,314	46,544	-0,022	-0,014
-320,299	-200,000	0,016	0,107
-319,285	55,772	-0,051	0,035
-318,270	-27,083	0,191	0,079
-317,256	365,695	-0,009	-0,012
-316,241	62,739	-0,065	-0,046
-315,226	-200,000	0,009	0,034
-314,212	-81,830	0,139	-0,032
-313,197	196,601	0,064	0,070
-312,183	156,372	-0,019	0,019
-311,168	-57,196	0,107	0,034
-310,153	200,189	0,042	0,046
-309,139	800,000	0,056	0,129
-308,124	-3,395	0,118	-0,059
-307,110	-122,275	0,087	-0,010
-306,095	-117,151	0,082	0,011
-305,080	800,000	-0,042	0,103
-304,066	-92,286	-0,130	-0,026
-303,051	426,907	0,066	-0,102
-302,037	-18,908	-0,159	0,070
-301,022	133,119	0,049	-0,046
-300,008	800,000	-0,024	0,058
-298,993	800,000	-0,041	0,086
-297,978	-200,000	-0,023	0,115
-296,964	-190,162	-0,076	0,001
-295,949	-200,000	-0,028	-0,128
-294,935	261,734	-0,023	0,029
-293,920	132,504	0,104	0,096
-292,905	-54,778	-0,084	0,027
-291,891	-200,000	0,073	0,233
-290,876	-72,754	-0,142	0,037
-289,862	-118,411	0,039	-0,005
-288,847	-134,122	0,110	0,010
-287,832	84,290	0,045	0,035
-286,818	800,000	-0,017	-0,050
-285,803	800,000	-0,016	0,032
-284,789	-118,457	0,112	0,014
-283,774	80,342	-0,060	0,046
-282,759	10,860	-0,132	-0,072
-281,745	1,844	-0,127	0,065
-280,730	140,823	-0,054	0,051
-279,716	410,020	0,064	0,098
-278,701	-5,923	0,111	-0,054
-277,686	-200,000	-0,027	0,115
-276,672	-135,624	0,092	0,008
-275,657	290,090	0,013	-0,016
-274,643	-155,817	-0,105	-0,005
-273,628	761,862	0,078	-0,152
-272,613	1,337	-0,110	-0,056
-271,599	-49,211	0,134	0,046
-270,584	-200,000	0,014	0,064
-269,570	473,700	0,061	0,099
-268,555	-200,000	0,035	-0,128
-267,540	461,162	-0,034	-0,054
-266,526	800,000	-0,022	-0,058
-265,511	-200,000	-0,013	-0,136
-264,497	800,000	-0,047	-0,118
-263,482	2,990	-0,045	-0,023
-262,467	219,272	0,056	0,064
-261,453	69,321	-0,057	0,042
-260,438	-50,737	-0,089	0,030
-259,424	-85,947	0,039	0,008
-258,409	174,831	0,098	-0,101
-257,395	-200,000	-0,002	0,033
-256,380	-62,529	0,124	0,037
-255,365	-200,000	0,019	0,070
-254,351	436,373	0,051	-0,080
-253,336	49,171	-0,055	-0,037
-252,322	89,158	0,087	-0,069
-251,307	-86,824	-0,019	0,004
-250,292	800,000	0,073	0,166
-249,278	800,000	-0,020	0,043
-248,263	-200,000	0,004	0,097
-247,249	522,875	0,016	0,027
-246,234	209,700	0,038	-0,042
-245,219	-32,865	0,050	0,020
-244,205	-200,000	-0,009	-0,103
-243,190	-134,520	-0,110	0,009
-242,176	-136,692	0,083	0,007
-241,161	-124,925	0,165	-0,018
-240,146	-77,019	-0,052	0,013
-239,132	71,677	0,095	0,071
-238,117	230,666	0,115	-0,135
-237,103	-200,000	-0,002	-0,065
-236,088	75,629	0,097	-0,073
-235,073	205,378	0,087	0,097
-234,059	-200,000	0,016	0,057
-233,044	-32,325	0,139	0,055
-232,030	20,038	0,044	0,025
-231,015	363,220	-0,027	0,039
-230,000	477,366	-0,063	0,102
-228,986	138,661	0,105	0,098
-227,971	-200,000	-0,015	0,093
-226,957	-200,000	0,003	0,082
-225,942	-49,890	0,094	-0,031
-224,927	116,939	-0,035	0,031
-223,913	-153,303	-0,175	0,009
-222,898	-200,000	-0,025	-0,149
-221,884	-51,472	0,094	-0,031
-220,869	-200,000	0,017	0,077
-219,855	-34,519	0,096	0,037
-218,840	-66,231	0,101	-0,029
-217,825	24,389	0,088	0,052
-216,811	34,755	-0,041	-0,026
-215,796	-9,745	-0,179	-0,084
-214,782	-117,749	0,176	0,022
-213,767	-166,579	0,028	-0,001
-212,752	-200,000	-0,018	0,111
-211,738	800,000	0,033	0,085
-210,723	800,000	-0,023	-0,069
-209,709	-19,642	-0,030	0,013
-208,694	58,630	0,042	-0,029
-207,679	-170,142	0,064	-0,002
-206,665	-106,286	0,060	-0,009
-205,650	800,000	-0,024	0,074
-204,636	-46,084	0,043	-0,015
-203,621	-200,000	0,024	0,106
-202,606	267,872	-0,096	0,120
-201,592	-200,000	0,022	-0,082
-200,577	145,640	-0,044	-0,042
-199,563	-200,000	-0,001	-0,002
-198,548	310,220	-0,042	0,056
-197,533	-200,000	-0,010	0,046
-196,519	62,923	0,055	-0,039
-195,504	237,136	-0,097	-0,114
-194,490	490,454	-0,010	-0,016
-193,475	633,356	-0,046	0,083
-192,460	-49,764	0,032	-0,011
-191,446	-167,664	-0,131	-0,004
-190,431	16,132	0,066	0,037
-189,417	49,220	0,030	-0,020
-188,402	63,625	-0,047	0,034
-187,387	-200,000	-0,028	-0,092
-186,373	-200,000	-0,023	-0,106
-185,358	-200,000	0,015	-0,072
-184,344	168,882	-0,079	0,080
-183,329	800,000	-0,041	0,112
-182,315	800,000	-0,068	0,183
-181,300	177,609	-0,041	-0,042
-180,285	-200,000	0,012	-0,166
-179,271	38,335	-0,056	-0,035
-178,256	64,939	-0,084	0,061
-177,242	376,296	-0,081	-0,118
-176,227	-115,822	0,071	0,009
-175,212	-200,000	0,009	0,156
-174,198	-32,921	-0,051	0,020
-173,183	633,605	-0,055	0,101
-172,169	73,034	-0,047	-0,035
-171,154	-200,000	0,044	-0,140
-170,139	-200,000	-0,012	0,109
-169,125	-200,000	0,010	0,050
-168,110	196,013	0,026	0,028
-167,096	485,526	0,047	-0,076
-166,081	-62,308	0,029	-0,008
-165,066	-29,978	0,044	-0,018
-164,052	364,392	0,008	-0,011
-163,037	800,000	-0,035	0,073
-162,023	-118,596	-0,095	-0,012
-161,008	-78,010	-0,037	0,009
-159,993	409,703	0,086	-0,130
-158,979	530,543	-0,050	-0,084
-157,964	683,352	-0,008	-0,016
-156,950	167,561	0,075	0,076
-155,935	70,656	-0,040	0,029
-154,920	-92,725	-0,016	-0,003
-153,906	-150,592	0,102	0,005
-152,891	182,274	0,080	-0,084
-151,877	-28,080	0,057	-0,023
-150,862	82,531	0,067	0,052
-149,847	-8,671	0,088	-0,042
-148,833	-10,613	-0,049	0,023
-147,818	58,766	-0,068	0,047
-146,804	-200,000	0,010	0,097
-145,789	-122,835	0,087	-0,010
-144,775	800,000	-0,041	-0,098
-143,760	-52,674	-0,071	0,023
-142,745	569,725	0,036	-0,063
-141,731	194,633	-0,099	-0,106
-140,716	77,338	-0,038	-0,028
-139,702	800,000	0,043	0,092
-138,687	800,000	-0,049	-0,117
-137,672	-110,254	0,028	-0,004
-136,658	406,222	0,049	-0,074
-135,643	445,125	-0,049	-0,077
-134,629	238,407	-0,061	-0,072
-133,614	-100,451	0,088	-0,015
-132,599	254,265	0,066	0,080
-131,585	-200,000	0,015	0,078
-130,570	37,245	-0,058	-0,037
-129,556	-200,000	0,001	-0,065
-128,541	-200,000	-0,014	-0,055
-127,526	383,769	-0,044	0,065
-126,512	309,288	0,013	-0,017
-125,497	800,000	-0,046	0,102
-124,483	-48,325	0,192	-0,065
-123,468	-36,466	0,089	-0,034
-122,453	-92,762	-0,029	0,006
-121,439	446,044	-0,065	-0,101
-120,424	377,751	-0,046	-0,066
-119,410	132,449	0,064	0,059
-118,395	119,301	0,057	-0,050
-117,380	-200,000	-0,024	-0,080
-116,366	-200,000	-0,004	-0,047
-115,351	-105,385	-0,145	-0,023
-114,337	-200,000	0,016	-0,141
-113,322	670,960	-0,050	-0,092
-112,307	-200,000	-0,032	0,116
-111,293	800,000	-0,062	0,137
-110,278	247,253	0,112	0,134
-109,264	-200,000	-0,005	0,095
-108,249	-200,000	0,004	0,037
-107,234	-39,669	0,111	-0,041
-106,220	-200,000	0,017	0,069
-105,205	-200,000	-0,025	0,112
-104,191	-25,023	0,054	0,023
-103,176	111,457	0,093	0,080
-102,162	-49,331	0,087	-0,029
-101,147	-21,424	-0,122	-0,053
-100,132	-200,000	0,006	-0,036
-99,118	-43,058	0,010	-0,004
-98,103	60,937	-0,106	-0,075
-97,089	-18,152	0,059	-0,026
-96,074	152,425	-0,027	0,026
-95,059	-188,180	0,044	0,000
-94,045	50,707	-0,004	0,003
-93,030	776,835	-0,045	-0,087
-92,016	800,000	-0,005	0,010
-91,001	-52,997	0,041	-0,013
-89,986	16,142	-0,058	0,032
-88,972	-200,000	0,023	-0,089
-87,957	665,427	0,036	-0,067
-86,943	342,137	0,034	0,048
-85,928	-200,000	-0,033	0,114
-84,913	162,716	-0,004	-0,004
-83,899	289,933	-0,018	0,023
-82,884	-85,757	0,126	0,027
-81,870	317,035	0,016	0,021
-80,855	-200,000	0,024	0,099
-79,840	-137,290	-0,113	0,009
-78,826	-189,242	0,019	-0,000
-77,811	0,247	-0,110	0,055
-76,797	336,416	0,058	-0,080
-75,782	-200,000	-0,002	-0,074
-74,767	-36,320	0,117	0,045
-73,753	211,002	0,036	0,041
-72,738	40,597	0,146	-0,093
-71,724	800,000	0,024	-0,066
-70,709	-200,000	-0,043	0,139
-69,694	-29,785	-0,114	0,046
-68,680	-177,450	0,092	0,002
-67,665	-71,323	0,184	0,049
-66,651	393,689	-0,052	-0,077
-65,636	-156,103	-0,026	-0,001
-64,622	291,432	-0,085	0,110
-63,607	-77,073	-0,067	-0,016
-62,592	-200,000	0,013	-0,057
-61,578	-200,000	0,022	0,088
-60,563	-22,420	0,132	0,056
-59,549	-200,000	-0,012	-0,068
-58,534	-25,524	-1,574	-0,656
-57,519	363,564	-1,517	-2,167
-56,505	-200,000	-0,403	-4,498
-55,490	183,859	1,011	1,061
-54,476	800,000	4,840	11,026
-53,461	-200,000	18,730	307,742
-52,446	800,000	737,957	2306,806
-51,432	570,858	1654,347	2864,509
-50,417	79,011	1670,330	1266,067
-49,403	22,002	1543,142	889,479
-48,388	15,870	1466,036	815,216
-47,373	17,796	1455,885	818,848
-46,359	16,908	1445,920	808,955
-45,344	14,141	1441,504	793,192
-44,330	14,040	1439,811	791,747
-43,315	14,061	1437,902	790,763
-42,300	14,104	1436,107	789,952
-41,286	14,096	1435,077	789,318
-40,271	14,064	1433,667	788,355
-39,257	14,103	1432,067	787,632
-38,242	14,122	1431,020	787,115
-37,227	14,174	1429,736	786,624
-36,213	14,164	1428,317	785,765
-35,198	14,110	1427,604	785,087
-34,184	14,153	1426,535	784,671
-33,169	14,037	1425,242	783,378
-32,154	14,124	1424,037	783,095
-31,140	14,122	1422,856	782,405
-30,125	14,159	1421,763	781,951
-29,111	14,129	1420,608	781,143
-28,096	14,128	1419,344	780,410
-27,082	14,091	1418,290	779,624
-26,067	14,041	1417,270	778,796
-25,052	14,021	1416,265	778,121
-24,038	14,022	1415,279	777,555
-23,023	14,014	1414,313	776,953
-22,009	14,012	1413,194	776,298
-20,994	13,970	1412,415	775,642
-19,979	13,974	1411,663	775,218
-18,965	13,937	1410,624	774,443
-17,950	13,991	1409,667	774,139
-16,936	13,975	1408,783	773,549
-15,921	13,953	1407,610	772,770
-14,906	13,953	1406,734	772,258
-13,892	13,973	1405,749	771,784
-12,877	13,963	1404,776	771,169
-11,863	13,935	1403,904	770,531
-10,848	13,919	1403,204	770,040
-9,833	13,877	1402,132	769,227
-8,819	13,859	1401,415	768,720
-7,804	13,852	1400,418	768,109
-6,790	13,848	1399,445	767,526
-5,775	13,868	1398,159	766,882
-4,760	13,830	1397,515	766,325
-3,746	13,849	1396,527	765,838
-2,731	13,866	1396,040	765,620
-1,717	13,844	1394,879	764,850
-0,702	13,831	1393,039	763,754
0,313	17,657	1310,784	736,401
1,327	33,961	705,651	434,222
2,342	52,394	123,887	83,576
3,356	1,726	16,810	8,548
4,371	5,338	3,042	1,584
5,386	-12,165	0,502	0,232
6,400	-200,000	0,107	0,340
7,415	-63,603	-0,165	-0,048
8,429	527,678	-0,240	-0,402
9,444	335,057	-0,289	-0,397
10,459	80,313	-0,307	-0,234
11,473	116,007	-0,260	-0,225
12,488	-3,774	-0,378	-0,185
13,502	95,342	-0,259	-0,209
14,517	130,786	-0,323	-0,293
15,531	268,810	-0,249	-0,310
16,546	218,541	-0,275	-0,312
17,561	225,532	-0,297	-0,341
18,575	-154,524	-0,199	-0,009
19,590	-43,863	-0,263	-0,093
20,604	49,902	-0,221	-0,147
21,619	-0,875	-0,415	-0,207
22,634	44,654	-0,391	-0,253
23,648	115,561	-0,393	-0,339
24,663	135,835	-0,428	-0,394
25,677	262,414	-0,255	-0,313
26,692	-47,652	-0,404	-0,138
27,707	119,608	-0,190	-0,167
28,721	59,791	-0,277	-0,193
29,736	42,225	-0,362	-0,232
30,750	14,417	-0,373	-0,205
31,765	314,411	-0,265	-0,353
32,780	123,340	-0,367	-0,325
33,794	24,062	-0,333	-0,194
34,809	252,552	-0,233	-0,281
35,823	107,253	-0,311	-0,261
36,838	137,141	-0,334	-0,308
37,853	184,000	-0,387	-0,404
38,867	221,045	-0,248	-0,281
39,882	99,319	-0,316	-0,258
40,896	23,499	-0,329	-0,191
41,911	11,636	-0,356	-0,192
42,926	165,570	-0,255	-0,255
43,940	-10,079	-0,402	-0,188
44,955	32,551	-0,412	-0,250
45,969	153,427	-0,244	-0,236
46,984	194,224	-0,321	-0,343
47,999	213,157	-0,302	-0,337
49,013	53,840	-0,386	-0,261
50,028	50,021	-0,411	-0,273
51,042	182,021	-0,287	-0,298
52,057	61,043	-0,271	-0,189
53,071	233,187	-0,256	-0,297
54,086	-31,879	-0,400	-0,157
55,101	183,818	-0,277	-0,289
56,115	143,204	-0,219	-0,205
57,130	95,656	-0,366	-0,294
58,144	-9,307	-0,278	-0,130
59,159	146,773	-0,301	-0,286
60,174	54,255	-0,419	-0,284
61,188	44,619	-0,306	-0,198
62,203	18,008	-0,254	-0,142
63,217	147,027	-0,260	-0,247
64,232	64,136	-0,333	-0,236
65,247	128,028	-0,268	-0,240
66,261	52,534	-0,253	-0,170
67,276	-82,046	-0,320	-0,073
68,290	38,326	-0,384	-0,240
69,305	33,687	-0,384	-0,234
70,320	53,608	-0,252	-0,170
71,334	274,600	-0,220	-0,275
72,349	-7,173	-0,300	-0,143
73,363	800,000	-0,179	-0,356
74,378	48,158	-0,169	-0,111
75,393	203,781	-0,269	-0,294
76,407	135,308	-0,171	-0,157
77,422	172,286	-0,222	-0,224
78,436	120,376	-0,226	-0,197
79,451	87,009	-0,346	-0,268
80,466	43,483	-0,291	-0,187
81,480	75,857	-0,275	-0,204
82,495	-1,684	-0,341	-0,168
83,509	-55,588	-0,252	-0,079
84,524	243,035	-0,152	-0,180
85,539	281,273	-0,229	-0,289
86,553	2,152	-0,291	-0,147
87,568	71,566	-0,345	-0,252
88,582	207,984	-0,215	-0,237
89,597	-8,789	-0,309	-0,145
90,611	265,005	-0,180	-0,221
91,626	289,420	-0,146	-0,186
92,641	36,167	-0,266	-0,164
93,655	-73,936	-0,319	-0,081
94,670	33,945	-0,279	-0,170
95,684	-28,375	-0,303	-0,122
96,699	19,322	-0,308	-0,173
97,714	185,252	-0,114	-0,119
98,728	-185,756	-0,268	0,003
99,743	117,785	-0,250	-0,216
100,757	65,215	-0,400	-0,283
101,772	157,410	-0,260	-0,253
102,787	172,118	-0,255	-0,258
103,801	99,565	-0,362	-0,294
104,816	-41,015	-0,319	-0,115
105,830	-18,908	-0,258	-0,112
106,845	-62,890	-0,280	-0,081
107,860	199,831	-0,132	-0,142
108,874	-60,301	-0,295	-0,087
109,889	180,807	-0,305	-0,314
110,903	240,367	-0,211	-0,247
111,918	-23,771	-0,266	-0,111
112,933	-18,428	-0,295	-0,129
113,947	-3,334	-0,259	-0,126
114,962	25,413	-0,242	-0,141
115,976	94,195	-0,224	-0,178
116,991	14,923	-0,311	-0,170
118,006	156,697	-0,160	-0,155
119,020	-172,490	-0,396	-0,009
120,035	165,699	-0,169	-0,168
121,049	52,967	-0,234	-0,157
122,064	705,177	-0,060	-0,111
123,079	154,858	-0,204	-0,196
124,093	230,596	-0,221	-0,254
125,108	23,707	-0,353	-0,203
126,122	298,865	-0,182	-0,235
127,137	82,989	-0,255	-0,194
128,151	162,605	-0,229	-0,225
129,166	-102,185	-0,395	-0,066
130,181	2,452	-0,279	-0,141
131,195	86,795	-0,248	-0,192
132,210	117,774	-0,236	-0,203
133,224	126,588	-0,311	-0,276
134,239	88,866	-0,159	-0,124
135,254	-35,553	-0,236	-0,089
136,268	481,470	-0,122	-0,195
137,283	-59,551	-0,291	-0,087
138,297	221,635	-0,272	-0,306
139,312	227,816	-0,190	-0,216
140,327	285,168	-0,236	-0,298
141,341	101,669	-0,276	-0,225
142,356	-23,563	-0,244	-0,102
143,370	-54,168	-0,255	-0,081
144,385	80,754	-0,275	-0,207
145,400	249,498	-0,231	-0,275
146,414	204,883	-0,242	-0,263
147,429	-16,187	-0,380	-0,168
148,443	115,507	-0,207	-0,177
149,458	-200,000	-0,038	-0,166
150,473	119,989	-0,191	-0,166
151,487	51,205	-0,170	-0,112
152,502	146,758	-0,168	-0,158
153,516	36,187	-0,353	-0,217
154,531	-12,932	-0,317	-0,144
155,546	-38,663	-0,249	-0,091
156,560	429,460	-0,142	-0,215
157,575	64,442	-0,205	-0,144
158,589	185,037	-0,268	-0,278
159,604	69,652	-0,299	-0,215
160,619	340,276	-0,211	-0,288
161,633	-42,454	-0,278	-0,098
162,648	111,469	-0,251	-0,211
163,662	124,002	-0,225	-0,198
164,677	161,877	-0,150	-0,147
165,692	340,693	-0,138	-0,188
166,706	40,357	-0,336	-0,211
167,721	67,902	-0,279	-0,199
168,735	497,716	-0,171	-0,275
169,750	184,241	-0,180	-0,187
170,764	55,261	-0,250	-0,168
171,779	577,639	-0,145	-0,248
172,794	-127,403	-0,209	-0,021
173,808	54,701	-0,235	-0,158
174,823	337,178	-0,162	-0,220
175,837	800,000	-0,134	-0,291
176,852	46,816	-0,225	-0,146
177,867	49,756	-0,159	-0,105
178,881	-184,807	-0,235	0,003
179,896	137,597	-0,113	-0,103
180,910	-200,000	-0,049	-0,155
181,925	30,136	-0,267	-0,158
182,940	20,353	-0,249	-0,140
183,954	138,402	-0,223	-0,204
184,969	123,514	-0,129	-0,112
185,983	168,860	-0,187	-0,186
186,998	209,083	-0,229	-0,250
188,013	-73,285	-0,247	0,063
189,027	-91,193	-0,250	-0,049
190,042	-3,386	-0,258	-0,125
191,056	296,903	-0,188	-0,240
192,071	-108,479	-0,249	-0,037
193,086	207,263	-0,167	-0,181
194,100	-200,000	-0,033	-0,218
195,115	154,636	-0,251	-0,240
196,129	205,503	-0,188	-0,203
197,144	641,411	-0,175	-0,312
198,159	244,096	-0,206	-0,241
199,173	-44,726	-0,198	-0,068
200,188	133,439	-0,244	-0,219
201,202	800,000	-0,085	-0,176
202,217	239,447	-0,184	-0,214
203,232	-71,652	-0,228	-0,059
204,246	124,086	-0,206	-0,180
205,261	270,344	-0,204	-0,250
206,275	800,000	-0,134	-0,311
207,290	-15,418	-0,335	-0,148
208,304	88,039	-0,204	-0,157
209,319	89,520	-0,222	-0,172
210,334	13,586	-0,187	-0,101
211,348	59,819	-0,160	-0,110
212,363	337,920	-0,196	-0,265
213,377	454,776	-0,165	-0,255
214,392	-43,386	-0,294	-0,103
215,407	184,173	-0,227	-0,233
216,421	247,854	-0,083	-0,098
217,436	-52,124	-0,286	-0,092
218,450	157,023	-0,101	-0,097
219,465	285,987	-0,130	-0,163
220,480	800,000	-0,121	-0,271
221,494	137,281	-0,183	-0,166
222,509	-70,788	-0,087	-0,023
223,523	-75,031	-0,100	-0,025
224,538	-47,943	-0,105	-0,035
225,553	338,642	-0,188	-0,255
226,567	535,779	-0,156	-0,259
227,582	121,687	-0,214	-0,185
228,596	214,242	-0,135	-0,149
229,611	580,987	-0,108	-0,185
230,626	185,141	-0,104	-0,107
231,640	201,483	-0,230	-0,246
232,655	60,087	-0,166	-0,114
233,669	257,777	-0,198	-0,237
234,684	113,934	-0,197	-0,166
235,699	-35,721	-0,191	-0,072
236,713	98,489	-0,167	-0,134
237,728	127,918	-0,256	-0,226
238,742	45,172	-0,182	-0,116
239,757	-42,187	-0,132	-0,046
240,772	34,607	-0,221	-0,134
241,786	273,229	-0,173	-0,212
242,801	79,316	-0,280	-0,208
243,815	-92,672	-0,261	-0,050
244,830	343,409	-0,029	-0,040
245,844	168,217	-0,108	-0,106
246,859	-147,472	-0,160	-0,009
247,874	144,078	-0,190	-0,176
248,888	800,000	-0,112	-0,241
249,903	46,304	-0,161	-0,103
250,917	321,001	-0,042	-0,055
251,932	278,672	-0,110	-0,136
252,947	800,000	-0,118	-0,286
253,961	-200,000	-0,061	-0,232
254,976	1,957	-0,159	-0,079
255,990	67,707	-0,149	-0,105
257,005	800,000	-0,102	-0,223
258,020	-100,316	-0,254	0,043
259,034	324,470	-0,122	-0,162
260,049	123,633	-0,215	-0,187
261,063	-172,359	-0,212	0,005
262,078	800,000	-0,108	-0,238
263,093	800,000	-0,089	-0,256
264,107	20,738	-0,128	-0,072
265,122	48,994	-0,201	-0,130
266,136	-37,646	-0,171	-0,063
267,151	800,000	-0,042	-0,116
268,166	-1,281	-0,159	-0,078
269,180	-163,911	-0,090	0,003
270,195	-30,525	-0,259	-0,101
271,209	32,175	-0,153	-0,091
272,224	800,000	-0,092	-0,198
273,239	-19,961	-0,162	-0,069
274,253	-153,684	-0,221	0,010
275,268	-113,977	-0,183	-0,024
276,282	242,896	-0,203	-0,235
277,297	142,255	-0,137	-0,126
278,312	211,385	-0,156	-0,170
279,326	-69,198	-0,161	-0,042
280,341	166,229	-0,159	-0,156
281,355	-200,000	-0,042	-0,132
282,370	194,879	-0,174	-0,182
283,384	257,263	-0,205	-0,244
284,399	-4,827	-0,211	-0,100
285,414	172,882	-0,065	-0,065
286,428	-72,110	-0,200	-0,051
287,443	-52,479	-0,069	-0,022
288,457	580,944	-0,065	-0,110
289,472	65,071	-0,146	-0,102
290,487	224,907	-0,224	-0,250
291,501	-8,838	-0,210	-0,097
292,516	70,765	-0,170	-0,121
293,530	520,816	-0,139	-0,225
294,545	800,000	-0,040	-0,091
295,560	-29,673	-0,109	-0,043
296,574	409,104	-0,099	-0,145
297,589	637,810	-0,066	-0,115
298,603	-65,479	-0,254	-0,070
299,618	-121,514	-0,129	-0,015
300,633	499,363	-0,130	-0,208
301,647	242,645	-0,110	-0,127
302,662	-131,970	-0,232	-0,021
303,676	-0,464	-0,139	-0,068
304,691	384,862	-0,188	-0,267
305,706	-58,198	-0,278	-0,083
306,720	800,000	-0,107	-0,224
307,735	246,538	-0,161	-0,188
308,749	800,000	-0,012	0,025
309,764	-200,000	-0,050	-0,161
310,779	171,253	-0,175	-0,173
311,793	326,926	-0,097	-0,128
312,808	-96,358	-0,264	-0,048
313,822	-200,000	0,010	-0,088
314,837	800,000	-0,053	-0,137
315,852	800,000	-0,058	-0,162
316,866	240,074	-0,146	-0,168
317,881	-70,537	-0,114	-0,029
318,895	-166,531	-0,156	0,004
319,910	284,186	-0,120	-0,149
320,925	50,173	-0,227	-0,147
321,939	99,698	-0,167	-0,133
322,954	431,005	-0,098	-0,147
323,968	-117,677	-0,183	-0,022
324,983	54,694	-0,074	0,049
325,997	-122,142	-0,066	0,007
327,012	135,798	-0,145	-0,130
328,027	-9,474	-0,172	-0,079
329,041	22,062	-0,166	-0,093
330,056	-102,798	-0,106	-0,017
331,070	-200,000	-0,059	-0,212
332,085	242,962	-0,077	-0,089
333,100	-108,039	-0,122	-0,018
334,114	-76,694	-0,179	-0,043
335,129	-42,631	-0,299	-0,104
336,143	-107,063	-0,075	0,011
337,158	10,344	-0,168	-0,088
338,173	-50,167	-0,047	-0,015
339,187	49,528	-0,147	-0,095
340,202	280,874	-0,038	-0,046
341,216	56,661	-0,258	-0,172
342,231	74,658	-0,237	-0,171
343,246	77,575	-0,171	-0,125
344,260	-26,408	-0,038	-0,015
345,275	800,000	-0,079	-0,234
346,289	33,974	-0,131	-0,078
347,304	800,000	-0,093	-0,189
348,319	-52,563	-0,233	-0,074
349,333	87,974	-0,115	-0,087
350,348	-29,170	-0,109	0,043
351,362	800,000	-0,017	-0,045
352,377	559,580	-0,069	-0,115
353,392	7,098	-0,227	-0,116
354,406	-41,938	-0,098	-0,034
355,421	208,232	1314,907	1412,699
356,435	160,215	1475,661	1413,198
