DTS Sentinel unit serial number:	SN410029Multiplexer serial number:	ORYXHardware model number:	OX2-SRSoftware version number:	ORYX F/W v4,00 Oryx Data Collector v3.7.2.0data status	okinstallation	B3 Nyhavnadifferential loss correction	single-endedforward channel	channel 1reverse channel	N/Adate	2023/12/01time	05:57:30forward acquisition time	300,00reverse acquisition time	0,00gamma	499,1914k internal	0,3213k external	0,3213temperature offset calibration	1,0000default loss term (dB/km)	0,3820temperature slope calibration	1,0000multiplexer offset coefficient	1,0000multiplexer slope coefficient	1,0000fibre end	0,00T internal ref (°C)	7,81T ext. ref 1 (°C)	-6,94T ext. ref 2 (°C)	-7,08length (m)	temperature (°C)	Stokes	anti-Stokes-744,400	734,327	-0,115	-0,225
-743,385	-200,000	-0,059	0,292
-742,371	-200,000	-0,005	-0,116
-741,356	546,955	-0,088	0,153
-740,342	364,944	-0,136	-0,199
-739,327	478,638	-0,127	0,209
-738,312	732,777	-0,142	-0,276
-737,298	800,000	0,068	0,201
-736,283	62,853	-0,196	-0,142
-735,269	-200,000	-0,007	0,331
-734,254	-200,000	-0,039	-0,278
-733,239	8,866	-0,208	0,113
-732,225	182,627	-0,118	-0,126
-731,210	84,209	0,119	0,094
-730,196	-137,310	-0,170	0,014
-729,181	216,308	0,109	0,126
-728,167	-200,000	0,008	-0,069
-727,152	24,514	-0,060	0,036
-726,137	326,803	0,048	-0,067
-725,123	-131,589	-0,085	-0,008
-724,108	800,000	-0,043	-0,119
-723,094	459,260	0,063	-0,102
-722,079	800,000	-0,043	0,135
-721,064	-200,000	0,003	-0,016
-720,050	-99,275	-0,088	-0,016
-719,035	328,689	0,073	0,102
-718,021	119,387	-0,042	-0,037
-717,006	-200,000	-0,009	-0,102
-715,991	463,707	-0,085	-0,138
-714,977	-200,000	-0,036	-0,141
-713,962	712,147	0,040	0,077
-712,948	96,060	0,102	0,084
-711,933	-115,598	0,053	0,007
-710,918	800,000	-0,005	0,015
-709,904	-162,323	-0,100	-0,004
-708,889	-44,837	-0,169	0,061
-707,875	175,246	-0,043	-0,045
-706,860	36,221	0,050	0,032
-705,845	-200,000	0,011	0,113
-704,831	800,000	-0,040	0,108
-703,816	329,665	-0,039	-0,054
-702,802	137,215	-0,111	-0,105
-701,787	-84,513	-0,049	-0,011
-700,772	800,000	0,027	-0,086
-699,758	-200,000	-0,002	-0,120
-698,743	-19,003	-0,136	-0,061
-697,729	-118,065	0,191	-0,024
-696,714	-183,473	-0,136	0,002
-695,699	-104,818	-0,131	0,022
-694,685	-78,010	-0,243	-0,060
-693,670	800,000	-0,068	-0,163
-692,656	478,816	-0,054	-0,089
-691,641	232,353	-0,039	-0,046
-690,627	290,346	0,097	0,128
-689,612	119,905	-0,105	0,094
-688,597	-200,000	-0,001	-0,010
-687,583	-151,544	0,132	0,007
-686,568	800,000	-0,006	0,017
-685,554	345,505	-0,094	0,135
-684,539	604,168	0,010	-0,017
-683,524	-70,070	0,123	0,034
-682,510	-196,052	0,097	0,000
-681,495	-79,025	0,017	0,004
-680,481	384,296	-0,038	-0,057
-679,466	632,423	0,023	-0,042
-678,451	94,675	0,061	0,050
-677,437	245,806	0,124	-0,151
-676,422	37,430	0,141	0,090
-675,408	-200,000	-0,021	0,103
-674,393	-94,417	-0,044	0,009
-673,378	-109,451	-0,172	0,026
-672,364	155,596	-0,133	0,132
-671,349	134,107	-0,071	0,066
-670,335	298,890	-0,047	-0,062
-669,320	759,782	0,022	0,044
-668,305	375,523	-0,045	0,067
-667,291	-106,437	-0,084	-0,013
-666,276	-19,257	-0,113	0,050
-665,262	48,995	0,020	0,013
-664,247	3,712	-0,160	-0,084
-663,232	-17,728	-0,049	0,022
-662,218	-66,687	0,111	0,031
-661,203	-99,089	-0,030	-0,005
-660,189	579,712	-0,086	0,153
-659,174	-200,000	-0,012	-0,038
-658,159	-45,391	-0,098	-0,035
-657,145	800,000	0,018	-0,054
-656,130	800,000	-0,032	0,087
-655,116	796,008	0,068	0,136
-654,101	-13,382	0,128	-0,060
-653,086	-200,000	0,017	-0,073
-652,072	-8,751	-0,146	-0,071
-651,057	313,226	-0,130	-0,176
-650,043	53,035	-0,047	-0,033
-649,028	-200,000	-0,031	0,134
-648,014	28,302	0,050	0,031
-646,999	22,423	0,039	-0,023
-645,984	-200,000	0,000	-0,137
-644,970	401,560	-0,051	-0,078
-643,955	118,018	0,040	-0,035
-642,941	800,000	-0,050	0,103
-641,926	577,913	0,033	-0,058
-640,911	81,868	-0,071	-0,055
-639,897	-4,208	0,094	0,047
-638,882	800,000	0,052	-0,117
-637,868	-137,268	-0,137	-0,011
-636,853	-56,431	-0,076	-0,024
-635,838	14,138	-0,134	-0,075
-634,824	270,419	-0,058	-0,073
-633,809	420,010	-0,094	0,145
-632,795	-171,674	-0,068	-0,002
-631,780	73,900	0,078	-0,059
-630,765	-58,032	-0,075	-0,024
-629,751	-154,259	-0,132	0,006
-628,736	106,380	0,060	-0,051
-627,722	621,388	-0,059	-0,107
-626,707	417,715	0,008	0,012
-625,692	-200,000	0,019	-0,110
-624,678	160,790	0,072	0,072
-623,663	-145,530	0,116	-0,007
-622,649	-134,989	-0,115	0,010
-621,634	800,000	-0,026	-0,075
-620,619	-200,000	-0,018	-0,175
-619,605	31,964	0,063	-0,039
-618,590	-96,222	-0,050	-0,009
-617,576	-21,602	0,159	0,069
-616,561	-186,664	-0,041	-0,000
-615,546	98,382	-0,136	0,113
-614,532	-200,000	0,009	-0,052
-613,517	566,998	0,101	-0,177
-612,503	456,545	0,023	0,036
-611,488	-200,000	-0,015	-0,123
-610,474	19,761	0,059	0,034
-609,459	78,490	-0,078	-0,060
-608,444	168,842	-0,103	0,106
-607,430	-200,000	0,012	0,054
-606,415	107,388	-0,102	-0,088
-605,401	347,832	0,030	0,042
-604,386	800,000	-0,027	-0,083
-603,371	-200,000	0,010	0,040
-602,357	-25,656	0,026	-0,011
-601,342	-4,177	-0,187	-0,093
-600,328	-12,061	0,088	-0,041
-599,313	-164,046	-0,071	-0,002
-598,298	-200,000	0,004	-0,090
-597,284	-3,589	-0,097	-0,049
-596,269	800,000	0,002	0,005
-595,255	-12,492	-0,059	-0,028
-594,240	354,109	0,070	0,101
-593,225	800,000	0,036	0,073
-592,211	373,120	0,032	-0,048
-591,196	76,463	-0,070	0,053
-590,182	7,924	0,131	-0,071
-589,167	-85,054	0,076	0,017
-588,152	1,100	0,091	0,047
-587,138	-49,111	-0,071	-0,024
-586,123	88,698	-0,153	-0,122
-585,109	-200,000	0,000	-0,118
-584,094	800,000	0,042	-0,088
-583,079	800,000	-0,066	-0,156
-582,065	162,877	0,043	-0,044
-581,050	-92,539	-0,027	0,005
-580,036	21,963	-0,136	-0,080
-579,021	54,224	0,026	0,018
-578,006	-200,000	0,005	0,035
-576,992	189,442	0,121	0,131
-575,977	26,900	-0,119	0,072
-574,963	61,930	0,056	0,040
-573,948	-123,352	0,094	-0,011
-572,934	11,604	-0,123	-0,068
-571,919	43,969	-0,225	-0,148
-570,904	-200,000	-0,030	-0,130
-569,890	-200,000	-0,008	0,103
-568,875	41,967	0,111	-0,073
-567,861	-200,000	0,022	-0,099
-566,846	109,481	0,158	0,136
-565,831	52,635	0,065	0,045
-564,817	-8,243	-0,200	-0,097
-563,802	800,000	0,020	0,041
-562,788	800,000	-0,051	0,127
-561,773	94,700	0,025	0,020
-560,758	-168,095	0,021	0,001
-559,744	-38,932	0,046	-0,017
-558,729	31,587	0,057	0,035
-557,715	13,214	-0,066	0,036
-556,700	-139,876	-0,096	-0,007
-555,685	-20,984	0,121	-0,053
-554,671	45,588	-0,067	-0,044
-553,656	-200,000	-0,004	0,092
-552,642	272,469	-0,066	-0,084
-551,627	-200,000	0,018	-0,095
-550,612	-200,000	0,003	0,125
-549,598	-200,000	-0,016	-0,059
-548,583	-200,000	0,022	-0,129
-547,569	800,000	-0,048	-0,138
-546,554	291,317	-0,099	0,129
-545,539	800,000	-0,026	0,076
-544,525	-200,000	-0,002	-0,042
-543,510	503,447	0,070	0,117
-542,496	148,658	-0,069	-0,067
-541,481	-135,976	-0,043	0,004
-540,466	46,474	-0,131	-0,087
-539,452	800,000	0,052	0,116
-538,437	-52,119	-0,061	-0,020
-537,423	-75,789	0,008	-0,002
-536,408	-200,000	-0,032	0,172
-535,393	46,290	-0,146	-0,097
-534,379	192,976	-0,026	0,028
-533,364	426,973	-0,090	-0,141
-532,350	-71,450	-0,101	-0,027
-531,335	80,234	0,016	0,012
-530,321	18,122	0,099	0,057
-529,306	-200,000	0,013	0,080
-528,291	-125,817	-0,112	-0,012
-527,277	800,000	0,009	0,019
-526,262	-136,685	0,067	0,005
-525,248	286,585	-0,063	0,082
-524,233	288,868	-0,077	-0,100
-523,218	536,619	0,079	0,135
-522,204	-75,735	-0,127	0,032
-521,189	-179,634	-0,094	0,001
-520,175	236,428	-0,073	-0,087
-519,160	548,692	0,053	0,092
-518,145	-181,154	-0,059	-0,001
-517,131	-150,878	0,150	0,008
-516,116	576,435	0,055	-0,097
-515,102	12,690	0,133	0,074
-514,087	-200,000	-0,011	-0,070
-513,072	193,816	-0,066	-0,071
-512,058	143,116	-0,069	0,065
-511,043	-200,000	-0,002	0,047
-510,029	-200,000	0,051	0,205
-509,014	-200,000	0,011	0,054
-507,999	-200,000	-0,002	0,078
-506,985	-157,461	-0,048	-0,002
-505,970	-200,000	0,009	-0,283
-504,956	7,337	-0,090	-0,048
-503,941	800,000	0,012	-0,034
-502,926	-141,138	0,059	-0,004
-501,912	-75,378	0,150	-0,038
-500,897	365,462	-0,033	0,048
-499,883	65,308	-0,009	0,006
-498,868	-105,199	-0,102	0,017
-497,853	77,800	-0,063	-0,048
-496,839	-115,150	0,166	-0,022
-495,824	321,809	-0,050	0,069
-494,810	57,623	0,095	-0,066
-493,795	-200,000	0,010	0,090
-492,781	-200,000	0,007	-0,059
-491,766	63,389	0,079	0,057
-490,751	-190,944	-0,108	0,001
-489,737	318,365	-0,045	0,061
-488,722	-50,133	0,050	-0,017
-487,708	373,547	-0,044	0,065
-486,693	-200,000	-0,036	0,167
-485,678	-200,000	-0,000	-0,095
-484,664	-27,743	0,076	0,032
-483,649	83,067	-0,088	-0,069
-482,635	116,742	0,015	-0,013
-481,620	-200,000	0,007	0,064
-480,605	18,205	-0,047	0,027
-479,591	-200,000	0,009	0,147
-478,576	-200,000	-0,008	-0,075
-477,562	-200,000	-0,025	-0,092
-476,547	265,884	0,052	-0,065
-475,532	78,548	0,086	-0,066
-474,518	55,237	-0,048	0,033
-473,503	516,464	0,063	0,105
-472,489	212,171	0,011	-0,013
-471,474	800,000	0,011	-0,032
-470,459	164,076	0,058	-0,059
-469,445	800,000	0,059	-0,126
-468,430	455,859	0,054	-0,087
-467,416	-154,401	0,101	0,005
-466,401	726,140	0,046	0,088
-465,386	11,093	-0,011	0,006
-464,372	282,905	-0,046	0,059
-463,357	19,111	0,034	-0,019
-462,343	-103,596	-0,133	-0,022
-461,328	-200,000	0,002	0,016
-460,313	-136,623	0,179	-0,015
-459,299	242,389	0,115	-0,138
-458,284	16,382	0,090	0,051
-457,270	800,000	0,034	0,080
-456,255	-91,084	-0,198	-0,040
-455,241	-200,000	0,003	0,030
-454,226	-60,172	0,031	-0,009
-453,211	124,223	0,145	-0,131
-452,197	-200,000	-0,024	0,173
-451,182	93,064	0,080	0,065
-450,168	734,487	-0,028	0,053
-449,153	-38,908	0,164	0,062
-448,138	800,000	-0,030	-0,063
-447,124	-200,000	-0,022	-0,080
-446,109	87,924	-0,032	0,025
-445,095	298,651	0,008	-0,011
-444,080	44,440	0,096	-0,063
-443,065	-200,000	0,008	-0,155
-442,051	33,973	0,067	-0,042
-441,036	-161,630	-0,104	-0,004
-440,022	-200,000	0,016	-0,054
-439,007	427,723	-0,029	-0,045
-437,992	800,000	-0,051	0,141
-436,978	-100,701	0,205	0,036
-435,963	183,450	0,056	-0,059
-434,949	143,010	0,045	-0,043
-433,934	-142,277	-0,081	0,006
-432,919	114,489	0,073	0,064
-431,905	800,000	0,038	-0,112
-430,890	143,636	0,143	-0,136
-429,876	-157,724	0,095	-0,004
-428,861	-200,000	-0,030	0,131
-427,846	420,891	0,075	-0,115
-426,832	454,539	0,014	-0,022
-425,817	-200,000	-0,029	-0,159
-424,803	-119,137	0,096	0,012
-423,788	518,788	0,037	0,062
-422,773	-109,377	-0,139	0,021
-421,759	-200,000	0,009	0,061
-420,744	800,000	-0,043	0,094
-419,730	374,672	-0,036	-0,053
-418,715	-200,000	0,013	-0,068
-417,701	8,235	-0,023	-0,012
-416,686	800,000	0,055	-0,113
-415,671	140,133	0,052	-0,050
-414,657	287,699	0,047	-0,061
-413,642	87,879	-0,064	0,051
-412,628	12,428	0,044	-0,024
-411,613	-78,339	0,059	-0,014
-410,598	-87,456	0,033	-0,007
-409,584	51,400	-0,053	0,036
-408,569	-200,000	0,028	0,096
-407,555	87,639	0,088	0,070
-406,540	328,249	0,112	0,154
-405,525	-200,000	-0,021	-0,159
-404,511	800,000	-0,032	-0,075
-403,496	20,985	-0,085	-0,049
-402,482	31,831	-0,077	-0,047
-401,467	-93,372	0,041	0,008
-400,452	27,652	-0,066	0,039
-399,438	-200,000	-0,008	0,058
-398,423	-2,674	0,044	-0,022
-397,409	-165,834	-0,056	-0,002
-396,394	-109,993	-0,019	-0,003
-395,379	800,000	-0,061	-0,142
-394,365	800,000	-0,026	0,056
-393,350	169,685	0,040	0,041
-392,336	69,654	-0,019	0,014
-391,321	-104,237	-0,050	-0,008
-390,306	800,000	0,016	0,045
-389,292	302,262	0,043	-0,058
-388,277	348,406	0,084	0,118
-387,263	-200,000	0,039	0,146
-386,248	-200,000	-0,002	0,047
-385,233	800,000	0,031	-0,080
-384,219	-200,000	-0,013	0,143
-383,204	-170,241	0,141	0,003
-382,190	6,391	-0,050	-0,026
-381,175	-200,000	0,031	0,116
-380,160	237,871	0,075	0,089
-379,146	-16,071	0,074	0,034
-378,131	-200,000	0,014	0,070
-377,117	-200,000	-0,030	-0,107
-376,102	40,717	-0,033	0,021
-375,088	180,070	-0,123	-0,129
-374,073	43,120	0,037	0,024
-373,058	-200,000	0,004	0,150
-372,044	-135,597	0,144	0,012
-371,029	286,680	0,049	0,063
-370,015	243,291	-0,014	-0,017
-369,000	756,718	0,036	-0,069
-367,985	583,966	-0,007	0,012
-366,971	-56,190	-0,024	-0,008
-365,956	-155,346	-0,146	-0,007
-364,942	-121,881	-0,067	-0,008
-363,927	-38,277	0,097	-0,036
-362,912	-67,489	-0,029	-0,008
-361,898	711,742	0,010	-0,019
-360,883	4,122	0,061	-0,032
-359,869	16,143	-0,059	0,033
-358,854	-160,333	0,132	0,005
-357,839	-52,893	0,072	0,023
-356,825	354,820	0,060	0,085
-355,810	-94,428	-0,252	0,049
-354,796	-87,892	0,108	0,023
-353,781	34,980	-0,073	-0,045
-352,766	-121,537	0,093	0,011
-351,752	-38,777	-0,167	-0,063
-350,737	800,000	0,038	0,079
-349,723	-200,000	0,018	0,057
-348,708	-200,000	0,013	0,098
-347,693	-200,000	-0,046	0,164
-346,679	359,804	0,111	0,158
-345,664	-112,605	-0,079	0,011
-344,650	59,248	0,068	0,048
-343,635	248,607	0,056	-0,067
-342,620	800,000	0,057	-0,136
-341,606	-73,558	0,073	0,019
-340,591	800,000	-0,004	0,012
-339,577	622,113	0,029	-0,052
-338,562	53,372	0,057	-0,039
-337,548	-112,070	0,042	-0,006
-336,533	-200,000	0,010	0,065
-335,518	-182,058	-0,054	-0,001
-334,504	800,000	-0,033	-0,073
-333,489	800,000	-0,027	0,054
-332,475	-73,377	-0,130	0,034
-331,460	-34,139	0,055	0,022
-330,445	92,305	-0,038	0,030
-329,431	250,680	-0,051	-0,062
-328,416	-82,305	0,020	0,005
-327,402	-31,245	-0,173	-0,069
-326,387	-135,173	0,113	0,010
-325,372	-128,350	0,048	0,005
-324,358	-88,115	-0,059	-0,012
-323,343	-200,000	-0,004	-0,088
-322,329	-200,000	-0,037	-0,147
-321,314	-85,224	0,176	0,039
-320,299	-200,000	-0,009	-0,066
-319,285	145,870	0,041	-0,039
-318,270	-200,000	-0,015	-0,048
-317,256	-200,000	0,024	-0,141
-316,241	-42,034	0,077	0,028
-315,226	800,000	0,028	0,055
-314,212	800,000	0,044	0,121
-313,197	296,843	0,033	-0,043
-312,183	516,782	-0,022	-0,037
-311,168	4,633	-0,041	0,021
-310,153	203,429	-0,088	-0,098
-309,139	-200,000	0,020	0,076
-308,124	-116,483	0,024	-0,003
-307,110	216,583	0,086	0,097
-306,095	680,428	-0,039	0,073
-305,080	800,000	0,044	0,126
-304,066	71,998	0,064	0,048
-303,051	-189,639	-0,049	-0,000
-302,037	-79,294	0,131	-0,031
-301,022	-42,646	-0,134	-0,048
-300,008	319,079	0,050	-0,068
-298,993	-37,459	0,053	-0,020
-297,978	64,322	0,039	-0,028
-296,964	284,884	-0,032	0,041
-295,949	-200,000	0,014	0,134
-294,935	-200,000	0,037	0,119
-293,920	-88,979	-0,123	-0,026
-292,905	360,612	0,031	0,045
-291,891	115,320	-0,016	0,014
-290,876	-200,000	0,036	0,181
-289,862	800,000	0,030	0,093
-288,847	-200,000	0,034	-0,133
-287,832	0,138	0,070	0,035
-286,818	-200,000	-0,003	-0,125
-285,803	522,211	-0,023	0,039
-284,789	-200,000	-0,012	0,061
-283,774	-200,000	0,005	-0,038
-282,759	167,907	0,034	-0,035
-281,745	95,188	0,024	0,019
-280,730	-66,598	-0,122	-0,034
-279,716	-200,000	-0,006	0,039
-278,701	336,561	0,119	0,165
-277,686	-200,000	-0,005	0,072
-276,672	-81,889	-0,071	-0,016
-275,657	-167,575	0,094	0,003
-274,643	-135,789	-0,174	-0,014
-273,628	116,292	0,100	-0,087
-272,613	800,000	-0,016	-0,038
-271,599	36,762	-0,043	0,027
-270,584	364,553	-0,021	-0,030
-269,570	353,991	-0,096	0,136
-268,555	131,267	0,009	0,008
-267,540	-61,445	-0,099	-0,029
-266,526	-200,000	0,024	-0,097
-265,511	-46,398	-0,054	-0,019
-264,497	307,764	-0,024	-0,032
-263,482	58,628	0,103	0,072
-262,467	-200,000	-0,037	0,130
-261,453	-12,220	-0,069	-0,032
-260,438	800,000	-0,026	-0,078
-259,424	175,124	-0,089	0,091
-258,409	132,718	0,103	0,095
-257,395	-67,371	0,146	0,041
-256,380	-200,000	0,027	0,131
-255,365	223,176	-0,067	0,076
-254,351	-200,000	-0,007	0,140
-253,336	86,528	0,011	0,009
-252,322	-0,303	0,130	-0,065
-251,307	-7,222	-0,138	-0,066
-250,292	-22,888	0,089	0,038
-249,278	409,820	0,002	-0,003
-248,263	143,868	0,039	-0,037
-247,249	15,793	-0,022	-0,012
-246,234	108,173	-0,066	-0,056
-245,219	-200,000	0,031	-0,102
-244,205	-2,199	-0,050	0,025
-243,190	324,177	0,063	-0,086
-242,176	-22,123	-0,098	-0,042
-241,161	800,000	0,019	0,040
-240,146	800,000	0,026	0,069
-239,132	62,891	0,016	0,011
-238,117	-45,287	-0,109	0,038
-237,103	-49,925	-0,037	0,012
-236,088	48,260	0,071	-0,047
-235,073	800,000	-0,047	-0,115
-234,059	-36,565	0,143	0,054
-233,044	366,556	-0,041	0,058
-232,030	-96,427	-0,075	-0,014
-231,015	512,881	0,028	-0,046
-230,000	-200,000	0,011	-0,041
-228,986	17,513	-0,063	0,036
-227,971	-200,000	-0,009	-0,032
-226,957	15,765	0,052	0,029
-225,942	36,107	-0,050	0,031
-224,927	335,979	-0,082	0,113
-223,913	-93,933	-0,068	-0,013
-222,898	10,157	-0,141	0,076
-221,884	-5,207	-0,113	-0,055
-220,869	397,335	-0,050	0,074
-219,855	-200,000	0,021	0,126
-218,840	130,201	-0,059	-0,053
-217,825	-112,045	0,056	-0,008
-216,811	-76,485	0,013	-0,003
-215,796	3,818	-0,131	-0,067
-214,782	-19,692	0,061	-0,027
-213,767	800,000	0,038	0,091
-212,752	514,723	0,050	0,083
-211,738	-110,120	-0,117	-0,017
-210,723	800,000	-0,045	0,092
-209,709	-200,000	0,000	-0,011
-208,694	-87,738	-0,156	-0,033
-207,679	-200,000	0,035	-0,179
-206,665	520,979	-0,026	0,044
-205,650	10,688	0,067	0,036
-204,636	156,387	0,117	0,114
-203,621	207,735	-0,003	-0,003
-202,606	-32,472	-0,136	-0,054
-201,592	-0,260	0,144	0,072
-200,577	-28,991	-0,110	0,045
-199,563	-200,000	-0,009	-0,067
-198,548	14,053	0,078	-0,043
-197,533	-33,078	0,124	-0,049
-196,519	800,000	-0,008	-0,026
-195,504	-85,447	-0,144	-0,031
-194,490	563,976	-0,021	-0,037
-193,475	-40,118	0,129	-0,047
-192,460	295,133	0,061	-0,079
-191,446	90,494	0,074	0,058
-190,431	97,376	-0,112	-0,091
-189,417	81,695	-0,055	0,042
-188,402	-173,103	0,070	-0,001
-187,387	-200,000	-0,019	-0,103
-186,373	22,371	-0,049	-0,029
-185,358	37,111	0,033	0,020
-184,344	53,311	0,037	-0,025
-183,329	-187,402	0,110	0,001
-182,315	800,000	-0,044	0,135
-181,300	118,514	0,082	0,072
-180,285	-92,374	-0,074	0,015
-179,271	-200,000	0,019	-0,118
-178,256	800,000	0,016	-0,032
-177,242	97,166	0,090	-0,073
-176,227	788,834	0,074	-0,144
-175,212	50,992	-0,063	0,042
-174,198	-72,401	-0,113	0,030
-173,183	-200,000	-0,020	-0,082
-172,169	-200,000	-0,017	-0,065
-171,154	-52,464	-0,097	0,032
-170,139	622,789	0,026	0,047
-169,125	-200,000	0,056	0,178
-168,110	-200,000	-0,013	0,127
-167,096	-100,272	-0,125	0,022
-166,081	517,760	-0,085	-0,141
-165,066	-74,386	0,066	0,017
-164,052	-145,807	0,054	0,003
-163,037	766,931	0,022	0,043
-162,023	3,101	0,087	0,045
-161,008	193,500	0,044	0,048
-159,993	-200,000	-0,025	0,092
-158,979	800,000	0,064	0,173
-157,964	113,129	-0,072	-0,062
-156,950	-167,841	-0,049	0,001
-155,935	-200,000	-0,002	-0,009
-154,920	55,074	-0,034	-0,023
-153,906	49,533	0,101	0,067
-152,891	-40,539	0,090	0,033
-151,877	-30,533	-0,057	0,023
-150,862	-11,511	-0,123	0,057
-149,847	-18,414	0,125	0,055
-148,833	-9,419	-0,059	0,028
-147,818	-71,744	0,160	-0,042
-146,804	-200,000	-0,011	0,156
-145,789	166,953	-0,047	0,048
-144,775	-148,526	-0,079	-0,004
-143,760	-200,000	-0,019	-0,094
-142,745	114,691	-0,086	-0,074
-141,731	35,791	0,021	-0,013
-140,716	-200,000	-0,012	0,121
-139,702	-37,273	-0,075	-0,028
-138,687	-71,258	-0,095	-0,025
-137,672	704,449	0,027	0,050
-136,658	800,000	-0,020	-0,044
-135,643	519,768	-0,034	0,057
-134,629	800,000	0,014	-0,030
-133,614	543,586	0,020	0,034
-132,599	307,400	0,071	0,094
-131,585	-200,000	-0,009	0,113
-130,570	19,651	0,105	0,060
-129,556	-125,992	-0,098	0,010
-128,541	-175,007	-0,120	0,002
-127,526	-200,000	-0,021	0,193
-126,512	-97,181	0,070	0,013
-125,497	112,286	0,048	-0,041
-124,483	-106,772	-0,045	-0,007
-123,468	-51,064	0,054	0,018
-122,453	75,672	-0,068	0,051
-121,439	189,632	-0,051	0,054
-120,424	582,027	-0,060	-0,104
-119,410	-45,979	0,106	0,037
-118,395	541,070	0,039	0,065
-117,380	40,782	0,053	0,034
-116,366	-7,595	0,033	0,016
-115,351	-200,000	-0,017	-0,092
-114,337	23,533	-0,096	-0,056
-113,322	-200,000	0,023	-0,104
-112,307	273,040	0,024	-0,030
-111,293	-200,000	0,014	0,186
-110,278	403,228	-0,006	0,009
-109,264	-111,704	-0,082	0,012
-108,249	614,721	-0,050	-0,088
-107,234	-188,012	-0,101	0,001
-106,220	16,885	0,031	0,017
-105,205	-200,000	-0,028	-0,147
-104,191	222,242	0,046	-0,052
-103,176	-27,227	0,039	-0,016
-102,162	800,000	0,084	0,180
-101,147	800,000	-0,035	0,101
-100,132	-93,074	-0,024	0,005
-99,118	800,000	0,014	0,043
-98,103	800,000	0,005	0,012
-97,089	17,874	0,071	0,040
-96,074	-18,747	0,097	0,042
-95,059	-166,379	-0,107	-0,003
-94,045	-150,297	-0,106	0,006
-93,030	-1,045	-0,177	-0,088
-92,016	-46,001	-0,052	0,018
-91,001	507,590	-0,100	0,164
-89,986	235,380	-0,056	-0,065
-88,972	206,012	0,060	-0,066
-87,957	-200,000	-0,020	0,072
-86,943	-126,927	-0,071	-0,007
-85,928	14,520	0,065	-0,036
-84,913	-80,843	-0,181	-0,042
-83,899	-186,423	-0,105	-0,001
-82,884	800,000	-0,034	0,067
-81,870	-169,470	0,028	-0,001
-80,855	-20,707	0,074	-0,032
-79,840	-48,691	-0,123	-0,041
-78,826	758,517	0,038	0,073
-77,811	-144,392	-0,138	0,009
-76,797	-63,771	0,038	0,011
-75,782	800,000	-0,088	0,210
-74,767	192,336	0,067	0,072
-73,753	-200,000	0,026	0,084
-72,738	243,611	0,113	0,134
-71,724	159,903	-0,074	-0,073
-70,709	324,889	-0,060	0,082
-69,694	-200,000	0,004	-0,014
-68,680	-200,000	0,015	0,079
-67,665	-184,529	0,033	0,000
-66,651	394,893	0,057	0,084
-65,636	183,824	0,036	0,038
-64,622	-118,209	-0,110	-0,014
-63,607	-70,931	-0,066	-0,017
-62,592	240,047	-0,016	-0,018
-61,578	-111,796	0,078	-0,011
-60,563	-80,207	-0,112	0,026
-59,549	-200,000	0,002	0,053
-58,534	72,359	-2,152	-1,581
-57,519	454,962	-1,076	-1,687
-56,505	-200,000	-0,470	-4,468
-55,490	537,594	0,980	1,649
-54,476	800,000	5,279	11,646
-53,461	-200,000	22,484	346,930
-52,446	800,000	756,926	2285,077
-51,432	530,648	1641,844	2747,185
-50,417	67,416	1640,289	1179,230
-49,403	15,382	1518,431	838,020
-48,388	9,706	1444,490	769,982
-47,373	19,220	1437,737	811,652
-46,359	13,185	1425,843	776,451
-45,344	8,005	1421,831	749,762
-44,330	7,981	1419,897	748,601
-43,315	7,900	1417,953	747,164
-42,300	7,939	1416,084	746,333
-41,286	7,948	1415,068	745,811
-40,271	7,918	1413,676	744,905
-39,257	7,886	1412,732	744,228
-38,242	7,968	1411,368	743,868
-37,227	7,916	1410,475	743,119
-36,213	7,884	1409,125	742,232
-35,198	7,928	1407,802	741,710
-34,184	7,912	1407,276	741,330
-33,169	7,808	1405,893	740,082
-32,154	7,904	1404,590	739,818
-31,140	7,869	1403,721	739,168
-30,125	7,907	1402,321	738,579
-29,111	7,918	1401,058	737,935
-28,096	7,881	1399,996	737,175
-27,082	7,815	1398,985	736,304
-26,067	7,805	1397,764	735,588
-25,052	7,868	1396,722	735,301
-24,038	7,866	1395,763	734,757
-23,023	7,822	1394,908	734,077
-22,009	7,809	1394,013	733,513
-20,994	7,831	1392,898	733,000
-19,979	7,795	1392,055	732,363
-18,965	7,747	1391,174	731,646
-17,950	7,791	1389,944	731,173
-16,936	7,768	1389,139	730,617
-15,921	7,687	1388,100	729,665
-14,906	7,755	1387,257	729,507
-13,892	7,813	1386,117	729,144
-12,877	7,769	1385,285	728,479
-11,863	7,727	1384,652	727,923
-10,848	7,728	1383,808	727,455
-9,833	7,686	1382,825	726,713
-8,819	7,669	1381,944	726,145
-7,804	7,689	1381,068	725,745
-6,790	7,692	1379,894	725,114
-5,775	7,734	1378,900	724,757
-4,760	7,682	1377,987	724,012
-3,746	7,658	1377,187	723,451
-2,731	7,628	1376,427	722,888
-1,717	7,717	1375,415	722,733
-0,702	7,652	1373,757	721,535
0,313	11,588	1283,834	692,126
1,327	27,135	676,237	399,170
2,342	42,046	116,253	74,230
3,356	0,409	16,497	8,277
4,371	5,280	3,858	1,998
5,386	10,695	1,427	0,765
6,400	800,000	0,371	0,742
7,415	-65,092	-0,132	0,037
8,429	-13,254	-0,352	-0,160
9,444	192,177	-0,292	-0,311
10,459	-39,559	-0,403	-0,148
11,473	176,098	-0,212	-0,217
12,488	601,201	-0,122	-0,214
13,502	81,056	-0,347	-0,264
14,517	-22,031	-0,256	-0,109
15,531	118,397	-0,317	-0,276
16,546	110,865	-0,426	-0,361
17,561	35,849	-0,362	-0,224
18,575	-124,743	-0,088	-0,009
19,590	52,477	-0,286	-0,192
20,604	7,350	-0,287	-0,150
21,619	-46,740	-0,414	-0,142
22,634	64,222	-0,487	-0,344
23,648	120,326	-0,378	-0,330
24,663	42,250	-0,476	-0,304
25,677	72,967	-0,296	-0,217
26,692	70,557	-0,275	-0,200
27,707	256,025	-0,235	-0,285
28,721	8,827	-0,481	-0,254
29,736	120,479	-0,366	-0,319
30,750	10,617	-0,384	-0,205
31,765	4,305	-0,356	-0,183
32,780	102,208	-0,358	-0,294
33,794	94,584	-0,338	-0,270
34,809	25,511	-0,308	-0,180
35,823	-42,466	-0,363	-0,130
36,838	63,069	-0,340	-0,239
37,853	132,178	-0,407	-0,369
38,867	137,922	-0,364	-0,335
39,882	246,438	-0,315	-0,373
40,896	141,034	-0,295	-0,274
41,911	146,170	-0,290	-0,273
42,926	73,663	-0,364	-0,267
43,940	59,806	-0,422	-0,292
44,955	293,153	-0,324	-0,416
45,969	49,180	-0,462	-0,304
46,984	199,251	-0,333	-0,358
47,999	-25,832	-0,315	-0,130
49,013	491,885	-0,172	-0,277
50,028	-128,064	-0,233	0,023
51,042	-62,701	-0,260	-0,075
52,057	94,441	-0,235	-0,187
53,071	276,882	-0,364	-0,455
54,086	134,154	-0,305	-0,277
55,101	-10,118	-0,352	-0,163
56,115	-15,206	-0,430	-0,192
57,130	41,065	-0,216	-0,137
58,144	186,654	-0,335	-0,350
59,159	-44,292	-0,511	-0,178
60,174	153,422	-0,318	-0,305
61,188	53,492	-0,312	-0,210
62,203	721,117	-0,192	-0,360
63,217	-58,652	-0,341	-0,103
64,232	60,996	-0,312	-0,217
65,247	109,840	-0,376	-0,316
66,261	258,048	-0,277	-0,334
67,276	3,386	-0,371	-0,189
68,290	323,349	-0,195	-0,261
69,305	-13,164	-0,300	-0,136
70,320	-5,877	-0,256	-0,122
71,334	-7,243	-0,373	-0,176
72,349	58,577	-0,430	-0,295
73,363	113,381	-0,335	-0,285
74,378	53,544	-0,346	-0,232
75,393	120,587	-0,320	-0,279
76,407	-1,260	-0,440	-0,217
77,422	45,584	-0,293	-0,189
78,436	118,339	-0,245	-0,211
79,451	62,803	-0,320	-0,224
80,466	-2,258	-0,286	-0,140
81,480	6,051	-0,360	-0,186
82,495	51,769	-0,186	-0,124
83,509	115,940	-0,161	-0,138
84,524	162,599	-0,207	-0,204
85,539	75,148	-0,235	-0,174
86,553	15,775	-0,231	-0,127
87,568	-7,235	-0,267	-0,126
88,582	146,394	-0,172	-0,161
89,597	13,398	-0,248	-0,134
90,611	-48,916	-0,328	-0,109
91,626	-72,967	-0,232	-0,059
92,641	116,780	-0,243	-0,209
93,655	116,472	-0,239	-0,205
94,670	75,992	-0,212	-0,157
95,684	40,525	-0,236	-0,148
96,699	41,785	-0,228	-0,144
97,714	233,138	-0,092	-0,105
98,728	-46,437	-0,307	-0,105
99,743	93,183	-0,175	-0,138
100,757	-58,466	-0,201	-0,061
101,772	-14,590	-0,416	-0,186
102,787	618,478	-0,200	-0,352
103,801	-57,741	-0,268	-0,081
104,816	-9,495	-0,302	-0,140
105,830	632,908	-0,075	-0,133
106,845	18,883	-0,377	-0,210
107,860	101,686	-0,311	-0,253
108,874	-83,731	-0,291	-0,064
109,889	-1,343	-0,284	-0,139
110,903	22,506	-0,292	-0,166
111,918	203,232	-0,225	-0,243
112,933	-56,468	-0,287	-0,088
113,947	43,431	-0,189	-0,120
114,962	201,950	-0,170	-0,183
115,976	2,266	-0,377	-0,190
116,991	167,880	-0,229	-0,227
118,006	-67,330	-0,103	-0,028
119,020	12,683	-0,313	-0,168
120,035	51,287	-0,218	-0,144
121,049	23,915	-0,176	-0,101
122,064	75,078	-0,252	-0,185
123,079	129,049	-0,290	-0,258
124,093	102,618	-0,242	-0,197
125,108	194,173	-0,277	-0,293
126,122	143,587	-0,280	-0,260
127,137	521,391	-0,130	-0,214
128,151	-91,154	-0,209	-0,041
129,166	0,955	-0,226	-0,112
130,181	154,580	-0,225	-0,215
131,195	314,709	-0,153	-0,201
132,210	-21,870	-0,343	-0,145
133,224	-41,415	-0,309	-0,110
134,239	170,852	-0,186	-0,185
135,254	-7,993	-0,109	0,051
136,268	68,044	-0,232	-0,165
137,283	117,085	-0,252	-0,216
138,297	117,090	-0,324	-0,277
139,312	-84,192	-0,346	-0,076
140,327	95,177	-0,361	-0,286
141,341	134,713	-0,198	-0,179
142,356	227,482	-0,180	-0,204
143,370	734,750	-0,125	-0,234
144,385	191,651	-0,134	-0,141
145,400	152,137	-0,166	-0,158
146,414	34,309	-0,391	-0,237
147,429	800,000	-0,139	-0,302
148,443	33,349	-0,193	-0,116
149,458	209,122	-0,190	-0,208
150,473	-90,948	-0,201	-0,040
151,487	-12,368	-0,221	-0,100
152,502	-40,139	-0,263	-0,095
153,516	206,357	-0,242	-0,263
154,531	-52,690	-0,208	-0,066
155,546	59,212	-0,272	-0,186
156,560	244,808	-0,134	-0,157
157,575	274,424	-0,138	-0,170
158,589	364,201	-0,118	-0,165
159,604	131,636	-0,212	-0,190
160,619	-29,743	-0,292	-0,115
161,633	2,602	-0,196	-0,098
162,648	197,512	-0,211	-0,224
163,662	-60,200	-0,210	-0,062
164,677	51,081	-0,274	-0,180
165,692	36,294	-0,241	-0,147
166,706	-132,211	-0,273	0,024
167,721	145,951	-0,279	-0,260
168,735	79,908	-0,262	-0,195
169,750	259,683	-0,214	-0,257
170,764	-40,940	-0,264	-0,094
171,779	-65,256	-0,179	0,050
172,794	119,310	-0,181	-0,155
173,808	127,002	-0,146	-0,129
174,823	188,148	-0,209	-0,217
175,837	67,878	-0,246	-0,174
176,852	266,262	-0,206	-0,250
177,867	113,516	-0,127	-0,107
178,881	-28,316	-0,331	-0,132
179,896	547,005	-0,093	-0,155
180,910	165,806	-0,202	-0,199
181,925	800,000	-0,109	-0,234
182,940	-20,353	-0,177	-0,075
183,954	136,652	-0,262	-0,238
184,969	-86,949	-0,120	-0,025
185,983	-15,223	-0,165	-0,073
186,998	59,999	-0,223	-0,153
188,013	77,303	-0,095	-0,070
189,027	191,986	-0,273	-0,285
190,042	-69,070	-0,165	-0,044
191,056	2,876	-0,116	-0,058
192,071	81,861	-0,093	-0,069
193,086	800,000	-0,117	-0,245
194,100	-13,315	-0,126	-0,056
195,115	194,637	-0,176	-0,185
196,129	-136,998	-0,287	-0,022
197,144	133,615	-0,204	-0,183
198,159	70,428	-0,242	-0,173
199,173	289,561	-0,229	-0,288
200,188	160,178	-0,161	-0,156
201,202	328,934	-0,126	-0,168
202,217	-36,394	-0,203	-0,076
203,232	424,789	-0,152	-0,228
204,246	760,208	-0,179	-0,338
205,261	395,636	-0,170	-0,247
206,275	86,255	-0,095	-0,072
207,290	307,005	-0,075	-0,097
208,304	-54,637	-0,249	-0,078
209,319	73,812	-0,152	-0,110
210,334	289,679	-0,124	-0,156
211,348	349,956	-0,174	-0,239
212,363	644,557	-0,134	-0,238
213,377	27,040	-0,229	-0,132
214,392	-34,952	-0,069	0,026
215,407	34,852	-0,159	-0,096
216,421	-67,385	-0,164	-0,044
217,436	-76,724	-0,188	-0,045
218,450	53,517	-0,267	-0,177
219,465	162,513	-0,200	-0,195
220,480	12,954	-0,224	-0,119
221,494	800,000	-0,075	-0,207
222,509	-91,328	-0,079	-0,015
223,523	-37,712	-0,091	0,033
224,538	232,348	-0,234	-0,265
225,553	23,029	-0,264	-0,149
226,567	186,786	-0,216	-0,223
227,582	264,905	-0,087	-0,105
228,596	156,852	-0,102	-0,097
229,611	102,770	-0,141	-0,114
230,626	-164,608	-0,121	0,004
231,640	-77,988	-0,236	-0,056
232,655	-29,952	-0,393	-0,154
233,669	800,000	-0,117	-0,265
234,684	392,553	-0,081	-0,117
235,699	274,342	-0,109	-0,134
236,713	783,090	-0,091	-0,172
237,728	50,500	-0,106	-0,069
238,742	-67,489	-0,218	-0,059
239,757	96,626	-0,111	-0,088
240,772	31,261	-0,320	-0,189
241,786	50,893	-0,208	-0,136
242,801	-40,321	-0,152	-0,054
243,815	-200,000	-0,007	-0,105
244,830	221,412	-0,153	-0,170
245,844	-28,136	-0,163	0,065
246,859	16,538	-0,179	-0,097
247,874	420,562	-0,175	-0,259
248,888	-146,563	-0,193	-0,011
249,903	6,217	-0,299	-0,152
250,917	-83,849	-0,251	-0,055
251,932	134,720	-0,129	-0,115
252,947	800,000	-0,072	-0,144
253,961	-29,699	-0,233	-0,091
254,976	78,662	-0,217	-0,160
255,990	799,003	-0,098	-0,187
257,005	37,000	-0,033	-0,020
258,020	-62,570	-0,226	-0,064
259,034	-200,000	-0,022	-0,082
260,049	112,952	-0,210	-0,176
261,063	44,911	-0,228	-0,144
262,078	260,129	-0,151	-0,181
263,093	281,791	-0,171	-0,212
264,107	68,464	-0,254	-0,179
265,122	-48,240	-0,200	-0,066
266,136	-68,690	-0,117	-0,031
267,151	800,000	-0,074	-0,150
268,166	-33,238	-0,280	-0,106
269,180	99,368	-0,093	-0,074
270,195	153,175	-0,084	-0,079
271,209	238,047	-0,191	-0,219
272,224	309,997	-0,116	-0,149
273,239	-83,678	-0,152	0,033
274,253	-99,824	-0,086	-0,015
275,268	-183,212	-0,205	0,002
276,282	210,543	-0,167	-0,181
277,297	89,497	-0,207	-0,159
278,312	71,893	-0,171	-0,123
279,326	-16,957	-0,206	-0,089
280,341	-29,070	-0,229	-0,090
281,355	58,830	-0,017	-0,011
282,370	-71,375	-0,197	-0,051
283,384	294,122	-0,171	-0,216
284,399	567,242	-0,121	-0,202
285,414	578,687	-0,115	-0,194
286,428	-189,823	-0,053	-0,000
287,443	73,258	-0,120	-0,086
288,457	271,013	-0,165	-0,200
289,472	-75,357	-0,189	-0,046
290,487	-80,508	-0,214	-0,049
291,501	-116,297	-0,138	-0,017
292,516	121,601	-0,189	-0,162
293,530	-200,000	-0,027	-0,091
294,545	31,471	-0,125	-0,074
295,560	-200,000	-0,001	-0,059
296,574	-47,571	-0,155	-0,051
297,589	-200,000	-0,042	-0,161
298,603	56,273	-0,130	-0,087
299,618	415,151	-0,105	-0,155
300,633	-132,152	-0,116	0,010
301,647	-183,123	-0,150	0,002
302,662	-155,155	-0,172	0,008
303,676	-72,470	-0,284	-0,072
304,691	-110,873	-0,096	-0,013
305,706	395,794	-0,030	-0,043
306,720	-147,094	-0,230	-0,013
307,735	-112,624	-0,159	-0,022
308,749	415,010	-0,131	-0,191
309,764	-31,481	-0,157	-0,060
310,779	20,672	-0,101	-0,056
311,793	5,695	-0,085	-0,043
312,808	57,243	-0,102	-0,068
313,822	-63,421	-0,240	-0,067
314,837	-45,501	-0,094	0,032
315,852	100,260	-0,159	0,126
316,866	-53,342	-0,085	0,027
317,881	205,051	-0,112	0,119
318,895	-49,168	-0,122	-0,040
319,910	198,022	-0,170	-0,178
320,925	-28,404	-0,074	-0,029
321,939	131,358	-0,157	-0,138
322,954	800,000	-0,098	-0,238
323,968	179,302	-0,101	-0,101
324,983	431,711	-0,093	-0,138
325,997	-27,153	-0,214	-0,085
327,012	-200,000	-0,004	-0,181
328,027	-167,739	-0,107	0,003
329,041	-91,882	-0,174	-0,033
330,056	45,738	-0,127	-0,080
331,070	-41,590	-0,103	0,036
332,085	99,907	-0,106	-0,084
333,100	-200,000	-0,057	-0,179
334,114	-200,000	0,006	-0,108
335,129	800,000	-0,119	-0,235
336,143	105,069	-0,190	-0,153
337,158	-18,843	-0,159	-0,068
338,173	-51,588	-0,184	-0,058
339,187	-62,981	-0,108	-0,030
340,202	349,977	0,058	0,079
341,216	-99,635	-0,197	-0,034
342,231	-157,864	-0,159	-0,006
343,246	83,688	-0,217	-0,162
344,260	-200,000	-0,020	-0,168
345,275	-3,868	-0,074	-0,035
346,289	-15,976	-0,130	0,056
347,304	182,178	-0,167	-0,168
348,319	-128,464	-0,120	-0,012
349,333	-15,260	-0,201	-0,088
350,348	82,703	-0,135	-0,100
351,362	-112,620	-0,084	0,011
352,377	439,078	-0,065	-0,097
353,392	124,516	-0,081	-0,070
354,406	-57,000	-0,123	-0,037
355,421	208,116	1308,526	1398,978
356,435	160,123	1468,430	1399,412
