DTS Sentinel unit serial number:	SN410029Multiplexer serial number:	ORYXHardware model number:	OX2-SRSoftware version number:	ORYX F/W v4,00 Oryx Data Collector v3.7.2.0data status	okinstallation	B3 Nyhavnadifferential loss correction	single-endedforward channel	channel 1reverse channel	N/Adate	2023/12/03time	09:37:30forward acquisition time	300,00reverse acquisition time	0,00gamma	499,1914k internal	0,3201k external	0,3201temperature offset calibration	1,0000default loss term (dB/km)	0,3820temperature slope calibration	1,0000multiplexer offset coefficient	1,0000multiplexer slope coefficient	1,0000fibre end	0,00T internal ref (°C)	13,36T ext. ref 1 (°C)	-1,64T ext. ref 2 (°C)	-1,67length (m)	temperature (°C)	Stokes	anti-Stokes-744,400	216,183	-0,206	-0,238
-743,385	-200,000	-0,068	0,290
-742,371	97,516	-0,251	-0,210
-741,356	228,621	0,222	0,263
-740,342	54,263	-0,297	-0,208
-739,327	-200,000	0,015	0,233
-738,312	-64,715	-0,326	-0,095
-737,298	800,000	-0,061	0,188
-736,283	-200,000	-0,032	-0,138
-735,269	800,000	-0,134	0,277
-734,254	145,963	-0,143	-0,140
-733,239	24,207	-0,157	0,094
-732,225	181,463	-0,103	-0,111
-731,210	-112,215	0,129	-0,019
-730,196	-200,000	-0,003	0,098
-729,181	35,286	-0,082	-0,052
-728,167	704,523	0,021	-0,041
-727,152	-200,000	0,007	-0,086
-726,137	800,000	-0,012	-0,034
-725,123	-117,455	0,069	-0,009
-724,108	-200,000	-0,011	-0,201
-723,094	-66,708	-0,132	-0,038
-722,079	-200,000	0,002	-0,047
-721,064	800,000	0,037	-0,109
-720,050	-200,000	0,016	-0,062
-719,035	18,369	-0,040	-0,023
-718,021	82,453	-0,030	-0,024
-717,006	637,485	-0,032	0,060
-715,991	-200,000	0,011	-0,182
-714,977	224,906	-0,099	-0,117
-713,962	297,809	-0,088	-0,118
-712,948	42,022	0,004	-0,003
-711,933	561,438	0,042	-0,074
-710,918	421,010	-0,055	0,086
-709,904	800,000	-0,011	-0,025
-708,889	800,000	-0,062	-0,170
-707,875	-157,251	-0,050	0,002
-706,860	-200,000	-0,018	0,195
-705,845	-104,046	-0,041	-0,007
-704,831	20,446	0,065	0,038
-703,816	-200,000	0,029	0,100
-702,802	-35,863	-0,100	-0,039
-701,787	40,900	-0,097	-0,064
-700,772	288,156	-0,039	0,052
-699,758	161,990	-0,084	0,085
-698,743	-13,941	0,051	-0,024
-697,729	787,742	0,014	-0,028
-696,714	-200,000	0,000	-0,112
-695,699	62,937	-0,063	-0,046
-694,685	318,503	-0,127	-0,176
-693,670	-70,069	-0,180	-0,049
-692,656	92,669	0,107	0,088
-691,641	131,207	-0,063	0,058
-690,627	443,538	0,061	-0,098
-689,612	44,047	0,043	-0,029
-688,597	-101,641	-0,092	0,016
-687,583	-104,994	-0,168	-0,028
-686,568	205,943	0,048	0,054
-685,554	426,647	-0,017	0,026
-684,539	-200,000	-0,014	-0,089
-683,524	-200,000	0,010	-0,153
-682,510	-183,516	-0,077	0,001
-681,495	237,408	0,037	-0,044
-680,481	-200,000	-0,011	0,102
-679,466	800,000	-0,055	0,133
-678,451	-25,746	-0,157	-0,067
-677,437	25,710	0,062	-0,037
-676,422	-42,158	0,032	-0,012
-675,408	137,718	-0,135	0,128
-674,393	800,000	-0,041	-0,110
-673,378	-200,000	-0,045	-0,145
-672,364	84,770	-0,136	-0,108
-671,349	-64,788	0,078	-0,023
-670,335	-152,134	-0,100	0,005
-669,320	800,000	-0,044	0,094
-668,305	-200,000	-0,024	-0,128
-667,291	-200,000	0,025	0,142
-666,276	-11,978	-0,055	-0,026
-665,262	-126,681	-0,257	0,027
-664,247	-125,330	0,061	-0,007
-663,232	800,000	-0,051	-0,122
-662,218	-57,236	0,079	-0,025
-661,203	-108,896	0,020	-0,003
-660,189	-200,000	-0,008	-0,032
-659,174	24,497	0,050	-0,030
-658,159	-75,048	-0,155	-0,040
-657,145	460,284	-0,053	0,085
-656,130	-71,358	-0,027	-0,007
-655,116	-109,436	-0,087	0,013
-654,101	233,461	-0,035	-0,041
-653,086	-53,390	-0,031	0,010
-652,072	34,887	-0,063	0,040
-651,057	150,934	-0,096	-0,095
-650,043	101,431	-0,126	-0,106
-649,028	238,934	-0,078	0,094
-648,014	-200,000	-0,010	0,133
-646,999	498,705	-0,086	0,144
-645,984	-200,000	0,008	0,027
-644,970	-18,840	-0,085	0,038
-643,955	-21,070	-0,115	0,051
-642,941	800,000	0,053	-0,142
-641,926	800,000	-0,059	-0,165
-640,911	800,000	-0,028	-0,086
-639,897	800,000	-0,027	-0,080
-638,882	-182,846	-0,143	-0,002
-637,868	58,431	-0,123	-0,087
-636,853	347,142	-0,057	-0,082
-635,838	82,848	-0,086	-0,068
-634,824	-94,561	0,059	-0,011
-633,809	-183,676	-0,159	0,002
-632,795	185,284	-0,099	0,107
-631,780	-200,000	-0,008	-0,038
-630,765	257,797	0,047	0,059
-629,751	-139,256	-0,047	-0,004
-628,736	-200,000	0,040	-0,132
-627,722	-128,365	-0,081	-0,008
-626,707	-133,231	0,017	0,002
-625,692	800,000	-0,018	-0,041
-624,678	92,314	-0,085	-0,069
-623,663	28,436	0,021	-0,013
-622,649	590,735	-0,035	-0,063
-621,634	800,000	-0,049	-0,146
-620,619	264,797	0,031	0,040
-619,605	139,073	-0,075	-0,072
-618,590	203,418	-0,046	-0,052
-617,576	-200,000	-0,028	-0,127
-616,561	334,591	0,025	0,035
-615,546	-200,000	-0,008	0,190
-614,532	800,000	0,026	-0,058
-613,517	-41,148	0,067	0,025
-612,503	-171,053	-0,041	0,001
-611,488	-200,000	0,006	0,072
-610,474	800,000	0,051	0,119
-609,459	1,255	-0,086	0,045
-608,444	-200,000	0,002	-0,058
-607,430	-200,000	0,004	-0,027
-606,415	-22,778	0,197	-0,086
-605,401	153,461	-0,011	0,011
-604,386	800,000	-0,040	-0,095
-603,371	-200,000	0,007	0,103
-602,357	-0,106	-0,063	-0,032
-601,342	567,674	0,066	0,116
-600,328	22,757	-0,037	-0,022
-599,313	-200,000	0,008	0,027
-598,298	800,000	-0,047	-0,103
-597,284	106,483	-0,041	0,035
-596,269	229,023	0,073	-0,086
-595,255	194,258	0,051	-0,056
-594,240	-105,585	-0,134	0,022
-593,225	51,209	-0,090	0,062
-592,211	65,023	0,058	-0,042
-591,196	7,184	0,105	-0,057
-590,182	96,989	-0,015	-0,013
-589,167	-200,000	0,011	0,052
-588,152	290,809	-0,021	0,028
-587,138	18,466	0,089	0,051
-586,123	138,957	-0,075	-0,071
-585,109	800,000	0,036	-0,091
-584,094	363,814	0,020	0,030
-583,079	292,302	-0,028	0,037
-582,065	-90,207	0,172	0,036
-581,050	107,969	0,165	0,142
-580,036	-200,000	0,039	0,127
-579,021	-9,083	0,041	0,020
-578,006	37,234	-0,031	-0,020
-576,992	-200,000	-0,002	-0,064
-575,977	-13,097	0,078	0,037
-574,963	343,845	-0,007	-0,010
-573,948	-144,267	-0,029	-0,002
-572,934	-200,000	0,023	-0,115
-571,919	-134,823	-0,074	-0,006
-570,904	800,000	-0,028	0,069
-569,890	32,528	-0,146	-0,091
-568,875	-93,245	-0,008	-0,002
-567,861	-200,000	-0,009	0,160
-566,846	800,000	-0,043	0,100
-565,831	-200,000	-0,003	0,121
-564,817	19,775	-0,135	-0,078
-563,802	-135,100	-0,125	0,011
-562,788	-200,000	-0,009	0,080
-561,773	6,827	0,079	-0,042
-560,758	536,748	0,036	0,063
-559,744	378,068	0,061	0,090
-558,729	57,860	-0,082	0,058
-557,715	-200,000	-0,024	-0,076
-556,700	-200,000	-0,039	-0,159
-555,685	-49,901	-0,162	0,055
-554,671	334,037	-0,029	0,040
-553,656	-54,447	0,068	0,022
-552,642	712,829	0,025	-0,049
-551,627	43,938	0,101	-0,067
-550,612	-200,000	-0,035	-0,149
-549,598	544,082	-0,033	-0,057
-548,583	25,899	0,097	0,058
-547,569	420,103	0,044	0,069
-546,554	-200,000	0,004	-0,028
-545,539	800,000	-0,044	0,136
-544,525	120,913	-0,063	0,057
-543,510	48,506	0,078	-0,053
-542,496	320,000	0,145	-0,199
-541,481	-200,000	0,010	-0,068
-540,466	-200,000	-0,008	-0,097
-539,452	-200,000	0,016	0,065
-538,437	800,000	0,033	0,083
-537,423	230,591	-0,049	0,058
-536,408	-200,000	-0,011	0,101
-535,393	-55,417	-0,126	-0,040
-534,379	89,881	0,097	-0,078
-533,364	-130,739	0,041	0,004
-532,350	-30,364	0,165	-0,067
-531,335	800,000	0,055	0,169
-530,321	-200,000	0,022	0,126
-529,306	-31,528	-0,049	-0,020
-528,291	800,000	-0,017	-0,046
-527,277	-200,000	0,017	-0,142
-526,262	350,753	0,085	-0,122
-525,248	800,000	-0,007	-0,014
-524,233	33,901	0,085	0,053
-523,218	800,000	-0,028	0,060
-522,204	-125,946	0,138	-0,015
-521,189	-200,000	-0,005	-0,167
-520,175	298,548	-0,092	-0,122
-519,160	-200,000	-0,003	0,034
-518,145	582,241	0,029	-0,051
-517,131	-200,000	0,020	0,127
-516,116	-106,104	0,142	-0,023
-515,102	201,891	0,062	-0,069
-514,087	3,075	-0,118	0,062
-513,072	-200,000	0,021	-0,187
-512,058	800,000	0,072	-0,164
-511,043	-67,364	0,090	-0,025
-510,029	114,327	0,103	0,090
-509,014	58,682	0,044	0,031
-507,999	-157,206	0,052	0,002
-506,985	-89,345	-0,153	-0,032
-505,970	152,475	-0,084	0,082
-504,956	274,533	-0,031	-0,040
-503,941	-88,790	0,039	-0,008
-502,926	-37,383	-0,067	-0,026
-501,912	31,716	0,053	0,033
-500,897	-200,000	-0,044	0,175
-499,883	-200,000	-0,008	-0,111
-498,868	-47,763	-0,141	-0,049
-497,853	800,000	-0,020	-0,044
-496,839	-200,000	0,011	-0,093
-495,824	102,417	-0,034	-0,029
-494,810	180,424	-0,059	-0,062
-493,795	-200,000	-0,005	0,027
-492,781	-126,452	-0,063	0,007
-491,766	800,000	-0,028	0,062
-490,751	202,502	-0,024	-0,027
-489,737	800,000	0,050	-0,158
-488,722	-200,000	0,001	-0,044
-487,708	-174,058	-0,043	-0,001
-486,693	800,000	0,041	0,087
-485,678	-200,000	-0,000	0,027
-484,664	-200,000	0,007	-0,078
-483,649	-112,384	-0,079	-0,011
-482,635	688,546	0,003	-0,005
-481,620	-200,000	-0,021	-0,107
-480,605	800,000	-0,052	0,107
-479,591	800,000	-0,044	0,117
-478,576	157,720	-0,101	0,100
-477,562	294,352	0,073	-0,096
-476,547	800,000	-0,038	-0,097
-475,532	5,889	0,089	-0,047
-474,518	101,162	-0,025	0,021
-473,503	91,732	0,051	0,041
-472,489	100,075	-0,072	-0,060
-471,474	70,780	0,085	0,063
-470,459	648,857	-0,065	-0,121
-469,445	-168,662	-0,098	-0,003
-468,430	-171,731	-0,074	-0,002
-467,416	-102,384	0,027	-0,005
-466,401	57,245	-0,130	0,091
-465,386	441,682	-0,056	0,088
-464,372	782,793	0,050	0,100
-463,357	800,000	0,026	-0,059
-462,343	-164,577	0,152	0,005
-461,328	-200,000	0,005	0,055
-460,313	800,000	0,029	-0,067
-459,299	49,816	0,085	0,058
-458,284	-200,000	-0,006	0,091
-457,270	-51,281	0,153	0,051
-456,255	-95,807	0,049	0,009
-455,241	316,150	-0,149	-0,203
-454,226	59,565	-0,059	-0,042
-453,211	249,875	0,053	-0,065
-452,197	-200,000	-0,001	-0,061
-451,182	800,000	0,019	-0,058
-450,168	47,883	-0,094	0,063
-449,153	-73,280	-0,051	-0,013
-448,138	-200,000	-0,013	-0,113
-447,124	268,512	-0,070	-0,088
-446,109	243,116	0,073	-0,088
-445,095	249,829	-0,073	0,089
-444,080	230,021	0,059	0,069
-443,065	-57,166	0,064	0,020
-442,051	-200,000	0,006	-0,064
-441,036	230,333	-0,115	-0,135
-440,022	69,358	0,121	0,089
-439,007	4,539	0,065	0,034
-437,992	-18,146	0,200	0,090
-436,978	332,570	0,102	0,141
-435,963	-200,000	-0,006	-0,054
-434,949	-200,000	0,013	-0,183
-433,934	-174,077	0,031	-0,001
-432,919	-17,078	-0,093	-0,042
-431,905	-200,000	-0,017	-0,078
-430,890	-99,006	-0,152	-0,027
-429,876	-200,000	0,039	-0,146
-428,861	223,069	-0,091	0,106
-427,846	-200,000	-0,005	0,024
-426,832	-158,282	-0,223	0,009
-425,817	800,000	0,009	-0,024
-424,803	-145,550	-0,126	-0,008
-423,788	-200,000	0,009	0,045
-422,773	2,821	0,185	-0,096
-421,759	-168,570	0,085	0,002
-420,744	-34,201	-0,029	-0,011
-419,730	56,186	-0,092	-0,064
-418,715	-79,933	0,024	0,006
-417,701	251,698	-0,096	-0,118
-416,686	1,680	-0,093	-0,048
-415,671	235,703	-0,034	0,040
-414,657	-200,000	-0,062	0,227
-413,642	-136,837	0,156	-0,013
-412,628	-200,000	-0,009	-0,037
-411,613	-200,000	0,010	-0,080
-410,598	133,369	-0,120	0,112
-409,584	-200,000	-0,012	0,089
-408,569	594,463	0,034	-0,061
-407,555	13,959	0,113	-0,063
-406,540	412,900	0,111	0,170
-405,525	-200,000	-0,029	-0,166
-404,511	-200,000	-0,029	-0,125
-403,496	-55,162	0,059	-0,019
-402,482	800,000	-0,062	-0,152
-401,467	800,000	0,041	0,129
-400,452	419,456	-0,031	0,048
-399,438	-48,910	-0,101	-0,035
-398,423	800,000	-0,038	0,106
-397,409	-144,244	-0,090	-0,006
-396,394	-186,866	0,108	0,001
-395,379	121,855	0,026	-0,023
-394,365	-200,000	-0,055	0,199
-393,350	67,654	-0,064	0,047
-392,336	-43,154	0,065	0,024
-391,321	-200,000	0,030	0,119
-390,306	12,575	-0,122	0,068
-389,292	47,877	-0,048	0,032
-388,277	389,292	-0,026	0,038
-387,263	170,928	-0,062	-0,064
-386,248	800,000	-0,064	0,136
-385,233	543,451	-0,062	-0,106
-384,219	-53,561	0,065	0,021
-383,204	-200,000	-0,014	-0,158
-382,190	82,122	-0,021	0,016
-381,175	7,521	0,067	-0,036
-380,160	-24,280	-0,105	0,045
-379,146	508,587	-0,030	0,051
-378,131	800,000	0,048	0,113
-377,117	-19,086	0,094	-0,042
-376,102	-23,316	-0,032	0,014
-375,088	-136,457	0,077	-0,006
-374,073	109,592	-0,075	-0,064
-373,058	114,650	0,105	0,092
-372,044	800,000	-0,012	0,036
-371,029	800,000	0,050	0,106
-370,015	372,731	0,051	-0,074
-369,000	-200,000	0,011	-0,057
-367,985	-19,587	0,076	-0,034
-366,971	-19,145	-0,070	-0,031
-365,956	-200,000	0,001	0,046
-364,942	131,197	0,046	0,042
-363,927	-200,000	-0,004	-0,081
-362,912	-200,000	0,006	-0,083
-361,898	-110,802	0,060	0,009
-360,883	125,634	0,103	0,093
-359,869	160,447	-0,031	0,031
-358,854	406,961	-0,084	0,127
-357,839	588,295	0,058	0,103
-356,825	-44,958	0,155	0,055
-355,810	-200,000	0,003	-0,041
-354,796	166,177	-0,047	-0,047
-353,781	-130,887	0,129	-0,012
-352,766	800,000	-0,031	0,076
-351,752	800,000	-0,054	0,153
-350,737	-200,000	0,026	0,175
-349,723	625,371	-0,057	0,104
-348,708	69,932	0,033	0,025
-347,693	-200,000	0,011	0,060
-346,679	-200,000	-0,004	0,111
-345,664	149,622	0,111	-0,108
-344,650	800,000	-0,020	0,062
-343,635	-54,473	0,070	0,023
-342,620	108,402	0,043	0,037
-341,606	800,000	0,079	0,211
-340,591	72,820	0,057	0,043
-339,577	-200,000	-0,007	0,088
-338,562	-93,918	-0,134	0,026
-337,548	587,128	0,069	-0,123
-336,533	11,522	0,058	-0,032
-335,518	800,000	0,011	0,032
-334,504	635,918	0,055	0,101
-333,489	-98,096	-0,101	0,018
-332,475	202,799	-0,035	-0,039
-331,460	12,142	-0,139	-0,076
-330,445	-200,000	-0,004	0,045
-329,431	228,038	0,046	-0,053
-328,416	396,455	0,072	0,107
-327,402	-1,114	-0,036	0,018
-326,387	800,000	-0,034	0,088
-325,372	-32,899	-0,020	-0,008
-324,358	341,241	-0,031	-0,044
-323,343	-35,668	0,063	0,024
-322,329	-78,430	0,078	-0,019
-321,314	222,680	-0,079	0,091
-320,299	-200,000	-0,002	0,087
-319,285	87,367	0,094	0,075
-318,270	791,896	0,058	-0,115
-317,256	-27,113	0,061	0,025
-316,241	778,251	0,019	0,038
-315,226	518,808	0,018	0,031
-314,212	-200,000	-0,018	0,086
-313,197	800,000	0,014	0,038
-312,183	800,000	0,067	0,167
-311,168	-200,000	-0,025	0,105
-310,153	-200,000	-0,038	-0,131
-309,139	68,345	-0,034	0,025
-308,124	493,477	-0,047	0,078
-307,110	-143,056	0,088	0,006
-306,095	-200,000	0,008	0,227
-305,080	377,247	0,119	0,174
-304,066	15,757	0,031	0,017
-303,051	11,189	-0,089	-0,049
-302,037	-200,000	0,001	0,027
-301,022	-200,000	-0,024	-0,113
-300,008	-200,000	0,010	0,134
-298,993	743,667	0,055	0,107
-297,978	800,000	0,056	0,171
-296,964	-2,036	-0,085	0,043
-295,949	535,036	-0,119	0,203
-294,935	800,000	-0,012	-0,024
-293,920	-59,330	0,039	-0,012
-292,905	20,692	0,110	-0,064
-291,891	-200,000	0,013	0,111
-290,876	41,201	0,039	-0,025
-289,862	-102,017	-0,030	0,005
-288,847	81,639	0,062	-0,048
-287,832	67,079	0,058	0,042
-286,818	-200,000	-0,019	-0,071
-285,803	-124,445	0,184	0,020
-284,789	-200,000	-0,003	0,023
-283,774	-18,947	-0,142	0,063
-282,759	189,956	-0,135	-0,145
-281,745	60,529	0,041	0,029
-280,730	385,128	-0,063	-0,093
-279,716	191,485	0,042	-0,045
-278,701	66,337	0,040	-0,029
-277,686	800,000	-0,035	0,091
-276,672	133,010	-0,060	0,055
-275,657	421,400	0,064	-0,098
-274,643	656,576	-0,018	0,032
-273,628	800,000	-0,070	-0,142
-272,613	-200,000	-0,004	-0,072
-271,599	-200,000	0,006	-0,141
-270,584	435,547	-0,059	-0,093
-269,570	800,000	0,030	0,079
-268,555	228,386	0,057	-0,066
-267,540	-200,000	-0,031	-0,198
-266,526	-143,323	0,042	-0,003
-265,511	800,000	-0,039	-0,088
-264,497	-200,000	-0,020	-0,164
-263,482	-68,251	0,106	0,029
-262,467	-60,432	-0,054	0,016
-261,453	30,781	-0,083	-0,051
-260,438	701,851	0,063	-0,120
-259,424	178,376	-0,117	-0,122
-258,409	-200,000	-0,005	-0,095
-257,395	16,086	0,144	-0,081
-256,380	800,000	-0,051	-0,108
-255,365	-200,000	0,019	0,108
-254,351	115,482	0,075	-0,066
-253,336	78,393	-0,044	0,034
-252,322	-113,990	-0,097	-0,013
-251,307	6,567	0,065	0,034
-250,292	189,429	0,038	-0,041
-249,278	273,713	0,050	0,064
-248,263	800,000	-0,026	0,055
-247,249	-200,000	0,007	0,197
-246,234	12,325	-0,125	-0,068
-245,219	-200,000	0,001	0,015
-244,205	-148,799	-0,105	-0,006
-243,190	800,000	-0,045	0,114
-242,176	13,902	0,093	0,052
-241,161	375,512	0,044	0,065
-240,146	-95,827	0,037	0,007
-239,132	-200,000	0,013	-0,064
-238,117	800,000	0,009	0,025
-237,103	800,000	-0,050	-0,103
-236,088	-118,506	-0,167	-0,021
-235,073	800,000	-0,022	0,056
-234,059	800,000	-0,030	0,073
-233,044	-67,572	-0,064	-0,018
-232,030	59,125	0,138	0,097
-231,015	72,576	0,052	-0,039
-230,000	7,950	0,067	-0,036
-228,986	-192,930	-0,037	0,000
-227,971	800,000	0,027	0,064
-226,957	138,492	0,062	0,058
-225,942	-200,000	0,046	0,259
-224,927	800,000	-0,049	-0,105
-223,913	-70,134	-0,053	-0,014
-222,898	-97,971	0,180	-0,033
-221,884	800,000	0,014	0,031
-220,869	-200,000	-0,013	-0,053
-219,855	240,044	0,049	-0,058
-218,840	-197,364	0,078	0,000
-217,825	-53,983	0,150	0,048
-216,811	-200,000	-0,004	-0,038
-215,796	99,121	0,030	-0,025
-214,782	-200,000	-0,005	-0,213
-213,767	125,570	0,032	-0,029
-212,752	-49,742	0,082	0,027
-211,738	159,428	0,055	-0,055
-210,723	196,265	0,011	-0,012
-209,709	-9,112	0,032	-0,015
-208,694	-82,055	-0,120	-0,028
-207,679	-87,245	-0,061	0,013
-206,665	-42,057	-0,089	0,032
-205,650	-155,034	-0,103	0,005
-204,636	800,000	-0,052	0,112
-203,621	-132,633	0,139	-0,013
-202,606	92,611	0,064	-0,051
-201,592	-200,000	-0,081	0,000
-200,577	-200,000	-0,015	-0,178
-199,563	115,049	0,054	-0,047
-198,548	93,192	-0,006	-0,005
-197,533	-86,287	0,081	-0,018
-196,519	68,810	-0,078	0,057
-195,504	10,584	0,095	0,051
-194,490	434,270	-0,083	-0,129
-193,475	431,039	-0,023	0,035
-192,460	-74,455	0,089	0,023
-191,446	-200,000	0,007	0,062
-190,431	-18,879	0,084	-0,037
-189,417	-43,912	0,074	0,026
-188,402	800,000	-0,017	0,038
-187,387	-200,000	0,000	0,071
-186,373	-200,000	0,032	-0,102
-185,358	-200,000	-0,009	-0,061
-184,344	18,126	0,055	0,031
-183,329	800,000	-0,017	-0,040
-182,315	133,111	0,032	-0,029
-181,300	-45,363	-0,063	-0,022
-180,285	49,884	-0,033	0,022
-179,271	-60,195	0,059	-0,018
-178,256	106,517	-0,137	-0,115
-177,242	-160,471	0,043	0,002
-176,227	459,180	0,068	-0,108
-175,212	-108,274	-0,134	-0,020
-174,198	31,442	0,088	0,054
-173,183	8,200	0,128	-0,068
-172,169	180,333	-0,120	-0,126
-171,154	-104,587	-0,164	-0,027
-170,139	681,879	-0,053	-0,098
-169,125	-200,000	-0,022	0,085
-168,110	-41,911	0,087	-0,032
-167,096	-200,000	0,008	0,072
-166,081	800,000	0,029	-0,081
-165,066	14,381	-0,027	0,015
-164,052	-200,000	-0,003	0,010
-163,037	-50,235	0,080	-0,027
-162,023	688,039	0,049	0,092
-161,008	800,000	0,012	0,030
-159,993	412,634	-0,067	0,102
-158,979	46,896	0,036	-0,024
-157,964	-156,297	-0,051	-0,002
-156,950	692,173	-0,064	-0,119
-155,935	-136,522	0,068	-0,005
-154,920	44,583	0,058	0,038
-153,906	256,206	0,028	0,035
-152,891	800,000	-0,018	0,046
-151,877	326,117	-0,022	0,029
-150,862	-200,000	-0,006	0,035
-149,847	-93,304	-0,146	0,029
-148,833	501,190	0,063	-0,104
-147,818	303,783	-0,072	0,096
-146,804	800,000	0,020	0,041
-145,789	38,079	0,073	-0,046
-144,775	217,103	-0,027	0,030
-143,760	62,892	0,123	-0,087
-142,745	-121,072	-0,038	0,005
-141,731	-200,000	-0,047	-0,174
-140,716	-200,000	0,018	-0,088
-139,702	551,677	0,097	-0,166
-138,687	128,462	-0,028	0,026
-137,672	9,726	0,146	-0,078
-136,658	-86,348	-0,102	-0,022
-135,643	-200,000	-0,002	-0,096
-134,629	800,000	-0,073	-0,211
-133,614	11,133	0,134	0,073
-132,599	233,890	0,112	0,132
-131,585	-87,862	0,061	-0,013
-130,570	-200,000	0,001	-0,017
-129,556	-200,000	0,010	-0,127
-128,541	-55,013	-0,134	0,043
-127,526	28,768	-0,089	0,053
-126,512	479,870	0,061	-0,098
-125,497	-31,907	-0,149	0,059
-124,483	800,000	0,039	0,119
-123,468	-110,745	0,075	-0,011
-122,453	800,000	-0,022	-0,061
-121,439	48,507	-0,077	-0,051
-120,424	70,941	0,019	0,014
-119,410	-60,197	0,087	0,026
-118,395	-118,674	-0,019	-0,002
-117,380	-45,426	-0,143	0,050
-116,366	-44,196	0,049	-0,017
-115,351	800,000	0,022	0,049
-114,337	-154,417	-0,095	-0,004
-113,322	2,668	0,017	-0,009
-112,307	502,947	0,023	0,037
-111,293	-109,593	0,131	-0,019
-110,278	-65,841	-0,119	0,033
-109,264	-200,000	-0,020	0,072
-108,249	99,941	0,143	0,118
-107,234	-200,000	-0,011	-0,047
-106,220	-200,000	-0,035	0,111
-105,205	72,852	0,102	0,076
-104,191	164,193	-0,048	0,048
-103,176	71,211	0,125	0,092
-102,162	-200,000	-0,009	-0,096
-101,147	249,224	0,038	-0,046
-100,132	-72,887	-0,073	-0,019
-99,118	-200,000	-0,001	0,025
-98,103	-200,000	-0,006	0,030
-97,089	800,000	-0,056	-0,159
-96,074	115,955	-0,043	0,038
-95,059	-69,284	0,080	0,022
-94,045	-200,000	-0,025	-0,141
-93,030	800,000	-0,008	0,024
-92,016	-5,366	-0,133	-0,064
-91,001	536,440	-0,061	0,104
-89,986	-85,129	0,047	-0,010
-88,972	800,000	0,054	0,143
-87,957	-163,730	0,042	0,001
-86,943	-190,549	0,187	-0,001
-85,928	-137,975	-0,076	0,006
-84,913	14,647	-0,106	-0,058
-83,899	126,471	-0,174	-0,156
-82,884	-55,580	0,019	0,006
-81,870	121,053	0,024	-0,021
-80,855	515,920	0,084	0,139
-79,840	-200,000	0,028	-0,147
-78,826	-200,000	-0,022	0,146
-77,811	800,000	-0,033	0,090
-76,797	428,975	0,059	0,090
-75,782	-60,907	-0,104	-0,031
-74,767	-200,000	0,022	0,192
-73,753	-135,975	-0,052	0,004
-72,738	759,737	-0,031	0,060
-71,724	12,408	-0,047	-0,026
-70,709	-100,456	0,046	0,008
-69,694	228,252	0,046	0,053
-68,680	800,000	-0,010	0,025
-67,665	-200,000	0,034	0,125
-66,651	-200,000	0,006	0,081
-65,636	4,478	0,115	0,059
-64,622	20,606	-0,074	0,042
-63,607	105,128	0,014	0,011
-62,592	-200,000	0,025	-0,248
-61,578	-200,000	-0,001	0,077
-60,563	449,548	0,041	0,064
-59,549	-200,000	-0,034	0,139
-58,534	-33,307	-1,616	-0,630
-57,519	378,115	-1,456	-2,115
-56,505	-200,000	-0,557	-4,456
-55,490	203,355	1,068	1,171
-54,476	800,000	4,792	11,007
-53,461	-200,000	19,249	320,573
-52,446	-200,000	740,626	2335,728
-51,432	573,844	1655,597	2870,256
-50,417	78,357	1671,105	1262,263
-49,403	21,376	1543,821	885,937
-48,388	15,234	1466,499	811,698
-47,373	17,966	1456,777	819,488
-46,359	16,701	1446,577	807,651
-45,344	13,501	1441,960	789,711
-44,330	13,389	1440,093	788,120
-43,315	13,404	1438,200	787,127
-42,300	13,421	1436,596	786,298
-41,286	13,434	1435,470	785,713
-40,271	13,446	1433,831	784,841
-39,257	13,395	1432,769	783,987
-38,242	13,438	1431,416	783,417
-37,227	13,499	1430,009	782,906
-36,213	13,450	1428,931	782,054
-35,198	13,413	1427,788	781,222
-34,184	13,479	1426,794	780,958
-33,169	13,397	1425,655	779,917
-32,154	13,424	1424,312	779,279
-31,140	13,513	1422,895	778,893
-30,125	13,520	1421,999	778,405
-29,111	13,482	1420,745	777,509
-28,096	13,442	1419,838	776,793
-27,082	13,422	1418,668	776,026
-26,067	13,389	1417,664	775,291
-25,052	13,370	1416,568	774,572
-24,038	13,369	1415,807	774,119
-23,023	13,375	1414,313	773,303
-22,009	13,382	1413,422	772,814
-20,994	13,362	1412,594	772,240
-19,979	13,344	1411,670	771,617
-18,965	13,344	1410,660	771,038
-17,950	13,324	1409,954	770,526
-16,936	13,323	1409,024	769,981
-15,921	13,342	1407,661	769,294
-14,906	13,318	1406,941	768,761
-13,892	13,280	1406,088	768,086
-12,877	13,292	1405,120	767,582
-11,863	13,325	1404,122	767,160
-10,848	13,268	1403,566	766,560
-9,833	13,245	1402,509	765,847
-8,819	13,223	1401,530	765,175
-7,804	13,221	1400,786	764,730
-6,790	13,184	1399,711	763,941
-5,775	13,212	1398,593	763,433
-4,760	13,184	1397,791	762,836
-3,746	13,219	1396,855	762,455
-2,731	13,220	1395,948	761,935
-1,717	13,124	1395,157	761,028
-0,702	13,192	1393,291	760,296
0,313	17,042	1309,877	732,607
1,327	33,259	703,768	431,093
2,342	50,932	123,345	82,567
3,356	0,767	16,754	8,457
4,371	12,039	3,275	1,777
5,386	-0,476	0,648	0,324
6,400	-200,000	0,068	0,244
7,415	21,427	-0,221	-0,127
8,429	371,977	-0,202	-0,291
9,444	237,929	-0,342	-0,402
10,459	55,531	-0,345	-0,236
11,473	-8,277	-0,263	-0,125
12,488	-29,157	-0,445	-0,179
13,502	33,159	-0,300	-0,184
14,517	114,136	-0,368	-0,317
15,531	74,595	-0,302	-0,224
16,546	54,389	-0,372	-0,253
17,561	136,055	-0,396	-0,364
18,575	-46,339	-0,310	-0,107
19,590	92,845	-0,233	-0,186
20,604	10,061	-0,291	-0,156
21,619	163,402	-0,287	-0,285
22,634	77,198	-0,440	-0,330
23,648	118,923	-0,430	-0,375
24,663	90,074	-0,398	-0,314
25,677	40,032	-0,305	-0,193
26,692	-5,600	-0,352	-0,170
27,707	66,376	-0,394	-0,282
28,721	22,126	-0,371	-0,213
29,736	115,144	-0,415	-0,358
30,750	109,899	-0,438	-0,371
31,765	-32,145	-0,348	-0,137
32,780	-13,190	-0,440	-0,201
33,794	56,648	-0,404	-0,277
34,809	53,953	-0,313	-0,212
35,823	86,828	-0,247	-0,192
36,838	-5,629	-0,433	-0,209
37,853	141,533	-0,340	-0,317
38,867	237,215	-0,349	-0,408
39,882	57,608	-0,440	-0,303
40,896	151,406	-0,276	-0,265
41,911	-46,821	-0,390	-0,134
42,926	46,110	-0,327	-0,213
43,940	4,248	-0,421	-0,217
44,955	-4,854	-0,488	-0,236
45,969	13,321	-0,308	-0,168
46,984	22,718	-0,343	-0,197
47,999	-48,930	-0,343	-0,115
49,013	105,260	-0,323	-0,269
50,028	-23,732	-0,306	-0,129
51,042	147,630	-0,316	-0,300
52,057	17,132	-0,322	-0,179
53,071	245,345	-0,242	-0,288
54,086	67,796	-0,285	-0,205
55,101	-29,433	-0,309	-0,124
56,115	147,641	-0,300	-0,285
57,130	24,303	-0,421	-0,244
58,144	67,332	-0,398	-0,286
59,159	48,072	-0,391	-0,257
60,174	111,484	-0,356	-0,302
61,188	9,354	-0,296	-0,157
62,203	-96,857	-0,273	-0,050
63,217	-122,616	-0,283	-0,032
64,232	10,097	-0,320	-0,171
65,247	-41,264	-0,351	-0,127
66,261	84,735	-0,338	-0,260
67,276	113,022	-0,310	-0,265
68,290	97,245	-0,313	-0,252
69,305	11,889	-0,250	-0,135
70,320	-2,876	-0,326	-0,160
71,334	71,609	-0,189	-0,138
72,349	-0,791	-0,353	-0,175
73,363	-0,322	-0,336	-0,167
74,378	49,673	-0,252	-0,167
75,393	-25,358	-0,235	-0,097
76,407	19,012	-0,331	-0,186
77,422	53,757	-0,290	-0,196
78,436	-106,460	-0,275	-0,043
79,451	-38,376	-0,379	-0,140
80,466	17,941	-0,421	-0,235
81,480	102,478	-0,253	-0,208
82,495	74,221	-0,241	-0,178
83,509	-7,832	-0,325	-0,154
84,524	49,431	-0,331	-0,218
85,539	321,921	-0,203	-0,273
86,553	-7,042	-0,258	-0,122
87,568	-4,250	-0,306	-0,148
88,582	-70,093	-0,402	-0,107
89,597	54,145	-0,307	-0,207
90,611	41,674	-0,264	-0,168
91,626	91,964	-0,259	-0,204
92,641	41,105	-0,357	-0,226
93,655	-76,993	-0,467	-0,114
94,670	39,231	-0,348	-0,218
95,684	14,814	-0,293	-0,160
96,699	117,861	-0,272	-0,235
97,714	182,702	-0,232	-0,240
98,728	531,567	-0,141	-0,234
99,743	143,137	-0,262	-0,245
100,757	162,145	-0,157	-0,155
101,772	535,897	-0,101	-0,168
102,787	-16,194	-0,357	-0,159
103,801	-4,900	-0,241	-0,116
104,816	67,846	-0,350	-0,250
105,830	-97,533	-0,300	-0,054
106,845	785,512	-0,103	-0,199
107,860	-114,493	-0,250	-0,033
108,874	297,510	-0,282	-0,363
109,889	169,340	-0,251	-0,251
110,903	7,839	-0,337	-0,177
111,918	7,585	-0,284	-0,148
112,933	225,272	-0,115	-0,131
113,947	-19,399	-0,149	-0,064
114,962	-8,560	-0,168	-0,079
115,976	30,001	-0,287	-0,171
116,991	335,421	-0,211	-0,287
118,006	-18,725	-0,285	-0,124
119,020	591,197	-0,150	-0,261
120,035	-32,860	-0,276	-0,107
121,049	56,973	-0,116	-0,079
122,064	220,309	-0,200	-0,224
123,079	0,818	-0,337	-0,168
124,093	6,242	-0,241	-0,125
125,108	132,263	-0,259	-0,233
126,122	167,184	-0,198	-0,197
127,137	-96,418	-0,223	-0,041
128,151	-6,871	-0,108	-0,051
129,166	-31,374	-0,246	-0,096
130,181	58,674	-0,197	-0,135
131,195	381,029	-0,171	-0,246
132,210	185,995	-0,159	-0,165
133,224	74,162	-0,333	-0,245
134,239	79,487	-0,364	-0,273
135,254	-56,293	-0,319	-0,099
136,268	-2,563	-0,258	-0,126
137,283	30,761	-0,284	-0,170
138,297	50,561	-0,265	-0,175
139,312	107,749	-0,301	-0,250
140,327	534,915	-0,175	-0,291
141,341	-200,000	-0,093	0,000
142,356	14,154	-0,246	-0,134
143,370	68,885	-0,212	-0,152
144,385	122,506	-0,175	-0,153
145,400	58,016	-0,304	-0,208
146,414	155,817	-0,367	-0,353
147,429	-98,696	-0,301	-0,053
148,443	-54,096	-0,179	-0,057
149,458	74,456	-0,283	-0,208
150,473	-38,435	-0,237	-0,087
151,487	523,391	-0,190	-0,313
152,502	-46,400	-0,280	-0,095
153,516	-52,505	-0,205	-0,066
154,531	512,088	-0,170	-0,277
155,546	56,206	-0,213	-0,145
156,560	99,665	-0,224	-0,181
157,575	-135,188	-0,147	0,012
158,589	-19,988	-0,182	-0,078
159,604	-55,130	-0,287	-0,090
160,619	168,137	-0,264	-0,262
161,633	151,746	-0,242	-0,231
162,648	68,119	-0,306	-0,218
163,662	245,512	-0,167	-0,196
164,677	60,323	-0,232	-0,160
165,692	-65,994	-0,184	-0,051
166,706	-42,160	-0,196	-0,069
167,721	-73,234	-0,309	-0,078
168,735	113,486	-0,238	-0,201
169,750	9,026	-0,191	-0,100
170,764	-36,864	-0,246	-0,091
171,779	125,762	-0,117	-0,103
172,794	10,881	-0,329	-0,174
173,808	161,389	-0,171	-0,166
174,823	261,958	-0,162	-0,196
175,837	-70,055	-0,254	-0,067
176,852	-16,032	-0,253	-0,112
177,867	402,736	-0,135	-0,198
178,881	304,863	-0,088	-0,114
179,896	382,696	-0,203	-0,292
180,910	94,056	-0,181	-0,143
181,925	11,777	-0,187	-0,100
182,940	128,288	-0,224	-0,198
183,954	104,277	-0,282	-0,231
184,969	-55,589	-0,256	-0,079
185,983	327,975	-0,158	-0,212
186,998	109,966	-0,168	-0,140
188,013	280,613	-0,118	-0,147
189,027	100,273	-0,319	-0,258
190,042	135,397	-0,217	-0,196
191,056	91,113	-0,295	-0,230
192,071	223,562	-0,131	-0,147
193,086	140,881	-0,190	-0,175
194,100	33,651	-0,115	-0,069
195,115	208,542	-0,132	-0,144
196,129	198,528	-0,230	-0,245
197,144	714,384	-0,111	-0,205
198,159	378,813	-0,170	-0,243
199,173	-13,386	-0,319	-0,143
200,188	50,708	-0,282	-0,185
201,202	-88,028	-0,144	-0,030
202,217	-188,236	-0,204	-0,002
203,232	29,220	-0,199	-0,117
204,246	299,880	-0,188	-0,242
205,261	161,366	-0,136	-0,133
206,275	221,559	-0,133	-0,149
207,290	131,844	-0,103	-0,092
208,304	119,263	-0,135	-0,116
209,319	191,625	-0,103	-0,108
210,334	35,493	-0,193	-0,118
211,348	43,357	-0,211	-0,133
212,363	-116,511	-0,274	-0,035
213,377	235,129	-0,117	-0,134
214,392	450,402	-0,123	-0,189
215,407	-4,920	-0,184	-0,088
216,421	-97,164	-0,063	-0,011
217,436	460,995	-0,095	-0,147
218,450	348,667	-0,203	-0,279
219,465	-132,868	-0,241	-0,021
220,480	-200,000	-0,033	-0,126
221,494	248,392	-0,101	-0,119
222,509	-91,362	-0,213	0,042
223,523	65,277	-0,161	-0,113
224,538	-2,727	-0,200	-0,097
225,553	116,922	-0,244	-0,208
226,567	720,922	-0,111	-0,206
227,582	66,691	-0,169	-0,119
228,596	800,000	-0,079	-0,241
229,611	446,013	-0,111	-0,169
230,626	147,442	-0,135	-0,126
231,640	4,191	-0,265	-0,134
232,655	116,517	-0,173	-0,147
233,669	590,518	-0,201	-0,345
234,684	189,313	-0,133	-0,138
235,699	-36,803	-0,228	-0,084
236,713	-130,397	-0,300	-0,028
237,728	4,854	-0,255	-0,129
238,742	310,965	-0,150	-0,195
239,757	15,286	-0,223	-0,121
240,772	-159,044	-0,215	0,008
241,786	206,334	-0,185	-0,199
242,801	302,406	-0,137	-0,176
243,815	209,932	-0,122	-0,133
244,830	-24,950	-0,203	-0,083
245,844	182,093	-0,070	-0,072
246,859	37,832	-0,203	-0,125
247,874	-77,277	-0,259	-0,062
248,888	-54,724	-0,211	-0,066
249,903	-177,225	-0,250	-0,004
250,917	800,000	-0,065	-0,199
251,932	-64,932	-0,122	-0,034
252,947	350,994	-0,130	-0,179
253,961	-18,604	-0,172	-0,074
254,976	124,760	-0,206	-0,179
255,990	24,067	-0,205	-0,117
257,005	-52,779	-0,225	-0,071
258,020	61,363	-0,204	-0,140
259,034	215,917	-0,105	-0,115
260,049	-1,093	-0,148	0,072
261,063	-162,690	-0,220	0,007
262,078	-96,633	-0,277	-0,050
263,093	21,666	-0,218	-0,122
264,107	107,975	-0,257	-0,212
265,122	-143,210	-0,299	-0,020
266,136	-81,284	-0,201	0,045
267,151	-200,000	0,017	-0,084
268,166	134,937	-0,188	-0,169
269,180	65,815	-0,275	-0,193
270,195	147,067	-0,105	-0,098
271,209	147,052	-0,073	-0,068
272,224	189,362	-0,103	-0,107
273,239	16,791	-0,126	-0,069
274,253	74,429	-0,090	-0,065
275,268	-22,993	-0,182	-0,076
276,282	59,074	-0,259	-0,176
277,297	19,193	-0,259	-0,143
278,312	-35,398	-0,225	-0,084
279,326	487,386	-0,085	-0,135
280,341	117,634	-0,173	-0,147
281,355	337,058	-0,097	-0,130
282,370	-97,957	-0,124	-0,022
283,384	115,585	-0,214	-0,180
284,399	-120,250	-0,256	0,030
285,414	-39,247	-0,099	-0,036
286,428	36,112	-0,160	-0,097
287,443	44,220	-0,156	-0,098
288,457	-75,384	-0,262	-0,064
289,472	800,000	-0,128	-0,277
290,487	71,058	-0,204	-0,146
291,501	117,100	-0,145	-0,123
292,516	4,831	-0,184	-0,093
293,530	800,000	-0,062	-0,166
294,545	-31,732	-0,188	-0,072
295,560	345,849	-0,103	-0,140
296,574	24,764	-0,112	-0,064
297,589	71,391	-0,235	-0,168
298,603	297,030	-0,207	-0,263
299,618	232,915	-0,180	-0,204
300,633	163,361	-0,098	-0,095
301,647	378,486	0,061	-0,086
302,662	-164,123	-0,193	-0,006
303,676	-95,788	-0,061	-0,011
304,691	44,639	-0,123	-0,078
305,706	-104,622	-0,062	0,010
306,720	800,000	-0,118	-0,278
307,735	-101,039	-0,200	-0,033
308,749	-200,000	-0,013	-0,073
309,764	-15,337	-0,121	-0,053
310,779	-68,654	-0,157	-0,042
311,793	557,054	-0,069	-0,115
312,808	-110,884	-0,194	-0,027
313,822	302,786	-0,098	-0,125
314,837	115,141	-0,187	-0,157
315,852	-81,685	-0,155	-0,035
316,866	268,373	-0,179	-0,216
317,881	178,468	-0,070	-0,071
318,895	104,900	-0,166	-0,134
319,910	-114,344	-0,149	-0,020
320,925	-134,462	-0,260	-0,022
321,939	800,000	0,019	-0,055
322,954	100,279	-0,165	-0,131
323,968	-68,970	-0,176	0,046
324,983	-200,000	-0,041	-0,171
325,997	33,757	-0,215	-0,128
327,012	331,549	-0,093	-0,124
328,027	69,076	-0,204	-0,144
329,041	19,349	-0,121	-0,067
330,056	6,784	-0,187	-0,095
331,070	146,078	-0,077	-0,071
332,085	197,362	-0,151	-0,159
333,100	88,087	-0,133	-0,102
334,114	94,070	-0,195	-0,152
335,129	-14,008	-0,183	-0,081
336,143	800,000	-0,044	-0,107
337,158	104,676	-0,097	-0,078
338,173	-1,276	-0,029	-0,014
339,187	-149,243	-0,164	-0,009
340,202	-74,446	-0,164	-0,040
341,216	47,233	-0,096	-0,061
342,231	-72,496	-0,154	-0,039
343,246	6,870	-0,174	-0,089
344,260	-200,000	0,026	-0,124
345,275	-40,582	-0,157	-0,055
346,289	-43,900	-0,078	0,027
347,304	-124,533	-0,168	-0,018
348,319	800,000	-0,156	-0,370
349,333	607,796	-0,117	-0,201
350,348	800,000	-0,033	-0,066
351,362	-119,222	-0,065	0,008
352,377	566,967	-0,038	-0,064
353,392	18,208	-0,135	0,074
354,406	570,384	-0,049	-0,082
355,421	209,233	1315,218	1414,897
356,435	161,022	1476,007	1415,375
