DTS Sentinel unit serial number:	SN410029Multiplexer serial number:	ORYXHardware model number:	OX2-SRSoftware version number:	ORYX F/W v4,00 Oryx Data Collector v3.7.2.0data status	okinstallation	B3 Nyhavnadifferential loss correction	single-endedforward channel	channel 1reverse channel	N/Adate	2023/12/03time	05:57:30forward acquisition time	300,00reverse acquisition time	0,00gamma	499,1914k internal	0,3201k external	0,3201temperature offset calibration	1,0000default loss term (dB/km)	0,3820temperature slope calibration	1,0000multiplexer offset coefficient	1,0000multiplexer slope coefficient	1,0000fibre end	0,00T internal ref (°C)	13,30T ext. ref 1 (°C)	-1,70T ext. ref 2 (°C)	-1,70length (m)	temperature (°C)	Stokes	anti-Stokes-744,400	104,356	-0,222	-0,190
-743,385	-200,000	0,041	0,213
-742,371	182,019	-0,125	-0,134
-741,356	-200,000	0,072	0,273
-740,342	129,772	-0,204	-0,190
-739,327	-200,000	0,123	0,394
-738,312	184,389	-0,168	-0,181
-737,298	361,756	0,130	0,190
-736,283	168,454	-0,268	-0,277
-735,269	-200,000	-0,023	0,218
-734,254	528,247	-0,172	-0,297
-733,239	-52,605	-0,133	0,045
-732,225	800,000	-0,121	-0,261
-731,210	800,000	0,057	0,165
-730,196	-200,000	0,011	0,101
-729,181	199,659	0,012	0,014
-728,167	-10,270	0,047	0,022
-727,152	-70,653	0,082	-0,022
-726,137	-142,613	-0,074	0,005
-725,123	601,915	-0,096	0,174
-724,108	110,915	0,028	-0,024
-723,094	-200,000	-0,000	0,061
-722,079	-200,000	-0,017	-0,127
-721,064	53,537	-0,038	0,027
-720,050	27,839	0,048	-0,029
-719,035	-200,000	-0,001	0,082
-718,021	591,082	-0,006	0,010
-717,006	104,126	-0,116	-0,099
-715,991	-200,000	-0,009	-0,177
-714,977	91,522	-0,053	-0,043
-713,962	199,799	-0,077	0,086
-712,948	139,991	0,074	0,071
-711,933	101,437	-0,029	-0,024
-710,918	-200,000	0,014	0,054
-709,904	-3,298	-0,034	-0,017
-708,889	-9,354	-0,122	-0,059
-707,875	438,049	-0,075	-0,119
-706,860	800,000	0,038	0,077
-705,845	168,384	-0,117	0,121
-704,831	-63,794	-0,149	-0,044
-703,816	-87,565	-0,071	0,015
-702,802	253,973	-0,073	-0,090
-701,787	-200,000	0,004	-0,166
-700,772	800,000	-0,028	-0,089
-699,758	373,218	0,017	0,025
-698,743	540,771	-0,045	0,078
-697,729	800,000	0,057	-0,146
-696,714	294,610	0,127	0,169
-695,699	800,000	0,045	0,091
-694,685	-118,213	-0,063	0,008
-693,670	-200,000	0,007	-0,187
-692,656	2,814	-0,057	-0,030
-691,641	137,271	0,148	0,141
-690,627	-57,564	0,059	-0,019
-689,612	-25,589	0,081	0,034
-688,597	-200,000	-0,002	-0,120
-687,583	109,438	-0,159	-0,138
-686,568	285,792	0,028	-0,037
-685,554	-67,937	0,029	-0,008
-684,539	-200,000	-0,015	-0,060
-683,524	-19,653	-0,088	-0,039
-682,510	-111,692	0,081	-0,012
-681,495	-200,000	-0,020	0,074
-680,481	-52,243	-0,018	-0,006
-679,466	-121,887	-0,165	-0,020
-678,451	-200,000	-0,025	-0,139
-677,437	-79,219	-0,150	-0,037
-676,422	800,000	-0,040	-0,113
-675,408	260,651	-0,063	0,079
-674,393	-168,312	0,051	-0,001
-673,378	209,621	0,024	0,028
-672,364	-168,953	-0,077	0,002
-671,349	-200,000	0,011	-0,060
-670,335	192,485	0,014	-0,015
-669,320	-200,000	0,010	-0,088
-668,305	800,000	-0,042	-0,116
-667,291	800,000	-0,053	0,166
-666,276	-200,000	0,002	0,017
-665,262	10,030	-0,092	-0,050
-664,247	-19,889	-0,086	0,038
-663,232	36,897	-0,058	0,037
-662,218	-141,199	0,099	0,007
-661,203	800,000	0,002	0,008
-660,189	393,414	-0,060	0,090
-659,174	69,961	0,016	-0,012
-658,159	738,021	-0,067	-0,131
-657,145	-96,603	-0,153	-0,029
-656,130	800,000	0,030	-0,075
-655,116	800,000	0,038	0,117
-654,101	-200,000	0,013	0,085
-653,086	-4,937	-0,050	-0,025
-652,072	-80,607	-0,217	0,052
-651,057	-20,343	0,071	-0,032
-650,043	-53,851	-0,090	0,030
-649,028	-87,793	-0,080	-0,017
-648,014	-5,241	-0,082	-0,041
-646,999	800,000	0,043	-0,115
-645,984	9,130	-0,048	0,026
-644,970	129,550	-0,105	0,097
-643,955	340,667	-0,146	-0,207
-642,941	406,954	0,037	-0,058
-641,926	-200,000	0,005	0,112
-640,911	46,309	0,052	0,035
-639,897	-200,000	-0,010	-0,126
-638,882	49,977	-0,077	0,053
-637,868	-200,000	-0,000	-0,030
-636,853	127,465	-0,151	-0,139
-635,838	522,476	0,036	-0,061
-634,824	15,334	0,056	0,032
-633,809	23,749	-0,030	0,018
-632,795	800,000	0,035	0,085
-631,780	326,544	-0,090	0,125
-630,765	-22,417	-0,071	-0,031
-629,751	-118,120	0,038	0,005
-628,736	800,000	-0,025	0,073
-627,722	260,605	-0,088	0,111
-626,707	-166,906	0,118	-0,003
-625,692	-167,282	-0,185	-0,005
-624,678	166,757	0,078	0,081
-623,663	-18,708	-0,105	-0,047
-622,649	121,141	0,084	-0,076
-621,634	-101,877	0,054	-0,009
-620,619	800,000	-0,082	-0,182
-619,605	-200,000	-0,001	-0,054
-618,590	757,997	-0,035	-0,070
-617,576	-55,290	0,122	0,040
-616,561	800,000	0,016	0,045
-615,546	800,000	-0,045	-0,117
-614,532	-43,901	-0,021	0,007
-613,517	175,551	-0,051	-0,053
-612,503	1,955	0,041	-0,021
-611,488	8,326	0,173	0,094
-610,474	85,868	-0,108	0,086
-609,459	781,310	-0,070	0,140
-608,444	-33,255	-0,089	0,035
-607,430	800,000	-0,027	-0,063
-606,415	338,703	0,023	0,032
-605,401	-75,328	-0,039	0,010
-604,386	-25,142	0,103	-0,044
-603,371	147,515	0,098	-0,095
-602,357	-60,130	-0,013	-0,004
-601,342	-182,704	0,043	0,001
-600,328	-200,000	0,005	-0,044
-599,313	35,856	-0,044	-0,028
-598,298	-62,058	0,078	-0,024
-597,284	-55,707	-0,029	-0,009
-596,269	-200,000	0,001	0,150
-595,255	-82,585	-0,119	0,028
-594,240	-9,482	-0,051	-0,025
-593,225	800,000	0,015	0,035
-592,211	-157,250	0,159	0,007
-591,196	-200,000	0,009	-0,069
-590,182	270,229	0,034	0,044
-589,167	-200,000	0,014	0,089
-588,152	58,046	-0,122	0,086
-587,138	-23,468	-0,074	-0,032
-586,123	-200,000	-0,026	-0,156
-585,109	749,113	-0,098	-0,192
-584,094	800,000	0,020	-0,057
-583,079	250,668	-0,055	0,067
-582,065	-200,000	-0,008	0,037
-581,050	-165,029	-0,052	0,002
-580,036	160,907	0,053	0,054
-579,021	263,223	0,043	0,054
-578,006	124,442	-0,066	0,060
-576,992	-200,000	-0,009	-0,126
-575,977	796,226	-0,063	0,127
-574,963	121,205	0,084	0,075
-573,948	-50,718	0,026	-0,009
-572,934	-64,183	0,114	0,033
-571,919	800,000	0,031	-0,090
-570,904	56,567	-0,060	-0,042
-569,890	-92,987	-0,095	0,019
-568,875	800,000	0,002	-0,005
-567,861	565,570	0,043	0,076
-566,846	-200,000	0,027	0,110
-565,831	-200,000	0,001	-0,042
-564,817	800,000	-0,028	0,068
-563,802	403,253	-0,070	-0,107
-562,788	182,714	-0,066	0,070
-561,773	465,749	0,054	-0,088
-560,758	-200,000	0,017	0,077
-559,744	-200,000	0,004	0,140
-558,729	800,000	0,053	-0,147
-557,715	24,155	-0,015	-0,009
-556,700	-200,000	0,003	-0,090
-555,685	13,738	-0,063	-0,035
-554,671	95,911	0,109	0,090
-553,656	329,770	0,089	0,124
-552,642	800,000	0,010	0,025
-551,627	15,868	0,069	-0,039
-550,612	-143,287	-0,112	0,008
-549,598	301,589	0,069	-0,092
-548,583	-154,268	-0,113	0,005
-547,569	-121,208	-0,037	0,004
-546,554	-16,687	0,132	0,060
-545,539	103,676	-0,117	0,099
-544,525	800,000	0,020	-0,044
-543,510	-124,028	0,078	0,009
-542,496	-15,097	-0,177	-0,081
-541,481	224,128	-0,104	-0,122
-540,466	410,717	0,090	0,138
-539,452	15,535	-0,090	0,051
-538,437	643,566	0,067	0,124
-537,423	-200,000	-0,006	0,183
-536,408	147,292	-0,097	-0,094
-535,393	683,179	0,041	-0,078
-534,379	-10,541	-0,136	-0,065
-533,364	-34,878	-0,120	-0,047
-532,350	-200,000	0,029	-0,176
-531,335	-161,645	0,054	0,002
-530,321	446,455	0,096	-0,152
-529,306	103,415	-0,088	-0,074
-528,291	800,000	-0,046	-0,113
-527,277	-53,744	-0,229	0,075
-526,262	215,237	0,116	0,133
-525,248	-200,000	-0,005	-0,016
-524,233	756,320	0,064	0,125
-523,218	800,000	0,034	0,091
-522,204	-70,996	-0,041	-0,011
-521,189	329,667	-0,039	-0,054
-520,175	406,439	0,055	-0,085
-519,160	-200,000	-0,010	-0,125
-518,145	101,941	-0,105	0,088
-517,131	107,777	-0,015	0,013
-516,116	-200,000	0,110	0,000
-515,102	-9,841	-0,046	0,022
-514,087	-147,344	-0,086	0,005
-513,072	388,547	-0,026	0,039
-512,058	66,795	-0,130	-0,095
-511,043	-33,242	0,030	-0,012
-510,029	-200,000	0,036	0,142
-509,014	-200,000	0,031	0,178
-507,999	800,000	-0,048	0,127
-506,985	299,041	-0,033	-0,044
-505,970	-41,838	-0,081	-0,030
-504,956	-200,000	0,001	-0,018
-503,941	-200,000	0,023	0,077
-502,926	87,285	0,081	0,064
-501,912	-200,000	0,011	0,130
-500,897	-56,254	0,108	0,034
-499,883	98,820	0,121	0,100
-498,868	-76,747	-0,152	-0,038
-497,853	-200,000	0,001	0,025
-496,839	800,000	0,012	-0,036
-495,824	-35,991	0,112	-0,044
-494,810	-98,627	0,094	0,017
-493,795	-146,823	-0,065	-0,004
-492,781	43,242	-0,051	-0,033
-491,766	274,778	-0,038	-0,048
-490,751	-200,000	-0,010	-0,084
-489,737	800,000	0,028	-0,060
-488,722	279,144	-0,041	0,053
-487,708	-63,725	-0,074	0,022
-486,693	151,016	-0,096	0,094
-485,678	440,536	0,042	-0,066
-484,664	-200,000	-0,021	-0,126
-483,649	470,593	-0,045	0,073
-482,635	-89,763	0,073	-0,015
-481,620	-50,806	0,081	0,027
-480,605	35,663	-0,121	-0,077
-479,591	157,765	0,033	0,033
-478,576	-79,149	0,016	0,004
-477,562	118,582	0,113	0,101
-476,547	-200,000	-0,058	0,212
-475,532	84,356	0,063	-0,049
-474,518	132,531	0,025	0,024
-473,503	800,000	-0,021	0,066
-472,489	210,262	-0,159	-0,179
-471,474	-37,064	0,023	-0,009
-470,459	-200,000	-0,008	-0,057
-469,445	-200,000	0,028	-0,176
-468,430	-200,000	0,006	-0,072
-467,416	800,000	-0,037	0,084
-466,401	-93,604	0,082	0,016
-465,386	-34,871	-0,124	-0,048
-464,372	800,000	0,051	0,123
-463,357	22,843	-0,104	-0,061
-462,343	800,000	0,052	-0,147
-461,328	17,591	-0,076	-0,043
-460,313	44,121	-0,081	-0,053
-459,299	-160,243	-0,085	0,003
-458,284	-129,430	0,096	-0,009
-457,270	390,301	-0,093	-0,139
-456,255	118,900	0,050	0,045
-455,241	-200,000	0,011	-0,048
-454,226	-70,336	-0,100	-0,027
-453,211	-200,000	0,008	-0,138
-452,197	800,000	0,028	0,072
-451,182	-200,000	-0,024	-0,160
-450,168	-77,461	-0,062	0,015
-449,153	218,199	0,066	0,076
-448,138	369,348	-0,035	-0,051
-447,124	-114,861	0,152	0,021
-446,109	800,000	0,020	-0,048
-445,095	800,000	-0,009	-0,024
-444,080	-200,000	-0,009	0,053
-443,065	-200,000	-0,035	-0,157
-442,051	228,597	0,049	0,057
-441,036	122,638	-0,063	0,057
-440,022	243,137	-0,104	-0,125
-439,007	279,848	0,066	0,085
-437,992	29,685	-0,152	-0,093
-436,978	140,554	-0,084	-0,080
-435,963	171,052	-0,031	-0,032
-434,949	-200,000	0,004	0,034
-433,934	211,213	0,036	0,041
-432,919	-87,690	-0,142	-0,030
-431,905	-21,436	0,048	0,021
-430,890	-114,367	-0,116	-0,016
-429,876	800,000	0,034	-0,070
-428,861	192,298	-0,036	-0,039
-427,846	126,481	-0,038	-0,035
-426,832	-39,726	-0,154	0,058
-425,817	-108,244	0,050	-0,008
-424,803	-200,000	-0,006	-0,042
-423,788	800,000	0,031	0,065
-422,773	203,253	-0,070	-0,078
-421,759	-100,494	0,125	0,022
-420,744	73,429	0,120	-0,091
-419,730	-200,000	-0,013	0,051
-418,715	-200,000	0,011	-0,088
-417,701	-21,623	0,101	0,044
-416,686	800,000	-0,030	0,090
-415,671	21,906	-0,046	0,027
-414,657	633,208	0,044	-0,081
-413,642	-116,059	-0,197	0,026
-412,628	-112,474	-0,015	0,002
-411,613	800,000	0,018	-0,046
-410,598	-90,446	-0,081	-0,017
-409,584	129,232	0,113	-0,104
-408,569	268,654	-0,023	0,029
-407,555	-200,000	-0,024	0,224
-406,540	167,735	0,072	0,074
-405,525	800,000	0,024	-0,071
-404,511	-200,000	0,036	-0,248
-403,496	-200,000	0,015	-0,143
-402,482	123,181	0,098	-0,088
-401,467	-78,659	-0,039	-0,009
-400,452	172,443	-0,073	0,076
-399,438	800,000	-0,058	0,123
-398,423	58,622	0,096	-0,067
-397,409	201,918	0,043	-0,048
-396,394	-148,425	0,039	0,002
-395,379	44,218	0,120	0,079
-394,365	62,522	0,082	0,058
-393,350	-200,000	0,013	0,077
-392,336	800,000	-0,032	0,090
-391,321	800,000	-0,074	0,159
-390,306	-200,000	0,000	-0,161
-389,292	365,859	-0,064	-0,093
-388,277	222,745	-0,103	0,119
-387,263	74,088	0,132	0,099
-386,248	-176,953	0,055	0,001
-385,233	800,000	-0,038	0,113
-384,219	398,137	-0,092	0,139
-383,204	800,000	0,035	-0,083
-382,190	53,569	0,040	0,028
-381,175	800,000	0,021	-0,045
-380,160	389,288	-0,066	0,098
-379,146	-137,138	0,049	-0,004
-378,131	800,000	0,037	-0,112
-377,117	-200,000	0,015	-0,187
-376,102	-30,643	-0,090	-0,036
-375,088	800,000	0,037	-0,083
-374,073	368,368	-0,079	-0,115
-373,058	-81,993	-0,157	-0,037
-372,044	385,211	0,098	-0,145
-371,029	-200,000	-0,036	0,164
-370,015	-200,000	0,021	0,114
-369,000	753,357	-0,048	-0,094
-367,985	-200,000	-0,003	0,077
-366,971	800,000	-0,078	-0,158
-365,956	-118,356	0,095	0,012
-364,942	17,549	0,091	0,052
-363,927	101,471	0,121	-0,101
-362,912	-52,885	0,079	-0,026
-361,898	-21,696	-0,143	0,062
-360,883	621,980	-0,037	0,066
-359,869	-140,783	0,135	-0,010
-358,854	13,340	0,086	0,048
-357,839	-187,252	-0,091	-0,001
-356,825	-200,000	-0,023	0,101
-355,810	403,528	-0,030	-0,045
-354,796	149,585	0,057	-0,055
-353,781	221,195	-0,036	0,041
-352,766	-76,751	0,044	-0,011
-351,752	-40,186	0,074	0,027
-350,737	800,000	-0,035	0,096
-349,723	-200,000	0,021	0,180
-348,708	22,273	-0,080	-0,047
-347,693	800,000	0,078	0,178
-346,679	800,000	0,013	-0,038
-345,664	-59,398	-0,039	-0,012
-344,650	436,416	-0,061	0,096
-343,635	-74,737	0,033	0,008
-342,620	0,238	0,119	0,060
-341,606	68,454	-0,045	0,033
-340,591	312,749	-0,081	-0,109
-339,577	-120,589	0,067	0,008
-338,562	238,133	-0,087	-0,103
-337,548	800,000	0,032	0,069
-336,533	-78,093	0,117	-0,028
-335,518	-112,135	-0,058	0,008
-334,504	496,180	-0,073	-0,120
-333,489	800,000	-0,039	0,094
-332,475	-100,233	0,034	-0,006
-331,460	542,354	-0,043	0,073
-330,445	35,765	-0,053	0,033
-329,431	-200,000	0,019	0,065
-328,416	6,063	0,033	-0,018
-327,402	-200,000	-0,002	0,029
-326,387	-200,000	0,030	0,256
-325,372	-121,950	0,123	-0,014
-324,358	-77,916	-0,179	0,044
-323,343	768,888	0,023	-0,046
-322,329	400,503	-0,043	0,064
-321,314	242,803	0,113	0,135
-320,299	32,516	-0,055	0,034
-319,285	337,261	-0,048	0,068
-318,270	228,453	-0,047	0,054
-317,256	219,318	0,091	-0,104
-316,241	-200,000	-0,000	0,031
-315,226	-200,000	-0,009	0,110
-314,212	-162,977	0,104	-0,004
-313,197	-200,000	0,012	-0,066
-312,183	20,005	-0,070	0,040
-311,168	800,000	-0,061	-0,122
-310,153	-200,000	-0,006	-0,085
-309,139	-100,583	-0,052	0,009
-308,124	-200,000	-0,004	0,022
-307,110	-90,593	0,147	-0,030
-306,095	-200,000	0,013	-0,077
-305,080	13,037	0,068	0,038
-304,066	657,281	0,086	-0,160
-303,051	800,000	-0,053	-0,107
-302,037	-200,000	-0,019	-0,121
-301,022	-20,869	0,120	-0,052
-300,008	151,931	-0,047	0,046
-298,993	-57,663	0,049	-0,015
-297,978	-94,971	0,173	0,033
-296,964	319,617	-0,037	-0,050
-295,949	187,972	0,045	-0,048
-294,935	-30,948	-0,099	-0,040
-293,920	-134,586	0,175	0,015
-292,905	-114,537	0,069	0,009
-291,891	-200,000	-0,001	0,049
-290,876	-200,000	0,000	0,045
-289,862	6,998	-0,121	0,064
-288,847	-200,000	0,005	0,040
-287,832	-200,000	0,037	-0,150
-286,818	800,000	0,035	0,089
-285,803	-103,404	-0,040	0,007
-284,789	116,442	-0,065	0,057
-283,774	-200,000	0,004	0,033
-282,759	-144,327	0,053	0,003
-281,745	-131,103	-0,110	-0,010
-280,730	711,531	-0,047	-0,089
-279,716	591,150	0,042	-0,074
-278,701	22,667	-0,064	-0,037
-277,686	463,876	0,073	0,116
-276,672	-117,514	0,047	-0,006
-275,657	-94,789	-0,038	0,007
-274,643	312,854	-0,067	0,090
-273,628	-109,190	-0,138	-0,021
-272,613	390,275	0,068	-0,101
-271,599	-139,018	-0,100	-0,008
-270,584	213,520	-0,009	0,010
-269,570	-83,882	0,073	0,017
-268,555	427,004	-0,081	-0,125
-267,540	-25,245	-0,022	0,009
-266,526	-200,000	-0,090	-0,000
-265,511	-106,452	0,069	0,011
-264,497	-200,000	-0,014	0,147
-263,482	473,007	0,079	0,127
-262,467	-200,000	-0,045	0,161
-261,453	800,000	0,024	0,050
-260,438	173,955	0,055	-0,057
-259,424	101,767	0,095	-0,079
-258,409	-200,000	0,006	-0,054
-257,395	-127,547	0,183	0,019
-256,380	800,000	0,015	0,030
-255,365	-78,418	0,094	0,023
-254,351	-62,779	0,059	-0,017
-253,336	800,000	0,018	-0,045
-252,322	-60,766	0,087	0,026
-251,307	-66,161	-0,170	-0,048
-250,292	694,658	0,020	-0,038
-249,278	188,460	0,035	0,037
-248,263	-200,000	-0,002	0,038
-247,249	188,012	0,149	0,158
-246,234	43,607	-0,079	0,051
-245,219	110,875	-0,089	-0,077
-244,205	-178,971	-0,117	0,002
-243,190	14,450	0,014	-0,008
-242,176	122,495	0,065	-0,058
-241,161	-200,000	-0,013	0,050
-240,146	-151,455	0,131	-0,007
-239,132	78,760	0,056	0,043
-238,117	200,084	0,058	0,063
-237,103	-142,746	-0,031	-0,002
-236,088	33,098	-0,070	0,043
-235,073	699,484	0,032	-0,060
-234,059	-23,747	0,045	-0,019
-233,044	-200,000	0,060	0,210
-232,030	-78,083	0,082	0,020
-231,015	53,682	-0,103	-0,070
-230,000	-200,000	-0,007	-0,066
-228,986	-109,142	0,043	-0,006
-227,971	-20,209	0,073	-0,032
-226,957	800,000	0,029	0,074
-225,942	800,000	0,046	0,095
-224,927	-200,000	0,035	0,135
-223,913	369,306	-0,037	-0,053
-222,898	56,662	-0,110	-0,076
-221,884	497,167	-0,060	0,098
-220,869	302,692	0,054	-0,072
-219,855	800,000	0,024	0,068
-218,840	526,066	0,009	-0,015
-217,825	758,972	0,049	-0,095
-216,811	-144,208	-0,074	0,005
-215,796	-25,207	-0,033	-0,014
-214,782	-11,379	0,137	-0,064
-213,767	183,932	-0,060	0,063
-212,752	-200,000	0,011	0,066
-211,738	-9,322	0,083	0,039
-210,723	768,099	0,046	-0,089
-209,709	-0,269	-0,107	-0,054
-208,694	-78,783	-0,035	0,008
-207,679	-200,000	0,020	0,094
-206,665	-200,000	0,002	-0,183
-205,650	-104,152	-0,086	0,014
-204,636	445,580	0,038	-0,060
-203,621	-200,000	0,012	0,070
-202,606	-200,000	0,008	-0,067
-201,592	800,000	-0,070	-0,161
-200,577	800,000	-0,036	-0,083
-199,563	385,763	0,008	-0,013
-198,548	153,698	-0,046	-0,045
-197,533	80,625	0,088	0,067
-196,519	128,785	-0,071	0,065
-195,504	800,000	0,025	0,078
-194,490	-199,424	0,094	0,000
-193,475	-113,927	-0,145	-0,020
-192,460	95,813	0,114	0,093
-191,446	193,353	0,024	-0,026
-190,431	-136,768	0,093	-0,008
-189,417	800,000	0,052	-0,121
-188,402	-159,136	-0,109	-0,004
-187,387	-38,764	-0,094	-0,035
-186,373	-70,490	-0,111	0,030
-185,358	360,740	0,045	-0,065
-184,344	253,614	0,070	-0,085
-183,329	134,751	0,110	0,102
-182,315	-200,000	0,011	-0,078
-181,300	-200,000	0,005	-0,064
-180,285	-200,000	0,023	0,080
-179,271	-98,460	0,165	-0,030
-178,256	-27,600	0,128	-0,053
-177,242	3,071	0,176	0,091
-176,227	709,291	0,038	0,072
-175,212	-30,304	0,046	-0,018
-174,198	-34,465	0,060	0,023
-173,183	306,043	0,039	0,052
-172,169	702,243	-0,086	-0,163
-171,154	-4,192	-0,126	-0,062
-170,139	-37,962	0,093	-0,035
-169,125	132,484	0,065	-0,060
-168,110	411,600	-0,083	0,125
-167,096	58,889	0,157	-0,110
-166,081	217,473	0,009	-0,010
-165,066	-19,281	0,077	0,034
-164,052	38,759	-0,074	-0,047
-163,037	-200,000	0,027	0,086
-162,023	800,000	0,070	0,193
-161,008	-200,000	0,012	0,097
-159,993	-40,855	0,071	-0,026
-158,979	-23,412	-0,115	0,049
-157,964	-190,520	0,031	0,000
-156,950	8,194	0,064	-0,034
-155,935	800,000	-0,022	0,060
-154,920	-55,414	0,039	0,012
-153,906	62,878	0,084	-0,060
-152,891	-200,000	0,010	0,050
-151,877	800,000	0,013	-0,031
-150,862	56,083	-0,080	0,055
-149,847	35,235	0,043	-0,027
-148,833	-200,000	0,007	-0,062
-147,818	800,000	0,087	0,177
-146,804	130,626	-0,060	-0,055
-145,789	798,681	0,098	0,192
-144,775	74,482	-0,063	0,047
-143,760	-200,000	0,037	-0,169
-142,745	-42,125	0,119	-0,043
-141,731	-43,731	0,120	-0,043
-140,716	217,538	-0,104	0,118
-139,702	-200,000	0,006	0,090
-138,687	291,050	-0,064	0,083
-137,672	-14,443	-0,009	0,004
-136,658	155,192	-0,099	-0,097
-135,643	-39,447	-0,106	-0,039
-134,629	177,468	0,076	-0,079
-133,614	329,930	0,122	0,167
-132,599	281,865	-0,069	-0,088
-131,585	531,955	0,054	0,092
-130,570	-129,584	0,084	-0,008
-129,556	68,372	-0,107	-0,078
-128,541	800,000	0,039	0,082
-127,526	-200,000	0,009	-0,028
-126,512	-61,155	0,179	0,053
-125,497	192,563	0,080	0,086
-124,483	310,574	-0,081	0,108
-123,468	44,741	0,050	-0,033
-122,453	-200,000	0,005	-0,046
-121,439	198,891	0,100	0,109
-120,424	489,913	0,056	-0,092
-119,410	-69,528	0,118	0,032
-118,395	236,549	-0,053	0,062
-117,380	-200,000	-0,027	0,146
-116,366	800,000	0,066	0,189
-115,351	-58,075	-0,111	0,034
-114,337	526,285	0,017	-0,029
-113,322	-43,776	0,080	0,029
-112,307	-200,000	-0,004	-0,075
-111,293	-200,000	-0,013	-0,058
-110,278	94,535	0,071	0,057
-109,264	-51,812	-0,040	0,013
-108,249	-200,000	-0,027	-0,144
-107,234	-5,603	0,044	-0,021
-106,220	-200,000	0,010	0,131
-105,205	298,943	-0,040	0,053
-104,191	-200,000	0,006	0,045
-103,176	15,213	0,141	0,078
-102,162	-200,000	-0,012	0,044
-101,147	-35,153	0,062	-0,024
-100,132	174,722	-0,046	0,048
-99,118	87,388	-0,146	-0,114
-98,103	-99,619	0,054	-0,009
-97,089	200,381	0,084	0,092
-96,074	-200,000	0,006	0,091
-95,059	244,828	0,094	0,112
-94,045	800,000	-0,004	0,010
-93,030	-200,000	0,012	-0,068
-92,016	89,313	-0,058	-0,046
-91,001	78,213	0,037	0,028
-89,986	800,000	0,048	-0,114
-88,972	282,098	0,068	0,087
-87,957	479,108	0,066	-0,106
-86,943	195,904	-0,066	-0,071
-85,928	-120,660	0,121	-0,014
-84,913	-39,185	-0,107	-0,040
-83,899	-101,349	0,097	0,017
-82,884	800,000	0,025	0,050
-81,870	640,662	0,054	-0,098
-80,855	-200,000	-0,014	0,067
-79,840	-200,000	0,004	0,107
-78,826	40,930	-0,143	-0,092
-77,811	800,000	-0,024	-0,071
-76,797	68,298	0,083	-0,060
-75,782	79,490	-0,029	0,022
-74,767	-200,000	0,004	-0,096
-73,753	-98,375	0,113	0,020
-72,738	800,000	-0,053	0,124
-71,724	251,013	-0,038	0,046
-70,709	-54,703	-0,023	0,007
-69,694	520,234	0,053	0,088
-68,680	-95,737	0,074	0,014
-67,665	-91,010	0,115	0,023
-66,651	-200,000	0,029	0,108
-65,636	13,099	-0,131	0,072
-64,622	-5,049	0,120	-0,058
-63,607	-200,000	-0,014	-0,120
-62,592	-8,558	0,073	-0,035
-61,578	800,000	0,021	-0,052
-60,563	-45,462	0,042	-0,015
-59,549	-71,649	-0,122	-0,032
-58,534	-40,781	-1,616	-0,589
-57,519	432,309	-1,343	-2,069
-56,505	-200,000	-0,534	-4,635
-55,490	209,203	0,875	0,971
-54,476	800,000	4,879	11,581
-53,461	-200,000	19,250	319,786
-52,446	-200,000	740,651	2333,990
-51,432	573,378	1655,382	2869,005
-50,417	78,256	1670,953	1261,654
-49,403	21,293	1543,834	885,538
-48,388	15,164	1466,253	811,233
-47,373	17,909	1456,579	819,118
-46,359	16,630	1446,518	807,293
-45,344	13,395	1441,839	789,149
-44,330	13,327	1440,006	787,790
-43,315	13,330	1438,051	786,705
-42,300	13,346	1436,480	785,888
-41,286	13,370	1435,251	785,302
-40,271	13,337	1434,006	784,430
-39,257	13,330	1432,486	783,535
-38,242	13,362	1431,222	782,964
-37,227	13,426	1429,914	782,524
-36,213	13,365	1429,022	781,716
-35,198	13,403	1427,519	781,042
-34,184	13,474	1426,531	780,808
-33,169	13,348	1425,411	779,564
-32,154	13,398	1424,460	779,252
-31,140	13,437	1422,886	778,541
-30,125	13,427	1421,842	777,896
-29,111	13,394	1420,900	777,190
-28,096	13,421	1419,596	776,576
-27,082	13,359	1418,665	775,743
-26,067	13,324	1417,468	774,895
-25,052	13,370	1416,294	774,437
-24,038	13,336	1415,369	773,741
-23,023	13,317	1414,336	773,056
-22,009	13,283	1413,485	772,398
-20,994	13,235	1412,608	771,664
-19,979	13,289	1411,504	771,283
-18,965	13,284	1410,709	770,794
-17,950	13,270	1409,984	770,301
-16,936	13,292	1408,627	769,635
-15,921	13,197	1407,863	768,742
-14,906	13,235	1406,598	768,197
-13,892	13,231	1405,961	767,803
-12,877	13,223	1404,950	767,182
-11,863	13,178	1404,215	766,539
-10,848	13,231	1403,288	766,250
-9,833	13,212	1402,397	765,643
-8,819	13,194	1401,543	765,063
-7,804	13,121	1400,670	764,219
-6,790	13,140	1399,549	763,662
-5,775	13,125	1398,578	763,032
-4,760	13,150	1397,730	762,657
-3,746	13,115	1396,628	761,865
-2,731	13,140	1395,978	761,593
-1,717	13,106	1395,151	760,955
-0,702	13,092	1393,202	759,795
0,313	16,934	1310,102	732,276
1,327	33,212	703,701	430,952
2,342	51,616	123,175	82,723
3,356	1,633	16,635	8,446
4,371	5,588	3,381	1,761
5,386	-42,988	0,568	0,203
6,400	800,000	0,099	0,237
7,415	55,057	-0,250	-0,171
8,429	50,777	-0,330	-0,221
9,444	-46,484	-0,415	-0,143
10,459	-2,386	-0,314	-0,155
11,473	-68,210	-0,336	-0,092
12,488	73,045	-0,263	-0,194
13,502	-75,131	-0,245	-0,061
14,517	-44,969	-0,300	-0,105
15,531	-29,885	-0,487	-0,195
16,546	-22,276	-0,432	-0,184
17,561	100,288	-0,346	-0,284
18,575	-10,958	-0,310	-0,144
19,590	141,942	-0,278	-0,260
20,604	128,177	-0,171	-0,153
21,619	72,707	-0,447	-0,329
22,634	120,294	-0,463	-0,406
23,648	216,420	-0,345	-0,388
24,663	114,830	-0,268	-0,231
25,677	94,599	-0,296	-0,237
26,692	154,586	-0,203	-0,197
27,707	-65,458	-0,491	-0,138
28,721	102,475	-0,332	-0,274
29,736	44,075	-0,444	-0,287
30,750	79,750	-0,387	-0,293
31,765	69,757	-0,405	-0,295
32,780	47,496	-0,389	-0,255
33,794	-20,341	-0,401	-0,173
34,809	-37,485	-0,409	-0,153
35,823	377,727	-0,291	-0,421
36,838	219,385	-0,304	-0,344
37,853	75,094	-0,435	-0,323
38,867	125,421	-0,374	-0,333
39,882	142,959	-0,285	-0,268
40,896	340,688	-0,261	-0,360
41,911	-16,754	-0,419	-0,186
42,926	-45,986	-0,325	-0,113
43,940	84,282	-0,422	-0,325
44,955	40,884	-0,500	-0,317
45,969	57,757	-0,401	-0,276
46,984	62,819	-0,399	-0,281
47,999	9,260	-0,210	-0,112
49,013	-18,867	-0,357	-0,156
50,028	12,472	-0,293	-0,159
51,042	22,200	-0,373	-0,214
52,057	206,778	-0,233	-0,256
53,071	112,695	-0,298	-0,254
54,086	-29,961	-0,365	-0,146
55,101	-6,829	-0,439	-0,210
56,115	32,493	-0,317	-0,193
57,130	120,772	-0,261	-0,229
58,144	-47,456	-0,483	-0,164
59,159	-6,648	-0,325	-0,155
60,174	-8,946	-0,438	-0,206
61,188	219,195	-0,254	-0,286
62,203	51,920	-0,420	-0,281
63,217	-86,801	-0,350	-0,075
64,232	15,992	-0,233	-0,129
65,247	250,241	-0,263	-0,315
66,261	35,389	-0,375	-0,231
67,276	76,135	-0,289	-0,215
68,290	-38,766	-0,324	-0,120
69,305	71,659	-0,303	-0,221
70,320	5,982	-0,227	-0,118
71,334	157,749	-0,342	-0,333
72,349	8,175	-0,312	-0,164
73,363	152,361	-0,256	-0,246
74,378	9,700	-0,370	-0,197
75,393	-4,560	-0,271	-0,131
76,407	66,818	-0,310	-0,221
77,422	301,080	-0,190	-0,247
78,436	-24,054	-0,372	-0,156
79,451	-49,359	-0,298	-0,099
80,466	4,646	-0,280	-0,144
81,480	25,277	-0,276	-0,161
82,495	-9,706	-0,384	-0,179
83,509	-18,134	-0,212	-0,093
84,524	25,919	-0,379	-0,222
85,539	75,916	-0,335	-0,249
86,553	6,804	-0,296	-0,154
87,568	28,648	-0,418	-0,248
88,582	29,136	-0,383	-0,228
89,597	-48,634	-0,297	-0,100
90,611	125,578	-0,264	-0,234
91,626	57,552	-0,276	-0,189
92,641	16,361	-0,347	-0,192
93,655	-81,666	-0,482	-0,110
94,670	2,433	-0,348	-0,176
95,684	8,714	-0,266	-0,140
96,699	-15,897	-0,369	-0,164
97,714	133,684	-0,098	-0,089
98,728	-7,664	-0,260	-0,123
99,743	162,213	-0,207	-0,204
100,757	-80,507	-0,204	-0,047
101,772	85,858	-0,287	-0,221
102,787	85,412	-0,296	-0,228
103,801	-20,647	-0,327	-0,140
104,816	-48,930	-0,225	-0,075
105,830	103,502	-0,196	-0,161
106,845	-81,157	-0,216	-0,050
107,860	800,000	-0,098	-0,267
108,874	88,084	-0,346	-0,269
109,889	19,745	-0,220	-0,124
110,903	134,621	-0,337	-0,306
111,918	207,527	-0,256	-0,280
112,933	537,059	-0,230	-0,384
113,947	232,804	-0,224	-0,259
114,962	-70,085	-0,293	-0,078
115,976	-6,921	-0,262	-0,124
116,991	37,829	-0,299	-0,186
118,006	800,000	-0,064	-0,183
119,020	12,182	-0,220	-0,118
120,035	-82,388	-0,297	-0,067
121,049	83,774	-0,309	-0,236
122,064	40,831	-0,202	-0,127
123,079	-6,183	-0,341	-0,162
124,093	49,697	-0,220	-0,145
125,108	-21,640	-0,324	-0,138
126,122	152,202	-0,297	-0,284
127,137	-75,039	-0,273	-0,068
128,151	-66,996	-0,227	-0,062
129,166	18,726	-0,195	-0,109
130,181	6,135	-0,253	-0,131
131,195	274,472	-0,231	-0,287
132,210	-25,457	-0,353	-0,145
133,224	59,486	-0,293	-0,202
134,239	128,892	-0,301	-0,269
135,254	13,963	-0,356	-0,193
136,268	0,451	-0,135	-0,067
137,283	144,340	-0,283	-0,264
138,297	56,396	-0,403	-0,273
139,312	-10,511	-0,369	-0,170
140,327	41,660	-0,199	-0,126
141,341	800,000	-0,127	-0,260
142,356	74,416	-0,241	-0,177
143,370	800,000	-0,161	-0,319
144,385	92,806	-0,197	-0,155
145,400	-3,047	-0,340	-0,165
146,414	-10,625	-0,238	-0,110
147,429	194,253	-0,266	-0,282
148,443	44,215	-0,347	-0,222
149,458	74,143	-0,214	-0,157
150,473	14,332	-0,192	-0,104
151,487	505,714	-0,119	-0,193
152,502	15,854	-0,271	-0,148
153,516	247,013	-0,262	-0,309
154,531	248,891	-0,259	-0,307
155,546	1,451	-0,168	-0,084
156,560	-3,562	-0,280	-0,135
157,575	142,051	-0,112	-0,104
158,589	-77,802	-0,295	-0,071
159,604	800,000	-0,106	-0,211
160,619	213,073	-0,286	-0,316
161,633	-135,314	-0,245	-0,020
162,648	22,964	-0,266	-0,152
163,662	125,482	-0,204	-0,179
164,677	9,556	-0,161	-0,085
165,692	189,311	-0,222	-0,232
166,706	45,095	-0,298	-0,191
167,721	131,853	-0,278	-0,249
168,735	-5,740	-0,299	-0,142
169,750	106,749	-0,195	-0,162
170,764	73,844	-0,134	-0,098
171,779	-40,266	-0,118	-0,043
172,794	-3,650	-0,177	-0,086
173,808	475,009	-0,177	-0,279
174,823	447,520	-0,200	-0,308
175,837	236,488	-0,230	-0,266
176,852	247,561	-0,234	-0,275
177,867	-200,000	-0,009	-0,196
178,881	-76,908	-0,223	-0,054
179,896	26,333	-0,268	-0,156
180,910	211,736	-0,185	-0,203
181,925	143,599	-0,234	-0,217
182,940	-67,508	-0,366	-0,099
183,954	588,690	-0,151	-0,260
184,969	236,675	-0,187	-0,216
185,983	-108,721	-0,249	-0,037
186,998	49,183	-0,178	-0,116
188,013	237,130	-0,212	-0,244
189,027	800,000	-0,087	-0,230
190,042	38,455	-0,233	-0,144
191,056	15,569	-0,335	-0,183
192,071	60,544	-0,256	-0,176
193,086	446,208	-0,106	-0,162
194,100	97,752	-0,279	-0,223
195,115	-159,665	-0,358	0,014
196,129	727,473	-0,101	-0,188
197,144	3,036	-0,368	-0,186
198,159	94,416	-0,208	-0,164
199,173	381,691	-0,138	-0,198
200,188	197,499	-0,217	-0,231
201,202	-88,830	-0,184	-0,038
202,217	-147,607	-0,289	0,017
203,232	41,044	-0,267	-0,167
204,246	561,981	-0,094	-0,159
205,261	29,382	-0,336	-0,198
206,275	283,013	-0,184	-0,230
207,290	-200,000	-0,036	-0,130
208,304	64,500	-0,257	-0,180
209,319	234,999	-0,213	-0,244
210,334	-167,091	-0,175	-0,005
211,348	5,776	-0,228	-0,117
212,363	-23,345	-0,366	-0,152
213,377	-80,985	-0,294	-0,067
214,392	223,175	-0,110	-0,123
215,407	-87,125	-0,122	-0,025
216,421	-159,284	-0,217	-0,008
217,436	136,875	-0,138	-0,126
218,450	197,076	-0,263	-0,279
219,465	247,551	-0,132	-0,155
220,480	800,000	-0,089	-0,185
221,494	102,200	-0,059	-0,048
222,509	181,982	-0,185	-0,189
223,523	374,912	-0,107	-0,151
224,538	121,816	-0,229	-0,198
225,553	40,284	-0,320	-0,199
226,567	-30,964	-0,166	-0,065
227,582	118,598	-0,158	-0,135
228,596	289,310	-0,111	-0,140
229,611	59,032	-0,175	-0,119
230,626	-164,061	-0,157	-0,005
231,640	390,313	-0,176	-0,254
232,655	17,425	-0,228	-0,125
233,669	206,281	-0,232	-0,251
234,684	97,048	-0,289	-0,230
235,699	420,476	-0,159	-0,237
236,713	104,043	-0,236	-0,193
237,728	414,774	-0,094	-0,139
238,742	240,721	-0,065	-0,075
239,757	-4,702	-0,239	-0,114
240,772	81,604	-0,227	-0,170
241,786	44,143	-0,253	-0,160
242,801	-200,000	-0,007	-0,115
243,815	-111,763	-0,100	-0,014
244,830	104,206	-0,146	-0,119
245,844	-14,456	-0,208	-0,092
246,859	-5,858	-0,169	-0,080
247,874	-72,697	-0,187	-0,047
248,888	10,492	-0,279	-0,147
249,903	-82,291	-0,345	-0,077
250,917	-14,665	-0,169	-0,075
251,932	144,097	-0,138	-0,128
252,947	-162,847	-0,264	-0,009
253,961	29,528	-0,131	-0,077
254,976	-74,468	-0,313	-0,078
255,990	351,463	-0,132	-0,182
257,005	800,000	-0,084	-0,193
258,020	350,124	-0,128	-0,175
259,034	24,298	-0,276	-0,157
260,049	260,579	-0,171	-0,205
261,063	-57,961	-0,178	-0,053
262,078	-87,310	-0,212	-0,044
263,093	-15,927	-0,276	-0,121
264,107	97,601	-0,100	-0,080
265,122	-34,377	-0,106	-0,040
266,136	-17,946	-0,289	-0,125
267,151	103,848	0,010	-0,008
268,166	15,181	-0,210	-0,114
269,180	151,751	-0,195	-0,184
270,195	181,041	-0,190	-0,193
271,209	-139,742	-0,199	-0,014
272,224	-97,079	-0,285	-0,051
273,239	800,000	-0,045	-0,091
274,253	85,241	-0,088	-0,067
275,268	24,229	-0,172	-0,098
276,282	120,054	-0,209	-0,179
277,297	-82,169	-0,248	-0,055
278,312	43,292	-0,147	-0,092
279,326	137,814	-0,121	-0,109
280,341	-146,157	-0,137	-0,008
281,355	183,675	-0,184	-0,188
282,370	-109,746	-0,094	-0,013
283,384	33,948	-0,205	-0,123
284,399	95,594	-0,110	-0,086
285,414	-14,682	-0,172	-0,076
286,428	388,638	-0,091	-0,131
287,443	205,736	-0,099	-0,106
288,457	20,639	-0,193	-0,107
289,472	55,271	-0,145	-0,096
290,487	186,991	-0,173	-0,178
291,501	26,798	-0,127	-0,073
292,516	-106,710	-0,142	-0,021
293,530	-132,236	-0,280	0,025
294,545	-125,037	-0,159	-0,017
295,560	-200,000	-0,018	-0,104
296,574	-97,172	-0,170	-0,030
297,589	-26,188	-0,121	-0,049
298,603	632,051	-0,201	-0,352
299,618	99,168	-0,160	-0,128
300,633	-28,608	-0,064	-0,025
301,647	-26,046	-0,140	-0,057
302,662	114,296	-0,131	-0,110
303,676	-200,000	-0,008	-0,149
304,691	102,677	-0,095	-0,076
305,706	46,959	-0,194	-0,124
306,720	-138,505	-0,168	-0,013
307,735	-86,138	-0,164	-0,035
308,749	-49,698	-0,043	0,014
309,764	177,255	-0,101	-0,102
310,779	38,854	-0,078	0,048
311,793	-119,094	-0,172	-0,021
312,808	84,042	-0,119	-0,089
313,822	-130,431	-0,297	-0,027
314,837	64,487	-0,209	-0,145
315,852	85,149	-0,130	-0,098
316,866	800,000	-0,009	0,019
317,881	-131,968	-0,125	0,011
318,895	-121,145	-0,138	-0,016
319,910	-55,852	-0,144	-0,044
320,925	120,649	-0,116	-0,099
321,939	313,966	-0,047	-0,061
322,954	-168,882	-0,127	-0,003
323,968	55,182	-0,045	-0,030
324,983	12,608	-0,072	-0,038
325,997	67,987	-0,174	0,122
327,012	1,984	-0,203	0,100
328,027	9,081	-0,228	-0,118
329,041	392,522	-0,095	-0,136
330,056	31,842	-0,174	-0,103
331,070	-61,388	-0,121	0,035
332,085	-151,746	-0,109	0,005
333,100	433,782	-0,045	-0,068
334,114	-28,954	-0,211	-0,083
335,129	800,000	-0,044	-0,097
336,143	115,776	-0,216	-0,181
337,158	-63,071	-0,194	-0,055
338,173	112,795	-0,141	-0,117
339,187	-200,000	0,005	-0,032
340,202	648,565	-0,108	-0,190
341,216	-71,429	-0,119	0,030
342,231	800,000	-0,065	-0,189
343,246	-7,989	-0,127	-0,058
344,260	-120,257	-0,073	-0,008
345,275	-130,236	-0,166	-0,015
346,289	169,791	-0,071	-0,069
347,304	-200,000	-0,022	-0,084
348,319	33,094	-0,209	-0,124
349,333	800,000	-0,054	-0,116
350,348	800,000	-0,069	-0,153
351,362	-50,564	-0,155	-0,050
352,377	-128,530	-0,225	-0,022
353,392	727,504	-0,080	-0,147
354,406	441,108	-0,110	-0,166
355,421	209,468	1313,369	1413,645
356,435	161,214	1473,926	1414,124
