DTS Sentinel unit serial number:	SN410029Multiplexer serial number:	ORYXHardware model number:	OX2-SRSoftware version number:	ORYX F/W v4,00 Oryx Data Collector v3.7.2.0data status	okinstallation	B3 Nyhavnadifferential loss correction	single-endedforward channel	channel 1reverse channel	N/Adate	2023/11/29time	01:12:30forward acquisition time	300,00reverse acquisition time	0,00gamma	499,1914k internal	0,3212k external	0,3212temperature offset calibration	1,0000default loss term (dB/km)	0,3820temperature slope calibration	1,0000multiplexer offset coefficient	1,0000multiplexer slope coefficient	1,0000fibre end	0,00T internal ref (°C)	9,40T ext. ref 1 (°C)	-4,98T ext. ref 2 (°C)	-5,11length (m)	temperature (°C)	Stokes	anti-Stokes-744,400	-30,415	-0,309	-0,126
-743,385	-200,000	0,006	0,272
-742,371	38,594	-0,141	-0,091
-741,356	-200,000	0,067	0,395
-740,342	239,228	-0,107	-0,129
-739,327	-200,000	-0,002	0,153
-738,312	427,610	-0,191	-0,299
-737,298	715,436	-0,074	0,143
-736,283	438,457	-0,202	-0,320
-735,269	-200,000	0,062	0,328
-734,254	-200,000	-0,021	-0,214
-733,239	31,712	-0,231	0,144
-732,225	191,303	0,091	-0,099
-731,210	800,000	0,094	0,227
-730,196	423,715	0,002	-0,003
-729,181	346,969	-0,070	-0,101
-728,167	32,049	0,137	0,085
-727,152	-200,000	0,000	-0,014
-726,137	-200,000	-0,025	0,116
-725,123	52,519	-0,054	-0,037
-724,108	171,431	-0,037	-0,038
-723,094	-62,241	0,109	-0,033
-722,079	-55,937	0,064	-0,021
-721,064	-200,000	-0,001	0,082
-720,050	-110,757	-0,136	-0,020
-719,035	-200,000	-0,049	0,174
-718,021	-12,222	0,034	-0,016
-717,006	-200,000	-0,027	-0,118
-715,991	160,036	-0,106	-0,107
-714,977	27,487	-0,016	-0,010
-713,962	-200,000	0,001	0,011
-712,948	128,197	0,143	0,132
-711,933	9,201	0,056	0,031
-710,918	-200,000	0,019	-0,066
-709,904	346,810	-0,155	0,222
-708,889	30,672	-0,181	-0,112
-707,875	224,356	0,087	-0,102
-706,860	-45,907	0,087	-0,031
-705,845	202,251	-0,034	-0,037
-704,831	-200,000	0,012	0,073
-703,816	-200,000	0,043	0,188
-702,802	81,400	-0,144	-0,112
-701,787	177,442	-0,099	-0,105
-700,772	-58,485	0,128	-0,040
-699,758	-32,752	0,115	-0,046
-698,743	101,443	0,027	-0,023
-697,729	-157,070	-0,047	-0,002
-696,714	-200,000	-0,004	-0,079
-695,699	-42,168	0,079	0,029
-694,685	485,421	0,048	0,079
-693,670	-133,050	-0,076	0,007
-692,656	-200,000	-0,032	-0,114
-691,641	-200,000	-0,020	0,114
-690,627	115,302	0,053	0,047
-689,612	-200,000	-0,015	-0,053
-688,597	800,000	0,011	-0,032
-687,583	517,249	-0,066	-0,112
-686,568	325,439	-0,041	0,057
-685,554	18,405	-0,039	0,023
-684,539	510,316	-0,014	-0,024
-683,524	97,215	0,031	0,026
-682,510	460,287	-0,020	-0,033
-681,495	3,777	0,120	-0,063
-680,481	159,126	-0,036	0,037
-679,466	-200,000	-0,032	-0,174
-678,451	-200,000	0,022	-0,133
-677,437	-200,000	-0,011	0,081
-676,422	-16,998	0,062	0,028
-675,408	-200,000	0,029	0,206
-674,393	288,752	0,032	0,042
-673,378	0,918	-0,160	0,083
-672,364	-200,000	-0,005	0,073
-671,349	206,172	-0,042	-0,047
-670,335	-125,829	0,088	0,009
-669,320	-200,000	0,026	0,231
-668,305	-200,000	0,013	0,152
-667,291	26,193	-0,094	-0,057
-666,276	-64,297	-0,073	-0,021
-665,262	167,174	0,078	-0,080
-664,247	83,544	0,046	0,036
-663,232	800,000	0,024	0,064
-662,218	800,000	-0,049	-0,115
-661,203	582,534	0,055	-0,098
-660,189	-25,526	0,100	-0,043
-659,174	-200,000	-0,047	-0,200
-658,159	-200,000	-0,040	-0,137
-657,145	-46,490	0,130	-0,046
-656,130	-200,000	-0,028	0,124
-655,116	-200,000	-0,018	0,083
-654,101	487,013	0,044	0,073
-653,086	-200,000	-0,000	0,055
-652,072	31,686	-0,178	-0,110
-651,057	-200,000	-0,015	-0,100
-650,043	68,759	-0,134	-0,099
-649,028	-200,000	0,035	-0,211
-648,014	145,101	-0,100	-0,096
-646,999	31,635	0,186	0,115
-645,984	-7,573	-0,099	0,048
-644,970	-152,188	-0,195	0,010
-643,955	276,880	0,085	-0,109
-642,941	85,354	-0,069	-0,054
-641,926	-75,804	-0,109	0,028
-640,911	-74,750	-0,039	-0,010
-639,897	-200,000	-0,026	0,096
-638,882	8,434	0,045	-0,024
-637,868	-5,757	0,035	0,017
-636,853	800,000	-0,031	0,094
-635,838	-200,000	0,037	-0,152
-634,824	346,745	-0,093	-0,132
-633,809	-200,000	0,001	-0,045
-632,795	800,000	-0,076	-0,166
-631,780	514,768	0,085	-0,144
-630,765	-51,310	-0,290	0,097
-629,751	517,089	0,036	0,061
-628,736	283,320	0,051	0,067
-627,722	27,815	0,034	0,021
-626,707	-25,729	-0,179	0,076
-625,692	747,028	-0,015	0,029
-624,678	161,800	-0,036	-0,037
-623,663	162,541	-0,035	-0,035
-622,649	-79,269	-0,114	-0,028
-621,634	-64,839	-0,120	0,035
-620,619	11,785	-0,107	0,059
-619,605	-118,662	0,063	-0,008
-618,590	105,237	0,073	0,062
-617,576	-116,314	0,082	0,011
-616,561	800,000	-0,008	0,023
-615,546	-114,614	-0,076	-0,010
-614,532	-84,022	-0,079	0,018
-613,517	-4,889	-0,140	-0,069
-612,503	51,318	-0,060	0,041
-611,488	-200,000	0,035	0,181
-610,474	-118,090	-0,065	-0,008
-609,459	-89,135	-0,053	0,011
-608,444	-200,000	-0,017	-0,186
-607,430	-130,565	-0,103	-0,010
-606,415	230,542	0,049	-0,058
-605,401	209,932	-0,095	-0,108
-604,386	90,149	0,049	-0,039
-603,371	-45,792	-0,050	0,018
-602,357	339,654	-0,061	0,086
-601,342	-93,099	-0,146	0,029
-600,328	-125,097	-0,162	-0,018
-599,313	-200,000	0,016	0,085
-598,298	19,575	-0,058	-0,034
-597,284	-68,361	0,046	0,013
-596,269	-200,000	-0,019	0,123
-595,255	349,783	0,040	-0,057
-594,240	-90,242	-0,109	-0,023
-593,225	-200,000	-0,024	0,146
-592,211	-28,096	-0,123	0,051
-591,196	10,918	-0,139	-0,076
-590,182	6,274	0,038	-0,020
-589,167	135,296	0,090	0,084
-588,152	382,151	0,007	0,011
-587,138	674,747	-0,028	0,052
-586,123	140,308	0,127	0,121
-585,109	800,000	-0,022	-0,066
-584,094	133,065	-0,044	0,041
-583,079	-143,985	-0,075	0,005
-582,065	244,234	-0,042	0,050
-581,050	66,386	-0,059	0,043
-580,036	491,540	0,030	-0,049
-579,021	-200,000	-0,008	-0,141
-578,006	22,221	0,029	-0,017
-576,992	-83,598	-0,104	-0,024
-575,977	800,000	0,018	-0,044
-574,963	-200,000	0,014	-0,151
-573,948	83,844	-0,062	-0,049
-572,934	-200,000	0,004	-0,072
-571,919	517,306	-0,018	0,031
-570,904	11,445	-0,114	-0,063
-569,890	60,441	0,079	0,056
-568,875	-157,258	-0,079	0,003
-567,861	-13,952	-0,061	-0,028
-566,846	-74,808	0,087	0,022
-565,831	-35,268	-0,080	0,031
-564,817	-200,000	0,036	0,122
-563,802	-200,000	0,008	0,041
-562,788	800,000	-0,072	0,151
-561,773	166,065	0,029	0,029
-560,758	106,262	0,062	0,053
-559,744	-27,717	0,071	0,029
-558,729	538,758	0,044	0,076
-557,715	800,000	-0,015	0,031
-556,700	12,381	0,043	0,024
-555,685	20,474	-0,107	-0,062
-554,671	-88,948	-0,032	0,007
-553,656	15,856	0,156	0,088
-552,642	-200,000	0,014	0,062
-551,627	345,199	-0,030	0,042
-550,612	4,049	-0,131	-0,069
-549,598	800,000	-0,011	-0,025
-548,583	-200,000	0,004	-0,155
-547,569	242,341	-0,044	-0,054
-546,554	-200,000	0,007	-0,034
-545,539	-104,035	-0,086	0,014
-544,525	89,574	0,061	-0,049
-543,510	-48,041	-0,068	0,024
-542,496	-43,013	0,120	-0,043
-541,481	800,000	0,062	-0,147
-540,466	-21,679	-0,014	0,006
-539,452	89,647	-0,081	0,065
-538,437	800,000	-0,017	-0,035
-537,423	19,146	0,123	0,071
-536,408	746,923	0,060	0,116
-535,393	155,299	-0,090	-0,089
-534,379	36,074	-0,047	0,030
-533,364	748,842	-0,049	-0,095
-532,350	430,078	0,069	0,107
-531,335	800,000	-0,032	0,088
-530,321	-8,376	0,164	-0,079
-529,306	189,785	-0,074	0,080
-528,291	-156,141	0,152	-0,007
-527,277	88,056	0,036	-0,029
-526,262	367,055	-0,033	-0,047
-525,248	800,000	0,064	0,133
-524,233	-200,000	0,002	-0,071
-523,218	55,995	-0,128	0,089
-522,204	-200,000	-0,016	0,089
-521,189	-134,105	0,126	0,011
-520,175	430,597	-0,065	-0,101
-519,160	-85,615	0,159	0,035
-518,145	-200,000	-0,014	-0,045
-517,131	-200,000	0,004	0,055
-516,116	-200,000	-0,019	0,136
-515,102	47,833	-0,049	0,033
-514,087	181,352	0,067	0,071
-513,072	171,485	-0,087	-0,089
-512,058	-200,000	-0,002	-0,052
-511,043	-139,806	-0,155	0,012
-510,029	-131,589	0,105	0,010
-509,014	127,764	0,093	-0,085
-507,999	-200,000	0,008	-0,043
-506,985	279,877	-0,043	-0,055
-505,970	800,000	0,045	-0,136
-504,956	-182,542	0,017	-0,000
-503,941	480,971	0,033	0,054
-502,926	157,401	0,012	-0,012
-501,912	-17,116	-0,065	0,029
-500,897	-148,932	-0,100	0,006
-499,883	-200,000	0,040	-0,134
-498,868	336,317	-0,030	0,042
-497,853	-200,000	0,002	-0,019
-496,839	800,000	0,030	0,060
-495,824	23,126	0,120	0,071
-494,810	-15,114	-0,165	0,075
-493,795	-51,670	0,056	-0,019
-492,781	180,592	-0,013	-0,014
-491,766	-200,000	-0,010	0,054
-490,751	-200,000	0,000	-0,044
-489,737	25,701	-0,035	0,021
-488,722	-79,227	0,100	-0,024
-487,708	-80,527	-0,053	0,012
-486,693	145,257	-0,031	-0,030
-485,678	81,152	-0,048	0,037
-484,664	-200,000	-0,014	0,073
-483,649	-45,253	0,082	-0,029
-482,635	-200,000	0,012	-0,130
-481,620	800,000	-0,043	0,100
-480,605	116,905	0,108	0,095
-479,591	66,654	-0,061	0,044
-478,576	-143,224	0,056	0,004
-477,562	362,227	-0,084	-0,122
-476,547	152,425	0,069	0,067
-475,532	385,125	-0,040	-0,059
-474,518	-200,000	-0,033	0,110
-473,503	-200,000	-0,009	-0,124
-472,489	125,446	0,039	0,036
-471,474	186,424	-0,018	-0,019
-470,459	-116,106	-0,103	0,014
-469,445	206,354	0,025	-0,028
-468,430	-14,470	-0,162	-0,075
-467,416	-38,746	0,143	-0,054
-466,401	-160,412	-0,040	-0,002
-465,386	-200,000	0,003	0,042
-464,372	-200,000	0,002	-0,068
-463,357	323,538	-0,064	0,088
-462,343	254,272	0,059	-0,073
-461,328	52,768	0,093	-0,064
-460,313	301,997	0,022	0,029
-459,299	-45,687	0,092	-0,032
-458,284	70,554	0,072	0,054
-457,270	132,753	0,004	-0,004
-456,255	-200,000	-0,012	-0,098
-455,241	611,451	0,019	0,035
-454,226	-4,210	-0,063	0,031
-453,211	800,000	0,026	0,062
-452,197	49,766	0,064	0,043
-451,182	-200,000	-0,012	0,060
-450,168	-200,000	0,017	-0,099
-449,153	800,000	-0,073	0,165
-448,138	47,464	-0,115	-0,077
-447,124	-200,000	0,008	-0,049
-446,109	90,441	-0,065	0,052
-445,095	-20,670	-0,044	0,019
-444,080	-168,558	0,024	-0,001
-443,065	59,758	-0,017	-0,012
-442,051	-200,000	0,001	0,060
-441,036	116,241	0,053	-0,046
-440,022	92,884	-0,116	0,094
-439,007	218,026	0,110	0,126
-437,992	-44,011	0,110	0,039
-436,978	287,862	0,050	0,065
-435,963	0,868	-0,041	-0,021
-434,949	-200,000	-0,006	-0,023
-433,934	-64,559	0,119	-0,034
-432,919	-107,192	-0,005	-0,001
-431,905	-200,000	-0,017	-0,090
-430,890	229,983	0,112	0,131
-429,876	-200,000	0,003	0,139
-428,861	-200,000	-0,004	-0,118
-427,846	589,184	0,029	-0,051
-426,832	-161,039	-0,060	-0,002
-425,817	-200,000	0,002	-0,037
-424,803	-200,000	0,004	-0,107
-423,788	443,492	0,095	0,150
-422,773	-116,718	0,089	0,012
-421,759	800,000	-0,035	0,089
-420,744	-200,000	-0,001	0,025
-419,730	-73,273	-0,018	-0,005
-418,715	25,243	0,104	-0,061
-417,701	-200,000	0,007	-0,111
-416,686	-26,829	-0,060	0,025
-415,671	800,000	0,044	-0,108
-414,657	800,000	-0,030	0,067
-413,642	75,271	0,062	-0,047
-412,628	184,656	-0,035	0,037
-411,613	603,587	-0,020	0,035
-410,598	-94,483	-0,094	0,018
-409,584	737,961	0,020	0,039
-408,569	800,000	0,039	0,102
-407,555	447,854	0,101	0,159
-406,540	800,000	0,030	0,068
-405,525	-200,000	0,014	-0,130
-404,511	47,702	-0,174	-0,116
-403,496	-19,530	-0,066	-0,029
-402,482	-200,000	0,023	0,092
-401,467	-96,097	0,127	-0,024
-400,452	204,584	0,077	0,085
-399,438	-200,000	0,003	0,049
-398,423	-200,000	-0,030	-0,101
-397,409	800,000	-0,004	-0,009
-396,394	-70,357	0,071	-0,019
-395,379	185,130	-0,036	0,038
-394,365	-147,976	0,171	0,010
-393,350	-200,000	-0,018	0,082
-392,336	-200,000	0,000	0,028
-391,321	-54,518	-0,136	0,044
-390,306	-200,000	0,012	0,038
-389,292	280,586	-0,070	-0,090
-388,277	-56,690	0,044	-0,014
-387,263	5,335	0,051	0,027
-386,248	123,763	-0,024	-0,022
-385,233	-183,889	0,101	-0,001
-384,219	-70,354	0,068	-0,018
-383,204	52,570	-0,051	0,035
-382,190	-153,928	0,100	-0,005
-381,175	-48,578	0,134	0,046
-380,160	800,000	0,023	0,050
-379,146	758,298	0,092	0,179
-378,131	800,000	-0,064	-0,149
-377,117	224,839	-0,049	-0,057
-376,102	-200,000	-0,009	0,096
-375,088	699,483	-0,019	0,036
-374,073	-200,000	-0,011	-0,060
-373,058	-23,161	0,152	0,065
-372,044	-191,246	0,130	-0,001
-371,029	-13,278	0,083	0,039
-370,015	-88,257	-0,178	0,038
-369,000	-200,000	-0,033	-0,139
-367,985	800,000	0,059	-0,178
-366,971	160,129	0,079	-0,079
-365,956	-142,532	0,182	-0,013
-364,942	5,892	0,060	0,032
-363,927	-62,571	0,152	-0,045
-362,912	800,000	0,068	0,155
-361,898	106,852	0,108	0,091
-360,883	66,852	0,139	-0,101
-359,869	362,424	0,063	-0,090
-358,854	-116,131	-0,086	0,011
-357,839	96,660	0,078	0,064
-356,825	595,356	0,048	-0,086
-355,810	517,207	0,020	0,034
-354,796	-93,629	0,073	-0,014
-353,781	800,000	-0,042	-0,084
-352,766	-200,000	0,017	-0,078
-351,752	800,000	0,029	-0,078
-350,737	-141,837	0,038	-0,003
-349,723	-200,000	-0,013	0,102
-348,708	800,000	-0,086	0,170
-347,693	678,937	-0,078	0,146
-346,679	-200,000	-0,005	0,038
-345,664	301,818	-0,073	-0,096
-344,650	-200,000	-0,004	-0,076
-343,635	-200,000	-0,031	-0,110
-342,620	-200,000	0,008	0,108
-341,606	-87,110	-0,083	0,018
-340,591	-200,000	0,004	0,026
-339,577	-200,000	0,026	-0,237
-338,562	52,837	0,113	-0,077
-337,548	720,541	0,038	0,072
-336,533	53,764	0,139	0,095
-335,518	-200,000	0,019	0,093
-334,504	-200,000	0,012	0,086
-333,489	-200,000	-0,007	0,037
-332,475	5,602	0,018	-0,009
-331,460	55,205	-0,103	-0,071
-330,445	-169,476	0,106	-0,003
-329,431	345,540	0,074	0,104
-328,416	124,471	-0,070	-0,063
-327,402	-200,000	-0,005	0,019
-326,387	102,458	0,078	-0,065
-325,372	-200,000	-0,005	-0,035
-324,358	78,191	-0,120	-0,091
-323,343	198,486	-0,098	-0,107
-322,329	-200,000	0,025	0,092
-321,314	703,611	-0,060	-0,114
-320,299	109,332	-0,037	-0,032
-319,285	-55,481	0,159	-0,050
-318,270	-200,000	-0,037	0,159
-317,256	23,477	-0,039	-0,023
-316,241	-122,576	-0,071	-0,008
-315,226	-10,451	-0,073	0,034
-314,212	493,123	0,056	0,091
-313,197	-5,987	-0,044	0,021
-312,183	59,080	-0,058	-0,041
-311,168	-79,835	-0,046	0,011
-310,153	262,455	0,062	0,077
-309,139	-200,000	0,010	0,082
-308,124	60,532	0,057	-0,040
-307,110	-200,000	-0,007	-0,062
-306,095	800,000	0,031	-0,069
-305,080	302,262	-0,037	0,048
-304,066	503,794	0,019	0,032
-303,051	-16,757	-0,047	-0,021
-302,037	-86,991	-0,157	0,034
-301,022	800,000	0,018	-0,038
-300,008	-200,000	0,005	0,045
-298,993	235,611	-0,075	0,089
-297,978	-200,000	0,022	-0,110
-296,964	-200,000	-0,014	-0,050
-295,949	800,000	-0,041	-0,122
-294,935	107,969	-0,088	-0,075
-293,920	-200,000	-0,001	0,062
-292,905	56,098	-0,060	0,041
-291,891	86,670	0,116	-0,091
-290,876	133,733	0,082	0,075
-289,862	17,140	-0,053	-0,030
-288,847	-200,000	-0,015	0,065
-287,832	288,477	-0,048	-0,062
-286,818	123,833	-0,032	-0,029
-285,803	800,000	0,031	0,063
-284,789	-131,057	0,089	0,008
-283,774	28,199	0,192	0,115
-282,759	-49,183	0,027	0,009
-281,745	-200,000	-0,009	-0,135
-280,730	308,471	-0,066	-0,088
-279,716	-200,000	-0,036	-0,115
-278,701	-40,697	0,171	0,063
-277,686	16,604	0,078	0,044
-276,672	664,578	0,089	0,163
-275,657	-43,451	0,147	0,053
-274,643	800,000	-0,032	-0,090
-273,628	673,857	0,038	0,071
-272,613	-115,956	-0,145	-0,019
-271,599	25,923	-0,072	-0,043
-270,584	-127,980	-0,077	-0,008
-269,570	80,603	0,124	0,095
-268,555	250,891	-0,028	-0,034
-267,540	629,640	-0,007	-0,012
-266,526	519,439	-0,069	-0,115
-265,511	-16,264	-0,096	-0,043
-264,497	800,000	0,012	-0,037
-263,482	241,037	-0,073	-0,087
-262,467	2,538	0,076	0,039
-261,453	-200,000	-0,003	0,029
-260,438	150,943	-0,023	0,023
-259,424	-200,000	-0,011	-0,090
-258,409	261,519	-0,047	-0,058
-257,395	800,000	-0,018	0,039
-256,380	19,484	0,191	0,109
-255,365	800,000	-0,047	-0,146
-254,351	-200,000	0,009	-0,044
-253,336	800,000	0,010	-0,020
-252,322	800,000	0,021	-0,052
-251,307	-200,000	0,028	-0,138
-250,292	350,130	-0,079	-0,112
-249,278	800,000	0,038	-0,107
-248,263	119,976	0,122	0,107
-247,249	-82,788	0,079	-0,018
-246,234	-22,851	-0,145	0,062
-245,219	84,777	-0,146	-0,114
-244,205	43,947	-0,029	-0,019
-243,190	-59,105	0,105	0,032
-242,176	-63,428	0,092	0,027
-241,161	305,359	-0,028	-0,037
-240,146	-97,381	0,076	0,014
-239,132	-33,356	-0,022	0,009
-238,117	-69,572	-0,118	0,032
-237,103	211,922	-0,118	-0,133
-236,088	-200,000	0,016	0,079
-235,073	-28,462	-0,059	-0,024
-234,059	168,210	-0,079	0,080
-233,044	293,065	0,144	0,187
-232,030	-62,554	0,016	-0,005
-231,015	-200,000	-0,019	-0,116
-230,000	148,861	0,075	0,072
-228,986	-200,000	0,059	-0,199
-227,971	-200,000	0,015	0,072
-226,957	151,070	0,074	0,072
-225,942	800,000	0,077	0,167
-224,927	-200,000	0,004	-0,026
-223,913	-48,777	-0,072	-0,024
-222,898	-200,000	0,041	-0,232
-221,884	-200,000	-0,005	-0,097
-220,869	618,711	-0,029	0,052
-219,855	145,535	-0,125	-0,119
-218,840	-74,667	0,116	0,029
-217,825	800,000	-0,062	0,160
-216,811	261,881	-0,104	-0,128
-215,796	483,275	-0,011	-0,018
-214,782	-141,957	0,099	0,007
-213,767	-54,650	0,132	-0,042
-212,752	82,534	-0,109	0,084
-211,738	-200,000	-0,039	0,179
-210,723	86,858	0,116	0,091
-209,709	-200,000	0,004	-0,057
-208,694	251,497	-0,028	-0,033
-207,679	217,035	-0,132	-0,149
-206,665	-89,139	-0,151	0,031
-205,650	-170,367	0,170	0,004
-204,636	316,004	-0,021	0,028
-203,621	-200,000	0,014	0,093
-202,606	586,401	-0,034	-0,059
-201,592	-200,000	0,002	-0,061
-200,577	66,913	-0,064	-0,046
-199,563	72,537	0,022	-0,016
-198,548	800,000	-0,036	0,100
-197,533	-69,384	0,188	0,051
-196,519	475,288	-0,076	-0,122
-195,504	389,041	-0,023	-0,034
-194,490	-200,000	0,043	0,164
-193,475	-125,583	-0,167	-0,018
-192,460	-5,930	0,078	-0,038
-191,446	800,000	0,006	0,013
-190,431	800,000	0,012	-0,026
-189,417	800,000	-0,070	-0,145
-188,402	50,876	0,065	-0,044
-187,387	224,716	0,132	-0,152
-186,373	-12,216	0,178	0,083
-185,358	0,212	-0,238	-0,120
-184,344	8,776	0,081	0,043
-183,329	241,851	0,048	0,057
-182,315	55,464	0,034	-0,023
-181,300	268,132	-0,112	0,139
-180,285	-7,791	-0,062	-0,030
-179,271	474,440	-0,082	0,131
-178,256	150,467	0,040	0,039
-177,242	800,000	-0,045	-0,115
-176,227	1,314	0,092	0,047
-175,212	-165,239	0,111	0,003
-174,198	-99,461	0,131	-0,023
-173,183	-200,000	0,019	0,066
-172,169	-200,000	-0,025	-0,109
-171,154	-46,046	0,141	-0,049
-170,139	800,000	0,006	-0,014
-169,125	-200,000	0,000	0,048
-168,110	282,839	-0,052	0,066
-167,096	219,190	0,129	-0,146
-166,081	-175,009	-0,173	0,003
-165,066	168,440	-0,065	-0,066
-164,052	81,204	0,113	0,086
-163,037	-27,998	-0,086	-0,035
-162,023	-22,892	0,048	0,021
-161,008	-200,000	-0,000	0,051
-159,993	-200,000	0,024	-0,097
-158,979	141,232	-0,052	0,049
-157,964	208,565	-0,017	-0,019
-156,950	334,840	-0,073	0,100
-155,935	111,805	0,064	0,055
-154,920	800,000	-0,029	0,071
-153,906	-200,000	0,009	0,067
-152,891	-200,000	0,024	0,089
-151,877	764,548	-0,027	-0,052
-150,862	659,243	-0,042	-0,076
-149,847	-200,000	0,023	-0,078
-148,833	800,000	0,026	0,066
-147,818	-200,000	-0,008	0,087
-146,804	28,887	0,065	0,039
-145,789	-200,000	-0,003	0,052
-144,775	-200,000	0,003	-0,022
-143,760	426,740	-0,076	-0,117
-142,745	800,000	-0,038	0,089
-141,731	34,275	0,113	-0,070
-140,716	800,000	0,036	-0,091
-139,702	-163,892	-0,110	-0,004
-138,687	-189,927	0,050	-0,000
-137,672	603,555	-0,041	0,073
-136,658	-200,000	0,004	0,042
-135,643	-36,667	0,070	-0,026
-134,629	-174,306	0,040	0,001
-133,614	-100,480	0,140	0,024
-132,599	-27,669	0,133	0,054
-131,585	366,166	-0,058	-0,083
-130,570	466,927	-0,014	-0,022
-129,556	-58,742	-0,139	-0,042
-128,541	86,537	-0,076	-0,059
-127,526	-68,820	-0,035	0,009
-126,512	-93,534	0,057	-0,011
-125,497	-92,571	-0,070	-0,014
-124,483	-200,000	0,031	0,108
-123,468	96,620	0,060	0,049
-122,453	18,071	-0,083	0,047
-121,439	-161,164	-0,140	-0,005
-120,424	-100,498	-0,048	-0,008
-119,410	-75,034	0,148	-0,037
-118,395	267,863	-0,050	0,062
-117,380	259,793	0,021	-0,026
-116,366	87,718	-0,009	0,007
-115,351	-23,097	0,041	-0,017
-114,337	75,867	0,133	-0,100
-113,322	-200,000	-0,039	-0,144
-112,307	175,724	0,080	0,082
-111,293	104,420	0,026	0,022
-110,278	800,000	-0,046	0,106
-109,264	116,547	0,099	-0,086
-108,249	-33,979	0,098	0,038
-107,234	-31,590	-0,091	0,036
-106,220	180,599	0,119	0,123
-105,205	-161,870	-0,052	0,002
-104,191	-158,824	0,159	0,006
-103,176	-136,754	-0,098	0,008
-102,162	189,362	-0,029	-0,031
-101,147	61,411	-0,120	0,084
-100,132	-135,013	0,054	0,005
-99,118	-200,000	-0,014	0,091
-98,103	-120,727	-0,065	0,008
-97,089	66,447	-0,062	0,045
-96,074	2,291	0,087	0,044
-95,059	-25,359	-0,113	-0,047
-94,045	-200,000	0,009	0,031
-93,030	-37,510	-0,123	0,046
-92,016	139,519	-0,092	-0,085
-91,001	-200,000	-0,003	0,012
-89,986	227,406	0,031	-0,036
-88,972	800,000	0,019	-0,048
-87,957	-153,338	0,052	0,003
-86,943	-200,000	0,004	-0,026
-85,928	-200,000	-0,017	-0,084
-84,913	-139,665	-0,144	0,011
-83,899	-135,130	-0,075	0,006
-82,884	52,325	0,069	-0,047
-81,870	-1,966	-0,069	0,034
-80,855	-200,000	-0,022	0,069
-79,840	-104,978	-0,146	-0,023
-78,826	165,551	0,109	-0,109
-77,811	-55,576	0,061	-0,019
-76,797	20,722	0,085	0,049
-75,782	800,000	0,037	-0,092
-74,767	673,268	-0,035	-0,064
-73,753	95,293	0,012	-0,010
-72,738	339,107	0,083	0,114
-71,724	800,000	-0,031	-0,091
-70,709	650,663	0,064	-0,116
-69,694	-200,000	-0,012	0,056
-68,680	-182,376	0,110	-0,001
-67,665	14,868	0,091	-0,050
-66,651	-147,343	-0,066	-0,004
-65,636	800,000	0,049	-0,124
-64,622	-200,000	-0,002	-0,067
-63,607	46,437	0,081	-0,053
-62,592	-200,000	0,057	0,198
-61,578	-42,738	0,057	0,020
-60,563	120,666	0,016	-0,014
-59,549	266,289	-0,055	0,068
-58,534	58,920	-2,018	-1,399
-57,519	470,854	-1,206	-1,922
-56,505	-200,000	-0,365	-4,385
-55,490	773,234	0,888	1,718
-54,476	800,000	5,115	11,085
-53,461	-200,000	21,724	343,490
-52,446	800,000	762,785	2339,322
-51,432	545,725	1660,474	2811,421
-50,417	71,175	1656,818	1210,806
-49,403	17,201	1529,890	853,886
-48,388	11,213	1453,950	782,614
-47,373	19,339	1445,598	816,979
-46,359	14,714	1434,633	788,820
-45,344	9,520	1430,554	761,878
-44,330	9,502	1428,410	760,619
-43,315	9,436	1426,894	759,468
-42,300	9,452	1425,122	758,570
-41,286	9,487	1423,864	758,037
-40,271	9,428	1422,464	756,985
-39,257	9,433	1421,570	756,500
-38,242	9,420	1420,405	755,790
-37,227	9,439	1419,356	755,293
-36,213	9,461	1417,984	754,636
-35,198	9,469	1416,751	753,988
-34,184	9,516	1415,834	753,688
-33,169	9,437	1414,430	752,541
-32,154	9,513	1413,330	752,282
-31,140	9,509	1412,025	751,541
-30,125	9,547	1410,785	751,029
-29,111	9,506	1409,642	750,200
-28,096	9,479	1408,636	749,508
-27,082	9,401	1407,512	748,512
-26,067	9,434	1406,369	748,029
-25,052	9,428	1405,465	747,493
-24,038	9,497	1404,528	747,285
-23,023	9,433	1403,767	746,551
-22,009	9,448	1402,554	745,949
-20,994	9,389	1401,577	745,125
-19,979	9,420	1400,703	744,771
-18,965	9,456	1399,429	744,233
-17,950	9,391	1398,582	743,450
-16,936	9,366	1397,909	742,947
-15,921	9,269	1396,981	741,977
-14,906	9,337	1395,842	741,656
-13,892	9,388	1394,997	741,416
-12,877	9,331	1394,393	740,802
-11,863	9,332	1393,390	740,240
-10,848	9,362	1392,332	739,788
-9,833	9,306	1391,709	739,170
-8,819	9,224	1390,802	738,282
-7,804	9,224	1389,915	737,778
-6,790	9,208	1388,855	737,113
-5,775	9,263	1387,609	736,678
-4,760	9,238	1386,630	736,015
-3,746	9,257	1385,898	735,681
-2,731	9,256	1384,931	735,135
-1,717	9,231	1384,153	734,577
-0,702	9,248	1382,449	733,721
0,313	13,366	1294,841	705,975
1,327	29,502	686,175	410,498
2,342	46,197	118,331	77,158
3,356	1,788	16,446	8,330
4,371	1,772	3,681	1,864
5,386	25,348	1,205	0,704
6,400	-200,000	0,189	0,604
7,415	-143,218	-0,143	-0,010
8,429	24,679	-0,299	-0,174
9,444	124,166	-0,332	-0,294
10,459	178,492	-0,244	-0,252
11,473	-135,737	-0,248	-0,020
12,488	-74,453	-0,308	-0,078
13,502	73,660	-0,302	-0,223
14,517	-27,937	-0,303	-0,123
15,531	107,354	-0,476	-0,398
16,546	-45,300	-0,365	-0,127
17,561	534,697	-0,224	-0,376
18,575	-155,055	-0,133	-0,006
19,590	10,494	-0,265	-0,142
20,604	-98,221	-0,267	-0,048
21,619	103,733	-0,403	-0,333
22,634	40,466	-0,442	-0,280
23,648	158,490	-0,409	-0,399
24,663	69,895	-0,338	-0,245
25,677	123,683	-0,329	-0,290
26,692	246,530	-0,197	-0,234
27,707	145,740	-0,293	-0,276
28,721	30,871	-0,395	-0,238
29,736	121,006	-0,381	-0,333
30,750	239,182	-0,314	-0,369
31,765	24,555	-0,397	-0,230
32,780	110,306	-0,341	-0,288
33,794	225,623	-0,212	-0,242
34,809	40,429	-0,242	-0,153
35,823	116,060	-0,206	-0,177
36,838	91,805	-0,322	-0,255
37,853	154,265	-0,343	-0,331
38,867	239,964	-0,202	-0,237
39,882	67,440	-0,334	-0,240
40,896	110,047	-0,232	-0,195
41,911	128,477	-0,296	-0,265
42,926	-35,966	-0,473	-0,179
43,940	206,154	-0,260	-0,285
44,955	150,686	-0,364	-0,347
45,969	-84,554	-0,363	-0,080
46,984	168,081	-0,292	-0,292
47,999	-59,969	-0,341	-0,102
49,013	122,547	-0,276	-0,242
50,028	69,558	-0,267	-0,193
51,042	-101,828	-0,358	-0,060
52,057	198,373	-0,286	-0,308
53,071	164,407	-0,267	-0,264
54,086	-53,508	-0,494	-0,158
55,101	108,943	-0,217	-0,182
56,115	35,433	-0,312	-0,192
57,130	210,309	-0,204	-0,225
58,144	22,300	-0,415	-0,237
59,159	32,896	-0,291	-0,176
60,174	32,716	-0,341	-0,207
61,188	73,173	-0,401	-0,294
62,203	357,723	-0,125	-0,175
63,217	-155,106	-0,239	0,011
64,232	266,971	-0,184	-0,226
65,247	105,713	-0,302	-0,250
66,261	86,078	-0,198	-0,153
67,276	162,077	-0,356	-0,350
68,290	-7,379	-0,218	-0,103
69,305	223,407	-0,216	-0,244
70,320	-87,694	-0,264	-0,055
71,334	25,855	-0,292	-0,170
72,349	748,087	-0,228	-0,432
73,363	-44,703	-0,269	-0,093
74,378	124,053	-0,307	-0,270
75,393	52,510	-0,337	-0,225
76,407	235,599	-0,201	-0,233
77,422	-111,960	-0,199	-0,028
78,436	65,253	-0,309	-0,218
79,451	8,546	-0,378	-0,199
80,466	29,027	-0,326	-0,193
81,480	123,098	-0,233	-0,205
82,495	76,440	-0,432	-0,320
83,509	91,436	-0,270	-0,212
84,524	-110,635	-0,226	-0,032
85,539	-92,251	-0,335	-0,066
86,553	-20,436	-0,299	-0,128
87,568	55,890	-0,304	-0,206
88,582	47,291	-0,319	-0,208
89,597	-108,621	-0,320	-0,048
90,611	-68,009	-0,302	-0,082
91,626	186,098	-0,210	-0,219
92,641	281,376	-0,155	-0,194
93,655	55,949	-0,294	-0,199
94,670	-33,931	-0,406	-0,155
95,684	47,813	-0,185	-0,121
96,699	60,547	-0,296	-0,205
97,714	141,267	-0,260	-0,241
98,728	13,741	-0,165	-0,089
99,743	-126,697	-0,251	-0,026
100,757	635,098	-0,112	-0,200
101,772	-32,267	-0,166	-0,065
102,787	76,067	-0,252	-0,186
103,801	-10,836	-0,252	-0,116
104,816	-31,267	-0,272	-0,107
105,830	18,268	-0,221	-0,123
106,845	-72,987	-0,196	-0,050
107,860	-24,684	-0,180	-0,075
108,874	16,096	-0,189	-0,104
109,889	191,603	-0,176	-0,185
110,903	49,746	-0,319	-0,210
111,918	145,272	-0,289	-0,270
112,933	-16,760	-0,243	-0,107
113,947	-129,280	-0,442	-0,042
114,962	181,870	-0,161	-0,165
115,976	11,330	-0,300	-0,160
116,991	-162,285	-0,387	0,013
118,006	171,061	-0,316	-0,317
119,020	95,767	-0,251	-0,200
120,035	18,667	-0,170	-0,095
121,049	94,157	-0,260	-0,206
122,064	-114,087	-0,240	-0,032
123,079	112,288	-0,130	-0,110
124,093	-0,327	-0,377	-0,186
125,108	41,890	-0,186	-0,117
126,122	496,759	-0,153	-0,246
127,137	151,654	-0,251	-0,239
128,151	-143,673	-0,090	-0,006
129,166	-108,249	-0,247	-0,037
130,181	32,138	-0,258	-0,155
131,195	124,633	-0,297	-0,261
132,210	158,250	-0,232	-0,224
133,224	7,383	-0,224	-0,116
134,239	39,006	-0,234	-0,145
135,254	202,381	-0,244	-0,263
136,268	250,535	-0,160	-0,189
137,283	261,734	-0,228	-0,275
138,297	57,235	-0,231	-0,157
139,312	279,492	-0,254	-0,317
140,327	85,619	-0,306	-0,234
141,341	18,358	-0,329	-0,183
142,356	45,310	-0,177	-0,113
143,370	-39,615	-0,324	-0,118
144,385	-60,089	-0,383	-0,113
145,400	800,000	-0,101	-0,225
146,414	87,744	-0,291	-0,224
147,429	79,837	-0,194	-0,145
148,443	74,125	-0,319	-0,233
149,458	-27,700	-0,261	-0,105
150,473	-65,760	-0,293	-0,081
151,487	307,336	-0,180	-0,234
152,502	112,211	-0,258	-0,217
153,516	223,835	-0,198	-0,223
154,531	24,310	-0,222	-0,127
155,546	123,503	-0,157	-0,137
156,560	586,671	-0,083	-0,142
157,575	-67,051	-0,288	0,078
158,589	50,060	-0,243	-0,159
159,604	-70,226	-0,221	-0,058
160,619	261,835	-0,245	-0,296
161,633	41,118	-0,120	-0,075
162,648	6,100	-0,228	-0,117
163,662	39,823	-0,180	-0,112
164,677	800,000	-0,079	-0,174
165,692	175,508	-0,196	-0,198
166,706	379,302	-0,154	-0,220
167,721	283,253	-0,173	-0,216
168,735	-27,553	-0,167	-0,067
169,750	18,418	-0,336	-0,186
170,764	7,710	-0,135	-0,070
171,779	800,000	-0,101	-0,207
172,794	430,367	-0,153	-0,230
173,808	26,126	-0,174	-0,101
174,823	-11,688	-0,278	-0,126
175,837	328,840	-0,224	-0,299
176,852	-30,578	-0,248	-0,097
177,867	431,174	-0,143	-0,216
178,881	-10,718	-0,163	-0,075
179,896	149,433	-0,194	-0,183
180,910	256,647	-0,181	-0,216
181,925	107,411	-0,276	-0,228
182,940	210,746	-0,229	-0,251
183,954	-72,507	-0,311	-0,079
184,969	-2,271	-0,380	-0,184
185,983	89,464	-0,201	-0,156
186,998	-175,048	-0,275	-0,005
188,013	96,293	-0,217	-0,172
189,027	144,498	-0,215	-0,199
190,042	60,885	-0,194	-0,133
191,056	154,359	-0,143	-0,136
192,071	-3,807	-0,118	-0,057
193,086	800,000	-0,089	-0,196
194,100	800,000	-0,116	-0,241
195,115	129,835	-0,216	-0,191
196,129	54,111	-0,283	-0,188
197,144	104,185	-0,182	-0,149
198,159	701,608	-0,111	-0,203
199,173	123,366	-0,223	-0,194
200,188	800,000	-0,147	-0,292
201,202	427,649	-0,096	-0,144
202,217	-82,037	-0,213	-0,048
203,232	-124,415	-0,162	0,017
204,246	75,485	-0,247	-0,180
205,261	111,699	-0,169	-0,141
206,275	13,075	-0,125	-0,067
207,290	177,544	-0,207	-0,209
208,304	-166,427	-0,165	0,005
209,319	206,969	-0,144	-0,156
210,334	625,493	-0,135	-0,236
211,348	56,417	-0,263	-0,177
212,363	93,668	-0,184	-0,144
213,377	126,047	-0,223	-0,195
214,392	100,600	-0,050	-0,040
215,407	3,871	-0,205	-0,103
216,421	102,697	-0,166	-0,135
217,436	-59,330	-0,256	-0,076
218,450	800,000	-0,101	-0,231
219,465	97,173	-0,138	-0,110
220,480	103,685	-0,180	-0,146
221,494	-94,587	-0,154	0,029
222,509	-60,290	-0,073	-0,021
223,523	-47,598	-0,216	-0,072
224,538	-60,235	-0,130	0,038
225,553	248,763	-0,213	-0,250
226,567	111,461	-0,101	-0,084
227,582	48,712	-0,177	-0,115
228,596	476,455	-0,104	-0,163
229,611	401,318	-0,109	-0,159
230,626	-125,735	-0,142	-0,015
231,640	-32,102	-0,179	-0,069
232,655	59,739	-0,162	-0,110
233,669	121,420	-0,195	-0,168
234,684	-0,243	-0,160	-0,078
235,699	-200,000	-0,237	0,000
236,713	109,528	0,029	-0,024
237,728	150,631	-0,088	-0,083
238,742	147,211	-0,163	-0,152
239,757	222,377	-0,217	-0,241
240,772	266,723	-0,190	-0,230
241,786	574,363	-0,099	-0,167
242,801	250,351	-0,158	-0,185
243,815	-42,220	-0,138	0,048
244,830	2,188	-0,096	0,048
245,844	229,936	-0,134	-0,152
246,859	141,761	-0,139	-0,127
247,874	-93,763	-0,267	-0,050
248,888	-72,764	-0,109	-0,028
249,903	137,785	-0,142	-0,129
250,917	-85,997	-0,242	0,051
251,932	-57,576	-0,194	-0,058
252,947	248,153	-0,176	-0,206
253,961	-19,415	-0,186	-0,079
254,976	175,096	-0,244	-0,243
255,990	-37,404	-0,260	-0,095
257,005	531,477	-0,128	-0,209
258,020	143,898	-0,173	-0,159
259,034	3,774	-0,071	-0,036
260,049	71,192	-0,150	-0,107
261,063	666,644	-0,096	-0,171
262,078	800,000	-0,127	-0,355
263,093	-66,733	-0,205	-0,056
264,107	-200,000	-0,042	-0,142
265,122	113,323	-0,071	-0,059
266,136	-187,568	-0,339	0,003
267,151	-137,726	-0,101	-0,008
268,166	39,095	-0,180	-0,111
269,180	128,358	-0,170	-0,149
270,195	181,162	-0,145	-0,146
271,209	21,445	-0,098	-0,054
272,224	-123,319	-0,146	0,016
273,239	356,592	-0,061	-0,084
274,253	468,432	-0,107	-0,166
275,268	-1,026	-0,212	-0,103
276,282	29,908	-0,102	-0,060
277,297	-9,152	-0,265	-0,122
278,312	33,856	-0,144	-0,086
279,326	285,843	-0,110	-0,136
280,341	336,123	-0,036	-0,048
281,355	-50,522	-0,171	-0,055
282,370	-31,090	-0,178	-0,069
283,384	72,238	-0,260	-0,186
284,399	191,091	-0,133	-0,138
285,414	451,647	-0,110	-0,168
286,428	20,333	-0,116	-0,064
287,443	96,228	-0,054	-0,042
288,457	6,826	-0,100	0,051
289,472	-88,138	-0,182	-0,037
290,487	44,540	-0,120	0,076
291,501	86,619	-0,262	-0,199
292,516	-40,720	-0,158	-0,056
293,530	378,028	-0,145	-0,205
294,545	283,718	-0,137	-0,170
295,560	-200,000	-0,056	-0,204
296,574	25,278	-0,115	-0,066
297,589	357,954	-0,121	-0,166
298,603	83,383	-0,074	-0,055
299,618	-2,517	-0,090	-0,043
300,633	-123,163	-0,140	-0,015
301,647	255,840	-0,074	-0,088
302,662	25,709	-0,169	-0,097
303,676	-139,134	-0,151	0,011
304,691	16,602	-0,146	-0,079
305,706	181,433	-0,169	-0,171
306,720	39,064	-0,123	-0,075
307,735	-15,380	-0,105	-0,046
308,749	-200,000	-0,082	-0,274
309,764	7,846	-0,065	0,033
310,779	-158,483	-0,053	0,002
311,793	-41,467	-0,296	-0,104
312,808	135,404	-0,089	-0,079
313,822	-109,430	-0,082	-0,012
314,837	800,000	-0,075	-0,183
315,852	-200,000	0,011	-0,118
316,866	-70,057	-0,176	-0,046
317,881	-84,825	-0,174	-0,037
318,895	19,364	-0,184	-0,101
319,910	172,878	-0,161	-0,159
320,925	276,471	-0,125	-0,153
321,939	-200,000	0,002	-0,110
322,954	9,223	-0,147	0,076
323,968	202,211	-0,072	-0,077
324,983	-136,740	-0,112	-0,009
325,997	45,815	-0,134	-0,085
327,012	37,966	-0,152	-0,093
328,027	-161,153	-0,201	0,007
329,041	119,317	-0,084	-0,071
330,056	368,129	-0,050	-0,070
331,070	246,680	-0,062	-0,072
332,085	-90,652	-0,170	0,033
333,100	136,547	-0,163	-0,146
334,114	493,669	-0,123	-0,195
335,129	-15,583	-0,133	-0,058
336,143	744,368	-0,129	-0,238
337,158	40,299	-0,140	-0,086
338,173	432,887	-0,053	-0,080
339,187	-98,547	-0,148	-0,026
340,202	676,844	-0,048	-0,086
341,216	122,878	-0,096	-0,082
342,231	-44,079	-0,077	0,026
343,246	112,383	-0,148	-0,122
344,260	569,414	-0,075	-0,125
345,275	-69,218	-0,091	0,024
346,289	351,018	-0,053	-0,072
347,304	-34,903	-0,199	-0,074
348,319	-6,405	-0,165	-0,077
349,333	5,911	-0,135	-0,068
350,348	-5,611	-0,238	-0,111
351,362	-175,610	-0,197	0,004
352,377	-82,148	-0,164	-0,036
353,392	-94,995	-0,093	-0,017
354,406	-91,757	-0,059	-0,011
355,421	206,313	1307,537	1393,031
356,435	158,667	1467,351	1393,512
