DTS Sentinel unit serial number:	SN410029Multiplexer serial number:	ORYXHardware model number:	OX2-SRSoftware version number:	ORYX F/W v4,00 Oryx Data Collector v3.7.2.0data status	okinstallation	B3 Nyhavnadifferential loss correction	single-endedforward channel	channel 1reverse channel	N/Adate	2023/12/03time	03:07:30forward acquisition time	300,00reverse acquisition time	0,00gamma	499,1914k internal	0,3201k external	0,3201temperature offset calibration	1,0000default loss term (dB/km)	0,3820temperature slope calibration	1,0000multiplexer offset coefficient	1,0000multiplexer slope coefficient	1,0000fibre end	0,00T internal ref (°C)	13,32T ext. ref 1 (°C)	-1,63T ext. ref 2 (°C)	-1,65length (m)	temperature (°C)	Stokes	anti-Stokes-744,400	61,506	-0,314	-0,227
-743,385	-200,000	0,059	0,195
-742,371	800,000	-0,073	-0,188
-741,356	-200,000	-0,023	0,200
-740,342	73,437	-0,273	-0,208
-739,327	-200,000	-0,064	0,363
-738,312	515,591	-0,134	-0,229
-737,298	-200,000	0,023	0,283
-736,283	0,108	-0,216	-0,112
-735,269	-200,000	-0,009	0,127
-734,254	123,322	-0,261	-0,238
-733,239	142,308	-0,196	0,189
-732,225	-200,000	0,024	-0,080
-731,210	-200,000	0,001	0,155
-730,196	408,488	-0,072	0,111
-729,181	-96,289	-0,161	0,031
-728,167	162,128	0,043	0,044
-727,152	-15,947	0,085	-0,039
-726,137	-22,618	-0,053	0,023
-725,123	-151,353	-0,076	-0,004
-724,108	336,269	-0,109	-0,155
-723,094	655,220	0,033	-0,062
-722,079	158,758	0,020	-0,020
-721,064	-200,000	-0,019	-0,163
-720,050	62,414	0,032	0,023
-719,035	249,787	0,038	0,047
-718,021	486,184	-0,133	-0,221
-717,006	-6,210	-0,104	-0,052
-715,991	58,603	-0,229	-0,163
-714,977	800,000	0,053	-0,127
-713,962	-31,587	-0,104	-0,042
-712,948	2,608	0,153	-0,080
-711,933	-169,525	-0,061	-0,002
-710,918	-72,187	0,188	0,050
-709,904	280,607	-0,049	-0,064
-708,889	83,359	-0,127	0,101
-707,875	800,000	0,039	-0,116
-706,860	411,743	0,036	-0,055
-705,845	800,000	-0,025	-0,053
-704,831	-177,325	0,076	-0,001
-703,816	-200,000	0,003	-0,117
-702,802	-90,320	-0,049	0,010
-701,787	75,203	-0,007	-0,006
-700,772	800,000	0,008	-0,021
-699,758	1,182	0,103	0,053
-698,743	-113,569	0,019	-0,003
-697,729	493,611	0,064	0,108
-696,714	286,632	0,069	0,091
-695,699	117,736	-0,053	-0,047
-694,685	660,032	-0,059	0,111
-693,670	-200,000	-0,010	-0,071
-692,656	-200,000	0,007	-0,068
-691,641	800,000	0,018	0,037
-690,627	85,676	0,079	0,063
-689,612	-117,319	-0,105	0,014
-688,597	-200,000	0,003	-0,073
-687,583	-160,173	0,010	-0,000
-686,568	196,984	0,073	-0,081
-685,554	-59,084	-0,032	0,010
-684,539	61,409	0,097	-0,070
-683,524	56,540	-0,093	0,065
-682,510	-159,419	0,138	0,005
-681,495	119,041	0,032	-0,028
-680,481	-170,839	0,050	-0,001
-679,466	-200,000	-0,016	0,057
-678,451	251,459	-0,025	0,031
-677,437	326,085	0,005	-0,007
-676,422	800,000	-0,034	-0,095
-675,408	800,000	0,042	-0,123
-674,393	-200,000	0,015	0,078
-673,378	-200,000	0,019	0,104
-672,364	-200,000	0,038	-0,209
-671,349	-200,000	-0,010	-0,039
-670,335	-200,000	0,013	-0,053
-669,320	-200,000	-0,004	0,024
-668,305	-116,181	-0,052	0,007
-667,291	-200,000	0,013	-0,133
-666,276	-200,000	0,030	0,098
-665,262	-144,038	0,109	-0,007
-664,247	299,751	-0,053	-0,071
-663,232	-200,000	-0,007	0,037
-662,218	-75,481	-0,187	-0,048
-661,203	9,582	0,085	0,047
-660,189	91,499	-0,166	-0,135
-659,174	-111,052	0,041	0,006
-658,159	70,064	-0,150	-0,112
-657,145	168,206	-0,086	-0,089
-656,130	800,000	0,022	0,050
-655,116	800,000	-0,069	-0,177
-654,101	-200,000	0,005	0,112
-653,086	464,978	-0,044	-0,072
-652,072	93,774	0,091	-0,074
-651,057	119,768	-0,127	-0,114
-650,043	613,193	-0,077	0,140
-649,028	550,712	0,047	0,082
-648,014	-200,000	-0,005	-0,134
-646,999	17,061	0,040	0,023
-645,984	-70,698	0,139	-0,038
-644,970	800,000	-0,031	-0,070
-643,955	800,000	0,013	0,034
-642,941	800,000	-0,014	-0,033
-641,926	87,410	-0,035	-0,028
-640,911	-46,514	-0,159	-0,056
-639,897	-29,255	-0,051	-0,021
-638,882	800,000	-0,033	0,090
-637,868	-57,269	-0,079	-0,025
-636,853	-63,513	-0,111	-0,033
-635,838	223,020	-0,070	0,081
-634,824	46,618	0,042	-0,028
-633,809	277,188	-0,032	0,042
-632,795	222,623	-0,030	-0,035
-631,780	201,004	0,088	-0,098
-630,765	164,057	-0,053	-0,054
-629,751	800,000	-0,016	-0,044
-628,736	800,000	-0,031	-0,070
-627,722	16,438	-0,062	0,035
-626,707	-52,138	0,089	0,030
-625,692	-200,000	0,002	0,073
-624,678	203,228	-0,101	-0,113
-623,663	309,202	0,019	0,025
-622,649	40,269	-0,044	0,029
-621,634	-97,949	0,107	0,020
-620,619	140,187	0,039	-0,037
-619,605	16,529	0,086	0,049
-618,590	-115,288	-0,115	-0,016
-617,576	59,784	-0,101	0,072
-616,561	-58,642	0,064	-0,020
-615,546	-200,000	0,016	-0,103
-614,532	-200,000	-0,012	-0,063
-613,517	85,349	-0,102	0,081
-612,503	527,228	-0,023	-0,039
-611,488	-200,000	0,010	0,090
-610,474	-44,178	-0,071	0,026
-609,459	-193,725	0,152	-0,001
-608,444	70,374	-0,054	-0,040
-607,430	-68,465	-0,019	-0,005
-606,415	-200,000	0,028	-0,216
-605,401	148,893	0,076	0,074
-604,386	46,009	0,043	0,029
-603,371	-32,377	-0,103	0,042
-602,357	280,817	0,039	0,050
-601,342	40,837	-0,111	0,072
-600,328	-113,857	-0,158	-0,022
-599,313	-157,821	-0,048	0,002
-598,298	-74,912	0,063	0,016
-597,284	316,107	-0,024	0,033
-596,269	-200,000	0,006	0,161
-595,255	-72,052	0,039	0,010
-594,240	35,921	-0,101	-0,064
-593,225	800,000	-0,006	0,013
-592,211	800,000	0,035	0,073
-591,196	-85,752	-0,088	0,020
-590,182	315,525	0,021	0,029
-589,167	14,956	0,164	0,093
-588,152	-200,000	-0,031	-0,153
-587,138	-40,320	0,105	0,039
-586,123	15,284	-0,162	-0,092
-585,109	-44,985	-0,069	0,025
-584,094	-107,456	0,040	0,006
-583,079	17,746	0,097	-0,056
-582,065	-58,471	0,022	0,007
-581,050	222,192	-0,067	0,078
-580,036	-200,000	0,009	0,133
-579,021	-53,331	-0,114	0,038
-578,006	451,822	0,021	-0,034
-576,992	-200,000	0,002	-0,168
-575,977	-155,649	-0,030	0,001
-574,963	-200,000	-0,003	0,110
-573,948	101,405	0,172	0,145
-572,934	702,704	0,039	0,074
-571,919	230,562	0,029	-0,034
-570,904	-139,325	-0,140	-0,011
-569,890	-200,000	0,016	-0,083
-568,875	-109,334	-0,192	0,029
-567,861	-200,000	-0,020	0,126
-566,846	-91,179	0,015	0,003
-565,831	-74,432	-0,093	-0,024
-564,817	266,069	0,036	0,045
-563,802	-200,000	-0,033	-0,194
-562,788	-200,000	0,009	0,036
-561,773	-140,299	0,115	-0,009
-560,758	44,758	0,062	-0,041
-559,744	36,456	0,064	0,041
-558,729	-152,389	-0,031	0,002
-557,715	-200,000	-0,010	-0,054
-556,700	-200,000	-0,002	-0,122
-555,685	-200,000	0,003	0,094
-554,671	744,718	0,047	-0,091
-553,656	86,659	0,027	-0,021
-552,642	283,862	0,067	0,087
-551,627	-200,000	0,002	0,052
-550,612	139,797	-0,022	0,021
-549,598	111,721	0,049	0,042
-548,583	-120,579	-0,193	0,023
-547,569	91,745	-0,028	0,023
-546,554	316,773	0,092	0,126
-545,539	-131,959	0,092	0,009
-544,525	-84,800	-0,045	0,010
-543,510	-66,217	0,041	-0,012
-542,496	-200,000	-0,007	0,112
-541,481	-78,531	-0,045	-0,011
-540,466	281,877	0,043	0,055
-539,452	800,000	0,015	-0,042
-538,437	-200,000	0,034	0,115
-537,423	92,414	-0,059	0,048
-536,408	-70,071	0,102	-0,028
-535,393	385,668	-0,025	0,038
-534,379	-200,000	0,018	-0,086
-533,364	26,715	0,104	0,063
-532,350	632,496	0,070	0,129
-531,335	-72,175	0,138	0,037
-530,321	-34,185	-0,088	-0,035
-529,306	-74,466	0,022	-0,006
-528,291	67,474	-0,119	-0,088
-527,277	379,618	-0,046	-0,068
-526,262	674,383	-0,063	-0,118
-525,248	36,361	0,009	-0,005
-524,233	317,788	-0,069	-0,095
-523,218	92,036	-0,072	-0,058
-522,204	705,447	-0,059	-0,114
-521,189	-81,609	-0,096	-0,023
-520,175	-123,297	0,048	-0,005
-519,160	-77,726	0,123	-0,030
-518,145	-146,547	0,093	-0,006
-517,131	275,896	0,052	0,067
-516,116	438,595	0,057	-0,089
-515,102	-55,457	0,106	0,034
-514,087	-200,000	0,000	0,005
-513,072	-200,000	-0,002	-0,025
-512,058	173,514	-0,116	-0,121
-511,043	-183,822	0,068	0,001
-510,029	800,000	0,046	0,094
-509,014	-69,633	-0,052	-0,014
-507,999	-114,247	0,078	0,011
-506,985	-200,000	-0,001	-0,013
-505,970	614,860	0,019	-0,035
-504,956	-29,196	-0,105	-0,043
-503,941	-149,941	-0,055	-0,003
-502,926	-197,916	0,066	-0,000
-501,912	-124,978	0,088	0,010
-500,897	-41,802	-0,069	0,025
-499,883	800,000	-0,028	-0,060
-498,868	-172,266	-0,074	-0,002
-497,853	445,125	-0,043	-0,069
-496,839	121,448	0,088	0,079
-495,824	17,452	-0,110	0,063
-494,810	12,423	0,094	0,052
-493,795	91,726	-0,036	0,029
-492,781	-86,314	0,116	0,026
-491,766	104,733	-0,111	-0,095
-490,751	-200,000	0,010	0,059
-489,737	800,000	0,034	-0,084
-488,722	763,086	-0,034	0,067
-487,708	261,552	0,068	0,085
-486,693	619,552	0,043	-0,078
-485,678	250,034	-0,097	0,119
-484,664	72,485	-0,052	-0,039
-483,649	170,828	0,029	-0,030
-482,635	-117,644	-0,084	0,011
-481,620	-99,894	0,128	0,023
-480,605	626,054	-0,048	0,087
-479,591	800,000	-0,041	0,084
-478,576	489,648	-0,015	-0,025
-477,562	113,590	0,097	-0,085
-476,547	-61,513	-0,104	0,031
-475,532	692,242	0,028	0,053
-474,518	-92,582	0,067	0,013
-473,503	-200,000	-0,040	0,154
-472,489	-200,000	0,014	0,096
-471,474	-200,000	0,015	-0,078
-470,459	-200,000	0,016	-0,069
-469,445	367,613	-0,024	-0,035
-468,430	-200,000	-0,016	-0,127
-467,416	-135,559	0,144	0,012
-466,401	-200,000	-0,012	-0,123
-465,386	136,375	0,066	-0,062
-464,372	-86,865	-0,145	-0,032
-463,357	-38,704	-0,104	-0,039
-462,343	35,934	-0,077	-0,049
-461,328	3,273	0,052	-0,027
-460,313	551,973	0,063	0,110
-459,299	-129,329	0,076	-0,007
-458,284	673,661	0,059	-0,111
-457,270	800,000	-0,015	0,043
-456,255	-200,000	-0,015	-0,098
-455,241	9,284	-0,145	-0,078
-454,226	-200,000	-0,019	0,099
-453,211	-200,000	0,031	0,112
-452,197	800,000	0,019	0,039
-451,182	11,079	0,140	0,077
-450,168	-200,000	0,013	0,086
-449,153	253,108	-0,025	0,031
-448,138	-200,000	-0,032	-0,105
-447,124	-170,168	-0,033	0,001
-446,109	80,959	0,072	0,056
-445,095	-138,436	0,058	0,004
-444,080	-31,024	-0,022	-0,009
-443,065	-165,710	0,051	-0,002
-442,051	-72,595	-0,069	0,018
-441,036	-200,000	0,005	-0,054
-440,022	800,000	0,071	-0,148
-439,007	144,959	0,096	-0,092
-437,992	-142,873	0,145	-0,010
-436,978	-200,000	0,025	0,136
-435,963	-63,512	-0,069	-0,020
-434,949	35,273	-0,086	-0,054
-433,934	-200,000	-0,031	-0,099
-432,919	458,684	0,075	-0,120
-431,905	-102,331	-0,066	-0,011
-430,890	-13,077	0,034	-0,016
-429,876	-200,000	0,013	-0,138
-428,861	-38,461	-0,077	0,029
-427,846	618,041	0,030	-0,054
-426,832	-200,000	-0,014	-0,056
-425,817	-200,000	-0,005	0,058
-424,803	151,148	0,084	-0,082
-423,788	-200,000	-0,015	-0,062
-422,773	64,270	0,134	0,097
-421,759	800,000	0,061	0,129
-420,744	495,832	-0,053	-0,088
-419,730	323,043	0,021	-0,029
-418,715	-200,000	0,009	-0,156
-417,701	800,000	0,015	-0,033
-416,686	183,009	-0,027	0,028
-415,671	251,203	0,113	0,139
-414,657	800,000	0,030	0,060
-413,642	-130,281	0,039	-0,004
-412,628	26,195	-0,080	-0,048
-411,613	86,054	0,097	-0,077
-410,598	33,630	-0,058	0,036
-409,584	266,585	0,083	0,104
-408,569	-200,000	0,027	0,092
-407,555	800,000	0,019	0,055
-406,540	72,880	0,025	0,019
-405,525	800,000	0,016	0,042
-404,511	-200,000	0,011	-0,108
-403,496	-89,454	-0,198	-0,042
-402,482	73,084	-0,054	-0,040
-401,467	535,324	-0,059	0,101
-400,452	-200,000	-0,034	0,207
-399,438	439,318	0,066	0,103
-398,423	-107,422	-0,026	0,004
-397,409	-35,473	0,086	-0,034
-396,394	-200,000	-0,034	-0,123
-395,379	-200,000	-0,014	0,085
-394,365	381,389	-0,044	0,065
-393,350	690,843	0,061	0,115
-392,336	-200,000	0,005	-0,032
-391,321	353,076	0,032	-0,045
-390,306	-10,125	0,055	-0,026
-389,292	-200,000	0,018	-0,113
-388,277	800,000	-0,028	-0,058
-387,263	-200,000	-0,001	0,038
-386,248	-200,000	-0,003	0,216
-385,233	76,991	0,044	-0,034
-384,219	-135,106	0,065	0,006
-383,204	-192,806	0,026	-0,000
-382,190	800,000	0,071	-0,217
-381,175	-200,000	-0,001	0,012
-380,160	127,695	0,125	0,114
-379,146	-16,164	0,073	-0,033
-378,131	-156,173	0,098	-0,004
-377,117	-200,000	-0,001	-0,069
-376,102	639,310	0,043	0,079
-375,088	183,549	-0,071	0,075
-374,073	100,347	-0,026	-0,021
-373,058	51,914	0,144	-0,098
-372,044	105,706	0,049	-0,042
-371,029	-200,000	-0,025	-0,098
-370,015	-200,000	-0,012	0,078
-369,000	-51,620	-0,121	0,040
-367,985	25,778	-0,007	0,004
-366,971	528,855	-0,097	-0,164
-365,956	-141,105	-0,087	-0,006
-364,942	-200,000	0,002	0,046
-363,927	800,000	0,048	0,110
-362,912	-200,000	0,004	-0,053
-361,898	200,734	-0,139	0,153
-360,883	800,000	-0,032	-0,064
-359,869	37,919	0,067	-0,043
-358,854	364,577	-0,064	0,093
-357,839	800,000	0,044	0,097
-356,825	-168,006	0,061	0,002
-355,810	-58,114	0,108	0,033
-354,796	-129,895	-0,114	0,011
-353,781	800,000	0,035	0,078
-352,766	-200,000	0,001	-0,172
-351,752	-7,160	0,136	-0,066
-350,737	372,138	0,013	0,019
-349,723	-200,000	0,000	-0,065
-348,708	359,583	-0,025	-0,036
-347,693	800,000	-0,047	0,121
-346,679	-112,231	-0,068	0,010
-345,664	-33,113	-0,050	-0,020
-344,650	132,338	0,142	0,131
-343,635	87,764	-0,077	-0,061
-342,620	-83,702	0,140	0,032
-341,606	-12,132	-0,045	-0,021
-340,591	-200,000	-0,000	-0,039
-339,577	704,244	-0,028	0,052
-338,562	-132,534	-0,114	0,010
-337,548	385,898	-0,029	-0,043
-336,533	800,000	0,016	0,046
-335,518	346,417	0,040	-0,056
-334,504	-200,000	-0,006	-0,042
-333,489	-200,000	-0,006	-0,077
-332,475	85,781	0,099	-0,078
-331,460	273,299	-0,072	-0,092
-330,445	483,875	-0,040	-0,066
-329,431	25,600	-0,052	-0,031
-328,416	20,925	0,037	-0,021
-327,402	-200,000	0,034	0,193
-326,387	-200,000	-0,015	-0,126
-325,372	633,185	-0,040	0,073
-324,358	-200,000	0,024	-0,081
-323,343	345,430	0,013	0,018
-322,329	-174,345	-0,093	0,002
-321,314	800,000	0,035	0,070
-320,299	162,180	0,057	0,057
-319,285	800,000	-0,065	0,135
-318,270	-49,767	-0,191	0,065
-317,256	-200,000	-0,015	-0,106
-316,241	-71,083	0,148	0,039
-315,226	-2,624	-0,113	0,056
-314,212	215,485	0,080	0,091
-313,197	-49,418	-0,071	0,024
-312,183	-200,000	0,002	-0,027
-311,168	800,000	0,023	-0,060
-310,153	-200,000	-0,034	-0,121
-309,139	14,393	-0,048	0,027
-308,124	-2,523	-0,019	-0,009
-307,110	-2,719	-0,043	0,021
-306,095	14,095	0,048	0,027
-305,080	142,074	0,033	0,032
-304,066	-84,462	0,151	-0,034
-303,051	800,000	-0,032	-0,068
-302,037	800,000	0,034	0,095
-301,022	-147,394	-0,117	0,007
-300,008	-121,487	0,066	0,008
-298,993	242,740	0,055	0,066
-297,978	-4,265	-0,127	0,063
-296,964	-52,931	0,044	0,014
-295,949	-17,479	-0,113	-0,051
-294,935	30,702	0,065	-0,040
-293,920	-90,612	0,066	0,013
-292,905	-118,297	0,123	0,015
-291,891	116,014	-0,036	-0,032
-290,876	187,896	-0,148	0,158
-289,862	-200,000	-0,024	-0,100
-288,847	-200,000	-0,011	-0,129
-287,832	-148,583	0,067	-0,004
-286,818	498,441	-0,033	0,054
-285,803	-24,250	-0,023	0,010
-284,789	218,349	0,021	0,024
-283,774	800,000	0,037	-0,088
-282,759	-156,258	0,048	0,002
-281,745	-157,717	-0,027	-0,001
-280,730	-68,107	-0,074	0,020
-279,716	14,725	-0,046	-0,026
-278,701	77,116	0,061	-0,046
-277,686	469,899	0,049	0,079
-276,672	-130,261	0,115	0,011
-275,657	196,050	0,041	0,045
-274,643	-200,000	-0,015	-0,049
-273,628	-74,337	-0,147	-0,038
-272,613	-71,735	-0,063	-0,017
-271,599	430,209	0,020	0,032
-270,584	800,000	0,031	0,093
-269,570	34,210	0,163	0,101
-268,555	102,012	-0,051	-0,042
-267,540	-14,702	-0,107	0,049
-266,526	433,260	-0,031	-0,048
-265,511	-16,098	-0,035	-0,016
-264,497	-200,000	0,064	-0,234
-263,482	-116,986	0,093	0,012
-262,467	64,173	-0,119	0,085
-261,453	44,832	-0,063	-0,041
-260,438	464,297	-0,071	-0,114
-259,424	-200,000	0,010	0,140
-258,409	307,225	-0,044	0,059
-257,395	-200,000	-0,003	-0,067
-256,380	-153,974	0,096	-0,005
-255,365	800,000	-0,055	0,153
-254,351	800,000	-0,014	0,037
-253,336	-200,000	0,024	0,138
-252,322	210,919	0,061	-0,069
-251,307	18,011	-0,109	-0,062
-250,292	40,902	-0,018	-0,011
-249,278	188,936	0,008	0,008
-248,263	-200,000	0,003	0,085
-247,249	78,054	0,052	0,040
-246,234	370,483	0,016	-0,023
-245,219	-200,000	0,016	0,119
-244,205	689,137	0,076	-0,143
-243,190	-79,343	-0,072	0,017
-242,176	656,603	-0,033	-0,061
-241,161	800,000	0,018	0,043
-240,146	-200,000	0,000	0,080
-239,132	30,262	-0,117	0,071
-238,117	498,260	-0,028	-0,047
-237,103	800,000	-0,038	-0,081
-236,088	225,365	-0,036	-0,042
-235,073	-200,000	0,033	0,166
-234,059	-195,584	0,078	0,000
-233,044	800,000	-0,019	0,042
-232,030	-132,213	-0,182	-0,017
-231,015	-154,954	-0,156	0,007
-230,000	800,000	-0,002	-0,006
-228,986	-200,000	-0,013	-0,055
-227,971	-158,814	-0,079	-0,003
-226,957	58,453	0,092	-0,064
-225,942	-200,000	0,009	0,057
-224,927	-136,178	-0,082	-0,007
-223,913	498,746	-0,089	-0,146
-222,898	-200,000	0,003	-0,037
-221,884	17,809	-0,015	0,009
-220,869	-124,571	0,059	-0,006
-219,855	127,798	0,078	-0,071
-218,840	-170,846	-0,025	0,001
-217,825	-55,678	-0,122	0,039
-216,811	-200,000	0,019	0,062
-215,796	-200,000	0,010	-0,102
-214,782	-200,000	-0,016	-0,060
-213,767	34,482	0,083	-0,052
-212,752	-200,000	0,005	0,060
-211,738	-9,644	0,016	-0,007
-210,723	-12,571	-0,052	0,024
-209,709	458,250	-0,081	0,128
-208,694	320,287	0,019	0,025
-207,679	-41,317	0,032	-0,012
-206,665	-94,836	-0,071	-0,014
-205,650	-200,000	0,009	-0,038
-204,636	58,819	-0,044	0,031
-203,621	134,408	-0,009	-0,008
-202,606	16,964	-0,046	0,026
-201,592	26,772	-0,066	-0,039
-200,577	-200,000	-0,001	-0,058
-199,563	-200,000	0,034	-0,298
-198,548	800,000	0,033	-0,084
-197,533	63,471	-0,058	-0,041
-196,519	12,034	-0,131	-0,072
-195,504	44,965	0,150	-0,098
-194,490	146,712	-0,098	0,094
-193,475	-200,000	-0,014	-0,051
-192,460	-200,000	-0,125	-0,000
-191,446	800,000	0,047	0,100
-190,431	800,000	-0,035	0,087
-189,417	-200,000	-0,023	0,074
-188,402	194,694	0,142	0,154
-187,387	-152,236	0,024	-0,001
-186,373	800,000	-0,090	-0,219
-185,358	800,000	-0,017	-0,040
-184,344	112,295	0,112	0,097
-183,329	1,730	0,106	0,054
-182,315	-200,000	0,035	0,121
-181,300	598,830	0,062	0,110
-180,285	-78,644	-0,041	-0,010
-179,271	800,000	0,028	-0,057
-178,256	25,635	0,119	-0,070
-177,242	800,000	0,045	0,118
-176,227	759,170	0,059	0,115
-175,212	281,711	0,067	-0,085
-174,198	772,940	0,018	-0,036
-173,183	-200,000	0,022	-0,073
-172,169	90,072	-0,096	0,076
-171,154	-11,427	-0,127	0,059
-170,139	7,511	0,076	-0,040
-169,125	279,341	0,056	0,071
-168,110	-200,000	0,004	0,077
-167,096	152,400	0,038	-0,037
-166,081	-200,000	-0,033	-0,119
-165,066	-200,000	0,000	-0,044
-164,052	-134,397	0,061	0,005
-163,037	194,280	0,030	-0,032
-162,023	-200,000	0,008	-0,026
-161,008	458,521	0,063	0,100
-159,993	-200,000	-0,016	0,066
-158,979	161,100	-0,079	-0,078
-157,964	-167,731	0,096	0,003
-156,950	-81,198	0,086	0,020
-155,935	-116,843	0,112	0,014
-154,920	-19,331	-0,104	0,046
-153,906	22,653	0,053	-0,031
-152,891	-200,000	0,021	-0,120
-151,877	18,250	-0,115	-0,065
-150,862	283,560	-0,038	0,048
-149,847	17,075	-0,008	-0,004
-148,833	-65,504	0,087	0,025
-147,818	800,000	-0,019	0,052
-146,804	97,530	0,099	0,080
-145,789	-200,000	0,005	-0,030
-144,775	800,000	0,063	-0,170
-143,760	176,879	-0,035	0,036
-142,745	115,016	-0,054	-0,047
-141,731	336,937	-0,075	0,103
-140,716	-54,542	0,014	-0,005
-139,702	178,865	-0,028	-0,029
-138,687	800,000	0,029	-0,066
-137,672	55,897	0,098	0,068
-136,658	185,266	0,021	-0,022
-135,643	181,198	-0,041	-0,043
-134,629	-29,182	-0,020	-0,008
-133,614	-106,514	-0,046	-0,007
-132,599	-200,000	0,012	-0,119
-131,585	800,000	0,014	-0,037
-130,570	800,000	-0,041	0,108
-129,556	-200,000	-0,021	-0,109
-128,541	465,328	-0,050	-0,079
-127,526	-200,000	0,016	-0,076
-126,512	66,637	0,106	0,076
-125,497	477,742	-0,034	0,054
-124,483	-97,108	-0,120	0,022
-123,468	-8,676	-0,116	0,055
-122,453	-62,807	-0,135	0,039
-121,439	-92,117	0,076	-0,015
-120,424	145,180	-0,046	-0,044
-119,410	-200,000	-0,004	0,085
-118,395	47,871	-0,074	-0,049
-117,380	62,322	0,052	-0,037
-116,366	51,466	-0,049	0,033
-115,351	-200,000	0,000	-0,108
-114,337	-200,000	0,016	-0,104
-113,322	81,818	-0,068	-0,052
-112,307	311,164	0,045	-0,060
-111,293	-111,156	-0,024	-0,003
-110,278	-88,593	-0,087	-0,018
-109,264	-78,528	-0,123	-0,030
-108,249	206,192	-0,165	-0,183
-107,234	-200,000	0,019	-0,134
-106,220	1,030	0,081	0,041
-105,205	-3,014	0,080	-0,039
-104,191	800,000	0,027	0,082
-103,176	-200,000	0,001	0,139
-102,162	-143,606	0,059	-0,004
-101,147	-200,000	-0,005	-0,040
-100,132	-200,000	0,000	-0,045
-99,118	800,000	-0,093	-0,234
-98,103	-14,755	-0,094	-0,043
-97,089	-15,018	0,066	0,030
-96,074	-168,462	-0,088	0,002
-95,059	-181,189	-0,091	-0,001
-94,045	-200,000	-0,001	0,107
-93,030	-200,000	-0,019	-0,099
-92,016	101,373	0,030	0,024
-91,001	117,626	-0,099	-0,086
-89,986	24,068	0,102	0,060
-88,972	-200,000	0,013	0,327
-87,957	-200,000	-0,002	0,087
-86,943	-164,637	0,019	0,001
-85,928	-34,358	0,086	-0,033
-84,913	-112,526	0,028	0,004
-83,899	-156,169	-0,104	-0,005
-82,884	-200,000	0,030	-0,101
-81,870	526,341	0,043	0,073
-80,855	47,776	0,135	0,089
-79,840	494,067	-0,005	0,008
-78,826	462,244	-0,030	0,047
-77,811	-200,000	0,005	-0,161
-76,797	73,459	-0,061	-0,045
-75,782	-1,295	0,078	-0,039
-74,767	-81,116	0,039	-0,009
-73,753	-200,000	0,012	0,075
-72,738	145,327	-0,059	-0,056
-71,724	-67,522	-0,073	-0,020
-70,709	-200,000	0,027	-0,096
-69,694	-200,000	0,004	-0,059
-68,680	170,706	-0,014	0,015
-67,665	800,000	0,020	0,043
-66,651	501,376	0,115	0,189
-65,636	386,665	-0,056	-0,083
-64,622	232,752	0,057	0,067
-63,607	-21,483	-0,055	0,024
-62,592	495,120	0,074	-0,121
-61,578	479,234	-0,084	0,136
-60,563	280,748	-0,033	0,042
-59,549	-200,000	-0,009	0,254
-58,534	-2,392	-1,540	-0,762
-57,519	430,475	-1,407	-2,163
-56,505	-200,000	-0,560	-4,576
-55,490	222,315	0,893	1,019
-54,476	800,000	5,013	11,461
-53,461	-200,000	19,191	320,085
-52,446	-200,000	740,786	2334,876
-51,432	573,252	1655,474	2869,007
-50,417	78,313	1670,742	1261,828
-49,403	21,321	1543,934	885,766
-48,388	15,188	1466,279	811,391
-47,373	17,892	1456,576	819,061
-46,359	16,656	1446,498	807,434
-45,344	13,407	1441,848	789,238
-44,330	13,352	1439,832	787,841
-43,315	13,321	1438,315	786,831
-42,300	13,384	1436,304	786,003
-41,286	13,401	1435,203	785,447
-40,271	13,332	1433,909	784,379
-39,257	13,342	1432,485	783,618
-38,242	13,380	1431,355	783,151
-37,227	13,408	1430,013	782,515
-36,213	13,391	1429,039	781,872
-35,198	13,464	1427,508	781,353
-34,184	13,445	1426,739	780,809
-33,169	13,401	1425,375	779,823
-32,154	13,459	1424,158	779,398
-31,140	13,435	1423,175	778,717
-30,125	13,419	1421,999	777,966
-29,111	13,472	1420,496	777,366
-28,096	13,431	1419,460	776,576
-27,082	13,315	1418,639	775,548
-26,067	13,390	1417,414	775,199
-25,052	13,335	1416,505	774,411
-24,038	13,329	1415,315	773,704
-23,023	13,339	1414,504	773,275
-22,009	13,338	1413,246	772,555
-20,994	13,240	1412,678	771,752
-19,979	13,330	1411,732	771,626
-18,965	13,326	1410,728	771,029
-17,950	13,270	1409,842	770,252
-16,936	13,292	1408,897	769,805
-15,921	13,259	1407,713	768,974
-14,906	13,261	1406,835	768,475
-13,892	13,274	1405,968	768,031
-12,877	13,298	1404,926	767,542
-11,863	13,236	1404,138	766,795
-10,848	13,214	1403,385	766,250
-9,833	13,214	1402,388	765,676
-8,819	13,169	1401,601	765,004
-7,804	13,149	1400,649	764,364
-6,790	13,162	1399,439	763,733
-5,775	13,185	1398,503	763,296
-4,760	13,178	1397,555	762,718
-3,746	13,166	1396,574	762,095
-2,731	13,164	1395,788	761,629
-1,717	13,096	1395,051	760,879
-0,702	13,039	1393,310	759,636
0,313	16,988	1309,978	732,468
1,327	33,316	703,593	431,139
2,342	51,538	123,200	82,712
3,356	3,386	16,584	8,518
4,371	8,319	3,249	1,722
5,386	-18,271	0,463	0,204
6,400	800,000	0,139	0,276
7,415	49,346	-0,116	-0,077
8,429	21,114	-0,329	-0,188
9,444	88,106	-0,301	-0,236
10,459	-90,446	-0,238	-0,048
11,473	-97,805	-0,204	-0,037
12,488	110,710	-0,217	-0,185
13,502	2,981	-0,418	-0,214
14,517	63,423	-0,321	-0,227
15,531	37,325	-0,339	-0,212
16,546	180,306	-0,156	-0,162
17,561	260,910	-0,349	-0,428
18,575	-200,000	-0,036	-0,118
19,590	-81,501	-0,287	-0,066
20,604	-114,418	-0,213	-0,029
21,619	44,748	-0,420	-0,272
22,634	146,783	-0,479	-0,455
23,648	160,056	-0,299	-0,295
24,663	58,358	-0,409	-0,283
25,677	46,264	-0,311	-0,203
26,692	53,057	-0,391	-0,264
27,707	-62,721	-0,409	-0,119
28,721	220,953	-0,280	-0,318
29,736	52,503	-0,368	-0,248
30,750	87,169	-0,348	-0,271
31,765	189,693	-0,245	-0,259
32,780	51,857	-0,415	-0,278
33,794	162,759	-0,284	-0,282
34,809	-72,134	-0,422	-0,110
35,823	250,279	-0,248	-0,297
36,838	14,631	-0,409	-0,225
37,853	602,719	-0,245	-0,432
38,867	126,838	-0,316	-0,282
39,882	65,500	-0,342	-0,244
40,896	35,960	-0,382	-0,236
41,911	172,325	-0,258	-0,261
42,926	30,737	-0,315	-0,189
43,940	21,277	-0,382	-0,218
44,955	146,107	-0,339	-0,320
45,969	297,845	-0,295	-0,383
46,984	250,718	-0,235	-0,281
47,999	112,808	-0,314	-0,268
49,013	1,649	-0,397	-0,201
50,028	17,854	-0,253	-0,142
51,042	-58,712	-0,493	-0,149
52,057	15,439	-0,342	-0,189
53,071	66,245	-0,372	-0,265
54,086	25,281	-0,268	-0,157
55,101	224,407	-0,272	-0,310
56,115	98,468	-0,279	-0,226
57,130	51,174	-0,415	-0,277
58,144	106,407	-0,355	-0,296
59,159	139,604	-0,399	-0,370
60,174	122,162	-0,289	-0,254
61,188	223,856	-0,286	-0,326
62,203	232,934	-0,236	-0,274
63,217	-6,843	-0,361	-0,172
64,232	-65,114	-0,317	-0,089
65,247	-30,324	-0,241	-0,096
66,261	-29,935	-0,430	-0,172
67,276	55,294	-0,364	-0,247
68,290	61,193	-0,343	-0,240
69,305	-116,323	-0,255	-0,033
70,320	-46,930	-0,322	-0,110
71,334	-31,056	-0,385	-0,152
72,349	208,881	-0,247	-0,272
73,363	264,257	-0,271	-0,332
74,378	137,501	-0,294	-0,271
75,393	18,484	-0,314	-0,176
76,407	-105,761	-0,429	-0,067
77,422	38,011	-0,340	-0,212
78,436	164,051	-0,265	-0,263
79,451	212,683	-0,290	-0,322
80,466	-38,194	-0,328	-0,122
81,480	-73,208	-0,444	-0,113
82,495	688,569	-0,196	-0,362
83,509	-39,199	-0,321	-0,118
84,524	-153,683	-0,319	-0,015
85,539	-104,321	-0,432	-0,070
86,553	54,413	-0,237	-0,160
87,568	-35,229	-0,237	-0,090
88,582	-77,160	-0,353	-0,086
89,597	52,679	-0,243	-0,163
90,611	56,466	-0,311	-0,212
91,626	-16,497	-0,279	-0,123
92,641	-25,046	-0,187	-0,078
93,655	800,000	-0,060	-0,141
94,670	304,485	-0,232	-0,303
95,684	-31,089	-0,316	-0,125
96,699	234,959	-0,252	-0,292
97,714	567,220	-0,181	-0,310
98,728	16,535	-0,181	-0,100
99,743	265,834	-0,214	-0,262
100,757	239,209	-0,220	-0,257
101,772	25,465	-0,391	-0,227
102,787	125,035	-0,263	-0,233
103,801	143,247	-0,275	-0,257
104,816	85,787	-0,303	-0,234
105,830	-52,042	-0,353	-0,114
106,845	138,970	-0,248	-0,228
107,860	218,470	-0,285	-0,319
108,874	-18,399	-0,216	-0,094
109,889	3,160	-0,328	-0,167
110,903	-41,603	-0,276	-0,099
111,918	-47,272	-0,362	-0,123
112,933	3,135	-0,278	-0,141
113,947	30,282	-0,143	-0,085
114,962	57,996	-0,144	-0,098
115,976	37,333	-0,210	-0,130
116,991	-200,000	-0,111	-0,357
118,006	12,769	-0,350	-0,189
119,020	84,840	-0,242	-0,185
120,035	800,000	-0,125	-0,261
121,049	74,084	-0,219	-0,161
122,064	14,682	-0,218	-0,119
123,079	-100,031	-0,414	-0,072
124,093	73,794	-0,244	-0,179
125,108	31,316	-0,337	-0,202
126,122	321,292	-0,212	-0,282
127,137	313,585	-0,190	-0,251
128,151	-17,957	-0,252	-0,110
129,166	20,993	-0,200	-0,113
130,181	-43,850	-0,240	-0,084
131,195	-38,757	-0,383	-0,141
132,210	-54,694	-0,268	-0,084
133,224	180,645	-0,232	-0,238
134,239	49,287	-0,264	-0,173
135,254	800,000	-0,205	-0,438
136,268	136,979	-0,181	-0,165
137,283	89,893	-0,166	-0,129
138,297	48,801	-0,311	-0,204
139,312	118,061	-0,247	-0,213
140,327	244,044	-0,199	-0,233
141,341	200,106	-0,268	-0,288
142,356	532,135	-0,086	-0,142
143,370	45,182	-0,314	-0,202
144,385	74,175	-0,251	-0,184
145,400	198,523	-0,289	-0,309
146,414	149,924	-0,146	-0,139
147,429	318,563	-0,206	-0,273
148,443	-71,759	-0,262	-0,068
149,458	267,279	-0,209	-0,256
150,473	57,909	-0,195	-0,133
151,487	800,000	-0,118	-0,252
152,502	28,437	-0,373	-0,220
153,516	62,237	-0,348	-0,242
154,531	233,715	-0,228	-0,263
155,546	32,651	-0,269	-0,162
156,560	-112,072	-0,300	-0,042
157,575	38,774	-0,325	-0,202
158,589	54,522	-0,230	-0,154
159,604	13,487	-0,178	-0,096
160,619	78,888	-0,256	-0,191
161,633	608,106	-0,096	-0,168
162,648	218,747	-0,227	-0,253
163,662	104,561	-0,193	-0,158
164,677	102,605	-0,225	-0,183
165,692	222,515	-0,122	-0,137
166,706	286,656	-0,207	-0,261
167,721	-71,024	-0,220	-0,057
168,735	467,793	-0,192	-0,301
169,750	78,248	-0,241	-0,179
170,764	82,291	-0,265	-0,200
171,779	106,337	-0,147	-0,122
172,794	30,517	-0,203	-0,121
173,808	-33,786	-0,165	-0,063
174,823	181,520	-0,236	-0,242
175,837	149,648	-0,276	-0,260
176,852	16,357	-0,238	-0,131
177,867	170,582	-0,292	-0,292
178,881	390,480	-0,114	-0,165
179,896	-20,003	-0,257	-0,110
180,910	197,287	-0,157	-0,167
181,925	384,191	-0,100	-0,143
182,940	515,640	-0,177	-0,289
183,954	800,000	-0,087	-0,201
184,969	268,589	-0,147	-0,180
185,983	517,374	-0,128	-0,209
186,998	330,659	-0,056	-0,076
188,013	-29,968	-0,275	-0,108
189,027	152,546	-0,239	-0,228
190,042	109,116	-0,276	-0,230
191,056	150,280	-0,192	-0,181
192,071	-5,747	-0,259	-0,123
193,086	-65,869	-0,231	-0,064
194,100	-55,427	-0,153	-0,048
195,115	26,092	-0,283	-0,164
196,129	96,950	-0,176	-0,140
197,144	16,083	-0,202	-0,110
198,159	44,966	-0,265	-0,169
199,173	-129,169	-0,287	-0,027
200,188	-6,504	-0,108	-0,051
201,202	94,410	-0,115	-0,091
202,217	40,502	-0,105	-0,066
203,232	189,178	-0,262	-0,273
204,246	-30,080	-0,192	-0,076
205,261	1,610	-0,335	-0,167
206,275	43,375	-0,202	-0,128
207,290	-179,287	-0,234	-0,004
208,304	56,081	-0,098	-0,066
209,319	682,215	-0,104	-0,188
210,334	141,796	-0,183	-0,169
211,348	-24,519	-0,243	-0,100
212,363	-109,357	-0,336	-0,049
213,377	134,495	-0,141	-0,127
214,392	275,366	-0,121	-0,150
215,407	7,675	-0,124	-0,064
216,421	-142,596	-0,167	-0,011
217,436	-200,000	-0,073	-0,250
218,450	308,111	-0,188	-0,244
219,465	440,436	-0,115	-0,174
220,480	463,448	-0,131	-0,203
221,494	34,011	-0,167	-0,101
222,509	-33,189	-0,154	-0,059
223,523	800,000	-0,090	-0,196
224,538	7,770	-0,301	-0,156
225,553	-30,712	-0,319	-0,125
226,567	207,336	-0,272	-0,295
227,582	-65,495	-0,157	-0,043
228,596	129,778	-0,122	-0,108
229,611	-200,000	-0,090	-0,280
230,626	-16,850	-0,314	-0,137
231,640	238,023	-0,118	-0,136
232,655	33,134	-0,147	-0,088
233,669	-49,108	-0,256	-0,084
234,684	-58,861	-0,239	-0,071
235,699	800,000	-0,070	-0,144
236,713	176,332	-0,158	-0,159
237,728	-11,214	-0,216	-0,098
238,742	-168,986	-0,172	-0,004
239,757	-164,286	-0,161	-0,005
240,772	89,396	-0,267	-0,206
241,786	283,992	-0,185	-0,232
242,801	159,913	-0,211	-0,204
243,815	418,811	-0,166	-0,247
244,830	121,136	-0,102	-0,088
245,844	376,485	-0,073	-0,103
246,859	800,000	-0,115	-0,241
247,874	800,000	-0,095	-0,190
248,888	-19,120	-0,083	0,035
249,903	230,837	-0,127	-0,144
250,917	-56,197	-0,147	0,045
251,932	-89,188	-0,183	-0,037
252,947	1,148	-0,123	-0,061
253,961	71,394	-0,198	-0,142
254,976	211,601	-0,190	-0,207
255,990	45,581	-0,144	-0,092
257,005	-138,895	-0,118	-0,009
258,020	33,762	-0,157	-0,094
259,034	167,266	-0,150	-0,147
260,049	-162,307	-0,139	0,005
261,063	169,610	-0,119	-0,118
262,078	562,355	-0,090	-0,152
263,093	-126,595	-0,216	-0,022
264,107	-43,036	-0,235	-0,082
265,122	-69,529	-0,177	-0,046
266,136	-52,536	-0,174	-0,055
267,151	399,662	-0,062	-0,090
268,166	-31,229	-0,129	-0,050
269,180	-30,911	-0,404	-0,157
270,195	311,045	-0,244	-0,316
271,209	800,000	-0,058	-0,156
272,224	151,123	-0,172	-0,162
273,239	53,502	-0,228	-0,151
274,253	-92,602	-0,139	0,027
275,268	293,761	-0,069	-0,087
276,282	109,498	-0,289	-0,239
277,297	11,895	-0,212	-0,112
278,312	40,160	-0,075	-0,046
279,326	95,757	-0,182	-0,143
280,341	51,515	-0,097	-0,064
281,355	-200,000	-0,090	-0,289
282,370	-78,973	-0,059	0,014
283,384	533,703	-0,152	-0,249
284,399	800,000	-0,094	-0,278
285,414	2,953	-0,109	-0,055
286,428	55,799	-0,126	-0,084
287,443	-27,884	-0,177	-0,070
288,457	0,369	-0,208	-0,102
289,472	118,220	-0,195	-0,166
290,487	-200,000	-0,059	-0,190
291,501	-5,689	-0,230	-0,109
292,516	167,978	-0,252	-0,248
293,530	800,000	-0,068	-0,163
294,545	158,469	-0,074	-0,071
295,560	-139,271	-0,188	0,014
296,574	60,754	-0,131	-0,089
297,589	-130,715	-0,213	-0,019
298,603	154,095	-0,155	-0,146
299,618	60,450	-0,175	-0,119
300,633	219,516	-0,209	-0,230
301,647	-106,118	-0,155	-0,024
302,662	119,200	-0,115	-0,098
303,676	6,833	-0,077	-0,039
304,691	178,867	-0,090	-0,091
305,706	-24,427	-0,174	-0,071
306,720	-27,872	-0,154	-0,061
307,735	-107,817	-0,269	-0,040
308,749	800,000	-0,030	-0,073
309,764	113,667	-0,089	-0,074
310,779	523,886	-0,057	-0,092
311,793	-126,320	-0,248	-0,025
312,808	117,986	-0,176	-0,149
313,822	235,127	-0,211	-0,240
314,837	228,005	-0,040	-0,045
315,852	-139,443	-0,128	-0,009
316,866	228,377	-0,082	-0,092
317,881	156,231	-0,047	-0,045
318,895	800,000	-0,079	-0,161
319,910	500,767	-0,118	-0,188
320,925	133,552	-0,128	-0,114
321,939	95,430	-0,188	-0,147
322,954	33,963	-0,174	-0,104
323,968	37,757	-0,158	-0,096
324,983	56,806	-0,116	-0,078
325,997	556,290	-0,107	-0,178
327,012	-115,341	-0,188	-0,024
328,027	-200,000	0,030	-0,102
329,041	733,492	-0,068	-0,126
330,056	800,000	-0,082	-0,221
331,070	4,201	-0,167	-0,084
332,085	-88,908	-0,090	0,018
333,100	92,786	-0,231	-0,180
334,114	-111,663	-0,104	-0,014
335,129	86,425	-0,109	-0,082
336,143	77,009	-0,075	-0,055
337,158	-200,000	-0,019	-0,096
338,173	-200,000	0,000	0,048
339,187	800,000	-0,064	-0,150
340,202	298,730	-0,135	-0,171
341,216	272,244	-0,094	-0,114
342,231	-25,431	-0,146	-0,059
343,246	152,330	-0,126	-0,118
344,260	800,000	-0,025	-0,054
345,275	103,937	-0,144	-0,116
346,289	169,213	-0,038	-0,038
347,304	40,109	-0,180	-0,111
348,319	542,326	-0,130	-0,213
349,333	8,951	-0,189	-0,098
350,348	-0,389	-0,185	-0,090
351,362	-173,093	-0,092	-0,002
352,377	-200,000	-0,016	-0,060
353,392	-45,777	-0,146	0,049
354,406	88,244	-0,142	-0,108
355,421	210,119	1312,557	1414,788
356,435	161,742	1473,022	1415,278
