DTS Sentinel unit serial number:	SN410029Multiplexer serial number:	ORYXHardware model number:	OX2-SRSoftware version number:	ORYX F/W v4,00 Oryx Data Collector v3.7.2.0data status	okinstallation	B3 Nyhavnadifferential loss correction	single-endedforward channel	channel 1reverse channel	N/Adate	2023/12/01time	10:07:30forward acquisition time	300,00reverse acquisition time	0,00gamma	499,1914k internal	0,3213k external	0,3213temperature offset calibration	1,0000default loss term (dB/km)	0,3820temperature slope calibration	1,0000multiplexer offset coefficient	1,0000multiplexer slope coefficient	1,0000fibre end	0,00T internal ref (°C)	8,01T ext. ref 1 (°C)	-6,32T ext. ref 2 (°C)	-6,45length (m)	temperature (°C)	Stokes	anti-Stokes-744,400	800,000	-0,087	-0,176
-743,385	-200,000	-0,082	0,383
-742,371	-34,240	-0,152	-0,060
-741,356	-200,000	0,054	0,330
-740,342	53,707	-0,216	-0,150
-739,327	800,000	0,062	0,172
-738,312	616,801	-0,119	-0,217
-737,298	-200,000	0,008	0,318
-736,283	44,034	-0,197	-0,131
-735,269	-200,000	-0,011	0,251
-734,254	121,460	-0,241	-0,218
-733,239	-168,172	-0,372	-0,010
-732,225	800,000	-0,026	-0,054
-731,210	-45,842	0,133	0,047
-730,196	-89,330	-0,049	-0,010
-729,181	-200,000	-0,064	-0,209
-728,167	295,875	-0,056	-0,075
-727,152	161,083	0,045	-0,046
-726,137	-90,430	0,052	0,011
-725,123	-96,348	-0,026	0,005
-724,108	-124,681	-0,080	0,009
-723,094	-88,957	0,102	0,022
-722,079	76,364	-0,068	-0,052
-721,064	90,263	0,040	-0,032
-720,050	800,000	-0,040	-0,096
-719,035	318,244	-0,063	-0,087
-718,021	254,528	-0,016	0,020
-717,006	800,000	0,016	0,043
-715,991	76,539	-0,047	0,036
-714,977	-106,086	-0,044	0,007
-713,962	-200,000	0,001	-0,074
-712,948	-200,000	-0,019	0,079
-711,933	21,270	0,084	-0,049
-710,918	307,399	-0,117	-0,158
-709,904	800,000	0,027	-0,056
-708,889	800,000	0,031	-0,093
-707,875	254,628	-0,073	-0,090
-706,860	-200,000	0,013	-0,226
-705,845	194,854	0,040	0,043
-704,831	-200,000	-0,049	0,188
-703,816	5,467	-0,095	0,051
-702,802	137,555	0,079	-0,075
-701,787	0,104	-0,054	-0,028
-700,772	-200,000	0,001	-0,077
-699,758	800,000	0,055	0,155
-698,743	-200,000	0,057	0,189
-697,729	133,993	0,109	0,102
-696,714	-200,000	-0,000	-0,100
-695,699	73,120	0,034	0,026
-694,685	-35,197	-0,103	0,040
-693,670	-17,348	0,106	0,048
-692,656	-74,125	0,092	-0,024
-691,641	18,008	0,059	0,034
-690,627	-200,000	-0,001	0,058
-689,612	-200,000	-0,012	-0,053
-688,597	76,329	-0,177	-0,135
-687,583	-50,048	-0,046	-0,016
-686,568	-200,000	-0,007	0,077
-685,554	800,000	0,014	0,030
-684,539	11,293	-0,111	-0,062
-683,524	-200,000	-0,003	0,050
-682,510	-200,000	-0,007	0,121
-681,495	-114,423	-0,131	-0,018
-680,481	800,000	-0,041	-0,118
-679,466	-35,842	0,018	-0,007
-678,451	133,696	-0,058	-0,054
-677,437	800,000	0,015	-0,042
-676,422	-136,736	-0,087	0,007
-675,408	406,927	0,076	0,117
-674,393	104,664	0,069	-0,059
-673,378	351,173	-0,145	-0,207
-672,364	-57,586	-0,056	-0,018
-671,349	-200,000	-0,001	0,008
-670,335	6,932	-0,149	0,080
-669,320	-200,000	-0,003	-0,034
-668,305	365,367	-0,037	0,053
-667,291	-27,195	0,029	-0,012
-666,276	-63,753	-0,086	0,025
-665,262	800,000	-0,076	-0,193
-664,247	800,000	0,062	-0,155
-663,232	800,000	0,016	0,040
-662,218	-200,000	-0,005	0,147
-661,203	-24,876	0,133	-0,057
-660,189	766,132	0,028	-0,056
-659,174	-97,668	-0,060	0,011
-658,159	315,102	0,062	-0,085
-657,145	314,638	0,056	-0,077
-656,130	-133,512	-0,173	-0,015
-655,116	-49,146	0,124	0,042
-654,101	-200,000	0,007	-0,041
-653,086	-200,000	-0,013	0,141
-652,072	81,051	-0,084	-0,066
-651,057	45,153	0,088	0,058
-650,043	-14,440	-0,029	-0,013
-649,028	101,075	-0,013	0,011
-648,014	100,111	-0,057	0,048
-646,999	32,546	0,077	0,048
-645,984	-200,000	0,019	0,119
-644,970	-92,536	0,014	0,003
-643,955	-11,555	-0,046	0,022
-642,941	-97,566	-0,044	0,008
-641,926	490,980	-0,016	-0,026
-640,911	76,094	0,081	-0,062
-639,897	80,026	0,096	-0,074
-638,882	-187,321	0,018	0,000
-637,868	-106,808	-0,226	0,036
-636,853	49,106	-0,017	0,011
-635,838	281,205	-0,038	-0,049
-634,824	-51,982	-0,162	-0,054
-633,809	-200,000	0,006	-0,093
-632,795	182,715	0,065	-0,069
-631,780	292,477	0,049	0,064
-630,765	62,154	-0,159	-0,114
-629,751	38,636	-0,034	0,022
-628,736	18,176	0,072	0,041
-627,722	800,000	0,064	-0,150
-626,707	67,925	-0,091	-0,067
-625,692	-200,000	-0,001	0,134
-624,678	-25,141	0,071	-0,030
-623,663	-18,635	0,149	0,067
-622,649	-41,725	0,064	-0,024
-621,634	338,179	-0,042	-0,059
-620,619	-200,000	0,018	-0,092
-619,605	800,000	-0,058	0,117
-618,590	271,300	0,050	0,064
-617,576	698,298	-0,043	0,082
-616,561	167,497	-0,032	-0,033
-615,546	-200,000	-0,001	0,025
-614,532	-62,297	-0,092	-0,027
-613,517	75,994	0,149	-0,113
-612,503	-8,565	0,081	-0,039
-611,488	135,014	-0,056	-0,052
-610,474	-27,159	0,190	-0,079
-609,459	289,221	0,032	0,042
-608,444	1,358	-0,102	-0,053
-607,430	77,022	0,019	0,015
-606,415	254,636	-0,030	0,037
-605,401	217,950	0,078	-0,090
-604,386	-8,708	0,137	0,066
-603,371	288,176	-0,094	-0,123
-602,357	123,841	0,077	-0,069
-601,342	91,169	0,089	-0,072
-600,328	800,000	-0,043	0,092
-599,313	300,319	-0,056	0,074
-598,298	-116,200	0,040	0,005
-597,284	-84,279	0,049	0,011
-596,269	-61,990	-0,158	0,047
-595,255	-77,231	0,169	-0,042
-594,240	3,325	0,009	0,005
-593,225	-77,798	-0,092	0,023
-592,211	-126,991	0,104	-0,011
-591,196	65,000	0,043	-0,031
-590,182	-200,000	-0,012	0,091
-589,167	800,000	-0,009	-0,023
-588,152	423,183	-0,030	0,047
-587,138	109,398	0,072	0,062
-586,123	-39,326	-0,180	-0,068
-585,109	204,961	0,073	-0,081
-584,094	28,868	-0,185	-0,113
-583,079	-60,360	0,105	0,032
-582,065	86,757	0,241	0,192
-581,050	41,370	-0,049	-0,032
-580,036	305,513	-0,076	-0,102
-579,021	366,996	0,077	0,112
-578,006	224,177	-0,132	-0,154
-576,992	-200,000	0,008	-0,051
-575,977	-200,000	0,007	-0,095
-574,963	-200,000	-0,006	-0,064
-573,948	448,851	0,063	-0,101
-572,934	-77,793	0,068	-0,017
-571,919	800,000	-0,024	-0,054
-570,904	169,622	0,038	-0,039
-569,890	-105,788	-0,043	0,007
-568,875	-200,000	-0,003	0,010
-567,861	149,977	0,119	-0,116
-566,846	-91,330	-0,048	-0,010
-565,831	-44,743	-0,127	-0,046
-564,817	-200,000	-0,007	-0,082
-563,802	240,498	-0,078	-0,093
-562,788	28,838	-0,050	-0,030
-561,773	90,028	0,124	-0,100
-560,758	76,829	0,021	-0,016
-559,744	-200,000	0,010	0,068
-558,729	6,931	-0,043	-0,023
-557,715	-200,000	0,059	-0,224
-556,700	-52,510	-0,056	0,018
-555,685	-74,845	0,100	0,026
-554,671	640,053	-0,011	-0,020
-553,656	278,296	-0,050	-0,064
-552,642	46,407	0,017	-0,011
-551,627	515,456	0,022	-0,037
-550,612	-200,000	0,008	-0,054
-549,598	-15,905	-0,163	-0,075
-548,583	89,435	-0,054	-0,043
-547,569	484,902	0,076	0,125
-546,554	-146,960	0,126	-0,008
-545,539	-144,560	-0,105	-0,007
-544,525	-43,316	0,090	0,032
-543,510	-79,814	0,112	-0,027
-542,496	-93,458	-0,137	-0,027
-541,481	800,000	-0,027	-0,079
-540,466	-51,302	-0,067	-0,023
-539,452	800,000	-0,011	0,023
-538,437	-120,139	0,042	0,005
-537,423	38,889	0,041	0,027
-536,408	110,315	-0,081	0,070
-535,393	297,738	0,052	-0,069
-534,379	198,132	0,103	-0,113
-533,364	27,351	0,025	-0,015
-532,350	228,551	0,038	-0,044
-531,335	762,609	-0,038	0,075
-530,321	162,649	0,053	0,054
-529,306	-29,027	-0,099	-0,041
-528,291	-95,158	-0,177	0,034
-527,277	-97,853	-0,126	-0,023
-526,262	-50,391	0,160	-0,054
-525,248	-6,388	-0,147	0,072
-524,233	-27,697	0,072	-0,030
-523,218	-200,000	-0,009	-0,100
-522,204	162,769	-0,042	0,043
-521,189	151,218	-0,032	0,031
-520,175	-200,000	-0,137	0,000
-519,160	-116,040	0,141	-0,019
-518,145	131,256	0,064	0,059
-517,131	58,842	0,070	0,049
-516,116	-1,099	0,119	0,060
-515,102	-148,678	-0,142	-0,008
-514,087	-200,000	-0,009	0,036
-513,072	-30,078	-0,089	-0,036
-512,058	196,327	0,061	0,067
-511,043	-200,000	-0,038	0,154
-510,029	58,057	-0,049	0,034
-509,014	-106,900	0,079	-0,012
-507,999	713,378	-0,026	-0,049
-506,985	-15,857	0,069	-0,032
-505,970	96,173	-0,050	-0,041
-504,956	579,495	-0,042	0,075
-503,941	800,000	0,014	0,029
-502,926	-125,418	-0,119	-0,013
-501,912	800,000	0,033	0,100
-500,897	307,772	-0,107	0,143
-499,883	-106,987	0,041	0,006
-498,868	143,184	-0,081	-0,077
-497,853	605,014	-0,033	-0,060
-496,839	-23,913	0,099	-0,042
-495,824	-56,221	0,099	0,032
-494,810	-195,201	0,071	-0,000
-493,795	3,228	-0,070	0,037
-492,781	133,859	0,044	0,041
-491,766	800,000	-0,049	-0,100
-490,751	-59,113	-0,093	-0,029
-489,737	-35,650	0,139	0,054
-488,722	-200,000	-0,015	0,097
-487,708	-59,341	-0,031	0,010
-486,693	-75,403	-0,043	-0,011
-485,678	534,262	-0,053	-0,091
-484,664	9,934	-0,055	-0,030
-483,649	122,787	0,041	-0,037
-482,635	800,000	0,002	0,005
-481,620	184,596	-0,044	-0,047
-480,605	-42,963	0,072	0,026
-479,591	-135,952	-0,087	-0,007
-478,576	-200,000	0,021	-0,069
-477,562	-200,000	0,010	-0,186
-476,547	800,000	0,039	-0,089
-475,532	376,701	-0,011	0,016
-474,518	800,000	0,015	0,031
-473,503	-200,000	0,014	0,055
-472,489	-79,680	0,054	-0,013
-471,474	-200,000	-0,016	0,136
-470,459	132,848	0,012	0,012
-469,445	119,910	-0,052	-0,046
-468,430	800,000	-0,044	-0,094
-467,416	44,343	-0,159	0,104
-466,401	-81,198	0,081	-0,019
-465,386	137,379	-0,086	0,081
-464,372	200,383	-0,035	0,039
-463,357	800,000	0,056	-0,140
-462,343	41,978	0,045	-0,029
-461,328	449,663	-0,015	-0,023
-460,313	-200,000	0,036	0,245
-459,299	800,000	-0,040	0,115
-458,284	800,000	0,076	0,185
-457,270	-125,508	0,077	0,008
-456,255	800,000	0,018	-0,036
-455,241	-149,674	0,107	0,006
-454,226	41,457	0,027	-0,018
-453,211	567,551	-0,051	-0,090
-452,197	-200,000	0,017	-0,149
-451,182	-200,000	0,009	-0,036
-450,168	371,089	0,083	0,121
-449,153	-200,000	0,004	-0,076
-448,138	31,277	-0,107	0,066
-447,124	-177,820	-0,051	-0,001
-446,109	-200,000	0,035	0,170
-445,095	800,000	-0,043	-0,129
-444,080	244,012	-0,107	0,129
-443,065	800,000	0,037	0,110
-442,051	-88,370	-0,023	0,005
-441,036	328,182	-0,060	-0,083
-440,022	-91,403	-0,141	-0,029
-439,007	-200,000	-0,033	0,201
-437,992	-200,000	0,021	-0,085
-436,978	800,000	-0,057	0,125
-435,963	-35,720	0,035	0,014
-434,949	-200,000	0,007	-0,076
-433,934	45,589	-0,036	-0,024
-432,919	-121,347	-0,092	-0,011
-431,905	602,533	0,015	-0,026
-430,890	44,694	0,136	0,089
-429,876	800,000	-0,022	-0,055
-428,861	-40,799	0,085	-0,031
-427,846	117,840	-0,123	0,109
-426,832	-81,476	-0,066	-0,015
-425,817	-200,000	-0,026	-0,104
-424,803	43,981	-0,067	-0,044
-423,788	-200,000	-0,030	0,109
-422,773	-117,490	-0,031	-0,004
-421,759	-200,000	0,005	-0,093
-420,744	137,535	-0,047	-0,044
-419,730	-200,000	0,009	0,141
-418,715	61,874	0,033	0,023
-417,701	-16,804	-0,055	0,025
-416,686	163,514	0,128	-0,129
-415,671	800,000	0,017	-0,048
-414,657	-86,131	0,051	0,011
-413,642	-170,303	-0,011	-0,000
-412,628	-34,476	-0,086	-0,033
-411,613	800,000	0,052	0,118
-410,598	750,280	0,048	0,093
-409,584	616,853	-0,052	0,093
-408,569	-77,122	0,062	-0,015
-407,555	54,328	0,153	-0,105
-406,540	-200,000	0,001	0,079
-405,525	-200,000	-0,006	-0,037
-404,511	-102,057	0,120	-0,021
-403,496	-99,476	0,064	0,011
-402,482	616,616	0,025	-0,045
-401,467	91,241	0,079	0,063
-400,452	308,824	-0,074	0,099
-399,438	106,070	0,119	-0,101
-398,423	-200,000	0,002	-0,093
-397,409	-5,158	0,027	0,013
-396,394	-200,000	-0,007	-0,038
-395,379	175,230	0,080	-0,083
-394,365	-113,759	0,073	-0,010
-393,350	-200,000	-0,031	-0,101
-392,336	356,016	-0,094	0,134
-391,321	-39,549	-0,032	-0,012
-390,306	-200,000	0,004	-0,075
-389,292	800,000	-0,017	0,045
-388,277	-125,385	0,029	-0,003
-387,263	-142,878	0,097	0,007
-386,248	-200,000	-0,005	0,038
-385,233	800,000	0,020	0,062
-384,219	-81,585	-0,079	0,018
-383,204	-200,000	0,015	-0,131
-382,190	-200,000	-0,052	-0,183
-381,175	149,387	-0,066	-0,063
-380,160	-72,515	0,074	-0,019
-379,146	478,337	0,040	0,065
-378,131	-200,000	-0,021	0,080
-377,117	111,747	-0,108	0,093
-376,102	-200,000	-0,029	-0,121
-375,088	336,796	-0,091	-0,127
-374,073	-200,000	-0,004	-0,077
-373,058	171,296	-0,053	-0,054
-372,044	800,000	0,033	0,070
-371,029	26,753	-0,113	-0,068
-370,015	178,701	0,013	-0,014
-369,000	-41,306	0,093	0,034
-367,985	535,479	-0,032	-0,055
-366,971	-200,000	-0,017	-0,064
-365,956	800,000	-0,008	0,017
-364,942	800,000	0,029	0,060
-363,927	295,019	0,094	0,124
-362,912	128,467	0,068	0,061
-361,898	415,596	-0,085	-0,129
-360,883	-152,182	0,107	-0,005
-359,869	-127,355	-0,142	-0,015
-358,854	-91,619	0,037	0,008
-357,839	-200,000	0,002	-0,036
-356,825	800,000	0,087	0,207
-355,810	18,152	0,129	0,073
-354,796	16,669	0,089	-0,050
-353,781	128,405	0,017	0,016
-352,766	800,000	0,028	0,064
-351,752	25,839	0,062	0,037
-350,737	62,088	-0,023	-0,017
-349,723	800,000	0,027	0,057
-348,708	800,000	-0,019	0,056
-347,693	18,197	0,060	-0,034
-346,679	475,423	-0,072	-0,116
-345,664	345,930	0,076	0,107
-344,650	-200,000	0,013	-0,080
-343,635	141,177	-0,086	-0,081
-342,620	800,000	0,047	-0,096
-341,606	274,673	-0,098	0,124
-340,591	716,077	-0,059	0,113
-339,577	9,949	-0,099	0,054
-338,562	800,000	-0,067	-0,208
-337,548	-200,000	-0,007	-0,066
-336,533	1,915	0,058	-0,030
-335,518	34,681	0,007	-0,004
-334,504	101,250	0,094	0,078
-333,489	261,749	0,067	0,083
-332,475	-200,000	0,012	-0,052
-331,460	800,000	-0,091	-0,201
-330,445	-200,000	-0,003	-0,074
-329,431	160,937	0,083	0,083
-328,416	800,000	-0,080	0,166
-327,402	800,000	0,047	0,101
-326,387	800,000	-0,021	-0,061
-325,372	-200,000	-0,018	-0,079
-324,358	-200,000	0,032	-0,200
-323,343	-200,000	0,001	-0,226
-322,329	800,000	0,028	0,077
-321,314	302,374	0,027	-0,035
-320,299	762,078	-0,082	0,159
-319,285	-200,000	-0,017	0,089
-318,270	120,507	-0,011	-0,010
-317,256	206,058	0,050	0,055
-316,241	-200,000	0,019	-0,063
-315,226	301,853	0,112	-0,147
-314,212	-35,455	0,088	0,034
-313,197	365,033	0,073	0,105
-312,183	231,805	-0,024	-0,029
-311,168	-200,000	-0,002	-0,186
-310,153	133,838	0,022	0,020
-309,139	153,677	-0,062	0,061
-308,124	-84,328	-0,077	0,017
-307,110	234,151	-0,072	0,084
-306,095	-141,281	-0,072	0,005
-305,080	-72,425	-0,147	-0,039
-304,066	-200,000	-0,011	-0,054
-303,051	-88,612	-0,113	-0,024
-302,037	108,708	0,161	0,137
-301,022	-200,000	0,003	0,055
-300,008	2,501	0,111	0,057
-298,993	-200,000	-0,010	0,068
-297,978	-200,000	0,020	0,133
-296,964	-200,000	0,027	0,099
-295,949	800,000	-0,011	-0,026
-294,935	800,000	-0,073	-0,168
-293,920	456,229	0,018	0,029
-292,905	800,000	0,105	0,274
-291,891	-200,000	-0,010	-0,062
-290,876	220,208	-0,031	0,035
-289,862	15,385	0,020	-0,011
-288,847	-140,678	-0,061	-0,004
-287,832	423,876	-0,095	-0,147
-286,818	120,172	0,081	0,071
-285,803	-51,539	0,043	0,014
-284,789	-45,182	0,019	0,007
-283,774	-200,000	-0,017	0,189
-282,759	-200,000	0,013	-0,122
-281,745	-200,000	-0,024	-0,162
-280,730	-200,000	-0,000	-0,031
-279,716	96,840	0,059	0,048
-278,701	207,665	-0,132	-0,147
-277,686	5,815	0,146	0,076
-276,672	-200,000	0,018	0,101
-275,657	-65,839	-0,060	-0,017
-274,643	735,405	-0,050	-0,095
-273,628	-87,905	-0,146	0,031
-272,613	-123,843	-0,096	-0,011
-271,599	-200,000	-0,020	0,129
-270,584	-79,206	-0,187	-0,045
-269,570	-200,000	-0,006	0,079
-268,555	-200,000	-0,016	-0,110
-267,540	-87,882	-0,050	-0,011
-266,526	-39,015	-0,022	-0,008
-265,511	318,212	-0,036	-0,049
-264,497	-130,805	0,073	-0,007
-263,482	91,674	-0,057	0,045
-262,467	-200,000	-0,015	-0,057
-261,453	517,447	-0,066	-0,109
-260,438	-126,793	0,114	0,012
-259,424	238,168	-0,113	0,134
-258,409	-55,653	0,126	-0,040
-257,395	-164,761	0,043	-0,001
-256,380	-128,299	0,177	0,018
-255,365	306,991	0,145	0,193
-254,351	-200,000	-0,001	0,066
-253,336	-100,601	-0,134	-0,023
-252,322	-53,937	-0,209	0,067
-251,307	567,184	0,044	-0,075
-250,292	79,783	0,058	0,045
-249,278	-200,000	0,005	0,058
-248,263	113,286	0,091	0,079
-247,249	143,322	-0,045	0,043
-246,234	70,818	0,011	0,008
-245,219	15,156	0,085	0,047
-244,205	-12,527	0,030	0,014
-243,190	16,363	0,076	-0,043
-242,176	-75,951	-0,194	0,048
-241,161	100,591	-0,063	-0,052
-240,146	-200,000	-0,031	0,163
-239,132	-56,248	-0,070	0,022
-238,117	800,000	0,049	-0,149
-237,103	88,582	0,116	-0,091
-236,088	7,051	-0,078	0,041
-235,073	530,953	-0,073	0,123
-234,059	-200,000	-0,016	-0,063
-233,044	32,950	0,070	0,043
-232,030	167,813	-0,034	-0,034
-231,015	-87,091	-0,140	-0,030
-230,000	259,897	-0,017	-0,021
-228,986	-200,000	0,005	0,168
-227,971	211,150	-0,043	0,048
-226,957	800,000	-0,022	-0,052
-225,942	-200,000	0,006	0,074
-224,927	361,445	0,040	0,057
-223,913	50,018	-0,105	-0,070
-222,898	-55,836	0,075	0,023
-221,884	282,624	0,061	0,078
-220,869	-79,835	0,013	-0,003
-219,855	800,000	0,073	0,177
-218,840	800,000	-0,035	0,107
-217,825	124,221	-0,058	0,051
-216,811	-200,000	0,049	-0,158
-215,796	66,941	-0,116	0,083
-214,782	321,396	0,066	0,090
-213,767	74,893	0,110	0,082
-212,752	-200,000	0,008	0,064
-211,738	-120,499	-0,094	-0,011
-210,723	209,364	-0,029	-0,032
-209,709	116,555	-0,109	-0,095
-208,694	206,123	0,033	-0,037
-207,679	-200,000	-0,010	0,038
-206,665	240,568	-0,090	0,107
-205,650	800,000	0,039	0,079
-204,636	-190,278	0,078	-0,001
-203,621	-200,000	-0,019	-0,065
-202,606	366,527	0,024	0,035
-201,592	-200,000	-0,030	-0,153
-200,577	-200,000	0,004	-0,019
-199,563	102,731	-0,184	-0,153
-198,548	-106,997	0,141	-0,022
-197,533	638,838	0,007	-0,013
-196,519	800,000	0,028	0,079
-195,504	-170,754	-0,058	-0,001
-194,490	-54,746	-0,037	0,012
-193,475	161,304	0,081	-0,081
-192,460	800,000	0,018	-0,038
-191,446	209,859	0,054	0,060
-190,431	-32,593	-0,038	0,015
-189,417	246,240	0,134	0,161
-188,402	232,520	-0,051	0,059
-187,387	544,375	0,055	0,093
-186,373	616,350	-0,082	-0,146
-185,358	15,081	0,128	-0,071
-184,344	800,000	-0,031	-0,080
-183,329	-122,314	0,142	0,016
-182,315	-58,100	-0,063	-0,019
-181,300	122,515	-0,098	-0,087
-180,285	-200,000	-0,029	-0,120
-179,271	-6,543	0,090	0,043
-178,256	74,715	0,092	-0,069
-177,242	800,000	-0,028	0,069
-176,227	800,000	0,023	-0,069
-175,212	99,691	-0,063	-0,052
-174,198	-6,059	-0,053	0,025
-173,183	-200,000	-0,007	0,102
-172,169	431,628	0,048	-0,075
-171,154	-200,000	-0,010	0,041
-170,139	-54,668	0,192	0,061
-169,125	-141,766	0,077	0,005
-168,110	433,501	0,013	0,021
-167,096	800,000	0,021	0,059
-166,081	-166,110	0,075	0,002
-165,066	-200,000	0,021	0,098
-164,052	800,000	-0,035	-0,101
-163,037	-98,563	0,054	-0,010
-162,023	149,873	-0,134	0,129
-161,008	-200,000	-0,012	-0,131
-159,993	103,564	0,035	0,029
-158,979	-152,762	-0,127	0,006
-157,964	251,265	0,071	0,085
-156,950	16,515	-0,003	0,001
-155,935	387,506	-0,072	0,106
-154,920	-8,760	0,092	0,043
-153,906	800,000	-0,050	0,111
-152,891	-33,065	0,084	0,033
-151,877	-55,902	-0,144	-0,045
-150,862	-70,123	-0,062	-0,017
-149,847	-133,576	0,043	-0,004
-148,833	800,000	0,048	0,145
-147,818	-200,000	0,010	0,122
-146,804	-200,000	-0,005	0,136
-145,789	-200,000	0,034	0,148
-144,775	-200,000	-0,011	-0,190
-143,760	132,435	-0,180	-0,164
-142,745	338,994	0,085	-0,118
-141,731	-7,048	0,082	0,039
-140,716	354,519	-0,055	0,077
-139,702	-137,992	0,185	0,014
-138,687	-152,836	-0,167	0,008
-137,672	-82,134	0,123	0,028
-136,658	-79,752	0,044	-0,010
-135,643	365,787	-0,090	0,129
-134,629	-26,954	0,081	0,033
-133,614	255,717	0,080	-0,097
-132,599	431,772	0,057	0,087
-131,585	-200,000	0,017	0,058
-130,570	-34,559	0,066	-0,026
-129,556	800,000	0,044	0,095
-128,541	-200,000	0,006	-0,109
-127,526	114,243	0,147	-0,127
-126,512	-200,000	-0,000	-0,033
-125,497	51,393	0,074	0,049
-124,483	159,531	0,047	0,046
-123,468	800,000	0,022	-0,060
-122,453	-110,126	-0,117	-0,017
-121,439	6,000	-0,078	-0,041
-120,424	-89,973	-0,093	0,019
-119,410	800,000	-0,040	-0,112
-118,395	-148,022	0,159	0,009
-117,380	-200,000	-0,024	0,085
-116,366	-200,000	-0,034	0,109
-115,351	147,467	0,024	-0,023
-114,337	-200,000	0,013	0,066
-113,322	740,255	0,078	0,148
-112,307	315,728	-0,062	-0,083
-111,293	53,156	0,051	-0,034
-110,278	60,875	-0,022	-0,016
-109,264	209,962	-0,047	-0,053
-108,249	-200,000	-0,050	-0,165
-107,234	-153,651	0,073	-0,004
-106,220	-200,000	0,008	-0,065
-105,205	-200,000	0,024	-0,074
-104,191	230,127	0,127	0,147
-103,176	45,554	0,094	0,062
-102,162	-80,802	0,104	-0,024
-101,147	-118,982	-0,051	0,006
-100,132	-108,171	0,048	-0,007
-99,118	110,957	-0,088	-0,075
-98,103	-200,000	-0,038	0,135
-97,089	-126,536	0,120	0,012
-96,074	-6,546	-0,063	-0,030
-95,059	800,000	-0,012	0,031
-94,045	-25,852	-0,071	0,030
-93,030	-200,000	0,014	-0,058
-92,016	-200,000	0,016	-0,067
-91,001	138,407	-0,045	0,042
-89,986	-183,502	0,099	-0,001
-88,972	20,465	0,105	-0,060
-87,957	-200,000	-0,015	0,088
-86,943	800,000	-0,032	-0,075
-85,928	-200,000	0,005	-0,026
-84,913	-96,211	-0,109	0,020
-83,899	-200,000	0,005	-0,053
-82,884	562,024	-0,065	-0,111
-81,870	800,000	0,045	0,115
-80,855	-200,000	0,045	0,177
-79,840	-104,548	-0,072	0,012
-78,826	180,280	-0,040	0,042
-77,811	-70,527	-0,118	0,031
-76,797	-200,000	0,021	-0,094
-75,782	800,000	-0,024	0,057
-74,767	-200,000	0,024	0,172
-73,753	134,503	0,061	0,056
-72,738	447,794	0,051	0,079
-71,724	-200,000	0,007	0,071
-70,709	-17,876	-0,089	0,039
-69,694	52,916	0,045	0,030
-68,680	-200,000	0,001	-0,075
-67,665	333,937	0,028	0,039
-66,651	349,122	0,122	0,170
-65,636	186,523	-0,038	-0,040
-64,622	-27,615	0,123	-0,050
-63,607	462,383	0,061	-0,096
-62,592	-200,000	-0,044	-0,187
-61,578	-106,930	-0,073	-0,011
-60,563	113,324	0,056	0,048
-59,549	-200,000	0,003	0,084
-58,534	54,431	-2,130	-1,445
-57,519	699,773	-1,007	-1,878
-56,505	-200,000	-0,571	-4,541
-55,490	434,727	1,109	1,706
-54,476	800,000	5,402	11,554
-53,461	-200,000	22,377	347,672
-52,446	800,000	757,628	2294,900
-51,432	533,422	1644,475	2757,850
-50,417	67,996	1643,087	1184,351
-49,403	15,678	1520,407	840,718
-48,388	9,844	1446,464	771,805
-47,373	19,305	1439,132	812,953
-46,359	13,387	1427,520	778,431
-45,344	8,172	1423,466	751,520
-44,330	8,103	1421,577	750,166
-43,315	8,087	1419,672	749,055
-42,300	8,047	1418,008	747,959
-41,286	8,163	1416,558	747,714
-40,271	8,088	1415,631	746,838
-39,257	8,114	1413,937	746,040
-38,242	8,159	1413,047	745,752
-37,227	8,113	1412,132	745,021
-36,213	8,109	1410,862	744,306
-35,198	8,149	1409,539	743,767
-34,184	8,092	1408,685	743,016
-33,169	8,050	1407,334	742,079
-32,154	8,142	1406,358	741,964
-31,140	8,082	1405,162	741,024
-30,125	8,084	1403,881	740,326
-29,111	8,107	1402,717	739,792
-28,096	8,030	1401,720	738,879
-27,082	8,043	1400,328	738,176
-26,067	8,046	1399,390	737,667
-25,052	8,039	1398,392	737,080
-24,038	7,998	1397,480	736,379
-23,023	8,058	1396,458	736,086
-22,009	8,013	1395,603	735,401
-20,994	8,045	1394,430	734,902
-19,979	8,038	1393,493	734,347
-18,965	7,923	1392,877	733,456
-17,950	7,975	1391,606	733,000
-16,936	7,967	1390,641	732,428
-15,921	7,921	1389,797	731,739
-14,906	7,942	1388,863	731,318
-13,892	7,996	1387,743	730,947
-12,877	7,979	1387,237	730,572
-11,863	7,942	1386,396	729,931
-10,848	7,935	1385,505	729,402
-9,833	7,927	1384,462	728,784
-8,819	7,901	1383,468	728,114
-7,804	7,866	1382,651	727,493
-6,790	7,828	1381,774	726,830
-5,775	7,846	1380,636	726,282
-4,760	7,848	1379,784	725,817
-3,746	7,901	1378,551	725,383
-2,731	7,827	1377,973	724,712
-1,717	7,866	1377,059	724,378
-0,702	7,896	1375,134	723,476
0,313	11,821	1285,569	694,149
1,327	27,482	677,361	400,655
2,342	42,835	116,526	74,709
3,356	1,017	16,597	8,362
4,371	10,342	3,833	2,050
5,386	-10,298	1,415	0,659
6,400	800,000	0,241	0,587
7,415	-29,325	-0,150	-0,060
8,429	183,122	-0,167	-0,174
9,444	-41,369	-0,409	-0,148
10,459	41,515	-0,338	-0,215
11,473	3,279	-0,239	-0,122
12,488	-48,933	-0,199	-0,067
13,502	81,589	-0,292	-0,222
14,517	183,145	-0,194	-0,202
15,531	15,655	-0,317	-0,175
16,546	-0,421	-0,376	-0,188
17,561	91,139	-0,321	-0,253
18,575	-148,862	-0,130	-0,007
19,590	1,214	-0,148	-0,075
20,604	-100,369	-0,237	-0,041
21,619	10,799	-0,559	-0,299
22,634	138,721	-0,429	-0,397
23,648	64,005	-0,395	-0,279
24,663	-0,308	-0,535	-0,267
25,677	2,334	-0,295	-0,150
26,692	-57,625	-0,365	-0,112
27,707	28,699	-0,370	-0,220
28,721	127,291	-0,377	-0,336
29,736	58,274	-0,344	-0,237
30,750	204,663	-0,331	-0,361
31,765	39,672	-0,412	-0,259
32,780	77,308	-0,259	-0,193
33,794	-30,101	-0,301	-0,120
34,809	171,351	-0,317	-0,320
35,823	-108,417	-0,363	-0,054
36,838	14,108	-0,443	-0,242
37,853	62,617	-0,353	-0,248
38,867	148,485	-0,383	-0,363
39,882	10,099	-0,412	-0,219
40,896	206,734	-0,268	-0,294
41,911	60,775	-0,313	-0,218
42,926	4,087	-0,355	-0,182
43,940	19,796	-0,493	-0,278
44,955	83,882	-0,473	-0,362
45,969	134,358	-0,332	-0,302
46,984	65,956	-0,340	-0,242
47,999	101,943	-0,329	-0,270
49,013	35,800	-0,309	-0,190
50,028	53,184	-0,304	-0,204
51,042	-53,383	-0,513	-0,164
52,057	113,727	-0,271	-0,231
53,071	187,296	-0,268	-0,281
54,086	137,097	-0,340	-0,312
55,101	15,978	-0,335	-0,185
56,115	222,027	-0,212	-0,239
57,130	73,798	-0,372	-0,273
58,144	-33,926	-0,371	-0,143
59,159	269,258	-0,282	-0,348
60,174	154,571	-0,372	-0,359
61,188	170,107	-0,328	-0,329
62,203	8,650	-0,345	-0,182
63,217	150,080	-0,378	-0,359
64,232	-25,721	-0,449	-0,185
65,247	12,750	-0,256	-0,138
66,261	109,683	-0,326	-0,274
67,276	-33,509	-0,248	-0,096
68,290	-47,041	-0,419	-0,143
69,305	-44,714	-0,485	-0,169
70,320	-37,689	-0,364	-0,135
71,334	134,950	-0,297	-0,271
72,349	-8,936	-0,322	-0,150
73,363	-6,646	-0,444	-0,211
74,378	120,380	-0,310	-0,270
75,393	-9,058	-0,360	-0,168
76,407	-174,889	-0,230	-0,004
77,422	-16,715	-0,292	-0,129
78,436	-0,045	-0,318	-0,158
79,451	-149,743	-0,246	-0,013
80,466	8,264	-0,289	-0,152
81,480	-6,156	-0,295	-0,141
82,495	12,176	-0,405	-0,218
83,509	800,000	-0,071	-0,183
84,524	200,611	-0,159	-0,171
85,539	28,393	-0,257	-0,152
86,553	-17,594	-0,395	-0,173
87,568	151,542	-0,203	-0,193
88,582	22,830	-0,341	-0,195
89,597	57,623	-0,322	-0,220
90,611	33,903	-0,329	-0,200
91,626	-62,708	-0,342	-0,098
92,641	36,475	-0,326	-0,201
93,655	-2,049	-0,307	-0,150
94,670	329,063	-0,176	-0,237
95,684	-23,861	-0,306	-0,127
96,699	133,859	-0,247	-0,223
97,714	89,885	-0,248	-0,194
98,728	170,697	-0,196	-0,196
99,743	-176,247	-0,372	0,007
100,757	79,003	-0,282	-0,211
101,772	115,189	-0,247	-0,211
102,787	35,958	-0,226	-0,139
103,801	32,798	-0,228	-0,138
104,816	40,049	-0,265	-0,166
105,830	110,344	-0,161	-0,135
106,845	14,019	-0,135	-0,073
107,860	-16,208	-0,320	-0,142
108,874	506,944	-0,227	-0,370
109,889	118,852	-0,185	-0,159
110,903	35,335	-0,265	-0,162
111,918	53,461	-0,203	-0,136
112,933	-80,837	-0,197	-0,045
113,947	697,456	-0,043	-0,079
114,962	-21,617	-0,261	-0,110
115,976	41,348	-0,361	-0,228
116,991	118,079	-0,334	-0,288
118,006	-0,787	-0,224	-0,110
119,020	-42,730	-0,367	-0,129
120,035	-22,207	-0,347	-0,146
121,049	-136,754	-0,319	0,025
122,064	-3,273	-0,234	-0,113
123,079	33,138	-0,233	-0,140
124,093	64,678	-0,254	-0,178
125,108	178,665	-0,140	-0,143
126,122	392,565	-0,235	-0,342
127,137	-55,982	-0,183	-0,056
128,151	-90,372	-0,292	-0,058
129,166	-39,008	-0,169	-0,062
130,181	800,000	-0,057	-0,171
131,195	51,674	-0,221	-0,146
132,210	-18,851	-0,315	-0,136
133,224	-85,712	-0,132	-0,028
134,239	48,704	-0,296	-0,193
135,254	-148,759	-0,309	-0,017
136,268	29,237	-0,189	-0,112
137,283	394,266	-0,155	-0,225
138,297	83,813	-0,330	-0,251
139,312	6,028	-0,293	-0,151
140,327	122,258	-0,248	-0,216
141,341	800,000	-0,118	-0,239
142,356	89,341	-0,153	-0,118
143,370	-99,013	-0,311	-0,054
144,385	-46,291	-0,357	-0,122
145,400	2,290	-0,333	-0,167
146,414	140,878	-0,242	-0,222
147,429	417,367	-0,176	-0,262
148,443	132,795	-0,214	-0,192
149,458	99,373	-0,217	-0,175
150,473	-133,159	-0,104	0,009
151,487	-104,445	-0,232	-0,037
152,502	232,762	-0,212	-0,243
153,516	25,153	-0,287	-0,165
154,531	28,792	-0,284	-0,167
155,546	237,209	-0,192	-0,221
156,560	-65,451	-0,165	-0,046
157,575	125,295	-0,188	-0,165
158,589	75,689	-0,137	-0,100
159,604	178,342	-0,174	-0,177
160,619	45,738	-0,265	-0,170
161,633	-29,671	-0,239	-0,094
162,648	56,487	-0,275	-0,186
163,662	103,976	-0,149	-0,121
164,677	157,644	-0,173	-0,166
165,692	21,359	-0,169	-0,095
166,706	-20,471	-0,167	-0,071
167,721	-65,117	-0,344	-0,096
168,735	149,448	-0,276	-0,260
169,750	334,458	-0,226	-0,305
170,764	34,607	-0,134	-0,081
171,779	419,969	-0,184	-0,274
172,794	-136,368	-0,188	-0,015
173,808	-56,451	-0,273	-0,083
174,823	2,238	-0,280	-0,140
175,837	195,400	-0,237	-0,251
176,852	-36,535	-0,249	-0,093
177,867	-38,584	-0,225	-0,082
178,881	76,405	-0,130	-0,095
179,896	175,246	-0,223	-0,224
180,910	8,005	-0,148	-0,077
181,925	74,840	-0,307	-0,224
182,940	213,906	-0,183	-0,202
183,954	138,435	-0,131	-0,120
184,969	474,194	-0,168	-0,264
185,983	177,941	-0,156	-0,158
186,998	800,000	-0,097	-0,218
188,013	-16,480	-0,222	-0,097
189,027	57,775	-0,273	-0,185
190,042	166,017	-0,189	-0,186
191,056	145,043	-0,156	-0,144
192,071	168,796	-0,088	-0,087
193,086	386,599	-0,167	-0,239
194,100	-94,174	-0,196	-0,037
195,115	-75,643	-0,235	-0,057
196,129	-38,165	-0,303	-0,111
197,144	82,281	-0,232	-0,174
198,159	113,080	-0,202	-0,170
199,173	800,000	-0,126	-0,290
200,188	-200,000	-0,060	-0,192
201,202	27,201	-0,189	-0,110
202,217	-52,374	-0,291	-0,093
203,232	66,528	-0,253	-0,178
204,246	800,000	-0,092	-0,231
205,261	179,186	-0,215	-0,218
206,275	800,000	-0,123	-0,284
207,290	316,325	-0,148	-0,194
208,304	-46,550	-0,216	-0,073
209,319	415,808	-0,184	-0,273
210,334	68,516	-0,235	-0,167
211,348	30,354	-0,313	-0,184
212,363	46,857	-0,164	-0,105
213,377	-37,726	-0,217	-0,080
214,392	231,345	-0,194	-0,220
215,407	-9,285	-0,092	-0,042
216,421	-20,457	-0,230	-0,097
217,436	89,085	-0,176	-0,135
218,450	68,582	-0,208	-0,147
219,465	-200,000	-0,070	-0,331
220,480	17,952	-0,222	-0,122
221,494	-200,000	-0,010	-0,205
222,509	26,803	-0,128	-0,074
223,523	-15,911	-0,354	-0,155
224,538	-124,465	-0,194	-0,021
225,553	-59,133	-0,216	-0,064
226,567	7,665	-0,223	-0,115
227,582	-90,719	-0,200	-0,040
228,596	328,278	-0,151	-0,201
229,611	800,000	-0,098	-0,197
230,626	-60,213	-0,165	-0,048
231,640	-58,664	-0,272	-0,081
232,655	18,678	-0,180	-0,099
233,669	464,167	-0,137	-0,212
234,684	38,681	-0,284	-0,175
235,699	125,485	-0,189	-0,165
236,713	800,000	-0,079	-0,163
237,728	95,663	-0,230	-0,181
238,742	-7,765	-0,082	-0,038
239,757	37,544	-0,217	-0,132
240,772	31,037	-0,240	-0,141
241,786	21,780	-0,149	-0,084
242,801	222,278	-0,066	-0,074
243,815	-22,991	-0,159	-0,066
244,830	-56,067	-0,286	-0,087
245,844	138,708	-0,180	-0,163
246,859	209,581	-0,096	-0,104
247,874	-98,618	-0,187	-0,033
248,888	267,257	-0,076	-0,092
249,903	-44,076	-0,193	0,066
250,917	-83,004	-0,104	0,023
251,932	-19,924	-0,057	-0,024
252,947	800,000	-0,087	-0,172
253,961	140,820	-0,077	-0,070
254,976	-56,694	-0,245	-0,074
255,990	2,449	-0,160	-0,080
257,005	-23,893	-0,140	0,057
258,020	68,450	-0,225	-0,159
259,034	800,000	-0,041	-0,093
260,049	800,000	-0,048	-0,105
261,063	-21,852	-0,208	-0,087
262,078	81,092	-0,195	-0,145
263,093	51,353	-0,181	-0,118
264,107	52,417	-0,246	-0,162
265,122	-3,709	-0,125	-0,059
266,136	-64,043	-0,250	-0,070
267,151	-89,997	-0,137	0,027
268,166	203,678	-0,201	-0,215
269,180	6,769	-0,255	-0,130
270,195	378,671	-0,213	-0,302
271,209	36,133	-0,284	-0,172
272,224	1,545	-0,262	-0,130
273,239	-76,860	-0,171	0,041
274,253	-93,539	-0,097	0,018
275,268	-43,763	-0,278	-0,096
276,282	30,086	-0,175	-0,102
277,297	15,425	-0,160	-0,086
278,312	110,761	-0,218	-0,181
279,326	-110,527	-0,307	0,043
280,341	230,113	-0,079	-0,089
281,355	-150,831	-0,105	0,005
282,370	41,570	-0,155	-0,096
283,384	-21,785	-0,168	-0,070
284,399	-113,799	-0,284	-0,038
285,414	83,366	-0,200	-0,150
286,428	215,826	-0,219	-0,240
287,443	197,414	-0,118	-0,124
288,457	-84,671	-0,181	-0,039
289,472	64,932	-0,217	-0,151
290,487	81,799	-0,239	-0,178
291,501	132,397	-0,230	-0,203
292,516	-4,472	-0,220	-0,104
293,530	-200,000	-0,052	-0,166
294,545	-53,838	-0,059	0,019
295,560	-72,534	-0,220	0,055
296,574	53,804	-0,142	-0,094
297,589	-98,765	-0,167	0,029
298,603	139,108	-0,136	-0,123
299,618	-60,421	-0,267	-0,077
300,633	129,650	-0,199	-0,175
301,647	66,503	-0,181	-0,126
302,662	306,499	-0,129	-0,165
303,676	8,438	-0,160	-0,082
304,691	9,002	-0,159	-0,082
305,706	109,522	-0,252	-0,208
306,720	-77,746	-0,221	0,052
307,735	148,801	0,061	-0,056
308,749	292,651	-0,020	-0,024
309,764	-200,000	-0,064	-0,264
310,779	800,000	-0,043	-0,126
311,793	192,928	-0,164	-0,170
312,808	266,589	-0,161	-0,194
313,822	-48,293	-0,241	-0,079
314,837	-25,181	-0,163	-0,066
315,852	5,541	-0,141	-0,071
316,866	800,000	-0,036	-0,110
317,881	-26,860	-0,093	0,037
318,895	-108,761	-0,186	-0,027
319,910	-53,959	-0,151	-0,047
320,925	-200,000	-0,081	-0,000
321,939	-117,627	-0,299	-0,036
322,954	-33,784	-0,124	-0,046
323,968	393,167	-0,141	-0,201
324,983	-129,090	-0,028	-0,003
325,997	45,372	-0,132	-0,083
327,012	273,200	-0,079	-0,096
328,027	123,243	-0,149	-0,128
329,041	575,383	-0,083	-0,140
330,056	-52,985	-0,113	-0,035
331,070	148,084	-0,100	-0,093
332,085	669,546	-0,077	-0,136
333,100	176,051	-0,033	-0,032
334,114	44,163	-0,129	-0,081
335,129	139,528	-0,141	-0,127
336,143	212,577	-0,110	-0,119
337,158	-200,000	-0,011	-0,100
338,173	163,087	-0,097	-0,094
339,187	-34,324	-0,108	-0,040
340,202	361,420	-0,139	-0,191
341,216	235,294	-0,156	-0,177
342,231	102,358	-0,166	-0,133
343,246	-7,085	-0,136	-0,063
344,260	44,811	-0,084	0,053
345,275	609,787	-0,036	-0,062
346,289	-17,140	-0,066	0,028
347,304	-200,000	0,047	-0,173
348,319	349,439	-0,022	-0,030
349,333	279,289	-0,188	-0,230
350,348	219,022	-0,236	-0,259
351,362	-105,005	0,037	0,006
352,377	-101,212	-0,100	0,017
353,392	6,547	-0,123	-0,062
354,406	5,664	-0,252	-0,127
355,421	207,611	1311,531	1400,859
356,435	159,706	1471,825	1401,286
