DTS Sentinel unit serial number:	SN410029Multiplexer serial number:	ORYXHardware model number:	OX2-SRSoftware version number:	ORYX F/W v4,00 Oryx Data Collector v3.7.2.0data status	okinstallation	B3 Nyhavnadifferential loss correction	single-endedforward channel	channel 1reverse channel	N/Adate	2023/12/03time	09:47:30forward acquisition time	300,00reverse acquisition time	0,00gamma	499,1914k internal	0,3201k external	0,3201temperature offset calibration	1,0000default loss term (dB/km)	0,3820temperature slope calibration	1,0000multiplexer offset coefficient	1,0000multiplexer slope coefficient	1,0000fibre end	0,00T internal ref (°C)	13,36T ext. ref 1 (°C)	-1,65T ext. ref 2 (°C)	-1,68length (m)	temperature (°C)	Stokes	anti-Stokes-744,400	410,928	-0,111	-0,172
-743,385	26,455	0,221	0,134
-742,371	217,800	-0,163	-0,189
-741,356	-200,000	-0,013	0,318
-740,342	800,000	-0,145	-0,305
-739,327	-200,000	0,048	0,327
-738,312	257,313	-0,227	-0,284
-737,298	577,525	0,115	0,205
-736,283	-38,926	-0,307	-0,117
-735,269	800,000	0,108	0,283
-734,254	-82,731	-0,140	-0,033
-733,239	327,682	-0,168	0,234
-732,225	432,099	-0,134	-0,212
-731,210	55,384	0,151	0,106
-730,196	-83,090	-0,099	-0,023
-729,181	-111,383	0,053	0,008
-728,167	-200,000	0,000	-0,081
-727,152	50,020	-0,161	-0,110
-726,137	-19,710	0,033	-0,015
-725,123	-200,000	-0,029	-0,120
-724,108	-55,632	0,120	-0,039
-723,094	800,000	0,018	-0,057
-722,079	-200,000	0,011	-0,094
-721,064	317,478	0,063	-0,086
-720,050	800,000	-0,034	-0,068
-719,035	16,544	0,057	-0,033
-718,021	-146,309	-0,041	-0,003
-717,006	91,814	-0,081	0,067
-715,991	123,054	-0,060	-0,054
-714,977	-44,836	-0,085	-0,031
-713,962	618,229	-0,053	0,096
-712,948	800,000	0,058	0,120
-711,933	-86,882	0,115	0,025
-710,918	-200,000	0,004	0,033
-709,904	33,074	0,009	0,006
-708,889	165,603	-0,042	-0,043
-707,875	306,950	-0,074	-0,100
-706,860	576,523	-0,073	0,130
-705,845	-44,486	-0,163	-0,059
-704,831	84,991	0,085	0,068
-703,816	-131,575	-0,038	-0,004
-702,802	-43,414	-0,149	0,054
-701,787	70,095	-0,148	-0,111
-700,772	-200,000	-0,009	-0,071
-699,758	189,731	-0,068	-0,075
-698,743	101,472	-0,076	0,064
-697,729	-97,458	0,046	-0,009
-696,714	-200,000	0,009	-0,109
-695,699	800,000	0,021	-0,066
-694,685	-200,000	0,011	-0,096
-693,670	800,000	0,035	0,098
-692,656	800,000	-0,044	0,091
-691,641	-143,391	0,111	0,008
-690,627	800,000	0,043	0,138
-689,612	354,786	0,036	-0,052
-688,597	-200,000	0,015	-0,142
-687,583	-200,000	0,036	-0,146
-686,568	-200,000	0,012	-0,122
-685,554	-93,739	-0,046	-0,009
-684,539	522,993	-0,060	-0,102
-683,524	800,000	0,043	0,127
-682,510	23,260	0,076	-0,045
-681,495	376,760	-0,059	0,087
-680,481	-161,326	-0,212	0,008
-679,466	-200,000	0,001	0,058
-678,451	444,609	-0,042	0,067
-677,437	-3,587	0,080	-0,040
-676,422	-200,000	-0,001	0,155
-675,408	292,538	-0,046	0,061
-674,393	800,000	-0,022	0,056
-673,378	-116,724	-0,032	-0,004
-672,364	6,555	0,076	0,041
-671,349	-121,371	-0,037	-0,004
-670,335	-142,936	0,072	0,005
-669,320	-59,279	0,067	-0,021
-668,305	800,000	0,028	0,068
-667,291	17,684	-0,033	-0,019
-666,276	317,653	0,036	-0,049
-665,262	-80,899	0,068	0,016
-664,247	-123,311	0,026	0,003
-663,232	48,000	-0,027	-0,018
-662,218	800,000	0,055	0,162
-661,203	-109,630	0,054	0,008
-660,189	-3,187	0,079	-0,040
-659,174	157,457	-0,096	0,097
-658,159	172,838	-0,074	-0,077
-657,145	-200,000	0,040	-0,134
-656,130	-200,000	0,004	-0,132
-655,116	569,515	-0,050	0,088
-654,101	-55,963	0,063	-0,020
-653,086	800,000	0,087	0,175
-652,072	-27,300	-0,040	0,017
-651,057	-88,630	-0,049	0,010
-650,043	83,050	-0,066	0,052
-649,028	118,521	-0,030	0,027
-648,014	194,645	-0,111	-0,123
-646,999	57,348	0,044	-0,031
-645,984	-8,733	0,032	0,016
-644,970	-36,402	-0,043	-0,017
-643,955	-28,729	-0,113	-0,047
-642,941	131,241	0,054	-0,051
-641,926	-200,000	0,009	-0,045
-640,911	-200,000	0,010	0,050
-639,897	749,778	0,048	-0,095
-638,882	-155,891	0,071	-0,003
-637,868	321,061	0,061	-0,084
-636,853	363,385	-0,050	-0,072
-635,838	800,000	0,066	-0,138
-634,824	-200,000	0,003	-0,112
-633,809	63,507	0,078	0,056
-632,795	800,000	0,004	0,010
-631,780	800,000	0,070	-0,146
-630,765	271,035	-0,055	0,070
-629,751	-200,000	0,006	0,063
-628,736	-47,281	-0,134	-0,047
-627,722	-200,000	0,005	0,037
-626,707	800,000	-0,009	-0,018
-625,692	800,000	0,005	-0,015
-624,678	-200,000	-0,029	-0,092
-623,663	-200,000	0,007	-0,041
-622,649	800,000	-0,027	0,082
-621,634	-200,000	0,006	-0,085
-620,619	-139,901	-0,111	0,008
-619,605	-198,900	-0,183	0,001
-618,590	-89,205	0,039	0,008
-617,576	92,161	-0,102	-0,083
-616,561	90,799	0,050	0,041
-615,546	800,000	-0,026	0,076
-614,532	-200,000	0,002	-0,049
-613,517	4,740	0,064	0,034
-612,503	64,170	0,035	-0,026
-611,488	86,250	0,149	-0,118
-610,474	-76,548	0,106	-0,027
-609,459	171,598	-0,019	-0,019
-608,444	102,974	0,071	-0,060
-607,430	503,272	-0,072	-0,121
-606,415	-4,274	-0,055	0,028
-605,401	800,000	0,082	-0,180
-604,386	-200,000	0,007	0,073
-603,371	169,254	0,013	-0,014
-602,357	145,905	0,096	0,093
-601,342	70,157	-0,053	0,040
-600,328	54,288	0,031	0,022
-599,313	181,577	0,008	-0,009
-598,298	32,626	-0,142	0,089
-597,284	-200,000	0,009	-0,099
-596,269	354,549	0,028	0,040
-595,255	463,893	0,075	-0,121
-594,240	800,000	0,020	-0,049
-593,225	-140,988	-0,050	0,004
-592,211	-200,000	-0,034	-0,157
-591,196	110,987	0,113	-0,099
-590,182	-200,000	-0,019	-0,124
-589,167	-31,014	0,152	0,062
-588,152	800,000	-0,024	0,053
-587,138	472,444	0,058	-0,095
-586,123	530,367	-0,072	-0,124
-585,109	124,553	-0,043	-0,039
-584,094	15,366	0,071	0,040
-583,079	-200,000	-0,003	0,029
-582,065	-200,000	-0,038	-0,167
-581,050	384,333	0,069	0,103
-580,036	109,107	0,049	0,042
-579,021	-88,486	-0,157	-0,034
-578,006	-200,000	-0,005	-0,052
-576,992	90,041	-0,088	-0,071
-575,977	127,208	0,056	0,052
-574,963	800,000	-0,053	-0,119
-573,948	51,006	0,101	0,069
-572,934	-64,558	0,029	0,008
-571,919	-3,521	-0,126	-0,063
-570,904	-200,000	-0,007	0,030
-569,890	800,000	-0,047	0,107
-568,875	397,518	-0,036	0,055
-567,861	-200,000	-0,018	0,109
-566,846	181,760	0,034	0,036
-565,831	632,064	0,018	-0,033
-564,817	800,000	-0,072	0,146
-563,802	-200,000	0,011	0,043
-562,788	156,436	-0,050	-0,050
-561,773	797,393	-0,071	0,141
-560,758	-160,517	0,127	-0,005
-559,744	-114,544	-0,061	-0,008
-558,729	-200,000	-0,013	0,056
-557,715	582,416	-0,034	-0,061
-556,700	-200,000	-0,011	-0,064
-555,685	800,000	0,011	-0,024
-554,671	800,000	-0,008	-0,021
-553,656	-200,000	-0,013	0,132
-552,642	355,128	-0,039	0,055
-551,627	-200,000	-0,011	0,083
-550,612	297,510	-0,048	0,064
-549,598	154,424	-0,107	0,107
-548,583	-200,000	0,020	0,142
-547,569	-200,000	-0,018	0,077
-546,554	800,000	-0,003	-0,008
-545,539	71,125	0,007	0,006
-544,525	-121,664	-0,046	-0,005
-543,510	-184,426	0,049	0,001
-542,496	-13,090	-0,065	-0,031
-541,481	177,968	0,038	0,040
-540,466	139,920	0,107	0,102
-539,452	-74,614	0,185	0,048
-538,437	-16,180	-0,055	0,025
-537,423	-5,966	0,145	-0,071
-536,408	10,543	0,128	-0,070
-535,393	309,957	-0,125	-0,170
-534,379	-200,000	0,011	-0,068
-533,364	800,000	-0,018	-0,040
-532,350	-87,470	0,058	0,012
-531,335	314,557	0,113	0,154
-530,321	507,498	0,030	0,051
-529,306	800,000	-0,009	0,021
-528,291	173,644	-0,028	-0,029
-527,277	-105,680	-0,161	0,026
-526,262	78,776	0,027	0,021
-525,248	81,452	0,030	-0,024
-524,233	-200,000	-0,003	0,019
-523,218	21,587	-0,077	0,045
-522,204	800,000	0,022	-0,050
-521,189	-170,055	0,085	-0,002
-520,175	204,681	-0,035	0,039
-519,160	800,000	-0,039	-0,104
-518,145	-152,005	0,154	0,008
-517,131	306,361	0,054	0,072
-516,116	800,000	-0,024	0,071
-515,102	-105,976	0,165	-0,027
-514,087	240,159	0,079	-0,095
-513,072	-115,524	-0,130	-0,017
-512,058	629,700	-0,045	0,083
-511,043	-200,000	0,034	0,114
-510,029	-66,576	-0,023	0,006
-509,014	-200,000	0,024	0,156
-507,999	240,853	0,040	0,048
-506,985	619,723	0,032	-0,058
-505,970	-74,748	-0,025	-0,006
-504,956	800,000	0,035	0,072
-503,941	21,532	-0,019	-0,011
-502,926	-200,000	-0,014	0,093
-501,912	71,235	0,057	0,043
-500,897	135,900	0,030	-0,028
-499,883	-108,052	-0,025	0,004
-498,868	-57,291	-0,073	-0,023
-497,853	-200,000	0,008	-0,063
-496,839	61,376	0,032	0,023
-495,824	34,541	0,156	0,098
-494,810	800,000	0,020	-0,048
-493,795	-200,000	-0,013	0,062
-492,781	-85,552	-0,099	-0,022
-491,766	-200,000	0,014	-0,049
-490,751	-200,000	-0,023	-0,137
-489,737	-200,000	0,017	-0,071
-488,722	-49,930	0,134	-0,045
-487,708	-16,748	-0,066	0,030
-486,693	-117,766	-0,058	-0,007
-485,678	-200,000	0,006	-0,050
-484,664	-200,000	0,017	-0,076
-483,649	332,321	-0,037	0,052
-482,635	-162,044	-0,089	0,003
-481,620	-81,616	-0,062	0,015
-480,605	-16,734	0,205	-0,093
-479,591	-104,438	0,055	0,009
-478,576	800,000	0,037	-0,077
-477,562	12,683	-0,088	-0,049
-476,547	-45,287	0,052	-0,018
-475,532	294,531	-0,009	0,012
-474,518	-81,251	0,093	-0,022
-473,503	50,749	0,054	0,037
-472,489	176,671	-0,040	0,042
-471,474	800,000	-0,026	0,080
-470,459	95,265	-0,109	0,089
-469,445	-200,000	-0,026	0,134
-468,430	-49,934	-0,212	0,072
-467,416	-180,864	0,118	-0,002
-466,401	-64,401	-0,045	-0,013
-465,386	68,874	-0,120	0,088
-464,372	-200,000	0,014	0,143
-463,357	59,507	-0,105	-0,074
-462,343	410,879	-0,050	0,077
-461,328	436,743	-0,024	0,038
-460,313	610,220	0,023	-0,041
-459,299	-31,057	0,107	0,043
-458,284	-200,000	0,009	0,056
-457,270	65,738	0,044	0,032
-456,255	-200,000	-0,027	0,093
-455,241	-101,132	-0,150	-0,026
-454,226	-200,000	-0,013	-0,148
-453,211	-200,000	0,012	-0,088
-452,197	231,182	0,040	0,047
-451,182	-65,643	0,173	0,050
-450,168	-125,379	-0,032	-0,003
-449,153	-60,764	-0,160	-0,048
-448,138	535,408	-0,070	-0,120
-447,124	-105,089	0,007	-0,001
-446,109	53,952	-0,067	-0,046
-445,095	63,783	0,102	0,074
-444,080	-200,000	-0,007	0,134
-443,065	157,083	0,121	0,120
-442,051	-200,000	-0,015	-0,061
-441,036	-30,495	-0,285	-0,115
-440,022	-13,272	-0,071	-0,033
-439,007	40,446	0,119	-0,077
-437,992	-112,155	-0,100	0,014
-436,978	397,611	0,041	0,061
-435,963	14,953	-0,032	0,018
-434,949	375,873	-0,062	-0,090
-433,934	-79,827	-0,194	0,047
-432,919	-200,000	0,019	0,074
-431,905	145,833	0,022	0,021
-430,890	-46,515	0,065	0,023
-429,876	800,000	0,062	-0,152
-428,861	272,542	0,039	-0,049
-427,846	-127,001	0,252	-0,026
-426,832	632,248	0,052	0,095
-425,817	403,811	0,016	-0,024
-424,803	63,506	-0,012	-0,009
-423,788	800,000	0,045	0,115
-422,773	135,902	0,067	0,063
-421,759	60,465	0,050	-0,035
-420,744	-23,660	-0,046	-0,020
-419,730	-200,000	0,019	0,071
-418,715	77,906	-0,100	-0,076
-417,701	-200,000	0,009	0,087
-416,686	16,567	0,027	-0,015
-415,671	42,213	0,170	0,111
-414,657	-200,000	0,048	0,176
-413,642	-200,000	0,010	0,072
-412,628	42,076	-0,100	0,065
-411,613	-8,630	0,055	-0,026
-410,598	-200,000	0,016	-0,164
-409,584	-200,000	-0,015	-0,172
-408,569	800,000	-0,060	0,144
-407,555	148,905	0,016	0,016
-406,540	468,946	0,046	0,074
-405,525	427,120	-0,104	-0,161
-404,511	-200,000	-0,010	-0,033
-403,496	-200,000	-0,006	-0,045
-402,482	-99,906	0,040	0,007
-401,467	-4,063	0,190	0,094
-400,452	96,847	-0,056	0,046
-399,438	-200,000	0,004	0,073
-398,423	-159,930	-0,172	0,007
-397,409	-48,979	-0,029	-0,010
-396,394	95,655	0,022	-0,018
-395,379	800,000	0,083	-0,183
-394,365	-187,522	0,168	-0,002
-393,350	786,015	-0,020	-0,039
-392,336	800,000	-0,011	-0,029
-391,321	-200,000	0,016	0,097
-390,306	67,555	-0,028	-0,020
-389,292	-200,000	0,020	-0,191
-388,277	4,493	0,091	0,048
-387,263	211,266	0,073	-0,083
-386,248	522,153	-0,060	-0,101
-385,233	407,860	-0,063	0,095
-384,219	-46,632	-0,046	0,016
-383,204	-106,397	0,099	-0,016
-382,190	-10,025	0,081	0,038
-381,175	800,000	-0,009	-0,017
-380,160	-57,659	0,058	-0,018
-379,146	511,473	0,004	0,007
-378,131	42,118	0,039	-0,026
-377,117	-200,000	-0,007	0,051
-376,102	800,000	-0,038	-0,096
-375,088	111,370	0,040	0,035
-374,073	90,658	-0,042	-0,034
-373,058	-200,000	-0,002	0,098
-372,044	800,000	0,038	-0,106
-371,029	284,401	-0,054	0,070
-370,015	-200,000	0,012	0,071
-369,000	160,303	-0,076	-0,076
-367,985	-162,060	-0,038	0,001
-366,971	-27,052	0,068	0,028
-365,956	-200,000	-0,002	-0,065
-364,942	-140,926	0,147	-0,011
-363,927	800,000	0,053	0,118
-362,912	62,011	0,101	-0,072
-361,898	-100,977	-0,154	0,027
-360,883	342,520	-0,091	-0,128
-359,869	-46,086	-0,069	-0,024
-358,854	487,146	0,053	0,086
-357,839	64,076	-0,024	0,017
-356,825	-200,000	-0,023	-0,096
-355,810	64,267	0,053	-0,038
-354,796	306,048	-0,078	0,104
-353,781	-200,000	0,040	-0,199
-352,766	800,000	-0,036	-0,079
-351,752	-200,000	-0,025	0,147
-350,737	67,214	-0,087	0,063
-349,723	189,075	0,007	-0,008
-348,708	-74,511	0,023	0,006
-347,693	800,000	0,017	-0,037
-346,679	-200,000	-0,006	0,054
-345,664	4,116	-0,032	0,017
-344,650	800,000	-0,049	0,127
-343,635	203,624	0,039	0,044
-342,620	227,805	-0,033	0,038
-341,606	6,219	-0,043	0,023
-340,591	-44,991	0,034	0,012
-339,577	-151,051	-0,095	0,005
-338,562	-200,000	-0,005	-0,067
-337,548	-200,000	0,018	-0,231
-336,533	73,809	0,055	-0,041
-335,518	-29,600	0,021	0,008
-334,504	-149,808	0,025	-0,001
-333,489	-200,000	0,056	0,000
-332,475	-200,000	-0,002	-0,040
-331,460	71,869	0,086	-0,064
-330,445	96,195	0,048	0,039
-329,431	68,964	-0,065	0,048
-328,416	800,000	-0,008	0,018
-327,402	124,130	-0,103	0,093
-326,387	-80,320	-0,112	0,027
-325,372	-200,000	0,043	-0,137
-324,358	664,126	-0,037	-0,069
-323,343	83,864	-0,006	-0,005
-322,329	-30,344	0,056	0,023
-321,314	-43,718	0,111	0,040
-320,299	469,520	0,065	-0,105
-319,285	-9,107	-0,104	-0,050
-318,270	4,077	-0,045	0,023
-317,256	800,000	-0,042	0,085
-316,241	-52,166	-0,030	0,010
-315,226	201,025	0,064	0,070
-314,212	204,002	0,089	0,098
-313,197	523,961	0,026	0,043
-312,183	51,036	-0,081	-0,055
-311,168	401,311	0,048	-0,073
-310,153	-200,000	0,022	-0,155
-309,139	-13,537	-0,165	-0,076
-308,124	-165,846	-0,103	-0,003
-307,110	-23,102	0,080	0,034
-306,095	43,370	0,098	0,064
-305,080	-60,534	-0,158	-0,048
-304,066	-200,000	0,004	0,077
-303,051	-90,307	0,100	-0,021
-302,037	180,200	0,094	-0,099
-301,022	10,753	-0,130	0,070
-300,008	-96,862	-0,030	-0,006
-298,993	82,833	0,043	-0,034
-297,978	127,646	-0,116	0,105
-296,964	274,283	0,075	-0,095
-295,949	26,722	-0,106	-0,063
-294,935	98,651	-0,025	-0,021
-293,920	800,000	-0,028	-0,076
-292,905	-200,000	0,004	-0,029
-291,891	-200,000	-0,035	0,122
-290,876	-200,000	0,011	0,118
-289,862	-200,000	-0,019	-0,128
-288,847	-78,665	0,172	-0,042
-287,832	-46,153	-0,085	0,030
-286,818	800,000	-0,051	0,102
-285,803	468,505	0,053	-0,086
-284,789	-200,000	-0,024	0,079
-283,774	800,000	-0,036	0,093
-282,759	-200,000	0,035	0,157
-281,745	-200,000	0,022	-0,089
-280,730	800,000	-0,018	-0,054
-279,716	428,539	-0,001	-0,002
-278,701	217,625	-0,045	-0,052
-277,686	-63,223	-0,084	0,024
-276,672	-66,629	0,090	-0,025
-275,657	19,920	-0,100	-0,057
-274,643	113,937	0,083	-0,072
-273,628	-153,098	-0,107	-0,005
-272,613	49,955	-0,106	-0,071
-271,599	-200,000	-0,048	0,157
-270,584	-200,000	-0,015	0,106
-269,570	181,032	0,077	0,080
-268,555	38,167	-0,063	-0,040
-267,540	800,000	0,042	-0,090
-266,526	268,239	-0,046	0,058
-265,511	800,000	-0,033	-0,093
-264,497	16,091	0,114	0,064
-263,482	730,430	0,026	0,049
-262,467	-200,000	-0,006	0,026
-261,453	650,102	0,066	-0,121
-260,438	41,623	-0,060	0,039
-259,424	-45,566	-0,067	-0,024
-258,409	233,130	-0,036	-0,043
-257,395	10,364	-0,045	-0,025
-256,380	-113,548	0,199	0,027
-255,365	550,444	0,037	0,063
-254,351	267,913	-0,096	0,120
-253,336	62,326	-0,136	0,096
-252,322	-200,000	0,004	-0,062
-251,307	174,281	0,093	0,096
-250,292	-8,983	-0,143	0,068
-249,278	239,567	0,055	0,065
-248,263	362,016	0,070	-0,101
-247,249	800,000	-0,019	0,045
-246,234	347,370	0,052	0,074
-245,219	207,890	-0,112	-0,125
-244,205	-97,844	-0,101	-0,018
-243,190	-145,330	0,127	-0,008
-242,176	141,178	0,036	0,034
-241,161	176,421	0,099	-0,103
-240,146	800,000	-0,061	-0,178
-239,132	355,765	-0,061	-0,088
-238,117	-200,000	-0,009	-0,115
-237,103	-135,227	0,104	0,009
-236,088	-200,000	0,005	0,028
-235,073	-200,000	0,010	0,045
-234,059	307,179	0,106	0,141
-233,044	22,419	0,088	0,051
-232,030	-114,028	0,017	0,002
-231,015	-170,724	-0,167	0,004
-230,000	-200,000	-0,008	-0,108
-228,986	-200,000	-0,034	-0,122
-227,971	6,936	-0,008	-0,004
-226,957	-196,939	0,173	0,001
-225,942	800,000	-0,043	-0,098
-224,927	27,931	-0,077	-0,046
-223,913	-100,072	-0,118	-0,021
-222,898	-200,000	-0,007	-0,114
-221,884	-200,000	-0,022	0,189
-220,869	-200,000	0,025	0,084
-219,855	758,367	-0,044	0,085
-218,840	2,140	0,131	0,067
-217,825	-200,000	-0,043	0,190
-216,811	-126,913	-0,111	0,011
-215,796	800,000	-0,058	-0,132
-214,782	800,000	-0,026	-0,076
-213,767	138,218	0,121	0,113
-212,752	172,477	-0,043	-0,044
-211,738	-23,665	0,126	0,054
-210,723	153,224	0,036	0,036
-209,709	-200,000	-0,042	0,138
-208,694	-124,607	-0,022	0,002
-207,679	-66,008	0,059	0,017
-206,665	241,535	0,019	0,023
-205,650	-53,733	0,078	0,025
-204,636	-43,698	0,042	-0,015
-203,621	-8,896	-0,072	0,034
-202,606	800,000	0,029	0,083
-201,592	101,539	-0,073	-0,061
-200,577	-93,378	-0,073	-0,014
-199,563	-64,836	0,074	-0,021
-198,548	-58,204	-0,014	0,004
-197,533	-15,151	0,053	0,024
-196,519	800,000	-0,024	0,055
-195,504	745,186	-0,046	0,088
-194,490	616,072	0,057	-0,103
-193,475	-200,000	-0,003	0,057
-192,460	59,694	0,071	0,050
-191,446	-200,000	-0,005	0,088
-190,431	800,000	0,067	0,134
-189,417	-200,000	-0,006	0,142
-188,402	-126,377	0,114	-0,012
-187,387	-54,559	-0,105	-0,034
-186,373	379,942	0,068	0,099
-185,358	-200,000	-0,018	-0,105
-184,344	4,254	-0,088	-0,046
-183,329	-145,425	0,092	0,006
-182,315	-28,150	0,079	0,033
-181,300	800,000	-0,029	-0,063
-180,285	-200,000	-0,003	-0,029
-179,271	131,208	0,034	-0,031
-178,256	-200,000	0,021	-0,083
-177,242	-66,606	0,018	0,005
-176,227	165,174	0,108	0,109
-175,212	9,556	-0,060	-0,032
-174,198	161,435	-0,018	-0,018
-173,183	40,639	-0,162	0,104
-172,169	800,000	-0,036	-0,087
-171,154	-79,141	-0,025	-0,006
-170,139	800,000	-0,016	0,033
-169,125	-151,549	0,051	0,003
-168,110	370,318	-0,043	-0,063
-167,096	-200,000	0,001	0,038
-166,081	-159,120	-0,095	-0,004
-165,066	800,000	-0,061	-0,129
-164,052	-110,880	-0,165	-0,024
-163,037	523,328	0,058	0,097
-162,023	-200,000	0,016	0,060
-161,008	-76,211	0,059	-0,015
-159,993	297,782	0,007	-0,009
-158,979	15,612	-0,041	-0,023
-157,964	-24,786	-0,071	0,030
-156,950	800,000	0,009	0,022
-155,935	800,000	0,014	0,033
-154,920	295,705	-0,101	-0,132
-153,906	107,335	0,089	-0,075
-152,891	-65,897	0,117	0,033
-151,877	-137,304	-0,074	-0,006
-150,862	415,935	0,062	-0,094
-149,847	-200,000	0,008	-0,102
-148,833	-181,699	-0,077	0,001
-147,818	-80,302	-0,050	-0,012
-146,804	783,876	-0,059	0,115
-145,789	37,011	0,073	0,046
-144,775	-200,000	0,000	-0,117
-143,760	231,778	0,055	0,064
-142,745	-65,561	-0,042	-0,012
-141,731	83,362	-0,074	0,058
-140,716	653,305	-0,056	0,102
-139,702	15,624	0,244	0,136
-138,687	0,252	0,089	-0,045
-137,672	76,993	-0,076	-0,057
-136,658	-200,000	0,014	-0,107
-135,643	-200,000	-0,012	-0,091
-134,629	-200,000	0,016	0,066
-133,614	-200,000	0,008	0,083
-132,599	-180,218	-0,085	-0,001
-131,585	-113,519	0,014	0,002
-130,570	-13,547	0,073	-0,034
-129,556	-61,641	0,091	-0,027
-128,541	-200,000	0,001	-0,069
-127,526	800,000	-0,061	-0,137
-126,512	34,183	0,043	0,027
-125,497	-134,114	-0,089	0,008
-124,483	800,000	-0,043	0,091
-123,468	800,000	0,039	-0,094
-122,453	-200,000	0,000	-0,121
-121,439	800,000	0,038	-0,076
-120,424	-200,000	0,002	-0,059
-119,410	43,162	-0,075	-0,049
-118,395	-200,000	-0,015	-0,049
-117,380	140,572	0,109	-0,102
-116,366	800,000	-0,051	-0,149
-115,351	-55,428	-0,088	-0,028
-114,337	800,000	-0,025	-0,063
-113,322	-127,958	-0,105	-0,011
-112,307	800,000	-0,020	0,042
-111,293	-77,286	0,089	0,022
-110,278	-21,829	0,134	-0,058
-109,264	800,000	-0,023	0,047
-108,249	-200,000	-0,009	0,083
-107,234	800,000	0,019	-0,047
-106,220	-170,160	-0,081	0,002
-105,205	-200,000	0,039	-0,184
-104,191	118,877	-0,090	0,079
-103,176	-72,971	0,100	0,026
-102,162	419,465	-0,077	-0,117
-101,147	800,000	-0,045	-0,106
-100,132	-82,957	-0,103	-0,023
-99,118	53,143	-0,145	-0,098
-98,103	-200,000	0,026	-0,089
-97,089	-200,000	0,037	0,149
-96,074	-200,000	0,029	-0,112
-95,059	59,219	-0,041	0,028
-94,045	-89,794	-0,075	0,015
-93,030	-20,253	-0,078	-0,034
-92,016	-45,197	0,076	-0,027
-91,001	-200,000	-0,006	0,041
-89,986	-172,768	0,102	0,002
-88,972	-200,000	0,026	0,131
-87,957	-170,411	-0,069	0,002
-86,943	800,000	-0,031	-0,076
-85,928	800,000	-0,033	-0,078
-84,913	336,720	0,051	-0,070
-83,899	-200,000	0,016	-0,099
-82,884	-78,665	0,149	-0,036
-81,870	99,663	0,050	-0,041
-80,855	176,560	0,063	-0,065
-79,840	40,864	0,073	-0,046
-78,826	-200,000	0,006	0,098
-77,811	-200,000	0,023	-0,182
-76,797	-200,000	0,002	-0,050
-75,782	-30,111	0,029	-0,012
-74,767	-200,000	-0,017	-0,067
-73,753	-162,145	0,113	0,004
-72,738	-200,000	-0,003	-0,111
-71,724	188,566	-0,041	0,043
-70,709	176,258	-0,135	0,140
-69,694	800,000	-0,050	0,118
-68,680	-143,335	0,045	-0,003
-67,665	-0,640	-0,097	0,049
-66,651	259,493	0,100	-0,123
-65,636	780,883	-0,057	0,111
-64,622	-89,290	-0,106	-0,022
-63,607	4,854	-0,088	0,046
-62,592	-126,587	-0,152	0,016
-61,578	800,000	0,090	0,186
-60,563	443,427	0,039	-0,061
-59,549	800,000	0,038	0,077
-58,534	-18,500	-1,677	-0,739
-57,519	380,697	-1,368	-1,993
-56,505	-200,000	-0,581	-4,557
-55,490	271,773	0,943	1,180
-54,476	800,000	4,718	11,135
-53,461	-200,000	19,178	320,059
-52,446	-200,000	740,619	2335,424
-51,432	573,709	1655,622	2870,165
-50,417	78,384	1670,978	1262,368
-49,403	21,343	1543,970	885,896
-48,388	15,268	1466,577	811,946
-47,373	17,948	1456,832	819,469
-46,359	16,689	1446,669	807,682
-45,344	13,512	1441,800	789,713
-44,330	13,381	1439,937	788,035
-43,315	13,472	1438,113	787,439
-42,300	13,430	1436,607	786,382
-41,286	13,404	1435,627	785,690
-40,271	13,434	1434,024	784,925
-39,257	13,406	1432,876	784,132
-38,242	13,418	1431,492	783,403
-37,227	13,430	1430,395	782,826
-36,213	13,436	1428,924	782,018
-35,198	13,443	1427,819	781,417
-34,184	13,481	1426,779	780,998
-33,169	13,416	1425,741	780,089
-32,154	13,466	1424,438	779,584
-31,140	13,481	1423,039	778,860
-30,125	13,508	1422,095	778,436
-29,111	13,491	1420,838	777,638
-28,096	13,441	1419,920	776,869
-27,082	13,386	1418,839	775,989
-26,067	13,416	1417,455	775,342
-25,052	13,415	1416,391	774,723
-24,038	13,369	1415,397	773,931
-23,023	13,352	1414,651	773,414
-22,009	13,345	1413,793	772,881
-20,994	13,351	1412,783	772,326
-19,979	13,341	1411,811	771,719
-18,965	13,313	1410,960	771,090
-17,950	13,355	1409,777	770,611
-16,936	13,342	1408,975	770,080
-15,921	13,300	1407,762	769,190
-14,906	13,295	1406,983	768,709
-13,892	13,340	1406,094	768,407
-12,877	13,332	1405,152	767,821
-11,863	13,264	1404,293	767,006
-10,848	13,310	1403,457	766,735
-9,833	13,262	1402,536	765,976
-8,819	13,213	1401,766	765,294
-7,804	13,149	1400,811	764,449
-6,790	13,154	1399,803	763,888
-5,775	13,241	1398,503	763,552
-4,760	13,207	1397,580	762,863
-3,746	13,149	1397,062	762,278
-2,731	13,175	1395,796	761,678
-1,717	13,139	1395,118	761,111
-0,702	13,164	1393,179	760,139
0,313	17,012	1310,170	732,674
1,327	33,179	703,781	430,939
2,342	51,013	123,217	82,518
3,356	1,013	16,682	8,435
4,371	11,850	3,150	1,707
5,386	-22,610	0,772	0,329
6,400	-200,000	0,019	0,339
7,415	59,261	-0,206	-0,143
8,429	-59,445	-0,360	-0,109
9,444	99,243	-0,336	-0,274
10,459	-117,181	-0,372	-0,047
11,473	11,733	-0,244	-0,132
12,488	224,013	-0,220	-0,252
13,502	-70,061	-0,336	-0,090
14,517	78,131	-0,334	-0,252
15,531	-9,888	-0,332	-0,155
16,546	30,389	-0,387	-0,233
17,561	232,157	-0,405	-0,470
18,575	120,611	-0,162	-0,142
19,590	41,507	-0,291	-0,186
20,604	136,680	-0,174	-0,160
21,619	62,958	-0,321	-0,227
22,634	5,022	-0,531	-0,275
23,648	66,242	-0,402	-0,288
24,663	34,775	-0,392	-0,242
25,677	20,261	-0,245	-0,139
26,692	-45,264	-0,428	-0,149
27,707	-133,096	-0,232	-0,020
28,721	56,430	-0,395	-0,270
29,736	127,016	-0,428	-0,383
30,750	82,000	-0,364	-0,278
31,765	42,756	-0,422	-0,271
32,780	125,500	-0,326	-0,291
33,794	147,010	-0,326	-0,310
34,809	-25,286	-0,397	-0,165
35,823	76,056	-0,395	-0,294
36,838	130,297	-0,240	-0,217
37,853	10,088	-0,331	-0,177
38,867	209,271	-0,272	-0,301
39,882	40,680	-0,340	-0,216
40,896	42,063	-0,385	-0,246
41,911	6,138	-0,391	-0,203
42,926	14,955	-0,301	-0,166
43,940	-51,193	-0,360	-0,118
44,955	25,918	-0,345	-0,202
45,969	54,039	-0,371	-0,251
46,984	-28,782	-0,367	-0,148
47,999	-14,583	-0,259	-0,117
49,013	-12,194	-0,369	-0,169
50,028	78,072	-0,413	-0,310
51,042	309,642	-0,251	-0,331
52,057	45,039	-0,352	-0,228
53,071	148,279	-0,417	-0,397
54,086	65,581	-0,368	-0,262
55,101	199,486	-0,352	-0,381
56,115	86,731	-0,304	-0,236
57,130	-50,167	-0,407	-0,135
58,144	-2,946	-0,274	-0,134
59,159	-75,056	-0,398	-0,100
60,174	118,057	-0,288	-0,250
61,188	59,200	-0,408	-0,282
62,203	20,441	-0,428	-0,243
63,217	216,931	-0,266	-0,298
64,232	94,338	-0,355	-0,283
65,247	244,021	-0,321	-0,380
66,261	53,816	-0,351	-0,237
67,276	90,561	-0,493	-0,388
68,290	3,928	-0,393	-0,201
69,305	118,614	-0,341	-0,296
70,320	239,540	-0,194	-0,227
71,334	-43,090	-0,399	-0,142
72,349	15,279	-0,272	-0,149
73,363	65,211	-0,407	-0,289
74,378	-113,432	-0,371	-0,051
75,393	-49,711	-0,350	-0,116
76,407	38,191	-0,210	-0,131
77,422	-110,085	-0,363	-0,053
78,436	28,895	-0,351	-0,209
79,451	22,821	-0,348	-0,200
80,466	33,377	-0,322	-0,196
81,480	-36,663	-0,436	-0,164
82,495	24,039	-0,312	-0,180
83,509	90,807	-0,246	-0,194
84,524	-18,821	-0,280	-0,122
85,539	13,881	-0,239	-0,130
86,553	74,596	-0,339	-0,250
87,568	-44,287	-0,319	-0,112
88,582	61,558	-0,337	-0,235
89,597	155,964	-0,250	-0,242
90,611	41,725	-0,272	-0,173
91,626	-197,774	-0,320	0,001
92,641	-52,649	-0,285	-0,092
93,655	109,341	-0,248	-0,208
94,670	-26,289	-0,366	-0,150
95,684	41,797	-0,249	-0,158
96,699	94,315	-0,346	-0,276
97,714	22,971	-0,193	-0,111
98,728	67,323	-0,181	-0,129
99,743	-62,343	-0,324	-0,094
100,757	-65,748	-0,314	-0,088
101,772	61,455	-0,330	-0,230
102,787	111,644	-0,323	-0,274
103,801	41,827	-0,272	-0,173
104,816	333,505	-0,250	-0,340
105,830	255,202	-0,256	-0,308
106,845	11,768	-0,260	-0,140
107,860	-82,998	-0,351	-0,079
108,874	348,992	-0,168	-0,233
109,889	79,323	-0,323	-0,242
110,903	82,304	-0,253	-0,192
111,918	-14,442	-0,204	-0,091
112,933	45,134	-0,182	-0,117
113,947	-89,125	-0,233	-0,048
114,962	-95,451	-0,182	-0,034
115,976	12,441	-0,280	-0,151
116,991	20,408	-0,314	-0,178
118,006	217,696	-0,345	-0,386
119,020	-6,492	-0,284	-0,135
120,035	176,940	-0,201	-0,205
121,049	45,423	-0,277	-0,179
122,064	186,534	-0,154	-0,161
123,079	109,923	-0,214	-0,179
124,093	132,698	-0,219	-0,198
125,108	30,320	-0,312	-0,186
126,122	17,362	-0,199	-0,110
127,137	545,488	-0,056	-0,095
128,151	-4,420	-0,306	-0,148
129,166	37,880	-0,196	-0,122
130,181	29,772	-0,192	-0,114
131,195	543,751	-0,187	-0,313
132,210	-51,172	-0,267	-0,087
133,224	362,274	-0,148	-0,208
134,239	800,000	-0,165	-0,394
135,254	180,227	-0,117	-0,120
136,268	62,911	-0,163	-0,114
137,283	-25,463	-0,196	-0,081
138,297	245,985	-0,229	-0,270
139,312	104,897	-0,273	-0,225
140,327	99,233	-0,257	-0,208
141,341	78,740	-0,233	-0,174
142,356	29,484	-0,182	-0,108
143,370	-13,333	-0,233	-0,105
144,385	61,810	-0,178	-0,124
145,400	46,988	-0,239	-0,155
146,414	13,040	-0,250	-0,135
147,429	30,119	-0,300	-0,179
148,443	176,547	-0,175	-0,178
149,458	8,620	-0,227	-0,119
150,473	800,000	-0,114	-0,286
151,487	27,320	-0,363	-0,213
152,502	17,454	-0,359	-0,199
153,516	800,000	-0,138	-0,304
154,531	-4,110	-0,325	-0,156
155,546	44,855	-0,278	-0,178
156,560	31,869	-0,201	-0,121
157,575	82,967	-0,202	-0,153
158,589	131,214	-0,315	-0,283
159,604	-19,458	-0,285	-0,123
160,619	121,018	-0,243	-0,211
161,633	293,056	-0,212	-0,270
162,648	38,386	-0,282	-0,175
163,662	132,211	-0,151	-0,136
164,677	76,400	-0,174	-0,129
165,692	164,898	-0,223	-0,219
166,706	-86,638	-0,272	-0,058
167,721	75,177	-0,301	-0,221
168,735	126,419	-0,306	-0,270
169,750	369,409	-0,251	-0,356
170,764	226,667	-0,164	-0,186
171,779	190,709	-0,176	-0,185
172,794	704,030	-0,093	-0,172
173,808	86,505	-0,122	-0,094
174,823	25,032	-0,256	-0,148
175,837	77,140	-0,203	-0,150
176,852	132,992	-0,217	-0,195
177,867	314,175	-0,157	-0,207
178,881	104,088	-0,272	-0,222
179,896	159,579	-0,097	-0,094
180,910	30,525	-0,174	-0,104
181,925	-16,788	-0,201	-0,088
182,940	200,085	-0,135	-0,144
183,954	102,487	-0,182	-0,148
184,969	-12,865	-0,080	-0,036
185,983	193,098	-0,208	-0,219
186,998	-30,718	-0,180	-0,070
188,013	52,070	-0,162	-0,108
189,027	61,598	-0,337	-0,233
190,042	-19,803	-0,255	-0,109
191,056	-30,870	-0,227	-0,089
192,071	1,675	-0,257	-0,128
193,086	800,000	-0,107	-0,247
194,100	23,900	-0,201	-0,115
195,115	43,195	-0,185	-0,117
196,129	175,750	-0,199	-0,201
197,144	122,933	-0,207	-0,180
198,159	-88,980	-0,169	-0,035
199,173	-120,373	-0,055	0,006
200,188	111,611	-0,218	-0,183
201,202	637,918	-0,121	-0,215
202,217	106,536	-0,198	-0,163
203,232	25,923	-0,230	-0,133
204,246	243,245	-0,229	-0,268
205,261	73,224	-0,341	-0,248
206,275	133,658	-0,108	-0,097
207,290	-75,369	-0,197	-0,048
208,304	54,398	-0,185	-0,123
209,319	-83,030	-0,194	-0,043
210,334	-42,631	-0,290	-0,102
211,348	800,000	-0,143	-0,310
212,363	800,000	-0,096	-0,268
213,377	531,094	-0,139	-0,230
214,392	800,000	-0,082	-0,189
215,407	362,843	-0,110	-0,154
216,421	20,196	-0,182	-0,102
217,436	126,346	-0,290	-0,255
218,450	110,034	-0,175	-0,146
219,465	800,000	-0,076	-0,187
220,480	414,918	-0,124	-0,184
221,494	161,873	-0,208	-0,202
222,509	-65,426	-0,080	0,022
223,523	340,792	-0,162	-0,220
224,538	-66,023	-0,171	0,047
225,553	424,373	-0,175	-0,262
226,567	64,516	-0,235	-0,164
227,582	91,103	-0,212	-0,165
228,596	-39,011	-0,151	0,055
229,611	-15,587	-0,268	-0,118
230,626	78,049	-0,170	-0,126
231,640	82,472	-0,135	-0,101
232,655	575,773	-0,131	-0,223
233,669	235,239	-0,242	-0,277
234,684	800,000	-0,149	-0,342
235,699	-42,144	-0,312	-0,110
236,713	159,963	-0,150	-0,145
237,728	295,804	-0,128	-0,163
238,742	-124,176	-0,122	-0,013
239,757	279,044	-0,142	-0,176
240,772	63,461	-0,179	-0,125
241,786	58,197	-0,156	-0,105
242,801	71,671	-0,081	-0,058
243,815	-163,154	-0,172	0,006
244,830	69,587	-0,113	-0,081
245,844	-69,067	-0,167	-0,044
246,859	437,176	-0,140	-0,212
247,874	-14,828	-0,247	-0,109
248,888	800,000	-0,073	-0,184
249,903	437,777	-0,118	-0,179
250,917	60,779	-0,148	-0,101
251,932	-14,775	-0,264	-0,117
252,947	800,000	-0,041	-0,093
253,961	212,378	-0,166	-0,182
254,976	483,433	-0,135	-0,213
255,990	-40,917	-0,259	-0,092
257,005	-77,172	-0,114	-0,027
258,020	243,436	-0,155	-0,180
259,034	58,804	-0,103	0,070
260,049	-86,989	-0,228	-0,048
261,063	69,131	-0,164	-0,116
262,078	52,857	-0,207	-0,137
263,093	364,242	-0,088	-0,122
264,107	21,111	-0,236	-0,132
265,122	800,000	-0,088	-0,226
266,136	-129,805	-0,148	0,014
267,151	145,067	-0,092	-0,085
268,166	545,132	-0,143	-0,237
269,180	95,889	-0,221	-0,174
270,195	121,916	-0,180	-0,156
271,209	-175,212	-0,148	-0,003
272,224	-127,201	-0,160	0,016
273,239	9,421	-0,036	-0,019
274,253	-4,883	-0,135	0,064
275,268	23,234	-0,286	-0,162
276,282	-200,000	-0,060	-0,239
277,297	302,432	-0,138	-0,177
278,312	253,909	-0,183	-0,217
279,326	739,618	-0,106	-0,198
280,341	8,043	-0,303	-0,156
281,355	186,157	-0,194	-0,199
282,370	290,239	-0,133	-0,167
283,384	13,853	-0,163	-0,087
284,399	191,203	-0,112	-0,117
285,414	-20,250	-0,144	-0,061
286,428	-191,465	-0,236	-0,002
287,443	-17,234	-0,228	-0,099
288,457	208,111	-0,100	-0,108
289,472	50,233	-0,122	-0,079
290,487	453,179	-0,138	-0,211
291,501	-25,377	-0,124	-0,050
292,516	430,100	-0,104	-0,156
293,530	192,151	-0,237	-0,247
294,545	329,488	-0,128	-0,170
295,560	317,423	-0,046	-0,061
296,574	219,133	-0,144	-0,159
297,589	-113,901	-0,189	-0,025
298,603	47,891	-0,170	-0,109
299,618	800,000	-0,089	-0,216
300,633	16,640	-0,185	-0,100
301,647	-101,180	-0,141	0,024
302,662	-165,783	-0,097	0,003
303,676	-79,907	-0,153	-0,035
304,691	138,351	-0,153	-0,139
305,706	362,723	-0,219	-0,304
306,720	-200,000	-0,021	-0,119
307,735	800,000	-0,085	-0,186
308,749	-103,568	-0,131	-0,021
309,764	578,320	-0,103	-0,174
310,779	14,681	-0,106	-0,057
311,793	-41,903	-0,122	0,043
312,808	-92,970	-0,160	-0,030
313,822	-93,843	-0,217	-0,041
314,837	800,000	-0,100	-0,255
315,852	-200,000	-0,012	-0,324
316,866	64,768	-0,258	-0,179
317,881	152,029	-0,150	-0,141
318,895	800,000	-0,105	-0,224
319,910	256,537	-0,115	-0,137
320,925	62,588	-0,266	-0,183
321,939	241,548	-0,119	-0,137
322,954	-200,000	-0,006	-0,111
323,968	422,846	-0,148	-0,219
324,983	112,281	-0,103	-0,086
325,997	-105,373	-0,152	-0,023
327,012	-96,199	-0,182	-0,033
328,027	41,002	-0,127	-0,079
329,041	-200,000	-0,033	-0,135
330,056	-38,534	-0,109	-0,040
331,070	190,545	-0,078	-0,081
332,085	-92,022	-0,167	-0,032
333,100	-200,000	-0,027	-0,160
334,114	-45,289	0,012	0,004
335,129	800,000	-0,076	-0,180
336,143	-200,000	-0,034	-0,157
337,158	232,527	-0,139	-0,158
338,173	-200,000	-0,000	-0,031
339,187	32,123	-0,099	0,058
340,202	266,220	-0,115	-0,138
341,216	98,890	-0,165	-0,130
342,231	-36,443	-0,201	-0,074
343,246	8,385	-0,136	-0,070
344,260	800,000	-0,036	-0,073
345,275	-175,483	-0,105	-0,002
346,289	47,081	-0,141	-0,090
347,304	39,722	-0,156	-0,096
348,319	-88,113	-0,167	0,034
349,333	-183,835	-0,183	0,002
350,348	113,067	-0,060	-0,050
351,362	-59,117	-0,157	0,046
352,377	800,000	-0,071	-0,191
353,392	-35,933	-0,065	-0,024
354,406	-48,266	-0,106	0,035
355,421	209,529	1312,053	1412,452
356,435	161,265	1472,456	1412,946
