DTS Sentinel unit serial number:	SN410029Multiplexer serial number:	ORYXHardware model number:	OX2-SRSoftware version number:	ORYX F/W v4,00 Oryx Data Collector v3.7.2.0data status	okinstallation	B3 Nyhavnadifferential loss correction	single-endedforward channel	channel 1reverse channel	N/Adate	2023/11/29time	22:47:30forward acquisition time	300,00reverse acquisition time	0,00gamma	499,1914k internal	0,3210k external	0,3210temperature offset calibration	1,0000default loss term (dB/km)	0,3820temperature slope calibration	1,0000multiplexer offset coefficient	1,0000multiplexer slope coefficient	1,0000fibre end	0,00T internal ref (°C)	10,83T ext. ref 1 (°C)	-4,04T ext. ref 2 (°C)	-4,15length (m)	temperature (°C)	Stokes	anti-Stokes-744,400	800,000	-0,102	-0,255
-743,385	800,000	-0,128	0,299
-742,371	263,473	-0,210	-0,265
-741,356	-200,000	0,109	0,454
-740,342	800,000	-0,067	-0,189
-739,327	-200,000	0,019	0,213
-738,312	800,000	-0,138	-0,334
-737,298	505,249	0,116	0,196
-736,283	-200,000	-0,062	-0,240
-735,269	652,634	0,111	0,207
-734,254	800,000	-0,167	-0,345
-733,239	36,757	-0,243	0,155
-732,225	80,265	-0,147	-0,114
-731,210	269,118	0,139	0,177
-730,196	800,000	0,023	-0,052
-729,181	39,212	-0,114	-0,074
-728,167	-69,471	-0,081	0,022
-727,152	-200,000	-0,009	-0,049
-726,137	800,000	-0,057	-0,141
-725,123	715,218	-0,048	-0,093
-724,108	-146,052	-0,090	-0,006
-723,094	-200,000	-0,010	0,059
-722,079	492,121	-0,016	-0,027
-721,064	98,118	-0,110	-0,092
-720,050	-81,731	0,081	0,019
-719,035	57,638	-0,049	0,035
-718,021	-79,833	-0,187	0,045
-717,006	-200,000	-0,014	-0,153
-715,991	67,591	0,020	-0,015
-714,977	-186,742	-0,079	-0,001
-713,962	692,900	-0,060	-0,114
-712,948	465,262	-0,063	0,103
-711,933	-200,000	-0,017	-0,089
-710,918	-134,897	-0,053	0,005
-709,904	218,819	0,089	-0,103
-708,889	453,405	0,030	0,049
-707,875	800,000	-0,034	-0,092
-706,860	162,017	0,075	0,076
-705,845	243,866	-0,056	0,069
-704,831	338,779	0,127	-0,180
-703,816	-200,000	-0,057	-0,210
-702,802	36,152	-0,150	-0,095
-701,787	800,000	-0,077	-0,190
-700,772	28,754	-0,074	-0,045
-699,758	-86,399	0,170	-0,038
-698,743	105,628	0,033	-0,028
-697,729	292,612	-0,021	0,028
-696,714	-200,000	0,002	0,127
-695,699	-200,000	-0,015	-0,074
-694,685	-168,258	0,115	-0,003
-693,670	-73,932	-0,097	-0,025
-692,656	118,556	0,122	-0,109
-691,641	155,547	-0,047	-0,047
-690,627	-200,000	0,002	0,130
-689,612	800,000	-0,030	-0,073
-688,597	179,242	-0,005	0,005
-687,583	-200,000	-0,023	0,078
-686,568	800,000	-0,042	-0,108
-685,554	800,000	0,046	0,121
-684,539	800,000	-0,050	0,143
-683,524	76,273	0,083	0,063
-682,510	763,166	-0,015	-0,029
-681,495	121,906	0,083	-0,075
-680,481	79,395	-0,049	0,038
-679,466	-200,000	-0,012	-0,138
-678,451	800,000	-0,027	-0,087
-677,437	-75,296	0,036	0,009
-676,422	391,633	-0,014	0,020
-675,408	18,768	0,070	-0,040
-674,393	0,090	-0,088	-0,045
-673,378	-200,000	-0,001	-0,119
-672,364	733,907	-0,047	-0,091
-671,349	27,492	0,071	-0,043
-670,335	49,603	0,034	-0,023
-669,320	-161,489	-0,107	0,004
-668,305	252,794	0,064	0,078
-667,291	-17,038	0,089	0,040
-666,276	-200,000	-0,014	-0,113
-665,262	81,070	-0,072	-0,056
-664,247	-200,000	0,015	-0,053
-663,232	-101,872	-0,132	0,023
-662,218	-200,000	0,006	-0,023
-661,203	-200,000	-0,012	0,080
-660,189	800,000	0,021	-0,055
-659,174	800,000	-0,042	0,100
-658,159	800,000	-0,055	-0,153
-657,145	1,750	-0,072	-0,037
-656,130	-113,487	-0,045	0,006
-655,116	-200,000	0,007	0,039
-654,101	-200,000	0,019	-0,126
-653,086	-200,000	-0,010	-0,065
-652,072	115,048	-0,147	-0,130
-651,057	-200,000	-0,020	-0,214
-650,043	90,243	-0,107	0,086
-649,028	33,216	-0,063	-0,040
-648,014	-122,549	0,082	0,009
-646,999	-200,000	0,009	0,143
-645,984	800,000	0,030	0,066
-644,970	57,205	-0,118	-0,083
-643,955	-200,000	-0,011	-0,109
-642,941	117,492	-0,114	-0,101
-641,926	-155,768	-0,134	-0,006
-640,911	800,000	0,125	0,267
-639,897	-200,000	0,017	0,123
-638,882	741,861	0,054	-0,104
-637,868	-30,826	-0,041	0,016
-636,853	140,801	0,031	0,029
-635,838	312,167	-0,043	-0,059
-634,824	-200,000	0,001	-0,066
-633,809	-15,936	0,084	0,038
-632,795	-48,186	0,108	-0,037
-631,780	-41,658	-0,161	0,059
-630,765	-200,000	0,002	-0,025
-629,751	-47,106	-0,072	-0,025
-628,736	192,716	0,051	0,055
-627,722	800,000	-0,042	-0,116
-626,707	800,000	0,039	0,121
-625,692	-161,914	0,114	0,004
-624,678	747,180	0,039	-0,077
-623,663	-11,688	-0,051	0,024
-622,649	445,237	-0,047	0,074
-621,634	77,357	0,118	-0,090
-620,619	-102,753	-0,046	-0,008
-619,605	56,255	0,018	0,013
-618,590	-41,456	0,064	0,023
-617,576	-200,000	-0,010	0,175
-616,561	-200,000	-0,004	-0,051
-615,546	44,903	-0,054	-0,036
-614,532	777,639	-0,057	-0,114
-613,517	193,241	-0,062	0,067
-612,503	-76,789	-0,021	0,005
-611,488	-200,000	-0,010	0,053
-610,474	-200,000	-0,015	0,065
-609,459	584,704	-0,088	-0,157
-608,444	516,494	0,075	0,126
-607,430	-142,788	-0,149	-0,010
-606,415	-200,000	-0,016	0,087
-605,401	641,663	-0,028	-0,052
-604,386	-200,000	0,027	0,137
-603,371	-119,026	0,038	-0,005
-602,357	-10,720	0,071	0,034
-601,342	-81,633	-0,129	0,030
-600,328	11,731	-0,042	-0,023
-599,313	52,293	-0,066	-0,045
-598,298	167,281	-0,058	0,060
-597,284	-61,048	0,071	-0,021
-596,269	276,574	-0,045	0,058
-595,255	800,000	0,012	0,024
-594,240	-81,334	-0,065	-0,015
-593,225	-94,180	0,046	0,009
-592,211	800,000	-0,092	0,191
-591,196	1,049	-0,086	-0,044
-590,182	388,194	0,028	0,041
-589,167	2,049	0,018	-0,009
-588,152	-97,458	0,114	0,021
-587,138	-113,442	-0,076	0,011
-586,123	-8,444	0,111	0,054
-585,109	23,918	-0,118	0,070
-584,094	753,667	0,077	-0,151
-583,079	-141,220	0,124	-0,009
-582,065	128,800	0,026	0,024
-581,050	800,000	0,023	-0,047
-580,036	-200,000	0,014	-0,064
-579,021	524,856	-0,060	-0,102
-578,006	343,445	-0,070	-0,099
-576,992	98,079	-0,072	0,060
-575,977	383,181	0,078	0,116
-574,963	58,848	-0,057	0,040
-573,948	800,000	-0,031	0,082
-572,934	409,364	0,030	-0,046
-571,919	518,574	-0,061	0,103
-570,904	-108,947	-0,146	-0,022
-569,890	-200,000	-0,014	-0,076
-568,875	-83,659	-0,034	0,008
-567,861	-6,004	0,062	0,030
-566,846	-200,000	-0,023	0,105
-565,831	-137,627	0,059	0,005
-564,817	318,215	0,054	-0,073
-563,802	-16,720	-0,102	-0,047
-562,788	-200,000	-0,001	0,085
-561,773	104,067	-0,083	-0,070
-560,758	111,649	0,095	0,082
-559,744	-200,000	0,001	0,016
-558,729	153,287	0,033	0,033
-557,715	155,073	-0,100	0,099
-556,700	800,000	-0,045	-0,115
-555,685	-128,241	-0,110	0,011
-554,671	-68,390	0,049	0,014
-553,656	196,957	0,110	0,121
-552,642	-32,155	0,032	0,013
-551,627	-19,198	0,073	-0,032
-550,612	148,345	-0,065	-0,063
-549,598	800,000	0,064	-0,186
-548,583	-63,841	0,083	0,024
-547,569	-11,963	-0,055	-0,026
-546,554	131,733	0,003	0,003
-545,539	800,000	0,035	-0,091
-544,525	-80,436	0,136	0,032
-543,510	-200,000	-0,041	-0,158
-542,496	800,000	0,014	-0,041
-541,481	-200,000	-0,001	0,021
-540,466	31,908	-0,004	-0,002
-539,452	-200,000	0,008	0,059
-538,437	800,000	0,048	0,114
-537,423	39,982	-0,028	-0,018
-536,408	-74,423	-0,095	-0,025
-535,393	170,810	0,068	0,071
-534,379	170,725	0,062	-0,064
-533,364	-125,022	0,115	0,013
-532,350	261,341	0,065	-0,081
-531,335	166,569	0,064	0,065
-530,321	-88,997	-0,078	-0,016
-529,306	-97,381	0,086	0,016
-528,291	-200,000	0,003	0,039
-527,277	-119,726	-0,067	-0,008
-526,262	800,000	0,024	-0,059
-525,248	61,624	0,092	-0,066
-524,233	521,888	-0,083	-0,141
-523,218	82,019	-0,065	0,051
-522,204	-0,735	0,110	-0,056
-521,189	266,427	-0,153	-0,192
-520,175	-200,000	0,003	0,046
-519,160	-76,395	-0,149	-0,037
-518,145	40,345	0,027	0,018
-517,131	-130,486	0,116	0,011
-516,116	25,670	0,018	0,010
-515,102	-200,000	0,010	-0,038
-514,087	-15,720	-0,081	-0,037
-513,072	-138,843	0,015	-0,001
-512,058	-200,000	-0,029	-0,126
-511,043	-200,000	0,002	0,059
-510,029	-89,207	-0,099	-0,021
-509,014	32,682	-0,059	-0,037
-507,999	-200,000	-0,005	0,123
-506,985	-49,191	0,118	0,040
-505,970	-58,420	-0,099	-0,031
-504,956	-200,000	-0,037	-0,184
-503,941	168,631	0,029	0,030
-502,926	462,649	0,018	-0,028
-501,912	800,000	-0,015	0,038
-500,897	144,860	-0,075	-0,072
-499,883	156,215	-0,074	-0,074
-498,868	-131,588	-0,105	-0,010
-497,853	282,617	0,137	-0,176
-496,839	620,833	-0,072	-0,130
-495,824	265,324	-0,100	-0,125
-494,810	-74,124	0,172	0,044
-493,795	800,000	0,023	0,070
-492,781	-52,824	-0,198	-0,065
-491,766	800,000	-0,059	-0,120
-490,751	159,808	0,053	-0,053
-489,737	-154,605	-0,134	-0,006
-488,722	-150,730	0,178	0,010
-487,708	-137,870	-0,096	-0,008
-486,693	-44,671	-0,102	-0,036
-485,678	191,195	-0,008	-0,009
-484,664	252,742	-0,095	-0,117
-483,649	220,248	-0,061	-0,070
-482,635	-130,346	0,131	0,013
-481,620	-200,000	-0,010	0,090
-480,605	-200,000	0,019	0,118
-479,591	800,000	-0,043	0,117
-478,576	-30,001	-0,098	-0,040
-477,562	60,712	-0,102	-0,073
-476,547	-200,000	0,000	-0,170
-475,532	-155,033	0,037	0,002
-474,518	56,633	-0,018	0,013
-473,503	149,796	0,046	0,045
-472,489	-200,000	-0,001	0,124
-471,474	800,000	0,017	0,036
-470,459	44,122	0,079	0,052
-469,445	-10,900	-0,073	-0,034
-468,430	-200,000	0,027	-0,105
-467,416	311,305	0,069	0,093
-466,401	443,193	0,023	-0,036
-465,386	800,000	0,030	0,063
-464,372	41,728	-0,082	-0,054
-463,357	800,000	-0,061	-0,138
-462,343	-54,718	0,130	-0,042
-461,328	305,293	-0,073	0,097
-460,313	260,770	0,062	-0,077
-459,299	-200,000	-0,005	0,096
-458,284	-4,160	0,147	0,073
-457,270	110,609	0,150	-0,129
-456,255	124,529	-0,023	-0,021
-455,241	-172,295	-0,095	0,002
-454,226	800,000	0,036	-0,077
-453,211	176,070	-0,055	-0,057
-452,197	-200,000	-0,001	-0,112
-451,182	800,000	0,069	0,178
-450,168	92,855	-0,028	-0,023
-449,153	269,049	0,037	-0,046
-448,138	8,807	-0,101	0,054
-447,124	173,084	-0,045	-0,047
-446,109	800,000	0,022	-0,048
-445,095	89,001	0,047	0,038
-444,080	287,562	0,063	0,082
-443,065	-185,140	0,196	0,002
-442,051	800,000	-0,037	-0,090
-441,036	-200,000	-0,005	0,026
-440,022	-43,813	-0,097	-0,035
-439,007	219,299	0,071	0,082
-437,992	-85,553	-0,115	-0,025
-436,978	-200,000	0,017	0,068
-435,963	800,000	-0,009	0,028
-434,949	800,000	-0,017	-0,053
-433,934	800,000	-0,030	0,064
-432,919	121,490	0,096	-0,085
-431,905	800,000	-0,063	0,179
-430,890	-115,459	0,185	-0,025
-429,876	432,404	-0,093	0,144
-428,861	800,000	0,026	0,059
-427,846	800,000	-0,030	0,061
-426,832	-200,000	-0,004	-0,048
-425,817	-200,000	-0,011	-0,103
-424,803	-30,056	-0,118	-0,048
-423,788	-200,000	0,096	-0,000
-422,773	800,000	0,066	0,186
-421,759	191,578	0,080	0,086
-420,744	67,071	0,060	-0,044
-419,730	800,000	0,047	-0,108
-418,715	282,742	-0,081	-0,104
-417,701	800,000	-0,031	-0,086
-416,686	16,203	-0,012	-0,007
-415,671	71,749	0,071	-0,052
-414,657	800,000	-0,019	-0,043
-413,642	-126,295	0,109	0,011
-412,628	181,121	0,010	0,010
-411,613	431,697	0,141	-0,219
-410,598	307,140	-0,063	0,084
-409,584	-200,000	0,005	-0,097
-408,569	719,779	0,030	0,057
-407,555	73,921	-0,096	-0,072
-406,540	354,332	-0,025	-0,036
-405,525	-200,000	0,031	-0,110
-404,511	414,678	0,041	-0,062
-403,496	-200,000	0,006	-0,033
-402,482	-134,879	-0,134	0,011
-401,467	-149,970	0,188	-0,010
-400,452	-93,064	-0,035	-0,007
-399,438	800,000	0,039	0,103
-398,423	-80,795	-0,089	-0,021
-397,409	-200,000	-0,001	-0,108
-396,394	381,898	-0,087	-0,128
-395,379	71,843	0,116	0,087
-394,365	-170,397	0,100	0,002
-393,350	-200,000	-0,006	0,052
-392,336	-200,000	0,004	0,070
-391,321	274,884	0,095	-0,120
-390,306	348,231	-0,012	-0,016
-389,292	-56,379	-0,130	0,041
-388,277	-200,000	-0,000	0,053
-387,263	-24,362	-0,058	-0,024
-386,248	458,320	-0,054	0,086
-385,233	-200,000	-0,040	0,144
-384,219	800,000	0,069	0,161
-383,204	701,786	-0,107	-0,203
-382,190	-200,000	0,020	-0,137
-381,175	800,000	-0,047	0,100
-380,160	514,932	0,012	0,020
-379,146	-200,000	0,041	0,188
-378,131	39,265	0,159	0,102
-377,117	292,865	0,033	0,044
-376,102	406,561	0,042	0,064
-375,088	412,235	-0,032	-0,048
-374,073	-11,210	-0,066	-0,031
-373,058	-95,894	0,147	-0,028
-372,044	800,000	0,055	-0,137
-371,029	-79,716	0,111	-0,027
-370,015	-200,000	0,005	-0,029
-369,000	103,374	-0,132	-0,110
-367,985	700,564	0,071	-0,135
-366,971	-3,722	0,060	-0,030
-365,956	353,318	-0,011	-0,016
-364,942	-109,100	-0,042	-0,006
-363,927	53,485	0,127	0,087
-362,912	2,179	-0,051	0,026
-361,898	-200,000	0,023	-0,094
-360,883	282,710	0,024	-0,031
-359,869	800,000	0,018	-0,037
-358,854	123,479	0,087	-0,078
-357,839	-0,501	0,013	-0,007
-356,825	-200,000	0,022	0,139
-355,810	-200,000	0,053	0,172
-354,796	-112,384	-0,118	0,017
-353,781	-200,000	-0,023	-0,099
-352,766	138,283	-0,061	0,057
-351,752	-200,000	-0,008	-0,103
-350,737	181,000	0,092	0,097
-349,723	800,000	0,040	0,084
-348,708	-177,735	-0,162	0,003
-347,693	800,000	0,028	-0,060
-346,679	-99,715	-0,068	-0,012
-345,664	-200,000	0,011	-0,042
-344,650	800,000	-0,050	0,121
-343,635	800,000	0,010	-0,030
-342,620	90,496	0,131	0,105
-341,606	-200,000	0,006	-0,029
-340,591	525,368	-0,044	0,075
-339,577	800,000	0,023	0,063
-338,562	327,818	-0,077	-0,106
-337,548	-13,700	-0,092	-0,042
-336,533	-79,381	0,054	-0,013
-335,518	-200,000	0,003	0,099
-334,504	-30,590	0,197	0,079
-333,489	-99,022	0,067	0,012
-332,475	152,647	-0,090	-0,087
-331,460	-127,165	-0,128	0,013
-330,445	217,618	-0,031	-0,035
-329,431	621,249	-0,006	-0,010
-328,416	-152,212	0,048	-0,002
-327,402	105,665	0,126	0,107
-326,387	-64,558	-0,096	0,028
-325,372	-122,750	0,029	0,003
-324,358	356,650	0,088	-0,126
-323,343	148,704	0,062	0,060
-322,329	-200,000	-0,005	-0,108
-321,314	-29,927	0,086	-0,035
-320,299	-154,860	0,066	0,003
-319,285	278,144	-0,104	0,133
-318,270	212,919	0,013	-0,015
-317,256	206,328	0,112	-0,125
-316,241	346,900	0,039	-0,055
-315,226	181,065	0,088	-0,092
-314,212	499,975	0,128	0,211
-313,197	-200,000	0,013	0,066
-312,183	389,337	-0,021	-0,032
-311,168	-129,050	-0,045	0,004
-310,153	773,132	-0,017	0,033
-309,139	-200,000	-0,022	0,141
-308,124	-50,290	-0,083	0,028
-307,110	800,000	0,036	0,083
-306,095	-104,813	0,057	0,009
-305,080	98,214	-0,097	0,080
-304,066	-109,631	-0,189	-0,028
-303,051	-51,384	-0,137	-0,045
-302,037	69,952	0,049	-0,036
-301,022	-200,000	-0,031	0,149
-300,008	260,121	-0,052	0,065
-298,993	-100,377	0,113	0,020
-297,978	663,245	-0,064	0,119
-296,964	-68,609	-0,082	-0,022
-295,949	800,000	0,037	-0,083
-294,935	-108,637	-0,077	-0,012
-293,920	205,191	0,067	-0,075
-292,905	785,103	-0,016	-0,032
-291,891	-74,547	0,065	-0,016
-290,876	66,246	-0,084	0,061
-289,862	-200,000	0,004	0,017
-288,847	-200,000	-0,086	-0,277
-287,832	800,000	0,018	0,041
-286,818	286,722	-0,064	-0,083
-285,803	230,900	-0,080	0,093
-284,789	-111,518	-0,051	-0,007
-283,774	498,089	-0,124	0,205
-282,759	800,000	-0,028	0,062
-281,745	422,838	0,007	-0,011
-280,730	800,000	-0,033	0,071
-279,716	45,129	0,030	-0,019
-278,701	-159,653	0,048	-0,002
-277,686	146,740	-0,067	-0,064
-276,672	-151,145	0,078	0,004
-275,657	-11,686	-0,116	0,054
-274,643	-17,242	-0,043	-0,019
-273,628	775,238	-0,069	-0,134
-272,613	-200,000	0,001	-0,112
-271,599	-200,000	0,002	0,076
-270,584	75,488	-0,064	-0,048
-269,570	776,295	-0,045	0,088
-268,555	174,668	0,076	0,078
-267,540	36,299	-0,044	-0,028
-266,526	35,332	-0,052	0,032
-265,511	325,410	0,044	0,059
-264,497	-15,502	0,105	-0,047
-263,482	-148,652	0,103	0,006
-262,467	127,212	0,136	0,123
-261,453	-200,000	-0,029	0,115
-260,438	-179,771	0,049	0,001
-259,424	201,594	-0,074	-0,081
-258,409	800,000	-0,011	-0,028
-257,395	-32,222	-0,042	-0,016
-256,380	-111,302	0,109	0,016
-255,365	525,477	-0,053	0,090
-254,351	476,567	-0,100	0,161
-253,336	-115,121	0,055	0,007
-252,322	281,952	-0,018	-0,022
-251,307	-131,809	0,051	-0,005
-250,292	800,000	0,024	-0,064
-249,278	-200,000	-0,009	0,063
-248,263	-200,000	-0,013	0,116
-247,249	-139,898	-0,031	0,002
-246,234	-155,798	0,135	0,006
-245,219	203,435	-0,127	-0,140
-244,205	-200,000	0,046	-0,165
-243,190	-111,466	-0,072	-0,010
-242,176	-99,921	0,036	0,006
-241,161	800,000	-0,070	0,154
-240,146	-147,531	0,102	0,006
-239,132	252,667	-0,048	-0,058
-238,117	600,228	-0,105	-0,187
-237,103	-200,000	-0,021	0,081
-236,088	16,016	-0,049	0,028
-235,073	-200,000	-0,018	0,069
-234,059	329,059	0,148	0,203
-233,044	-113,476	-0,076	-0,010
-232,030	29,753	-0,029	-0,017
-231,015	286,411	0,059	0,075
-230,000	800,000	0,048	-0,135
-228,986	800,000	-0,049	-0,106
-227,971	516,001	0,076	0,126
-226,957	23,850	0,190	-0,111
-225,942	85,796	0,046	0,036
-224,927	-10,722	-0,089	-0,042
-223,913	800,000	0,027	-0,070
-222,898	800,000	-0,006	-0,013
-221,884	800,000	0,025	0,062
-220,869	800,000	0,024	0,061
-219,855	448,539	0,098	0,155
-218,840	155,674	0,045	-0,044
-217,825	-73,198	-0,035	-0,009
-216,811	-113,227	-0,116	-0,016
-215,796	198,112	0,087	-0,094
-214,782	-200,000	0,016	-0,172
-213,767	-125,285	-0,062	-0,007
-212,752	-200,000	-0,019	0,072
-211,738	-138,032	0,065	0,005
-210,723	295,394	0,036	-0,047
-209,709	78,914	-0,121	-0,092
-208,694	-90,320	0,064	-0,013
-207,679	800,000	0,051	0,154
-206,665	568,035	-0,033	-0,058
-205,650	-5,530	0,032	0,015
-204,636	-200,000	0,030	0,124
-203,621	-156,816	-0,026	-0,001
-202,606	-200,000	-0,002	-0,015
-201,592	-200,000	-0,047	-0,166
-200,577	22,772	-0,174	0,101
-199,563	-200,000	0,009	0,142
-198,548	136,371	0,054	-0,050
-197,533	-200,000	0,001	-0,081
-196,519	59,274	0,094	-0,066
-195,504	65,361	-0,077	-0,055
-194,490	100,716	-0,122	0,100
-193,475	-172,860	0,064	0,001
-192,460	-26,021	-0,126	0,053
-191,446	22,826	0,081	0,047
-190,431	-150,527	0,118	0,006
-189,417	205,334	-0,137	0,151
-188,402	317,688	-0,084	0,113
-187,387	800,000	-0,069	0,183
-186,373	348,714	-0,123	-0,173
-185,358	-200,000	-0,023	-0,084
-184,344	-200,000	0,011	0,095
-183,329	-11,974	0,170	0,079
-182,315	37,204	0,097	-0,061
-181,300	-173,643	0,147	-0,003
-180,285	53,854	0,017	-0,012
-179,271	-70,888	-0,053	0,014
-178,256	110,387	-0,083	-0,071
-177,242	1,875	0,110	-0,056
-176,227	47,443	0,045	0,030
-175,212	74,007	0,080	0,059
-174,198	-27,074	-0,092	-0,038
-173,183	73,569	-0,026	0,019
-172,169	448,134	0,029	0,045
-171,154	-200,000	-0,012	-0,071
-170,139	-200,000	0,013	-0,041
-169,125	800,000	0,043	-0,120
-168,110	-33,672	0,104	-0,040
-167,096	19,135	-0,101	-0,057
-166,081	-73,398	0,124	0,032
-165,066	-69,094	-0,074	0,020
-164,052	-200,000	-0,017	0,175
-163,037	-22,612	0,149	-0,064
-162,023	-38,448	0,067	-0,025
-161,008	-91,656	-0,142	0,028
-159,993	-8,016	0,077	-0,037
-158,979	27,318	-0,074	-0,044
-157,964	-200,000	-0,014	0,142
-156,950	-200,000	0,007	-0,061
-155,935	-200,000	0,021	-0,122
-154,920	280,349	-0,080	0,101
-153,906	36,062	0,156	0,097
-152,891	-200,000	-0,001	0,024
-151,877	-200,000	0,008	0,103
-150,862	-200,000	0,012	0,050
-149,847	-200,000	-0,036	-0,181
-148,833	-200,000	0,005	-0,088
-147,818	800,000	-0,017	-0,044
-146,804	-62,983	0,117	-0,034
-145,789	-8,908	0,123	0,058
-144,775	-48,319	-0,065	0,022
-143,760	800,000	0,030	-0,087
-142,745	800,000	-0,097	-0,228
-141,731	-147,480	-0,036	-0,002
-140,716	550,398	0,030	-0,052
-139,702	-200,000	0,026	0,234
-138,687	-200,000	-0,005	0,121
-137,672	572,936	0,016	0,028
-136,658	42,262	0,044	0,028
-135,643	800,000	-0,025	-0,059
-134,629	-70,802	-0,178	-0,047
-133,614	-131,681	-0,092	0,008
-132,599	-200,000	-0,003	-0,046
-131,585	177,431	0,008	-0,008
-130,570	-23,464	0,083	0,035
-129,556	-35,013	-0,011	-0,004
-128,541	363,725	-0,025	-0,035
-127,526	458,971	0,105	0,166
-126,512	800,000	-0,071	0,147
-125,497	-200,000	-0,005	-0,129
-124,483	-44,669	0,052	-0,018
-123,468	287,811	-0,066	0,085
-122,453	625,722	0,079	-0,142
-121,439	-200,000	0,007	-0,042
-120,424	599,636	-0,015	0,027
-119,410	68,307	0,050	-0,036
-118,395	-200,000	0,000	0,038
-117,380	-200,000	0,004	-0,108
-116,366	-200,000	-0,004	0,078
-115,351	800,000	-0,031	-0,075
-114,337	123,505	0,052	-0,046
-113,322	-121,205	-0,136	-0,016
-112,307	-200,000	0,017	-0,063
-111,293	800,000	-0,025	-0,063
-110,278	-200,000	-0,002	0,122
-109,264	77,207	-0,074	0,056
-108,249	-200,000	-0,005	-0,046
-107,234	-128,698	0,081	-0,008
-106,220	-200,000	0,050	-0,239
-105,205	-200,000	0,022	-0,082
-104,191	-200,000	0,005	-0,043
-103,176	-200,000	0,007	-0,069
-102,162	40,781	0,159	0,101
-101,147	-131,360	-0,107	0,010
-100,132	578,131	-0,049	0,085
-99,118	-16,519	0,087	-0,039
-98,103	202,494	-0,073	0,080
-97,089	96,196	0,068	-0,055
-96,074	-124,540	0,169	-0,018
-95,059	-110,535	-0,011	0,002
-94,045	-144,720	-0,073	-0,005
-93,030	-200,000	-0,013	-0,045
-92,016	-85,427	-0,048	0,010
-91,001	800,000	0,047	-0,110
-89,986	381,143	0,036	0,052
-88,972	-79,144	0,090	-0,021
-87,957	-71,216	-0,028	-0,007
-86,943	800,000	-0,021	0,047
-85,928	664,535	-0,044	-0,080
-84,913	102,266	-0,075	0,062
-83,899	157,954	0,040	0,039
-82,884	-26,485	-0,072	0,030
-81,870	30,831	0,048	-0,029
-80,855	97,805	0,099	-0,080
-79,840	-30,997	0,075	-0,030
-78,826	-93,205	-0,041	0,008
-77,811	-58,887	-0,033	0,010
-76,797	-162,449	0,125	-0,004
-75,782	-200,000	0,017	0,065
-74,767	-200,000	0,032	0,129
-73,753	-130,510	0,049	0,005
-72,738	-101,871	0,049	-0,008
-71,724	99,918	-0,091	-0,075
-70,709	-200,000	-0,007	-0,060
-69,694	495,286	0,034	-0,055
-68,680	178,714	0,132	-0,136
-67,665	-200,000	0,031	0,187
-66,651	-106,047	-0,217	0,034
-65,636	387,316	-0,075	-0,110
-64,622	-200,000	-0,007	-0,034
-63,607	800,000	-0,018	0,036
-62,592	-200,000	0,048	0,153
-61,578	800,000	-0,026	0,074
-60,563	-151,276	-0,047	-0,002
-59,549	-83,906	0,080	0,018
-58,534	32,585	-1,898	-1,156
-57,519	539,202	-1,252	-2,112
-56,505	-200,000	-0,317	-4,296
-55,490	423,287	0,975	1,485
-54,476	800,000	4,999	11,136
-53,461	-200,000	20,871	329,479
-52,446	800,000	757,396	2323,736
-51,432	550,492	1662,339	2826,097
-50,417	73,531	1664,061	1228,821
-49,403	18,726	1537,101	866,134
-48,388	12,619	1460,407	793,351
-47,373	18,973	1451,166	818,828
-46,359	15,864	1440,398	797,915
-45,344	10,959	1436,002	772,081
-44,330	10,912	1434,011	770,753
-43,315	10,888	1432,184	769,627
-42,300	10,872	1430,705	768,727
-41,286	10,950	1429,131	768,218
-40,271	10,891	1427,961	767,282
-39,257	10,873	1426,776	766,530
-38,242	10,926	1425,650	766,144
-37,227	10,914	1424,621	765,504
-36,213	10,928	1423,296	764,826
-35,198	10,903	1422,278	764,131
-34,184	10,968	1421,331	763,898
-33,169	10,890	1420,090	762,833
-32,154	10,909	1419,047	762,334
-31,140	10,891	1417,805	761,551
-30,125	10,940	1416,739	761,179
-29,111	10,949	1415,450	760,500
-28,096	10,936	1414,391	759,837
-27,082	10,840	1413,208	758,723
-26,067	10,872	1412,236	758,322
-25,052	10,910	1411,030	757,821
-24,038	10,897	1409,968	757,162
-23,023	10,897	1409,033	756,626
-22,009	10,884	1407,960	755,958
-20,994	10,842	1407,201	755,329
-19,979	10,828	1406,173	754,678
-18,965	10,852	1405,111	754,191
-17,950	10,768	1404,372	753,375
-16,936	10,766	1403,628	752,933
-15,921	10,768	1402,459	752,288
-14,906	10,745	1401,617	751,697
-13,892	10,773	1400,498	751,198
-12,877	10,754	1399,792	750,703
-11,863	10,749	1399,088	750,272
-10,848	10,756	1398,056	749,721
-9,833	10,709	1397,209	749,017
-8,819	10,706	1396,308	748,490
-7,804	10,655	1395,615	747,853
-6,790	10,645	1394,513	747,188
-5,775	10,651	1393,664	746,732
-4,760	10,694	1392,362	746,204
-3,746	10,690	1391,673	745,785
-2,731	10,642	1390,736	745,034
-1,717	10,665	1389,989	744,709
-0,702	10,611	1388,149	743,445
0,313	14,693	1301,707	715,841
1,327	31,055	692,990	418,314
2,342	48,240	120,292	79,265
3,356	1,589	16,565	8,384
4,371	4,708	3,507	1,811
5,386	-8,906	0,880	0,414
6,400	796,023	0,245	0,479
7,415	70,926	-0,201	-0,146
8,429	116,486	-0,290	-0,250
9,444	74,010	-0,266	-0,197
10,459	49,981	-0,363	-0,241
11,473	121,744	-0,181	-0,159
12,488	800,000	-0,084	-0,198
13,502	128,683	-0,270	-0,243
14,517	151,597	-0,327	-0,314
15,531	274,380	-0,237	-0,296
16,546	20,062	-0,279	-0,158
17,561	227,753	-0,262	-0,301
18,575	-145,317	-0,234	-0,015
19,590	800,000	-0,177	-0,413
20,604	-29,573	-0,198	-0,079
21,619	56,294	-0,449	-0,307
22,634	-17,940	-0,650	-0,286
23,648	5,965	-0,406	-0,211
24,663	209,771	-0,318	-0,351
25,677	60,786	-0,411	-0,286
26,692	125,384	-0,270	-0,240
27,707	72,179	-0,419	-0,306
28,721	17,187	-0,350	-0,195
29,736	-38,787	-0,379	-0,140
30,750	25,469	-0,439	-0,256
31,765	89,586	-0,298	-0,234
32,780	127,424	-0,257	-0,230
33,794	31,474	-0,337	-0,203
34,809	12,654	-0,408	-0,221
35,823	54,704	-0,251	-0,170
36,838	117,137	-0,351	-0,304
37,853	513,897	-0,240	-0,394
38,867	398,428	-0,306	-0,452
39,882	164,294	-0,356	-0,353
40,896	-17,234	-0,409	-0,181
41,911	108,498	-0,180	-0,151
42,926	57,873	-0,467	-0,321
43,940	48,797	-0,356	-0,234
44,955	68,484	-0,385	-0,277
45,969	15,115	-0,441	-0,242
46,984	138,272	-0,285	-0,263
47,999	30,116	-0,326	-0,195
49,013	94,003	-0,385	-0,307
50,028	32,440	-0,385	-0,233
51,042	162,921	-0,328	-0,324
52,057	70,759	-0,389	-0,282
53,071	39,880	-0,436	-0,274
54,086	389,472	-0,238	-0,348
55,101	18,974	-0,307	-0,172
56,115	-66,249	-0,373	-0,104
57,130	191,196	-0,332	-0,351
58,144	101,508	-0,317	-0,259
59,159	129,999	-0,414	-0,372
60,174	22,723	-0,343	-0,197
61,188	229,467	-0,233	-0,267
62,203	6,107	-0,281	-0,146
63,217	20,258	-0,261	-0,147
64,232	40,589	-0,359	-0,227
65,247	-11,011	-0,386	-0,178
66,261	178,169	-0,213	-0,218
67,276	16,565	-0,410	-0,227
68,290	-45,326	-0,231	-0,080
69,305	-110,271	-0,302	-0,044
70,320	674,251	-0,181	-0,332
71,334	122,843	-0,284	-0,250
72,349	17,269	-0,257	-0,143
73,363	75,117	-0,222	-0,164
74,378	152,410	-0,296	-0,284
75,393	137,251	-0,344	-0,315
76,407	36,225	-0,371	-0,229
77,422	-159,537	-0,235	0,009
78,436	-149,087	-0,240	0,013
79,451	-18,492	-0,232	-0,101
80,466	-40,109	-0,251	-0,091
81,480	88,769	-0,306	-0,238
82,495	26,046	-0,380	-0,222
83,509	187,561	-0,199	-0,208
84,524	19,165	-0,290	-0,162
85,539	15,461	-0,415	-0,228
86,553	48,877	-0,271	-0,178
87,568	40,073	-0,368	-0,231
88,582	120,270	-0,374	-0,325
89,597	127,262	-0,193	-0,171
90,611	58,783	-0,236	-0,162
91,626	219,487	-0,253	-0,284
92,641	40,064	-0,286	-0,180
93,655	-11,816	-0,305	-0,139
94,670	-14,396	-0,293	-0,132
95,684	-11,717	-0,355	-0,163
96,699	56,785	-0,337	-0,230
97,714	79,356	-0,347	-0,260
98,728	89,658	-0,177	-0,138
99,743	143,372	-0,293	-0,273
100,757	5,183	-0,222	-0,114
101,772	151,090	-0,177	-0,169
102,787	-66,957	-0,323	-0,089
103,801	-7,546	-0,312	-0,147
104,816	39,547	-0,299	-0,187
105,830	-31,372	-0,387	-0,152
106,845	-91,346	-0,106	-0,021
107,860	-18,862	-0,348	-0,151
108,874	412,909	-0,143	-0,213
109,889	561,970	-0,146	-0,249
110,903	222,877	-0,296	-0,334
111,918	84,621	-0,294	-0,224
112,933	-41,191	-0,199	-0,071
113,947	564,756	-0,135	-0,230
114,962	159,113	-0,082	-0,080
115,976	184,664	-0,221	-0,229
116,991	7,299	-0,400	-0,208
118,006	50,859	-0,250	-0,165
119,020	172,313	-0,252	-0,253
120,035	-200,000	-0,080	-0,302
121,049	169,824	-0,173	-0,173
122,064	195,034	-0,171	-0,181
123,079	-83,441	-0,201	-0,045
124,093	57,943	-0,349	-0,238
125,108	1,846	-0,303	-0,152
126,122	167,794	-0,204	-0,202
127,137	800,000	-0,085	-0,230
128,151	33,730	-0,261	-0,158
129,166	66,744	-0,226	-0,160
130,181	67,016	-0,216	-0,153
131,195	120,681	-0,298	-0,258
132,210	50,097	-0,268	-0,176
133,224	61,726	-0,273	-0,189
134,239	375,678	-0,164	-0,234
135,254	-104,821	-0,231	-0,037
136,268	239,545	-0,184	-0,214
137,283	-19,664	-0,209	-0,090
138,297	78,817	-0,326	-0,243
139,312	20,876	-0,310	-0,175
140,327	103,494	-0,164	-0,134
141,341	80,411	-0,227	-0,170
142,356	-73,692	-0,244	-0,061
143,370	800,000	-0,100	-0,259
144,385	279,316	-0,139	-0,173
145,400	800,000	-0,125	-0,249
146,414	-89,644	-0,371	-0,075
147,429	152,806	-0,316	-0,301
148,443	-117,467	-0,218	-0,027
149,458	-5,678	-0,396	-0,188
150,473	103,358	-0,127	-0,104
151,487	-72,370	-0,155	-0,040
152,502	225,147	-0,197	-0,222
153,516	116,025	-0,206	-0,176
154,531	-10,071	-0,197	-0,091
155,546	114,053	-0,241	-0,204
156,560	20,156	-0,319	-0,179
157,575	-15,299	-0,222	-0,098
158,589	-19,886	-0,236	-0,101
159,604	184,991	-0,241	-0,249
160,619	800,000	-0,113	-0,245
161,633	133,699	-0,220	-0,198
162,648	43,528	-0,279	-0,177
163,662	49,893	-0,171	-0,112
164,677	167,209	-0,212	-0,209
165,692	29,281	-0,302	-0,178
166,706	-13,992	-0,252	-0,113
167,721	-72,550	-0,317	-0,081
168,735	130,648	-0,238	-0,212
169,750	800,000	-0,130	-0,262
170,764	451,112	-0,141	-0,217
171,779	86,708	-0,151	-0,116
172,794	66,809	-0,202	-0,142
173,808	57,363	-0,166	-0,113
174,823	226,785	-0,194	-0,219
175,837	17,544	-0,288	-0,159
176,852	57,435	-0,192	-0,130
177,867	25,338	-0,219	-0,126
178,881	214,173	-0,181	-0,199
179,896	-10,664	-0,200	-0,091
180,910	111,721	-0,237	-0,199
181,925	-1,803	-0,165	-0,080
182,940	198,228	-0,203	-0,216
183,954	64,888	-0,220	-0,154
184,969	200,544	-0,223	-0,238
185,983	27,316	-0,204	-0,119
186,998	391,613	-0,106	-0,153
188,013	91,896	-0,276	-0,215
189,027	-94,729	-0,234	-0,044
190,042	30,873	-0,239	-0,142
191,056	213,362	-0,219	-0,241
192,071	593,178	-0,130	-0,224
193,086	641,232	-0,128	-0,227
194,100	725,787	-0,114	-0,211
195,115	298,358	-0,247	-0,316
196,129	141,570	-0,201	-0,185
197,144	20,098	-0,314	-0,175
198,159	176,543	-0,226	-0,228
199,173	157,521	-0,159	-0,153
200,188	-200,000	0,001	-0,175
201,202	229,709	-0,116	-0,132
202,217	479,502	-0,141	-0,223
203,232	-0,156	-0,330	-0,162
204,246	209,956	-0,209	-0,228
205,261	82,870	-0,227	-0,171
206,275	-200,000	-0,096	-0,307
207,290	-35,940	-0,172	-0,064
208,304	-90,942	-0,201	-0,040
209,319	-46,685	-0,292	-0,099
210,334	-12,176	-0,215	0,097
211,348	118,263	-0,211	-0,180
212,363	102,075	-0,192	-0,155
213,377	205,631	-0,175	-0,189
214,392	117,887	-0,190	-0,162
215,407	537,525	-0,065	-0,108
216,421	-3,966	-0,187	-0,089
217,436	71,288	-0,237	-0,170
218,450	135,050	-0,098	-0,088
219,465	216,868	-0,232	-0,256
220,480	75,324	-0,179	-0,131
221,494	214,644	-0,207	-0,227
222,509	207,153	-0,205	-0,221
223,523	70,519	-0,223	-0,159
224,538	195,910	-0,243	-0,256
225,553	800,000	-0,117	-0,230
226,567	217,602	-0,096	-0,106
227,582	800,000	-0,063	-0,179
228,596	3,194	-0,193	-0,097
229,611	29,741	-0,253	-0,148
230,626	37,681	-0,183	-0,112
231,640	108,520	-0,156	-0,129
232,655	-27,216	-0,191	-0,076
233,669	3,226	-0,160	-0,080
234,684	-62,740	-0,226	-0,064
235,699	4,574	-0,155	-0,078
236,713	175,225	-0,195	-0,195
237,728	639,112	-0,067	-0,119
238,742	-16,977	-0,173	-0,075
239,757	226,837	-0,214	-0,241
240,772	146,876	-0,124	-0,116
241,786	-27,695	-0,251	-0,100
242,801	-57,428	-0,190	-0,057
243,815	800,000	-0,147	-0,394
244,830	61,457	-0,149	-0,102
245,844	-118,805	-0,233	-0,028
246,859	81,670	-0,205	-0,153
247,874	800,000	-0,126	-0,338
248,888	800,000	-0,122	-0,270
249,903	243,456	-0,156	-0,181
250,917	475,683	-0,088	-0,138
251,932	-73,093	-0,124	0,031
252,947	436,155	-0,073	-0,110
253,961	81,375	-0,209	-0,155
254,976	195,545	-0,200	-0,210
255,990	65,921	-0,154	-0,108
257,005	-118,561	-0,169	-0,020
258,020	72,392	-0,124	-0,089
259,034	-138,725	-0,132	0,010
260,049	93,230	-0,220	-0,171
261,063	91,230	-0,175	-0,135
262,078	-22,830	-0,266	-0,110
263,093	416,189	-0,123	-0,182
264,107	164,938	-0,253	-0,246
265,122	-90,894	-0,153	-0,030
266,136	-116,958	-0,179	0,022
267,151	95,815	-0,173	-0,136
268,166	664,285	-0,093	-0,166
269,180	800,000	-0,093	-0,228
270,195	220,260	-0,173	-0,191
271,209	76,730	-0,147	-0,107
272,224	37,522	-0,205	-0,125
273,239	-19,763	-0,154	-0,065
274,253	296,926	-0,127	-0,161
275,268	-2,177	-0,150	-0,072
276,282	453,043	-0,147	-0,225
277,297	439,276	-0,200	-0,301
278,312	187,918	-0,131	-0,135
279,326	285,988	-0,174	-0,217
280,341	-200,000	-0,002	-0,106
281,355	-105,358	-0,235	-0,036
282,370	-11,232	-0,087	-0,039
283,384	31,918	-0,199	-0,118
284,399	536,309	-0,097	-0,159
285,414	95,490	-0,267	-0,209
286,428	569,492	-0,073	-0,123
287,443	145,234	-0,055	-0,051
288,457	211,177	-0,134	-0,145
289,472	441,579	-0,047	-0,071
290,487	800,000	-0,089	-0,217
291,501	218,125	-0,184	-0,202
292,516	461,294	-0,069	-0,106
293,530	45,938	-0,128	-0,081
294,545	162,464	-0,141	-0,136
295,560	29,729	-0,112	-0,065
296,574	400,171	-0,148	-0,213
297,589	800,000	-0,059	-0,144
298,603	224,093	-0,074	-0,083
299,618	160,559	-0,091	-0,087
300,633	-155,275	-0,132	-0,006
301,647	-92,996	-0,139	0,026
302,662	-108,485	-0,249	-0,036
303,676	-149,066	-0,102	-0,006
304,691	-72,519	-0,177	-0,045
305,706	-15,347	-0,327	-0,143
306,720	-84,207	-0,322	-0,070
307,735	-76,876	-0,256	-0,061
308,749	-200,000	0,012	-0,212
309,764	-200,000	-0,043	0,139
310,779	-101,819	-0,105	-0,017
311,793	-92,777	-0,147	-0,028
312,808	58,950	-0,178	-0,120
313,822	343,289	-0,129	-0,174
314,837	800,000	-0,066	-0,178
315,852	-200,000	-0,014	-0,122
316,866	137,702	-0,107	-0,096
317,881	800,000	-0,083	-0,168
318,895	123,691	-0,224	-0,193
319,910	-45,730	-0,152	-0,051
320,925	100,659	-0,262	-0,209
321,939	60,524	-0,104	-0,071
322,954	-200,000	0,002	-0,129
323,968	14,674	-0,082	-0,044
324,983	-126,020	-0,095	-0,010
325,997	-131,504	-0,114	0,010
327,012	259,014	-0,104	-0,123
328,027	537,191	-0,061	-0,099
329,041	52,606	-0,094	-0,061
330,056	0,212	-0,150	0,073
331,070	725,710	-0,055	-0,102
332,085	226,283	-0,174	-0,194
333,100	-157,718	-0,196	-0,008
334,114	280,877	-0,160	-0,197
335,129	45,314	-0,251	-0,158
336,143	-44,360	-0,192	-0,065
337,158	-118,033	-0,140	-0,017
338,173	60,420	-0,143	-0,097
339,187	-200,000	-0,002	-0,070
340,202	-47,363	-0,121	-0,040
341,216	800,000	-0,152	-0,314
342,231	7,647	-0,075	-0,038
343,246	25,204	-0,182	-0,103
344,260	698,288	-0,089	-0,161
345,275	-200,000	-0,013	-0,125
346,289	184,113	-0,100	-0,102
347,304	-98,034	-0,182	-0,032
348,319	128,295	-0,116	-0,101
349,333	-116,115	-0,190	0,024
350,348	226,925	-0,085	-0,095
351,362	174,905	-0,061	-0,060
352,377	220,682	-0,082	-0,090
353,392	-104,770	-0,166	-0,026
354,406	531,280	-0,142	-0,231
355,421	207,835	1307,740	1398,623
356,435	159,901	1467,592	1399,117
