DTS Sentinel unit serial number:	SN410029Multiplexer serial number:	ORYXHardware model number:	OX2-SRSoftware version number:	ORYX F/W v4,00 Oryx Data Collector v3.7.2.0data status	okinstallation	B3 Nyhavnadifferential loss correction	single-endedforward channel	channel 1reverse channel	N/Adate	2023/12/03time	14:52:30forward acquisition time	300,00reverse acquisition time	0,00gamma	499,1914k internal	0,3196k external	0,3196temperature offset calibration	1,0000default loss term (dB/km)	0,3820temperature slope calibration	1,0000multiplexer offset coefficient	1,0000multiplexer slope coefficient	1,0000fibre end	0,00T internal ref (°C)	15,88T ext. ref 1 (°C)	0,83T ext. ref 2 (°C)	0,83length (m)	temperature (°C)	Stokes	anti-Stokes-744,400	147,465	-0,139	-0,137
-743,385	-200,000	-0,044	0,262
-742,371	449,622	-0,118	-0,190
-741,356	-200,000	0,014	0,365
-740,342	55,295	-0,244	-0,172
-739,327	-200,000	-0,025	0,242
-738,312	50,405	-0,237	-0,163
-737,298	800,000	-0,076	0,192
-736,283	8,982	-0,218	-0,120
-735,269	-200,000	0,066	0,472
-734,254	40,691	-0,314	-0,206
-733,239	90,833	-0,028	0,023
-732,225	136,297	-0,200	-0,190
-731,210	-200,000	0,002	0,043
-730,196	-100,233	-0,033	0,006
-729,181	45,186	-0,076	0,051
-728,167	292,947	0,031	-0,041
-727,152	749,371	0,046	0,091
-726,137	95,810	-0,143	-0,119
-725,123	-39,914	-0,185	-0,070
-724,108	800,000	0,020	-0,042
-723,094	166,710	0,119	-0,123
-722,079	-131,465	-0,164	-0,016
-721,064	42,310	-0,124	0,082
-720,050	605,047	-0,039	-0,071
-719,035	-200,000	-0,030	0,104
-718,021	-87,140	-0,093	-0,020
-717,006	289,238	-0,069	-0,091
-715,991	278,289	-0,078	-0,101
-714,977	-200,000	-0,006	-0,048
-713,962	800,000	0,005	-0,015
-712,948	-151,475	0,079	0,004
-711,933	-148,081	-0,042	-0,002
-710,918	81,640	-0,065	-0,051
-709,904	583,398	-0,084	-0,150
-708,889	68,865	-0,066	-0,049
-707,875	-200,000	0,003	-0,180
-706,860	-200,000	0,008	0,103
-705,845	-200,000	-0,005	0,110
-704,831	185,193	0,117	0,126
-703,816	174,338	0,034	-0,036
-702,802	-200,000	-0,009	0,044
-701,787	160,516	0,024	-0,024
-700,772	226,081	0,079	-0,094
-699,758	-127,153	-0,073	0,008
-698,743	800,000	0,025	-0,052
-697,729	-200,000	-0,006	-0,051
-696,714	81,140	-0,074	0,058
-695,699	800,000	-0,048	-0,098
-694,685	-200,000	-0,034	-0,143
-693,670	-200,000	0,012	-0,068
-692,656	-200,000	0,024	0,118
-691,641	-49,297	0,062	-0,021
-690,627	49,895	-0,057	-0,039
-689,612	61,117	-0,112	0,081
-688,597	157,609	-0,088	-0,089
-687,583	56,181	0,077	-0,054
-686,568	-200,000	0,006	-0,090
-685,554	616,270	-0,095	-0,173
-684,539	-100,274	-0,129	0,023
-683,524	-200,000	-0,005	0,025
-682,510	122,926	-0,109	-0,099
-681,495	40,167	-0,063	-0,041
-680,481	-200,000	0,017	-0,156
-679,466	697,833	-0,077	-0,148
-678,451	-19,055	-0,095	0,043
-677,437	67,588	-0,168	0,124
-676,422	-55,377	0,130	0,042
-675,408	-108,511	-0,126	0,019
-674,393	116,082	0,108	-0,096
-673,378	-57,472	-0,180	-0,057
-672,364	25,334	-0,023	0,014
-671,349	-200,000	0,005	0,066
-670,335	152,136	-0,040	-0,040
-669,320	-200,000	0,024	0,120
-668,305	-200,000	-0,015	0,120
-667,291	-200,000	-0,014	0,161
-666,276	-146,501	-0,170	-0,011
-665,262	114,389	-0,080	-0,071
-664,247	-94,609	-0,102	0,020
-663,232	322,790	0,089	-0,123
-662,218	16,801	-0,071	0,041
-661,203	-78,415	0,035	0,009
-660,189	779,394	0,036	0,072
-659,174	-200,000	0,001	-0,038
-658,159	-15,508	-0,116	-0,053
-657,145	271,328	0,032	-0,041
-656,130	270,772	-0,088	-0,112
-655,116	-145,341	0,065	0,004
-654,101	-57,676	0,019	0,006
-653,086	800,000	0,014	-0,032
-652,072	-1,350	0,073	-0,037
-651,057	-82,849	-0,101	0,023
-650,043	169,057	0,046	-0,047
-649,028	-109,641	-0,044	0,007
-648,014	-192,521	0,080	0,001
-646,999	-200,000	0,007	-0,025
-645,984	11,590	0,069	0,038
-644,970	-65,060	-0,128	0,037
-643,955	99,831	-0,077	-0,065
-642,941	-55,849	-0,093	-0,030
-641,926	-200,000	0,024	0,129
-640,911	-200,000	-0,005	-0,020
-639,897	-200,000	0,008	-0,125
-638,882	161,694	-0,097	0,098
-637,868	800,000	0,036	0,085
-636,853	800,000	-0,040	-0,086
-635,838	-27,196	-0,049	-0,021
-634,824	800,000	-0,038	-0,113
-633,809	-153,664	0,095	-0,005
-632,795	607,444	0,042	0,077
-631,780	-200,000	-0,015	0,149
-630,765	-34,831	-0,077	-0,031
-629,751	-97,413	0,059	0,011
-628,736	-141,039	-0,053	0,004
-627,722	800,000	0,004	0,011
-626,707	16,150	0,151	-0,086
-625,692	334,664	-0,017	0,024
-624,678	15,622	-0,119	-0,067
-623,663	800,000	-0,012	0,024
-622,649	-200,000	0,005	-0,191
-621,634	408,976	-0,045	0,069
-620,619	-129,865	-0,059	-0,006
-619,605	-200,000	0,013	-0,066
-618,590	-86,479	0,207	-0,046
-617,576	95,085	-0,085	0,070
-616,561	30,101	0,154	-0,095
-615,546	100,692	-0,092	-0,077
-614,532	183,123	0,046	-0,049
-613,517	-200,000	-0,009	-0,031
-612,503	-200,000	0,001	-0,045
-611,488	-94,494	-0,018	-0,003
-610,474	-200,000	0,003	-0,047
-609,459	438,711	0,105	-0,167
-608,444	8,126	0,090	0,049
-607,430	50,694	0,028	-0,019
-606,415	1,490	0,056	-0,029
-605,401	-200,000	-0,016	0,146
-604,386	-147,409	0,039	-0,002
-603,371	192,373	-0,033	0,036
-602,357	499,958	0,042	0,071
-601,342	-52,490	0,033	-0,011
-600,328	-200,000	-0,048	-0,178
-599,313	579,069	-0,075	-0,134
-598,298	-125,770	-0,062	0,007
-597,284	-42,621	0,113	0,041
-596,269	800,000	0,015	-0,048
-595,255	753,248	0,063	0,123
-594,240	495,397	0,055	0,092
-593,225	575,384	-0,070	-0,124
-592,211	-200,000	0,004	-0,095
-591,196	145,398	0,085	-0,083
-590,182	576,539	0,043	-0,076
-589,167	156,121	-0,061	0,061
-588,152	67,738	0,044	0,033
-587,138	800,000	0,031	-0,090
-586,123	160,502	-0,072	-0,073
-585,109	180,441	0,064	-0,068
-584,094	-183,120	0,137	-0,002
-583,079	-159,822	-0,180	-0,007
-582,065	175,507	0,080	-0,084
-581,050	-200,000	-0,008	-0,107
-580,036	88,161	0,055	0,044
-579,021	800,000	-0,033	-0,088
-578,006	-69,137	-0,119	-0,033
-576,992	76,484	-0,046	-0,035
-575,977	351,122	-0,025	-0,036
-574,963	-67,195	-0,147	0,042
-573,948	324,821	0,038	-0,052
-572,934	435,703	-0,043	0,067
-571,919	-67,001	-0,149	-0,042
-570,904	800,000	-0,053	0,110
-569,890	-200,000	0,004	-0,203
-568,875	273,708	0,086	-0,110
-567,861	-34,610	-0,067	0,026
-566,846	400,068	-0,075	0,114
-565,831	62,832	0,112	0,081
-564,817	-200,000	0,010	0,040
-563,802	-200,000	-0,003	-0,068
-562,788	780,625	0,022	-0,044
-561,773	-66,999	-0,073	0,021
-560,758	-200,000	0,000	-0,022
-559,744	-29,072	0,054	-0,022
-558,729	-61,100	-0,131	0,040
-557,715	254,156	-0,030	-0,037
-556,700	-10,728	-0,190	-0,091
-555,685	71,439	-0,050	-0,037
-554,671	-200,000	-0,023	-0,141
-553,656	-15,314	0,052	0,024
-552,642	-58,021	0,099	0,031
-551,627	41,263	0,080	0,052
-550,612	-200,000	-0,037	-0,257
-549,598	-200,000	0,014	-0,074
-548,583	354,462	0,057	-0,083
-547,569	800,000	-0,051	-0,138
-546,554	-132,999	0,075	0,007
-545,539	210,328	0,114	0,129
-544,525	-200,000	-0,000	-0,032
-543,510	26,160	-0,073	0,044
-542,496	232,307	-0,031	0,036
-541,481	624,831	-0,045	-0,082
-540,466	-133,435	0,222	-0,020
-539,452	-7,336	-0,037	0,018
-538,437	-31,246	-0,113	-0,046
-537,423	-49,629	-0,171	0,058
-536,408	-169,609	0,067	0,002
-535,393	-200,000	0,042	0,165
-534,379	176,217	-0,053	0,055
-533,364	59,396	-0,060	0,043
-532,350	-200,000	0,015	0,152
-531,335	800,000	-0,018	-0,046
-530,321	91,320	0,084	-0,068
-529,306	110,155	0,062	-0,054
-528,291	397,787	-0,044	-0,066
-527,277	130,249	-0,099	-0,092
-526,262	-200,000	0,005	0,020
-525,248	-14,071	0,035	0,016
-524,233	-200,000	0,046	0,179
-523,218	-200,000	-0,046	0,212
-522,204	800,000	0,043	0,093
-521,189	800,000	-0,041	-0,093
-520,175	-71,193	-0,137	-0,037
-519,160	-44,245	-0,155	-0,056
-518,145	12,690	-0,039	0,022
-517,131	-200,000	0,015	0,060
-516,116	-200,000	0,054	0,175
-515,102	-56,102	-0,085	0,027
-514,087	145,916	-0,100	-0,097
-513,072	-152,158	-0,149	0,008
-512,058	48,417	-0,070	-0,047
-511,043	-200,000	0,008	0,046
-510,029	141,170	-0,037	0,036
-509,014	524,994	0,068	0,115
-507,999	-44,967	-0,062	0,022
-506,985	-200,000	-0,007	-0,206
-505,970	131,556	-0,042	-0,039
-504,956	356,211	-0,059	0,084
-503,941	800,000	0,048	-0,132
-502,926	-98,391	0,090	-0,016
-501,912	231,198	0,085	0,100
-500,897	365,359	0,037	0,054
-499,883	449,605	-0,063	-0,100
-498,868	-23,972	-0,146	-0,063
-497,853	437,166	0,076	-0,120
-496,839	-200,000	-0,004	-0,050
-495,824	390,630	0,144	-0,216
-494,810	800,000	-0,016	0,050
-493,795	40,215	0,094	0,061
-492,781	53,374	0,115	-0,079
-491,766	-83,112	-0,049	-0,011
-490,751	-200,000	-0,014	0,074
-489,737	-200,000	-0,013	-0,055
-488,722	63,650	0,035	0,026
-487,708	637,689	-0,012	-0,023
-486,693	-48,005	0,124	-0,043
-485,678	-128,774	0,059	-0,006
-484,664	-35,035	-0,048	0,019
-483,649	-108,012	-0,073	-0,011
-482,635	-12,884	0,073	-0,034
-481,620	492,401	-0,008	-0,013
-480,605	-200,000	0,006	0,054
-479,591	-116,318	0,153	0,020
-478,576	-200,000	-0,006	0,051
-477,562	800,000	0,018	0,038
-476,547	645,939	-0,039	0,071
-475,532	-200,000	-0,006	0,022
-474,518	-41,280	0,112	0,041
-473,503	-51,491	-0,162	0,054
-472,489	800,000	0,053	0,126
-471,474	-200,000	0,020	0,108
-470,459	-132,951	-0,026	0,002
-469,445	-200,000	0,000	-0,095
-468,430	-16,885	0,010	0,004
-467,416	800,000	-0,013	-0,037
-466,401	800,000	-0,037	0,080
-465,386	-126,502	-0,085	-0,009
-464,372	-200,000	-0,001	0,083
-463,357	-58,859	0,055	0,017
-462,343	197,446	-0,109	-0,120
-461,328	800,000	0,035	-0,087
-460,313	102,396	-0,058	-0,049
-459,299	-94,762	0,038	-0,007
-458,284	106,394	0,111	0,095
-457,270	71,126	0,093	-0,070
-456,255	87,197	-0,098	-0,078
-455,241	-133,727	-0,145	0,013
-454,226	196,401	-0,108	0,119
-453,211	38,639	-0,092	-0,059
-452,197	800,000	0,023	0,068
-451,182	246,149	0,002	-0,002
-450,168	727,586	0,017	0,032
-449,153	735,009	0,028	-0,055
-448,138	-87,824	-0,112	0,024
-447,124	800,000	-0,011	0,026
-446,109	-200,000	0,003	0,034
-445,095	503,734	0,047	0,078
-444,080	800,000	-0,044	0,136
-443,065	123,524	-0,107	0,097
-442,051	-200,000	0,023	-0,093
-441,036	29,292	-0,061	0,037
-440,022	444,000	0,063	0,099
-439,007	-61,083	0,121	0,036
-437,992	-200,000	0,014	-0,092
-436,978	-200,000	-0,012	0,192
-435,963	114,585	0,108	0,095
-434,949	81,216	-0,068	-0,053
-433,934	800,000	-0,031	-0,068
-432,919	800,000	-0,020	-0,057
-431,905	800,000	-0,049	-0,099
-430,890	-21,810	0,062	-0,027
-429,876	-200,000	-0,024	-0,110
-428,861	-111,275	-0,093	0,014
-427,846	53,242	-0,067	0,046
-426,832	-113,595	-0,042	0,006
-425,817	61,699	-0,020	-0,015
-424,803	-200,000	0,006	-0,021
-423,788	576,022	0,033	-0,057
-422,773	-120,140	0,062	-0,008
-421,759	308,152	0,029	-0,039
-420,744	-200,000	0,007	0,066
-419,730	-200,000	-0,011	0,107
-418,715	12,069	-0,166	-0,092
-417,701	800,000	-0,033	-0,069
-416,686	15,150	-0,066	-0,037
-415,671	-112,288	0,034	0,005
-414,657	355,815	0,018	-0,026
-413,642	209,738	0,032	-0,036
-412,628	159,249	0,054	-0,054
-411,613	-200,000	0,004	-0,067
-410,598	-200,000	-0,003	-0,107
-409,584	158,281	-0,038	-0,038
-408,569	-200,000	0,020	0,081
-407,555	60,328	-0,023	-0,016
-406,540	80,442	-0,064	-0,049
-405,525	39,174	-0,030	-0,019
-404,511	-2,384	-0,083	0,042
-403,496	-200,000	-0,007	-0,049
-402,482	-200,000	0,007	0,160
-401,467	-200,000	0,002	0,210
-400,452	-200,000	0,020	0,070
-399,438	-22,126	0,087	0,038
-398,423	117,730	-0,051	0,045
-397,409	-123,640	-0,086	0,010
-396,394	2,263	0,114	0,059
-395,379	307,367	-0,048	-0,064
-394,365	-200,000	0,014	0,108
-393,350	-65,409	-0,013	-0,004
-392,336	44,233	0,071	0,047
-391,321	-200,000	0,004	0,062
-390,306	-200,000	0,015	0,160
-389,292	-72,221	-0,131	-0,035
-388,277	-182,840	0,147	-0,002
-387,263	-200,000	-0,014	-0,056
-386,248	-49,116	0,090	0,031
-385,233	18,119	-0,044	-0,025
-384,219	111,640	-0,014	-0,012
-383,204	669,901	0,042	-0,079
-382,190	-102,612	-0,114	0,019
-381,175	-163,876	0,082	0,003
-380,160	186,196	0,088	-0,094
-379,146	112,280	0,028	-0,025
-378,131	45,154	0,073	-0,049
-377,117	-200,000	-0,016	0,061
-376,102	-17,445	0,020	-0,009
-375,088	339,428	-0,092	-0,129
-374,073	29,295	0,043	0,026
-373,058	6,106	-0,073	-0,039
-372,044	-132,759	0,036	0,003
-371,029	94,358	0,062	0,051
-370,015	-183,442	-0,008	0,000
-369,000	189,638	0,052	0,056
-367,985	224,590	0,066	0,077
-366,971	63,549	-0,088	0,063
-365,956	-63,110	0,105	0,031
-364,942	439,510	-0,021	-0,033
-363,927	800,000	0,028	0,083
-362,912	800,000	0,040	-0,084
-361,898	213,814	0,045	-0,052
-360,883	-200,000	0,017	-0,065
-359,869	-200,000	-0,006	0,079
-358,854	-10,926	0,023	-0,011
-357,839	-91,367	-0,020	0,004
-356,825	164,109	0,119	0,120
-355,810	-103,310	0,026	0,004
-354,796	72,870	-0,095	0,071
-353,781	21,402	-0,072	-0,042
-352,766	800,000	0,025	-0,068
-351,752	-200,000	0,007	-0,090
-350,737	-32,910	0,158	-0,063
-349,723	-131,593	0,100	0,009
-348,708	800,000	0,042	0,119
-347,693	166,858	-0,074	0,075
-346,679	-200,000	0,023	-0,135
-345,664	-39,425	0,016	-0,006
-344,650	260,794	-0,105	0,130
-343,635	800,000	0,090	0,201
-342,620	4,803	0,125	0,065
-341,606	800,000	-0,013	-0,029
-340,591	404,555	-0,007	-0,011
-339,577	-200,000	-0,014	-0,046
-338,562	191,288	-0,089	0,096
-337,548	-8,138	0,144	0,069
-336,533	12,892	0,120	0,066
-335,518	251,205	-0,056	-0,068
-334,504	73,312	-0,046	0,035
-333,489	-200,000	-0,004	0,047
-332,475	214,473	-0,012	0,014
-331,460	800,000	0,015	-0,033
-330,445	-200,000	-0,013	0,067
-329,431	800,000	-0,002	0,005
-328,416	254,810	0,054	0,067
-327,402	382,460	0,052	0,077
-326,387	-200,000	-0,033	0,107
-325,372	-139,351	-0,118	-0,009
-324,358	144,318	-0,097	-0,093
-323,343	18,264	0,117	-0,067
-322,329	4,606	-0,081	0,043
-321,314	800,000	0,015	-0,046
-320,299	-49,302	0,158	0,054
-319,285	-200,000	0,009	-0,056
-318,270	49,509	0,047	-0,032
-317,256	-11,773	0,010	0,005
-316,241	259,530	-0,053	-0,065
-315,226	168,025	0,061	-0,062
-314,212	-200,000	-0,012	0,095
-313,197	-200,000	-0,010	0,067
-312,183	-200,000	-0,010	-0,033
-311,168	175,136	-0,050	-0,052
-310,153	-200,000	-0,015	0,079
-309,139	800,000	0,031	-0,078
-308,124	-50,036	0,080	-0,027
-307,110	800,000	-0,019	0,044
-306,095	-66,158	0,158	-0,045
-305,080	403,635	0,059	-0,088
-304,066	164,763	0,043	-0,044
-303,051	-200,000	0,024	-0,137
-302,037	6,654	-0,080	0,042
-301,022	47,599	-0,083	0,055
-300,008	784,334	0,026	0,051
-298,993	-200,000	-0,011	0,100
-297,978	-200,000	-0,015	0,087
-296,964	18,711	-0,061	0,035
-295,949	-70,846	-0,096	0,026
-294,935	-200,000	-0,010	-0,092
-293,920	145,759	0,122	-0,117
-292,905	210,608	0,073	-0,082
-291,891	286,074	0,025	0,033
-290,876	-200,000	0,015	0,072
-289,862	122,376	-0,027	-0,024
-288,847	-200,000	0,030	-0,197
-287,832	-200,000	-0,016	-0,059
-286,818	-30,810	-0,082	-0,033
-285,803	-53,250	0,150	0,049
-284,789	38,746	0,065	-0,042
-283,774	634,257	0,019	-0,034
-282,759	167,319	-0,036	0,036
-281,745	32,834	-0,077	-0,047
-280,730	654,382	-0,080	-0,147
-279,716	390,712	0,035	0,052
-278,701	-125,257	0,129	0,014
-277,686	800,000	-0,030	-0,064
-276,672	31,627	0,023	-0,014
-275,657	223,155	0,064	-0,074
-274,643	-200,000	0,005	0,023
-273,628	75,936	-0,104	0,079
-272,613	181,088	0,031	0,033
-271,599	106,570	0,062	-0,052
-270,584	-3,290	0,054	-0,027
-269,570	-200,000	-0,017	0,099
-268,555	235,139	-0,059	-0,069
-267,540	-200,000	-0,004	0,033
-266,526	14,769	-0,088	0,049
-265,511	-200,000	0,004	-0,076
-264,497	351,424	-0,071	-0,101
-263,482	256,661	0,042	-0,052
-262,467	60,514	0,121	0,085
-261,453	800,000	0,010	0,031
-260,438	63,931	-0,087	0,063
-259,424	23,002	-0,108	-0,063
-258,409	-200,000	-0,004	-0,037
-257,395	-97,756	0,040	-0,007
-256,380	62,713	-0,040	-0,028
-255,365	-200,000	0,001	0,066
-254,351	-200,000	-0,007	-0,093
-253,336	-200,000	-0,008	-0,101
-252,322	215,547	-0,083	-0,095
-251,307	-25,213	0,077	-0,032
-250,292	155,141	-0,003	0,003
-249,278	-59,609	-0,047	-0,014
-248,263	800,000	0,004	0,008
-247,249	23,072	0,050	0,029
-246,234	-12,203	-0,007	0,003
-245,219	800,000	-0,034	-0,083
-244,205	800,000	0,017	0,049
-243,190	-42,657	-0,037	-0,013
-242,176	800,000	0,020	0,057
-241,161	10,155	-0,054	0,029
-240,146	59,088	0,180	0,126
-239,132	130,179	0,033	0,030
-238,117	-200,000	-0,015	-0,123
-237,103	434,480	0,026	-0,040
-236,088	174,806	-0,052	0,054
-235,073	-200,000	-0,021	-0,106
-234,059	470,658	-0,005	-0,008
-233,044	84,402	-0,055	0,043
-232,030	7,104	-0,077	0,041
-231,015	-53,164	0,033	-0,011
-230,000	-200,000	-0,010	0,072
-228,986	-87,578	-0,097	0,021
-227,971	-71,067	0,135	0,036
-226,957	-200,000	0,005	0,067
-225,942	126,599	-0,022	-0,019
-224,927	-152,560	-0,081	-0,004
-223,913	-200,000	-0,008	0,061
-222,898	-200,000	-0,021	-0,107
-221,884	-76,214	-0,103	-0,026
-220,869	-18,871	-0,031	0,014
-219,855	800,000	-0,017	0,041
-218,840	-106,472	0,014	-0,002
-217,825	134,168	0,094	0,086
-216,811	-122,245	0,056	-0,006
-215,796	-103,488	0,060	0,010
-214,782	-143,140	-0,038	-0,003
-213,767	-111,236	-0,081	-0,012
-212,752	-200,000	-0,003	0,184
-211,738	119,032	0,142	0,125
-210,723	-200,000	0,030	0,113
-209,709	-200,000	-0,001	0,069
-208,694	-119,578	0,048	-0,006
-207,679	-19,845	-0,166	-0,073
-206,665	88,372	-0,082	0,065
-205,650	90,604	0,036	0,029
-204,636	294,394	0,063	0,082
-203,621	-88,842	-0,191	0,040
-202,606	437,720	-0,024	0,037
-201,592	800,000	-0,038	-0,095
-200,577	-98,159	0,033	0,006
-199,563	-78,051	0,109	0,027
-198,548	-135,787	0,095	0,008
-197,533	-39,647	0,222	0,082
-196,519	80,475	-0,079	0,061
-195,504	800,000	-0,011	-0,029
-194,490	259,329	-0,044	-0,055
-193,475	146,336	-0,051	-0,049
-192,460	-200,000	-0,009	0,066
-191,446	-62,470	0,154	0,045
-190,431	-200,000	0,030	0,107
-189,417	34,354	-0,048	-0,030
-188,402	214,346	-0,051	-0,057
-187,387	800,000	-0,066	-0,160
-186,373	538,848	-0,029	0,050
-185,358	800,000	-0,033	0,081
-184,344	1,437	0,168	0,086
-183,329	-200,000	-0,008	0,045
-182,315	774,181	-0,053	0,104
-181,300	-94,411	0,123	0,024
-180,285	-200,000	-0,001	-0,047
-179,271	-128,576	0,060	-0,006
-178,256	290,805	-0,055	-0,071
-177,242	-174,385	-0,060	-0,001
-176,227	-136,109	0,119	-0,010
-175,212	-200,000	0,016	0,083
-174,198	800,000	0,063	-0,130
-173,183	180,940	-0,050	-0,052
-172,169	-200,000	-0,041	-0,170
-171,154	188,275	0,009	-0,009
-170,139	-41,019	-0,033	-0,012
-169,125	59,936	-0,069	-0,049
-168,110	-200,000	-0,017	0,105
-167,096	158,124	-0,031	0,031
-166,081	131,588	0,085	0,078
-165,066	-121,180	-0,194	-0,023
-164,052	185,806	0,068	-0,072
-163,037	478,806	0,056	0,090
-162,023	539,891	0,043	0,072
-161,008	-200,000	0,032	0,106
-159,993	-106,678	0,068	0,011
-158,979	-200,000	-0,007	0,130
-157,964	-97,786	-0,072	-0,013
-156,950	-112,250	-0,079	0,011
-155,935	-59,972	0,157	0,047
-154,920	363,105	-0,032	-0,045
-153,906	800,000	0,051	0,107
-152,891	197,534	-0,045	-0,049
-151,877	177,324	-0,093	-0,096
-150,862	90,089	0,078	0,062
-149,847	747,258	-0,057	0,111
-148,833	455,571	0,038	-0,060
-147,818	74,925	-0,119	-0,089
-146,804	168,179	-0,075	0,076
-145,789	194,779	0,095	0,103
-144,775	88,803	-0,069	0,055
-143,760	-80,875	-0,096	0,022
-142,745	-200,000	0,002	-0,050
-141,731	158,630	-0,120	-0,119
-140,716	77,922	0,101	-0,077
-139,702	-200,000	0,001	0,023
-138,687	31,488	-0,069	0,042
-137,672	800,000	-0,014	0,032
-136,658	591,590	0,068	-0,119
-135,643	-134,465	0,033	-0,003
-134,629	335,121	-0,089	0,124
-133,614	-200,000	0,009	-0,029
-132,599	-30,963	0,070	-0,028
-131,585	-43,028	-0,101	0,036
-130,570	-200,000	0,008	0,042
-129,556	-78,488	-0,126	-0,031
-128,541	276,496	-0,046	-0,058
-127,526	-61,027	0,038	-0,011
-126,512	-105,940	-0,092	0,015
-125,497	-6,909	0,097	0,047
-124,483	363,758	0,063	-0,090
-123,468	41,903	-0,021	-0,014
-122,453	800,000	0,043	-0,117
-121,439	-32,135	-0,043	-0,017
-120,424	800,000	0,060	-0,133
-119,410	800,000	0,039	-0,094
-118,395	400,453	0,071	0,107
-117,380	-120,731	0,138	0,016
-116,366	800,000	0,045	0,117
-115,351	293,565	-0,038	0,050
-114,337	160,780	0,126	0,125
-113,322	800,000	-0,020	0,046
-112,307	-195,319	0,102	0,001
-111,293	89,161	0,044	0,035
-110,278	-38,284	0,167	0,062
-109,264	555,189	-0,064	-0,110
-108,249	252,228	-0,088	0,107
-107,234	-127,444	0,067	-0,007
-106,220	-200,000	0,027	-0,095
-105,205	-200,000	0,016	-0,097
-104,191	426,748	0,051	0,079
-103,176	-28,519	-0,052	-0,021
-102,162	143,715	0,063	0,060
-101,147	-83,542	0,071	0,016
-100,132	549,893	-0,029	0,050
-99,118	97,075	-0,057	-0,047
-98,103	114,286	0,080	0,069
-97,089	54,608	0,161	0,110
-96,074	86,428	0,024	-0,018
-95,059	221,380	-0,034	-0,038
-94,045	800,000	-0,034	0,091
-93,030	314,385	-0,030	0,041
-92,016	-127,566	-0,171	-0,017
-91,001	-180,634	-0,054	0,001
-89,986	-50,743	0,106	0,035
-88,972	218,898	-0,081	0,092
-87,957	146,042	-0,032	-0,031
-86,943	-58,864	0,140	-0,043
-85,928	800,000	0,042	0,101
-84,913	264,353	0,002	-0,002
-83,899	800,000	-0,025	-0,059
-82,884	-93,728	-0,094	0,018
-81,870	-200,000	-0,001	-0,006
-80,855	-58,232	0,095	0,029
-79,840	0,191	0,042	-0,021
-78,826	61,812	-0,054	-0,038
-77,811	42,856	0,034	-0,022
-76,797	800,000	-0,045	-0,113
-75,782	150,924	0,178	0,172
-74,767	183,218	0,034	0,036
-73,753	-67,234	0,051	-0,014
-72,738	36,944	-0,061	0,038
-71,724	-79,072	0,071	0,017
-70,709	-156,671	0,088	0,004
-69,694	775,793	-0,063	-0,123
-68,680	211,854	-0,053	0,059
-67,665	88,893	0,054	0,043
-66,651	-58,423	-0,134	0,041
-65,636	-115,129	0,073	-0,010
-64,622	765,374	0,029	-0,056
-63,607	800,000	-0,060	0,155
-62,592	-148,470	0,092	-0,005
-61,578	800,000	0,027	0,069
-60,563	-200,000	-0,016	-0,083
-59,549	-13,933	-0,157	0,072
-58,534	-54,643	-1,264	-0,403
-57,519	314,378	-1,591	-2,130
-56,505	-200,000	-0,363	-4,325
-55,490	100,503	0,996	0,820
-54,476	800,000	4,635	10,810
-53,461	-200,000	17,804	283,773
-52,446	800,000	721,092	2230,123
-51,432	562,592	1635,833	2817,857
-50,417	81,113	1659,375	1269,256
-49,403	23,728	1533,496	893,266
-48,388	17,720	1456,897	819,644
-47,373	18,199	1446,494	816,061
-46,359	17,805	1437,123	808,861
-45,344	16,015	1432,416	797,664
-44,330	15,900	1430,329	795,923
-43,315	15,971	1428,474	795,197
-42,300	15,949	1427,062	794,273
-41,286	15,998	1425,704	793,719
-40,271	15,968	1424,614	792,941
-39,257	15,912	1423,355	791,943
-38,242	15,993	1422,058	791,572
-37,227	15,982	1420,706	790,738
-36,213	15,982	1419,540	790,055
-35,198	15,978	1418,304	789,319
-34,184	16,013	1417,264	788,870
-33,169	15,921	1415,881	787,637
-32,154	15,985	1415,134	787,493
-31,140	16,014	1413,823	786,866
-30,125	16,026	1412,366	786,081
-29,111	16,010	1411,324	785,397
-28,096	15,993	1410,235	784,680
-27,082	15,907	1409,291	783,718
-26,067	15,975	1408,019	783,297
-25,052	15,956	1407,139	782,692
-24,038	15,922	1406,257	782,008
-23,023	15,921	1404,930	781,237
-22,009	15,906	1404,080	780,660
-20,994	15,846	1403,219	779,875
-19,979	15,866	1402,175	779,357
-18,965	15,862	1401,108	778,712
-17,950	15,785	1400,296	777,874
-16,936	15,846	1399,337	777,590
-15,921	15,848	1397,937	776,792
-14,906	15,752	1397,155	775,881
-13,892	15,816	1396,222	775,631
-12,877	15,810	1395,512	775,178
-11,863	15,801	1394,345	774,455
-10,848	15,825	1393,520	774,075
-9,833	15,839	1392,481	773,536
-8,819	15,753	1391,622	772,627
-7,804	15,740	1390,712	772,031
-6,790	15,716	1389,717	771,341
-5,775	15,720	1388,563	770,685
-4,760	15,698	1387,866	770,169
-3,746	15,720	1387,032	769,777
-2,731	15,687	1386,257	769,164
-1,717	15,664	1385,414	768,558
-0,702	15,726	1383,138	767,552
0,313	19,437	1303,955	740,763
1,327	35,763	706,725	439,326
2,342	54,857	125,312	85,574
3,356	0,732	16,572	8,377
4,371	15,106	3,031	1,678
5,386	-36,343	0,623	0,237
6,400	-200,000	0,020	0,162
7,415	-0,446	-0,233	-0,117
8,429	202,447	-0,258	-0,282
9,444	11,964	-0,420	-0,228
10,459	13,471	-0,284	-0,156
11,473	43,685	-0,313	-0,203
12,488	242,099	-0,143	-0,170
13,502	-27,974	-0,344	-0,140
14,517	61,097	-0,338	-0,237
15,531	49,184	-0,350	-0,232
16,546	124,587	-0,284	-0,253
17,561	96,872	-0,342	-0,277
18,575	800,000	-0,107	-0,214
19,590	57,734	-0,304	-0,210
20,604	60,600	-0,269	-0,188
21,619	84,898	-0,393	-0,304
22,634	1,695	-0,514	-0,261
23,648	197,992	-0,361	-0,391
24,663	228,475	-0,337	-0,389
25,677	219,874	-0,291	-0,330
26,692	73,801	-0,323	-0,239
27,707	107,803	-0,483	-0,406
28,721	167,028	-0,355	-0,357
29,736	72,417	-0,453	-0,333
30,750	56,292	-0,498	-0,341
31,765	281,210	-0,331	-0,420
32,780	91,684	-0,394	-0,313
33,794	90,607	-0,333	-0,263
34,809	-0,551	-0,320	-0,160
35,823	18,279	-0,382	-0,215
36,838	19,338	-0,462	-0,261
37,853	330,597	-0,249	-0,340
38,867	113,643	-0,414	-0,355
39,882	236,087	-0,210	-0,246
40,896	-50,403	-0,263	-0,087
41,911	29,257	-0,391	-0,234
42,926	-35,402	-0,386	-0,147
43,940	-22,842	-0,306	-0,130
44,955	120,129	-0,243	-0,212
45,969	-46,991	-0,460	-0,158
46,984	7,685	-0,425	-0,224
47,999	38,758	-0,306	-0,192
49,013	257,914	-0,308	-0,375
50,028	134,667	-0,280	-0,256
51,042	143,772	-0,293	-0,276
52,057	-1,792	-0,357	-0,177
53,071	27,868	-0,353	-0,209
54,086	244,175	-0,356	-0,423
55,101	22,343	-0,381	-0,219
56,115	102,943	-0,379	-0,313
57,130	110,915	-0,463	-0,393
58,144	66,516	-0,455	-0,326
59,159	-18,285	-0,425	-0,186
60,174	71,359	-0,335	-0,245
61,188	137,025	-0,355	-0,327
62,203	201,303	-0,251	-0,273
63,217	65,906	-0,240	-0,171
64,232	-80,915	-0,468	-0,108
65,247	161,055	-0,421	-0,415
66,261	29,782	-0,380	-0,228
67,276	109,373	-0,373	-0,315
68,290	112,930	-0,291	-0,248
69,305	-47,792	-0,257	-0,087
70,320	-8,769	-0,229	-0,108
71,334	-68,043	-0,324	-0,088
72,349	45,887	-0,293	-0,190
73,363	70,234	-0,316	-0,230
74,378	800,000	-0,131	-0,267
75,393	51,316	-0,267	-0,178
76,407	66,439	-0,353	-0,252
77,422	206,372	-0,156	-0,172
78,436	64,095	-0,197	-0,139
79,451	-4,680	-0,350	-0,169
80,466	34,494	-0,367	-0,225
81,480	218,717	-0,251	-0,282
82,495	271,867	-0,270	-0,335
83,509	14,865	-0,208	-0,114
84,524	-77,222	-0,344	-0,084
85,539	32,753	-0,268	-0,163
86,553	77,429	-0,264	-0,197
87,568	84,756	-0,308	-0,237
88,582	-32,968	-0,321	-0,125
89,597	177,604	-0,281	-0,289
90,611	34,849	-0,206	-0,127
91,626	307,722	-0,158	-0,207
92,641	112,355	-0,138	-0,117
93,655	-110,860	-0,337	-0,048
94,670	98,100	-0,213	-0,173
95,684	231,672	-0,276	-0,319
96,699	-7,067	-0,336	-0,160
97,714	-15,255	-0,158	-0,071
98,728	107,694	-0,297	-0,248
99,743	-73,834	-0,347	-0,088
100,757	144,773	-0,272	-0,255
101,772	243,246	-0,224	-0,265
102,787	-18,995	-0,343	-0,149
103,801	267,898	-0,321	-0,396
104,816	120,458	-0,266	-0,232
105,830	11,709	-0,326	-0,175
106,845	69,551	-0,275	-0,199
107,860	141,173	-0,334	-0,310
108,874	479,149	-0,191	-0,304
109,889	116,978	-0,226	-0,195
110,903	800,000	-0,195	-0,430
111,918	172,097	-0,181	-0,183
112,933	-38,331	-0,172	-0,063
113,947	64,830	-0,322	-0,228
114,962	54,320	-0,279	-0,188
115,976	800,000	-0,136	-0,304
116,991	-7,582	-0,386	-0,183
118,006	49,256	-0,305	-0,201
119,020	102,013	-0,329	-0,269
120,035	114,404	-0,242	-0,206
121,049	127,560	-0,092	-0,082
122,064	32,027	-0,330	-0,199
123,079	-39,551	-0,282	-0,103
124,093	79,164	-0,266	-0,200
125,108	194,108	-0,158	-0,168
126,122	431,809	-0,171	-0,261
127,137	-85,630	-0,293	-0,063
128,151	23,127	-0,180	-0,103
129,166	104,173	-0,201	-0,166
130,181	69,664	-0,206	-0,149
131,195	81,942	-0,307	-0,233
132,210	42,478	-0,359	-0,228
133,224	-19,947	-0,316	-0,136
134,239	249,264	-0,201	-0,240
135,254	586,999	-0,216	-0,374
136,268	14,067	-0,291	-0,158
137,283	-54,933	-0,386	-0,121
138,297	225,023	-0,233	-0,264
139,312	137,903	-0,277	-0,255
140,327	611,111	-0,141	-0,248
141,341	257,573	-0,229	-0,277
142,356	467,509	-0,162	-0,255
143,370	129,759	-0,287	-0,257
144,385	104,388	-0,276	-0,227
145,400	800,000	-0,142	-0,284
146,414	243,667	-0,221	-0,260
147,429	-57,414	-0,287	-0,088
148,443	93,512	-0,288	-0,228
149,458	155,451	-0,152	-0,147
150,473	83,542	-0,218	-0,166
151,487	-25,651	-0,339	-0,139
152,502	29,618	-0,224	-0,133
153,516	275,205	-0,343	-0,426
154,531	95,056	-0,252	-0,200
155,546	558,026	-0,148	-0,250
156,560	3,926	-0,228	-0,116
157,575	-14,337	-0,275	-0,123
158,589	-104,999	-0,257	-0,041
159,604	22,394	-0,245	-0,140
160,619	800,000	-0,132	-0,286
161,633	36,024	-0,213	-0,131
162,648	239,963	-0,211	-0,246
163,662	-94,619	-0,317	-0,060
164,677	75,271	-0,075	-0,055
165,692	-102,942	-0,203	-0,033
166,706	-116,508	-0,246	-0,031
167,721	311,016	-0,195	-0,255
168,735	178,732	-0,323	-0,330
169,750	196,162	-0,243	-0,259
170,764	-27,732	-0,102	-0,041
171,779	69,642	-0,224	-0,161
172,794	29,637	-0,234	-0,139
173,808	-43,114	-0,306	-0,107
174,823	71,801	-0,340	-0,247
175,837	4,894	-0,211	-0,108
176,852	58,159	-0,243	-0,166
177,867	-64,818	-0,093	-0,026
178,881	75,061	-0,148	-0,109
179,896	-45,014	-0,159	-0,055
180,910	206,050	-0,153	-0,166
181,925	262,113	-0,220	-0,267
182,940	279,365	-0,291	-0,364
183,954	800,000	-0,122	-0,250
184,969	107,686	-0,218	-0,181
185,983	372,135	-0,176	-0,250
186,998	136,297	-0,334	-0,303
188,013	66,026	-0,256	-0,180
189,027	800,000	-0,121	-0,286
190,042	-6,986	-0,271	-0,128
191,056	800,000	-0,140	-0,286
192,071	-178,346	-0,142	0,002
193,086	-119,407	-0,113	0,014
194,100	288,105	-0,097	-0,122
195,115	177,835	-0,187	-0,190
196,129	-36,814	-0,302	-0,112
197,144	290,642	-0,114	-0,145
198,159	219,750	-0,204	-0,228
199,173	50,225	-0,242	-0,159
200,188	23,217	-0,222	-0,127
201,202	12,041	-0,216	-0,116
202,217	273,468	-0,105	-0,130
203,232	724,894	-0,132	-0,246
204,246	-2,198	-0,337	-0,164
205,261	782,506	-0,165	-0,317
206,275	-115,656	-0,150	0,019
207,290	-12,611	-0,171	-0,077
208,304	159,124	-0,177	-0,171
209,319	270,691	-0,157	-0,193
210,334	-50,494	-0,290	-0,095
211,348	203,777	-0,164	-0,177
212,363	800,000	-0,132	-0,378
213,377	-115,794	-0,197	-0,025
214,392	343,332	-0,118	-0,162
215,407	-200,000	-0,009	-0,202
216,421	547,509	-0,162	-0,271
217,436	43,341	-0,318	-0,202
218,450	42,324	-0,162	-0,102
219,465	800,000	-0,100	-0,290
220,480	800,000	-0,068	-0,141
221,494	82,550	-0,290	-0,219
222,509	-200,000	-0,001	-0,132
223,523	39,108	-0,102	-0,063
224,538	331,700	-0,182	-0,245
225,553	212,512	-0,114	-0,125
226,567	79,808	-0,201	-0,150
227,582	199,717	-0,237	-0,253
228,596	118,187	-0,208	-0,178
229,611	-74,739	-0,166	-0,041
230,626	-2,722	-0,127	-0,061
231,640	-53,271	-0,197	-0,062
232,655	234,565	-0,183	-0,209
233,669	-66,941	-0,297	-0,081
234,684	55,710	-0,182	-0,122
235,699	50,093	-0,286	-0,187
236,713	-7,705	-0,216	-0,101
237,728	-3,060	-0,187	-0,090
238,742	210,148	-0,162	-0,176
239,757	800,000	-0,052	-0,137
240,772	-60,393	-0,174	-0,051
241,786	-115,820	-0,164	0,021
242,801	118,078	-0,245	-0,209
243,815	-14,479	-0,315	-0,140
244,830	469,047	-0,108	-0,169
245,844	-52,245	-0,271	-0,086
246,859	40,478	-0,214	-0,134
247,874	74,001	-0,158	-0,115
248,888	46,224	-0,130	-0,084
249,903	130,648	-0,193	-0,171
250,917	231,268	-0,120	-0,136
251,932	-200,000	-0,009	-0,129
252,947	600,357	-0,133	-0,230
253,961	50,984	-0,286	-0,188
254,976	81,842	-0,237	-0,178
255,990	21,970	-0,302	-0,170
257,005	-38,742	-0,244	-0,089
258,020	-101,927	-0,082	0,014
259,034	-22,470	-0,185	-0,077
260,049	30,719	-0,154	-0,091
261,063	113,609	-0,170	-0,143
262,078	121,278	-0,251	-0,216
263,093	126,918	-0,202	-0,177
264,107	112,479	-0,266	-0,223
265,122	-200,000	0,019	-0,074
266,136	85,608	-0,234	-0,178
267,151	38,432	-0,193	-0,119
268,166	-68,313	-0,198	-0,053
269,180	156,853	-0,213	-0,204
270,195	304,388	-0,100	-0,129
271,209	45,592	-0,224	-0,143
272,224	-41,701	-0,134	0,048
273,239	354,860	-0,080	-0,111
274,253	-2,170	-0,263	-0,127
275,268	98,322	-0,179	-0,143
276,282	208,119	-0,233	-0,252
277,297	472,175	-0,131	-0,205
278,312	477,898	-0,116	-0,183
279,326	305,114	-0,109	-0,140
280,341	85,768	-0,143	-0,109
281,355	354,183	-0,108	-0,148
282,370	-143,322	-0,208	-0,014
283,384	800,000	0,036	-0,095
284,399	678,317	-0,106	-0,191
285,414	141,993	-0,133	-0,122
286,428	-85,464	-0,254	-0,054
287,443	253,736	-0,084	-0,100
288,457	100,766	-0,183	-0,147
289,472	-96,482	-0,165	0,030
290,487	-133,612	-0,207	0,018
291,501	-57,296	-0,151	-0,045
292,516	110,652	-0,143	-0,119
293,530	643,189	-0,042	-0,075
294,545	-20,759	-0,231	-0,097
295,560	131,685	-0,149	-0,132
296,574	58,075	-0,174	-0,117
297,589	-68,787	-0,228	-0,060
298,603	28,734	-0,274	-0,160
299,618	192,449	-0,227	-0,237
300,633	107,332	-0,159	-0,131
301,647	-200,000	0,010	-0,034
302,662	379,611	-0,073	-0,104
303,676	22,499	-0,188	-0,106
304,691	35,522	-0,205	-0,124
305,706	73,603	-0,193	-0,140
306,720	-174,119	-0,186	-0,004
307,735	-58,846	-0,159	-0,047
308,749	-47,143	-0,077	-0,026
309,764	-59,895	-0,089	-0,026
310,779	111,776	-0,064	-0,053
311,793	36,000	-0,208	-0,126
312,808	253,392	-0,110	-0,130
313,822	-26,291	-0,137	-0,055
314,837	149,920	-0,153	-0,143
315,852	170,807	-0,185	-0,183
316,866	684,277	-0,079	-0,142
317,881	-200,000	-0,015	-0,049
318,895	-200,000	-0,030	-0,136
319,910	293,567	-0,138	-0,173
320,925	76,555	-0,192	-0,140
321,939	83,823	-0,067	-0,050
322,954	51,039	-0,115	-0,075
323,968	-95,513	-0,166	0,030
324,983	333,416	-0,124	-0,165
325,997	6,981	-0,119	0,061
327,012	32,327	-0,239	-0,142
328,027	109,439	-0,059	-0,048
329,041	-75,586	-0,191	-0,046
330,056	303,158	-0,078	-0,100
331,070	-73,221	-0,142	0,035
332,085	-200,000	-0,006	0,095
333,100	68,874	-0,117	-0,082
334,114	-100,325	-0,165	-0,028
335,129	800,000	-0,067	-0,166
336,143	339,822	-0,213	-0,287
337,158	800,000	-0,048	-0,094
338,173	130,563	-0,108	-0,095
339,187	323,486	-0,071	-0,093
340,202	-49,415	-0,148	-0,048
341,216	129,472	-0,103	-0,091
342,231	139,498	-0,165	-0,150
343,246	7,375	-0,139	-0,071
344,260	-38,937	-0,122	0,044
345,275	-3,731	-0,060	-0,028
346,289	-200,000	-0,038	-0,157
347,304	647,503	-0,045	-0,079
348,319	202,035	-0,172	-0,183
349,333	-56,202	-0,216	-0,066
350,348	3,789	-0,254	-0,127
351,362	92,635	-0,251	-0,195
352,377	-43,059	-0,146	-0,051
353,392	59,260	-0,244	-0,165
354,406	-99,370	-0,113	-0,019
355,421	209,906	1313,703	1417,459
356,435	161,573	1474,331	1417,984
