DTS Sentinel unit serial number:	SN410029Multiplexer serial number:	ORYXHardware model number:	OX2-SRSoftware version number:	ORYX F/W v4,00 Oryx Data Collector v3.7.2.0data status	okinstallation	B3 Nyhavnadifferential loss correction	single-endedforward channel	channel 1reverse channel	N/Adate	2023/11/30time	14:42:30forward acquisition time	300,00reverse acquisition time	0,00gamma	499,1914k internal	0,3208k external	0,3208temperature offset calibration	1,0000default loss term (dB/km)	0,3820temperature slope calibration	1,0000multiplexer offset coefficient	1,0000multiplexer slope coefficient	1,0000fibre end	0,00T internal ref (°C)	11,95T ext. ref 1 (°C)	-2,00T ext. ref 2 (°C)	-2,13length (m)	temperature (°C)	Stokes	anti-Stokes-744,400	280,397	-0,114	-0,149
-743,385	-200,000	-0,066	0,261
-742,371	433,902	-0,143	-0,226
-741,356	-200,000	-0,057	0,190
-740,342	199,132	-0,179	-0,200
-739,327	603,064	-0,150	0,272
-738,312	800,000	-0,035	-0,082
-737,298	-200,000	-0,055	0,462
-736,283	211,020	-0,278	-0,318
-735,269	-200,000	0,005	0,262
-734,254	74,267	-0,137	-0,104
-733,239	-44,431	-0,202	0,073
-732,225	431,992	-0,176	-0,277
-731,210	-30,843	0,131	0,053
-730,196	181,542	-0,086	-0,091
-729,181	12,199	-0,118	-0,066
-728,167	-200,000	-0,025	-0,111
-727,152	800,000	0,015	0,041
-726,137	-66,032	-0,048	-0,014
-725,123	800,000	0,048	0,143
-724,108	69,698	-0,040	0,030
-723,094	-200,000	0,004	-0,105
-722,079	-29,194	-0,101	-0,042
-721,064	-200,000	0,001	0,103
-720,050	101,821	-0,111	0,094
-719,035	800,000	0,034	-0,091
-718,021	-200,000	0,013	-0,108
-717,006	800,000	0,048	-0,109
-715,991	-67,438	-0,223	-0,063
-714,977	-126,028	-0,224	0,024
-713,962	-200,000	-0,016	-0,056
-712,948	800,000	0,036	-0,082
-711,933	-200,000	-0,025	0,113
-710,918	87,284	-0,100	-0,080
-709,904	-200,000	-0,031	-0,100
-708,889	-200,000	0,021	-0,113
-707,875	-4,937	-0,174	-0,087
-706,860	13,353	0,106	-0,059
-705,845	296,409	-0,038	-0,051
-704,831	800,000	0,037	0,085
-703,816	800,000	-0,066	0,205
-702,802	696,381	0,031	-0,059
-701,787	-200,000	-0,041	-0,152
-700,772	67,643	-0,012	-0,009
-699,758	675,625	-0,030	-0,057
-698,743	301,993	-0,035	0,047
-697,729	-58,649	-0,162	0,050
-696,714	482,727	-0,061	-0,101
-695,699	153,294	0,057	-0,057
-694,685	-200,000	-0,023	-0,129
-693,670	74,668	0,021	0,016
-692,656	115,475	-0,087	0,077
-691,641	18,748	-0,066	-0,038
-690,627	800,000	-0,032	0,068
-689,612	144,793	-0,044	-0,043
-688,597	-200,000	-0,018	-0,101
-687,583	-53,904	-0,178	-0,058
-686,568	-138,785	-0,115	-0,009
-685,554	800,000	0,085	0,189
-684,539	-200,000	0,012	0,146
-683,524	-200,000	-0,008	-0,103
-682,510	-200,000	-0,008	0,074
-681,495	34,039	-0,045	0,028
-680,481	70,637	-0,116	-0,086
-679,466	592,194	0,083	-0,149
-678,451	-200,000	0,001	0,036
-677,437	-63,772	0,086	0,025
-676,422	231,032	-0,077	0,091
-675,408	-200,000	0,022	-0,193
-674,393	520,538	-0,088	0,149
-673,378	45,157	-0,047	-0,031
-672,364	-155,311	-0,118	-0,005
-671,349	-200,000	0,016	0,085
-670,335	-200,000	0,028	0,144
-669,320	91,988	-0,031	0,025
-668,305	800,000	-0,018	0,043
-667,291	39,902	0,067	0,044
-666,276	-66,528	-0,128	0,036
-665,262	-10,920	-0,080	0,038
-664,247	-200,000	-0,008	-0,036
-663,232	-63,638	0,043	0,013
-662,218	643,361	0,064	0,119
-661,203	-98,007	-0,032	-0,006
-660,189	331,705	0,047	-0,066
-659,174	109,532	-0,059	0,051
-658,159	192,528	0,102	-0,111
-657,145	-73,380	-0,078	-0,020
-656,130	35,212	-0,039	0,025
-655,116	-138,011	0,095	-0,008
-654,101	172,029	0,081	0,085
-653,086	800,000	-0,063	-0,147
-652,072	-200,000	0,014	0,063
-651,057	78,871	-0,096	-0,074
-650,043	-10,740	0,103	0,049
-649,028	-88,570	0,078	0,017
-648,014	22,744	0,077	-0,045
-646,999	-200,000	0,006	0,166
-645,984	571,765	-0,023	-0,041
-644,970	524,665	0,056	-0,095
-643,955	79,109	-0,063	0,049
-642,941	-200,000	-0,021	-0,105
-641,926	-200,000	0,019	0,071
-640,911	-200,000	0,009	0,084
-639,897	-121,274	0,052	-0,006
-638,882	158,556	0,052	0,052
-637,868	-200,000	0,002	-0,016
-636,853	-44,754	-0,170	-0,061
-635,838	117,460	-0,145	-0,129
-634,824	507,834	0,024	0,041
-633,809	-95,915	-0,097	-0,018
-632,795	65,297	-0,132	0,096
-631,780	24,040	-0,037	-0,022
-630,765	-200,000	0,054	-0,196
-629,751	60,314	0,028	-0,020
-628,736	-79,081	-0,068	-0,017
-627,722	-200,000	-0,018	-0,162
-626,707	34,468	-0,132	0,083
-625,692	129,747	0,120	0,111
-624,678	145,254	-0,108	0,104
-623,663	134,167	-0,077	-0,072
-622,649	237,830	-0,056	0,067
-621,634	282,787	-0,083	-0,107
-620,619	800,000	0,037	-0,079
-619,605	800,000	-0,040	0,085
-618,590	-0,122	-0,052	-0,027
-617,576	-107,029	-0,036	-0,006
-616,561	800,000	-0,031	0,072
-615,546	59,609	0,064	-0,046
-614,532	126,752	-0,070	-0,064
-613,517	-146,403	-0,123	-0,008
-612,503	-114,206	-0,047	0,006
-611,488	275,540	-0,042	0,054
-610,474	121,459	-0,018	0,016
-609,459	-200,000	0,031	0,101
-608,444	267,344	-0,099	-0,126
-607,430	-36,759	-0,045	0,018
-606,415	642,470	-0,041	0,075
-605,401	112,792	-0,034	0,030
-604,386	96,266	0,090	0,074
-603,371	20,408	-0,085	-0,049
-602,357	-200,000	-0,005	-0,020
-601,342	43,892	-0,129	-0,085
-600,328	21,846	-0,142	-0,083
-599,313	591,586	0,046	-0,082
-598,298	0,300	0,065	0,033
-597,284	-178,827	0,218	0,003
-596,269	-200,000	0,006	-0,098
-595,255	-167,483	-0,032	0,001
-594,240	71,126	0,088	0,066
-593,225	-77,717	-0,076	-0,019
-592,211	-136,762	-0,083	0,007
-591,196	12,698	0,108	-0,060
-590,182	-17,768	-0,115	-0,052
-589,167	290,547	0,075	-0,099
-588,152	271,590	0,075	-0,095
-587,138	-27,686	-0,202	-0,084
-586,123	166,427	0,065	-0,066
-585,109	-96,465	0,060	0,011
-584,094	800,000	0,010	0,030
-583,079	-14,604	0,041	0,019
-582,065	420,803	-0,113	0,176
-581,050	142,969	0,076	0,073
-580,036	-11,076	0,071	-0,034
-579,021	-200,000	0,008	0,053
-578,006	-149,251	-0,086	-0,005
-576,992	69,309	0,056	-0,041
-575,977	-200,000	0,002	0,101
-574,963	311,354	0,100	0,136
-573,948	-64,574	0,054	0,016
-572,934	164,772	-0,158	0,161
-571,919	-138,955	-0,053	0,004
-570,904	379,196	-0,080	-0,119
-569,890	-200,000	-0,007	-0,066
-568,875	-200,000	-0,014	-0,058
-567,861	-200,000	0,006	0,152
-566,846	161,378	0,092	0,092
-565,831	800,000	0,018	0,044
-564,817	-119,597	-0,064	-0,008
-563,802	146,709	0,039	-0,038
-562,788	276,540	0,032	-0,041
-561,773	167,723	0,076	-0,078
-560,758	-148,595	0,133	0,008
-559,744	-200,000	-0,024	-0,121
-558,729	-200,000	0,008	0,031
-557,715	-200,000	0,009	-0,039
-556,700	450,052	-0,126	-0,201
-555,685	-162,256	0,131	-0,005
-554,671	800,000	0,008	-0,017
-553,656	22,407	0,192	-0,113
-552,642	88,740	0,041	0,033
-551,627	236,623	0,044	-0,053
-550,612	77,878	0,033	0,025
-549,598	406,792	-0,055	0,084
-548,583	-44,453	-0,062	0,022
-547,569	40,226	0,162	-0,105
-546,554	-200,000	0,051	0,000
-545,539	-200,000	0,000	0,011
-544,525	425,645	0,012	-0,018
-543,510	-200,000	0,002	0,032
-542,496	800,000	0,025	-0,057
-541,481	49,726	0,020	0,014
-540,466	-200,000	0,003	0,059
-539,452	135,625	-0,041	0,038
-538,437	108,746	-0,004	0,003
-537,423	-16,714	0,021	-0,010
-536,408	521,458	-0,034	0,057
-535,393	129,340	-0,070	-0,064
-534,379	332,678	-0,059	0,083
-533,364	156,719	-0,016	0,016
-532,350	-35,881	0,113	-0,044
-531,335	-64,146	0,126	-0,037
-530,321	46,795	-0,031	-0,021
-529,306	-114,081	-0,096	-0,013
-528,291	800,000	-0,030	0,070
-527,277	-200,000	-0,003	0,061
-526,262	91,331	-0,164	0,133
-525,248	800,000	-0,043	0,137
-524,233	-136,420	0,094	-0,008
-523,218	101,177	-0,053	-0,044
-522,204	-74,903	0,136	0,035
-521,189	356,445	-0,082	-0,118
-520,175	-46,159	0,015	-0,005
-519,160	-146,861	0,137	0,008
-518,145	626,037	-0,085	0,154
-517,131	-200,000	-0,007	0,079
-516,116	800,000	-0,040	0,088
-515,102	12,496	0,155	0,086
-514,087	415,760	-0,037	-0,056
-513,072	-8,932	0,117	-0,056
-512,058	-88,544	-0,041	0,009
-511,043	-91,537	0,109	-0,022
-510,029	184,755	-0,065	0,069
-509,014	-200,000	-0,010	0,042
-507,999	800,000	0,029	-0,065
-506,985	593,675	-0,023	0,041
-505,970	212,174	-0,121	0,138
-504,956	-200,000	0,022	0,162
-503,941	-200,000	-0,005	-0,053
-502,926	27,165	0,090	-0,054
-501,912	-24,102	0,063	-0,027
-500,897	-67,853	-0,167	0,047
-499,883	180,533	0,072	0,076
-498,868	800,000	0,041	-0,089
-497,853	171,864	0,008	0,008
-496,839	165,984	-0,043	0,044
-495,824	485,931	0,077	0,127
-494,810	-124,393	-0,048	-0,005
-493,795	178,282	0,032	-0,033
-492,781	-24,236	-0,080	0,034
-491,766	-20,860	-0,026	-0,012
-490,751	-125,395	-0,168	0,018
-489,737	-200,000	0,009	0,039
-488,722	-200,000	-0,044	0,185
-487,708	-200,000	-0,008	0,039
-486,693	-200,000	-0,002	0,021
-485,678	436,078	-0,022	0,035
-484,664	-40,597	-0,078	0,029
-483,649	-18,442	-0,078	0,035
-482,635	228,562	-0,053	0,063
-481,620	48,847	-0,062	-0,042
-480,605	-98,383	-0,048	-0,009
-479,591	800,000	-0,043	0,098
-478,576	-97,169	0,105	-0,020
-477,562	683,135	-0,019	0,035
-476,547	-200,000	0,006	0,090
-475,532	157,084	0,058	-0,057
-474,518	-14,187	-0,092	0,042
-473,503	800,000	-0,008	0,020
-472,489	-43,517	-0,184	0,066
-471,474	-200,000	-0,000	0,049
-470,459	-200,000	-0,002	-0,008
-469,445	800,000	0,059	-0,142
-468,430	752,598	-0,100	-0,195
-467,416	-200,000	0,017	0,138
-466,401	800,000	0,067	0,166
-465,386	772,898	-0,031	-0,060
-464,372	214,438	0,083	0,095
-463,357	12,353	0,122	-0,067
-462,343	-12,970	0,168	-0,078
-461,328	-200,000	-0,017	-0,127
-460,313	4,311	0,086	-0,045
-459,299	89,528	0,046	0,037
-458,284	27,462	0,113	0,068
-457,270	-200,000	0,013	0,128
-456,255	800,000	-0,020	0,048
-455,241	-200,000	-0,047	-0,170
-454,226	-200,000	0,005	-0,048
-453,211	-129,378	-0,060	0,006
-452,197	-134,708	0,102	-0,009
-451,182	-200,000	0,013	0,162
-450,168	800,000	0,024	-0,049
-449,153	-105,211	-0,109	0,018
-448,138	-45,977	-0,014	0,005
-447,124	7,609	0,091	-0,049
-446,109	-200,000	0,035	-0,116
-445,095	-61,738	-0,065	-0,019
-444,080	-200,000	-0,010	0,052
-443,065	6,730	0,128	0,068
-442,051	800,000	-0,021	-0,043
-441,036	-200,000	0,012	-0,137
-440,022	58,589	0,093	-0,066
-439,007	95,251	0,146	0,120
-437,992	125,936	0,073	-0,066
-436,978	-48,628	0,166	0,057
-435,963	-200,000	-0,012	-0,060
-434,949	37,363	0,067	-0,042
-433,934	237,946	0,101	-0,120
-432,919	-137,445	0,102	0,008
-431,905	132,578	-0,036	-0,033
-430,890	-135,129	0,115	0,010
-429,876	87,260	0,164	0,130
-428,861	76,816	0,052	0,040
-427,846	-121,533	0,155	-0,018
-426,832	800,000	-0,025	-0,055
-425,817	-200,000	0,003	-0,059
-424,803	286,080	-0,014	0,019
-423,788	549,167	0,041	-0,070
-422,773	-20,696	-0,158	0,069
-421,759	-131,194	0,067	0,006
-420,744	441,258	-0,046	-0,072
-419,730	-11,784	-0,069	-0,032
-418,715	-200,000	-0,005	0,025
-417,701	136,796	0,053	0,049
-416,686	105,056	0,103	0,087
-415,671	-113,557	-0,074	-0,010
-414,657	310,796	-0,068	-0,091
-413,642	-200,000	0,011	-0,041
-412,628	-143,004	-0,263	0,018
-411,613	48,167	0,072	-0,048
-410,598	-20,385	-0,071	-0,031
-409,584	-69,663	0,063	0,017
-408,569	800,000	-0,032	-0,072
-407,555	-200,000	0,037	0,169
-406,540	800,000	0,036	-0,078
-405,525	-200,000	-0,012	-0,060
-404,511	21,741	-0,131	0,076
-403,496	-200,000	0,012	-0,162
-402,482	32,670	-0,175	-0,108
-401,467	-200,000	-0,063	0,204
-400,452	-200,000	-0,019	0,102
-399,438	800,000	0,039	0,109
-398,423	-65,200	-0,071	-0,020
-397,409	168,314	0,036	-0,037
-396,394	-1,868	0,090	-0,045
-395,379	101,671	0,194	0,162
-394,365	-142,433	-0,032	0,002
-393,350	-160,809	-0,096	0,004
-392,336	77,378	-0,026	-0,020
-391,321	-41,846	-0,143	-0,052
-390,306	27,503	0,002	0,001
-389,292	-22,109	-0,016	0,007
-388,277	-200,000	-0,024	-0,082
-387,263	-200,000	0,003	-0,019
-386,248	25,043	0,147	0,087
-385,233	42,533	-0,078	0,051
-384,219	-200,000	0,022	0,085
-383,204	382,677	-0,048	-0,071
-382,190	-200,000	0,010	-0,100
-381,175	-200,000	0,010	-0,180
-380,160	100,096	-0,069	0,058
-379,146	179,085	0,039	0,040
-378,131	-96,656	-0,029	-0,005
-377,117	293,309	-0,049	-0,064
-376,102	800,000	0,026	-0,054
-375,088	140,330	0,049	0,046
-374,073	-200,000	0,022	0,086
-373,058	-200,000	-0,014	0,049
-372,044	247,399	0,136	0,164
-371,029	-19,721	0,105	0,046
-370,015	-200,000	-0,038	0,157
-369,000	-102,647	0,064	-0,011
-367,985	76,917	-0,086	-0,065
-366,971	-40,506	-0,070	-0,026
-365,956	14,353	0,047	-0,026
-364,942	-200,000	-0,021	0,073
-363,927	72,199	0,103	0,076
-362,912	800,000	-0,043	0,095
-361,898	296,244	0,065	0,086
-360,883	1,435	-0,071	0,036
-359,869	456,415	-0,065	-0,104
-358,854	-48,925	0,087	-0,029
-357,839	-92,202	0,094	0,019
-356,825	158,693	0,020	-0,020
-355,810	-200,000	-0,011	0,102
-354,796	-100,424	-0,057	0,010
-353,781	303,536	-0,084	0,112
-352,766	-200,000	0,012	0,087
-351,752	800,000	0,041	0,122
-350,737	276,507	-0,047	0,060
-349,723	800,000	0,012	-0,029
-348,708	501,039	0,007	-0,011
-347,693	20,781	0,043	-0,025
-346,679	30,802	-0,037	0,022
-345,664	64,321	-0,150	0,108
-344,650	406,317	-0,051	-0,077
-343,635	-105,255	0,126	0,020
-342,620	-200,000	-0,003	0,229
-341,606	-200,000	-0,024	0,088
-340,591	83,234	-0,037	-0,029
-339,577	67,123	-0,074	0,054
-338,562	343,770	0,049	0,069
-337,548	800,000	0,061	-0,145
-336,533	-47,496	-0,073	-0,025
-335,518	235,767	0,075	0,089
-334,504	52,957	-0,014	-0,009
-333,489	800,000	-0,048	-0,142
-332,475	800,000	0,038	-0,097
-331,460	257,971	-0,065	-0,080
-330,445	-200,000	-0,004	-0,034
-329,431	800,000	0,054	-0,118
-328,416	-200,000	-0,016	0,066
-327,402	-200,000	0,051	0,195
-326,387	800,000	0,012	0,024
-325,372	-200,000	-0,002	-0,223
-324,358	171,253	-0,035	-0,036
-323,343	59,112	-0,088	0,062
-322,329	-44,334	0,098	0,035
-321,314	607,555	-0,017	-0,030
-320,299	-66,103	0,124	0,035
-319,285	-200,000	0,013	0,106
-318,270	0,309	-0,118	-0,060
-317,256	-200,000	0,003	-0,075
-316,241	-25,818	-0,048	0,020
-315,226	-107,501	0,084	0,013
-314,212	124,204	0,118	-0,106
-313,197	-200,000	0,011	0,140
-312,183	-200,000	-0,002	-0,014
-311,168	-200,000	0,010	0,088
-310,153	-182,564	0,025	-0,000
-309,139	-130,644	0,109	-0,010
-308,124	86,053	0,020	0,016
-307,110	-89,546	0,154	-0,032
-306,095	6,358	0,009	-0,005
-305,080	-200,000	0,012	-0,046
-304,066	-130,005	-0,111	-0,011
-303,051	223,786	-0,072	-0,083
-302,037	-75,344	0,046	0,012
-301,022	-139,211	-0,021	0,002
-300,008	-200,000	-0,011	-0,067
-298,993	208,143	0,040	0,045
-297,978	594,107	-0,030	-0,052
-296,964	-95,982	-0,049	-0,009
-295,949	224,323	-0,072	0,083
-294,935	562,800	-0,095	-0,165
-293,920	-53,786	-0,102	-0,033
-292,905	-7,949	0,057	-0,027
-291,891	-68,210	0,131	0,036
-290,876	-24,483	-0,099	-0,042
-289,862	-200,000	-0,037	0,142
-288,847	-42,314	-0,110	-0,040
-287,832	-200,000	-0,011	-0,081
-286,818	1,994	0,047	-0,024
-285,803	-200,000	0,003	-0,107
-284,789	-198,572	0,150	0,001
-283,774	41,239	-0,099	0,063
-282,759	800,000	-0,028	-0,071
-281,745	800,000	0,027	-0,055
-280,730	278,339	0,058	-0,073
-279,716	800,000	0,019	-0,044
-278,701	-200,000	-0,015	0,056
-277,686	800,000	0,034	-0,086
-276,672	-128,773	0,110	0,011
-275,657	800,000	-0,019	0,054
-274,643	800,000	-0,028	-0,055
-273,628	16,567	-0,141	-0,079
-272,613	-52,606	0,140	-0,046
-271,599	311,545	0,064	0,085
-270,584	255,806	-0,106	0,129
-269,570	-34,164	0,076	0,029
-268,555	800,000	0,037	-0,110
-267,540	-125,025	-0,085	0,009
-266,526	-200,000	-0,031	-0,123
-265,511	-148,872	0,139	-0,008
-264,497	800,000	0,029	-0,065
-263,482	-200,000	-0,003	0,094
-262,467	-107,155	-0,036	-0,006
-261,453	-66,960	0,120	-0,034
-260,438	69,849	-0,057	-0,042
-259,424	3,706	-0,098	-0,051
-258,409	-200,000	-0,003	0,112
-257,395	-111,434	-0,116	0,017
-256,380	81,458	0,064	-0,049
-255,365	-200,000	-0,026	0,131
-254,351	-200,000	-0,001	0,012
-253,336	-39,902	0,013	-0,005
-252,322	-124,781	0,086	0,009
-251,307	800,000	-0,034	-0,101
-250,292	-111,368	-0,094	0,014
-249,278	105,171	0,059	-0,049
-248,263	800,000	0,058	0,129
-247,249	-133,941	-0,017	0,002
-246,234	373,256	-0,034	0,049
-245,219	800,000	-0,065	-0,151
-244,205	227,034	-0,054	-0,063
-243,190	158,867	-0,028	0,028
-242,176	68,601	-0,059	0,043
-241,161	-39,026	0,053	0,020
-240,146	-97,682	0,055	-0,010
-239,132	800,000	0,014	-0,042
-238,117	433,754	-0,113	-0,175
-237,103	800,000	0,012	0,029
-236,088	800,000	0,068	0,137
-235,073	-102,467	0,086	-0,014
-234,059	588,515	0,033	0,057
-233,044	62,455	-0,075	0,053
-232,030	260,407	-0,054	-0,067
-231,015	378,483	-0,016	-0,023
-230,000	115,327	0,106	-0,093
-228,986	-99,447	-0,070	-0,012
-227,971	-62,552	0,090	-0,027
-226,957	58,097	-0,081	-0,056
-225,942	-200,000	-0,015	-0,066
-224,927	-200,000	-0,008	0,064
-223,913	-98,044	0,043	0,008
-222,898	441,092	-0,059	-0,092
-221,884	-63,732	-0,065	0,019
-220,869	84,057	-0,040	-0,031
-219,855	50,084	0,223	-0,149
-218,840	337,393	-0,046	-0,064
-217,825	114,757	-0,085	0,073
-216,811	-56,323	-0,070	0,022
-215,796	-200,000	0,018	-0,101
-214,782	-200,000	0,032	-0,172
-213,767	800,000	-0,032	0,078
-212,752	108,719	-0,045	0,038
-211,738	487,572	-0,065	0,106
-210,723	607,704	0,029	0,051
-209,709	800,000	0,022	-0,055
-208,694	-200,000	-0,009	-0,094
-207,679	38,368	0,047	0,030
-206,665	-78,607	0,050	-0,012
-205,650	128,899	0,101	0,092
-204,636	-54,590	-0,100	-0,032
-203,621	800,000	-0,034	0,071
-202,606	-116,547	-0,095	-0,012
-201,592	32,733	-0,002	-0,001
-200,577	205,907	-0,058	0,064
-199,563	-200,000	0,023	-0,112
-198,548	-200,000	-0,009	0,055
-197,533	-85,061	0,201	-0,044
-196,519	-113,357	0,083	0,011
-195,504	155,092	-0,143	0,139
-194,490	267,327	0,103	-0,128
-193,475	-153,586	-0,136	-0,007
-192,460	87,998	0,047	0,037
-191,446	25,566	0,164	-0,097
-190,431	-57,179	0,089	-0,028
-189,417	697,515	0,025	0,046
-188,402	800,000	-0,080	0,174
-187,387	-200,000	-0,010	0,038
-186,373	-113,377	-0,129	0,018
-185,358	-56,075	0,100	0,032
-184,344	-200,000	0,001	0,039
-183,329	76,462	-0,146	0,110
-182,315	411,741	-0,021	0,031
-181,300	-125,466	-0,034	0,004
-180,285	582,823	0,054	-0,094
-179,271	644,819	-0,032	-0,058
-178,256	-200,000	-0,008	0,125
-177,242	-200,000	-0,009	0,063
-176,227	-200,000	-0,007	0,043
-175,212	53,271	-0,041	0,028
-174,198	-200,000	-0,011	-0,167
-173,183	-200,000	0,015	-0,139
-172,169	42,673	0,096	-0,062
-171,154	-15,075	-0,128	-0,058
-170,139	-19,459	0,104	0,046
-169,125	-90,069	0,177	0,036
-168,110	495,434	0,072	0,117
-167,096	-20,137	0,099	0,043
-166,081	-103,468	-0,069	0,011
-165,066	-200,000	0,018	-0,175
-164,052	371,042	0,064	-0,093
-163,037	-200,000	-0,054	-0,000
-162,023	132,129	0,048	-0,044
-161,008	429,132	-0,063	-0,097
-159,993	-200,000	0,016	-0,089
-158,979	216,855	-0,171	-0,193
-157,964	-200,000	0,031	-0,128
-156,950	-200,000	-0,023	0,096
-155,935	-106,430	0,038	-0,006
-154,920	-71,228	-0,027	-0,007
-153,906	77,221	-0,091	0,068
-152,891	517,953	-0,054	-0,090
-151,877	193,467	0,038	0,041
-150,862	-102,247	0,139	-0,023
-149,847	800,000	0,024	0,052
-148,833	-200,000	0,007	-0,218
-147,818	-45,880	0,057	0,020
-146,804	67,360	-0,119	0,086
-145,789	-65,153	0,122	-0,035
-144,775	-92,472	0,026	-0,005
-143,760	800,000	-0,026	-0,078
-142,745	-200,000	0,013	0,079
-141,731	800,000	-0,047	-0,110
-140,716	36,167	0,012	0,008
-139,702	-200,000	0,014	0,096
-138,687	-97,115	0,042	-0,008
-137,672	-200,000	-0,031	-0,127
-136,658	-200,000	0,017	0,052
-135,643	800,000	-0,026	0,077
-134,629	-200,000	-0,015	-0,173
-133,614	697,470	0,066	0,124
-132,599	-96,955	-0,046	0,008
-131,585	-102,526	-0,141	-0,024
-130,570	405,977	0,067	0,100
-129,556	-14,221	-0,040	-0,018
-128,541	-200,000	0,017	0,060
-127,526	-200,000	0,019	0,119
-126,512	-64,941	-0,075	0,021
-125,497	-200,000	0,005	0,023
-124,483	82,508	-0,079	-0,061
-123,468	-72,323	-0,110	0,029
-122,453	-200,000	-0,044	0,164
-121,439	164,651	0,046	0,046
-120,424	800,000	-0,052	0,123
-119,410	335,456	0,082	0,112
-118,395	255,194	-0,007	-0,008
-117,380	-200,000	-0,017	0,153
-116,366	-200,000	0,002	0,141
-115,351	-198,725	-0,195	-0,001
-114,337	-6,905	-0,149	-0,072
-113,322	-20,834	0,058	-0,025
-112,307	-200,000	0,015	0,173
-111,293	798,846	-0,025	0,048
-110,278	428,877	-0,040	0,061
-109,264	71,948	0,060	-0,044
-108,249	800,000	-0,041	-0,091
-107,234	-200,000	0,021	-0,073
-106,220	-200,000	0,010	-0,049
-105,205	228,126	-0,030	-0,035
-104,191	79,334	0,035	0,027
-103,176	-169,427	0,094	0,002
-102,162	19,584	0,129	0,073
-101,147	15,485	-0,093	0,052
-100,132	-138,885	-0,136	-0,010
-99,118	-200,000	0,031	0,158
-98,103	301,239	0,109	-0,142
-97,089	20,512	0,094	0,054
-96,074	-200,000	-0,010	0,033
-95,059	-200,000	-0,015	-0,086
-94,045	194,497	-0,062	-0,067
-93,030	800,000	-0,026	0,064
-92,016	-200,000	-0,027	-0,159
-91,001	-200,000	0,010	0,085
-89,986	-49,000	-0,101	-0,034
-88,972	-82,627	-0,129	0,029
-87,957	478,798	0,113	0,182
-86,943	546,294	0,081	0,137
-85,928	-200,000	0,005	-0,080
-84,913	19,718	0,039	0,022
-83,899	63,916	0,033	0,024
-82,884	800,000	-0,047	0,103
-81,870	-7,006	-0,101	0,048
-80,855	304,493	-0,030	-0,039
-79,840	-186,335	0,050	-0,000
-78,826	190,660	-0,165	-0,176
-77,811	-200,000	-0,018	-0,075
-76,797	-5,955	0,109	-0,052
-75,782	96,148	-0,044	-0,036
-74,767	-55,482	0,023	0,007
-73,753	680,015	0,048	0,088
-72,738	-200,000	-0,028	0,098
-71,724	487,434	-0,032	0,051
-70,709	800,000	-0,038	-0,074
-69,694	90,556	0,041	0,032
-68,680	62,202	-0,103	0,072
-67,665	-200,000	-0,025	0,089
-66,651	93,003	0,169	0,135
-65,636	96,945	-0,037	-0,030
-64,622	7,423	-0,077	-0,041
-63,607	800,000	0,026	-0,075
-62,592	800,000	-0,020	0,055
-61,578	-200,000	0,012	0,057
-60,563	-200,000	0,011	0,155
-59,549	345,383	0,055	0,077
-58,534	7,507	-1,781	-0,938
-57,519	453,932	-1,320	-2,073
-56,505	-200,000	-0,422	-4,446
-55,490	345,786	0,877	1,221
-54,476	800,000	5,033	11,313
-53,461	-200,000	20,115	329,664
-52,446	800,000	750,393	2317,298
-51,432	551,513	1658,438	2823,251
-50,417	75,033	1666,340	1238,903
-49,403	19,781	1539,221	873,204
-48,388	13,787	1461,406	800,033
-47,373	18,826	1451,710	818,915
-46,359	16,565	1441,014	802,075
-45,344	12,114	1436,523	778,332
-44,330	11,959	1434,958	776,715
-43,315	12,017	1433,196	776,007
-42,300	12,021	1431,395	775,019
-41,286	12,044	1430,137	774,420
-40,271	11,950	1429,038	773,347
-39,257	12,004	1427,602	772,795
-38,242	12,048	1426,310	772,271
-37,227	12,041	1425,202	771,609
-36,213	12,034	1423,926	770,854
-35,198	12,028	1422,901	770,243
-34,184	12,047	1421,935	769,779
-33,169	12,028	1420,406	768,831
-32,154	12,053	1419,514	768,435
-31,140	12,116	1417,977	767,868
-30,125	12,065	1417,030	767,086
-29,111	12,070	1415,971	766,504
-28,096	12,047	1414,854	765,759
-27,082	11,992	1413,631	764,808
-26,067	12,007	1412,847	764,427
-25,052	11,990	1411,785	763,743
-24,038	11,984	1410,534	763,007
-23,023	11,991	1409,660	762,536
-22,009	11,955	1408,464	761,689
-20,994	11,964	1407,706	761,290
-19,979	11,894	1407,117	760,619
-18,965	11,930	1405,951	760,125
-17,950	11,927	1405,013	759,571
-16,936	11,974	1403,971	759,198
-15,921	11,915	1402,994	758,367
-14,906	11,824	1402,340	757,557
-13,892	11,920	1401,267	757,395
-12,877	11,901	1400,321	756,767
-11,863	11,888	1399,425	756,188
-10,848	11,880	1398,302	755,518
-9,833	11,823	1397,743	754,919
-8,819	11,829	1396,770	754,394
-7,804	11,773	1396,069	753,725
-6,790	11,792	1395,108	753,263
-5,775	11,808	1394,037	752,728
-4,760	11,822	1392,997	752,201
-3,746	11,819	1391,827	751,528
-2,731	11,759	1391,266	750,917
-1,717	11,761	1390,496	750,479
-0,702	11,765	1388,553	749,421
0,313	15,787	1303,786	722,136
1,327	31,972	697,262	423,224
2,342	49,756	121,565	80,738
3,356	-0,941	16,581	8,256
4,371	4,796	3,223	1,666
5,386	4,972	0,697	0,361
6,400	577,388	0,177	0,307
7,415	54,238	-0,233	-0,158
8,429	106,530	-0,245	-0,205
9,444	276,850	-0,204	-0,256
10,459	179,690	-0,240	-0,248
11,473	104,239	-0,219	-0,181
12,488	-11,143	-0,346	-0,160
13,502	22,670	-0,308	-0,178
14,517	6,521	-0,309	-0,161
15,531	321,339	-0,240	-0,323
16,546	354,641	-0,253	-0,356
17,561	114,118	-0,319	-0,274
18,575	22,032	-0,205	-0,118
19,590	48,173	-0,183	-0,120
20,604	-19,242	-0,370	-0,161
21,619	98,772	-0,451	-0,367
22,634	73,921	-0,409	-0,302
23,648	162,116	-0,412	-0,407
24,663	-2,604	-0,454	-0,223
25,677	103,602	-0,416	-0,344
26,692	130,120	-0,331	-0,298
27,707	111,951	-0,277	-0,236
28,721	57,997	-0,512	-0,352
29,736	265,204	-0,299	-0,368
30,750	58,651	-0,435	-0,301
31,765	-42,564	-0,461	-0,164
32,780	322,183	-0,202	-0,272
33,794	162,842	-0,257	-0,254
34,809	39,363	-0,366	-0,230
35,823	51,635	-0,339	-0,227
36,838	0,579	-0,516	-0,259
37,853	27,142	-0,325	-0,192
38,867	-17,472	-0,416	-0,183
39,882	16,482	-0,378	-0,210
40,896	70,181	-0,294	-0,213
41,911	-32,273	-0,439	-0,171
42,926	116,374	-0,296	-0,255
43,940	-65,870	-0,402	-0,112
44,955	98,632	-0,401	-0,325
45,969	78,240	-0,297	-0,223
46,984	84,540	-0,335	-0,258
47,999	9,687	-0,274	-0,146
49,013	113,694	-0,374	-0,319
50,028	433,437	-0,255	-0,391
51,042	349,525	-0,245	-0,341
52,057	117,789	-0,266	-0,230
53,071	41,781	-0,286	-0,182
54,086	100,337	-0,211	-0,172
55,101	170,670	-0,301	-0,303
56,115	-198,335	-0,451	0,002
57,130	53,516	-0,197	-0,132
58,144	-92,590	-0,534	-0,104
59,159	84,555	-0,452	-0,347
60,174	87,664	-0,393	-0,305
61,188	-76,768	-0,318	-0,078
62,203	98,884	-0,315	-0,255
63,217	13,919	-0,282	-0,154
64,232	275,401	-0,235	-0,293
65,247	-24,350	-0,482	-0,201
66,261	-5,237	-0,330	-0,159
67,276	259,624	-0,268	-0,326
68,290	23,795	-0,357	-0,206
69,305	45,903	-0,323	-0,209
70,320	46,580	-0,253	-0,165
71,334	-29,538	-0,457	-0,182
72,349	214,883	-0,231	-0,257
73,363	107,954	-0,331	-0,277
74,378	36,796	-0,325	-0,201
75,393	726,658	-0,227	-0,426
76,407	125,447	-0,288	-0,255
77,422	800,000	-0,127	-0,271
78,436	346,629	-0,213	-0,295
79,451	-90,603	-0,243	-0,049
80,466	50,414	-0,353	-0,234
81,480	181,853	-0,210	-0,217
82,495	-1,183	-0,459	-0,227
83,509	35,829	-0,158	-0,097
84,524	-90,933	-0,225	-0,045
85,539	21,767	-0,231	-0,132
86,553	184,201	-0,245	-0,255
87,568	153,160	-0,244	-0,234
88,582	-27,949	-0,324	-0,131
89,597	-22,445	-0,354	-0,150
90,611	122,975	-0,210	-0,185
91,626	71,983	-0,275	-0,200
92,641	110,606	-0,266	-0,224
93,655	86,314	-0,255	-0,196
94,670	222,285	-0,255	-0,288
95,684	123,557	-0,273	-0,240
96,699	7,209	-0,283	-0,147
97,714	37,009	-0,260	-0,161
98,728	33,013	-0,266	-0,161
99,743	800,000	-0,099	-0,235
100,757	-100,611	-0,274	-0,047
101,772	63,143	-0,309	-0,217
102,787	179,891	-0,209	-0,215
103,801	53,104	-0,316	-0,211
104,816	72,438	-0,278	-0,202
105,830	49,751	-0,145	-0,095
106,845	-53,902	-0,186	0,059
107,860	15,175	-0,296	-0,162
108,874	73,739	-0,177	-0,130
109,889	264,445	-0,225	-0,274
110,903	203,677	-0,238	-0,258
111,918	97,058	-0,301	-0,242
112,933	37,811	-0,283	-0,175
113,947	110,304	-0,201	-0,169
114,962	111,149	-0,149	-0,126
115,976	88,860	-0,252	-0,196
116,991	145,659	-0,312	-0,292
118,006	56,880	-0,204	-0,139
119,020	-49,763	-0,191	-0,063
120,035	-42,339	-0,229	-0,081
121,049	-25,519	-0,228	-0,094
122,064	-55,018	-0,247	-0,077
123,079	-162,532	-0,206	-0,007
124,093	167,677	-0,252	-0,251
125,108	124,483	-0,270	-0,238
126,122	27,412	-0,393	-0,230
127,137	17,915	-0,198	-0,110
128,151	120,816	-0,245	-0,213
129,166	-132,507	-0,189	-0,017
130,181	72,467	-0,255	-0,185
131,195	758,259	-0,148	-0,281
132,210	-55,465	-0,250	-0,078
133,224	-21,428	-0,277	-0,117
134,239	800,000	-0,110	-0,214
135,254	49,461	-0,238	-0,156
136,268	130,106	-0,183	-0,164
137,283	34,979	-0,284	-0,173
138,297	-98,134	-0,178	0,032
139,312	-45,294	-0,155	-0,054
140,327	11,129	-0,279	-0,148
141,341	215,049	-0,281	-0,311
142,356	84,125	-0,216	-0,164
143,370	-12,963	-0,238	-0,107
144,385	67,086	-0,225	-0,160
145,400	47,349	-0,319	-0,207
146,414	-33,169	-0,376	-0,145
147,429	74,526	-0,277	-0,202
148,443	181,336	-0,189	-0,194
149,458	179,994	-0,230	-0,235
150,473	152,009	-0,135	-0,128
151,487	-155,973	-0,268	-0,012
152,502	-33,909	-0,334	-0,128
153,516	3,288	-0,287	-0,145
154,531	155,963	-0,231	-0,222
155,546	158,096	-0,218	-0,211
156,560	317,463	-0,192	-0,253
157,575	476,253	-0,019	-0,030
158,589	-92,845	-0,249	-0,048
159,604	135,331	-0,209	-0,190
160,619	179,027	-0,144	-0,147
161,633	-35,315	-0,266	-0,100
162,648	185,944	-0,276	-0,286
163,662	-26,693	-0,231	-0,094
164,677	-46,521	-0,249	-0,084
165,692	-38,720	-0,278	-0,102
166,706	1,161	-0,219	-0,109
167,721	102,448	-0,274	-0,223
168,735	152,216	-0,265	-0,252
169,750	-47,756	-0,229	-0,077
170,764	-84,570	-0,113	-0,025
171,779	565,033	-0,053	-0,090
172,794	117,131	-0,178	-0,152
173,808	-17,204	-0,271	-0,118
174,823	77,245	-0,232	-0,171
175,837	154,727	-0,211	-0,201
176,852	120,186	-0,220	-0,190
177,867	-5,681	-0,206	-0,098
178,881	30,988	-0,214	-0,127
179,896	-53,394	-0,217	-0,069
180,910	-69,025	-0,276	-0,073
181,925	401,009	-0,113	-0,166
182,940	282,016	-0,311	-0,388
183,954	608,520	-0,087	-0,152
184,969	278,511	-0,141	-0,175
185,983	69,386	-0,188	-0,134
186,998	169,926	-0,147	-0,146
188,013	800,000	-0,142	-0,327
189,027	233,358	-0,202	-0,231
190,042	83,672	-0,187	-0,142
191,056	179,754	-0,234	-0,238
192,071	-83,539	-0,243	-0,054
193,086	-10,509	-0,197	-0,090
194,100	270,157	-0,162	-0,198
195,115	283,423	-0,138	-0,172
196,129	66,030	-0,219	-0,154
197,144	44,095	-0,216	-0,137
198,159	43,512	-0,242	-0,153
199,173	-20,414	-0,234	-0,100
200,188	39,789	-0,206	-0,128
201,202	-19,078	-0,212	-0,091
202,217	-47,274	-0,268	-0,090
203,232	-91,999	-0,307	-0,060
204,246	786,642	-0,162	-0,310
205,261	236,536	-0,172	-0,198
206,275	-13,964	-0,253	-0,113
207,290	800,000	-0,085	-0,191
208,304	800,000	-0,050	-0,128
209,319	-130,159	-0,193	-0,018
210,334	501,262	-0,196	-0,315
211,348	128,558	-0,176	-0,155
212,363	70,055	-0,211	-0,151
213,377	91,101	-0,140	-0,109
214,392	82,026	-0,238	-0,178
215,407	73,213	-0,136	-0,098
216,421	-93,459	-0,154	-0,029
217,436	40,434	-0,154	-0,096
218,450	-23,200	-0,333	-0,138
219,465	6,329	-0,235	-0,121
220,480	592,844	-0,123	-0,212
221,494	-169,679	-0,167	-0,004
222,509	-87,283	-0,160	-0,033
223,523	-18,244	-0,283	-0,122
224,538	226,905	-0,128	-0,144
225,553	-45,741	-0,317	-0,108
226,567	-18,961	-0,255	-0,109
227,582	153,425	-0,230	-0,218
228,596	208,653	-0,217	-0,235
229,611	261,747	-0,208	-0,250
230,626	247,282	-0,155	-0,182
231,640	498,636	-0,143	-0,229
232,655	146,177	-0,109	-0,101
233,669	103,332	-0,167	-0,135
234,684	34,590	-0,164	-0,099
235,699	59,674	-0,051	0,035
236,713	800,000	-0,126	-0,258
237,728	372,806	-0,136	-0,192
238,742	206,328	-0,094	-0,101
239,757	800,000	-0,120	-0,253
240,772	99,907	-0,203	-0,163
241,786	454,865	-0,154	-0,237
242,801	-110,219	-0,176	0,025
243,815	-61,319	-0,219	-0,063
244,830	105,847	-0,215	-0,176
245,844	-118,169	-0,286	-0,035
246,859	-8,080	-0,258	-0,120
247,874	-34,838	-0,255	-0,096
248,888	201,583	-0,154	-0,164
249,903	547,913	-0,127	-0,210
250,917	-25,104	-0,137	-0,056
251,932	324,568	-0,113	-0,150
252,947	129,547	-0,035	0,031
253,961	313,165	-0,185	-0,241
254,976	-44,780	-0,171	-0,059
255,990	115,565	-0,209	-0,176
257,005	59,893	-0,168	-0,114
258,020	-161,476	-0,244	-0,009
259,034	-178,959	-0,131	0,002
260,049	12,638	-0,267	-0,142
261,063	315,333	-0,156	-0,203
262,078	251,195	-0,219	-0,257
263,093	-125,960	-0,206	0,021
264,107	519,167	-0,071	-0,115
265,122	84,779	-0,127	-0,096
266,136	-177,045	-0,236	-0,004
267,151	-0,326	-0,143	-0,070
268,166	76,830	-0,164	-0,120
269,180	-35,050	-0,286	-0,107
270,195	-28,796	-0,189	-0,074
271,209	719,803	0,054	-0,099
272,224	-108,799	-0,155	0,023
273,239	309,032	-0,117	-0,151
274,253	-7,793	-0,228	-0,106
275,268	-200,000	-0,005	-0,101
276,282	-179,371	-0,168	0,002
277,297	426,189	-0,178	-0,266
278,312	205,080	-0,034	-0,036
279,326	38,516	-0,206	-0,126
280,341	69,254	-0,112	-0,079
281,355	123,697	-0,262	-0,226
282,370	33,414	-0,182	-0,109
283,384	110,311	-0,208	-0,172
284,399	800,000	-0,092	-0,239
285,414	800,000	-0,075	-0,162
286,428	14,084	-0,193	-0,103
287,443	-16,999	-0,112	0,049
288,457	789,278	-0,124	-0,235
289,472	70,696	-0,159	-0,113
290,487	222,645	-0,057	-0,063
291,501	31,207	-0,179	-0,106
292,516	-80,412	-0,172	-0,039
293,530	-50,509	-0,108	-0,035
294,545	37,569	-0,197	-0,120
295,560	416,802	-0,110	-0,163
296,574	-81,748	-0,183	0,041
297,589	53,642	-0,137	-0,090
298,603	-49,745	-0,134	-0,043
299,618	189,684	-0,142	-0,147
300,633	-131,428	-0,195	-0,017
301,647	800,000	-0,047	-0,127
302,662	-41,143	-0,143	-0,051
303,676	373,436	-0,106	-0,148
304,691	-38,395	-0,232	-0,084
305,706	-88,396	-0,174	-0,035
306,720	196,492	-0,141	-0,148
307,735	-200,000	-0,017	-0,222
308,749	-119,188	-0,112	-0,013
309,764	800,000	-0,073	-0,206
310,779	-200,000	-0,001	0,028
311,793	-8,400	-0,098	0,045
312,808	80,226	-0,174	-0,129
313,822	-27,757	-0,301	-0,120
314,837	117,253	-0,182	-0,154
315,852	-71,717	-0,101	-0,026
316,866	-68,276	-0,112	-0,030
317,881	-73,831	-0,162	-0,040
318,895	452,813	-0,113	-0,172
319,910	-151,406	-0,173	-0,009
320,925	-94,798	-0,214	-0,039
321,939	-38,445	-0,183	-0,066
322,954	-122,340	-0,132	0,015
323,968	-170,003	-0,133	0,003
324,983	456,900	-0,050	0,076
325,997	108,282	-0,108	-0,089
327,012	-48,088	-0,313	-0,103
328,027	439,960	-0,040	-0,060
329,041	-76,877	-0,219	-0,052
330,056	680,685	-0,053	-0,096
331,070	-20,663	-0,112	0,047
332,085	131,820	-0,153	-0,135
333,100	-72,211	-0,193	-0,049
334,114	-200,000	-0,006	-0,081
335,129	199,967	-0,170	-0,179
336,143	-78,627	-0,216	-0,050
337,158	686,240	-0,071	-0,128
338,173	4,336	-0,091	-0,046
339,187	-23,481	-0,095	0,039
340,202	-87,107	-0,205	-0,042
341,216	75,004	-0,177	-0,127
342,231	-111,485	-0,113	0,016
343,246	-26,579	-0,206	-0,082
344,260	210,750	-0,086	-0,093
345,275	-187,748	-0,159	-0,001
346,289	-200,000	-0,013	-0,176
347,304	-86,000	-0,155	-0,032
348,319	367,623	-0,118	-0,164
349,333	89,817	-0,108	-0,083
350,348	800,000	-0,088	-0,234
351,362	-104,688	-0,089	0,014
352,377	-122,407	-0,177	-0,020
353,392	-47,431	-0,166	-0,055
354,406	800,000	-0,078	-0,154
355,421	206,503	1312,228	1400,210
356,435	158,819	1472,637	1400,708
