DTS Sentinel unit serial number:	SN410029Multiplexer serial number:	ORYXHardware model number:	OX2-SRSoftware version number:	ORYX F/W v4,00 Oryx Data Collector v3.7.2.0data status	okinstallation	B3 Nyhavnadifferential loss correction	single-endedforward channel	channel 1reverse channel	N/Adate	2023/12/02time	18:47:30forward acquisition time	300,00reverse acquisition time	0,00gamma	499,1914k internal	0,3200k external	0,3200temperature offset calibration	1,0000default loss term (dB/km)	0,3820temperature slope calibration	1,0000multiplexer offset coefficient	1,0000multiplexer slope coefficient	1,0000fibre end	0,00T internal ref (°C)	13,51T ext. ref 1 (°C)	-1,75T ext. ref 2 (°C)	-1,77length (m)	temperature (°C)	Stokes	anti-Stokes-744,400	68,540	-0,214	-0,159
-743,385	-200,000	-0,058	0,282
-742,371	800,000	-0,104	-0,232
-741,356	-200,000	0,092	0,398
-740,342	381,271	-0,062	-0,093
-739,327	-200,000	-0,023	0,266
-738,312	-2,848	-0,298	-0,151
-737,298	-200,000	0,020	0,218
-736,283	16,964	-0,287	-0,165
-735,269	-200,000	0,024	0,404
-734,254	441,289	-0,118	-0,189
-733,239	-200,000	-0,038	0,125
-732,225	190,072	-0,255	-0,279
-731,210	375,214	0,049	0,073
-730,196	155,819	-0,071	-0,071
-729,181	-200,000	-0,026	0,118
-728,167	151,437	-0,139	0,138
-727,152	-122,963	-0,070	-0,008
-726,137	67,651	-0,070	-0,052
-725,123	-114,701	-0,274	-0,038
-724,108	-53,235	-0,009	-0,003
-723,094	87,674	-0,109	-0,088
-722,079	140,756	-0,047	-0,046
-721,064	-47,918	-0,095	0,033
-720,050	97,087	-0,111	0,092
-719,035	-56,426	-0,032	0,010
-718,021	800,000	-0,047	-0,097
-717,006	800,000	0,089	-0,192
-715,991	-59,235	-0,151	-0,047
-714,977	800,000	-0,053	0,108
-713,962	-199,945	-0,066	0,000
-712,948	517,986	-0,080	0,137
-711,933	89,368	0,107	0,087
-710,918	158,219	-0,052	0,053
-709,904	-200,000	-0,109	-0,000
-708,889	565,389	0,054	-0,095
-707,875	-121,639	0,080	0,010
-706,860	228,695	0,031	-0,037
-705,845	315,362	0,036	-0,050
-704,831	386,680	-0,072	-0,108
-703,816	800,000	-0,009	0,019
-702,802	800,000	-0,056	-0,123
-701,787	-200,000	-0,009	-0,126
-700,772	800,000	-0,013	0,041
-699,758	-37,221	0,109	-0,042
-698,743	-200,000	0,021	-0,161
-697,729	678,492	0,077	0,146
-696,714	-41,806	0,097	0,036
-695,699	-3,575	-0,087	0,044
-694,685	-200,000	0,018	-0,091
-693,670	-117,035	-0,161	-0,021
-692,656	214,885	-0,054	-0,062
-691,641	-86,729	-0,049	0,011
-690,627	351,513	0,092	0,132
-689,612	139,247	0,119	0,113
-688,597	151,408	0,066	0,065
-687,583	-200,000	-0,010	0,104
-686,568	-8,364	0,057	0,028
-685,554	730,527	-0,041	-0,079
-684,539	-97,235	-0,138	-0,026
-683,524	40,141	-0,058	0,038
-682,510	55,891	-0,058	0,041
-681,495	800,000	0,068	-0,153
-680,481	800,000	-0,058	-0,130
-679,466	149,986	-0,123	-0,121
-678,451	-200,000	0,001	-0,035
-677,437	127,418	-0,084	-0,078
-676,422	-155,871	0,247	-0,011
-675,408	20,530	0,014	-0,008
-674,393	-144,385	-0,061	-0,004
-673,378	313,022	0,027	0,037
-672,364	5,564	0,116	-0,062
-671,349	276,267	0,064	-0,082
-670,335	58,998	-0,026	-0,018
-669,320	-25,033	0,074	-0,032
-668,305	800,000	0,027	-0,064
-667,291	39,369	-0,097	-0,063
-666,276	-0,453	-0,109	-0,056
-665,262	170,583	-0,051	-0,053
-664,247	-200,000	0,005	-0,166
-663,232	46,293	-0,117	-0,079
-662,218	800,000	-0,020	0,056
-661,203	83,992	-0,054	0,043
-660,189	-200,000	-0,008	-0,138
-659,174	18,665	-0,105	-0,061
-658,159	30,047	-0,100	0,062
-657,145	160,412	-0,036	0,037
-656,130	594,430	0,044	-0,080
-655,116	-61,874	-0,086	-0,026
-654,101	-200,000	-0,018	0,211
-653,086	112,818	-0,129	0,114
-652,072	-200,000	-0,014	-0,065
-651,057	506,839	-0,118	-0,200
-650,043	88,591	-0,184	-0,148
-649,028	92,357	-0,074	-0,060
-648,014	371,924	-0,047	0,070
-646,999	37,352	-0,084	0,054
-645,984	28,302	0,055	0,034
-644,970	416,512	0,040	0,062
-643,955	10,444	-0,061	-0,034
-642,941	-200,000	-0,029	-0,103
-641,926	-200,000	0,018	-0,089
-640,911	106,644	-0,045	-0,038
-639,897	638,743	-0,047	-0,088
-638,882	-200,000	-0,002	-0,030
-637,868	641,525	0,032	-0,060
-636,853	103,316	-0,063	-0,053
-635,838	-35,095	-0,134	0,053
-634,824	25,651	-0,117	0,070
-633,809	-7,132	0,050	-0,024
-632,795	-15,653	0,008	0,004
-631,780	-4,637	0,048	-0,024
-630,765	-200,000	-0,041	-0,137
-629,751	33,563	-0,038	-0,024
-628,736	81,323	-0,128	-0,100
-627,722	293,264	-0,111	0,148
-626,707	-29,625	0,078	-0,032
-625,692	96,407	0,132	0,109
-624,678	-200,000	0,003	-0,033
-623,663	349,155	-0,072	-0,104
-622,649	27,834	-0,125	-0,076
-621,634	228,223	-0,097	-0,115
-620,619	-41,967	0,100	0,037
-619,605	-21,974	0,118	-0,052
-618,590	800,000	-0,026	0,068
-617,576	95,199	0,092	0,076
-616,561	-200,000	-0,002	-0,106
-615,546	800,000	0,029	-0,067
-614,532	-159,290	-0,082	0,003
-613,517	292,007	0,034	-0,045
-612,503	-98,121	-0,057	-0,010
-611,488	-158,586	-0,026	-0,001
-610,474	-94,071	0,082	0,016
-609,459	-114,186	0,074	0,010
-608,444	-62,589	-0,098	0,029
-607,430	35,386	0,111	-0,070
-606,415	-200,000	-0,018	-0,124
-605,401	-12,615	0,113	0,053
-604,386	800,000	-0,017	0,047
-603,371	490,095	0,095	0,158
-602,357	-167,572	-0,133	-0,004
-601,342	208,850	0,076	-0,086
-600,328	-101,632	-0,228	-0,040
-599,313	63,255	0,024	-0,017
-598,298	129,419	-0,110	-0,102
-597,284	-200,000	0,015	-0,154
-596,269	311,147	-0,116	-0,158
-595,255	57,170	-0,019	-0,013
-594,240	96,307	0,116	-0,096
-593,225	265,826	-0,021	0,026
-592,211	800,000	-0,018	-0,049
-591,196	424,926	-0,058	-0,091
-590,182	-200,000	0,013	0,052
-589,167	-42,497	0,120	-0,044
-588,152	391,679	0,056	0,085
-587,138	-200,000	-0,042	0,155
-586,123	-28,035	-0,075	-0,031
-585,109	-32,770	-0,148	-0,059
-584,094	-200,000	-0,027	-0,091
-583,079	800,000	0,039	0,102
-582,065	552,175	0,035	-0,062
-581,050	-103,280	-0,102	-0,017
-580,036	349,863	-0,063	0,090
-579,021	800,000	0,016	0,041
-578,006	-200,000	0,003	-0,024
-576,992	722,612	-0,022	-0,042
-575,977	800,000	0,033	0,069
-574,963	484,358	0,034	0,055
-573,948	-83,254	-0,129	0,030
-572,934	655,201	-0,085	-0,159
-571,919	-200,000	-0,003	-0,044
-570,904	800,000	-0,059	0,119
-569,890	595,287	-0,122	-0,219
-568,875	444,334	-0,077	-0,123
-567,861	280,395	0,076	0,099
-566,846	301,692	0,031	-0,041
-565,831	230,141	0,052	-0,062
-564,817	-181,045	-0,120	-0,002
-563,802	378,179	-0,102	-0,151
-562,788	-130,242	-0,137	-0,013
-561,773	-131,758	-0,088	-0,008
-560,758	371,991	-0,043	0,063
-559,744	446,098	0,049	0,079
-558,729	-36,118	-0,051	0,020
-557,715	551,320	-0,037	-0,064
-556,700	420,866	-0,076	-0,118
-555,685	-200,000	-0,007	0,126
-554,671	-200,000	-0,003	0,063
-553,656	148,022	-0,162	0,158
-552,642	800,000	0,085	0,199
-551,627	690,168	0,062	0,118
-550,612	103,055	0,065	-0,055
-549,598	730,501	0,020	-0,038
-548,583	-200,000	0,016	0,054
-547,569	666,230	-0,025	-0,047
-546,554	133,698	0,065	-0,060
-545,539	-200,000	-0,021	0,100
-544,525	-182,065	0,046	-0,001
-543,510	-200,000	-0,001	-0,046
-542,496	-113,515	-0,055	-0,008
-541,481	-42,479	-0,216	0,079
-540,466	-200,000	0,021	-0,078
-539,452	-200,000	0,026	-0,095
-538,437	-89,806	0,103	0,022
-537,423	-16,539	0,036	0,016
-536,408	-66,464	0,088	0,025
-535,393	-138,909	-0,140	0,011
-534,379	-86,816	0,089	0,019
-533,364	-200,000	0,016	-0,079
-532,350	-200,000	0,030	-0,113
-531,335	170,841	0,077	-0,079
-530,321	-200,000	-0,015	-0,060
-529,306	70,531	-0,026	0,020
-528,291	210,030	-0,066	-0,075
-527,277	191,941	-0,117	0,127
-526,262	4,950	-0,006	0,003
-525,248	-84,890	0,121	-0,027
-524,233	67,091	0,039	0,029
-523,218	800,000	0,018	0,054
-522,204	800,000	0,065	0,160
-521,189	800,000	0,015	0,043
-520,175	-17,497	-0,051	-0,023
-519,160	14,404	0,101	0,057
-518,145	800,000	0,051	-0,109
-517,131	614,303	0,046	0,084
-516,116	109,896	-0,069	0,060
-515,102	254,956	0,041	0,051
-514,087	-200,000	-0,032	-0,140
-513,072	150,586	-0,104	-0,102
-512,058	-200,000	-0,023	0,088
-511,043	-200,000	0,007	-0,050
-510,029	-113,260	-0,084	-0,012
-509,014	119,489	-0,103	-0,092
-507,999	-45,772	0,162	-0,057
-506,985	263,021	0,027	0,034
-505,970	83,975	0,153	-0,120
-504,956	-131,570	-0,123	-0,012
-503,941	-200,000	-0,000	0,061
-502,926	-80,263	0,119	-0,028
-501,912	-18,485	-0,010	0,004
-500,897	27,685	-0,104	-0,063
-499,883	159,190	-0,096	-0,096
-498,868	54,502	-0,128	0,089
-497,853	-200,000	0,003	0,018
-496,839	-65,247	0,107	-0,031
-495,824	733,208	-0,032	-0,062
-494,810	-200,000	-0,001	0,171
-493,795	-106,250	-0,056	0,009
-492,781	58,832	-0,070	-0,049
-491,766	100,301	0,076	-0,063
-490,751	-5,353	-0,058	-0,028
-489,737	-79,958	0,030	-0,007
-488,722	265,342	0,067	-0,084
-487,708	-200,000	0,011	0,130
-486,693	-200,000	0,007	0,060
-485,678	15,750	-0,064	0,036
-484,664	-200,000	0,011	-0,068
-483,649	137,320	-0,064	0,060
-482,635	800,000	-0,011	-0,033
-481,620	130,660	-0,017	0,015
-480,605	-40,372	0,031	0,011
-479,591	71,994	0,121	0,091
-478,576	77,506	0,058	0,044
-477,562	-87,237	-0,130	-0,028
-476,547	54,698	0,034	0,024
-475,532	800,000	-0,057	0,169
-474,518	-120,357	-0,031	0,004
-473,503	24,267	0,118	0,070
-472,489	-105,639	-0,061	-0,010
-471,474	105,265	0,043	-0,036
-470,459	190,021	-0,079	-0,086
-469,445	11,039	-0,122	0,067
-468,430	-2,082	0,086	0,043
-467,416	-159,200	-0,026	-0,001
-466,401	-23,262	0,117	0,050
-465,386	-31,148	0,065	-0,026
-464,372	590,738	0,042	0,075
-463,357	800,000	-0,079	-0,160
-462,343	800,000	0,054	-0,128
-461,328	800,000	0,063	0,141
-460,313	353,650	0,045	-0,065
-459,299	79,292	-0,067	-0,052
-458,284	800,000	-0,027	0,056
-457,270	77,599	0,015	0,011
-456,255	800,000	-0,043	0,124
-455,241	-159,884	-0,119	-0,005
-454,226	126,014	-0,106	-0,097
-453,211	-110,719	-0,086	-0,013
-452,197	195,941	0,047	-0,052
-451,182	-200,000	0,009	0,057
-450,168	800,000	0,042	-0,101
-449,153	-57,404	0,057	-0,018
-448,138	-84,478	-0,147	-0,033
-447,124	642,441	0,014	-0,025
-446,109	163,973	0,103	-0,104
-445,095	800,000	0,019	0,047
-444,080	119,388	-0,069	0,061
-443,065	-9,870	-0,062	0,029
-442,051	790,328	0,001	-0,002
-441,036	80,749	0,083	-0,065
-440,022	-54,764	0,039	-0,013
-439,007	-193,660	-0,060	0,000
-437,992	-200,000	-0,010	0,056
-436,978	136,528	0,043	0,041
-435,963	90,725	0,093	0,075
-434,949	-200,000	-0,010	-0,206
-433,934	-200,000	-0,002	-0,051
-432,919	-109,013	-0,162	0,025
-431,905	264,743	-0,015	0,019
-430,890	-148,192	0,092	-0,005
-429,876	377,695	0,119	0,175
-428,861	-4,057	0,052	-0,026
-427,846	-31,636	0,057	-0,023
-426,832	-58,829	0,011	-0,004
-425,817	-200,000	0,037	-0,152
-424,803	58,246	0,028	0,019
-423,788	-200,000	0,013	0,113
-422,773	-111,272	-0,051	0,007
-421,759	800,000	0,020	0,045
-420,744	-200,000	0,045	-0,163
-419,730	732,766	0,060	-0,116
-418,715	221,973	-0,024	-0,028
-417,701	-200,000	-0,000	0,092
-416,686	-200,000	0,011	-0,042
-415,671	67,955	0,065	0,048
-414,657	-149,795	0,080	0,004
-413,642	800,000	-0,015	-0,033
-412,628	115,626	0,036	-0,032
-411,613	800,000	-0,045	-0,111
-410,598	-158,032	-0,103	-0,004
-409,584	-135,047	0,139	0,012
-408,569	192,504	-0,026	0,028
-407,555	37,741	0,040	0,026
-406,540	-84,202	0,109	-0,025
-405,525	800,000	0,025	-0,054
-404,511	219,009	0,068	-0,078
-403,496	273,175	0,064	-0,081
-402,482	146,528	0,068	-0,066
-401,467	20,671	-0,066	-0,038
-400,452	-31,657	0,186	0,075
-399,438	-200,000	0,039	0,147
-398,423	-200,000	0,012	0,089
-397,409	800,000	-0,015	0,040
-396,394	-10,135	-0,230	-0,109
-395,379	261,438	-0,065	0,081
-394,365	3,544	-0,053	0,028
-393,350	24,087	0,136	0,080
-392,336	800,000	-0,050	-0,122
-391,321	-38,989	-0,061	-0,023
-390,306	0,912	-0,108	-0,055
-389,292	-56,488	-0,071	-0,022
-388,277	265,591	-0,052	-0,065
-387,263	631,735	0,070	0,127
-386,248	-200,000	0,018	0,087
-385,233	800,000	0,033	0,097
-384,219	-130,885	-0,086	0,008
-383,204	-200,000	-0,047	-0,209
-382,190	-46,185	-0,052	-0,018
-381,175	196,737	-0,042	0,046
-380,160	-4,737	-0,099	0,049
-379,146	-200,000	-0,013	-0,077
-378,131	198,994	-0,104	-0,115
-377,117	-41,807	-0,027	0,010
-376,102	-79,310	0,060	0,014
-375,088	-200,000	-0,003	-0,112
-374,073	36,797	-0,104	-0,066
-373,058	-50,369	0,119	-0,040
-372,044	-79,848	0,128	0,031
-371,029	517,828	0,036	0,060
-370,015	-200,000	0,048	0,178
-369,000	-48,582	0,123	-0,042
-367,985	-42,112	0,128	0,047
-366,971	42,184	0,051	-0,033
-365,956	-72,411	-0,036	-0,009
-364,942	-141,046	-0,112	-0,008
-363,927	101,879	0,037	-0,031
-362,912	-22,314	-0,104	-0,045
-361,898	86,934	-0,150	-0,118
-360,883	800,000	0,030	-0,069
-359,869	-200,000	-0,007	0,039
-358,854	316,627	0,028	0,037
-357,839	-64,103	0,065	-0,019
-356,825	-200,000	0,010	0,192
-355,810	46,421	-0,128	-0,085
-354,796	288,967	-0,049	0,063
-353,781	498,592	-0,092	0,152
-352,766	-200,000	-0,022	0,235
-351,752	-51,815	-0,092	0,030
-350,737	668,610	0,052	0,096
-349,723	5,248	-0,031	-0,016
-348,708	-200,000	0,012	0,096
-347,693	-200,000	0,003	-0,010
-346,679	661,705	0,033	0,062
-345,664	-200,000	-0,034	-0,139
-344,650	800,000	0,072	-0,155
-343,635	80,559	-0,017	-0,013
-342,620	-120,629	-0,068	-0,008
-341,606	-108,821	-0,026	-0,004
-340,591	207,586	0,110	0,124
-339,577	46,295	-0,140	0,092
-338,562	282,878	-0,068	0,087
-337,548	131,288	-0,121	-0,111
-336,533	558,150	-0,035	0,061
-335,518	-56,379	0,065	0,020
-334,504	-200,000	-0,033	0,146
-333,489	320,019	-0,072	-0,098
-332,475	522,370	0,043	0,073
-331,460	-200,000	0,001	0,077
-330,445	-200,000	0,013	-0,104
-329,431	-200,000	-0,015	0,166
-328,416	80,517	0,027	-0,021
-327,402	-200,000	-0,021	0,073
-326,387	63,370	0,034	0,024
-325,372	275,424	-0,017	-0,022
-324,358	-200,000	0,012	-0,055
-323,343	264,772	-0,020	0,025
-322,329	645,519	0,039	-0,072
-321,314	800,000	-0,023	0,066
-320,299	-200,000	-0,003	-0,082
-319,285	-18,242	0,096	-0,043
-318,270	800,000	-0,047	-0,133
-317,256	-176,119	0,174	-0,003
-316,241	26,224	-0,067	-0,040
-315,226	-124,916	0,045	0,005
-314,212	-200,000	-0,005	-0,107
-313,197	800,000	0,010	0,030
-312,183	39,711	-0,041	0,026
-311,168	442,709	-0,030	-0,048
-310,153	-109,886	-0,036	0,005
-309,139	-200,000	0,024	0,075
-308,124	58,602	0,097	0,068
-307,110	68,137	0,036	0,026
-306,095	-142,823	0,061	-0,004
-305,080	-19,773	0,085	-0,037
-304,066	-37,006	-0,039	0,015
-303,051	65,993	0,047	0,034
-302,037	518,547	-0,019	0,032
-301,022	-200,000	-0,008	-0,084
-300,008	-172,581	0,107	-0,002
-298,993	295,350	0,023	0,030
-297,978	800,000	0,069	0,137
-296,964	800,000	-0,047	0,126
-295,949	800,000	0,033	0,090
-294,935	31,515	-0,036	0,022
-293,920	-149,955	0,067	-0,004
-292,905	-200,000	-0,012	0,067
-291,891	155,401	-0,027	0,027
-290,876	569,697	-0,031	-0,054
-289,862	-200,000	0,049	-0,169
-288,847	-200,000	0,006	-0,082
-287,832	-200,000	-0,030	-0,144
-286,818	-142,376	0,113	-0,008
-285,803	180,425	-0,031	0,032
-284,789	658,751	0,054	0,099
-283,774	-200,000	-0,033	0,160
-282,759	84,387	-0,055	0,043
-281,745	-65,038	0,036	-0,010
-280,730	145,235	-0,035	0,033
-279,716	-3,766	-0,066	0,033
-278,701	-33,344	-0,022	-0,009
-277,686	319,827	-0,074	0,101
-276,672	-200,000	0,008	0,084
-275,657	378,747	-0,035	0,052
-274,643	110,152	-0,044	0,038
-273,628	-200,000	-0,012	-0,098
-272,613	-7,783	0,141	0,068
-271,599	-47,098	0,235	0,082
-270,584	337,465	0,050	-0,069
-269,570	-65,629	0,153	-0,044
-268,555	-200,000	-0,034	0,134
-267,540	-117,337	-0,080	0,010
-266,526	-108,868	0,102	-0,015
-265,511	70,628	-0,071	-0,053
-264,497	-46,151	0,062	-0,022
-263,482	388,327	0,057	0,085
-262,467	-200,000	0,007	0,048
-261,453	-35,343	0,065	0,025
-260,438	-1,861	-0,114	-0,057
-259,424	800,000	-0,028	-0,071
-258,409	-200,000	0,018	-0,113
-257,395	-200,000	-0,005	0,055
-256,380	-200,000	0,007	0,075
-255,365	-132,932	0,148	0,013
-254,351	-190,636	0,127	-0,001
-253,336	27,261	-0,069	-0,041
-252,322	-26,039	0,042	-0,017
-251,307	14,956	0,021	-0,011
-250,292	-200,000	0,015	-0,145
-249,278	800,000	0,052	0,114
-248,263	154,099	0,022	-0,021
-247,249	302,254	-0,038	0,050
-246,234	54,448	-0,025	0,017
-245,219	8,616	-0,140	-0,075
-244,205	-96,558	0,101	0,019
-243,190	-200,000	0,018	0,141
-242,176	-18,854	0,156	0,069
-241,161	-125,665	-0,028	-0,003
-240,146	595,197	0,101	0,180
-239,132	201,514	-0,099	0,109
-238,117	93,364	-0,064	-0,052
-237,103	78,426	-0,067	-0,051
-236,088	-192,598	0,113	-0,001
-235,073	507,253	-0,030	0,050
-234,059	160,284	-0,090	0,090
-233,044	119,414	0,055	-0,048
-232,030	-107,243	-0,127	0,020
-231,015	305,195	-0,109	-0,145
-230,000	96,140	-0,026	0,021
-228,986	-149,835	0,055	0,003
-227,971	29,227	0,115	0,069
-226,957	-158,010	0,157	-0,006
-225,942	22,461	0,094	0,055
-224,927	-200,000	-0,130	-0,000
-223,913	310,231	0,076	0,101
-222,898	-15,473	-0,086	-0,039
-221,884	800,000	-0,030	-0,072
-220,869	262,675	-0,086	-0,107
-219,855	-128,507	0,156	0,016
-218,840	253,364	0,027	-0,033
-217,825	241,139	0,094	-0,112
-216,811	-82,287	0,119	-0,027
-215,796	-50,622	-0,108	0,036
-214,782	22,698	0,089	0,052
-213,767	-200,000	-0,009	-0,099
-212,752	181,623	0,117	0,123
-211,738	94,337	0,156	0,126
-210,723	67,215	0,037	-0,027
-209,709	800,000	0,048	-0,134
-208,694	3,311	-0,028	-0,014
-207,679	-200,000	0,021	-0,101
-206,665	281,985	0,032	0,041
-205,650	-146,097	0,034	0,002
-204,636	108,988	0,102	0,087
-203,621	223,204	-0,087	-0,100
-202,606	-12,348	0,080	-0,037
-201,592	800,000	-0,054	0,107
-200,577	-200,000	-0,000	0,064
-199,563	-98,323	0,107	0,019
-198,548	800,000	0,016	-0,034
-197,533	800,000	-0,038	0,109
-196,519	800,000	0,014	-0,042
-195,504	-200,000	-0,006	-0,051
-194,490	800,000	-0,031	-0,060
-193,475	26,673	0,067	-0,040
-192,460	-29,019	0,075	0,030
-191,446	-200,000	-0,005	0,209
-190,431	-9,934	0,214	0,101
-189,417	-200,000	0,043	0,149
-188,402	-200,000	0,011	-0,091
-187,387	-9,777	-0,070	-0,033
-186,373	-116,268	-0,037	0,005
-185,358	-200,000	0,004	-0,140
-184,344	-200,000	0,012	0,061
-183,329	-42,390	-0,090	-0,033
-182,315	38,713	0,045	0,028
-181,300	800,000	0,017	-0,051
-180,285	22,781	-0,134	-0,078
-179,271	-200,000	-0,003	0,073
-178,256	800,000	-0,033	-0,091
-177,242	-126,375	-0,086	0,009
-176,227	-200,000	-0,016	0,118
-175,212	-200,000	0,010	-0,118
-174,198	800,000	0,023	0,065
-173,183	-100,521	-0,183	0,032
-172,169	48,123	0,021	-0,014
-171,154	104,918	-0,039	0,033
-170,139	-200,000	0,008	-0,093
-169,125	-200,000	0,006	-0,088
-168,110	-200,000	0,014	0,061
-167,096	144,893	-0,127	0,121
-166,081	114,995	-0,107	-0,093
-165,066	-80,027	0,168	-0,040
-164,052	-200,000	0,018	-0,065
-163,037	-85,606	0,042	-0,009
-162,023	147,542	0,044	0,042
-161,008	800,000	0,017	0,048
-159,993	101,142	0,073	0,060
-158,979	-58,516	-0,039	-0,012
-157,964	-92,687	0,106	0,021
-156,950	-109,916	-0,106	0,016
-155,935	-185,211	0,119	-0,001
-154,920	221,826	-0,110	0,125
-153,906	-133,196	0,068	-0,006
-152,891	800,000	-0,018	-0,042
-151,877	-33,106	-0,078	-0,031
-150,862	-156,728	-0,083	0,004
-149,847	303,366	0,060	-0,079
-148,833	57,868	0,102	-0,071
-147,818	800,000	0,015	0,042
-146,804	-200,000	-0,009	-0,054
-145,789	41,146	0,047	-0,030
-144,775	-200,000	-0,010	-0,066
-143,760	108,113	-0,050	0,042
-142,745	149,564	0,037	0,036
-141,731	103,150	0,052	-0,043
-140,716	-52,041	-0,091	-0,030
-139,702	-200,000	-0,012	-0,075
-138,687	-68,331	-0,076	-0,021
-137,672	407,178	0,081	0,122
-136,658	-200,000	0,008	0,097
-135,643	-200,000	0,008	0,027
-134,629	285,264	0,064	-0,082
-133,614	40,949	0,197	0,126
-132,599	-59,989	0,145	0,044
-131,585	-89,532	0,004	-0,001
-130,570	150,785	-0,041	0,040
-129,556	-52,358	-0,099	0,033
-128,541	318,720	-0,062	-0,084
-127,526	-124,413	-0,114	0,012
-126,512	-200,000	0,047	0,185
-125,497	-46,874	0,119	-0,041
-124,483	-200,000	0,015	0,137
-123,468	178,601	-0,062	0,064
-122,453	-200,000	0,027	-0,118
-121,439	-46,799	-0,137	-0,048
-120,424	-33,726	-0,092	-0,036
-119,410	-200,000	-0,013	0,090
-118,395	61,410	-0,110	-0,077
-117,380	-200,000	0,032	-0,104
-116,366	169,872	0,023	0,024
-115,351	1,957	-0,083	0,042
-114,337	800,000	0,008	-0,017
-113,322	-116,065	-0,045	-0,006
-112,307	-95,378	-0,082	-0,016
-111,293	-82,755	-0,064	0,014
-110,278	138,955	-0,023	-0,022
-109,264	-200,000	-0,012	0,079
-108,249	1,660	0,111	-0,057
-107,234	323,119	-0,067	-0,092
-106,220	800,000	-0,040	-0,093
-105,205	-73,444	0,124	0,032
-104,191	800,000	0,027	0,084
-103,176	3,181	0,144	-0,074
-102,162	800,000	0,026	-0,053
-101,147	-200,000	-0,006	0,201
-100,132	-129,164	-0,068	-0,007
-99,118	-200,000	-0,005	-0,125
-98,103	411,658	0,044	0,066
-97,089	73,838	0,057	0,042
-96,074	800,000	0,045	0,090
-95,059	800,000	-0,029	0,068
-94,045	-135,731	0,167	-0,014
-93,030	410,280	-0,046	0,069
-92,016	800,000	-0,063	-0,132
-91,001	0,987	-0,057	0,029
-89,986	-200,000	-0,008	-0,076
-88,972	-43,349	0,142	0,051
-87,957	800,000	0,032	0,062
-86,943	36,830	-0,047	0,029
-85,928	140,792	-0,047	-0,044
-84,913	95,698	0,079	-0,064
-83,899	-157,278	-0,076	-0,003
-82,884	13,894	-0,064	0,035
-81,870	-200,000	-0,027	-0,123
-80,855	-91,527	0,069	-0,014
-79,840	800,000	0,053	-0,107
-78,826	800,000	0,013	0,035
-77,811	234,302	0,055	-0,064
-76,797	-200,000	0,010	0,031
-75,782	800,000	-0,071	0,151
-74,767	250,260	-0,038	-0,046
-73,753	25,424	0,067	0,039
-72,738	-114,902	0,092	0,012
-71,724	119,152	-0,054	0,047
-70,709	-200,000	0,006	0,041
-69,694	-200,000	0,001	0,017
-68,680	-200,000	0,014	0,148
-67,665	-28,550	0,123	0,050
-66,651	800,000	-0,035	-0,069
-65,636	579,295	-0,029	0,050
-64,622	-200,000	0,038	0,174
-63,607	-135,564	-0,176	0,015
-62,592	22,525	-0,039	0,022
-61,578	-200,000	0,012	-0,109
-60,563	143,416	0,025	-0,024
-59,549	800,000	0,085	0,198
-58,534	-21,503	-1,618	-0,696
-57,519	376,186	-1,350	-1,957
-56,505	-200,000	-0,560	-4,435
-55,490	204,474	0,998	1,097
-54,476	800,000	4,907	11,370
-53,461	-200,000	19,132	318,620
-52,446	-200,000	739,872	2335,565
-51,432	575,352	1655,289	2873,759
-50,417	78,600	1671,360	1264,148
-49,403	21,492	1543,977	886,938
-48,388	15,393	1466,350	812,677
-47,373	17,888	1456,608	819,312
-46,359	16,772	1446,418	808,194
-45,344	13,635	1441,962	790,637
-44,330	13,558	1439,990	789,157
-43,315	13,586	1438,197	788,277
-42,300	13,591	1436,508	787,343
-41,286	13,591	1435,190	786,592
-40,271	13,587	1433,966	785,871
-39,257	13,590	1432,523	785,062
-38,242	13,592	1431,586	784,525
-37,227	13,594	1430,223	783,757
-36,213	13,598	1428,928	783,034
-35,198	13,643	1427,743	782,569
-34,184	13,659	1426,855	782,125
-33,169	13,559	1425,625	780,948
-32,154	13,623	1424,479	780,594
-31,140	13,626	1423,061	779,799
-30,125	13,652	1421,988	779,301
-29,111	13,644	1420,892	778,634
-28,096	13,629	1419,793	777,932
-27,082	13,571	1418,598	776,968
-26,067	13,545	1417,516	776,226
-25,052	13,499	1416,626	775,490
-24,038	13,547	1415,574	775,107
-23,023	13,542	1414,339	774,378
-22,009	13,504	1413,492	773,703
-20,994	13,467	1412,722	773,081
-19,979	13,474	1411,942	772,653
-18,965	13,430	1410,884	771,838
-17,950	13,491	1409,759	771,480
-16,936	13,505	1408,869	771,025
-15,921	13,460	1407,735	770,165
-14,906	13,431	1407,050	769,623
-13,892	13,448	1406,035	769,114
-12,877	13,440	1405,056	768,512
-11,863	13,455	1404,356	768,170
-10,848	13,425	1403,305	767,426
-9,833	13,437	1402,385	766,947
-8,819	13,358	1401,597	766,116
-7,804	13,402	1400,609	765,751
-6,790	13,375	1399,555	765,020
-5,775	13,359	1398,512	764,346
-4,760	13,366	1397,613	763,855
-3,746	13,302	1396,759	763,062
-2,731	13,348	1396,094	762,883
-1,717	13,365	1395,097	762,385
-0,702	13,309	1393,319	761,126
0,313	17,144	1310,644	733,745
1,327	33,408	704,096	431,792
2,342	51,540	123,321	82,820
3,356	0,817	16,693	8,433
4,371	-5,328	3,208	1,554
5,386	-10,190	0,640	0,299
6,400	-81,378	0,103	0,024
7,415	50,452	-0,296	-0,198
8,429	-26,401	-0,407	-0,168
9,444	39,155	-0,401	-0,253
10,459	360,463	-0,124	-0,176
11,473	21,052	-0,318	-0,182
12,488	85,892	-0,176	-0,137
13,502	97,423	-0,224	-0,182
14,517	101,850	-0,281	-0,231
15,531	-30,170	-0,304	-0,122
16,546	55,576	-0,313	-0,214
17,561	206,413	-0,373	-0,411
18,575	-54,765	-0,210	-0,067
19,590	-95,303	-0,240	-0,045
20,604	-87,395	-0,285	-0,060
21,619	20,491	-0,439	-0,250
22,634	136,456	-0,439	-0,405
23,648	89,681	-0,372	-0,293
24,663	-30,925	-0,383	-0,152
25,677	35,832	-0,484	-0,300
26,692	79,134	-0,360	-0,272
27,707	29,951	-0,382	-0,229
28,721	90,413	-0,326	-0,257
29,736	219,837	-0,319	-0,362
30,750	76,459	-0,370	-0,277
31,765	91,593	-0,337	-0,268
32,780	-33,516	-0,538	-0,209
33,794	-8,720	-0,330	-0,155
34,809	-16,964	-0,345	-0,153
35,823	392,003	-0,290	-0,427
36,838	210,469	-0,225	-0,250
37,853	32,162	-0,294	-0,178
38,867	-28,073	-0,436	-0,177
39,882	109,877	-0,358	-0,303
40,896	165,664	-0,311	-0,310
41,911	50,142	-0,374	-0,249
42,926	14,056	-0,359	-0,196
43,940	51,592	-0,407	-0,272
44,955	53,515	-0,449	-0,303
45,969	5,625	-0,404	-0,210
46,984	64,529	-0,323	-0,229
47,999	123,951	-0,297	-0,263
49,013	77,173	-0,345	-0,259
50,028	204,205	-0,245	-0,268
51,042	-9,455	-0,304	-0,143
52,057	80,756	-0,404	-0,307
53,071	80,710	-0,270	-0,205
54,086	330,738	-0,247	-0,337
55,101	111,346	-0,321	-0,272
56,115	15,319	-0,239	-0,132
57,130	110,070	-0,394	-0,333
58,144	39,280	-0,281	-0,177
59,159	53,972	-0,369	-0,250
60,174	251,084	-0,195	-0,234
61,188	-20,172	-0,310	-0,134
62,203	48,290	-0,259	-0,170
63,217	-20,183	-0,343	-0,148
64,232	454,290	-0,140	-0,219
65,247	223,519	-0,353	-0,401
66,261	122,708	-0,302	-0,266
67,276	323,754	-0,295	-0,397
68,290	459,893	-0,226	-0,356
69,305	6,456	-0,331	-0,173
70,320	49,563	-0,315	-0,208
71,334	15,916	-0,323	-0,178
72,349	3,004	-0,337	-0,171
73,363	11,272	-0,320	-0,172
74,378	12,873	-0,492	-0,266
75,393	195,940	-0,184	-0,197
76,407	0,519	-0,358	-0,179
77,422	45,666	-0,197	-0,128
78,436	76,449	-0,263	-0,196
79,451	-127,648	-0,336	-0,034
80,466	303,047	-0,198	-0,258
81,480	-10,010	-0,335	-0,156
82,495	-35,430	-0,182	-0,069
83,509	20,785	-0,258	-0,146
84,524	52,328	-0,249	-0,167
85,539	116,252	-0,141	-0,121
86,553	33,783	-0,405	-0,247
87,568	95,365	-0,283	-0,226
88,582	234,598	-0,261	-0,302
89,597	-72,357	-0,281	-0,073
90,611	174,375	-0,226	-0,229
91,626	97,677	-0,268	-0,216
92,641	-5,774	-0,219	-0,105
93,655	96,637	-0,199	-0,160
94,670	-40,390	-0,308	-0,112
95,684	173,242	-0,288	-0,292
96,699	331,091	-0,186	-0,253
97,714	26,300	-0,202	-0,118
98,728	-99,545	-0,105	-0,018
99,743	3,967	-0,374	-0,191
100,757	169,968	-0,285	-0,287
101,772	518,282	-0,237	-0,391
102,787	25,278	-0,221	-0,129
103,801	-54,783	-0,311	-0,098
104,816	33,728	-0,335	-0,204
105,830	-6,859	-0,225	-0,107
106,845	-83,745	-0,255	-0,057
107,860	-64,759	-0,335	-0,095
108,874	194,646	-0,318	-0,339
109,889	460,505	-0,106	-0,166
110,903	-2,590	-0,303	-0,148
111,918	169,161	-0,292	-0,292
112,933	186,701	-0,160	-0,167
113,947	-82,700	-0,270	-0,061
114,962	-200,000	-0,069	-0,221
115,976	-92,137	-0,251	-0,049
116,991	16,324	-0,276	-0,152
118,006	-128,855	-0,336	-0,033
119,020	25,567	-0,390	-0,227
120,035	67,886	-0,195	-0,139
121,049	-3,320	-0,286	-0,139
122,064	-131,680	-0,226	-0,021
123,079	97,981	-0,224	-0,181
124,093	20,442	-0,267	-0,151
125,108	132,645	-0,244	-0,220
126,122	-22,963	-0,300	-0,126
127,137	82,981	-0,297	-0,226
128,151	51,216	-0,292	-0,193
129,166	-36,661	-0,373	-0,140
130,181	-101,859	-0,229	0,038
131,195	-5,358	-0,213	-0,102
132,210	-38,564	-0,316	-0,116
133,224	417,319	-0,203	-0,305
134,239	-89,338	-0,264	-0,054
135,254	-25,072	-0,234	-0,097
136,268	800,000	-0,063	-0,142
137,283	310,319	-0,198	-0,259
138,297	92,304	-0,253	-0,199
139,312	100,157	-0,225	-0,182
140,327	240,233	-0,266	-0,310
141,341	-28,812	-0,257	-0,103
142,356	-118,986	-0,328	-0,040
143,370	69,804	-0,159	-0,115
144,385	312,686	-0,227	-0,299
145,400	41,499	-0,234	-0,148
146,414	146,228	-0,301	-0,282
147,429	199,011	-0,153	-0,164
148,443	135,915	-0,238	-0,217
149,458	39,619	-0,257	-0,160
150,473	-29,460	-0,213	-0,085
151,487	53,790	-0,270	-0,181
152,502	227,560	-0,193	-0,220
153,516	-137,154	-0,244	0,019
154,531	76,552	-0,179	-0,132
155,546	351,818	-0,138	-0,191
156,560	4,926	-0,230	-0,118
157,575	-48,711	-0,213	0,071
158,589	49,482	-0,176	-0,115
159,604	168,768	-0,234	-0,233
160,619	94,816	-0,323	-0,256
161,633	160,335	-0,250	-0,244
162,648	-71,065	-0,231	-0,060
163,662	113,011	-0,180	-0,152
164,677	241,637	-0,174	-0,204
165,692	136,327	-0,231	-0,210
166,706	-75,063	-0,264	-0,065
167,721	-45,927	-0,199	0,068
168,735	-42,295	-0,294	-0,104
169,750	1,331	-0,312	-0,156
170,764	136,712	-0,206	-0,187
171,779	-142,192	-0,226	-0,015
172,794	335,776	-0,109	-0,147
173,808	91,800	-0,212	-0,166
174,823	166,816	-0,235	-0,232
175,837	125,708	-0,284	-0,250
176,852	79,948	-0,201	-0,150
177,867	435,380	-0,116	-0,177
178,881	-39,603	-0,254	-0,092
179,896	-56,440	-0,321	-0,099
180,910	53,178	-0,193	-0,128
181,925	18,469	-0,358	-0,199
182,940	-52,760	-0,233	-0,074
183,954	47,438	-0,254	-0,165
184,969	-138,466	-0,167	0,013
185,983	14,170	-0,158	-0,085
186,998	-65,368	-0,225	-0,063
188,013	667,349	-0,134	-0,242
189,027	134,258	-0,240	-0,217
190,042	57,102	-0,346	-0,235
191,056	160,527	-0,251	-0,244
192,071	800,000	-0,084	-0,194
193,086	-158,556	-0,254	-0,010
194,100	108,484	-0,217	-0,181
195,115	81,073	-0,203	-0,152
196,129	800,000	-0,121	-0,281
197,144	32,295	-0,354	-0,212
198,159	16,368	-0,247	-0,136
199,173	293,255	-0,172	-0,219
200,188	94,422	-0,186	-0,147
201,202	50,052	-0,081	-0,053
202,217	-86,917	-0,140	-0,029
203,232	138,168	-0,177	-0,161
204,246	31,197	-0,267	-0,159
205,261	55,077	-0,249	-0,167
206,275	2,409	-0,140	-0,070
207,290	-80,379	-0,248	-0,057
208,304	-108,151	-0,147	-0,022
209,319	83,886	-0,289	-0,219
210,334	-17,274	-0,305	-0,133
211,348	70,942	-0,302	-0,217
212,363	152,267	-0,298	-0,283
213,377	142,640	-0,185	-0,171
214,392	147,127	-0,186	-0,174
215,407	43,798	-0,228	-0,145
216,421	-15,635	-0,187	-0,083
217,436	-122,522	-0,241	-0,027
218,450	188,333	-0,178	-0,185
219,465	-17,692	-0,276	-0,120
220,480	-138,606	-0,263	-0,020
221,494	88,516	-0,159	-0,122
222,509	-200,000	-0,083	-0,273
223,523	-16,008	-0,254	-0,112
224,538	-200,000	-0,029	-0,152
225,553	83,947	-0,211	-0,160
226,567	88,068	-0,191	-0,147
227,582	390,479	-0,123	-0,177
228,596	-70,195	-0,119	-0,031
229,611	16,360	-0,181	-0,099
230,626	-133,492	-0,186	-0,016
231,640	280,815	-0,135	-0,168
232,655	361,574	-0,124	-0,174
233,669	103,686	-0,245	-0,199
234,684	800,000	-0,101	-0,269
235,699	75,180	-0,183	-0,134
236,713	-17,904	-0,110	0,047
237,728	-47,369	-0,130	-0,044
238,742	-15,011	-0,099	-0,044
239,757	88,086	-0,163	-0,126
240,772	-75,997	-0,306	-0,074
241,786	-5,930	-0,230	-0,109
242,801	19,025	-0,195	-0,108
243,815	-92,158	-0,248	-0,048
244,830	-59,776	-0,178	-0,052
245,844	107,181	-0,265	-0,218
246,859	340,300	-0,138	-0,187
247,874	-38,762	-0,258	-0,094
248,888	-80,934	-0,232	-0,053
249,903	28,886	-0,150	-0,088
250,917	66,475	-0,134	-0,094
251,932	-52,702	-0,292	-0,093
252,947	43,618	-0,198	-0,125
253,961	222,446	-0,117	-0,130
254,976	-24,081	-0,150	-0,062
255,990	134,190	-0,128	-0,115
257,005	27,165	-0,232	-0,134
258,020	-122,663	-0,187	-0,021
259,034	-107,408	-0,154	-0,023
260,049	800,000	-0,080	-0,202
261,063	-69,626	-0,168	-0,044
262,078	-52,256	-0,189	-0,060
263,093	98,473	-0,180	-0,143
264,107	53,774	-0,272	-0,180
265,122	-180,826	-0,176	0,002
266,136	-200,000	-0,029	-0,293
267,151	-129,470	-0,221	-0,021
268,166	-40,078	-0,224	-0,080
269,180	44,412	-0,123	-0,078
270,195	24,969	-0,159	-0,091
271,209	-66,330	-0,251	-0,069
272,224	-50,658	-0,247	-0,080
273,239	6,948	-0,128	-0,066
274,253	332,728	-0,184	-0,247
275,268	-22,877	-0,202	-0,084
276,282	-95,329	-0,097	-0,018
277,297	-41,546	-0,170	-0,060
278,312	130,655	-0,185	-0,164
279,326	59,535	-0,260	-0,177
280,341	394,940	-0,134	-0,194
281,355	-100,985	-0,163	-0,027
282,370	82,438	-0,218	-0,163
283,384	449,112	-0,144	-0,219
284,399	353,542	-0,068	-0,094
285,414	270,182	-0,100	-0,122
286,428	-80,280	-0,213	-0,049
287,443	-4,404	-0,139	-0,066
288,457	115,014	-0,130	-0,110
289,472	-200,000	-0,010	-0,096
290,487	193,920	-0,214	-0,223
291,501	71,090	-0,227	-0,162
292,516	-130,149	-0,219	0,020
293,530	-87,740	-0,262	-0,054
294,545	121,081	-0,194	-0,167
295,560	29,473	-0,113	-0,066
296,574	-63,563	-0,109	-0,031
297,589	-139,008	-0,097	0,007
298,603	-41,231	-0,162	-0,057
299,618	-200,000	-0,002	-0,172
300,633	800,000	-0,034	-0,080
301,647	800,000	-0,057	-0,116
302,662	-9,642	-0,128	-0,059
303,676	655,310	-0,128	-0,227
304,691	244,381	-0,099	-0,115
305,706	13,924	-0,097	-0,052
306,720	-28,598	-0,242	-0,096
307,735	672,172	-0,057	-0,102
308,749	800,000	-0,042	-0,093
309,764	800,000	-0,041	-0,092
310,779	-40,916	-0,160	-0,057
311,793	-42,799	-0,186	-0,065
312,808	26,510	-0,182	-0,105
313,822	-45,116	-0,162	-0,055
314,837	-67,219	-0,151	-0,041
315,852	512,828	-0,143	-0,231
316,866	-200,000	-0,019	-0,162
317,881	663,341	-0,020	-0,036
318,895	84,051	-0,142	-0,107
319,910	333,713	-0,100	-0,133
320,925	57,562	-0,150	-0,100
321,939	366,117	-0,131	-0,182
322,954	112,370	-0,108	-0,090
323,968	-24,624	-0,101	-0,041
324,983	88,383	-0,171	-0,131
325,997	221,939	-0,166	-0,184
327,012	-103,958	-0,179	0,028
328,027	34,266	-0,157	-0,094
329,041	27,466	-0,084	-0,049
330,056	-160,489	-0,141	0,005
331,070	-96,259	-0,145	0,026
332,085	416,711	-0,059	-0,088
333,100	-106,770	-0,096	-0,014
334,114	384,068	-0,193	-0,274
335,129	-71,322	-0,177	0,045
336,143	58,285	-0,155	-0,104
337,158	-200,000	-0,007	-0,116
338,173	15,158	-0,139	-0,075
339,187	-200,000	-0,043	-0,144
340,202	-83,131	-0,283	-0,062
341,216	800,000	-0,075	-0,154
342,231	-137,786	-0,161	0,012
343,246	259,838	-0,092	-0,109
344,260	-103,781	-0,169	-0,027
345,275	62,367	-0,234	-0,160
346,289	704,024	-0,038	-0,070
347,304	-61,073	-0,045	-0,013
348,319	204,707	-0,166	-0,178
349,333	-124,634	-0,224	-0,024
350,348	-47,658	-0,162	-0,054
351,362	800,000	-0,035	-0,086
352,377	-200,000	-0,019	-0,096
353,392	800,000	-0,063	-0,170
354,406	-177,188	-0,186	-0,003
355,421	209,935	1312,413	1414,510
356,435	161,592	1472,868	1415,002
