DTS Sentinel unit serial number:	SN410029Multiplexer serial number:	ORYXHardware model number:	OX2-SRSoftware version number:	ORYX F/W v4,00 Oryx Data Collector v3.7.2.0data status	okinstallation	B3 Nyhavnadifferential loss correction	single-endedforward channel	channel 1reverse channel	N/Adate	2023/12/03time	20:12:30forward acquisition time	300,00reverse acquisition time	0,00gamma	499,1914k internal	0,3198k external	0,3198temperature offset calibration	1,0000default loss term (dB/km)	0,3820temperature slope calibration	1,0000multiplexer offset coefficient	1,0000multiplexer slope coefficient	1,0000fibre end	0,00T internal ref (°C)	14,04T ext. ref 1 (°C)	-1,31T ext. ref 2 (°C)	-1,34length (m)	temperature (°C)	Stokes	anti-Stokes-744,400	800,000	-0,192	-0,397
-743,385	-200,000	-0,092	0,347
-742,371	-63,405	-0,226	-0,067
-741,356	-200,000	0,057	0,341
-740,342	61,112	-0,267	-0,193
-739,327	-200,000	0,062	0,218
-738,312	240,415	-0,215	-0,261
-737,298	-200,000	0,001	0,269
-736,283	540,211	-0,103	-0,179
-735,269	-200,000	-0,015	0,244
-734,254	256,964	-0,204	-0,256
-733,239	591,911	-0,122	0,220
-732,225	264,822	-0,115	-0,147
-731,210	-39,301	0,072	0,027
-730,196	-108,656	0,067	-0,010
-729,181	-28,213	-0,088	0,037
-728,167	190,325	-0,089	0,097
-727,152	204,174	0,060	-0,068
-726,137	239,567	-0,085	-0,104
-725,123	-200,000	-0,014	-0,051
-724,108	-200,000	-0,005	-0,179
-723,094	800,000	-0,032	-0,099
-722,079	-129,023	-0,021	0,002
-721,064	-163,735	-0,127	-0,004
-720,050	-35,967	-0,047	-0,018
-719,035	-200,000	0,001	-0,127
-718,021	-120,231	0,021	-0,003
-717,006	-200,000	0,037	-0,260
-715,991	234,682	-0,126	-0,152
-714,977	800,000	-0,010	-0,030
-713,962	57,210	-0,098	0,070
-712,948	-68,284	0,063	-0,018
-711,933	-200,000	0,011	-0,044
-710,918	800,000	0,034	-0,091
-709,904	-200,000	-0,003	-0,054
-708,889	303,676	-0,026	0,035
-707,875	332,406	-0,074	-0,104
-706,860	-200,000	-0,016	-0,054
-705,845	-151,230	-0,040	0,002
-704,831	-29,454	-0,060	0,025
-703,816	6,217	-0,037	-0,020
-702,802	-200,000	-0,001	-0,078
-701,787	-200,000	-0,011	-0,135
-700,772	-42,590	-0,078	0,029
-699,758	-200,000	-0,016	-0,138
-698,743	387,611	0,014	0,021
-697,729	-200,000	0,021	0,158
-696,714	800,000	-0,042	0,107
-695,699	99,143	0,078	-0,066
-694,685	-200,000	-0,025	-0,214
-693,670	800,000	-0,104	-0,275
-692,656	3,964	0,160	-0,085
-691,641	-20,202	-0,047	-0,021
-690,627	110,837	-0,025	0,022
-689,612	-200,000	-0,017	-0,149
-688,597	-117,576	-0,163	0,021
-687,583	171,336	0,024	-0,025
-686,568	-94,562	-0,050	0,010
-685,554	-5,386	-0,092	0,046
-684,539	-137,626	-0,062	0,005
-683,524	658,926	0,033	0,061
-682,510	-115,156	0,080	-0,011
-681,495	152,415	0,065	0,065
-680,481	800,000	0,046	-0,111
-679,466	-114,153	0,041	-0,006
-678,451	117,109	-0,118	-0,106
-677,437	324,753	-0,030	-0,041
-676,422	800,000	-0,036	0,074
-675,408	-31,756	0,113	0,046
-674,393	304,038	0,044	-0,060
-673,378	-53,746	-0,127	-0,042
-672,364	82,786	0,082	-0,065
-671,349	408,793	-0,092	-0,143
-670,335	299,181	0,051	0,068
-669,320	46,270	-0,049	-0,033
-668,305	-164,035	-0,089	-0,003
-667,291	23,546	-0,073	-0,043
-666,276	-133,693	-0,137	0,012
-665,262	306,922	-0,036	-0,049
-664,247	-68,636	-0,110	-0,031
-663,232	-54,996	-0,090	-0,029
-662,218	-76,361	-0,168	-0,043
-661,203	-200,000	0,005	-0,098
-660,189	754,373	0,046	0,090
-659,174	311,192	-0,074	-0,101
-658,159	800,000	-0,074	-0,199
-657,145	800,000	-0,013	-0,030
-656,130	-200,000	-0,024	-0,090
-655,116	312,542	0,120	-0,164
-654,101	-157,053	-0,036	-0,002
-653,086	-153,311	0,126	-0,006
-652,072	736,877	-0,051	-0,099
-651,057	-12,129	-0,064	0,030
-650,043	-200,000	0,005	0,157
-649,028	-104,725	0,184	-0,030
-648,014	-13,778	0,106	0,050
-646,999	-200,000	-0,009	0,037
-645,984	300,566	-0,044	0,059
-644,970	-200,000	0,003	0,158
-643,955	-52,528	-0,118	-0,039
-642,941	383,618	0,018	0,027
-641,926	-200,000	-0,002	0,133
-640,911	-43,505	0,090	-0,033
-639,897	-200,000	-0,001	-0,107
-638,882	-200,000	0,032	-0,184
-637,868	800,000	0,022	0,047
-636,853	315,769	-0,063	0,086
-635,838	800,000	-0,078	-0,170
-634,824	-92,372	0,145	0,029
-633,809	-200,000	-0,008	-0,086
-632,795	-99,309	0,145	0,026
-631,780	800,000	0,010	-0,025
-630,765	18,958	-0,065	-0,038
-629,751	-200,000	0,025	-0,161
-628,736	-35,743	-0,133	-0,052
-627,722	222,118	-0,107	-0,125
-626,707	-19,440	0,158	-0,071
-625,692	-22,360	-0,014	-0,006
-624,678	290,773	-0,032	0,042
-623,663	-172,186	-0,050	0,001
-622,649	-200,000	0,000	-0,008
-621,634	57,780	0,106	0,075
-620,619	-200,000	0,019	0,080
-619,605	-200,000	0,001	0,020
-618,590	227,900	-0,074	0,088
-617,576	800,000	0,046	-0,106
-616,561	-125,604	-0,081	-0,009
-615,546	315,531	-0,020	-0,027
-614,532	469,518	-0,035	-0,057
-613,517	-127,644	0,080	0,008
-612,503	718,120	-0,010	0,019
-611,488	628,682	-0,023	-0,043
-610,474	46,064	0,099	0,066
-609,459	-46,813	-0,065	0,023
-608,444	46,944	0,061	0,041
-607,430	-103,044	-0,064	-0,011
-606,415	-113,338	-0,120	0,017
-605,401	75,480	-0,083	-0,064
-604,386	800,000	0,033	0,081
-603,371	-15,015	-0,153	0,071
-602,357	-30,062	0,009	-0,004
-601,342	800,000	0,076	-0,181
-600,328	800,000	0,041	-0,083
-599,313	533,339	-0,060	-0,103
-598,298	800,000	-0,029	0,061
-597,284	-200,000	-0,011	0,060
-596,269	-93,041	-0,091	-0,018
-595,255	-200,000	0,017	0,061
-594,240	-200,000	-0,028	-0,103
-593,225	146,665	-0,108	-0,106
-592,211	684,409	-0,074	-0,141
-591,196	59,764	-0,093	-0,067
-590,182	-96,155	0,134	0,025
-589,167	-200,000	0,008	-0,092
-588,152	-84,506	-0,064	-0,014
-587,138	-200,000	0,015	-0,050
-586,123	-200,000	0,014	0,095
-585,109	-200,000	0,001	-0,091
-584,094	-200,000	-0,065	-0,253
-583,079	-200,000	-0,017	0,080
-582,065	-200,000	0,032	0,151
-581,050	311,177	0,060	0,081
-580,036	-152,140	0,044	-0,002
-579,021	136,726	-0,047	-0,045
-578,006	62,154	-0,074	-0,053
-576,992	530,496	0,018	0,031
-575,977	-133,325	0,018	-0,002
-574,963	-200,000	-0,008	0,113
-573,948	56,735	-0,018	0,013
-572,934	98,836	0,120	-0,100
-571,919	-200,000	-0,008	-0,107
-570,904	19,050	0,104	0,060
-569,890	-200,000	0,020	-0,144
-568,875	-118,916	-0,168	0,021
-567,861	-200,000	0,003	-0,011
-566,846	-44,539	0,028	-0,010
-565,831	61,728	-0,142	-0,102
-564,817	178,806	-0,079	0,083
-563,802	79,185	-0,104	0,081
-562,788	-200,000	-0,013	0,172
-561,773	-200,000	-0,010	0,123
-560,758	-200,000	0,000	0,050
-559,744	800,000	-0,015	-0,033
-558,729	-200,000	0,011	0,048
-557,715	-189,679	-0,144	0,001
-556,700	800,000	-0,060	-0,137
-555,685	157,809	-0,073	0,073
-554,671	-69,886	0,056	0,015
-553,656	1,413	0,202	0,105
-552,642	-200,000	0,000	0,118
-551,627	49,817	0,068	0,046
-550,612	174,359	-0,083	-0,086
-549,598	-200,000	0,006	-0,136
-548,583	77,269	-0,026	-0,020
-547,569	800,000	0,061	0,127
-546,554	327,642	0,054	0,075
-545,539	335,347	-0,048	0,068
-544,525	-120,535	0,029	0,004
-543,510	24,134	-0,154	0,091
-542,496	-80,073	-0,081	-0,019
-541,481	-200,000	0,019	0,077
-540,466	-200,000	-0,004	0,072
-539,452	-200,000	-0,003	-0,046
-538,437	-200,000	0,017	0,215
-537,423	800,000	-0,019	0,046
-536,408	62,173	-0,005	0,004
-535,393	49,019	-0,067	0,045
-534,379	200,294	0,029	0,033
-533,364	-200,000	0,001	-0,023
-532,350	800,000	-0,057	-0,132
-531,335	-62,046	0,046	0,014
-530,321	800,000	-0,045	0,117
-529,306	800,000	-0,050	0,142
-528,291	45,585	-0,101	-0,067
-527,277	800,000	-0,059	-0,157
-526,262	-173,248	0,028	0,001
-525,248	-81,042	0,076	0,018
-524,233	15,598	-0,020	0,012
-523,218	408,802	0,045	0,069
-522,204	-200,000	0,007	-0,092
-521,189	18,744	-0,164	-0,095
-520,175	45,337	-0,086	-0,057
-519,160	7,055	0,036	0,019
-518,145	800,000	-0,027	0,066
-517,131	543,488	0,034	-0,058
-516,116	-134,455	-0,045	0,004
-515,102	800,000	0,018	0,048
-514,087	-43,132	-0,029	-0,011
-513,072	9,163	0,083	-0,045
-512,058	422,829	-0,040	-0,062
-511,043	-34,414	-0,054	0,021
-510,029	102,317	0,050	-0,042
-509,014	800,000	-0,041	0,112
-507,999	-200,000	-0,002	0,187
-506,985	0,417	0,112	-0,057
-505,970	-155,279	-0,095	-0,004
-504,956	-200,000	-0,004	-0,087
-503,941	-200,000	0,014	0,096
-502,926	-70,437	0,078	0,021
-501,912	-200,000	0,003	0,148
-500,897	418,536	0,038	-0,059
-499,883	321,238	-0,099	-0,135
-498,868	-200,000	0,005	-0,104
-497,853	-59,302	0,171	0,053
-496,839	299,048	-0,077	-0,103
-495,824	-200,000	0,007	-0,037
-494,810	-200,000	-0,010	0,108
-493,795	-200,000	0,023	0,151
-492,781	800,000	-0,024	0,059
-491,766	218,390	-0,116	0,134
-490,751	242,441	0,038	-0,046
-489,737	800,000	-0,038	0,105
-488,722	800,000	0,046	0,093
-487,708	-165,778	0,147	-0,004
-486,693	240,271	0,014	-0,016
-485,678	-104,536	0,064	0,011
-484,664	800,000	-0,060	-0,166
-483,649	-200,000	-0,008	-0,043
-482,635	-77,383	0,113	-0,028
-481,620	109,638	0,085	-0,073
-480,605	-200,000	0,005	-0,018
-479,591	199,917	-0,056	0,062
-478,576	-21,373	0,101	0,044
-477,562	-200,000	0,009	-0,129
-476,547	343,444	-0,037	-0,053
-475,532	-82,421	-0,121	0,028
-474,518	83,764	0,126	0,099
-473,503	800,000	-0,016	-0,046
-472,489	122,103	0,056	-0,050
-471,474	523,047	-0,093	-0,159
-470,459	753,079	-0,049	0,095
-469,445	87,647	-0,054	-0,043
-468,430	478,177	0,074	-0,121
-467,416	7,708	0,121	-0,065
-466,401	-200,000	-0,002	0,071
-465,386	-69,648	-0,042	-0,012
-464,372	-142,896	0,092	0,006
-463,357	800,000	-0,026	-0,065
-462,343	-200,000	0,030	-0,115
-461,328	800,000	0,056	-0,164
-460,313	17,648	0,115	-0,066
-459,299	-200,000	-0,020	0,076
-458,284	357,883	-0,008	-0,012
-457,270	-200,000	0,010	0,103
-456,255	433,969	0,029	-0,045
-455,241	-200,000	-0,081	0,000
-454,226	-200,000	0,027	0,212
-453,211	305,512	-0,008	0,011
-452,197	422,616	-0,064	0,099
-451,182	43,457	-0,047	-0,031
-450,168	66,786	0,048	0,035
-449,153	800,000	-0,010	-0,028
-448,138	800,000	-0,013	-0,040
-447,124	56,131	-0,064	-0,045
-446,109	-15,726	-0,063	-0,029
-445,095	-200,000	0,014	0,073
-444,080	-47,407	0,063	0,022
-443,065	800,000	-0,047	0,109
-442,051	-140,048	-0,179	0,013
-441,036	-200,000	-0,017	-0,118
-440,022	800,000	-0,028	-0,089
-439,007	800,000	0,060	0,143
-437,992	-124,214	-0,061	-0,007
-436,978	429,579	-0,079	0,123
-435,963	-84,342	-0,136	0,031
-434,949	-176,066	-0,108	0,002
-433,934	59,646	-0,026	-0,019
-432,919	800,000	-0,014	-0,039
-431,905	-62,847	0,038	0,011
-430,890	741,453	0,046	0,090
-429,876	-200,000	0,009	0,174
-428,861	129,092	0,035	0,032
-427,846	-64,221	0,094	-0,027
-426,832	-200,000	-0,009	0,036
-425,817	122,070	-0,130	-0,117
-424,803	97,996	0,033	0,027
-423,788	2,949	-0,021	-0,011
-422,773	-130,636	0,154	0,015
-421,759	53,306	-0,145	0,100
-420,744	-100,369	-0,117	0,021
-419,730	185,016	-0,030	-0,032
-418,715	-200,000	-0,011	-0,049
-417,701	14,800	-0,046	0,026
-416,686	-200,000	-0,017	-0,079
-415,671	174,178	-0,076	-0,079
-414,657	228,065	0,133	0,156
-413,642	-130,003	-0,054	0,005
-412,628	7,866	-0,095	-0,051
-411,613	18,954	-0,033	0,019
-410,598	51,339	0,067	0,045
-409,584	41,870	0,103	0,067
-408,569	-200,000	-0,004	-0,072
-407,555	-200,000	-0,045	0,150
-406,540	73,967	-0,091	0,068
-405,525	-200,000	0,000	0,009
-404,511	-200,000	0,003	-0,107
-403,496	517,301	-0,025	0,042
-402,482	-138,555	-0,055	-0,004
-401,467	354,551	-0,037	-0,053
-400,452	-12,550	-0,061	0,028
-399,438	-18,019	-0,074	-0,033
-398,423	-27,350	-0,114	-0,047
-397,409	150,188	-0,060	0,058
-396,394	524,576	0,022	-0,037
-395,379	-134,491	-0,048	0,004
-394,365	97,429	0,111	0,092
-393,350	-200,000	-0,010	0,113
-392,336	-200,000	-0,014	0,087
-391,321	800,000	0,042	0,096
-390,306	240,212	-0,078	-0,094
-389,292	-200,000	-0,009	-0,130
-388,277	464,095	0,042	0,068
-387,263	480,120	0,075	0,122
-386,248	58,557	-0,011	0,007
-385,233	800,000	0,039	0,096
-384,219	800,000	-0,061	0,123
-383,204	-187,273	-0,146	0,001
-382,190	488,916	-0,048	0,080
-381,175	327,443	0,087	-0,121
-380,160	742,976	-0,019	-0,037
-379,146	800,000	0,026	0,057
-378,131	5,807	-0,046	0,024
-377,117	258,596	0,054	-0,066
-376,102	-200,000	0,012	0,074
-375,088	-200,000	-0,009	0,060
-374,073	88,389	0,048	-0,038
-373,058	800,000	0,040	0,102
-372,044	-200,000	0,002	0,018
-371,029	-132,759	0,136	0,012
-370,015	-31,684	0,111	-0,045
-369,000	333,720	0,027	0,037
-367,985	800,000	-0,049	0,145
-366,971	29,763	-0,045	-0,027
-365,956	173,073	-0,056	0,058
-364,942	-132,943	0,132	-0,012
-363,927	70,258	-0,137	0,101
-362,912	-70,795	-0,102	0,027
-361,898	478,754	-0,076	0,123
-360,883	133,190	-0,131	0,121
-359,869	93,117	0,091	0,074
-358,854	-200,000	-0,005	0,060
-357,839	-84,522	0,217	0,049
-356,825	145,360	0,111	0,107
-355,810	-200,000	0,009	0,111
-354,796	-142,878	0,019	0,001
-353,781	800,000	-0,044	-0,107
-352,766	800,000	-0,050	-0,124
-351,752	-7,678	-0,037	-0,018
-350,737	61,263	0,069	0,049
-349,723	-200,000	0,026	-0,096
-348,708	160,373	0,046	0,047
-347,693	529,928	0,014	-0,024
-346,679	800,000	-0,040	-0,087
-345,664	571,267	-0,036	-0,063
-344,650	-200,000	0,020	0,082
-343,635	19,820	0,101	-0,058
-342,620	-200,000	0,031	-0,155
-341,606	84,122	0,040	0,031
-340,591	-61,189	-0,105	-0,032
-339,577	790,435	0,069	-0,136
-338,562	361,846	0,033	0,048
-337,548	52,618	0,022	-0,015
-336,533	-4,360	0,131	-0,065
-335,518	305,091	0,009	-0,012
-334,504	-65,056	0,113	0,032
-333,489	466,355	-0,039	0,064
-332,475	-46,851	-0,038	0,013
-331,460	4,048	0,107	-0,056
-330,445	-149,796	0,112	-0,006
-329,431	602,363	0,026	0,046
-328,416	-200,000	-0,005	0,069
-327,402	94,353	0,117	0,095
-326,387	145,173	0,053	-0,051
-325,372	-138,307	-0,002	-0,000
-324,358	539,915	-0,028	0,048
-323,343	-200,000	0,002	-0,011
-322,329	176,179	0,081	-0,084
-321,314	160,691	0,044	0,044
-320,299	80,801	-0,057	0,044
-319,285	-200,000	-0,017	0,110
-318,270	-200,000	0,011	-0,164
-317,256	380,863	-0,103	-0,152
-316,241	255,659	-0,092	-0,113
-315,226	-50,954	-0,022	-0,007
-314,212	-57,704	0,106	0,033
-313,197	50,101	0,150	-0,101
-312,183	-7,606	0,079	-0,038
-311,168	344,535	0,048	0,068
-310,153	-44,585	-0,080	-0,029
-309,139	-30,001	-0,047	0,019
-308,124	-21,696	0,056	0,024
-307,110	-31,098	0,108	-0,043
-306,095	116,561	0,068	-0,060
-305,080	611,728	0,089	-0,160
-304,066	-200,000	0,000	-0,064
-303,051	75,028	-0,109	-0,082
-302,037	-82,423	0,123	-0,028
-301,022	-200,000	0,009	-0,089
-300,008	-190,509	0,097	0,001
-298,993	46,447	-0,010	0,007
-297,978	53,392	-0,047	-0,032
-296,964	-2,041	-0,068	-0,034
-295,949	-200,000	-0,002	-0,045
-294,935	-6,448	0,112	0,054
-293,920	2,149	-0,075	0,039
-292,905	-200,000	0,020	-0,081
-291,891	9,936	0,143	0,078
-290,876	-95,693	-0,108	0,020
-289,862	-63,395	0,074	0,022
-288,847	153,328	-0,127	-0,124
-287,832	-45,283	-0,040	-0,014
-286,818	800,000	-0,020	0,061
-285,803	-200,000	-0,025	0,108
-284,789	-45,443	0,024	-0,008
-283,774	176,566	0,068	0,070
-282,759	244,478	-0,006	0,008
-281,745	-149,221	-0,084	0,005
-280,730	58,555	0,092	0,064
-279,716	-200,000	0,002	-0,063
-278,701	-144,785	-0,094	-0,006
-277,686	106,368	-0,061	0,051
-276,672	-200,000	0,019	-0,077
-275,657	415,106	0,035	-0,053
-274,643	800,000	-0,032	-0,068
-273,628	-2,891	-0,136	-0,068
-272,613	-200,000	0,024	-0,089
-271,599	-76,653	0,054	-0,014
-270,584	-101,869	0,066	0,011
-269,570	77,882	0,023	0,018
-268,555	-67,028	0,077	0,022
-267,540	-200,000	-0,032	-0,118
-266,526	170,073	-0,028	-0,028
-265,511	288,483	-0,078	-0,102
-264,497	163,220	0,020	-0,020
-263,482	133,520	-0,048	0,044
-262,467	-200,000	-0,007	0,071
-261,453	800,000	0,028	0,071
-260,438	139,846	0,039	0,036
-259,424	20,687	-0,211	0,122
-258,409	800,000	-0,025	0,079
-257,395	800,000	0,016	-0,049
-256,380	-146,846	0,124	0,008
-255,365	-22,993	0,026	-0,011
-254,351	504,109	-0,067	-0,112
-253,336	114,827	-0,083	0,072
-252,322	-146,112	-0,135	-0,008
-251,307	-200,000	-0,072	-0,243
-250,292	484,026	-0,008	0,013
-249,278	448,395	0,013	0,021
-248,263	-200,000	0,019	-0,068
-247,249	800,000	-0,043	0,107
-246,234	800,000	-0,024	-0,066
-245,219	72,822	0,038	-0,028
-244,205	-124,788	0,066	0,007
-243,190	307,982	0,078	-0,104
-242,176	-10,185	0,092	0,043
-241,161	800,000	-0,030	-0,076
-240,146	383,632	-0,048	0,071
-239,132	-200,000	-0,045	-0,145
-238,117	-23,810	0,118	-0,050
-237,103	384,256	-0,089	0,132
-236,088	-43,173	0,057	-0,021
-235,073	425,676	0,064	0,098
-234,059	800,000	0,046	-0,132
-233,044	-103,927	0,062	-0,010
-232,030	-151,821	-0,115	0,006
-231,015	615,105	-0,033	-0,060
-230,000	64,841	0,130	-0,094
-228,986	-200,000	-0,011	-0,051
-227,971	800,000	-0,006	-0,019
-226,957	176,284	0,115	-0,119
-225,942	-200,000	0,001	0,106
-224,927	191,040	-0,058	0,063
-223,913	-200,000	0,001	-0,069
-222,898	-200,000	-0,018	0,085
-221,884	122,845	-0,105	0,093
-220,869	-51,372	0,038	-0,012
-219,855	393,520	0,121	0,180
-218,840	-200,000	-0,027	0,112
-217,825	704,081	-0,030	0,056
-216,811	800,000	-0,049	-0,141
-215,796	96,380	0,015	-0,012
-214,782	-200,000	0,001	-0,075
-213,767	-200,000	-0,012	0,046
-212,752	-200,000	-0,013	-0,106
-211,738	64,255	0,111	0,080
-210,723	184,206	-0,040	0,043
-209,709	-200,000	-0,023	-0,107
-208,694	800,000	0,023	0,045
-207,679	-200,000	0,004	-0,104
-206,665	-200,000	-0,002	-0,016
-205,650	-200,000	-0,017	0,136
-204,636	-200,000	0,019	0,096
-203,621	800,000	0,043	-0,094
-202,606	-0,239	0,011	0,005
-201,592	141,317	0,079	-0,074
-200,577	78,022	0,056	-0,042
-199,563	-67,561	-0,048	-0,013
-198,548	-2,261	0,032	-0,016
-197,533	-15,217	0,190	-0,086
-196,519	207,949	-0,041	-0,046
-195,504	13,531	0,141	-0,078
-194,490	-200,000	-0,020	0,129
-193,475	57,837	-0,129	-0,090
-192,460	-200,000	0,003	-0,027
-191,446	-200,000	-0,048	0,176
-190,431	35,793	0,088	-0,055
-189,417	89,131	0,121	0,096
-188,402	-3,816	-0,037	0,018
-187,387	800,000	0,043	-0,122
-186,373	800,000	0,007	-0,018
-185,358	800,000	0,031	-0,095
-184,344	21,911	0,027	0,015
-183,329	467,072	0,059	0,094
-182,315	12,798	0,136	0,075
-181,300	162,941	0,020	0,020
-180,285	-157,128	-0,126	0,005
-179,271	-200,000	-0,028	-0,107
-178,256	-200,000	-0,001	-0,225
-177,242	679,017	-0,066	0,123
-176,227	56,572	0,021	0,014
-175,212	264,061	-0,052	0,065
-174,198	-143,760	0,024	0,002
-173,183	21,910	0,028	0,016
-172,169	129,776	-0,127	-0,116
-171,154	-200,000	-0,011	-0,077
-170,139	-41,995	0,127	-0,046
-169,125	-56,490	0,054	-0,017
-168,110	342,243	-0,063	0,088
-167,096	477,633	0,068	-0,110
-166,081	74,398	-0,092	0,069
-165,066	591,658	0,040	0,071
-164,052	76,874	-0,081	-0,061
-163,037	-200,000	-0,019	-0,076
-162,023	188,984	0,055	0,059
-161,008	-33,506	-0,057	0,022
-159,993	-200,000	0,014	-0,076
-158,979	800,000	0,058	0,165
-157,964	500,954	-0,100	-0,164
-156,950	565,005	-0,049	-0,084
-155,935	-200,000	-0,027	0,170
-154,920	32,334	0,174	0,107
-153,906	-200,000	0,017	0,101
-152,891	-39,107	0,082	0,031
-151,877	243,764	-0,078	-0,094
-150,862	392,993	0,027	-0,039
-149,847	69,488	0,157	0,115
-148,833	-113,608	-0,043	0,006
-147,818	-54,092	-0,064	-0,020
-146,804	34,400	-0,123	0,076
-145,789	800,000	0,032	-0,077
-144,775	-200,000	-0,025	-0,189
-143,760	-200,000	-0,019	-0,115
-142,745	755,291	-0,079	-0,153
-141,731	47,359	0,056	-0,037
-140,716	-18,193	-0,101	0,045
-139,702	-93,455	0,192	-0,037
-138,687	-200,000	-0,060	-0,202
-137,672	87,460	-0,096	-0,075
-136,658	140,793	-0,043	0,040
-135,643	106,525	-0,078	0,066
-134,629	488,939	0,023	-0,037
-133,614	-94,134	-0,064	0,012
-132,599	-77,851	0,180	-0,044
-131,585	280,499	0,092	0,117
-130,570	-200,000	-0,029	-0,096
-129,556	-142,411	-0,112	-0,008
-128,541	-81,301	-0,065	-0,015
-127,526	86,037	0,052	-0,040
-126,512	-200,000	-0,004	-0,033
-125,497	561,285	-0,044	0,077
-124,483	214,984	0,057	0,065
-123,468	103,120	-0,061	-0,051
-122,453	-117,574	-0,195	-0,025
-121,439	-200,000	0,003	-0,125
-120,424	480,145	-0,078	-0,126
-119,410	-89,002	0,098	-0,020
-118,395	-107,304	0,075	-0,012
-117,380	164,561	-0,114	-0,115
-116,366	-200,000	0,046	-0,177
-115,351	-96,245	0,032	0,006
-114,337	487,743	-0,050	-0,081
-113,322	186,742	0,090	0,095
-112,307	-133,180	0,147	0,013
-111,293	-200,000	0,003	0,067
-110,278	-187,095	0,129	-0,001
-109,264	90,806	-0,056	-0,045
-108,249	82,251	-0,106	-0,082
-107,234	-200,000	-0,020	-0,082
-106,220	259,731	0,044	-0,054
-105,205	-94,026	0,102	-0,020
-104,191	-200,000	-0,023	-0,095
-103,176	-35,957	0,126	-0,048
-102,162	167,165	-0,063	0,063
-101,147	91,596	-0,105	-0,083
-100,132	800,000	-0,046	-0,121
-99,118	-138,331	-0,151	0,012
-98,103	800,000	-0,026	-0,067
-97,089	-200,000	0,021	0,069
-96,074	274,250	0,076	0,096
-95,059	279,246	-0,108	0,138
-94,045	-200,000	0,015	0,059
-93,030	-200,000	-0,012	0,139
-92,016	457,767	-0,158	-0,250
-91,001	145,987	-0,054	0,051
-89,986	0,474	0,168	0,085
-88,972	153,740	-0,127	0,123
-87,957	-200,000	0,000	0,108
-86,943	-33,986	-0,171	-0,066
-85,928	-155,155	0,029	-0,001
-84,913	150,824	0,029	-0,028
-83,899	-111,415	0,089	0,013
-82,884	249,626	0,067	0,081
-81,870	800,000	-0,020	0,061
-80,855	118,731	-0,028	-0,025
-79,840	405,526	0,083	-0,125
-78,826	-2,894	-0,078	0,039
-77,811	743,468	0,054	-0,103
-76,797	119,427	0,025	0,022
-75,782	-108,732	0,043	-0,007
-74,767	-8,761	0,025	-0,012
-73,753	340,874	-0,049	0,068
-72,738	-116,380	0,083	0,011
-71,724	-200,000	0,030	-0,141
-70,709	-90,007	-0,083	0,017
-69,694	-200,000	-0,022	-0,100
-68,680	-200,000	-0,012	-0,089
-67,665	671,615	-0,016	0,030
-66,651	-80,541	0,065	0,015
-65,636	-53,745	-0,100	-0,032
-64,622	82,216	0,030	-0,023
-63,607	491,029	0,030	-0,048
-62,592	800,000	-0,006	0,017
-61,578	-31,787	0,079	-0,031
-60,563	-110,438	0,233	0,034
-59,549	-200,000	0,009	0,128
-58,534	-34,279	-1,480	-0,573
-57,519	324,476	-1,558	-2,115
-56,505	-200,000	-0,408	-4,484
-55,490	289,533	0,937	1,207
-54,476	800,000	4,853	11,113
-53,461	-200,000	18,933	307,717
-52,446	800,000	738,254	2304,970
-51,432	569,831	1654,219	2862,261
-50,417	78,977	1670,166	1265,786
-49,403	21,973	1543,287	889,428
-48,388	15,935	1465,842	815,438
-47,373	17,816	1456,059	819,057
-46,359	16,893	1446,074	808,975
-45,344	14,146	1441,573	793,265
-44,330	14,099	1439,587	791,917
-43,315	14,095	1437,866	790,921
-42,300	14,091	1436,220	789,965
-41,286	14,146	1434,975	789,508
-40,271	14,172	1433,586	788,839
-39,257	14,104	1432,275	787,760
-38,242	14,154	1431,135	787,341
-37,227	14,159	1430,046	786,734
-36,213	14,138	1428,673	785,848
-35,198	14,151	1427,557	785,267
-34,184	14,183	1426,483	784,794
-33,169	14,113	1425,348	783,809
-32,154	14,139	1424,106	783,214
-31,140	14,161	1422,926	782,641
-30,125	14,162	1421,755	781,971
-29,111	14,153	1420,609	781,268
-28,096	14,120	1419,638	780,547
-27,082	14,087	1418,635	779,808
-26,067	14,095	1417,304	779,083
-25,052	14,079	1416,337	778,444
-24,038	14,050	1415,331	777,724
-23,023	14,055	1414,265	777,132
-22,009	14,062	1413,268	776,584
-20,994	14,012	1412,452	775,871
-19,979	14,028	1411,645	775,472
-18,965	14,013	1410,517	774,752
-17,950	14,012	1409,640	774,233
-16,936	14,031	1408,651	773,750
-15,921	13,964	1407,522	772,783
-14,906	14,008	1406,781	772,551
-13,892	14,012	1405,777	771,990
-12,877	13,944	1405,055	771,245
-11,863	13,982	1404,044	770,838
-10,848	13,956	1402,993	770,106
-9,833	13,935	1402,265	769,581
-8,819	13,889	1401,342	768,827
-7,804	13,901	1400,349	768,307
-6,790	13,900	1399,147	767,616
-5,775	13,874	1398,337	767,018
-4,760	13,823	1397,475	766,278
-3,746	13,865	1396,529	765,922
-2,731	13,851	1395,689	765,366
-1,717	13,845	1395,010	764,935
-0,702	13,812	1393,289	763,811
0,313	17,654	1310,885	736,455
1,327	33,920	705,406	433,982
2,342	52,034	123,882	83,432
3,356	3,074	16,657	8,545
4,371	-2,092	3,168	1,570
5,386	-6,099	0,559	0,270
6,400	-200,000	0,004	0,093
7,415	108,349	-0,225	-0,190
8,429	73,499	-0,319	-0,236
9,444	99,146	-0,338	-0,277
10,459	-23,303	-0,437	-0,185
11,473	670,743	-0,175	-0,321
12,488	789,683	-0,153	-0,300
13,502	-1,764	-0,278	-0,138
14,517	-4,444	-0,245	-0,119
15,531	-79,775	-0,419	-0,099
16,546	189,490	-0,224	-0,238
17,561	185,155	-0,378	-0,397
18,575	-162,200	-0,323	0,011
19,590	683,166	-0,130	-0,240
20,604	213,721	-0,247	-0,276
21,619	124,651	-0,404	-0,359
22,634	131,402	-0,460	-0,418
23,648	-27,863	-0,521	-0,213
24,663	-3,125	-0,456	-0,224
25,677	206,954	-0,290	-0,320
26,692	21,787	-0,353	-0,203
27,707	-50,518	-0,261	-0,086
28,721	256,364	-0,302	-0,367
29,736	-41,748	-0,447	-0,161
30,750	178,101	-0,427	-0,440
31,765	96,680	-0,496	-0,401
32,780	216,043	-0,328	-0,369
33,794	92,786	-0,353	-0,282
34,809	326,963	-0,254	-0,345
35,823	83,857	-0,359	-0,277
36,838	64,594	-0,424	-0,301
37,853	53,387	-0,591	-0,399
38,867	103,867	-0,371	-0,307
39,882	47,870	-0,342	-0,225
40,896	334,027	-0,254	-0,348
41,911	-96,955	-0,496	-0,091
42,926	67,271	-0,408	-0,293
43,940	177,361	-0,395	-0,407
44,955	144,213	-0,400	-0,377
45,969	39,464	-0,479	-0,302
46,984	129,201	-0,398	-0,358
47,999	156,437	-0,321	-0,313
49,013	50,862	-0,421	-0,281
50,028	278,387	-0,229	-0,288
51,042	154,857	-0,454	-0,440
52,057	49,361	-0,474	-0,314
53,071	621,758	-0,128	-0,227
54,086	-93,934	-0,351	-0,067
55,101	-1,885	-0,453	-0,224
56,115	102,998	-0,317	-0,261
57,130	160,247	-0,315	-0,310
58,144	178,520	-0,324	-0,333
59,159	92,590	-0,327	-0,260
60,174	103,127	-0,335	-0,276
61,188	-45,878	-0,440	-0,152
62,203	65,683	-0,237	-0,169
63,217	89,886	-0,356	-0,280
64,232	45,865	-0,256	-0,166
65,247	117,935	-0,352	-0,306
66,261	-60,695	-0,388	-0,115
67,276	9,174	-0,407	-0,216
68,290	201,410	-0,302	-0,328
69,305	11,433	-0,336	-0,181
70,320	139,452	-0,333	-0,308
71,334	321,792	-0,208	-0,279
72,349	155,523	-0,235	-0,228
73,363	-0,758	-0,377	-0,188
74,378	62,473	-0,398	-0,279
75,393	84,255	-0,296	-0,228
76,407	27,674	-0,319	-0,188
77,422	216,734	-0,276	-0,309
78,436	-38,454	-0,381	-0,141
79,451	-53,280	-0,408	-0,131
80,466	63,671	-0,353	-0,249
81,480	26,983	-0,317	-0,187
82,495	99,400	-0,185	-0,150
83,509	4,506	-0,403	-0,207
84,524	173,162	-0,168	-0,170
85,539	8,577	-0,343	-0,181
86,553	-98,538	-0,313	-0,056
87,568	47,746	-0,343	-0,225
88,582	18,281	-0,325	-0,182
89,597	11,391	-0,335	-0,180
90,611	32,215	-0,415	-0,251
91,626	70,405	-0,269	-0,195
92,641	800,000	-0,072	-0,149
93,655	136,412	-0,288	-0,264
94,670	103,576	-0,320	-0,264
95,684	148,648	-0,221	-0,210
96,699	112,286	-0,170	-0,144
97,714	45,881	-0,233	-0,151
98,728	120,097	-0,248	-0,216
99,743	373,462	-0,168	-0,240
100,757	-0,442	-0,342	-0,170
101,772	-70,683	-0,267	-0,070
102,787	94,497	-0,206	-0,164
103,801	95,650	-0,326	-0,261
104,816	122,805	-0,189	-0,166
105,830	562,357	-0,159	-0,271
106,845	231,547	-0,219	-0,252
107,860	203,207	-0,198	-0,216
108,874	63,678	-0,222	-0,156
109,889	6,027	-0,228	-0,118
110,903	114,877	-0,361	-0,309
111,918	-134,833	-0,224	-0,019
112,933	-17,955	-0,302	-0,132
113,947	146,841	-0,223	-0,210
114,962	163,679	-0,248	-0,245
115,976	37,990	-0,293	-0,182
116,991	90,953	-0,207	-0,163
118,006	135,345	-0,172	-0,157
119,020	29,702	-0,277	-0,165
120,035	249,722	-0,189	-0,225
121,049	117,524	-0,280	-0,242
122,064	-144,416	-0,222	0,014
123,079	4,683	-0,230	-0,118
124,093	-82,646	-0,288	-0,065
125,108	17,953	-0,253	-0,141
126,122	55,962	-0,332	-0,225
127,137	-24,363	-0,266	-0,111
128,151	70,332	-0,158	-0,114
129,166	-63,313	-0,245	-0,070
130,181	-1,194	-0,335	-0,165
131,195	13,441	-0,176	-0,095
132,210	119,556	-0,291	-0,252
133,224	48,863	-0,254	-0,166
134,239	70,528	-0,241	-0,174
135,254	81,507	-0,140	-0,106
136,268	643,348	-0,080	-0,143
137,283	93,996	-0,353	-0,280
138,297	449,951	-0,204	-0,316
139,312	-26,595	-0,313	-0,128
140,327	739,627	-0,168	-0,317
141,341	9,502	-0,165	-0,087
142,356	10,487	-0,278	-0,148
143,370	40,728	-0,219	-0,138
144,385	55,493	-0,233	-0,157
145,400	800,000	-0,070	-0,155
146,414	-4,626	-0,296	-0,142
147,429	159,560	-0,236	-0,230
148,443	464,609	-0,197	-0,308
149,458	385,836	-0,129	-0,187
150,473	162,962	-0,250	-0,246
151,487	68,681	-0,238	-0,171
152,502	800,000	-0,145	-0,336
153,516	210,121	-0,234	-0,257
154,531	37,321	-0,268	-0,165
155,546	43,360	-0,150	-0,095
156,560	144,231	-0,175	-0,164
157,575	-162,556	-0,270	-0,009
158,589	207,101	-0,160	-0,175
159,604	36,498	-0,229	-0,141
160,619	-59,417	-0,221	-0,066
161,633	-48,339	-0,134	-0,045
162,648	-60,576	-0,245	-0,072
163,662	29,503	-0,217	-0,128
164,677	-200,000	-0,046	-0,204
165,692	267,704	-0,172	-0,211
166,706	461,132	-0,168	-0,263
167,721	-53,407	-0,211	-0,067
168,735	171,025	-0,222	-0,223
169,750	-116,947	-0,276	-0,035
170,764	-22,409	-0,202	-0,085
171,779	-77,800	-0,206	-0,049
172,794	-129,534	-0,209	-0,020
173,808	236,317	-0,163	-0,189
174,823	-24,395	-0,300	-0,124
175,837	160,551	-0,342	-0,333
176,852	800,000	-0,129	-0,316
177,867	403,765	-0,116	-0,170
178,881	74,406	-0,218	-0,160
179,896	-40,440	-0,214	-0,077
180,910	21,752	-0,217	-0,123
181,925	158,354	-0,312	-0,302
182,940	161,872	-0,325	-0,317
183,954	378,457	-0,264	-0,377
184,969	209,806	-0,150	-0,165
185,983	107,048	-0,103	-0,086
186,998	64,682	-0,148	-0,104
188,013	800,000	-0,126	-0,255
189,027	19,530	-0,162	-0,091
190,042	-148,121	-0,279	-0,016
191,056	381,318	-0,200	-0,286
192,071	-146,934	-0,226	-0,013
193,086	235,919	-0,137	-0,158
194,100	58,724	-0,218	-0,149
195,115	-22,613	-0,235	-0,099
196,129	-60,260	-0,273	0,081
197,144	140,931	-0,204	-0,187
198,159	28,755	-0,262	-0,154
199,173	94,670	-0,239	-0,189
200,188	95,604	-0,153	-0,121
201,202	60,017	-0,278	-0,191
202,217	-24,078	-0,142	-0,059
203,232	6,269	-0,258	-0,133
204,246	605,528	-0,098	-0,171
205,261	150,969	-0,174	-0,165
206,275	176,888	-0,201	-0,204
207,290	396,253	-0,177	-0,258
208,304	178,383	-0,213	-0,216
209,319	327,096	-0,099	-0,132
210,334	101,849	-0,318	-0,258
211,348	22,647	-0,266	-0,151
212,363	-49,561	-0,194	-0,064
213,377	222,234	-0,217	-0,244
214,392	-39,427	-0,175	-0,064
215,407	527,842	-0,068	-0,112
216,421	-200,000	-0,003	-0,202
217,436	267,300	-0,154	-0,188
218,450	80,015	-0,282	-0,210
219,465	168,289	-0,329	-0,326
220,480	-35,975	-0,301	-0,112
221,494	240,186	-0,124	-0,144
222,509	473,937	-0,144	-0,227
223,523	625,596	-0,043	-0,076
224,538	59,268	-0,246	-0,168
225,553	242,141	-0,167	-0,194
226,567	-200,000	-0,114	-0,350
227,582	403,156	-0,197	-0,289
228,596	-120,127	-0,187	-0,022
229,611	349,749	-0,156	-0,214
230,626	-108,962	-0,119	0,017
231,640	63,965	-0,234	-0,163
232,655	217,487	-0,219	-0,243
233,669	358,856	-0,234	-0,325
234,684	74,364	-0,178	-0,130
235,699	800,000	-0,096	-0,223
236,713	323,569	-0,083	-0,111
237,728	176,999	-0,126	-0,127
238,742	227,404	-0,108	-0,122
239,757	229,404	-0,120	-0,136
240,772	154,953	-0,095	-0,091
241,786	73,104	-0,245	-0,178
242,801	249,098	-0,216	-0,254
243,815	79,085	-0,238	-0,177
244,830	-1,185	-0,202	-0,098
245,844	239,560	-0,137	-0,159
246,859	-43,027	-0,237	-0,083
247,874	615,177	-0,161	-0,281
248,888	481,453	-0,163	-0,257
249,903	71,310	-0,237	-0,171
250,917	-12,591	-0,161	-0,072
251,932	323,726	-0,130	-0,172
252,947	514,043	-0,110	-0,178
253,961	84,777	-0,153	-0,116
254,976	139,378	-0,191	-0,174
255,990	53,710	-0,179	-0,119
257,005	0,684	-0,178	-0,088
258,020	-200,000	-0,018	-0,109
259,034	127,977	-0,171	-0,151
260,049	-126,814	-0,192	0,019
261,063	398,746	-0,174	-0,253
262,078	-200,000	-0,065	-0,235
263,093	458,614	-0,142	-0,219
264,107	244,775	-0,164	-0,191
265,122	-87,542	-0,194	-0,040
266,136	35,047	-0,121	-0,073
267,151	109,000	-0,087	-0,072
268,166	-154,096	-0,115	-0,005
269,180	25,656	-0,246	-0,141
270,195	390,648	-0,129	-0,186
271,209	48,898	-0,183	-0,118
272,224	114,702	-0,140	-0,118
273,239	-44,207	-0,124	0,043
274,253	53,175	-0,154	-0,102
275,268	800,000	-0,096	-0,247
276,282	-58,337	-0,153	-0,046
277,297	192,751	-0,157	-0,164
278,312	46,505	-0,200	-0,128
279,326	447,487	-0,128	-0,196
280,341	-10,621	-0,169	-0,077
281,355	96,239	-0,135	-0,107
282,370	381,676	-0,064	-0,091
283,384	268,367	-0,110	-0,134
284,399	127,411	-0,307	-0,269
285,414	675,890	-0,166	-0,299
286,428	12,663	-0,193	-0,102
287,443	800,000	-0,090	-0,195
288,457	332,856	-0,120	-0,161
289,472	-169,848	-0,238	0,006
290,487	184,611	-0,116	-0,119
291,501	238,151	-0,107	-0,123
292,516	405,267	-0,166	-0,242
293,530	202,071	-0,042	-0,045
294,545	467,880	-0,030	0,047
295,560	-200,000	-0,017	-0,094
296,574	55,593	-0,122	-0,081
297,589	-200,000	-0,076	-0,268
298,603	29,381	-0,144	-0,084
299,618	-10,750	-0,121	-0,055
300,633	350,134	-0,071	-0,097
301,647	216,944	-0,074	-0,081
302,662	161,944	-0,063	-0,061
303,676	-44,672	-0,156	-0,053
304,691	124,036	-0,126	-0,109
305,706	36,194	-0,247	-0,150
306,720	-200,000	-0,041	-0,129
307,735	-200,000	-0,033	-0,263
308,749	108,765	-0,109	-0,090
309,764	196,657	-0,127	-0,134
310,779	-200,000	0,000	-0,041
311,793	800,000	-0,059	-0,147
312,808	90,434	-0,175	-0,135
313,822	161,270	-0,142	-0,137
314,837	565,391	-0,038	-0,064
315,852	-18,335	-0,096	-0,041
316,866	-94,851	-0,192	-0,035
317,881	96,838	-0,151	-0,119
318,895	52,885	-0,134	-0,088
319,910	-42,413	-0,258	-0,090
320,925	171,751	-0,160	-0,159
321,939	356,832	-0,065	-0,089
322,954	413,882	-0,122	-0,179
323,968	-200,000	-0,041	-0,129
324,983	228,941	-0,141	-0,158
325,997	-39,119	-0,132	0,047
327,012	800,000	-0,064	-0,182
328,027	-16,670	-0,158	-0,068
329,041	4,177	-0,255	-0,128
330,056	-123,453	-0,245	-0,026
331,070	-200,000	0,015	-0,139
332,085	155,761	-0,181	-0,172
333,100	34,189	-0,108	-0,065
334,114	101,855	-0,146	-0,117
335,129	800,000	-0,100	-0,245
336,143	110,088	-0,161	-0,133
337,158	573,988	-0,037	-0,063
338,173	-70,687	-0,112	0,029
339,187	800,000	-0,035	-0,090
340,202	-200,000	-0,002	-0,043
341,216	71,955	-0,110	-0,079
342,231	-25,730	-0,176	-0,071
343,246	446,874	-0,083	-0,125
344,260	522,435	-0,046	-0,075
345,275	-200,000	-0,027	-0,127
346,289	25,854	-0,123	-0,070
347,304	1,082	-0,216	-0,106
348,319	92,493	-0,127	-0,098
349,333	4,012	-0,211	-0,106
350,348	-46,951	-0,176	-0,059
351,362	150,798	-0,055	-0,051
352,377	99,143	-0,131	-0,104
353,392	-109,095	-0,138	-0,020
354,406	40,065	-0,173	0,107
355,421	208,501	1314,678	1413,292
356,435	160,431	1475,410	1413,788
