DTS Sentinel unit serial number:	SN410029Multiplexer serial number:	ORYXHardware model number:	OX2-SRSoftware version number:	ORYX F/W v4,00 Oryx Data Collector v3.7.2.0data status	okinstallation	B3 Nyhavnadifferential loss correction	single-endedforward channel	channel 1reverse channel	N/Adate	2023/12/03time	05:47:30forward acquisition time	300,00reverse acquisition time	0,00gamma	499,1914k internal	0,3201k external	0,3201temperature offset calibration	1,0000default loss term (dB/km)	0,3820temperature slope calibration	1,0000multiplexer offset coefficient	1,0000multiplexer slope coefficient	1,0000fibre end	0,00T internal ref (°C)	13,30T ext. ref 1 (°C)	-1,71T ext. ref 2 (°C)	-1,72length (m)	temperature (°C)	Stokes	anti-Stokes-744,400	-2,768	-0,162	-0,082
-743,385	386,956	0,128	0,193
-742,371	41,471	-0,130	-0,086
-741,356	-200,000	0,072	0,491
-740,342	-84,682	-0,214	-0,049
-739,327	800,000	0,092	0,224
-738,312	661,736	-0,158	-0,297
-737,298	-200,000	0,003	0,201
-736,283	-72,778	-0,310	-0,082
-735,269	800,000	0,082	0,245
-734,254	-86,417	-0,185	-0,041
-733,239	50,314	-0,150	0,103
-732,225	15,110	-0,231	-0,131
-731,210	96,797	0,026	0,021
-730,196	9,113	-0,112	-0,061
-729,181	-58,879	-0,055	0,017
-728,167	498,000	0,094	0,159
-727,152	55,976	-0,085	-0,060
-726,137	-27,789	0,074	0,031
-725,123	172,055	-0,116	-0,121
-724,108	-200,000	-0,002	0,086
-723,094	195,600	-0,103	-0,113
-722,079	124,240	-0,137	-0,125
-721,064	800,000	0,059	0,123
-720,050	-75,394	0,071	-0,018
-719,035	193,792	-0,020	0,022
-718,021	-50,789	-0,131	0,045
-717,006	-16,519	-0,194	-0,089
-715,991	-200,000	-0,089	-0,000
-714,977	74,654	-0,035	-0,027
-713,962	-117,446	0,048	0,006
-712,948	676,936	-0,070	-0,133
-711,933	0,121	-0,112	0,058
-710,918	45,897	0,091	0,061
-709,904	-143,200	-0,249	0,017
-708,889	-200,000	-0,020	-0,138
-707,875	800,000	-0,034	-0,071
-706,860	-200,000	-0,002	0,100
-705,845	-200,000	-0,019	0,078
-704,831	-121,619	0,049	-0,006
-703,816	800,000	0,002	-0,006
-702,802	-108,899	-0,014	-0,002
-701,787	24,083	-0,172	-0,103
-700,772	25,785	0,071	0,043
-699,758	109,530	-0,121	-0,106
-698,743	-200,000	0,022	0,073
-697,729	-138,553	-0,045	0,004
-696,714	-200,000	0,019	-0,128
-695,699	-136,709	-0,061	0,005
-694,685	-101,197	0,020	0,004
-693,670	759,160	0,081	-0,161
-692,656	800,000	0,046	-0,106
-691,641	-200,000	-0,004	0,192
-690,627	800,000	-0,006	-0,015
-689,612	-200,000	0,008	-0,082
-688,597	800,000	0,018	-0,040
-687,583	225,317	0,072	-0,084
-686,568	800,000	-0,040	-0,115
-685,554	293,867	-0,101	-0,134
-684,539	-173,123	-0,045	0,001
-683,524	11,702	0,048	-0,027
-682,510	800,000	0,025	-0,059
-681,495	-64,148	0,050	-0,015
-680,481	113,231	0,052	0,046
-679,466	-200,000	-0,023	-0,125
-678,451	-200,000	0,021	-0,080
-677,437	-79,284	-0,099	0,024
-676,422	-71,673	0,147	0,039
-675,408	123,130	0,049	0,045
-674,393	800,000	-0,059	-0,133
-673,378	-95,349	-0,044	-0,008
-672,364	111,271	-0,062	0,054
-671,349	-14,833	0,053	0,024
-670,335	72,199	-0,064	0,048
-669,320	-98,426	0,055	-0,010
-668,305	17,852	0,013	0,007
-667,291	-200,000	-0,005	-0,076
-666,276	574,324	-0,046	-0,082
-665,262	-60,910	0,096	0,029
-664,247	-66,820	-0,129	-0,037
-663,232	-200,000	-0,021	-0,123
-662,218	465,930	-0,074	0,121
-661,203	-200,000	0,006	0,135
-660,189	-78,662	0,043	0,011
-659,174	350,664	-0,084	-0,121
-658,159	-24,888	0,132	-0,057
-657,145	85,624	-0,048	-0,039
-656,130	19,092	-0,055	-0,032
-655,116	75,859	0,050	0,038
-654,101	800,000	0,050	0,149
-653,086	-111,358	0,071	0,010
-652,072	800,000	-0,021	0,046
-651,057	-200,000	-0,034	0,118
-650,043	-200,000	-0,002	-0,024
-649,028	800,000	-0,018	-0,053
-648,014	-160,296	-0,082	-0,003
-646,999	235,077	0,025	-0,030
-645,984	306,605	0,036	0,048
-644,970	-60,311	-0,062	-0,019
-643,955	-200,000	-0,005	0,070
-642,941	188,466	-0,016	0,017
-641,926	-40,330	-0,144	-0,054
-640,911	-125,802	0,136	-0,015
-639,897	10,062	0,057	0,031
-638,882	4,476	-0,125	0,066
-637,868	-19,050	0,054	0,024
-636,853	-49,629	-0,132	-0,045
-635,838	-200,000	-0,022	-0,122
-634,824	83,201	-0,090	-0,071
-633,809	88,094	-0,034	0,027
-632,795	-6,087	-0,107	-0,053
-631,780	-51,769	-0,032	-0,011
-630,765	-48,743	-0,074	-0,026
-629,751	800,000	-0,048	-0,144
-628,736	28,386	-0,071	-0,043
-627,722	-200,000	0,004	-0,029
-626,707	-200,000	0,009	-0,158
-625,692	101,079	0,089	0,075
-624,678	447,441	0,019	0,031
-623,663	36,025	-0,073	-0,046
-622,649	-112,919	0,123	-0,017
-621,634	-200,000	0,030	-0,134
-620,619	-44,722	0,045	0,016
-619,605	310,477	0,019	-0,026
-618,590	-200,000	0,004	0,071
-617,576	750,581	-0,046	0,091
-616,561	-200,000	-0,032	-0,121
-615,546	-85,632	-0,128	-0,029
-614,532	166,261	0,098	0,101
-613,517	18,725	-0,058	-0,033
-612,503	27,548	-0,134	-0,081
-611,488	800,000	0,032	0,071
-610,474	-200,000	0,000	0,061
-609,459	402,086	0,057	0,087
-608,444	4,305	-0,100	0,053
-607,430	277,475	-0,098	-0,126
-606,415	-112,385	-0,092	0,013
-605,401	-200,000	0,003	-0,038
-604,386	-134,332	0,105	0,009
-603,371	188,043	0,040	-0,043
-602,357	153,014	-0,099	0,098
-601,342	-29,119	0,094	-0,039
-600,328	800,000	-0,067	-0,213
-599,313	63,965	-0,133	-0,096
-598,298	29,736	0,023	0,014
-597,284	800,000	-0,013	-0,032
-596,269	-101,335	-0,069	0,012
-595,255	-112,539	0,160	-0,023
-594,240	192,886	-0,049	-0,054
-593,225	-26,727	-0,220	-0,093
-592,211	153,398	-0,096	-0,095
-591,196	800,000	-0,020	-0,052
-590,182	-200,000	-0,008	-0,063
-589,167	636,667	0,072	-0,134
-588,152	22,485	-0,145	-0,085
-587,138	-200,000	-0,011	0,040
-586,123	-134,183	-0,103	-0,009
-585,109	486,501	0,030	-0,049
-584,094	-200,000	-0,014	-0,146
-583,079	-117,579	0,128	0,017
-582,065	800,000	0,085	0,184
-581,050	-33,830	-0,060	-0,024
-580,036	118,173	0,162	0,144
-579,021	108,957	-0,078	0,067
-578,006	148,508	-0,140	-0,137
-576,992	-70,633	-0,079	0,021
-575,977	800,000	-0,064	0,153
-574,963	125,732	0,033	0,030
-573,948	46,604	-0,065	0,044
-572,934	800,000	0,019	-0,042
-571,919	405,862	0,104	-0,160
-570,904	800,000	-0,052	-0,161
-569,890	54,166	0,068	-0,047
-568,875	121,672	-0,045	0,040
-567,861	-19,815	-0,067	0,030
-566,846	114,359	0,030	-0,027
-565,831	800,000	0,049	-0,101
-564,817	-151,274	-0,018	-0,001
-563,802	61,447	0,074	-0,053
-562,788	297,939	0,063	0,084
-561,773	321,134	-0,073	-0,100
-560,758	499,040	0,098	0,164
-559,744	198,100	0,046	0,050
-558,729	751,619	0,043	0,085
-557,715	-65,811	-0,148	0,042
-556,700	-200,000	0,009	0,117
-555,685	100,141	-0,115	0,096
-554,671	341,599	0,029	0,041
-553,656	262,760	-0,051	0,064
-552,642	18,280	0,030	-0,017
-551,627	-48,075	0,049	-0,017
-550,612	159,280	-0,020	0,020
-549,598	-107,261	0,025	0,004
-548,583	-200,000	-0,032	0,133
-547,569	-44,726	-0,089	0,032
-546,554	-200,000	-0,008	-0,059
-545,539	-200,000	0,019	0,064
-544,525	-159,039	-0,051	0,002
-543,510	-67,469	-0,083	0,023
-542,496	22,567	0,068	-0,040
-541,481	468,761	0,069	-0,112
-540,466	485,349	-0,056	-0,093
-539,452	-100,624	0,187	-0,033
-538,437	22,260	-0,033	-0,019
-537,423	-200,000	0,042	-0,140
-536,408	800,000	0,048	0,131
-535,393	-181,185	-0,085	0,001
-534,379	-200,000	-0,013	-0,049
-533,364	-200,000	0,004	0,046
-532,350	-14,601	0,083	-0,039
-531,335	800,000	0,055	0,166
-530,321	5,337	0,068	0,036
-529,306	-68,777	0,071	0,020
-528,291	-76,667	-0,223	0,056
-527,277	-50,240	0,070	-0,024
-526,262	-200,000	0,000	-0,018
-525,248	3,917	-0,091	0,048
-524,233	-200,000	-0,008	-0,035
-523,218	-200,000	0,006	0,039
-522,204	-200,000	0,021	0,138
-521,189	-157,313	-0,162	0,007
-520,175	5,633	-0,090	-0,048
-519,160	800,000	0,045	-0,133
-518,145	-25,512	-0,136	0,058
-517,131	46,971	0,198	0,132
-516,116	-127,886	0,136	0,014
-515,102	40,548	-0,079	0,051
-514,087	-35,796	-0,108	-0,042
-513,072	800,000	-0,031	-0,082
-512,058	-169,797	0,047	-0,001
-511,043	-36,490	-0,065	0,025
-510,029	200,196	-0,036	0,040
-509,014	-200,000	0,045	0,192
-507,999	800,000	-0,049	0,127
-506,985	800,000	0,061	0,143
-505,970	-26,731	-0,073	0,030
-504,956	800,000	-0,019	-0,045
-503,941	61,663	-0,127	-0,091
-502,926	593,004	-0,062	0,112
-501,912	-200,000	0,014	0,173
-500,897	61,090	0,041	-0,029
-499,883	-54,119	-0,122	-0,040
-498,868	-71,737	-0,060	-0,016
-497,853	800,000	0,030	-0,094
-496,839	636,088	-0,032	-0,058
-495,824	92,352	0,065	0,053
-494,810	605,745	0,036	0,065
-493,795	-200,000	-0,009	0,110
-492,781	171,699	0,035	-0,036
-491,766	118,541	0,082	0,072
-490,751	43,658	0,085	-0,056
-489,737	-3,770	0,059	0,029
-488,722	588,649	-0,055	-0,098
-487,708	-200,000	0,019	0,068
-486,693	-200,000	0,008	0,119
-485,678	181,360	0,146	-0,155
-484,664	292,913	-0,052	-0,068
-483,649	179,492	-0,110	-0,116
-482,635	605,957	-0,016	0,028
-481,620	-200,000	0,015	-0,116
-480,605	-0,101	0,058	0,030
-479,591	-7,220	0,094	0,046
-478,576	-131,615	0,095	-0,009
-477,562	-27,682	-0,082	0,034
-476,547	-200,000	0,037	-0,129
-475,532	-200,000	-0,007	-0,048
-474,518	-138,266	0,089	0,007
-473,503	29,949	0,008	-0,005
-472,489	-154,569	0,178	-0,008
-471,474	-178,989	0,014	0,000
-470,459	-13,816	-0,085	-0,039
-469,445	125,327	-0,077	0,070
-468,430	800,000	-0,026	-0,057
-467,416	800,000	0,024	-0,065
-466,401	421,156	-0,072	0,112
-465,386	2,995	0,049	-0,026
-464,372	-62,101	0,063	-0,019
-463,357	-200,000	0,008	-0,124
-462,343	800,000	0,071	-0,159
-461,328	134,228	-0,069	-0,064
-460,313	208,415	0,031	-0,035
-459,299	800,000	0,004	-0,012
-458,284	173,373	0,058	0,060
-457,270	182,617	-0,012	-0,013
-456,255	-200,000	-0,014	-0,078
-455,241	-13,653	-0,061	0,028
-454,226	129,089	-0,065	0,060
-453,211	-40,685	0,028	-0,010
-452,197	-152,093	0,082	0,004
-451,182	-200,000	-0,007	0,189
-450,168	-200,000	0,011	-0,120
-449,153	209,564	-0,059	-0,066
-448,138	17,985	0,132	0,075
-447,124	346,977	-0,056	-0,080
-446,109	-37,300	0,044	0,017
-445,095	44,031	0,023	-0,015
-444,080	-200,000	0,021	0,071
-443,065	-200,000	0,029	0,197
-442,051	-74,145	-0,048	0,012
-441,036	-5,981	-0,096	0,047
-440,022	-200,000	0,003	0,030
-439,007	-152,953	0,054	0,003
-437,992	800,000	-0,022	-0,066
-436,978	-106,693	0,072	-0,011
-435,963	-35,402	0,078	-0,030
-434,949	100,505	-0,035	0,029
-433,934	-45,931	0,048	0,017
-432,919	-200,000	0,046	-0,173
-431,905	64,153	-0,031	0,023
-430,890	32,357	0,093	0,057
-429,876	167,040	-0,145	0,148
-428,861	30,318	0,082	0,050
-427,846	800,000	-0,018	0,036
-426,832	-200,000	0,002	-0,038
-425,817	-112,366	-0,052	0,007
-424,803	-200,000	-0,001	0,103
-423,788	-200,000	-0,013	-0,055
-422,773	800,000	-0,048	-0,128
-421,759	-106,881	0,073	0,012
-420,744	-97,267	-0,039	0,007
-419,730	509,138	0,040	-0,067
-418,715	-200,000	0,008	0,072
-417,701	94,816	-0,016	0,013
-416,686	253,747	-0,049	0,060
-415,671	150,038	0,049	-0,048
-414,657	81,584	0,054	0,042
-413,642	-125,096	-0,025	-0,003
-412,628	-117,787	-0,105	-0,013
-411,613	-200,000	-0,029	-0,100
-410,598	-200,000	-0,001	-0,038
-409,584	235,380	0,047	-0,056
-408,569	-59,731	0,086	-0,026
-407,555	-200,000	-0,020	-0,068
-406,540	800,000	0,030	-0,067
-405,525	328,833	0,033	-0,045
-404,511	-200,000	-0,018	-0,124
-403,496	6,137	-0,040	0,021
-402,482	-187,653	0,082	-0,001
-401,467	49,531	0,101	0,068
-400,452	-200,000	0,014	-0,063
-399,438	-200,000	-0,027	0,088
-398,423	156,684	0,103	-0,102
-397,409	-200,000	0,047	-0,178
-396,394	127,628	-0,110	-0,100
-395,379	-70,398	0,115	0,031
-394,365	-200,000	-0,027	0,142
-393,350	-60,988	0,015	0,005
-392,336	324,202	-0,022	-0,030
-391,321	800,000	-0,034	0,098
-390,306	-68,376	-0,050	0,014
-389,292	4,051	0,144	-0,075
-388,277	-91,105	-0,138	-0,028
-387,263	1,408	0,052	0,027
-386,248	95,505	0,080	0,065
-385,233	-75,605	-0,067	-0,017
-384,219	-200,000	-0,015	0,064
-383,204	43,478	0,094	0,061
-382,190	-200,000	-0,009	-0,032
-381,175	-82,989	0,007	0,002
-380,160	-79,857	0,155	0,037
-379,146	-184,377	0,066	0,001
-378,131	-111,742	0,059	-0,008
-377,117	-200,000	0,019	-0,088
-376,102	-69,595	-0,030	-0,008
-375,088	-200,000	0,019	-0,098
-374,073	800,000	0,070	0,178
-373,058	126,925	-0,105	0,095
-372,044	339,851	0,114	0,160
-371,029	-104,099	0,080	-0,013
-370,015	175,217	-0,030	0,031
-369,000	-111,130	-0,136	-0,020
-367,985	-200,000	-0,021	0,082
-366,971	-200,000	0,003	0,032
-365,956	-103,408	0,080	-0,013
-364,942	442,311	0,015	0,024
-363,927	219,293	0,049	0,056
-362,912	800,000	0,033	-0,078
-361,898	-43,339	0,029	-0,011
-360,883	512,061	0,027	0,046
-359,869	298,003	-0,020	0,027
-358,854	-140,852	-0,099	-0,007
-357,839	8,426	0,122	-0,066
-356,825	625,385	-0,035	-0,063
-355,810	17,308	0,098	-0,056
-354,796	407,448	-0,048	-0,072
-353,781	-55,882	-0,049	0,016
-352,766	800,000	0,027	-0,061
-351,752	65,173	-0,060	-0,043
-350,737	25,163	-0,018	-0,010
-349,723	-200,000	0,005	-0,025
-348,708	800,000	0,050	0,139
-347,693	-200,000	-0,002	-0,090
-346,679	-8,584	-0,094	0,045
-345,664	-200,000	0,003	0,068
-344,650	-112,293	0,073	0,010
-343,635	-200,000	0,023	-0,092
-342,620	800,000	0,015	-0,045
-341,606	89,728	-0,078	-0,062
-340,591	-88,208	-0,068	-0,014
-339,577	-148,082	0,078	-0,005
-338,562	312,768	0,021	-0,029
-337,548	165,472	0,078	0,079
-336,533	-3,566	-0,129	0,064
-335,518	74,071	0,146	0,109
-334,504	-200,000	-0,024	0,144
-333,489	-200,000	-0,015	0,054
-332,475	76,225	-0,049	0,037
-331,460	-200,000	0,004	0,080
-330,445	299,726	-0,019	-0,025
-329,431	-200,000	0,010	-0,033
-328,416	253,647	-0,086	0,105
-327,402	-51,090	0,027	0,009
-326,387	1,207	-0,043	0,022
-325,372	-128,797	-0,100	0,010
-324,358	30,341	0,029	-0,018
-323,343	-200,000	0,047	-0,153
-322,329	-120,822	0,088	-0,010
-321,314	-109,492	0,060	-0,009
-320,299	-64,991	-0,045	-0,013
-319,285	22,127	0,089	-0,052
-318,270	273,689	-0,063	0,080
-317,256	-200,000	0,009	-0,045
-316,241	757,505	0,060	-0,116
-315,226	106,390	0,026	-0,022
-314,212	-200,000	-0,005	-0,066
-313,197	-200,000	-0,031	0,105
-312,183	-19,056	-0,059	0,026
-311,168	-54,062	0,141	-0,046
-310,153	270,209	0,048	-0,060
-309,139	306,159	0,069	-0,092
-308,124	85,833	-0,105	-0,083
-307,110	478,907	0,076	0,124
-306,095	800,000	-0,016	-0,047
-305,080	-200,000	0,012	0,043
-304,066	800,000	0,054	-0,129
-303,051	-63,623	-0,087	0,025
-302,037	195,999	0,053	0,057
-301,022	-200,000	-0,037	0,186
-300,008	-30,463	0,099	-0,040
-298,993	-200,000	0,007	-0,057
-297,978	27,461	0,028	0,017
-296,964	313,044	0,021	0,028
-295,949	225,291	0,023	-0,027
-294,935	-200,000	-0,001	-0,050
-293,920	614,992	0,038	0,068
-292,905	-200,000	0,008	0,107
-291,891	-112,607	0,010	0,001
-290,876	23,656	0,037	0,022
-289,862	-66,737	-0,093	0,026
-288,847	-200,000	-0,025	0,081
-287,832	148,898	-0,037	-0,036
-286,818	-179,659	-0,150	0,002
-285,803	28,453	0,092	-0,056
-284,789	98,853	0,074	0,061
-283,774	3,639	0,104	0,054
-282,759	410,043	0,044	-0,067
-281,745	516,134	-0,028	0,047
-280,730	800,000	-0,067	-0,149
-279,716	-200,000	0,006	-0,096
-278,701	-200,000	0,014	-0,044
-277,686	-35,675	-0,028	-0,011
-276,672	122,344	-0,074	-0,066
-275,657	333,174	-0,049	-0,068
-274,643	-200,000	-0,019	-0,172
-273,628	-200,000	0,019	-0,100
-272,613	518,299	0,091	0,152
-271,599	328,210	0,016	0,022
-270,584	-200,000	0,020	0,120
-269,570	243,534	0,046	0,056
-268,555	800,000	-0,060	0,165
-267,540	800,000	-0,057	-0,116
-266,526	155,027	-0,007	-0,007
-265,511	-200,000	-0,026	-0,145
-264,497	-78,217	-0,030	-0,007
-263,482	280,183	0,054	0,070
-262,467	-163,715	0,079	0,003
-261,453	-200,000	-0,016	0,068
-260,438	-40,023	-0,036	-0,013
-259,424	-200,000	-0,008	-0,106
-258,409	-79,545	-0,159	-0,038
-257,395	359,945	-0,016	0,023
-256,380	-74,601	0,191	-0,049
-255,365	-200,000	0,009	-0,029
-254,351	800,000	0,043	-0,131
-253,336	-27,849	-0,038	0,015
-252,322	-200,000	0,000	-0,035
-251,307	-117,829	0,165	0,021
-250,292	-180,808	0,130	0,002
-249,278	800,000	0,037	0,101
-248,263	-11,607	-0,072	0,034
-247,249	-61,807	-0,104	0,031
-246,234	48,561	0,072	-0,048
-245,219	-200,000	0,018	0,115
-244,205	800,000	-0,043	-0,091
-243,190	540,363	0,022	-0,037
-242,176	-124,871	-0,034	0,004
-241,161	-200,000	-0,013	0,098
-240,146	-200,000	-0,009	0,030
-239,132	-200,000	0,003	0,020
-238,117	-142,957	-0,105	0,007
-237,103	106,793	0,092	-0,078
-236,088	-200,000	0,016	-0,186
-235,073	-200,000	0,028	-0,118
-234,059	67,633	0,074	0,054
-233,044	-200,000	-0,040	0,132
-232,030	-200,000	-0,001	0,035
-231,015	800,000	-0,032	-0,069
-230,000	134,418	0,037	0,034
-228,986	42,003	-0,092	0,059
-227,971	-200,000	-0,009	0,104
-226,957	77,838	0,107	-0,081
-225,942	-20,928	-0,170	0,074
-224,927	5,955	-0,059	-0,031
-223,913	291,063	-0,088	-0,115
-222,898	800,000	0,025	-0,076
-221,884	315,033	0,054	0,073
-220,869	234,737	0,056	0,066
-219,855	418,657	0,053	0,082
-218,840	-200,000	0,018	-0,066
-217,825	-145,519	0,051	0,003
-216,811	66,345	0,045	0,033
-215,796	172,910	-0,134	-0,138
-214,782	-200,000	-0,004	0,018
-213,767	-200,000	-0,024	-0,099
-212,752	-16,180	0,103	0,046
-211,738	-200,000	0,007	-0,048
-210,723	-200,000	0,027	0,116
-209,709	800,000	-0,020	-0,045
-208,694	-185,843	-0,053	0,001
-207,679	-200,000	-0,013	-0,060
-206,665	769,287	0,058	0,113
-205,650	800,000	0,059	0,141
-204,636	102,355	-0,071	0,059
-203,621	-26,255	0,113	0,047
-202,606	-200,000	-0,019	-0,094
-201,592	137,363	-0,035	-0,033
-200,577	4,767	0,134	0,070
-199,563	800,000	0,090	0,189
-198,548	800,000	-0,026	0,075
-197,533	-125,600	0,068	-0,007
-196,519	125,903	-0,117	0,105
-195,504	243,166	-0,022	0,026
-194,490	-168,233	-0,084	-0,002
-193,475	220,804	-0,082	-0,093
-192,460	21,229	-0,077	0,044
-191,446	-200,000	0,118	0,000
-190,431	178,456	0,148	0,154
-189,417	-200,000	0,030	0,104
-188,402	21,413	-0,155	0,089
-187,387	206,182	-0,035	0,038
-186,373	21,510	-0,090	0,052
-185,358	17,172	0,103	0,058
-184,344	-200,000	0,054	0,185
-183,329	-133,506	-0,041	0,004
-182,315	-60,599	0,150	-0,045
-181,300	756,625	0,064	-0,123
-180,285	114,209	-0,044	0,038
-179,271	265,418	-0,043	-0,053
-178,256	167,051	-0,057	0,058
-177,242	-200,000	0,010	0,090
-176,227	-34,693	0,129	-0,050
-175,212	202,432	-0,088	0,097
-174,198	285,513	-0,021	0,027
-173,183	-200,000	0,017	-0,062
-172,169	-181,721	-0,202	-0,003
-171,154	-200,000	-0,037	-0,221
-170,139	-35,027	0,111	-0,043
-169,125	-122,958	-0,125	-0,014
-168,110	-141,686	0,055	0,004
-167,096	167,488	0,011	0,011
-166,081	-141,444	-0,152	0,011
-165,066	193,621	-0,131	-0,141
-164,052	53,569	0,040	0,027
-163,037	-70,819	-0,073	0,019
-162,023	-3,720	0,025	-0,012
-161,008	-54,089	-0,055	-0,018
-159,993	-105,380	0,065	-0,010
-158,979	-200,000	-0,014	-0,048
-157,964	-200,000	0,016	-0,056
-156,950	-11,952	-0,163	0,076
-155,935	800,000	0,036	0,095
-154,920	657,120	0,095	0,174
-153,906	-111,974	0,066	-0,009
-152,891	327,437	0,020	-0,027
-151,877	-92,471	-0,170	-0,034
-150,862	507,515	-0,050	-0,083
-149,847	-85,827	0,090	0,020
-148,833	-22,802	-0,135	-0,058
-147,818	50,152	0,078	-0,052
-146,804	592,131	0,037	0,065
-145,789	-200,000	0,003	0,047
-144,775	-78,192	-0,113	0,027
-143,760	272,507	-0,044	-0,056
-142,745	130,058	-0,071	-0,064
-141,731	-200,000	0,006	-0,060
-140,716	175,153	0,112	0,116
-139,702	-118,535	-0,074	0,009
-138,687	-200,000	0,016	-0,145
-137,672	538,384	0,084	0,142
-136,658	800,000	-0,048	0,109
-135,643	-200,000	-0,007	0,066
-134,629	207,022	-0,036	0,040
-133,614	116,040	0,015	-0,013
-132,599	-61,523	0,083	-0,025
-131,585	-200,000	0,001	0,056
-130,570	57,149	0,023	-0,016
-129,556	-200,000	-0,003	-0,099
-128,541	205,298	-0,048	-0,054
-127,526	222,838	0,059	0,067
-126,512	95,370	-0,084	0,068
-125,497	-56,762	0,129	0,040
-124,483	-35,390	0,179	0,069
-123,468	44,958	0,092	0,060
-122,453	-200,000	-0,022	-0,089
-121,439	800,000	0,074	-0,166
-120,424	167,783	0,055	0,056
-119,410	220,526	0,070	0,080
-118,395	-115,981	0,138	0,018
-117,380	137,677	-0,048	0,045
-116,366	-6,151	0,070	0,034
-115,351	-111,835	-0,110	-0,016
-114,337	800,000	0,042	-0,119
-113,322	-107,444	0,146	0,022
-112,307	-200,000	0,004	0,055
-111,293	-148,281	0,178	-0,010
-110,278	97,991	0,167	0,136
-109,264	-19,328	-0,011	0,005
-108,249	-200,000	0,005	-0,091
-107,234	800,000	-0,034	0,099
-106,220	-200,000	-0,036	0,164
-105,205	-200,000	0,039	0,128
-104,191	275,702	-0,018	0,022
-103,176	54,191	-0,020	0,014
-102,162	-141,151	0,104	-0,007
-101,147	-52,352	-0,081	0,026
-100,132	-54,923	-0,124	-0,039
-99,118	-200,000	0,009	0,039
-98,103	800,000	0,056	0,120
-97,089	-12,136	0,101	0,047
-96,074	259,615	-0,028	-0,034
-95,059	-200,000	0,001	-0,040
-94,045	110,299	-0,045	-0,038
-93,030	-168,244	-0,076	-0,002
-92,016	147,359	-0,147	-0,140
-91,001	-200,000	0,007	-0,049
-89,986	-64,505	-0,023	-0,007
-88,972	-95,395	0,092	-0,017
-87,957	-200,000	-0,005	-0,093
-86,943	-200,000	0,010	-0,069
-85,928	142,990	0,113	-0,107
-84,913	-97,982	-0,085	0,015
-83,899	-75,776	-0,064	-0,016
-82,884	370,454	-0,061	-0,088
-81,870	800,000	-0,058	0,181
-80,855	-34,995	0,162	0,062
-79,840	162,430	-0,042	0,042
-78,826	-88,196	-0,038	-0,008
-77,811	-200,000	-0,019	-0,076
-76,797	-153,122	0,130	-0,006
-75,782	262,863	0,032	-0,039
-74,767	92,431	-0,081	0,064
-73,753	-30,695	0,159	0,063
-72,738	100,978	0,106	-0,088
-71,724	-51,954	-0,099	-0,032
-70,709	-200,000	-0,003	-0,046
-69,694	405,881	-0,037	0,055
-68,680	-200,000	0,025	0,087
-67,665	162,343	-0,038	0,037
-66,651	800,000	-0,032	0,092
-65,636	-200,000	0,036	-0,120
-64,622	23,677	-0,150	-0,087
-63,607	-200,000	-0,016	-0,109
-62,592	145,543	-0,151	-0,144
-61,578	800,000	0,026	-0,056
-60,563	154,237	0,021	0,021
-59,549	-100,788	0,015	-0,003
-58,534	-7,692	-1,550	-0,739
-57,519	414,644	-1,349	-2,040
-56,505	-200,000	-0,415	-4,494
-55,490	169,150	1,082	1,094
-54,476	800,000	4,937	11,325
-53,461	-200,000	19,267	319,834
-52,446	-200,000	740,765	2333,792
-51,432	573,174	1655,571	2868,574
-50,417	78,268	1670,907	1261,530
-49,403	21,324	1543,714	885,520
-48,388	15,166	1466,545	811,304
-47,373	17,985	1456,336	819,248
-46,359	16,657	1446,647	807,394
-45,344	13,396	1441,834	789,055
-44,330	13,404	1439,874	787,992
-43,315	13,365	1437,949	786,722
-42,300	13,338	1436,586	785,816
-41,286	13,375	1435,388	785,303
-40,271	13,325	1434,055	784,306
-39,257	13,338	1432,681	783,582
-38,242	13,380	1431,418	783,065
-37,227	13,403	1430,019	782,374
-36,213	13,411	1428,680	781,652
-35,198	13,392	1427,808	781,053
-34,184	13,438	1426,774	780,672
-33,169	13,346	1425,455	779,486
-32,154	13,386	1424,427	779,081
-31,140	13,450	1422,965	778,554
-30,125	13,451	1421,911	777,951
-29,111	13,402	1420,781	777,070
-28,096	13,389	1419,617	776,339
-27,082	13,372	1418,628	775,690
-26,067	13,333	1417,375	774,789
-25,052	13,305	1416,299	774,037
-24,038	13,271	1415,585	773,457
-23,023	13,281	1414,522	772,893
-22,009	13,319	1413,445	772,451
-20,994	13,287	1412,604	771,811
-19,979	13,254	1411,652	771,106
-18,965	13,243	1410,663	770,485
-17,950	13,269	1409,761	770,084
-16,936	13,273	1408,836	769,564
-15,921	13,244	1407,577	768,712
-14,906	13,201	1407,008	768,171
-13,892	13,257	1405,873	767,780
-12,877	13,260	1404,936	767,252
-11,863	13,246	1404,108	766,702
-10,848	13,243	1403,196	766,161
-9,833	13,216	1402,371	765,555
-8,819	13,125	1401,760	764,768
-7,804	13,173	1400,569	764,313
-6,790	13,169	1399,598	763,733
-5,775	13,211	1398,365	763,223
-4,760	13,167	1397,374	762,449
-3,746	13,148	1396,561	761,887
-2,731	13,099	1396,097	761,377
-1,717	13,114	1395,036	760,835
-0,702	13,149	1393,064	759,891
0,313	16,979	1310,048	732,353
1,327	33,331	703,547	431,079
2,342	50,878	123,259	82,480
3,356	2,267	16,669	8,498
4,371	17,940	3,215	1,807
5,386	-30,365	0,560	0,224
6,400	-200,000	0,039	0,216
7,415	90,570	-0,168	-0,133
8,429	119,208	-0,291	-0,255
9,444	91,274	-0,367	-0,291
10,459	216,200	-0,133	-0,150
11,473	-1,450	-0,327	-0,163
12,488	-100,599	-0,303	-0,052
13,502	-23,448	-0,243	-0,103
14,517	-34,121	-0,352	-0,136
15,531	23,282	-0,213	-0,123
16,546	90,237	-0,318	-0,251
17,561	132,971	-0,370	-0,338
18,575	-72,125	-0,304	-0,079
19,590	800,000	-0,083	-0,247
20,604	-126,496	-0,367	-0,038
21,619	64,114	-0,417	-0,296
22,634	349,876	-0,327	-0,457
23,648	74,836	-0,459	-0,341
24,663	16,617	-0,574	-0,320
25,677	162,406	-0,328	-0,325
26,692	228,475	-0,261	-0,300
27,707	102,960	-0,379	-0,314
28,721	134,357	-0,314	-0,288
29,736	72,624	-0,416	-0,306
30,750	208,610	-0,411	-0,454
31,765	104,170	-0,290	-0,241
32,780	115,473	-0,403	-0,347
33,794	64,100	-0,432	-0,306
34,809	49,356	-0,296	-0,196
35,823	67,877	-0,392	-0,282
36,838	-70,545	-0,447	-0,118
37,853	118,716	-0,351	-0,306
38,867	119,005	-0,319	-0,278
39,882	55,589	-0,355	-0,242
40,896	13,040	-0,409	-0,222
41,911	69,738	-0,330	-0,240
42,926	81,636	-0,374	-0,285
43,940	128,784	-0,299	-0,269
44,955	18,189	-0,298	-0,167
45,969	145,527	-0,359	-0,339
46,984	218,676	-0,267	-0,301
47,999	5,738	-0,407	-0,212
49,013	-28,556	-0,248	-0,100
50,028	92,505	-0,318	-0,253
51,042	123,077	-0,321	-0,283
52,057	-4,860	-0,511	-0,247
53,071	15,912	-0,296	-0,164
54,086	101,074	-0,350	-0,286
55,101	-5,684	-0,249	-0,120
56,115	1,387	-0,276	-0,139
57,130	-24,070	-0,376	-0,157
58,144	66,106	-0,414	-0,296
59,159	178,874	-0,371	-0,382
60,174	34,848	-0,386	-0,237
61,188	199,224	-0,270	-0,292
62,203	102,755	-0,297	-0,244
63,217	48,635	-0,457	-0,301
64,232	395,459	-0,200	-0,294
65,247	171,694	-0,331	-0,334
66,261	95,779	-0,368	-0,295
67,276	49,100	-0,347	-0,229
68,290	121,497	-0,240	-0,211
69,305	326,637	-0,202	-0,273
70,320	233,578	-0,205	-0,237
71,334	81,667	-0,179	-0,136
72,349	60,463	-0,273	-0,190
73,363	20,487	-0,353	-0,200
74,378	228,077	-0,363	-0,416
75,393	4,474	-0,426	-0,219
76,407	-11,581	-0,311	-0,143
77,422	55,197	-0,311	-0,211
78,436	222,834	-0,207	-0,235
79,451	20,940	-0,317	-0,180
80,466	690,935	-0,186	-0,344
81,480	88,566	-0,298	-0,232
82,495	253,188	-0,225	-0,270
83,509	-120,575	-0,260	-0,031
84,524	63,769	-0,235	-0,166
85,539	24,280	-0,294	-0,170
86,553	27,803	-0,321	-0,190
87,568	-4,196	-0,314	-0,152
88,582	61,447	-0,331	-0,231
89,597	91,253	-0,322	-0,254
90,611	-44,520	-0,289	-0,101
91,626	51,549	-0,316	-0,210
92,641	241,749	-0,137	-0,161
93,655	-180,914	-0,297	-0,004
94,670	56,661	-0,324	-0,221
95,684	91,576	-0,309	-0,244
96,699	135,714	-0,335	-0,306
97,714	331,264	-0,216	-0,292
98,728	5,276	-0,298	-0,154
99,743	88,656	-0,237	-0,185
100,757	-51,412	-0,275	-0,090
101,772	-61,563	-0,260	-0,076
102,787	85,304	-0,289	-0,222
103,801	270,164	-0,238	-0,294
104,816	346,815	-0,151	-0,209
105,830	-129,750	-0,215	-0,021
106,845	-87,773	-0,255	-0,053
107,860	-41,952	-0,223	-0,079
108,874	-81,987	-0,359	-0,082
109,889	-4,602	-0,290	-0,140
110,903	131,399	-0,273	-0,246
111,918	143,147	-0,174	-0,163
112,933	265,927	-0,178	-0,218
113,947	117,154	-0,200	-0,172
114,962	-1,936	-0,179	-0,088
115,976	72,104	-0,307	-0,224
116,991	395,305	-0,199	-0,292
118,006	160,926	-0,291	-0,285
119,020	11,699	-0,312	-0,167
120,035	218,303	-0,130	-0,146
121,049	-57,497	-0,283	-0,086
122,064	13,485	-0,241	-0,131
123,079	-143,219	-0,213	-0,014
124,093	152,246	-0,209	-0,200
125,108	-1,625	-0,308	-0,151
126,122	-12,270	-0,295	-0,134
127,137	226,629	-0,178	-0,202
128,151	56,866	-0,212	-0,145
129,166	280,315	-0,165	-0,207
130,181	77,170	-0,235	-0,175
131,195	-19,204	-0,272	-0,117
132,210	74,094	-0,351	-0,258
133,224	365,409	-0,201	-0,284
134,239	29,894	-0,340	-0,202
135,254	-0,988	-0,220	-0,109
136,268	-9,480	-0,175	-0,082
137,283	14,033	-0,277	-0,150
138,297	90,997	-0,208	-0,163
139,312	-7,705	-0,255	-0,120
140,327	706,642	-0,094	-0,174
141,341	116,917	-0,221	-0,190
142,356	29,769	-0,226	-0,134
143,370	136,147	-0,246	-0,224
144,385	44,447	-0,203	-0,130
145,400	-5,276	-0,323	-0,155
146,414	57,563	-0,261	-0,178
147,429	145,549	-0,110	-0,103
148,443	49,716	-0,238	-0,156
149,458	114,251	-0,198	-0,168
150,473	36,780	-0,214	-0,132
151,487	738,494	-0,125	-0,235
152,502	70,769	-0,267	-0,193
153,516	30,330	-0,262	-0,156
154,531	292,166	-0,228	-0,290
155,546	311,880	-0,097	-0,128
156,560	66,058	-0,197	-0,140
157,575	132,388	-0,268	-0,242
158,589	-52,819	-0,289	-0,093
159,604	179,648	-0,263	-0,269
160,619	55,489	-0,302	-0,204
161,633	196,199	-0,209	-0,222
162,648	-0,972	-0,183	-0,090
163,662	28,249	-0,182	-0,107
164,677	-158,832	-0,301	-0,012
165,692	-46,722	-0,314	-0,107
166,706	92,614	-0,178	-0,140
167,721	141,425	-0,181	-0,167
168,735	181,972	-0,204	-0,210
169,750	324,043	-0,158	-0,211
170,764	451,902	-0,183	-0,283
171,779	-40,548	-0,278	-0,100
172,794	82,727	-0,115	-0,087
173,808	-16,636	-0,230	-0,101
174,823	253,420	-0,259	-0,308
175,837	4,064	-0,342	-0,174
176,852	101,013	-0,142	-0,115
177,867	-15,366	-0,290	-0,129
178,881	210,118	-0,102	-0,111
179,896	-53,523	-0,162	-0,051
180,910	43,682	-0,210	-0,134
181,925	466,271	-0,173	-0,271
182,940	167,607	-0,199	-0,197
183,954	21,467	-0,112	-0,063
184,969	-23,159	-0,256	-0,107
185,983	137,124	-0,149	-0,136
186,998	23,323	-0,223	-0,127
188,013	619,694	-0,177	-0,312
189,027	369,916	-0,227	-0,321
190,042	360,396	-0,133	-0,186
191,056	545,869	-0,165	-0,276
192,071	246,167	-0,260	-0,305
193,086	-12,513	-0,337	-0,153
194,100	256,966	-0,265	-0,318
195,115	48,760	-0,145	-0,095
196,129	-135,120	-0,141	-0,012
197,144	90,408	-0,169	-0,131
198,159	146,762	-0,256	-0,239
199,173	61,493	-0,172	-0,119
200,188	-146,863	-0,165	0,010
201,202	117,023	-0,164	-0,140
202,217	375,724	-0,201	-0,285
203,232	800,000	-0,161	-0,311
204,246	37,850	-0,154	-0,095
205,261	304,073	-0,158	-0,204
206,275	574,363	-0,087	-0,148
207,290	332,094	-0,112	-0,151
208,304	-98,248	-0,099	0,017
209,319	102,474	-0,227	-0,184
210,334	186,601	-0,120	-0,124
211,348	404,451	-0,146	-0,214
212,363	34,176	-0,147	-0,089
213,377	205,886	-0,258	-0,279
214,392	197,696	-0,120	-0,127
215,407	62,728	-0,141	-0,098
216,421	98,188	-0,131	-0,105
217,436	252,094	-0,196	-0,233
218,450	800,000	-0,154	-0,308
219,465	107,564	-0,147	-0,122
220,480	-200,000	-0,069	-0,252
221,494	-7,007	-0,249	-0,117
222,509	170,767	-0,111	-0,110
223,523	-48,060	-0,164	-0,055
224,538	22,171	-0,226	-0,128
225,553	80,556	-0,267	-0,200
226,567	101,844	-0,298	-0,241
227,582	362,187	-0,171	-0,239
228,596	-109,691	-0,115	0,017
229,611	243,519	-0,130	-0,151
230,626	778,179	-0,084	-0,159
231,640	50,466	-0,153	-0,100
232,655	484,832	-0,138	-0,218
233,669	-54,971	-0,308	-0,096
234,684	-200,000	-0,085	-0,278
235,699	32,391	-0,221	-0,132
236,713	17,247	-0,130	-0,071
237,728	20,733	-0,200	-0,112
238,742	86,092	-0,176	-0,134
239,757	103,019	-0,236	-0,191
240,772	156,298	-0,270	-0,259
241,786	-96,847	-0,244	-0,044
242,801	-102,484	-0,155	-0,025
243,815	74,322	-0,194	-0,141
244,830	731,439	-0,108	-0,201
245,844	44,778	-0,156	-0,099
246,859	568,628	-0,173	-0,293
247,874	90,787	-0,122	-0,095
248,888	128,745	-0,200	-0,176
249,903	50,177	-0,108	-0,070
250,917	68,299	-0,173	-0,123
251,932	-200,000	-0,009	-0,135
252,947	-104,829	-0,054	-0,009
253,961	146,365	-0,215	-0,200
254,976	76,843	-0,319	-0,234
255,990	41,022	-0,192	-0,120
257,005	-98,998	-0,106	-0,018
258,020	217,504	-0,159	-0,176
259,034	-13,578	-0,097	-0,043
260,049	800,000	-0,055	-0,152
261,063	72,804	-0,141	-0,101
262,078	-11,284	-0,180	-0,082
263,093	48,424	-0,220	-0,142
264,107	-62,474	-0,306	-0,087
265,122	-17,414	-0,080	0,035
266,136	-124,703	-0,162	-0,017
267,151	-70,415	-0,153	-0,040
268,166	216,406	-0,181	-0,200
269,180	303,567	-0,171	-0,220
270,195	-79,415	-0,190	-0,044
271,209	237,733	-0,082	-0,094
272,224	-155,935	-0,165	-0,007
273,239	56,290	-0,156	-0,104
274,253	-200,000	-0,050	-0,205
275,268	-151,753	-0,177	-0,009
276,282	-181,048	-0,296	0,004
277,297	253,843	-0,083	-0,098
278,312	104,787	-0,221	-0,180
279,326	221,554	-0,250	-0,277
280,341	-87,578	-0,109	0,023
281,355	239,444	-0,178	-0,205
282,370	7,470	-0,126	-0,065
283,384	9,992	-0,322	-0,168
284,399	119,896	-0,198	-0,169
285,414	120,000	-0,263	-0,225
286,428	800,000	-0,031	0,077
287,443	800,000	-0,054	-0,148
288,457	323,070	-0,145	-0,191
289,472	800,000	-0,085	-0,219
290,487	-200,000	-0,015	-0,091
291,501	203,003	-0,081	-0,086
292,516	-16,695	-0,165	-0,072
293,530	-200,000	-0,059	-0,262
294,545	193,441	-0,168	-0,175
295,560	-18,121	-0,142	-0,061
296,574	198,569	-0,147	-0,155
297,589	164,232	-0,185	-0,180
298,603	191,610	-0,107	-0,111
299,618	769,433	-0,112	-0,211
300,633	-10,319	-0,242	-0,110
301,647	180,760	-0,147	-0,149
302,662	165,959	-0,111	-0,108
303,676	-48,640	-0,162	0,053
304,691	359,283	-0,077	-0,106
305,706	25,481	-0,113	-0,065
306,720	213,917	-0,153	-0,167
307,735	-200,000	-0,059	-0,191
308,749	-5,705	-0,133	-0,063
309,764	-50,287	-0,139	0,045
310,779	-200,000	-0,072	-0,260
311,793	-200,000	-0,017	-0,201
312,808	602,068	-0,125	-0,215
313,822	52,531	-0,193	-0,127
314,837	19,953	-0,221	-0,122
315,852	-200,000	-0,033	-0,174
316,866	-92,873	-0,083	-0,016
317,881	204,651	-0,117	-0,125
318,895	-111,561	-0,222	-0,031
319,910	79,244	-0,231	-0,170
320,925	210,904	-0,171	-0,185
321,939	620,694	-0,104	-0,180
322,954	55,096	-0,146	-0,097
323,968	800,000	-0,046	-0,109
324,983	-143,281	-0,242	-0,016
325,997	62,246	-0,132	-0,090
327,012	242,382	-0,167	-0,192
328,027	-154,949	-0,143	0,006
329,041	-200,000	-0,048	-0,228
330,056	-132,869	-0,099	0,009
331,070	83,784	-0,042	-0,032
332,085	-82,095	-0,116	-0,026
333,100	25,445	-0,076	-0,043
334,114	47,252	-0,100	-0,064
335,129	238,900	-0,129	-0,148
336,143	800,000	-0,091	-0,190
337,158	-22,565	-0,274	-0,113
338,173	-93,573	-0,220	-0,041
339,187	-161,624	-0,131	-0,005
340,202	14,988	-0,197	-0,105
341,216	-200,000	-0,017	0,053
342,231	120,957	-0,118	-0,100
343,246	162,492	-0,276	-0,266
344,260	59,295	-0,110	-0,074
345,275	-200,000	-0,040	-0,156
346,289	31,881	-0,109	-0,064
347,304	800,000	-0,028	-0,078
348,319	-200,000	0,001	-0,029
349,333	4,734	-0,245	-0,123
350,348	800,000	-0,130	-0,305
351,362	400,579	-0,117	-0,169
352,377	204,490	-0,055	-0,059
353,392	800,000	-0,075	-0,146
354,406	800,000	-0,112	-0,231
355,421	209,317	1312,290	1411,854
356,435	161,088	1472,729	1412,332
