DTS Sentinel unit serial number:	SN410029Multiplexer serial number:	ORYXHardware model number:	OX2-SRSoftware version number:	ORYX F/W v4,00 Oryx Data Collector v3.7.2.0data status	okinstallation	B3 Nyhavnadifferential loss correction	single-endedforward channel	channel 1reverse channel	N/Adate	2023/12/04time	22:12:30forward acquisition time	300,00reverse acquisition time	0,00gamma	499,1914k internal	0,3201k external	0,3201temperature offset calibration	1,0000default loss term (dB/km)	0,3820temperature slope calibration	1,0000multiplexer offset coefficient	1,0000multiplexer slope coefficient	1,0000fibre end	0,00T internal ref (°C)	14,55T ext. ref 1 (°C)	-0,57T ext. ref 2 (°C)	-0,57length (m)	temperature (°C)	Stokes	anti-Stokes-744,400	166,455	-0,258	-0,266
-743,385	800,000	0,093	0,273
-742,371	175,327	-0,282	-0,297
-741,356	745,152	0,184	0,361
-740,342	25,436	-0,308	-0,186
-739,327	172,440	0,165	0,173
-738,312	77,077	-0,286	-0,221
-737,298	-200,000	-0,010	0,325
-736,283	67,565	-0,295	-0,219
-735,269	-200,000	0,040	0,320
-734,254	638,664	-0,114	-0,211
-733,239	33,786	-0,179	0,113
-732,225	800,000	-0,066	-0,180
-731,210	800,000	-0,063	0,137
-730,196	633,635	0,029	-0,054
-729,181	274,576	0,014	-0,018
-728,167	-69,729	0,092	0,025
-727,152	242,587	0,031	0,037
-726,137	231,852	-0,039	-0,047
-725,123	704,467	-0,039	-0,075
-724,108	-200,000	-0,017	-0,118
-723,094	539,239	-0,044	-0,076
-722,079	701,925	-0,071	0,136
-721,064	800,000	0,034	-0,071
-720,050	376,720	-0,062	0,093
-719,035	800,000	0,051	0,133
-718,021	-44,050	0,106	0,038
-717,006	-200,000	0,019	-0,152
-715,991	-57,158	-0,121	-0,039
-714,977	22,087	-0,091	-0,054
-713,962	124,936	-0,046	-0,042
-712,948	77,438	-0,061	-0,047
-711,933	-90,550	-0,075	-0,016
-710,918	-200,000	0,023	-0,111
-709,904	800,000	0,068	-0,176
-708,889	202,576	-0,023	0,026
-707,875	-200,000	0,014	-0,055
-706,860	-38,493	-0,046	-0,017
-705,845	800,000	0,031	0,081
-704,831	-127,955	-0,136	0,014
-703,816	29,082	0,043	-0,026
-702,802	256,147	0,013	-0,017
-701,787	52,075	-0,094	-0,065
-700,772	138,760	-0,041	-0,039
-699,758	-167,224	-0,104	0,003
-698,743	768,595	-0,058	-0,115
-697,729	364,400	-0,025	-0,036
-696,714	197,715	0,082	-0,091
-695,699	-98,213	-0,123	0,023
-694,685	-79,954	-0,175	-0,042
-693,670	392,084	0,037	-0,056
-692,656	99,471	-0,080	0,067
-691,641	-200,000	0,026	0,092
-690,627	800,000	0,056	0,115
-689,612	-25,295	-0,090	0,038
-688,597	347,680	0,064	0,091
-687,583	-200,000	0,007	-0,121
-686,568	-200,000	0,008	0,086
-685,554	-26,186	-0,123	0,052
-684,539	78,874	0,038	-0,029
-683,524	-200,000	-0,012	-0,072
-682,510	6,951	-0,044	-0,024
-681,495	-89,758	-0,104	-0,022
-680,481	-42,566	-0,182	-0,067
-679,466	-32,721	-0,126	0,051
-678,451	527,700	0,028	0,047
-677,437	93,238	0,029	-0,024
-676,422	-200,000	0,010	0,071
-675,408	-200,000	0,001	0,027
-674,393	11,241	-0,098	0,054
-673,378	-54,578	-0,146	-0,048
-672,364	800,000	-0,038	-0,087
-671,349	410,119	-0,061	-0,095
-670,335	800,000	-0,061	-0,142
-669,320	201,481	0,054	0,060
-668,305	287,965	0,055	0,073
-667,291	-200,000	-0,012	0,075
-666,276	35,911	0,042	-0,027
-665,262	243,609	-0,141	-0,172
-664,247	800,000	0,045	0,119
-663,232	387,755	-0,021	0,032
-662,218	-62,415	-0,054	-0,016
-661,203	-9,184	-0,073	-0,035
-660,189	34,849	-0,043	0,027
-659,174	63,007	-0,050	0,036
-658,159	-79,865	-0,138	-0,033
-657,145	-106,296	-0,023	0,004
-656,130	405,313	-0,022	-0,034
-655,116	-167,105	-0,100	0,003
-654,101	-200,000	0,014	-0,180
-653,086	-75,598	0,127	-0,033
-652,072	-91,100	-0,111	-0,023
-651,057	89,587	-0,058	0,047
-650,043	-200,000	0,003	-0,059
-649,028	101,771	-0,052	-0,044
-648,014	-112,558	-0,054	0,008
-646,999	800,000	0,028	0,083
-645,984	-97,272	-0,043	-0,008
-644,970	-21,508	0,059	-0,026
-643,955	800,000	-0,115	-0,235
-642,941	-200,000	-0,029	-0,111
-641,926	-103,809	0,075	-0,013
-640,911	800,000	0,025	-0,055
-639,897	-200,000	0,015	0,165
-638,882	-200,000	0,004	-0,057
-637,868	-55,246	0,136	0,044
-636,853	-157,211	-0,086	-0,004
-635,838	800,000	-0,038	-0,100
-634,824	-200,000	0,008	-0,098
-633,809	19,932	0,066	0,038
-632,795	82,469	0,126	0,099
-631,780	135,514	0,039	-0,036
-630,765	800,000	0,020	0,052
-629,751	225,425	-0,087	-0,102
-628,736	-87,922	-0,179	-0,039
-627,722	-200,000	0,012	-0,041
-626,707	800,000	-0,019	0,051
-625,692	32,286	-0,058	-0,036
-624,678	486,550	-0,047	-0,078
-623,663	512,075	-0,107	0,181
-622,649	151,464	0,103	0,101
-621,634	248,239	-0,072	-0,088
-620,619	-200,000	0,008	0,115
-619,605	-103,025	0,089	0,015
-618,590	93,699	0,058	-0,048
-617,576	239,043	-0,070	0,084
-616,561	623,879	0,049	-0,089
-615,546	-17,214	-0,163	-0,074
-614,532	-200,000	0,030	-0,129
-613,517	-32,554	-0,125	-0,050
-612,503	-86,268	0,153	0,034
-611,488	-10,765	0,066	0,032
-610,474	-200,000	0,014	0,096
-609,459	-100,585	0,059	0,010
-608,444	354,229	-0,037	-0,053
-607,430	-122,284	0,040	-0,005
-606,415	-200,000	0,057	-0,224
-605,401	237,670	-0,006	-0,007
-604,386	-22,780	-0,031	0,013
-603,371	-145,266	0,112	-0,007
-602,357	-200,000	-0,005	-0,110
-601,342	488,298	0,095	-0,157
-600,328	35,439	-0,188	-0,119
-599,313	-28,139	0,037	0,015
-598,298	-142,029	0,057	0,004
-597,284	232,613	0,018	-0,021
-596,269	-181,649	-0,090	-0,001
-595,255	307,852	-0,122	0,165
-594,240	-200,000	0,017	-0,070
-593,225	800,000	-0,022	0,052
-592,211	129,647	-0,073	0,067
-591,196	-200,000	-0,026	0,097
-590,182	800,000	-0,034	0,094
-589,167	324,174	0,135	0,186
-588,152	34,294	0,109	0,069
-587,138	494,740	0,062	-0,104
-586,123	-76,829	-0,050	-0,013
-585,109	242,404	-0,100	-0,121
-584,094	800,000	-0,028	-0,087
-583,079	-200,000	0,009	0,084
-582,065	-94,649	0,137	0,027
-581,050	-47,366	0,180	0,063
-580,036	-200,000	0,013	-0,117
-579,021	800,000	0,026	-0,084
-578,006	339,210	0,053	0,075
-576,992	-94,679	0,085	-0,017
-575,977	-44,711	-0,138	-0,050
-574,963	65,235	0,083	0,060
-573,948	-200,000	0,004	-0,067
-572,934	-60,062	-0,113	0,035
-571,919	-68,000	-0,114	0,032
-570,904	-200,000	-0,007	-0,025
-569,890	-45,834	-0,133	-0,047
-568,875	-200,000	-0,029	0,158
-567,861	800,000	-0,015	0,041
-566,846	-40,456	0,050	-0,019
-565,831	353,801	-0,000	0,000
-564,817	-200,000	0,048	0,000
-563,802	112,464	0,029	-0,026
-562,788	-134,357	-0,211	-0,018
-561,773	-21,295	0,042	-0,018
-560,758	800,000	0,010	0,027
-559,744	514,356	-0,029	0,049
-558,729	-200,000	0,001	0,090
-557,715	800,000	-0,030	-0,064
-556,700	-34,221	0,058	0,023
-555,685	-200,000	-0,028	0,092
-554,671	-114,825	0,181	0,025
-553,656	6,609	0,074	-0,040
-552,642	-200,000	0,008	-0,042
-551,627	-33,411	0,072	0,028
-550,612	267,465	0,023	-0,029
-549,598	-67,339	-0,098	-0,028
-548,583	800,000	0,030	-0,072
-547,569	-200,000	0,001	-0,107
-546,554	43,186	-0,077	0,050
-545,539	-200,000	0,007	0,088
-544,525	531,089	-0,084	0,143
-543,510	-200,000	-0,023	-0,109
-542,496	-42,672	-0,063	-0,023
-541,481	156,831	-0,008	-0,008
-540,466	800,000	-0,056	-0,153
-539,452	234,994	-0,027	0,033
-538,437	-142,555	0,121	0,008
-537,423	343,735	-0,009	0,012
-536,408	-200,000	-0,008	0,097
-535,393	-200,000	0,013	-0,111
-534,379	-80,273	0,136	-0,033
-533,364	392,907	0,028	0,042
-532,350	30,925	-0,018	-0,011
-531,335	800,000	-0,004	0,010
-530,321	-23,502	-0,148	0,064
-529,306	558,665	0,010	0,017
-528,291	-200,000	-0,010	-0,055
-527,277	800,000	0,046	-0,132
-526,262	-200,000	-0,011	-0,145
-525,248	127,479	-0,041	0,038
-524,233	-142,754	0,134	-0,009
-523,218	-53,282	-0,125	0,041
-522,204	162,734	-0,079	0,080
-521,189	75,585	-0,112	-0,085
-520,175	262,650	-0,024	0,031
-519,160	266,626	-0,028	0,035
-518,145	-200,000	-0,061	0,216
-517,131	800,000	0,031	0,066
-516,116	38,722	0,046	-0,029
-515,102	106,112	-0,093	0,079
-514,087	-200,000	0,027	0,109
-513,072	800,000	-0,013	-0,036
-512,058	-91,403	-0,080	0,016
-511,043	644,495	0,059	0,109
-510,029	-200,000	0,007	0,051
-509,014	-0,763	0,143	-0,073
-507,999	19,005	0,143	0,083
-506,985	-200,000	-0,014	-0,082
-505,970	800,000	0,053	-0,115
-504,956	800,000	-0,024	-0,066
-503,941	154,003	0,044	-0,043
-502,926	15,141	0,047	-0,027
-501,912	201,545	0,022	-0,024
-500,897	-200,000	-0,032	-0,153
-499,883	-114,602	-0,116	0,016
-498,868	-200,000	0,069	-0,000
-497,853	656,498	0,107	-0,199
-496,839	-118,438	-0,124	0,016
-495,824	800,000	-0,052	0,120
-494,810	252,001	0,046	-0,056
-493,795	800,000	-0,046	0,106
-492,781	-5,948	-0,053	-0,026
-491,766	-200,000	-0,028	0,132
-490,751	-200,000	0,004	-0,055
-489,737	-89,229	0,061	0,013
-488,722	-107,865	0,148	0,023
-487,708	-157,240	-0,078	-0,003
-486,693	-88,508	0,026	0,006
-485,678	-200,000	-0,010	0,040
-484,664	-0,224	0,076	0,039
-483,649	8,783	-0,099	-0,054
-482,635	-200,000	0,012	-0,075
-481,620	-200,000	0,046	0,164
-480,605	-160,876	0,027	-0,001
-479,591	-91,642	0,097	0,020
-478,576	-130,152	0,042	0,004
-477,562	-200,000	0,009	-0,043
-476,547	51,687	-0,079	-0,054
-475,532	-10,462	-0,027	0,013
-474,518	-67,109	-0,049	-0,014
-473,503	-82,709	0,160	-0,037
-472,489	-200,000	-0,007	-0,037
-471,474	-200,000	0,006	0,106
-470,459	739,033	0,035	0,068
-469,445	-200,000	0,012	-0,104
-468,430	341,838	0,052	-0,073
-467,416	10,233	-0,060	-0,033
-466,401	800,000	0,075	0,164
-465,386	114,842	-0,085	0,075
-464,372	244,173	0,097	0,117
-463,357	-6,740	0,104	0,051
-462,343	-33,474	0,070	0,028
-461,328	285,394	0,042	0,055
-460,313	177,926	0,030	-0,031
-459,299	-200,000	0,007	-0,053
-458,284	-109,561	0,116	-0,017
-457,270	409,521	0,031	-0,047
-456,255	-200,000	0,013	-0,144
-455,241	263,647	-0,051	0,063
-454,226	-155,384	-0,089	0,004
-453,211	675,450	-0,049	-0,091
-452,197	-105,383	0,171	-0,028
-451,182	515,716	0,026	-0,044
-450,168	96,640	-0,032	-0,027
-449,153	-71,565	-0,077	-0,020
-448,138	115,271	0,050	0,044
-447,124	-200,000	0,002	-0,081
-446,109	44,202	0,114	0,075
-445,095	110,874	0,082	-0,071
-444,080	-39,481	-0,051	-0,019
-443,065	187,770	-0,072	0,077
-442,051	-127,185	-0,064	0,007
-441,036	-200,000	0,020	-0,120
-440,022	49,273	-0,119	0,080
-439,007	-133,367	-0,035	0,003
-437,992	800,000	0,021	0,065
-436,978	270,072	0,053	-0,067
-435,963	201,868	0,058	0,065
-434,949	-46,552	-0,041	0,014
-433,934	800,000	-0,030	-0,065
-432,919	483,740	-0,075	-0,123
-431,905	-38,477	-0,132	-0,050
-430,890	-121,484	-0,023	0,003
-429,876	-200,000	0,020	0,089
-428,861	800,000	-0,027	-0,060
-427,846	89,132	0,061	0,049
-426,832	-200,000	-0,009	0,035
-425,817	415,838	-0,052	0,080
-424,803	21,345	-0,100	-0,058
-423,788	-5,805	0,048	-0,024
-422,773	170,809	-0,020	0,020
-421,759	327,272	0,081	0,112
-420,744	-200,000	0,005	-0,030
-419,730	-109,774	-0,010	-0,001
-418,715	195,416	0,046	-0,050
-417,701	800,000	0,046	-0,097
-416,686	104,922	-0,067	0,056
-415,671	640,304	-0,037	0,068
-414,657	56,965	0,025	-0,017
-413,642	346,839	-0,073	0,104
-412,628	-47,506	-0,109	0,038
-411,613	23,024	-0,102	-0,060
-410,598	-114,904	0,085	-0,012
-409,584	-95,691	-0,074	0,014
-408,569	-200,000	0,012	-0,056
-407,555	594,553	-0,021	0,038
-406,540	487,660	-0,048	0,078
-405,525	102,743	-0,081	-0,068
-404,511	11,915	-0,114	0,063
-403,496	-200,000	-0,011	-0,050
-402,482	800,000	0,044	-0,111
-401,467	-200,000	-0,003	0,124
-400,452	-200,000	-0,028	0,091
-399,438	-58,585	0,178	-0,055
-398,423	64,310	-0,036	0,026
-397,409	-35,095	-0,139	0,054
-396,394	-200,000	-0,015	-0,088
-395,379	-55,033	0,094	-0,030
-394,365	-200,000	0,017	0,134
-393,350	-57,510	-0,024	0,008
-392,336	151,921	0,065	0,063
-391,321	-200,000	0,023	0,221
-390,306	-200,000	-0,016	-0,196
-389,292	46,162	-0,065	-0,043
-388,277	-200,000	-0,008	-0,060
-387,263	-48,915	-0,066	-0,023
-386,248	800,000	0,029	0,075
-385,233	7,506	0,097	0,052
-384,219	57,128	-0,095	0,066
-383,204	-104,471	-0,024	-0,004
-382,190	-32,207	-0,105	-0,042
-381,175	-86,385	-0,029	-0,006
-380,160	-130,985	0,081	0,008
-379,146	-36,427	0,017	-0,006
-378,131	-200,000	0,035	-0,135
-377,117	800,000	-0,092	-0,254
-376,102	-200,000	0,013	-0,071
-375,088	-160,156	-0,086	-0,003
-374,073	393,937	-0,079	-0,119
-373,058	-200,000	0,011	-0,074
-372,044	-104,280	-0,159	0,026
-371,029	-200,000	0,002	0,149
-370,015	-200,000	-0,016	0,133
-369,000	-72,523	-0,140	0,037
-367,985	-163,014	-0,047	0,002
-366,971	-153,148	0,080	0,004
-365,956	130,398	-0,111	0,102
-364,942	-21,579	0,127	-0,055
-363,927	-51,314	0,120	0,040
-362,912	129,044	0,007	0,007
-361,898	193,296	-0,124	-0,134
-360,883	-200,000	-0,027	0,096
-359,869	10,906	0,071	0,039
-358,854	476,177	-0,044	-0,071
-357,839	614,899	-0,033	0,059
-356,825	191,105	0,061	-0,066
-355,810	109,937	0,069	0,059
-354,796	-161,824	0,028	-0,001
-353,781	462,861	0,056	-0,090
-352,766	17,750	-0,140	-0,080
-351,752	-43,137	0,123	-0,044
-350,737	-200,000	-0,018	-0,081
-349,723	143,357	0,065	0,062
-348,708	800,000	0,004	-0,012
-347,693	219,911	-0,140	0,160
-346,679	311,706	-0,098	0,133
-345,664	-8,973	-0,158	0,075
-344,650	55,469	0,085	0,058
-343,635	-162,720	0,100	0,003
-342,620	439,910	0,037	-0,059
-341,606	225,346	0,047	-0,055
-340,591	184,663	-0,062	-0,066
-339,577	487,626	0,037	0,060
-338,562	-200,000	-0,001	-0,192
-337,548	-129,330	-0,131	-0,013
-336,533	-138,458	0,030	0,002
-335,518	-101,716	0,065	-0,011
-334,504	-200,000	-0,010	0,046
-333,489	-200,000	0,012	-0,044
-332,475	-77,503	-0,233	0,057
-331,460	140,825	-0,127	-0,121
-330,445	-200,000	-0,022	-0,150
-329,431	-200,000	0,007	0,057
-328,416	213,327	-0,028	-0,031
-327,402	73,883	0,114	0,086
-326,387	-200,000	-0,027	0,132
-325,372	592,836	-0,027	-0,048
-324,358	-30,292	-0,138	-0,056
-323,343	800,000	-0,032	-0,089
-322,329	-200,000	-0,008	0,045
-321,314	509,400	0,018	-0,031
-320,299	-200,000	-0,014	0,054
-319,285	347,124	0,092	-0,130
-318,270	-97,577	0,047	-0,009
-317,256	-200,000	0,026	0,190
-316,241	-15,103	-0,066	0,030
-315,226	-19,933	0,150	-0,066
-314,212	-70,105	0,204	-0,055
-313,197	324,662	-0,082	-0,112
-312,183	-200,000	0,001	0,053
-311,168	800,000	0,039	-0,116
-310,153	197,518	-0,105	-0,115
-309,139	-122,985	0,098	-0,011
-308,124	377,008	-0,014	-0,020
-307,110	-85,555	-0,026	-0,006
-306,095	-85,848	0,077	0,017
-305,080	281,306	-0,043	0,055
-304,066	-200,000	-0,011	0,104
-303,051	639,460	0,104	-0,190
-302,037	-200,000	-0,022	-0,082
-301,022	-69,651	-0,141	-0,038
-300,008	-200,000	-0,011	-0,061
-298,993	-67,573	0,118	0,033
-297,978	800,000	0,054	0,144
-296,964	-200,000	-0,021	-0,084
-295,949	-11,442	-0,163	-0,076
-294,935	153,292	0,069	-0,068
-293,920	-200,000	0,008	0,129
-292,905	-200,000	-0,007	0,039
-291,891	-71,467	-0,156	0,042
-290,876	-32,936	0,047	-0,018
-289,862	606,816	0,039	-0,069
-288,847	-200,000	0,008	-0,070
-287,832	-126,006	-0,286	-0,030
-286,818	-43,801	0,105	0,037
-285,803	800,000	-0,015	0,044
-284,789	47,769	-0,089	0,059
-283,774	19,183	0,119	0,068
-282,759	-200,000	0,003	-0,147
-281,745	79,975	0,066	0,051
-280,730	800,000	-0,034	-0,082
-279,716	58,903	0,074	-0,052
-278,701	-133,958	0,080	0,007
-277,686	800,000	0,042	0,092
-276,672	-145,326	-0,070	-0,004
-275,657	-200,000	-0,027	0,125
-274,643	800,000	-0,024	0,053
-273,628	-200,000	-0,022	-0,079
-272,613	-91,434	0,167	-0,034
-271,599	-200,000	-0,024	0,103
-270,584	-200,000	0,007	0,044
-269,570	800,000	-0,013	-0,035
-268,555	-200,000	-0,118	0,000
-267,540	-1,465	0,118	-0,059
-266,526	-93,947	-0,053	0,010
-265,511	28,252	0,100	-0,060
-264,497	-42,490	0,034	0,012
-263,482	-139,581	0,104	0,008
-262,467	-179,592	0,022	-0,000
-261,453	375,419	-0,012	0,018
-260,438	24,348	-0,089	-0,052
-259,424	1,888	-0,065	0,033
-258,409	41,429	-0,054	0,035
-257,395	-97,277	0,095	0,017
-256,380	20,554	0,067	-0,038
-255,365	1,657	0,118	0,060
-254,351	-19,791	-0,070	0,031
-253,336	82,708	-0,108	0,084
-252,322	-56,653	0,047	-0,015
-251,307	800,000	-0,051	-0,114
-250,292	-200,000	0,041	-0,129
-249,278	94,730	0,023	-0,019
-248,263	-200,000	-0,010	0,096
-247,249	-97,465	0,211	-0,039
-246,234	-84,532	-0,131	0,029
-245,219	-83,978	-0,121	-0,027
-244,205	-133,422	-0,123	0,011
-243,190	-56,665	-0,093	-0,029
-242,176	-10,580	0,098	-0,046
-241,161	-179,155	-0,074	0,001
-240,146	-200,000	-0,003	-0,028
-239,132	-200,000	0,032	0,146
-238,117	-68,115	0,126	-0,035
-237,103	-200,000	-0,002	-0,077
-236,088	89,116	0,060	0,048
-235,073	-45,696	0,146	-0,051
-234,059	-200,000	-0,020	-0,077
-233,044	800,000	-0,040	0,118
-232,030	87,955	0,121	0,095
-231,015	231,019	-0,048	-0,056
-230,000	-200,000	-0,019	-0,103
-228,986	800,000	0,040	-0,095
-227,971	-200,000	-0,016	0,066
-226,957	-159,277	0,180	-0,007
-225,942	596,021	0,035	0,062
-224,927	476,854	-0,058	-0,093
-223,913	252,286	0,023	-0,028
-222,898	800,000	0,083	-0,200
-221,884	-68,881	0,151	0,041
-220,869	244,685	-0,018	0,021
-219,855	147,388	0,015	0,015
-218,840	129,585	0,116	0,106
-217,825	-200,000	-0,000	0,070
-216,811	551,733	-0,019	0,032
-215,796	-200,000	0,007	0,037
-214,782	82,958	-0,099	0,076
-213,767	348,754	0,053	0,075
-212,752	800,000	0,043	0,087
-211,738	376,470	0,091	0,133
-210,723	459,996	-0,074	0,117
-209,709	-152,984	-0,072	0,004
-208,694	-14,229	-0,049	0,022
-207,679	800,000	0,020	0,041
-206,665	-200,000	0,046	0,172
-205,650	-200,000	0,010	-0,045
-204,636	208,156	-0,049	0,055
-203,621	800,000	0,030	-0,081
-202,606	290,222	0,043	-0,055
-201,592	-131,136	-0,147	0,014
-200,577	-99,512	0,022	0,004
-199,563	56,617	-0,050	-0,035
-198,548	141,996	0,085	0,081
-197,533	130,388	-0,056	0,051
-196,519	800,000	-0,043	0,100
-195,504	-160,057	0,111	0,004
-194,490	45,000	0,059	-0,039
-193,475	800,000	-0,064	-0,131
-192,460	110,219	-0,154	-0,132
-191,446	-36,222	-0,051	0,020
-190,431	-164,648	0,071	0,002
-189,417	-102,635	0,083	0,014
-188,402	-121,394	0,104	0,012
-187,387	-200,000	-0,031	0,105
-186,373	23,194	-0,091	0,053
-185,358	-64,726	0,114	0,033
-184,344	-26,713	0,073	0,030
-183,329	131,937	0,038	-0,035
-182,315	-67,980	0,125	0,034
-181,300	-131,718	-0,099	-0,009
-180,285	375,832	-0,108	-0,158
-179,271	-200,000	-0,001	0,120
-178,256	606,765	-0,082	-0,146
-177,242	-98,892	0,027	-0,005
-176,227	-200,000	-0,005	0,044
-175,212	-115,116	0,043	-0,006
-174,198	800,000	0,033	0,100
-173,183	-68,899	-0,107	0,029
-172,169	-134,413	-0,041	-0,003
-171,154	-200,000	-0,011	0,050
-170,139	21,810	0,131	0,076
-169,125	800,000	0,015	-0,037
-168,110	-200,000	-0,001	0,124
-167,096	68,810	-0,052	0,038
-166,081	-200,000	0,011	0,048
-165,066	800,000	-0,032	-0,083
-164,052	-200,000	0,003	-0,011
-163,037	14,513	0,033	0,018
-162,023	-200,000	-0,008	0,119
-161,008	476,882	0,051	0,083
-159,993	-6,932	0,093	0,045
-158,979	-200,000	-0,023	-0,081
-157,964	-10,988	0,034	0,016
-156,950	-191,588	-0,046	0,000
-155,935	-124,152	0,021	0,002
-154,920	-9,459	-0,027	0,013
-153,906	189,407	0,042	0,045
-152,891	-107,343	-0,087	-0,013
-151,877	-50,461	-0,067	0,022
-150,862	800,000	0,038	0,117
-149,847	-200,000	0,006	0,034
-148,833	-200,000	0,011	-0,034
-147,818	207,144	-0,066	0,073
-146,804	147,298	0,095	0,091
-145,789	-104,394	0,116	-0,019
-144,775	-44,508	-0,103	0,036
-143,760	479,438	-0,057	-0,093
-142,745	525,228	-0,047	0,079
-141,731	-61,699	-0,118	0,035
-140,716	399,639	0,066	0,099
-139,702	-50,315	-0,093	0,031
-138,687	-200,000	0,013	-0,047
-137,672	-67,470	0,029	0,008
-136,658	185,167	-0,026	0,028
-135,643	93,801	-0,041	-0,033
-134,629	120,518	-0,032	-0,028
-133,614	199,471	0,102	-0,112
-132,599	800,000	0,039	0,090
-131,585	-75,055	0,047	0,012
-130,570	241,820	-0,056	-0,066
-129,556	-102,441	0,034	0,006
-128,541	-200,000	-0,008	-0,110
-127,526	114,644	0,116	-0,100
-126,512	-200,000	-0,004	0,183
-125,497	511,203	-0,063	-0,104
-124,483	19,869	-0,057	0,033
-123,468	98,830	0,078	-0,064
-122,453	252,842	-0,070	0,084
-121,439	-200,000	0,003	-0,090
-120,424	114,733	-0,175	-0,152
-119,410	-200,000	0,022	-0,113
-118,395	-48,193	-0,090	0,031
-117,380	357,682	0,090	0,127
-116,366	106,562	0,035	0,029
-115,351	522,579	-0,034	0,056
-114,337	800,000	-0,026	-0,078
-113,322	-118,242	-0,063	-0,008
-112,307	-120,288	0,116	-0,014
-111,293	29,229	0,062	-0,037
-110,278	307,243	0,025	0,034
-109,264	-200,000	0,002	0,066
-108,249	185,880	-0,063	0,066
-107,234	559,228	0,096	-0,165
-106,220	-200,000	0,008	0,116
-105,205	800,000	-0,019	-0,048
-104,191	-81,074	-0,028	0,006
-103,176	-200,000	0,013	0,138
-102,162	727,763	-0,033	0,063
-101,147	335,488	-0,092	-0,127
-100,132	-200,000	-0,022	-0,115
-99,118	-91,486	-0,091	0,018
-98,103	-200,000	0,004	-0,053
-97,089	-168,357	-0,100	0,003
-96,074	56,922	0,051	-0,035
-95,059	325,372	0,065	0,089
-94,045	311,484	0,063	0,084
-93,030	-200,000	-0,042	-0,136
-92,016	-200,000	-0,009	0,042
-91,001	-138,190	-0,068	0,005
-89,986	110,815	0,111	-0,094
-88,972	-200,000	-0,010	0,048
-87,957	365,960	0,118	0,169
-86,943	3,844	-0,113	-0,059
-85,928	536,384	-0,035	-0,059
-84,913	310,548	-0,071	-0,094
-83,899	-200,000	-0,028	-0,157
-82,884	-200,000	0,030	-0,131
-81,870	-4,516	-0,111	0,054
-80,855	-200,000	0,000	0,028
-79,840	-113,855	-0,089	0,012
-78,826	-200,000	0,013	-0,119
-77,811	-74,728	-0,080	0,020
-76,797	140,281	-0,042	-0,039
-75,782	55,524	0,204	0,140
-74,767	137,874	0,040	-0,037
-73,753	285,537	-0,119	0,153
-72,738	-200,000	0,006	0,093
-71,724	61,302	-0,112	0,079
-70,709	-2,565	-0,060	0,030
-69,694	157,888	0,096	0,094
-68,680	699,623	0,032	-0,060
-67,665	-200,000	-0,032	0,111
-66,651	-200,000	0,029	0,109
-65,636	60,514	0,085	0,059
-64,622	-200,000	0,010	-0,048
-63,607	-183,134	-0,186	-0,002
-62,592	-200,000	-0,024	-0,124
-61,578	38,518	0,022	-0,014
-60,563	29,857	0,123	0,074
-59,549	-24,228	0,089	-0,037
-58,534	-37,241	-1,496	-0,564
-57,519	329,223	-1,594	-2,176
-56,505	-200,000	-0,805	-4,539
-55,490	141,934	0,958	0,900
-54,476	800,000	4,856	11,325
-53,461	-200,000	18,453	296,665
-52,446	800,000	730,969	2255,511
-51,432	558,585	1647,519	2825,778
-50,417	78,964	1668,210	1263,274
-49,403	22,490	1541,256	890,211
-48,388	16,415	1464,397	816,345
-47,373	17,779	1454,489	817,370
-46,359	17,024	1444,868	808,317
-45,344	14,700	1440,134	794,524
-44,330	14,663	1437,834	793,044
-43,315	14,672	1436,285	792,202
-42,300	14,628	1434,598	791,031
-41,286	14,709	1433,530	790,795
-40,271	14,658	1432,179	789,776
-39,257	14,609	1431,012	788,868
-38,242	14,627	1429,684	788,190
-37,227	14,661	1428,572	787,708
-36,213	14,685	1427,036	786,946
-35,198	14,632	1426,158	786,175
-34,184	14,692	1425,023	785,805
-33,169	14,636	1423,790	784,826
-32,154	14,680	1422,810	784,464
-31,140	14,677	1421,288	783,580
-30,125	14,680	1420,221	782,974
-29,111	14,663	1419,140	782,266
-28,096	14,669	1417,970	781,619
-27,082	14,587	1417,050	780,698
-26,067	14,577	1416,000	780,037
-25,052	14,589	1414,997	779,513
-24,038	14,567	1413,961	778,808
-23,023	14,541	1413,043	778,147
-22,009	14,545	1412,024	777,574
-20,994	14,533	1411,013	776,929
-19,979	14,552	1409,967	776,416
-18,965	14,546	1409,074	775,864
-17,950	14,498	1408,198	775,128
-16,936	14,461	1407,514	774,543
-15,921	14,489	1406,137	773,888
-14,906	14,477	1405,263	773,318
-13,892	14,482	1404,445	772,860
-12,877	14,454	1403,601	772,239
-11,863	14,499	1402,500	771,810
-10,848	14,491	1401,482	771,182
-9,833	14,457	1400,798	770,617
-8,819	14,382	1400,004	769,799
-7,804	14,407	1399,073	769,375
-6,790	14,368	1397,905	768,522
-5,775	14,428	1396,716	768,113
-4,760	14,390	1395,936	767,478
-3,746	14,399	1395,134	767,048
-2,731	14,424	1394,309	766,682
-1,717	14,395	1393,316	765,969
-0,702	14,419	1391,565	765,090
0,313	18,185	1309,824	737,602
1,327	34,487	706,205	435,447
2,342	52,547	124,518	83,999
3,356	0,448	16,663	8,394
4,371	8,299	3,312	1,756
5,386	-9,716	0,518	0,243
6,400	800,000	-0,042	0,097
7,415	52,550	-0,201	-0,135
8,429	52,833	-0,300	-0,202
9,444	7,074	-0,358	-0,188
10,459	111,371	-0,219	-0,187
11,473	-131,190	-0,262	0,024
12,488	210,183	-0,166	-0,185
13,502	-59,346	-0,408	-0,123
14,517	109,578	-0,381	-0,323
15,531	64,849	-0,325	-0,231
16,546	-34,613	-0,427	-0,164
17,561	173,024	-0,371	-0,378
18,575	-21,766	-0,225	-0,096
19,590	-16,144	-0,289	-0,129
20,604	800,000	-0,058	-0,165
21,619	-42,414	-0,528	-0,189
22,634	12,358	-0,544	-0,295
23,648	221,760	-0,325	-0,369
24,663	76,096	-0,433	-0,324
25,677	89,793	-0,468	-0,369
26,692	17,216	-0,363	-0,203
27,707	21,051	-0,303	-0,173
28,721	154,336	-0,353	-0,342
29,736	120,044	-0,382	-0,335
30,750	88,752	-0,482	-0,378
31,765	217,487	-0,252	-0,284
32,780	68,214	-0,396	-0,286
33,794	25,351	-0,319	-0,187
34,809	110,275	-0,340	-0,288
35,823	36,723	-0,382	-0,238
36,838	122,023	-0,411	-0,362
37,853	183,669	-0,381	-0,398
38,867	3,358	-0,473	-0,242
39,882	6,671	-0,499	-0,261
40,896	45,615	-0,401	-0,261
41,911	6,275	-0,365	-0,190
42,926	47,981	-0,258	-0,170
43,940	248,019	-0,315	-0,376
44,955	230,325	-0,295	-0,341
45,969	138,014	-0,289	-0,267
46,984	109,786	-0,347	-0,293
47,999	73,690	-0,464	-0,342
49,013	-4,676	-0,306	-0,148
50,028	-65,610	-0,333	-0,094
51,042	-6,009	-0,360	-0,173
52,057	-17,550	-0,404	-0,178
53,071	16,969	-0,296	-0,165
54,086	214,562	-0,236	-0,263
55,101	134,700	-0,370	-0,339
56,115	84,224	-0,310	-0,238
57,130	5,593	-0,342	-0,177
58,144	55,052	-0,288	-0,196
59,159	13,210	-0,252	-0,137
60,174	177,209	-0,303	-0,311
61,188	-80,567	-0,354	-0,082
62,203	93,003	-0,335	-0,266
63,217	236,409	-0,272	-0,317
64,232	135,193	-0,279	-0,255
65,247	94,953	-0,371	-0,297
66,261	-12,720	-0,282	-0,129
67,276	42,816	-0,318	-0,203
68,290	166,155	-0,317	-0,316
69,305	18,540	-0,428	-0,240
70,320	57,074	-0,256	-0,175
71,334	20,217	-0,306	-0,173
72,349	56,970	-0,371	-0,254
73,363	-22,603	-0,428	-0,181
74,378	-17,474	-0,363	-0,160
75,393	196,434	-0,214	-0,230
76,407	40,964	-0,261	-0,165
77,422	-36,969	-0,485	-0,182
78,436	-21,220	-0,193	-0,083
79,451	-1,858	-0,390	-0,192
80,466	-101,793	-0,365	-0,061
81,480	23,160	-0,378	-0,218
82,495	24,854	-0,297	-0,173
83,509	109,620	-0,251	-0,212
84,524	260,094	-0,175	-0,212
85,539	195,176	-0,258	-0,275
86,553	65,009	-0,274	-0,194
87,568	110,368	-0,344	-0,290
88,582	239,363	-0,200	-0,234
89,597	-83,354	-0,324	-0,072
90,611	527,950	-0,192	-0,319
91,626	-43,675	-0,328	-0,115
92,641	69,592	-0,095	-0,068
93,655	-24,370	-0,367	-0,153
94,670	186,748	-0,202	-0,211
95,684	154,545	-0,303	-0,292
96,699	122,356	-0,371	-0,325
97,714	90,623	-0,272	-0,214
98,728	-75,834	-0,433	-0,107
99,743	7,306	-0,225	-0,117
100,757	54,670	-0,245	-0,166
101,772	95,996	-0,238	-0,190
102,787	323,255	-0,206	-0,277
103,801	72,306	-0,334	-0,243
104,816	-125,319	-0,344	-0,036
105,830	95,089	-0,236	-0,188
106,845	305,902	-0,188	-0,246
107,860	-2,225	-0,345	-0,169
108,874	23,649	-0,282	-0,163
109,889	145,595	-0,217	-0,204
110,903	4,355	-0,326	-0,167
111,918	-5,284	-0,299	-0,144
112,933	85,603	-0,232	-0,179
113,947	-10,670	-0,328	-0,152
114,962	-200,000	-0,276	0,001
115,976	118,453	-0,270	-0,233
116,991	62,400	-0,201	-0,140
118,006	16,247	-0,303	-0,167
119,020	128,467	-0,277	-0,247
120,035	71,078	-0,241	-0,174
121,049	41,021	-0,185	-0,117
122,064	-172,265	-0,105	-0,002
123,079	748,281	-0,104	-0,196
124,093	216,256	-0,283	-0,316
125,108	144,752	-0,317	-0,296
126,122	29,025	-0,325	-0,192
127,137	800,000	-0,096	-0,227
128,151	-148,005	-0,245	0,014
129,166	-39,727	-0,257	-0,094
130,181	88,709	-0,239	-0,186
131,195	800,000	-0,099	-0,217
132,210	-42,753	-0,401	-0,142
133,224	192,700	-0,164	-0,173
134,239	109,291	-0,238	-0,200
135,254	-16,185	-0,180	-0,079
136,268	50,394	-0,276	-0,182
137,283	62,692	-0,179	-0,125
138,297	127,168	-0,222	-0,197
139,312	-50,792	-0,200	-0,065
140,327	101,276	-0,273	-0,222
141,341	800,000	-0,163	-0,328
142,356	67,185	-0,150	-0,107
143,370	-12,535	-0,283	-0,129
144,385	173,359	-0,231	-0,233
145,400	-51,707	-0,268	-0,087
146,414	26,234	-0,365	-0,212
147,429	-200,000	-0,101	-0,359
148,443	48,487	-0,219	-0,143
149,458	114,437	-0,203	-0,172
150,473	-54,832	-0,243	-0,076
151,487	170,958	-0,117	-0,117
152,502	305,370	-0,212	-0,276
153,516	191,074	-0,265	-0,279
154,531	307,934	-0,134	-0,174
155,546	-58,514	-0,298	-0,090
156,560	604,354	-0,129	-0,225
157,575	48,115	-0,244	-0,159
158,589	7,567	-0,349	-0,182
159,604	88,316	-0,220	-0,171
160,619	2,182	-0,310	-0,156
161,633	471,511	-0,197	-0,310
162,648	84,117	-0,265	-0,201
163,662	97,588	-0,272	-0,218
164,677	-42,342	-0,208	-0,074
165,692	-200,000	-0,053	-0,171
166,706	70,610	-0,230	-0,166
167,721	93,115	-0,334	-0,263
168,735	53,418	-0,270	-0,180
169,750	-8,951	-0,292	-0,136
170,764	-78,130	-0,245	-0,058
171,779	-167,402	-0,342	0,009
172,794	-38,644	-0,281	-0,103
173,808	329,635	-0,084	-0,114
174,823	17,291	-0,265	-0,146
175,837	2,709	-0,367	-0,185
176,852	87,806	-0,340	-0,262
177,867	632,468	-0,173	-0,307
178,881	197,045	-0,119	-0,126
179,896	80,029	-0,268	-0,201
180,910	-120,302	-0,340	-0,040
181,925	793,562	-0,123	-0,237
182,940	340,828	-0,179	-0,244
183,954	83,709	-0,171	-0,130
184,969	159,846	-0,293	-0,285
185,983	-200,000	-0,088	-0,318
186,998	85,472	-0,133	-0,102
188,013	304,888	-0,237	-0,307
189,027	800,000	-0,137	-0,270
190,042	-3,856	-0,241	-0,116
191,056	70,682	-0,263	-0,189
192,071	-71,405	-0,215	-0,056
193,086	800,000	-0,079	-0,162
194,100	-71,161	-0,164	-0,042
195,115	31,239	-0,314	-0,187
196,129	124,024	-0,171	-0,149
197,144	79,533	-0,262	-0,196
198,159	443,273	-0,145	-0,222
199,173	83,697	-0,240	-0,182
200,188	233,886	-0,172	-0,197
201,202	106,884	-0,167	-0,138
202,217	147,949	-0,224	-0,210
203,232	-9,145	-0,222	-0,103
204,246	399,746	-0,166	-0,243
205,261	37,192	-0,179	-0,110
206,275	719,371	-0,137	-0,255
207,290	232,728	-0,118	-0,135
208,304	-2,478	-0,187	-0,091
209,319	137,816	-0,164	-0,149
210,334	48,073	-0,222	-0,144
211,348	800,000	-0,125	-0,352
212,363	800,000	-0,198	-0,388
213,377	745,101	-0,085	-0,159
214,392	-127,681	-0,167	-0,017
215,407	-17,148	-0,252	-0,110
216,421	-88,563	-0,186	-0,038
217,436	46,919	-0,209	-0,134
218,450	239,950	-0,212	-0,246
219,465	374,982	-0,205	-0,291
220,480	622,221	-0,155	-0,272
221,494	103,669	-0,115	-0,094
222,509	190,026	-0,128	-0,133
223,523	50,819	-0,246	-0,162
224,538	284,250	-0,159	-0,199
225,553	348,999	-0,111	-0,153
226,567	4,218	-0,250	-0,127
227,582	227,768	-0,161	-0,182
228,596	632,291	-0,077	-0,136
229,611	15,520	-0,248	-0,135
230,626	214,726	-0,071	-0,078
231,640	263,230	-0,233	-0,282
232,655	499,508	-0,113	-0,182
233,669	528,369	-0,098	-0,160
234,684	82,487	-0,143	-0,107
235,699	800,000	-0,082	-0,238
236,713	-51,330	-0,203	0,065
237,728	635,724	-0,135	-0,238
238,742	-39,282	-0,118	-0,043
239,757	406,855	-0,115	-0,168
240,772	155,282	-0,092	-0,088
241,786	800,000	-0,119	-0,265
242,801	38,700	-0,189	-0,117
243,815	-29,180	-0,133	0,052
244,830	800,000	-0,099	-0,210
245,844	264,176	-0,141	-0,170
246,859	638,805	-0,142	-0,250
247,874	100,526	-0,219	-0,176
248,888	151,362	-0,204	-0,193
249,903	-60,616	-0,098	0,029
250,917	-77,511	-0,149	-0,035
251,932	-104,302	-0,134	0,021
252,947	-60,212	-0,134	-0,039
253,961	114,114	-0,155	-0,130
254,976	292,727	-0,187	-0,236
255,990	210,575	-0,147	-0,160
257,005	-33,394	-0,195	-0,074
258,020	262,830	-0,210	-0,252
259,034	235,259	-0,161	-0,185
260,049	-93,596	-0,135	0,026
261,063	175,434	-0,144	-0,145
262,078	-20,444	-0,244	-0,103
263,093	128,956	-0,290	-0,256
264,107	31,644	-0,169	-0,100
265,122	-40,360	-0,236	-0,084
266,136	241,196	-0,182	-0,210
267,151	-161,975	-0,170	-0,006
268,166	-36,837	-0,232	-0,086
269,180	71,135	-0,156	-0,112
270,195	384,032	-0,165	-0,236
271,209	-101,718	-0,316	0,052
272,224	79,359	-0,058	-0,043
273,239	-79,289	-0,112	-0,026
274,253	167,729	-0,182	-0,179
275,268	-91,024	-0,085	-0,017
276,282	800,000	-0,068	-0,203
277,297	264,678	-0,164	-0,198
278,312	-98,598	-0,266	-0,046
279,326	301,162	-0,090	-0,114
280,341	162,657	-0,159	-0,155
281,355	-3,752	-0,102	-0,049
282,370	-200,000	0,018	-0,119
283,384	30,805	-0,175	-0,103
284,399	115,694	-0,182	-0,154
285,414	577,560	-0,171	-0,289
286,428	108,763	-0,115	-0,095
287,443	19,869	-0,066	-0,037
288,457	47,804	-0,090	-0,058
289,472	187,921	-0,212	-0,218
290,487	341,481	-0,151	-0,204
291,501	104,595	-0,264	-0,214
292,516	-48,134	-0,194	-0,064
293,530	133,624	-0,061	0,054
294,545	164,102	-0,091	-0,089
295,560	83,895	-0,213	-0,161
296,574	151,452	-0,147	-0,138
297,589	315,122	-0,042	-0,055
298,603	-39,117	-0,271	-0,098
299,618	-55,141	-0,223	-0,069
300,633	-200,000	-0,003	-0,205
301,647	800,000	-0,042	-0,122
302,662	265,757	-0,119	-0,143
303,676	-135,673	-0,122	0,010
304,691	109,926	-0,129	-0,107
305,706	-200,000	0,039	-0,196
306,720	800,000	-0,127	-0,246
307,735	417,052	-0,129	-0,191
308,749	129,085	-0,179	-0,157
309,764	-73,037	-0,095	-0,024
310,779	173,425	-0,167	-0,166
311,793	37,309	-0,147	-0,090
312,808	-12,839	-0,138	-0,062
313,822	119,933	-0,191	-0,163
314,837	671,682	-0,142	-0,255
315,852	-186,911	-0,209	-0,002
316,866	-200,000	0,003	0,059
317,881	68,248	-0,133	-0,094
318,895	-200,000	0,016	-0,169
319,910	440,781	-0,144	-0,217
320,925	75,943	-0,134	-0,097
321,939	121,492	-0,099	-0,085
322,954	-48,808	-0,091	-0,030
323,968	13,387	-0,140	0,074
324,983	-200,000	-0,068	0,000
325,997	4,415	-0,112	-0,056
327,012	571,264	-0,145	-0,244
328,027	-20,280	-0,202	-0,085
329,041	541,711	-0,098	-0,161
330,056	20,694	-0,068	-0,038
331,070	-19,079	-0,099	-0,042
332,085	-200,000	-0,048	-0,160
333,100	-1,244	-0,065	-0,032
334,114	186,471	-0,114	-0,117
335,129	79,275	-0,233	-0,172
336,143	800,000	-0,064	-0,129
337,158	-97,412	-0,192	-0,034
338,173	-200,000	-0,011	-0,119
339,187	-33,844	-0,131	0,049
340,202	-168,859	-0,098	-0,002
341,216	637,754	-0,102	-0,178
342,231	147,838	-0,082	-0,076
343,246	-200,000	-0,037	-0,134
344,260	-19,484	-0,240	-0,102
345,275	-59,567	-0,061	-0,018
346,289	-102,055	-0,231	-0,038
347,304	-44,226	-0,201	-0,069
348,319	-98,288	-0,149	0,026
349,333	479,786	-0,162	-0,253
350,348	46,894	-0,224	-0,143
351,362	307,710	-0,144	-0,185
352,377	-137,566	-0,129	0,010
353,392	-85,039	-0,163	-0,035
354,406	-146,527	-0,147	0,009
355,421	207,502	1316,626	1411,263
356,435	159,622	1477,595	1411,758
