DTS Sentinel unit serial number:	SN410029Multiplexer serial number:	ORYXHardware model number:	OX2-SRSoftware version number:	ORYX F/W v4,00 Oryx Data Collector v3.7.2.0data status	okinstallation	B3 Nyhavnadifferential loss correction	single-endedforward channel	channel 1reverse channel	N/Adate	2023/11/29time	03:02:30forward acquisition time	300,00reverse acquisition time	0,00gamma	499,1914k internal	0,3211k external	0,3211temperature offset calibration	1,0000default loss term (dB/km)	0,3820temperature slope calibration	1,0000multiplexer offset coefficient	1,0000multiplexer slope coefficient	1,0000fibre end	0,00T internal ref (°C)	9,56T ext. ref 1 (°C)	-5,74T ext. ref 2 (°C)	-5,88length (m)	temperature (°C)	Stokes	anti-Stokes-744,400	390,407	-0,270	-0,407
-743,385	-200,000	0,001	0,274
-742,371	800,000	-0,083	-0,199
-741,356	-200,000	-0,004	0,281
-740,342	547,728	-0,072	-0,125
-739,327	-200,000	-0,013	0,270
-738,312	224,330	-0,195	-0,229
-737,298	-200,000	-0,055	0,253
-736,283	114,852	-0,289	-0,256
-735,269	121,405	0,221	0,200
-734,254	158,203	-0,146	-0,147
-733,239	-46,056	-0,160	0,057
-732,225	-200,000	0,036	-0,206
-731,210	-200,000	-0,018	0,161
-730,196	-200,000	-0,011	0,164
-729,181	54,005	-0,004	0,003
-728,167	-200,000	0,003	0,071
-727,152	559,271	-0,059	-0,104
-726,137	-11,101	-0,006	-0,003
-725,123	-75,522	-0,156	0,040
-724,108	-98,871	0,070	0,013
-723,094	477,444	-0,080	-0,132
-722,079	800,000	-0,006	-0,015
-721,064	-200,000	-0,034	-0,121
-720,050	-23,473	-0,101	0,044
-719,035	800,000	-0,038	0,084
-718,021	-58,046	-0,031	0,010
-717,006	62,481	-0,023	-0,017
-715,991	-200,000	-0,012	-0,192
-714,977	-0,793	-0,083	-0,043
-713,962	-61,414	-0,164	-0,050
-712,948	19,280	0,108	-0,062
-711,933	492,621	0,038	-0,064
-710,918	787,673	-0,057	-0,113
-709,904	-200,000	0,008	-0,203
-708,889	573,249	-0,042	0,075
-707,875	-39,833	0,090	-0,034
-706,860	-48,949	0,052	-0,018
-705,845	-200,000	0,004	-0,033
-704,831	-84,474	0,015	-0,003
-703,816	591,865	-0,020	0,035
-702,802	30,450	-0,074	-0,046
-701,787	-27,498	-0,078	-0,033
-700,772	800,000	-0,040	-0,098
-699,758	-34,028	0,075	-0,030
-698,743	-200,000	0,016	-0,099
-697,729	-84,162	-0,018	0,004
-696,714	-17,410	-0,123	-0,056
-695,699	308,966	-0,065	0,089
-694,685	177,219	-0,066	-0,070
-693,670	800,000	-0,043	-0,138
-692,656	-96,570	-0,098	-0,018
-691,641	708,092	-0,058	-0,111
-690,627	-185,672	-0,024	-0,000
-689,612	-200,000	-0,007	-0,067
-688,597	800,000	-0,053	-0,121
-687,583	800,000	-0,010	-0,021
-686,568	431,013	-0,074	-0,116
-685,554	-55,629	0,148	-0,048
-684,539	-15,097	0,169	-0,078
-683,524	130,546	0,031	0,029
-682,510	208,951	-0,067	0,076
-681,495	800,000	-0,017	-0,035
-680,481	430,861	-0,038	-0,060
-679,466	800,000	-0,044	-0,132
-678,451	-93,462	-0,049	0,010
-677,437	62,064	0,034	0,024
-676,422	375,741	0,052	0,077
-675,408	800,000	0,026	-0,054
-674,393	-200,000	0,025	-0,092
-673,378	458,674	0,052	-0,083
-672,364	-200,000	-0,003	-0,190
-671,349	-200,000	-0,034	0,115
-670,335	-33,246	0,093	-0,037
-669,320	373,803	0,068	0,100
-668,305	24,365	-0,125	0,074
-667,291	-58,258	-0,175	-0,055
-666,276	-97,792	-0,091	0,017
-665,262	674,831	-0,005	0,009
-664,247	-200,000	0,009	-0,047
-663,232	-7,266	-0,083	0,041
-662,218	27,994	0,030	0,018
-661,203	533,906	0,048	0,082
-660,189	-25,098	-0,089	0,038
-659,174	92,262	-0,102	-0,083
-658,159	-5,854	-0,142	0,070
-657,145	184,092	-0,075	-0,080
-656,130	397,166	-0,072	-0,108
-655,116	297,209	-0,056	0,075
-654,101	87,692	-0,031	0,025
-653,086	19,101	-0,103	-0,060
-652,072	20,242	-0,122	-0,071
-651,057	71,700	-0,098	0,074
-650,043	411,687	-0,051	-0,079
-649,028	160,389	-0,066	0,067
-648,014	-43,547	0,184	0,067
-646,999	-43,923	-0,110	-0,040
-645,984	-46,880	-0,061	0,021
-644,970	-32,317	0,045	0,018
-643,955	-47,830	-0,154	0,053
-642,941	-102,776	-0,031	-0,005
-641,926	-37,186	-0,070	-0,027
-640,911	71,388	0,032	0,024
-639,897	30,875	-0,039	-0,024
-638,882	266,940	-0,042	0,053
-637,868	366,549	0,056	-0,082
-636,853	-200,000	0,006	-0,092
-635,838	418,878	-0,016	-0,025
-634,824	-200,000	0,005	0,112
-633,809	-2,713	-0,078	-0,039
-632,795	-24,734	0,069	0,030
-631,780	800,000	-0,021	-0,050
-630,765	-200,000	-0,014	-0,089
-629,751	-200,000	-0,034	-0,132
-628,736	128,769	-0,026	0,023
-627,722	442,359	0,061	-0,097
-626,707	-200,000	-0,013	0,180
-625,692	583,088	0,044	-0,078
-624,678	-200,000	0,011	0,145
-623,663	-200,000	0,003	-0,048
-622,649	-53,356	-0,191	-0,063
-621,634	-200,000	0,020	-0,189
-620,619	-42,069	0,083	-0,031
-619,605	-114,197	-0,085	-0,012
-618,590	98,423	0,074	0,062
-617,576	-200,000	0,022	0,101
-616,561	-69,084	-0,105	0,029
-615,546	-81,325	0,090	0,021
-614,532	-116,580	-0,064	-0,008
-613,517	-35,771	-0,094	0,037
-612,503	155,525	0,072	0,071
-611,488	37,469	0,109	0,069
-610,474	-200,000	-0,000	0,055
-609,459	327,575	0,053	0,073
-608,444	-76,034	-0,186	0,047
-607,430	-200,000	0,019	-0,217
-606,415	136,863	-0,062	-0,058
-605,401	480,902	0,049	-0,081
-604,386	67,888	0,041	0,031
-603,371	-200,000	0,010	0,082
-602,357	6,077	-0,045	-0,024
-601,342	-22,350	-0,023	-0,010
-600,328	-200,000	0,004	-0,108
-599,313	103,845	-0,120	-0,102
-598,298	-150,657	-0,077	0,004
-597,284	401,636	0,091	0,139
-596,269	118,642	0,089	0,079
-595,255	-59,251	-0,116	0,036
-594,240	-200,000	-0,012	-0,122
-593,225	781,314	0,060	-0,119
-592,211	-69,197	-0,102	-0,028
-591,196	-200,000	0,027	-0,112
-590,182	-169,196	0,106	0,003
-589,167	-200,000	-0,003	0,055
-588,152	800,000	0,006	-0,015
-587,138	558,092	0,058	-0,101
-586,123	257,216	-0,088	-0,109
-585,109	533,770	0,022	-0,037
-584,094	-32,592	-0,067	0,027
-583,079	-77,970	0,153	-0,038
-582,065	-157,200	-0,079	0,003
-581,050	800,000	0,005	-0,012
-580,036	-8,690	0,070	-0,034
-579,021	800,000	0,036	0,081
-578,006	-39,409	-0,035	-0,013
-576,992	-70,723	0,066	-0,018
-575,977	67,873	-0,030	0,022
-574,963	-165,637	0,107	-0,003
-573,948	800,000	0,015	-0,038
-572,934	-200,000	-0,004	0,018
-571,919	75,269	0,118	-0,090
-570,904	-178,924	-0,066	0,001
-569,890	16,549	-0,118	0,067
-568,875	-155,630	0,047	0,002
-567,861	25,766	0,085	0,051
-566,846	194,645	-0,038	0,041
-565,831	264,562	-0,054	-0,068
-564,817	540,969	-0,113	-0,195
-563,802	800,000	-0,050	0,102
-562,788	55,648	-0,092	-0,064
-561,773	800,000	0,043	0,128
-560,758	-41,143	-0,129	0,048
-559,744	-200,000	0,013	0,116
-558,729	-62,696	-0,021	0,006
-557,715	608,027	-0,014	0,025
-556,700	-1,253	0,042	0,021
-555,685	-200,000	0,005	-0,041
-554,671	247,696	0,079	0,096
-553,656	-62,099	-0,121	0,036
-552,642	-200,000	0,008	-0,177
-551,627	-200,000	0,004	0,065
-550,612	-69,910	-0,049	0,013
-549,598	-200,000	-0,009	-0,097
-548,583	617,550	0,014	-0,025
-547,569	-87,505	-0,096	-0,021
-546,554	800,000	0,046	-0,133
-545,539	305,887	-0,010	0,013
-544,525	-76,302	-0,102	0,026
-543,510	365,508	0,065	-0,095
-542,496	-200,000	-0,001	0,198
-541,481	492,226	-0,048	0,079
-540,466	-35,176	-0,084	0,033
-539,452	-24,999	0,135	-0,057
-538,437	-13,432	0,091	-0,042
-537,423	-5,523	0,167	0,082
-536,408	800,000	0,025	-0,069
-535,393	-142,617	-0,230	-0,016
-534,379	59,936	-0,063	0,044
-533,364	3,669	0,132	0,069
-532,350	-127,588	0,055	0,006
-531,335	800,000	0,091	0,193
-530,321	800,000	-0,021	0,047
-529,306	-186,446	0,146	0,001
-528,291	-120,603	0,095	0,011
-527,277	517,174	-0,041	-0,070
-526,262	13,814	-0,035	-0,019
-525,248	-104,039	0,171	-0,028
-524,233	-200,000	-0,095	-0,000
-523,218	-42,569	0,118	0,043
-522,204	-198,545	-0,091	-0,000
-521,189	-31,892	-0,083	0,033
-520,175	342,028	0,103	-0,145
-519,160	-200,000	0,009	0,033
-518,145	-71,392	0,107	0,029
-517,131	362,929	0,077	-0,112
-516,116	800,000	0,014	0,032
-515,102	-41,582	-0,035	0,013
-514,087	-76,959	-0,111	-0,028
-513,072	800,000	0,040	-0,088
-512,058	800,000	-0,027	0,064
-511,043	-200,000	0,018	0,146
-510,029	800,000	0,034	0,079
-509,014	-142,327	-0,109	0,008
-507,999	-65,464	-0,138	0,040
-506,985	117,478	0,048	-0,043
-505,970	-200,000	-0,003	-0,047
-504,956	-200,000	0,000	-0,145
-503,941	800,000	0,036	-0,074
-502,926	-200,000	0,010	-0,046
-501,912	800,000	0,110	0,236
-500,897	-37,298	-0,067	-0,025
-499,883	17,111	-0,037	-0,021
-498,868	258,133	-0,050	-0,062
-497,853	800,000	0,035	-0,086
-496,839	531,800	0,012	-0,021
-495,824	800,000	-0,033	0,096
-494,810	-77,603	0,139	0,034
-493,795	155,377	0,111	0,110
-492,781	-111,273	-0,186	-0,027
-491,766	272,733	0,038	0,048
-490,751	-4,109	-0,107	-0,053
-489,737	435,450	-0,027	-0,043
-488,722	-200,000	-0,018	0,064
-487,708	79,201	0,187	0,144
-486,693	50,992	0,139	-0,094
-485,678	-150,971	-0,151	-0,008
-484,664	800,000	-0,033	-0,099
-483,649	-200,000	-0,020	-0,093
-482,635	7,316	0,082	-0,044
-481,620	-157,431	-0,040	0,002
-480,605	159,942	-0,030	0,031
-479,591	42,800	0,065	-0,042
-478,576	398,305	-0,042	0,063
-477,562	11,345	-0,066	-0,036
-476,547	115,463	-0,021	0,018
-475,532	-23,899	0,045	-0,019
-474,518	74,358	-0,098	-0,074
-473,503	-200,000	-0,001	-0,066
-472,489	-95,308	0,170	-0,032
-471,474	217,777	-0,093	0,107
-470,459	121,656	-0,073	-0,065
-469,445	-130,055	-0,109	-0,011
-468,430	596,162	-0,061	-0,108
-467,416	170,456	-0,065	0,067
-466,401	293,956	-0,059	0,077
-465,386	409,286	0,071	0,108
-464,372	-41,831	-0,096	-0,035
-463,357	-12,236	-0,108	-0,050
-462,343	296,077	-0,050	-0,066
-461,328	-10,691	0,078	-0,037
-460,313	118,126	-0,039	0,034
-459,299	100,831	0,081	0,068
-458,284	-93,738	-0,033	-0,007
-457,270	-122,919	-0,013	0,001
-456,255	1,303	-0,019	0,010
-455,241	-96,752	-0,037	-0,007
-454,226	-200,000	-0,012	-0,093
-453,211	356,961	-0,010	-0,014
-452,197	128,719	0,128	-0,117
-451,182	455,480	0,076	-0,122
-450,168	-75,703	0,128	-0,032
-449,153	719,361	0,040	-0,076
-448,138	-200,000	0,009	-0,066
-447,124	-20,570	0,065	-0,029
-446,109	800,000	-0,054	-0,134
-445,095	-27,299	0,176	-0,073
-444,080	30,397	0,093	0,057
-443,065	800,000	-0,046	0,111
-442,051	155,687	-0,061	-0,061
-441,036	34,965	0,044	-0,027
-440,022	76,975	0,067	0,051
-439,007	-200,000	-0,005	-0,058
-437,992	203,872	0,090	-0,100
-436,978	54,437	-0,024	-0,017
-435,963	-157,496	-0,055	-0,002
-434,949	207,848	-0,153	-0,171
-433,934	800,000	-0,021	-0,045
-432,919	-23,110	-0,071	-0,031
-431,905	800,000	-0,015	-0,042
-430,890	162,037	0,118	0,118
-429,876	189,890	0,033	0,035
-428,861	-200,000	0,013	-0,046
-427,846	110,637	0,048	0,042
-426,832	-140,630	-0,039	-0,003
-425,817	-75,813	-0,143	-0,036
-424,803	7,456	0,041	-0,022
-423,788	28,690	0,037	-0,023
-422,773	387,828	-0,028	0,041
-421,759	-29,206	0,084	-0,034
-420,744	-22,209	-0,177	0,077
-419,730	-75,771	0,028	-0,007
-418,715	800,000	0,024	-0,058
-417,701	-53,685	0,075	-0,024
-416,686	-200,000	0,017	-0,073
-415,671	43,271	0,167	0,109
-414,657	-200,000	0,012	0,092
-413,642	800,000	0,006	0,015
-412,628	-65,015	-0,069	-0,020
-411,613	114,258	-0,143	-0,125
-410,598	-26,393	0,025	-0,010
-409,584	-98,782	0,127	0,023
-408,569	-110,117	0,067	0,010
-407,555	800,000	-0,016	0,050
-406,540	-70,503	0,044	-0,012
-405,525	-104,172	0,063	-0,010
-404,511	-200,000	0,018	0,070
-403,496	286,387	0,020	-0,027
-402,482	-200,000	-0,029	0,143
-401,467	-200,000	0,033	0,175
-400,452	250,274	0,080	0,097
-399,438	-14,741	-0,120	-0,055
-398,423	149,601	0,021	-0,020
-397,409	166,351	-0,122	0,124
-396,394	800,000	-0,035	0,074
-395,379	-200,000	-0,003	-0,070
-394,365	-85,053	0,021	0,005
-393,350	526,848	0,071	0,120
-392,336	191,575	0,081	0,087
-391,321	227,131	-0,057	-0,067
-390,306	800,000	-0,030	-0,093
-389,292	800,000	-0,017	-0,035
-388,277	-79,246	0,088	-0,021
-387,263	537,207	0,085	0,145
-386,248	66,544	0,089	0,065
-385,233	-9,323	0,095	0,045
-384,219	-200,000	0,019	0,133
-383,204	126,940	-0,083	0,075
-382,190	-87,543	-0,093	0,020
-381,175	656,872	-0,046	0,084
-380,160	-200,000	0,008	-0,101
-379,146	230,578	0,027	0,032
-378,131	-200,000	0,007	0,097
-377,117	-200,000	0,024	-0,097
-376,102	-200,000	-0,027	0,098
-375,088	603,532	0,035	0,063
-374,073	800,000	0,038	-0,087
-373,058	82,767	0,049	0,038
-372,044	642,192	-0,051	0,094
-371,029	-200,000	-0,032	0,101
-370,015	244,514	0,039	0,047
-369,000	-200,000	0,008	-0,030
-367,985	183,797	0,094	-0,099
-366,971	-200,000	-0,019	-0,067
-365,956	800,000	0,045	0,089
-364,942	359,643	0,017	-0,024
-363,927	-92,649	0,213	0,042
-362,912	-200,000	-0,007	0,028
-361,898	287,568	0,016	-0,021
-360,883	403,797	-0,042	-0,063
-359,869	198,499	0,111	-0,122
-358,854	-121,123	-0,048	-0,006
-357,839	166,620	0,069	0,070
-356,825	-85,721	0,045	0,010
-355,810	-18,569	-0,026	0,012
-354,796	-200,000	0,018	-0,076
-353,781	800,000	-0,021	-0,045
-352,766	-200,000	-0,073	0,231
-351,752	83,286	-0,020	0,016
-350,737	80,838	0,081	0,062
-349,723	-109,657	0,137	0,020
-348,708	331,762	0,082	0,114
-347,693	-105,978	-0,158	-0,025
-346,679	-200,000	0,002	-0,090
-345,664	-200,000	0,021	0,146
-344,650	59,845	0,055	0,039
-343,635	789,283	0,050	-0,098
-342,620	33,213	0,057	0,035
-341,606	-200,000	-0,024	0,136
-340,591	68,563	-0,104	-0,076
-339,577	228,026	-0,029	-0,033
-338,562	107,977	-0,055	0,047
-337,548	-200,000	0,043	-0,138
-336,533	287,206	-0,067	-0,086
-335,518	-200,000	0,032	0,269
-334,504	-200,000	0,020	0,221
-333,489	349,855	-0,033	-0,047
-332,475	277,836	-0,056	-0,071
-331,460	-101,597	-0,070	0,012
-330,445	-45,100	-0,082	0,029
-329,431	-200,000	0,014	0,077
-328,416	-87,493	0,263	0,056
-327,402	736,447	-0,066	0,126
-326,387	247,458	0,060	0,073
-325,372	263,143	-0,046	-0,057
-324,358	-200,000	0,009	0,055
-323,343	638,721	0,018	0,032
-322,329	26,084	0,009	-0,006
-321,314	-52,069	0,080	-0,026
-320,299	800,000	-0,020	0,048
-319,285	157,391	-0,031	-0,031
-318,270	-176,229	-0,085	-0,002
-317,256	73,069	0,064	-0,048
-316,241	96,131	0,097	-0,079
-315,226	-143,265	0,090	-0,006
-314,212	-86,536	0,042	-0,009
-313,197	-200,000	-0,023	-0,128
-312,183	61,765	0,103	-0,073
-311,168	53,061	-0,064	-0,044
-310,153	619,981	0,045	0,081
-309,139	-74,496	-0,170	0,043
-308,124	43,855	-0,030	-0,020
-307,110	-200,000	-0,010	0,068
-306,095	188,196	0,083	0,088
-305,080	800,000	0,058	0,121
-304,066	147,383	-0,032	0,031
-303,051	-59,940	0,071	0,021
-302,037	-200,000	0,009	0,062
-301,022	-132,811	0,030	0,003
-300,008	-48,792	0,025	-0,009
-298,993	-200,000	-0,018	-0,088
-297,978	-29,088	0,090	0,037
-296,964	-71,210	-0,065	-0,017
-295,949	135,747	-0,037	0,035
-294,935	-12,136	-0,055	-0,026
-293,920	553,038	0,055	-0,095
-292,905	800,000	0,039	0,102
-291,891	-200,000	0,004	-0,059
-290,876	222,365	-0,055	-0,063
-289,862	-200,000	-0,005	-0,057
-288,847	19,158	-0,118	-0,067
-287,832	62,357	0,057	-0,041
-286,818	37,642	0,116	0,073
-285,803	-200,000	-0,007	0,061
-284,789	800,000	-0,033	0,081
-283,774	-200,000	0,043	0,169
-282,759	-46,586	-0,135	0,047
-281,745	85,044	-0,142	-0,111
-280,730	-200,000	-0,017	-0,061
-279,716	800,000	0,039	0,118
-278,701	-90,537	-0,149	0,030
-277,686	477,171	0,035	0,057
-276,672	-200,000	0,018	0,077
-275,657	138,064	0,028	-0,026
-274,643	-200,000	-0,002	0,074
-273,628	45,367	-0,057	-0,038
-272,613	-161,716	-0,032	0,001
-271,599	577,263	0,085	-0,148
-270,584	5,287	0,161	0,084
-269,570	651,017	-0,037	0,068
-268,555	112,186	-0,125	0,108
-267,540	233,613	-0,080	-0,094
-266,526	-200,000	-0,003	-0,115
-265,511	-200,000	-0,004	0,165
-264,497	-200,000	-0,023	-0,103
-263,482	-31,568	0,082	-0,033
-262,467	544,800	-0,010	0,018
-261,453	278,713	-0,082	0,105
-260,438	-159,174	-0,141	-0,006
-259,424	-59,156	0,108	0,033
-258,409	89,870	0,080	0,063
-257,395	153,690	-0,039	0,038
-256,380	-122,740	-0,014	-0,002
-255,365	432,156	0,053	0,081
-254,351	12,303	0,083	0,045
-253,336	-200,000	0,003	-0,139
-252,322	291,137	0,056	0,073
-251,307	250,356	0,037	-0,045
-250,292	4,548	-0,078	0,041
-249,278	353,672	0,039	-0,055
-248,263	800,000	0,030	0,068
-247,249	-30,852	-0,026	0,010
-246,234	-84,890	-0,073	0,016
-245,219	800,000	-0,077	-0,188
-244,205	219,480	-0,058	-0,066
-243,190	-200,000	-0,008	-0,123
-242,176	25,895	-0,045	-0,027
-241,161	42,167	0,097	0,062
-240,146	-200,000	-0,004	-0,025
-239,132	-200,000	0,016	-0,100
-238,117	99,318	-0,121	0,099
-237,103	800,000	-0,052	-0,125
-236,088	-120,949	0,048	0,006
-235,073	-75,438	0,015	0,004
-234,059	800,000	-0,016	-0,048
-233,044	-200,000	0,031	0,122
-232,030	-200,000	-0,013	0,043
-231,015	-107,654	-0,065	-0,010
-230,000	-3,717	0,045	0,022
-228,986	-200,000	0,044	-0,232
-227,971	-118,431	-0,042	-0,005
-226,957	800,000	-0,007	0,021
-225,942	201,018	0,074	0,081
-224,927	-150,499	0,021	-0,001
-223,913	-200,000	-0,035	-0,163
-222,898	-200,000	0,002	-0,160
-221,884	800,000	-0,020	0,049
-220,869	800,000	-0,031	-0,078
-219,855	316,385	-0,026	-0,035
-218,840	-200,000	0,015	0,049
-217,825	-170,283	-0,149	0,004
-216,811	-66,779	-0,042	-0,012
-215,796	-200,000	-0,006	0,071
-214,782	-200,000	-0,005	-0,051
-213,767	132,499	-0,111	0,101
-212,752	566,093	-0,027	0,047
-211,738	231,747	0,077	-0,089
-210,723	23,116	-0,088	-0,051
-209,709	518,475	0,029	0,049
-208,694	-200,000	-0,014	0,082
-207,679	8,190	-0,063	-0,033
-206,665	508,885	-0,027	0,045
-205,650	-173,868	0,077	0,002
-204,636	800,000	-0,010	-0,022
-203,621	50,713	-0,042	-0,028
-202,606	-200,000	0,031	-0,137
-201,592	21,273	-0,094	-0,054
-200,577	183,877	-0,030	-0,031
-199,563	295,676	-0,022	-0,029
-198,548	93,609	0,168	0,135
-197,533	772,605	-0,018	0,034
-196,519	-125,302	-0,114	0,012
-195,504	-85,141	-0,060	-0,013
-194,490	-6,487	-0,055	-0,027
-193,475	-200,000	-0,005	-0,034
-192,460	14,854	0,148	-0,082
-191,446	140,580	-0,063	0,059
-190,431	-119,289	0,114	-0,014
-189,417	395,830	0,025	0,038
-188,402	-173,358	-0,141	-0,003
-187,387	-175,510	0,153	0,003
-186,373	-162,652	-0,134	0,005
-185,358	258,902	0,060	-0,073
-184,344	235,491	0,066	0,078
-183,329	800,000	0,035	-0,107
-182,315	-200,000	0,014	0,046
-181,300	755,644	-0,013	-0,025
-180,285	-52,298	-0,217	-0,071
-179,271	-200,000	0,002	-0,093
-178,256	-18,445	0,019	0,008
-177,242	800,000	0,038	0,081
-176,227	-200,000	-0,008	0,032
-175,212	-200,000	0,002	-0,056
-174,198	-200,000	-0,002	0,010
-173,183	-47,813	-0,022	0,008
-172,169	-200,000	-0,018	0,058
-171,154	138,545	0,130	-0,121
-170,139	516,337	0,061	-0,101
-169,125	-200,000	-0,018	0,062
-168,110	-200,000	0,003	-0,034
-167,096	-69,595	-0,162	0,044
-166,081	-164,407	-0,141	-0,004
-165,066	552,842	0,019	0,032
-164,052	-200,000	0,017	0,065
-163,037	537,806	-0,042	-0,071
-162,023	-200,000	0,008	0,066
-161,008	40,636	-0,026	0,016
-159,993	-125,881	-0,026	0,003
-158,979	124,897	0,184	-0,164
-157,964	339,000	-0,057	-0,079
-156,950	116,275	0,038	0,033
-155,935	434,614	0,060	0,093
-154,920	84,349	0,047	-0,036
-153,906	156,110	-0,048	0,047
-152,891	800,000	-0,038	-0,110
-151,877	63,327	0,093	-0,066
-150,862	800,000	-0,063	-0,181
-149,847	-200,000	-0,035	-0,140
-148,833	129,875	-0,013	-0,012
-147,818	-60,630	0,054	0,016
-146,804	65,748	-0,048	0,035
-145,789	-39,979	-0,034	0,012
-144,775	723,913	0,027	0,052
-143,760	-156,945	0,031	-0,001
-142,745	-200,000	0,025	-0,094
-141,731	452,027	0,041	0,064
-140,716	305,019	0,142	0,187
-139,702	535,464	0,064	0,107
-138,687	-200,000	0,013	0,093
-137,672	140,814	0,034	-0,032
-136,658	57,977	-0,092	0,063
-135,643	379,512	-0,045	-0,065
-134,629	177,973	0,021	0,022
-133,614	-86,800	0,222	-0,048
-132,599	-132,322	-0,126	0,011
-131,585	-59,369	0,118	0,036
-130,570	-200,000	-0,004	-0,085
-129,556	-68,030	-0,122	-0,034
-128,541	146,123	0,010	0,009
-127,526	800,000	-0,018	-0,038
-126,512	-142,805	0,071	-0,005
-125,497	-190,923	0,051	-0,000
-124,483	-200,000	-0,016	0,140
-123,468	-131,073	-0,090	0,008
-122,453	127,806	-0,062	-0,056
-121,439	800,000	-0,020	0,058
-120,424	-200,000	0,015	0,081
-119,410	151,403	-0,044	0,043
-118,395	-130,862	0,020	-0,002
-117,380	21,876	0,039	0,023
-116,366	491,429	-0,022	-0,035
-115,351	-4,287	-0,020	-0,010
-114,337	211,588	0,104	-0,116
-113,322	90,406	0,063	0,050
-112,307	800,000	-0,037	-0,106
-111,293	111,512	0,175	0,149
-110,278	-140,467	0,044	-0,003
-109,264	242,316	-0,068	-0,081
-108,249	-140,784	-0,142	-0,010
-107,234	156,832	0,064	-0,063
-106,220	-92,909	-0,032	-0,006
-105,205	-200,000	0,000	0,159
-104,191	50,435	-0,093	0,062
-103,176	800,000	0,095	0,216
-102,162	-22,337	-0,028	-0,012
-101,147	-200,000	0,010	-0,051
-100,132	57,609	0,052	-0,036
-99,118	-40,290	-0,183	-0,067
-98,103	800,000	0,033	-0,091
-97,089	-200,000	0,016	0,062
-96,074	649,311	0,047	0,086
-95,059	24,724	0,103	0,060
-94,045	33,793	0,082	-0,051
-93,030	4,453	-0,069	-0,036
-92,016	13,691	-0,112	0,061
-91,001	-200,000	-0,018	0,083
-89,986	-200,000	0,010	-0,064
-88,972	-17,857	-0,089	0,039
-87,957	665,711	0,068	0,124
-86,943	-28,042	-0,080	-0,033
-85,928	800,000	-0,048	-0,132
-84,913	-98,213	-0,130	0,023
-83,899	265,825	0,048	0,059
-82,884	-200,000	-0,001	0,158
-81,870	175,555	-0,036	-0,037
-80,855	800,000	0,050	0,100
-79,840	713,833	0,051	-0,095
-78,826	-100,170	-0,158	-0,028
-77,811	-37,969	0,048	0,018
-76,797	-123,669	-0,094	0,010
-75,782	717,768	0,046	0,087
-74,767	800,000	-0,008	0,018
-73,753	16,576	0,069	0,038
-72,738	-200,000	0,020	0,154
-71,724	-22,637	-0,220	-0,094
-70,709	109,716	0,021	-0,018
-69,694	413,976	0,023	-0,035
-68,680	724,460	0,022	-0,042
-67,665	-105,831	0,077	0,012
-66,651	482,184	0,048	0,078
-65,636	-200,000	0,036	0,120
-64,622	800,000	-0,099	0,197
-63,607	800,000	-0,060	-0,137
-62,592	-84,364	-0,033	-0,007
-61,578	252,227	0,062	-0,075
-60,563	-200,000	-0,003	-0,012
-59,549	-168,014	-0,151	0,004
-58,534	47,190	-2,019	-1,325
-57,519	401,452	-1,366	-2,031
-56,505	-200,000	-0,215	-4,344
-55,490	676,954	0,813	1,499
-54,476	800,000	5,192	11,193
-53,461	-200,000	21,632	343,343
-52,446	800,000	762,710	2350,604
-51,432	550,341	1661,995	2824,334
-50,417	71,944	1658,004	1215,896
-49,403	17,371	1531,535	855,876
-48,388	11,376	1455,460	784,413
-47,373	19,358	1446,756	817,927
-46,359	14,940	1435,968	790,825
-45,344	9,715	1431,753	763,634
-44,330	9,655	1429,912	762,339
-43,315	9,623	1428,152	761,215
-42,300	9,623	1426,507	760,309
-41,286	9,670	1424,972	759,684
-40,271	9,595	1423,959	758,758
-39,257	9,632	1422,843	758,307
-38,242	9,655	1421,668	757,762
-37,227	9,604	1420,699	756,973
-36,213	9,648	1419,229	756,367
-35,198	9,640	1418,261	755,785
-34,184	9,673	1417,104	755,295
-33,169	9,606	1415,648	754,174
-32,154	9,650	1414,774	753,885
-31,140	9,667	1413,325	753,163
-30,125	9,679	1412,454	752,722
-29,111	9,648	1411,265	751,916
-28,096	9,656	1409,978	751,237
-27,082	9,599	1408,808	750,315
-26,067	9,544	1407,967	749,581
-25,052	9,647	1406,572	749,289
-24,038	9,673	1405,603	748,866
-23,023	9,643	1404,820	748,282
-22,009	9,601	1403,693	747,456
-20,994	9,578	1402,657	746,763
-19,979	9,594	1401,952	746,433
-18,965	9,541	1401,182	745,750
-17,950	9,528	1399,999	745,030
-16,936	9,492	1399,408	744,517
-15,921	9,498	1398,172	743,856
-14,906	9,472	1397,375	743,282
-13,892	9,523	1396,498	743,026
-12,877	9,568	1395,530	742,687
-11,863	9,510	1394,657	741,926
-10,848	9,499	1393,770	741,374
-9,833	9,437	1393,003	740,651
-8,819	9,384	1392,263	739,979
-7,804	9,378	1391,246	739,381
-6,790	9,389	1390,275	738,888
-5,775	9,402	1389,014	738,248
-4,760	9,425	1388,034	737,805
-3,746	9,428	1387,092	737,288
-2,731	9,402	1386,318	736,727
-1,717	9,384	1385,355	736,103
-0,702	9,391	1383,640	735,195
0,313	13,423	1296,001	707,029
1,327	29,275	687,295	410,761
2,342	45,565	118,700	77,178
3,356	-2,437	16,561	8,156
4,371	-0,296	3,590	1,794
5,386	-1,018	1,122	0,558
6,400	631,432	0,292	0,523
7,415	26,247	-0,252	-0,148
8,429	-18,037	-0,393	-0,173
9,444	-20,915	-0,319	-0,137
10,459	-6,192	-0,283	-0,136
11,473	2,971	-0,288	-0,147
12,488	155,019	-0,135	-0,130
13,502	75,818	-0,408	-0,303
14,517	214,593	-0,236	-0,264
15,531	62,515	-0,339	-0,238
16,546	158,119	-0,243	-0,237
17,561	76,349	-0,332	-0,247
18,575	-74,366	-0,113	-0,029
19,590	800,000	-0,116	-0,249
20,604	29,830	-0,138	-0,083
21,619	-29,809	-0,441	-0,176
22,634	12,793	-0,436	-0,237
23,648	101,479	-0,373	-0,306
24,663	61,183	-0,341	-0,238
25,677	-36,213	-0,296	-0,112
26,692	146,736	-0,351	-0,332
27,707	186,059	-0,269	-0,282
28,721	-79,100	-0,364	-0,086
29,736	59,819	-0,376	-0,260
30,750	145,261	-0,397	-0,374
31,765	99,891	-0,307	-0,250
32,780	100,186	-0,235	-0,192
33,794	288,193	-0,206	-0,263
34,809	53,780	-0,229	-0,155
35,823	220,488	-0,383	-0,433
36,838	83,127	-0,349	-0,267
37,853	63,702	-0,448	-0,316
38,867	21,505	-0,315	-0,180
39,882	-51,932	-0,321	-0,104
40,896	26,674	-0,419	-0,246
41,911	59,535	-0,305	-0,211
42,926	-2,007	-0,348	-0,172
43,940	80,956	-0,348	-0,263
44,955	73,103	-0,289	-0,212
45,969	-15,611	-0,422	-0,189
46,984	187,299	-0,357	-0,375
47,999	-82,524	-0,317	-0,072
49,013	26,110	-0,259	-0,151
50,028	-38,106	-0,288	-0,107
51,042	92,865	-0,240	-0,190
52,057	131,007	-0,387	-0,349
53,071	61,600	-0,366	-0,255
54,086	63,409	-0,326	-0,230
55,101	7,536	-0,389	-0,203
56,115	125,404	-0,340	-0,301
57,130	150,696	-0,314	-0,300
58,144	-6,585	-0,346	-0,165
59,159	161,115	-0,321	-0,315
60,174	6,366	-0,432	-0,224
61,188	20,013	-0,237	-0,134
62,203	114,833	-0,383	-0,328
63,217	172,878	-0,218	-0,220
64,232	-46,490	-0,398	-0,136
65,247	59,910	-0,279	-0,193
66,261	103,157	-0,275	-0,226
67,276	244,236	-0,205	-0,241
68,290	-32,489	-0,405	-0,158
69,305	30,486	-0,304	-0,182
70,320	-48,363	-0,348	-0,117
71,334	-21,240	-0,363	-0,155
72,349	4,111	-0,239	-0,122
73,363	110,203	-0,280	-0,236
74,378	61,502	-0,320	-0,223
75,393	53,085	-0,259	-0,173
76,407	-52,096	-0,385	-0,125
77,422	-21,484	-0,182	-0,077
78,436	-128,343	-0,337	0,033
79,451	-50,253	-0,351	-0,116
80,466	44,371	-0,383	-0,246
81,480	85,014	-0,285	-0,219
82,495	-8,764	-0,348	-0,163
83,509	131,905	-0,240	-0,216
84,524	187,132	-0,194	-0,203
85,539	57,395	-0,299	-0,204
86,553	-55,458	-0,370	-0,115
87,568	142,710	-0,291	-0,271
88,582	426,531	-0,244	-0,369
89,597	92,897	-0,306	-0,242
90,611	90,147	-0,290	-0,227
91,626	155,139	-0,195	-0,188
92,641	23,968	-0,233	-0,134
93,655	17,068	-0,335	-0,185
94,670	176,031	-0,310	-0,315
95,684	14,452	-0,263	-0,143
96,699	-104,354	-0,230	-0,037
97,714	43,917	-0,306	-0,195
98,728	147,095	-0,204	-0,192
99,743	82,440	-0,308	-0,233
100,757	50,586	-0,229	-0,151
101,772	31,540	-0,163	-0,098
102,787	192,596	-0,241	-0,255
103,801	800,000	-0,140	-0,348
104,816	-42,427	-0,212	-0,075
105,830	177,524	-0,183	-0,186
106,845	-43,088	-0,194	-0,068
107,860	144,909	-0,242	-0,226
108,874	72,760	-0,285	-0,208
109,889	114,918	-0,221	-0,188
110,903	114,077	-0,307	-0,261
111,918	97,738	-0,182	-0,146
112,933	110,976	-0,197	-0,166
113,947	406,505	-0,162	-0,239
114,962	18,316	-0,275	-0,153
115,976	17,226	-0,275	-0,152
116,991	11,742	-0,272	-0,145
118,006	143,529	-0,202	-0,188
119,020	276,354	-0,211	-0,262
120,035	442,184	-0,232	-0,356
121,049	-93,229	-0,299	-0,057
122,064	115,816	-0,300	-0,256
123,079	-21,510	-0,289	-0,122
124,093	63,952	-0,222	-0,155
125,108	26,706	-0,261	-0,152
126,122	459,343	-0,186	-0,290
127,137	145,924	-0,215	-0,202
128,151	-177,220	-0,284	0,005
129,166	-19,235	-0,183	-0,079
130,181	449,358	-0,113	-0,175
131,195	1,901	-0,252	-0,126
132,210	151,231	-0,309	-0,294
133,224	98,777	-0,139	-0,112
134,239	233,763	-0,218	-0,250
135,254	144,270	-0,226	-0,210
136,268	46,885	-0,253	-0,164
137,283	-14,789	-0,303	-0,135
138,297	346,400	-0,193	-0,266
139,312	181,513	-0,268	-0,275
140,327	63,307	-0,290	-0,203
141,341	48,000	-0,238	-0,155
142,356	-49,167	-0,244	-0,081
143,370	214,116	-0,159	-0,175
144,385	-24,269	-0,202	-0,084
145,400	25,283	-0,105	-0,061
146,414	-34,551	-0,233	-0,088
147,429	150,114	-0,191	-0,181
148,443	17,667	-0,338	-0,187
149,458	-40,832	-0,211	-0,076
150,473	430,071	-0,092	-0,139
151,487	-50,815	-0,207	-0,067
152,502	-17,404	-0,314	-0,137
153,516	-18,697	-0,353	-0,153
154,531	133,876	-0,166	-0,150
155,546	-64,311	-0,197	-0,055
156,560	-136,565	-0,293	-0,023
157,575	800,000	-0,090	-0,249
158,589	300,178	-0,128	-0,164
159,604	94,251	-0,238	-0,188
160,619	-99,332	-0,289	-0,050
161,633	415,989	-0,142	-0,211
162,648	-28,622	-0,182	-0,072
163,662	-14,265	-0,286	-0,128
164,677	-27,183	-0,272	-0,110
165,692	18,374	-0,199	-0,110
166,706	-146,344	-0,241	-0,014
167,721	800,000	-0,153	-0,331
168,735	56,475	-0,334	-0,226
169,750	116,771	-0,199	-0,169
170,764	-200,000	-0,057	-0,207
171,779	26,189	-0,107	0,062
172,794	-20,353	-0,190	-0,081
173,808	42,987	-0,252	-0,160
174,823	508,285	-0,193	-0,313
175,837	-8,938	-0,295	-0,137
176,852	74,890	-0,208	-0,152
177,867	38,702	-0,334	-0,206
178,881	-46,178	-0,191	-0,065
179,896	-41,936	-0,338	-0,120
180,910	-68,225	-0,148	-0,040
181,925	149,277	-0,146	-0,137
182,940	527,052	-0,074	-0,121
183,954	-54,224	-0,327	-0,102
184,969	175,025	-0,213	-0,214
185,983	186,484	-0,156	-0,161
186,998	-13,851	-0,194	-0,087
188,013	132,489	-0,191	-0,171
189,027	173,060	-0,181	-0,182
190,042	311,281	-0,161	-0,209
191,056	-39,434	-0,160	-0,058
192,071	382,600	-0,157	-0,224
193,086	-51,338	-0,086	-0,028
194,100	224,065	-0,213	-0,239
195,115	278,338	-0,170	-0,210
196,129	114,655	-0,217	-0,183
197,144	91,831	-0,202	-0,157
198,159	104,115	-0,152	-0,124
199,173	125,640	-0,179	-0,157
200,188	800,000	-0,046	-0,114
201,202	212,155	-0,096	-0,104
202,217	152,485	-0,235	-0,222
203,232	223,966	-0,210	-0,235
204,246	526,383	-0,115	-0,188
205,261	155,501	-0,198	-0,189
206,275	220,373	-0,173	-0,192
207,290	-74,992	-0,228	-0,056
208,304	800,000	-0,081	-0,247
209,319	71,758	-0,213	-0,153
210,334	180,836	-0,085	-0,087
211,348	109,434	-0,163	-0,135
212,363	50,789	-0,190	-0,124
213,377	-131,443	-0,239	0,022
214,392	-97,261	-0,096	0,017
215,407	232,611	-0,174	-0,198
216,421	-99,634	-0,232	-0,040
217,436	45,649	-0,324	-0,207
218,450	269,265	-0,214	-0,260
219,465	-98,084	-0,244	-0,043
220,480	25,528	-0,255	-0,146
221,494	-200,000	-0,039	-0,136
222,509	-15,665	-0,123	-0,054
223,523	103,835	-0,189	-0,153
224,538	77,789	-0,049	-0,036
225,553	250,068	-0,164	-0,193
226,567	-59,201	-0,236	-0,070
227,582	41,386	-0,220	-0,137
228,596	288,232	-0,129	-0,162
229,611	-32,345	-0,241	0,092
230,626	90,004	-0,195	-0,150
231,640	189,146	-0,186	-0,193
232,655	-14,264	-0,172	-0,076
233,669	-120,149	-0,210	-0,025
234,684	-24,406	-0,150	-0,061
235,699	87,042	-0,181	-0,138
236,713	-124,393	-0,178	-0,019
237,728	45,173	-0,174	-0,111
238,742	-200,000	-0,097	-0,324
239,757	139,571	-0,266	-0,242
240,772	34,153	-0,247	-0,149
241,786	44,749	-0,259	-0,165
242,801	-200,000	-0,023	-0,187
243,815	217,803	-0,135	-0,149
244,830	156,198	-0,153	-0,146
245,844	25,920	-0,168	-0,097
246,859	161,452	-0,248	-0,240
247,874	45,191	-0,214	-0,136
248,888	118,887	-0,165	-0,141
249,903	-166,089	-0,171	0,005
250,917	-77,920	-0,257	-0,061
251,932	-57,170	-0,116	-0,035
252,947	82,637	-0,179	-0,134
253,961	158,328	-0,153	-0,147
254,976	79,614	-0,212	-0,157
255,990	168,005	-0,229	-0,225
257,005	-114,250	-0,303	0,040
258,020	-84,376	-0,227	-0,049
259,034	-104,850	-0,247	-0,039
260,049	272,535	-0,114	-0,140
261,063	149,459	-0,258	-0,241
262,078	-200,000	-0,089	-0,299
263,093	114,801	-0,170	-0,143
264,107	-17,937	-0,205	-0,088
265,122	-200,000	-0,039	-0,133
266,136	800,000	-0,061	-0,164
267,151	-87,857	-0,247	0,051
268,166	324,723	-0,105	-0,139
269,180	-106,684	-0,359	-0,054
270,195	-11,601	-0,277	-0,125
271,209	-0,977	-0,179	-0,087
272,224	223,359	-0,084	-0,093
273,239	-41,788	-0,141	0,050
274,253	88,863	-0,209	-0,160
275,268	-37,854	-0,145	-0,053
276,282	200,926	-0,166	-0,176
277,297	438,427	-0,182	-0,274
278,312	94,489	-0,241	-0,188
279,326	125,947	-0,142	-0,123
280,341	-200,000	-0,177	0,000
281,355	148,924	-0,216	-0,201
282,370	-152,525	-0,188	0,009
283,384	-2,252	-0,127	-0,061
284,399	405,584	-0,106	-0,154
285,414	57,068	-0,133	-0,089
286,428	-10,198	-0,173	-0,079
287,443	18,647	-0,171	-0,094
288,457	67,462	-0,112	-0,079
289,472	613,051	-0,129	-0,222
290,487	-4,512	-0,159	-0,075
291,501	109,670	-0,179	-0,147
292,516	82,461	-0,161	-0,120
293,530	-200,000	-0,011	-0,055
294,545	788,546	-0,018	-0,033
295,560	51,816	-0,120	-0,078
296,574	143,660	-0,128	-0,117
297,589	445,503	-0,028	-0,042
298,603	-200,000	-0,054	-0,264
299,618	126,747	-0,071	-0,062
300,633	-200,000	-0,021	-0,119
301,647	43,332	-0,077	-0,048
302,662	14,700	-0,087	0,046
303,676	-6,553	-0,222	-0,103
304,691	-7,994	-0,138	-0,064
305,706	14,517	-0,141	-0,076
306,720	29,172	-0,147	-0,085
307,735	-200,000	0,018	-0,153
308,749	564,050	-0,088	-0,147
309,764	344,230	-0,118	-0,160
310,779	-16,238	-0,176	0,076
311,793	83,056	-0,151	-0,112
312,808	-115,697	-0,220	-0,028
313,822	276,723	-0,114	-0,140
314,837	143,300	-0,107	-0,098
315,852	143,763	-0,164	-0,150
316,866	-31,965	-0,128	0,049
317,881	289,416	-0,077	-0,096
318,895	19,791	-0,091	-0,050
319,910	-23,612	-0,094	-0,039
320,925	439,701	-0,094	-0,141
321,939	10,645	-0,210	-0,110
322,954	-200,000	-0,016	-0,140
323,968	49,009	-0,044	0,028
324,983	-95,665	-0,103	0,019
325,997	89,098	-0,165	-0,126
327,012	800,000	-0,065	-0,174
328,027	94,425	-0,177	-0,138
329,041	195,726	-0,169	-0,176
330,056	247,435	-0,172	-0,200
331,070	-200,000	-0,017	0,053
332,085	-77,863	-0,138	-0,032
333,100	-200,000	-0,019	-0,136
334,114	-200,000	-0,019	-0,069
335,129	679,634	-0,070	-0,126
336,143	-67,494	-0,216	-0,058
337,158	-200,000	-0,035	-0,238
338,173	335,398	-0,045	-0,060
339,187	34,371	-0,162	-0,097
340,202	654,811	-0,103	-0,182
341,216	800,000	-0,095	-0,196
342,231	7,262	-0,252	-0,129
343,246	-200,000	-0,061	-0,196
344,260	784,099	-0,051	-0,095
345,275	252,351	-0,049	-0,057
346,289	-108,180	-0,102	-0,015
347,304	255,706	-0,062	-0,073
348,319	-200,000	-0,004	-0,122
349,333	-13,049	-0,199	-0,088
350,348	44,619	-0,083	-0,052
351,362	-200,000	-0,007	-0,117
352,377	-157,725	-0,085	-0,003
353,392	-198,090	-0,237	0,001
354,406	92,366	-0,154	-0,118
355,421	207,473	1307,450	1396,791
356,435	159,607	1467,251	1397,268
