DTS Sentinel unit serial number:	SN410029Multiplexer serial number:	ORYXHardware model number:	OX2-SRSoftware version number:	ORYX F/W v4,00 Oryx Data Collector v3.7.2.0data status	okinstallation	B3 Nyhavnadifferential loss correction	single-endedforward channel	channel 1reverse channel	N/Adate	2023/12/05time	08:32:30forward acquisition time	300,00reverse acquisition time	0,00gamma	499,1914k internal	0,3192k external	0,3192temperature offset calibration	1,0000default loss term (dB/km)	0,3820temperature slope calibration	1,0000multiplexer offset coefficient	1,0000multiplexer slope coefficient	1,0000fibre end	0,00T internal ref (°C)	13,03T ext. ref 1 (°C)	-2,66T ext. ref 2 (°C)	-2,88length (m)	temperature (°C)	Stokes	anti-Stokes-744,400	-200,000	-0,036	-0,197
-743,385	800,000	-0,076	0,174
-742,371	567,318	0,070	-0,124
-741,356	-200,000	-0,053	0,178
-740,342	-14,690	-0,197	-0,092
-739,327	248,910	-0,067	0,083
-738,312	-200,000	-0,024	-0,097
-737,298	171,237	-0,120	0,125
-736,283	-42,886	-0,176	-0,065
-735,269	19,143	-0,255	0,149
-734,254	251,930	-0,060	-0,074
-733,239	-99,087	-0,211	0,039
-732,225	-200,000	-0,005	-0,086
-731,210	97,254	0,119	0,100
-730,196	-138,119	-0,106	0,008
-729,181	-138,013	-0,273	-0,022
-728,167	13,850	-0,034	-0,019
-727,152	-43,681	0,018	-0,007
-726,137	37,258	-0,018	-0,012
-725,123	-89,050	-0,030	-0,006
-724,108	-200,000	-0,003	-0,187
-723,094	-200,000	0,019	-0,132
-722,079	67,730	-0,099	-0,073
-721,064	-200,000	0,007	-0,029
-720,050	-162,870	0,100	0,003
-719,035	209,217	-0,073	0,083
-718,021	-9,517	-0,079	0,038
-717,006	800,000	0,095	-0,206
-715,991	-99,061	-0,159	-0,029
-714,977	-32,039	-0,093	0,038
-713,962	800,000	-0,035	-0,098
-712,948	-129,358	0,073	0,007
-711,933	-144,937	-0,109	0,007
-710,918	-72,073	-0,111	0,030
-709,904	-71,047	0,099	0,027
-708,889	53,170	0,051	0,036
-707,875	113,391	-0,113	0,100
-706,860	203,961	-0,063	0,071
-705,845	16,753	-0,049	0,028
-704,831	-200,000	0,026	-0,177
-703,816	-18,464	0,028	-0,013
-702,802	-135,700	-0,095	-0,008
-701,787	-200,000	0,006	-0,115
-700,772	800,000	-0,008	0,017
-699,758	800,000	0,050	0,120
-698,743	-98,375	-0,092	-0,017
-697,729	-134,442	0,081	0,007
-696,714	192,428	0,130	0,143
-695,699	792,163	0,003	0,005
-694,685	313,320	-0,079	0,108
-693,670	-84,065	-0,042	-0,010
-692,656	-200,000	0,032	-0,172
-691,641	-69,016	0,075	0,021
-690,627	154,096	0,078	0,078
-689,612	800,000	0,011	-0,034
-688,597	165,786	-0,047	0,048
-687,583	126,947	-0,046	-0,042
-686,568	59,389	-0,031	0,022
-685,554	628,172	-0,029	0,054
-684,539	498,866	-0,032	-0,054
-683,524	92,546	0,060	-0,049
-682,510	800,000	0,015	-0,033
-681,495	-169,445	-0,085	-0,002
-680,481	115,283	-0,070	0,062
-679,466	-200,000	-0,013	-0,194
-678,451	580,311	-0,049	0,088
-677,437	142,928	-0,120	-0,116
-676,422	74,269	-0,091	-0,069
-675,408	-26,305	-0,040	-0,017
-674,393	-200,000	-0,005	-0,053
-673,378	22,543	0,051	0,030
-672,364	115,940	-0,015	0,013
-671,349	-176,090	-0,165	-0,003
-670,335	125,955	0,028	-0,026
-669,320	67,728	0,184	0,136
-668,305	27,491	0,071	0,043
-667,291	-107,087	-0,075	0,012
-666,276	-200,000	0,038	0,127
-665,262	119,713	-0,061	-0,055
-664,247	-8,593	-0,124	0,060
-663,232	-151,018	0,051	0,003
-662,218	79,079	-0,061	-0,048
-661,203	118,610	0,069	-0,061
-660,189	410,158	-0,038	-0,059
-659,174	-83,528	0,017	0,004
-658,159	103,307	-0,115	-0,098
-657,145	20,568	-0,050	-0,030
-656,130	130,866	-0,088	0,082
-655,116	800,000	0,059	0,139
-654,101	-78,692	-0,087	-0,021
-653,086	-63,970	0,091	-0,027
-652,072	800,000	-0,044	-0,135
-651,057	-168,248	-0,186	0,005
-650,043	83,189	-0,040	0,031
-649,028	324,022	0,021	0,030
-648,014	-200,000	-0,001	-0,017
-646,999	800,000	-0,027	0,085
-645,984	-200,000	-0,016	0,053
-644,970	-200,000	-0,029	-0,102
-643,955	35,198	0,114	0,072
-642,941	-108,635	0,023	-0,004
-641,926	164,598	-0,087	-0,089
-640,911	-62,173	0,052	0,016
-639,897	316,657	0,022	0,030
-638,882	800,000	0,015	-0,043
-637,868	-42,187	0,036	0,013
-636,853	-178,437	-0,148	-0,002
-635,838	485,698	0,032	0,052
-634,824	-200,000	0,011	-0,082
-633,809	103,555	0,044	0,038
-632,795	-200,000	0,012	-0,203
-631,780	800,000	-0,020	0,041
-630,765	363,640	-0,028	0,041
-629,751	800,000	0,026	0,082
-628,736	-200,000	-0,035	-0,124
-627,722	155,524	0,071	0,071
-626,707	-106,943	0,107	0,017
-625,692	-44,440	-0,189	0,068
-624,678	-148,904	-0,147	-0,008
-623,663	-104,177	-0,166	-0,028
-622,649	586,520	0,007	0,012
-621,634	-200,000	-0,015	-0,082
-620,619	-17,744	-0,106	-0,048
-619,605	9,661	-0,101	0,055
-618,590	65,869	0,127	-0,093
-617,576	90,440	-0,106	0,086
-616,561	26,041	-0,038	0,023
-615,546	800,000	-0,005	0,012
-614,532	-200,000	0,040	0,139
-613,517	-8,010	-0,043	0,021
-612,503	800,000	-0,012	-0,033
-611,488	-106,836	0,100	-0,016
-610,474	-68,105	0,089	0,025
-609,459	-200,000	0,018	0,169
-608,444	-200,000	0,018	-0,116
-607,430	-200,000	-0,008	-0,066
-606,415	-200,000	-0,055	-0,233
-605,401	-149,723	0,021	0,001
-604,386	-200,000	-0,030	0,136
-603,371	84,977	0,044	-0,035
-602,357	-200,000	-0,011	-0,157
-601,342	800,000	-0,036	0,082
-600,328	800,000	0,005	0,012
-599,313	-200,000	0,013	-0,051
-598,298	-40,276	-0,024	-0,009
-597,284	800,000	-0,029	0,074
-596,269	-200,000	0,006	-0,126
-595,255	800,000	-0,016	-0,047
-594,240	312,981	0,026	0,036
-593,225	134,471	-0,069	0,065
-592,211	625,834	-0,029	-0,054
-591,196	-200,000	-0,001	-0,091
-590,182	-79,277	0,114	-0,028
-589,167	800,000	0,017	-0,049
-588,152	-163,822	0,154	0,005
-587,138	-200,000	-0,037	-0,121
-586,123	145,062	-0,032	-0,031
-585,109	-50,467	0,047	0,016
-584,094	-130,274	0,130	-0,013
-583,079	18,828	-0,108	-0,062
-582,065	384,389	0,008	-0,012
-581,050	-75,164	-0,078	0,020
-580,036	-117,995	0,146	-0,019
-579,021	497,382	0,026	-0,044
-578,006	-30,699	-0,178	-0,073
-576,992	14,753	0,068	0,039
-575,977	21,760	0,188	-0,111
-574,963	800,000	0,043	0,089
-573,948	378,517	0,004	0,006
-572,934	-14,659	-0,048	0,022
-571,919	-165,589	-0,104	-0,003
-570,904	-79,511	-0,105	-0,026
-569,890	-69,389	0,134	-0,037
-568,875	-200,000	-0,040	-0,174
-567,861	-37,854	0,065	0,025
-566,846	-200,000	0,014	-0,075
-565,831	24,855	-0,112	-0,067
-564,817	800,000	-0,046	-0,127
-563,802	393,166	0,021	-0,032
-562,788	-49,577	-0,131	0,045
-561,773	-122,407	-0,023	0,003
-560,758	-21,320	-0,093	-0,041
-559,744	79,319	0,075	0,058
-558,729	-11,989	-0,069	0,033
-557,715	-36,087	-0,091	0,035
-556,700	636,654	-0,056	0,103
-555,685	-200,000	0,040	-0,155
-554,671	162,054	0,031	0,031
-553,656	22,899	0,070	-0,041
-552,642	23,095	-0,062	0,037
-551,627	-70,766	0,052	-0,014
-550,612	-37,349	0,057	-0,022
-549,598	263,768	-0,159	-0,200
-548,583	-113,713	-0,138	-0,019
-547,569	-200,000	0,018	0,069
-546,554	35,010	-0,043	-0,027
-545,539	-200,000	-0,010	-0,041
-544,525	-122,946	-0,115	0,013
-543,510	713,354	-0,014	0,027
-542,496	-200,000	-0,015	-0,112
-541,481	-152,446	-0,012	-0,001
-540,466	78,529	-0,087	0,067
-539,452	577,985	0,081	0,144
-538,437	540,769	-0,024	0,042
-537,423	589,798	-0,062	0,111
-536,408	-64,981	0,045	0,013
-535,393	-62,253	0,049	-0,015
-534,379	-150,412	-0,100	0,005
-533,364	-200,000	0,010	0,081
-532,350	-129,166	0,085	0,009
-531,335	66,072	-0,055	0,040
-530,321	800,000	-0,058	0,153
-529,306	-96,834	-0,072	-0,014
-528,291	-200,000	-0,004	-0,072
-527,277	-200,000	0,000	-0,050
-526,262	-200,000	-0,004	0,021
-525,248	-200,000	0,003	0,144
-524,233	-33,412	0,228	-0,091
-523,218	-200,000	-0,016	-0,145
-522,204	-39,397	0,105	0,039
-521,189	-71,821	-0,166	0,045
-520,175	-36,850	-0,082	0,032
-519,160	800,000	-0,010	-0,024
-518,145	-151,501	0,088	-0,005
-517,131	-88,193	-0,009	0,002
-516,116	-200,000	-0,006	-0,087
-515,102	-26,713	-0,084	0,035
-514,087	800,000	-0,048	-0,142
-513,072	-200,000	-0,001	-0,103
-512,058	204,623	-0,107	0,120
-511,043	-200,000	0,000	0,040
-510,029	-41,627	0,058	-0,021
-509,014	128,948	-0,079	0,073
-507,999	74,591	0,034	0,026
-506,985	-200,000	0,009	-0,042
-505,970	22,231	-0,069	-0,040
-504,956	-142,941	-0,116	0,008
-503,941	800,000	-0,053	0,120
-502,926	-74,982	-0,077	0,020
-501,912	101,348	0,179	-0,151
-500,897	18,971	-0,145	-0,084
-499,883	-200,000	0,008	-0,157
-498,868	569,190	-0,042	-0,074
-497,853	-18,281	0,077	0,035
-496,839	800,000	-0,019	-0,046
-495,824	-200,000	-0,001	0,008
-494,810	-18,657	0,139	0,063
-493,795	-50,812	-0,039	0,013
-492,781	-17,702	0,039	0,018
-491,766	-200,000	-0,010	-0,044
-490,751	295,682	-0,073	-0,096
-489,737	-200,000	-0,009	0,133
-488,722	190,176	-0,018	-0,019
-487,708	-47,224	0,115	0,040
-486,693	410,473	0,033	0,051
-485,678	-175,051	-0,067	-0,001
-484,664	-81,461	-0,211	-0,050
-483,649	800,000	0,065	-0,169
-482,635	649,578	0,092	-0,170
-481,620	-68,294	0,090	-0,025
-480,605	-150,585	0,052	0,003
-479,591	-17,179	0,134	0,061
-478,576	-104,198	-0,047	-0,008
-477,562	-28,066	-0,022	0,009
-476,547	-156,576	-0,204	0,009
-475,532	-12,673	0,067	0,032
-474,518	779,570	0,037	0,074
-473,503	-19,669	0,093	-0,041
-472,489	80,282	-0,102	0,079
-471,474	67,997	-0,141	-0,104
-470,459	91,969	-0,079	0,064
-469,445	-200,000	0,028	-0,138
-468,430	800,000	-0,040	-0,090
-467,416	-158,757	0,175	0,007
-466,401	800,000	0,050	0,132
-465,386	-155,118	-0,079	0,004
-464,372	594,497	0,011	0,019
-463,357	-200,000	-0,004	-0,126
-462,343	-200,000	0,007	-0,099
-461,328	30,483	-0,043	0,026
-460,313	-144,825	0,115	-0,008
-459,299	12,650	-0,053	-0,029
-458,284	-90,202	0,168	0,035
-457,270	-20,118	0,030	-0,013
-456,255	-200,000	0,003	-0,023
-455,241	-200,000	-0,024	-0,087
-454,226	-200,000	0,035	0,131
-453,211	128,631	-0,054	0,050
-452,197	218,672	-0,027	-0,032
-451,182	174,216	0,086	0,090
-450,168	-107,299	0,105	-0,016
-449,153	800,000	-0,017	0,052
-448,138	-200,000	0,031	-0,169
-447,124	41,531	0,094	-0,061
-446,109	-200,000	0,001	-0,133
-445,095	416,257	0,014	-0,021
-444,080	-118,570	-0,032	0,004
-443,065	113,473	0,026	0,022
-442,051	-49,507	-0,077	0,026
-441,036	572,587	0,079	-0,140
-440,022	-200,000	0,007	-0,220
-439,007	-200,000	0,018	0,145
-437,992	59,969	0,025	-0,018
-436,978	-200,000	0,001	0,110
-435,963	237,551	0,099	0,119
-434,949	800,000	-0,039	0,092
-433,934	-200,000	0,013	-0,063
-432,919	-200,000	-0,004	-0,118
-431,905	-200,000	0,020	-0,149
-430,890	-116,431	-0,080	-0,010
-429,876	-47,878	0,094	0,033
-428,861	800,000	-0,021	-0,056
-427,846	124,793	0,058	-0,053
-426,832	800,000	0,035	-0,080
-425,817	-110,191	-0,085	0,013
-424,803	800,000	0,031	-0,076
-423,788	-200,000	0,016	-0,113
-422,773	692,900	0,023	0,044
-421,759	18,107	0,024	0,014
-420,744	-200,000	-0,010	0,043
-419,730	800,000	0,041	-0,098
-418,715	-200,000	0,008	-0,037
-417,701	380,737	-0,057	-0,085
-416,686	-200,000	0,009	-0,039
-415,671	-53,457	0,113	0,037
-414,657	800,000	0,023	0,072
-413,642	800,000	-0,031	0,072
-412,628	167,285	0,045	-0,046
-411,613	165,632	-0,035	-0,036
-410,598	327,560	0,082	-0,114
-409,584	148,596	-0,076	-0,074
-408,569	356,702	0,028	-0,041
-407,555	-55,512	-0,044	0,014
-406,540	800,000	-0,032	-0,071
-405,525	282,483	0,068	0,088
-404,511	218,760	0,059	-0,068
-403,496	52,396	-0,139	0,095
-402,482	282,574	0,073	0,095
-401,467	800,000	0,030	0,091
-400,452	-200,000	-0,038	0,216
-399,438	377,219	-0,035	-0,051
-398,423	-200,000	-0,022	0,077
-397,409	-2,579	-0,185	0,093
-396,394	-200,000	0,022	0,110
-395,379	41,982	0,215	-0,140
-394,365	800,000	-0,026	-0,061
-393,350	-200,000	0,024	0,114
-392,336	-35,417	0,110	-0,043
-391,321	-200,000	-0,009	0,072
-390,306	-200,000	0,025	-0,108
-389,292	53,831	0,117	-0,080
-388,277	-78,342	-0,039	0,010
-387,263	163,584	0,109	0,110
-386,248	-61,135	0,076	0,023
-385,233	-200,000	-0,004	0,062
-384,219	-11,435	-0,043	0,020
-383,204	610,361	0,042	-0,076
-382,190	283,899	-0,017	-0,022
-381,175	800,000	0,021	-0,055
-380,160	52,950	0,035	-0,024
-379,146	800,000	0,019	0,041
-378,131	-39,134	-0,109	-0,041
-377,117	-200,000	-0,009	0,114
-376,102	149,116	0,054	-0,052
-375,088	31,797	-0,069	0,043
-374,073	402,175	-0,050	-0,076
-373,058	-30,977	0,137	0,055
-372,044	-200,000	-0,019	0,202
-371,029	-139,057	0,045	-0,003
-370,015	-200,000	-0,015	0,194
-369,000	503,312	-0,065	-0,109
-367,985	233,225	0,047	-0,056
-366,971	74,004	-0,056	-0,042
-365,956	-2,657	0,095	0,047
-364,942	156,991	0,097	0,097
-363,927	738,437	-0,035	0,068
-362,912	-200,000	0,035	0,134
-361,898	353,215	0,045	0,065
-360,883	116,113	-0,085	0,075
-359,869	800,000	-0,018	0,049
-358,854	269,438	0,020	0,026
-357,839	-200,000	0,015	0,058
-356,825	-114,403	0,025	-0,003
-355,810	-200,000	0,063	0,222
-354,796	-142,340	0,098	-0,007
-353,781	57,759	-0,202	-0,142
-352,766	122,007	-0,042	0,038
-351,752	-28,378	-0,061	-0,025
-350,737	469,310	0,080	0,129
-349,723	800,000	-0,088	0,230
-348,708	-200,000	-0,016	0,078
-347,693	-109,999	0,121	-0,018
-346,679	800,000	0,004	-0,011
-345,664	-200,000	-0,011	-0,178
-344,650	138,798	0,093	0,087
-343,635	-11,983	-0,066	-0,031
-342,620	750,055	0,015	-0,029
-341,606	-93,819	0,083	-0,016
-340,591	-57,007	-0,042	0,013
-339,577	763,986	-0,055	-0,108
-338,562	146,748	-0,078	-0,075
-337,548	-36,804	0,078	-0,030
-336,533	306,508	-0,017	-0,023
-335,518	-122,199	0,129	-0,015
-334,504	-114,616	-0,119	-0,016
-333,489	-49,552	-0,048	0,016
-332,475	50,108	-0,098	-0,067
-331,460	631,389	0,047	-0,085
-330,445	-200,000	0,014	-0,232
-329,431	88,645	-0,052	-0,041
-328,416	-200,000	0,008	0,088
-327,402	429,910	0,092	0,143
-326,387	800,000	-0,018	0,036
-325,372	217,450	-0,119	0,136
-324,358	0,951	-0,118	-0,061
-323,343	-200,000	-0,007	-0,177
-322,329	800,000	-0,024	-0,052
-321,314	280,009	0,027	-0,034
-320,299	-31,159	0,014	0,006
-319,285	104,834	0,019	-0,016
-318,270	6,990	-0,118	0,063
-317,256	80,108	0,056	-0,043
-316,241	-200,000	0,006	-0,109
-315,226	262,039	0,031	-0,039
-314,212	44,176	0,161	0,106
-313,197	105,864	-0,110	0,093
-312,183	34,870	0,047	-0,030
-311,168	-56,203	-0,084	-0,027
-310,153	800,000	0,013	0,036
-309,139	-200,000	0,008	-0,103
-308,124	248,360	0,097	0,118
-307,110	257,819	0,066	0,082
-306,095	-123,672	0,220	0,025
-305,080	525,077	0,040	0,068
-304,066	-92,088	0,195	-0,039
-303,051	-200,000	-0,002	-0,109
-302,037	548,107	-0,074	0,127
-301,022	-200,000	0,002	-0,016
-300,008	-200,000	-0,009	0,081
-298,993	522,331	0,048	0,082
-297,978	-70,903	-0,135	0,036
-296,964	156,977	-0,023	0,022
-295,949	24,207	-0,108	-0,064
-294,935	80,964	0,037	-0,029
-293,920	-200,000	0,008	-0,069
-292,905	-148,278	0,094	0,005
-291,891	-55,582	0,132	-0,042
-290,876	-200,000	0,023	0,091
-289,862	-51,999	0,041	-0,014
-288,847	-5,594	-0,073	0,036
-287,832	343,988	-0,071	0,100
-286,818	610,897	0,063	0,114
-285,803	800,000	-0,030	0,080
-284,789	-53,452	0,109	-0,035
-283,774	86,696	0,111	-0,087
-282,759	99,233	-0,168	-0,139
-281,745	115,206	-0,061	0,054
-280,730	-200,000	0,012	0,098
-279,716	405,163	-0,017	-0,026
-278,701	-200,000	-0,003	0,043
-277,686	52,637	0,135	0,092
-276,672	-152,311	-0,110	0,006
-275,657	151,466	-0,080	-0,078
-274,643	-15,527	-0,058	-0,027
-273,628	-200,000	-0,010	-0,043
-272,613	-132,903	0,122	0,011
-271,599	238,691	0,033	-0,040
-270,584	-1,427	0,185	0,093
-269,570	-200,000	-0,038	0,000
-268,555	-29,938	-0,065	0,026
-267,540	314,253	-0,108	0,146
-266,526	60,074	-0,021	-0,015
-265,511	294,325	-0,025	-0,032
-264,497	110,795	-0,105	-0,090
-263,482	-4,016	-0,062	-0,031
-262,467	503,646	0,062	0,104
-261,453	-200,000	-0,012	0,175
-260,438	74,490	-0,083	0,062
-259,424	29,971	0,059	0,036
-258,409	-164,500	-0,146	-0,005
-257,395	16,454	0,037	0,021
-256,380	-30,060	-0,096	-0,039
-255,365	501,301	0,020	0,033
-254,351	-200,000	0,010	-0,039
-253,336	15,015	-0,016	-0,009
-252,322	-99,894	0,068	-0,012
-251,307	-25,177	-0,091	0,038
-250,292	86,575	0,017	0,013
-249,278	-200,000	0,026	0,115
-248,263	-200,000	0,018	-0,096
-247,249	25,883	-0,091	-0,054
-246,234	-42,886	0,065	0,024
-245,219	14,493	-0,151	0,084
-244,205	-200,000	0,001	-0,015
-243,190	241,087	-0,133	-0,159
-242,176	-91,936	0,151	0,030
-241,161	800,000	0,051	0,101
-240,146	-200,000	0,024	-0,153
-239,132	-161,596	0,023	-0,001
-238,117	-106,628	-0,059	0,009
-237,103	-200,000	0,011	0,058
-236,088	81,582	0,080	-0,062
-235,073	-16,136	0,187	0,085
-234,059	214,813	-0,063	-0,071
-233,044	49,597	-0,072	0,048
-232,030	266,496	0,009	-0,012
-231,015	449,649	-0,080	-0,126
-230,000	375,657	0,060	-0,088
-228,986	-99,362	-0,144	0,026
-227,971	-144,886	-0,062	-0,004
-226,957	800,000	0,070	0,169
-225,942	800,000	0,053	0,110
-224,927	-84,336	-0,075	0,017
-223,913	-200,000	-0,010	-0,140
-222,898	-70,180	0,088	-0,024
-221,884	800,000	0,032	0,094
-220,869	209,729	-0,103	-0,116
-219,855	162,641	0,041	0,041
-218,840	800,000	0,045	0,134
-217,825	226,171	-0,021	-0,025
-216,811	106,970	-0,036	-0,031
-215,796	108,929	-0,109	0,093
-214,782	800,000	-0,026	0,060
-213,767	-200,000	-0,024	0,140
-212,752	154,888	0,132	0,130
-211,738	5,627	0,068	0,036
-210,723	-180,690	-0,020	-0,000
-209,709	-24,635	0,159	0,067
-208,694	441,344	-0,057	0,090
-207,679	-200,000	-0,004	-0,034
-206,665	-71,051	0,019	0,005
-205,650	-195,180	-0,120	0,001
-204,636	800,000	-0,053	0,108
-203,621	800,000	0,112	0,228
-202,606	-134,707	0,069	0,006
-201,592	73,801	-0,064	-0,048
-200,577	72,093	-0,084	0,062
-199,563	-137,024	0,087	0,007
-198,548	158,904	0,033	0,033
-197,533	-200,000	0,016	0,102
-196,519	531,795	0,025	0,043
-195,504	95,090	0,026	-0,021
-194,490	-90,142	-0,162	0,033
-193,475	-26,092	-0,042	0,018
-192,460	127,441	0,039	-0,035
-191,446	-48,416	-0,100	0,034
-190,431	609,548	0,038	0,068
-189,417	0,917	0,072	0,037
-188,402	-200,000	-0,004	-0,042
-187,387	229,040	-0,046	0,054
-186,373	-200,000	0,008	0,082
-185,358	16,023	0,090	-0,050
-184,344	456,619	-0,017	0,027
-183,329	23,742	-0,031	0,018
-182,315	800,000	0,037	0,085
-181,300	24,661	-0,058	-0,034
-180,285	-18,186	0,097	0,043
-179,271	-200,000	-0,013	-0,056
-178,256	625,637	0,069	-0,124
-177,242	-149,780	-0,089	-0,005
-176,227	-74,445	-0,085	-0,022
-175,212	505,620	0,071	0,118
-174,198	-200,000	-0,006	-0,116
-173,183	-200,000	0,004	-0,123
-172,169	332,256	-0,098	-0,135
-171,154	-200,000	-0,017	-0,063
-170,139	539,554	0,055	0,093
-169,125	-200,000	0,018	-0,123
-168,110	178,440	0,054	-0,056
-167,096	424,725	-0,101	-0,156
-166,081	136,113	0,105	0,098
-165,066	198,316	-0,117	-0,128
-164,052	-94,735	0,031	0,006
-163,037	-200,000	0,027	0,101
-162,023	800,000	0,036	0,080
-161,008	0,705	0,139	0,071
-159,993	65,428	0,039	-0,028
-158,979	-110,460	0,018	0,003
-157,964	-108,544	-0,079	-0,012
-156,950	297,768	-0,040	-0,052
-155,935	-158,369	0,063	-0,003
-154,920	-30,257	0,050	-0,020
-153,906	-21,734	0,065	-0,028
-152,891	137,716	-0,051	-0,048
-151,877	-79,002	0,137	-0,033
-150,862	800,000	-0,032	-0,093
-149,847	141,436	0,071	-0,067
-148,833	279,510	0,053	-0,068
-147,818	800,000	-0,036	-0,079
-146,804	284,040	-0,041	0,053
-145,789	-200,000	0,006	0,049
-144,775	-102,057	0,081	0,014
-143,760	-122,531	-0,082	-0,009
-142,745	265,791	0,107	-0,133
-141,731	-200,000	0,002	-0,055
-140,716	113,752	-0,075	0,065
-139,702	4,925	0,016	-0,008
-138,687	-129,717	-0,057	-0,006
-137,672	125,156	-0,056	0,051
-136,658	116,849	0,091	0,079
-135,643	412,379	-0,132	-0,201
-134,629	94,221	0,051	-0,041
-133,614	-200,000	-0,004	-0,030
-132,599	-15,584	0,111	0,050
-131,585	-200,000	0,025	0,086
-130,570	-115,964	0,092	0,012
-129,556	488,781	-0,030	0,049
-128,541	20,732	-0,088	-0,050
-127,526	7,704	-0,026	0,014
-126,512	244,921	-0,093	0,112
-125,497	-140,766	0,153	0,011
-124,483	228,284	-0,085	-0,098
-123,468	-43,011	0,083	-0,030
-122,453	-133,169	0,096	-0,009
-121,439	229,735	-0,131	-0,153
-120,424	62,087	-0,071	0,050
-119,410	800,000	-0,023	-0,051
-118,395	800,000	0,067	0,177
-117,380	427,205	-0,036	-0,055
-116,366	-56,157	-0,098	0,031
-115,351	-200,000	-0,024	-0,123
-114,337	426,417	-0,076	-0,118
-113,322	-200,000	-0,012	-0,059
-112,307	74,967	-0,063	0,047
-111,293	-116,264	-0,051	0,007
-110,278	-200,000	0,003	0,066
-109,264	58,456	-0,066	-0,046
-108,249	800,000	0,009	-0,027
-107,234	-200,000	-0,009	0,092
-106,220	-200,000	0,049	0,170
-105,205	30,026	0,106	0,064
-104,191	-200,000	0,019	0,083
-103,176	608,448	-0,039	0,069
-102,162	-128,998	0,202	0,020
-101,147	-200,000	-0,047	-0,198
-100,132	800,000	-0,036	-0,078
-99,118	-127,198	0,080	-0,008
-98,103	50,162	-0,116	-0,078
-97,089	3,514	0,122	0,063
-96,074	-161,173	0,139	0,005
-95,059	38,311	-0,097	-0,061
-94,045	-200,000	0,001	-0,056
-93,030	-10,252	0,018	0,008
-92,016	161,246	0,077	0,077
-91,001	149,019	0,114	-0,110
-89,986	-123,813	0,017	0,002
-88,972	48,178	0,119	0,079
-87,957	-200,000	-0,012	-0,137
-86,943	217,993	-0,157	-0,179
-85,928	122,054	0,042	-0,038
-84,913	800,000	-0,031	-0,086
-83,899	-200,000	0,000	-0,018
-82,884	331,079	0,076	0,105
-81,870	-96,204	0,063	-0,012
-80,855	-48,039	-0,050	0,017
-79,840	800,000	0,029	-0,083
-78,826	-200,000	0,021	-0,072
-77,811	86,186	0,057	-0,044
-76,797	-200,000	0,010	-0,047
-75,782	335,708	0,049	-0,068
-74,767	89,472	0,106	0,084
-73,753	800,000	-0,056	-0,142
-72,738	-123,485	0,068	-0,008
-71,724	75,076	-0,040	-0,030
-70,709	-40,755	-0,221	0,081
-69,694	787,900	0,069	-0,134
-68,680	792,579	-0,030	-0,060
-67,665	-200,000	-0,005	0,172
-66,651	-200,000	-0,040	0,140
-65,636	63,698	-0,137	-0,098
-64,622	-120,286	0,101	-0,012
-63,607	-67,813	-0,085	-0,023
-62,592	223,043	0,041	-0,047
-61,578	-200,000	-0,016	0,152
-60,563	37,335	-0,076	-0,048
-59,549	388,157	0,018	0,027
-58,534	17,748	-1,833	-1,033
-57,519	800,000	-0,652	-1,385
-56,505	-200,000	-0,779	-4,622
-55,490	129,129	0,877	0,795
-54,476	800,000	5,071	11,706
-53,461	-200,000	19,290	328,861
-52,446	-200,000	745,960	2345,890
-51,432	566,489	1658,693	2869,063
-50,417	77,362	1672,494	1261,858
-49,403	20,933	1546,021	887,489
-48,388	14,920	1468,496	813,608
-47,373	18,155	1458,419	823,692
-46,359	16,665	1448,297	810,770
-45,344	13,151	1443,859	791,345
-44,330	13,050	1441,971	789,793
-43,315	13,054	1440,473	788,959
-42,300	13,090	1438,537	788,043
-41,286	13,112	1437,250	787,410
-40,271	13,055	1435,943	786,390
-39,257	13,095	1434,739	785,890
-38,242	13,130	1433,354	785,269
-37,227	13,154	1431,973	784,594
-36,213	13,135	1430,687	783,767
-35,198	13,114	1429,495	782,986
-34,184	13,151	1428,784	782,740
-33,169	13,069	1427,398	781,561
-32,154	13,149	1426,136	781,217
-31,140	13,100	1425,271	780,481
-30,125	13,116	1423,989	779,821
-29,111	13,141	1422,716	779,214
-28,096	13,128	1421,600	778,509
-27,082	13,058	1420,482	777,536
-26,067	13,074	1419,483	777,034
-25,052	13,057	1418,230	776,236
-24,038	13,062	1417,346	775,746
-23,023	12,996	1416,578	774,981
-22,009	13,018	1415,431	774,428
-20,994	12,989	1414,657	773,835
-19,979	13,029	1413,509	773,367
-18,965	13,008	1412,771	772,832
-17,950	13,013	1411,742	772,263
-16,936	13,004	1410,804	771,678
-15,921	12,968	1409,783	770,920
-14,906	12,975	1408,739	770,348
-13,892	12,988	1407,812	769,875
-12,877	12,969	1407,127	769,379
-11,863	12,985	1406,109	768,869
-10,848	12,942	1405,330	768,208
-9,833	12,942	1404,317	767,625
-8,819	12,881	1403,600	766,917
-7,804	12,876	1402,597	766,314
-6,790	12,867	1401,863	765,842
-5,775	12,919	1400,608	765,370
-4,760	12,882	1399,463	764,541
-3,746	12,836	1398,748	763,904
-2,731	12,892	1397,593	763,503
-1,717	12,799	1397,103	762,775
-0,702	12,844	1395,139	761,878
0,313	16,795	1310,548	734,018
1,327	33,168	702,026	431,057
2,342	51,165	122,732	82,485
3,356	3,253	16,531	8,507
4,371	0,469	3,238	1,636
5,386	35,919	0,626	0,390
6,400	558,557	0,121	0,208
7,415	168,504	-0,198	-0,201
8,429	85,995	-0,313	-0,244
9,444	267,414	-0,147	-0,183
10,459	0,325	-0,319	-0,161
11,473	145,688	-0,228	-0,216
12,488	-18,090	-0,259	-0,115
13,502	-39,109	-0,323	-0,120
14,517	114,882	-0,345	-0,298
15,531	21,669	-0,354	-0,204
16,546	-31,367	-0,456	-0,181
17,561	52,279	-0,451	-0,304
18,575	-52,121	-0,308	-0,101
19,590	75,606	-0,280	-0,209
20,604	-39,619	-0,275	-0,102
21,619	34,241	-0,420	-0,259
22,634	85,230	-0,451	-0,350
23,648	155,692	-0,298	-0,291
24,663	69,181	-0,406	-0,296
25,677	50,476	-0,392	-0,262
26,692	-32,720	-0,457	-0,179
27,707	-78,142	-0,439	-0,106
28,721	211,777	-0,302	-0,337
29,736	-37,535	-0,340	-0,128
30,750	188,693	-0,361	-0,383
31,765	-5,096	-0,494	-0,240
32,780	176,830	-0,216	-0,223
33,794	169,437	-0,316	-0,320
34,809	5,813	-0,368	-0,192
35,823	-8,140	-0,414	-0,197
36,838	99,204	-0,359	-0,294
37,853	56,218	-0,336	-0,231
38,867	181,406	-0,276	-0,287
39,882	81,492	-0,375	-0,286
40,896	107,098	-0,307	-0,258
41,911	67,951	-0,350	-0,253
42,926	-27,514	-0,406	-0,166
43,940	50,008	-0,344	-0,229
44,955	37,484	-0,396	-0,248
45,969	64,385	-0,378	-0,269
46,984	140,084	-0,289	-0,269
47,999	-5,235	-0,372	-0,180
49,013	105,555	-0,221	-0,185
50,028	80,515	-0,387	-0,294
51,042	83,480	-0,262	-0,201
52,057	89,373	-0,431	-0,340
53,071	55,311	-0,479	-0,327
54,086	162,865	-0,315	-0,313
55,101	162,607	-0,290	-0,288
56,115	154,871	-0,362	-0,351
57,130	83,357	-0,400	-0,308
58,144	-4,182	-0,371	-0,181
59,159	-30,031	-0,369	-0,148
60,174	39,490	-0,298	-0,188
61,188	-31,033	-0,418	-0,166
62,203	-28,662	-0,340	-0,137
63,217	128,931	-0,361	-0,325
64,232	-16,416	-0,315	-0,140
65,247	454,023	-0,211	-0,331
66,261	406,007	-0,213	-0,318
67,276	-16,522	-0,383	-0,171
68,290	-44,486	-0,364	-0,128
69,305	167,980	-0,251	-0,252
70,320	211,398	-0,238	-0,265
71,334	118,187	-0,317	-0,276
72,349	132,760	-0,246	-0,224
73,363	221,363	-0,298	-0,338
74,378	118,577	-0,325	-0,283
75,393	85,692	-0,300	-0,232
76,407	161,336	-0,296	-0,292
77,422	-42,423	-0,415	-0,148
78,436	23,570	-0,308	-0,178
79,451	158,265	-0,214	-0,210
80,466	143,250	-0,342	-0,321
81,480	81,649	-0,347	-0,264
82,495	160,861	-0,275	-0,271
83,509	68,577	-0,289	-0,209
84,524	-52,851	-0,178	-0,057
85,539	61,808	-0,293	-0,205
86,553	50,003	-0,187	-0,124
87,568	44,487	-0,403	-0,260
88,582	-31,048	-0,358	-0,141
89,597	380,056	-0,211	-0,305
90,611	-34,033	-0,431	-0,166
91,626	33,931	-0,194	-0,119
92,641	-108,210	-0,248	-0,037
93,655	118,211	-0,241	-0,209
94,670	-0,888	-0,380	-0,189
95,684	82,046	-0,342	-0,261
96,699	42,729	-0,229	-0,147
97,714	65,202	-0,245	-0,174
98,728	58,836	-0,293	-0,203
99,743	-14,593	-0,158	-0,071
100,757	8,325	-0,304	-0,160
101,772	57,444	-0,285	-0,195
102,787	-59,847	-0,412	-0,123
103,801	240,944	-0,263	-0,310
104,816	52,692	-0,255	-0,171
105,830	64,145	-0,225	-0,159
106,845	176,259	-0,201	-0,205
107,860	52,711	-0,255	-0,171
108,874	21,286	-0,380	-0,217
109,889	-6,422	-0,236	-0,113
110,903	106,657	-0,207	-0,173
111,918	64,423	-0,174	-0,123
112,933	88,573	-0,291	-0,227
113,947	30,835	-0,167	-0,100
114,962	-148,142	-0,219	0,013
115,976	107,776	-0,341	-0,286
116,991	83,958	-0,290	-0,222
118,006	6,599	-0,315	-0,164
119,020	399,491	-0,223	-0,330
120,035	56,203	-0,320	-0,218
121,049	6,351	-0,353	-0,183
122,064	103,764	-0,246	-0,203
123,079	659,673	-0,070	-0,126
124,093	648,532	-0,205	-0,369
125,108	137,294	-0,294	-0,270
126,122	203,732	-0,137	-0,149
127,137	133,264	-0,270	-0,245
128,151	11,989	-0,207	-0,112
129,166	-171,927	-0,265	0,006
130,181	35,185	-0,207	-0,127
131,195	48,576	-0,279	-0,183
132,210	-63,367	-0,381	-0,109
133,224	61,369	-0,218	-0,152
134,239	-24,392	-0,122	-0,051
135,254	-20,962	-0,188	-0,080
136,268	42,062	-0,194	-0,123
137,283	437,983	-0,149	-0,229
138,297	63,789	-0,233	-0,164
139,312	144,565	-0,265	-0,248
140,327	590,635	-0,173	-0,300
141,341	-10,659	-0,265	-0,123
142,356	528,576	-0,144	-0,240
143,370	74,327	-0,331	-0,243
144,385	112,582	-0,145	-0,123
145,400	15,519	-0,275	-0,151
146,414	-131,698	-0,269	-0,024
147,429	-4,041	-0,281	-0,136
148,443	220,097	-0,252	-0,283
149,458	215,078	-0,179	-0,199
150,473	215,015	-0,127	-0,141
151,487	-2,492	-0,293	-0,143
152,502	60,887	-0,245	-0,170
153,516	172,712	-0,261	-0,263
154,531	88,777	-0,236	-0,184
155,546	159,703	-0,162	-0,158
156,560	158,523	-0,183	-0,178
157,575	-25,781	-0,134	-0,055
158,589	800,000	-0,072	-0,163
159,604	224,326	-0,177	-0,201
160,619	169,842	-0,074	-0,074
161,633	170,298	-0,118	-0,118
162,648	152,012	-0,213	-0,203
163,662	97,296	-0,093	-0,074
164,677	-48,731	-0,170	-0,057
165,692	158,630	-0,211	-0,205
166,706	-49,131	-0,243	-0,081
167,721	-76,752	-0,351	-0,085
168,735	304,057	-0,219	-0,285
169,750	65,790	-0,269	-0,190
170,764	119,370	-0,237	-0,205
171,779	73,603	-0,296	-0,217
172,794	90,649	-0,191	-0,150
173,808	84,652	-0,284	-0,217
174,823	83,550	-0,294	-0,224
175,837	800,000	-0,108	-0,212
176,852	244,091	-0,173	-0,203
177,867	-123,219	-0,286	-0,032
178,881	89,704	-0,207	-0,161
179,896	11,924	-0,281	-0,150
180,910	135,184	-0,267	-0,242
181,925	267,821	-0,219	-0,268
182,940	86,700	-0,279	-0,215
183,954	114,972	-0,273	-0,233
184,969	776,065	-0,145	-0,277
185,983	746,014	-0,115	-0,216
186,998	46,562	-0,221	-0,143
188,013	663,060	-0,102	-0,184
189,027	294,311	-0,171	-0,218
190,042	265,907	-0,232	-0,283
191,056	5,083	-0,343	-0,176
192,071	-15,032	-0,262	-0,117
193,086	-200,000	-0,008	-0,188
194,100	-97,578	-0,113	0,020
195,115	-90,058	-0,200	0,040
196,129	344,519	-0,153	-0,210
197,144	267,634	-0,149	-0,183
198,159	-4,561	-0,209	-0,100
199,173	95,876	-0,232	-0,184
200,188	800,000	-0,072	-0,156
201,202	-16,705	-0,154	0,068
202,217	114,104	-0,142	-0,120
203,232	728,814	-0,131	-0,244
204,246	-111,730	-0,131	0,018
205,261	800,000	-0,086	-0,214
206,275	-163,238	-0,286	0,009
207,290	-26,904	-0,096	-0,039
208,304	133,192	-0,153	-0,138
209,319	-85,842	-0,101	-0,022
210,334	-129,815	-0,176	0,017
211,348	85,886	-0,222	-0,170
212,363	-37,896	-0,214	-0,079
213,377	-112,263	-0,300	-0,041
214,392	59,609	-0,165	-0,113
215,407	326,331	-0,114	-0,152
216,421	38,429	-0,189	-0,117
217,436	800,000	-0,176	-0,343
218,450	-9,811	-0,217	-0,100
219,465	118,132	-0,264	-0,226
220,480	229,434	-0,238	-0,270
221,494	21,121	-0,234	-0,132
222,509	-51,834	-0,261	-0,084
223,523	517,303	-0,115	-0,188
224,538	563,742	-0,109	-0,185
225,553	108,171	-0,271	-0,225
226,567	-11,399	-0,330	-0,150
227,582	-11,027	-0,293	-0,134
228,596	90,033	-0,268	-0,208
229,611	-2,968	-0,120	-0,058
230,626	365,017	-0,099	-0,140
231,640	29,212	-0,190	-0,112
232,655	9,153	-0,117	-0,061
233,669	137,341	-0,215	-0,196
234,684	429,371	-0,120	-0,181
235,699	74,450	-0,273	-0,199
236,713	-30,692	-0,041	-0,016
237,728	-94,424	-0,183	-0,034
238,742	52,030	-0,238	-0,157
239,757	121,527	-0,248	-0,215
240,772	129,175	-0,200	-0,178
241,786	54,729	-0,264	-0,177
242,801	532,557	-0,117	-0,194
243,815	-25,606	-0,154	-0,063
244,830	613,278	-0,109	-0,190
245,844	-41,194	-0,145	-0,052
246,859	301,664	-0,131	-0,168
247,874	-200,000	-0,075	-0,310
248,888	100,328	-0,177	-0,142
249,903	250,795	-0,142	-0,168
250,917	247,892	-0,074	-0,087
251,932	-89,614	-0,135	0,027
252,947	-25,627	-0,154	-0,063
253,961	90,387	-0,247	-0,192
254,976	800,000	-0,102	-0,203
255,990	-71,400	-0,150	0,039
257,005	-37,757	-0,215	-0,079
258,020	-99,852	-0,198	-0,034
259,034	-81,811	-0,222	-0,050
260,049	232,709	-0,154	-0,176
261,063	-24,392	-0,081	-0,033
262,078	103,530	-0,243	-0,198
263,093	30,180	-0,211	-0,124
264,107	800,000	-0,098	-0,200
265,122	-10,125	-0,260	-0,119
266,136	322,786	-0,128	-0,169
267,151	-125,479	-0,121	0,013
268,166	-51,624	-0,246	-0,079
269,180	-76,092	-0,206	-0,050
270,195	41,053	-0,202	-0,126
271,209	36,685	-0,136	-0,083
272,224	-58,385	-0,163	-0,049
273,239	-200,000	-0,021	-0,100
274,253	-90,464	-0,157	-0,031
275,268	-125,426	-0,204	-0,021
276,282	345,905	-0,157	-0,214
277,297	-200,000	-0,095	-0,290
278,312	106,950	-0,251	-0,206
279,326	800,000	-0,095	-0,197
280,341	-41,945	-0,185	-0,065
281,355	-101,770	-0,119	-0,020
282,370	-64,662	-0,129	-0,036
283,384	51,276	-0,203	-0,133
284,399	462,295	-0,153	-0,238
285,414	-160,398	-0,166	-0,006
286,428	800,000	-0,078	-0,208
287,443	800,000	-0,048	-0,113
288,457	103,103	-0,053	-0,043
289,472	177,818	-0,178	-0,180
290,487	127,742	-0,092	-0,081
291,501	63,438	-0,140	-0,097
292,516	96,153	-0,122	-0,096
293,530	62,158	-0,117	-0,080
294,545	-200,000	-0,017	-0,191
295,560	-50,899	-0,275	-0,089
296,574	79,461	-0,202	-0,150
297,589	-200,000	-0,051	-0,182
298,603	531,902	-0,077	-0,126
299,618	24,558	-0,233	-0,133
300,633	347,075	-0,136	-0,186
301,647	-155,729	0,024	0,001
302,662	162,664	-0,170	-0,165
303,676	-200,000	-0,027	0,104
304,691	-9,552	-0,255	-0,117
305,706	641,465	-0,126	-0,223
306,720	122,099	-0,253	-0,219
307,735	-27,054	-0,095	-0,038
308,749	81,700	-0,201	-0,150
309,764	227,088	-0,125	-0,141
310,779	-97,634	-0,160	-0,028
311,793	-11,186	-0,132	-0,060
312,808	-44,408	-0,114	0,039
313,822	79,554	-0,159	-0,117
314,837	-200,000	-0,063	-0,198
315,852	-200,000	-0,038	-0,168
316,866	278,607	0,028	0,034
317,881	81,792	-0,139	-0,104
318,895	800,000	-0,053	-0,125
319,910	86,224	-0,144	-0,109
320,925	694,667	-0,113	-0,206
321,939	-17,089	-0,125	0,054
322,954	-200,000	-0,019	-0,079
323,968	-200,000	-0,005	-0,117
324,983	63,632	-0,185	-0,128
325,997	21,680	-0,110	-0,061
327,012	39,004	-0,177	-0,109
328,027	-58,565	-0,148	-0,044
329,041	139,469	-0,096	-0,087
330,056	-142,249	-0,141	0,009
331,070	92,587	-0,156	-0,121
332,085	-107,935	-0,128	-0,019
333,100	800,000	-0,064	-0,127
334,114	800,000	-0,098	-0,233
335,129	-200,000	-0,055	-0,222
336,143	-46,164	-0,212	-0,071
337,158	-200,000	-0,026	-0,093
338,173	-44,976	-0,164	-0,056
339,187	56,290	-0,130	0,087
340,202	254,167	-0,079	-0,093
341,216	536,732	-0,119	-0,196
342,231	800,000	-0,043	-0,093
343,246	-51,383	-0,187	-0,060
344,260	-200,000	-0,045	-0,150
345,275	-59,373	-0,121	-0,035
346,289	-200,000	-0,013	-0,162
347,304	263,816	-0,120	-0,144
348,319	125,071	-0,083	-0,072
349,333	-200,000	-0,029	-0,167
350,348	158,315	-0,157	-0,150
351,362	290,466	-0,111	-0,140
352,377	-67,506	-0,082	0,022
353,392	155,925	-0,063	0,060
354,406	5,281	-0,191	-0,097
355,421	209,184	1313,982	1417,492
356,435	160,982	1474,401	1417,759
