DTS Sentinel unit serial number:	SN410029Multiplexer serial number:	ORYXHardware model number:	OX2-SRSoftware version number:	ORYX F/W v4,00 Oryx Data Collector v3.7.2.0data status	okinstallation	B3 Nyhavnadifferential loss correction	single-endedforward channel	channel 1reverse channel	N/Adate	2023/12/01time	22:02:30forward acquisition time	300,00reverse acquisition time	0,00gamma	499,1914k internal	0,3195k external	0,3195temperature offset calibration	1,0000default loss term (dB/km)	0,3820temperature slope calibration	1,0000multiplexer offset coefficient	1,0000multiplexer slope coefficient	1,0000fibre end	0,00T internal ref (°C)	15,94T ext. ref 1 (°C)	0,81T ext. ref 2 (°C)	0,80length (m)	temperature (°C)	Stokes	anti-Stokes-744,400	331,061	-0,194	-0,273
-743,385	-200,000	-0,042	0,418
-742,371	547,496	-0,153	-0,268
-741,356	-200,000	0,031	0,372
-740,342	345,698	-0,099	-0,143
-739,327	-200,000	-0,009	0,344
-738,312	108,873	-0,166	-0,145
-737,298	-200,000	0,074	0,376
-736,283	28,517	-0,258	-0,158
-735,269	-200,000	0,018	0,398
-734,254	800,000	-0,082	-0,184
-733,239	267,286	-0,207	0,264
-732,225	579,875	-0,087	-0,156
-731,210	-200,000	0,015	0,138
-730,196	-200,000	-0,009	-0,077
-729,181	-200,000	0,004	0,060
-728,167	800,000	-0,048	0,136
-727,152	800,000	0,002	0,005
-726,137	242,928	-0,088	-0,108
-725,123	302,305	-0,089	0,120
-724,108	800,000	0,008	-0,023
-723,094	212,063	-0,062	-0,071
-722,079	126,608	-0,086	-0,080
-721,064	-200,000	-0,018	-0,091
-720,050	-200,000	0,011	-0,055
-719,035	-128,441	0,093	0,010
-718,021	-108,867	0,005	-0,001
-717,006	69,307	-0,034	-0,026
-715,991	800,000	0,007	-0,020
-714,977	48,801	-0,027	-0,018
-713,962	187,370	-0,026	-0,028
-712,948	93,255	-0,085	0,070
-711,933	-200,000	-0,040	-0,157
-710,918	394,175	-0,034	-0,052
-709,904	301,903	-0,032	-0,043
-708,889	96,879	-0,068	-0,057
-707,875	-200,000	0,004	-0,035
-706,860	-200,000	-0,009	-0,055
-705,845	-200,000	-0,016	-0,077
-704,831	-200,000	0,011	0,054
-703,816	0,509	0,061	0,032
-702,802	800,000	-0,017	-0,050
-701,787	800,000	0,042	-0,097
-700,772	-65,560	0,042	0,012
-699,758	402,452	0,063	-0,096
-698,743	-81,484	0,225	-0,053
-697,729	116,548	-0,158	-0,141
-696,714	241,895	0,034	0,041
-695,699	208,300	0,072	-0,082
-694,685	69,344	-0,093	0,070
-693,670	143,861	-0,022	-0,022
-692,656	4,268	0,038	0,020
-691,641	800,000	-0,021	-0,068
-690,627	-200,000	-0,015	0,057
-689,612	254,974	-0,072	-0,090
-688,597	313,135	0,042	0,057
-687,583	254,183	-0,029	-0,037
-686,568	68,343	-0,062	-0,046
-685,554	372,139	0,072	-0,107
-684,539	75,868	-0,025	0,019
-683,524	-92,143	0,123	0,025
-682,510	-88,559	-0,053	-0,011
-681,495	-200,000	-0,002	0,067
-680,481	58,395	-0,055	-0,039
-679,466	103,552	-0,021	-0,018
-678,451	-200,000	-0,008	0,030
-677,437	-200,000	-0,000	-0,050
-676,422	-200,000	-0,002	-0,023
-675,408	-114,848	0,063	-0,009
-674,393	12,509	0,081	-0,045
-673,378	-200,000	-0,010	-0,069
-672,364	309,904	-0,055	-0,076
-671,349	800,000	-0,035	-0,112
-670,335	-106,558	0,096	0,015
-669,320	43,384	0,089	-0,059
-668,305	-88,615	0,059	-0,013
-667,291	-85,694	-0,057	0,013
-666,276	800,000	-0,044	-0,096
-665,262	671,821	-0,083	-0,157
-664,247	-82,545	0,044	-0,010
-663,232	-200,000	-0,029	0,122
-662,218	180,406	0,058	0,062
-661,203	-200,000	-0,016	-0,213
-660,189	800,000	-0,036	0,091
-659,174	-200,000	0,002	-0,082
-658,159	234,707	-0,093	0,112
-657,145	-200,000	0,003	0,067
-656,130	70,435	0,068	-0,051
-655,116	800,000	-0,036	0,092
-654,101	67,555	-0,074	0,055
-653,086	-200,000	-0,015	-0,085
-652,072	-200,000	-0,010	-0,062
-651,057	-44,937	-0,132	-0,048
-650,043	134,402	-0,074	-0,069
-649,028	-22,925	-0,166	-0,072
-648,014	462,994	0,085	-0,138
-646,999	-94,074	-0,034	-0,007
-645,984	-12,953	-0,116	0,054
-644,970	9,619	-0,091	-0,050
-643,955	-61,220	-0,080	-0,024
-642,941	10,348	0,022	0,012
-641,926	-200,000	0,008	-0,068
-640,911	800,000	0,052	-0,107
-639,897	439,834	-0,033	0,052
-638,882	83,234	-0,034	0,027
-637,868	800,000	0,045	0,115
-636,853	42,948	-0,086	-0,057
-635,838	124,231	-0,121	-0,111
-634,824	-200,000	0,001	0,022
-633,809	-200,000	-0,004	0,087
-632,795	-200,000	0,020	0,068
-631,780	-200,000	-0,032	0,113
-630,765	800,000	-0,009	-0,026
-629,751	-114,826	0,046	-0,006
-628,736	-200,000	0,015	-0,140
-627,722	195,509	-0,070	0,078
-626,707	-23,996	0,065	-0,028
-625,692	-17,831	0,082	-0,037
-624,678	-133,443	0,016	-0,001
-623,663	54,689	-0,015	0,011
-622,649	82,543	-0,067	-0,052
-621,634	447,925	-0,077	-0,123
-620,619	654,380	-0,037	-0,069
-619,605	-200,000	-0,004	-0,042
-618,590	458,282	0,054	-0,088
-617,576	-99,879	-0,049	0,009
-616,561	385,769	-0,064	0,096
-615,546	-200,000	0,001	-0,172
-614,532	585,911	-0,005	-0,009
-613,517	126,235	0,108	-0,099
-612,503	800,000	0,021	-0,047
-611,488	800,000	0,016	0,033
-610,474	-66,534	-0,011	-0,003
-609,459	-80,305	-0,032	-0,008
-608,444	536,447	0,073	0,127
-607,430	-200,000	-0,029	-0,110
-606,415	800,000	-0,050	-0,111
-605,401	-75,641	0,056	0,014
-604,386	-123,627	-0,122	-0,014
-603,371	-200,000	-0,013	-0,063
-602,357	800,000	-0,047	0,145
-601,342	313,558	0,074	-0,101
-600,328	-200,000	-0,011	-0,095
-599,313	800,000	-0,031	0,077
-598,298	-200,000	-0,004	0,114
-597,284	-200,000	0,001	0,030
-596,269	204,234	0,106	0,120
-595,255	-108,771	-0,179	0,027
-594,240	-18,544	-0,086	-0,039
-593,225	71,395	-0,040	-0,030
-592,211	-102,015	-0,106	-0,018
-591,196	800,000	-0,050	-0,123
-590,182	345,207	0,013	-0,019
-589,167	-200,000	0,030	0,155
-588,152	73,592	-0,075	0,057
-587,138	-73,772	-0,091	-0,024
-586,123	-200,000	0,022	-0,165
-585,109	263,917	-0,025	0,032
-584,094	-200,000	0,045	-0,178
-583,079	-200,000	0,034	-0,167
-582,065	403,268	-0,034	-0,052
-581,050	800,000	-0,044	0,113
-580,036	-134,025	0,135	-0,012
-579,021	-200,000	0,037	-0,227
-578,006	132,317	-0,185	-0,172
-576,992	112,609	0,042	-0,036
-575,977	-157,521	0,163	-0,007
-574,963	84,886	0,064	0,050
-573,948	52,971	0,128	-0,088
-572,934	-94,292	-0,042	-0,008
-571,919	457,300	-0,035	0,056
-570,904	245,834	-0,065	-0,079
-569,890	60,782	0,022	-0,016
-568,875	116,122	0,134	0,119
-567,861	366,080	0,080	0,117
-566,846	-139,254	-0,092	0,007
-565,831	256,411	0,051	-0,063
-564,817	-200,000	-0,037	-0,203
-563,802	-200,000	-0,026	-0,094
-562,788	62,736	-0,016	-0,012
-561,773	800,000	0,011	-0,028
-560,758	-200,000	0,019	0,064
-559,744	-75,935	0,090	0,023
-558,729	-200,000	0,010	0,109
-557,715	49,608	0,054	0,036
-556,700	-81,786	-0,145	-0,034
-555,685	-200,000	-0,010	-0,137
-554,671	-125,948	0,032	-0,003
-553,656	143,569	-0,048	0,047
-552,642	-200,000	0,015	0,056
-551,627	49,511	0,089	-0,060
-550,612	-16,274	-0,057	-0,026
-549,598	800,000	0,039	-0,092
-548,583	-200,000	0,017	0,080
-547,569	800,000	0,041	-0,086
-546,554	449,404	-0,079	0,126
-545,539	-142,379	-0,110	-0,008
-544,525	-200,000	0,005	0,034
-543,510	-200,000	0,006	-0,041
-542,496	800,000	-0,028	0,068
-541,481	-200,000	0,030	-0,113
-540,466	-135,267	0,097	-0,008
-539,452	-43,215	-0,143	0,052
-538,437	62,492	0,104	0,075
-537,423	800,000	-0,009	-0,026
-536,408	-7,930	-0,050	-0,024
-535,393	275,696	-0,050	0,065
-534,379	-67,168	-0,102	-0,029
-533,364	114,761	-0,109	-0,096
-532,350	18,996	-0,040	-0,023
-531,335	529,087	0,051	0,087
-530,321	-200,000	-0,014	-0,086
-529,306	-149,129	-0,136	0,008
-528,291	537,576	-0,021	-0,036
-527,277	-200,000	-0,012	-0,060
-526,262	516,320	-0,028	0,048
-525,248	-200,000	0,001	-0,015
-524,233	-200,000	-0,039	0,155
-523,218	95,301	0,069	0,057
-522,204	-200,000	0,027	0,095
-521,189	800,000	0,032	0,080
-520,175	-158,464	-0,080	0,003
-519,160	715,498	-0,046	0,088
-518,145	-65,357	0,095	0,027
-517,131	-30,270	0,088	0,036
-516,116	217,651	0,152	0,176
-515,102	800,000	0,025	-0,065
-514,087	800,000	0,058	0,166
-513,072	8,179	-0,180	0,097
-512,058	-13,076	0,060	-0,028
-511,043	27,923	-0,143	-0,087
-510,029	-83,886	0,087	-0,020
-509,014	-42,981	0,061	-0,022
-507,999	-200,000	-0,003	0,104
-506,985	800,000	0,018	0,045
-505,970	-9,711	-0,065	-0,031
-504,956	58,391	0,029	0,021
-503,941	654,047	0,046	-0,086
-502,926	432,360	0,093	0,146
-501,912	-200,000	0,044	0,171
-500,897	478,378	0,060	-0,099
-499,883	-200,000	-0,003	-0,027
-498,868	52,865	-0,074	-0,051
-497,853	-200,000	-0,006	0,145
-496,839	-135,923	0,122	0,010
-495,824	800,000	-0,043	0,114
-494,810	-17,564	-0,059	0,027
-493,795	-84,668	0,128	-0,029
-492,781	-200,000	-0,034	-0,109
-491,766	613,979	0,075	-0,136
-490,751	-200,000	0,012	-0,180
-489,737	163,776	-0,069	-0,070
-488,722	-200,000	0,006	0,043
-487,708	-200,000	-0,002	-0,012
-486,693	266,653	0,086	0,108
-485,678	-164,635	-0,004	0,000
-484,664	-200,000	-0,041	-0,193
-483,649	-200,000	0,006	-0,028
-482,635	326,472	-0,017	-0,024
-481,620	-177,472	0,092	-0,002
-480,605	94,348	0,064	-0,052
-479,591	-79,174	-0,066	-0,016
-478,576	96,267	-0,091	0,075
-477,562	-200,000	-0,005	-0,041
-476,547	149,813	-0,065	0,064
-475,532	0,786	-0,018	0,009
-474,518	352,567	0,022	-0,032
-473,503	271,908	-0,057	-0,073
-472,489	-38,444	-0,063	-0,024
-471,474	-137,169	-0,072	0,006
-470,459	-9,200	-0,046	-0,022
-469,445	-200,000	0,007	-0,079
-468,430	-200,000	-0,023	-0,100
-467,416	11,409	0,033	-0,018
-466,401	-3,982	-0,022	0,011
-465,386	800,000	0,028	0,076
-464,372	-200,000	-0,043	0,179
-463,357	36,781	-0,078	-0,050
-462,343	-22,568	-0,097	0,042
-461,328	-19,138	0,098	0,044
-460,313	-44,951	0,081	-0,029
-459,299	-24,418	0,089	0,038
-458,284	-70,832	0,047	-0,013
-457,270	40,956	0,178	0,115
-456,255	138,347	-0,062	0,059
-455,241	-7,590	0,082	-0,040
-454,226	-22,411	0,084	-0,037
-453,211	37,111	0,024	0,015
-452,197	-200,000	0,001	0,084
-451,182	628,759	0,041	0,075
-450,168	241,567	-0,079	-0,095
-449,153	397,749	-0,078	-0,118
-448,138	478,799	0,061	-0,099
-447,124	331,478	-0,064	-0,089
-446,109	196,479	0,064	0,070
-445,095	-137,948	-0,023	0,002
-444,080	-200,000	-0,009	0,035
-443,065	-61,314	0,077	0,023
-442,051	42,305	-0,107	-0,070
-441,036	-200,000	0,008	-0,038
-440,022	-200,000	0,000	-0,042
-439,007	-88,282	0,111	0,024
-437,992	7,146	0,142	-0,076
-436,978	-200,000	0,007	0,153
-435,963	-200,000	0,003	0,114
-434,949	2,172	-0,137	0,071
-433,934	-28,369	-0,120	-0,050
-432,919	-200,000	0,007	0,133
-431,905	-200,000	-0,006	0,061
-430,890	-12,711	0,030	0,014
-429,876	-87,592	0,080	0,017
-428,861	-88,294	0,150	0,032
-427,846	217,353	0,088	0,101
-426,832	-7,850	-0,145	-0,070
-425,817	630,646	-0,037	-0,068
-424,803	293,736	0,067	0,088
-423,788	-200,000	0,004	-0,024
-422,773	-56,677	0,119	-0,038
-421,759	39,506	0,171	-0,110
-420,744	-39,465	-0,026	0,010
-419,730	252,840	-0,077	-0,094
-418,715	-57,140	-0,046	-0,014
-417,701	-166,935	0,099	-0,003
-416,686	-144,573	-0,035	0,002
-415,671	117,713	0,102	0,090
-414,657	-0,850	0,084	-0,042
-413,642	-200,000	-0,013	0,120
-412,628	800,000	0,032	-0,079
-411,613	329,829	-0,028	-0,038
-410,598	800,000	-0,066	-0,155
-409,584	-142,638	0,116	0,008
-408,569	800,000	-0,020	-0,059
-407,555	55,828	0,050	-0,035
-406,540	-27,179	0,102	-0,042
-405,525	-200,000	0,012	-0,078
-404,511	165,723	0,044	-0,045
-403,496	21,467	-0,077	-0,045
-402,482	95,200	0,092	-0,075
-401,467	123,609	-0,082	-0,074
-400,452	472,764	0,051	0,083
-399,438	800,000	0,032	0,079
-398,423	800,000	-0,050	0,111
-397,409	128,574	-0,098	-0,090
-396,394	-200,000	-0,016	-0,155
-395,379	-200,000	-0,006	0,022
-394,365	71,426	0,037	-0,027
-393,350	153,750	0,043	0,042
-392,336	-200,000	-0,009	0,079
-391,321	800,000	0,068	0,167
-390,306	127,334	-0,126	-0,115
-389,292	582,729	-0,024	-0,043
-388,277	-166,420	-0,160	-0,005
-387,263	150,055	0,077	-0,075
-386,248	-200,000	0,012	-0,052
-385,233	-116,360	-0,049	0,006
-384,219	-200,000	-0,004	-0,016
-383,204	187,460	-0,081	-0,087
-382,190	155,946	0,044	-0,044
-381,175	-51,246	0,108	-0,036
-380,160	-93,788	0,048	-0,009
-379,146	149,989	-0,018	-0,018
-378,131	-178,070	0,092	0,002
-377,117	239,033	-0,120	0,143
-376,102	-140,608	-0,106	0,008
-375,088	-200,000	-0,016	-0,059
-374,073	66,302	-0,061	-0,045
-373,058	-200,000	-0,003	0,093
-372,044	-111,270	0,033	-0,005
-371,029	117,899	0,023	0,020
-370,015	724,951	-0,063	-0,121
-369,000	800,000	-0,030	-0,089
-367,985	75,774	-0,011	0,009
-366,971	-178,580	0,124	0,002
-365,956	173,326	-0,136	0,141
-364,942	800,000	0,012	0,037
-363,927	111,953	-0,077	0,067
-362,912	-200,000	-0,008	0,053
-361,898	-200,000	0,019	-0,066
-360,883	260,339	-0,071	0,089
-359,869	-49,392	0,072	0,025
-358,854	-58,453	-0,060	-0,019
-357,839	227,484	0,062	-0,072
-356,825	137,197	0,024	0,023
-355,810	800,000	-0,024	-0,055
-354,796	-200,000	0,001	0,024
-353,781	800,000	-0,048	-0,134
-352,766	-38,284	-0,196	0,074
-351,752	29,107	0,039	-0,024
-350,737	233,102	-0,055	-0,064
-349,723	800,000	0,055	-0,155
-348,708	-173,067	0,038	-0,001
-347,693	-126,273	-0,062	0,007
-346,679	-200,000	-0,022	0,122
-345,664	133,022	-0,078	0,073
-344,650	207,598	-0,028	-0,032
-343,635	-200,000	-0,007	-0,038
-342,620	53,969	0,129	0,089
-341,606	-200,000	0,021	0,202
-340,591	37,469	0,058	-0,037
-339,577	19,762	-0,058	-0,034
-338,562	9,823	0,010	0,005
-337,548	800,000	0,015	-0,042
-336,533	-68,504	0,123	0,034
-335,518	-181,667	0,178	0,002
-334,504	-70,868	0,061	0,016
-333,489	184,818	-0,024	-0,025
-332,475	800,000	0,040	0,101
-331,460	167,189	-0,042	-0,042
-330,445	-200,000	-0,003	0,116
-329,431	45,146	-0,009	-0,006
-328,416	-200,000	0,022	0,000
-327,402	-200,000	-0,018	0,108
-326,387	-200,000	-0,003	0,034
-325,372	156,083	-0,107	-0,106
-324,358	-52,797	-0,075	-0,025
-323,343	-27,499	0,123	0,051
-322,329	101,659	-0,154	0,129
-321,314	-74,354	0,116	0,030
-320,299	101,430	-0,131	0,110
-319,285	-22,209	0,084	0,037
-318,270	-148,297	0,088	0,005
-317,256	468,755	0,024	-0,039
-316,241	-200,000	0,015	0,062
-315,226	334,353	0,048	0,067
-314,212	-200,000	-0,001	0,072
-313,197	349,792	0,147	0,208
-312,183	-12,489	0,078	0,036
-311,168	-58,022	-0,166	-0,051
-310,153	764,185	-0,041	-0,079
-309,139	-200,000	0,013	-0,154
-308,124	3,485	-0,091	-0,047
-307,110	-112,800	0,021	-0,003
-306,095	-109,165	0,036	-0,005
-305,080	-89,993	0,108	0,022
-304,066	800,000	-0,101	-0,239
-303,051	696,862	-0,013	-0,025
-302,037	230,428	-0,067	0,078
-301,022	169,958	-0,105	-0,108
-300,008	105,768	0,068	0,058
-298,993	87,800	-0,058	0,046
-297,978	-102,427	-0,110	0,019
-296,964	545,078	0,056	-0,096
-295,949	800,000	-0,033	-0,069
-294,935	-114,976	-0,156	-0,021
-293,920	-25,418	0,097	0,041
-292,905	161,423	-0,116	-0,117
-291,891	800,000	-0,029	0,069
-290,876	800,000	0,064	0,188
-289,862	-149,338	-0,049	0,003
-288,847	129,919	-0,057	0,052
-287,832	366,871	-0,036	-0,052
-286,818	679,734	-0,055	0,103
-285,803	197,266	0,037	0,041
-284,789	730,724	0,042	0,081
-283,774	800,000	-0,034	-0,076
-282,759	43,382	-0,034	0,022
-281,745	3,973	-0,058	-0,030
-280,730	-200,000	-0,006	0,112
-279,716	358,442	0,098	-0,140
-278,701	-1,583	0,103	0,052
-277,686	4,245	0,176	0,092
-276,672	164,409	0,038	-0,038
-275,657	25,912	0,075	0,045
-274,643	-41,108	-0,058	0,021
-273,628	-134,692	-0,055	0,005
-272,613	800,000	-0,051	-0,137
-271,599	-21,120	-0,108	0,047
-270,584	-69,034	0,031	0,009
-269,570	537,106	-0,056	-0,096
-268,555	800,000	0,066	0,164
-267,540	520,690	0,030	-0,051
-266,526	155,614	-0,118	-0,116
-265,511	-200,000	-0,005	-0,036
-264,497	678,961	0,057	0,106
-263,482	200,837	-0,022	0,024
-262,467	-200,000	-0,009	0,070
-261,453	421,567	0,044	0,067
-260,438	-37,785	-0,124	-0,047
-259,424	-130,005	-0,083	-0,008
-258,409	-97,046	0,187	-0,035
-257,395	-3,430	-0,089	-0,044
-256,380	41,762	-0,070	-0,045
-255,365	663,900	0,073	0,136
-254,351	-200,000	-0,007	-0,082
-253,336	-19,093	0,020	0,009
-252,322	758,268	-0,077	-0,150
-251,307	94,397	0,079	-0,064
-250,292	800,000	0,059	0,133
-249,278	-200,000	-0,004	0,057
-248,263	-34,681	0,154	0,060
-247,249	-18,540	0,056	-0,025
-246,234	612,462	0,039	0,071
-245,219	168,115	-0,047	-0,048
-244,205	113,809	-0,072	-0,063
-243,190	-200,000	-0,011	0,082
-242,176	-200,000	-0,018	0,096
-241,161	-149,537	0,108	-0,006
-240,146	633,401	-0,050	-0,091
-239,132	-40,571	-0,109	-0,040
-238,117	-200,000	-0,014	-0,050
-237,103	177,661	0,067	-0,070
-236,088	46,997	-0,138	0,091
-235,073	-138,449	0,104	-0,008
-234,059	215,759	0,070	-0,080
-233,044	349,493	-0,080	0,113
-232,030	-25,833	0,085	0,035
-231,015	-135,887	-0,085	-0,007
-230,000	-100,053	-0,022	0,004
-228,986	30,696	0,099	0,060
-227,971	26,728	-0,160	-0,095
-226,957	43,910	-0,018	-0,012
-225,942	-8,530	-0,130	-0,062
-224,927	-20,776	0,057	0,025
-223,913	-200,000	-0,011	-0,075
-222,898	-200,000	0,002	-0,024
-221,884	-200,000	0,005	-0,031
-220,869	-200,000	0,019	0,125
-219,855	-200,000	0,024	0,140
-218,840	-200,000	0,004	0,128
-217,825	-200,000	0,018	0,092
-216,811	800,000	0,079	-0,170
-215,796	46,331	-0,057	-0,038
-214,782	800,000	-0,013	-0,031
-213,767	-21,862	-0,034	0,015
-212,752	-200,000	-0,013	0,151
-211,738	220,045	0,046	-0,052
-210,723	250,239	-0,070	-0,085
-209,709	439,193	0,024	0,037
-208,694	70,304	-0,096	-0,071
-207,679	-200,000	0,020	0,089
-206,665	-200,000	-0,024	-0,124
-205,650	-113,675	0,017	0,002
-204,636	96,070	-0,121	0,099
-203,621	-62,362	-0,132	-0,039
-202,606	800,000	-0,047	0,118
-201,592	-38,313	0,087	-0,033
-200,577	424,562	0,040	0,061
-199,563	-17,989	0,083	0,037
-198,548	-200,000	0,036	-0,120
-197,533	-168,618	0,137	-0,004
-196,519	38,082	-0,059	0,038
-195,504	-89,331	0,004	-0,001
-194,490	206,270	-0,062	-0,069
-193,475	800,000	-0,040	-0,120
-192,460	10,591	0,091	-0,049
-191,446	14,500	-0,066	0,036
-190,431	-16,871	0,179	0,080
-189,417	-93,550	0,102	-0,020
-188,402	289,382	0,068	0,088
-187,387	-103,240	-0,022	-0,004
-186,373	748,733	-0,028	-0,055
-185,358	17,691	0,081	-0,046
-184,344	800,000	-0,057	0,145
-183,329	-14,016	0,046	0,021
-182,315	-151,697	0,089	-0,005
-181,300	98,699	0,073	-0,060
-180,285	62,472	0,056	-0,040
-179,271	-200,000	0,004	-0,042
-178,256	107,991	0,021	0,018
-177,242	-49,154	0,126	0,043
-176,227	743,877	0,073	0,140
-175,212	398,923	0,053	0,079
-174,198	699,562	-0,097	0,183
-173,183	-146,037	-0,061	0,004
-172,169	800,000	-0,044	-0,103
-171,154	82,671	0,129	-0,099
-170,139	-167,763	0,092	-0,003
-169,125	800,000	0,052	0,163
-168,110	-200,000	0,000	0,064
-167,096	221,034	0,041	0,047
-166,081	-194,025	0,123	0,001
-165,066	-63,898	-0,184	-0,053
-164,052	274,734	-0,032	0,041
-163,037	-200,000	-0,021	0,105
-162,023	-200,000	0,054	0,178
-161,008	9,688	-0,090	-0,049
-159,993	-45,729	0,093	-0,032
-158,979	285,675	-0,089	0,115
-157,964	270,075	0,049	-0,062
-156,950	-146,478	-0,049	-0,003
-155,935	107,328	-0,086	0,073
-154,920	-119,582	0,096	0,012
-153,906	-180,623	0,095	-0,001
-152,891	-93,986	-0,079	-0,015
-151,877	124,700	-0,052	-0,047
-150,862	25,707	-0,053	-0,031
-149,847	800,000	0,025	-0,052
-148,833	-106,905	-0,132	-0,021
-147,818	-158,818	0,034	-0,001
-146,804	-200,000	0,002	-0,069
-145,789	-72,140	0,011	-0,003
-144,775	-84,917	0,072	0,016
-143,760	420,757	0,089	-0,137
-142,745	-200,000	0,004	0,055
-141,731	-200,000	0,013	0,095
-140,716	146,217	-0,026	-0,025
-139,702	-200,000	-0,030	-0,130
-138,687	523,557	0,055	-0,093
-137,672	47,489	0,105	0,070
-136,658	110,063	-0,069	-0,059
-135,643	403,074	-0,064	-0,097
-134,629	611,777	0,027	0,048
-133,614	-195,840	0,099	-0,000
-132,599	800,000	0,015	-0,034
-131,585	39,072	0,098	0,062
-130,570	-64,043	-0,121	-0,035
-129,556	800,000	0,007	-0,019
-128,541	-200,000	0,024	-0,078
-127,526	-32,285	-0,018	0,007
-126,512	171,961	-0,041	0,042
-125,497	-200,000	0,026	-0,201
-124,483	800,000	-0,056	0,138
-123,468	281,796	0,061	0,077
-122,453	-3,597	-0,119	0,059
-121,439	800,000	-0,031	-0,065
-120,424	-200,000	0,007	0,025
-119,410	-0,517	0,101	0,051
-118,395	-69,870	-0,012	-0,003
-117,380	-200,000	0,009	0,160
-116,366	28,751	-0,078	0,047
-115,351	119,345	-0,094	0,082
-114,337	253,362	-0,029	-0,035
-113,322	-200,000	-0,002	0,019
-112,307	228,655	0,097	-0,113
-111,293	800,000	0,040	0,092
-110,278	-200,000	0,005	0,056
-109,264	-200,000	0,011	-0,045
-108,249	-69,467	-0,045	0,012
-107,234	-200,000	-0,006	0,023
-106,220	-68,005	-0,095	0,026
-105,205	-200,000	0,003	0,044
-104,191	40,438	-0,065	-0,042
-103,176	-200,000	0,002	0,130
-102,162	800,000	-0,024	0,066
-101,147	159,532	-0,055	-0,054
-100,132	800,000	-0,016	0,035
-99,118	-132,231	0,146	0,013
-98,103	-13,659	-0,120	0,055
-97,089	-80,618	-0,045	0,011
-96,074	662,736	0,047	0,087
-95,059	-200,000	-0,009	0,107
-94,045	-3,158	-0,077	0,038
-93,030	133,560	0,062	-0,057
-92,016	-113,246	-0,157	-0,022
-91,001	-200,000	-0,010	0,035
-89,986	-44,799	0,131	0,046
-88,972	143,532	0,062	0,058
-87,957	21,935	0,094	-0,054
-86,943	316,885	-0,064	0,086
-85,928	-110,082	0,020	0,003
-84,913	800,000	0,022	0,060
-83,899	-97,437	-0,071	-0,013
-82,884	-54,122	0,130	-0,042
-81,870	-85,660	0,102	0,022
-80,855	64,859	0,106	-0,076
-79,840	364,288	-0,034	-0,048
-78,826	16,763	-0,102	0,057
-77,811	132,414	0,017	0,015
-76,797	359,679	0,044	0,062
-75,782	-172,330	-0,091	-0,002
-74,767	-102,286	-0,097	0,016
-73,753	800,000	0,027	0,056
-72,738	-9,868	0,059	0,028
-71,724	800,000	0,049	-0,105
-70,709	297,312	-0,089	-0,116
-69,694	800,000	0,042	-0,110
-68,680	-77,910	0,028	-0,007
-67,665	303,475	0,081	0,107
-66,651	48,293	0,077	0,051
-65,636	124,222	-0,129	0,115
-64,622	-29,125	-0,099	-0,040
-63,607	-54,413	0,040	-0,013
-62,592	-85,697	-0,057	-0,012
-61,578	84,827	0,025	0,019
-60,563	620,124	-0,077	0,137
-59,549	800,000	-0,045	0,090
-58,534	-60,931	-1,426	-0,425
-57,519	363,981	-1,572	-2,248
-56,505	-200,000	-0,436	-4,463
-55,490	136,928	0,900	0,834
-54,476	800,000	4,860	11,340
-53,461	-200,000	17,788	281,402
-52,446	800,000	720,011	2222,325
-51,432	561,700	1634,395	2814,154
-50,417	80,981	1658,164	1267,923
-49,403	23,778	1532,513	893,130
-48,388	17,771	1455,806	819,445
-47,373	18,230	1445,427	815,774
-46,359	17,865	1436,102	808,738
-45,344	16,073	1431,173	797,409
-44,330	16,022	1429,381	796,136
-43,315	15,988	1427,672	794,990
-42,300	16,007	1426,014	794,126
-41,286	16,084	1424,913	793,849
-40,271	16,048	1423,369	792,788
-39,257	16,002	1422,279	791,928
-38,242	16,051	1420,932	791,381
-37,227	16,082	1419,684	790,798
-36,213	16,033	1418,449	789,847
-35,198	16,036	1417,077	789,067
-34,184	16,030	1416,436	788,651
-33,169	16,011	1415,127	787,801
-32,154	16,051	1414,011	787,336
-31,140	16,062	1412,680	786,616
-30,125	16,113	1411,477	786,152
-29,111	16,069	1410,281	785,250
-28,096	16,022	1409,307	784,456
-27,082	15,988	1407,927	783,500
-26,067	15,972	1407,008	782,883
-25,052	16,018	1405,958	782,483
-24,038	15,961	1405,076	781,696
-23,023	15,964	1404,138	781,152
-22,009	15,962	1403,013	780,489
-20,994	15,896	1402,240	779,721
-19,979	15,897	1401,065	779,040
-18,965	15,934	1400,182	778,692
-17,950	15,921	1399,190	778,049
-16,936	15,925	1398,062	777,407
-15,921	15,877	1396,872	776,495
-14,906	15,861	1396,113	775,964
-13,892	15,866	1395,297	775,505
-12,877	15,850	1394,335	774,864
-11,863	15,847	1393,435	774,319
-10,848	15,858	1392,491	773,817
-9,833	15,872	1391,390	773,239
-8,819	15,790	1390,553	772,362
-7,804	15,754	1389,549	771,609
-6,790	15,771	1388,566	771,112
-5,775	15,772	1387,479	770,483
-4,760	15,777	1386,826	770,110
-3,746	15,785	1386,044	769,683
-2,731	15,770	1385,096	769,059
-1,717	15,747	1384,168	768,408
-0,702	15,762	1382,331	767,424
0,313	19,511	1303,094	740,742
1,327	35,962	706,624	439,811
2,342	55,550	125,157	85,761
3,356	5,284	16,513	8,601
4,371	10,104	3,093	1,661
5,386	-100,961	0,485	0,084
6,400	-200,000	0,032	0,185
7,415	11,429	-0,248	-0,134
8,429	-20,452	-0,400	-0,173
9,444	209,807	-0,320	-0,356
10,459	151,021	-0,297	-0,286
11,473	59,725	-0,262	-0,183
12,488	164,299	-0,211	-0,210
13,502	154,407	-0,292	-0,284
14,517	141,499	-0,269	-0,253
15,531	-15,430	-0,454	-0,205
16,546	91,126	-0,380	-0,302
17,561	371,064	-0,240	-0,345
18,575	139,380	-0,205	-0,191
19,590	97,519	-0,240	-0,195
20,604	800,000	-0,060	-0,156
21,619	245,058	-0,382	-0,455
22,634	33,210	-0,428	-0,262
23,648	99,963	-0,355	-0,291
24,663	224,759	-0,354	-0,405
25,677	65,923	-0,253	-0,182
26,692	127,092	-0,294	-0,264
27,707	184,789	-0,271	-0,284
28,721	150,135	-0,374	-0,359
29,736	159,985	-0,348	-0,343
30,750	70,573	-0,537	-0,393
31,765	235,694	-0,377	-0,442
32,780	267,499	-0,335	-0,415
33,794	160,042	-0,287	-0,282
34,809	127,146	-0,297	-0,266
35,823	56,254	-0,354	-0,243
36,838	137,169	-0,319	-0,295
37,853	83,089	-0,476	-0,366
38,867	132,213	-0,407	-0,370
39,882	28,226	-0,344	-0,205
40,896	19,037	-0,427	-0,241
41,911	-1,905	-0,316	-0,156
42,926	79,353	-0,333	-0,252
43,940	85,695	-0,333	-0,258
44,955	141,871	-0,343	-0,321
45,969	132,626	-0,295	-0,269
46,984	170,158	-0,343	-0,347
47,999	245,450	-0,138	-0,164
49,013	-142,591	-0,405	0,028
50,028	-33,688	-0,347	-0,134
51,042	113,213	-0,312	-0,267
52,057	-19,252	-0,353	-0,154
53,071	34,551	-0,311	-0,191
54,086	60,643	-0,415	-0,290
55,101	-19,517	-0,316	-0,138
56,115	10,466	-0,388	-0,208
57,130	9,832	-0,380	-0,203
58,144	120,582	-0,367	-0,322
59,159	-11,643	-0,449	-0,207
60,174	2,750	-0,547	-0,279
61,188	124,343	-0,389	-0,345
62,203	-8,717	-0,322	-0,152
63,217	142,622	-0,239	-0,224
64,232	239,017	-0,280	-0,328
65,247	79,303	-0,376	-0,284
66,261	115,819	-0,349	-0,301
67,276	4,450	-0,321	-0,166
68,290	-20,221	-0,279	-0,120
69,305	-15,603	-0,232	-0,104
70,320	52,736	-0,330	-0,222
71,334	142,303	-0,264	-0,247
72,349	75,156	-0,281	-0,208
73,363	44,863	-0,369	-0,239
74,378	40,259	-0,277	-0,175
75,393	-38,046	-0,389	-0,145
76,407	40,023	-0,319	-0,201
77,422	0,032	-0,291	-0,145
78,436	-48,294	-0,318	-0,107
79,451	-0,115	-0,419	-0,209
80,466	88,367	-0,324	-0,253
81,480	-11,611	-0,392	-0,181
82,495	465,183	-0,202	-0,320
83,509	-25,234	-0,168	-0,070
84,524	55,819	-0,153	-0,104
85,539	72,732	-0,233	-0,171
86,553	204,843	-0,204	-0,223
87,568	106,012	-0,316	-0,263
88,582	-48,172	-0,311	-0,105
89,597	246,491	-0,244	-0,290
90,611	17,445	-0,340	-0,190
91,626	20,310	-0,263	-0,149
92,641	39,199	-0,220	-0,138
93,655	553,408	-0,157	-0,266
94,670	45,666	-0,324	-0,210
95,684	252,885	-0,223	-0,268
96,699	141,900	-0,253	-0,235
97,714	50,828	-0,335	-0,223
98,728	-50,631	-0,266	-0,087
99,743	-19,610	-0,221	-0,096
100,757	800,000	-0,094	-0,259
101,772	21,045	-0,395	-0,225
102,787	139,866	-0,288	-0,267
103,801	97,524	-0,299	-0,241
104,816	-72,933	-0,293	-0,075
105,830	-159,003	-0,244	-0,010
106,845	-55,654	-0,077	0,024
107,860	-51,973	-0,205	-0,066
108,874	-63,839	-0,264	-0,075
109,889	13,969	-0,336	-0,183
110,903	137,037	-0,225	-0,207
111,918	498,850	-0,242	-0,393
112,933	69,225	-0,217	-0,157
113,947	-9,262	-0,213	-0,100
114,962	166,201	-0,288	-0,286
115,976	90,800	-0,319	-0,251
116,991	17,701	-0,360	-0,201
118,006	124,626	-0,212	-0,187
119,020	31,964	-0,334	-0,202
120,035	20,328	-0,146	-0,083
121,049	-31,222	-0,282	-0,111
122,064	105,160	-0,305	-0,252
123,079	28,181	-0,285	-0,168
124,093	60,502	-0,313	-0,217
125,108	-84,024	-0,310	-0,069
126,122	286,976	-0,235	-0,298
127,137	0,173	-0,316	-0,158
128,151	398,082	-0,132	-0,194
129,166	46,893	-0,268	-0,174
130,181	91,351	-0,354	-0,279
131,195	207,753	-0,280	-0,307
132,210	95,179	-0,322	-0,257
133,224	-8,385	-0,282	-0,132
134,239	-34,031	-0,127	-0,049
135,254	-77,706	-0,279	-0,067
136,268	82,934	-0,072	-0,055
137,283	-75,794	-0,327	-0,081
138,297	18,478	-0,308	-0,172
139,312	-61,802	-0,355	-0,103
140,327	-71,595	-0,332	-0,086
141,341	219,415	-0,132	-0,148
142,356	384,176	-0,174	-0,252
143,370	-17,143	-0,260	-0,114
144,385	76,225	-0,244	-0,181
145,400	38,315	-0,313	-0,194
146,414	-31,323	-0,320	-0,126
147,429	23,551	-0,267	-0,153
148,443	113,293	-0,164	-0,140
149,458	42,711	-0,283	-0,180
150,473	55,606	-0,256	-0,173
151,487	3,260	-0,222	-0,112
152,502	22,695	-0,351	-0,201
153,516	58,747	-0,211	-0,145
154,531	725,646	-0,147	-0,276
155,546	-18,981	-0,196	-0,085
156,560	118,981	-0,201	-0,174
157,575	-18,543	-0,282	-0,122
158,589	35,820	-0,271	-0,166
159,604	3,966	-0,373	-0,190
160,619	597,979	-0,198	-0,345
161,633	76,710	-0,275	-0,204
162,648	128,540	-0,255	-0,227
163,662	174,297	-0,215	-0,218
164,677	21,928	-0,143	-0,081
165,692	-123,671	-0,223	0,024
166,706	199,149	-0,160	-0,171
167,721	260,258	-0,130	-0,157
168,735	800,000	-0,098	-0,197
169,750	60,478	-0,253	-0,175
170,764	261,174	-0,170	-0,206
171,779	206,522	-0,156	-0,170
172,794	345,318	-0,171	-0,236
173,808	64,675	-0,310	-0,218
174,823	33,989	-0,271	-0,165
175,837	54,025	-0,177	-0,119
176,852	157,491	-0,182	-0,176
177,867	-1,055	-0,195	-0,096
178,881	800,000	-0,060	-0,158
179,896	-200,000	0,021	-0,156
180,910	800,000	-0,132	-0,260
181,925	-40,076	-0,225	-0,082
182,940	276,708	-0,251	-0,312
183,954	255,932	-0,239	-0,287
184,969	800,000	-0,072	-0,176
185,983	170,088	-0,125	-0,125
186,998	-100,759	-0,206	-0,035
188,013	316,985	-0,107	-0,141
189,027	225,563	-0,260	-0,294
190,042	-47,306	-0,350	-0,118
191,056	322,564	-0,228	-0,303
192,071	158,815	-0,207	-0,200
193,086	290,053	-0,212	-0,268
194,100	47,665	-0,137	-0,089
195,115	169,412	-0,203	-0,202
196,129	419,044	-0,223	-0,334
197,144	137,067	-0,269	-0,245
198,159	114,905	-0,225	-0,191
199,173	781,328	-0,135	-0,258
200,188	-82,862	-0,176	-0,039
201,202	187,304	-0,140	-0,146
202,217	-94,433	-0,218	-0,041
203,232	-200,000	-0,142	-0,000
204,246	-112,652	-0,288	-0,040
205,261	-4,016	-0,327	-0,157
206,275	435,457	-0,099	-0,150
207,290	-52,617	-0,269	-0,086
208,304	-57,091	-0,288	-0,088
209,319	-2,079	-0,230	-0,112
210,334	800,000	-0,085	-0,248
211,348	326,455	-0,198	-0,265
212,363	167,599	-0,191	-0,189
213,377	75,549	-0,130	-0,095
214,392	527,433	-0,134	-0,221
215,407	187,773	-0,120	-0,125
216,421	55,325	-0,220	-0,148
217,436	265,558	-0,231	-0,281
218,450	-52,654	-0,222	-0,071
219,465	800,000	-0,101	-0,248
220,480	618,840	-0,113	-0,198
221,494	-12,954	-0,183	-0,083
222,509	138,608	-0,266	-0,243
223,523	68,962	-0,142	-0,102
224,538	114,457	-0,132	-0,112
225,553	320,145	-0,165	-0,218
226,567	138,864	-0,173	-0,158
227,582	47,486	-0,211	-0,136
228,596	-200,000	-0,079	-0,253
229,611	122,102	-0,253	-0,219
230,626	16,833	-0,190	-0,104
231,640	70,199	-0,190	-0,136
232,655	80,953	-0,200	-0,150
233,669	127,164	-0,261	-0,230
234,684	480,710	-0,057	-0,090
235,699	124,853	-0,227	-0,198
236,713	126,737	-0,216	-0,190
237,728	-154,210	-0,123	-0,006
238,742	70,655	-0,192	-0,138
239,757	76,588	-0,244	-0,180
240,772	204,415	-0,208	-0,224
241,786	67,698	-0,297	-0,210
242,801	632,396	-0,159	-0,281
243,815	145,163	-0,144	-0,133
244,830	180,304	-0,122	-0,124
245,844	-125,210	-0,225	-0,024
246,859	37,636	-0,176	-0,108
247,874	424,438	-0,122	-0,182
248,888	412,694	-0,197	-0,291
249,903	24,393	-0,178	-0,102
250,917	-102,245	-0,181	-0,030
251,932	9,797	-0,179	-0,094
252,947	-90,639	-0,194	-0,039
253,961	226,876	-0,033	-0,037
254,976	539,826	-0,152	-0,251
255,990	352,934	-0,157	-0,216
257,005	800,000	-0,067	-0,151
258,020	-135,840	-0,218	0,018
259,034	25,660	-0,232	-0,133
260,049	48,853	-0,124	-0,080
261,063	-3,797	-0,260	-0,125
262,078	-69,973	-0,228	-0,060
263,093	-64,911	-0,350	-0,097
264,107	141,412	-0,142	-0,130
265,122	-95,945	-0,120	-0,022
266,136	-75,779	-0,156	-0,038
267,151	-114,478	-0,130	-0,017
268,166	-25,756	-0,219	-0,089
269,180	-21,569	-0,138	-0,058
270,195	-65,503	-0,210	-0,058
271,209	106,421	-0,228	-0,187
272,224	168,223	-0,169	-0,167
273,239	-200,000	0,026	-0,094
274,253	276,414	-0,142	-0,175
275,268	800,000	-0,080	-0,153
276,282	-20,049	-0,181	-0,077
277,297	68,641	-0,233	-0,165
278,312	-85,723	-0,180	0,038
279,326	95,848	-0,103	-0,081
280,341	-86,289	-0,220	-0,046
281,355	461,515	-0,121	-0,187
282,370	296,352	-0,118	-0,150
283,384	160,532	-0,261	-0,252
284,399	251,594	-0,157	-0,185
285,414	324,734	-0,180	-0,239
286,428	660,875	-0,081	-0,145
287,443	800,000	-0,039	-0,096
288,457	40,603	-0,156	-0,097
289,472	117,898	-0,126	-0,108
290,487	-23,198	-0,166	-0,069
291,501	25,033	-0,188	-0,108
292,516	53,948	-0,215	-0,143
293,530	300,659	-0,059	-0,075
294,545	235,579	-0,118	-0,134
295,560	-125,267	-0,235	-0,024
296,574	-40,898	-0,270	-0,096
297,589	-129,994	-0,152	0,014
298,603	82,220	-0,111	-0,083
299,618	487,633	-0,089	-0,141
300,633	424,554	-0,016	-0,023
301,647	275,227	-0,072	0,088
302,662	47,034	-0,208	-0,133
303,676	232,864	-0,161	-0,182
304,691	169,608	-0,179	-0,177
305,706	170,785	-0,173	-0,171
306,720	240,468	-0,147	-0,169
307,735	84,258	-0,217	-0,163
308,749	-182,129	-0,124	-0,002
309,764	780,286	0,048	0,091
310,779	-85,635	-0,324	-0,069
311,793	-200,000	-0,002	-0,188
312,808	60,708	-0,126	-0,086
313,822	-60,032	-0,134	-0,039
314,837	14,848	-0,207	-0,111
315,852	465,098	-0,132	-0,205
316,866	15,670	-0,108	-0,058
317,881	3,301	-0,103	-0,051
318,895	800,000	-0,076	-0,181
319,910	-67,215	-0,171	-0,046
320,925	22,031	-0,179	-0,100
321,939	396,224	-0,061	-0,088
322,954	-200,000	0,002	-0,117
323,968	-177,262	-0,212	-0,004
324,983	-130,626	-0,181	0,017
325,997	-106,952	-0,071	-0,011
327,012	-5,351	-0,159	-0,075
328,027	477,418	-0,082	-0,128
329,041	225,293	-0,125	-0,139
330,056	-5,881	-0,254	-0,119
331,070	2,806	-0,102	-0,051
332,085	79,664	-0,139	-0,103
333,100	146,278	-0,220	-0,203
334,114	3,089	-0,201	-0,100
335,129	401,936	-0,119	-0,172
336,143	800,000	-0,083	-0,241
337,158	580,656	-0,166	-0,281
338,173	-200,000	-0,008	-0,163
339,187	-200,000	0,028	-0,146
340,202	-53,442	-0,125	0,039
341,216	-24,868	-0,232	-0,094
342,231	-200,000	0,003	-0,037
343,246	150,431	-0,092	-0,086
344,260	218,937	-0,113	-0,125
345,275	-11,808	-0,114	-0,051
346,289	-200,000	-0,016	-0,084
347,304	15,613	-0,139	0,075
348,319	93,768	-0,234	-0,182
349,333	445,325	-0,065	-0,098
350,348	166,690	-0,154	-0,150
351,362	-200,000	-0,018	-0,219
352,377	800,000	-0,092	-0,234
353,392	-200,000	-0,019	-0,112
354,406	690,488	-0,135	-0,243
355,421	209,755	1312,872	1416,393
356,435	161,449	1473,413	1416,924
