DTS Sentinel unit serial number:	SN410029Multiplexer serial number:	ORYXHardware model number:	OX2-SRSoftware version number:	ORYX F/W v4,00 Oryx Data Collector v3.7.2.0data status	okinstallation	B3 Nyhavnadifferential loss correction	single-endedforward channel	channel 1reverse channel	N/Adate	2023/11/30time	17:07:30forward acquisition time	300,00reverse acquisition time	0,00gamma	499,1914k internal	0,3203k external	0,3203temperature offset calibration	1,0000default loss term (dB/km)	0,3820temperature slope calibration	1,0000multiplexer offset coefficient	1,0000multiplexer slope coefficient	1,0000fibre end	0,00T internal ref (°C)	13,09T ext. ref 1 (°C)	-1,58T ext. ref 2 (°C)	-1,63length (m)	temperature (°C)	Stokes	anti-Stokes-744,400	217,685	-0,247	-0,286
-743,385	-200,000	-0,004	0,206
-742,371	444,207	-0,162	-0,259
-741,356	566,011	0,069	0,123
-740,342	54,840	-0,220	-0,154
-739,327	-200,000	0,098	0,399
-738,312	147,166	-0,211	-0,207
-737,298	-200,000	-0,008	0,371
-736,283	-200,000	-0,078	-0,393
-735,269	800,000	0,085	0,246
-734,254	-200,000	-0,036	-0,294
-733,239	307,020	-0,137	0,186
-732,225	286,534	-0,120	-0,158
-731,210	30,272	0,052	-0,032
-730,196	29,952	-0,118	-0,073
-729,181	13,243	0,066	0,037
-728,167	-200,000	-0,022	0,153
-727,152	8,055	0,035	-0,019
-726,137	-200,000	0,006	-0,051
-725,123	332,212	-0,070	0,098
-724,108	-200,000	-0,002	-0,007
-723,094	-60,844	-0,178	-0,054
-722,079	-112,917	-0,100	-0,014
-721,064	-19,726	-0,018	0,008
-720,050	61,844	0,073	0,053
-719,035	-37,528	-0,137	0,053
-718,021	-200,000	0,002	0,012
-717,006	-124,772	-0,124	-0,014
-715,991	609,753	0,051	-0,093
-714,977	-48,288	-0,088	-0,031
-713,962	-200,000	0,006	-0,079
-712,948	-200,000	-0,002	-0,056
-711,933	228,204	0,176	-0,208
-710,918	-200,000	-0,008	0,029
-709,904	29,540	-0,046	0,028
-708,889	358,893	-0,080	-0,117
-707,875	-156,712	-0,164	0,007
-706,860	-62,055	0,075	-0,023
-705,845	-70,976	0,040	-0,011
-704,831	800,000	-0,013	-0,029
-703,816	82,030	0,067	-0,053
-702,802	-200,000	-0,015	-0,112
-701,787	275,244	-0,082	-0,105
-700,772	174,523	0,075	0,078
-699,758	-200,000	0,020	0,079
-698,743	265,758	-0,076	0,096
-697,729	800,000	0,038	0,108
-696,714	-200,000	-0,014	0,095
-695,699	301,746	-0,126	-0,169
-694,685	-200,000	-0,022	-0,192
-693,670	93,933	-0,127	0,104
-692,656	-200,000	0,002	0,186
-691,641	-59,832	-0,080	0,025
-690,627	-76,857	0,138	0,035
-689,612	-200,000	-0,013	0,069
-688,597	-24,525	-0,061	0,026
-687,583	38,910	-0,096	-0,062
-686,568	800,000	-0,047	-0,103
-685,554	1,753	-0,082	-0,043
-684,539	94,168	0,023	-0,019
-683,524	206,231	0,062	0,071
-682,510	109,977	-0,120	0,104
-681,495	-200,000	0,007	0,044
-680,481	477,656	-0,062	-0,102
-679,466	-200,000	-0,023	-0,138
-678,451	-7,077	0,008	-0,004
-677,437	-200,000	-0,040	0,243
-676,422	82,681	-0,035	-0,027
-675,408	-200,000	0,004	-0,138
-674,393	69,287	0,069	0,051
-673,378	183,841	-0,058	0,063
-672,364	-200,000	0,001	-0,032
-671,349	-200,000	0,042	-0,142
-670,335	-200,000	0,005	-0,054
-669,320	-46,939	0,052	0,018
-668,305	84,391	-0,109	-0,086
-667,291	-200,000	0,015	-0,155
-666,276	-36,456	0,099	0,039
-665,262	130,034	-0,069	0,064
-664,247	752,735	-0,056	-0,110
-663,232	158,166	0,082	0,082
-662,218	-13,630	0,133	0,062
-661,203	-119,419	-0,056	0,007
-660,189	-87,579	0,137	0,030
-659,174	-146,014	-0,187	-0,012
-658,159	800,000	0,050	-0,108
-657,145	-200,000	-0,040	-0,139
-656,130	111,349	0,096	0,084
-655,116	-111,748	0,109	0,016
-654,101	556,816	0,051	0,090
-653,086	-77,996	-0,123	0,031
-652,072	-152,230	0,137	-0,007
-651,057	112,525	-0,150	-0,131
-650,043	-52,740	0,147	0,049
-649,028	14,529	0,053	-0,030
-648,014	-91,728	0,107	-0,022
-646,999	800,000	-0,038	0,077
-645,984	-89,304	-0,111	-0,023
-644,970	-200,000	-0,013	0,081
-643,955	354,150	-0,077	-0,111
-642,941	0,865	-0,164	0,085
-641,926	267,312	0,050	-0,063
-640,911	-200,000	-0,043	-0,000
-639,897	800,000	-0,041	-0,101
-638,882	156,995	-0,061	-0,061
-637,868	425,444	0,108	0,169
-636,853	204,294	0,077	-0,087
-635,838	-169,897	-0,015	0,000
-634,824	-155,103	0,086	0,004
-633,809	-200,000	0,046	-0,158
-632,795	321,020	-0,034	-0,047
-631,780	-33,836	-0,141	0,056
-630,765	44,595	-0,032	-0,021
-629,751	351,799	-0,104	-0,150
-628,736	-200,000	-0,009	0,050
-627,722	396,862	-0,029	-0,043
-626,707	436,124	0,018	0,028
-625,692	-78,704	0,032	0,008
-624,678	-46,488	-0,109	0,038
-623,663	-31,036	0,048	0,019
-622,649	-76,534	0,051	0,013
-621,634	-25,287	0,112	-0,048
-620,619	800,000	-0,007	-0,022
-619,605	-200,000	-0,041	0,136
-618,590	95,939	0,047	-0,039
-617,576	-120,950	0,126	0,015
-616,561	-89,901	0,071	0,015
-615,546	-116,529	-0,164	0,022
-614,532	78,782	0,070	0,054
-613,517	67,124	0,090	-0,066
-612,503	177,628	-0,049	-0,051
-611,488	-15,291	-0,091	-0,042
-610,474	132,452	0,067	-0,062
-609,459	477,097	-0,029	-0,048
-608,444	574,687	-0,046	0,082
-607,430	-53,382	0,080	-0,026
-606,415	52,963	-0,101	0,070
-605,401	-88,210	0,139	-0,030
-604,386	-200,000	-0,000	0,072
-603,371	-143,221	-0,064	-0,004
-602,357	-57,300	0,060	0,019
-601,342	-200,000	-0,013	0,091
-600,328	800,000	0,078	-0,240
-599,313	-176,118	-0,085	-0,002
-598,298	-95,637	-0,105	0,020
-597,284	-67,703	0,111	0,031
-596,269	10,546	-0,029	0,016
-595,255	246,679	0,095	0,116
-594,240	-200,000	0,000	-0,085
-593,225	360,331	-0,113	-0,164
-592,211	269,174	-0,096	-0,122
-591,196	102,152	0,122	-0,103
-590,182	-200,000	0,004	0,090
-589,167	-129,359	0,074	0,007
-588,152	283,150	0,018	-0,024
-587,138	131,359	0,017	0,016
-586,123	-200,000	-0,015	-0,166
-585,109	-200,000	0,016	-0,155
-584,094	18,857	-0,097	0,056
-583,079	-200,000	0,006	0,021
-582,065	-78,299	0,047	0,012
-581,050	136,241	-0,032	0,030
-580,036	-125,027	-0,153	0,017
-579,021	39,921	-0,088	-0,057
-578,006	800,000	-0,037	-0,113
-576,992	-71,295	0,040	-0,011
-575,977	800,000	0,068	0,147
-574,963	-171,348	-0,066	-0,002
-573,948	-200,000	-0,035	0,132
-572,934	800,000	0,054	-0,129
-571,919	784,666	-0,051	-0,102
-570,904	536,184	0,047	-0,081
-569,890	172,527	0,052	0,054
-568,875	-200,000	-0,006	-0,041
-567,861	-200,000	-0,014	-0,177
-566,846	4,664	-0,058	-0,031
-565,831	800,000	-0,040	0,081
-564,817	-200,000	-0,023	-0,095
-563,802	800,000	-0,048	0,123
-562,788	-200,000	-0,031	0,149
-561,773	-135,920	-0,091	0,008
-560,758	-125,140	0,122	0,013
-559,744	76,787	-0,079	-0,061
-558,729	-200,000	0,009	-0,054
-557,715	-200,000	-0,029	-0,095
-556,700	800,000	-0,054	-0,149
-555,685	11,758	-0,076	-0,042
-554,671	-74,605	0,112	0,029
-553,656	-128,560	0,119	-0,012
-552,642	-119,484	-0,071	0,009
-551,627	208,146	0,117	0,133
-550,612	46,776	-0,042	-0,028
-549,598	-107,912	-0,082	-0,013
-548,583	164,079	-0,109	0,111
-547,569	-200,000	-0,004	0,028
-546,554	-200,000	0,062	0,280
-545,539	178,792	0,071	0,075
-544,525	-200,000	0,018	-0,078
-543,510	-126,190	-0,050	0,005
-542,496	112,577	-0,123	-0,107
-541,481	-103,822	-0,150	0,025
-540,466	304,832	-0,042	0,057
-539,452	800,000	0,025	0,054
-538,437	20,801	-0,043	-0,025
-537,423	-20,958	-0,161	0,071
-536,408	37,600	0,163	0,104
-535,393	148,095	0,075	-0,073
-534,379	730,709	-0,033	-0,063
-533,364	776,966	0,053	-0,105
-532,350	-200,000	0,007	0,057
-531,335	800,000	0,062	0,132
-530,321	13,527	0,032	-0,018
-529,306	-10,830	-0,128	0,061
-528,291	77,948	-0,075	0,058
-527,277	800,000	-0,050	-0,130
-526,262	3,354	0,080	0,042
-525,248	42,845	-0,063	-0,041
-524,233	-90,041	0,033	0,007
-523,218	75,016	-0,196	0,149
-522,204	0,883	-0,038	0,020
-521,189	-29,777	0,132	-0,054
-520,175	268,288	-0,148	-0,188
-519,160	-47,076	-0,119	-0,042
-518,145	-44,459	0,188	-0,068
-517,131	800,000	0,038	0,079
-516,116	-39,263	-0,031	-0,012
-515,102	-200,000	0,010	0,107
-514,087	-200,000	-0,001	0,074
-513,072	-93,580	0,069	-0,014
-512,058	-11,578	-0,064	0,030
-511,043	-46,549	0,056	0,020
-510,029	-48,916	0,095	-0,033
-509,014	-60,921	-0,160	-0,048
-507,999	128,670	-0,049	0,045
-506,985	68,423	-0,048	-0,036
-505,970	-41,520	-0,062	-0,023
-504,956	102,096	0,042	0,035
-503,941	105,823	-0,047	0,040
-502,926	445,516	-0,018	-0,029
-501,912	-20,744	-0,103	0,045
-500,897	527,424	0,015	-0,025
-499,883	-115,504	-0,072	-0,010
-498,868	786,280	-0,044	-0,088
-497,853	-200,000	-0,004	-0,054
-496,839	-200,000	0,012	0,065
-495,824	390,415	-0,031	-0,046
-494,810	-101,362	0,073	0,013
-493,795	-63,703	-0,056	-0,016
-492,781	161,235	-0,072	0,073
-491,766	-131,012	-0,062	-0,006
-490,751	-200,000	-0,026	-0,115
-489,737	7,211	-0,033	0,017
-488,722	-200,000	-0,006	-0,040
-487,708	-154,893	0,054	0,003
-486,693	-200,000	0,021	-0,084
-485,678	586,474	-0,051	-0,091
-484,664	800,000	-0,051	-0,104
-483,649	-200,000	0,006	-0,025
-482,635	621,337	0,042	-0,077
-481,620	682,823	0,068	-0,128
-480,605	-200,000	-0,001	0,162
-479,591	48,969	0,146	0,099
-478,576	21,105	-0,036	-0,021
-477,562	800,000	0,031	0,090
-476,547	-200,000	-0,026	0,086
-475,532	-89,417	-0,111	0,023
-474,518	-200,000	-0,004	0,065
-473,503	-48,758	0,184	0,063
-472,489	141,200	-0,079	-0,075
-471,474	-93,261	-0,131	0,026
-470,459	800,000	-0,005	-0,015
-469,445	-200,000	-0,017	0,055
-468,430	28,353	0,067	0,041
-467,416	800,000	-0,022	0,045
-466,401	-200,000	0,013	0,191
-465,386	-200,000	-0,007	0,117
-464,372	142,221	0,151	-0,144
-463,357	267,653	-0,096	0,121
-462,343	372,874	-0,048	-0,071
-461,328	167,680	0,028	-0,029
-460,313	206,381	0,024	-0,026
-459,299	-120,498	0,052	0,006
-458,284	196,944	-0,030	0,033
-457,270	35,741	0,137	-0,086
-456,255	-200,000	0,039	0,175
-455,241	24,252	-0,052	-0,031
-454,226	-100,001	-0,051	-0,009
-453,211	772,018	-0,048	-0,095
-452,197	800,000	0,017	-0,045
-451,182	800,000	-0,019	0,039
-450,168	-33,133	0,101	0,040
-449,153	-196,335	-0,035	-0,000
-448,138	-89,034	0,106	0,022
-447,124	-107,353	0,140	-0,022
-446,109	-111,239	-0,075	-0,011
-445,095	-200,000	-0,001	0,122
-444,080	-42,433	0,113	0,041
-443,065	10,394	0,027	-0,015
-442,051	369,044	-0,011	0,016
-441,036	-17,670	-0,108	0,049
-440,022	435,391	0,071	-0,111
-439,007	-200,000	-0,005	-0,073
-437,992	367,812	-0,043	-0,063
-436,978	800,000	0,012	0,034
-435,963	-82,306	0,118	-0,027
-434,949	800,000	-0,052	0,119
-433,934	-108,453	-0,082	-0,013
-432,919	-200,000	0,030	-0,139
-431,905	292,154	0,019	-0,025
-430,890	-200,000	-0,005	-0,035
-429,876	-200,000	-0,003	0,162
-428,861	800,000	0,047	0,141
-427,846	227,123	-0,033	-0,038
-426,832	-200,000	0,025	-0,161
-425,817	-200,000	-0,008	-0,037
-424,803	800,000	0,031	-0,079
-423,788	-200,000	-0,005	-0,106
-422,773	800,000	0,049	-0,109
-421,759	-152,545	0,107	-0,005
-420,744	16,385	-0,029	0,016
-419,730	-75,626	0,090	-0,023
-418,715	589,769	-0,025	-0,045
-417,701	-66,270	-0,041	-0,012
-416,686	167,655	0,046	-0,047
-415,671	-20,712	0,052	0,023
-414,657	374,914	0,081	-0,120
-413,642	42,313	0,033	-0,021
-412,628	94,539	-0,030	-0,025
-411,613	3,568	-0,074	0,039
-410,598	-200,000	0,011	-0,046
-409,584	-22,863	0,152	0,065
-408,569	579,184	-0,008	-0,015
-407,555	-200,000	0,009	0,217
-406,540	-200,000	-0,001	0,211
-405,525	-200,000	-0,003	0,072
-404,511	800,000	-0,013	0,030
-403,496	-188,890	0,103	-0,001
-402,482	-200,000	-0,036	0,127
-401,467	522,104	-0,071	0,120
-400,452	800,000	0,033	0,085
-399,438	321,971	0,044	-0,060
-398,423	-36,684	0,068	-0,026
-397,409	-200,000	0,012	-0,089
-396,394	-200,000	0,035	-0,129
-395,379	-21,661	-0,136	0,059
-394,365	38,365	0,122	0,078
-393,350	366,333	-0,005	0,008
-392,336	800,000	0,006	-0,018
-391,321	55,524	-0,096	0,066
-390,306	-200,000	0,024	-0,099
-389,292	263,890	0,070	-0,088
-388,277	-58,563	-0,273	-0,084
-387,263	-200,000	-0,042	-0,135
-386,248	275,383	0,056	0,071
-385,233	-200,000	-0,028	0,152
-384,219	-200,000	0,004	0,077
-383,204	109,314	-0,099	-0,085
-382,190	800,000	0,035	-0,084
-381,175	331,480	0,014	-0,019
-380,160	-165,398	0,117	0,004
-379,146	800,000	0,090	0,213
-378,131	-135,730	-0,103	0,009
-377,117	800,000	0,047	-0,127
-376,102	653,729	-0,050	-0,092
-375,088	47,132	0,058	0,039
-374,073	438,927	-0,054	-0,084
-373,058	-200,000	-0,021	-0,129
-372,044	483,981	0,038	-0,061
-371,029	-58,899	-0,084	0,026
-370,015	-200,000	-0,026	0,124
-369,000	56,590	0,140	0,097
-367,985	-65,444	-0,076	-0,022
-366,971	19,699	0,074	-0,042
-365,956	117,833	0,039	-0,035
-364,942	-200,000	0,001	0,091
-363,927	-74,315	-0,134	-0,034
-362,912	406,304	0,071	-0,108
-361,898	33,089	0,035	-0,021
-360,883	-200,000	-0,010	-0,037
-359,869	-50,670	0,032	0,011
-358,854	-23,472	-0,068	0,029
-357,839	-173,696	0,049	-0,001
-356,825	-57,235	0,110	0,035
-355,810	-200,000	-0,016	0,125
-354,796	110,628	-0,090	0,078
-353,781	-200,000	-0,006	-0,054
-352,766	10,927	-0,197	-0,107
-351,752	12,048	0,046	0,025
-350,737	46,397	0,120	-0,079
-349,723	800,000	0,058	0,128
-348,708	-90,438	0,097	-0,020
-347,693	-16,576	0,028	-0,013
-346,679	-200,000	0,026	-0,094
-345,664	337,505	0,040	-0,056
-344,650	169,350	-0,057	-0,058
-343,635	-200,000	0,008	0,074
-342,620	-82,086	0,137	0,032
-341,606	316,311	0,072	0,097
-340,591	800,000	0,031	0,077
-339,577	-28,035	-0,167	-0,069
-338,562	-200,000	0,025	-0,158
-337,548	245,629	-0,123	-0,148
-336,533	-200,000	0,008	0,049
-335,518	231,597	-0,012	0,015
-334,504	-200,000	0,008	0,129
-333,489	-200,000	-0,001	-0,075
-332,475	8,813	-0,099	-0,053
-331,460	289,148	0,096	-0,125
-330,445	20,130	-0,065	0,037
-329,431	-200,000	-0,004	0,031
-328,416	433,273	0,012	0,018
-327,402	-200,000	0,035	0,111
-326,387	800,000	0,028	-0,063
-325,372	-93,646	0,064	-0,012
-324,358	800,000	-0,026	-0,055
-323,343	264,543	0,034	0,042
-322,329	88,857	0,086	-0,068
-321,314	54,736	-0,136	0,094
-320,299	-48,687	-0,053	-0,018
-319,285	74,017	0,066	-0,049
-318,270	-6,665	0,060	0,029
-317,256	800,000	0,027	0,053
-316,241	800,000	0,044	-0,102
-315,226	-30,427	-0,114	-0,046
-314,212	800,000	-0,021	0,065
-313,197	-200,000	0,020	0,099
-312,183	-200,000	-0,006	0,194
-311,168	-200,000	-0,103	-0,000
-310,153	-159,524	0,094	0,004
-309,139	430,253	0,046	0,072
-308,124	133,569	0,126	0,116
-307,110	-200,000	0,055	0,196
-306,095	-200,000	0,005	0,018
-305,080	236,146	-0,066	0,078
-304,066	123,868	-0,040	0,036
-303,051	-111,568	-0,135	0,019
-302,037	-72,919	0,076	0,020
-301,022	587,019	-0,021	-0,038
-300,008	-120,142	0,122	0,015
-298,993	42,384	-0,040	-0,026
-297,978	-35,663	-0,064	-0,025
-296,964	153,305	0,035	-0,034
-295,949	-200,000	0,018	-0,092
-294,935	4,535	-0,050	-0,026
-293,920	502,376	0,067	0,112
-292,905	142,135	0,062	0,059
-291,891	576,466	-0,067	0,117
-290,876	370,974	0,128	0,186
-289,862	-87,129	-0,027	-0,006
-288,847	-167,564	0,145	0,004
-287,832	-99,763	-0,019	-0,003
-286,818	106,815	0,056	-0,047
-285,803	453,291	0,053	0,084
-284,789	-200,000	0,031	0,182
-283,774	-0,534	0,130	0,066
-282,759	120,574	-0,094	-0,083
-281,745	-51,301	-0,125	-0,041
-280,730	105,959	0,093	-0,079
-279,716	2,669	-0,036	0,019
-278,701	66,076	0,014	-0,010
-277,686	800,000	0,023	0,053
-276,672	800,000	-0,037	0,115
-275,657	32,592	-0,041	0,025
-274,643	-200,000	0,025	-0,106
-273,628	-9,188	0,026	-0,012
-272,613	-171,839	0,068	0,002
-271,599	-164,675	0,113	0,004
-270,584	1,707	0,058	0,030
-269,570	-200,000	0,013	-0,093
-268,555	287,816	-0,040	0,052
-267,540	127,405	-0,034	-0,030
-266,526	-200,000	-0,016	-0,051
-265,511	800,000	-0,023	-0,065
-264,497	143,745	0,046	-0,044
-263,482	-200,000	0,003	0,047
-262,467	404,778	0,048	0,072
-261,453	-120,242	-0,094	0,011
-260,438	-200,000	-0,002	0,106
-259,424	-169,272	-0,088	0,002
-258,409	621,183	0,046	0,083
-257,395	783,936	-0,061	-0,119
-256,380	48,274	0,153	0,102
-255,365	-7,497	0,045	0,021
-254,351	49,891	0,055	0,037
-253,336	148,665	0,059	-0,057
-252,322	416,765	-0,084	-0,128
-251,307	186,817	0,033	0,035
-250,292	800,000	-0,033	-0,087
-249,278	-59,997	0,137	0,041
-248,263	82,827	0,021	0,016
-247,249	312,968	-0,085	0,114
-246,234	-200,000	0,003	-0,034
-245,219	-200,000	-0,004	-0,099
-244,205	-200,000	0,019	-0,076
-243,190	-80,845	0,129	0,030
-242,176	232,382	-0,088	0,104
-241,161	5,065	-0,084	-0,044
-240,146	-63,881	0,121	0,035
-239,132	-104,552	0,082	0,013
-238,117	-125,579	-0,021	-0,002
-237,103	-200,000	-0,028	-0,228
-236,088	33,628	0,105	-0,065
-235,073	75,308	0,113	-0,085
-234,059	142,413	0,065	0,061
-233,044	464,263	0,064	0,102
-232,030	79,154	-0,142	0,108
-231,015	-200,000	0,014	-0,095
-230,000	-200,000	0,014	-0,049
-228,986	190,917	0,024	0,026
-227,971	-85,844	-0,050	-0,011
-226,957	-200,000	-0,022	0,075
-225,942	23,553	-0,075	0,044
-224,927	117,643	-0,103	-0,091
-223,913	-119,157	-0,092	0,011
-222,898	9,158	-0,044	-0,024
-221,884	29,349	0,095	0,058
-220,869	70,505	-0,059	-0,044
-219,855	120,171	-0,084	-0,075
-218,840	-92,114	0,086	0,017
-217,825	110,633	-0,058	0,050
-216,811	-200,000	-0,015	-0,055
-215,796	26,953	-0,143	-0,085
-214,782	-200,000	0,016	0,061
-213,767	70,493	0,162	-0,119
-212,752	-200,000	0,009	0,042
-211,738	-200,000	0,002	0,134
-210,723	-56,020	-0,186	0,059
-209,709	241,371	-0,073	-0,087
-208,694	31,136	0,072	-0,044
-207,679	10,591	-0,081	-0,044
-206,665	-200,000	0,006	-0,060
-205,650	-200,000	0,018	0,081
-204,636	204,922	-0,077	0,085
-203,621	-96,613	0,032	-0,006
-202,606	241,346	-0,066	-0,079
-201,592	-127,038	-0,127	0,013
-200,577	31,594	-0,053	0,032
-199,563	489,443	0,049	-0,079
-198,548	376,167	0,041	0,060
-197,533	800,000	0,083	0,197
-196,519	-200,000	0,006	0,045
-195,504	-200,000	0,006	-0,063
-194,490	800,000	-0,085	-0,185
-193,475	-65,899	-0,057	-0,016
-192,460	99,607	-0,055	0,045
-191,446	44,925	0,117	0,076
-190,431	159,236	-0,056	-0,055
-189,417	-37,337	-0,144	0,054
-188,402	7,966	0,026	-0,014
-187,387	-200,000	0,008	0,097
-186,373	-101,704	-0,112	0,019
-185,358	800,000	-0,061	-0,141
-184,344	-157,879	0,165	-0,007
-183,329	800,000	-0,055	0,116
-182,315	152,150	0,121	0,118
-181,300	-200,000	0,007	-0,059
-180,285	673,666	-0,061	-0,114
-179,271	115,038	-0,142	-0,123
-178,256	74,469	0,106	-0,079
-177,242	88,426	0,084	0,066
-176,227	283,216	0,054	0,069
-175,212	178,336	-0,058	0,061
-174,198	24,539	0,090	-0,053
-173,183	-137,478	-0,070	0,006
-172,169	391,764	-0,034	0,050
-171,154	492,096	0,040	-0,066
-170,139	-28,555	0,116	0,047
-169,125	272,648	-0,030	-0,038
-168,110	-200,000	0,002	-0,016
-167,096	250,358	0,085	0,102
-166,081	-200,000	0,006	-0,079
-165,066	-200,000	-0,011	0,037
-164,052	-149,665	-0,130	-0,007
-163,037	800,000	0,082	-0,174
-162,023	-200,000	0,015	-0,133
-161,008	-200,000	-0,006	-0,066
-159,993	-200,000	-0,003	0,021
-158,979	77,183	0,100	-0,076
-157,964	35,597	-0,011	-0,007
-156,950	261,496	0,065	0,080
-155,935	-200,000	-0,007	0,022
-154,920	-200,000	-0,031	0,140
-153,906	190,579	-0,044	0,047
-152,891	-136,246	-0,046	-0,004
-151,877	-168,414	-0,024	0,001
-150,862	41,463	-0,136	0,087
-149,847	800,000	0,030	-0,076
-148,833	25,192	0,060	0,035
-147,818	49,151	-0,030	-0,020
-146,804	673,081	0,036	0,067
-145,789	146,243	-0,038	-0,036
-144,775	800,000	0,022	-0,045
-143,760	-156,717	-0,015	-0,001
-142,745	75,554	-0,108	-0,081
-141,731	-200,000	-0,022	-0,173
-140,716	59,108	0,044	0,031
-139,702	131,018	0,112	0,102
-138,687	-200,000	-0,018	0,179
-137,672	-78,324	0,093	-0,023
-136,658	-91,974	-0,141	-0,028
-135,643	800,000	0,036	0,112
-134,629	-73,812	0,014	0,004
-133,614	73,225	0,024	0,018
-132,599	-4,576	-0,034	-0,017
-131,585	-37,180	0,045	0,017
-130,570	-200,000	0,027	-0,097
-129,556	304,280	0,072	0,095
-128,541	57,723	-0,065	-0,045
-127,526	-28,854	0,068	-0,027
-126,512	800,000	0,040	0,104
-125,497	-106,835	0,291	0,045
-124,483	-107,194	0,035	0,005
-123,468	-200,000	-0,016	-0,085
-122,453	-200,000	-0,008	0,061
-121,439	238,565	-0,079	0,094
-120,424	293,960	-0,081	0,105
-119,410	-200,000	0,037	0,123
-118,395	428,302	-0,031	0,048
-117,380	344,425	-0,047	0,065
-116,366	-200,000	0,013	-0,093
-115,351	-121,999	-0,125	0,014
-114,337	738,518	0,039	0,074
-113,322	-200,000	0,020	0,086
-112,307	800,000	0,029	0,087
-111,293	355,433	-0,019	-0,028
-110,278	-200,000	0,018	0,081
-109,264	131,161	0,058	-0,053
-108,249	367,051	-0,045	0,064
-107,234	328,428	-0,043	0,058
-106,220	-200,000	0,006	0,166
-105,205	-200,000	-0,006	-0,027
-104,191	-16,018	-0,072	0,032
-103,176	238,139	0,018	0,021
-102,162	115,002	0,077	-0,066
-101,147	-200,000	-0,007	-0,097
-100,132	-38,938	-0,022	0,008
-99,118	800,000	-0,010	0,030
-98,103	-200,000	-0,057	-0,189
-97,089	-60,481	-0,030	0,009
-96,074	-200,000	0,014	0,055
-95,059	-200,000	0,010	0,112
-94,045	-57,265	-0,095	-0,029
-93,030	729,517	0,047	-0,089
-92,016	-167,880	-0,283	0,008
-91,001	108,163	0,049	0,041
-89,986	777,019	-0,036	0,070
-88,972	-96,804	-0,045	-0,008
-87,957	-133,698	-0,070	-0,006
-86,943	20,644	-0,076	-0,043
-85,928	626,957	0,082	-0,147
-84,913	-35,615	0,038	-0,015
-83,899	-200,000	-0,003	-0,016
-82,884	181,904	0,101	0,105
-81,870	-35,369	0,053	0,020
-80,855	-140,332	-0,099	0,007
-79,840	-200,000	0,002	-0,026
-78,826	246,675	-0,084	-0,101
-77,811	429,519	0,043	-0,067
-76,797	136,120	0,046	0,043
-75,782	-102,375	0,127	0,021
-74,767	-200,000	0,020	0,238
-73,753	-71,010	0,125	0,033
-72,738	258,587	-0,023	-0,028
-71,724	-200,000	-0,035	0,120
-70,709	-200,000	0,013	0,061
-69,694	-39,701	0,031	-0,011
-68,680	139,406	0,057	0,053
-67,665	67,554	0,148	-0,107
-66,651	113,683	0,018	0,015
-65,636	42,783	-0,055	-0,035
-64,622	-108,989	-0,106	0,016
-63,607	800,000	-0,013	-0,032
-62,592	432,314	0,046	-0,070
-61,578	800,000	-0,048	0,101
-60,563	795,777	0,038	0,075
-59,549	-200,000	-0,006	0,053
-58,534	-23,539	-1,742	-0,737
-57,519	405,509	-1,432	-2,144
-56,505	-200,000	-0,412	-4,426
-55,490	212,405	0,972	1,086
-54,476	800,000	5,042	11,355
-53,461	-200,000	19,300	324,780
-52,446	-200,000	740,190	2337,165
-51,432	572,426	1651,803	2858,941
-50,417	77,901	1666,328	1255,499
-49,403	21,075	1539,578	881,385
-48,388	14,978	1461,970	807,405
-47,373	18,220	1452,731	817,890
-46,359	16,798	1442,230	805,150
-45,344	13,206	1437,770	785,481
-44,330	13,138	1435,840	784,069
-43,315	13,149	1434,178	783,186
-42,300	13,148	1432,567	782,270
-41,286	13,194	1431,219	781,721
-40,271	13,120	1429,857	780,596
-39,257	13,133	1428,615	779,948
-38,242	13,210	1427,361	779,597
-37,227	13,175	1426,119	778,719
-36,213	13,202	1424,717	778,055
-35,198	13,185	1423,663	777,365
-34,184	13,204	1422,705	776,903
-33,169	13,144	1421,352	775,849
-32,154	13,216	1420,189	775,525
-31,140	13,179	1418,963	774,650
-30,125	13,241	1417,942	774,352
-29,111	13,209	1417,016	773,666
-28,096	13,204	1415,567	772,820
-27,082	13,173	1414,668	772,153
-26,067	13,109	1413,748	771,319
-25,052	13,137	1412,619	770,803
-24,038	13,096	1411,714	770,087
-23,023	13,051	1410,711	769,297
-22,009	13,082	1409,700	768,859
-20,994	13,085	1408,632	768,261
-19,979	13,091	1408,054	767,947
-18,965	13,064	1406,805	767,107
-17,950	13,112	1405,787	766,745
-16,936	13,070	1404,979	766,078
-15,921	13,040	1403,991	765,372
-14,906	13,029	1403,142	764,823
-13,892	13,017	1402,116	764,179
-12,877	12,984	1401,507	763,662
-11,863	13,045	1400,452	763,341
-10,848	13,017	1399,471	762,647
-9,833	12,994	1398,740	762,112
-8,819	12,962	1397,795	761,418
-7,804	12,968	1396,943	760,952
-6,790	12,936	1396,019	760,268
-5,775	12,966	1394,626	759,618
-4,760	12,929	1393,762	758,947
-3,746	12,896	1393,021	758,363
-2,731	12,957	1392,033	758,077
-1,717	12,884	1391,512	757,425
-0,702	12,955	1389,051	756,382
0,313	16,883	1305,691	729,093
1,327	33,338	700,618	429,057
2,342	51,217	122,596	82,122
3,356	2,527	16,548	8,446
4,371	13,755	3,224	1,766
5,386	-51,503	0,707	0,232
6,400	-200,000	0,057	0,279
7,415	118,054	-0,272	-0,237
8,429	114,037	-0,240	-0,207
9,444	153,659	-0,269	-0,261
10,459	249,773	-0,173	-0,208
11,473	3,302	-0,304	-0,156
12,488	109,397	-0,219	-0,185
13,502	6,867	-0,368	-0,193
14,517	8,959	-0,321	-0,170
15,531	-24,772	-0,332	-0,139
16,546	277,324	-0,214	-0,269
17,561	126,205	-0,311	-0,277
18,575	-61,247	-0,204	-0,060
19,590	80,277	-0,311	-0,236
20,604	-50,199	-0,264	-0,088
21,619	-28,375	-0,413	-0,167
22,634	45,358	-0,413	-0,269
23,648	100,739	-0,376	-0,309
24,663	131,876	-0,338	-0,307
25,677	-140,311	-0,377	-0,027
26,692	23,902	-0,378	-0,219
27,707	37,591	-0,461	-0,288
28,721	136,697	-0,219	-0,202
29,736	16,798	-0,525	-0,292
30,750	136,265	-0,338	-0,311
31,765	61,800	-0,279	-0,196
32,780	86,814	-0,362	-0,281
33,794	102,039	-0,230	-0,190
34,809	-39,435	-0,389	-0,143
35,823	6,863	-0,457	-0,239
36,838	53,699	-0,359	-0,243
37,853	25,288	-0,335	-0,195
38,867	153,155	-0,359	-0,347
39,882	14,453	-0,411	-0,225
40,896	199,974	-0,250	-0,271
41,911	125,560	-0,263	-0,234
42,926	269,928	-0,198	-0,246
43,940	111,312	-0,382	-0,324
44,955	368,302	-0,234	-0,334
45,969	269,505	-0,202	-0,250
46,984	461,772	-0,241	-0,380
47,999	26,528	-0,286	-0,168
49,013	16,345	-0,237	-0,131
50,028	182,700	-0,286	-0,297
51,042	206,848	-0,279	-0,307
52,057	198,722	-0,269	-0,290
53,071	224,034	-0,261	-0,297
54,086	229,983	-0,246	-0,283
55,101	15,827	-0,360	-0,199
56,115	116,233	-0,319	-0,275
57,130	12,217	-0,368	-0,199
58,144	38,317	-0,371	-0,232
59,159	17,637	-0,437	-0,244
60,174	212,757	-0,362	-0,402
61,188	38,786	-0,433	-0,272
62,203	107,624	-0,339	-0,283
63,217	13,555	-0,321	-0,175
64,232	0,360	-0,417	-0,209
65,247	353,184	-0,255	-0,357
66,261	100,660	-0,434	-0,354
67,276	145,596	-0,379	-0,357
68,290	500,131	-0,276	-0,449
69,305	47,030	-0,295	-0,192
70,320	248,223	-0,270	-0,322
71,334	-147,758	-0,422	-0,024
72,349	-53,253	-0,383	-0,123
73,363	120,123	-0,256	-0,223
74,378	15,792	-0,387	-0,213
75,393	133,402	-0,275	-0,250
76,407	-37,604	-0,315	-0,117
77,422	34,504	-0,277	-0,169
78,436	27,376	-0,353	-0,208
79,451	18,055	-0,360	-0,201
80,466	-21,227	-0,416	-0,178
81,480	199,556	-0,264	-0,284
82,495	140,869	-0,282	-0,262
83,509	-49,489	-0,401	-0,133
84,524	20,053	-0,181	-0,102
85,539	-93,663	-0,221	-0,042
86,553	101,804	-0,251	-0,206
87,568	67,036	-0,438	-0,313
88,582	-80,889	-0,358	-0,083
89,597	-128,706	-0,253	-0,025
90,611	-3,968	-0,231	-0,112
91,626	-52,302	-0,326	-0,105
92,641	23,023	-0,248	-0,143
93,655	112,131	-0,326	-0,276
94,670	272,162	-0,207	-0,256
95,684	81,246	-0,210	-0,159
96,699	-0,278	-0,354	-0,176
97,714	248,361	-0,165	-0,197
98,728	-45,910	-0,307	-0,106
99,743	-97,966	-0,272	-0,049
100,757	-133,169	-0,304	-0,027
101,772	142,027	-0,255	-0,237
102,787	-161,060	-0,364	0,013
103,801	48,355	-0,260	-0,170
104,816	77,082	-0,332	-0,247
105,830	124,403	-0,137	-0,120
106,845	-71,168	-0,259	-0,068
107,860	-7,385	-0,175	0,083
108,874	-26,289	-0,400	-0,164
109,889	170,017	-0,248	-0,248
110,903	160,227	-0,307	-0,300
111,918	40,261	-0,278	-0,175
112,933	-49,954	-0,323	-0,107
113,947	25,431	-0,137	-0,079
114,962	24,553	-0,175	-0,101
115,976	48,196	-0,314	-0,206
116,991	72,490	-0,292	-0,213
118,006	31,167	-0,414	-0,248
119,020	737,113	-0,093	-0,174
120,035	119,688	-0,233	-0,202
121,049	-65,402	-0,280	-0,078
122,064	-67,682	-0,305	-0,083
123,079	-47,861	-0,300	-0,101
124,093	242,587	-0,216	-0,254
125,108	-41,061	-0,223	-0,080
126,122	79,307	-0,319	-0,239
127,137	22,264	-0,316	-0,180
128,151	43,422	-0,202	-0,129
129,166	97,141	-0,259	-0,208
130,181	19,208	-0,315	-0,176
131,195	173,890	-0,260	-0,263
132,210	800,000	-0,115	-0,225
133,224	208,797	-0,168	-0,184
134,239	204,484	-0,301	-0,327
135,254	117,185	-0,163	-0,140
136,268	5,472	-0,327	-0,168
137,283	120,073	-0,170	-0,147
138,297	27,067	-0,300	-0,176
139,312	291,651	-0,242	-0,309
140,327	608,164	-0,155	-0,271
141,341	-45,349	-0,139	-0,048
142,356	45,704	-0,142	-0,091
143,370	-70,207	-0,296	-0,078
144,385	23,652	-0,275	-0,158
145,400	87,921	-0,267	-0,207
146,414	253,831	-0,170	-0,203
147,429	-67,155	-0,372	-0,102
148,443	-148,134	-0,289	-0,016
149,458	103,192	-0,192	-0,157
150,473	-82,977	-0,232	-0,052
151,487	-4,296	-0,251	-0,121
152,502	-34,236	-0,328	-0,125
153,516	129,940	-0,223	-0,199
154,531	192,380	-0,162	-0,170
155,546	112,594	-0,239	-0,202
156,560	-92,018	-0,129	-0,025
157,575	-31,488	-0,207	-0,081
158,589	17,258	-0,227	-0,126
159,604	-56,878	-0,227	-0,070
160,619	75,079	-0,330	-0,242
161,633	178,949	-0,253	-0,258
162,648	28,818	-0,206	-0,121
163,662	-3,669	-0,302	-0,146
164,677	73,940	-0,121	-0,088
165,692	-64,067	-0,191	-0,054
166,706	93,009	-0,189	-0,149
167,721	-89,346	-0,379	-0,077
168,735	59,257	-0,272	-0,186
169,750	302,187	-0,163	-0,210
170,764	80,531	-0,160	-0,120
171,779	-127,992	-0,298	-0,029
172,794	255,108	-0,332	-0,397
173,808	2,968	-0,221	-0,111
174,823	262,829	-0,288	-0,349
175,837	-6,644	-0,283	-0,134
176,852	109,265	-0,269	-0,224
177,867	-200,000	-0,045	-0,147
178,881	56,373	-0,178	-0,120
179,896	118,591	-0,137	-0,117
180,910	216,870	-0,160	-0,178
181,925	233,839	-0,285	-0,327
182,940	-63,283	-0,213	-0,061
183,954	101,113	-0,244	-0,197
184,969	-23,804	-0,259	-0,107
185,983	800,000	-0,062	-0,132
186,998	-45,181	-0,281	-0,097
188,013	1,906	-0,232	-0,116
189,027	80,069	-0,211	-0,157
190,042	-104,502	-0,241	-0,038
191,056	800,000	-0,078	-0,212
192,071	164,909	-0,196	-0,193
193,086	-200,000	-0,038	-0,223
194,100	-52,714	-0,254	-0,081
195,115	-200,000	-0,045	-0,154
196,129	21,891	-0,176	-0,099
197,144	17,432	-0,185	-0,102
198,159	-37,107	-0,208	-0,077
199,173	-82,490	-0,146	-0,033
200,188	214,971	-0,081	-0,090
201,202	12,195	-0,161	-0,086
202,217	-100,301	-0,163	0,028
203,232	514,600	-0,123	-0,201
204,246	432,972	-0,169	-0,256
205,261	-12,707	-0,206	-0,093
206,275	585,381	-0,105	-0,180
207,290	-86,509	-0,158	-0,033
208,304	22,568	-0,151	-0,085
209,319	33,752	-0,123	-0,074
210,334	-124,424	-0,292	-0,031
211,348	538,333	-0,143	-0,237
212,363	230,873	-0,179	-0,204
213,377	111,561	-0,327	-0,274
214,392	-94,039	-0,124	-0,023
215,407	-136,720	-0,267	-0,021
216,421	73,919	-0,210	-0,152
217,436	16,066	-0,077	-0,042
218,450	95,060	-0,292	-0,230
219,465	57,723	-0,227	-0,154
220,480	800,000	-0,108	-0,249
221,494	553,415	-0,068	-0,113
222,509	-88,924	-0,180	-0,037
223,523	73,130	-0,179	-0,130
224,538	133,675	-0,209	-0,187
225,553	-56,829	-0,195	-0,059
226,567	176,127	-0,357	-0,360
227,582	423,059	-0,151	-0,226
228,596	-83,988	-0,201	-0,044
229,611	516,148	-0,108	-0,175
230,626	-82,983	-0,147	-0,033
231,640	49,856	-0,126	-0,082
232,655	575,957	-0,114	-0,193
233,669	34,314	-0,266	-0,161
234,684	28,809	-0,277	-0,162
235,699	46,140	-0,175	-0,112
236,713	75,699	-0,210	-0,154
237,728	-91,874	-0,257	-0,050
238,742	-99,379	-0,173	-0,030
239,757	4,949	-0,264	-0,134
240,772	129,148	-0,238	-0,210
241,786	-92,577	-0,249	-0,048
242,801	369,471	-0,115	-0,161
243,815	85,620	-0,220	-0,167
244,830	-71,310	-0,183	-0,047
245,844	-85,400	-0,255	-0,055
246,859	606,744	-0,152	-0,264
247,874	112,921	-0,220	-0,185
248,888	6,975	-0,221	-0,113
249,903	98,225	-0,189	-0,150
250,917	800,000	-0,073	-0,169
251,932	-38,095	-0,140	-0,051
252,947	-13,169	-0,246	-0,110
253,961	129,809	-0,157	-0,139
254,976	603,969	-0,131	-0,227
255,990	-67,263	-0,231	-0,062
257,005	800,000	-0,085	-0,227
258,020	-70,337	-0,334	-0,087
259,034	-36,459	-0,156	-0,058
260,049	331,968	-0,130	-0,174
261,063	102,373	-0,131	-0,105
262,078	800,000	-0,074	-0,183
263,093	-40,042	-0,300	-0,107
264,107	-169,176	-0,301	0,008
265,122	257,665	-0,185	-0,220
266,136	120,611	-0,181	-0,155
267,151	-68,995	-0,198	-0,052
268,166	567,558	-0,092	-0,155
269,180	205,771	-0,191	-0,205
270,195	261,590	-0,141	-0,169
271,209	335,651	-0,196	-0,264
272,224	-200,000	0,023	-0,161
273,239	78,615	-0,089	-0,066
274,253	-41,439	-0,170	0,060
275,268	-153,740	-0,252	-0,012
276,282	126,907	-0,265	-0,232
277,297	152,093	-0,221	-0,208
278,312	-36,073	-0,150	-0,056
279,326	741,954	-0,144	-0,269
280,341	210,288	-0,106	-0,115
281,355	-104,408	-0,248	0,039
282,370	8,417	-0,164	-0,085
283,384	-155,494	-0,191	-0,008
284,399	193,106	-0,141	-0,147
285,414	-120,964	-0,261	-0,030
286,428	-200,000	0,012	-0,189
287,443	98,261	-0,122	-0,097
288,457	-27,712	-0,141	-0,056
289,472	-41,586	-0,016	-0,006
290,487	273,027	-0,228	-0,279
291,501	-2,171	-0,255	-0,123
292,516	26,782	-0,231	-0,133
293,530	18,256	-0,225	-0,124
294,545	82,030	-0,141	0,105
295,560	266,328	-0,087	0,105
296,574	-66,875	-0,129	-0,035
297,589	-14,391	-0,169	-0,075
298,603	-82,188	-0,216	-0,048
299,618	-2,847	-0,223	-0,107
300,633	733,679	-0,057	-0,105
301,647	-200,000	-0,035	-0,211
302,662	5,948	-0,128	-0,065
303,676	206,242	-0,144	-0,154
304,691	314,586	-0,132	-0,172
305,706	265,520	-0,139	-0,167
306,720	239,947	-0,111	-0,127
307,735	205,838	-0,071	-0,076
308,749	266,148	-0,108	-0,130
309,764	-36,685	-0,120	-0,044
310,779	348,419	-0,060	-0,081
311,793	171,994	-0,134	-0,133
312,808	234,329	-0,178	-0,202
313,822	-47,206	-0,218	-0,073
314,837	597,683	-0,075	-0,128
315,852	-81,023	-0,188	-0,042
316,866	37,964	-0,143	0,087
317,881	-53,601	-0,112	-0,035
318,895	236,137	-0,131	-0,149
319,910	229,897	-0,144	-0,162
320,925	23,520	-0,152	-0,086
321,939	-102,037	-0,228	-0,037
322,954	279,606	-0,097	-0,120
323,968	458,508	0,025	0,039
324,983	-18,024	-0,282	0,121
325,997	-116,780	-0,122	-0,015
327,012	21,299	-0,209	-0,116
328,027	303,829	-0,096	-0,123
329,041	-68,863	-0,129	-0,034
330,056	129,753	-0,223	-0,196
331,070	-124,135	-0,149	-0,016
332,085	800,000	-0,095	-0,216
333,100	-181,686	-0,175	0,002
334,114	269,978	-0,109	-0,132
335,129	282,756	-0,145	-0,179
336,143	-81,124	-0,109	-0,025
337,158	235,461	-0,135	-0,153
338,173	198,172	-0,098	-0,103
339,187	-66,407	-0,074	0,020
340,202	170,170	-0,154	-0,151
341,216	351,980	-0,176	-0,239
342,231	71,154	-0,122	-0,087
343,246	-200,000	-0,053	-0,204
344,260	179,007	-0,143	-0,144
345,275	-46,714	-0,150	-0,050
346,289	800,000	-0,062	-0,143
347,304	-200,000	-0,018	0,068
348,319	577,211	-0,119	-0,200
349,333	-11,780	-0,180	-0,081
350,348	346,524	-0,099	-0,134
351,362	800,000	0,038	0,077
352,377	194,893	-0,169	-0,176
353,392	514,850	-0,050	-0,080
354,406	186,585	-0,086	-0,088
355,421	205,670	1313,158	1400,909
356,435	158,144	1473,688	1401,415
