DTS Sentinel unit serial number:	SN410029Multiplexer serial number:	ORYXHardware model number:	OX2-SRSoftware version number:	ORYX F/W v4,00 Oryx Data Collector v3.7.2.0data status	okinstallation	B3 Nyhavnadifferential loss correction	single-endedforward channel	channel 1reverse channel	N/Adate	2023/11/29time	16:57:30forward acquisition time	300,00reverse acquisition time	0,00gamma	499,1914k internal	0,3209k external	0,3209temperature offset calibration	1,0000default loss term (dB/km)	0,3820temperature slope calibration	1,0000multiplexer offset coefficient	1,0000multiplexer slope coefficient	1,0000fibre end	0,00T internal ref (°C)	11,39T ext. ref 1 (°C)	-3,82T ext. ref 2 (°C)	-3,96length (m)	temperature (°C)	Stokes	anti-Stokes-744,400	404,943	-0,243	-0,373
-743,385	800,000	0,078	0,181
-742,371	45,682	-0,229	-0,154
-741,356	-200,000	-0,063	0,361
-740,342	453,489	-0,139	-0,224
-739,327	-200,000	-0,049	0,274
-738,312	245,842	-0,211	-0,258
-737,298	602,393	-0,109	0,198
-736,283	243,533	-0,260	-0,317
-735,269	-200,000	0,051	0,306
-734,254	125,581	-0,092	-0,084
-733,239	-135,269	-0,177	0,015
-732,225	-200,000	-0,071	-0,301
-731,210	-200,000	0,039	0,124
-730,196	42,368	0,056	0,037
-729,181	-200,000	-0,001	-0,011
-728,167	-200,000	-0,002	-0,064
-727,152	724,551	0,044	0,086
-726,137	-32,202	-0,122	0,049
-725,123	-25,452	-0,088	-0,038
-724,108	-200,000	0,001	-0,048
-723,094	653,180	-0,062	-0,116
-722,079	159,937	-0,021	0,021
-721,064	-124,700	0,118	0,013
-720,050	139,671	-0,095	-0,091
-719,035	290,477	0,056	-0,074
-718,021	591,484	0,122	-0,220
-717,006	143,375	-0,154	-0,148
-715,991	270,579	-0,111	-0,142
-714,977	-99,412	-0,093	0,017
-713,962	57,486	-0,085	0,060
-712,948	-39,287	0,141	-0,053
-711,933	800,000	0,039	-0,114
-710,918	-200,000	0,010	0,095
-709,904	263,211	-0,116	-0,146
-708,889	49,903	-0,102	-0,070
-707,875	288,075	-0,042	-0,056
-706,860	-17,983	0,067	-0,030
-705,845	-16,116	-0,150	-0,069
-704,831	-33,055	-0,058	0,023
-703,816	-49,556	0,059	0,020
-702,802	26,588	-0,106	0,064
-701,787	279,552	-0,094	0,121
-700,772	73,502	0,081	-0,061
-699,758	-142,832	0,107	0,007
-698,743	83,470	0,082	-0,064
-697,729	-200,000	-0,018	-0,154
-696,714	800,000	-0,050	0,152
-695,699	-200,000	0,044	-0,178
-694,685	-200,000	0,000	-0,054
-693,670	-200,000	-0,012	-0,116
-692,656	-200,000	-0,007	-0,098
-691,641	107,230	0,061	-0,052
-690,627	13,022	-0,083	-0,047
-689,612	-98,476	0,117	-0,021
-688,597	-200,000	0,017	-0,066
-687,583	517,505	-0,053	-0,090
-686,568	193,276	-0,069	-0,076
-685,554	-168,379	0,011	0,000
-684,539	80,147	0,126	-0,098
-683,524	-64,737	0,129	0,037
-682,510	-200,000	-0,006	0,045
-681,495	-67,446	0,050	-0,014
-680,481	173,610	-0,059	-0,062
-679,466	251,169	-0,056	-0,069
-678,451	76,024	-0,052	-0,040
-677,437	-29,379	-0,068	0,028
-676,422	-129,153	0,174	0,017
-675,408	800,000	-0,030	0,067
-674,393	-125,801	-0,196	-0,021
-673,378	174,231	-0,122	0,128
-672,364	-116,220	-0,090	-0,012
-671,349	-200,000	-0,040	0,161
-670,335	147,149	-0,088	-0,086
-669,320	68,807	0,090	0,067
-668,305	-78,430	0,060	0,015
-667,291	446,279	0,055	0,088
-666,276	-72,899	0,021	0,006
-665,262	-124,271	-0,066	0,007
-664,247	661,922	-0,047	-0,089
-663,232	288,021	0,011	-0,014
-662,218	169,814	-0,064	0,066
-661,203	800,000	-0,031	-0,074
-660,189	744,342	-0,031	-0,061
-659,174	800,000	-0,029	0,061
-658,159	780,639	-0,068	0,135
-657,145	-90,566	0,157	0,032
-656,130	-200,000	-0,001	-0,058
-655,116	-29,145	0,057	-0,023
-654,101	800,000	-0,027	-0,077
-653,086	-131,192	-0,112	-0,011
-652,072	612,731	-0,049	-0,089
-651,057	-188,241	-0,111	-0,001
-650,043	800,000	0,030	-0,088
-649,028	-200,000	0,010	0,116
-648,014	-82,800	0,169	0,039
-646,999	190,717	0,024	-0,027
-645,984	46,731	-0,043	0,029
-644,970	-117,864	0,040	-0,005
-643,955	310,637	-0,057	-0,077
-642,941	479,904	-0,035	0,057
-641,926	289,195	0,110	0,144
-640,911	-200,000	0,018	0,061
-639,897	-122,259	0,060	0,007
-638,882	-71,018	0,030	-0,008
-637,868	-200,000	0,027	-0,179
-636,853	81,094	-0,067	-0,053
-635,838	50,275	-0,049	0,033
-634,824	205,217	0,009	-0,010
-633,809	-200,000	0,011	-0,048
-632,795	16,133	0,021	0,012
-631,780	206,041	-0,087	0,098
-630,765	28,268	-0,090	0,055
-629,751	-200,000	-0,004	-0,054
-628,736	-47,988	-0,266	-0,092
-627,722	-200,000	-0,004	0,103
-626,707	-200,000	0,006	-0,073
-625,692	231,243	-0,055	0,065
-624,678	61,957	-0,073	0,052
-623,663	800,000	0,086	-0,174
-622,649	-200,000	-0,007	-0,119
-621,634	333,303	-0,064	0,090
-620,619	236,482	0,044	-0,052
-619,605	121,598	0,068	-0,061
-618,590	96,934	-0,065	-0,054
-617,576	800,000	0,042	0,113
-616,561	-98,511	0,017	-0,003
-615,546	336,772	-0,048	0,068
-614,532	479,179	-0,016	-0,026
-613,517	800,000	0,041	-0,124
-612,503	600,907	0,015	0,026
-611,488	87,029	-0,138	0,110
-610,474	229,183	-0,052	0,061
-609,459	121,638	0,047	0,043
-608,444	-67,135	-0,033	-0,009
-607,430	800,000	-0,053	0,119
-606,415	-85,670	0,047	-0,010
-605,401	-200,000	-0,011	-0,078
-604,386	800,000	-0,016	0,033
-603,371	170,412	0,045	0,047
-602,357	174,915	-0,083	0,087
-601,342	800,000	0,026	-0,072
-600,328	166,886	-0,073	-0,074
-599,313	800,000	-0,056	-0,139
-598,298	-8,591	0,099	0,048
-597,284	800,000	-0,033	0,096
-596,269	242,011	0,045	-0,055
-595,255	66,101	-0,068	-0,049
-594,240	-72,822	-0,100	0,026
-593,225	158,144	-0,090	-0,090
-592,211	-200,000	0,016	-0,071
-591,196	183,508	0,026	-0,028
-590,182	530,563	-0,070	-0,120
-589,167	-200,000	-0,008	0,078
-588,152	-200,000	0,004	0,046
-587,138	-200,000	0,015	0,067
-586,123	110,824	-0,060	0,052
-585,109	233,376	0,068	-0,081
-584,094	69,454	0,012	0,009
-583,079	-88,541	0,096	0,021
-582,065	-200,000	-0,021	0,136
-581,050	210,922	0,030	0,034
-580,036	-200,000	-0,023	0,096
-579,021	96,155	0,105	0,087
-578,006	-128,580	-0,118	0,012
-576,992	-176,969	0,022	-0,000
-575,977	318,632	0,064	-0,087
-574,963	-117,030	-0,063	-0,008
-573,948	20,758	-0,012	-0,007
-572,934	-5,686	-0,120	0,059
-571,919	-200,000	-0,004	0,138
-570,904	800,000	0,029	0,061
-569,890	320,535	-0,023	-0,031
-568,875	800,000	-0,020	0,049
-567,861	-56,394	0,117	-0,037
-566,846	-141,105	-0,099	0,007
-565,831	379,605	-0,041	-0,061
-564,817	-33,970	-0,036	0,014
-563,802	800,000	-0,062	-0,157
-562,788	-200,000	-0,021	0,081
-561,773	-56,508	0,128	0,041
-560,758	55,297	-0,032	0,023
-559,744	-106,894	0,100	0,016
-558,729	-85,778	-0,083	-0,018
-557,715	-200,000	0,003	-0,030
-556,700	-200,000	0,032	-0,137
-555,685	-106,633	-0,123	-0,019
-554,671	-200,000	-0,013	-0,117
-553,656	175,620	0,044	0,046
-552,642	-22,199	-0,021	0,009
-551,627	63,332	-0,038	0,027
-550,612	-60,132	-0,066	-0,020
-549,598	800,000	0,038	0,096
-548,583	202,707	-0,050	-0,056
-547,569	-12,452	0,051	-0,024
-546,554	800,000	-0,038	-0,094
-545,539	601,844	0,060	0,108
-544,525	-200,000	-0,014	-0,063
-543,510	7,097	0,061	0,033
-542,496	-200,000	-0,003	0,023
-541,481	-155,890	-0,168	-0,008
-540,466	800,000	0,049	0,131
-539,452	40,556	0,086	0,056
-538,437	-200,000	0,013	0,071
-537,423	5,707	0,073	0,039
-536,408	800,000	0,027	-0,079
-535,393	268,547	0,062	-0,079
-534,379	-150,753	0,121	0,007
-533,364	-200,000	0,048	-0,177
-532,350	327,161	0,071	-0,098
-531,335	-140,466	-0,056	-0,004
-530,321	108,763	0,097	0,083
-529,306	800,000	-0,033	0,102
-528,291	300,274	0,065	-0,086
-527,277	-200,000	0,010	0,095
-526,262	-33,972	0,040	-0,016
-525,248	-42,806	0,152	-0,055
-524,233	242,994	-0,059	0,071
-523,218	-154,675	0,154	-0,007
-522,204	-200,000	-0,002	0,008
-521,189	433,136	-0,054	-0,084
-520,175	-200,000	0,004	-0,088
-519,160	-200,000	0,010	0,088
-518,145	-200,000	0,009	0,040
-517,131	-200,000	0,004	-0,013
-516,116	-108,489	0,080	-0,012
-515,102	36,221	0,051	0,032
-514,087	428,189	-0,131	-0,203
-513,072	-40,628	-0,126	-0,047
-512,058	9,547	-0,157	0,085
-511,043	-200,000	-0,010	0,042
-510,029	109,874	0,052	0,045
-509,014	172,961	-0,072	-0,075
-507,999	-200,000	-0,008	0,230
-506,985	171,986	0,057	-0,059
-505,970	-200,000	0,024	-0,099
-504,956	281,332	-0,079	0,101
-503,941	800,000	-0,040	0,083
-502,926	392,248	-0,025	0,038
-501,912	524,275	0,062	0,105
-500,897	59,621	0,056	0,040
-499,883	800,000	0,051	0,133
-498,868	-200,000	0,022	-0,171
-497,853	-100,970	0,098	0,017
-496,839	800,000	0,017	0,052
-495,824	682,304	0,076	0,142
-494,810	99,177	0,102	-0,085
-493,795	420,836	-0,064	-0,099
-492,781	-22,420	0,055	-0,024
-491,766	187,657	-0,119	0,128
-490,751	-15,771	-0,095	-0,043
-489,737	-61,997	-0,074	-0,022
-488,722	188,703	0,060	0,065
-487,708	-7,109	0,098	-0,047
-486,693	59,406	0,042	0,030
-485,678	769,906	-0,010	0,021
-484,664	90,405	0,101	-0,081
-483,649	-113,014	-0,117	0,016
-482,635	264,109	0,029	-0,036
-481,620	576,663	0,084	0,147
-480,605	169,196	-0,117	0,120
-479,591	-9,276	-0,038	-0,018
-478,576	800,000	-0,033	-0,072
-477,562	-19,820	0,083	-0,037
-476,547	364,006	-0,052	-0,075
-475,532	-108,742	0,056	0,009
-474,518	-200,000	0,014	0,076
-473,503	-147,804	0,107	0,006
-472,489	161,869	-0,019	0,019
-471,474	-155,095	0,066	0,003
-470,459	433,076	-0,076	-0,119
-469,445	187,748	0,024	-0,026
-468,430	-200,000	0,023	0,107
-467,416	-80,649	-0,071	-0,017
-466,401	-179,054	0,047	0,001
-465,386	709,006	-0,071	0,135
-464,372	-183,085	0,155	0,002
-463,357	-58,663	0,030	-0,009
-462,343	800,000	-0,045	-0,142
-461,328	237,435	0,026	-0,031
-460,313	-130,329	-0,172	-0,017
-459,299	800,000	0,014	0,028
-458,284	-200,000	-0,008	-0,082
-457,270	800,000	0,033	-0,089
-456,255	-36,177	-0,050	0,019
-455,241	-43,161	-0,055	-0,020
-454,226	-16,212	0,048	-0,022
-453,211	-200,000	-0,002	-0,102
-452,197	9,748	0,053	0,028
-451,182	800,000	-0,074	0,230
-450,168	-200,000	-0,001	0,051
-449,153	-200,000	0,006	-0,071
-448,138	325,665	-0,082	0,112
-447,124	-200,000	0,008	0,083
-446,109	746,976	-0,019	-0,036
-445,095	-8,550	-0,030	0,015
-444,080	-47,244	0,077	0,027
-443,065	130,222	0,075	-0,069
-442,051	753,080	0,041	-0,080
-441,036	-200,000	-0,023	-0,139
-440,022	178,202	0,054	-0,057
-439,007	247,949	0,022	0,026
-437,992	-27,598	-0,178	-0,074
-436,978	-170,351	0,111	0,003
-435,963	-36,983	0,108	-0,041
-434,949	-30,647	-0,059	0,024
-433,934	800,000	-0,011	-0,027
-432,919	366,639	-0,075	-0,109
-431,905	-200,000	-0,003	-0,035
-430,890	257,243	0,097	0,119
-429,876	-62,487	0,018	-0,005
-428,861	-141,620	0,117	0,008
-427,846	11,315	0,122	0,066
-426,832	800,000	0,072	-0,144
-425,817	-8,449	-0,066	-0,031
-424,803	-16,942	-0,109	-0,049
-423,788	90,041	0,051	-0,041
-422,773	-200,000	0,017	0,085
-421,759	800,000	0,048	0,100
-420,744	800,000	0,024	-0,071
-419,730	-50,175	-0,156	0,053
-418,715	557,622	-0,043	0,074
-417,701	232,727	0,031	-0,036
-416,686	-27,107	-0,015	0,006
-415,671	135,519	0,051	-0,048
-414,657	-200,000	-0,028	0,094
-413,642	-200,000	-0,004	0,209
-412,628	-75,849	-0,121	0,030
-411,613	-160,185	-0,138	0,005
-410,598	633,431	0,037	-0,068
-409,584	-160,945	0,119	0,004
-408,569	84,449	0,126	0,099
-407,555	452,345	0,024	-0,038
-406,540	800,000	0,037	0,080
-405,525	-200,000	0,006	0,129
-404,511	184,837	-0,027	0,028
-403,496	247,365	0,064	-0,077
-402,482	-59,345	-0,066	-0,020
-401,467	-147,394	0,127	-0,008
-400,452	-95,516	-0,085	0,016
-399,438	-63,303	-0,056	-0,016
-398,423	520,555	-0,046	-0,078
-397,409	800,000	0,033	0,092
-396,394	800,000	-0,036	0,088
-395,379	-200,000	0,020	-0,071
-394,365	96,192	-0,094	0,077
-393,350	161,702	-0,085	0,085
-392,336	103,876	-0,060	0,050
-391,321	800,000	-0,008	-0,022
-390,306	201,044	-0,173	-0,191
-389,292	-200,000	-0,028	-0,090
-388,277	8,553	0,073	-0,039
-387,263	28,794	0,091	-0,055
-386,248	-124,444	0,084	0,009
-385,233	-200,000	0,000	-0,029
-384,219	592,047	0,011	0,020
-383,204	-87,656	0,065	-0,014
-382,190	-200,000	-0,006	-0,191
-381,175	-200,000	0,005	0,016
-380,160	252,019	0,086	0,105
-379,146	-122,309	0,148	0,017
-378,131	267,219	0,088	0,111
-377,117	167,576	0,105	-0,106
-376,102	-60,100	0,037	-0,011
-375,088	-200,000	0,020	-0,187
-374,073	-39,145	-0,086	-0,032
-373,058	800,000	0,033	-0,074
-372,044	44,991	0,095	0,063
-371,029	-200,000	-0,004	0,099
-370,015	-86,246	0,029	-0,006
-369,000	-23,125	0,060	0,026
-367,985	293,803	0,008	-0,011
-366,971	168,645	-0,079	-0,080
-365,956	49,932	0,172	0,116
-364,942	26,185	0,019	-0,011
-363,927	110,759	0,067	0,058
-362,912	-200,000	0,014	-0,052
-361,898	293,376	-0,103	-0,134
-360,883	-200,000	0,019	-0,181
-359,869	607,330	0,057	-0,103
-358,854	571,830	-0,029	-0,050
-357,839	800,000	-0,033	0,096
-356,825	-89,548	-0,073	0,015
-355,810	342,748	-0,027	0,037
-354,796	73,664	0,042	-0,031
-353,781	42,965	-0,150	-0,098
-352,766	-200,000	-0,023	-0,112
-351,752	-7,683	-0,056	-0,027
-350,737	105,485	0,055	-0,046
-349,723	-200,000	0,017	0,073
-348,708	17,401	-0,080	-0,045
-347,693	800,000	0,038	-0,106
-346,679	-200,000	0,018	-0,082
-345,664	278,259	-0,073	-0,093
-344,650	-97,662	-0,026	0,005
-343,635	-60,061	0,234	-0,071
-342,620	-200,000	-0,011	-0,064
-341,606	18,393	-0,038	-0,022
-340,591	-200,000	0,007	-0,156
-339,577	419,656	-0,042	-0,065
-338,562	-200,000	0,037	-0,118
-337,548	-200,000	-0,001	-0,013
-336,533	-35,776	0,078	-0,030
-335,518	128,665	0,091	0,083
-334,504	-200,000	-0,023	0,235
-333,489	65,023	-0,125	0,090
-332,475	284,439	-0,067	-0,086
-331,460	-25,953	0,073	-0,030
-330,445	-60,223	-0,087	0,026
-329,431	699,775	0,056	-0,106
-328,416	80,430	-0,100	0,077
-327,402	-200,000	-0,013	-0,046
-326,387	10,812	-0,042	-0,023
-325,372	102,855	0,050	0,042
-324,358	325,257	-0,054	-0,074
-323,343	-200,000	-0,007	0,041
-322,329	-145,950	-0,035	-0,002
-321,314	-53,510	0,204	0,066
-320,299	552,091	-0,023	-0,040
-319,285	800,000	-0,074	-0,167
-318,270	-200,000	0,022	-0,225
-317,256	-120,689	-0,186	-0,022
-316,241	42,670	-0,162	-0,105
-315,226	-200,000	0,003	0,214
-314,212	-200,000	-0,060	0,225
-313,197	-200,000	-0,006	0,070
-312,183	-112,039	-0,026	-0,004
-311,168	-78,385	-0,058	0,014
-310,153	800,000	0,047	-0,124
-309,139	800,000	-0,032	-0,100
-308,124	-127,728	0,149	-0,015
-307,110	79,539	0,035	-0,027
-306,095	800,000	0,015	0,039
-305,080	-200,000	0,032	0,133
-304,066	800,000	0,037	-0,091
-303,051	-45,103	-0,137	0,048
-302,037	800,000	-0,043	0,130
-301,022	-200,000	0,001	-0,044
-300,008	-200,000	-0,035	0,142
-298,993	-68,085	-0,082	0,022
-297,978	-200,000	-0,010	0,043
-296,964	-137,824	0,059	-0,005
-295,949	-200,000	0,013	-0,118
-294,935	-200,000	0,006	-0,142
-293,920	-200,000	-0,031	-0,147
-292,905	-58,919	0,142	0,044
-291,891	-200,000	-0,017	0,151
-290,876	-200,000	-0,007	-0,107
-289,862	-200,000	0,006	0,021
-288,847	-200,000	-0,051	-0,199
-287,832	198,220	0,018	-0,019
-286,818	122,121	-0,054	0,048
-285,803	-200,000	0,006	0,087
-284,789	150,914	0,066	-0,064
-283,774	89,017	-0,030	0,024
-282,759	800,000	-0,060	-0,131
-281,745	121,137	0,056	-0,049
-280,730	-130,016	-0,040	-0,004
-279,716	-173,624	0,058	-0,001
-278,701	800,000	-0,026	0,062
-277,686	367,075	0,114	0,164
-276,672	-200,000	0,018	0,071
-275,657	648,410	0,067	0,123
-274,643	-61,835	-0,018	0,005
-273,628	800,000	-0,054	-0,170
-272,613	-78,813	-0,145	-0,035
-271,599	800,000	-0,039	-0,094
-270,584	42,172	0,016	-0,010
-269,570	-112,466	0,013	0,002
-268,555	273,092	-0,074	0,094
-267,540	15,483	-0,041	0,023
-266,526	800,000	-0,039	-0,079
-265,511	-200,000	-0,015	-0,098
-264,497	-33,217	0,084	-0,033
-263,482	-157,288	-0,031	-0,001
-262,467	800,000	-0,043	-0,112
-261,453	-200,000	-0,029	0,150
-260,438	800,000	0,064	0,147
-259,424	-172,905	-0,056	-0,001
-258,409	-57,856	0,092	-0,028
-257,395	-200,000	-0,001	-0,011
-256,380	146,510	-0,081	0,078
-255,365	-39,454	0,056	0,021
-254,351	52,607	-0,077	0,052
-253,336	108,797	-0,077	-0,065
-252,322	465,315	-0,021	-0,033
-251,307	51,576	-0,090	-0,061
-250,292	-85,086	0,156	-0,035
-249,278	-200,000	0,018	0,074
-248,263	800,000	0,068	0,144
-247,249	31,810	-0,043	-0,027
-246,234	-69,819	-0,083	-0,022
-245,219	174,785	-0,060	0,062
-244,205	364,586	-0,074	0,107
-243,190	-200,000	-0,004	0,034
-242,176	409,226	0,034	0,051
-241,161	-200,000	0,023	0,176
-240,146	551,983	-0,060	0,102
-239,132	-200,000	0,032	0,167
-238,117	139,452	-0,040	0,038
-237,103	6,386	0,061	-0,032
-236,088	51,967	-0,057	0,038
-235,073	800,000	-0,028	0,073
-234,059	190,862	-0,034	0,037
-233,044	362,737	0,031	0,045
-232,030	-44,962	0,176	-0,062
-231,015	-41,558	-0,109	-0,040
-230,000	-155,314	-0,067	0,003
-228,986	-12,868	0,051	0,024
-227,971	375,972	-0,015	-0,021
-226,957	750,244	-0,027	-0,052
-225,942	20,065	-0,030	-0,017
-224,927	566,577	-0,063	0,109
-223,913	-200,000	0,009	-0,120
-222,898	216,416	0,041	-0,046
-221,884	158,416	-0,095	-0,094
-220,869	16,355	0,066	0,037
-219,855	0,473	0,010	-0,005
-218,840	151,409	0,036	0,035
-217,825	-187,463	0,085	0,001
-216,811	-200,000	-0,003	-0,013
-215,796	-68,138	-0,072	0,020
-214,782	471,878	0,044	0,070
-213,767	32,686	-0,101	0,062
-212,752	-30,641	0,092	0,037
-211,738	-41,583	0,088	0,032
-210,723	209,168	0,035	0,039
-209,709	-200,000	0,024	0,105
-208,694	-49,365	-0,142	-0,048
-207,679	492,481	0,055	-0,089
-206,665	-149,276	0,137	0,008
-205,650	-200,000	-0,008	-0,024
-204,636	63,731	-0,051	0,037
-203,621	108,914	0,103	0,088
-202,606	72,521	-0,107	-0,079
-201,592	67,470	0,020	-0,014
-200,577	41,218	-0,097	0,062
-199,563	-83,899	0,084	0,019
-198,548	72,516	0,097	-0,072
-197,533	-200,000	-0,001	-0,117
-196,519	800,000	-0,071	0,171
-195,504	-22,750	0,086	0,037
-194,490	183,562	0,054	0,057
-193,475	31,287	0,041	-0,025
-192,460	-44,591	0,105	0,037
-191,446	-200,000	-0,016	-0,130
-190,431	214,890	0,075	0,085
-189,417	-145,243	-0,064	0,004
-188,402	-6,517	-0,040	0,019
-187,387	41,262	0,134	-0,086
-186,373	-200,000	-0,001	0,047
-185,358	-200,000	-0,016	-0,057
-184,344	-121,323	0,142	0,017
-183,329	-111,394	-0,119	0,017
-182,315	120,101	0,094	-0,083
-181,300	118,700	-0,085	-0,075
-180,285	-72,180	0,090	0,023
-179,271	100,752	-0,040	-0,033
-178,256	-112,768	-0,108	0,015
-177,242	-186,353	0,159	-0,002
-176,227	-36,460	0,100	-0,038
-175,212	144,472	-0,074	0,070
-174,198	-22,093	-0,052	0,022
-173,183	-200,000	-0,016	-0,051
-172,169	40,356	-0,166	0,106
-171,154	141,525	-0,069	-0,065
-170,139	800,000	-0,031	0,086
-169,125	78,058	0,105	0,079
-168,110	800,000	0,043	0,107
-167,096	303,073	0,001	0,002
-166,081	52,295	-0,166	-0,112
-165,066	800,000	-0,022	-0,052
-164,052	-77,876	-0,152	0,037
-163,037	270,081	0,048	-0,060
-162,023	255,400	0,061	0,074
-161,008	-200,000	0,022	0,072
-159,993	-200,000	0,045	0,164
-158,979	800,000	-0,052	-0,124
-157,964	175,957	0,030	0,031
-156,950	-185,078	0,027	-0,000
-155,935	411,674	-0,023	0,035
-154,920	109,178	-0,105	-0,089
-153,906	308,081	0,100	-0,132
-152,891	524,619	0,029	-0,049
-151,877	569,693	0,019	-0,033
-150,862	313,080	0,033	0,045
-149,847	-200,000	-0,026	0,120
-148,833	-96,567	-0,071	0,013
-147,818	-200,000	-0,041	0,229
-146,804	-31,035	0,059	-0,023
-145,789	291,816	-0,022	0,029
-144,775	800,000	0,004	0,012
-143,760	35,758	-0,102	0,063
-142,745	40,759	-0,108	0,069
-141,731	800,000	-0,029	0,059
-140,716	-73,097	0,037	0,010
-139,702	-12,112	-0,070	0,032
-138,687	40,876	0,054	-0,034
-137,672	441,372	-0,009	0,014
-136,658	-200,000	0,028	-0,110
-135,643	800,000	0,026	-0,065
-134,629	555,793	-0,030	-0,052
-133,614	-155,374	0,118	-0,005
-132,599	567,618	-0,026	0,045
-131,585	117,819	0,131	0,114
-130,570	-152,981	-0,086	0,004
-129,556	-45,289	0,086	-0,030
-128,541	-200,000	-0,001	-0,078
-127,526	800,000	-0,030	-0,083
-126,512	-115,354	0,161	-0,021
-125,497	-81,738	0,027	-0,006
-124,483	-126,682	-0,126	-0,013
-123,468	800,000	-0,041	-0,082
-122,453	94,222	0,042	-0,034
-121,439	-75,949	-0,060	-0,015
-120,424	208,524	-0,098	-0,108
-119,410	80,646	-0,088	-0,067
-118,395	800,000	0,031	-0,091
-117,380	76,554	-0,067	0,051
-116,366	-99,734	-0,137	-0,024
-115,351	800,000	0,062	-0,141
-114,337	-200,000	-0,002	-0,067
-113,322	468,399	0,047	0,075
-112,307	394,653	0,071	-0,105
-111,293	800,000	0,040	0,120
-110,278	800,000	0,030	0,062
-109,264	24,997	0,083	-0,049
-108,249	800,000	0,014	-0,039
-107,234	800,000	0,026	0,061
-106,220	-95,534	-0,110	0,021
-105,205	450,901	-0,099	0,156
-104,191	-22,274	0,069	0,030
-103,176	90,943	-0,071	-0,056
-102,162	-200,000	0,000	-0,071
-101,147	71,088	-0,104	-0,076
-100,132	214,412	0,029	-0,032
-99,118	193,497	0,054	-0,058
-98,103	-21,274	0,152	0,065
-97,089	715,839	0,018	0,033
-96,074	-200,000	-0,015	-0,137
-95,059	394,615	-0,017	-0,026
-94,045	230,112	-0,114	0,132
-93,030	22,498	-0,031	-0,018
-92,016	-42,814	-0,167	-0,060
-91,001	-143,925	0,064	0,004
-89,986	3,227	0,017	-0,009
-88,972	-38,495	0,079	-0,030
-87,957	231,509	-0,033	-0,038
-86,943	9,105	-0,094	-0,050
-85,928	367,231	-0,024	-0,034
-84,913	800,000	-0,035	-0,087
-83,899	-31,353	0,095	-0,037
-82,884	800,000	0,050	-0,110
-81,870	326,528	-0,062	0,085
-80,855	403,034	-0,012	-0,017
-79,840	576,697	0,033	-0,057
-78,826	-200,000	0,010	0,120
-77,811	-200,000	-0,015	-0,087
-76,797	-200,000	0,024	-0,169
-75,782	800,000	0,012	-0,027
-74,767	192,692	-0,043	-0,046
-73,753	370,727	0,081	-0,117
-72,738	-200,000	-0,008	0,055
-71,724	-128,869	-0,134	0,013
-70,709	-116,110	0,044	0,006
-69,694	44,806	-0,061	0,040
-68,680	-114,669	-0,208	0,028
-67,665	-80,091	-0,085	-0,020
-66,651	-106,118	-0,052	-0,008
-65,636	87,047	0,029	-0,022
-64,622	-200,000	0,011	-0,073
-63,607	-200,000	0,023	-0,102
-62,592	800,000	-0,036	-0,087
-61,578	-63,172	0,026	-0,008
-60,563	218,932	-0,029	0,033
-59,549	-94,148	-0,082	0,016
-58,534	24,897	-1,924	-1,124
-57,519	489,389	-1,285	-2,083
-56,505	-200,000	-0,353	-4,440
-55,490	382,063	0,863	1,256
-54,476	800,000	4,941	11,407
-53,461	-200,000	20,496	327,571
-52,446	800,000	752,482	2313,589
-51,432	550,863	1658,153	2821,072
-50,417	74,033	1664,014	1231,922
-49,403	19,246	1537,170	869,214
-48,388	13,227	1459,886	796,386
-47,373	18,851	1450,202	818,084
-46,359	16,194	1439,651	799,448
-45,344	11,531	1435,363	774,828
-44,330	11,438	1433,447	773,321
-43,315	11,425	1431,748	772,309
-42,300	11,458	1429,790	771,380
-41,286	11,471	1428,567	770,754
-40,271	11,439	1427,403	769,942
-39,257	11,468	1426,206	769,401
-38,242	11,469	1425,058	768,758
-37,227	11,487	1423,630	768,041
-36,213	11,406	1422,737	767,148
-35,198	11,476	1421,433	766,744
-34,184	11,508	1420,576	766,402
-33,169	11,475	1419,141	765,440
-32,154	11,531	1418,040	765,081
-31,140	11,508	1417,055	764,412
-30,125	11,556	1415,845	763,955
-29,111	11,521	1414,622	763,099
-28,096	11,501	1413,641	762,445
-27,082	11,438	1412,328	761,414
-26,067	11,403	1411,592	760,819
-25,052	11,442	1410,335	760,297
-24,038	11,421	1409,394	759,660
-23,023	11,397	1408,374	758,969
-22,009	11,404	1407,346	758,415
-20,994	11,367	1406,490	757,750
-19,979	11,386	1405,469	757,263
-18,965	11,358	1404,487	756,571
-17,950	11,350	1403,773	756,121
-16,936	11,402	1402,780	755,794
-15,921	11,350	1401,685	754,934
-14,906	11,355	1400,819	754,463
-13,892	11,314	1399,981	753,787
-12,877	11,335	1399,123	753,394
-11,863	11,351	1398,213	752,951
-10,848	11,268	1397,372	752,083
-9,833	11,250	1396,461	751,476
-8,819	11,242	1395,432	750,858
-7,804	11,215	1394,790	750,356
-6,790	11,252	1393,516	749,814
-5,775	11,220	1392,460	749,065
-4,760	11,241	1391,583	748,664
-3,746	11,228	1390,684	748,087
-2,731	11,224	1389,925	747,630
-1,717	11,224	1389,112	747,164
-0,702	11,196	1387,187	745,973
0,313	15,170	1301,937	718,361
1,327	31,444	694,486	420,293
2,342	48,882	120,677	79,802
3,356	1,589	16,435	8,322
4,371	19,758	3,224	1,827
5,386	-9,109	0,810	0,381
6,400	-200,000	0,082	0,548
7,415	-120,475	-0,346	-0,041
8,429	120,030	-0,268	-0,235
9,444	41,982	-0,336	-0,215
10,459	-17,222	-0,368	-0,163
11,473	-42,706	-0,290	-0,104
12,488	-20,012	-0,230	-0,100
13,502	-25,412	-0,428	-0,178
14,517	52,176	-0,307	-0,206
15,531	74,076	-0,486	-0,360
16,546	17,180	-0,277	-0,155
17,561	107,012	-0,213	-0,178
18,575	47,565	-0,186	-0,122
19,590	81,992	-0,288	-0,220
20,604	-47,037	-0,282	-0,096
21,619	166,443	-0,371	-0,371
22,634	62,216	-0,444	-0,312
23,648	260,048	-0,292	-0,356
24,663	-15,980	-0,415	-0,185
25,677	39,280	-0,352	-0,221
26,692	117,353	-0,258	-0,223
27,707	-13,803	-0,373	-0,169
28,721	78,113	-0,340	-0,255
29,736	36,389	-0,439	-0,272
30,750	95,332	-0,396	-0,318
31,765	630,631	-0,292	-0,523
32,780	50,388	-0,382	-0,254
33,794	-73,847	-0,483	-0,123
34,809	94,875	-0,278	-0,223
35,823	84,899	-0,388	-0,299
36,838	4,431	-0,337	-0,174
37,853	149,390	-0,302	-0,288
38,867	238,796	-0,315	-0,369
39,882	-33,403	-0,435	-0,168
40,896	173,283	-0,321	-0,326
41,911	19,992	-0,348	-0,197
42,926	165,410	-0,340	-0,338
43,940	65,363	-0,342	-0,243
44,955	100,739	-0,232	-0,190
45,969	-25,631	-0,468	-0,193
46,984	-40,624	-0,284	-0,103
47,999	91,225	-0,369	-0,291
49,013	-69,569	-0,382	-0,102
50,028	117,716	-0,222	-0,192
51,042	133,812	-0,317	-0,288
52,057	297,433	-0,244	-0,316
53,071	196,050	-0,362	-0,388
54,086	133,473	-0,316	-0,287
55,101	-24,845	-0,316	-0,131
56,115	-23,521	-0,364	-0,153
57,130	8,631	-0,354	-0,187
58,144	122,639	-0,423	-0,372
59,159	9,962	-0,428	-0,228
60,174	202,805	-0,297	-0,323
61,188	115,580	-0,333	-0,286
62,203	-7,640	-0,335	-0,159
63,217	166,094	-0,228	-0,227
64,232	222,424	-0,209	-0,237
65,247	205,069	-0,302	-0,329
66,261	-0,703	-0,388	-0,193
67,276	96,483	-0,413	-0,332
68,290	123,688	-0,225	-0,198
69,305	9,687	-0,358	-0,190
70,320	92,366	-0,234	-0,185
71,334	120,633	-0,256	-0,223
72,349	300,141	-0,248	-0,321
73,363	70,095	-0,381	-0,276
74,378	153,625	-0,414	-0,398
75,393	125,371	-0,244	-0,216
76,407	229,896	-0,169	-0,194
77,422	800,000	-0,131	-0,266
78,436	124,202	-0,343	-0,302
79,451	84,821	-0,324	-0,249
80,466	229,732	-0,233	-0,267
81,480	10,810	-0,401	-0,214
82,495	-22,688	-0,390	-0,164
83,509	75,678	-0,288	-0,213
84,524	-0,550	-0,258	-0,128
85,539	20,764	-0,358	-0,203
86,553	73,402	-0,171	-0,125
87,568	121,956	-0,290	-0,254
88,582	14,647	-0,234	-0,128
89,597	-75,495	-0,400	-0,099
90,611	-92,097	-0,196	0,038
91,626	586,769	-0,129	-0,223
92,641	-49,829	-0,141	-0,047
93,655	68,552	-0,378	-0,271
94,670	54,774	-0,373	-0,251
95,684	-45,418	-0,403	-0,139
96,699	-24,036	-0,386	-0,161
97,714	-42,308	-0,281	-0,100
98,728	40,367	-0,294	-0,185
99,743	58,994	-0,167	-0,115
100,757	-2,224	-0,283	-0,139
101,772	79,930	-0,284	-0,213
102,787	-200,000	-0,081	-0,260
103,801	158,626	-0,254	-0,247
104,816	8,649	-0,341	-0,179
105,830	2,408	-0,194	-0,098
106,845	159,454	-0,173	-0,169
107,860	64,427	-0,256	-0,180
108,874	189,648	-0,262	-0,275
109,889	53,738	-0,352	-0,236
110,903	85,200	-0,317	-0,243
111,918	2,175	-0,257	-0,129
112,933	5,960	-0,251	-0,130
113,947	121,218	-0,227	-0,198
114,962	-58,493	-0,323	-0,097
115,976	-9,824	-0,357	-0,166
116,991	-6,952	-0,362	-0,171
118,006	171,051	-0,233	-0,233
119,020	58,470	-0,250	-0,171
120,035	79,709	-0,255	-0,191
121,049	-95,090	-0,227	-0,042
122,064	20,950	-0,282	-0,159
123,079	95,307	-0,329	-0,262
124,093	201,931	-0,279	-0,301
125,108	6,948	-0,146	-0,076
126,122	162,775	-0,222	-0,217
127,137	183,989	-0,183	-0,189
128,151	48,425	-0,153	-0,100
129,166	-56,333	-0,352	-0,108
130,181	57,041	-0,247	-0,168
131,195	41,163	-0,303	-0,191
132,210	110,247	-0,217	-0,182
133,224	1,342	-0,218	-0,109
134,239	-98,602	-0,188	-0,033
135,254	-63,638	-0,300	-0,085
136,268	-149,910	-0,304	0,016
137,283	434,407	-0,116	-0,177
138,297	246,981	-0,245	-0,289
139,312	89,858	-0,297	-0,231
140,327	53,989	-0,247	-0,165
141,341	22,724	-0,275	-0,157
142,356	50,664	-0,251	-0,165
143,370	800,000	-0,114	-0,234
144,385	22,382	-0,297	-0,169
145,400	280,123	-0,204	-0,254
146,414	244,135	-0,230	-0,270
147,429	-16,799	-0,360	-0,158
148,443	62,256	-0,259	-0,180
149,458	47,689	-0,327	-0,212
150,473	-192,206	-0,238	-0,002
151,487	-48,382	-0,181	-0,061
152,502	78,931	-0,192	-0,143
153,516	319,542	-0,251	-0,332
154,531	221,168	-0,173	-0,194
155,546	34,142	-0,250	-0,152
156,560	131,062	-0,183	-0,164
157,575	800,000	-0,077	-0,178
158,589	309,106	-0,250	-0,326
159,604	131,893	-0,336	-0,301
160,619	143,161	-0,324	-0,300
161,633	300,301	-0,181	-0,233
162,648	-42,882	-0,129	-0,045
163,662	-160,835	-0,181	0,007
164,677	123,576	-0,175	-0,152
165,692	74,466	-0,253	-0,185
166,706	71,326	-0,251	-0,181
167,721	215,931	-0,220	-0,243
168,735	134,236	-0,159	-0,143
169,750	122,409	-0,241	-0,209
170,764	149,384	-0,181	-0,170
171,779	-84,367	-0,233	-0,051
172,794	36,015	-0,244	-0,149
173,808	233,195	-0,123	-0,141
174,823	525,715	-0,174	-0,286
175,837	127,653	-0,225	-0,198
176,852	0,762	-0,330	-0,164
177,867	108,516	-0,168	-0,139
178,881	128,945	-0,075	-0,067
179,896	-132,777	-0,233	0,020
180,910	472,919	-0,186	-0,292
181,925	389,330	-0,103	-0,149
182,940	203,238	-0,212	-0,228
183,954	800,000	-0,126	-0,306
184,969	132,584	-0,135	-0,121
185,983	277,731	-0,130	-0,161
186,998	-139,283	-0,267	0,020
188,013	100,535	-0,161	-0,130
189,027	-57,186	-0,317	-0,096
190,042	301,758	-0,254	-0,327
191,056	148,284	-0,196	-0,184
192,071	-146,727	-0,193	-0,011
193,086	154,658	-0,183	-0,175
194,100	-71,424	-0,205	-0,053
195,115	-85,294	-0,268	-0,058
196,129	164,777	-0,137	-0,134
197,144	383,780	-0,184	-0,263
198,159	45,519	-0,377	-0,241
199,173	-28,562	-0,289	-0,115
200,188	255,744	-0,134	-0,160
201,202	332,602	-0,142	-0,191
202,217	-28,688	-0,329	-0,131
203,232	-72,176	-0,315	-0,080
204,246	39,214	-0,205	-0,127
205,261	300,858	-0,155	-0,198
206,275	1,296	-0,104	-0,052
207,290	25,535	-0,247	-0,142
208,304	141,044	-0,150	-0,138
209,319	-27,647	-0,056	-0,022
210,334	800,000	-0,106	-0,212
211,348	32,866	-0,265	-0,159
212,363	202,791	-0,196	-0,210
213,377	199,350	-0,205	-0,218
214,392	-124,687	-0,204	0,022
215,407	60,471	-0,167	-0,114
216,421	2,091	-0,077	-0,038
217,436	264,963	-0,150	-0,182
218,450	-19,898	-0,356	-0,152
219,465	317,102	-0,154	-0,202
220,480	583,468	-0,141	-0,241
221,494	-81,312	-0,190	-0,043
222,509	23,608	-0,255	-0,145
223,523	-97,736	-0,262	-0,047
224,538	213,407	-0,138	-0,151
225,553	106,137	-0,100	-0,082
226,567	-11,552	-0,162	-0,074
227,582	40,808	-0,277	-0,172
228,596	450,830	-0,128	-0,196
229,611	167,341	-0,114	-0,112
230,626	-60,681	-0,191	-0,056
231,640	800,000	-0,154	-0,321
232,655	33,908	-0,178	-0,107
233,669	262,918	-0,213	-0,257
234,684	81,802	-0,378	-0,283
235,699	-200,000	-0,048	-0,189
236,713	-68,755	-0,190	-0,051
237,728	-23,841	-0,210	-0,086
238,742	662,826	-0,127	-0,227
239,757	6,474	-0,150	-0,077
240,772	648,230	-0,161	-0,286
241,786	2,392	-0,213	-0,106
242,801	202,606	-0,060	0,064
243,815	15,141	-0,147	-0,079
244,830	-54,496	-0,204	-0,063
245,844	11,649	-0,129	-0,068
246,859	149,891	-0,210	-0,197
247,874	189,444	-0,239	-0,248
248,888	276,010	-0,210	-0,258
249,903	800,000	-0,130	-0,328
250,917	-44,048	-0,176	-0,061
251,932	-13,100	-0,220	-0,099
252,947	144,620	-0,202	-0,187
253,961	85,888	-0,163	-0,124
254,976	665,585	-0,134	-0,240
255,990	-96,989	-0,088	-0,016
257,005	-160,762	-0,162	-0,006
258,020	193,945	-0,173	-0,181
259,034	111,432	-0,121	0,100
260,049	276,557	-0,095	-0,117
261,063	230,095	-0,153	-0,173
262,078	136,472	-0,151	-0,136
263,093	800,000	-0,111	-0,303
264,107	-200,000	-0,022	-0,107
265,122	256,952	-0,110	-0,130
266,136	459,528	-0,124	-0,191
267,151	-27,341	-0,171	-0,068
268,166	-150,931	-0,188	-0,010
269,180	800,000	-0,113	-0,230
270,195	73,126	-0,218	-0,157
271,209	499,519	-0,161	-0,257
272,224	-200,000	-0,019	-0,121
273,239	-17,036	-0,177	-0,077
274,253	118,819	-0,104	-0,088
275,268	25,328	-0,206	-0,118
276,282	25,647	-0,169	-0,097
277,297	204,058	-0,172	-0,184
278,312	28,118	-0,143	-0,083
279,326	22,674	-0,231	-0,130
280,341	163,347	0,049	-0,048
281,355	-96,958	-0,116	-0,021
282,370	-200,000	-0,048	-0,149
283,384	-79,112	-0,221	-0,051
284,399	29,338	-0,259	-0,151
285,414	93,985	-0,125	-0,098
286,428	-134,660	-0,143	-0,012
287,443	-43,274	-0,053	-0,018
288,457	144,643	-0,101	-0,093
289,472	800,000	-0,052	0,101
290,487	-33,795	-0,175	-0,066
291,501	-17,154	-0,084	-0,036
292,516	-200,000	-0,036	-0,137
293,530	39,711	-0,269	-0,166
294,545	-80,783	-0,186	0,042
295,560	21,826	-0,126	-0,071
296,574	800,000	-0,016	0,038
297,589	515,268	-0,092	-0,148
298,603	800,000	-0,023	0,047
299,618	-44,076	-0,241	-0,083
300,633	-38,516	-0,117	-0,042
301,647	358,214	-0,153	-0,210
302,662	800,000	-0,065	-0,131
303,676	54,279	-0,120	-0,079
304,691	51,017	-0,164	-0,106
305,706	800,000	-0,056	-0,145
306,720	406,590	-0,141	-0,206
307,735	-87,182	-0,180	-0,037
308,749	-123,032	-0,056	0,006
309,764	228,271	0,062	-0,069
310,779	178,493	-0,155	-0,156
311,793	-25,420	-0,244	-0,099
312,808	263,851	-0,152	-0,182
313,822	-200,000	-0,080	-0,257
314,837	179,285	-0,131	-0,132
315,852	-48,489	-0,308	-0,101
316,866	-18,689	-0,171	-0,073
317,881	-200,000	-0,015	-0,211
318,895	-130,003	-0,137	-0,013
319,910	174,968	-0,198	-0,197
320,925	13,404	-0,282	-0,150
321,939	-187,797	-0,165	0,001
322,954	-100,037	-0,141	0,024
323,968	29,341	-0,110	0,064
324,983	-117,939	-0,124	-0,015
325,997	-150,932	-0,183	0,009
327,012	341,876	0,047	-0,063
328,027	-200,000	-0,014	-0,072
329,041	663,155	-0,090	-0,161
330,056	-5,222	-0,211	-0,099
331,070	-200,000	-0,018	-0,128
332,085	449,616	-0,065	-0,099
333,100	-200,000	0,002	-0,084
334,114	162,780	-0,239	-0,230
335,129	800,000	-0,053	-0,159
336,143	406,674	-0,128	-0,186
337,158	-175,157	-0,129	-0,002
338,173	-165,370	-0,053	0,002
339,187	226,980	-0,108	-0,121
340,202	388,989	-0,111	-0,157
341,216	16,491	-0,176	-0,095
342,231	173,530	-0,139	-0,137
343,246	630,361	-0,059	-0,102
344,260	0,660	-0,201	-0,098
345,275	9,314	-0,112	-0,058
346,289	205,870	-0,078	-0,083
347,304	22,862	-0,259	-0,145
348,319	-134,841	-0,110	-0,009
349,333	-7,299	-0,188	-0,087
350,348	9,466	-0,128	-0,066
351,362	3,745	-0,110	-0,055
352,377	5,319	-0,102	-0,051
353,392	-126,895	-0,153	-0,015
354,406	501,658	-0,055	-0,087
355,421	207,444	1307,552	1397,894
356,435	159,582	1467,376	1398,379
