DTS Sentinel unit serial number:	SN410029Multiplexer serial number:	ORYXHardware model number:	OX2-SRSoftware version number:	ORYX F/W v4,00 Oryx Data Collector v3.7.2.0data status	okinstallation	B3 Nyhavnadifferential loss correction	single-endedforward channel	channel 1reverse channel	N/Adate	2023/11/29time	20:37:30forward acquisition time	300,00reverse acquisition time	0,00gamma	499,1914k internal	0,3210k external	0,3210temperature offset calibration	1,0000default loss term (dB/km)	0,3820temperature slope calibration	1,0000multiplexer offset coefficient	1,0000multiplexer slope coefficient	1,0000fibre end	0,00T internal ref (°C)	10,86T ext. ref 1 (°C)	-4,14T ext. ref 2 (°C)	-4,24length (m)	temperature (°C)	Stokes	anti-Stokes-744,400	80,302	-0,203	-0,158
-743,385	-200,000	-0,071	0,264
-742,371	431,066	-0,215	-0,339
-741,356	-200,000	0,032	0,447
-740,342	-16,684	-0,362	-0,165
-739,327	800,000	-0,068	0,176
-738,312	22,683	-0,256	-0,152
-737,298	430,791	-0,130	0,205
-736,283	274,385	-0,167	-0,214
-735,269	800,000	0,125	0,308
-734,254	4,067	-0,205	-0,109
-733,239	155,567	-0,207	0,207
-732,225	216,543	-0,187	-0,216
-731,210	-200,000	0,018	0,138
-730,196	-88,325	-0,158	0,034
-729,181	284,785	-0,017	0,023
-728,167	649,446	0,017	-0,031
-727,152	-200,000	-0,004	-0,053
-726,137	-151,071	-0,079	-0,004
-725,123	-61,270	-0,228	0,069
-724,108	-200,000	-0,017	-0,074
-723,094	-128,692	-0,122	0,012
-722,079	-200,000	0,011	-0,182
-721,064	-200,000	-0,009	-0,061
-720,050	-148,798	-0,112	0,006
-719,035	-200,000	-0,008	0,056
-718,021	800,000	-0,048	-0,100
-717,006	123,069	-0,125	-0,113
-715,991	-44,623	-0,121	-0,044
-714,977	-14,260	-0,024	0,011
-713,962	143,306	0,032	-0,031
-712,948	76,659	0,156	0,120
-711,933	-137,280	-0,103	0,008
-710,918	-61,837	0,075	0,023
-709,904	800,000	0,005	-0,012
-708,889	-200,000	-0,003	-0,123
-707,875	64,968	-0,067	0,049
-706,860	84,881	-0,053	0,042
-705,845	800,000	0,045	0,106
-704,831	-200,000	-0,012	0,097
-703,816	800,000	-0,016	0,032
-702,802	220,560	-0,062	-0,072
-701,787	14,594	-0,099	0,056
-700,772	-1,862	-0,118	-0,060
-699,758	-200,000	0,016	0,062
-698,743	-200,000	-0,001	-0,008
-697,729	-145,777	0,029	-0,002
-696,714	777,730	0,048	-0,095
-695,699	10,099	-0,149	-0,082
-694,685	-72,118	0,026	-0,007
-693,670	551,806	-0,047	-0,081
-692,656	98,589	0,073	-0,061
-691,641	337,428	0,036	0,050
-690,627	-200,000	0,014	0,095
-689,612	800,000	-0,011	-0,026
-688,597	-99,572	0,097	0,018
-687,583	-156,649	-0,069	-0,003
-686,568	800,000	-0,036	0,110
-685,554	78,305	-0,070	0,054
-684,539	-49,068	-0,078	-0,027
-683,524	-133,137	0,077	0,007
-682,510	208,076	-0,023	-0,026
-681,495	165,888	-0,057	-0,058
-680,481	453,951	-0,021	0,034
-679,466	179,578	-0,132	-0,140
-678,451	114,921	-0,176	-0,156
-677,437	-200,000	-0,023	-0,119
-676,422	800,000	0,029	-0,070
-675,408	-200,000	-0,028	0,096
-674,393	-25,188	-0,111	-0,047
-673,378	800,000	-0,067	-0,139
-672,364	-200,000	-0,008	-0,076
-671,349	-2,067	-0,054	-0,027
-670,335	800,000	-0,041	-0,119
-669,320	-200,000	0,009	0,057
-668,305	-79,920	0,075	0,018
-667,291	127,858	-0,048	-0,044
-666,276	-68,087	-0,067	-0,019
-665,262	-200,000	0,006	-0,073
-664,247	619,268	0,042	-0,077
-663,232	800,000	-0,033	0,081
-662,218	-200,000	-0,005	0,035
-661,203	-200,000	-0,007	0,052
-660,189	26,850	-0,066	-0,040
-659,174	27,014	-0,141	-0,085
-658,159	-142,515	0,098	0,007
-657,145	-200,000	0,002	-0,071
-656,130	453,607	-0,048	0,077
-655,116	-200,000	-0,016	0,133
-654,101	-200,000	0,023	-0,103
-653,086	800,000	0,011	0,029
-652,072	-132,778	0,068	0,006
-651,057	27,265	-0,216	-0,131
-650,043	-200,000	-0,047	-0,157
-649,028	800,000	0,040	0,109
-648,014	496,810	-0,045	0,075
-646,999	409,232	-0,068	-0,104
-645,984	800,000	0,030	0,081
-644,970	378,472	0,138	0,205
-643,955	-200,000	0,021	-0,086
-642,941	217,725	-0,043	-0,050
-641,926	-192,450	-0,035	0,000
-640,911	-200,000	0,020	0,078
-639,897	800,000	-0,011	0,034
-638,882	-200,000	-0,001	-0,026
-637,868	-22,936	-0,084	0,037
-636,853	-28,381	-0,142	0,059
-635,838	313,368	-0,078	-0,107
-634,824	-200,000	-0,024	0,086
-633,809	-96,093	0,107	-0,020
-632,795	89,254	0,075	-0,060
-631,780	263,783	0,035	-0,044
-630,765	239,006	-0,139	0,167
-629,751	800,000	-0,104	-0,211
-628,736	-200,000	-0,017	-0,064
-627,722	-200,000	-0,019	-0,086
-626,707	96,528	0,106	0,088
-625,692	-21,415	-0,031	-0,014
-624,678	670,634	-0,021	-0,039
-623,663	-200,000	-0,014	-0,066
-622,649	800,000	-0,066	-0,150
-621,634	88,151	-0,041	-0,032
-620,619	117,416	-0,108	-0,096
-619,605	800,000	0,056	-0,124
-618,590	533,121	0,043	-0,074
-617,576	29,761	-0,106	-0,065
-616,561	-60,589	-0,030	0,009
-615,546	-200,000	-0,002	-0,054
-614,532	182,036	-0,066	-0,070
-613,517	800,000	-0,029	-0,087
-612,503	-16,744	-0,015	-0,007
-611,488	-141,038	-0,080	-0,006
-610,474	-157,964	-0,047	-0,002
-609,459	743,427	-0,025	0,048
-608,444	-42,289	0,070	-0,026
-607,430	-84,945	-0,121	-0,027
-606,415	-200,000	0,014	-0,078
-605,401	268,682	-0,063	-0,080
-604,386	437,641	0,044	0,069
-603,371	-70,027	0,080	-0,022
-602,357	380,498	-0,092	0,136
-601,342	33,595	0,030	-0,019
-600,328	-76,355	-0,088	0,022
-599,313	274,079	0,066	-0,085
-598,298	-200,000	0,006	-0,073
-597,284	-200,000	-0,015	0,059
-596,269	-200,000	-0,016	-0,072
-595,255	-200,000	-0,023	-0,099
-594,240	152,592	-0,064	0,063
-593,225	-8,323	-0,166	-0,080
-592,211	108,935	-0,046	0,039
-591,196	351,853	0,045	0,064
-590,182	-63,886	0,065	-0,019
-589,167	-25,451	0,190	0,081
-588,152	321,289	0,018	-0,025
-587,138	800,000	0,019	-0,056
-586,123	106,252	0,069	0,059
-585,109	-200,000	0,005	0,075
-584,094	-200,000	0,015	0,068
-583,079	-200,000	0,007	-0,036
-582,065	571,009	-0,075	0,132
-581,050	-200,000	0,040	0,152
-580,036	-29,598	0,031	0,013
-579,021	640,763	-0,061	-0,112
-578,006	35,483	-0,162	0,102
-576,992	235,117	-0,065	0,077
-575,977	453,346	-0,042	-0,067
-574,963	13,794	0,086	0,048
-573,948	-200,000	0,000	0,133
-572,934	70,999	-0,026	-0,020
-571,919	-200,000	-0,011	0,097
-570,904	-91,655	-0,143	-0,029
-569,890	130,994	-0,181	-0,167
-568,875	334,134	0,071	-0,099
-567,861	364,441	0,071	0,103
-566,846	-200,000	0,002	0,158
-565,831	-9,569	-0,145	-0,069
-564,817	460,030	0,092	-0,148
-563,802	205,224	-0,094	-0,105
-562,788	132,285	-0,125	-0,116
-561,773	-103,719	0,065	0,011
-560,758	675,562	-0,041	-0,077
-559,744	-113,032	0,224	0,032
-558,729	764,838	0,063	0,124
-557,715	-94,381	0,034	-0,007
-556,700	-200,000	-0,001	-0,077
-555,685	-38,690	0,066	0,025
-554,671	-200,000	-0,012	0,101
-553,656	285,628	0,081	0,105
-552,642	-200,000	-0,030	0,098
-551,627	37,588	0,034	-0,022
-550,612	-126,549	-0,057	0,006
-549,598	-27,140	-0,083	0,035
-548,583	800,000	0,040	-0,097
-547,569	-200,000	-0,015	-0,081
-546,554	-141,662	0,117	0,008
-545,539	800,000	0,068	0,160
-544,525	-200,000	0,010	0,069
-543,510	112,362	0,110	-0,096
-542,496	800,000	-0,035	-0,099
-541,481	-156,400	-0,020	-0,001
-540,466	655,057	-0,084	-0,155
-539,452	142,289	0,045	-0,043
-538,437	95,630	0,042	0,035
-537,423	-200,000	0,002	-0,123
-536,408	63,315	-0,099	0,071
-535,393	499,302	0,044	0,073
-534,379	-13,220	-0,122	-0,057
-533,364	-200,000	0,011	-0,040
-532,350	18,479	0,172	0,099
-531,335	-200,000	0,002	0,254
-530,321	-200,000	0,001	0,089
-529,306	-62,511	-0,051	-0,015
-528,291	800,000	0,018	0,043
-527,277	214,601	-0,139	0,159
-526,262	-56,797	-0,124	0,039
-525,248	171,658	0,037	-0,038
-524,233	127,631	0,058	0,053
-523,218	-200,000	-0,003	-0,087
-522,204	-63,487	-0,162	-0,048
-521,189	176,547	-0,094	-0,098
-520,175	-200,000	0,021	0,074
-519,160	800,000	0,051	-0,150
-518,145	-155,636	0,114	-0,005
-517,131	171,028	-0,032	0,033
-516,116	800,000	-0,048	0,116
-515,102	-200,000	0,030	0,119
-514,087	-121,033	-0,086	0,010
-513,072	61,155	-0,183	-0,131
-512,058	458,853	0,030	-0,048
-511,043	-200,000	-0,016	0,064
-510,029	514,340	-0,054	0,091
-509,014	90,522	-0,075	0,060
-507,999	800,000	0,047	0,108
-506,985	-97,938	-0,115	0,021
-505,970	-200,000	0,026	0,093
-504,956	244,619	0,040	0,048
-503,941	166,012	-0,144	-0,147
-502,926	800,000	0,034	0,087
-501,912	-200,000	-0,004	-0,015
-500,897	291,604	-0,071	0,093
-499,883	-14,493	-0,119	-0,055
-498,868	382,688	0,031	-0,046
-497,853	165,779	0,181	-0,184
-496,839	-22,382	-0,122	0,053
-495,824	-139,723	0,111	0,008
-494,810	123,205	0,082	-0,073
-493,795	243,425	-0,038	0,046
-492,781	630,762	-0,050	-0,091
-491,766	201,967	-0,112	-0,124
-490,751	-67,233	-0,036	0,010
-489,737	-200,000	-0,011	-0,090
-488,722	-200,000	-0,003	-0,036
-487,708	-168,095	0,051	-0,001
-486,693	-200,000	-0,016	-0,127
-485,678	-200,000	0,008	-0,130
-484,664	-0,758	0,074	-0,038
-483,649	800,000	0,027	-0,055
-482,635	-123,902	0,094	0,011
-481,620	800,000	-0,009	0,024
-480,605	-200,000	0,021	0,089
-479,591	-98,544	0,054	-0,010
-478,576	-25,627	0,068	-0,029
-477,562	468,517	-0,044	-0,072
-476,547	13,584	0,033	0,018
-475,532	800,000	-0,035	0,080
-474,518	-19,598	0,125	0,055
-473,503	-200,000	-0,024	0,084
-472,489	-200,000	-0,009	0,083
-471,474	661,036	-0,056	-0,105
-470,459	194,914	-0,069	-0,076
-469,445	800,000	-0,051	-0,139
-468,430	540,934	0,070	-0,119
-467,416	235,570	0,066	0,078
-466,401	302,273	0,037	0,049
-465,386	-151,487	0,091	0,005
-464,372	800,000	0,049	-0,104
-463,357	8,059	0,107	0,058
-462,343	-127,504	-0,102	-0,011
-461,328	133,967	0,043	0,040
-460,313	197,728	0,039	0,043
-459,299	-200,000	-0,031	-0,101
-458,284	-26,946	0,117	0,049
-457,270	-200,000	0,011	0,039
-456,255	-118,764	0,185	0,023
-455,241	-151,657	-0,069	0,004
-454,226	-200,000	-0,020	-0,104
-453,211	-37,919	0,053	-0,020
-452,197	-169,854	0,220	-0,006
-451,182	67,425	0,105	0,077
-450,168	144,789	0,027	-0,026
-449,153	800,000	0,043	0,102
-448,138	800,000	-0,041	0,116
-447,124	40,900	-0,073	0,047
-446,109	-72,561	-0,050	0,013
-445,095	-166,612	0,099	-0,003
-444,080	87,739	0,023	0,018
-443,065	800,000	0,029	0,081
-442,051	145,784	0,095	0,091
-441,036	-200,000	-0,001	-0,040
-440,022	-95,646	-0,084	-0,016
-439,007	381,627	-0,026	0,038
-437,992	524,529	0,063	0,107
-436,978	800,000	-0,043	0,100
-435,963	800,000	0,043	-0,095
-434,949	190,063	-0,083	-0,089
-433,934	-200,000	0,005	-0,083
-432,919	-105,482	-0,052	0,008
-431,905	-70,276	-0,076	0,020
-430,890	-147,713	0,076	-0,005
-429,876	-200,000	0,005	0,090
-428,861	-200,000	-0,011	0,116
-427,846	291,805	0,033	-0,043
-426,832	347,053	-0,023	-0,033
-425,817	256,403	-0,114	-0,140
-424,803	769,146	0,022	-0,043
-423,788	71,689	-0,023	-0,017
-422,773	186,625	-0,051	0,055
-421,759	-91,820	0,120	0,024
-420,744	270,721	0,058	0,074
-419,730	313,649	-0,067	-0,090
-418,715	-156,664	0,084	-0,004
-417,701	35,067	-0,061	0,038
-416,686	-131,756	0,084	-0,008
-415,671	-200,000	-0,002	0,119
-414,657	-13,573	-0,084	-0,039
-413,642	800,000	-0,014	0,043
-412,628	19,079	-0,075	0,043
-411,613	290,029	0,028	-0,037
-410,598	-200,000	-0,011	-0,108
-409,584	-48,401	0,057	-0,020
-408,569	-200,000	0,011	0,062
-407,555	-200,000	-0,000	-0,021
-406,540	-69,885	0,080	0,022
-405,525	-200,000	0,007	-0,060
-404,511	-88,074	-0,084	-0,018
-403,496	52,059	-0,075	-0,051
-402,482	-200,000	-0,040	-0,200
-401,467	106,429	-0,086	0,073
-400,452	141,189	0,155	0,147
-399,438	467,759	0,063	0,102
-398,423	-52,966	0,053	0,017
-397,409	-41,777	0,040	0,015
-396,394	313,415	-0,084	-0,113
-395,379	266,444	-0,033	-0,041
-394,365	708,239	-0,041	0,079
-393,350	80,819	-0,059	0,046
-392,336	14,851	0,178	-0,099
-391,321	238,884	0,035	-0,042
-390,306	-45,139	-0,038	-0,014
-389,292	800,000	-0,095	-0,216
-388,277	800,000	0,021	0,043
-387,263	-200,000	0,006	0,119
-386,248	-200,000	0,004	0,057
-385,233	-200,000	0,006	-0,048
-384,219	12,575	0,090	0,050
-383,204	204,608	-0,064	-0,071
-382,190	-62,275	-0,092	0,027
-381,175	-141,082	0,080	-0,006
-380,160	-113,088	-0,061	0,009
-379,146	-200,000	0,016	0,121
-378,131	655,101	0,031	-0,057
-377,117	-200,000	-0,001	0,003
-376,102	131,771	-0,085	0,078
-375,088	117,914	0,131	-0,115
-374,073	800,000	0,046	0,107
-373,058	-74,753	0,071	0,018
-372,044	-200,000	0,023	0,135
-371,029	800,000	-0,038	-0,102
-370,015	-75,255	0,085	-0,022
-369,000	215,655	-0,087	-0,099
-367,985	51,873	-0,053	0,036
-366,971	-106,744	-0,072	-0,011
-365,956	582,400	-0,024	0,043
-364,942	259,390	0,080	0,098
-363,927	-29,891	0,115	0,047
-362,912	42,292	0,138	-0,089
-361,898	179,639	-0,059	-0,062
-360,883	-60,312	-0,055	-0,017
-359,869	-200,000	0,010	0,135
-358,854	-101,327	-0,029	-0,005
-357,839	800,000	0,017	0,037
-356,825	250,310	-0,036	0,044
-355,810	-22,932	0,091	0,039
-354,796	392,172	0,035	0,052
-353,781	51,826	-0,130	-0,089
-352,766	-200,000	0,009	-0,129
-351,752	-74,443	0,082	-0,021
-350,737	-37,515	-0,131	0,050
-349,723	28,901	-0,185	0,111
-348,708	251,431	0,021	0,025
-347,693	-7,275	-0,150	-0,072
-346,679	347,827	-0,079	-0,111
-345,664	719,485	0,031	-0,058
-344,650	390,493	0,045	-0,067
-343,635	-10,607	0,123	-0,058
-342,620	194,512	0,108	0,117
-341,606	332,392	0,006	0,009
-340,591	-200,000	-0,026	0,182
-339,577	175,579	-0,096	0,100
-338,562	-200,000	-0,006	-0,055
-337,548	-164,878	0,200	0,006
-336,533	-200,000	0,011	-0,044
-335,518	0,153	-0,069	0,035
-334,504	-105,117	-0,173	0,028
-333,489	179,578	0,133	-0,139
-332,475	-200,000	0,000	-0,069
-331,460	-200,000	0,028	-0,297
-330,445	-200,000	-0,045	-0,146
-329,431	800,000	0,033	0,103
-328,416	800,000	0,042	0,127
-327,402	-200,000	0,002	0,122
-326,387	-200,000	0,050	0,171
-325,372	118,842	-0,053	0,046
-324,358	-200,000	0,022	-0,114
-323,343	-200,000	0,022	0,091
-322,329	-200,000	-0,011	-0,077
-321,314	12,568	0,050	-0,028
-320,299	-22,831	0,086	-0,037
-319,285	-200,000	0,009	0,104
-318,270	201,082	-0,026	0,028
-317,256	-200,000	-0,013	-0,046
-316,241	83,083	-0,112	0,087
-315,226	300,654	0,105	-0,139
-314,212	69,742	-0,056	-0,041
-313,197	-200,000	0,021	0,081
-312,183	-200,000	0,007	0,069
-311,168	212,165	-0,087	-0,098
-310,153	-103,271	0,086	-0,014
-309,139	416,569	-0,076	0,116
-308,124	-200,000	0,003	0,064
-307,110	800,000	-0,027	-0,069
-306,095	166,207	-0,082	-0,083
-305,080	-137,956	-0,187	0,015
-304,066	-160,834	-0,094	-0,003
-303,051	99,618	0,061	-0,050
-302,037	18,722	-0,032	-0,018
-301,022	239,261	0,028	0,033
-300,008	0,785	-0,169	-0,086
-298,993	200,233	0,036	0,039
-297,978	-36,547	0,082	0,031
-296,964	800,000	0,014	-0,037
-295,949	800,000	-0,031	0,083
-294,935	35,373	0,151	-0,094
-293,920	316,108	-0,078	0,105
-292,905	574,044	-0,063	0,109
-291,891	-132,042	-0,137	-0,013
-290,876	153,812	0,166	0,162
-289,862	448,974	-0,033	-0,051
-288,847	-200,000	-0,011	0,042
-287,832	-23,813	-0,184	-0,078
-286,818	-200,000	0,002	0,039
-285,803	-54,342	0,128	-0,041
-284,789	-153,384	0,098	0,005
-283,774	-200,000	-0,022	-0,070
-282,759	-41,499	-0,149	0,054
-281,745	-125,614	0,144	-0,015
-280,730	800,000	-0,030	0,068
-279,716	80,053	0,082	-0,062
-278,701	-200,000	0,009	-0,097
-277,686	-55,116	0,214	-0,068
-276,672	800,000	-0,035	-0,086
-275,657	-84,222	0,068	-0,015
-274,643	-49,791	-0,088	0,029
-273,628	-152,138	-0,107	-0,005
-272,613	-86,387	0,092	0,020
-271,599	-200,000	0,010	0,060
-270,584	22,054	0,066	-0,038
-269,570	-51,928	-0,071	0,023
-268,555	249,378	0,032	-0,039
-267,540	8,589	-0,055	0,029
-266,526	-200,000	0,020	-0,173
-265,511	800,000	0,043	-0,114
-264,497	577,846	-0,022	0,039
-263,482	258,818	0,052	0,064
-262,467	-42,511	0,057	0,020
-261,453	424,077	0,038	0,058
-260,438	-200,000	-0,014	-0,056
-259,424	800,000	-0,076	-0,186
-258,409	-200,000	0,008	-0,141
-257,395	70,805	0,053	0,039
-256,380	67,080	0,081	0,059
-255,365	17,727	0,070	0,039
-254,351	284,364	-0,073	0,093
-253,336	-40,492	0,067	0,024
-252,322	-142,355	-0,162	-0,011
-251,307	800,000	-0,043	-0,126
-250,292	-200,000	0,010	-0,040
-249,278	183,392	0,123	0,130
-248,263	-17,912	0,179	0,080
-247,249	55,076	-0,140	-0,096
-246,234	-61,717	0,049	0,015
-245,219	-200,000	-0,016	-0,070
-244,205	96,014	0,193	0,157
-243,190	372,751	0,092	0,134
-242,176	26,076	-0,020	-0,012
-241,161	800,000	0,070	0,165
-240,146	-80,833	0,099	-0,023
-239,132	-200,000	-0,002	-0,015
-238,117	-83,985	-0,101	0,023
-237,103	-200,000	-0,007	-0,033
-236,088	800,000	-0,037	-0,075
-235,073	116,145	0,051	0,044
-234,059	-200,000	0,000	-0,020
-233,044	-200,000	-0,027	0,093
-232,030	-78,822	0,045	0,011
-231,015	19,758	-0,124	-0,071
-230,000	-97,035	-0,136	0,025
-228,986	503,431	-0,066	-0,110
-227,971	16,610	0,169	0,095
-226,957	60,335	0,043	0,030
-225,942	-200,000	0,024	-0,114
-224,927	-200,000	0,016	0,070
-223,913	-1,117	0,040	-0,020
-222,898	-200,000	-0,001	0,052
-221,884	-117,705	0,045	0,006
-220,869	353,045	0,079	0,111
-219,855	800,000	0,037	0,104
-218,840	95,669	-0,034	0,028
-217,825	800,000	0,049	-0,141
-216,811	21,957	-0,161	0,093
-215,796	-200,000	0,007	-0,047
-214,782	-26,955	-0,052	-0,021
-213,767	-200,000	0,150	0,000
-212,752	376,876	0,066	0,096
-211,738	-30,573	0,086	0,034
-210,723	800,000	-0,041	0,097
-209,709	6,289	-0,125	-0,066
-208,694	424,746	-0,014	0,021
-207,679	22,309	0,092	-0,053
-206,665	320,928	0,122	-0,165
-205,650	231,054	-0,020	-0,024
-204,636	-16,804	0,140	0,063
-203,621	-78,173	-0,093	-0,022
-202,606	-200,000	-0,016	-0,066
-201,592	-200,000	-0,023	-0,167
-200,577	425,796	0,016	-0,025
-199,563	-200,000	-0,013	-0,078
-198,548	-200,000	-0,011	0,078
-197,533	800,000	0,103	0,215
-196,519	800,000	-0,017	-0,035
-195,504	-112,708	-0,114	0,016
-194,490	505,308	-0,048	-0,079
-193,475	32,078	0,049	0,030
-192,460	800,000	-0,048	0,114
-191,446	-200,000	0,008	-0,033
-190,431	45,863	0,189	0,124
-189,417	-13,309	-0,109	-0,050
-188,402	84,144	0,199	-0,154
-187,387	-5,012	-0,029	-0,014
-186,373	-200,000	-0,014	0,093
-185,358	-72,842	0,136	-0,035
-184,344	-200,000	0,001	0,017
-183,329	118,396	0,030	0,026
-182,315	-61,184	-0,027	0,008
-181,300	397,263	-0,090	0,134
-180,285	58,246	-0,092	-0,064
-179,271	187,611	0,026	-0,028
-178,256	130,383	-0,007	-0,006
-177,242	61,713	0,048	-0,034
-176,227	-65,624	0,033	0,009
-175,212	269,589	-0,048	0,060
-174,198	800,000	0,038	-0,081
-173,183	800,000	-0,039	0,100
-172,169	-58,979	-0,135	-0,041
-171,154	800,000	-0,024	0,064
-170,139	64,209	0,144	0,103
-169,125	-133,948	0,027	-0,002
-168,110	-17,681	0,065	-0,029
-167,096	-101,441	-0,084	-0,014
-166,081	-151,347	-0,114	0,006
-165,066	-200,000	-0,021	-0,071
-164,052	800,000	0,022	-0,051
-163,037	125,399	-0,107	0,096
-162,023	148,851	0,112	-0,107
-161,008	-74,891	-0,086	-0,022
-159,993	117,527	0,076	-0,067
-158,979	-156,839	-0,090	-0,004
-157,964	499,433	-0,097	-0,159
-156,950	800,000	-0,058	0,142
-155,935	-55,123	-0,029	-0,009
-154,920	-76,136	0,043	-0,011
-153,906	35,359	0,111	-0,069
-152,891	800,000	-0,062	0,182
-151,877	581,418	-0,035	0,062
-150,862	-200,000	-0,015	-0,105
-149,847	682,894	0,086	-0,161
-148,833	89,073	0,072	-0,057
-147,818	-93,767	0,121	0,024
-146,804	-200,000	0,011	0,074
-145,789	-200,000	-0,001	0,022
-144,775	52,695	-0,084	-0,057
-143,760	-104,584	-0,030	0,005
-142,745	-81,921	-0,096	0,022
-141,731	165,632	-0,018	0,018
-140,716	546,121	0,055	0,093
-139,702	-200,000	-0,039	0,151
-138,687	20,475	-0,056	0,032
-137,672	-200,000	0,000	0,051
-136,658	800,000	-0,026	-0,081
-135,643	-81,343	0,073	-0,017
-134,629	-106,311	-0,199	-0,031
-133,614	394,757	0,073	0,108
-132,599	-200,000	0,002	0,162
-131,585	393,095	-0,017	-0,026
-130,570	-200,000	-0,015	-0,136
-129,556	264,212	-0,094	-0,116
-128,541	15,711	-0,047	0,026
-127,526	114,205	-0,016	-0,014
-126,512	-200,000	-0,001	-0,082
-125,497	-111,209	0,108	0,015
-124,483	-153,251	0,104	-0,005
-123,468	-200,000	-0,002	0,092
-122,453	86,758	0,087	-0,068
-121,439	293,695	-0,084	-0,108
-120,424	800,000	0,060	-0,157
-119,410	238,286	0,053	0,062
-118,395	800,000	0,076	0,191
-117,380	-200,000	0,015	-0,086
-116,366	800,000	-0,020	-0,041
-115,351	132,284	-0,093	-0,085
-114,337	800,000	0,044	0,112
-113,322	800,000	-0,030	-0,088
-112,307	84,143	0,047	-0,036
-111,293	35,992	0,113	0,070
-110,278	768,376	0,027	0,051
-109,264	172,153	0,041	0,042
-108,249	483,736	-0,029	0,047
-107,234	-101,498	-0,127	0,022
-106,220	119,730	-0,123	0,108
-105,205	372,492	0,069	0,100
-104,191	-200,000	0,013	-0,087
-103,176	0,979	0,065	0,033
-102,162	-200,000	-0,001	0,045
-101,147	-200,000	-0,008	-0,093
-100,132	-200,000	-0,003	0,087
-99,118	94,112	-0,057	0,046
-98,103	435,717	0,034	0,053
-97,089	-200,000	0,008	0,063
-96,074	302,628	-0,056	0,073
-95,059	800,000	-0,041	0,098
-94,045	-199,110	0,121	0,000
-93,030	-25,759	-0,145	-0,060
-92,016	115,229	-0,104	-0,090
-91,001	-25,117	0,044	0,018
-89,986	-61,044	0,184	0,055
-88,972	413,754	0,054	0,081
-87,957	-200,000	-0,006	-0,083
-86,943	132,259	-0,085	-0,077
-85,928	105,856	0,061	-0,051
-84,913	697,723	-0,037	-0,070
-83,899	21,438	-0,049	-0,028
-82,884	800,000	0,020	0,043
-81,870	540,704	-0,031	0,053
-80,855	-63,376	-0,057	-0,016
-79,840	36,765	0,051	-0,032
-78,826	-200,000	-0,010	-0,033
-77,811	-126,891	-0,155	-0,016
-76,797	74,456	-0,124	-0,092
-75,782	299,260	-0,067	-0,087
-74,767	4,769	-0,013	-0,007
-73,753	-200,000	-0,007	0,119
-72,738	-114,251	0,126	0,017
-71,724	800,000	-0,068	-0,137
-70,709	485,521	-0,029	-0,047
-69,694	-200,000	0,003	0,133
-68,680	-141,489	-0,108	-0,008
-67,665	165,724	0,083	0,083
-66,651	-200,000	0,003	0,014
-65,636	394,726	-0,105	-0,155
-64,622	-48,740	-0,111	0,037
-63,607	-200,000	-0,027	-0,111
-62,592	325,746	-0,048	-0,066
-61,578	-200,000	0,022	-0,091
-60,563	-200,000	-0,001	0,044
-59,549	-200,000	-0,012	-0,107
-58,534	24,623	-1,977	-1,153
-57,519	628,465	-1,149	-2,059
-56,505	-200,000	-0,285	-4,264
-55,490	499,272	0,880	1,437
-54,476	800,000	4,931	11,077
-53,461	-200,000	20,988	329,385
-52,446	800,000	757,434	2324,189
-51,432	550,624	1662,290	2826,404
-50,417	73,528	1664,118	1228,898
-49,403	18,709	1537,289	866,185
-48,388	12,680	1460,053	793,485
-47,373	19,098	1451,086	819,414
-46,359	15,911	1440,305	798,119
-45,344	10,972	1436,323	772,345
-44,330	10,903	1434,208	770,847
-43,315	10,931	1432,157	769,851
-42,300	10,889	1430,548	768,753
-41,286	10,952	1429,003	768,192
-40,271	10,901	1427,985	767,371
-39,257	10,873	1426,790	766,566
-38,242	10,930	1425,607	766,171
-37,227	10,928	1424,508	765,540
-36,213	10,961	1423,405	765,073
-35,198	10,985	1422,014	764,406
-34,184	10,945	1421,457	763,890
-33,169	10,913	1420,095	762,979
-32,154	10,955	1419,070	762,595
-31,140	10,967	1417,962	762,023
-30,125	10,978	1416,731	761,385
-29,111	10,982	1415,484	760,701
-28,096	10,956	1414,272	759,901
-27,082	10,928	1413,354	759,244
-26,067	10,900	1412,157	758,441
-25,052	10,924	1411,047	757,927
-24,038	10,909	1410,108	757,321
-23,023	10,915	1408,999	756,722
-22,009	10,873	1408,117	756,022
-20,994	10,881	1406,878	755,364
-19,979	10,871	1406,102	754,875
-18,965	10,838	1405,245	754,229
-17,950	10,840	1404,224	753,660
-16,936	10,831	1403,610	753,258
-15,921	10,749	1402,521	752,261
-14,906	10,761	1401,688	751,843
-13,892	10,788	1400,680	751,395
-12,877	10,783	1399,639	750,785
-11,863	10,813	1398,864	750,480
-10,848	10,726	1398,306	749,746
-9,833	10,746	1397,165	749,196
-8,819	10,684	1396,390	748,465
-7,804	10,694	1395,499	748,002
-6,790	10,709	1394,496	747,506
-5,775	10,720	1393,413	746,948
-4,760	10,692	1392,501	746,298
-3,746	10,723	1391,472	745,860
-2,731	10,703	1390,651	745,298
-1,717	10,716	1389,967	744,961
-0,702	10,659	1388,082	743,658
0,313	14,750	1301,510	716,006
1,327	31,094	693,001	418,424
2,342	48,140	120,198	79,168
3,356	0,905	16,562	8,345
4,371	9,800	3,405	1,817
5,386	39,665	0,737	0,465
6,400	800,000	0,193	0,517
7,415	220,662	-0,121	-0,137
8,429	103,742	-0,394	-0,326
9,444	1,949	-0,415	-0,210
10,459	23,434	-0,303	-0,175
11,473	22,791	-0,346	-0,200
12,488	-103,250	-0,301	-0,050
13,502	3,953	-0,210	-0,108
14,517	87,721	-0,243	-0,190
15,531	149,658	-0,272	-0,259
16,546	444,533	-0,198	-0,307
17,561	237,097	-0,387	-0,452
18,575	-189,332	-0,130	0,001
19,590	155,826	-0,268	-0,260
20,604	-114,009	-0,343	-0,046
21,619	77,089	-0,321	-0,240
22,634	178,165	-0,426	-0,438
23,648	78,606	-0,507	-0,382
24,663	212,022	-0,335	-0,372
25,677	62,160	-0,414	-0,290
26,692	112,403	-0,311	-0,264
27,707	89,478	-0,371	-0,291
28,721	243,425	-0,185	-0,218
29,736	45,447	-0,347	-0,225
30,750	128,717	-0,375	-0,336
31,765	222,262	-0,290	-0,328
32,780	53,629	-0,252	-0,170
33,794	50,848	-0,352	-0,234
34,809	131,457	-0,296	-0,267
35,823	-22,569	-0,334	-0,142
36,838	50,154	-0,378	-0,251
37,853	240,612	-0,261	-0,307
38,867	219,110	-0,292	-0,329
39,882	40,355	-0,334	-0,211
40,896	206,097	-0,264	-0,289
41,911	25,045	-0,270	-0,157
42,926	95,396	-0,344	-0,275
43,940	14,024	-0,447	-0,244
44,955	421,679	-0,304	-0,460
45,969	296,068	-0,239	-0,309
46,984	-28,776	-0,380	-0,153
47,999	9,083	-0,374	-0,198
49,013	159,352	-0,267	-0,262
50,028	-42,356	-0,374	-0,133
51,042	145,293	-0,341	-0,321
52,057	115,226	-0,313	-0,269
53,071	511,363	-0,227	-0,373
54,086	592,381	-0,134	-0,233
55,101	77,349	-0,223	-0,166
56,115	-20,082	-0,504	-0,217
57,130	169,462	-0,267	-0,268
58,144	433,173	-0,299	-0,458
59,159	193,888	-0,279	-0,297
60,174	366,502	-0,215	-0,306
61,188	145,807	-0,241	-0,227
62,203	35,137	-0,452	-0,277
63,217	36,501	-0,330	-0,204
64,232	-40,654	-0,351	-0,127
65,247	10,917	-0,369	-0,197
66,261	6,178	-0,336	-0,174
67,276	7,317	-0,277	-0,145
68,290	73,066	-0,342	-0,251
69,305	0,044	-0,305	-0,152
70,320	143,090	-0,279	-0,261
71,334	203,258	-0,300	-0,325
72,349	-24,563	-0,329	-0,137
73,363	24,038	-0,287	-0,166
74,378	115,416	-0,278	-0,238
75,393	87,936	-0,334	-0,259
76,407	52,119	-0,211	-0,140
77,422	63,491	-0,213	-0,150
78,436	376,020	-0,111	-0,159
79,451	-7,007	-0,374	-0,177
80,466	39,533	-0,436	-0,273
81,480	248,701	-0,298	-0,354
82,495	710,310	-0,151	-0,280
83,509	34,767	-0,302	-0,185
84,524	-26,906	-0,237	-0,097
85,539	46,534	-0,346	-0,224
86,553	64,826	-0,245	-0,173
87,568	147,865	-0,363	-0,343
88,582	69,052	-0,358	-0,257
89,597	133,274	-0,294	-0,266
90,611	55,833	-0,222	-0,151
91,626	438,061	-0,159	-0,243
92,641	-90,520	-0,239	-0,048
93,655	124,374	-0,231	-0,203
94,670	20,821	-0,338	-0,191
95,684	-83,096	-0,345	-0,077
96,699	205,409	-0,231	-0,251
97,714	-42,793	-0,325	-0,115
98,728	146,330	-0,179	-0,168
99,743	-54,709	-0,265	-0,083
100,757	274,900	-0,085	-0,106
101,772	21,032	-0,416	-0,235
102,787	-20,189	-0,357	-0,153
103,801	-28,113	-0,327	-0,132
104,816	153,433	-0,283	-0,271
105,830	13,876	-0,219	-0,119
106,845	4,045	-0,350	-0,179
107,860	-79,296	-0,269	-0,063
108,874	57,460	-0,295	-0,201
109,889	800,000	-0,120	-0,316
110,903	11,791	-0,253	-0,135
111,918	24,943	-0,262	-0,151
112,933	97,840	-0,279	-0,224
113,947	-56,703	-0,383	-0,118
114,962	14,926	-0,225	-0,123
115,976	20,352	-0,256	-0,144
116,991	156,496	-0,276	-0,266
118,006	58,504	-0,351	-0,241
119,020	-27,087	-0,285	-0,116
120,035	105,400	-0,179	-0,148
121,049	368,961	-0,183	-0,259
122,064	97,277	-0,177	-0,142
123,079	328,346	-0,184	-0,247
124,093	100,287	-0,266	-0,216
125,108	-53,811	-0,328	-0,104
126,122	-17,196	-0,264	-0,116
127,137	242,548	-0,137	-0,161
128,151	-138,453	-0,243	-0,018
129,166	36,652	-0,215	-0,132
130,181	60,443	-0,196	-0,135
131,195	69,456	-0,226	-0,162
132,210	159,803	-0,277	-0,269
133,224	191,374	-0,226	-0,238
134,239	568,759	-0,117	-0,199
135,254	148,882	-0,205	-0,193
136,268	23,761	-0,254	-0,146
137,283	127,974	-0,143	-0,127
138,297	91,281	-0,269	-0,210
139,312	400,499	-0,238	-0,349
140,327	800,000	-0,097	-0,241
141,341	-160,067	-0,249	-0,009
142,356	-17,390	-0,188	-0,082
143,370	-97,672	-0,289	-0,052
144,385	298,975	-0,169	-0,217
145,400	212,698	-0,260	-0,286
146,414	98,518	-0,209	-0,168
147,429	143,485	-0,221	-0,206
148,443	73,555	-0,171	-0,125
149,458	168,174	-0,209	-0,208
150,473	-131,315	-0,188	-0,017
151,487	144,207	-0,156	-0,145
152,502	62,042	-0,226	-0,157
153,516	9,132	-0,277	-0,145
154,531	171,132	-0,184	-0,184
155,546	-18,158	-0,179	-0,078
156,560	141,534	-0,194	-0,179
157,575	-24,621	-0,240	-0,099
158,589	92,396	-0,231	-0,181
159,604	126,133	-0,192	-0,169
160,619	51,294	-0,349	-0,230
161,633	227,761	-0,233	-0,264
162,648	149,784	-0,278	-0,262
163,662	186,508	-0,154	-0,160
164,677	-149,144	-0,189	0,010
165,692	-42,219	-0,233	0,082
166,706	411,370	-0,165	-0,244
167,721	274,054	-0,228	-0,281
168,735	71,135	-0,132	-0,095
169,750	66,709	-0,270	-0,191
170,764	-24,320	-0,204	-0,084
171,779	152,910	-0,238	-0,226
172,794	41,486	-0,184	-0,116
173,808	349,225	-0,141	-0,194
174,823	85,349	-0,285	-0,218
175,837	502,635	-0,166	-0,268
176,852	433,316	-0,166	-0,251
177,867	168,736	-0,195	-0,194
178,881	71,558	-0,230	-0,166
179,896	-110,151	-0,285	-0,041
180,910	177,068	-0,134	-0,136
181,925	149,105	-0,186	-0,174
182,940	352,124	-0,108	-0,149
183,954	191,436	-0,146	-0,153
184,969	572,233	-0,096	-0,163
185,983	144,015	-0,114	-0,105
186,998	-88,606	-0,187	-0,038
188,013	207,997	-0,090	-0,098
189,027	2,115	-0,195	-0,098
190,042	-60,273	-0,262	-0,077
191,056	213,254	-0,191	-0,210
192,071	49,188	-0,206	-0,134
193,086	-137,365	-0,146	0,011
194,100	-69,278	-0,052	-0,014
195,115	11,133	-0,164	-0,087
196,129	63,358	-0,221	-0,154
197,144	105,276	-0,218	-0,178
198,159	219,680	-0,150	-0,167
199,173	42,744	-0,219	-0,138
200,188	770,318	-0,145	-0,275
201,202	800,000	-0,057	-0,160
202,217	34,639	-0,192	-0,116
203,232	800,000	-0,035	-0,091
204,246	102,782	-0,219	-0,178
205,261	80,797	-0,227	-0,169
206,275	265,872	-0,123	-0,149
207,290	12,271	-0,159	-0,084
208,304	-22,760	-0,103	-0,043
209,319	51,071	-0,162	-0,106
210,334	-96,824	-0,261	-0,047
211,348	185,639	-0,286	-0,294
212,363	800,000	-0,068	-0,164
213,377	51,866	-0,212	-0,140
214,392	471,468	-0,135	-0,211
215,407	636,801	-0,101	-0,178
216,421	482,633	-0,119	-0,187
217,436	160,529	-0,183	-0,177
218,450	-121,452	-0,150	-0,017
219,465	226,236	-0,202	-0,227
220,480	-84,020	-0,294	-0,064
221,494	-82,585	-0,238	-0,053
222,509	119,793	-0,184	-0,158
223,523	-82,369	-0,116	-0,026
224,538	9,333	-0,181	-0,095
225,553	96,623	-0,256	-0,202
226,567	800,000	-0,084	-0,234
227,582	18,261	-0,179	-0,099
228,596	-22,340	-0,071	-0,030
229,611	409,654	-0,045	-0,067
230,626	217,624	-0,081	-0,089
231,640	248,318	-0,196	-0,230
232,655	215,482	-0,166	-0,182
233,669	248,222	-0,188	-0,220
234,684	63,706	-0,225	-0,156
235,699	481,506	-0,103	-0,162
236,713	-37,611	-0,177	-0,065
237,728	-23,218	-0,171	-0,071
238,742	203,842	-0,064	-0,068
239,757	8,337	-0,193	-0,100
240,772	-46,892	-0,310	-0,104
241,786	51,604	-0,129	-0,085
242,801	28,921	-0,167	-0,098
243,815	-81,283	-0,227	-0,051
244,830	234,772	-0,095	-0,109
245,844	398,214	-0,132	-0,192
246,859	-92,138	-0,176	-0,034
247,874	24,764	-0,377	-0,215
248,888	800,000	-0,133	-0,289
249,903	169,378	-0,114	-0,112
250,917	-106,853	-0,066	0,010
251,932	-200,000	-0,027	-0,101
252,947	306,324	-0,124	-0,160
253,961	-200,000	-0,039	-0,166
254,976	619,660	-0,147	-0,256
255,990	98,956	-0,163	-0,130
257,005	509,479	-0,168	-0,271
258,020	307,021	-0,134	-0,172
259,034	96,064	-0,146	-0,115
260,049	144,864	-0,199	-0,184
261,063	54,606	-0,197	-0,131
262,078	267,097	-0,094	-0,114
263,093	74,450	-0,210	-0,152
264,107	215,494	-0,108	-0,118
265,122	167,689	-0,103	-0,101
266,136	50,857	-0,134	-0,088
267,151	199,590	-0,122	-0,130
268,166	244,822	-0,155	-0,180
269,180	439,774	-0,244	-0,368
270,195	326,943	-0,173	-0,229
271,209	508,325	-0,180	-0,290
272,224	-200,000	-0,095	-0,308
273,239	13,526	-0,097	-0,052
274,253	49,060	-0,204	-0,132
275,268	-11,621	-0,228	-0,103
276,282	237,847	-0,204	-0,233
277,297	-43,264	-0,290	-0,101
278,312	113,586	-0,149	-0,124
279,326	-49,543	-0,241	-0,079
280,341	-78,221	-0,057	-0,013
281,355	-200,000	-0,067	-0,228
282,370	173,474	-0,169	-0,168
283,384	518,922	-0,153	-0,247
284,399	76,508	-0,100	-0,073
285,414	-88,468	-0,124	-0,025
286,428	-70,458	-0,162	-0,042
287,443	-9,159	-0,135	-0,062
288,457	264,898	-0,121	-0,145
289,472	-100,369	-0,138	0,023
290,487	-26,552	-0,149	0,060
291,501	203,082	-0,188	-0,200
292,516	37,374	-0,202	-0,123
293,530	118,876	-0,254	-0,216
294,545	8,254	-0,151	-0,078
295,560	-147,253	-0,210	0,012
296,574	707,074	-0,071	-0,129
297,589	-200,000	-0,042	-0,221
298,603	-58,306	-0,197	-0,058
299,618	61,619	-0,151	-0,103
300,633	37,818	-0,233	-0,142
301,647	89,033	-0,130	-0,099
302,662	-181,000	-0,251	-0,003
303,676	418,560	-0,137	-0,202
304,691	217,655	-0,160	-0,175
305,706	113,412	-0,182	-0,152
306,720	-46,915	-0,197	-0,066
307,735	-42,351	-0,217	-0,076
308,749	-131,763	-0,159	-0,014
309,764	73,692	-0,196	-0,141
310,779	167,669	-0,160	-0,156
311,793	800,000	-0,032	-0,085
312,808	798,750	-0,155	-0,296
313,822	617,509	-0,105	-0,181
314,837	-143,880	-0,202	-0,013
315,852	-126,673	-0,054	-0,005
316,866	216,725	-0,121	-0,132
317,881	-200,000	-0,032	-0,124
318,895	-94,775	-0,141	-0,026
319,910	263,338	-0,174	-0,207
320,925	-143,454	-0,269	0,017
321,939	-68,017	-0,128	-0,034
322,954	-200,000	0,007	-0,068
323,968	-54,902	0,026	-0,008
324,983	-200,000	-0,016	-0,148
325,997	800,000	-0,098	-0,194
327,012	38,557	-0,085	-0,052
328,027	567,077	-0,154	-0,257
329,041	53,015	-0,118	-0,077
330,056	-17,284	-0,229	-0,099
331,070	-143,890	-0,032	0,002
332,085	0,405	-0,151	0,074
333,100	-155,070	-0,106	-0,005
334,114	-107,938	-0,117	0,017
335,129	-96,804	-0,172	-0,031
336,143	-52,855	-0,050	-0,016
337,158	775,439	-0,070	-0,132
338,173	292,294	-0,120	-0,150
339,187	580,487	0,077	-0,129
340,202	116,561	-0,093	-0,078
341,216	-60,934	-0,112	0,032
342,231	33,466	-0,081	-0,048
343,246	-62,345	-0,201	-0,057
344,260	-43,384	-0,167	-0,057
345,275	206,510	-0,066	0,070
346,289	633,327	0,030	-0,052
347,304	-200,000	0,011	-0,069
348,319	406,432	-0,093	-0,135
349,333	453,984	-0,104	-0,158
350,348	-146,699	-0,100	0,006
351,362	-200,000	-0,135	-0,000
352,377	-68,108	-0,169	0,045
353,392	72,901	-0,128	-0,091
354,406	800,000	-0,111	-0,217
355,421	206,745	1310,454	1398,281
356,435	159,014	1470,631	1398,757
