DTS Sentinel unit serial number:	SN410029Multiplexer serial number:	ORYXHardware model number:	OX2-SRSoftware version number:	ORYX F/W v4,00 Oryx Data Collector v3.7.2.0data status	okinstallation	B3 Nyhavnadifferential loss correction	single-endedforward channel	channel 1reverse channel	N/Adate	2023/12/05time	04:17:30forward acquisition time	300,00reverse acquisition time	0,00gamma	499,1914k internal	0,3201k external	0,3201temperature offset calibration	1,0000default loss term (dB/km)	0,3820temperature slope calibration	1,0000multiplexer offset coefficient	1,0000multiplexer slope coefficient	1,0000fibre end	0,00T internal ref (°C)	14,15T ext. ref 1 (°C)	-0,77T ext. ref 2 (°C)	-0,79length (m)	temperature (°C)	Stokes	anti-Stokes-744,400	41,628	-0,341	-0,225
-743,385	800,000	0,088	0,197
-742,371	-140,150	-0,253	0,019
-741,356	-200,000	0,062	0,373
-740,342	-200,000	0,031	-0,214
-739,327	-200,000	-0,009	0,341
-738,312	287,291	-0,159	-0,210
-737,298	-200,000	0,058	0,229
-736,283	114,853	-0,236	-0,210
-735,269	800,000	0,106	0,290
-734,254	13,268	-0,161	-0,091
-733,239	3,613	-0,095	0,050
-732,225	446,226	-0,179	-0,287
-731,210	44,322	0,102	0,068
-730,196	231,999	0,062	-0,074
-729,181	800,000	0,038	-0,106
-728,167	277,580	-0,073	-0,095
-727,152	-90,760	-0,110	-0,023
-726,137	702,246	-0,067	-0,129
-725,123	-200,000	0,001	0,077
-724,108	476,850	-0,059	-0,097
-723,094	-7,073	0,053	-0,026
-722,079	17,102	-0,089	-0,051
-721,064	-200,000	0,001	-0,038
-720,050	800,000	0,027	-0,070
-719,035	-31,459	-0,089	0,036
-718,021	237,638	0,032	0,039
-717,006	-5,857	-0,155	-0,077
-715,991	-200,000	0,028	0,000
-714,977	286,307	-0,051	-0,066
-713,962	-88,145	-0,047	0,010
-712,948	-7,378	-0,064	0,032
-711,933	148,866	-0,049	-0,048
-710,918	71,121	-0,054	-0,040
-709,904	-200,000	0,027	0,138
-708,889	218,356	-0,163	-0,190
-707,875	-200,000	-0,025	-0,111
-706,860	87,342	-0,050	-0,040
-705,845	800,000	-0,050	-0,114
-704,831	-69,639	0,164	0,045
-703,816	-128,059	-0,164	-0,017
-702,802	14,473	0,107	0,061
-701,787	90,740	-0,085	-0,069
-700,772	-200,000	-0,052	-0,208
-699,758	800,000	-0,073	-0,164
-698,743	629,656	0,019	0,034
-697,729	440,056	0,022	-0,034
-696,714	244,467	0,098	0,120
-695,699	90,322	-0,102	0,082
-694,685	179,313	0,064	-0,068
-693,670	480,224	-0,086	-0,142
-692,656	-200,000	-0,006	0,150
-691,641	-17,789	-0,045	-0,020
-690,627	-60,471	-0,023	-0,007
-689,612	-200,000	0,011	0,038
-688,597	-42,438	0,015	0,005
-687,583	-198,467	-0,097	-0,000
-686,568	800,000	-0,028	0,081
-685,554	800,000	0,020	-0,058
-684,539	-200,000	-0,031	0,108
-683,524	581,802	-0,098	-0,176
-682,510	-25,228	0,071	-0,030
-681,495	99,792	-0,182	0,153
-680,481	-27,156	-0,059	-0,025
-679,466	117,423	0,026	-0,023
-678,451	106,050	-0,054	0,046
-677,437	-200,000	-0,002	0,006
-676,422	9,092	-0,030	0,016
-675,408	-200,000	0,004	0,039
-674,393	-29,214	0,023	-0,009
-673,378	-143,266	-0,155	-0,011
-672,364	327,348	-0,047	-0,065
-671,349	176,950	-0,065	-0,069
-670,335	32,948	-0,053	0,033
-669,320	-164,925	0,062	0,002
-668,305	-94,187	0,081	0,016
-667,291	-200,000	0,004	0,016
-666,276	800,000	0,049	0,106
-665,262	3,644	-0,098	-0,052
-664,247	414,875	0,090	-0,140
-663,232	76,701	-0,031	-0,024
-662,218	-4,790	0,163	0,081
-661,203	-196,510	0,077	0,000
-660,189	-88,045	-0,057	0,012
-659,174	-89,202	0,015	0,003
-658,159	-200,000	0,025	-0,116
-657,145	131,232	-0,132	-0,123
-656,130	-200,000	0,018	-0,099
-655,116	-105,045	0,113	0,019
-654,101	-82,782	-0,133	-0,031
-653,086	-200,000	0,025	0,095
-652,072	-12,247	-0,098	0,047
-651,057	-200,000	-0,003	-0,127
-650,043	326,453	-0,017	-0,024
-649,028	-55,110	0,107	0,035
-648,014	496,027	0,059	-0,099
-646,999	-119,989	-0,137	0,017
-645,984	4,676	-0,121	0,064
-644,970	-200,000	-0,007	-0,197
-643,955	-200,000	0,032	-0,131
-642,941	222,995	-0,059	-0,069
-641,926	75,178	0,078	0,059
-640,911	108,467	0,128	-0,111
-639,897	186,442	0,129	0,139
-638,882	16,104	-0,196	0,111
-637,868	-200,000	-0,023	-0,090
-636,853	-200,000	0,027	-0,121
-635,838	-8,111	-0,105	-0,051
-634,824	-86,976	-0,035	0,008
-633,809	-185,916	-0,059	0,001
-632,795	-19,220	0,100	0,045
-631,780	-100,049	0,086	0,015
-630,765	591,577	0,066	-0,119
-629,751	-56,261	0,010	0,003
-628,736	63,048	0,064	0,046
-627,722	-200,000	-0,002	-0,054
-626,707	32,018	-0,084	-0,053
-625,692	72,372	0,104	0,079
-624,678	155,198	0,036	0,036
-623,663	-110,131	0,017	0,003
-622,649	-200,000	0,033	-0,135
-621,634	800,000	-0,037	-0,106
-620,619	800,000	-0,038	-0,093
-619,605	18,512	-0,108	0,062
-618,590	-200,000	-0,001	0,018
-617,576	159,568	0,045	-0,045
-616,561	286,464	-0,022	0,029
-615,546	-200,000	0,009	-0,139
-614,532	73,256	0,030	-0,023
-613,517	-55,654	-0,111	-0,036
-612,503	-56,593	-0,021	-0,007
-611,488	-14,196	0,039	-0,018
-610,474	-200,000	0,015	-0,058
-609,459	-64,730	-0,167	-0,049
-608,444	-5,249	-0,033	0,016
-607,430	-200,000	0,008	-0,167
-606,415	800,000	-0,046	-0,132
-605,401	800,000	-0,006	-0,014
-604,386	-36,106	-0,025	0,010
-603,371	172,922	0,058	0,060
-602,357	120,610	0,092	0,083
-601,342	-200,000	0,011	-0,172
-600,328	204,231	-0,066	-0,074
-599,313	800,000	-0,017	-0,038
-598,298	-32,698	0,091	-0,037
-597,284	-200,000	0,004	0,050
-596,269	-133,095	-0,094	-0,008
-595,255	-71,022	0,035	0,009
-594,240	57,867	-0,057	-0,040
-593,225	-65,637	0,038	0,011
-592,211	-200,000	0,004	-0,127
-591,196	637,287	-0,020	-0,037
-590,182	800,000	0,011	-0,032
-589,167	-135,368	-0,095	0,008
-588,152	-200,000	-0,012	0,058
-587,138	800,000	0,015	0,039
-586,123	-200,000	-0,031	-0,142
-585,109	165,264	-0,064	-0,066
-584,094	693,171	-0,032	-0,061
-583,079	800,000	-0,059	-0,163
-582,065	-146,878	0,073	-0,004
-581,050	-35,436	-0,118	0,046
-580,036	-76,993	0,060	-0,015
-579,021	-20,366	-0,070	-0,031
-578,006	-200,000	-0,013	-0,065
-576,992	-200,000	-0,001	0,070
-575,977	138,187	-0,071	0,067
-574,963	107,892	0,031	0,027
-573,948	-2,026	-0,078	-0,040
-572,934	-200,000	-0,003	0,089
-571,919	-200,000	0,004	0,139
-570,904	800,000	0,030	0,084
-569,890	-200,000	0,005	-0,026
-568,875	-76,277	0,022	0,006
-567,861	-200,000	-0,007	0,103
-566,846	68,942	-0,176	0,130
-565,831	-200,000	-0,021	0,090
-564,817	464,482	-0,067	-0,108
-563,802	-106,984	-0,055	0,009
-562,788	175,120	-0,090	-0,094
-561,773	-200,000	0,003	-0,113
-560,758	224,008	-0,068	-0,079
-559,744	48,633	0,091	0,062
-558,729	-200,000	0,005	-0,041
-557,715	800,000	-0,015	0,031
-556,700	51,944	0,127	-0,087
-555,685	-200,000	0,007	-0,132
-554,671	493,068	0,053	-0,088
-553,656	-200,000	-0,005	0,042
-552,642	-117,392	0,085	-0,011
-551,627	-79,125	-0,052	0,013
-550,612	-131,615	0,065	0,006
-549,598	375,446	0,012	-0,018
-548,583	800,000	0,010	0,025
-547,569	366,393	0,042	-0,062
-546,554	258,681	-0,128	-0,159
-545,539	-200,000	-0,004	0,047
-544,525	-200,000	0,018	0,190
-543,510	-200,000	0,009	-0,156
-542,496	-200,000	-0,007	0,028
-541,481	102,622	-0,112	0,095
-540,466	582,019	-0,092	0,163
-539,452	-102,126	0,124	0,021
-538,437	81,656	0,099	-0,077
-537,423	245,698	0,040	0,049
-536,408	250,995	0,022	0,027
-535,393	234,556	0,023	-0,028
-534,379	643,689	-0,022	0,041
-533,364	52,322	0,085	0,058
-532,350	800,000	0,025	0,062
-531,335	-200,000	0,038	-0,175
-530,321	-40,743	0,035	0,013
-529,306	80,033	0,089	0,069
-528,291	375,207	-0,116	-0,171
-527,277	140,203	-0,107	-0,102
-526,262	800,000	-0,043	0,091
-525,248	-100,265	0,075	0,013
-524,233	200,465	0,073	0,081
-523,218	104,999	-0,015	-0,013
-522,204	-114,302	-0,088	0,012
-521,189	-200,000	0,031	0,127
-520,175	800,000	0,037	-0,099
-519,160	-200,000	-0,022	-0,125
-518,145	800,000	0,030	0,066
-517,131	-200,000	-0,007	0,033
-516,116	-7,289	0,071	-0,035
-515,102	-107,349	-0,169	-0,026
-514,087	-200,000	-0,007	-0,041
-513,072	-103,115	0,104	-0,018
-512,058	800,000	-0,027	-0,066
-511,043	153,275	-0,024	-0,023
-510,029	-51,794	-0,066	-0,022
-509,014	-200,000	0,021	0,086
-507,999	-200,000	-0,002	0,058
-506,985	-56,100	-0,106	0,034
-505,970	163,240	-0,057	-0,057
-504,956	108,579	0,044	-0,038
-503,941	394,589	-0,069	-0,103
-502,926	763,384	-0,010	-0,020
-501,912	-200,000	0,005	0,105
-500,897	-113,669	-0,070	-0,010
-499,883	-35,865	-0,073	0,028
-498,868	-128,522	0,164	0,017
-497,853	-200,000	-0,004	-0,044
-496,839	-24,718	-0,072	-0,031
-495,824	76,931	0,108	0,082
-494,810	-200,000	-0,024	0,198
-493,795	102,781	-0,153	0,129
-492,781	579,760	0,056	-0,100
-491,766	546,513	0,067	-0,116
-490,751	254,714	-0,054	0,066
-489,737	-8,631	0,101	0,049
-488,722	-105,193	-0,004	-0,001
-487,708	275,181	0,058	0,074
-486,693	800,000	-0,058	0,135
-485,678	800,000	0,050	-0,106
-484,664	-73,968	-0,142	-0,037
-483,649	-200,000	0,008	-0,062
-482,635	-200,000	0,008	-0,037
-481,620	-112,910	0,051	-0,007
-480,605	-7,246	-0,095	-0,046
-479,591	800,000	0,032	0,081
-478,576	-30,732	0,101	-0,041
-477,562	128,714	0,062	0,057
-476,547	-200,000	-0,028	-0,147
-475,532	296,122	-0,099	-0,131
-474,518	800,000	-0,018	-0,046
-473,503	-34,515	-0,029	0,012
-472,489	800,000	-0,021	0,064
-471,474	-172,176	0,063	-0,001
-470,459	335,605	-0,041	0,057
-469,445	63,950	0,024	0,017
-468,430	800,000	-0,039	0,122
-467,416	-110,092	-0,164	-0,024
-466,401	-104,666	0,027	-0,004
-465,386	-200,000	0,039	-0,148
-464,372	-200,000	0,000	0,087
-463,357	-95,316	0,116	0,022
-462,343	200,882	-0,117	-0,130
-461,328	-200,000	0,011	-0,106
-460,313	-200,000	-0,008	0,091
-459,299	-200,000	0,039	0,136
-458,284	138,677	0,066	-0,063
-457,270	497,049	0,040	-0,067
-456,255	-41,964	0,023	-0,008
-455,241	800,000	-0,078	-0,179
-454,226	-200,000	-0,027	-0,100
-453,211	-114,035	-0,124	0,017
-452,197	-66,074	0,128	0,037
-451,182	800,000	0,051	0,149
-450,168	-116,067	-0,019	-0,003
-449,153	-26,794	0,084	0,035
-448,138	66,135	-0,096	-0,070
-447,124	192,033	0,056	-0,061
-446,109	-200,000	0,002	-0,066
-445,095	423,263	0,053	0,082
-444,080	-200,000	0,014	0,049
-443,065	-61,089	0,037	0,011
-442,051	-200,000	-0,002	0,030
-441,036	-194,152	-0,137	-0,001
-440,022	-43,499	0,018	0,006
-439,007	456,603	0,039	0,062
-437,992	-121,794	0,119	0,014
-436,978	219,845	0,049	0,057
-435,963	-200,000	-0,012	0,131
-434,949	-81,248	0,057	0,013
-433,934	-83,698	0,035	0,008
-432,919	-125,727	0,152	-0,016
-431,905	138,912	-0,072	0,068
-430,890	-76,303	-0,088	0,022
-429,876	85,147	-0,048	-0,038
-428,861	-21,747	-0,080	0,035
-427,846	486,316	-0,011	0,019
-426,832	-78,775	-0,060	-0,015
-425,817	-200,000	-0,024	-0,087
-424,803	800,000	0,046	-0,123
-423,788	417,843	-0,025	-0,039
-422,773	-200,000	-0,012	-0,059
-421,759	595,887	-0,060	0,107
-420,744	-200,000	-0,017	-0,069
-419,730	635,536	0,058	-0,107
-418,715	-200,000	-0,035	-0,224
-417,701	459,435	0,048	0,077
-416,686	280,877	0,060	0,077
-415,671	40,227	0,119	-0,077
-414,657	85,801	-0,051	0,040
-413,642	-200,000	-0,010	0,146
-412,628	-200,000	-0,035	-0,121
-411,613	-57,857	-0,201	0,063
-410,598	68,636	0,048	0,036
-409,584	-200,000	0,021	-0,067
-408,569	-200,000	0,097	-0,000
-407,555	493,540	0,079	-0,131
-406,540	726,828	0,045	0,087
-405,525	18,853	-0,022	0,012
-404,511	15,997	0,058	-0,033
-403,496	-78,707	-0,032	-0,008
-402,482	-200,000	0,015	0,047
-401,467	-136,981	-0,094	0,008
-400,452	800,000	0,027	-0,062
-399,438	-138,354	0,141	-0,011
-398,423	-61,061	-0,138	0,042
-397,409	-136,493	0,079	0,007
-396,394	-200,000	-0,015	0,055
-395,379	-200,000	0,002	0,077
-394,365	17,768	-0,031	-0,018
-393,350	88,295	0,082	0,065
-392,336	336,417	0,079	-0,110
-391,321	765,046	-0,034	-0,068
-390,306	-200,000	0,021	-0,094
-389,292	402,966	0,029	0,044
-388,277	353,573	0,069	-0,099
-387,263	-7,061	0,075	0,037
-386,248	-5,135	0,061	0,030
-385,233	-64,986	-0,086	0,025
-384,219	-200,000	0,002	-0,198
-383,204	46,808	-0,103	-0,068
-382,190	313,541	-0,052	-0,071
-381,175	-200,000	0,060	-0,217
-380,160	-200,000	0,015	0,107
-379,146	63,431	0,117	0,084
-378,131	253,103	0,049	0,060
-377,117	-14,049	0,159	0,073
-376,102	-200,000	-0,034	0,210
-375,088	29,892	0,060	-0,037
-374,073	-46,873	0,022	0,008
-373,058	23,718	-0,040	-0,023
-372,044	-28,851	0,192	0,079
-371,029	295,399	-0,041	0,054
-370,015	800,000	0,034	-0,092
-369,000	225,510	0,009	-0,011
-367,985	24,665	0,118	0,070
-366,971	-27,382	0,064	-0,027
-365,956	-127,676	0,092	0,009
-364,942	-121,937	-0,049	0,006
-363,927	203,726	0,052	0,057
-362,912	461,351	-0,033	-0,053
-361,898	-68,818	0,046	-0,013
-360,883	-106,259	-0,095	0,015
-359,869	800,000	-0,018	-0,043
-358,854	131,044	-0,105	0,097
-357,839	2,590	0,120	0,062
-356,825	-106,390	-0,064	0,010
-355,810	800,000	-0,069	0,146
-354,796	800,000	-0,063	-0,146
-353,781	120,687	0,100	-0,089
-352,766	-200,000	-0,025	-0,161
-351,752	16,773	-0,088	0,050
-350,737	109,984	-0,046	-0,039
-349,723	-200,000	-0,002	-0,073
-348,708	15,168	0,153	0,086
-347,693	117,374	-0,041	-0,036
-346,679	484,059	0,020	0,033
-345,664	-200,000	0,026	-0,093
-344,650	800,000	0,004	0,010
-343,635	250,402	0,141	-0,172
-342,620	7,270	-0,046	0,025
-341,606	299,696	0,042	-0,056
-340,591	-64,595	-0,057	0,017
-339,577	573,456	-0,039	-0,068
-338,562	-176,862	-0,143	0,003
-337,548	-200,000	-0,039	0,135
-336,533	493,355	0,075	0,124
-335,518	-200,000	-0,017	0,096
-334,504	96,678	0,037	0,030
-333,489	-111,454	-0,041	-0,006
-332,475	-77,161	0,182	-0,045
-331,460	569,614	-0,022	-0,038
-330,445	136,235	0,044	0,041
-329,431	-200,000	0,003	0,104
-328,416	-6,769	0,050	0,024
-327,402	654,186	0,071	0,132
-326,387	-36,124	-0,042	-0,016
-325,372	-101,616	-0,028	-0,005
-324,358	-200,000	0,004	0,012
-323,343	800,000	-0,018	0,056
-322,329	179,224	-0,077	-0,081
-321,314	298,770	0,079	0,104
-320,299	115,808	-0,041	-0,035
-319,285	199,231	-0,082	0,090
-318,270	-122,881	-0,051	-0,006
-317,256	52,065	-0,081	0,055
-316,241	800,000	0,025	0,079
-315,226	-15,444	0,017	0,008
-314,212	775,622	0,010	0,020
-313,197	263,139	0,116	0,144
-312,183	94,709	-0,086	0,070
-311,168	-200,000	0,013	-0,124
-310,153	93,834	-0,075	-0,061
-309,139	-200,000	-0,026	0,155
-308,124	106,980	-0,130	0,111
-307,110	347,613	0,058	0,082
-306,095	211,761	0,091	0,103
-305,080	362,366	-0,038	0,055
-304,066	84,757	-0,082	-0,064
-303,051	-33,702	-0,063	-0,025
-302,037	-146,344	-0,064	-0,004
-301,022	-14,746	-0,111	0,051
-300,008	-66,584	0,081	-0,023
-298,993	303,928	-0,053	-0,071
-297,978	800,000	0,032	0,085
-296,964	-63,921	-0,061	-0,018
-295,949	-60,493	-0,168	-0,051
-294,935	-200,000	0,007	0,106
-293,920	800,000	-0,060	-0,182
-292,905	800,000	-0,018	0,051
-291,891	-130,969	0,020	0,002
-290,876	800,000	0,016	0,040
-289,862	183,511	0,054	0,057
-288,847	-200,000	0,016	0,085
-287,832	-200,000	-0,011	-0,124
-286,818	71,624	0,046	-0,034
-285,803	-200,000	-0,015	0,132
-284,789	645,959	0,016	-0,030
-283,774	-142,843	0,069	-0,005
-282,759	800,000	-0,046	0,095
-281,745	-90,346	-0,064	0,013
-280,730	342,775	-0,086	0,120
-279,716	213,608	0,068	-0,077
-278,701	800,000	0,012	-0,035
-277,686	-41,790	0,093	0,034
-276,672	-35,754	-0,080	0,031
-275,657	-150,733	-0,094	-0,005
-274,643	-10,369	-0,032	0,015
-273,628	62,728	-0,067	0,048
-272,613	-87,081	0,042	-0,009
-271,599	800,000	0,010	0,021
-270,584	-36,755	-0,018	-0,007
-269,570	87,845	-0,028	-0,022
-268,555	-200,000	0,001	-0,065
-267,540	-200,000	0,031	-0,121
-266,526	-200,000	0,004	-0,153
-265,511	-200,000	-0,037	0,213
-264,497	85,549	0,113	-0,088
-263,482	474,576	-0,030	0,049
-262,467	111,411	0,177	0,152
-261,453	-3,051	-0,130	0,065
-260,438	-200,000	0,047	-0,172
-259,424	13,415	-0,050	-0,027
-258,409	69,484	-0,075	0,055
-257,395	-85,737	0,071	0,016
-256,380	-200,000	-0,008	0,112
-255,365	303,696	0,200	0,266
-254,351	-14,561	-0,062	-0,029
-253,336	7,587	-0,050	-0,027
-252,322	800,000	-0,055	-0,170
-251,307	-91,183	0,075	0,015
-250,292	-52,067	0,096	0,032
-249,278	40,632	0,138	0,089
-248,263	800,000	-0,093	0,204
-247,249	170,582	-0,077	-0,079
-246,234	98,733	-0,068	-0,056
-245,219	-194,519	0,086	0,000
-244,205	381,114	-0,116	-0,170
-243,190	-84,746	0,120	-0,027
-242,176	107,352	0,063	-0,053
-241,161	128,252	0,137	0,125
-240,146	22,153	0,059	-0,034
-239,132	-200,000	0,008	0,068
-238,117	24,418	-0,076	0,045
-237,103	96,001	-0,210	-0,171
-236,088	43,664	-0,118	-0,077
-235,073	182,254	0,121	-0,127
-234,059	-10,102	0,039	0,018
-233,044	80,000	-0,074	0,057
-232,030	-84,022	0,120	0,027
-231,015	-200,000	-0,013	-0,101
-230,000	800,000	-0,018	0,037
-228,986	747,920	0,032	-0,061
-227,971	415,715	0,033	-0,050
-226,957	-200,000	0,059	0,000
-225,942	-200,000	-0,009	-0,083
-224,927	-35,005	-0,070	-0,027
-223,913	149,251	-0,097	0,094
-222,898	-164,964	-0,044	-0,001
-221,884	-200,000	0,017	-0,088
-220,869	-200,000	0,006	-0,165
-219,855	208,127	0,070	0,078
-218,840	465,669	-0,064	0,102
-217,825	16,329	0,058	0,033
-216,811	325,967	-0,035	0,048
-215,796	26,072	-0,117	-0,070
-214,782	359,879	-0,045	0,064
-213,767	34,255	0,077	0,048
-212,752	478,968	0,086	0,139
-211,738	235,111	0,028	-0,033
-210,723	85,339	0,066	0,052
-209,709	-200,000	-0,003	0,028
-208,694	434,747	0,093	-0,145
-207,679	6,218	-0,134	-0,071
-206,665	-158,359	0,062	0,003
-205,650	-200,000	-0,002	0,066
-204,636	67,833	0,059	0,043
-203,621	-114,054	0,113	-0,015
-202,606	185,104	-0,071	0,075
-201,592	19,011	-0,120	-0,068
-200,577	-138,871	-0,097	0,007
-199,563	493,392	0,010	0,017
-198,548	-143,852	0,166	-0,011
-197,533	800,000	0,024	0,071
-196,519	671,071	-0,032	0,059
-195,504	800,000	0,025	-0,052
-194,490	-58,499	0,061	0,019
-193,475	-28,869	-0,046	0,019
-192,460	-28,269	-0,037	0,015
-191,446	260,391	0,070	-0,087
-190,431	-132,190	0,086	-0,008
-189,417	-27,042	0,056	-0,023
-188,402	-1,353	-0,098	0,049
-187,387	101,619	-0,077	0,064
-186,373	-200,000	-0,004	-0,061
-185,358	800,000	0,035	0,101
-184,344	113,299	0,124	0,107
-183,329	-200,000	-0,034	0,123
-182,315	724,278	0,044	0,083
-181,300	174,403	-0,122	0,126
-180,285	800,000	0,039	0,088
-179,271	-200,000	0,005	-0,059
-178,256	-46,564	0,044	0,015
-177,242	800,000	0,012	-0,033
-176,227	-29,792	0,097	-0,039
-175,212	219,301	0,084	0,096
-174,198	-200,000	0,005	-0,059
-173,183	-27,326	0,068	-0,028
-172,169	800,000	0,037	0,075
-171,154	-63,587	0,049	0,014
-170,139	-200,000	0,022	0,071
-169,125	-110,255	0,156	0,023
-168,110	-200,000	0,046	0,173
-167,096	-179,709	-0,088	-0,001
-166,081	-200,000	-0,019	-0,076
-165,066	197,857	-0,049	0,053
-164,052	58,348	-0,131	-0,091
-163,037	-21,339	0,029	-0,013
-162,023	-200,000	0,008	0,131
-161,008	-200,000	-0,016	0,156
-159,993	-130,976	0,027	0,003
-158,979	-135,803	-0,152	-0,013
-157,964	-130,554	-0,135	-0,013
-156,950	18,093	-0,066	-0,037
-155,935	515,808	0,056	-0,093
-154,920	503,286	-0,020	0,033
-153,906	-200,000	-0,011	0,059
-152,891	-44,305	-0,114	0,040
-151,877	-200,000	-0,048	-0,162
-150,862	800,000	-0,073	-0,151
-149,847	-200,000	-0,013	-0,234
-148,833	244,465	0,016	-0,019
-147,818	-100,400	0,065	0,011
-146,804	152,514	0,060	0,058
-145,789	70,165	0,076	0,055
-144,775	729,293	0,036	0,068
-143,760	-12,313	-0,107	0,049
-142,745	163,921	-0,011	-0,011
-141,731	-200,000	0,015	-0,150
-140,716	-11,237	0,034	0,016
-139,702	-117,992	0,092	-0,012
-138,687	800,000	-0,040	0,095
-137,672	431,213	-0,043	-0,066
-136,658	301,286	0,037	-0,048
-135,643	-200,000	-0,029	0,113
-134,629	-36,381	-0,029	-0,011
-133,614	83,699	-0,086	-0,067
-132,599	-137,316	0,170	-0,014
-131,585	15,626	0,023	-0,013
-130,570	-162,520	0,082	-0,003
-129,556	-200,000	-0,018	-0,083
-128,541	-200,000	0,000	-0,032
-127,526	198,197	0,114	0,124
-126,512	-200,000	0,026	0,146
-125,497	173,651	-0,030	-0,031
-124,483	23,965	0,011	-0,007
-123,468	133,227	0,059	0,054
-122,453	-200,000	-0,001	-0,049
-121,439	503,398	0,057	-0,094
-120,424	227,259	-0,132	-0,152
-119,410	800,000	-0,033	-0,070
-118,395	800,000	0,025	0,056
-117,380	-13,851	0,019	0,008
-116,366	477,863	-0,056	-0,091
-115,351	395,056	0,036	-0,053
-114,337	800,000	-0,032	-0,080
-113,322	-91,515	0,089	-0,018
-112,307	800,000	0,074	0,177
-111,293	-200,000	-0,005	-0,141
-110,278	18,074	0,106	0,060
-109,264	-200,000	0,012	0,055
-108,249	-200,000	-0,008	-0,068
-107,234	-200,000	-0,067	-0,228
-106,220	800,000	0,064	-0,147
-105,205	-200,000	0,027	-0,278
-104,191	-132,023	0,178	-0,016
-103,176	304,251	0,026	-0,034
-102,162	-127,283	0,086	-0,009
-101,147	800,000	-0,032	-0,096
-100,132	142,955	0,049	-0,046
-99,118	-23,544	-0,022	0,009
-98,103	-200,000	0,000	0,094
-97,089	800,000	0,012	0,023
-96,074	-200,000	-0,037	-0,159
-95,059	523,701	-0,035	-0,058
-94,045	-127,367	0,118	-0,012
-93,030	76,933	-0,026	0,019
-92,016	-200,000	-0,007	0,077
-91,001	-200,000	0,004	-0,189
-89,986	-200,000	0,014	-0,047
-88,972	241,752	0,091	-0,108
-87,957	-47,755	0,040	0,014
-86,943	755,273	-0,066	-0,128
-85,928	-52,377	-0,106	0,034
-84,913	-200,000	-0,014	-0,060
-83,899	800,000	0,050	0,118
-82,884	-200,000	0,028	0,098
-81,870	800,000	-0,036	0,103
-80,855	-200,000	-0,002	0,020
-79,840	219,195	0,020	-0,023
-78,826	92,898	-0,100	-0,080
-77,811	-200,000	-0,019	0,078
-76,797	800,000	0,016	-0,038
-75,782	-79,812	0,181	-0,043
-74,767	-41,009	0,106	-0,039
-73,753	86,806	0,122	-0,096
-72,738	63,262	-0,124	-0,088
-71,724	-200,000	-0,022	-0,109
-70,709	36,706	0,014	0,009
-69,694	-200,000	-0,004	-0,119
-68,680	361,324	0,102	0,145
-67,665	460,593	-0,057	-0,091
-66,651	800,000	-0,008	0,019
-65,636	237,864	-0,030	0,035
-64,622	99,838	-0,062	-0,051
-63,607	66,834	0,087	-0,063
-62,592	800,000	0,010	0,027
-61,578	-13,188	0,038	-0,017
-60,563	65,988	0,066	-0,048
-59,549	-200,000	-0,015	0,060
-58,534	-16,739	-1,599	-0,713
-57,519	403,425	-1,413	-2,111
-56,505	-200,000	-0,603	-4,534
-55,490	201,254	0,940	1,026
-54,476	800,000	4,943	11,575
-53,461	-200,000	18,711	304,539
-52,446	800,000	735,758	2288,742
-51,432	566,442	1652,052	2849,108
-50,417	78,989	1669,782	1264,413
-49,403	22,099	1543,137	889,178
-48,388	16,017	1465,800	815,074
-47,373	17,729	1455,782	817,740
-46,359	16,893	1445,838	808,115
-45,344	14,246	1441,405	792,936
-44,330	14,203	1439,495	791,646
-43,315	14,194	1437,701	790,586
-42,300	14,227	1435,973	789,763
-41,286	14,292	1434,608	789,291
-40,271	14,225	1433,386	788,268
-39,257	14,205	1432,340	787,565
-38,242	14,239	1430,873	786,890
-37,227	14,299	1429,854	786,582
-36,213	14,262	1428,394	785,574
-35,198	14,249	1427,342	784,903
-34,184	14,294	1426,453	784,596
-33,169	14,190	1425,264	783,416
-32,154	14,264	1424,134	783,114
-31,140	14,288	1422,788	782,455
-30,125	14,262	1421,771	781,745
-29,111	14,258	1420,457	780,971
-28,096	14,245	1419,541	780,376
-27,082	14,180	1418,516	779,473
-26,067	14,176	1417,370	778,794
-25,052	14,192	1416,229	778,212
-24,038	14,157	1415,378	777,550
-23,023	14,170	1414,321	776,999
-22,009	14,189	1413,098	776,387
-20,994	14,098	1412,604	775,657
-19,979	14,123	1411,533	775,155
-18,965	14,093	1410,529	774,432
-17,950	14,123	1409,706	774,090
-16,936	14,085	1408,794	773,381
-15,921	14,102	1407,524	772,733
-14,906	14,079	1406,698	772,139
-13,892	14,067	1405,876	771,601
-12,877	14,121	1404,689	771,174
-11,863	14,092	1403,789	770,512
-10,848	14,129	1402,920	770,177
-9,833	14,079	1402,145	769,487
-8,819	14,056	1401,088	768,771
-7,804	13,942	1400,429	767,850
-6,790	13,988	1399,232	767,373
-5,775	13,949	1398,328	766,667
-4,760	13,992	1397,151	766,192
-3,746	13,997	1396,512	765,835
-2,731	13,994	1395,647	765,315
-1,717	13,975	1394,634	764,642
-0,702	13,958	1392,981	763,626
0,313	17,755	1311,154	736,380
1,327	33,897	706,257	434,062
2,342	52,221	124,174	83,627
3,356	2,478	16,708	8,530
4,371	6,579	3,240	1,698
5,386	-63,383	0,632	0,183
6,400	273,784	-0,015	0,019
7,415	-126,957	-0,303	-0,031
8,429	103,116	-0,287	-0,238
9,444	-11,509	-0,307	-0,142
10,459	77,974	-0,161	-0,122
11,473	54,260	-0,326	-0,222
12,488	-97,654	-0,382	-0,069
13,502	-67,546	-0,333	0,092
14,517	62,184	-0,306	-0,215
15,531	-21,737	-0,312	-0,133
16,546	133,299	-0,329	-0,301
17,561	57,446	-0,309	-0,213
18,575	800,000	-0,062	-0,150
19,590	800,000	-0,097	-0,247
20,604	-57,789	-0,220	-0,067
21,619	42,339	-0,472	-0,302
22,634	64,767	-0,462	-0,329
23,648	46,697	-0,435	-0,285
24,663	233,016	-0,312	-0,363
25,677	422,612	-0,208	-0,316
26,692	124,585	-0,262	-0,233
27,707	-34,937	-0,424	-0,163
28,721	159,140	-0,241	-0,237
29,736	37,459	-0,388	-0,242
30,750	119,938	-0,460	-0,403
31,765	-6,812	-0,270	-0,129
32,780	92,347	-0,290	-0,230
33,794	52,031	-0,279	-0,187
34,809	83,305	-0,380	-0,291
35,823	17,362	-0,323	-0,180
36,838	22,334	-0,462	-0,265
37,853	-21,438	-0,474	-0,203
38,867	8,550	-0,498	-0,263
39,882	25,960	-0,314	-0,184
40,896	31,876	-0,367	-0,222
41,911	81,525	-0,303	-0,231
42,926	23,561	-0,301	-0,174
43,940	62,012	-0,397	-0,279
44,955	110,329	-0,265	-0,224
45,969	376,946	-0,218	-0,315
46,984	86,204	-0,300	-0,232
47,999	151,919	-0,133	-0,128
49,013	144,440	-0,183	-0,173
50,028	43,011	-0,352	-0,226
51,042	180,641	-0,341	-0,353
52,057	288,473	-0,334	-0,426
53,071	80,270	-0,408	-0,309
54,086	12,762	-0,338	-0,183
55,101	105,673	-0,368	-0,306
56,115	69,999	-0,334	-0,242
57,130	106,577	-0,303	-0,253
58,144	3,047	-0,296	-0,151
59,159	36,224	-0,478	-0,296
60,174	35,322	-0,370	-0,228
61,188	101,127	-0,360	-0,294
62,203	94,702	-0,379	-0,303
63,217	54,279	-0,361	-0,244
64,232	49,938	-0,391	-0,259
65,247	360,743	-0,235	-0,333
66,261	32,459	-0,312	-0,189
67,276	-10,064	-0,433	-0,202
68,290	41,378	-0,334	-0,212
69,305	-200,000	-0,030	-0,206
70,320	-55,605	-0,225	-0,070
71,334	11,665	-0,339	-0,182
72,349	160,721	-0,201	-0,198
73,363	75,748	-0,325	-0,241
74,378	146,115	-0,310	-0,293
75,393	39,701	-0,383	-0,241
76,407	-151,224	-0,320	-0,017
77,422	-40,143	-0,383	-0,139
78,436	160,993	-0,322	-0,316
79,451	-149,013	-0,320	-0,018
80,466	205,624	-0,199	-0,217
81,480	216,885	-0,196	-0,220
82,495	-158,407	-0,354	-0,014
83,509	-88,513	-0,349	-0,072
84,524	17,703	-0,397	-0,221
85,539	113,688	-0,299	-0,255
86,553	-69,507	-0,284	-0,076
87,568	227,370	-0,149	-0,170
88,582	54,606	-0,290	-0,196
89,597	-5,920	-0,341	-0,163
90,611	-3,804	-0,146	-0,071
91,626	-17,762	-0,189	-0,083
92,641	156,250	-0,197	-0,191
93,655	127,735	-0,236	-0,211
94,670	172,447	-0,270	-0,273
95,684	74,719	-0,172	-0,127
96,699	68,273	-0,362	-0,260
97,714	163,996	-0,325	-0,321
98,728	26,355	-0,244	-0,143
99,743	76,712	-0,220	-0,164
100,757	7,657	-0,227	-0,119
101,772	184,771	-0,271	-0,282
102,787	203,453	-0,228	-0,248
103,801	258,693	-0,204	-0,248
104,816	65,971	-0,344	-0,244
105,830	11,477	-0,259	-0,139
106,845	26,431	-0,296	-0,173
107,860	127,238	-0,217	-0,193
108,874	-19,037	-0,283	-0,123
109,889	124,644	-0,263	-0,232
110,903	9,687	-0,321	-0,170
111,918	800,000	-0,109	-0,220
112,933	65,985	-0,304	-0,216
113,947	-16,020	-0,276	-0,123
114,962	207,741	-0,107	-0,118
115,976	-61,731	-0,360	-0,105
116,991	29,028	-0,256	-0,152
118,006	196,131	-0,275	-0,293
119,020	182,511	-0,176	-0,182
120,035	72,927	-0,231	-0,169
121,049	-200,000	-0,044	-0,217
122,064	79,825	-0,220	-0,165
123,079	27,178	-0,269	-0,157
124,093	147,305	-0,214	-0,202
125,108	100,892	-0,286	-0,232
126,122	237,419	-0,189	-0,219
127,137	485,186	-0,167	-0,268
128,151	800,000	-0,067	-0,175
129,166	-50,490	-0,286	-0,094
130,181	57,871	-0,211	-0,144
131,195	170,932	-0,253	-0,254
132,210	235,101	-0,155	-0,179
133,224	259,931	-0,130	-0,157
134,239	800,000	-0,097	-0,256
135,254	-23,070	-0,240	-0,101
136,268	59,472	-0,185	-0,128
137,283	-88,873	-0,280	-0,058
138,297	182,602	-0,269	-0,278
139,312	118,992	-0,260	-0,225
140,327	609,061	-0,115	-0,202
141,341	315,751	-0,189	-0,250
142,356	185,573	-0,167	-0,174
143,370	-76,681	-0,087	-0,021
144,385	268,449	-0,153	-0,187
145,400	-133,995	-0,181	-0,015
146,414	43,904	-0,275	-0,176
147,429	-61,838	-0,451	-0,131
148,443	-1,641	-0,240	-0,118
149,458	260,117	-0,109	-0,132
150,473	45,163	-0,197	-0,127
151,487	-60,960	-0,185	-0,054
152,502	196,188	-0,146	-0,155
153,516	6,158	-0,347	-0,179
154,531	87,682	-0,257	-0,198
155,546	8,110	-0,215	-0,112
156,560	205,891	-0,240	-0,261
157,575	13,163	-0,192	-0,103
158,589	-34,096	-0,251	-0,096
159,604	145,236	-0,216	-0,202
160,619	95,833	-0,340	-0,271
161,633	124,764	-0,196	-0,172
162,648	367,163	-0,203	-0,287
163,662	188,876	-0,159	-0,167
164,677	299,935	-0,145	-0,187
165,692	121,644	-0,096	-0,084
166,706	112,859	-0,168	-0,142
167,721	168,742	-0,301	-0,299
168,735	40,875	-0,270	-0,170
169,750	122,552	-0,203	-0,177
170,764	180,101	-0,180	-0,184
171,779	-6,329	-0,265	-0,125
172,794	-27,957	-0,161	-0,065
173,808	-200,000	0,002	-0,160
174,823	-200,000	-0,075	-0,293
175,837	251,027	-0,206	-0,244
176,852	-68,865	-0,193	-0,052
177,867	75,834	-0,321	-0,236
178,881	584,399	-0,135	-0,232
179,896	-14,341	-0,250	-0,112
180,910	-1,452	-0,147	-0,072
181,925	150,952	-0,230	-0,218
182,940	11,340	-0,379	-0,202
183,954	-89,446	-0,200	-0,041
184,969	-39,501	-0,217	-0,079
185,983	282,075	-0,118	-0,147
186,998	-64,582	-0,279	-0,078
188,013	-54,668	-0,127	-0,040
189,027	-19,057	-0,231	-0,100
190,042	113,218	-0,180	-0,152
191,056	320,809	-0,108	-0,144
192,071	800,000	-0,078	-0,153
193,086	115,483	-0,125	-0,106
194,100	114,962	-0,240	-0,204
195,115	1,724	-0,263	-0,131
196,129	39,153	-0,154	-0,096
197,144	1,196	-0,466	-0,232
198,159	306,870	-0,201	-0,261
199,173	800,000	-0,099	-0,232
200,188	-35,429	-0,150	-0,056
201,202	-23,477	-0,209	-0,087
202,217	18,485	-0,250	-0,138
203,232	72,321	-0,143	-0,103
204,246	77,970	-0,215	-0,159
205,261	212,805	-0,207	-0,227
206,275	385,481	-0,123	-0,176
207,290	261,714	-0,164	-0,198
208,304	214,360	-0,160	-0,176
209,319	-159,419	-0,186	0,007
210,334	167,869	-0,176	-0,174
211,348	131,042	-0,353	-0,315
212,363	-100,948	-0,148	-0,025
213,377	742,792	-0,138	-0,258
214,392	149,131	-0,169	-0,159
215,407	-1,842	-0,251	-0,122
216,421	107,747	-0,206	-0,170
217,436	10,841	-0,152	-0,080
218,450	150,872	-0,307	-0,290
219,465	-56,286	-0,219	-0,067
220,480	-4,021	-0,239	-0,115
221,494	-200,000	-0,037	-0,198
222,509	94,048	-0,189	-0,149
223,523	-115,301	-0,261	-0,034
224,538	80,529	-0,195	-0,146
225,553	371,160	-0,176	-0,248
226,567	800,000	-0,093	-0,179
227,582	67,541	-0,181	-0,128
228,596	44,812	-0,248	-0,158
229,611	491,872	-0,132	-0,210
230,626	-200,000	0,053	-0,201
231,640	0,589	-0,196	-0,097
232,655	800,000	-0,176	-0,361
233,669	274,308	-0,203	-0,250
234,684	186,260	-0,182	-0,187
235,699	5,716	-0,159	-0,081
236,713	-200,000	-0,026	-0,124
237,728	-39,060	-0,215	-0,078
238,742	68,322	-0,258	-0,183
239,757	53,359	-0,266	-0,176
240,772	36,763	-0,231	-0,141
241,786	52,642	-0,184	-0,121
242,801	451,817	-0,152	-0,233
243,815	216,274	-0,074	-0,081
244,830	-132,526	-0,101	0,009
245,844	136,703	-0,171	-0,155
246,859	-58,414	-0,212	-0,063
247,874	378,675	-0,151	-0,215
248,888	-112,008	-0,300	-0,041
249,903	258,577	-0,142	-0,170
250,917	-103,017	-0,147	0,024
251,932	-15,242	-0,151	-0,067
252,947	-197,524	-0,150	0,001
253,961	64,473	-0,183	-0,128
254,976	39,042	-0,163	-0,101
255,990	200,476	-0,148	-0,158
257,005	385,941	-0,104	-0,149
258,020	800,000	-0,066	-0,184
259,034	299,315	-0,117	-0,149
260,049	84,713	-0,223	-0,169
261,063	36,444	-0,221	-0,134
262,078	800,000	-0,059	-0,137
263,093	-61,697	-0,256	-0,074
264,107	115,115	-0,136	-0,115
265,122	-3,057	-0,130	-0,062
266,136	38,973	-0,131	-0,081
267,151	-200,000	0,007	-0,073
268,166	454,548	-0,139	-0,213
269,180	245,312	-0,149	-0,173
270,195	446,597	-0,191	-0,291
271,209	-200,000	-0,033	-0,174
272,224	82,754	-0,167	-0,126
273,239	-16,353	-0,273	-0,119
274,253	-68,105	-0,301	-0,080
275,268	370,624	-0,109	-0,153
276,282	48,817	-0,233	-0,151
277,297	-57,254	-0,187	-0,057
278,312	117,672	-0,138	-0,117
279,326	-103,376	-0,199	-0,032
280,341	-143,232	-0,178	-0,012
281,355	336,927	-0,135	-0,182
282,370	76,087	-0,231	-0,169
283,384	65,874	-0,190	-0,133
284,399	343,578	-0,142	-0,193
285,414	-27,807	-0,176	-0,070
286,428	121,101	-0,181	-0,156
287,443	16,650	-0,130	-0,071
288,457	800,000	-0,063	-0,154
289,472	555,053	-0,126	-0,210
290,487	-26,348	-0,123	-0,050
291,501	-10,104	-0,208	-0,095
292,516	110,751	-0,105	-0,087
293,530	-142,739	-0,174	0,012
294,545	100,834	-0,133	-0,106
295,560	318,266	-0,109	-0,143
296,574	26,102	-0,061	-0,035
297,589	257,716	-0,127	-0,151
298,603	-42,852	-0,193	-0,067
299,618	-50,786	-0,108	-0,035
300,633	4,534	-0,081	-0,041
301,647	-34,432	-0,112	-0,042
302,662	-200,000	-0,018	-0,094
303,676	136,283	-0,209	-0,188
304,691	116,771	-0,161	-0,136
305,706	185,799	-0,183	-0,187
306,720	189,096	-0,285	-0,294
307,735	8,089	-0,199	-0,103
308,749	65,262	-0,101	-0,071
309,764	91,598	-0,137	-0,106
310,779	526,861	-0,076	-0,123
311,793	118,352	-0,094	-0,080
312,808	-200,000	-0,044	-0,162
313,822	-67,503	-0,177	-0,048
314,837	135,926	-0,123	-0,110
315,852	158,593	-0,088	-0,084
316,866	293,868	-0,167	-0,211
317,881	-113,869	-0,259	-0,034
318,895	-96,534	-0,239	-0,043
319,910	69,149	-0,232	-0,164
320,925	235,063	-0,195	-0,221
321,939	800,000	-0,057	-0,125
322,954	800,000	-0,072	-0,214
323,968	152,207	-0,171	-0,160
324,983	-32,903	-0,120	-0,046
325,997	117,814	-0,154	-0,131
327,012	-78,410	-0,211	-0,049
328,027	800,000	-0,098	-0,206
329,041	89,613	-0,185	-0,142
330,056	-32,519	-0,117	-0,045
331,070	17,534	-0,209	-0,114
332,085	-59,139	-0,175	-0,052
333,100	5,227	-0,111	-0,056
334,114	-81,927	-0,266	-0,059
335,129	-1,008	-0,264	-0,128
336,143	-200,000	-0,039	-0,129
337,158	-200,000	-0,033	-0,215
338,173	-94,990	-0,092	-0,017
339,187	-200,000	-0,015	-0,113
340,202	-200,000	0,026	-0,090
341,216	-200,000	-0,055	-0,305
342,231	53,427	-0,241	-0,158
343,246	104,904	-0,168	-0,136
344,260	-44,536	-0,097	-0,033
345,275	593,715	-0,045	-0,077
346,289	411,114	-0,039	-0,056
347,304	167,037	-0,167	-0,163
348,319	62,443	-0,112	-0,077
349,333	14,580	-0,192	-0,102
350,348	-63,538	-0,100	-0,028
351,362	-161,557	-0,229	0,008
352,377	38,550	-0,138	-0,084
353,392	-9,545	-0,197	-0,090
354,406	-60,148	-0,097	0,028
355,421	209,733	1315,187	1416,301
356,435	161,433	1475,975	1416,805
