DTS Sentinel unit serial number:	SN410029Multiplexer serial number:	ORYXHardware model number:	OX2-SRSoftware version number:	ORYX F/W v4,00 Oryx Data Collector v3.7.2.0data status	okinstallation	B3 Nyhavnadifferential loss correction	single-endedforward channel	channel 1reverse channel	N/Adate	2023/12/04time	15:52:30forward acquisition time	300,00reverse acquisition time	0,00gamma	499,1914k internal	0,3200k external	0,3200temperature offset calibration	1,0000default loss term (dB/km)	0,3820temperature slope calibration	1,0000multiplexer offset coefficient	1,0000multiplexer slope coefficient	1,0000fibre end	0,00T internal ref (°C)	15,17T ext. ref 1 (°C)	0,37T ext. ref 2 (°C)	0,35length (m)	temperature (°C)	Stokes	anti-Stokes-744,400	321,746	-0,168	-0,233
-743,385	-200,000	0,032	0,369
-742,371	-75,445	-0,149	-0,038
-741,356	-200,000	0,043	0,326
-740,342	193,580	-0,188	-0,207
-739,327	-200,000	-0,058	0,298
-738,312	338,666	-0,085	-0,121
-737,298	-200,000	0,036	0,396
-736,283	226,318	-0,187	-0,221
-735,269	-200,000	0,050	0,311
-734,254	286,480	-0,235	-0,309
-733,239	171,080	-0,159	0,165
-732,225	101,597	-0,188	-0,159
-731,210	124,354	0,144	0,132
-730,196	29,153	-0,072	0,045
-729,181	-40,170	-0,126	-0,048
-728,167	-200,000	0,021	-0,129
-727,152	-26,899	-0,128	-0,054
-726,137	800,000	-0,037	-0,110
-725,123	-200,000	0,015	-0,193
-724,108	83,192	-0,070	-0,056
-723,094	667,059	-0,084	-0,159
-722,079	-92,940	-0,025	0,005
-721,064	192,407	-0,048	-0,053
-720,050	-200,000	-0,001	-0,018
-719,035	83,945	-0,065	0,051
-718,021	-56,670	-0,066	-0,021
-717,006	-200,000	0,034	-0,109
-715,991	-156,462	-0,023	-0,001
-714,977	276,588	-0,072	0,094
-713,962	28,984	-0,012	-0,007
-712,948	67,408	0,120	-0,089
-711,933	194,112	-0,039	-0,043
-710,918	171,705	-0,022	-0,023
-709,904	-200,000	0,034	-0,116
-708,889	-200,000	-0,017	0,057
-707,875	107,000	-0,090	-0,078
-706,860	35,936	0,025	0,016
-705,845	-74,797	0,037	-0,009
-704,831	132,547	0,088	0,082
-703,816	426,470	-0,117	0,184
-702,802	142,771	-0,081	0,078
-701,787	-47,983	-0,084	0,029
-700,772	800,000	0,051	-0,149
-699,758	-86,809	-0,107	0,023
-698,743	-114,041	0,078	-0,011
-697,729	-99,545	0,061	0,011
-696,714	-200,000	0,001	-0,028
-695,699	-109,894	0,136	-0,020
-694,685	97,699	-0,089	0,074
-693,670	800,000	0,014	-0,031
-692,656	-78,902	-0,068	0,017
-691,641	-113,071	0,059	-0,008
-690,627	-200,000	-0,018	0,157
-689,612	452,002	-0,028	-0,045
-688,597	-200,000	0,034	-0,114
-687,583	-23,012	-0,078	-0,034
-686,568	800,000	-0,057	-0,138
-685,554	243,276	-0,050	0,061
-684,539	800,000	-0,059	-0,143
-683,524	338,557	-0,033	-0,047
-682,510	-98,036	0,029	0,005
-681,495	127,754	-0,066	0,061
-680,481	-200,000	-0,044	-0,144
-679,466	260,198	-0,012	-0,015
-678,451	-200,000	0,010	-0,034
-677,437	37,287	-0,038	0,024
-676,422	11,524	-0,052	-0,029
-675,408	800,000	0,037	0,091
-674,393	423,503	-0,067	0,105
-673,378	756,303	-0,039	-0,076
-672,364	259,804	0,038	-0,047
-671,349	-49,420	-0,007	-0,002
-670,335	-200,000	0,002	-0,087
-669,320	800,000	-0,034	0,085
-668,305	-93,045	-0,115	-0,023
-667,291	-171,973	-0,082	0,002
-666,276	113,681	0,028	-0,025
-665,262	739,604	-0,039	-0,076
-664,247	-143,991	0,045	-0,003
-663,232	-200,000	0,032	0,112
-662,218	-200,000	-0,012	-0,046
-661,203	-200,000	-0,005	0,128
-660,189	-99,562	0,051	0,009
-659,174	-200,000	0,022	-0,118
-658,159	-200,000	0,020	-0,091
-657,145	-32,646	0,156	-0,062
-656,130	34,951	-0,049	0,031
-655,116	-62,494	-0,149	0,045
-654,101	189,486	0,007	0,008
-653,086	-118,766	-0,154	0,019
-652,072	-200,000	0,009	-0,032
-651,057	-86,796	0,035	-0,008
-650,043	-29,701	0,049	0,020
-649,028	-200,000	-0,001	-0,022
-648,014	26,431	0,065	-0,039
-646,999	-4,117	0,062	0,031
-645,984	-146,775	0,100	-0,006
-644,970	-200,000	-0,006	-0,130
-643,955	-200,000	0,003	-0,025
-642,941	290,513	0,050	0,066
-641,926	13,404	0,104	-0,058
-640,911	-200,000	-0,009	-0,067
-639,897	-50,075	0,173	-0,059
-638,882	-21,546	-0,157	0,069
-637,868	98,073	-0,036	-0,030
-636,853	690,642	-0,020	-0,039
-635,838	-10,371	0,059	-0,028
-634,824	5,711	-0,071	-0,038
-633,809	-200,000	0,016	-0,082
-632,795	-24,949	0,087	0,037
-631,780	-200,000	-0,021	0,118
-630,765	83,864	-0,101	0,080
-629,751	-83,587	0,051	-0,012
-628,736	285,891	-0,041	0,054
-627,722	800,000	-0,021	-0,060
-626,707	800,000	-0,025	-0,078
-625,692	800,000	0,060	0,148
-624,678	10,194	-0,022	0,012
-623,663	218,895	0,051	-0,059
-622,649	-72,316	-0,065	0,017
-621,634	89,082	-0,125	-0,100
-620,619	-58,274	-0,091	-0,028
-619,605	19,175	0,053	-0,031
-618,590	0,086	-0,079	0,041
-617,576	207,376	0,054	-0,061
-616,561	-200,000	0,000	-0,173
-615,546	298,244	-0,029	-0,039
-614,532	-134,111	-0,040	-0,004
-613,517	800,000	-0,025	-0,057
-612,503	-200,000	0,041	-0,163
-611,488	-27,434	0,059	0,025
-610,474	73,299	-0,022	-0,017
-609,459	369,391	-0,055	0,081
-608,444	84,085	-0,093	0,073
-607,430	682,996	-0,031	0,058
-606,415	800,000	-0,029	-0,074
-605,401	202,104	0,072	-0,081
-604,386	-200,000	0,005	0,048
-603,371	-200,000	0,003	0,066
-602,357	-200,000	0,018	-0,066
-601,342	800,000	-0,046	0,105
-600,328	-200,000	-0,003	-0,123
-599,313	123,307	-0,036	0,032
-598,298	-92,522	-0,111	-0,022
-597,284	800,000	0,030	0,072
-596,269	53,870	-0,048	0,034
-595,255	-200,000	0,045	0,157
-594,240	43,799	-0,049	-0,032
-593,225	-113,384	-0,101	-0,014
-592,211	-48,518	-0,140	0,049
-591,196	800,000	-0,004	0,010
-590,182	-82,984	0,170	-0,039
-589,167	-200,000	-0,040	0,149
-588,152	800,000	0,051	0,119
-587,138	-111,582	0,083	0,012
-586,123	310,522	-0,130	-0,177
-585,109	-131,943	0,142	-0,013
-584,094	44,749	0,072	0,048
-583,079	800,000	0,017	0,047
-582,065	-200,000	0,003	0,019
-581,050	746,313	0,043	0,084
-580,036	59,137	-0,040	0,028
-579,021	800,000	0,020	-0,056
-578,006	800,000	-0,016	-0,032
-576,992	-200,000	0,006	-0,029
-575,977	122,949	0,042	-0,038
-574,963	-200,000	0,013	-0,109
-573,948	-27,806	-0,118	0,049
-572,934	-96,861	0,033	-0,006
-571,919	-15,778	-0,066	-0,030
-570,904	124,734	-0,170	-0,155
-569,890	12,361	-0,053	-0,030
-568,875	-0,118	-0,060	-0,031
-567,861	252,453	0,058	0,071
-566,846	420,219	0,034	0,053
-565,831	800,000	-0,078	0,167
-564,817	74,924	-0,078	-0,059
-563,802	68,450	-0,007	-0,005
-562,788	-200,000	0,002	-0,087
-561,773	261,418	-0,037	-0,046
-560,758	88,830	0,184	-0,148
-559,744	1,592	0,052	0,027
-558,729	-200,000	-0,008	-0,094
-557,715	800,000	0,025	-0,054
-556,700	159,600	-0,073	-0,073
-555,685	-200,000	0,032	-0,106
-554,671	-200,000	-0,042	-0,147
-553,656	434,810	0,043	-0,068
-552,642	-18,536	0,103	0,046
-551,627	445,133	-0,031	-0,049
-550,612	-3,653	-0,041	-0,021
-549,598	-37,832	-0,068	0,026
-548,583	-89,499	-0,043	0,009
-547,569	800,000	-0,054	-0,116
-546,554	-200,000	-0,013	-0,067
-545,539	62,690	0,109	0,079
-544,525	131,481	0,121	-0,112
-543,510	-200,000	0,022	-0,085
-542,496	-62,650	-0,150	0,045
-541,481	-29,179	-0,076	-0,031
-540,466	800,000	0,030	0,078
-539,452	91,602	0,041	0,033
-538,437	152,364	0,116	0,115
-537,423	2,111	-0,050	0,026
-536,408	-48,417	-0,147	-0,051
-535,393	125,826	0,012	0,011
-534,379	-85,661	-0,136	-0,030
-533,364	60,859	-0,073	0,052
-532,350	-144,788	0,007	0,000
-531,335	800,000	0,045	0,099
-530,321	800,000	-0,027	0,085
-529,306	40,764	-0,040	0,026
-528,291	-200,000	0,027	0,096
-527,277	-47,224	-0,102	-0,036
-526,262	-17,999	0,026	0,012
-525,248	552,663	0,023	0,041
-524,233	-47,491	0,132	0,046
-523,218	-72,754	0,137	-0,036
-522,204	-148,980	-0,083	0,005
-521,189	584,385	-0,096	-0,170
-520,175	-183,959	-0,091	-0,001
-519,160	800,000	-0,024	-0,072
-518,145	112,778	-0,121	0,106
-517,131	233,318	0,049	0,059
-516,116	-200,000	0,013	-0,099
-515,102	311,214	-0,006	0,008
-514,087	800,000	0,070	-0,154
-513,072	-81,578	-0,109	-0,026
-512,058	200,979	0,062	0,069
-511,043	-126,947	0,054	-0,006
-510,029	110,747	-0,054	-0,046
-509,014	-141,553	0,070	0,005
-507,999	244,397	-0,093	0,113
-506,985	89,058	-0,073	-0,058
-505,970	662,955	0,067	0,125
-504,956	-127,678	-0,116	-0,012
-503,941	-200,000	-0,006	-0,039
-502,926	-23,107	0,163	-0,070
-501,912	2,392	-0,022	-0,011
-500,897	-200,000	0,022	0,092
-499,883	-28,653	-0,114	0,047
-498,868	90,404	-0,044	-0,035
-497,853	297,366	-0,134	-0,178
-496,839	-55,088	-0,035	0,011
-495,824	800,000	0,034	0,089
-494,810	-38,983	0,013	0,005
-493,795	115,221	0,037	-0,033
-492,781	709,034	0,067	-0,129
-491,766	-105,377	0,016	0,003
-490,751	250,581	-0,090	0,110
-489,737	62,165	0,079	-0,056
-488,722	-200,000	0,018	0,104
-487,708	-34,506	0,099	-0,039
-486,693	52,095	0,049	-0,033
-485,678	-200,000	0,040	0,133
-484,664	-200,000	-0,006	0,044
-483,649	565,052	-0,054	0,095
-482,635	531,638	-0,051	-0,087
-481,620	-86,790	0,143	-0,031
-480,605	267,635	-0,045	0,057
-479,591	6,522	-0,074	-0,040
-478,576	-93,287	0,073	0,015
-477,562	800,000	-0,047	-0,127
-476,547	112,083	0,046	0,040
-475,532	-200,000	0,001	0,033
-474,518	-92,019	0,116	-0,023
-473,503	-10,989	0,163	0,077
-472,489	357,599	0,058	0,084
-471,474	236,075	-0,078	-0,092
-470,459	80,491	-0,041	-0,032
-469,445	-188,373	-0,146	-0,001
-468,430	222,339	-0,033	0,038
-467,416	-88,204	0,093	-0,020
-466,401	364,533	0,070	-0,102
-465,386	-40,131	0,075	-0,028
-464,372	-77,365	-0,208	0,052
-463,357	800,000	-0,048	0,096
-462,343	-85,287	-0,117	0,026
-461,328	-103,910	-0,064	-0,011
-460,313	158,163	0,052	-0,052
-459,299	61,421	0,036	-0,025
-458,284	-34,171	0,106	0,042
-457,270	-45,719	0,106	0,037
-456,255	43,970	-0,061	-0,040
-455,241	-92,703	-0,091	-0,018
-454,226	33,314	-0,076	0,047
-453,211	217,030	-0,049	-0,056
-452,197	-200,000	-0,010	0,148
-451,182	187,856	-0,101	0,108
-450,168	-27,682	-0,116	-0,048
-449,153	36,172	0,073	0,046
-448,138	93,870	-0,047	-0,038
-447,124	800,000	-0,055	-0,109
-446,109	-200,000	-0,007	0,033
-445,095	-40,974	0,099	-0,037
-444,080	529,938	0,070	-0,120
-443,065	-200,000	0,003	-0,050
-442,051	67,846	0,018	-0,013
-441,036	59,693	0,050	0,035
-440,022	-200,000	0,010	-0,106
-439,007	-111,510	0,027	0,004
-437,992	4,095	0,108	-0,057
-436,978	7,439	-0,092	-0,049
-435,963	85,773	-0,070	0,055
-434,949	-200,000	0,005	0,196
-433,934	-140,865	0,079	-0,006
-432,919	14,843	0,061	0,034
-431,905	97,301	0,019	0,016
-430,890	-105,127	-0,100	0,016
-429,876	-19,595	-0,097	0,043
-428,861	164,295	-0,058	0,059
-427,846	-200,000	0,004	0,132
-426,832	-200,000	-0,015	0,057
-425,817	69,114	-0,101	0,075
-424,803	600,883	0,054	0,096
-423,788	117,231	0,052	-0,046
-422,773	-60,308	0,090	-0,027
-421,759	231,362	0,140	0,165
-420,744	-200,000	-0,017	0,094
-419,730	-157,449	-0,088	-0,004
-418,715	71,262	0,075	0,056
-417,701	-200,000	0,016	0,088
-416,686	-123,700	0,136	-0,015
-415,671	-200,000	-0,005	0,042
-414,657	68,036	-0,045	0,033
-413,642	800,000	0,031	-0,093
-412,628	-200,000	-0,005	-0,028
-411,613	435,200	0,019	-0,029
-410,598	-26,779	0,097	0,041
-409,584	800,000	0,033	0,092
-408,569	-130,987	0,006	-0,001
-407,555	-90,342	0,113	0,023
-406,540	-200,000	-0,002	-0,016
-405,525	-40,568	0,109	-0,040
-404,511	-14,117	-0,033	-0,015
-403,496	800,000	-0,032	0,094
-402,482	775,765	-0,030	0,059
-401,467	800,000	0,024	-0,076
-400,452	-200,000	-0,003	0,034
-399,438	107,874	0,059	0,050
-398,423	188,669	-0,078	-0,084
-397,409	448,938	0,064	-0,102
-396,394	-200,000	0,004	-0,049
-395,379	70,007	0,065	-0,048
-394,365	-64,317	0,126	0,037
-393,350	22,470	-0,046	0,027
-392,336	-63,242	0,117	-0,034
-391,321	-54,968	-0,137	-0,044
-390,306	725,151	-0,074	0,141
-389,292	-170,070	-0,101	0,003
-388,277	76,761	0,053	-0,041
-387,263	176,968	0,046	0,048
-386,248	448,134	-0,045	0,071
-385,233	-26,660	0,071	-0,030
-384,219	52,967	-0,043	-0,029
-383,204	800,000	-0,034	-0,079
-382,190	-76,047	-0,033	-0,008
-381,175	-200,000	0,011	-0,133
-380,160	-200,000	0,012	0,060
-379,146	437,856	-0,028	0,044
-378,131	-200,000	0,009	0,106
-377,117	45,745	0,043	-0,029
-376,102	184,733	-0,111	-0,118
-375,088	37,501	-0,094	0,060
-374,073	753,952	-0,007	-0,014
-373,058	-200,000	0,001	-0,057
-372,044	11,819	-0,039	-0,021
-371,029	-200,000	-0,003	0,033
-370,015	800,000	-0,036	0,085
-369,000	-112,329	-0,092	0,013
-367,985	2,681	0,029	-0,015
-366,971	800,000	0,029	-0,059
-365,956	-34,641	0,143	0,056
-364,942	183,550	0,059	0,062
-363,927	800,000	0,045	0,092
-362,912	-52,825	-0,083	0,027
-361,898	-100,494	0,060	0,011
-360,883	312,109	-0,026	-0,035
-359,869	720,651	-0,090	-0,172
-358,854	145,469	0,059	-0,057
-357,839	800,000	0,048	0,101
-356,825	56,013	0,083	-0,058
-355,810	-200,000	-0,010	0,091
-354,796	-157,706	0,115	-0,005
-353,781	800,000	0,044	-0,103
-352,766	800,000	-0,004	-0,012
-351,752	-200,000	0,034	-0,141
-350,737	-16,816	0,023	-0,011
-349,723	800,000	-0,076	0,163
-348,708	-51,191	-0,010	-0,003
-347,693	502,510	0,022	0,036
-346,679	-95,795	-0,198	-0,037
-345,664	-200,000	-0,032	-0,132
-344,650	29,789	0,042	0,026
-343,635	800,000	0,037	0,082
-342,620	105,292	0,084	0,071
-341,606	28,070	0,071	0,043
-340,591	228,644	0,070	0,082
-339,577	190,904	-0,071	-0,076
-338,562	574,255	0,040	-0,069
-337,548	-88,662	-0,047	0,010
-336,533	800,000	-0,025	-0,058
-335,518	464,730	-0,085	-0,137
-334,504	418,267	-0,046	-0,070
-333,489	800,000	-0,010	-0,023
-332,475	-200,000	-0,020	-0,081
-331,460	121,232	-0,053	-0,047
-330,445	-73,639	-0,024	0,006
-329,431	620,573	0,041	0,075
-328,416	-25,790	0,115	0,048
-327,402	58,868	0,051	-0,036
-326,387	26,324	0,080	0,047
-325,372	190,747	-0,042	-0,045
-324,358	-48,911	0,049	-0,017
-323,343	-30,367	-0,039	0,016
-322,329	-200,000	0,042	0,221
-321,314	-200,000	0,002	0,018
-320,299	220,245	0,142	0,164
-319,285	138,210	0,034	0,032
-318,270	58,758	-0,103	-0,072
-317,256	-146,858	-0,073	0,004
-316,241	800,000	-0,033	0,067
-315,226	800,000	-0,022	0,059
-314,212	-51,954	0,143	-0,047
-313,197	-30,874	-0,109	-0,044
-312,183	19,493	0,089	-0,051
-311,168	-104,175	0,119	-0,020
-310,153	-91,665	-0,161	0,033
-309,139	-171,299	-0,180	0,004
-308,124	-31,932	0,144	0,058
-307,110	800,000	-0,024	-0,064
-306,095	228,358	-0,081	-0,094
-305,080	-200,000	-0,031	-0,148
-304,066	-200,000	-0,005	-0,085
-303,051	800,000	-0,027	-0,072
-302,037	58,126	0,098	-0,069
-301,022	800,000	0,057	0,119
-300,008	37,701	0,082	0,052
-298,993	-200,000	-0,047	0,000
-297,978	49,172	-0,127	0,085
-296,964	-44,904	0,068	-0,024
-295,949	-170,180	-0,042	-0,001
-294,935	800,000	0,059	-0,178
-293,920	36,031	0,032	-0,020
-292,905	800,000	0,018	-0,036
-291,891	-162,499	0,064	-0,002
-290,876	-103,711	-0,087	-0,014
-289,862	-48,929	-0,135	-0,046
-288,847	-94,376	-0,080	0,015
-287,832	-42,139	-0,032	-0,012
-286,818	67,270	0,100	-0,073
-285,803	-200,000	0,000	0,100
-284,789	154,790	0,107	0,105
-283,774	-55,256	0,082	0,026
-282,759	-112,567	0,046	0,006
-281,745	-8,295	-0,082	0,039
-280,730	-45,535	-0,043	-0,015
-279,716	800,000	0,045	-0,105
-278,701	40,727	0,099	0,064
-277,686	-58,547	0,138	-0,042
-276,672	-7,149	-0,122	0,059
-275,657	73,070	0,147	0,110
-274,643	-149,565	0,084	0,005
-273,628	54,095	0,036	0,025
-272,613	-71,201	-0,156	-0,042
-271,599	-103,218	0,132	-0,022
-270,584	-129,316	-0,085	0,008
-269,570	505,671	0,056	-0,094
-268,555	800,000	-0,025	-0,069
-267,540	376,297	-0,041	-0,060
-266,526	-200,000	0,011	-0,102
-265,511	-133,521	0,059	-0,005
-264,497	-67,812	-0,090	0,025
-263,482	800,000	0,058	0,141
-262,467	242,452	-0,072	0,087
-261,453	-200,000	0,012	0,073
-260,438	-128,340	-0,114	-0,011
-259,424	-200,000	0,016	-0,109
-258,409	325,632	-0,067	-0,091
-257,395	122,382	-0,077	0,069
-256,380	-39,051	0,101	0,038
-255,365	-45,831	0,144	0,050
-254,351	-3,529	-0,121	0,060
-253,336	180,803	-0,076	-0,080
-252,322	192,324	0,065	-0,070
-251,307	50,103	-0,035	0,024
-250,292	-196,705	-0,189	0,001
-249,278	-200,000	-0,006	0,124
-248,263	-200,000	-0,004	-0,023
-247,249	800,000	0,031	0,089
-246,234	-71,093	0,065	0,017
-245,219	800,000	-0,043	0,087
-244,205	-200,000	-0,001	0,014
-243,190	-200,000	-0,004	0,120
-242,176	-111,028	-0,127	-0,018
-241,161	98,029	0,010	0,008
-240,146	-200,000	0,008	0,033
-239,132	800,000	-0,039	-0,082
-238,117	-45,135	0,067	0,024
-237,103	-90,222	-0,051	0,011
-236,088	-200,000	0,010	0,069
-235,073	-149,021	-0,037	0,002
-234,059	-200,000	-0,018	0,069
-233,044	-58,714	-0,035	-0,011
-232,030	64,174	-0,069	0,050
-231,015	-200,000	-0,036	-0,132
-230,000	800,000	0,060	-0,175
-228,986	-27,536	0,006	0,002
-227,971	-123,442	0,037	-0,004
-226,957	686,648	0,025	-0,047
-225,942	800,000	0,016	0,038
-224,927	264,963	0,052	0,065
-223,913	553,062	0,060	-0,103
-222,898	-104,012	0,048	-0,008
-221,884	-146,487	-0,069	0,004
-220,869	208,206	0,064	-0,071
-219,855	-183,970	0,056	0,001
-218,840	299,769	0,074	0,097
-217,825	-78,819	-0,124	0,030
-216,811	674,409	0,020	-0,037
-215,796	250,517	-0,014	0,017
-214,782	-200,000	-0,023	-0,128
-213,767	-35,000	-0,013	-0,005
-212,752	-65,416	0,091	0,026
-211,738	-14,860	-0,060	-0,028
-210,723	-72,740	-0,018	0,005
-209,709	79,667	0,046	0,035
-208,694	-200,000	-0,051	0,167
-207,679	-9,804	0,071	0,034
-206,665	73,127	0,084	-0,063
-205,650	-89,759	0,100	-0,021
-204,636	95,145	0,082	0,067
-203,621	72,145	0,125	-0,092
-202,606	800,000	-0,033	0,091
-201,592	-104,575	-0,168	0,027
-200,577	204,999	0,103	-0,114
-199,563	-108,197	-0,030	0,005
-198,548	463,149	0,043	-0,069
-197,533	-76,722	0,161	0,040
-196,519	800,000	0,030	0,070
-195,504	-100,601	-0,057	-0,010
-194,490	180,347	0,102	-0,107
-193,475	-70,858	0,100	-0,027
-192,460	-200,000	0,043	-0,160
-191,446	-200,000	-0,002	0,031
-190,431	21,460	0,080	0,046
-189,417	95,516	-0,114	0,092
-188,402	-200,000	-0,089	0,000
-187,387	-97,008	-0,111	0,021
-186,373	-200,000	0,002	0,021
-185,358	90,525	-0,117	0,093
-184,344	800,000	0,079	0,231
-183,329	125,467	0,123	0,111
-182,315	70,830	-0,048	0,035
-181,300	-200,000	0,018	-0,203
-180,285	-150,944	-0,159	-0,008
-179,271	-12,829	-0,058	-0,027
-178,256	800,000	-0,055	-0,116
-177,242	-200,000	0,025	0,108
-176,227	210,829	0,083	0,093
-175,212	3,923	0,090	-0,047
-174,198	125,808	-0,074	0,067
-173,183	32,581	0,060	-0,037
-172,169	-139,746	-0,169	-0,013
-171,154	-62,045	-0,135	-0,040
-170,139	-129,052	-0,144	0,014
-169,125	-95,939	0,099	0,019
-168,110	146,355	0,107	0,102
-167,096	-188,255	0,062	0,001
-166,081	72,519	-0,080	-0,059
-165,066	2,081	0,116	0,060
-164,052	-200,000	0,030	-0,145
-163,037	235,027	-0,053	0,062
-162,023	800,000	0,005	-0,012
-161,008	219,258	-0,060	0,068
-159,993	456,162	0,039	0,061
-158,979	-188,287	0,038	0,000
-157,964	715,244	0,064	0,121
-156,950	-68,528	0,086	0,024
-155,935	53,996	-0,149	0,102
-154,920	785,343	0,012	-0,023
-153,906	-200,000	-0,032	-0,112
-152,891	-200,000	-0,005	-0,062
-151,877	656,837	0,045	-0,083
-150,862	37,798	-0,063	-0,040
-149,847	800,000	0,015	0,042
-148,833	800,000	-0,026	0,061
-147,818	606,533	0,086	0,153
-146,804	49,054	-0,101	0,068
-145,789	-200,000	0,010	-0,051
-144,775	124,360	0,067	-0,060
-143,760	-13,665	-0,108	-0,050
-142,745	-200,000	-0,005	0,121
-141,731	800,000	0,019	0,046
-140,716	-63,120	0,100	-0,029
-139,702	-47,850	0,113	0,039
-138,687	728,649	-0,064	-0,122
-137,672	-200,000	-0,003	-0,078
-136,658	-200,000	-0,041	-0,129
-135,643	692,368	0,014	-0,027
-134,629	105,506	0,058	0,049
-133,614	800,000	-0,010	0,027
-132,599	316,393	-0,097	0,130
-131,585	-141,842	0,149	0,010
-130,570	-115,422	-0,096	-0,013
-129,556	-74,527	-0,060	0,015
-128,541	45,285	0,191	-0,125
-127,526	-35,384	0,072	-0,028
-126,512	28,724	0,094	-0,056
-125,497	-200,000	0,000	0,017
-124,483	232,057	-0,027	0,031
-123,468	402,323	-0,038	-0,057
-122,453	-200,000	0,007	-0,071
-121,439	173,495	-0,067	0,069
-120,424	-41,529	0,067	-0,024
-119,410	10,030	0,030	-0,016
-118,395	800,000	-0,050	-0,123
-117,380	316,507	0,033	0,044
-116,366	800,000	-0,017	-0,048
-115,351	-200,000	0,000	-0,009
-114,337	-200,000	0,013	-0,081
-113,322	706,546	0,031	-0,059
-112,307	-64,912	0,051	0,014
-111,293	172,662	0,049	-0,050
-110,278	800,000	-0,036	0,079
-109,264	800,000	-0,032	0,084
-108,249	136,304	-0,054	-0,050
-107,234	10,015	-0,087	-0,047
-106,220	-81,204	-0,118	0,028
-105,205	73,073	-0,055	0,041
-104,191	-46,540	0,177	0,061
-103,176	547,072	-0,045	0,077
-102,162	-200,000	0,003	0,019
-101,147	349,525	0,033	-0,046
-100,132	-59,496	0,065	0,020
-99,118	-155,209	-0,048	0,002
-98,103	-57,330	0,123	0,038
-97,089	155,097	0,050	0,049
-96,074	474,236	0,063	0,102
-95,059	87,457	-0,108	0,085
-94,045	110,547	0,033	-0,028
-93,030	-7,195	0,095	0,046
-92,016	324,902	-0,050	-0,068
-91,001	800,000	-0,033	0,077
-89,986	-181,165	0,149	0,002
-88,972	800,000	-0,099	0,240
-87,957	36,578	0,093	0,058
-86,943	-175,851	-0,043	0,001
-85,928	433,501	0,040	0,062
-84,913	436,047	-0,002	0,003
-83,899	-26,372	-0,116	0,048
-82,884	395,908	0,016	-0,024
-81,870	417,139	0,007	0,011
-80,855	-61,828	-0,036	0,011
-79,840	-107,335	-0,076	0,012
-78,826	58,166	-0,048	0,033
-77,811	-80,434	-0,112	0,026
-76,797	160,844	-0,129	-0,128
-75,782	-200,000	-0,013	-0,096
-74,767	-73,510	0,084	-0,022
-73,753	134,030	0,092	-0,084
-72,738	51,532	0,100	-0,067
-71,724	-94,593	-0,059	0,011
-70,709	133,039	-0,041	-0,038
-69,694	800,000	0,020	0,056
-68,680	236,512	0,036	0,042
-67,665	173,149	0,087	0,088
-66,651	800,000	-0,012	-0,024
-65,636	-85,914	0,121	0,026
-64,622	-200,000	-0,002	-0,067
-63,607	800,000	-0,036	-0,101
-62,592	-200,000	0,008	-0,153
-61,578	-200,000	-0,002	-0,022
-60,563	800,000	0,026	0,078
-59,549	-200,000	0,014	0,095
-58,534	-59,157	-1,434	-0,435
-57,519	350,467	-1,448	-2,033
-56,505	-200,000	-0,602	-4,631
-55,490	191,957	0,995	1,063
-54,476	800,000	4,859	11,462
-53,461	-200,000	18,141	285,801
-52,446	800,000	726,474	2222,819
-51,432	553,932	1642,075	2807,514
-50,417	79,468	1664,526	1263,294
-49,403	23,069	1538,200	891,563
-48,388	17,027	1461,658	817,951
-47,373	17,906	1451,597	816,521
-46,359	17,336	1441,960	808,342
-45,344	15,313	1437,443	796,126
-44,330	15,220	1435,306	794,467
-43,315	15,226	1433,728	793,592
-42,300	15,235	1432,152	792,732
-41,286	15,222	1430,931	791,962
-40,271	15,239	1429,726	791,345
-39,257	15,252	1428,321	790,595
-38,242	15,277	1427,111	790,015
-37,227	15,269	1426,087	789,376
-36,213	15,308	1424,590	788,701
-35,198	15,255	1423,643	787,893
-34,184	15,333	1422,529	787,618
-33,169	15,212	1421,370	786,374
-32,154	15,274	1420,237	786,006
-31,140	15,293	1418,904	785,327
-30,125	15,303	1417,810	784,738
-29,111	15,256	1416,720	783,879
-28,096	15,252	1415,646	783,239
-27,082	15,173	1414,591	782,252
-26,067	15,189	1413,400	781,636
-25,052	15,223	1412,101	781,048
-24,038	15,211	1411,155	780,438
-23,023	15,172	1410,513	779,869
-22,009	15,194	1409,292	779,264
-20,994	15,080	1408,636	778,338
-19,979	15,123	1407,626	777,949
-18,965	15,122	1406,382	777,227
-17,950	15,118	1405,585	776,737
-16,936	15,183	1404,333	776,319
-15,921	15,122	1403,242	775,401
-14,906	15,140	1402,279	774,921
-13,892	15,143	1401,463	774,452
-12,877	15,071	1400,765	773,702
-11,863	15,111	1399,753	773,298
-10,848	15,090	1398,825	772,656
-9,833	15,064	1398,053	772,080
-8,819	15,064	1397,063	771,502
-7,804	14,991	1396,301	770,713
-6,790	14,989	1395,246	770,089
-5,775	15,020	1394,165	769,604
-4,760	15,011	1393,376	769,099
-3,746	14,981	1392,614	768,510
-2,731	15,007	1391,784	768,140
-1,717	15,020	1390,755	767,600
-0,702	15,004	1388,778	766,407
0,313	18,814	1308,444	739,698
1,327	35,255	707,664	438,202
2,342	53,796	125,136	84,929
3,356	1,538	16,618	8,435
4,371	0,618	3,157	1,593
5,386	-66,684	0,629	0,175
6,400	-200,000	-0,011	0,093
7,415	-25,800	-0,278	-0,115
8,429	44,074	-0,283	-0,183
9,444	5,365	-0,337	-0,175
10,459	-17,410	-0,381	-0,169
11,473	-24,750	-0,247	-0,103
12,488	20,043	-0,358	-0,204
13,502	57,136	-0,332	-0,228
14,517	-19,553	-0,221	-0,096
15,531	280,343	-0,313	-0,396
16,546	87,535	-0,281	-0,220
17,561	81,980	-0,406	-0,311
18,575	-18,353	-0,289	-0,127
19,590	416,208	-0,212	-0,321
20,604	-58,599	-0,301	-0,092
21,619	17,822	-0,502	-0,282
22,634	108,484	-0,390	-0,329
23,648	21,540	-0,491	-0,281
24,663	127,923	-0,487	-0,438
25,677	16,859	-0,432	-0,241
26,692	20,775	-0,379	-0,216
27,707	91,740	-0,242	-0,192
28,721	86,159	-0,311	-0,242
29,736	159,392	-0,319	-0,314
30,750	319,883	-0,263	-0,353
31,765	211,955	-0,387	-0,431
32,780	25,576	-0,482	-0,282
33,794	800,000	-0,182	-0,359
34,809	91,630	-0,347	-0,275
35,823	84,519	-0,456	-0,351
36,838	151,096	-0,451	-0,433
37,853	522,769	-0,295	-0,490
38,867	-73,810	-0,347	-0,088
39,882	78,884	-0,264	-0,199
40,896	181,553	-0,220	-0,229
41,911	46,259	-0,362	-0,236
42,926	79,330	-0,315	-0,238
43,940	47,800	-0,266	-0,175
44,955	60,706	-0,367	-0,256
45,969	28,423	-0,337	-0,201
46,984	108,861	-0,272	-0,229
47,999	89,273	-0,271	-0,213
49,013	163,940	-0,323	-0,321
50,028	121,379	-0,308	-0,270
51,042	74,971	-0,370	-0,274
52,057	353,675	-0,226	-0,317
53,071	64,226	-0,384	-0,272
54,086	29,554	-0,256	-0,153
55,101	129,918	-0,330	-0,298
56,115	61,129	-0,279	-0,195
57,130	34,465	-0,283	-0,174
58,144	178,036	-0,286	-0,294
59,159	50,964	-0,336	-0,224
60,174	-5,676	-0,385	-0,185
61,188	157,775	-0,351	-0,343
62,203	255,008	-0,219	-0,265
63,217	-2,674	-0,322	-0,158
64,232	-14,554	-0,472	-0,213
65,247	37,000	-0,332	-0,207
66,261	18,437	-0,380	-0,213
67,276	80,339	-0,409	-0,309
68,290	363,003	-0,263	-0,373
69,305	207,647	-0,233	-0,256
70,320	261,407	-0,303	-0,369
71,334	-29,592	-0,423	-0,169
72,349	91,109	-0,310	-0,245
73,363	-3,778	-0,440	-0,214
74,378	-23,779	-0,283	-0,119
75,393	56,400	-0,353	-0,241
76,407	-101,374	-0,256	-0,044
77,422	-88,867	-0,346	-0,072
78,436	88,680	-0,255	-0,199
79,451	48,750	-0,331	-0,218
80,466	29,341	-0,243	-0,144
81,480	61,527	-0,345	-0,241
82,495	-64,704	-0,395	-0,112
83,509	-82,141	-0,313	-0,071
84,524	15,038	-0,124	0,068
85,539	67,589	-0,250	-0,179
86,553	101,945	-0,307	-0,251
87,568	-27,630	-0,372	-0,151
88,582	155,121	-0,172	-0,166
89,597	75,010	-0,261	-0,193
90,611	31,181	-0,271	-0,163
91,626	13,371	-0,229	-0,124
92,641	11,080	-0,347	-0,186
93,655	-33,814	-0,375	-0,144
94,670	-31,881	-0,371	-0,145
95,684	293,548	-0,228	-0,293
96,699	86,140	-0,277	-0,214
97,714	154,278	-0,143	-0,137
98,728	-43,603	-0,303	-0,107
99,743	-20,075	-0,275	-0,118
100,757	78,279	-0,242	-0,181
101,772	113,941	-0,342	-0,292
102,787	230,662	-0,218	-0,251
103,801	524,754	-0,197	-0,326
104,816	-105,239	-0,240	-0,038
105,830	315,810	-0,134	-0,178
106,845	126,211	-0,274	-0,243
107,860	103,931	-0,285	-0,235
108,874	49,420	-0,268	-0,177
109,889	165,544	-0,318	-0,316
110,903	48,556	-0,231	-0,152
111,918	158,391	-0,148	-0,144
112,933	18,141	-0,308	-0,172
113,947	163,867	-0,249	-0,246
114,962	-59,270	-0,420	-0,126
115,976	25,071	-0,297	-0,172
116,991	-41,633	-0,255	-0,091
118,006	83,162	-0,249	-0,190
119,020	195,790	-0,247	-0,264
120,035	242,142	-0,124	-0,146
121,049	52,964	-0,211	-0,141
122,064	-18,263	-0,328	-0,143
123,079	-25,698	-0,266	-0,109
124,093	26,676	-0,345	-0,202
125,108	89,645	-0,345	-0,269
126,122	145,752	-0,205	-0,193
127,137	16,306	-0,193	-0,106
128,151	-22,580	-0,129	-0,054
129,166	-125,043	-0,429	-0,046
130,181	-25,547	-0,325	-0,134
131,195	177,202	-0,226	-0,231
132,210	-87,521	-0,249	-0,052
133,224	23,194	-0,329	-0,188
134,239	205,011	-0,221	-0,241
135,254	-59,575	-0,193	-0,058
136,268	8,256	-0,303	-0,159
137,283	143,788	-0,242	-0,225
138,297	110,101	-0,258	-0,217
139,312	-65,885	-0,305	-0,085
140,327	-103,441	-0,235	-0,038
141,341	-17,489	-0,285	-0,125
142,356	-8,159	-0,279	-0,131
143,370	55,212	-0,234	-0,158
144,385	75,383	-0,176	-0,130
145,400	195,198	-0,229	-0,244
146,414	76,655	-0,344	-0,255
147,429	21,093	-0,299	-0,169
148,443	49,509	-0,286	-0,188
149,458	-58,735	-0,212	-0,064
150,473	371,086	-0,084	-0,119
151,487	-11,245	-0,204	-0,094
152,502	82,651	-0,226	-0,171
153,516	68,575	-0,266	-0,190
154,531	-51,908	-0,261	-0,084
155,546	-118,025	-0,255	-0,032
156,560	102,776	-0,182	-0,149
157,575	-56,381	-0,268	-0,083
158,589	11,540	-0,275	-0,147
159,604	-91,516	-0,333	-0,066
160,619	243,229	-0,212	-0,249
161,633	123,189	-0,166	-0,145
162,648	174,650	-0,275	-0,278
163,662	132,890	-0,185	-0,167
164,677	-192,786	-0,220	-0,001
165,692	58,575	-0,231	-0,158
166,706	211,038	-0,229	-0,252
167,721	553,091	-0,147	-0,247
168,735	235,143	-0,219	-0,253
169,750	77,310	-0,229	-0,170
170,764	101,576	-0,232	-0,188
171,779	493,796	-0,137	-0,220
172,794	-81,425	-0,206	-0,047
173,808	88,865	-0,209	-0,162
174,823	62,273	-0,245	-0,170
175,837	64,669	-0,276	-0,193
176,852	84,812	-0,173	-0,132
177,867	80,887	-0,168	-0,126
178,881	800,000	-0,119	-0,282
179,896	-34,714	-0,134	0,051
180,910	6,799	-0,194	-0,100
181,925	59,654	-0,237	-0,163
182,940	185,977	-0,163	-0,169
183,954	297,180	-0,192	-0,247
184,969	258,392	-0,251	-0,302
185,983	-84,506	-0,196	-0,043
186,998	-138,741	-0,220	-0,016
188,013	800,000	-0,100	-0,282
189,027	54,218	-0,234	-0,157
190,042	90,834	-0,234	-0,183
191,056	201,592	-0,121	-0,130
192,071	89,520	-0,212	-0,164
193,086	434,921	-0,067	-0,101
194,100	491,839	-0,108	-0,173
195,115	144,296	-0,155	-0,144
196,129	-65,399	-0,222	-0,062
197,144	143,986	-0,163	-0,151
198,159	320,807	-0,133	-0,176
199,173	-98,970	-0,202	-0,035
200,188	-200,000	-0,052	-0,188
201,202	226,882	-0,148	-0,168
202,217	331,209	-0,163	-0,219
203,232	412,143	-0,110	-0,163
204,246	800,000	-0,124	-0,286
205,261	310,889	-0,190	-0,248
206,275	-77,640	-0,202	-0,048
207,290	165,999	-0,160	-0,158
208,304	63,441	-0,119	-0,083
209,319	-91,949	-0,290	-0,057
210,334	-91,701	-0,243	-0,048
211,348	144,642	-0,153	-0,142
212,363	470,528	-0,089	-0,139
213,377	116,274	-0,147	-0,125
214,392	14,667	-0,085	-0,046
215,407	663,756	-0,102	-0,184
216,421	-67,760	-0,283	0,076
217,436	69,571	-0,236	-0,168
218,450	176,309	-0,200	-0,202
219,465	-67,990	-0,265	-0,071
220,480	-50,383	-0,264	-0,086
221,494	289,445	-0,068	0,086
222,509	-200,000	-0,058	-0,178
223,523	625,256	-0,132	-0,232
224,538	48,511	-0,245	-0,159
225,553	180,920	-0,214	-0,219
226,567	75,907	-0,214	-0,157
227,582	-200,000	-0,039	-0,355
228,596	675,908	-0,125	-0,227
229,611	106,088	-0,201	-0,165
230,626	-65,120	-0,222	-0,062
231,640	13,774	-0,051	-0,027
232,655	69,728	-0,202	-0,144
233,669	-35,813	-0,178	-0,066
234,684	48,099	-0,163	-0,106
235,699	304,400	-0,121	-0,156
236,713	88,081	-0,192	-0,148
237,728	78,067	-0,086	-0,063
238,742	-77,862	-0,235	-0,056
239,757	35,506	-0,220	-0,134
240,772	-21,131	-0,216	-0,091
241,786	77,520	-0,223	-0,165
242,801	294,350	-0,166	-0,210
243,815	361,000	-0,158	-0,220
244,830	453,130	-0,060	-0,092
245,844	313,294	-0,208	-0,271
246,859	165,867	-0,194	-0,191
247,874	513,063	-0,104	-0,169
248,888	190,410	-0,179	-0,187
249,903	569,857	0,093	-0,157
250,917	13,926	-0,150	-0,080
251,932	218,418	0,018	-0,020
252,947	9,332	-0,089	0,047
253,961	286,328	-0,205	-0,257
254,976	159,148	-0,175	-0,168
255,990	437,744	-0,178	-0,270
257,005	293,325	-0,175	-0,222
258,020	610,682	0,010	0,018
259,034	-78,224	-0,170	0,040
260,049	-64,520	-0,200	-0,056
261,063	-95,793	-0,168	0,031
262,078	45,220	-0,236	-0,150
263,093	-70,798	-0,267	-0,069
264,107	-29,154	-0,207	-0,082
265,122	391,771	-0,161	-0,233
266,136	102,295	-0,123	-0,099
267,151	12,384	-0,210	-0,111
268,166	-177,395	-0,198	0,003
269,180	-33,896	-0,279	-0,106
270,195	800,000	0,014	0,041
271,209	578,390	-0,084	-0,142
272,224	269,833	-0,185	-0,225
273,239	105,635	-0,122	-0,100
274,253	79,172	-0,158	-0,117
275,268	-39,930	-0,148	-0,053
276,282	12,777	-0,160	-0,085
277,297	-88,276	-0,190	-0,039
278,312	272,862	-0,176	-0,215
279,326	141,071	-0,156	-0,142
280,341	-71,895	-0,167	-0,043
281,355	-200,000	-0,018	-0,130
282,370	6,990	-0,238	-0,122
283,384	-15,809	-0,212	-0,093
284,399	53,424	-0,205	-0,136
285,414	147,374	-0,170	-0,158
286,428	-52,912	-0,266	-0,084
287,443	-45,491	-0,113	-0,038
288,457	404,576	-0,126	-0,183
289,472	95,027	-0,158	-0,124
290,487	800,000	-0,122	-0,250
291,501	5,768	-0,252	-0,128
292,516	-51,562	-0,172	-0,055
293,530	563,587	-0,092	-0,154
294,545	282,594	-0,137	-0,170
295,560	12,501	-0,192	-0,102
296,574	577,280	-0,108	-0,183
297,589	336,295	-0,074	-0,100
298,603	172,904	-0,208	-0,207
299,618	686,838	-0,153	-0,278
300,633	465,725	-0,152	-0,236
301,647	98,787	-0,088	-0,070
302,662	305,261	-0,131	-0,168
303,676	228,749	0,053	-0,060
304,691	297,069	-0,138	-0,174
305,706	132,548	-0,261	-0,232
306,720	800,000	-0,064	-0,174
307,735	-200,000	-0,005	-0,065
308,749	250,160	-0,141	-0,165
309,764	-119,436	-0,120	0,014
310,779	800,000	-0,022	0,059
311,793	800,000	-0,085	-0,196
312,808	441,701	-0,146	-0,220
313,822	12,494	-0,201	-0,106
314,837	81,452	-0,125	0,093
315,852	161,505	-0,131	-0,126
316,866	309,302	-0,103	-0,133
317,881	-60,484	-0,091	-0,026
318,895	-200,000	-0,041	-0,164
319,910	56,549	-0,100	-0,067
320,925	-43,091	-0,158	-0,055
321,939	46,319	-0,158	-0,100
322,954	121,541	-0,044	0,038
323,968	382,037	-0,086	-0,122
324,983	-108,035	-0,051	0,007
325,997	-200,000	-0,001	-0,167
327,012	34,683	-0,231	-0,138
328,027	-72,608	-0,084	-0,021
329,041	800,000	-0,063	-0,152
330,056	747,648	-0,042	-0,079
331,070	-48,859	-0,097	-0,032
332,085	-98,036	-0,159	0,028
333,100	106,770	-0,254	-0,208
334,114	529,467	-0,115	-0,187
335,129	-200,000	-0,058	-0,197
336,143	99,884	-0,160	-0,128
337,158	-63,651	-0,146	-0,041
338,173	19,480	-0,059	-0,032
339,187	-1,273	-0,240	-0,116
340,202	207,665	-0,088	-0,095
341,216	17,722	-0,145	-0,079
342,231	62,032	-0,189	-0,129
343,246	701,619	-0,117	-0,213
344,260	65,268	-0,026	-0,018
345,275	800,000	-0,033	-0,074
346,289	-167,198	-0,103	0,003
347,304	92,756	-0,129	-0,100
348,319	-56,225	-0,149	-0,045
349,333	11,480	-0,161	-0,084
350,348	395,452	-0,110	-0,158
351,362	800,000	-0,031	-0,093
352,377	800,000	-0,012	-0,023
353,392	-48,330	-0,148	-0,049
354,406	67,081	-0,079	-0,055
355,421	208,475	1317,552	1415,509
356,435	160,410	1478,645	1416,013
