DTS Sentinel unit serial number:	SN410029Multiplexer serial number:	ORYXHardware model number:	OX2-SRSoftware version number:	ORYX F/W v4,00 Oryx Data Collector v3.7.2.0data status	okinstallation	B3 Nyhavnadifferential loss correction	single-endedforward channel	channel 1reverse channel	N/Adate	2023/11/30time	16:57:30forward acquisition time	300,00reverse acquisition time	0,00gamma	499,1914k internal	0,3203k external	0,3203temperature offset calibration	1,0000default loss term (dB/km)	0,3820temperature slope calibration	1,0000multiplexer offset coefficient	1,0000multiplexer slope coefficient	1,0000fibre end	0,00T internal ref (°C)	13,06T ext. ref 1 (°C)	-1,52T ext. ref 2 (°C)	-1,56length (m)	temperature (°C)	Stokes	anti-Stokes-744,400	405,533	-0,147	-0,226
-743,385	491,836	-0,154	0,257
-742,371	745,086	-0,149	-0,292
-741,356	800,000	0,106	0,291
-740,342	603,123	-0,128	-0,233
-739,327	-200,000	0,042	0,193
-738,312	-200,000	-0,092	-0,318
-737,298	800,000	0,100	0,265
-736,283	240,186	-0,113	-0,136
-735,269	-200,000	0,031	0,292
-734,254	800,000	-0,083	-0,190
-733,239	305,525	-0,110	0,149
-732,225	449,131	-0,063	-0,101
-731,210	-200,000	-0,033	0,184
-730,196	198,862	0,074	0,082
-729,181	231,168	0,070	-0,083
-728,167	-200,000	0,017	-0,160
-727,152	-200,000	-0,042	0,190
-726,137	532,374	0,082	-0,141
-725,123	800,000	0,012	-0,039
-724,108	-200,000	-0,012	-0,068
-723,094	-200,000	0,028	-0,095
-722,079	800,000	-0,018	-0,049
-721,064	479,948	0,058	-0,095
-720,050	557,881	-0,073	-0,129
-719,035	800,000	-0,048	-0,125
-718,021	153,015	-0,100	-0,100
-717,006	-200,000	0,009	-0,105
-715,991	337,055	-0,063	-0,089
-714,977	-200,000	-0,025	-0,126
-713,962	28,829	-0,076	-0,047
-712,948	-190,730	0,057	0,000
-711,933	27,248	-0,089	-0,054
-710,918	-200,000	-0,005	-0,017
-709,904	-200,000	0,017	-0,063
-708,889	0,422	-0,121	0,062
-707,875	274,475	-0,083	-0,107
-706,860	127,504	0,066	0,061
-705,845	-200,000	0,006	0,031
-704,831	128,700	0,100	0,093
-703,816	-78,992	-0,086	-0,021
-702,802	-200,000	0,004	-0,047
-701,787	14,135	-0,168	-0,095
-700,772	-100,107	-0,071	0,013
-699,758	-57,558	0,025	0,008
-698,743	-200,000	-0,000	-0,013
-697,729	114,732	0,011	0,010
-696,714	555,710	-0,047	-0,083
-695,699	-123,600	-0,096	-0,011
-694,685	-37,289	-0,064	-0,025
-693,670	21,954	-0,080	-0,047
-692,656	-200,000	-0,012	-0,082
-691,641	10,080	0,164	0,090
-690,627	-200,000	-0,006	-0,048
-689,612	-200,000	0,034	0,123
-688,597	783,559	-0,054	0,108
-687,583	-200,000	0,015	0,055
-686,568	800,000	0,057	-0,145
-685,554	-106,661	-0,128	-0,021
-684,539	-200,000	0,025	0,154
-683,524	772,184	-0,014	0,029
-682,510	-127,440	-0,017	-0,002
-681,495	-161,656	-0,107	0,004
-680,481	148,541	0,036	0,035
-679,466	-200,000	0,012	0,067
-678,451	-12,791	-0,008	0,004
-677,437	467,372	-0,071	-0,115
-676,422	37,640	0,073	-0,047
-675,408	-200,000	-0,011	-0,062
-674,393	800,000	0,009	-0,020
-673,378	-200,000	-0,003	-0,072
-672,364	12,856	-0,042	-0,024
-671,349	73,755	-0,037	-0,028
-670,335	350,849	-0,055	-0,080
-669,320	-168,271	0,071	0,002
-668,305	800,000	0,045	-0,100
-667,291	800,000	-0,028	0,069
-666,276	800,000	-0,067	-0,208
-665,262	-74,046	-0,043	0,011
-664,247	322,553	-0,036	-0,050
-663,232	-123,641	-0,101	-0,011
-662,218	138,794	0,058	0,055
-661,203	-200,000	-0,134	0,000
-660,189	800,000	0,038	0,087
-659,174	-143,907	-0,116	-0,008
-658,159	800,000	-0,025	0,062
-657,145	187,333	-0,061	-0,066
-656,130	-27,125	0,050	-0,021
-655,116	-200,000	-0,005	0,145
-654,101	-200,000	0,007	-0,032
-653,086	-200,000	0,022	-0,115
-652,072	-200,000	-0,004	0,116
-651,057	800,000	-0,029	0,084
-650,043	38,570	-0,160	-0,103
-649,028	2,152	0,093	-0,048
-648,014	196,480	0,069	0,076
-646,999	3,788	0,044	0,023
-645,984	-140,461	0,058	0,004
-644,970	309,189	-0,035	-0,047
-643,955	-200,000	-0,017	-0,074
-642,941	-97,921	-0,072	0,013
-641,926	318,979	-0,033	0,045
-640,911	-48,506	0,039	0,013
-639,897	-200,000	0,017	0,130
-638,882	86,893	0,037	0,030
-637,868	22,894	0,057	0,033
-636,853	112,141	-0,076	-0,066
-635,838	-200,000	0,012	-0,181
-634,824	-200,000	0,018	-0,080
-633,809	-19,927	0,042	0,019
-632,795	226,730	-0,051	0,060
-631,780	-200,000	0,022	0,109
-630,765	140,859	0,062	0,060
-629,751	74,014	0,044	0,033
-628,736	189,301	-0,049	-0,054
-627,722	-200,000	-0,024	-0,088
-626,707	316,524	0,124	0,170
-625,692	-75,264	0,080	-0,020
-624,678	141,924	0,128	0,123
-623,663	183,913	-0,080	-0,085
-622,649	153,490	-0,073	-0,072
-621,634	78,481	0,030	0,023
-620,619	259,990	-0,030	0,038
-619,605	-122,752	0,059	0,007
-618,590	565,757	0,109	0,191
-617,576	68,148	0,058	0,043
-616,561	-200,000	-0,011	-0,038
-615,546	-134,201	-0,116	-0,010
-614,532	159,906	-0,119	-0,120
-613,517	-113,304	-0,167	-0,023
-612,503	-6,905	0,052	-0,026
-611,488	-200,000	-0,011	-0,111
-610,474	-55,992	0,156	0,050
-609,459	-26,860	0,099	-0,042
-608,444	-200,000	0,017	0,086
-607,430	800,000	0,059	0,131
-606,415	77,102	-0,054	-0,042
-605,401	83,505	0,112	-0,089
-604,386	396,266	0,007	0,011
-603,371	-200,000	0,016	0,086
-602,357	-200,000	-0,001	-0,047
-601,342	-124,472	-0,052	0,006
-600,328	-200,000	0,014	-0,100
-599,313	4,960	-0,125	0,066
-598,298	258,974	0,066	0,082
-597,284	-39,521	-0,136	0,051
-596,269	-61,198	0,056	0,017
-595,255	348,003	-0,055	-0,078
-594,240	62,679	-0,114	0,082
-593,225	-120,937	-0,057	0,007
-592,211	263,854	0,065	-0,081
-591,196	-200,000	0,021	-0,093
-590,182	-137,307	0,164	0,013
-589,167	86,412	-0,111	0,088
-588,152	-200,000	-0,013	0,084
-587,138	191,333	-0,081	-0,088
-586,123	37,445	-0,029	0,018
-585,109	-183,448	0,080	-0,001
-584,094	116,182	-0,122	0,108
-583,079	168,326	0,024	-0,024
-582,065	120,998	0,065	-0,058
-581,050	800,000	-0,016	-0,044
-580,036	59,845	-0,033	0,023
-579,021	800,000	-0,020	0,043
-578,006	18,307	-0,108	0,062
-576,992	-200,000	-0,017	0,071
-575,977	800,000	-0,034	-0,075
-574,963	-6,861	0,083	0,040
-573,948	493,946	0,020	0,034
-572,934	366,372	-0,094	0,138
-571,919	186,068	-0,131	-0,141
-570,904	516,011	-0,068	-0,116
-569,890	-137,208	0,035	0,003
-568,875	414,407	0,035	0,054
-567,861	-62,740	-0,023	-0,007
-566,846	-103,832	0,077	-0,013
-565,831	-200,000	-0,008	0,108
-564,817	119,741	-0,043	-0,039
-563,802	-200,000	0,007	-0,071
-562,788	-200,000	0,010	-0,083
-561,773	-125,654	0,016	-0,002
-560,758	21,743	0,042	-0,024
-559,744	800,000	-0,022	-0,057
-558,729	800,000	-0,043	-0,105
-557,715	412,139	-0,063	0,098
-556,700	-200,000	-0,022	-0,099
-555,685	346,470	-0,077	-0,109
-554,671	-85,834	-0,071	-0,016
-553,656	-160,426	-0,088	0,003
-552,642	-68,249	0,133	-0,037
-551,627	8,022	0,022	0,012
-550,612	-200,000	-0,023	0,142
-549,598	800,000	0,021	-0,057
-548,583	101,249	-0,067	-0,056
-547,569	800,000	-0,030	0,068
-546,554	65,391	0,024	-0,017
-545,539	100,265	-0,042	-0,035
-544,525	691,195	-0,050	-0,095
-543,510	-200,000	-0,006	0,046
-542,496	-7,855	-0,041	0,020
-541,481	538,055	-0,021	-0,036
-540,466	308,312	-0,063	-0,085
-539,452	-128,717	-0,048	-0,005
-538,437	-200,000	-0,002	-0,020
-537,423	-107,901	-0,118	0,018
-536,408	800,000	0,055	0,140
-535,393	800,000	0,059	0,159
-534,379	52,875	0,054	0,037
-533,364	11,996	0,043	-0,024
-532,350	-115,503	0,043	-0,006
-531,335	232,959	0,048	-0,057
-530,321	-200,000	0,010	-0,083
-529,306	17,456	0,182	-0,104
-528,291	-76,782	-0,126	-0,031
-527,277	292,272	-0,041	0,054
-526,262	-200,000	-0,005	0,105
-525,248	201,782	0,053	-0,059
-524,233	-67,078	0,047	-0,013
-523,218	91,566	-0,078	-0,063
-522,204	272,197	-0,018	-0,022
-521,189	123,855	-0,048	0,043
-520,175	-200,000	-0,004	-0,109
-519,160	-200,000	0,029	0,112
-518,145	-200,000	0,012	0,081
-517,131	-200,000	0,004	-0,172
-516,116	104,876	0,020	0,017
-515,102	-200,000	-0,052	0,209
-514,087	349,169	-0,001	0,001
-513,072	-89,090	-0,074	-0,016
-512,058	-200,000	0,025	-0,087
-511,043	-63,998	0,028	0,008
-510,029	-47,760	0,106	-0,037
-509,014	226,311	0,009	0,010
-507,999	-81,882	-0,049	-0,011
-506,985	-200,000	0,022	-0,158
-505,970	-79,150	-0,126	0,030
-504,956	707,147	0,015	-0,028
-503,941	-200,000	0,014	0,097
-502,926	14,871	-0,052	-0,029
-501,912	-65,373	-0,087	-0,025
-500,897	-82,188	0,094	-0,022
-499,883	-171,662	-0,130	-0,003
-498,868	-200,000	-0,011	0,050
-497,853	379,757	0,086	-0,128
-496,839	800,000	-0,066	-0,139
-495,824	186,888	0,043	0,046
-494,810	129,161	-0,077	0,071
-493,795	-200,000	0,003	0,043
-492,781	800,000	-0,023	0,063
-491,766	800,000	0,014	0,042
-490,751	196,050	0,041	-0,045
-489,737	-200,000	-0,039	-0,154
-488,722	-14,394	0,088	-0,041
-487,708	141,722	-0,087	0,083
-486,693	-20,423	-0,108	0,048
-485,678	-107,987	-0,107	0,017
-484,664	699,458	-0,016	0,031
-483,649	-200,000	0,000	0,048
-482,635	81,419	-0,032	-0,025
-481,620	-102,196	0,140	0,024
-480,605	187,961	0,081	0,087
-479,591	235,532	0,043	0,051
-478,576	800,000	0,030	-0,096
-477,562	-32,182	0,026	-0,010
-476,547	-136,777	-0,087	-0,007
-475,532	-200,000	-0,002	-0,097
-474,518	-66,534	-0,047	0,013
-473,503	800,000	-0,078	0,158
-472,489	240,512	-0,115	0,139
-471,474	-79,356	-0,071	-0,017
-470,459	800,000	0,036	-0,073
-469,445	-200,000	-0,007	0,032
-468,430	49,174	-0,068	-0,046
-467,416	-200,000	0,015	-0,092
-466,401	800,000	-0,042	0,085
-465,386	-85,906	-0,058	0,013
-464,372	278,562	0,109	-0,140
-463,357	-200,000	-0,041	-0,149
-462,343	221,848	0,057	-0,066
-461,328	-200,000	-0,012	-0,163
-460,313	488,741	-0,031	-0,051
-459,299	21,796	0,033	0,019
-458,284	129,463	-0,049	-0,045
-457,270	-54,731	-0,125	0,040
-456,255	800,000	-0,043	-0,095
-455,241	185,972	-0,137	-0,147
-454,226	23,982	0,055	-0,033
-453,211	157,879	-0,043	0,043
-452,197	-200,000	-0,004	0,127
-451,182	-92,451	0,139	-0,028
-450,168	404,135	0,117	0,178
-449,153	26,058	-0,062	0,037
-448,138	74,112	-0,072	-0,054
-447,124	800,000	0,032	0,065
-446,109	125,164	-0,008	-0,007
-445,095	272,428	-0,040	0,051
-444,080	-73,117	0,129	0,034
-443,065	800,000	0,072	-0,148
-442,051	97,627	0,029	-0,024
-441,036	2,359	0,140	-0,072
-440,022	-26,669	-0,094	0,039
-439,007	4,209	-0,066	-0,035
-437,992	-115,936	0,067	0,009
-436,978	65,371	0,017	0,012
-435,963	-52,419	-0,143	-0,047
-434,949	-200,000	0,043	-0,152
-433,934	384,868	0,035	0,053
-432,919	-200,000	-0,016	-0,051
-431,905	38,011	-0,082	0,052
-430,890	-111,192	0,215	0,031
-429,876	-119,164	0,101	-0,013
-428,861	609,390	-0,025	0,046
-427,846	657,241	0,059	0,109
-426,832	35,244	0,041	0,026
-425,817	39,813	-0,076	0,049
-424,803	-200,000	-0,010	-0,071
-423,788	-200,000	0,008	-0,098
-422,773	58,963	0,085	-0,060
-421,759	-200,000	-0,000	0,029
-420,744	241,441	0,053	-0,063
-419,730	176,726	0,031	0,033
-418,715	-156,650	0,022	0,001
-417,701	441,517	-0,035	0,055
-416,686	800,000	0,025	0,053
-415,671	260,345	0,121	0,150
-414,657	-71,814	0,103	-0,027
-413,642	-127,648	-0,112	-0,011
-412,628	-28,509	0,097	0,040
-411,613	-200,000	-0,002	-0,047
-410,598	-93,625	-0,064	0,013
-409,584	207,994	0,148	0,166
-408,569	800,000	0,106	0,255
-407,555	-200,000	-0,041	0,144
-406,540	-200,000	-0,009	0,104
-405,525	-147,529	0,073	0,004
-404,511	800,000	-0,079	-0,171
-403,496	518,041	0,037	0,063
-402,482	-200,000	0,009	-0,032
-401,467	-115,836	0,111	0,015
-400,452	592,075	0,065	-0,116
-399,438	173,598	-0,085	-0,088
-398,423	-3,336	0,106	-0,053
-397,409	91,614	-0,070	-0,056
-396,394	476,639	0,011	-0,017
-395,379	-121,561	-0,084	-0,010
-394,365	156,907	-0,069	0,069
-393,350	408,775	0,090	0,137
-392,336	-32,624	-0,063	0,025
-391,321	227,369	0,041	-0,048
-390,306	800,000	-0,038	0,087
-389,292	-35,669	-0,137	-0,053
-388,277	171,527	0,034	0,035
-387,263	86,120	0,048	0,037
-386,248	-200,000	0,008	0,114
-385,233	-69,805	0,079	-0,022
-384,219	230,751	0,155	-0,182
-383,204	368,628	-0,095	0,138
-382,190	-47,203	-0,136	-0,047
-381,175	90,276	-0,065	-0,052
-380,160	-38,786	0,081	-0,030
-379,146	-2,161	0,080	0,040
-378,131	83,092	-0,141	-0,110
-377,117	200,469	0,042	0,046
-376,102	-200,000	0,013	-0,125
-375,088	132,410	-0,037	0,034
-374,073	800,000	0,022	-0,063
-373,058	55,891	-0,091	-0,063
-372,044	-200,000	0,016	-0,052
-371,029	-200,000	-0,010	-0,064
-370,015	325,725	-0,020	-0,028
-369,000	-200,000	0,014	-0,082
-367,985	-200,000	0,017	0,053
-366,971	-200,000	-0,111	0,000
-365,956	-161,461	-0,128	-0,005
-364,942	-200,000	0,002	0,137
-363,927	-175,052	0,077	0,002
-362,912	800,000	0,018	-0,055
-361,898	-200,000	-0,015	-0,114
-360,883	-87,192	-0,048	0,010
-359,869	29,406	-0,046	-0,028
-358,854	-200,000	0,011	-0,175
-357,839	100,815	0,057	0,047
-356,825	24,649	-0,125	0,074
-355,810	432,715	-0,025	-0,039
-354,796	800,000	-0,031	-0,076
-353,781	-200,000	0,000	-0,041
-352,766	-200,000	-0,026	-0,118
-351,752	155,971	-0,089	0,088
-350,737	-80,023	0,014	-0,003
-349,723	-200,000	-0,015	0,092
-348,708	410,026	0,095	0,144
-347,693	166,010	-0,084	-0,085
-346,679	-200,000	0,006	0,038
-345,664	98,125	-0,143	-0,118
-344,650	502,672	-0,032	-0,053
-343,635	101,954	0,115	0,096
-342,620	-67,555	0,035	0,010
-341,606	-200,000	0,021	0,125
-340,591	-20,078	-0,144	-0,063
-339,577	-200,000	-0,021	-0,099
-338,562	-99,191	-0,124	0,022
-337,548	518,422	0,069	0,117
-336,533	277,984	0,104	-0,133
-335,518	-170,343	0,048	0,001
-334,504	-149,704	0,117	0,006
-333,489	-65,547	-0,034	0,010
-332,475	710,653	-0,038	-0,072
-331,460	-200,000	-0,015	-0,053
-330,445	-62,656	-0,098	-0,029
-329,431	-107,181	-0,013	0,002
-328,416	-200,000	0,012	0,084
-327,402	-200,000	-0,043	0,167
-326,387	66,197	0,042	-0,031
-325,372	-200,000	-0,003	0,115
-324,358	660,907	-0,085	-0,157
-323,343	783,888	-0,037	0,073
-322,329	800,000	0,070	0,205
-321,314	330,099	0,073	0,101
-320,299	534,083	-0,012	-0,020
-319,285	143,226	0,008	-0,008
-318,270	-110,415	-0,266	0,039
-317,256	-200,000	-0,003	-0,049
-316,241	207,199	-0,104	-0,116
-315,226	0,667	0,036	-0,018
-314,212	800,000	0,007	-0,017
-313,197	389,800	0,104	0,155
-312,183	117,204	-0,059	0,052
-311,168	-128,772	-0,128	0,013
-310,153	57,626	-0,039	-0,027
-309,139	107,419	0,053	-0,045
-308,124	420,518	-0,039	-0,060
-307,110	136,264	-0,121	0,113
-306,095	800,000	0,075	0,206
-305,080	-144,406	-0,045	0,003
-304,066	-200,000	-0,022	-0,069
-303,051	-18,975	-0,106	0,047
-302,037	383,005	-0,051	-0,076
-301,022	-200,000	0,053	-0,194
-300,008	-81,747	0,116	0,027
-298,993	-151,335	0,107	0,006
-297,978	-50,867	0,081	0,027
-296,964	390,350	-0,070	0,104
-295,949	110,990	0,069	-0,060
-294,935	784,827	0,040	0,079
-293,920	800,000	-0,038	-0,096
-292,905	-94,192	0,108	-0,021
-291,891	24,825	0,161	-0,095
-290,876	108,570	-0,082	0,070
-289,862	121,149	0,060	-0,054
-288,847	443,774	0,080	-0,125
-287,832	-24,763	0,162	0,068
-286,818	-50,204	-0,134	0,045
-285,803	547,923	-0,059	0,100
-284,789	800,000	0,073	0,199
-283,774	-161,429	0,078	-0,003
-282,759	65,490	0,055	0,040
-281,745	-21,287	-0,025	-0,011
-280,730	-200,000	-0,025	-0,116
-279,716	261,183	0,052	0,065
-278,701	-122,486	0,170	0,020
-277,686	96,362	0,102	0,083
-276,672	-200,000	0,032	0,199
-275,657	5,542	-0,085	-0,045
-274,643	800,000	0,042	-0,088
-273,628	225,766	0,033	0,038
-272,613	-200,000	-0,016	0,096
-271,599	-44,092	0,114	0,041
-270,584	315,296	0,090	0,122
-269,570	-120,475	-0,046	0,006
-268,555	-84,827	0,173	0,038
-267,540	-143,205	0,110	0,007
-266,526	434,651	-0,030	-0,047
-265,511	800,000	0,032	-0,100
-264,497	269,565	0,042	-0,052
-263,482	-192,027	0,097	0,001
-262,467	-200,000	-0,033	0,109
-261,453	-200,000	0,018	0,071
-260,438	-123,761	-0,091	-0,010
-259,424	-200,000	0,001	-0,073
-258,409	-200,000	-0,001	0,062
-257,395	270,181	0,051	0,065
-256,380	26,370	-0,035	-0,021
-255,365	-109,834	-0,053	0,008
-254,351	-14,192	0,020	0,009
-253,336	800,000	-0,057	-0,173
-252,322	-31,487	-0,088	-0,035
-251,307	441,076	-0,045	-0,071
-250,292	51,518	-0,045	0,030
-249,278	-5,502	-0,043	-0,021
-248,263	-200,000	-0,016	0,115
-247,249	800,000	0,015	-0,047
-246,234	-3,279	-0,034	-0,017
-245,219	-172,516	-0,166	0,004
-244,205	800,000	0,066	-0,151
-243,190	800,000	-0,006	-0,018
-242,176	800,000	-0,029	0,092
-241,161	800,000	0,045	0,137
-240,146	-200,000	-0,005	-0,084
-239,132	-22,143	0,068	0,029
-238,117	-45,327	-0,121	-0,043
-237,103	800,000	0,111	-0,225
-236,088	8,414	0,101	0,054
-235,073	-32,746	-0,022	0,009
-234,059	-152,344	0,124	0,006
-233,044	133,850	-0,054	0,050
-232,030	-123,146	0,105	-0,012
-231,015	18,673	-0,036	0,020
-230,000	245,949	-0,070	-0,085
-228,986	-35,380	-0,076	0,029
-227,971	-31,965	0,053	0,021
-226,957	108,804	-0,091	0,077
-225,942	44,060	-0,048	0,031
-224,927	-129,097	0,044	0,004
-223,913	68,114	-0,085	-0,062
-222,898	-200,000	0,020	-0,114
-221,884	-200,000	0,012	-0,150
-220,869	800,000	-0,046	0,141
-219,855	-57,950	0,157	0,048
-218,840	-200,000	-0,014	-0,144
-217,825	69,152	-0,117	0,086
-216,811	-73,621	0,047	0,012
-215,796	-163,859	-0,136	-0,004
-214,782	339,673	0,030	-0,042
-213,767	-111,454	0,053	0,008
-212,752	-149,915	-0,051	-0,003
-211,738	-94,153	0,055	-0,011
-210,723	-116,327	0,054	0,007
-209,709	78,630	0,018	0,014
-208,694	-136,237	-0,088	-0,007
-207,679	-200,000	0,010	-0,048
-206,665	-2,950	-0,092	-0,045
-205,650	397,905	-0,074	0,110
-204,636	-14,353	-0,071	0,032
-203,621	-110,510	0,079	-0,012
-202,606	-111,636	-0,079	-0,011
-201,592	-184,942	-0,060	-0,001
-200,577	-200,000	0,011	-0,118
-199,563	-200,000	0,031	0,153
-198,548	-102,440	0,177	0,030
-197,533	578,042	0,037	0,064
-196,519	-200,000	0,006	-0,025
-195,504	-0,542	0,092	-0,046
-194,490	64,662	-0,111	0,080
-193,475	-71,398	-0,091	-0,024
-192,460	-68,512	-0,034	-0,009
-191,446	157,544	-0,143	0,141
-190,431	-200,000	0,015	0,101
-189,417	800,000	-0,037	-0,109
-188,402	91,738	-0,099	0,079
-187,387	293,683	-0,030	-0,039
-186,373	-200,000	-0,009	-0,059
-185,358	-71,341	-0,089	-0,023
-184,344	162,783	0,101	0,101
-183,329	-200,000	-0,012	0,091
-182,315	133,317	0,044	0,041
-181,300	9,120	0,074	-0,040
-180,285	-200,000	-0,000	-0,113
-179,271	800,000	-0,041	-0,116
-178,256	123,315	-0,029	-0,026
-177,242	430,853	-0,029	0,045
-176,227	800,000	0,067	-0,141
-175,212	745,695	0,017	-0,033
-174,198	800,000	0,025	0,066
-173,183	31,144	0,053	-0,032
-172,169	98,575	-0,051	0,042
-171,154	163,706	-0,076	0,076
-170,139	28,993	0,065	-0,039
-169,125	237,123	0,009	0,010
-168,110	-200,000	0,013	0,119
-167,096	-200,000	0,010	0,147
-166,081	-126,791	0,159	-0,017
-165,066	81,590	0,119	-0,091
-164,052	800,000	-0,069	-0,163
-163,037	149,991	0,068	-0,065
-162,023	2,681	0,116	-0,060
-161,008	104,479	-0,072	0,060
-159,993	-142,052	0,214	-0,015
-158,979	127,793	0,072	-0,065
-157,964	-200,000	-0,030	-0,180
-156,950	800,000	-0,040	-0,087
-155,935	-200,000	0,022	0,116
-154,920	-200,000	0,022	0,096
-153,906	800,000	0,035	0,088
-152,891	-32,993	0,058	0,023
-151,877	5,854	-0,068	-0,036
-150,862	552,612	0,056	0,096
-149,847	800,000	-0,031	0,095
-148,833	487,372	0,060	-0,098
-147,818	-133,809	0,082	-0,007
-146,804	-26,995	-0,132	0,055
-145,789	800,000	0,003	0,010
-144,775	-200,000	-0,044	-0,186
-143,760	348,057	-0,093	-0,130
-142,745	205,018	0,031	-0,034
-141,731	116,399	-0,101	0,088
-140,716	196,343	0,167	0,181
-139,702	-200,000	-0,011	-0,104
-138,687	377,332	-0,054	-0,078
-137,672	800,000	-0,037	0,110
-136,658	-30,045	-0,191	0,077
-135,643	-110,744	-0,255	-0,037
-134,629	17,747	-0,040	0,022
-133,614	800,000	-0,070	0,193
-132,599	-200,000	-0,012	0,155
-131,585	-200,000	-0,024	0,077
-130,570	-200,000	0,020	0,068
-129,556	385,407	-0,040	0,059
-128,541	168,344	-0,065	-0,065
-127,526	-37,850	0,058	-0,022
-126,512	800,000	0,016	0,046
-125,497	-200,000	0,015	0,136
-124,483	-200,000	-0,034	0,150
-123,468	30,522	0,125	0,075
-122,453	800,000	-0,048	-0,142
-121,439	-16,899	-0,092	-0,041
-120,424	166,706	-0,044	-0,044
-119,410	359,339	0,079	0,112
-118,395	151,700	0,051	-0,049
-117,380	29,260	0,067	-0,040
-116,366	553,967	0,024	-0,041
-115,351	75,737	-0,137	-0,103
-114,337	-200,000	-0,027	-0,157
-113,322	-152,782	-0,076	-0,004
-112,307	151,285	0,059	0,057
-111,293	-121,945	0,083	0,010
-110,278	171,631	0,138	0,141
-109,264	91,168	-0,125	0,100
-108,249	-200,000	0,013	0,045
-107,234	800,000	-0,032	0,078
-106,220	-94,123	-0,171	-0,033
-105,205	706,942	0,033	0,061
-104,191	94,131	0,045	0,036
-103,176	158,580	0,078	-0,077
-102,162	-3,590	-0,038	-0,019
-101,147	-200,000	0,004	0,028
-100,132	-134,438	-0,045	-0,004
-99,118	114,261	-0,097	-0,084
-98,103	-200,000	0,006	-0,078
-97,089	158,047	-0,070	0,069
-96,074	93,515	0,121	0,097
-95,059	-14,936	0,112	0,051
-94,045	86,493	-0,082	-0,064
-93,030	-134,058	-0,107	-0,009
-92,016	-164,538	-0,041	-0,001
-91,001	332,649	-0,077	-0,106
-89,986	116,818	0,054	-0,047
-88,972	800,000	-0,027	-0,064
-87,957	800,000	0,028	-0,061
-86,943	142,088	0,111	0,105
-85,928	-7,731	-0,048	0,023
-84,913	184,724	-0,097	-0,102
-83,899	-13,948	0,017	0,008
-82,884	-60,638	-0,051	-0,015
-81,870	-200,000	-0,003	0,012
-80,855	113,748	-0,084	-0,073
-79,840	-200,000	-0,000	-0,099
-78,826	164,823	-0,055	0,056
-77,811	800,000	-0,022	-0,046
-76,797	-200,000	-0,009	-0,093
-75,782	51,500	0,131	0,088
-74,767	253,660	-0,095	0,116
-73,753	-200,000	-0,006	-0,023
-72,738	-52,830	0,084	-0,027
-71,724	222,325	-0,061	-0,070
-70,709	-42,176	-0,120	0,043
-69,694	67,128	-0,030	-0,022
-68,680	289,655	-0,103	-0,133
-67,665	-200,000	0,002	0,119
-66,651	-200,000	0,013	0,055
-65,636	-200,000	-0,003	-0,148
-64,622	127,924	-0,062	-0,055
-63,607	700,312	0,010	0,019
-62,592	-32,255	-0,088	0,034
-61,578	54,866	0,105	-0,072
-60,563	385,589	0,043	-0,062
-59,549	580,026	-0,066	0,115
-58,534	-23,772	-1,752	-0,739
-57,519	387,790	-1,493	-2,191
-56,505	-200,000	-0,400	-4,332
-55,490	234,897	0,893	1,044
-54,476	800,000	4,885	11,270
-53,461	-200,000	19,193	323,460
-52,446	-200,000	739,746	2335,101
-51,432	573,234	1651,323	2859,341
-50,417	77,874	1666,691	1255,464
-49,403	21,033	1539,890	881,234
-48,388	14,958	1461,994	807,214
-47,373	18,225	1452,506	817,678
-46,359	16,788	1442,282	805,026
-45,344	13,231	1437,561	785,380
-44,330	13,113	1435,769	783,808
-43,315	13,127	1434,115	782,941
-42,300	13,146	1432,275	781,996
-41,286	13,122	1431,269	781,300
-40,271	13,114	1429,727	780,392
-39,257	13,120	1428,508	779,723
-38,242	13,160	1427,253	779,196
-37,227	13,116	1426,124	778,341
-36,213	13,142	1424,652	777,631
-35,198	13,172	1423,502	777,112
-34,184	13,163	1422,693	776,597
-33,169	13,160	1421,280	775,779
-32,154	13,177	1420,166	775,222
-31,140	13,199	1418,906	774,609
-30,125	13,194	1418,074	774,098
-29,111	13,224	1416,732	773,476
-28,096	13,145	1415,493	772,397
-27,082	13,111	1414,764	771,812
-26,067	13,067	1413,698	770,991
-25,052	13,087	1412,424	770,360
-24,038	13,087	1411,467	769,808
-23,023	13,088	1410,449	769,225
-22,009	13,088	1409,519	768,689
-20,994	13,045	1408,655	767,986
-19,979	13,019	1407,779	767,354
-18,965	13,060	1406,828	767,000
-17,950	13,003	1405,906	766,198
-16,936	13,026	1404,948	765,755
-15,921	13,029	1403,841	765,137
-14,906	12,991	1403,030	764,486
-13,892	13,023	1401,986	764,036
-12,877	13,012	1401,280	763,570
-11,863	12,985	1400,492	762,982
-10,848	12,983	1399,214	762,247
-9,833	12,936	1398,709	761,723
-8,819	12,918	1397,824	761,128
-7,804	12,905	1396,696	760,425
-6,790	12,905	1395,720	759,864
-5,775	12,918	1394,638	759,304
-4,760	12,940	1393,677	758,851
-3,746	12,899	1392,834	758,174
-2,731	12,889	1392,069	757,680
-1,717	12,856	1391,240	757,046
-0,702	12,892	1389,267	756,106
0,313	16,910	1305,887	729,221
1,327	33,419	700,751	429,267
2,342	51,371	122,717	82,252
3,356	3,027	16,585	8,491
4,371	-2,704	3,195	1,574
5,386	-48,475	0,712	0,241
6,400	371,417	0,171	0,246
7,415	210,962	-0,180	-0,200
8,429	-61,136	-0,287	-0,085
9,444	-145,888	-0,308	-0,019
10,459	203,127	-0,253	-0,277
11,473	492,218	-0,136	-0,220
12,488	-37,017	-0,315	-0,118
13,502	74,360	-0,192	-0,142
14,517	-26,493	-0,344	-0,142
15,531	101,970	-0,379	-0,312
16,546	46,063	-0,273	-0,178
17,561	294,027	-0,269	-0,348
18,575	-93,718	-0,218	0,042
19,590	48,776	-0,235	-0,155
20,604	-88,796	-0,208	-0,043
21,619	-1,559	-0,454	-0,225
22,634	-46,227	-0,557	-0,192
23,648	4,192	-0,520	-0,268
24,663	25,581	-0,361	-0,211
25,677	106,221	-0,277	-0,232
26,692	17,963	-0,259	-0,145
27,707	25,625	-0,351	-0,206
28,721	11,872	-0,381	-0,206
29,736	237,200	-0,257	-0,301
30,750	18,299	-0,426	-0,239
31,765	3,357	-0,381	-0,195
32,780	319,597	-0,280	-0,376
33,794	177,578	-0,300	-0,309
34,809	13,276	-0,309	-0,168
35,823	15,776	-0,473	-0,261
36,838	167,464	-0,261	-0,261
37,853	204,949	-0,207	-0,227
38,867	12,692	-0,358	-0,194
39,882	119,045	-0,365	-0,318
40,896	1,452	-0,415	-0,209
41,911	579,900	-0,215	-0,372
42,926	93,653	-0,399	-0,318
43,940	45,690	-0,414	-0,269
44,955	68,606	-0,412	-0,297
45,969	-23,214	-0,419	-0,177
46,984	-13,226	-0,377	-0,172
47,999	218,110	-0,297	-0,334
49,013	163,998	-0,212	-0,210
50,028	-96,894	-0,405	-0,074
51,042	25,010	-0,425	-0,248
52,057	19,086	-0,381	-0,215
53,071	68,595	-0,326	-0,235
54,086	56,193	-0,226	-0,154
55,101	80,514	-0,280	-0,212
56,115	89,043	-0,321	-0,251
57,130	-68,690	-0,292	-0,079
58,144	60,984	-0,382	-0,266
59,159	177,391	-0,361	-0,370
60,174	79,185	-0,303	-0,228
61,188	8,627	-0,295	-0,156
62,203	51,254	-0,332	-0,221
63,217	198,883	-0,260	-0,281
64,232	-5,627	-0,196	-0,094
65,247	19,612	-0,367	-0,207
66,261	30,077	-0,335	-0,200
67,276	5,976	-0,400	-0,208
68,290	34,036	-0,225	-0,137
69,305	64,621	-0,227	-0,160
70,320	161,721	-0,245	-0,242
71,334	31,838	-0,286	-0,173
72,349	190,740	-0,328	-0,347
73,363	-58,454	-0,420	-0,127
74,378	-76,457	-0,301	-0,074
75,393	36,980	-0,354	-0,220
76,407	34,413	-0,266	-0,163
77,422	0,705	-0,312	-0,156
78,436	41,122	-0,205	-0,130
79,451	39,651	-0,377	-0,237
80,466	126,715	-0,270	-0,240
81,480	328,779	-0,241	-0,326
82,495	86,785	-0,255	-0,197
83,509	-2,608	-0,200	-0,098
84,524	201,201	-0,257	-0,278
85,539	-166,065	-0,236	-0,007
86,553	28,233	-0,341	-0,202
87,568	27,437	-0,329	-0,194
88,582	148,616	-0,299	-0,284
89,597	-7,043	-0,324	-0,154
90,611	71,811	-0,298	-0,217
91,626	55,075	-0,295	-0,200
92,641	800,000	-0,140	-0,277
93,655	177,995	-0,177	-0,182
94,670	60,332	-0,289	-0,200
95,684	48,713	-0,280	-0,184
96,699	42,888	-0,346	-0,220
97,714	2,264	-0,282	-0,142
98,728	161,414	-0,209	-0,205
99,743	-128,503	-0,266	0,026
100,757	32,495	-0,274	-0,165
101,772	69,655	-0,339	-0,244
102,787	185,092	-0,262	-0,272
103,801	26,173	-0,366	-0,213
104,816	33,641	-0,261	-0,159
105,830	152,536	-0,224	-0,214
106,845	209,916	-0,115	-0,126
107,860	-75,715	-0,330	-0,081
108,874	-28,529	-0,206	-0,083
109,889	-53,767	-0,343	-0,109
110,903	-46,233	-0,391	-0,134
111,918	-85,105	-0,375	-0,081
112,933	52,251	-0,317	-0,211
113,947	113,538	-0,198	-0,169
114,962	97,442	-0,201	-0,162
115,976	-51,316	-0,345	-0,112
116,991	-39,312	-0,266	-0,097
118,006	332,140	-0,227	-0,307
119,020	69,154	-0,300	-0,216
120,035	107,926	-0,305	-0,254
121,049	147,086	-0,171	-0,161
122,064	174,240	-0,171	-0,173
123,079	-22,313	-0,402	-0,170
124,093	-41,663	-0,303	-0,108
125,108	61,606	-0,273	-0,190
126,122	-110,246	-0,407	-0,059
127,137	-72,851	-0,288	-0,073
128,151	662,465	-0,133	-0,240
129,166	51,180	-0,213	-0,141
130,181	421,318	-0,178	-0,267
131,195	1,861	-0,303	-0,152
132,210	150,771	-0,298	-0,283
133,224	35,842	-0,322	-0,197
134,239	111,541	-0,247	-0,208
135,254	-137,774	-0,255	-0,020
136,268	21,169	-0,307	-0,174
137,283	-96,228	-0,313	-0,057
138,297	-60,041	-0,277	-0,082
139,312	25,575	-0,291	-0,168
140,327	306,322	-0,209	-0,272
141,341	-106,561	-0,292	-0,045
142,356	30,341	-0,279	-0,166
143,370	20,945	-0,265	-0,150
144,385	108,581	-0,173	-0,144
145,400	186,278	-0,283	-0,294
146,414	34,880	-0,240	-0,146
147,429	210,656	-0,148	-0,162
148,443	-34,840	-0,239	-0,091
149,458	252,563	-0,240	-0,286
150,473	800,000	-0,080	-0,176
151,487	368,325	-0,134	-0,189
152,502	-2,764	-0,244	-0,119
153,516	55,314	-0,233	-0,157
154,531	-8,898	-0,315	-0,147
155,546	800,000	-0,090	-0,215
156,560	153,929	-0,310	-0,296
157,575	-76,780	-0,232	-0,056
158,589	122,231	-0,176	-0,154
159,604	92,680	-0,256	-0,201
160,619	-69,440	-0,307	-0,082
161,633	77,120	-0,302	-0,224
162,648	236,643	-0,208	-0,240
163,662	246,107	-0,226	-0,266
164,677	-105,570	-0,293	-0,046
165,692	565,587	-0,208	-0,353
166,706	49,004	-0,217	-0,142
167,721	64,334	-0,215	-0,151
168,735	539,480	-0,175	-0,291
169,750	73,403	-0,309	-0,225
170,764	46,667	-0,168	-0,108
171,779	226,277	-0,183	-0,207
172,794	-35,208	-0,249	-0,094
173,808	33,198	-0,189	-0,114
174,823	32,488	-0,296	-0,178
175,837	342,577	-0,142	-0,194
176,852	7,614	-0,311	-0,161
177,867	-111,734	-0,208	-0,029
178,881	87,386	-0,251	-0,193
179,896	-78,996	-0,193	0,045
180,910	-19,872	-0,215	-0,092
181,925	358,492	-0,172	-0,240
182,940	83,824	-0,286	-0,217
183,954	85,062	-0,179	-0,137
184,969	-42,237	-0,224	-0,079
185,983	-17,307	-0,129	-0,056
186,998	89,118	-0,177	-0,137
188,013	409,431	-0,120	-0,178
189,027	68,429	-0,303	-0,216
190,042	159,254	-0,269	-0,260
191,056	130,202	-0,223	-0,198
192,071	-80,137	-0,310	-0,072
193,086	169,276	-0,236	-0,234
194,100	-28,434	-0,179	-0,072
195,115	121,272	-0,173	-0,149
196,129	205,882	-0,205	-0,222
197,144	138,491	-0,194	-0,177
198,159	82,912	-0,200	-0,151
199,173	39,306	-0,283	-0,176
200,188	103,908	-0,245	-0,200
201,202	-108,125	-0,154	-0,023
202,217	-19,902	-0,284	-0,121
203,232	15,141	-0,301	-0,164
204,246	56,494	-0,309	-0,209
205,261	-58,462	-0,180	-0,054
206,275	38,694	-0,275	-0,170
207,290	-3,809	-0,189	-0,091
208,304	-85,816	-0,176	-0,037
209,319	-19,185	-0,304	-0,131
210,334	441,257	-0,198	-0,302
211,348	1,487	-0,330	-0,164
212,363	-83,706	-0,215	-0,047
213,377	257,789	-0,213	-0,254
214,392	-200,000	-0,037	-0,197
215,407	48,052	-0,234	-0,152
216,421	-57,475	-0,161	-0,049
217,436	44,178	-0,349	-0,221
218,450	4,939	-0,344	-0,175
219,465	-38,882	-0,175	-0,063
220,480	116,012	-0,140	-0,119
221,494	-11,882	-0,184	-0,083
222,509	447,819	-0,159	-0,244
223,523	375,800	-0,166	-0,236
224,538	800,000	-0,129	-0,277
225,553	393,280	-0,122	-0,176
226,567	60,998	-0,339	-0,233
227,582	31,620	-0,156	-0,093
228,596	166,381	-0,154	-0,151
229,611	51,461	-0,227	-0,149
230,626	142,133	-0,205	-0,189
231,640	260,327	-0,167	-0,200
232,655	195,985	-0,168	-0,178
233,669	-38,353	-0,262	-0,096
234,684	-121,535	-0,176	-0,020
235,699	-96,838	-0,139	-0,025
236,713	109,913	-0,119	-0,099
237,728	96,972	-0,167	-0,133
238,742	28,627	-0,181	-0,106
239,757	156,106	-0,120	-0,114
240,772	223,171	-0,140	-0,157
241,786	104,386	-0,249	-0,203
242,801	-77,459	-0,125	-0,030
243,815	30,106	-0,239	-0,141
244,830	168,394	-0,159	-0,157
245,844	167,206	-0,330	-0,324
246,859	244,288	-0,168	-0,196
247,874	76,267	-0,222	-0,163
248,888	262,950	-0,164	-0,197
249,903	800,000	-0,072	-0,208
250,917	-49,557	-0,090	-0,030
251,932	46,513	-0,165	-0,106
252,947	-38,424	-0,121	-0,044
253,961	190,611	-0,147	-0,153
254,976	174,835	-0,105	-0,105
255,990	800,000	-0,092	-0,261
257,005	125,634	-0,232	-0,202
258,020	256,781	-0,142	-0,169
259,034	416,052	-0,086	-0,128
260,049	158,391	-0,250	-0,240
261,063	495,060	-0,082	-0,130
262,078	800,000	-0,113	-0,288
263,093	83,107	-0,261	-0,196
264,107	4,846	-0,147	-0,075
265,122	-59,499	-0,247	-0,073
266,136	18,211	-0,167	-0,092
267,151	-152,701	-0,208	-0,010
268,166	235,522	-0,224	-0,256
269,180	-200,000	-0,078	-0,253
270,195	142,993	-0,114	0,105
271,209	554,163	-0,046	0,076
272,224	5,528	-0,224	-0,114
273,239	-150,346	-0,159	-0,008
274,253	125,884	-0,188	-0,164
275,268	189,492	-0,093	-0,096
276,282	89,970	-0,138	-0,106
277,297	141,867	-0,179	-0,164
278,312	176,198	-0,139	-0,139
279,326	76,989	-0,229	-0,168
280,341	146,995	-0,163	-0,151
281,355	-93,428	-0,088	-0,017
282,370	192,113	-0,181	-0,188
283,384	30,533	-0,196	-0,115
284,399	21,708	-0,344	-0,193
285,414	217,724	-0,044	0,049
286,428	16,333	-0,214	-0,116
287,443	-10,812	-0,133	-0,060
288,457	-52,426	-0,233	-0,074
289,472	-42,708	-0,096	0,033
290,487	-113,546	-0,278	0,037
291,501	-1,356	-0,220	-0,107
292,516	2,861	-0,194	-0,097
293,530	-26,665	-0,253	-0,102
294,545	-117,386	-0,238	0,029
295,560	-62,510	-0,159	0,045
296,574	5,509	-0,088	0,045
297,589	14,037	-0,250	-0,134
298,603	40,188	-0,108	-0,067
299,618	800,000	-0,110	-0,241
300,633	40,141	-0,205	-0,127
301,647	-15,022	-0,097	0,043
302,662	-118,310	-0,121	0,015
303,676	606,519	-0,046	-0,080
304,691	800,000	-0,065	-0,128
305,706	-200,000	-0,015	-0,139
306,720	60,868	-0,152	-0,104
307,735	800,000	-0,063	-0,175
308,749	246,794	-0,140	-0,163
309,764	800,000	-0,080	-0,171
310,779	120,480	-0,155	-0,132
311,793	-86,263	-0,255	-0,054
312,808	-6,943	-0,247	-0,115
313,822	32,403	-0,191	-0,113
314,837	32,569	-0,201	-0,120
315,852	-54,964	-0,177	-0,055
316,866	338,950	-0,080	-0,108
317,881	-128,765	-0,196	-0,019
318,895	57,541	-0,117	-0,078
319,910	-56,088	-0,191	-0,058
320,925	-76,744	-0,240	-0,057
321,939	800,000	-0,076	-0,203
322,954	175,744	-0,110	-0,109
323,968	-121,804	-0,158	0,018
324,983	-94,328	-0,210	-0,039
325,997	67,313	-0,164	-0,115
327,012	88,914	-0,069	0,053
328,027	-200,000	-0,014	-0,182
329,041	120,807	-0,110	-0,094
330,056	131,733	-0,119	-0,105
331,070	380,379	-0,079	-0,111
332,085	-200,000	0,021	0,134
333,100	102,972	-0,172	-0,139
334,114	538,325	-0,122	-0,199
335,129	-2,007	-0,243	-0,117
336,143	102,709	-0,128	-0,103
337,158	800,000	-0,079	-0,191
338,173	-200,000	-0,052	-0,161
339,187	323,722	-0,065	-0,085
340,202	192,409	-0,170	-0,176
341,216	343,662	-0,170	-0,230
342,231	-200,000	-0,019	-0,148
343,246	770,652	-0,160	-0,301
344,260	265,867	-0,062	-0,074
345,275	432,144	-0,110	-0,164
346,289	173,056	-0,139	-0,137
347,304	-38,093	-0,205	-0,074
348,319	103,068	-0,154	-0,124
349,333	259,092	-0,136	-0,161
350,348	32,342	-0,128	-0,075
351,362	-171,483	-0,150	0,003
352,377	58,148	-0,080	-0,053
353,392	320,597	-0,099	-0,129
354,406	87,419	-0,071	-0,053
355,421	206,185	1312,365	1401,444
356,435	158,558	1472,813	1401,950
