DTS Sentinel unit serial number:	SN410029Multiplexer serial number:	ORYXHardware model number:	OX2-SRSoftware version number:	ORYX F/W v4,00 Oryx Data Collector v3.7.2.0data status	okinstallation	B3 Nyhavnadifferential loss correction	single-endedforward channel	channel 1reverse channel	N/Adate	2023/12/03time	19:52:30forward acquisition time	300,00reverse acquisition time	0,00gamma	499,1914k internal	0,3198k external	0,3198temperature offset calibration	1,0000default loss term (dB/km)	0,3820temperature slope calibration	1,0000multiplexer offset coefficient	1,0000multiplexer slope coefficient	1,0000fibre end	0,00T internal ref (°C)	14,13T ext. ref 1 (°C)	-1,20T ext. ref 2 (°C)	-1,21length (m)	temperature (°C)	Stokes	anti-Stokes-744,400	256,705	-0,289	-0,362
-743,385	800,000	-0,071	0,225
-742,371	800,000	-0,130	-0,271
-741,356	-200,000	0,041	0,302
-740,342	36,324	-0,159	-0,102
-739,327	-200,000	-0,046	0,263
-738,312	280,804	-0,309	-0,403
-737,298	800,000	0,078	0,207
-736,283	-200,000	-0,022	-0,159
-735,269	800,000	-0,088	0,215
-734,254	-16,738	-0,113	-0,052
-733,239	406,976	-0,050	0,077
-732,225	-72,363	-0,211	-0,056
-731,210	-50,691	0,073	0,025
-730,196	149,139	0,060	-0,059
-729,181	-33,185	0,076	-0,031
-728,167	281,815	-0,068	0,089
-727,152	-200,000	0,021	-0,080
-726,137	-200,000	-0,002	-0,014
-725,123	-108,393	-0,232	-0,036
-724,108	605,816	-0,056	-0,102
-723,094	-200,000	0,022	-0,086
-722,079	224,586	-0,043	-0,051
-721,064	-200,000	-0,022	-0,132
-720,050	13,346	-0,102	0,057
-719,035	-20,981	-0,212	-0,094
-718,021	-63,779	-0,117	-0,035
-717,006	-200,000	-0,009	-0,106
-715,991	-73,015	-0,157	-0,042
-714,977	781,826	-0,101	-0,201
-713,962	-10,049	0,093	-0,045
-712,948	125,072	-0,036	-0,033
-711,933	800,000	-0,055	-0,146
-710,918	-130,452	0,089	-0,009
-709,904	241,513	-0,064	-0,078
-708,889	47,003	0,084	-0,057
-707,875	-63,570	-0,030	0,009
-706,860	-127,122	-0,067	0,007
-705,845	-150,015	0,114	0,006
-704,831	-200,000	-0,024	0,081
-703,816	-200,000	0,014	0,123
-702,802	-66,155	-0,079	-0,023
-701,787	-200,000	-0,005	0,110
-700,772	800,000	0,056	-0,158
-699,758	-200,000	-0,014	-0,071
-698,743	64,851	-0,032	-0,024
-697,729	343,606	0,084	0,120
-696,714	58,315	-0,027	-0,019
-695,699	355,335	0,013	-0,019
-694,685	287,068	0,039	-0,051
-693,670	-98,982	0,076	-0,014
-692,656	300,660	0,080	-0,107
-691,641	-200,000	0,003	0,011
-690,627	-200,000	0,016	0,065
-689,612	-200,000	-0,007	-0,031
-688,597	-200,000	0,020	-0,088
-687,583	-200,000	0,050	-0,236
-686,568	243,355	-0,086	-0,105
-685,554	31,616	-0,128	0,080
-684,539	-56,393	0,143	-0,046
-683,524	-200,000	0,024	-0,197
-682,510	605,747	0,086	-0,156
-681,495	-200,000	-0,002	0,011
-680,481	62,422	0,043	-0,031
-679,466	800,000	0,043	0,114
-678,451	-200,000	-0,049	-0,180
-677,437	-99,240	0,085	-0,015
-676,422	4,053	-0,102	-0,054
-675,408	-161,995	0,019	-0,001
-674,393	-200,000	-0,007	0,044
-673,378	640,296	-0,066	-0,123
-672,364	99,875	-0,164	-0,138
-671,349	-200,000	-0,045	-0,199
-670,335	144,627	-0,053	-0,051
-669,320	-200,000	-0,034	-0,130
-668,305	212,409	0,089	-0,102
-667,291	-36,578	-0,051	0,020
-666,276	-200,000	0,005	-0,066
-665,262	800,000	0,048	-0,108
-664,247	171,998	0,040	-0,042
-663,232	132,761	-0,027	0,025
-662,218	-200,000	0,009	0,030
-661,203	73,558	-0,097	-0,074
-660,189	800,000	-0,047	-0,133
-659,174	800,000	-0,059	-0,186
-658,159	-156,871	0,106	-0,005
-657,145	536,134	-0,073	0,126
-656,130	800,000	-0,064	-0,160
-655,116	-141,383	0,099	0,007
-654,101	-4,213	-0,150	-0,075
-653,086	153,823	-0,077	0,076
-652,072	-60,124	-0,253	-0,078
-651,057	800,000	0,067	-0,173
-650,043	173,512	-0,040	-0,042
-649,028	-200,000	0,015	-0,086
-648,014	-138,637	-0,105	0,008
-646,999	-200,000	-0,003	0,141
-645,984	800,000	-0,039	0,092
-644,970	-146,181	-0,146	0,009
-643,955	-200,000	0,004	-0,145
-642,941	-200,000	0,009	-0,075
-641,926	-200,000	-0,013	-0,042
-640,911	-200,000	0,020	0,139
-639,897	304,724	0,074	0,100
-638,882	237,782	-0,028	0,033
-637,868	-200,000	-0,004	0,037
-636,853	687,362	0,057	-0,108
-635,838	326,113	-0,023	0,032
-634,824	155,534	-0,098	-0,098
-633,809	-88,769	0,067	0,014
-632,795	-165,538	0,135	0,004
-631,780	195,030	-0,037	0,041
-630,765	118,848	-0,128	0,114
-629,751	-10,924	-0,111	-0,053
-628,736	-200,000	0,002	0,063
-627,722	-200,000	-0,003	-0,020
-626,707	24,051	0,131	-0,078
-625,692	800,000	0,017	-0,040
-624,678	800,000	0,050	0,106
-623,663	111,448	-0,083	0,073
-622,649	744,141	-0,066	-0,129
-621,634	117,525	-0,074	0,066
-620,619	251,180	-0,016	0,020
-619,605	800,000	-0,006	0,013
-618,590	-49,572	-0,018	0,006
-617,576	518,895	-0,032	0,055
-616,561	270,419	-0,045	0,057
-615,546	-200,000	-0,004	0,072
-614,532	-123,456	-0,142	-0,016
-613,517	643,962	0,050	-0,092
-612,503	-200,000	-0,014	0,095
-611,488	-200,000	0,025	0,097
-610,474	222,088	0,052	-0,060
-609,459	-15,235	-0,202	0,093
-608,444	-113,789	-0,114	0,016
-607,430	800,000	-0,077	-0,189
-606,415	100,669	-0,077	-0,065
-605,401	-35,844	-0,046	-0,018
-604,386	-200,000	-0,006	0,106
-603,371	100,222	0,093	0,078
-602,357	-48,251	-0,058	-0,020
-601,342	-119,394	-0,049	-0,006
-600,328	8,274	-0,129	-0,070
-599,313	-200,000	-0,004	0,038
-598,298	271,464	0,022	0,028
-597,284	-30,778	-0,123	-0,050
-596,269	-200,000	0,011	0,175
-595,255	18,574	-0,070	0,040
-594,240	800,000	-0,011	0,028
-593,225	-200,000	-0,000	-0,101
-592,211	208,047	-0,037	-0,041
-591,196	-36,705	-0,225	0,087
-590,182	-200,000	-0,013	-0,090
-589,167	177,917	0,099	0,104
-588,152	0,334	-0,051	0,026
-587,138	623,732	0,042	0,077
-586,123	62,997	-0,052	-0,038
-585,109	-99,573	0,162	-0,029
-584,094	-46,628	-0,089	0,032
-583,079	16,230	0,060	-0,034
-582,065	-90,063	-0,077	-0,016
-581,050	-15,786	0,086	-0,039
-580,036	800,000	0,048	0,136
-579,021	-139,861	-0,063	-0,005
-578,006	-85,675	-0,174	-0,039
-576,992	616,015	0,062	-0,113
-575,977	800,000	-0,048	-0,132
-574,963	800,000	0,055	0,128
-573,948	-200,000	-0,005	0,189
-572,934	96,030	0,081	-0,067
-571,919	38,440	0,080	-0,052
-570,904	170,554	0,045	-0,047
-569,890	110,226	-0,057	0,050
-568,875	-11,345	-0,019	0,009
-567,861	800,000	-0,020	-0,051
-566,846	-101,540	0,082	-0,014
-565,831	-69,356	-0,162	-0,045
-564,817	34,876	-0,139	-0,088
-563,802	800,000	-0,039	-0,109
-562,788	-200,000	-0,027	-0,089
-561,773	800,000	0,042	0,117
-560,758	174,296	0,020	0,021
-559,744	59,087	0,071	0,051
-558,729	94,235	-0,067	-0,055
-557,715	-16,982	-0,033	0,015
-556,700	-200,000	-0,016	-0,153
-555,685	-15,687	0,091	-0,042
-554,671	800,000	-0,026	-0,077
-553,656	13,646	0,147	-0,082
-552,642	416,336	0,020	0,031
-551,627	-200,000	-0,012	0,053
-550,612	-97,196	-0,117	0,022
-549,598	-200,000	-0,021	-0,157
-548,583	800,000	-0,030	-0,086
-547,569	-200,000	-0,011	-0,102
-546,554	250,210	-0,031	0,038
-545,539	417,445	0,008	0,012
-544,525	-200,000	-0,019	0,076
-543,510	221,504	0,041	0,048
-542,496	518,086	0,085	-0,143
-541,481	800,000	-0,011	-0,032
-540,466	-15,101	-0,031	-0,014
-539,452	800,000	0,005	-0,011
-538,437	33,521	0,103	0,064
-537,423	-76,263	-0,018	-0,004
-536,408	74,711	0,091	-0,069
-535,393	-151,150	-0,093	0,005
-534,379	-200,000	0,023	-0,138
-533,364	20,616	0,073	-0,043
-532,350	696,997	0,006	0,011
-531,335	145,232	0,025	0,025
-530,321	66,053	0,020	0,014
-529,306	319,451	0,038	0,053
-528,291	-200,000	-0,012	-0,203
-527,277	-39,083	0,052	-0,020
-526,262	231,063	0,065	-0,077
-525,248	-54,117	-0,037	0,012
-524,233	227,174	0,111	0,130
-523,218	-107,150	-0,049	0,008
-522,204	-2,282	-0,076	-0,038
-521,189	-27,970	-0,131	-0,054
-520,175	592,743	0,071	0,127
-519,160	-86,764	-0,085	0,019
-518,145	800,000	-0,050	-0,110
-517,131	-148,012	-0,129	-0,008
-516,116	-111,288	0,024	-0,003
-515,102	-39,351	0,110	0,042
-514,087	28,479	-0,088	-0,053
-513,072	-149,219	-0,121	0,007
-512,058	-200,000	0,007	0,076
-511,043	93,818	-0,092	-0,075
-510,029	800,000	0,064	0,147
-509,014	800,000	0,022	0,065
-507,999	258,843	-0,044	-0,054
-506,985	631,582	-0,035	-0,065
-505,970	-73,680	-0,195	-0,051
-504,956	-200,000	0,003	-0,045
-503,941	170,918	-0,017	-0,018
-502,926	-62,571	-0,032	-0,009
-501,912	800,000	-0,022	0,060
-500,897	-31,525	0,068	0,027
-499,883	-200,000	0,003	-0,104
-498,868	12,233	0,108	0,060
-497,853	339,134	0,026	0,037
-496,839	-28,565	0,050	-0,021
-495,824	-99,524	0,085	-0,015
-494,810	234,528	-0,046	0,054
-493,795	11,517	0,115	-0,064
-492,781	-200,000	-0,013	0,057
-491,766	97,981	-0,041	-0,034
-490,751	31,486	-0,028	0,017
-489,737	161,278	-0,069	-0,070
-488,722	-200,000	0,022	0,097
-487,708	-200,000	-0,011	0,061
-486,693	94,561	-0,143	0,117
-485,678	-13,446	-0,088	0,041
-484,664	800,000	-0,062	-0,135
-483,649	60,774	0,078	0,056
-482,635	766,982	-0,078	-0,153
-481,620	355,095	0,089	-0,127
-480,605	-2,879	0,028	0,014
-479,591	800,000	0,021	-0,046
-478,576	328,172	0,030	0,042
-477,562	-200,000	-0,006	0,025
-476,547	-12,345	0,147	-0,069
-475,532	-111,292	0,094	-0,014
-474,518	-200,000	0,040	-0,173
-473,503	145,412	-0,091	-0,088
-472,489	-200,000	-0,002	-0,071
-471,474	-132,811	-0,177	-0,016
-470,459	129,994	0,132	0,122
-469,445	6,362	-0,054	0,029
-468,430	384,078	-0,033	-0,050
-467,416	56,292	-0,017	-0,012
-466,401	-35,875	0,185	0,072
-465,386	-200,000	-0,009	-0,064
-464,372	411,039	0,024	-0,038
-463,357	393,886	0,053	-0,080
-462,343	11,502	-0,063	-0,035
-461,328	99,418	0,024	0,020
-460,313	216,572	-0,080	0,091
-459,299	68,364	0,042	-0,031
-458,284	-200,000	-0,008	0,027
-457,270	151,469	0,144	0,141
-456,255	800,000	-0,022	-0,061
-455,241	580,610	0,053	0,094
-454,226	800,000	-0,052	-0,107
-453,211	-128,617	0,047	-0,005
-452,197	-107,494	0,087	-0,014
-451,182	-76,353	0,110	0,028
-450,168	338,249	-0,044	0,062
-449,153	-114,227	0,027	-0,004
-448,138	269,785	-0,024	-0,031
-447,124	-200,000	-0,012	0,052
-446,109	90,147	0,122	0,098
-445,095	-157,644	0,128	0,005
-444,080	656,716	0,057	-0,106
-443,065	-51,943	-0,093	0,031
-442,051	800,000	0,062	0,175
-441,036	-111,052	-0,070	0,010
-440,022	-200,000	-0,035	-0,114
-439,007	-160,369	0,037	0,001
-437,992	800,000	0,039	-0,099
-436,978	251,696	0,139	-0,170
-435,963	-200,000	-0,019	0,092
-434,949	-200,000	-0,006	-0,039
-433,934	800,000	-0,043	-0,096
-432,919	-111,694	-0,111	-0,016
-431,905	199,555	0,066	0,073
-430,890	232,339	0,087	-0,103
-429,876	-139,749	0,200	-0,015
-428,861	20,317	0,096	0,056
-427,846	-39,810	-0,175	0,066
-426,832	-200,000	-0,009	-0,081
-425,817	65,886	0,051	-0,037
-424,803	-200,000	-0,046	-0,198
-423,788	-200,000	0,000	0,043
-422,773	507,640	0,079	0,132
-421,759	-149,355	0,095	-0,005
-420,744	-92,385	-0,077	-0,016
-419,730	-40,961	0,134	0,050
-418,715	-200,000	0,028	-0,155
-417,701	800,000	-0,052	-0,121
-416,686	-63,245	0,065	-0,019
-415,671	-200,000	0,055	0,191
-414,657	-12,697	0,088	0,041
-413,642	800,000	0,043	-0,093
-412,628	-92,830	0,104	-0,021
-411,613	482,161	0,056	-0,091
-410,598	125,269	-0,059	-0,054
-409,584	-200,000	-0,000	-0,003
-408,569	800,000	0,020	-0,048
-407,555	-200,000	0,034	0,118
-406,540	166,333	0,044	0,045
-405,525	-20,174	0,006	-0,003
-404,511	99,026	-0,056	0,046
-403,496	-200,000	-0,010	-0,069
-402,482	-27,779	0,070	-0,029
-401,467	-108,240	0,175	0,027
-400,452	186,655	0,123	0,132
-399,438	154,364	-0,061	0,060
-398,423	201,062	-0,064	0,070
-397,409	161,281	-0,074	0,074
-396,394	-200,000	-0,016	-0,053
-395,379	-107,656	0,077	-0,012
-394,365	-200,000	-0,007	0,149
-393,350	-53,908	0,115	-0,037
-392,336	130,778	-0,162	0,149
-391,321	-29,115	-0,095	-0,039
-390,306	200,171	-0,090	0,099
-389,292	66,694	0,128	-0,093
-388,277	-200,000	-0,005	0,093
-387,263	305,128	0,132	0,176
-386,248	-48,085	0,115	-0,040
-385,233	241,516	-0,074	-0,089
-384,219	19,212	-0,141	0,081
-383,204	-200,000	0,003	-0,023
-382,190	690,692	-0,066	-0,125
-381,175	81,254	-0,025	0,019
-380,160	135,704	0,016	-0,015
-379,146	192,995	-0,034	0,037
-378,131	-95,476	0,029	-0,005
-377,117	290,140	-0,016	0,021
-376,102	-200,000	-0,008	-0,028
-375,088	528,214	-0,033	0,057
-374,073	-200,000	-0,017	0,066
-373,058	-61,179	0,193	0,058
-372,044	-1,008	0,102	-0,051
-371,029	65,994	0,091	0,066
-370,015	395,560	0,058	0,087
-369,000	-200,000	-0,000	0,021
-367,985	212,815	0,030	-0,034
-366,971	680,598	0,051	-0,097
-365,956	372,288	0,050	0,072
-364,942	253,227	-0,040	-0,050
-363,927	17,410	0,152	0,086
-362,912	179,884	-0,030	0,031
-361,898	-200,000	-0,009	-0,096
-360,883	-132,299	-0,062	-0,006
-359,869	-176,074	0,058	-0,001
-358,854	787,321	0,054	0,108
-357,839	-200,000	-0,028	0,172
-356,825	-200,000	-0,041	-0,210
-355,810	-1,606	0,086	0,043
-354,796	-32,046	-0,070	-0,028
-353,781	-118,970	-0,079	-0,010
-352,766	-200,000	0,010	0,036
-351,752	137,853	-0,099	0,093
-350,737	-50,432	0,064	0,022
-349,723	800,000	-0,065	0,130
-348,708	-137,107	-0,115	-0,009
-347,693	2,226	0,025	0,013
-346,679	-200,000	-0,017	-0,125
-345,664	63,421	0,045	0,032
-344,650	-200,000	-0,018	0,195
-343,635	-35,994	0,147	0,057
-342,620	-59,756	0,150	-0,046
-341,606	800,000	0,013	-0,027
-340,591	59,225	-0,092	-0,065
-339,577	800,000	0,028	0,069
-338,562	106,509	0,107	-0,091
-337,548	187,160	0,089	0,096
-336,533	-200,000	0,008	0,101
-335,518	171,576	0,075	0,077
-334,504	47,184	0,077	0,051
-333,489	137,749	-0,046	0,043
-332,475	-131,524	0,023	-0,002
-331,460	-132,081	-0,053	-0,005
-330,445	-200,000	0,005	-0,099
-329,431	-99,245	0,240	0,043
-328,416	173,110	0,110	-0,113
-327,402	-9,840	0,154	0,073
-326,387	-46,822	0,089	-0,031
-325,372	102,240	0,078	-0,066
-324,358	-200,000	-0,011	0,078
-323,343	800,000	-0,048	-0,097
-322,329	-65,210	0,085	0,024
-321,314	-200,000	0,010	0,108
-320,299	72,081	0,062	-0,046
-319,285	11,482	-0,073	0,040
-318,270	-58,395	0,102	0,032
-317,256	61,316	-0,191	0,136
-316,241	-37,082	-0,126	-0,048
-315,226	784,050	0,049	0,096
-314,212	-200,000	-0,026	0,128
-313,197	-200,000	0,007	0,116
-312,183	407,762	0,079	0,121
-311,168	5,829	-0,079	0,042
-310,153	-200,000	-0,013	-0,097
-309,139	187,329	-0,075	-0,080
-308,124	580,182	-0,038	-0,066
-307,110	800,000	0,052	-0,145
-306,095	800,000	-0,030	0,073
-305,080	-200,000	0,010	0,092
-304,066	-74,743	0,081	-0,021
-303,051	441,871	-0,066	-0,104
-302,037	800,000	-0,021	-0,062
-301,022	-200,000	0,000	-0,191
-300,008	-200,000	-0,010	0,059
-298,993	247,019	0,098	0,118
-297,978	-200,000	-0,004	0,056
-296,964	56,195	0,071	-0,049
-295,949	800,000	0,035	0,076
-294,935	215,707	0,065	-0,074
-293,920	-28,933	-0,124	-0,051
-292,905	-98,326	-0,095	0,017
-291,891	95,445	0,123	-0,101
-290,876	70,861	0,011	0,008
-289,862	31,738	-0,103	-0,063
-288,847	325,979	0,038	-0,052
-287,832	102,077	0,100	0,083
-286,818	397,200	-0,031	-0,046
-285,803	-200,000	0,019	-0,071
-284,789	-200,000	0,015	-0,066
-283,774	12,717	-0,100	0,055
-282,759	-200,000	-0,009	0,059
-281,745	56,129	-0,009	0,006
-280,730	38,057	-0,076	-0,048
-279,716	-200,000	0,007	0,103
-278,701	-132,031	-0,035	-0,003
-277,686	-139,500	-0,031	0,002
-276,672	-200,000	0,013	0,180
-275,657	-200,000	0,006	-0,045
-274,643	115,225	0,053	-0,046
-273,628	800,000	0,034	0,074
-272,613	96,499	-0,033	-0,027
-271,599	-200,000	-0,003	-0,135
-270,584	101,216	0,134	0,111
-269,570	441,512	-0,034	0,053
-268,555	206,189	0,082	0,092
-267,540	-85,655	-0,093	-0,021
-266,526	752,395	-0,072	-0,140
-265,511	-51,901	-0,113	0,037
-264,497	-113,613	-0,114	0,016
-263,482	-200,000	0,017	0,064
-262,467	-200,000	-0,012	0,071
-261,453	-200,000	-0,005	0,084
-260,438	32,281	-0,025	0,015
-259,424	-136,647	-0,128	0,010
-258,409	800,000	-0,034	0,088
-257,395	-116,226	0,089	-0,012
-256,380	91,037	0,094	-0,075
-255,365	265,168	0,061	-0,076
-254,351	413,331	-0,029	-0,044
-253,336	-47,281	-0,074	0,026
-252,322	800,000	-0,057	-0,118
-251,307	-200,000	0,037	-0,164
-250,292	800,000	-0,007	0,020
-249,278	-200,000	0,020	0,170
-248,263	260,562	-0,047	-0,058
-247,249	-200,000	0,023	-0,157
-246,234	800,000	-0,036	-0,103
-245,219	-134,248	-0,192	-0,017
-244,205	26,760	-0,073	0,044
-243,190	53,629	-0,090	0,061
-242,176	-154,671	-0,016	-0,001
-241,161	800,000	0,015	0,034
-240,146	-11,585	0,074	-0,035
-239,132	53,799	0,050	-0,034
-238,117	502,095	-0,072	-0,119
-237,103	128,998	-0,071	-0,065
-236,088	453,781	0,021	0,033
-235,073	354,642	-0,028	-0,040
-234,059	-53,801	0,075	0,024
-233,044	671,489	0,099	-0,184
-232,030	-200,000	-0,016	-0,075
-231,015	-102,713	0,092	0,015
-230,000	800,000	-0,041	-0,082
-228,986	800,000	0,036	-0,093
-227,971	-45,308	-0,144	-0,051
-226,957	-132,963	0,149	0,013
-225,942	354,860	0,018	0,025
-224,927	800,000	0,021	-0,059
-223,913	-138,916	-0,109	0,008
-222,898	12,899	-0,103	0,057
-221,884	19,445	-0,069	-0,039
-220,869	-76,031	0,160	0,040
-219,855	800,000	-0,041	0,082
-218,840	158,862	0,112	0,111
-217,825	149,195	-0,099	-0,095
-216,811	-200,000	0,015	-0,158
-215,796	345,893	-0,088	-0,123
-214,782	623,414	-0,053	-0,095
-213,767	89,606	-0,074	0,059
-212,752	-200,000	0,020	-0,094
-211,738	-77,935	0,059	-0,014
-210,723	280,794	0,046	0,059
-209,709	-81,718	-0,099	0,023
-208,694	-200,000	-0,042	-0,164
-207,679	219,653	0,089	0,102
-206,665	800,000	-0,062	0,126
-205,650	-200,000	0,008	0,038
-204,636	-200,000	-0,004	0,135
-203,621	800,000	0,045	-0,103
-202,606	-200,000	-0,042	-0,220
-201,592	-200,000	-0,008	-0,084
-200,577	105,884	-0,103	0,087
-199,563	439,258	0,064	-0,100
-198,548	82,945	0,023	0,018
-197,533	99,347	0,078	-0,064
-196,519	743,471	-0,036	0,070
-195,504	-200,000	0,010	-0,155
-194,490	-87,085	0,081	-0,018
-193,475	800,000	-0,022	0,049
-192,460	-200,000	0,024	0,109
-191,446	367,601	0,051	0,073
-190,431	-200,000	0,013	0,072
-189,417	-200,000	0,014	0,126
-188,402	88,966	-0,054	-0,043
-187,387	-33,682	-0,030	-0,012
-186,373	800,000	-0,027	-0,073
-185,358	-200,000	-0,039	-0,132
-184,344	-101,702	-0,103	0,018
-183,329	800,000	0,067	0,159
-182,315	81,123	0,170	0,130
-181,300	800,000	-0,043	-0,116
-180,285	-200,000	-0,016	-0,053
-179,271	-200,000	0,011	-0,068
-178,256	-53,677	-0,127	0,041
-177,242	457,050	0,064	0,101
-176,227	-200,000	-0,037	0,133
-175,212	-200,000	-0,013	0,060
-174,198	565,744	-0,018	0,031
-173,183	204,767	-0,149	-0,165
-172,169	171,325	-0,121	-0,123
-171,154	-200,000	-0,003	0,089
-170,139	-89,878	0,100	-0,021
-169,125	800,000	-0,048	0,147
-168,110	-87,724	-0,077	-0,016
-167,096	195,671	-0,116	0,126
-166,081	25,295	-0,021	-0,012
-165,066	-200,000	0,008	0,068
-164,052	78,351	0,050	0,038
-163,037	-200,000	-0,007	-0,032
-162,023	-200,000	0,004	0,057
-161,008	800,000	-0,083	0,226
-159,993	-182,719	0,075	0,001
-158,979	-35,889	0,048	-0,019
-157,964	57,190	0,034	-0,023
-156,950	800,000	0,064	-0,148
-155,935	800,000	-0,038	0,079
-154,920	24,212	-0,065	0,038
-153,906	-200,000	-0,013	0,103
-152,891	-77,021	0,090	0,022
-151,877	195,199	-0,021	-0,023
-150,862	192,444	0,113	-0,121
-149,847	-200,000	0,029	-0,100
-148,833	340,232	-0,034	-0,047
-147,818	105,753	0,008	0,007
-146,804	483,522	0,044	0,071
-145,789	-200,000	-0,002	0,037
-144,775	-97,878	0,109	-0,020
-143,760	-79,590	-0,056	0,013
-142,745	-96,650	-0,162	-0,030
-141,731	-43,527	-0,096	0,034
-140,716	-86,783	0,151	-0,033
-139,702	-200,000	-0,025	0,102
-138,687	-14,661	0,108	0,049
-137,672	-200,000	-0,021	0,079
-136,658	-184,725	0,174	-0,002
-135,643	-200,000	0,014	-0,101
-134,629	-200,000	-0,003	0,126
-133,614	-29,871	0,069	-0,028
-132,599	388,765	0,055	0,082
-131,585	211,916	0,029	-0,033
-130,570	539,232	-0,051	-0,087
-129,556	56,591	0,044	0,030
-128,541	-200,000	-0,036	-0,188
-127,526	129,750	0,032	-0,029
-126,512	268,767	-0,078	-0,097
-125,497	-200,000	-0,000	0,164
-124,483	94,958	0,048	0,038
-123,468	-49,563	-0,169	-0,057
-122,453	-87,584	-0,139	-0,030
-121,439	164,067	0,131	-0,131
-120,424	800,000	-0,033	-0,086
-119,410	678,906	-0,035	-0,065
-118,395	800,000	-0,009	-0,022
-117,380	-200,000	-0,028	0,089
-116,366	-200,000	0,007	0,114
-115,351	581,875	-0,076	-0,133
-114,337	482,956	-0,027	-0,043
-113,322	-156,914	0,049	-0,002
-112,307	-200,000	-0,021	0,112
-111,293	-200,000	-0,016	0,056
-110,278	-200,000	-0,010	0,073
-109,264	-47,131	0,163	-0,056
-108,249	-200,000	0,010	0,063
-107,234	-138,277	0,067	-0,005
-106,220	-44,123	-0,043	-0,015
-105,205	-92,019	0,213	0,043
-104,191	429,529	0,040	-0,062
-103,176	320,143	0,106	0,143
-102,162	327,507	-0,065	0,089
-101,147	27,197	0,030	-0,018
-100,132	-49,947	-0,054	-0,018
-99,118	-42,477	0,118	-0,042
-98,103	259,899	-0,038	0,047
-97,089	800,000	-0,036	-0,097
-96,074	-112,191	0,112	0,016
-95,059	17,529	0,090	-0,050
-94,045	275,544	-0,074	-0,094
-93,030	-48,067	-0,081	-0,028
-92,016	152,165	0,041	-0,039
-91,001	-200,000	-0,045	-0,193
-89,986	-200,000	0,003	0,065
-88,972	-48,259	0,080	0,027
-87,957	93,069	-0,069	-0,055
-86,943	-68,215	-0,116	0,032
-85,928	-111,944	-0,064	-0,009
-84,913	247,129	0,042	-0,050
-83,899	-54,904	0,031	-0,010
-82,884	-131,912	0,114	-0,010
-81,870	96,640	-0,061	-0,050
-80,855	22,144	-0,079	-0,045
-79,840	-200,000	-0,038	0,129
-78,826	-83,428	0,091	0,020
-77,811	-200,000	0,000	0,056
-76,797	177,449	0,099	0,102
-75,782	800,000	-0,038	0,087
-74,767	356,240	0,019	0,027
-73,753	-16,064	-0,062	-0,028
-72,738	-14,943	0,060	-0,027
-71,724	-200,000	0,001	0,076
-70,709	-100,312	-0,090	0,016
-69,694	-200,000	0,008	0,031
-68,680	-190,323	-0,047	-0,000
-67,665	-101,602	0,129	-0,022
-66,651	-0,380	0,103	0,051
-65,636	399,070	-0,035	0,052
-64,622	15,207	0,075	-0,041
-63,607	-103,724	0,098	-0,016
-62,592	456,062	0,012	-0,019
-61,578	-12,280	0,046	0,021
-60,563	-128,263	0,070	0,007
-59,549	746,244	0,063	0,121
-58,534	-12,051	-1,505	-0,696
-57,519	423,739	-1,386	-2,118
-56,505	-200,000	-0,603	-4,573
-55,490	262,634	0,984	1,212
-54,476	800,000	4,681	10,987
-53,461	-200,000	18,743	304,969
-52,446	800,000	736,704	2293,312
-51,432	567,562	1653,001	2855,397
-50,417	78,879	1669,854	1264,966
-49,403	22,085	1542,709	889,609
-48,388	16,047	1465,357	815,661
-47,373	17,785	1455,677	818,636
-46,359	16,979	1445,885	809,232
-45,344	14,301	1441,081	793,686
-44,330	14,193	1439,305	792,160
-43,315	14,172	1437,634	791,109
-42,300	14,217	1435,862	790,316
-41,286	14,255	1434,598	789,769
-40,271	14,181	1433,393	788,725
-39,257	14,184	1432,054	787,969
-38,242	14,279	1430,585	787,580
-37,227	14,264	1429,660	786,971
-36,213	14,263	1428,205	786,133
-35,198	14,252	1427,159	785,473
-34,184	14,287	1426,142	785,051
-33,169	14,213	1424,966	784,021
-32,154	14,250	1423,824	783,536
-31,140	14,229	1422,538	782,696
-30,125	14,219	1421,592	782,096
-29,111	14,238	1420,343	781,469
-28,096	14,211	1419,326	780,752
-27,082	14,205	1418,033	779,983
-26,067	14,219	1416,881	779,384
-25,052	14,156	1416,044	778,595
-24,038	14,119	1415,082	777,859
-23,023	14,152	1414,022	777,401
-22,009	14,141	1413,034	776,775
-20,994	14,121	1412,034	776,104
-19,979	14,122	1411,266	775,656
-18,965	14,086	1410,316	774,932
-17,950	14,081	1409,343	774,342
-16,936	14,098	1408,318	773,828
-15,921	14,091	1407,217	773,160
-14,906	14,093	1406,392	772,688
-13,892	14,056	1405,636	772,065
-12,877	14,024	1404,664	771,354
-11,863	14,080	1403,594	770,998
-10,848	14,069	1402,654	770,396
-9,833	14,030	1401,814	769,723
-8,819	13,984	1401,017	769,039
-7,804	13,956	1400,060	768,353
-6,790	13,986	1399,003	767,887
-5,775	13,958	1398,105	767,230
-4,760	13,990	1397,047	766,769
-3,746	13,960	1396,160	766,112
-2,731	13,974	1395,432	765,749
-1,717	13,980	1394,489	765,227
-0,702	13,963	1392,532	764,044
0,313	17,736	1310,816	736,723
1,327	33,969	705,974	434,418
2,342	52,007	124,251	83,664
3,356	2,894	16,617	8,514
4,371	-4,204	3,168	1,548
5,386	-61,620	0,558	0,165
6,400	-200,000	0,002	0,133
7,415	7,752	-0,179	-0,095
8,429	224,681	-0,133	-0,153
9,444	48,703	-0,332	-0,220
10,459	197,894	-0,289	-0,313
11,473	-12,099	-0,309	-0,143
12,488	-12,755	-0,261	-0,120
13,502	-43,134	-0,371	-0,132
14,517	190,903	-0,219	-0,234
15,531	53,067	-0,286	-0,193
16,546	-43,712	-0,392	-0,139
17,561	-4,343	-0,425	-0,207
18,575	-48,633	-0,297	-0,100
19,590	248,253	-0,283	-0,339
20,604	-19,790	-0,416	-0,181
21,619	75,154	-0,459	-0,342
22,634	77,113	-0,422	-0,317
23,648	26,300	-0,374	-0,220
24,663	-5,267	-0,504	-0,244
25,677	127,247	-0,305	-0,274
26,692	129,875	-0,272	-0,246
27,707	92,830	-0,355	-0,283
28,721	43,406	-0,404	-0,260
29,736	93,511	-0,373	-0,298
30,750	-7,875	-0,380	-0,180
31,765	69,700	-0,362	-0,263
32,780	204,630	-0,243	-0,266
33,794	22,234	-0,427	-0,246
34,809	116,850	-0,360	-0,312
35,823	176,630	-0,289	-0,297
36,838	-9,651	-0,415	-0,194
37,853	78,126	-0,379	-0,285
38,867	204,531	-0,251	-0,275
39,882	131,755	-0,351	-0,318
40,896	132,572	-0,296	-0,269
41,911	249,938	-0,242	-0,290
42,926	226,730	-0,294	-0,338
43,940	11,760	-0,436	-0,235
44,955	150,991	-0,247	-0,237
45,969	46,892	-0,342	-0,224
46,984	92,441	-0,369	-0,293
47,999	303,560	-0,243	-0,318
49,013	-76,290	-0,395	-0,097
50,028	-59,082	-0,409	-0,124
51,042	135,652	-0,341	-0,313
52,057	282,765	-0,262	-0,332
53,071	124,681	-0,388	-0,344
54,086	255,797	-0,209	-0,254
55,101	183,234	-0,334	-0,348
56,115	207,393	-0,323	-0,356
57,130	188,870	-0,245	-0,259
58,144	14,469	-0,464	-0,254
59,159	143,287	-0,415	-0,389
60,174	297,345	-0,270	-0,350
61,188	201,089	-0,305	-0,331
62,203	50,574	-0,367	-0,244
63,217	33,757	-0,418	-0,256
64,232	93,125	-0,345	-0,275
65,247	-7,756	-0,304	-0,144
66,261	22,153	-0,404	-0,231
67,276	-65,146	-0,475	-0,134
68,290	95,670	-0,210	-0,169
69,305	98,029	-0,290	-0,235
70,320	55,743	-0,340	-0,232
71,334	-23,427	-0,299	-0,126
72,349	-4,385	-0,342	-0,166
73,363	207,073	-0,309	-0,339
74,378	145,459	-0,349	-0,329
75,393	42,226	-0,338	-0,216
76,407	-17,818	-0,436	-0,192
77,422	46,176	-0,349	-0,227
78,436	-73,017	-0,195	-0,050
79,451	37,809	-0,299	-0,186
80,466	132,561	-0,344	-0,312
81,480	101,740	-0,307	-0,252
82,495	18,055	-0,318	-0,178
83,509	257,177	-0,140	-0,170
84,524	90,291	-0,287	-0,226
85,539	-75,899	-0,273	-0,068
86,553	800,000	-0,181	-0,373
87,568	-5,347	-0,285	-0,137
88,582	-38,386	-0,238	-0,088
89,597	67,793	-0,175	-0,125
90,611	77,747	-0,287	-0,215
91,626	-118,571	-0,286	-0,035
92,641	-179,398	-0,444	0,007
93,655	694,803	-0,121	-0,224
94,670	-41,286	-0,297	-0,107
95,684	40,871	-0,234	-0,148
96,699	41,178	-0,242	-0,154
97,714	61,374	-0,299	-0,208
98,728	800,000	-0,108	-0,234
99,743	-49,009	-0,313	-0,105
100,757	-14,591	-0,293	-0,132
101,772	43,687	-0,357	-0,229
102,787	214,989	-0,164	-0,183
103,801	175,110	-0,268	-0,273
104,816	11,059	-0,152	-0,081
105,830	-29,350	-0,207	-0,083
106,845	-55,084	-0,361	-0,113
107,860	12,939	-0,285	-0,154
108,874	225,317	-0,250	-0,285
109,889	115,267	-0,333	-0,285
110,903	49,748	-0,270	-0,178
111,918	149,922	-0,138	-0,131
112,933	191,927	-0,223	-0,236
113,947	439,037	-0,162	-0,249
114,962	94,529	-0,268	-0,214
115,976	179,252	-0,266	-0,273
116,991	-4,917	-0,237	-0,114
118,006	25,251	-0,280	-0,162
119,020	58,614	-0,281	-0,193
120,035	28,298	-0,232	-0,137
121,049	35,146	-0,232	-0,142
122,064	48,239	-0,217	-0,142
123,079	-12,480	-0,279	-0,127
124,093	-85,801	-0,193	-0,041
125,108	-67,923	-0,272	-0,074
126,122	-64,223	-0,281	-0,080
127,137	7,208	-0,288	-0,150
128,151	71,582	-0,248	-0,180
129,166	-121,840	-0,250	0,029
130,181	29,897	-0,217	-0,129
131,195	24,472	-0,317	-0,183
132,210	190,292	-0,316	-0,333
133,224	282,671	-0,296	-0,373
134,239	293,947	-0,196	-0,251
135,254	800,000	-0,108	-0,226
136,268	-2,236	-0,286	-0,140
137,283	139,469	-0,230	-0,212
138,297	-200,000	-0,071	-0,230
139,312	711,236	-0,154	-0,286
140,327	19,636	-0,316	-0,177
141,341	-13,548	-0,302	-0,136
142,356	800,000	-0,097	-0,230
143,370	-51,935	-0,379	-0,123
144,385	524,792	-0,142	-0,235
145,400	46,132	-0,265	-0,171
146,414	158,537	-0,231	-0,224
147,429	137,597	-0,346	-0,317
148,443	102,490	-0,262	-0,214
149,458	-27,084	-0,254	-0,103
150,473	-200,000	-0,048	-0,273
151,487	137,913	-0,190	-0,174
152,502	293,504	-0,235	-0,301
153,516	74,051	-0,273	-0,200
154,531	111,538	-0,308	-0,260
155,546	134,846	-0,131	-0,119
156,560	103,299	-0,141	-0,115
157,575	101,780	-0,274	-0,223
158,589	705,049	-0,143	-0,265
159,604	213,200	-0,287	-0,317
160,619	48,866	-0,228	-0,149
161,633	257,424	-0,208	-0,250
162,648	588,194	-0,157	-0,272
163,662	-75,074	-0,288	-0,071
164,677	800,000	-0,129	-0,259
165,692	322,391	-0,176	-0,235
166,706	44,469	-0,208	-0,133
167,721	196,240	-0,218	-0,232
168,735	281,068	-0,251	-0,315
169,750	758,113	-0,158	-0,300
170,764	800,000	-0,055	-0,165
171,779	70,811	-0,145	-0,105
172,794	96,795	-0,233	-0,186
173,808	-106,085	-0,228	-0,035
174,823	47,737	-0,283	-0,184
175,837	118,828	-0,200	-0,172
176,852	790,763	-0,057	-0,110
177,867	414,948	-0,184	-0,275
178,881	-4,752	-0,244	-0,117
179,896	68,328	-0,233	-0,166
180,910	119,187	-0,239	-0,206
181,925	335,617	-0,195	-0,264
182,940	32,659	-0,127	-0,076
183,954	362,825	-0,144	-0,202
184,969	800,000	-0,150	-0,309
185,983	-0,041	-0,219	-0,109
186,998	800,000	-0,092	-0,202
188,013	47,994	-0,131	-0,085
189,027	-130,879	-0,237	-0,022
190,042	69,969	-0,237	-0,170
191,056	104,026	-0,199	-0,163
192,071	647,657	-0,130	-0,233
193,086	156,103	-0,210	-0,202
194,100	158,987	-0,195	-0,189
195,115	266,188	-0,159	-0,193
196,129	44,016	-0,250	-0,159
197,144	85,862	-0,329	-0,252
198,159	-13,284	-0,198	-0,089
199,173	293,822	-0,196	-0,250
200,188	800,000	-0,119	-0,242
201,202	800,000	-0,105	-0,219
202,217	92,993	-0,153	-0,120
203,232	86,570	-0,178	-0,136
204,246	228,089	-0,322	-0,365
205,261	35,173	-0,245	-0,149
206,275	44,878	-0,267	-0,170
207,290	-140,896	-0,243	-0,017
208,304	-149,039	-0,161	0,009
209,319	6,230	-0,212	-0,109
210,334	800,000	-0,121	-0,283
211,348	465,187	-0,201	-0,313
212,363	-20,484	-0,378	-0,161
213,377	-61,655	-0,204	-0,059
214,392	800,000	-0,039	-0,112
215,407	43,009	-0,298	-0,189
216,421	-66,669	-0,051	0,014
217,436	92,940	-0,211	-0,165
218,450	44,046	-0,263	-0,167
219,465	252,790	-0,210	-0,249
220,480	77,748	-0,186	-0,137
221,494	125,400	-0,195	-0,171
222,509	-73,175	-0,232	-0,059
223,523	-44,906	-0,195	-0,067
224,538	330,230	-0,177	-0,238
225,553	11,445	-0,342	-0,181
226,567	288,205	-0,172	-0,217
227,582	-36,353	-0,221	-0,082
228,596	402,065	-0,042	-0,062
229,611	-146,120	-0,219	-0,013
230,626	23,214	-0,282	-0,160
231,640	245,501	-0,176	-0,206
232,655	168,708	-0,150	-0,149
233,669	-12,542	-0,384	-0,173
234,684	-14,615	-0,231	-0,103
235,699	125,047	-0,164	-0,143
236,713	-44,937	-0,238	-0,082
237,728	750,145	-0,080	-0,150
238,742	-88,773	-0,222	-0,045
239,757	90,881	-0,176	-0,136
240,772	-151,835	-0,313	-0,016
241,786	731,933	-0,076	-0,141
242,801	184,678	-0,164	-0,169
243,815	139,092	-0,144	-0,131
244,830	144,956	-0,180	-0,167
245,844	102,774	-0,243	-0,197
246,859	48,516	-0,188	-0,122
247,874	287,267	-0,194	-0,243
248,888	800,000	-0,109	-0,217
249,903	46,445	-0,220	-0,141
250,917	-69,905	-0,105	-0,028
251,932	-123,287	-0,162	0,018
252,947	-99,284	-0,223	0,039
253,961	26,730	-0,271	-0,157
254,976	129,083	-0,141	-0,125
255,990	94,754	-0,222	-0,175
257,005	709,887	-0,106	-0,195
258,020	9,446	-0,117	-0,061
259,034	800,000	-0,035	-0,097
260,049	157,896	-0,201	-0,193
261,063	-200,000	-0,096	-0,293
262,078	171,542	-0,111	-0,110
263,093	-20,399	-0,157	-0,067
264,107	619,956	-0,086	-0,151
265,122	52,334	-0,157	-0,103
266,136	34,211	-0,193	-0,116
267,151	-119,385	-0,274	-0,033
268,166	-179,632	-0,167	0,002
269,180	226,302	-0,156	-0,176
270,195	-78,358	-0,242	-0,057
271,209	113,958	-0,161	-0,136
272,224	-33,911	-0,234	-0,088
273,239	584,586	-0,105	-0,179
274,253	297,523	-0,079	-0,101
275,268	256,030	-0,183	-0,217
276,282	-3,327	-0,164	-0,079
277,297	23,825	-0,250	-0,142
278,312	120,603	-0,131	-0,113
279,326	56,254	-0,113	-0,076
280,341	800,000	-0,058	-0,132
281,355	-45,207	-0,102	-0,035
282,370	102,634	-0,096	-0,078
283,384	-200,000	-0,012	-0,156
284,399	65,090	-0,236	-0,165
285,414	440,087	-0,183	-0,277
286,428	800,000	-0,070	-0,136
287,443	50,209	-0,107	0,069
288,457	-133,073	-0,195	-0,017
289,472	56,738	-0,195	-0,131
290,487	42,158	-0,114	-0,071
291,501	-126,585	-0,196	-0,020
292,516	99,265	-0,148	-0,118
293,530	-62,485	-0,202	-0,058
294,545	71,290	-0,057	-0,041
295,560	-164,576	-0,120	0,004
296,574	-13,087	-0,166	-0,074
297,589	134,770	-0,058	-0,052
298,603	527,323	-0,103	-0,168
299,618	211,124	-0,211	-0,229
300,633	-110,952	-0,254	0,036
301,647	259,052	-0,158	-0,188
302,662	26,581	-0,173	-0,100
303,676	221,299	-0,095	-0,106
304,691	-27,740	-0,333	-0,133
305,706	-85,910	-0,078	-0,017
306,720	614,005	-0,051	-0,089
307,735	800,000	-0,095	-0,271
308,749	800,000	-0,041	-0,103
309,764	82,020	0,061	0,046
310,779	54,746	-0,114	-0,076
311,793	23,042	-0,171	-0,096
312,808	57,394	-0,181	-0,122
313,822	26,030	-0,320	-0,183
314,837	490,441	-0,123	-0,194
315,852	-82,809	-0,055	0,012
316,866	59,288	-0,094	-0,064
317,881	121,306	-0,128	-0,110
318,895	-200,000	-0,008	-0,149
319,910	-78,329	-0,200	-0,047
320,925	78,087	-0,141	-0,103
321,939	-104,298	-0,134	-0,021
322,954	217,102	-0,034	-0,038
323,968	800,000	-0,067	-0,142
324,983	-200,000	0,009	-0,181
325,997	-170,686	-0,084	0,002
327,012	-40,651	-0,100	-0,035
328,027	-57,471	-0,104	-0,031
329,041	-48,445	-0,198	-0,065
330,056	653,168	-0,148	-0,263
331,070	-200,000	-0,021	-0,142
332,085	-200,000	-0,017	-0,072
333,100	8,094	-0,211	-0,108
334,114	64,896	-0,155	-0,107
335,129	-49,624	-0,179	-0,058
336,143	32,727	-0,174	-0,103
337,158	146,060	-0,201	-0,185
338,173	324,524	-0,111	-0,146
339,187	800,000	-0,072	-0,160
340,202	125,333	-0,097	-0,084
341,216	-3,999	-0,202	-0,096
342,231	13,501	-0,154	-0,082
343,246	251,679	-0,206	-0,242
344,260	-15,827	-0,158	0,069
345,275	-20,631	-0,144	-0,061
346,289	256,148	-0,027	-0,032
347,304	-132,279	-0,155	0,014
348,319	-58,382	-0,093	0,028
349,333	800,000	-0,115	-0,242
350,348	236,873	-0,176	-0,200
351,362	192,295	-0,097	-0,101
352,377	800,000	-0,050	-0,127
353,392	67,837	-0,137	-0,096
354,406	-81,338	-0,148	-0,033
355,421	208,860	1315,586	1415,268
356,435	160,722	1476,431	1415,765
