DTS Sentinel unit serial number:	SN410029Multiplexer serial number:	ORYXHardware model number:	OX2-SRSoftware version number:	ORYX F/W v4,00 Oryx Data Collector v3.7.2.0data status	okinstallation	B3 Nyhavnadifferential loss correction	single-endedforward channel	channel 1reverse channel	N/Adate	2023/11/29time	04:27:30forward acquisition time	300,00reverse acquisition time	0,00gamma	499,1914k internal	0,3211k external	0,3211temperature offset calibration	1,0000default loss term (dB/km)	0,3820temperature slope calibration	1,0000multiplexer offset coefficient	1,0000multiplexer slope coefficient	1,0000fibre end	0,00T internal ref (°C)	9,31T ext. ref 1 (°C)	-6,10T ext. ref 2 (°C)	-6,21length (m)	temperature (°C)	Stokes	anti-Stokes-744,400	534,870	-0,174	-0,300
-743,385	217,394	-0,096	0,111
-742,371	42,694	-0,238	-0,157
-741,356	-200,000	-0,033	0,286
-740,342	-9,617	-0,338	-0,163
-739,327	-200,000	0,009	0,322
-738,312	-200,000	-0,015	-0,211
-737,298	800,000	-0,102	0,271
-736,283	120,340	-0,232	-0,209
-735,269	800,000	-0,098	0,263
-734,254	271,096	-0,179	-0,229
-733,239	79,262	-0,205	0,159
-732,225	5,316	-0,195	-0,104
-731,210	119,595	0,157	0,141
-730,196	-48,836	-0,140	0,048
-729,181	800,000	-0,032	0,091
-728,167	437,636	-0,046	0,074
-727,152	-27,009	0,112	0,047
-726,137	-200,000	0,006	-0,053
-725,123	50,698	-0,090	-0,062
-724,108	-24,283	-0,072	0,031
-723,094	-27,987	-0,134	-0,056
-722,079	-85,575	-0,048	-0,011
-721,064	-200,000	0,028	0,112
-720,050	123,316	-0,061	0,056
-719,035	-97,969	0,026	0,005
-718,021	800,000	-0,059	-0,122
-717,006	-154,671	-0,180	-0,009
-715,991	74,245	-0,069	-0,053
-714,977	-64,530	-0,259	-0,076
-713,962	-200,000	0,023	-0,202
-712,948	-200,000	0,003	0,016
-711,933	-153,105	-0,168	-0,008
-710,918	-118,544	0,077	0,010
-709,904	11,352	-0,127	0,070
-708,889	-162,633	-0,133	0,005
-707,875	800,000	-0,055	-0,140
-706,860	262,261	-0,018	0,023
-705,845	-200,000	-0,001	0,053
-704,831	-142,871	0,134	-0,009
-703,816	800,000	-0,036	0,110
-702,802	52,037	0,034	0,023
-701,787	800,000	-0,027	0,075
-700,772	-200,000	0,011	-0,103
-699,758	-1,639	0,042	0,021
-698,743	800,000	0,032	0,097
-697,729	-39,976	0,023	0,009
-696,714	47,585	0,032	0,022
-695,699	431,832	-0,049	-0,076
-694,685	-200,000	-0,024	0,187
-693,670	-200,000	-0,014	0,052
-692,656	-200,000	-0,025	0,080
-691,641	-119,755	0,148	-0,018
-690,627	52,902	-0,073	0,050
-689,612	26,287	-0,073	0,044
-688,597	439,558	0,098	-0,155
-687,583	-200,000	-0,028	-0,100
-686,568	768,659	-0,035	-0,070
-685,554	-90,582	-0,041	-0,009
-684,539	800,000	0,049	0,135
-683,524	-43,459	-0,056	-0,020
-682,510	-200,000	-0,005	-0,036
-681,495	-200,000	0,013	0,061
-680,481	-200,000	0,002	0,055
-679,466	-43,378	0,041	-0,015
-678,451	74,915	-0,124	-0,094
-677,437	-58,539	0,064	-0,020
-676,422	800,000	0,059	0,184
-675,408	207,780	0,021	0,024
-674,393	87,358	0,091	0,073
-673,378	-84,856	0,156	-0,035
-672,364	-200,000	-0,015	-0,124
-671,349	-200,000	-0,003	0,011
-670,335	577,262	0,007	0,013
-669,320	-200,000	0,018	-0,063
-668,305	800,000	-0,034	-0,073
-667,291	-87,652	-0,073	-0,016
-666,276	216,587	0,048	-0,056
-665,262	-78,568	-0,131	-0,032
-664,247	55,517	-0,086	0,060
-663,232	14,225	0,090	-0,050
-662,218	-90,031	0,116	-0,024
-661,203	800,000	0,038	0,091
-660,189	284,662	-0,018	-0,023
-659,174	-115,878	-0,156	-0,021
-658,159	126,432	-0,121	-0,110
-657,145	-78,443	0,058	-0,014
-656,130	800,000	-0,016	-0,036
-655,116	-200,000	0,008	-0,058
-654,101	-33,567	0,039	0,016
-653,086	-200,000	-0,003	-0,082
-652,072	-138,735	-0,117	0,009
-651,057	-96,149	-0,166	0,032
-650,043	284,491	-0,041	0,053
-649,028	800,000	-0,022	0,056
-648,014	-5,544	-0,029	-0,014
-646,999	-45,058	0,094	0,034
-645,984	-197,153	-0,173	0,001
-644,970	800,000	-0,046	-0,125
-643,955	-200,000	-0,008	-0,091
-642,941	-200,000	0,015	-0,101
-641,926	-200,000	0,002	0,064
-640,911	-200,000	0,005	0,090
-639,897	-200,000	-0,025	0,243
-638,882	60,705	0,139	0,099
-637,868	465,018	0,117	-0,190
-636,853	-184,396	-0,145	0,002
-635,838	-200,000	-0,013	-0,095
-634,824	-91,813	-0,264	-0,054
-633,809	189,577	-0,004	-0,004
-632,795	31,142	0,139	0,086
-631,780	-200,000	-0,006	0,054
-630,765	668,357	0,065	-0,121
-629,751	38,996	-0,126	0,081
-628,736	498,921	-0,076	-0,127
-627,722	-23,506	0,095	-0,041
-626,707	800,000	0,062	0,153
-625,692	-175,039	-0,065	-0,001
-624,678	96,336	-0,012	-0,010
-623,663	-200,000	-0,026	0,174
-622,649	-200,000	0,001	0,101
-621,634	96,450	0,098	-0,081
-620,619	-200,000	-0,010	0,043
-619,605	511,430	-0,049	-0,082
-618,590	565,955	-0,039	-0,068
-617,576	-167,671	0,055	0,002
-616,561	113,950	-0,083	0,073
-615,546	70,632	0,096	0,072
-614,532	-116,736	-0,093	-0,012
-613,517	-200,000	0,004	0,047
-612,503	-98,141	-0,114	-0,021
-611,488	800,000	-0,019	-0,044
-610,474	114,565	-0,077	0,067
-609,459	3,826	-0,035	0,018
-608,444	413,438	-0,062	0,096
-607,430	12,850	-0,052	0,029
-606,415	52,914	-0,127	0,088
-605,401	-200,000	-0,003	0,057
-604,386	-18,060	-0,212	0,095
-603,371	-90,578	0,073	0,015
-602,357	55,974	0,154	-0,108
-601,342	63,645	-0,060	0,043
-600,328	-107,668	0,077	0,012
-599,313	-0,553	0,115	0,059
-598,298	-20,033	0,048	0,021
-597,284	-29,857	0,065	-0,027
-596,269	-47,584	-0,059	-0,020
-595,255	276,180	0,053	0,068
-594,240	25,137	-0,068	0,041
-593,225	-106,064	-0,052	0,008
-592,211	241,928	-0,105	0,126
-591,196	-200,000	0,039	-0,131
-590,182	672,098	0,020	0,037
-589,167	342,095	0,006	-0,009
-588,152	-200,000	0,007	-0,070
-587,138	511,449	0,015	0,026
-586,123	-24,313	0,041	-0,017
-585,109	-151,983	-0,025	-0,001
-584,094	-44,363	-0,099	-0,035
-583,079	305,628	-0,032	0,043
-582,065	93,065	0,087	0,071
-581,050	-200,000	0,009	0,041
-580,036	-200,000	0,008	-0,091
-579,021	800,000	0,048	-0,120
-578,006	-200,000	-0,032	-0,203
-576,992	-200,000	0,017	-0,057
-575,977	800,000	0,027	0,076
-574,963	800,000	0,038	-0,086
-573,948	295,465	0,033	0,044
-572,934	-154,469	0,082	0,004
-571,919	-200,000	0,011	0,124
-570,904	233,075	-0,093	-0,111
-569,890	-200,000	0,000	0,089
-568,875	-200,000	-0,001	0,198
-567,861	800,000	0,034	0,090
-566,846	800,000	-0,040	0,098
-565,831	-200,000	-0,038	0,172
-564,817	-200,000	-0,006	-0,049
-563,802	-200,000	0,003	-0,079
-562,788	86,065	-0,076	0,060
-561,773	-20,248	0,113	-0,050
-560,758	-115,842	0,148	-0,020
-559,744	45,941	0,055	0,037
-558,729	-200,000	0,035	0,203
-557,715	-103,493	0,185	-0,031
-556,700	-200,000	0,004	-0,059
-555,685	-200,000	-0,003	-0,056
-554,671	-200,000	0,012	-0,047
-553,656	-200,000	0,007	0,031
-552,642	800,000	0,054	0,109
-551,627	-200,000	0,009	-0,050
-550,612	-200,000	-0,030	-0,222
-549,598	-75,001	-0,126	0,032
-548,583	603,647	0,065	0,117
-547,569	-93,142	0,079	-0,016
-546,554	172,728	0,052	-0,054
-545,539	-59,010	0,127	0,039
-544,525	-54,996	-0,102	-0,033
-543,510	245,489	0,073	-0,089
-542,496	471,452	0,061	-0,100
-541,481	573,830	-0,065	0,114
-540,466	60,731	0,086	0,061
-539,452	-40,496	-0,063	0,023
-538,437	-200,000	0,040	0,152
-537,423	-167,828	0,088	-0,002
-536,408	-200,000	0,002	-0,111
-535,393	800,000	0,034	-0,097
-534,379	-21,427	0,011	-0,005
-533,364	-200,000	0,012	-0,179
-532,350	-58,255	-0,132	0,041
-531,335	-35,640	-0,135	-0,052
-530,321	-20,231	0,117	0,052
-529,306	277,038	-0,079	0,102
-528,291	102,194	0,051	-0,043
-527,277	-143,255	0,059	0,004
-526,262	515,830	-0,066	-0,111
-525,248	-200,000	0,008	-0,025
-524,233	-123,750	-0,104	-0,012
-523,218	-200,000	-0,000	0,008
-522,204	-200,000	0,004	0,082
-521,189	-118,682	-0,083	0,010
-520,175	223,140	-0,072	-0,083
-519,160	-50,777	0,061	0,020
-518,145	-106,857	0,060	-0,009
-517,131	99,116	-0,050	0,041
-516,116	-31,288	0,014	0,006
-515,102	-13,573	-0,114	-0,053
-514,087	-200,000	0,017	-0,066
-513,072	208,937	-0,017	0,019
-512,058	800,000	0,023	-0,060
-511,043	-200,000	-0,023	0,235
-510,029	-200,000	-0,003	0,052
-509,014	109,357	-0,092	0,079
-507,999	800,000	0,022	0,053
-506,985	-11,187	-0,039	0,019
-505,970	-200,000	0,011	-0,119
-504,956	-200,000	-0,064	-0,229
-503,941	159,201	0,049	-0,049
-502,926	306,987	-0,101	-0,135
-501,912	800,000	0,012	-0,027
-500,897	-200,000	0,035	-0,146
-499,883	-178,005	0,012	-0,000
-498,868	-200,000	-0,065	-0,210
-497,853	74,432	0,048	-0,036
-496,839	-200,000	0,010	0,049
-495,824	463,242	-0,011	0,018
-494,810	-200,000	-0,012	0,093
-493,795	301,124	-0,004	0,005
-492,781	-8,959	0,055	-0,027
-491,766	800,000	-0,010	0,020
-490,751	-200,000	-0,009	0,124
-489,737	-200,000	-0,002	-0,086
-488,722	-101,337	0,173	0,030
-487,708	-200,000	-0,026	-0,097
-486,693	-53,218	0,088	0,029
-485,678	118,232	-0,011	0,010
-484,664	-10,339	-0,162	-0,077
-483,649	213,565	-0,026	-0,030
-482,635	94,960	0,036	-0,030
-481,620	92,283	0,026	-0,021
-480,605	-89,737	0,118	0,025
-479,591	-200,000	0,010	-0,107
-478,576	-109,449	0,103	-0,015
-477,562	751,804	-0,030	0,058
-476,547	-171,812	0,143	0,003
-475,532	-67,126	-0,085	0,024
-474,518	394,067	0,034	0,051
-473,503	417,792	-0,065	-0,100
-472,489	800,000	0,018	0,056
-471,474	254,331	-0,076	-0,093
-470,459	296,043	0,017	-0,022
-469,445	-200,000	-0,063	0,211
-468,430	-57,048	-0,023	-0,007
-467,416	-200,000	-0,004	-0,038
-466,401	-200,000	0,033	-0,128
-465,386	-3,423	0,082	0,041
-464,372	-42,742	-0,073	0,027
-463,357	-200,000	-0,019	-0,085
-462,343	-200,000	0,001	-0,003
-461,328	-18,506	-0,048	-0,021
-460,313	800,000	0,028	0,080
-459,299	-42,332	0,094	0,034
-458,284	797,488	-0,074	-0,146
-457,270	800,000	-0,034	0,068
-456,255	158,240	-0,112	-0,111
-455,241	111,289	-0,066	0,057
-454,226	64,816	0,036	-0,026
-453,211	-200,000	-0,004	0,061
-452,197	316,785	0,024	-0,033
-451,182	90,344	-0,066	0,053
-450,168	0,608	-0,139	0,071
-449,153	-2,945	-0,080	0,040
-448,138	-200,000	-0,018	0,175
-447,124	514,078	0,075	-0,125
-446,109	-200,000	0,013	-0,068
-445,095	-166,453	0,151	0,004
-444,080	-173,874	0,044	0,001
-443,065	718,158	0,019	-0,036
-442,051	800,000	-0,014	0,042
-441,036	50,659	-0,009	0,006
-440,022	98,780	0,035	-0,029
-439,007	476,051	0,029	-0,047
-437,992	-4,550	-0,061	0,030
-436,978	73,280	0,115	0,086
-435,963	-125,531	0,032	-0,003
-434,949	-200,000	0,004	-0,031
-433,934	77,604	-0,073	-0,056
-432,919	-123,992	0,029	-0,003
-431,905	143,882	-0,041	-0,039
-430,890	-200,000	0,016	0,130
-429,876	1,698	0,126	0,065
-428,861	-200,000	-0,014	-0,047
-427,846	-200,000	-0,009	-0,042
-426,832	-200,000	-0,013	-0,048
-425,817	21,928	-0,069	-0,040
-424,803	800,000	0,011	0,024
-423,788	800,000	-0,045	0,114
-422,773	413,546	-0,047	0,071
-421,759	-180,593	-0,011	0,000
-420,744	-200,000	0,038	-0,217
-419,730	-8,880	-0,092	-0,044
-418,715	-200,000	0,023	0,090
-417,701	-200,000	0,025	0,091
-416,686	233,646	0,020	-0,023
-415,671	800,000	0,019	0,049
-414,657	-148,621	0,154	-0,009
-413,642	-106,852	-0,171	-0,027
-412,628	-79,533	-0,068	0,016
-411,613	13,097	-0,042	0,023
-410,598	800,000	-0,018	0,044
-409,584	800,000	-0,027	-0,072
-408,569	139,320	-0,031	0,029
-407,555	-168,480	0,055	-0,001
-406,540	-200,000	0,031	0,127
-405,525	-127,656	0,122	-0,012
-404,511	349,639	-0,056	0,079
-403,496	800,000	0,057	-0,119
-402,482	21,301	-0,081	-0,047
-401,467	345,737	0,007	-0,010
-400,452	-200,000	0,001	0,153
-399,438	191,918	-0,057	0,061
-398,423	-200,000	0,002	0,029
-397,409	123,704	0,047	-0,043
-396,394	-200,000	0,015	-0,164
-395,379	800,000	-0,033	-0,074
-394,365	800,000	-0,027	0,076
-393,350	-172,134	0,155	0,004
-392,336	-200,000	-0,018	0,083
-391,321	83,081	-0,052	0,040
-390,306	37,951	-0,039	0,025
-389,292	187,285	0,091	-0,097
-388,277	573,026	-0,050	-0,088
-387,263	-115,150	-0,186	0,025
-386,248	98,601	-0,024	0,020
-385,233	117,947	0,042	0,037
-384,219	-200,000	-0,021	0,078
-383,204	800,000	-0,011	-0,035
-382,190	800,000	-0,026	-0,063
-381,175	305,009	-0,055	-0,073
-380,160	-117,029	0,074	-0,009
-379,146	-200,000	-0,032	0,124
-378,131	800,000	0,029	-0,066
-377,117	800,000	-0,021	-0,047
-376,102	-39,855	-0,094	-0,035
-375,088	745,422	0,057	-0,110
-374,073	800,000	0,012	-0,036
-373,058	-133,097	0,021	-0,002
-372,044	98,024	0,116	0,095
-371,029	143,398	0,110	0,105
-370,015	-200,000	0,012	-0,141
-369,000	-200,000	-0,000	-0,105
-367,985	-200,000	-0,021	0,129
-366,971	124,311	-0,042	-0,038
-365,956	-114,842	0,043	0,006
-364,942	-55,087	-0,044	-0,014
-363,927	-200,000	-0,044	-0,147
-362,912	111,877	0,037	-0,032
-361,898	-200,000	-0,028	0,156
-360,883	245,323	-0,042	0,050
-359,869	-2,867	-0,076	0,038
-358,854	-11,974	0,095	-0,044
-357,839	276,402	-0,065	-0,082
-356,825	-171,458	-0,081	0,002
-355,810	-200,000	0,043	0,176
-354,796	676,818	0,055	-0,103
-353,781	48,326	-0,084	-0,056
-352,766	800,000	0,042	-0,093
-351,752	-200,000	-0,007	-0,102
-350,737	-124,875	0,146	-0,016
-349,723	70,063	-0,057	0,042
-348,708	-200,000	0,002	0,018
-347,693	266,879	0,048	-0,060
-346,679	800,000	-0,031	0,069
-345,664	195,553	-0,131	-0,142
-344,650	309,853	-0,044	-0,058
-343,635	-105,619	0,061	-0,010
-342,620	-78,925	0,060	0,015
-341,606	136,671	0,011	0,010
-340,591	232,281	0,060	0,070
-339,577	392,865	0,039	0,058
-338,562	800,000	-0,034	-0,092
-337,548	175,414	0,055	0,057
-336,533	-107,308	0,013	-0,002
-335,518	-56,371	0,117	0,037
-334,504	-200,000	-0,020	0,107
-333,489	82,570	0,050	-0,039
-332,475	-110,675	-0,028	0,004
-331,460	533,082	-0,063	0,107
-330,445	800,000	-0,030	0,078
-329,431	349,600	0,137	-0,194
-328,416	253,998	-0,058	0,071
-327,402	-67,500	0,101	-0,028
-326,387	-200,000	-0,002	-0,008
-325,372	-68,859	0,070	0,019
-324,358	-75,059	0,014	-0,004
-323,343	-80,505	0,126	-0,030
-322,329	371,460	-0,032	0,046
-321,314	334,033	0,097	0,134
-320,299	-200,000	0,049	0,181
-319,285	654,821	-0,041	-0,075
-318,270	53,120	0,049	0,033
-317,256	-200,000	0,016	-0,196
-316,241	131,006	0,043	-0,040
-315,226	111,767	0,084	0,072
-314,212	-117,450	0,038	0,005
-313,197	-200,000	-0,006	-0,040
-312,183	214,703	0,028	0,032
-311,168	800,000	-0,054	0,119
-310,153	176,336	-0,091	-0,095
-309,139	800,000	0,041	-0,126
-308,124	-58,846	0,083	-0,025
-307,110	402,552	-0,069	0,104
-306,095	800,000	-0,055	0,123
-305,080	800,000	-0,035	0,092
-304,066	117,426	-0,040	-0,035
-303,051	-200,000	-0,027	-0,089
-302,037	-120,262	0,017	0,002
-301,022	147,631	0,041	0,039
-300,008	-55,067	0,100	0,032
-298,993	130,180	0,126	0,115
-297,978	-156,983	-0,044	0,002
-296,964	455,620	0,020	0,032
-295,949	-200,000	0,002	0,057
-294,935	156,905	-0,073	0,072
-293,920	-116,188	-0,023	0,003
-292,905	-98,114	0,080	-0,014
-291,891	24,687	0,194	0,114
-290,876	215,153	-0,081	0,092
-289,862	-99,195	-0,083	-0,015
-288,847	-200,000	0,034	-0,127
-287,832	-200,000	-0,023	-0,078
-286,818	-131,943	-0,105	-0,010
-285,803	78,960	0,019	0,015
-284,789	4,135	-0,126	-0,065
-283,774	800,000	-0,039	0,079
-282,759	-53,804	-0,095	-0,031
-281,745	-85,603	-0,108	0,024
-280,730	-8,766	0,010	0,005
-279,716	9,642	0,065	-0,035
-278,701	208,228	-0,073	-0,082
-277,686	316,872	-0,026	0,035
-276,672	800,000	0,035	-0,091
-275,657	644,248	-0,042	0,076
-274,643	372,074	-0,103	-0,149
-273,628	-58,873	0,150	0,046
-272,613	-200,000	0,014	-0,049
-271,599	800,000	-0,029	-0,067
-270,584	-200,000	-0,018	-0,122
-269,570	110,520	0,130	0,111
-268,555	-11,628	-0,201	0,093
-267,540	-200,000	0,031	-0,129
-266,526	-200,000	-0,004	-0,147
-265,511	55,392	0,039	-0,027
-264,497	-83,373	-0,074	-0,017
-263,482	181,048	0,083	0,087
-262,467	-200,000	0,015	0,109
-261,453	-102,241	0,067	-0,011
-260,438	-200,000	-0,005	0,031
-259,424	800,000	0,036	-0,103
-258,409	-200,000	0,004	-0,189
-257,395	42,229	-0,098	-0,063
-256,380	118,030	0,081	0,071
-255,365	-200,000	-0,005	-0,101
-254,351	735,597	0,081	0,155
-253,336	165,650	-0,128	-0,128
-252,322	-200,000	0,012	0,099
-251,307	502,949	0,051	-0,084
-250,292	189,901	-0,014	0,015
-249,278	200,782	0,130	0,143
-248,263	81,448	-0,027	-0,021
-247,249	-124,020	0,063	-0,007
-246,234	155,054	-0,044	0,044
-245,219	-138,877	0,053	-0,004
-244,205	-79,618	-0,132	0,031
-243,190	-119,798	0,062	0,007
-242,176	-200,000	-0,002	0,105
-241,161	-200,000	-0,018	0,164
-240,146	440,596	0,120	0,187
-239,132	113,969	-0,116	-0,100
-238,117	-200,000	0,013	-0,042
-237,103	800,000	-0,044	-0,087
-236,088	-200,000	0,010	0,073
-235,073	14,343	-0,078	0,043
-234,059	800,000	-0,024	-0,063
-233,044	121,721	-0,069	0,061
-232,030	-198,296	-0,023	0,000
-231,015	-168,396	-0,200	0,005
-230,000	8,672	0,092	-0,049
-228,986	-13,496	0,031	0,014
-227,971	800,000	-0,061	0,149
-226,957	-150,888	0,046	-0,002
-225,942	-68,149	-0,123	0,034
-224,927	-134,980	-0,099	-0,008
-223,913	187,439	-0,076	0,081
-222,898	-200,000	0,028	0,106
-221,884	-96,569	-0,039	-0,007
-220,869	-74,496	-0,089	-0,023
-219,855	3,475	0,100	-0,051
-218,840	20,445	0,025	0,014
-217,825	18,428	-0,048	0,027
-216,811	-200,000	0,016	-0,142
-215,796	-200,000	0,000	-0,092
-214,782	-200,000	-0,001	-0,018
-213,767	-14,656	0,235	0,107
-212,752	-28,224	-0,116	-0,048
-211,738	-200,000	0,027	0,114
-210,723	-2,565	0,080	0,039
-209,709	145,453	-0,143	-0,136
-208,694	188,639	-0,031	-0,033
-207,679	209,930	-0,118	-0,131
-206,665	1,054	0,040	-0,020
-205,650	136,196	0,089	-0,083
-204,636	6,940	0,034	0,018
-203,621	-77,717	0,121	0,030
-202,606	-200,000	0,004	0,028
-201,592	139,214	-0,129	0,121
-200,577	91,480	-0,040	-0,032
-199,563	-200,000	-0,003	-0,025
-198,548	-39,907	-0,051	-0,019
-197,533	-200,000	-0,014	0,077
-196,519	652,502	0,108	0,197
-195,504	478,902	-0,037	0,059
-194,490	99,979	-0,125	-0,103
-193,475	-141,674	-0,050	-0,004
-192,460	215,763	0,064	-0,072
-191,446	-145,774	-0,033	0,002
-190,431	-131,786	-0,092	0,008
-189,417	-200,000	-0,036	-0,120
-188,402	75,450	-0,153	-0,114
-187,387	10,120	0,122	0,066
-186,373	359,858	-0,041	-0,059
-185,358	51,687	0,100	-0,067
-184,344	563,578	0,040	0,069
-183,329	-64,185	0,147	0,042
-182,315	-182,988	0,110	-0,001
-181,300	330,798	0,071	0,098
-180,285	-200,000	-0,015	-0,049
-179,271	425,696	0,052	-0,079
-178,256	148,972	0,056	-0,054
-177,242	800,000	0,008	-0,024
-176,227	-200,000	-0,001	0,114
-175,212	-200,000	-0,007	0,131
-174,198	16,217	-0,105	0,059
-173,183	100,967	-0,048	0,040
-172,169	-200,000	0,017	0,139
-171,154	22,936	-0,133	-0,077
-170,139	797,343	0,064	-0,125
-169,125	284,552	0,082	-0,105
-168,110	66,880	0,053	-0,039
-167,096	-37,363	-0,180	-0,068
-166,081	165,300	0,091	-0,092
-165,066	542,014	-0,054	-0,091
-164,052	99,328	0,014	0,011
-163,037	-59,478	-0,135	-0,041
-162,023	323,020	0,060	0,081
-161,008	-200,000	0,017	-0,079
-159,993	40,262	0,136	-0,086
-158,979	619,978	-0,058	0,104
-157,964	444,976	0,023	-0,037
-156,950	186,766	0,062	-0,066
-155,935	-91,845	0,155	-0,031
-154,920	-200,000	0,020	0,089
-153,906	709,062	0,038	0,071
-152,891	171,897	0,044	-0,045
-151,877	43,109	0,117	-0,075
-150,862	429,978	-0,087	0,134
-149,847	438,802	-0,103	-0,160
-148,833	-25,512	0,014	-0,006
-147,818	535,026	0,037	-0,062
-146,804	-200,000	-0,014	0,212
-145,789	-200,000	-0,005	0,078
-144,775	-41,191	-0,064	-0,023
-143,760	-87,582	0,048	-0,010
-142,745	-1,030	-0,116	-0,058
-141,731	654,243	-0,054	0,099
-140,716	38,178	0,148	0,093
-139,702	800,000	0,004	0,008
-138,687	78,489	0,064	-0,049
-137,672	18,877	0,090	0,051
-136,658	-200,000	-0,002	-0,110
-135,643	55,877	-0,062	-0,042
-134,629	-79,500	0,078	0,018
-133,614	-200,000	-0,017	0,081
-132,599	-200,000	0,007	0,170
-131,585	26,427	0,070	-0,041
-130,570	-81,593	-0,122	-0,028
-129,556	191,905	-0,033	-0,035
-128,541	191,436	-0,079	-0,084
-127,526	-45,447	-0,106	-0,037
-126,512	-200,000	-0,033	0,167
-125,497	-100,947	0,085	-0,015
-124,483	-200,000	0,019	-0,083
-123,468	124,946	-0,042	0,037
-122,453	42,055	-0,110	0,070
-121,439	-115,079	-0,038	-0,005
-120,424	-127,337	-0,156	0,016
-119,410	-3,459	-0,096	-0,047
-118,395	-118,246	0,035	-0,004
-117,380	-154,040	0,060	0,003
-116,366	800,000	0,049	0,113
-115,351	-200,000	-0,011	0,041
-114,337	-64,534	-0,053	-0,015
-113,322	26,342	-0,056	0,033
-112,307	75,710	-0,088	-0,066
-111,293	1,616	0,089	-0,045
-110,278	-200,000	0,029	-0,120
-109,264	-200,000	0,004	0,025
-108,249	32,609	0,076	-0,047
-107,234	20,261	-0,135	-0,077
-106,220	180,318	0,048	0,050
-105,205	-200,000	0,026	0,090
-104,191	38,994	0,111	0,070
-103,176	-19,301	-0,106	-0,046
-102,162	800,000	-0,015	0,033
-101,147	-128,665	-0,047	-0,005
-100,132	800,000	-0,025	-0,062
-99,118	100,900	0,004	0,004
-98,103	16,272	-0,075	-0,041
-97,089	-200,000	0,011	-0,119
-96,074	289,854	0,088	0,113
-95,059	617,864	0,074	0,131
-94,045	800,000	0,015	-0,043
-93,030	-200,000	-0,057	0,199
-92,016	53,444	0,041	-0,028
-91,001	-199,602	-0,075	0,000
-89,986	121,983	-0,024	-0,021
-88,972	800,000	0,053	-0,115
-87,957	-34,778	-0,091	-0,035
-86,943	358,975	-0,082	0,116
-85,928	232,969	-0,035	0,041
-84,913	-66,864	-0,086	-0,024
-83,899	-72,499	0,048	-0,012
-82,884	-200,000	-0,009	0,151
-81,870	-200,000	-0,018	0,180
-80,855	168,655	-0,014	-0,014
-79,840	800,000	0,075	-0,166
-78,826	-200,000	0,004	0,042
-77,811	800,000	-0,014	-0,030
-76,797	-132,513	0,103	-0,009
-75,782	-200,000	0,021	-0,205
-74,767	105,024	-0,076	0,063
-73,753	800,000	0,049	0,138
-72,738	-191,441	0,069	0,000
-71,724	-46,769	0,019	0,006
-70,709	112,975	-0,118	-0,101
-69,694	66,727	0,022	0,016
-68,680	680,788	-0,068	-0,125
-67,665	-200,000	0,021	0,075
-66,651	-65,863	0,190	0,053
-65,636	-200,000	0,021	-0,071
-64,622	-10,937	-0,142	-0,066
-63,607	357,456	-0,030	-0,042
-62,592	31,604	-0,056	-0,034
-61,578	800,000	-0,020	-0,058
-60,563	-200,000	-0,010	-0,037
-59,549	-200,000	0,009	-0,087
-58,534	64,048	-1,980	-1,404
-57,519	385,265	-1,308	-1,910
-56,505	-200,000	-0,349	-4,394
-55,490	686,383	0,929	1,721
-54,476	800,000	5,109	11,318
-53,461	-200,000	21,692	340,167
-52,446	800,000	761,880	2323,736
-51,432	541,531	1658,010	2799,315
-50,417	70,600	1654,297	1206,405
-49,403	17,067	1528,320	852,596
-48,388	11,106	1452,550	781,584
-47,373	19,112	1444,240	815,381
-46,359	14,578	1433,109	787,576
-45,344	9,426	1429,057	760,866
-44,330	9,370	1427,143	759,553
-43,315	9,356	1425,400	758,530
-42,300	9,368	1423,782	757,694
-41,286	9,364	1422,375	756,896
-40,271	9,365	1421,235	756,266
-39,257	9,357	1420,053	755,567
-38,242	9,384	1418,999	755,104
-37,227	9,363	1417,836	754,358
-36,213	9,367	1416,507	753,637
-35,198	9,408	1415,296	753,156
-34,184	9,426	1414,310	752,687
-33,169	9,349	1412,835	751,510
-32,154	9,385	1412,034	751,223
-31,140	9,393	1410,760	750,554
-30,125	9,453	1409,572	750,171
-29,111	9,432	1408,389	749,415
-28,096	9,382	1407,227	748,531
-27,082	9,347	1405,946	747,656
-26,067	9,312	1405,149	747,039
-25,052	9,354	1404,021	746,607
-24,038	9,336	1403,001	745,954
-23,023	9,325	1402,088	745,386
-22,009	9,358	1401,030	744,947
-20,994	9,325	1399,981	744,205
-19,979	9,310	1399,099	743,638
-18,965	9,294	1398,138	743,021
-17,950	9,326	1397,103	742,591
-16,936	9,308	1396,332	742,067
-15,921	9,235	1395,441	741,228
-14,906	9,243	1394,465	740,718
-13,892	9,303	1393,295	740,345
-12,877	9,282	1392,792	739,952
-11,863	9,275	1391,894	739,413
-10,848	9,190	1390,964	738,495
-9,833	9,179	1390,424	738,129
-8,819	9,164	1389,201	737,381
-7,804	9,160	1388,317	736,864
-6,790	9,167	1387,291	736,323
-5,775	9,159	1386,168	735,659
-4,760	9,138	1385,331	735,089
-3,746	9,219	1384,137	734,801
-2,731	9,187	1383,359	734,209
-1,717	9,188	1382,476	733,719
-0,702	9,145	1380,727	732,563
0,313	13,253	1293,028	704,718
1,327	29,588	684,674	409,918
2,342	45,813	118,146	76,917
3,356	1,543	16,404	8,298
4,371	13,198	3,513	1,913
5,386	13,201	1,156	0,630
6,400	-200,000	0,179	0,648
7,415	-97,330	-0,253	0,046
8,429	85,602	-0,272	-0,211
9,444	-46,629	-0,323	-0,111
10,459	57,897	-0,148	-0,102
11,473	-58,113	-0,325	-0,099
12,488	25,326	-0,382	-0,223
13,502	-138,544	-0,368	-0,028
14,517	21,395	-0,253	-0,144
15,531	36,172	-0,374	-0,232
16,546	-37,162	-0,365	-0,137
17,561	99,522	-0,348	-0,284
18,575	-200,000	-0,024	-0,077
19,590	61,966	-0,268	-0,188
20,604	62,243	-0,170	-0,119
21,619	15,471	-0,546	-0,301
22,634	239,290	-0,304	-0,357
23,648	24,048	-0,455	-0,264
24,663	187,924	-0,328	-0,346
25,677	15,377	-0,413	-0,228
26,692	31,851	-0,338	-0,204
27,707	44,375	-0,355	-0,229
28,721	-28,492	-0,342	-0,138
29,736	227,083	-0,261	-0,299
30,750	86,202	-0,468	-0,362
31,765	5,488	-0,408	-0,211
32,780	27,313	-0,429	-0,253
33,794	89,830	-0,329	-0,258
34,809	-65,651	-0,537	-0,150
35,823	9,288	-0,371	-0,197
36,838	145,068	-0,364	-0,342
37,853	-14,906	-0,426	-0,191
38,867	78,099	-0,458	-0,343
39,882	320,827	-0,231	-0,309
40,896	31,030	-0,375	-0,226
41,911	15,156	-0,371	-0,204
42,926	-115,809	-0,364	-0,047
43,940	157,125	-0,294	-0,286
44,955	13,775	-0,377	-0,205
45,969	-60,892	-0,408	-0,121
46,984	129,951	-0,366	-0,329
47,999	482,529	-0,159	-0,255
49,013	102,285	-0,379	-0,311
50,028	408,881	-0,240	-0,357
51,042	63,419	-0,330	-0,232
52,057	-31,051	-0,381	-0,150
53,071	48,461	-0,430	-0,282
54,086	138,348	-0,276	-0,255
55,101	6,064	-0,399	-0,207
56,115	144,196	-0,246	-0,231
57,130	35,501	-0,304	-0,187
58,144	162,749	-0,260	-0,256
59,159	35,689	-0,402	-0,247
60,174	84,423	-0,326	-0,250
61,188	301,461	-0,343	-0,446
62,203	-78,387	-0,387	-0,092
63,217	-126,013	-0,236	-0,025
64,232	62,230	-0,364	-0,255
65,247	-6,858	-0,326	-0,155
66,261	-36,268	-0,277	-0,104
67,276	-30,602	-0,454	-0,180
68,290	84,284	-0,272	-0,209
69,305	74,983	-0,264	-0,195
70,320	4,068	-0,297	-0,152
71,334	-12,455	-0,345	-0,157
72,349	28,368	-0,195	-0,116
73,363	25,475	-0,310	-0,180
74,378	28,662	-0,383	-0,226
75,393	49,319	-0,290	-0,191
76,407	42,297	-0,190	-0,121
77,422	99,728	-0,197	-0,160
78,436	-25,561	-0,284	-0,117
79,451	-139,271	-0,267	-0,020
80,466	93,402	-0,255	-0,202
81,480	23,676	-0,292	-0,168
82,495	46,101	-0,263	-0,170
83,509	-50,776	-0,291	-0,095
84,524	-65,026	-0,342	-0,096
85,539	494,279	-0,146	-0,235
86,553	10,069	-0,293	-0,155
87,568	86,837	-0,391	-0,302
88,582	-22,799	-0,331	-0,139
89,597	46,383	-0,222	-0,144
90,611	-46,105	-0,351	-0,120
91,626	27,462	-0,327	-0,192
92,641	21,985	-0,243	-0,138
93,655	-30,982	-0,373	-0,147
94,670	-40,378	-0,436	-0,158
95,684	16,361	-0,290	-0,159
96,699	-50,688	-0,436	-0,143
97,714	-88,327	-0,286	-0,059
98,728	-134,338	-0,213	-0,018
99,743	16,060	-0,245	-0,134
100,757	149,191	-0,137	-0,129
101,772	11,470	-0,308	-0,164
102,787	280,942	-0,245	-0,307
103,801	33,006	-0,315	-0,190
104,816	-13,756	-0,400	-0,180
105,830	333,618	-0,165	-0,224
106,845	187,175	-0,067	-0,070
107,860	54,259	-0,205	-0,138
108,874	-144,302	-0,264	-0,017
109,889	56,859	-0,294	-0,200
110,903	800,000	-0,110	-0,299
111,918	51,874	-0,235	-0,156
112,933	157,649	-0,167	-0,162
113,947	-48,584	-0,235	-0,078
114,962	83,721	-0,260	-0,198
115,976	-119,471	-0,313	-0,037
116,991	30,452	-0,301	-0,179
118,006	94,510	-0,285	-0,226
119,020	82,390	-0,284	-0,215
120,035	-74,393	-0,189	-0,047
121,049	244,072	-0,164	-0,192
122,064	94,331	-0,351	-0,278
123,079	311,379	-0,177	-0,232
124,093	290,139	-0,273	-0,347
125,108	89,651	-0,250	-0,194
126,122	449,062	-0,156	-0,241
127,137	-24,024	-0,165	-0,068
128,151	-33,701	-0,288	-0,110
129,166	-123,163	-0,287	-0,032
130,181	121,193	-0,185	-0,161
131,195	209,789	-0,119	-0,130
132,210	-28,746	-0,344	-0,137
133,224	118,540	-0,255	-0,219
134,239	-54,096	-0,165	-0,052
135,254	-200,000	-0,038	-0,118
136,268	-2,069	-0,268	-0,131
137,283	-29,162	-0,285	-0,113
138,297	-65,600	-0,297	-0,082
139,312	59,932	-0,237	-0,163
140,327	153,890	-0,231	-0,221
141,341	146,252	-0,201	-0,188
142,356	31,402	-0,186	-0,111
143,370	-112,166	-0,171	0,024
144,385	-60,845	-0,224	-0,066
145,400	2,882	-0,339	-0,171
146,414	316,654	-0,207	-0,273
147,429	-36,758	-0,327	-0,122
148,443	0,795	-0,278	-0,138
149,458	270,126	-0,171	-0,210
150,473	57,582	-0,144	-0,098
151,487	-105,965	-0,225	-0,035
152,502	-60,716	-0,218	-0,064
153,516	300,310	-0,180	-0,231
154,531	-22,051	-0,398	-0,168
155,546	106,005	-0,367	-0,302
156,560	52,998	-0,283	-0,188
157,575	389,444	-0,189	-0,274
158,589	65,652	-0,293	-0,206
159,604	-78,074	-0,165	-0,039
160,619	252,183	-0,199	-0,236
161,633	98,059	-0,286	-0,229
162,648	54,896	-0,250	-0,168
163,662	800,000	-0,078	-0,179
164,677	78,239	-0,161	-0,119
165,692	-36,550	-0,234	-0,087
166,706	-96,439	-0,283	-0,052
167,721	-16,296	-0,199	-0,087
168,735	177,166	-0,271	-0,274
169,750	171,433	-0,172	-0,171
170,764	-158,195	-0,378	-0,015
171,779	-44,725	-0,262	-0,090
172,794	-59,149	-0,224	-0,067
173,808	-45,523	-0,277	-0,095
174,823	6,161	-0,225	-0,116
175,837	73,859	-0,237	-0,172
176,852	99,192	-0,353	-0,283
177,867	-5,966	-0,197	-0,093
178,881	-16,827	-0,137	-0,060
179,896	54,504	-0,243	-0,162
180,910	-154,416	-0,136	0,006
181,925	179,415	-0,186	-0,189
182,940	130,366	-0,108	-0,096
183,954	55,117	-0,246	-0,165
184,969	-148,601	-0,111	0,006
185,983	78,897	-0,173	-0,128
186,998	-54,408	-0,347	-0,108
188,013	-49,141	-0,233	-0,077
189,027	187,133	-0,240	-0,248
190,042	-24,512	-0,273	-0,112
191,056	546,708	-0,132	-0,220
192,071	-6,654	-0,183	-0,086
193,086	-169,141	-0,225	0,006
194,100	-145,762	-0,330	-0,020
195,115	-139,549	-0,283	-0,021
196,129	158,065	-0,203	-0,195
197,144	171,186	-0,148	-0,148
198,159	21,744	-0,264	-0,149
199,173	-105,393	-0,254	0,040
200,188	149,701	-0,218	-0,205
201,202	167,896	-0,225	-0,222
202,217	-43,238	-0,270	-0,094
203,232	29,703	-0,342	-0,201
204,246	71,888	-0,194	-0,140
205,261	21,325	-0,323	-0,181
206,275	145,752	-0,211	-0,196
207,290	-3,166	-0,159	-0,077
208,304	-110,926	-0,108	-0,015
209,319	-149,403	-0,101	-0,005
210,334	58,384	-0,254	-0,173
211,348	218,606	-0,268	-0,297
212,363	167,911	-0,143	-0,141
213,377	160,865	-0,174	-0,169
214,392	142,444	-0,208	-0,191
215,407	-17,168	-0,161	-0,070
216,421	-43,234	-0,240	-0,084
217,436	-48,473	-0,295	-0,098
218,450	122,406	-0,173	-0,149
219,465	73,782	-0,128	-0,093
220,480	99,200	-0,130	-0,104
221,494	-150,296	-0,211	0,011
222,509	800,000	-0,042	-0,125
223,523	160,183	-0,162	-0,156
224,538	137,552	-0,121	-0,109
225,553	800,000	-0,128	-0,259
226,567	35,809	-0,174	-0,106
227,582	-8,294	-0,249	-0,116
228,596	-112,626	-0,212	-0,029
229,611	31,966	-0,173	-0,103
230,626	67,342	-0,178	-0,125
231,640	8,902	-0,299	-0,155
232,655	171,392	-0,157	-0,156
233,669	383,203	-0,122	-0,174
234,684	243,591	-0,180	-0,209
235,699	200,461	-0,124	-0,131
236,713	178,443	-0,160	-0,161
237,728	17,569	-0,121	-0,066
238,742	343,508	-0,109	-0,148
239,757	-6,307	-0,190	0,089
240,772	71,334	-0,264	-0,189
241,786	-1,277	-0,281	-0,137
242,801	50,445	-0,180	-0,117
243,815	-129,470	-0,079	0,007
244,830	371,301	-0,100	-0,141
245,844	258,356	-0,125	-0,149
246,859	22,076	-0,198	-0,111
247,874	120,615	-0,219	-0,188
248,888	211,890	-0,208	-0,226
249,903	800,000	-0,124	-0,261
250,917	-57,704	-0,147	-0,044
251,932	-177,519	-0,213	0,004
252,947	-4,965	-0,200	-0,095
253,961	-128,765	-0,221	-0,021
254,976	193,011	-0,130	-0,135
255,990	-104,923	-0,265	-0,042
257,005	0,060	-0,215	-0,105
258,020	-94,750	-0,118	0,022
259,034	52,491	-0,223	-0,147
260,049	3,946	-0,262	-0,132
261,063	173,737	-0,125	-0,124
262,078	-9,132	-0,134	-0,062
263,093	-64,400	-0,248	-0,069
264,107	470,756	-0,063	-0,098
265,122	4,134	-0,122	-0,061
266,136	475,271	-0,086	-0,134
267,151	55,199	-0,216	-0,143
268,166	177,466	-0,110	-0,111
269,180	5,795	-0,250	-0,127
270,195	-27,889	-0,286	-0,113
271,209	76,992	-0,125	-0,091
272,224	-69,348	-0,173	-0,045
273,239	250,609	-0,159	-0,186
274,253	-28,325	-0,189	-0,075
275,268	85,323	-0,130	-0,098
276,282	-5,740	-0,176	-0,083
277,297	586,141	-0,188	-0,319
278,312	564,497	-0,105	-0,176
279,326	336,934	-0,103	-0,138
280,341	-10,867	-0,143	-0,065
281,355	23,640	-0,096	-0,055
282,370	-97,113	-0,248	-0,044
283,384	-200,000	-0,011	-0,085
284,399	5,085	-0,171	-0,086
285,414	-75,568	-0,101	0,025
286,428	302,580	-0,133	-0,169
287,443	105,223	-0,166	-0,135
288,457	-70,459	-0,202	-0,052
289,472	15,274	-0,201	-0,108
290,487	-93,124	-0,226	-0,043
291,501	-200,000	-0,183	0,000
292,516	168,928	-0,232	-0,227
293,530	328,019	-0,093	-0,123
294,545	-44,800	-0,168	-0,057
295,560	71,592	-0,134	-0,096
296,574	65,306	-0,231	-0,161
297,589	245,663	-0,098	-0,114
298,603	800,000	-0,063	-0,132
299,618	88,415	-0,147	-0,112
300,633	147,581	0,022	-0,020
301,647	-121,672	-0,175	-0,020
302,662	27,582	-0,192	-0,111
303,676	-196,810	-0,095	-0,000
304,691	-55,795	-0,154	-0,047
305,706	-52,443	-0,253	-0,080
306,720	-146,598	-0,207	0,012
307,735	-42,193	-0,116	-0,040
308,749	503,815	-0,058	-0,092
309,764	-165,892	-0,102	0,003
310,779	436,451	-0,041	-0,062
311,793	48,872	-0,196	-0,126
312,808	260,803	-0,127	-0,151
313,822	-60,206	-0,138	-0,040
314,837	102,602	-0,088	-0,071
315,852	5,166	-0,201	-0,101
316,866	-94,666	-0,283	0,052
317,881	-46,708	-0,101	-0,034
318,895	37,316	-0,155	-0,094
319,910	81,324	-0,186	-0,138
320,925	800,000	-0,075	-0,146
321,939	-200,000	-0,043	-0,162
322,954	-29,809	-0,141	-0,055
323,968	-166,893	-0,118	0,003
324,983	0,764	-0,139	-0,068
325,997	159,982	-0,216	-0,207
327,012	335,764	-0,149	-0,199
328,027	41,722	-0,157	-0,097
329,041	-200,000	-0,022	-0,074
330,056	-40,652	-0,215	-0,076
331,070	159,271	-0,057	-0,054
332,085	130,094	-0,102	-0,089
333,100	800,000	-0,060	-0,125
334,114	-79,205	-0,140	-0,032
335,129	-3,177	-0,106	-0,051
336,143	-200,000	-0,038	-0,150
337,158	180,580	-0,061	-0,062
338,173	-107,633	-0,119	0,018
339,187	46,437	-0,144	-0,091
340,202	96,599	-0,068	-0,053
341,216	-200,000	-0,024	-0,195
342,231	-54,987	-0,206	-0,063
343,246	675,379	-0,079	-0,141
344,260	-111,055	-0,227	-0,032
345,275	-156,779	-0,121	0,005
346,289	800,000	-0,021	0,051
347,304	195,404	-0,080	-0,084
348,319	-161,704	-0,161	0,006
349,333	242,376	-0,206	-0,236
350,348	-143,973	-0,211	-0,013
351,362	28,420	-0,247	-0,143
352,377	-76,280	-0,180	-0,043
353,392	103,677	-0,120	-0,096
354,406	-200,000	-0,020	-0,190
355,421	208,540	1305,912	1398,445
356,435	160,475	1465,511	1398,920
