DTS Sentinel unit serial number:	SN410029Multiplexer serial number:	ORYXHardware model number:	OX2-SRSoftware version number:	ORYX F/W v4,00 Oryx Data Collector v3.7.2.0data status	okinstallation	B3 Nyhavnadifferential loss correction	single-endedforward channel	channel 1reverse channel	N/Adate	2023/11/29time	17:37:30forward acquisition time	300,00reverse acquisition time	0,00gamma	499,1914k internal	0,3209k external	0,3209temperature offset calibration	1,0000default loss term (dB/km)	0,3820temperature slope calibration	1,0000multiplexer offset coefficient	1,0000multiplexer slope coefficient	1,0000fibre end	0,00T internal ref (°C)	11,29T ext. ref 1 (°C)	-4,04T ext. ref 2 (°C)	-4,13length (m)	temperature (°C)	Stokes	anti-Stokes-744,400	383,762	-0,164	-0,246
-743,385	-200,000	0,013	0,296
-742,371	327,153	-0,178	-0,249
-741,356	-200,000	-0,021	0,298
-740,342	800,000	-0,088	-0,244
-739,327	-200,000	0,076	0,434
-738,312	296,627	-0,192	-0,256
-737,298	800,000	-0,099	0,264
-736,283	3,017	-0,249	-0,131
-735,269	-200,000	0,031	0,215
-734,254	138,034	-0,182	-0,173
-733,239	158,219	-0,146	0,147
-732,225	800,000	-0,021	-0,057
-731,210	520,175	0,037	0,064
-730,196	-57,404	0,030	-0,009
-729,181	-200,000	-0,012	-0,183
-728,167	-200,000	0,007	-0,038
-727,152	-67,816	-0,043	0,012
-726,137	72,484	-0,103	-0,078
-725,123	-94,632	-0,152	0,030
-724,108	-200,000	-0,045	-0,146
-723,094	27,793	-0,115	-0,070
-722,079	-67,188	-0,078	0,022
-721,064	372,317	0,035	-0,052
-720,050	6,758	0,064	0,035
-719,035	142,303	-0,013	-0,012
-718,021	-200,000	0,001	-0,022
-717,006	800,000	-0,069	-0,196
-715,991	-161,612	-0,075	0,003
-714,977	-34,852	0,108	-0,043
-713,962	710,919	0,041	-0,078
-712,948	-102,929	0,131	0,022
-711,933	-200,000	-0,003	0,086
-710,918	-96,840	0,072	-0,014
-709,904	35,973	-0,038	-0,024
-708,889	-200,000	-0,021	-0,213
-707,875	475,908	-0,070	-0,115
-706,860	-200,000	-0,013	-0,173
-705,845	-200,000	-0,002	-0,049
-704,831	-133,612	-0,069	-0,006
-703,816	-200,000	-0,002	-0,008
-702,802	108,947	0,044	-0,038
-701,787	-200,000	-0,029	-0,148
-700,772	-2,281	-0,076	0,038
-699,758	354,219	0,052	0,076
-698,743	800,000	0,028	0,077
-697,729	-106,978	-0,072	-0,011
-696,714	-32,222	0,117	0,047
-695,699	-200,000	-0,005	0,082
-694,685	800,000	-0,038	-0,108
-693,670	2,700	-0,077	0,040
-692,656	-119,766	0,047	0,006
-691,641	10,708	-0,054	-0,030
-690,627	800,000	-0,026	-0,053
-689,612	-200,000	-0,029	0,110
-688,597	-200,000	0,024	-0,104
-687,583	800,000	-0,024	-0,062
-686,568	-200,000	0,028	0,101
-685,554	-112,005	-0,196	-0,028
-684,539	-200,000	0,002	0,029
-683,524	-182,234	-0,077	0,001
-682,510	56,967	0,041	0,029
-681,495	60,653	-0,080	0,057
-680,481	314,075	-0,071	-0,097
-679,466	111,576	-0,078	-0,068
-678,451	-200,000	-0,041	0,146
-677,437	-200,000	0,022	-0,105
-676,422	18,452	-0,043	-0,025
-675,408	-200,000	0,001	0,028
-674,393	-64,704	-0,111	0,032
-673,378	-92,918	-0,087	-0,017
-672,364	800,000	0,048	-0,153
-671,349	800,000	-0,052	-0,143
-670,335	386,712	0,060	-0,090
-669,320	-184,910	0,132	-0,001
-668,305	65,111	0,012	-0,008
-667,291	800,000	0,090	-0,199
-666,276	105,518	0,087	-0,075
-665,262	800,000	-0,018	-0,040
-664,247	-200,000	0,004	-0,031
-663,232	-3,644	-0,140	0,070
-662,218	38,098	0,112	0,072
-661,203	800,000	0,013	0,040
-660,189	405,611	-0,070	0,107
-659,174	148,348	-0,050	-0,048
-658,159	-200,000	-0,012	-0,183
-657,145	163,862	-0,118	-0,120
-656,130	18,720	0,079	0,045
-655,116	529,326	0,035	-0,060
-654,101	-41,267	0,108	0,040
-653,086	-86,481	-0,138	0,030
-652,072	800,000	0,027	-0,080
-651,057	-13,201	-0,104	-0,049
-650,043	-179,654	0,085	0,001
-649,028	73,812	0,017	-0,013
-648,014	605,318	0,049	0,089
-646,999	178,870	0,020	0,021
-645,984	275,635	-0,087	-0,112
-644,970	-179,882	0,124	0,002
-643,955	800,000	0,058	0,140
-642,941	800,000	0,052	-0,112
-641,926	41,952	-0,132	-0,086
-640,911	800,000	-0,021	-0,045
-639,897	-119,626	0,096	-0,012
-638,882	-200,000	0,000	-0,084
-637,868	-200,000	0,013	-0,209
-636,853	-83,914	0,046	-0,010
-635,838	5,691	0,011	0,006
-634,824	763,405	-0,018	-0,036
-633,809	800,000	0,045	-0,104
-632,795	800,000	0,031	0,095
-631,780	8,386	-0,041	-0,022
-630,765	-124,619	-0,083	0,009
-629,751	-200,000	-0,001	0,052
-628,736	-40,397	-0,167	-0,062
-627,722	48,127	-0,051	0,034
-626,707	-200,000	-0,024	0,093
-625,692	-118,434	0,046	0,006
-624,678	800,000	-0,026	0,077
-623,663	31,426	0,071	0,044
-622,649	68,727	-0,131	0,097
-621,634	215,511	-0,071	-0,082
-620,619	-200,000	-0,022	-0,103
-619,605	216,240	0,033	-0,038
-618,590	79,645	0,106	0,082
-617,576	800,000	-0,040	0,112
-616,561	800,000	-0,007	0,015
-615,546	31,705	-0,108	0,067
-614,532	36,252	0,096	-0,061
-613,517	-99,707	-0,076	-0,014
-612,503	87,571	0,100	-0,080
-611,488	103,708	0,058	-0,049
-610,474	-200,000	-0,005	-0,030
-609,459	-168,072	-0,129	-0,004
-608,444	170,698	-0,100	0,103
-607,430	-6,942	-0,113	0,055
-606,415	800,000	-0,038	-0,092
-605,401	300,981	0,052	-0,070
-604,386	-25,368	0,040	-0,017
-603,371	436,574	-0,028	0,044
-602,357	27,804	0,096	0,058
-601,342	-158,745	-0,083	0,003
-600,328	76,634	-0,050	-0,038
-599,313	-200,000	-0,022	-0,104
-598,298	-200,000	0,040	0,169
-597,284	797,784	0,072	0,143
-596,269	3,027	0,112	-0,058
-595,255	109,857	-0,083	0,071
-594,240	800,000	0,047	0,116
-593,225	-26,579	-0,054	0,023
-592,211	199,435	-0,076	-0,084
-591,196	800,000	0,049	0,104
-590,182	30,385	-0,072	-0,044
-589,167	800,000	0,011	-0,029
-588,152	-164,705	-0,083	-0,003
-587,138	-71,085	-0,086	-0,023
-586,123	137,677	-0,099	-0,093
-585,109	-200,000	-0,033	-0,135
-584,094	675,808	-0,059	-0,111
-583,079	-27,655	-0,026	0,011
-582,065	-46,068	0,111	-0,039
-581,050	-200,000	-0,005	0,117
-580,036	-200,000	0,004	-0,117
-579,021	800,000	0,028	0,076
-578,006	-174,155	-0,140	-0,003
-576,992	-148,767	-0,165	0,010
-575,977	800,000	-0,015	0,042
-574,963	-156,906	0,140	0,006
-573,948	-96,878	0,203	-0,038
-572,934	67,898	-0,163	-0,120
-571,919	95,086	0,014	-0,012
-570,904	-33,010	-0,088	-0,035
-569,890	-200,000	-0,003	-0,017
-568,875	-14,575	0,058	0,027
-567,861	-118,765	-0,053	0,007
-566,846	800,000	0,028	-0,087
-565,831	131,536	0,109	-0,101
-564,817	7,207	-0,087	-0,047
-563,802	-200,000	-0,004	-0,152
-562,788	-181,574	-0,046	-0,001
-561,773	357,273	-0,051	0,074
-560,758	-117,057	0,103	0,013
-559,744	-200,000	-0,009	-0,074
-558,729	177,710	0,062	0,066
-557,715	35,827	-0,028	-0,018
-556,700	-77,346	-0,150	-0,037
-555,685	-62,928	-0,059	-0,017
-554,671	-118,051	0,063	0,008
-553,656	-200,000	-0,010	0,084
-552,642	800,000	-0,040	-0,095
-551,627	448,606	0,059	-0,095
-550,612	-6,051	0,053	0,026
-549,598	3,409	-0,090	-0,047
-548,583	-65,261	-0,043	-0,013
-547,569	800,000	0,021	0,044
-546,554	788,153	0,024	0,048
-545,539	-200,000	-0,011	0,053
-544,525	800,000	0,030	0,070
-543,510	-130,648	0,167	0,016
-542,496	-200,000	0,013	-0,075
-541,481	-45,889	-0,149	-0,053
-540,466	800,000	0,016	0,038
-539,452	800,000	0,045	0,094
-538,437	331,783	0,052	0,073
-537,423	10,277	-0,042	0,023
-536,408	-117,351	-0,155	-0,020
-535,393	800,000	-0,032	-0,091
-534,379	111,455	0,120	-0,104
-533,364	-200,000	-0,009	0,133
-532,350	-46,391	-0,044	-0,016
-531,335	474,128	-0,025	-0,041
-530,321	33,370	0,056	-0,035
-529,306	38,522	-0,055	-0,035
-528,291	75,758	-0,078	-0,059
-527,277	369,274	-0,074	-0,108
-526,262	135,674	0,102	-0,095
-525,248	-44,586	0,067	-0,024
-524,233	-117,120	0,120	0,016
-523,218	10,809	0,084	-0,046
-522,204	22,834	-0,092	0,054
-521,189	135,409	-0,021	-0,020
-520,175	-74,467	0,094	-0,024
-519,160	34,938	-0,104	0,065
-518,145	206,275	0,019	0,022
-517,131	511,261	-0,090	0,151
-516,116	98,322	0,017	-0,014
-515,102	57,368	-0,063	-0,044
-514,087	-48,574	-0,097	-0,033
-513,072	788,602	-0,026	-0,052
-512,058	-1,231	-0,043	0,022
-511,043	-200,000	0,011	0,091
-510,029	-200,000	0,028	0,129
-509,014	-89,192	0,087	0,018
-507,999	287,095	0,068	-0,088
-506,985	-53,047	-0,085	-0,028
-505,970	-139,342	-0,139	-0,011
-504,956	-14,329	-0,146	0,067
-503,941	165,754	0,038	-0,039
-502,926	-128,647	-0,052	0,005
-501,912	70,061	-0,076	0,056
-500,897	-116,517	-0,038	-0,005
-499,883	800,000	-0,027	0,056
-498,868	-117,655	-0,098	-0,013
-497,853	-200,000	0,020	0,107
-496,839	-39,001	0,066	-0,025
-495,824	-4,306	0,069	-0,034
-494,810	133,051	0,049	0,045
-493,795	-200,000	0,012	-0,043
-492,781	-141,461	0,091	-0,007
-491,766	800,000	-0,039	-0,093
-490,751	72,190	-0,005	0,004
-489,737	-162,451	-0,089	-0,003
-488,722	86,107	-0,008	0,006
-487,708	695,139	0,069	0,131
-486,693	-100,499	0,083	-0,015
-485,678	-200,000	0,036	-0,135
-484,664	800,000	0,095	-0,213
-483,649	-114,046	0,066	-0,009
-482,635	17,881	-0,074	-0,042
-481,620	358,827	0,008	0,011
-480,605	-153,511	0,147	-0,007
-479,591	-200,000	0,003	0,060
-478,576	-83,187	-0,061	0,014
-477,562	-128,670	-0,086	0,009
-476,547	374,731	-0,081	-0,119
-475,532	-200,000	-0,013	-0,126
-474,518	-200,000	0,009	0,051
-473,503	-35,332	0,028	-0,011
-472,489	180,356	-0,080	0,084
-471,474	800,000	-0,024	-0,050
-470,459	-200,000	-0,099	0,000
-469,445	-200,000	-0,023	-0,190
-468,430	-88,909	-0,171	-0,036
-467,416	800,000	0,008	0,021
-466,401	315,009	0,018	0,025
-465,386	-184,836	-0,011	0,000
-464,372	7,282	0,112	0,060
-463,357	-200,000	-0,017	0,059
-462,343	207,311	0,085	-0,095
-461,328	260,913	0,071	-0,089
-460,313	360,256	-0,088	0,127
-459,299	797,089	-0,054	0,106
-458,284	-42,739	-0,058	0,021
-457,270	77,273	-0,097	-0,074
-456,255	-27,036	-0,027	-0,011
-455,241	-126,728	-0,087	0,009
-454,226	-83,225	-0,030	-0,007
-453,211	288,326	0,046	-0,059
-452,197	-33,057	0,051	0,020
-451,182	-200,000	-0,008	0,050
-450,168	800,000	0,008	0,024
-449,153	127,501	0,077	0,070
-448,138	212,644	-0,060	0,068
-447,124	-2,890	0,144	-0,072
-446,109	322,591	0,051	-0,070
-445,095	-130,322	0,150	0,014
-444,080	800,000	0,047	0,119
-443,065	335,651	0,045	0,063
-442,051	-138,270	0,172	0,013
-441,036	-200,000	-0,023	0,081
-440,022	740,720	-0,020	-0,038
-439,007	-134,526	-0,139	0,012
-437,992	363,370	0,078	0,113
-436,978	-74,098	0,184	0,047
-435,963	-200,000	0,015	0,121
-434,949	1,541	-0,072	0,037
-433,934	81,566	-0,052	-0,040
-432,919	800,000	0,051	-0,146
-431,905	-200,000	0,014	-0,076
-430,890	-58,043	-0,079	-0,025
-429,876	-200,000	-0,033	0,122
-428,861	-200,000	-0,021	0,114
-427,846	-200,000	-0,017	0,085
-426,832	-200,000	-0,010	-0,126
-425,817	184,529	-0,026	0,027
-424,803	800,000	-0,068	0,206
-423,788	-49,572	0,093	-0,032
-422,773	-113,849	-0,049	-0,007
-421,759	25,066	-0,099	-0,059
-420,744	708,062	0,038	0,071
-419,730	800,000	0,017	0,045
-418,715	348,339	-0,092	0,131
-417,701	207,836	0,048	-0,053
-416,686	50,812	-0,074	-0,050
-415,671	50,648	-0,084	0,057
-414,657	-200,000	-0,005	0,098
-413,642	81,292	-0,057	-0,044
-412,628	800,000	0,082	0,177
-411,613	108,365	0,026	-0,022
-410,598	241,953	0,127	-0,152
-409,584	-52,707	0,050	-0,016
-408,569	570,911	0,044	0,076
-407,555	-200,000	-0,004	0,061
-406,540	579,878	0,050	0,088
-405,525	-120,273	-0,136	-0,016
-404,511	-57,194	0,032	-0,010
-403,496	800,000	-0,042	0,084
-402,482	-137,790	-0,142	-0,011
-401,467	132,773	0,070	0,065
-400,452	428,289	0,047	0,072
-399,438	32,940	-0,035	-0,022
-398,423	-19,455	0,020	0,009
-397,409	-200,000	0,006	-0,024
-396,394	192,666	-0,097	-0,105
-395,379	2,620	0,104	-0,054
-394,365	115,945	-0,010	-0,009
-393,350	312,923	0,035	0,048
-392,336	-177,027	0,110	-0,002
-391,321	132,820	0,089	-0,082
-390,306	88,311	0,075	0,059
-389,292	-200,000	-0,033	0,167
-388,277	-200,000	-0,002	-0,071
-387,263	254,434	0,059	0,072
-386,248	-13,642	-0,096	-0,044
-385,233	-1,555	0,063	0,032
-384,219	-96,079	-0,134	0,025
-383,204	-200,000	-0,017	-0,093
-382,190	-77,979	-0,030	0,007
-381,175	16,540	0,058	-0,033
-380,160	-67,815	-0,066	-0,018
-379,146	36,782	0,100	0,063
-378,131	800,000	-0,045	0,113
-377,117	-129,887	0,065	0,006
-376,102	666,771	0,034	0,063
-375,088	570,018	-0,083	-0,145
-374,073	-200,000	0,004	-0,098
-373,058	294,050	0,040	-0,053
-372,044	595,137	0,042	0,074
-371,029	800,000	0,048	0,099
-370,015	418,657	0,048	0,074
-369,000	23,229	-0,162	-0,095
-367,985	267,536	0,081	-0,101
-366,971	9,560	0,189	-0,102
-365,956	106,330	0,033	-0,028
-364,942	-200,000	0,047	0,156
-363,927	-48,796	0,009	-0,003
-362,912	-44,006	-0,105	0,038
-361,898	-200,000	-0,040	-0,202
-360,883	52,517	-0,158	-0,108
-359,869	608,271	0,028	-0,049
-358,854	-104,961	-0,070	-0,011
-357,839	-144,435	0,086	0,006
-356,825	-124,435	0,107	0,012
-355,810	328,052	0,048	-0,066
-354,796	84,772	-0,122	-0,095
-353,781	-75,356	-0,172	0,044
-352,766	24,806	-0,036	-0,021
-351,752	640,993	-0,020	0,036
-350,737	-56,833	0,141	0,044
-349,723	298,828	0,086	0,114
-348,708	161,423	0,075	-0,075
-347,693	11,770	0,096	0,053
-346,679	71,430	-0,039	-0,029
-345,664	319,416	0,033	0,045
-344,650	31,626	0,039	-0,024
-343,635	357,499	0,012	0,017
-342,620	-42,248	0,066	0,024
-341,606	-96,021	0,096	-0,018
-340,591	-26,802	-0,100	-0,042
-339,577	-6,435	0,098	-0,047
-338,562	-200,000	0,010	0,053
-337,548	-156,598	0,064	-0,003
-336,533	683,118	-0,032	0,060
-335,518	-200,000	-0,018	0,058
-334,504	-200,000	-0,002	-0,014
-333,489	-200,000	0,012	-0,102
-332,475	-43,347	-0,074	-0,026
-331,460	-200,000	0,022	0,072
-330,445	-53,946	0,066	0,021
-329,431	-47,026	0,112	-0,039
-328,416	99,026	0,061	0,050
-327,402	-171,786	-0,061	-0,001
-326,387	-161,742	-0,069	-0,002
-325,372	-200,000	-0,005	-0,055
-324,358	-200,000	-0,012	-0,050
-323,343	286,334	0,044	0,056
-322,329	32,845	0,088	0,054
-321,314	-26,391	0,088	-0,037
-320,299	-47,318	0,132	0,046
-319,285	733,043	0,049	-0,095
-318,270	-87,429	-0,138	0,030
-317,256	64,344	-0,047	-0,034
-316,241	-29,800	-0,062	0,025
-315,226	-200,000	0,009	0,061
-314,212	543,647	-0,067	0,115
-313,197	216,283	0,105	0,120
-312,183	62,181	0,139	0,099
-311,168	-200,000	0,011	0,070
-310,153	800,000	-0,065	-0,148
-309,139	34,204	0,093	0,058
-308,124	-50,445	-0,067	-0,022
-307,110	-32,621	-0,082	-0,032
-306,095	336,422	0,070	0,097
-305,080	212,726	0,014	-0,016
-304,066	-148,373	0,098	0,006
-303,051	800,000	0,031	-0,090
-302,037	-200,000	0,014	-0,113
-301,022	-101,057	0,090	0,016
-300,008	-200,000	-0,002	-0,089
-298,993	-81,376	0,117	0,027
-297,978	43,195	0,016	-0,010
-296,964	-22,629	-0,024	0,010
-295,949	-71,744	-0,124	-0,033
-294,935	-200,000	-0,003	0,050
-293,920	-2,061	-0,003	-0,001
-292,905	83,037	-0,035	-0,027
-291,891	194,377	-0,036	0,039
-290,876	133,025	-0,020	-0,018
-289,862	800,000	0,005	-0,012
-288,847	-200,000	-0,018	-0,072
-287,832	800,000	-0,056	0,128
-286,818	-78,482	0,045	-0,011
-285,803	800,000	-0,018	0,049
-284,789	345,770	0,089	0,125
-283,774	800,000	0,029	0,067
-282,759	291,804	0,097	-0,125
-281,745	-44,860	-0,086	-0,030
-280,730	88,410	-0,045	-0,035
-279,716	516,243	0,108	0,181
-278,701	127,921	0,098	0,089
-277,686	266,923	-0,084	0,104
-276,672	-200,000	-0,018	0,100
-275,657	283,288	0,048	0,061
-274,643	644,445	-0,017	-0,030
-273,628	277,746	-0,060	-0,076
-272,613	-200,000	0,033	-0,141
-271,599	800,000	0,017	0,040
-270,584	-200,000	0,003	0,082
-269,570	800,000	0,028	-0,067
-268,555	250,147	-0,045	-0,055
-267,540	18,256	-0,071	0,040
-266,526	-79,215	-0,112	-0,027
-265,511	800,000	-0,047	0,093
-264,497	-200,000	-0,018	0,084
-263,482	-200,000	0,035	0,124
-262,467	90,881	0,031	-0,025
-261,453	-62,983	0,061	-0,018
-260,438	29,141	-0,098	0,059
-259,424	13,393	-0,088	0,049
-258,409	293,830	-0,045	-0,058
-257,395	-126,074	0,066	-0,007
-256,380	-200,000	0,001	-0,107
-255,365	214,368	-0,048	0,054
-254,351	151,157	-0,029	0,028
-253,336	-6,730	0,097	-0,047
-252,322	-200,000	0,002	-0,030
-251,307	800,000	-0,034	0,078
-250,292	262,617	0,045	0,055
-249,278	305,079	-0,044	0,059
-248,263	87,279	-0,017	-0,014
-247,249	338,939	-0,053	-0,073
-246,234	-196,576	-0,044	-0,000
-245,219	169,886	-0,104	-0,106
-244,205	429,131	0,035	-0,054
-243,190	-195,483	-0,035	-0,000
-242,176	63,530	0,015	-0,011
-241,161	800,000	-0,032	0,095
-240,146	468,083	0,015	-0,025
-239,132	298,104	-0,045	-0,059
-238,117	54,867	-0,082	-0,056
-237,103	-200,000	0,029	-0,161
-236,088	287,585	-0,049	0,063
-235,073	-72,473	0,074	-0,019
-234,059	395,037	0,085	0,126
-233,044	-2,293	0,177	-0,088
-232,030	-200,000	-0,005	-0,129
-231,015	25,350	-0,065	0,038
-230,000	-39,199	0,154	-0,057
-228,986	102,268	0,048	-0,040
-227,971	-195,495	0,067	0,000
-226,957	800,000	0,047	-0,122
-225,942	-65,012	0,105	0,030
-224,927	0,343	0,015	-0,007
-223,913	800,000	-0,022	0,060
-222,898	706,803	-0,018	-0,034
-221,884	-200,000	-0,037	-0,172
-220,869	146,697	-0,041	-0,039
-219,855	-151,452	-0,054	0,003
-218,840	-200,000	0,028	0,139
-217,825	-64,124	-0,041	0,012
-216,811	96,908	0,098	-0,080
-215,796	-200,000	0,043	-0,151
-214,782	-113,554	-0,140	-0,019
-213,767	-200,000	-0,002	0,050
-212,752	395,447	0,030	0,045
-211,738	62,834	0,153	0,109
-210,723	65,387	0,097	-0,069
-209,709	-13,604	-0,106	-0,048
-208,694	28,329	0,063	0,038
-207,679	21,954	-0,206	0,119
-206,665	12,109	0,098	-0,053
-205,650	-200,000	-0,020	0,152
-204,636	145,561	0,088	0,084
-203,621	201,601	0,066	-0,072
-202,606	174,541	-0,092	0,094
-201,592	211,069	-0,107	0,120
-200,577	-75,659	0,057	0,014
-199,563	-200,000	0,019	0,098
-198,548	-71,561	0,245	-0,065
-197,533	142,252	0,096	-0,090
-196,519	-31,658	0,050	0,020
-195,504	-200,000	0,004	0,030
-194,490	-133,470	0,035	-0,003
-193,475	-37,233	-0,092	-0,035
-192,460	-200,000	-0,003	0,015
-191,446	-76,390	-0,050	0,012
-190,431	-32,396	0,049	-0,019
-189,417	-90,756	0,027	-0,005
-188,402	216,375	-0,092	-0,104
-187,387	-200,000	0,011	-0,103
-186,373	-169,058	-0,111	-0,003
-185,358	335,920	-0,059	0,082
-184,344	6,807	0,037	-0,020
-183,329	530,010	0,049	-0,082
-182,315	270,835	0,083	0,103
-181,300	800,000	-0,013	-0,025
-180,285	53,418	-0,125	-0,085
-179,271	-151,438	-0,065	0,003
-178,256	-38,665	-0,029	-0,011
-177,242	-200,000	-0,005	0,037
-176,227	-200,000	0,011	0,117
-175,212	-200,000	0,005	-0,030
-174,198	-105,099	-0,164	0,026
-173,183	-140,377	-0,093	0,007
-172,169	584,665	-0,026	-0,045
-171,154	190,079	-0,034	0,036
-170,139	188,857	0,063	0,067
-169,125	-200,000	0,005	0,066
-168,110	-49,387	0,109	0,037
-167,096	-5,837	0,030	-0,014
-166,081	-200,000	0,009	-0,074
-165,066	-200,000	0,001	-0,104
-164,052	275,680	-0,022	-0,028
-163,037	101,915	-0,076	-0,063
-162,023	345,501	0,019	-0,027
-161,008	800,000	-0,023	-0,060
-159,993	1,566	0,031	0,016
-158,979	-200,000	0,002	0,134
-157,964	-200,000	-0,033	-0,120
-156,950	607,186	0,020	-0,035
-155,935	226,069	0,053	0,061
-154,920	-30,151	0,076	0,031
-153,906	-36,768	-0,015	-0,006
-152,891	-14,910	-0,049	0,022
-151,877	-28,901	0,094	0,038
-150,862	-32,120	-0,154	-0,061
-149,847	-16,330	0,096	0,043
-148,833	275,053	0,083	-0,104
-147,818	-130,259	0,029	0,003
-146,804	-62,143	0,089	0,026
-145,789	748,854	-0,070	0,135
-144,775	507,294	0,033	-0,054
-143,760	800,000	-0,041	0,113
-142,745	59,021	-0,099	-0,069
-141,731	117,169	0,114	0,099
-140,716	800,000	-0,038	-0,079
-139,702	-200,000	-0,019	0,082
-138,687	528,743	-0,060	0,101
-137,672	35,497	0,082	-0,051
-136,658	90,638	-0,025	-0,020
-135,643	135,840	0,080	-0,074
-134,629	-13,640	-0,021	-0,009
-133,614	222,475	0,102	0,117
-132,599	35,813	0,029	0,018
-131,585	786,566	-0,016	-0,031
-130,570	-82,924	0,044	-0,010
-129,556	141,710	-0,060	0,056
-128,541	-200,000	-0,007	-0,026
-127,526	355,157	0,054	-0,076
-126,512	-0,581	-0,027	-0,013
-125,497	-104,234	0,073	-0,012
-124,483	-23,885	0,093	-0,039
-123,468	-170,673	0,096	0,002
-122,453	-42,474	-0,133	0,048
-121,439	-101,312	-0,056	0,010
-120,424	800,000	-0,015	0,037
-119,410	392,715	-0,051	-0,075
-118,395	-200,000	0,035	0,132
-117,380	-200,000	-0,010	0,069
-116,366	322,548	-0,029	0,039
-115,351	194,374	-0,115	0,123
-114,337	-200,000	-0,033	0,123
-113,322	800,000	0,033	-0,074
-112,307	763,635	0,037	-0,071
-111,293	800,000	0,024	-0,060
-110,278	-200,000	-0,004	0,079
-109,264	74,861	-0,133	0,099
-108,249	-200,000	0,029	0,273
-107,234	-64,239	-0,064	0,018
-106,220	101,364	0,050	-0,041
-105,205	330,111	0,068	-0,093
-104,191	134,100	-0,089	0,081
-103,176	-200,000	0,019	0,128
-102,162	-200,000	-0,001	-0,060
-101,147	482,253	-0,004	0,006
-100,132	800,000	0,034	-0,092
-99,118	311,577	-0,057	-0,076
-98,103	-200,000	0,012	-0,070
-97,089	-200,000	-0,011	-0,044
-96,074	-200,000	0,024	0,076
-95,059	261,463	0,065	-0,079
-94,045	800,000	-0,025	0,070
-93,030	-20,019	-0,174	-0,076
-92,016	158,464	-0,027	-0,027
-91,001	-167,543	-0,077	-0,002
-89,986	-46,298	0,066	-0,023
-88,972	-200,000	-0,001	0,107
-87,957	800,000	0,066	0,174
-86,943	-200,000	0,011	0,063
-85,928	111,876	-0,112	-0,095
-84,913	442,602	0,030	-0,047
-83,899	-200,000	-0,003	-0,040
-82,884	-27,978	0,087	-0,035
-81,870	-130,735	0,016	0,002
-80,855	-200,000	-0,017	-0,063
-79,840	-200,000	-0,025	-0,081
-78,826	-200,000	-0,008	0,048
-77,811	281,949	-0,026	-0,033
-76,797	-70,343	0,133	-0,035
-75,782	523,534	-0,078	-0,130
-74,767	24,688	-0,074	0,043
-73,753	87,007	-0,071	-0,055
-72,738	-102,596	-0,074	0,012
-71,724	-50,163	-0,082	-0,027
-70,709	800,000	-0,033	-0,080
-69,694	-14,644	-0,050	0,023
-68,680	-97,114	-0,075	-0,014
-67,665	332,570	0,046	-0,063
-66,651	-127,746	0,060	0,006
-65,636	-200,000	0,023	0,105
-64,622	-102,022	-0,075	-0,013
-63,607	-200,000	-0,021	-0,085
-62,592	18,497	-0,132	0,074
-61,578	168,316	-0,057	-0,058
-60,563	339,749	-0,010	0,013
-59,549	330,207	-0,097	0,132
-58,534	28,009	-1,917	-1,140
-57,519	480,096	-1,238	-1,989
-56,505	-200,000	-0,259	-4,594
-55,490	462,528	0,847	1,340
-54,476	800,000	5,017	11,259
-53,461	-200,000	20,533	327,563
-52,446	800,000	753,916	2315,625
-51,432	551,229	1659,147	2822,903
-50,417	73,874	1663,889	1230,750
-49,403	19,121	1537,230	868,427
-48,388	13,170	1459,824	795,901
-47,373	18,889	1450,582	818,301
-46,359	16,086	1439,855	798,873
-45,344	11,457	1435,570	774,418
-44,330	11,414	1433,593	773,116
-43,315	11,361	1431,727	771,828
-42,300	11,349	1430,182	770,903
-41,286	11,343	1428,941	770,176
-40,271	11,300	1427,769	769,309
-39,257	11,327	1426,423	768,684
-38,242	11,390	1425,111	768,242
-37,227	11,290	1424,350	767,328
-36,213	11,358	1422,919	766,851
-35,198	11,374	1421,612	766,189
-34,184	11,403	1420,959	765,946
-33,169	11,334	1419,542	764,828
-32,154	11,422	1418,275	764,525
-31,140	11,433	1416,969	763,844
-30,125	11,471	1416,087	763,517
-29,111	11,386	1415,013	762,507
-28,096	11,405	1413,905	761,971
-27,082	11,357	1412,837	761,140
-26,067	11,288	1411,706	760,176
-25,052	11,352	1410,420	759,755
-24,038	11,300	1409,574	759,026
-23,023	11,294	1408,663	758,475
-22,009	11,349	1407,415	758,033
-20,994	11,302	1406,402	757,236
-19,979	11,260	1405,919	756,750
-18,965	11,290	1404,751	756,230
-17,950	11,297	1403,761	755,700
-16,936	11,260	1403,004	755,090
-15,921	11,220	1401,869	754,262
-14,906	11,241	1401,063	753,896
-13,892	11,259	1400,046	753,403
-12,877	11,229	1399,229	752,794
-11,863	11,223	1398,307	752,239
-10,848	11,172	1397,632	751,613
-9,833	11,253	1396,587	751,395
-8,819	11,142	1395,953	750,512
-7,804	11,148	1394,799	749,888
-6,790	11,169	1393,905	749,471
-5,775	11,127	1393,005	748,767
-4,760	11,133	1391,904	748,174
-3,746	11,155	1391,010	747,764
-2,731	11,166	1390,055	747,271
-1,717	11,097	1389,339	746,539
-0,702	11,125	1387,377	745,585
0,313	15,167	1301,690	718,056
1,327	31,402	694,059	419,848
2,342	48,626	120,490	79,563
3,356	0,005	16,378	8,205
4,371	8,723	3,408	1,806
5,386	43,205	0,750	0,482
6,400	-200,000	0,111	0,385
7,415	17,506	-0,232	-0,130
8,429	-145,529	-0,294	-0,018
9,444	83,909	-0,271	-0,209
10,459	-12,628	-0,336	-0,154
11,473	-19,369	-0,337	-0,147
12,488	125,226	-0,181	-0,161
13,502	-118,965	-0,542	-0,066
14,517	98,056	-0,372	-0,302
15,531	395,043	-0,329	-0,486
16,546	149,843	-0,247	-0,236
17,561	730,520	-0,201	-0,380
18,575	-165,005	-0,293	0,009
19,590	13,771	-0,220	-0,120
20,604	112,686	-0,305	-0,260
21,619	134,617	-0,369	-0,338
22,634	-16,917	-0,384	-0,170
23,648	286,593	-0,395	-0,504
24,663	215,609	-0,261	-0,292
25,677	82,285	-0,291	-0,222
26,692	128,875	-0,261	-0,235
27,707	89,406	-0,414	-0,325
28,721	-14,747	-0,429	-0,193
29,736	205,546	-0,366	-0,401
30,750	124,570	-0,377	-0,334
31,765	-34,175	-0,494	-0,190
32,780	7,433	-0,422	-0,221
33,794	99,956	-0,390	-0,318
34,809	58,964	-0,350	-0,242
35,823	-4,716	-0,333	-0,161
36,838	36,755	-0,454	-0,282
37,853	141,291	-0,426	-0,397
38,867	80,532	-0,416	-0,315
39,882	264,187	-0,325	-0,399
40,896	-21,386	-0,412	-0,176
41,911	129,274	-0,288	-0,258
42,926	297,523	-0,322	-0,417
43,940	29,134	-0,510	-0,304
44,955	563,200	-0,265	-0,452
45,969	342,771	-0,260	-0,358
46,984	40,855	-0,356	-0,225
47,999	119,284	-0,222	-0,193
49,013	166,040	-0,319	-0,317
50,028	43,979	-0,320	-0,206
51,042	16,510	-0,364	-0,202
52,057	145,697	-0,408	-0,384
53,071	95,924	-0,350	-0,281
54,086	99,492	-0,305	-0,248
55,101	11,580	-0,297	-0,159
56,115	40,407	-0,266	-0,168
57,130	-4,328	-0,370	-0,179
58,144	76,459	-0,286	-0,213
59,159	208,001	-0,317	-0,348
60,174	278,555	-0,294	-0,369
61,188	10,521	-0,345	-0,184
62,203	-78,779	-0,430	-0,102
63,217	-3,268	-0,285	-0,139
64,232	-23,625	-0,287	-0,120
65,247	-106,497	-0,403	-0,062
66,261	85,702	-0,415	-0,320
67,276	-22,439	-0,356	-0,150
68,290	-8,142	-0,349	-0,164
69,305	-26,505	-0,269	-0,110
70,320	236,713	-0,215	-0,250
71,334	73,657	-0,383	-0,281
72,349	40,764	-0,335	-0,211
73,363	216,820	-0,263	-0,294
74,378	190,541	-0,310	-0,327
75,393	131,628	-0,224	-0,202
76,407	12,060	-0,305	-0,164
77,422	217,060	-0,154	-0,172
78,436	69,339	-0,210	-0,152
79,451	57,833	-0,310	-0,212
80,466	1,778	-0,389	-0,196
81,480	49,404	-0,327	-0,215
82,495	-47,366	-0,310	-0,105
83,509	220,325	-0,272	-0,306
84,524	-55,361	-0,238	-0,074
85,539	-46,844	-0,368	-0,125
86,553	64,704	-0,278	-0,196
87,568	-78,576	-0,224	-0,053
88,582	61,049	-0,342	-0,237
89,597	14,603	-0,255	-0,139
90,611	47,062	-0,215	-0,140
91,626	376,650	-0,221	-0,317
92,641	46,973	-0,284	-0,185
93,655	98,253	-0,269	-0,217
94,670	111,761	-0,347	-0,293
95,684	81,349	-0,330	-0,249
96,699	-75,350	-0,294	-0,073
97,714	113,752	-0,231	-0,196
98,728	-39,879	-0,233	-0,085
99,743	-132,797	-0,289	-0,025
100,757	-60,360	-0,312	-0,092
101,772	81,133	-0,353	-0,266
102,787	210,274	-0,222	-0,244
103,801	11,940	-0,253	-0,136
104,816	256,508	-0,204	-0,246
105,830	185,944	-0,133	-0,138
106,845	-29,447	-0,256	-0,102
107,860	-72,979	-0,286	-0,073
108,874	-2,129	-0,304	-0,149
109,889	308,248	-0,210	-0,275
110,903	432,165	-0,230	-0,350
111,918	214,141	-0,245	-0,271
112,933	65,687	-0,229	-0,162
113,947	240,456	-0,285	-0,332
114,962	240,376	-0,146	-0,170
115,976	-110,635	-0,247	0,035
116,991	163,223	-0,318	-0,313
118,006	118,175	-0,201	-0,173
119,020	65,326	-0,316	-0,223
120,035	-76,503	-0,293	-0,071
121,049	593,035	-0,114	-0,197
122,064	104,968	-0,211	-0,174
123,079	-19,178	-0,213	-0,092
124,093	7,563	-0,326	-0,170
125,108	115,710	-0,331	-0,283
126,122	96,124	-0,167	-0,133
127,137	-13,372	-0,259	-0,117
128,151	-54,354	-0,389	-0,122
129,166	78,036	-0,203	-0,151
130,181	87,096	-0,226	-0,174
131,195	93,480	-0,279	-0,220
132,210	403,152	-0,193	-0,284
133,224	30,691	-0,255	-0,152
134,239	191,976	-0,226	-0,238
135,254	756,341	-0,108	-0,205
136,268	217,791	-0,162	-0,181
137,283	-121,202	-0,227	-0,026
138,297	-171,085	-0,297	-0,007
139,312	19,036	-0,297	-0,166
140,327	-19,709	-0,182	-0,078
141,341	38,077	-0,384	-0,237
142,356	13,917	-0,246	-0,133
143,370	-53,043	-0,316	-0,101
144,385	89,679	-0,274	-0,213
145,400	77,061	-0,272	-0,201
146,414	75,055	-0,236	-0,173
147,429	71,175	-0,274	-0,198
148,443	-83,268	-0,371	-0,082
149,458	90,841	-0,166	-0,129
150,473	800,000	-0,042	-0,101
151,487	7,923	-0,130	-0,068
152,502	100,595	-0,239	-0,193
153,516	151,416	-0,216	-0,205
154,531	-130,800	-0,260	-0,024
155,546	-54,225	-0,145	-0,046
156,560	-73,829	-0,260	-0,065
157,575	87,299	-0,151	-0,116
158,589	0,703	-0,221	-0,110
159,604	304,959	-0,187	-0,242
160,619	94,146	-0,248	-0,196
161,633	71,551	-0,213	-0,153
162,648	-140,341	-0,322	-0,023
163,662	-12,616	-0,240	-0,109
164,677	18,442	-0,238	-0,132
165,692	-30,023	-0,202	-0,080
166,706	65,807	-0,290	-0,204
167,721	237,518	-0,203	-0,235
168,735	121,474	-0,187	-0,162
169,750	289,194	-0,224	-0,283
170,764	26,599	-0,231	-0,134
171,779	60,649	-0,189	-0,130
172,794	98,005	-0,201	-0,161
173,808	30,499	-0,195	-0,116
174,823	243,274	-0,167	-0,195
175,837	75,969	-0,248	-0,182
176,852	132,588	-0,190	-0,171
177,867	61,704	-0,138	-0,096
178,881	171,396	-0,213	-0,213
179,896	3,479	-0,239	-0,120
180,910	34,230	-0,214	-0,129
181,925	68,489	-0,327	-0,233
182,940	67,134	-0,297	-0,210
183,954	84,632	-0,179	-0,136
184,969	82,794	-0,225	-0,170
185,983	-9,725	-0,314	-0,145
186,998	1,593	-0,110	-0,055
188,013	-20,487	-0,261	-0,111
189,027	137,204	-0,179	-0,162
190,042	109,715	-0,236	-0,197
191,056	25,201	-0,165	-0,095
192,071	190,106	-0,177	-0,184
193,086	168,467	-0,127	-0,126
194,100	18,640	-0,138	-0,076
195,115	457,154	-0,195	-0,302
196,129	275,370	-0,153	-0,189
197,144	117,320	-0,241	-0,205
198,159	-12,626	-0,204	-0,092
199,173	29,907	-0,111	-0,065
200,188	-15,473	-0,157	-0,069
201,202	-200,000	-0,021	-0,107
202,217	203,958	-0,168	-0,180
203,232	-17,561	-0,267	-0,116
204,246	76,527	-0,259	-0,190
205,261	138,140	-0,231	-0,210
206,275	182,853	-0,277	-0,283
207,290	290,360	-0,140	-0,176
208,304	-6,134	-0,284	-0,134
209,319	217,117	-0,072	-0,079
210,334	-19,897	-0,213	-0,091
211,348	71,372	-0,170	-0,122
212,363	6,809	-0,166	-0,086
213,377	121,235	-0,210	-0,181
214,392	-54,789	-0,224	-0,070
215,407	351,574	-0,129	-0,178
216,421	175,207	-0,122	-0,123
217,436	19,483	-0,212	-0,117
218,450	-51,215	-0,293	-0,094
219,465	67,802	-0,220	-0,155
220,480	471,667	-0,142	-0,222
221,494	-72,744	-0,151	0,038
222,509	87,635	-0,140	-0,107
223,523	-68,405	-0,192	-0,051
224,538	-70,013	-0,065	-0,017
225,553	135,602	-0,237	-0,214
226,567	135,123	-0,195	-0,175
227,582	142,341	-0,195	-0,179
228,596	312,406	-0,160	-0,209
229,611	649,916	-0,106	-0,189
230,626	44,641	-0,171	-0,109
231,640	334,186	-0,235	-0,316
232,655	378,825	-0,157	-0,223
233,669	63,313	-0,366	-0,253
234,684	418,148	-0,141	-0,209
235,699	-189,420	-0,174	-0,001
236,713	-2,600	-0,202	-0,098
237,728	-139,224	-0,196	0,014
238,742	800,000	-0,090	-0,206
239,757	276,438	-0,296	-0,364
240,772	356,451	-0,181	-0,250
241,786	800,000	-0,073	-0,153
242,801	-57,111	-0,093	0,028
243,815	-22,096	-0,052	-0,022
244,830	-37,285	-0,072	-0,027
245,844	-39,308	-0,119	-0,043
246,859	-33,732	-0,212	-0,080
247,874	-72,945	-0,206	-0,052
248,888	28,854	-0,210	-0,123
249,903	-150,982	-0,188	0,010
250,917	111,377	-0,215	-0,179
251,932	-31,708	-0,091	0,035
252,947	92,577	-0,134	-0,104
253,961	-66,543	-0,208	-0,057
254,976	97,550	-0,261	-0,207
255,990	-105,338	-0,077	-0,012
257,005	386,904	-0,111	-0,159
258,020	39,019	-0,220	-0,135
259,034	39,723	-0,120	0,074
260,049	116,491	-0,169	-0,143
261,063	-51,360	-0,260	-0,083
262,078	390,305	-0,075	-0,108
263,093	230,961	-0,250	-0,283
264,107	-70,447	-0,098	-0,025
265,122	230,888	-0,117	-0,132
266,136	-100,056	-0,158	-0,027
267,151	21,457	-0,122	-0,068
268,166	-106,206	-0,125	-0,019
269,180	-14,534	-0,174	-0,077
270,195	109,311	-0,175	-0,144
271,209	418,115	-0,191	-0,282
272,224	-84,479	-0,305	-0,066
273,239	-63,039	-0,151	-0,043
274,253	-15,355	-0,166	-0,073
275,268	-21,409	-0,158	-0,066
276,282	-67,009	-0,218	-0,059
277,297	383,012	-0,176	-0,250
278,312	311,714	-0,130	-0,168
279,326	118,356	-0,171	-0,146
280,341	16,521	-0,190	-0,103
281,355	92,012	-0,189	-0,146
282,370	-60,344	-0,172	-0,050
283,384	195,212	-0,212	-0,222
284,399	671,660	-0,126	-0,226
285,414	800,000	-0,072	-0,144
286,428	244,182	-0,156	-0,181
287,443	-88,195	-0,203	-0,041
288,457	359,001	-0,057	-0,078
289,472	183,752	-0,159	-0,162
290,487	444,574	-0,121	-0,184
291,501	-86,866	-0,077	0,016
292,516	2,799	-0,113	-0,056
293,530	-48,925	-0,107	-0,035
294,545	21,449	-0,086	-0,048
295,560	-52,282	-0,209	-0,066
296,574	-3,616	-0,233	-0,111
297,589	78,956	-0,183	-0,134
298,603	-46,114	-0,144	-0,049
299,618	114,444	-0,178	-0,149
300,633	293,038	-0,080	0,100
301,647	-143,960	-0,268	-0,017
302,662	160,239	-0,211	-0,203
303,676	159,039	-0,120	-0,115
304,691	-88,928	-0,239	-0,048
305,706	232,971	-0,163	-0,184
306,720	-11,408	-0,205	-0,092
307,735	-11,923	-0,096	0,043
308,749	78,267	-0,069	-0,051
309,764	27,752	-0,151	-0,087
310,779	37,339	-0,136	-0,083
311,793	107,155	-0,171	-0,140
312,808	800,000	-0,133	-0,262
313,822	295,677	-0,065	-0,082
314,837	79,691	-0,153	-0,113
315,852	-200,000	-0,051	-0,170
316,866	-200,000	-0,018	0,103
317,881	271,645	-0,051	-0,061
318,895	800,000	-0,070	-0,154
319,910	800,000	-0,063	-0,122
320,925	327,711	-0,116	-0,153
321,939	66,045	-0,091	-0,063
322,954	331,071	-0,125	-0,166
323,968	79,870	-0,112	-0,083
324,983	-51,791	-0,237	-0,075
325,997	-11,478	-0,182	-0,082
327,012	615,362	-0,074	-0,128
328,027	296,942	-0,208	-0,262
329,041	-176,497	-0,254	-0,004
330,056	126,689	-0,091	-0,079
331,070	245,300	-0,061	-0,070
332,085	-158,687	-0,162	-0,006
333,100	7,058	-0,207	0,105
334,114	-49,797	-0,196	-0,063
335,129	79,688	-0,138	-0,101
336,143	98,865	-0,151	-0,120
337,158	-200,000	-0,024	-0,099
338,173	800,000	-0,064	-0,187
339,187	51,196	-0,120	0,078
340,202	273,227	-0,107	-0,130
341,216	106,254	-0,211	-0,171
342,231	697,375	-0,177	-0,320
343,246	124,066	-0,150	-0,129
344,260	234,844	-0,093	-0,105
345,275	800,000	-0,012	0,036
346,289	-140,083	-0,091	-0,006
347,304	15,267	0,102	-0,055
348,319	800,000	-0,043	-0,124
349,333	-200,000	-0,019	-0,147
350,348	415,225	-0,149	-0,218
351,362	497,787	-0,100	-0,158
352,377	-31,147	-0,098	-0,038
353,392	265,428	-0,097	-0,116
354,406	73,666	-0,136	-0,097
355,421	207,727	1308,377	1399,327
356,435	159,808	1468,312	1399,807
