DTS Sentinel unit serial number:	SN410029Multiplexer serial number:	ORYXHardware model number:	OX2-SRSoftware version number:	ORYX F/W v4,00 Oryx Data Collector v3.7.2.0data status	okinstallation	B3 Nyhavnadifferential loss correction	single-endedforward channel	channel 1reverse channel	N/Adate	2023/12/03time	19:02:30forward acquisition time	300,00reverse acquisition time	0,00gamma	499,1914k internal	0,3198k external	0,3198temperature offset calibration	1,0000default loss term (dB/km)	0,3820temperature slope calibration	1,0000multiplexer offset coefficient	1,0000multiplexer slope coefficient	1,0000fibre end	0,00T internal ref (°C)	14,39T ext. ref 1 (°C)	-0,96T ext. ref 2 (°C)	-0,97length (m)	temperature (°C)	Stokes	anti-Stokes-744,400	800,000	-0,089	-0,255
-743,385	-200,000	-0,013	0,275
-742,371	493,395	-0,098	-0,164
-741,356	-200,000	0,051	0,201
-740,342	320,186	-0,141	-0,195
-739,327	-200,000	-0,012	0,270
-738,312	461,928	-0,095	-0,155
-737,298	-200,000	-0,030	0,266
-736,283	31,802	-0,224	-0,140
-735,269	-200,000	0,063	0,302
-734,254	193,253	-0,177	-0,195
-733,239	-92,047	-0,166	0,034
-732,225	288,054	-0,140	-0,185
-731,210	448,145	0,028	-0,045
-730,196	-74,786	-0,117	0,030
-729,181	800,000	-0,030	0,069
-728,167	-200,000	-0,015	-0,049
-727,152	106,662	-0,088	-0,076
-726,137	341,075	-0,035	-0,050
-725,123	800,000	-0,066	-0,140
-724,108	42,140	-0,032	-0,021
-723,094	-200,000	-0,012	-0,084
-722,079	-106,498	-0,144	-0,023
-721,064	90,446	-0,047	-0,038
-720,050	-114,449	0,026	0,004
-719,035	122,689	-0,072	-0,066
-718,021	411,219	0,051	-0,079
-717,006	-30,410	-0,195	-0,080
-715,991	-109,272	0,059	-0,009
-714,977	39,680	0,011	-0,007
-713,962	-6,996	0,077	0,038
-712,948	114,023	-0,068	-0,060
-711,933	151,743	0,102	0,101
-710,918	-200,000	0,019	-0,135
-709,904	-25,876	-0,245	-0,104
-708,889	-95,348	-0,065	-0,013
-707,875	367,716	0,031	-0,046
-706,860	800,000	-0,014	-0,036
-705,845	162,701	0,044	-0,045
-704,831	-200,000	-0,034	0,118
-703,816	-200,000	-0,010	-0,067
-702,802	-40,878	0,079	0,029
-701,787	800,000	-0,013	-0,032
-700,772	784,915	0,001	0,003
-699,758	-200,000	0,032	-0,123
-698,743	-200,000	-0,054	0,181
-697,729	-143,806	-0,099	-0,007
-696,714	252,055	-0,016	-0,019
-695,699	-200,000	0,014	-0,086
-694,685	-23,792	-0,047	-0,021
-693,670	-78,217	-0,078	0,019
-692,656	-118,527	-0,031	-0,004
-691,641	-159,602	0,204	0,008
-690,627	800,000	0,026	-0,060
-689,612	60,791	0,138	-0,099
-688,597	-68,342	-0,058	-0,016
-687,583	433,116	-0,057	-0,091
-686,568	160,528	-0,104	-0,105
-685,554	-146,069	-0,107	-0,007
-684,539	-200,000	-0,000	0,057
-683,524	132,905	0,014	0,013
-682,510	-200,000	0,008	0,094
-681,495	-144,734	0,026	0,002
-680,481	144,568	0,061	0,060
-679,466	-75,096	-0,127	-0,033
-678,451	-22,530	-0,083	0,036
-677,437	-56,047	0,150	0,048
-676,422	-94,771	0,097	-0,019
-675,408	223,006	-0,105	0,123
-674,393	14,602	-0,090	0,051
-673,378	-23,466	-0,160	0,069
-672,364	-40,051	0,069	0,026
-671,349	-39,824	-0,093	0,035
-670,335	217,698	-0,024	-0,028
-669,320	59,878	0,113	-0,081
-668,305	-75,971	-0,047	-0,012
-667,291	-200,000	0,013	-0,084
-666,276	-9,896	-0,119	-0,057
-665,262	-200,000	0,010	0,047
-664,247	-108,241	-0,152	0,024
-663,232	51,988	0,033	0,023
-662,218	44,002	-0,082	0,055
-661,203	-70,847	0,054	-0,015
-660,189	-200,000	-0,016	-0,099
-659,174	-79,851	-0,046	0,011
-658,159	-74,531	0,040	-0,010
-657,145	-200,000	0,003	0,053
-656,130	421,981	0,063	0,098
-655,116	800,000	-0,012	0,026
-654,101	91,136	0,105	0,086
-653,086	-121,106	-0,124	0,015
-652,072	-43,804	-0,173	0,063
-651,057	-200,000	0,017	-0,072
-650,043	-200,000	0,018	-0,080
-649,028	28,626	-0,022	0,014
-648,014	211,829	0,116	0,133
-646,999	-200,000	0,013	0,169
-645,984	154,101	0,061	-0,061
-644,970	-136,250	0,093	-0,008
-643,955	62,402	-0,097	0,070
-642,941	-16,503	-0,099	0,046
-641,926	-200,000	-0,001	-0,088
-640,911	18,017	0,052	0,030
-639,897	800,000	-0,044	0,121
-638,882	800,000	0,052	0,109
-637,868	800,000	0,025	0,051
-636,853	347,101	-0,068	-0,097
-635,838	-152,885	-0,061	0,003
-634,824	-137,772	0,070	-0,006
-633,809	32,873	0,068	0,042
-632,795	-82,870	0,211	0,049
-631,780	320,018	0,044	0,061
-630,765	-200,000	0,023	-0,141
-629,751	-200,000	0,030	-0,115
-628,736	-139,975	-0,157	-0,012
-627,722	-9,967	0,085	0,041
-626,707	-200,000	-0,016	0,066
-625,692	206,032	0,080	0,090
-624,678	-136,023	0,081	0,007
-623,663	-200,000	0,010	-0,138
-622,649	-200,000	-0,010	0,070
-621,634	-48,945	-0,182	-0,063
-620,619	87,670	0,039	-0,032
-619,605	-200,000	-0,001	0,008
-618,590	-39,323	0,105	0,040
-617,576	3,697	0,097	0,051
-616,561	800,000	0,029	0,084
-615,546	-139,335	-0,119	0,009
-614,532	12,884	-0,143	-0,080
-613,517	54,400	0,005	-0,004
-612,503	-200,000	0,003	0,091
-611,488	-159,969	0,052	-0,002
-610,474	326,145	0,067	0,093
-609,459	102,328	0,050	0,043
-608,444	51,899	0,079	0,054
-607,430	-6,008	-0,030	-0,015
-606,415	13,664	0,106	-0,060
-605,401	-104,626	-0,122	0,020
-604,386	269,095	0,040	-0,051
-603,371	-200,000	-0,027	-0,128
-602,357	487,590	0,046	0,077
-601,342	-200,000	0,030	-0,159
-600,328	354,939	-0,094	-0,136
-599,313	-10,227	0,101	-0,049
-598,298	184,693	0,071	0,077
-597,284	800,000	0,049	0,147
-596,269	-200,000	-0,015	0,104
-595,255	-141,949	0,166	-0,012
-594,240	72,559	-0,030	-0,022
-593,225	800,000	-0,040	-0,112
-592,211	539,957	-0,044	-0,075
-591,196	-200,000	0,010	0,063
-590,182	-200,000	-0,009	0,077
-589,167	116,230	0,086	-0,076
-588,152	-101,246	0,071	0,012
-587,138	-37,476	-0,117	-0,045
-586,123	-200,000	-0,005	-0,136
-585,109	-200,000	-0,009	-0,074
-584,094	283,870	-0,063	-0,082
-583,079	354,878	0,062	0,089
-582,065	-194,849	0,113	0,001
-581,050	-46,466	-0,052	0,018
-580,036	149,243	0,106	0,104
-579,021	8,035	-0,137	0,074
-578,006	800,000	0,072	-0,179
-576,992	-94,114	0,076	-0,015
-575,977	800,000	-0,032	0,091
-574,963	233,890	0,071	0,084
-573,948	745,901	0,122	-0,238
-572,934	-17,995	-0,176	-0,079
-571,919	234,621	0,020	0,024
-570,904	-60,461	-0,156	-0,048
-569,890	-35,651	0,029	-0,011
-568,875	-89,007	-0,090	-0,019
-567,861	-52,444	0,165	-0,055
-566,846	-22,461	-0,085	0,037
-565,831	219,095	-0,043	0,050
-564,817	166,100	-0,047	0,048
-563,802	-200,000	-0,045	-0,142
-562,788	408,812	0,041	-0,063
-561,773	160,222	-0,106	0,107
-560,758	800,000	-0,034	0,081
-559,744	-122,797	0,157	0,018
-558,729	800,000	0,073	0,181
-557,715	-200,000	-0,015	0,095
-556,700	-124,903	0,059	0,007
-555,685	22,974	0,029	-0,017
-554,671	-82,984	0,072	0,017
-553,656	-200,000	0,030	0,119
-552,642	396,358	0,033	0,050
-551,627	800,000	0,024	0,050
-550,612	698,685	0,033	-0,063
-549,598	188,913	-0,053	0,057
-548,583	127,193	-0,063	-0,057
-547,569	-79,446	-0,078	-0,019
-546,554	-47,673	0,105	0,036
-545,539	157,216	0,055	0,055
-544,525	-200,000	-0,010	0,061
-543,510	-200,000	0,005	-0,123
-542,496	-63,412	-0,101	-0,030
-541,481	-66,080	-0,184	-0,053
-540,466	-14,922	0,086	0,040
-539,452	-200,000	0,018	-0,100
-538,437	800,000	0,053	0,122
-537,423	701,317	-0,085	0,163
-536,408	670,063	0,034	0,063
-535,393	-90,671	-0,068	-0,014
-534,379	800,000	0,012	-0,036
-533,364	-149,861	-0,036	0,002
-532,350	88,651	0,101	-0,081
-531,335	-200,000	0,006	0,097
-530,321	-21,230	0,090	0,040
-529,306	0,003	0,063	0,032
-528,291	75,041	-0,041	-0,031
-527,277	-200,000	-0,023	-0,126
-526,262	-200,000	-0,008	0,079
-525,248	-200,000	-0,013	0,077
-524,233	800,000	-0,003	0,005
-523,218	128,120	0,089	-0,082
-522,204	-200,000	0,006	-0,034
-521,189	550,994	-0,092	-0,160
-520,175	334,322	0,013	-0,018
-519,160	-94,349	0,098	0,019
-518,145	800,000	0,049	-0,100
-517,131	-200,000	0,000	0,121
-516,116	303,817	-0,047	0,063
-515,102	-161,587	-0,041	0,001
-514,087	-54,512	-0,149	0,049
-513,072	-88,846	-0,138	-0,029
-512,058	8,104	-0,151	-0,081
-511,043	800,000	-0,044	-0,089
-510,029	-200,000	0,009	0,035
-509,014	-35,494	0,093	-0,036
-507,999	126,921	0,009	0,008
-506,985	104,086	-0,059	-0,050
-505,970	-200,000	-0,014	-0,052
-504,956	-6,490	-0,077	-0,038
-503,941	98,930	0,029	-0,024
-502,926	-200,000	0,013	0,087
-501,912	-78,487	0,027	-0,007
-500,897	33,051	-0,124	-0,077
-499,883	-127,369	-0,108	-0,011
-498,868	-200,000	0,016	-0,135
-497,853	-168,437	-0,062	0,002
-496,839	707,931	0,030	-0,058
-495,824	388,435	0,041	-0,061
-494,810	182,086	-0,061	0,064
-493,795	-143,081	0,025	-0,002
-492,781	261,968	-0,025	-0,032
-491,766	-82,552	-0,102	-0,024
-490,751	-200,000	-0,010	0,138
-489,737	40,380	0,033	-0,022
-488,722	-200,000	0,139	-0,000
-487,708	213,187	-0,058	-0,066
-486,693	-200,000	-0,021	-0,097
-485,678	65,533	-0,124	0,090
-484,664	47,514	0,012	-0,008
-483,649	-200,000	-0,016	-0,189
-482,635	101,361	-0,057	0,048
-481,620	-57,514	0,015	0,005
-480,605	-174,032	0,171	0,004
-479,591	467,069	0,116	0,187
-478,576	-200,000	-0,028	0,125
-477,562	588,290	-0,096	-0,170
-476,547	-129,398	-0,145	-0,014
-475,532	-47,496	-0,035	0,012
-474,518	523,561	0,066	-0,111
-473,503	191,595	0,039	-0,043
-472,489	2,769	0,119	-0,062
-471,474	311,043	-0,033	0,045
-470,459	800,000	0,074	-0,181
-469,445	800,000	-0,047	0,104
-468,430	-111,378	0,171	0,025
-467,416	-200,000	-0,024	-0,156
-466,401	-200,000	0,021	-0,108
-465,386	101,259	-0,100	0,084
-464,372	-69,429	0,111	-0,030
-463,357	0,662	-0,048	0,025
-462,343	-99,083	-0,090	0,016
-461,328	-11,114	-0,065	-0,031
-460,313	800,000	0,047	-0,121
-459,299	-94,489	0,039	0,008
-458,284	58,344	0,040	0,028
-457,270	29,855	-0,101	0,062
-456,255	-54,509	-0,059	-0,019
-455,241	51,596	-0,155	-0,106
-454,226	396,681	-0,032	-0,048
-453,211	-95,239	0,063	0,012
-452,197	139,982	-0,068	-0,064
-451,182	-35,894	0,081	-0,031
-450,168	-63,740	0,052	-0,015
-449,153	209,402	-0,049	-0,055
-448,138	714,550	-0,074	0,141
-447,124	124,707	-0,021	-0,019
-446,109	800,000	-0,023	-0,048
-445,095	233,990	-0,080	0,095
-444,080	800,000	-0,024	0,053
-443,065	7,366	0,039	-0,021
-442,051	-37,079	-0,040	0,015
-441,036	0,727	-0,213	-0,109
-440,022	-200,000	-0,005	-0,040
-439,007	-181,278	0,067	-0,001
-437,992	212,776	0,036	-0,041
-436,978	-89,055	-0,075	0,016
-435,963	-101,970	-0,054	0,009
-434,949	-115,059	-0,041	0,006
-433,934	-5,929	-0,049	0,024
-432,919	302,092	0,022	-0,030
-431,905	70,601	0,097	0,072
-430,890	-200,000	0,005	-0,110
-429,876	-63,339	-0,045	0,013
-428,861	40,576	-0,056	0,036
-427,846	-35,353	0,043	0,017
-426,832	-200,000	0,007	-0,172
-425,817	-17,661	-0,097	-0,043
-424,803	-169,305	0,068	0,002
-423,788	-83,125	0,072	0,017
-422,773	800,000	0,049	0,109
-421,759	77,738	0,161	0,124
-420,744	244,199	-0,019	0,023
-419,730	150,567	-0,065	-0,064
-418,715	-65,944	0,119	0,034
-417,701	800,000	-0,034	-0,094
-416,686	-13,067	0,092	-0,043
-415,671	-47,408	0,097	0,034
-414,657	-200,000	0,004	-0,043
-413,642	54,945	-0,053	0,037
-412,628	-200,000	0,010	0,253
-411,613	800,000	-0,072	-0,190
-410,598	122,145	0,045	-0,040
-409,584	-200,000	0,002	-0,069
-408,569	375,078	0,029	0,042
-407,555	-92,122	0,047	-0,010
-406,540	401,768	0,041	-0,062
-405,525	-129,826	-0,185	-0,018
-404,511	77,639	-0,051	0,039
-403,496	800,000	-0,048	-0,103
-402,482	-118,931	0,086	-0,011
-401,467	800,000	-0,050	0,108
-400,452	-3,021	0,205	0,103
-399,438	219,631	-0,066	0,076
-398,423	198,705	-0,080	0,088
-397,409	-79,070	-0,119	0,029
-396,394	-200,000	0,003	-0,163
-395,379	598,822	-0,026	0,046
-394,365	534,390	-0,067	-0,115
-393,350	800,000	-0,014	0,040
-392,336	231,290	0,023	0,027
-391,321	-200,000	0,002	-0,102
-390,306	-200,000	0,035	-0,116
-389,292	69,144	-0,061	-0,045
-388,277	-200,000	-0,007	-0,108
-387,263	-200,000	0,005	-0,089
-386,248	189,453	0,123	0,133
-385,233	192,745	0,085	0,092
-384,219	5,456	0,111	-0,059
-383,204	-39,122	-0,054	0,020
-382,190	-88,861	-0,113	-0,024
-381,175	21,955	0,118	0,069
-380,160	-200,000	0,001	-0,039
-379,146	800,000	-0,025	-0,071
-378,131	-21,162	0,059	-0,026
-377,117	462,650	0,041	0,065
-376,102	-110,303	0,043	0,006
-375,088	-128,533	-0,162	-0,016
-374,073	192,538	0,072	0,078
-373,058	-128,658	0,023	0,002
-372,044	-19,096	0,195	0,087
-371,029	54,069	0,116	0,080
-370,015	-85,290	0,127	0,028
-369,000	-83,254	-0,207	0,047
-367,985	-29,424	-0,055	0,022
-366,971	-200,000	0,000	-0,046
-365,956	36,446	-0,048	0,031
-364,942	-65,328	0,056	-0,016
-363,927	-66,814	0,088	0,025
-362,912	800,000	-0,020	-0,046
-361,898	19,683	-0,056	0,032
-360,883	-43,345	-0,122	0,044
-359,869	377,023	-0,041	0,061
-358,854	-200,000	-0,010	0,107
-357,839	106,098	0,019	0,016
-356,825	-33,828	0,105	-0,041
-355,810	-200,000	-0,024	0,139
-354,796	413,460	0,046	-0,070
-353,781	800,000	-0,009	-0,024
-352,766	-200,000	0,008	-0,038
-351,752	24,699	0,097	-0,058
-350,737	270,627	0,082	0,103
-349,723	284,600	0,050	0,064
-348,708	-122,443	-0,080	0,009
-347,693	-108,097	0,086	-0,013
-346,679	80,431	-0,133	-0,103
-345,664	569,664	-0,024	0,042
-344,650	800,000	-0,025	0,049
-343,635	-149,415	0,098	-0,005
-342,620	-124,700	-0,056	0,006
-341,606	-200,000	-0,001	0,064
-340,591	328,091	0,042	0,058
-339,577	10,194	-0,037	0,020
-338,562	-60,342	-0,026	-0,008
-337,548	598,469	-0,078	-0,139
-336,533	491,056	0,003	0,005
-335,518	438,486	0,033	0,051
-334,504	-200,000	-0,023	0,096
-333,489	-167,762	-0,068	-0,002
-332,475	-50,969	0,011	0,004
-331,460	99,275	-0,106	-0,088
-330,445	113,076	0,069	0,060
-329,431	-113,582	0,075	-0,010
-328,416	-19,448	0,077	-0,034
-327,402	-0,932	-0,112	0,057
-326,387	-200,000	-0,005	0,060
-325,372	272,330	0,071	0,090
-324,358	65,880	0,069	0,050
-323,343	87,763	-0,022	0,017
-322,329	98,240	-0,013	-0,011
-321,314	-101,300	-0,141	-0,024
-320,299	505,623	0,044	0,073
-319,285	172,678	0,048	0,050
-318,270	66,201	-0,069	-0,050
-317,256	11,536	0,067	-0,037
-316,241	-80,572	0,150	-0,036
-315,226	52,945	-0,053	-0,036
-314,212	-101,909	0,086	-0,015
-313,197	589,695	-0,053	0,093
-312,183	-200,000	0,008	-0,057
-311,168	-200,000	-0,007	-0,056
-310,153	-200,000	0,020	-0,112
-309,139	-200,000	-0,008	-0,056
-308,124	681,466	-0,029	-0,054
-307,110	-200,000	-0,006	-0,077
-306,095	-200,000	0,003	0,190
-305,080	-37,717	-0,158	0,060
-304,066	-40,618	-0,096	-0,035
-303,051	-59,037	0,047	-0,014
-302,037	800,000	-0,051	-0,114
-301,022	-134,272	-0,081	0,007
-300,008	141,623	-0,046	-0,043
-298,993	-200,000	0,001	-0,031
-297,978	-23,509	0,083	-0,035
-296,964	-200,000	0,003	-0,029
-295,949	800,000	0,025	0,070
-294,935	433,946	0,021	0,033
-293,920	800,000	-0,031	-0,097
-292,905	-73,991	0,181	0,047
-291,891	-200,000	-0,039	0,137
-290,876	311,821	-0,043	0,058
-289,862	161,145	-0,020	-0,020
-288,847	-103,967	-0,134	0,022
-287,832	800,000	0,037	-0,098
-286,818	-200,000	0,010	0,052
-285,803	138,389	-0,014	-0,013
-284,789	729,117	-0,013	0,026
-283,774	222,823	-0,100	0,115
-282,759	15,297	-0,059	-0,033
-281,745	55,952	-0,092	-0,064
-280,730	800,000	-0,053	-0,109
-279,716	0,112	-0,035	0,018
-278,701	-71,603	0,063	-0,017
-277,686	-200,000	0,008	0,160
-276,672	-200,000	-0,018	0,111
-275,657	65,024	-0,099	-0,071
-274,643	-200,000	-0,007	-0,098
-273,628	-200,000	-0,021	0,071
-272,613	800,000	0,038	0,077
-271,599	37,619	-0,044	0,028
-270,584	231,451	0,086	0,100
-269,570	-200,000	-0,027	0,185
-268,555	96,196	0,038	0,031
-267,540	-200,000	-0,004	-0,059
-266,526	125,710	-0,159	-0,143
-265,511	-200,000	-0,022	-0,179
-264,497	-70,510	0,078	0,021
-263,482	61,842	0,025	-0,018
-262,467	-200,000	-0,051	0,215
-261,453	331,932	0,026	-0,037
-260,438	233,286	0,138	-0,163
-259,424	20,104	0,153	0,088
-258,409	255,865	0,037	-0,045
-257,395	-200,000	-0,014	0,116
-256,380	-200,000	0,023	0,098
-255,365	-200,000	0,007	0,094
-254,351	-21,745	-0,066	0,029
-253,336	-50,899	0,139	-0,046
-252,322	-51,815	-0,027	-0,009
-251,307	-200,000	0,002	-0,050
-250,292	-200,000	0,023	-0,167
-249,278	-200,000	-0,015	0,048
-248,263	44,521	0,045	-0,029
-247,249	-200,000	-0,002	-0,006
-246,234	114,249	-0,105	0,091
-245,219	-100,202	-0,121	-0,021
-244,205	-200,000	-0,009	0,149
-243,190	89,045	-0,101	0,080
-242,176	337,887	-0,078	-0,108
-241,161	800,000	0,043	-0,100
-240,146	9,565	0,041	0,022
-239,132	-200,000	0,001	-0,025
-238,117	800,000	-0,058	-0,144
-237,103	-142,966	0,054	-0,004
-236,088	36,615	-0,016	-0,010
-235,073	-19,637	-0,069	0,030
-234,059	595,083	0,053	0,094
-233,044	561,444	0,021	-0,037
-232,030	441,270	-0,061	-0,095
-231,015	97,620	0,091	-0,074
-230,000	-200,000	-0,006	-0,062
-228,986	161,089	-0,046	-0,046
-227,971	-198,334	0,066	0,000
-226,957	-64,729	-0,112	0,032
-225,942	93,951	-0,061	0,049
-224,927	-108,054	0,147	0,023
-223,913	278,507	0,064	-0,081
-222,898	274,038	-0,064	-0,081
-221,884	182,379	0,019	-0,020
-220,869	800,000	-0,018	-0,037
-219,855	-200,000	0,028	0,112
-218,840	-37,998	0,059	-0,022
-217,825	533,691	-0,063	0,107
-216,811	394,581	-0,048	-0,071
-215,796	-172,972	-0,048	-0,001
-214,782	216,162	-0,040	0,045
-213,767	-70,666	0,057	-0,015
-212,752	800,000	0,039	0,093
-211,738	-200,000	0,036	0,136
-210,723	-20,198	-0,124	-0,054
-209,709	800,000	-0,038	-0,110
-208,694	-170,773	0,057	0,001
-207,679	-89,633	0,056	0,012
-206,665	33,578	0,038	0,024
-205,650	152,654	-0,078	0,076
-204,636	-200,000	-0,010	-0,081
-203,621	6,463	0,214	0,113
-202,606	-200,000	-0,035	0,121
-201,592	-22,603	-0,107	-0,046
-200,577	356,188	-0,077	0,110
-199,563	-200,000	-0,019	-0,154
-198,548	145,534	0,032	-0,031
-197,533	218,137	-0,041	0,047
-196,519	-28,452	0,088	0,036
-195,504	724,188	0,076	0,144
-194,490	-169,006	-0,142	-0,004
-193,475	69,700	0,070	0,051
-192,460	-4,461	-0,092	0,045
-191,446	425,182	0,060	0,092
-190,431	-200,000	-0,008	0,111
-189,417	419,130	0,053	-0,081
-188,402	800,000	-0,082	-0,181
-187,387	439,457	-0,020	-0,031
-186,373	382,682	0,043	-0,063
-185,358	220,387	0,045	0,052
-184,344	49,313	-0,081	0,054
-183,329	93,196	0,045	0,036
-182,315	4,872	0,136	0,071
-181,300	64,812	-0,022	-0,016
-180,285	412,281	-0,051	0,077
-179,271	659,533	0,051	-0,093
-178,256	-16,150	0,095	-0,043
-177,242	22,049	0,096	-0,056
-176,227	96,698	0,031	-0,025
-175,212	181,610	-0,062	-0,065
-174,198	-200,000	0,002	-0,020
-173,183	-85,053	-0,075	-0,017
-172,169	-200,000	-0,042	0,154
-171,154	800,000	-0,032	0,084
-170,139	-97,813	-0,099	0,018
-169,125	472,824	0,101	-0,163
-168,110	119,323	-0,058	0,051
-167,096	800,000	0,020	-0,059
-166,081	39,538	0,099	-0,063
-165,066	-200,000	0,010	-0,040
-164,052	99,365	0,043	0,036
-163,037	-174,075	-0,035	-0,001
-162,023	30,548	0,148	0,090
-161,008	-200,000	-0,006	-0,040
-159,993	-150,156	-0,059	0,003
-158,979	29,290	-0,069	-0,042
-157,964	800,000	-0,024	-0,067
-156,950	-200,000	-0,014	-0,158
-155,935	760,184	-0,026	-0,051
-154,920	263,027	-0,041	0,051
-153,906	-126,927	0,161	-0,017
-152,891	77,187	-0,021	0,016
-151,877	394,726	0,075	-0,112
-150,862	-200,000	-0,022	-0,075
-149,847	65,800	-0,120	0,086
-148,833	-200,000	0,005	-0,055
-147,818	-45,887	-0,036	0,013
-146,804	800,000	-0,034	0,098
-145,789	-200,000	0,025	0,087
-144,775	-73,628	-0,080	-0,021
-143,760	-200,000	-0,002	-0,056
-142,745	-200,000	-0,003	-0,162
-141,731	583,283	0,061	-0,107
-140,716	184,406	0,094	-0,099
-139,702	-133,539	-0,093	0,008
-138,687	-6,830	-0,120	0,058
-137,672	800,000	0,026	0,059
-136,658	-200,000	-0,016	-0,093
-135,643	188,963	-0,074	-0,079
-134,629	-14,513	0,038	0,017
-133,614	-200,000	-0,019	0,108
-132,599	-127,445	-0,108	0,011
-131,585	158,183	0,024	0,024
-130,570	379,445	0,021	0,031
-129,556	800,000	0,041	0,081
-128,541	-200,000	-0,016	-0,172
-127,526	-200,000	0,028	-0,101
-126,512	-21,633	0,177	0,076
-125,497	-15,413	0,131	-0,059
-124,483	800,000	-0,036	0,080
-123,468	-200,000	-0,003	-0,183
-122,453	-200,000	0,030	-0,139
-121,439	-152,896	-0,030	0,001
-120,424	-114,973	0,099	0,013
-119,410	-105,915	-0,100	-0,016
-118,395	-43,137	-0,045	-0,016
-117,380	-149,245	-0,100	0,006
-116,366	-200,000	-0,035	-0,151
-115,351	-200,000	0,001	-0,031
-114,337	-118,273	-0,056	0,007
-113,322	-89,249	0,011	-0,002
-112,307	-23,359	-0,037	0,016
-111,293	-157,684	0,063	-0,003
-110,278	-104,270	0,085	0,014
-109,264	41,489	0,067	0,043
-108,249	-200,000	0,001	0,051
-107,234	-7,284	0,088	0,042
-106,220	800,000	-0,041	-0,125
-105,205	-110,102	0,125	-0,018
-104,191	-23,025	0,240	-0,102
-103,176	-23,690	0,078	0,033
-102,162	11,611	0,018	0,010
-101,147	-75,994	-0,148	0,037
-100,132	-200,000	0,005	0,036
-99,118	800,000	-0,030	-0,068
-98,103	612,187	0,041	0,073
-97,089	-200,000	0,006	0,072
-96,074	-200,000	0,037	0,250
-95,059	467,744	-0,054	0,086
-94,045	134,979	-0,095	0,088
-93,030	-36,495	-0,052	-0,020
-92,016	-200,000	-0,005	-0,051
-91,001	-200,000	-0,014	0,104
-89,986	-47,462	0,074	0,026
-88,972	411,717	0,035	-0,053
-87,957	149,807	0,085	0,082
-86,943	580,298	-0,072	-0,125
-85,928	800,000	0,017	0,036
-84,913	-103,510	-0,076	-0,013
-83,899	5,850	0,069	-0,036
-82,884	800,000	-0,040	0,084
-81,870	-143,506	0,077	-0,005
-80,855	-28,590	-0,042	0,017
-79,840	-13,617	-0,142	0,065
-78,826	16,584	-0,086	-0,048
-77,811	-110,059	0,059	0,009
-76,797	-120,437	-0,073	0,009
-75,782	-200,000	0,018	0,103
-74,767	-32,950	-0,024	0,009
-73,753	776,865	0,048	0,094
-72,738	800,000	-0,019	0,053
-71,724	-200,000	-0,036	-0,172
-70,709	800,000	-0,012	-0,034
-69,694	0,586	-0,164	-0,083
-68,680	-41,422	-0,152	0,055
-67,665	-200,000	-0,023	0,118
-66,651	800,000	-0,071	0,165
-65,636	724,481	-0,025	-0,048
-64,622	-48,380	-0,130	-0,044
-63,607	276,080	-0,009	0,011
-62,592	555,372	0,073	-0,125
-61,578	800,000	0,026	0,076
-60,563	-200,000	0,033	-0,112
-59,549	333,226	0,083	0,114
-58,534	-27,622	-1,597	-0,654
-57,519	370,776	-1,448	-2,087
-56,505	-200,000	-0,474	-4,388
-55,490	204,584	1,042	1,147
-54,476	800,000	4,710	10,954
-53,461	-200,000	18,580	300,453
-52,446	800,000	733,674	2269,822
-51,432	561,348	1649,902	2837,649
-50,417	78,809	1668,525	1263,685
-49,403	22,264	1541,928	890,124
-48,388	16,279	1464,617	816,425
-47,373	17,856	1454,660	818,458
-46,359	17,058	1444,885	809,102
-45,344	14,520	1440,172	794,282
-44,330	14,452	1438,247	792,865
-43,315	14,474	1436,547	792,000
-42,300	14,467	1434,982	791,076
-41,286	14,521	1433,637	790,561
-40,271	14,493	1432,342	789,678
-39,257	14,481	1431,146	788,934
-38,242	14,534	1429,936	788,487
-37,227	14,521	1428,612	787,665
-36,213	14,504	1427,535	786,956
-35,198	14,526	1426,203	786,295
-34,184	14,542	1425,427	785,911
-33,169	14,457	1423,891	784,631
-32,154	14,501	1422,875	784,250
-31,140	14,507	1421,567	783,524
-30,125	14,543	1420,400	783,021
-29,111	14,509	1419,394	782,275
-28,096	14,461	1418,088	781,300
-27,082	14,440	1417,036	780,587
-26,067	14,395	1416,205	779,887
-25,052	14,416	1414,953	779,265
-24,038	14,385	1414,126	778,636
-23,023	14,379	1413,020	777,964
-22,009	14,452	1411,816	777,613
-20,994	14,364	1411,238	776,854
-19,979	14,384	1410,293	776,396
-18,965	14,349	1409,397	775,707
-17,950	14,347	1408,574	775,215
-16,936	14,375	1407,456	774,699
-15,921	14,309	1406,307	773,728
-14,906	14,325	1405,411	773,279
-13,892	14,323	1404,562	772,773
-12,877	14,354	1403,674	772,397
-11,863	14,301	1402,791	771,633
-10,848	14,283	1401,994	771,081
-9,833	14,269	1401,103	770,497
-8,819	14,234	1400,233	769,821
-7,804	14,254	1399,119	769,275
-6,790	14,222	1398,121	768,543
-5,775	14,182	1397,147	767,795
-4,760	14,204	1396,111	767,297
-3,746	14,250	1395,238	767,000
-2,731	14,190	1394,660	766,374
-1,717	14,201	1393,649	765,837
-0,702	14,215	1391,887	764,904
0,313	18,005	1309,970	737,464
1,327	34,250	705,795	434,979
2,342	52,667	124,097	83,826
3,356	2,804	16,667	8,535
4,371	-0,083	3,390	1,703
5,386	67,357	0,433	0,313
6,400	412,557	-0,078	0,118
7,415	-7,652	-0,236	-0,113
8,429	24,898	-0,350	-0,205
9,444	3,777	-0,320	-0,165
10,459	134,255	-0,240	-0,220
11,473	-64,838	-0,508	-0,144
12,488	9,343	-0,270	-0,144
13,502	76,849	-0,276	-0,207
14,517	51,128	-0,288	-0,193
15,531	49,744	-0,381	-0,254
16,546	169,633	-0,364	-0,368
17,561	24,765	-0,341	-0,199
18,575	-137,273	-0,232	-0,018
19,590	12,001	-0,409	-0,222
20,604	198,663	-0,236	-0,256
21,619	110,444	-0,353	-0,300
22,634	-1,673	-0,620	-0,307
23,648	226,958	-0,336	-0,386
24,663	54,658	-0,317	-0,216
25,677	122,637	-0,279	-0,246
26,692	76,988	-0,304	-0,228
27,707	113,317	-0,261	-0,224
28,721	207,432	-0,172	-0,189
29,736	-15,508	-0,401	-0,180
30,750	167,389	-0,445	-0,446
31,765	139,575	-0,289	-0,269
32,780	32,626	-0,431	-0,262
33,794	33,672	-0,315	-0,193
34,809	50,633	-0,388	-0,259
35,823	30,364	-0,302	-0,182
36,838	48,490	-0,457	-0,302
37,853	182,586	-0,397	-0,414
38,867	2,811	-0,467	-0,239
39,882	93,069	-0,367	-0,293
40,896	185,382	-0,212	-0,222
41,911	-15,352	-0,345	-0,155
42,926	29,602	-0,347	-0,208
43,940	6,690	-0,363	-0,190
44,955	126,786	-0,325	-0,291
45,969	-32,578	-0,331	-0,130
46,984	18,324	-0,367	-0,206
47,999	31,715	-0,257	-0,156
49,013	27,752	-0,336	-0,199
50,028	195,727	-0,259	-0,278
51,042	-24,880	-0,382	-0,159
52,057	151,875	-0,259	-0,249
53,071	113,779	-0,319	-0,273
54,086	7,265	-0,372	-0,195
55,101	-42,375	-0,283	-0,101
56,115	15,642	-0,387	-0,214
57,130	242,126	-0,275	-0,324
58,144	240,037	-0,318	-0,374
59,159	55,877	-0,390	-0,266
60,174	175,430	-0,290	-0,296
61,188	137,124	-0,384	-0,354
62,203	165,850	-0,258	-0,257
63,217	131,506	-0,209	-0,190
64,232	-42,459	-0,398	-0,142
65,247	38,522	-0,418	-0,262
66,261	120,302	-0,415	-0,363
67,276	40,929	-0,296	-0,188
68,290	-21,958	-0,283	-0,120
69,305	-20,692	-0,444	-0,191
70,320	177,145	-0,196	-0,201
71,334	48,123	-0,397	-0,261
72,349	16,729	-0,311	-0,173
73,363	42,597	-0,324	-0,207
74,378	5,903	-0,322	-0,167
75,393	-63,380	-0,383	-0,110
76,407	-73,550	-0,363	-0,093
77,422	-60,284	-0,313	-0,093
78,436	35,076	-0,177	-0,109
79,451	231,487	-0,218	-0,252
80,466	37,753	-0,321	-0,200
81,480	4,303	-0,382	-0,196
82,495	101,558	-0,214	-0,175
83,509	217,304	-0,248	-0,278
84,524	379,439	-0,205	-0,296
85,539	-2,656	-0,284	-0,139
86,553	112,830	-0,370	-0,315
87,568	320,907	-0,212	-0,284
88,582	81,062	-0,369	-0,280
89,597	-24,905	-0,371	-0,154
90,611	204,172	-0,209	-0,228
91,626	-23,618	-0,168	-0,071
92,641	78,464	-0,240	-0,180
93,655	-87,967	-0,269	-0,056
94,670	46,506	-0,208	-0,136
95,684	26,824	-0,333	-0,195
96,699	36,729	-0,349	-0,216
97,714	64,145	-0,133	-0,094
98,728	-63,015	-0,331	-0,095
99,743	-72,424	-0,252	-0,065
100,757	-0,442	-0,211	-0,105
101,772	199,837	-0,205	-0,221
102,787	36,439	-0,366	-0,226
103,801	15,406	-0,411	-0,226
104,816	91,019	-0,330	-0,260
105,830	-93,621	-0,333	-0,064
106,845	-145,861	-0,390	-0,024
107,860	80,666	-0,318	-0,240
108,874	-47,840	-0,299	-0,101
109,889	146,807	-0,292	-0,275
110,903	-15,091	-0,339	-0,152
111,918	-79,941	-0,322	-0,075
112,933	227,089	-0,198	-0,226
113,947	-66,288	-0,244	-0,068
114,962	56,600	-0,142	-0,097
115,976	74,733	-0,320	-0,236
116,991	119,819	-0,392	-0,341
118,006	22,434	-0,340	-0,194
119,020	-40,766	-0,242	-0,087
120,035	37,774	-0,223	-0,138
121,049	104,353	-0,163	-0,134
122,064	114,022	-0,239	-0,204
123,079	189,433	-0,214	-0,224
124,093	635,342	-0,128	-0,229
125,108	94,144	-0,270	-0,214
126,122	153,811	-0,262	-0,252
127,137	-52,262	-0,198	-0,064
128,151	-124,805	-0,184	-0,020
129,166	374,546	-0,120	-0,171
130,181	37,599	-0,319	-0,198
131,195	-43,002	-0,347	-0,122
132,210	-72,524	-0,263	-0,067
133,224	204,026	-0,175	-0,189
134,239	250,752	-0,121	-0,144
135,254	222,990	-0,143	-0,162
136,268	-125,262	-0,289	-0,030
137,283	10,388	-0,228	-0,121
138,297	-48,818	-0,132	-0,044
139,312	169,100	-0,227	-0,227
140,327	73,814	-0,277	-0,203
141,341	54,567	-0,141	-0,095
142,356	182,069	-0,228	-0,235
143,370	198,513	-0,164	-0,176
144,385	129,513	-0,249	-0,223
145,400	36,530	-0,183	-0,113
146,414	-71,235	-0,453	-0,118
147,429	123,967	-0,212	-0,187
148,443	278,147	-0,172	-0,215
149,458	34,014	-0,251	-0,152
150,473	-159,270	-0,306	-0,012
151,487	-52,544	-0,307	-0,098
152,502	197,879	-0,211	-0,225
153,516	182,181	-0,250	-0,257
154,531	1,182	-0,284	-0,142
155,546	-39,120	-0,251	-0,092
156,560	265,604	-0,187	-0,228
157,575	-136,187	-0,389	-0,031
158,589	-14,987	-0,332	-0,148
159,604	141,467	-0,175	-0,162
160,619	96,808	-0,244	-0,196
161,633	-6,467	-0,104	-0,050
162,648	125,329	-0,331	-0,291
163,662	193,355	-0,152	-0,161
164,677	83,557	-0,151	-0,115
165,692	77,933	-0,176	-0,131
166,706	28,217	-0,200	-0,118
167,721	94,245	-0,193	-0,153
168,735	59,125	-0,255	-0,175
169,750	-60,039	-0,228	-0,067
170,764	31,583	-0,227	-0,136
171,779	125,078	-0,172	-0,152
172,794	112,593	-0,214	-0,181
173,808	-9,313	-0,104	-0,048
174,823	548,154	-0,212	-0,356
175,837	71,636	-0,322	-0,233
176,852	145,793	-0,190	-0,177
177,867	680,721	-0,132	-0,241
178,881	-129,320	-0,119	-0,011
179,896	-142,037	-0,244	-0,017
180,910	-37,796	-0,158	-0,058
181,925	40,211	-0,291	-0,182
182,940	103,882	-0,309	-0,253
183,954	37,312	-0,218	-0,134
184,969	-122,352	-0,176	-0,020
185,983	114,152	-0,220	-0,186
186,998	800,000	-0,111	-0,293
188,013	-17,248	-0,256	-0,112
189,027	313,225	-0,123	-0,161
190,042	173,255	-0,294	-0,295
191,056	313,874	-0,224	-0,295
192,071	56,368	-0,284	-0,192
193,086	179,474	-0,056	-0,057
194,100	-77,266	-0,153	-0,037
195,115	-78,347	-0,258	-0,061
196,129	-72,379	-0,216	-0,055
197,144	379,693	-0,193	-0,277
198,159	17,806	-0,196	-0,108
199,173	18,283	-0,198	-0,110
200,188	800,000	-0,107	-0,262
201,202	-200,000	-0,264	0,001
202,217	-81,861	-0,207	-0,047
203,232	800,000	-0,096	-0,211
204,246	89,652	-0,276	-0,214
205,261	-100,674	-0,197	-0,033
206,275	-200,000	-0,075	-0,242
207,290	169,377	-0,181	-0,179
208,304	-200,000	-0,075	-0,235
209,319	315,138	-0,112	-0,147
210,334	-63,496	-0,264	-0,075
211,348	565,980	-0,171	-0,290
212,363	109,095	-0,178	-0,148
213,377	352,892	-0,164	-0,226
214,392	499,784	-0,135	-0,217
215,407	-3,243	-0,156	-0,075
216,421	-146,000	-0,106	-0,006
217,436	-9,262	-0,242	-0,112
218,450	800,000	-0,072	-0,187
219,465	327,756	-0,197	-0,264
220,480	-32,727	-0,351	-0,135
221,494	242,676	-0,167	-0,194
222,509	800,000	-0,067	-0,168
223,523	146,501	-0,289	-0,270
224,538	372,071	-0,156	-0,221
225,553	-18,326	-0,156	-0,068
226,567	343,456	-0,185	-0,252
227,582	800,000	-0,119	-0,240
228,596	-46,086	-0,142	0,048
229,611	9,811	-0,248	-0,130
230,626	-159,095	-0,184	0,007
231,640	2,216	-0,223	-0,111
232,655	175,531	-0,211	-0,212
233,669	205,086	-0,192	-0,207
234,684	-2,454	-0,119	-0,058
235,699	471,454	-0,127	-0,199
236,713	-56,793	-0,178	-0,054
237,728	19,826	-0,083	-0,046
238,742	111,315	-0,191	-0,160
239,757	272,902	-0,109	-0,133
240,772	47,412	-0,277	-0,179
241,786	86,241	-0,201	-0,154
242,801	444,894	-0,157	-0,240
243,815	1,530	-0,207	-0,103
244,830	44,903	-0,292	-0,186
245,844	236,453	-0,185	-0,213
246,859	-138,728	-0,202	-0,015
247,874	8,730	-0,253	-0,132
248,888	-52,105	-0,169	-0,054
249,903	295,954	-0,105	-0,134
250,917	15,871	-0,130	-0,071
251,932	-23,837	-0,212	-0,088
252,947	800,000	-0,125	-0,278
253,961	62,220	-0,140	-0,097
254,976	49,067	-0,190	-0,124
255,990	146,832	-0,209	-0,194
257,005	262,308	-0,082	-0,099
258,020	107,111	-0,142	-0,117
259,034	302,707	-0,125	-0,161
260,049	-123,917	-0,241	-0,026
261,063	202,073	-0,163	-0,174
262,078	570,391	-0,177	-0,300
263,093	-200,000	0,017	-0,094
264,107	94,548	-0,105	-0,083
265,122	415,039	-0,067	-0,099
266,136	800,000	-0,021	-0,052
267,151	-108,823	-0,098	0,014
268,166	10,489	-0,209	-0,110
269,180	-56,496	-0,259	-0,079
270,195	266,313	-0,236	-0,285
271,209	-130,543	-0,230	-0,021
272,224	-65,671	-0,178	0,049
273,239	-49,266	-0,214	-0,070
274,253	-18,551	-0,229	0,098
275,268	198,240	-0,226	-0,239
276,282	127,085	-0,197	-0,173
277,297	182,268	-0,231	-0,235
278,312	-25,935	-0,245	-0,099
279,326	773,465	-0,091	-0,172
280,341	403,570	-0,140	-0,205
281,355	454,902	-0,058	-0,089
282,370	26,309	-0,150	-0,086
283,384	-4,784	-0,115	-0,054
284,399	176,470	-0,198	-0,199
285,414	120,627	-0,100	-0,086
286,428	-1,109	-0,182	-0,089
287,443	-83,926	-0,197	-0,043
288,457	267,795	-0,222	-0,269
289,472	-138,533	-0,233	0,017
290,487	-0,625	-0,198	-0,096
291,501	-24,399	-0,256	-0,105
292,516	-96,349	-0,189	-0,034
293,530	-115,787	-0,160	-0,020
294,545	800,000	-0,064	-0,128
295,560	690,484	-0,057	-0,103
296,574	-200,000	-0,035	-0,139
297,589	-107,057	-0,114	0,017
298,603	-200,000	-0,180	-0,001
299,618	384,012	-0,080	-0,114
300,633	99,400	-0,188	-0,150
301,647	363,930	-0,050	0,070
302,662	800,000	-0,024	-0,057
303,676	-113,414	-0,197	-0,026
304,691	107,113	-0,222	-0,182
305,706	-65,393	-0,157	-0,043
306,720	74,163	-0,180	-0,130
307,735	137,486	-0,182	-0,164
308,749	-12,819	-0,134	0,060
309,764	385,131	0,052	-0,074
310,779	98,610	-0,222	-0,177
311,793	586,312	-0,053	-0,090
312,808	27,811	-0,140	-0,081
313,822	-26,168	-0,162	-0,065
314,837	124,277	-0,202	-0,175
315,852	31,143	-0,051	-0,030
316,866	-94,090	-0,059	-0,011
317,881	190,327	-0,117	-0,121
318,895	-200,000	-0,012	-0,110
319,910	-193,916	-0,166	-0,001
320,925	35,577	-0,146	-0,088
321,939	-108,897	-0,123	0,018
322,954	-33,810	-0,199	-0,075
323,968	-200,000	-0,012	0,054
324,983	-200,000	0,005	0,162
325,997	225,218	-0,141	-0,157
327,012	-135,141	-0,190	-0,015
328,027	-52,667	-0,291	-0,092
329,041	166,673	-0,231	-0,226
330,056	20,509	-0,212	-0,118
331,070	-63,277	-0,129	-0,036
332,085	800,000	-0,091	-0,199
333,100	-200,000	0,012	-0,119
334,114	-200,000	-0,008	-0,154
335,129	-200,000	-0,040	-0,192
336,143	477,490	-0,082	-0,128
337,158	364,168	-0,130	-0,180
338,173	49,889	-0,146	0,095
339,187	-200,000	0,013	-0,044
340,202	17,093	-0,062	-0,034
341,216	-40,424	-0,102	0,036
342,231	-71,140	-0,140	-0,036
343,246	287,120	-0,165	-0,206
344,260	9,031	-0,051	-0,027
345,275	366,118	-0,061	-0,085
346,289	-49,105	-0,105	0,034
347,304	-200,000	0,007	0,056
348,319	-126,717	-0,197	-0,020
349,333	-200,000	0,008	-0,069
350,348	-109,252	-0,114	-0,016
351,362	-84,459	-0,208	0,045
352,377	-93,572	-0,174	0,033
353,392	239,178	-0,187	-0,213
354,406	318,027	-0,130	-0,169
355,421	208,200	1316,930	1414,789
356,435	160,187	1477,936	1415,285
