DTS Sentinel unit serial number:	SN410029Multiplexer serial number:	ORYXHardware model number:	OX2-SRSoftware version number:	ORYX F/W v4,00 Oryx Data Collector v3.7.2.0data status	okinstallation	B3 Nyhavnadifferential loss correction	single-endedforward channel	channel 1reverse channel	N/Adate	2023/11/29time	12:07:30forward acquisition time	300,00reverse acquisition time	0,00gamma	499,1914k internal	0,3212k external	0,3212temperature offset calibration	1,0000default loss term (dB/km)	0,3820temperature slope calibration	1,0000multiplexer offset coefficient	1,0000multiplexer slope coefficient	1,0000fibre end	0,00T internal ref (°C)	9,71T ext. ref 1 (°C)	-4,75T ext. ref 2 (°C)	-4,88length (m)	temperature (°C)	Stokes	anti-Stokes-744,400	114,404	-0,255	-0,225
-743,385	-200,000	-0,030	0,254
-742,371	26,672	-0,345	-0,209
-741,356	-200,000	-0,079	0,303
-740,342	-71,088	-0,177	-0,048
-739,327	-200,000	0,002	0,292
-738,312	34,617	-0,231	-0,146
-737,298	-200,000	-0,084	0,299
-736,283	-200,000	-0,010	-0,094
-735,269	-200,000	0,020	0,378
-734,254	363,252	-0,069	-0,100
-733,239	-200,000	-0,215	-0,000
-732,225	800,000	-0,168	-0,352
-731,210	42,624	0,201	0,133
-730,196	170,156	-0,074	0,077
-729,181	-39,880	-0,146	-0,055
-728,167	800,000	0,038	-0,078
-727,152	79,010	-0,099	-0,077
-726,137	-200,000	0,008	0,106
-725,123	41,481	-0,061	-0,040
-724,108	55,275	-0,078	-0,054
-723,094	715,547	0,026	-0,051
-722,079	533,835	-0,049	-0,084
-721,064	159,119	-0,055	-0,055
-720,050	318,580	0,035	-0,048
-719,035	76,416	0,049	-0,038
-718,021	157,447	-0,061	0,061
-717,006	-200,000	-0,001	-0,026
-715,991	-14,166	-0,125	0,058
-714,977	-200,000	0,019	0,081
-713,962	-9,559	-0,036	-0,017
-712,948	187,991	0,042	0,045
-711,933	166,091	0,049	0,050
-710,918	-200,000	0,001	0,033
-709,904	99,367	-0,083	-0,069
-708,889	-114,604	-0,093	-0,013
-707,875	364,587	-0,037	-0,054
-706,860	-200,000	-0,019	-0,068
-705,845	-200,000	0,029	0,128
-704,831	75,597	-0,042	0,032
-703,816	26,042	0,038	-0,023
-702,802	-200,000	-0,013	-0,066
-701,787	-48,116	-0,155	-0,054
-700,772	-14,825	-0,101	-0,046
-699,758	-194,409	0,101	-0,001
-698,743	-164,227	0,186	0,006
-697,729	-200,000	0,004	-0,030
-696,714	-4,822	-0,199	-0,099
-695,699	-134,267	0,085	-0,007
-694,685	800,000	-0,047	-0,101
-693,670	-200,000	0,007	-0,145
-692,656	-200,000	-0,007	0,089
-691,641	24,262	0,032	-0,019
-690,627	32,952	-0,060	-0,037
-689,612	-200,000	-0,033	0,143
-688,597	-39,309	0,099	-0,037
-687,583	-179,056	-0,063	-0,001
-686,568	76,562	-0,137	-0,105
-685,554	124,471	-0,066	-0,060
-684,539	-34,523	0,040	0,016
-683,524	-13,909	-0,126	0,059
-682,510	-200,000	-0,015	-0,105
-681,495	126,489	0,025	0,023
-680,481	-200,000	0,004	-0,014
-679,466	-144,037	-0,045	0,003
-678,451	-95,375	-0,092	-0,018
-677,437	474,991	0,024	-0,039
-676,422	-45,053	0,272	0,097
-675,408	11,283	-0,120	0,066
-674,393	381,249	0,095	0,141
-673,378	-86,506	-0,053	-0,012
-672,364	-138,446	-0,122	0,010
-671,349	-200,000	-0,006	-0,076
-670,335	-31,185	0,056	0,023
-669,320	194,098	-0,026	-0,029
-668,305	-44,195	0,018	-0,006
-667,291	-200,000	0,002	-0,035
-666,276	-200,000	0,011	0,049
-665,262	-4,526	-0,167	0,083
-664,247	-32,699	0,044	0,017
-663,232	-200,000	0,020	0,144
-662,218	800,000	-0,018	-0,041
-661,203	-200,000	0,019	-0,067
-660,189	83,246	0,056	-0,044
-659,174	-81,350	-0,053	0,013
-658,159	157,980	-0,096	-0,096
-657,145	-33,585	-0,063	-0,025
-656,130	85,841	-0,079	0,063
-655,116	-19,579	0,108	0,048
-654,101	800,000	-0,046	0,101
-653,086	-200,000	-0,001	0,016
-652,072	-62,431	-0,069	-0,021
-651,057	27,235	-0,083	-0,050
-650,043	188,068	-0,093	-0,100
-649,028	38,434	0,118	-0,076
-648,014	172,048	0,034	-0,035
-646,999	-92,242	-0,059	-0,012
-645,984	49,652	0,096	-0,065
-644,970	180,048	-0,044	-0,046
-643,955	800,000	-0,038	-0,112
-642,941	96,993	-0,030	0,025
-641,926	-31,623	0,112	0,045
-640,911	29,389	-0,083	0,051
-639,897	442,806	-0,052	0,083
-638,882	-46,400	0,030	0,011
-637,868	-64,267	-0,086	-0,025
-636,853	-11,355	0,025	-0,012
-635,838	258,455	-0,136	-0,169
-634,824	141,090	-0,043	-0,041
-633,809	800,000	-0,061	-0,144
-632,795	-128,543	-0,131	-0,013
-631,780	-200,000	0,010	0,056
-630,765	-200,000	-0,004	-0,019
-629,751	800,000	-0,018	0,042
-628,736	33,939	0,067	-0,042
-627,722	587,625	-0,088	-0,158
-626,707	552,711	-0,064	-0,112
-625,692	-200,000	-0,012	-0,042
-624,678	-200,000	0,006	0,055
-623,663	-200,000	-0,020	-0,077
-622,649	800,000	-0,051	-0,103
-621,634	20,618	0,057	0,033
-620,619	-200,000	-0,000	-0,060
-619,605	597,078	-0,051	0,092
-618,590	-200,000	-0,017	0,121
-617,576	-200,000	-0,006	-0,095
-616,561	59,270	-0,073	0,051
-615,546	73,969	-0,155	-0,117
-614,532	-200,000	-0,103	-0,000
-613,517	-200,000	0,001	0,101
-612,503	-200,000	-0,008	-0,053
-611,488	34,558	0,087	0,054
-610,474	-200,000	-0,032	0,107
-609,459	-32,640	0,071	-0,028
-608,444	321,734	-0,083	-0,114
-607,430	150,613	-0,067	0,066
-606,415	-200,000	-0,014	0,106
-605,401	-67,029	-0,089	-0,025
-604,386	196,611	-0,125	0,138
-603,371	-54,079	0,074	0,024
-602,357	-158,177	0,078	0,003
-601,342	-84,707	-0,147	-0,033
-600,328	-200,000	0,003	0,027
-599,313	800,000	0,045	-0,115
-598,298	244,201	-0,048	-0,059
-597,284	117,206	0,047	-0,042
-596,269	-200,000	0,037	0,120
-595,255	28,891	0,098	0,060
-594,240	-24,550	0,125	-0,053
-593,225	173,641	-0,068	-0,071
-592,211	267,182	-0,035	-0,044
-591,196	800,000	0,071	-0,171
-590,182	800,000	0,011	0,035
-589,167	800,000	0,019	-0,054
-588,152	-49,232	0,065	0,022
-587,138	93,484	-0,061	-0,050
-586,123	-82,415	-0,134	0,031
-585,109	800,000	0,042	0,103
-584,094	-76,970	0,096	0,024
-583,079	-200,000	-0,024	0,084
-582,065	193,264	-0,011	-0,012
-581,050	-64,538	0,080	0,023
-580,036	-77,811	-0,018	0,005
-579,021	800,000	0,004	0,011
-578,006	191,688	-0,045	-0,049
-576,992	-200,000	-0,016	-0,111
-575,977	-130,353	0,089	0,009
-574,963	-200,000	-0,023	0,085
-573,948	-14,289	0,118	0,055
-572,934	78,106	0,055	0,042
-571,919	-52,116	-0,042	-0,014
-570,904	-200,000	-0,015	-0,065
-569,890	-200,000	0,006	-0,097
-568,875	298,355	-0,041	-0,054
-567,861	800,000	0,028	0,080
-566,846	-200,000	-0,011	0,053
-565,831	298,254	-0,043	0,057
-564,817	-67,972	0,128	0,036
-563,802	81,408	-0,089	-0,069
-562,788	-200,000	-0,017	-0,121
-561,773	249,102	0,040	0,049
-560,758	-16,100	0,040	0,018
-559,744	-8,546	-0,117	0,056
-558,729	-107,694	-0,121	-0,019
-557,715	-66,802	-0,067	0,019
-556,700	800,000	-0,031	0,069
-555,685	-128,472	0,110	0,011
-554,671	99,573	-0,067	0,055
-553,656	-200,000	0,034	-0,110
-552,642	-200,000	-0,009	-0,036
-551,627	276,212	0,035	-0,045
-550,612	176,889	-0,013	-0,014
-549,598	800,000	-0,051	-0,147
-548,583	25,323	-0,031	0,019
-547,569	800,000	0,019	0,040
-546,554	800,000	0,036	0,101
-545,539	531,926	-0,008	0,013
-544,525	-200,000	-0,013	0,125
-543,510	81,025	-0,087	-0,068
-542,496	-76,235	-0,076	-0,019
-541,481	-125,151	-0,088	0,010
-540,466	-200,000	-0,043	-0,213
-539,452	800,000	0,048	0,105
-538,437	161,700	0,104	0,105
-537,423	800,000	0,016	0,046
-536,408	800,000	0,024	-0,059
-535,393	-200,000	-0,003	-0,080
-534,379	800,000	-0,079	-0,207
-533,364	-200,000	-0,005	-0,029
-532,350	658,365	0,085	-0,158
-531,335	800,000	0,008	0,024
-530,321	60,642	-0,055	-0,039
-529,306	800,000	0,065	0,140
-528,291	-81,582	-0,062	0,015
-527,277	586,133	-0,047	-0,083
-526,262	21,165	-0,039	-0,022
-525,248	-87,097	-0,030	0,007
-524,233	-77,967	-0,074	0,018
-523,218	581,142	-0,052	0,093
-522,204	-131,389	-0,027	-0,003
-521,189	800,000	-0,046	-0,095
-520,175	-39,663	-0,032	-0,012
-519,160	375,808	-0,053	-0,078
-518,145	139,322	-0,088	-0,083
-517,131	57,313	-0,040	-0,028
-516,116	32,850	0,042	0,026
-515,102	800,000	0,014	0,038
-514,087	-2,494	-0,052	-0,026
-513,072	153,864	-0,061	0,060
-512,058	-200,000	0,002	-0,016
-511,043	521,704	-0,050	0,085
-510,029	-59,810	0,051	-0,016
-509,014	-200,000	0,014	-0,070
-507,999	800,000	-0,042	0,085
-506,985	-0,173	0,044	-0,022
-505,970	110,714	-0,132	-0,114
-504,956	-200,000	0,003	-0,171
-503,941	272,636	-0,024	0,030
-502,926	-128,716	-0,128	0,013
-501,912	-80,598	-0,045	0,011
-500,897	-54,816	0,027	-0,009
-499,883	153,102	0,042	-0,041
-498,868	57,851	-0,097	-0,068
-497,853	262,596	-0,057	-0,071
-496,839	-136,165	0,041	0,003
-495,824	-200,000	-0,019	0,159
-494,810	-5,906	-0,137	-0,067
-493,795	-200,000	-0,047	0,155
-492,781	-200,000	0,000	-0,009
-491,766	800,000	0,017	0,033
-490,751	800,000	-0,046	-0,104
-489,737	-200,000	0,006	-0,047
-488,722	-200,000	0,003	-0,057
-487,708	177,697	0,030	-0,032
-486,693	-59,614	0,132	0,040
-485,678	-64,278	-0,073	-0,021
-484,664	6,297	-0,081	-0,043
-483,649	-200,000	0,010	-0,232
-482,635	-200,000	0,009	0,062
-481,620	800,000	-0,046	-0,125
-480,605	123,680	0,091	0,082
-479,591	-8,598	0,058	0,028
-478,576	-69,262	0,110	-0,030
-477,562	-108,920	-0,071	0,011
-476,547	-71,530	-0,089	-0,024
-475,532	-200,000	-0,028	0,094
-474,518	112,393	0,046	0,040
-473,503	343,244	0,045	0,064
-472,489	55,608	0,109	-0,076
-471,474	-200,000	0,017	0,064
-470,459	393,909	-0,048	-0,071
-469,445	473,745	0,018	0,028
-468,430	381,003	0,096	-0,142
-467,416	-19,732	0,109	-0,048
-466,401	-200,000	-0,006	0,092
-465,386	800,000	0,046	0,123
-464,372	-200,000	-0,022	-0,093
-463,357	287,489	-0,068	-0,089
-462,343	329,342	-0,044	-0,061
-461,328	76,480	0,046	-0,035
-460,313	293,975	-0,069	0,091
-459,299	-200,000	0,018	0,084
-458,284	-89,279	0,118	-0,025
-457,270	-53,252	0,136	0,044
-456,255	265,971	0,029	-0,037
-455,241	800,000	-0,009	-0,027
-454,226	-109,808	-0,172	0,026
-453,211	116,205	0,064	0,056
-452,197	60,399	0,056	-0,040
-451,182	102,492	-0,169	0,142
-450,168	56,699	-0,072	0,050
-449,153	50,766	0,084	-0,057
-448,138	130,313	0,098	-0,090
-447,124	9,456	-0,053	0,029
-446,109	-14,402	0,026	0,012
-445,095	-76,631	-0,063	-0,016
-444,080	800,000	-0,075	0,150
-443,065	-109,915	0,111	0,017
-442,051	-200,000	0,007	-0,100
-441,036	19,743	-0,055	0,032
-440,022	800,000	-0,021	-0,045
-439,007	-117,813	0,053	-0,007
-437,992	32,524	0,056	0,034
-436,978	12,083	0,241	-0,132
-435,963	-163,343	-0,014	-0,000
-434,949	-200,000	0,018	0,130
-433,934	268,688	0,029	-0,036
-432,919	112,276	0,063	-0,054
-431,905	0,117	-0,137	-0,070
-430,890	110,247	0,106	0,091
-429,876	-200,000	-0,005	0,042
-428,861	630,548	0,071	0,129
-427,846	-200,000	0,000	0,161
-426,832	-43,372	-0,090	-0,033
-425,817	88,731	-0,019	-0,015
-424,803	-152,272	0,006	-0,000
-423,788	309,191	0,058	-0,078
-422,773	-126,397	0,103	-0,011
-421,759	569,002	0,028	0,049
-420,744	-200,000	0,009	0,037
-419,730	18,470	-0,106	0,060
-418,715	-39,417	-0,078	-0,029
-417,701	-156,790	0,082	0,004
-416,686	38,513	0,061	0,039
-415,671	800,000	-0,019	-0,055
-414,657	800,000	0,073	0,151
-413,642	-24,029	-0,073	-0,031
-412,628	93,500	0,118	-0,095
-411,613	25,791	0,082	-0,049
-410,598	526,007	0,051	-0,086
-409,584	-200,000	-0,004	-0,083
-408,569	144,007	-0,074	-0,071
-407,555	-200,000	0,003	0,055
-406,540	-31,541	0,062	0,025
-405,525	-123,424	-0,148	-0,017
-404,511	-116,549	-0,107	0,014
-403,496	-115,735	-0,043	0,006
-402,482	-200,000	0,022	-0,080
-401,467	-200,000	-0,011	0,076
-400,452	-162,681	0,127	0,004
-399,438	160,639	0,030	0,030
-398,423	91,746	-0,099	0,079
-397,409	-200,000	0,025	-0,108
-396,394	165,813	-0,040	0,041
-395,379	-200,000	-0,004	0,027
-394,365	525,335	-0,045	0,076
-393,350	-17,082	0,028	0,013
-392,336	-74,629	0,161	-0,041
-391,321	-200,000	-0,033	-0,134
-390,306	800,000	0,046	-0,119
-389,292	800,000	-0,019	0,053
-388,277	-19,215	-0,096	0,042
-387,263	-51,273	0,129	-0,043
-386,248	71,166	-0,041	0,031
-385,233	-42,628	0,243	-0,088
-384,219	-200,000	-0,010	0,032
-383,204	-138,074	-0,044	0,003
-382,190	-97,094	0,129	0,024
-381,175	-18,297	-0,092	0,041
-380,160	-34,685	0,134	0,052
-379,146	751,325	0,053	0,103
-378,131	800,000	0,015	0,045
-377,117	-200,000	-0,002	0,045
-376,102	217,304	-0,031	-0,035
-375,088	442,120	-0,030	0,048
-374,073	-31,624	0,152	0,061
-373,058	144,811	0,031	-0,030
-372,044	66,160	0,102	-0,074
-371,029	21,069	0,114	-0,066
-370,015	95,177	-0,012	-0,009
-369,000	19,834	0,059	-0,034
-367,985	-200,000	0,003	0,033
-366,971	5,794	-0,035	0,019
-365,956	-43,244	0,200	0,072
-364,942	450,716	-0,056	-0,089
-363,927	800,000	0,031	-0,074
-362,912	-200,000	0,004	-0,022
-361,898	-2,257	0,045	0,023
-360,883	211,676	0,089	0,100
-359,869	-58,907	-0,053	-0,016
-358,854	-200,000	-0,014	0,110
-357,839	-200,000	-0,002	0,031
-356,825	800,000	-0,035	-0,085
-355,810	-58,024	0,054	-0,017
-354,796	-134,394	-0,053	0,005
-353,781	-200,000	-0,012	0,106
-352,766	140,144	0,023	0,021
-351,752	740,613	0,048	-0,093
-350,737	221,680	-0,074	0,085
-349,723	198,563	0,067	0,073
-348,708	112,786	0,077	-0,067
-347,693	-41,471	-0,036	0,013
-346,679	800,000	0,018	-0,050
-345,664	-20,841	-0,074	-0,032
-344,650	-137,272	0,064	-0,005
-343,635	393,164	-0,074	0,111
-342,620	-2,326	0,022	0,011
-341,606	294,951	-0,038	-0,049
-340,591	-197,241	-0,080	-0,000
-339,577	121,053	-0,109	-0,097
-338,562	-200,000	0,039	-0,159
-337,548	-11,776	0,117	0,055
-336,533	106,049	0,101	0,085
-335,518	1,164	0,008	0,004
-334,504	-158,940	-0,013	0,001
-333,489	-160,382	-0,076	-0,003
-332,475	800,000	-0,025	0,059
-331,460	-200,000	0,000	0,044
-330,445	219,952	0,097	0,111
-329,431	62,411	-0,015	0,011
-328,416	17,304	0,039	-0,022
-327,402	-32,412	0,066	-0,026
-326,387	800,000	-0,004	0,010
-325,372	-150,160	-0,100	0,005
-324,358	-47,664	-0,141	0,049
-323,343	325,101	-0,003	-0,004
-322,329	-87,319	0,094	-0,020
-321,314	-200,000	-0,000	0,106
-320,299	-132,777	0,140	0,013
-319,285	-200,000	0,005	-0,020
-318,270	306,051	0,049	-0,065
-317,256	418,058	-0,079	-0,121
-316,241	285,780	0,055	-0,071
-315,226	-200,000	-0,006	-0,052
-314,212	49,044	0,147	0,098
-313,197	-200,000	0,036	0,123
-312,183	52,658	0,036	0,024
-311,168	800,000	0,044	-0,095
-310,153	-200,000	0,004	-0,068
-309,139	-200,000	0,034	-0,150
-308,124	81,410	-0,061	-0,047
-307,110	89,991	-0,040	-0,032
-306,095	-136,398	-0,033	-0,003
-305,080	202,147	0,061	0,067
-304,066	-135,835	-0,072	-0,006
-303,051	354,042	-0,016	0,022
-302,037	62,534	0,024	-0,017
-301,022	113,872	-0,048	-0,042
-300,008	234,076	0,117	0,138
-298,993	-117,321	-0,088	-0,011
-297,978	78,425	-0,039	-0,030
-296,964	315,059	-0,040	0,054
-295,949	304,148	0,096	-0,127
-294,935	211,054	0,022	0,025
-293,920	-153,427	-0,085	-0,004
-292,905	21,261	0,094	-0,054
-291,891	800,000	0,079	0,188
-290,876	-200,000	0,014	0,068
-289,862	-105,046	-0,111	-0,018
-288,847	-38,922	-0,045	0,017
-287,832	-200,000	0,012	-0,077
-286,818	800,000	-0,070	0,195
-285,803	549,913	0,077	0,132
-284,789	95,776	-0,116	0,095
-283,774	800,000	0,008	0,026
-282,759	515,417	0,071	0,118
-281,745	55,623	0,097	0,067
-280,730	37,747	-0,102	0,065
-279,716	-146,475	-0,066	-0,004
-278,701	162,848	0,053	0,053
-277,686	800,000	0,014	0,042
-276,672	262,630	0,064	0,079
-275,657	129,310	-0,037	0,034
-274,643	137,447	-0,038	-0,035
-273,628	375,207	0,050	0,072
-272,613	800,000	0,027	0,060
-271,599	256,781	-0,081	-0,099
-270,584	-120,686	-0,080	-0,009
-269,570	155,214	0,102	0,100
-268,555	28,755	0,106	-0,063
-267,540	-165,512	-0,079	-0,002
-266,526	800,000	0,047	-0,125
-265,511	386,459	-0,086	-0,126
-264,497	-200,000	0,003	-0,058
-263,482	336,201	0,075	0,104
-262,467	-118,983	0,102	0,013
-261,453	-200,000	0,017	0,080
-260,438	-200,000	-0,002	0,063
-259,424	647,880	0,053	-0,097
-258,409	800,000	-0,030	-0,092
-257,395	-200,000	-0,001	-0,080
-256,380	313,077	-0,044	0,059
-255,365	-200,000	0,020	0,104
-254,351	403,700	-0,049	0,074
-253,336	34,390	-0,094	-0,058
-252,322	98,403	-0,098	-0,080
-251,307	-200,000	-0,011	0,042
-250,292	-52,231	-0,016	0,005
-249,278	-156,604	0,115	-0,005
-248,263	-200,000	-0,001	0,083
-247,249	-200,000	0,024	0,124
-246,234	40,785	0,019	0,012
-245,219	78,900	0,121	0,092
-244,205	-200,000	-0,036	-0,174
-243,190	-15,828	-0,031	-0,014
-242,176	-65,453	0,053	0,015
-241,161	384,883	0,131	0,193
-240,146	289,740	0,042	0,054
-239,132	-150,935	-0,060	-0,003
-238,117	-46,258	-0,071	-0,025
-237,103	-200,000	0,033	-0,198
-236,088	-161,744	-0,035	-0,001
-235,073	-200,000	-0,029	0,098
-234,059	146,481	-0,027	0,026
-233,044	50,742	-0,100	0,067
-232,030	138,220	-0,038	-0,036
-231,015	115,310	0,002	0,002
-230,000	58,149	-0,101	-0,070
-228,986	-60,360	0,048	-0,014
-227,971	453,182	-0,024	-0,037
-226,957	800,000	0,104	0,207
-225,942	25,222	-0,074	0,044
-224,927	-102,957	0,091	0,015
-223,913	-78,314	-0,111	0,027
-222,898	-85,304	-0,117	0,026
-221,884	-157,385	0,040	-0,002
-220,869	417,750	-0,063	-0,097
-219,855	36,197	-0,094	-0,059
-218,840	-97,492	0,065	-0,012
-217,825	-22,356	0,058	-0,025
-216,811	-102,241	-0,138	-0,023
-215,796	800,000	0,029	-0,086
-214,782	405,473	-0,079	-0,118
-213,767	800,000	0,025	0,052
-212,752	-200,000	-0,004	0,058
-211,738	-195,683	0,138	0,001
-210,723	-120,432	-0,064	0,008
-209,709	-194,136	-0,084	0,000
-208,694	-41,607	-0,171	-0,062
-207,679	-200,000	0,001	-0,077
-206,665	-129,195	0,147	0,014
-205,650	-108,447	-0,095	0,014
-204,636	-200,000	0,012	-0,117
-203,621	-136,042	-0,051	-0,004
-202,606	240,041	-0,034	0,041
-201,592	-200,000	0,021	0,125
-200,577	-79,476	-0,108	0,026
-199,563	-16,940	0,072	0,032
-198,548	-200,000	-0,025	0,107
-197,533	-71,371	0,122	-0,032
-196,519	-70,586	0,074	0,020
-195,504	800,000	0,057	-0,119
-194,490	-28,196	-0,067	-0,027
-193,475	-90,044	-0,061	0,012
-192,460	-159,490	0,093	-0,004
-191,446	800,000	-0,016	0,049
-190,431	331,600	0,044	0,060
-189,417	181,191	0,084	0,088
-188,402	604,225	-0,054	0,096
-187,387	800,000	-0,037	-0,077
-186,373	290,632	0,026	0,033
-185,358	-200,000	-0,012	0,085
-184,344	305,246	0,116	0,153
-183,329	-200,000	-0,019	0,073
-182,315	94,029	0,144	0,116
-181,300	14,642	0,032	-0,018
-180,285	-200,000	-0,013	-0,078
-179,271	130,814	0,044	0,040
-178,256	-200,000	-0,018	-0,135
-177,242	404,522	-0,053	0,079
-176,227	800,000	-0,051	-0,134
-175,212	-93,508	-0,119	0,023
-174,198	-132,747	-0,008	-0,001
-173,183	273,073	-0,092	0,116
-172,169	-40,326	0,016	0,006
-171,154	-200,000	0,011	0,246
-170,139	19,486	0,116	0,066
-169,125	15,036	-0,098	-0,054
-168,110	800,000	-0,044	0,092
-167,096	-200,000	0,026	-0,111
-166,081	-11,976	-0,031	0,014
-165,066	-200,000	-0,007	-0,117
-164,052	136,267	-0,108	-0,100
-163,037	-113,200	0,085	0,012
-162,023	-200,000	0,002	0,119
-161,008	574,876	-0,055	0,095
-159,993	-200,000	0,002	-0,094
-158,979	-129,652	0,220	0,021
-157,964	800,000	-0,033	-0,102
-156,950	-68,720	0,036	-0,010
-155,935	800,000	0,040	-0,102
-154,920	-200,000	0,017	-0,079
-153,906	-108,194	0,071	-0,011
-152,891	800,000	0,006	0,016
-151,877	800,000	0,038	-0,117
-150,862	638,093	-0,094	-0,170
-149,847	187,635	0,078	-0,083
-148,833	496,115	0,034	-0,055
-147,818	-95,789	0,181	-0,034
-146,804	800,000	-0,006	-0,016
-145,789	800,000	-0,022	-0,069
-144,775	-200,000	-0,021	-0,147
-143,760	-200,000	-0,001	0,102
-142,745	-200,000	0,050	-0,190
-141,731	800,000	0,030	0,080
-140,716	21,728	-0,078	0,045
-139,702	100,435	-0,055	0,045
-138,687	210,612	0,155	0,172
-137,672	-200,000	-0,004	0,066
-136,658	-200,000	0,012	0,063
-135,643	800,000	-0,012	-0,025
-134,629	772,845	0,039	-0,076
-133,614	-1,902	0,077	0,038
-132,599	6,031	-0,062	0,032
-131,585	-104,690	0,063	0,010
-130,570	-110,336	-0,098	-0,014
-129,556	3,585	-0,162	0,083
-128,541	55,388	0,029	0,020
-127,526	52,017	0,052	0,035
-126,512	-199,979	0,114	-0,000
-125,497	-200,000	-0,052	0,167
-124,483	85,671	-0,070	-0,054
-123,468	800,000	-0,054	0,108
-122,453	800,000	-0,053	-0,142
-121,439	-200,000	0,006	-0,043
-120,424	58,541	-0,055	0,038
-119,410	-130,005	0,064	-0,006
-118,395	168,619	0,086	0,087
-117,380	-200,000	0,004	0,128
-116,366	156,904	-0,016	0,016
-115,351	-200,000	-0,043	-0,151
-114,337	489,848	-0,019	-0,031
-113,322	800,000	-0,043	0,085
-112,307	-53,161	-0,050	0,016
-111,293	348,897	0,024	-0,033
-110,278	-200,000	-0,027	0,090
-109,264	-200,000	0,003	0,052
-108,249	333,363	-0,078	-0,107
-107,234	-200,000	0,001	-0,122
-106,220	800,000	-0,020	-0,041
-105,205	219,765	0,168	-0,191
-104,191	-175,897	0,086	-0,002
-103,176	97,730	0,106	-0,086
-102,162	-200,000	0,007	-0,022
-101,147	-72,446	-0,113	0,029
-100,132	800,000	-0,018	0,042
-99,118	338,705	0,129	0,178
-98,103	-200,000	0,011	-0,046
-97,089	-120,996	-0,032	-0,004
-96,074	-96,493	0,048	-0,009
-95,059	158,152	0,057	0,056
-94,045	-200,000	0,017	-0,209
-93,030	91,359	-0,054	-0,043
-92,016	199,782	0,155	-0,169
-91,001	800,000	0,016	-0,038
-89,986	-78,729	-0,034	-0,008
-88,972	-166,610	0,112	0,003
-87,957	-200,000	0,024	0,087
-86,943	-23,764	-0,069	0,029
-85,928	84,388	-0,031	-0,024
-84,913	327,395	-0,036	0,049
-83,899	-200,000	0,030	0,152
-82,884	168,540	0,093	-0,093
-81,870	-161,456	0,207	0,007
-80,855	800,000	-0,067	0,159
-79,840	60,307	-0,057	0,040
-78,826	658,307	0,028	-0,050
-77,811	-29,334	-0,093	-0,037
-76,797	-7,463	0,058	0,028
-75,782	-200,000	0,016	0,109
-74,767	-200,000	-0,047	0,203
-73,753	87,839	0,073	0,057
-72,738	-200,000	0,036	-0,182
-71,724	-174,476	-0,025	-0,000
-70,709	-143,059	-0,125	0,008
-69,694	40,478	0,099	-0,063
-68,680	-200,000	-0,004	0,076
-67,665	-174,341	0,024	0,000
-66,651	310,727	0,036	0,048
-65,636	101,576	0,070	-0,057
-64,622	800,000	-0,017	-0,042
-63,607	61,348	-0,135	-0,094
-62,592	-38,056	-0,075	0,028
-61,578	800,000	-0,057	-0,125
-60,563	25,771	0,068	0,040
-59,549	145,880	-0,157	0,148
-58,534	23,458	-2,005	-1,161
-57,519	484,318	-1,257	-2,026
-56,505	-200,000	-0,342	-4,408
-55,490	573,895	0,849	1,467
-54,476	800,000	5,175	11,257
-53,461	-200,000	21,471	343,721
-52,446	800,000	762,941	2361,997
-51,432	555,492	1663,861	2837,637
-50,417	72,666	1660,110	1220,886
-49,403	17,589	1533,325	857,818
-48,388	11,531	1457,384	786,050
-47,373	19,443	1448,864	819,368
-46,359	15,079	1437,840	792,368
-45,344	9,827	1433,533	764,972
-44,330	9,737	1432,107	763,754
-43,315	9,737	1430,061	762,633
-42,300	9,760	1428,214	761,726
-41,286	9,735	1426,960	760,907
-40,271	9,761	1425,495	760,220
-39,257	9,740	1424,732	759,683
-38,242	9,796	1423,576	759,301
-37,227	9,741	1422,567	758,476
-36,213	9,739	1421,199	757,706
-35,198	9,788	1420,020	757,276
-34,184	9,843	1418,761	756,836
-33,169	9,742	1417,674	755,749
-32,154	9,765	1416,742	755,332
-31,140	9,807	1415,276	754,718
-30,125	9,849	1414,066	754,241
-29,111	9,800	1413,167	753,498
-28,096	9,811	1411,980	752,890
-27,082	9,727	1410,537	751,696
-26,067	9,725	1409,722	751,222
-25,052	9,784	1408,354	750,738
-24,038	9,718	1407,821	750,118
-23,023	9,760	1406,741	749,707
-22,009	9,751	1405,709	749,086
-20,994	9,736	1404,639	748,415
-19,979	9,759	1403,747	748,018
-18,965	9,719	1402,863	747,331
-17,950	9,727	1401,814	746,781
-16,936	9,682	1401,020	746,116
-15,921	9,659	1400,097	745,488
-14,906	9,600	1399,348	744,784
-13,892	9,680	1398,033	744,431
-12,877	9,641	1397,387	743,872
-11,863	9,639	1396,642	743,437
-10,848	9,614	1395,855	742,875
-9,833	9,620	1394,627	742,218
-8,819	9,562	1393,903	741,536
-7,804	9,553	1393,029	740,999
-6,790	9,624	1391,945	740,721
-5,775	9,555	1390,989	739,865
-4,760	9,555	1389,834	739,222
-3,746	9,546	1389,126	738,774
-2,731	9,527	1388,094	738,106
-1,717	9,560	1387,161	737,733
-0,702	9,575	1385,331	736,801
0,313	13,690	1297,849	709,049
1,327	29,965	688,293	412,828
2,342	46,816	118,925	77,786
3,356	-0,044	16,445	8,230
4,371	10,377	3,632	1,944
5,386	2,014	1,143	0,580
6,400	800,000	0,263	0,608
7,415	-112,345	-0,256	-0,036
8,429	258,727	-0,171	-0,208
9,444	134,245	-0,286	-0,261
10,459	201,028	-0,219	-0,237
11,473	59,862	-0,311	-0,216
12,488	216,446	-0,320	-0,359
13,502	-92,075	-0,303	-0,060
14,517	68,405	-0,344	-0,248
15,531	22,570	-0,441	-0,253
16,546	1,777	-0,317	-0,161
17,561	-20,147	-0,344	-0,149
18,575	-18,478	-0,250	-0,110
19,590	59,421	-0,286	-0,198
20,604	-169,241	-0,255	-0,007
21,619	35,610	-0,554	-0,342
22,634	131,795	-0,410	-0,371
23,648	35,580	-0,320	-0,198
24,663	21,639	-0,411	-0,235
25,677	143,413	-0,417	-0,391
26,692	134,934	-0,378	-0,345
27,707	42,420	-0,403	-0,257
28,721	-24,540	-0,252	-0,105
29,736	-31,493	-0,505	-0,199
30,750	30,039	-0,578	-0,346
31,765	-24,653	-0,564	-0,235
32,780	54,389	-0,208	-0,141
33,794	350,347	-0,195	-0,272
34,809	170,965	-0,292	-0,295
35,823	343,027	-0,266	-0,368
36,838	209,509	-0,304	-0,336
37,853	189,582	-0,341	-0,360
38,867	40,907	-0,447	-0,283
39,882	222,298	-0,306	-0,346
40,896	109,071	-0,211	-0,177
41,911	158,797	-0,380	-0,371
42,926	254,700	-0,247	-0,297
43,940	-42,433	-0,400	-0,143
44,955	5,203	-0,288	-0,149
45,969	6,343	-0,438	-0,228
46,984	45,503	-0,300	-0,194
47,999	55,050	-0,350	-0,237
49,013	77,522	-0,343	-0,256
50,028	138,398	-0,310	-0,286
51,042	61,527	-0,361	-0,252
52,057	34,474	-0,273	-0,167
53,071	191,163	-0,233	-0,246
54,086	119,829	-0,270	-0,235
55,101	41,143	-0,395	-0,250
56,115	-39,502	-0,257	-0,094
57,130	149,158	-0,190	-0,181
58,144	31,814	-0,529	-0,319
59,159	60,596	-0,378	-0,263
60,174	221,034	-0,223	-0,251
61,188	-6,872	-0,449	-0,214
62,203	127,794	-0,241	-0,215
63,217	576,149	-0,144	-0,248
64,232	15,076	-0,293	-0,161
65,247	105,565	-0,362	-0,300
66,261	-132,059	-0,248	-0,022
67,276	-102,755	-0,399	-0,066
68,290	11,135	-0,315	-0,169
69,305	50,012	-0,264	-0,174
70,320	86,249	-0,368	-0,284
71,334	-20,073	-0,309	-0,133
72,349	-121,525	-0,371	-0,043
73,363	24,078	-0,362	-0,209
74,378	48,226	-0,297	-0,194
75,393	-77,396	-0,413	-0,100
76,407	63,206	-0,355	-0,249
77,422	53,557	-0,318	-0,214
78,436	62,899	-0,322	-0,225
79,451	-45,566	-0,282	-0,097
80,466	19,117	-0,334	-0,187
81,480	131,523	-0,256	-0,230
82,495	466,835	-0,200	-0,315
83,509	93,456	-0,215	-0,171
84,524	-170,699	-0,299	-0,007
85,539	45,413	-0,337	-0,217
86,553	157,182	-0,299	-0,290
87,568	50,412	-0,357	-0,236
88,582	129,521	-0,329	-0,294
89,597	-4,699	-0,226	-0,109
90,611	250,871	-0,216	-0,257
91,626	-34,788	-0,394	-0,150
92,641	-114,372	-0,185	-0,025
93,655	81,665	-0,348	-0,263
94,670	-15,549	-0,398	-0,177
95,684	-87,536	-0,322	-0,068
96,699	26,588	-0,331	-0,193
97,714	-27,616	-0,263	-0,106
98,728	13,834	-0,152	-0,082
99,743	21,449	-0,290	-0,164
100,757	-27,599	-0,383	-0,155
101,772	128,244	-0,242	-0,215
102,787	149,138	-0,258	-0,244
103,801	72,525	-0,383	-0,279
104,816	59,682	-0,244	-0,168
105,830	224,515	-0,182	-0,206
106,845	0,695	-0,256	-0,128
107,860	80,462	-0,221	-0,166
108,874	48,732	-0,324	-0,212
109,889	161,169	-0,267	-0,261
110,903	247,606	-0,223	-0,264
111,918	-62,608	-0,393	-0,113
112,933	132,815	-0,161	-0,146
113,947	9,536	-0,321	-0,169
114,962	147,996	-0,164	-0,155
115,976	-200,000	-0,058	-0,234
116,991	-45,952	-0,270	-0,093
118,006	-42,049	-0,251	-0,089
119,020	-98,717	-0,302	-0,053
120,035	135,089	-0,217	-0,197
121,049	-12,655	-0,266	-0,121
122,064	153,534	-0,171	-0,163
123,079	229,703	-0,161	-0,184
124,093	88,267	-0,200	-0,155
125,108	-84,308	-0,284	-0,062
126,122	24,448	-0,170	-0,098
127,137	38,249	-0,250	-0,155
128,151	-65,808	-0,286	-0,079
129,166	-74,009	-0,248	-0,062
130,181	182,512	-0,179	-0,184
131,195	63,221	-0,331	-0,231
132,210	83,738	-0,301	-0,228
133,224	145,506	-0,247	-0,231
134,239	-8,413	-0,147	-0,068
135,254	183,473	-0,166	-0,172
136,268	396,022	-0,169	-0,246
137,283	261,075	-0,125	-0,151
138,297	16,887	-0,188	-0,104
139,312	161,255	-0,312	-0,304
140,327	800,000	-0,158	-0,309
141,341	285,402	-0,220	-0,276
142,356	-103,667	-0,232	-0,037
143,370	63,203	-0,247	-0,172
144,385	118,709	-0,267	-0,229
145,400	223,584	-0,241	-0,272
146,414	609,539	-0,199	-0,347
147,429	48,648	-0,335	-0,218
148,443	299,760	-0,146	-0,187
149,458	50,486	-0,232	-0,152
150,473	37,726	-0,144	-0,089
151,487	98,022	-0,226	-0,181
152,502	45,373	-0,228	-0,146
153,516	108,474	-0,227	-0,189
154,531	159,378	-0,161	-0,156
155,546	159,047	-0,210	-0,204
156,560	-9,594	-0,244	-0,113
157,575	-90,834	-0,173	-0,034
158,589	270,493	-0,151	-0,185
159,604	58,739	-0,250	-0,170
160,619	50,007	-0,378	-0,247
161,633	259,385	-0,285	-0,343
162,648	16,125	-0,239	-0,131
163,662	-37,944	-0,303	-0,111
164,677	383,053	-0,133	-0,190
165,692	-82,917	-0,246	-0,055
166,706	-12,282	-0,413	-0,187
167,721	121,847	-0,281	-0,243
168,735	800,000	-0,107	-0,316
169,750	182,660	-0,264	-0,271
170,764	-88,626	-0,106	0,022
171,779	-97,294	-0,205	-0,037
172,794	-2,562	-0,238	-0,115
173,808	800,000	-0,123	-0,267
174,823	10,621	-0,249	-0,132
175,837	106,295	-0,159	-0,131
176,852	373,703	-0,189	-0,268
177,867	-21,395	-0,236	-0,100
178,881	-200,000	-0,044	-0,199
179,896	43,368	-0,290	-0,184
180,910	14,580	-0,209	0,113
181,925	-46,382	-0,323	-0,109
182,940	48,808	-0,157	-0,102
183,954	100,690	-0,270	-0,218
184,969	177,888	-0,077	-0,078
185,983	136,069	-0,194	-0,176
186,998	-139,356	-0,146	-0,011
188,013	606,350	-0,130	-0,226
189,027	800,000	-0,114	-0,311
190,042	-4,453	-0,243	-0,116
191,056	79,837	-0,145	-0,108
192,071	-37,427	-0,277	-0,102
193,086	5,499	-0,187	-0,095
194,100	634,231	-0,129	-0,228
195,115	-45,081	-0,136	-0,047
196,129	377,804	-0,209	-0,297
197,144	297,098	-0,150	-0,191
198,159	738,356	-0,074	-0,137
199,173	150,331	-0,242	-0,228
200,188	-65,321	-0,185	-0,051
201,202	-104,615	-0,236	-0,037
202,217	552,481	-0,124	-0,207
203,232	539,589	-0,195	-0,322
204,246	470,453	-0,221	-0,345
205,261	-109,906	-0,184	0,026
206,275	114,175	-0,199	-0,168
207,290	-200,000	-0,040	-0,179
208,304	-61,979	-0,102	-0,029
209,319	-43,064	-0,158	-0,055
210,334	-163,858	-0,110	0,003
211,348	-16,247	-0,178	-0,078
212,363	42,296	-0,213	-0,134
213,377	142,747	-0,243	-0,223
214,392	-200,000	-0,001	-0,063
215,407	163,586	-0,120	-0,117
216,421	92,739	-0,164	-0,128
217,436	114,488	-0,161	-0,135
218,450	147,044	-0,162	-0,151
219,465	269,289	-0,123	-0,149
220,480	-50,530	-0,259	-0,084
221,494	37,132	-0,195	-0,119
222,509	166,036	-0,170	-0,166
223,523	-200,000	-0,039	-0,201
224,538	51,824	-0,235	-0,154
225,553	242,724	-0,255	-0,295
226,567	81,132	-0,099	-0,074
227,582	181,546	-0,177	-0,180
228,596	458,170	-0,084	-0,129
229,611	171,823	-0,094	-0,094
230,626	600,277	-0,107	-0,185
231,640	481,273	-0,217	-0,342
232,655	193,768	-0,174	-0,182
233,669	42,155	-0,192	-0,121
234,684	10,944	-0,095	-0,050
235,699	210,436	-0,150	-0,163
236,713	-98,144	-0,145	-0,025
237,728	-48,429	-0,182	-0,060
238,742	72,264	-0,172	-0,124
239,757	243,256	-0,220	-0,256
240,772	291,119	-0,158	-0,198
241,786	85,489	-0,240	-0,182
242,801	-9,760	-0,231	-0,106
243,815	2,650	-0,207	-0,103
244,830	800,000	-0,054	-0,129
245,844	-25,577	-0,187	-0,076
246,859	-5,234	-0,123	-0,058
247,874	402,548	-0,141	-0,206
248,888	512,510	-0,143	-0,231
249,903	-52,829	-0,198	-0,062
250,917	-38,834	-0,158	-0,057
251,932	-64,361	-0,105	-0,029
252,947	352,286	-0,204	-0,280
253,961	800,000	-0,118	-0,272
254,976	-97,820	-0,247	-0,044
255,990	522,890	-0,125	-0,203
257,005	336,016	-0,159	-0,214
258,020	-97,553	-0,218	0,039
259,034	-76,398	-0,197	-0,047
260,049	735,644	-0,091	-0,169
261,063	391,068	-0,098	-0,141
262,078	-8,232	-0,164	-0,076
263,093	15,421	-0,246	-0,133
264,107	194,289	-0,188	-0,197
265,122	-0,029	-0,191	-0,094
266,136	222,086	-0,062	-0,069
267,151	-0,134	-0,208	-0,101
268,166	484,294	-0,104	-0,164
269,180	280,292	-0,146	-0,180
270,195	11,706	-0,237	-0,125
271,209	108,007	-0,113	-0,092
272,224	11,639	-0,161	-0,085
273,239	-65,590	-0,139	-0,038
274,253	79,543	-0,060	-0,044
275,268	-100,856	-0,195	-0,033
276,282	-200,000	-0,076	-0,234
277,297	-147,902	-0,156	0,009
278,312	-49,602	-0,156	-0,051
279,326	117,924	-0,106	-0,090
280,341	21,051	-0,174	-0,097
281,355	177,834	-0,091	0,091
282,370	-38,905	-0,111	-0,040
283,384	149,944	-0,152	-0,142
284,399	10,659	-0,268	-0,140
285,414	83,363	-0,140	-0,105
286,428	-66,300	-0,220	-0,060
287,443	685,120	-0,055	-0,098
288,457	203,722	-0,173	-0,185
289,472	18,068	-0,222	-0,121
290,487	-156,497	-0,189	0,008
291,501	-35,669	-0,207	-0,077
292,516	61,679	-0,107	-0,073
293,530	243,642	-0,066	-0,076
294,545	67,730	-0,162	-0,114
295,560	-200,000	-0,028	-0,214
296,574	-70,569	-0,118	0,030
297,589	163,649	-0,216	-0,208
298,603	27,481	-0,187	-0,108
299,618	49,914	-0,210	-0,136
300,633	800,000	-0,028	-0,057
301,647	-200,000	0,013	-0,053
302,662	-200,000	-0,037	-0,215
303,676	-92,620	-0,211	-0,040
304,691	169,702	-0,160	-0,157
305,706	-68,203	-0,111	-0,029
306,720	800,000	-0,091	-0,176
307,735	800,000	-0,076	-0,200
308,749	260,444	-0,188	-0,223
309,764	-200,000	-0,040	-0,131
310,779	34,971	-0,201	-0,121
311,793	-147,038	-0,201	-0,012
312,808	800,000	-0,098	-0,259
313,822	800,000	-0,110	-0,247
314,837	306,227	-0,167	-0,214
315,852	800,000	-0,104	-0,243
316,866	-21,125	-0,118	-0,049
317,881	733,572	-0,127	-0,235
318,895	42,969	-0,206	-0,129
319,910	-179,945	-0,186	-0,003
320,925	-45,459	-0,157	0,053
321,939	12,758	-0,089	-0,047
322,954	-194,516	-0,291	-0,002
323,968	3,926	-0,211	0,105
324,983	86,165	-0,097	-0,073
325,997	-18,648	-0,194	-0,083
327,012	-5,012	-0,161	-0,076
328,027	-79,728	-0,253	-0,058
329,041	187,096	-0,053	-0,054
330,056	800,000	-0,061	-0,165
331,070	-137,273	-0,142	-0,011
332,085	154,357	-0,124	-0,117
333,100	0,771	-0,194	-0,095
334,114	78,425	-0,104	-0,076
335,129	183,154	-0,192	-0,195
336,143	456,104	-0,107	-0,163
337,158	-102,979	-0,103	0,016
338,173	-56,197	-0,243	-0,074
339,187	-147,616	-0,204	-0,012
340,202	23,688	-0,145	-0,081
341,216	-147,860	-0,099	0,006
342,231	607,348	-0,088	-0,151
343,246	-152,196	-0,212	0,010
344,260	-200,000	-0,041	-0,168
345,275	800,000	0,016	-0,045
346,289	686,586	-0,068	0,121
347,304	-2,082	-0,073	-0,035
348,319	337,794	-0,087	-0,116
349,333	-200,000	-0,038	-0,199
350,348	-200,000	-0,259	-0,000
351,362	-48,945	-0,151	-0,049
352,377	110,724	-0,146	-0,120
353,392	12,377	-0,186	-0,098
354,406	126,802	-0,134	0,116
355,421	207,336	1308,511	1397,245
356,435	159,495	1468,441	1397,717
