DTS Sentinel unit serial number:	SN410029Multiplexer serial number:	ORYXHardware model number:	OX2-SRSoftware version number:	ORYX F/W v4,00 Oryx Data Collector v3.7.2.0data status	okinstallation	B3 Nyhavnadifferential loss correction	single-endedforward channel	channel 1reverse channel	N/Adate	2023/12/04time	04:57:30forward acquisition time	300,00reverse acquisition time	0,00gamma	499,1914k internal	0,3206k external	0,3206temperature offset calibration	1,0000default loss term (dB/km)	0,3820temperature slope calibration	1,0000multiplexer offset coefficient	1,0000multiplexer slope coefficient	1,0000fibre end	0,00T internal ref (°C)	11,96T ext. ref 1 (°C)	-3,00T ext. ref 2 (°C)	-3,03length (m)	temperature (°C)	Stokes	anti-Stokes-744,400	121,645	-0,247	-0,224
-743,385	208,707	-0,172	0,196
-742,371	-200,000	-0,028	-0,270
-741,356	-200,000	0,006	0,158
-740,342	270,819	-0,228	-0,292
-739,327	-200,000	-0,019	0,387
-738,312	247,183	-0,145	-0,178
-737,298	-200,000	0,000	0,247
-736,283	417,293	-0,165	-0,256
-735,269	800,000	0,047	0,118
-734,254	240,389	-0,241	-0,293
-733,239	20,706	-0,294	0,172
-732,225	800,000	-0,097	-0,258
-731,210	-98,303	0,159	0,029
-730,196	-200,000	0,004	-0,134
-729,181	-200,000	-0,003	-0,039
-728,167	-153,816	-0,162	-0,008
-727,152	175,129	-0,057	0,060
-726,137	-200,000	-0,019	-0,115
-725,123	642,956	-0,063	-0,116
-724,108	76,208	-0,135	-0,103
-723,094	208,024	0,081	-0,092
-722,079	10,713	-0,083	-0,046
-721,064	288,413	0,026	-0,034
-720,050	149,132	-0,070	0,068
-719,035	-52,429	0,021	0,007
-718,021	12,044	0,162	-0,090
-717,006	800,000	-0,068	-0,193
-715,991	-200,000	-0,022	-0,202
-714,977	-199,658	-0,097	0,000
-713,962	-200,000	0,006	0,027
-712,948	-165,929	0,084	-0,003
-711,933	81,832	0,055	-0,044
-710,918	-168,610	0,075	-0,002
-709,904	101,409	-0,134	0,113
-708,889	-200,000	-0,010	0,039
-707,875	-110,996	0,121	-0,018
-706,860	362,168	0,034	0,050
-705,845	166,364	-0,075	0,077
-704,831	613,417	0,071	0,129
-703,816	-43,577	-0,106	0,039
-702,802	800,000	-0,086	-0,180
-701,787	98,466	0,097	-0,081
-700,772	390,722	-0,100	0,151
-699,758	-173,893	-0,119	-0,003
-698,743	74,105	-0,117	0,089
-697,729	800,000	0,015	-0,047
-696,714	-32,580	0,151	-0,061
-695,699	-200,000	0,045	-0,226
-694,685	800,000	-0,043	-0,139
-693,670	-200,000	-0,006	0,047
-692,656	-33,687	0,138	-0,055
-691,641	99,093	-0,130	0,109
-690,627	-200,000	-0,014	0,092
-689,612	50,870	-0,025	-0,017
-688,597	800,000	0,017	0,050
-687,583	63,740	-0,119	0,087
-686,568	-169,190	-0,131	-0,003
-685,554	310,520	0,048	0,065
-684,539	57,707	0,096	0,068
-683,524	33,358	-0,115	0,072
-682,510	111,999	0,119	0,104
-681,495	-84,799	-0,091	0,020
-680,481	28,161	-0,143	-0,087
-679,466	-21,880	-0,028	-0,012
-678,451	1,035	0,033	0,017
-677,437	-200,000	0,032	-0,186
-676,422	414,138	0,031	0,048
-675,408	795,615	-0,054	0,109
-674,393	-156,909	0,064	-0,003
-673,378	-92,252	-0,077	0,016
-672,364	-146,328	-0,064	0,004
-671,349	-200,000	-0,051	-0,196
-670,335	-28,012	0,074	-0,031
-669,320	39,210	-0,121	0,078
-668,305	63,217	0,088	0,064
-667,291	36,584	0,044	0,028
-666,276	-200,000	0,023	-0,129
-665,262	123,789	-0,033	0,030
-664,247	169,798	-0,057	0,059
-663,232	47,855	0,048	0,032
-662,218	720,293	-0,026	0,050
-661,203	185,699	-0,046	-0,050
-660,189	-200,000	-0,000	0,088
-659,174	-65,921	0,135	0,039
-658,159	-173,075	-0,123	-0,003
-657,145	-200,000	-0,004	-0,081
-656,130	84,372	0,043	-0,034
-655,116	-200,000	0,009	0,042
-654,101	-200,000	-0,014	0,201
-653,086	-200,000	-0,008	-0,035
-652,072	-5,463	0,097	0,048
-651,057	-200,000	-0,010	-0,072
-650,043	-46,916	0,070	-0,025
-649,028	-86,063	-0,022	0,005
-648,014	800,000	0,043	0,099
-646,999	13,009	0,013	0,007
-645,984	800,000	0,015	-0,038
-644,970	252,975	-0,101	-0,125
-643,955	800,000	-0,037	0,079
-642,941	151,941	-0,026	-0,025
-641,926	538,325	0,030	-0,052
-640,911	156,699	-0,060	-0,060
-639,897	-200,000	0,032	-0,104
-638,882	-108,353	0,033	0,005
-637,868	84,476	-0,124	-0,098
-636,853	800,000	-0,068	-0,159
-635,838	-56,799	0,130	-0,041
-634,824	-95,734	-0,041	0,008
-633,809	736,105	-0,019	-0,037
-632,795	310,667	0,085	0,116
-631,780	12,871	-0,030	0,017
-630,765	800,000	-0,041	-0,086
-629,751	26,109	-0,129	-0,077
-628,736	22,764	-0,117	-0,069
-627,722	800,000	-0,021	-0,066
-626,707	87,969	0,063	0,051
-625,692	800,000	0,025	-0,057
-624,678	800,000	0,016	0,048
-623,663	800,000	0,059	-0,186
-622,649	-3,814	-0,049	-0,025
-621,634	800,000	-0,078	-0,175
-620,619	255,946	0,079	-0,098
-619,605	-31,282	0,064	0,026
-618,590	-200,000	-0,009	-0,040
-617,576	66,025	-0,050	0,036
-616,561	25,110	-0,094	-0,056
-615,546	373,889	0,013	-0,019
-614,532	536,324	-0,024	-0,042
-613,517	53,804	-0,112	-0,078
-612,503	-36,905	0,113	0,043
-611,488	168,658	-0,094	0,097
-610,474	-112,589	0,167	0,024
-609,459	771,550	-0,070	-0,138
-608,444	65,062	-0,113	-0,083
-607,430	124,769	0,009	-0,008
-606,415	-183,457	-0,090	-0,001
-605,401	-42,750	0,105	-0,039
-604,386	-89,047	-0,125	0,027
-603,371	-11,235	0,102	0,049
-602,357	288,070	0,032	0,042
-601,342	-200,000	0,014	-0,138
-600,328	289,933	0,029	0,038
-599,313	800,000	0,027	-0,081
-598,298	-111,382	0,104	0,015
-597,284	299,162	0,091	-0,121
-596,269	-200,000	0,001	-0,054
-595,255	-131,196	-0,065	0,006
-594,240	-73,269	0,037	-0,010
-593,225	-200,000	-0,003	0,056
-592,211	332,802	-0,011	0,016
-591,196	724,135	-0,027	0,052
-590,182	-200,000	0,038	0,174
-589,167	-200,000	-0,009	-0,050
-588,152	748,902	0,031	0,060
-587,138	-42,717	-0,135	0,049
-586,123	-100,081	-0,051	0,009
-585,109	-54,829	-0,090	0,029
-584,094	-32,580	-0,099	-0,040
-583,079	114,325	-0,095	0,084
-582,065	-132,048	0,081	0,008
-581,050	143,334	-0,008	-0,007
-580,036	244,382	0,048	0,058
-579,021	168,340	-0,073	-0,075
-578,006	-200,000	-0,004	0,017
-576,992	20,883	0,079	0,046
-575,977	-73,802	0,054	-0,014
-574,963	-87,876	0,107	0,023
-573,948	33,743	0,053	-0,033
-572,934	800,000	0,028	-0,058
-571,919	-98,271	0,083	-0,015
-570,904	-200,000	-0,026	-0,136
-569,890	-83,391	-0,145	0,033
-568,875	800,000	0,024	0,058
-567,861	-128,080	0,057	0,006
-566,846	75,936	0,008	0,006
-565,831	-200,000	-0,022	0,121
-564,817	62,408	0,089	-0,064
-563,802	-155,257	-0,061	-0,003
-562,788	-147,548	0,041	-0,002
-561,773	-145,810	-0,072	0,005
-560,758	-80,741	0,136	0,032
-559,744	-200,000	-0,010	0,088
-558,729	741,424	-0,048	0,093
-557,715	-200,000	-0,014	-0,048
-556,700	800,000	0,029	0,067
-555,685	-200,000	0,009	0,039
-554,671	120,812	0,099	-0,089
-553,656	-24,470	-0,031	0,013
-552,642	690,112	-0,041	-0,077
-551,627	186,230	-0,082	0,088
-550,612	13,943	-0,155	0,087
-549,598	800,000	0,026	0,070
-548,583	-200,000	-0,009	-0,069
-547,569	-200,000	-0,008	0,032
-546,554	-200,000	-0,069	0,222
-545,539	-150,119	-0,114	-0,006
-544,525	288,984	-0,079	0,104
-543,510	-200,000	-0,006	-0,054
-542,496	-200,000	-0,004	-0,141
-541,481	614,224	-0,049	-0,089
-540,466	378,845	0,073	-0,108
-539,452	800,000	-0,022	0,070
-538,437	-200,000	-0,007	0,103
-537,423	66,822	-0,095	0,070
-536,408	-24,979	-0,092	-0,039
-535,393	256,651	0,019	0,024
-534,379	209,031	-0,054	-0,061
-533,364	-200,000	0,009	-0,033
-532,350	-200,000	0,028	0,128
-531,335	-200,000	-0,009	0,104
-530,321	27,110	-0,075	0,045
-529,306	-10,380	-0,160	-0,076
-528,291	209,755	-0,074	0,084
-527,277	800,000	-0,036	-0,084
-526,262	-200,000	-0,002	-0,121
-525,248	91,172	-0,129	-0,104
-524,233	-54,802	0,077	0,025
-523,218	722,826	-0,085	-0,164
-522,204	-200,000	0,008	-0,065
-521,189	202,153	0,095	-0,106
-520,175	126,146	-0,129	0,118
-519,160	331,309	-0,064	0,090
-518,145	-200,000	-0,005	0,018
-517,131	-200,000	0,027	-0,095
-516,116	8,955	0,079	0,043
-515,102	95,420	-0,022	0,018
-514,087	24,525	0,095	0,057
-513,072	-88,274	-0,186	-0,040
-512,058	-200,000	-0,013	-0,117
-511,043	-200,000	-0,014	-0,120
-510,029	12,384	0,095	-0,052
-509,014	-182,481	0,091	0,001
-507,999	-200,000	0,023	0,099
-506,985	291,749	0,046	-0,061
-505,970	-200,000	-0,019	-0,114
-504,956	29,302	-0,023	0,014
-503,941	-109,729	0,139	0,021
-502,926	-200,000	0,031	0,343
-501,912	-200,000	0,007	0,034
-500,897	-200,000	-0,026	0,090
-499,883	476,940	-0,047	0,077
-498,868	-161,457	0,014	0,001
-497,853	-200,000	0,011	0,051
-496,839	187,004	-0,057	-0,062
-495,824	11,565	0,083	-0,046
-494,810	-109,165	-0,075	-0,011
-493,795	76,855	0,027	0,020
-492,781	492,549	-0,058	-0,096
-491,766	527,599	0,002	-0,003
-490,751	-48,014	-0,082	0,028
-489,737	-200,000	0,010	0,066
-488,722	-200,000	-0,011	0,129
-487,708	-200,000	0,023	0,187
-486,693	211,785	-0,035	-0,039
-485,678	-101,588	0,132	-0,023
-484,664	347,197	-0,014	0,019
-483,649	-200,000	0,014	-0,117
-482,635	146,436	-0,067	-0,064
-481,620	-100,613	0,120	0,021
-480,605	454,562	-0,073	0,117
-479,591	800,000	0,052	0,119
-478,576	-200,000	-0,004	-0,108
-477,562	275,496	-0,021	-0,027
-476,547	-8,268	0,057	0,028
-475,532	-200,000	-0,002	-0,043
-474,518	616,290	-0,027	0,049
-473,503	336,025	0,030	-0,041
-472,489	29,850	0,084	0,051
-471,474	800,000	0,020	0,051
-470,459	-62,156	0,116	0,034
-469,445	-1,714	-0,202	0,102
-468,430	-124,920	0,049	0,005
-467,416	-32,993	0,035	-0,014
-466,401	-30,708	-0,062	-0,025
-465,386	800,000	-0,028	0,060
-464,372	-200,000	-0,018	0,102
-463,357	170,818	-0,038	0,039
-462,343	800,000	-0,027	0,068
-461,328	241,578	-0,061	-0,074
-460,313	116,343	-0,033	0,029
-459,299	168,453	0,031	0,031
-458,284	-200,000	0,000	0,118
-457,270	53,359	-0,078	0,053
-456,255	80,421	0,060	0,046
-455,241	-200,000	-0,015	-0,176
-454,226	-123,540	-0,091	-0,010
-453,211	-200,000	0,002	-0,133
-452,197	-85,105	0,203	0,045
-451,182	-200,000	0,024	-0,093
-450,168	-200,000	-0,002	0,149
-449,153	-200,000	-0,025	0,128
-448,138	-80,779	0,121	-0,029
-447,124	-31,561	-0,103	-0,041
-446,109	-25,477	-0,095	-0,040
-445,095	12,286	0,064	-0,035
-444,080	113,993	0,042	-0,037
-443,065	165,783	-0,015	-0,015
-442,051	776,173	-0,078	-0,154
-441,036	284,781	-0,062	0,081
-440,022	401,678	-0,069	-0,104
-439,007	-124,116	0,043	-0,005
-437,992	-137,362	-0,096	-0,008
-436,978	800,000	0,015	0,035
-435,963	24,540	0,116	-0,068
-434,949	800,000	0,014	-0,033
-433,934	-21,087	-0,069	-0,030
-432,919	-200,000	-0,006	-0,096
-431,905	-152,393	0,056	-0,003
-430,890	800,000	-0,020	-0,045
-429,876	-168,682	0,105	0,003
-428,861	-61,751	-0,126	-0,038
-427,846	800,000	0,023	0,055
-426,832	-38,560	-0,086	-0,032
-425,817	-200,000	0,010	-0,036
-424,803	19,059	0,080	0,046
-423,788	800,000	-0,028	0,059
-422,773	99,796	0,133	0,110
-421,759	0,487	0,104	0,053
-420,744	-57,825	0,083	-0,026
-419,730	-85,460	-0,174	-0,039
-418,715	-100,962	-0,134	-0,023
-417,701	210,117	0,042	-0,047
-416,686	71,371	0,079	0,059
-415,671	82,757	0,036	-0,028
-414,657	28,661	0,121	0,073
-413,642	800,000	-0,051	-0,138
-412,628	553,148	-0,054	-0,094
-411,613	-66,357	-0,050	-0,014
-410,598	85,236	0,049	0,039
-409,584	-55,721	0,147	-0,047
-408,569	145,558	0,024	-0,023
-407,555	800,000	-0,049	0,108
-406,540	-37,164	-0,134	0,051
-405,525	-200,000	-0,012	0,095
-404,511	-200,000	0,007	-0,073
-403,496	-200,000	-0,018	0,058
-402,482	800,000	-0,035	0,102
-401,467	-200,000	-0,013	0,156
-400,452	-200,000	0,002	0,087
-399,438	-200,000	0,019	0,069
-398,423	158,466	-0,094	0,094
-397,409	-200,000	-0,020	-0,077
-396,394	58,589	-0,092	0,065
-395,379	-41,604	-0,107	-0,039
-394,365	-200,000	-0,010	0,166
-393,350	-200,000	-0,007	0,098
-392,336	-173,151	0,049	-0,001
-391,321	-200,000	-0,003	-0,021
-390,306	-66,244	0,080	-0,023
-389,292	800,000	0,018	0,037
-388,277	374,790	-0,018	-0,026
-387,263	-200,000	0,009	0,188
-386,248	753,693	0,017	0,033
-385,233	-200,000	-0,008	-0,037
-384,219	178,313	-0,108	-0,113
-383,204	130,352	-0,033	-0,030
-382,190	76,863	-0,021	0,016
-381,175	-25,151	0,089	-0,038
-380,160	-200,000	0,001	-0,012
-379,146	-17,464	0,129	0,058
-378,131	753,742	-0,009	0,018
-377,117	158,838	0,043	0,043
-376,102	-200,000	0,021	-0,087
-375,088	-200,000	-0,039	-0,154
-374,073	-200,000	0,006	-0,037
-373,058	-134,174	0,127	-0,011
-372,044	-200,000	0,000	0,011
-371,029	800,000	0,036	0,089
-370,015	107,200	-0,102	-0,086
-369,000	-200,000	0,004	-0,062
-367,985	-102,944	0,116	-0,020
-366,971	36,229	-0,016	0,010
-365,956	77,558	0,086	0,066
-364,942	-107,679	0,099	-0,015
-363,927	-152,928	-0,031	0,002
-362,912	-200,000	-0,010	0,146
-361,898	-30,749	0,082	-0,033
-360,883	-200,000	-0,016	-0,061
-359,869	-200,000	-0,005	0,050
-358,854	135,207	0,048	0,044
-357,839	-28,169	0,067	0,028
-356,825	231,261	0,089	0,104
-355,810	-136,967	-0,084	0,007
-354,796	800,000	0,030	0,086
-353,781	36,856	0,079	0,050
-352,766	60,110	0,112	-0,079
-351,752	253,042	-0,069	-0,084
-350,737	-200,000	-0,004	-0,089
-349,723	800,000	0,024	0,056
-348,708	-185,663	0,115	-0,001
-347,693	121,601	-0,018	-0,016
-346,679	-27,557	0,042	-0,017
-345,664	280,714	0,044	-0,056
-344,650	179,200	-0,061	0,064
-343,635	-105,696	0,053	0,008
-342,620	407,315	0,108	0,164
-341,606	800,000	-0,036	-0,095
-340,591	-44,600	0,160	-0,057
-339,577	-200,000	0,009	-0,057
-338,562	800,000	-0,030	0,061
-337,548	641,028	-0,067	-0,123
-336,533	49,055	-0,040	-0,027
-335,518	-200,000	0,043	0,174
-334,504	474,446	-0,081	0,131
-333,489	-36,896	0,121	0,046
-332,475	-49,265	-0,103	-0,035
-331,460	-40,887	0,062	-0,023
-330,445	-200,000	-0,005	-0,088
-329,431	85,531	0,178	-0,139
-328,416	78,291	0,173	0,132
-327,402	164,117	0,100	0,101
-326,387	281,624	-0,027	-0,035
-325,372	-200,000	0,013	-0,048
-324,358	-200,000	-0,009	-0,133
-323,343	-200,000	-0,007	0,048
-322,329	-25,454	-0,104	-0,044
-321,314	161,242	-0,055	0,055
-320,299	-200,000	-0,014	0,168
-319,285	-200,000	-0,021	-0,083
-318,270	16,344	0,007	0,004
-317,256	-200,000	0,011	0,091
-316,241	-93,928	0,131	-0,026
-315,226	96,053	0,150	0,122
-314,212	665,054	0,050	0,093
-313,197	85,039	-0,233	0,183
-312,183	-31,827	-0,046	0,018
-311,168	-200,000	0,000	-0,078
-310,153	398,733	-0,068	-0,102
-309,139	-49,927	-0,074	0,025
-308,124	29,642	-0,018	0,011
-307,110	673,189	0,067	0,124
-306,095	-62,946	0,063	-0,018
-305,080	-60,254	-0,140	-0,042
-304,066	-100,465	-0,228	0,040
-303,051	125,103	-0,082	0,074
-302,037	800,000	-0,023	-0,052
-301,022	-113,434	0,066	-0,009
-300,008	-200,000	-0,039	0,186
-298,993	281,039	0,166	0,213
-297,978	-58,594	-0,033	0,010
-296,964	600,893	0,035	-0,062
-295,949	-200,000	0,022	-0,086
-294,935	245,963	0,078	-0,094
-293,920	432,067	0,046	-0,071
-292,905	-17,266	0,054	0,024
-291,891	12,647	-0,019	-0,010
-290,876	-200,000	-0,012	0,156
-289,862	-60,289	-0,055	0,017
-288,847	-200,000	-0,011	-0,091
-287,832	-200,000	0,006	-0,056
-286,818	-10,365	0,068	0,032
-285,803	-0,752	0,105	-0,053
-284,789	104,237	-0,063	0,053
-283,774	-200,000	0,024	0,109
-282,759	800,000	0,024	0,049
-281,745	18,868	0,099	0,056
-280,730	319,350	-0,132	-0,179
-279,716	800,000	-0,026	-0,065
-278,701	-200,000	0,035	0,123
-277,686	17,758	0,121	0,068
-276,672	-200,000	-0,006	0,142
-275,657	-154,815	0,138	-0,006
-274,643	436,008	-0,022	0,034
-273,628	135,868	0,103	-0,095
-272,613	536,188	-0,074	-0,125
-271,599	-200,000	0,115	-0,000
-270,584	107,308	-0,155	0,131
-269,570	74,525	0,068	0,051
-268,555	7,961	-0,103	-0,055
-267,540	373,931	0,059	-0,085
-266,526	800,000	-0,068	-0,177
-265,511	47,103	-0,080	0,053
-264,497	-107,882	0,115	0,018
-263,482	31,532	-0,088	0,054
-262,467	-131,922	0,024	0,002
-261,453	-21,343	-0,116	0,050
-260,438	-200,000	0,012	0,094
-259,424	-99,623	-0,124	-0,022
-258,409	269,445	-0,039	-0,049
-257,395	392,421	-0,048	-0,072
-256,380	-200,000	0,000	-0,068
-255,365	-79,890	-0,046	0,011
-254,351	800,000	0,005	0,015
-253,336	-41,108	0,078	0,029
-252,322	-200,000	-0,028	0,166
-251,307	-98,451	0,092	-0,017
-250,292	51,826	-0,122	0,083
-249,278	390,516	0,039	-0,058
-248,263	297,179	0,079	-0,103
-247,249	-200,000	0,023	-0,074
-246,234	41,350	-0,031	0,020
-245,219	-21,032	-0,081	-0,035
-244,205	69,586	-0,043	-0,032
-243,190	-200,000	-0,025	-0,131
-242,176	14,633	0,093	-0,051
-241,161	800,000	-0,065	0,163
-240,146	190,532	-0,136	0,146
-239,132	90,131	-0,094	-0,074
-238,117	-93,433	-0,092	0,018
-237,103	800,000	-0,029	0,057
-236,088	800,000	0,055	-0,168
-235,073	433,514	0,077	-0,119
-234,059	-200,000	-0,001	-0,173
-233,044	-200,000	-0,015	0,135
-232,030	-4,644	-0,032	0,015
-231,015	-200,000	0,033	-0,116
-230,000	-200,000	-0,014	0,075
-228,986	212,786	0,039	-0,044
-227,971	-200,000	-0,009	0,060
-226,957	-1,901	0,146	0,073
-225,942	55,082	0,090	0,062
-224,927	93,639	0,042	-0,034
-223,913	-200,000	0,027	-0,177
-222,898	28,634	-0,106	0,064
-221,884	111,333	-0,076	-0,065
-220,869	800,000	0,041	-0,100
-219,855	-200,000	-0,012	0,056
-218,840	578,706	0,006	-0,011
-217,825	370,661	-0,052	-0,075
-216,811	-101,529	0,044	-0,007
-215,796	-28,708	0,038	0,015
-214,782	280,313	0,050	-0,063
-213,767	-136,560	0,111	0,009
-212,752	-200,000	0,009	-0,080
-211,738	-169,646	0,063	-0,002
-210,723	-94,104	-0,023	0,004
-209,709	-63,348	-0,043	-0,013
-208,694	-200,000	0,000	-0,052
-207,679	-41,006	-0,132	0,048
-206,665	109,868	0,099	0,084
-205,650	20,232	-0,089	-0,051
-204,636	118,969	0,077	0,067
-203,621	-200,000	-0,005	0,161
-202,606	61,705	-0,057	-0,040
-201,592	-26,090	0,121	-0,050
-200,577	644,786	-0,078	-0,142
-199,563	322,498	0,042	0,058
-198,548	800,000	-0,023	-0,059
-197,533	186,026	-0,038	-0,040
-196,519	219,995	-0,075	0,086
-195,504	-34,353	-0,043	0,017
-194,490	-3,244	-0,051	-0,025
-193,475	800,000	0,056	-0,154
-192,460	-200,000	-0,011	-0,140
-191,446	-200,000	-0,001	0,108
-190,431	-127,910	0,125	0,013
-189,417	579,523	0,043	0,075
-188,402	10,419	0,057	0,031
-187,387	-68,092	-0,078	0,022
-186,373	-65,912	-0,074	-0,021
-185,358	-200,000	0,031	0,109
-184,344	-200,000	0,001	-0,091
-183,329	101,739	0,043	-0,035
-182,315	800,000	-0,014	0,034
-181,300	47,492	0,083	-0,055
-180,285	319,046	0,066	-0,089
-179,271	-200,000	0,019	-0,130
-178,256	153,584	-0,074	-0,072
-177,242	7,737	0,045	-0,024
-176,227	-24,901	0,072	-0,030
-175,212	-200,000	-0,005	-0,034
-174,198	-83,885	0,046	0,010
-173,183	147,662	-0,121	-0,116
-172,169	13,462	0,078	-0,043
-171,154	43,536	0,065	0,042
-170,139	-200,000	-0,041	0,161
-169,125	-200,000	0,037	0,120
-168,110	800,000	-0,048	-0,108
-167,096	-200,000	-0,019	0,066
-166,081	-200,000	-0,014	0,065
-165,066	130,944	-0,123	-0,112
-164,052	287,164	0,033	-0,042
-163,037	-48,823	0,158	0,053
-162,023	198,289	0,058	0,063
-161,008	1,137	0,007	-0,004
-159,993	-200,000	-0,019	-0,156
-158,979	251,993	-0,035	0,042
-157,964	157,553	-0,014	-0,013
-156,950	-200,000	0,002	0,012
-155,935	-200,000	-0,006	-0,046
-154,920	156,681	0,078	-0,076
-153,906	-200,000	0,006	0,104
-152,891	-200,000	0,005	-0,037
-151,877	800,000	-0,073	-0,176
-150,862	800,000	-0,055	-0,114
-149,847	775,264	-0,059	0,116
-148,833	-200,000	-0,009	0,045
-147,818	391,538	0,041	0,060
-146,804	800,000	0,036	0,111
-145,789	-200,000	0,000	0,048
-144,775	799,458	0,052	-0,103
-143,760	-200,000	0,008	0,054
-142,745	173,791	-0,029	0,030
-141,731	-164,997	0,095	-0,003
-140,716	-59,817	-0,063	0,019
-139,702	-200,000	-0,005	0,077
-138,687	-200,000	-0,023	0,126
-137,672	404,347	-0,049	0,074
-136,658	205,542	-0,120	-0,133
-135,643	800,000	-0,006	-0,011
-134,629	-38,074	-0,037	-0,014
-133,614	-26,802	0,089	-0,037
-132,599	-200,000	0,002	0,046
-131,585	-200,000	0,019	-0,140
-130,570	-64,689	0,023	0,007
-129,556	606,365	-0,033	-0,058
-128,541	32,704	-0,100	0,061
-127,526	-126,123	0,032	0,003
-126,512	800,000	-0,022	0,049
-125,497	261,255	0,024	0,030
-124,483	-16,224	-0,063	-0,028
-123,468	327,396	-0,060	-0,082
-122,453	-101,697	-0,076	0,013
-121,439	800,000	0,084	-0,177
-120,424	-78,455	0,019	-0,005
-119,410	800,000	0,033	0,067
-118,395	-200,000	0,024	0,132
-117,380	512,039	-0,069	-0,114
-116,366	-200,000	-0,006	-0,119
-115,351	-200,000	-0,007	0,097
-114,337	-7,390	-0,089	-0,043
-113,322	6,034	0,123	0,064
-112,307	4,467	0,012	0,006
-111,293	-200,000	0,029	0,226
-110,278	-26,634	-0,025	0,011
-109,264	32,304	0,147	-0,090
-108,249	521,726	-0,032	0,053
-107,234	198,762	-0,009	-0,009
-106,220	-137,613	0,050	-0,004
-105,205	-90,713	-0,095	0,019
-104,191	-24,869	-0,058	-0,024
-103,176	-4,319	0,102	0,050
-102,162	-200,000	-0,014	-0,125
-101,147	-107,078	-0,075	0,012
-100,132	15,793	-0,060	-0,033
-99,118	-175,765	-0,127	0,002
-98,103	196,411	0,050	0,054
-97,089	-200,000	0,003	0,016
-96,074	757,958	0,032	0,061
-95,059	-200,000	-0,005	0,057
-94,045	118,837	0,087	-0,076
-93,030	-27,022	-0,179	0,074
-92,016	735,611	0,047	-0,090
-91,001	-85,497	0,095	-0,021
-89,986	7,937	-0,083	0,044
-88,972	-200,000	0,001	0,062
-87,957	-200,000	0,009	-0,044
-86,943	110,610	0,038	-0,032
-85,928	-200,000	0,006	-0,105
-84,913	800,000	-0,056	0,124
-83,899	-200,000	0,001	0,058
-82,884	-32,597	-0,007	-0,003
-81,870	106,217	0,087	-0,073
-80,855	237,881	0,095	0,112
-79,840	-40,236	-0,048	-0,017
-78,826	-147,532	-0,096	-0,006
-77,811	-51,925	-0,100	-0,033
-76,797	-48,212	0,022	-0,007
-75,782	-75,024	0,011	-0,003
-74,767	272,691	0,084	-0,106
-73,753	241,821	-0,105	0,124
-72,738	800,000	0,045	0,101
-71,724	-200,000	-0,122	0,000
-70,709	-200,000	-0,019	-0,075
-69,694	198,264	-0,080	0,087
-68,680	103,292	0,042	0,035
-67,665	-200,000	0,017	0,100
-66,651	427,669	0,032	0,048
-65,636	800,000	0,036	0,093
-64,622	28,276	-0,058	0,034
-63,607	201,484	0,060	-0,065
-62,592	-200,000	0,003	-0,100
-61,578	-0,578	0,023	-0,011
-60,563	533,846	0,050	0,084
-59,549	411,316	0,080	0,121
-58,534	-8,034	-1,701	-0,808
-57,519	375,687	-1,326	-1,917
-56,505	-200,000	-0,537	-4,594
-55,490	420,661	0,965	1,467
-54,476	800,000	4,776	11,130
-53,461	-200,000	20,366	323,596
-52,446	800,000	751,747	2310,011
-51,432	549,190	1662,825	2827,915
-50,417	74,772	1671,528	1242,317
-49,403	19,805	1544,542	876,972
-48,388	13,787	1467,097	803,724
-47,373	18,417	1457,303	820,689
-46,359	16,222	1447,051	804,372
-45,344	12,115	1442,375	782,073
-44,330	12,007	1440,628	780,577
-43,315	12,007	1438,661	779,478
-42,300	12,025	1436,970	778,618
-41,286	12,040	1435,908	778,083
-40,271	11,970	1434,460	776,935
-39,257	11,990	1433,101	776,264
-38,242	12,060	1432,101	776,024
-37,227	12,034	1430,987	775,267
-36,213	12,039	1429,424	774,412
-35,198	12,025	1428,394	773,754
-34,184	12,064	1427,208	773,269
-33,169	11,993	1426,196	772,354
-32,154	12,088	1424,909	772,073
-31,140	12,082	1423,726	771,376
-30,125	12,108	1422,568	770,841
-29,111	12,093	1421,509	770,166
-28,096	12,017	1420,405	769,174
-27,082	12,017	1419,297	768,544
-26,067	12,001	1418,159	767,823
-25,052	12,005	1417,023	767,196
-24,038	11,979	1416,082	766,534
-23,023	11,975	1414,885	765,840
-22,009	12,023	1413,909	765,506
-20,994	11,945	1413,005	764,618
-19,979	11,935	1412,225	764,120
-18,965	11,950	1411,454	763,740
-17,950	11,931	1410,295	762,997
-16,936	11,957	1409,492	762,651
-15,921	11,898	1408,453	761,782
-14,906	11,923	1407,628	761,424
-13,892	11,911	1406,570	760,767
-12,877	11,898	1405,867	760,297
-11,863	11,895	1405,024	759,794
-10,848	11,894	1403,872	759,138
-9,833	11,772	1403,182	758,165
-8,819	11,778	1402,263	757,664
-7,804	11,766	1401,532	757,183
-6,790	11,788	1400,311	756,597
-5,775	11,816	1399,337	756,170
-4,760	11,810	1398,306	755,558
-3,746	11,797	1397,324	754,936
-2,731	11,812	1396,791	754,687
-1,717	11,762	1395,905	753,947
-0,702	11,782	1394,047	753,004
0,313	15,751	1308,932	725,348
1,327	31,981	699,850	425,119
2,342	49,565	121,849	80,910
3,356	-0,488	16,548	8,271
4,371	10,552	3,361	1,804
5,386	-47,038	0,700	0,240
6,400	-200,000	-0,005	0,344
7,415	82,967	-0,200	-0,153
8,429	128,125	-0,280	-0,251
9,444	35,978	-0,462	-0,287
10,459	158,558	-0,224	-0,219
11,473	37,536	-0,359	-0,225
12,488	-36,864	-0,372	-0,140
13,502	-7,440	-0,393	-0,187
14,517	240,353	-0,192	-0,227
15,531	63,918	-0,365	-0,259
16,546	414,009	-0,234	-0,353
17,561	-3,524	-0,437	-0,214
18,575	5,120	-0,145	-0,075
19,590	7,486	-0,209	-0,110
20,604	-27,111	-0,212	-0,087
21,619	26,810	-0,417	-0,246
22,634	123,341	-0,372	-0,329
23,648	95,077	-0,501	-0,402
24,663	149,508	-0,411	-0,393
25,677	161,311	-0,293	-0,289
26,692	47,262	-0,458	-0,300
27,707	-5,276	-0,397	-0,192
28,721	174,922	-0,254	-0,260
29,736	19,793	-0,395	-0,223
30,750	291,654	-0,342	-0,440
31,765	41,454	-0,435	-0,277
32,780	45,422	-0,387	-0,251
33,794	27,883	-0,446	-0,264
34,809	109,644	-0,345	-0,291
35,823	194,482	-0,327	-0,350
36,838	349,600	-0,218	-0,304
37,853	-52,848	-0,401	-0,129
38,867	-22,884	-0,435	-0,184
39,882	115,261	-0,288	-0,248
40,896	110,665	-0,314	-0,266
41,911	466,919	-0,206	-0,326
42,926	183,731	-0,283	-0,294
43,940	10,847	-0,486	-0,260
44,955	91,109	-0,386	-0,304
45,969	54,724	-0,414	-0,281
46,984	35,684	-0,304	-0,188
47,999	37,279	-0,252	-0,157
49,013	6,213	-0,263	-0,137
50,028	48,206	-0,265	-0,174
51,042	-16,447	-0,452	-0,201
52,057	93,024	-0,242	-0,192
53,071	48,621	-0,261	-0,172
54,086	48,078	-0,432	-0,283
55,101	-47,740	-0,276	-0,094
56,115	95,759	-0,304	-0,244
57,130	34,552	-0,345	-0,212
58,144	21,604	-0,539	-0,307
59,159	120,715	-0,347	-0,303
60,174	201,935	-0,175	-0,190
61,188	69,728	-0,298	-0,215
62,203	-46,079	-0,375	-0,129
63,217	-3,389	-0,301	-0,147
64,232	29,152	-0,301	-0,179
65,247	32,748	-0,430	-0,261
66,261	141,593	-0,362	-0,337
67,276	144,788	-0,265	-0,249
68,290	184,347	-0,317	-0,331
69,305	90,073	-0,316	-0,248
70,320	-4,945	-0,306	-0,148
71,334	-60,253	-0,336	-0,100
72,349	-10,017	-0,232	-0,108
73,363	-49,725	-0,424	-0,141
74,378	87,300	-0,242	-0,188
75,393	12,830	-0,333	-0,180
76,407	84,660	-0,294	-0,226
77,422	-54,973	-0,144	-0,045
78,436	93,829	-0,263	-0,209
79,451	229,697	-0,273	-0,313
80,466	26,931	-0,328	-0,193
81,480	79,122	-0,308	-0,231
82,495	24,077	-0,296	-0,171
83,509	-8,623	-0,293	-0,138
84,524	-80,029	-0,263	-0,061
85,539	-53,397	-0,264	-0,084
86,553	-10,035	-0,252	-0,117
87,568	56,802	-0,344	-0,235
88,582	419,479	-0,173	-0,260
89,597	94,457	-0,258	-0,205
90,611	28,835	-0,276	-0,163
91,626	-59,360	-0,267	-0,080
92,641	91,112	-0,330	-0,260
93,655	-31,947	-0,384	-0,150
94,670	586,086	-0,202	-0,350
95,684	150,552	-0,328	-0,312
96,699	48,897	-0,329	-0,216
97,714	38,405	-0,375	-0,234
98,728	-11,020	-0,283	-0,131
99,743	256,544	-0,150	-0,181
100,757	-1,553	-0,238	-0,117
101,772	58,120	-0,195	-0,134
102,787	145,065	-0,238	-0,223
103,801	256,085	-0,209	-0,252
104,816	58,463	-0,180	-0,123
105,830	156,708	-0,243	-0,235
106,845	113,493	-0,074	-0,062
107,860	-135,336	-0,202	-0,017
108,874	51,786	-0,339	-0,225
109,889	89,531	-0,239	-0,186
110,903	-56,503	-0,282	-0,087
111,918	19,226	-0,323	-0,181
112,933	-35,826	-0,383	-0,144
113,947	148,041	-0,190	-0,179
114,962	60,706	-0,229	-0,159
115,976	40,732	-0,248	-0,156
116,991	232,303	-0,198	-0,227
118,006	-139,235	-0,301	-0,022
119,020	-115,659	-0,245	-0,032
120,035	-148,570	-0,245	-0,014
121,049	-20,457	-0,245	-0,105
122,064	273,483	-0,200	-0,247
123,079	189,793	-0,270	-0,284
124,093	181,067	-0,225	-0,231
125,108	-64,767	-0,217	-0,061
126,122	800,000	-0,132	-0,298
127,137	654,430	-0,111	-0,200
128,151	-7,255	-0,283	-0,134
129,166	-21,137	-0,200	-0,085
130,181	20,217	-0,336	-0,189
131,195	173,840	-0,242	-0,244
132,210	138,621	-0,264	-0,242
133,224	-16,846	-0,272	-0,120
134,239	41,223	-0,266	-0,168
135,254	439,173	-0,182	-0,278
136,268	31,808	-0,258	-0,155
137,283	223,329	-0,178	-0,201
138,297	800,000	-0,050	-0,104
139,312	120,671	-0,245	-0,213
140,327	-79,560	-0,300	-0,070
141,341	61,952	-0,261	-0,181
142,356	35,987	-0,373	-0,229
143,370	-174,802	-0,234	-0,005
144,385	-144,214	-0,276	-0,018
145,400	-72,970	-0,177	-0,045
146,414	-35,309	-0,287	-0,108
147,429	140,856	-0,257	-0,237
148,443	204,532	-0,190	-0,206
149,458	-3,704	-0,230	-0,111
150,473	-150,052	-0,255	-0,014
151,487	-69,334	-0,259	-0,069
152,502	167,276	-0,193	-0,191
153,516	-22,879	-0,240	-0,101
154,531	209,281	-0,267	-0,291
155,546	103,495	-0,132	-0,108
156,560	-28,886	-0,154	-0,061
157,575	78,615	-0,242	-0,180
158,589	58,443	-0,185	-0,126
159,604	144,223	-0,195	-0,181
160,619	-23,966	-0,257	-0,107
161,633	-33,517	-0,393	-0,150
162,648	-200,000	0,009	-0,187
163,662	134,586	-0,151	-0,137
164,677	207,632	-0,248	-0,270
165,692	-21,472	-0,330	-0,139
166,706	734,052	-0,125	-0,233
167,721	552,991	-0,160	-0,269
168,735	-7,891	-0,255	-0,119
169,750	99,331	-0,167	-0,135
170,764	-7,444	-0,187	-0,088
171,779	-135,416	-0,217	-0,018
172,794	-86,155	-0,295	-0,063
173,808	-39,127	-0,192	-0,070
174,823	163,805	-0,213	-0,209
175,837	-22,223	-0,221	-0,093
176,852	800,000	-0,162	-0,344
177,867	118,406	-0,164	-0,141
178,881	87,484	-0,202	-0,156
179,896	83,333	-0,181	-0,137
180,910	309,387	-0,104	-0,135
181,925	107,267	-0,234	-0,193
182,940	73,762	-0,219	-0,159
183,954	81,676	-0,177	-0,133
184,969	226,400	-0,149	-0,169
185,983	103,815	-0,193	-0,158
186,998	-200,000	-0,051	-0,168
188,013	-81,102	-0,094	0,022
189,027	-1,419	-0,339	-0,166
190,042	101,178	-0,260	-0,210
191,056	-49,962	-0,208	-0,068
192,071	-200,000	-0,057	-0,187
193,086	224,933	-0,149	-0,167
194,100	-34,350	-0,221	-0,084
195,115	-6,374	-0,320	-0,151
196,129	123,007	-0,229	-0,199
197,144	165,281	-0,141	-0,138
198,159	49,237	-0,221	-0,144
199,173	53,177	-0,208	-0,138
200,188	800,000	-0,066	-0,140
201,202	33,064	-0,112	-0,067
202,217	332,942	-0,147	-0,197
203,232	337,964	-0,174	-0,235
204,246	146,523	-0,234	-0,218
205,261	78,793	-0,259	-0,192
206,275	325,681	-0,245	-0,327
207,290	-113,608	-0,179	-0,024
208,304	-15,231	-0,155	-0,069
209,319	-76,370	-0,122	-0,029
210,334	215,038	-0,170	-0,187
211,348	313,022	-0,199	-0,260
212,363	141,532	-0,171	-0,157
213,377	84,452	-0,105	-0,080
214,392	-31,064	-0,231	-0,090
215,407	-150,550	-0,267	-0,014
216,421	-100,265	-0,205	-0,035
217,436	85,807	-0,154	-0,117
218,450	55,904	-0,162	-0,109
219,465	800,000	-0,113	-0,235
220,480	800,000	-0,083	-0,184
221,494	639,265	-0,087	-0,153
222,509	281,734	-0,093	-0,115
223,523	217,049	-0,109	-0,120
224,538	142,498	-0,239	-0,220
225,553	781,056	-0,159	-0,303
226,567	800,000	-0,109	-0,227
227,582	196,246	-0,112	-0,118
228,596	40,013	-0,135	-0,084
229,611	357,783	-0,095	-0,132
230,626	9,869	-0,151	-0,079
231,640	-22,280	-0,346	-0,145
232,655	-11,492	-0,272	-0,123
233,669	11,131	-0,197	-0,104
234,684	-63,254	-0,175	-0,050
235,699	94,479	-0,145	-0,114
236,713	-200,000	-0,036	-0,164
237,728	-139,884	-0,097	0,007
238,742	-96,996	-0,132	0,024
239,757	7,739	-0,221	-0,114
240,772	54,455	-0,194	-0,129
241,786	96,027	-0,134	-0,106
242,801	-90,850	-0,239	-0,047
243,815	109,664	-0,173	-0,143
244,830	-57,388	-0,202	-0,061
245,844	571,808	-0,091	-0,154
246,859	556,741	-0,074	-0,124
247,874	89,033	-0,198	-0,152
248,888	39,971	-0,168	-0,104
249,903	-200,000	-0,023	-0,100
250,917	68,437	-0,208	-0,147
251,932	-0,419	-0,247	-0,121
252,947	-11,200	-0,262	-0,119
253,961	35,440	-0,215	-0,130
254,976	-41,194	-0,202	-0,072
255,990	204,278	-0,161	-0,173
257,005	201,027	-0,168	-0,178
258,020	-142,092	-0,195	-0,013
259,034	237,087	-0,100	-0,115
260,049	470,695	-0,088	-0,137
261,063	129,557	-0,124	-0,109
262,078	3,079	-0,223	-0,111
263,093	236,001	-0,155	-0,178
264,107	-2,813	-0,214	-0,103
265,122	654,938	-0,113	-0,201
266,136	-105,540	-0,201	0,031
267,151	-130,700	-0,090	-0,008
268,166	179,770	-0,177	-0,179
269,180	-200,000	-0,084	-0,297
270,195	44,183	-0,139	-0,088
271,209	-200,000	-0,076	-0,255
272,224	17,676	-0,188	-0,103
273,239	-200,000	0,006	-0,088
274,253	-200,000	-0,032	-0,117
275,268	-103,213	-0,120	-0,019
276,282	135,745	-0,169	-0,151
277,297	-1,631	-0,163	-0,079
278,312	800,000	-0,065	-0,163
279,326	-57,310	-0,222	-0,067
280,341	-83,098	-0,231	-0,051
281,355	-43,256	-0,101	-0,035
282,370	134,033	-0,176	-0,157
283,384	556,508	-0,098	-0,164
284,399	15,481	-0,172	-0,093
285,414	52,109	-0,123	-0,081
286,428	-30,869	-0,179	0,069
287,443	-45,252	-0,132	-0,045
288,457	101,750	-0,140	-0,113
289,472	461,964	-0,153	-0,236
290,487	214,279	-0,071	-0,077
291,501	107,525	-0,169	-0,138
292,516	800,000	-0,094	-0,198
293,530	421,487	-0,121	-0,179
294,545	58,087	-0,159	-0,107
295,560	260,530	-0,107	-0,128
296,574	800,000	-0,106	-0,247
297,589	-200,000	-0,032	-0,281
298,603	-93,226	-0,095	-0,018
299,618	530,690	-0,158	-0,258
300,633	149,376	-0,057	-0,053
301,647	-13,197	-0,149	-0,066
302,662	110,087	-0,052	-0,043
303,676	22,393	-0,190	-0,107
304,691	66,805	-0,198	-0,138
305,706	10,761	-0,224	-0,117
306,720	-200,000	-0,097	-0,314
307,735	412,334	-0,108	-0,159
308,749	319,619	-0,133	-0,174
309,764	205,352	-0,111	-0,119
310,779	242,690	-0,125	-0,144
311,793	443,550	-0,148	-0,224
312,808	-38,880	-0,237	-0,085
313,822	9,616	-0,202	-0,105
314,837	71,674	-0,205	-0,146
315,852	-112,380	-0,203	0,028
316,866	271,578	-0,096	-0,116
317,881	-79,301	-0,103	-0,024
318,895	291,945	-0,160	-0,201
319,910	121,506	-0,167	-0,143
320,925	361,702	-0,157	-0,217
321,939	-52,177	-0,167	0,053
322,954	-200,000	0,007	0,053
323,968	-43,699	-0,076	0,026
324,983	800,000	-0,040	-0,097
325,997	-96,758	-0,209	0,037
327,012	3,497	-0,220	-0,110
328,027	192,280	-0,220	-0,228
329,041	-51,247	-0,152	-0,049
330,056	-75,930	-0,123	-0,030
331,070	-69,274	-0,156	-0,041
332,085	-116,495	-0,131	0,016
333,100	-200,000	0,009	0,040
334,114	-100,628	-0,165	-0,028
335,129	800,000	-0,088	-0,193
336,143	88,242	-0,101	-0,077
337,158	140,006	-0,161	-0,145
338,173	-3,180	-0,082	0,039
339,187	108,175	-0,075	-0,062
340,202	135,538	-0,123	-0,109
341,216	-40,273	-0,159	-0,057
342,231	-73,620	-0,188	-0,047
343,246	104,707	-0,267	-0,216
344,260	-93,876	-0,055	0,010
345,275	509,142	-0,102	-0,164
346,289	105,983	0,031	-0,025
347,304	717,091	-0,082	-0,151
348,319	208,358	-0,104	-0,112
349,333	230,761	-0,101	-0,114
350,348	20,697	-0,196	-0,108
351,362	369,741	-0,109	-0,152
352,377	-92,486	-0,022	0,004
353,392	-14,752	-0,149	-0,065
354,406	-142,529	-0,134	0,009
355,421	207,021	1315,583	1406,378
356,435	159,232	1476,394	1406,844
