DTS Sentinel unit serial number:	SN410029Multiplexer serial number:	ORYXHardware model number:	OX2-SRSoftware version number:	ORYX F/W v4,00 Oryx Data Collector v3.7.2.0data status	okinstallation	B3 Nyhavnadifferential loss correction	single-endedforward channel	channel 1reverse channel	N/Adate	2023/11/30time	05:57:30forward acquisition time	300,00reverse acquisition time	0,00gamma	499,1914k internal	0,3211k external	0,3211temperature offset calibration	1,0000default loss term (dB/km)	0,3820temperature slope calibration	1,0000multiplexer offset coefficient	1,0000multiplexer slope coefficient	1,0000fibre end	0,00T internal ref (°C)	10,28T ext. ref 1 (°C)	-4,93T ext. ref 2 (°C)	-5,03length (m)	temperature (°C)	Stokes	anti-Stokes-744,400	52,129	-0,248	-0,171
-743,385	-200,000	0,078	0,287
-742,371	62,507	-0,170	-0,123
-741,356	-200,000	0,053	0,424
-740,342	109,751	-0,198	-0,172
-739,327	143,542	-0,072	0,070
-738,312	86,884	-0,272	-0,218
-737,298	-200,000	0,023	0,232
-736,283	306,690	-0,152	-0,206
-735,269	-200,000	-0,073	0,325
-734,254	800,000	-0,091	-0,242
-733,239	16,389	-0,188	0,107
-732,225	-200,000	0,031	-0,186
-731,210	-200,000	0,072	0,242
-730,196	-200,000	0,001	-0,015
-729,181	80,428	-0,057	0,044
-728,167	-200,000	-0,008	-0,058
-727,152	-200,000	0,010	-0,036
-726,137	-73,675	-0,099	0,026
-725,123	399,508	-0,039	0,060
-724,108	49,023	0,064	-0,043
-723,094	264,657	0,071	-0,090
-722,079	-200,000	-0,018	-0,128
-721,064	332,137	-0,116	-0,163
-720,050	-200,000	-0,008	0,029
-719,035	-185,117	-0,143	-0,002
-718,021	124,545	-0,089	0,081
-717,006	-29,942	0,022	0,009
-715,991	244,709	0,018	0,023
-714,977	-165,267	0,064	-0,002
-713,962	-200,000	0,008	-0,086
-712,948	46,557	0,108	0,072
-711,933	83,371	-0,067	0,053
-710,918	189,789	0,025	0,027
-709,904	-129,303	-0,102	0,010
-708,889	-200,000	0,003	-0,208
-707,875	-123,725	-0,094	0,011
-706,860	218,033	0,115	0,133
-705,845	707,509	0,080	0,155
-704,831	-43,018	-0,153	0,056
-703,816	-91,984	0,096	-0,020
-702,802	-47,991	-0,116	-0,040
-701,787	-15,228	-0,091	-0,042
-700,772	-99,108	-0,027	0,005
-699,758	-105,133	0,163	-0,027
-698,743	-22,399	0,045	-0,020
-697,729	542,116	0,063	0,109
-696,714	-72,467	0,108	0,029
-695,699	-200,000	0,015	-0,069
-694,685	-17,549	0,049	-0,022
-693,670	247,132	0,026	0,032
-692,656	459,707	-0,072	-0,116
-691,641	-7,451	0,068	0,033
-690,627	-24,395	0,210	0,090
-689,612	270,205	-0,034	-0,044
-688,597	183,296	0,059	0,063
-687,583	42,858	-0,062	0,041
-686,568	-136,536	0,122	-0,010
-685,554	-29,647	-0,118	-0,049
-684,539	677,133	0,083	-0,157
-683,524	466,198	-0,066	0,108
-682,510	-66,668	0,011	-0,003
-681,495	-84,036	0,043	0,010
-680,481	88,035	0,069	0,055
-679,466	-88,799	-0,251	0,053
-678,451	-200,000	0,005	-0,037
-677,437	800,000	-0,044	-0,121
-676,422	104,587	-0,040	0,034
-675,408	800,000	0,019	0,050
-674,393	-200,000	-0,003	-0,048
-673,378	242,004	-0,075	-0,091
-672,364	397,334	0,020	-0,031
-671,349	174,161	-0,062	0,065
-670,335	-62,759	-0,046	0,014
-669,320	-68,949	-0,054	0,015
-668,305	-200,000	-0,002	-0,017
-667,291	559,310	-0,060	-0,104
-666,276	-200,000	0,001	-0,141
-665,262	-87,699	-0,072	-0,016
-664,247	-97,503	-0,107	-0,020
-663,232	-106,062	0,125	-0,020
-662,218	-138,613	-0,107	-0,008
-661,203	-130,886	0,046	-0,004
-660,189	-200,000	0,001	-0,063
-659,174	35,173	0,035	0,022
-658,159	-114,526	-0,047	0,006
-657,145	236,484	-0,093	0,111
-656,130	-105,853	0,111	-0,018
-655,116	108,324	-0,075	0,065
-654,101	74,329	0,201	-0,153
-653,086	88,176	-0,051	0,041
-652,072	58,136	-0,123	0,087
-651,057	188,002	0,045	-0,049
-650,043	-200,000	0,005	-0,064
-649,028	-200,000	0,009	-0,060
-648,014	83,375	0,045	-0,035
-646,999	22,092	0,079	0,046
-645,984	-200,000	-0,000	-0,051
-644,970	-200,000	-0,000	-0,026
-643,955	472,575	-0,060	-0,098
-642,941	800,000	-0,011	-0,024
-641,926	271,128	0,005	0,006
-640,911	800,000	0,054	0,169
-639,897	68,528	-0,112	0,083
-638,882	63,618	0,045	-0,032
-637,868	183,344	-0,037	0,040
-636,853	-153,153	-0,157	0,008
-635,838	191,178	0,071	-0,077
-634,824	-175,406	0,053	-0,001
-633,809	-74,913	0,072	0,018
-632,795	800,000	0,066	0,179
-631,780	21,840	-0,138	0,081
-630,765	-182,000	0,069	-0,001
-629,751	156,074	-0,189	0,188
-628,736	439,323	-0,065	-0,103
-627,722	62,328	-0,124	0,089
-626,707	-200,000	-0,021	-0,105
-625,692	-200,000	-0,005	0,019
-624,678	800,000	0,018	0,051
-623,663	-75,473	0,072	-0,018
-622,649	469,649	0,070	0,113
-621,634	800,000	-0,043	-0,101
-620,619	-200,000	0,018	-0,063
-619,605	-27,777	-0,249	0,104
-618,590	-91,552	0,136	0,028
-617,576	31,833	0,122	0,076
-616,561	-2,691	0,019	0,009
-615,546	-114,400	-0,101	-0,014
-614,532	-200,000	-0,002	-0,014
-613,517	582,574	0,054	0,096
-612,503	12,255	-0,038	0,021
-611,488	352,418	0,053	-0,076
-610,474	-60,124	0,120	-0,037
-609,459	248,678	0,087	0,106
-608,444	-92,431	-0,027	-0,005
-607,430	800,000	-0,018	-0,048
-606,415	-118,782	-0,159	-0,020
-605,401	248,266	0,049	0,060
-604,386	63,469	-0,106	-0,077
-603,371	265,827	0,120	0,151
-602,357	-200,000	0,041	0,193
-601,342	101,152	-0,122	0,102
-600,328	-200,000	-0,014	0,102
-599,313	-35,410	-0,095	0,037
-598,298	800,000	0,054	-0,152
-597,284	800,000	0,078	0,162
-596,269	21,124	-0,094	-0,055
-595,255	99,109	0,023	0,019
-594,240	800,000	0,040	-0,124
-593,225	-96,734	-0,170	0,032
-592,211	-153,075	-0,090	-0,004
-591,196	-155,607	0,138	0,006
-590,182	24,044	0,063	0,037
-589,167	-173,117	0,092	0,002
-588,152	-200,000	-0,005	0,067
-587,138	-138,554	-0,102	-0,008
-586,123	735,591	-0,060	-0,117
-585,109	-200,000	-0,019	-0,151
-584,094	256,343	-0,037	-0,046
-583,079	-72,294	0,076	0,020
-582,065	800,000	0,035	0,106
-581,050	229,455	0,010	-0,012
-580,036	800,000	-0,013	-0,036
-579,021	503,417	0,076	-0,127
-578,006	800,000	-0,075	-0,150
-576,992	634,611	-0,057	0,105
-575,977	800,000	-0,027	0,068
-574,963	-15,471	0,073	0,033
-573,948	483,391	-0,046	0,076
-572,934	87,142	-0,025	0,020
-571,919	162,074	-0,026	-0,026
-570,904	-20,124	0,154	0,068
-569,890	349,176	0,101	-0,144
-568,875	205,168	-0,065	-0,073
-567,861	25,216	0,075	0,045
-566,846	118,191	-0,136	0,120
-565,831	199,069	-0,021	-0,023
-564,817	-11,293	-0,045	-0,021
-563,802	-200,000	-0,034	-0,195
-562,788	12,401	-0,013	-0,007
-561,773	-200,000	0,016	-0,115
-560,758	-30,482	0,051	-0,021
-559,744	26,527	-0,076	-0,046
-558,729	-74,269	0,066	-0,017
-557,715	37,662	-0,033	-0,021
-556,700	760,618	-0,043	-0,083
-555,685	-200,000	0,027	0,136
-554,671	-51,141	-0,065	-0,022
-553,656	455,977	-0,059	0,094
-552,642	528,623	0,065	0,110
-551,627	233,909	0,027	0,033
-550,612	-200,000	0,000	-0,084
-549,598	40,749	-0,060	0,039
-548,583	-200,000	-0,006	-0,097
-547,569	800,000	0,034	-0,106
-546,554	6,918	0,120	0,064
-545,539	161,519	-0,035	-0,035
-544,525	208,318	0,043	-0,049
-543,510	-200,000	0,003	-0,062
-542,496	252,458	-0,094	-0,115
-541,481	485,291	0,086	-0,141
-540,466	377,352	-0,029	-0,043
-539,452	-200,000	0,006	0,082
-538,437	-141,422	0,070	0,005
-537,423	-29,440	0,078	-0,032
-536,408	148,939	-0,039	0,038
-535,393	74,029	0,068	-0,051
-534,379	-200,000	0,020	-0,106
-533,364	-108,906	-0,110	0,017
-532,350	-126,002	0,093	-0,010
-531,335	148,560	0,172	0,167
-530,321	-200,000	-0,014	0,081
-529,306	800,000	-0,019	-0,041
-528,291	800,000	-0,042	-0,120
-527,277	538,659	-0,100	-0,172
-526,262	-18,574	0,043	-0,019
-525,248	324,831	-0,038	-0,052
-524,233	236,076	-0,072	0,086
-523,218	-200,000	0,022	0,130
-522,204	-200,000	0,017	0,094
-521,189	54,951	-0,075	-0,052
-520,175	-200,000	-0,036	-0,126
-519,160	-154,240	-0,103	-0,005
-518,145	800,000	-0,021	0,058
-517,131	-200,000	0,012	0,198
-516,116	265,355	0,030	0,037
-515,102	-70,562	0,170	0,046
-514,087	-200,000	-0,001	0,067
-513,072	91,615	0,028	0,023
-512,058	-26,764	0,040	0,017
-511,043	248,673	-0,070	-0,085
-510,029	173,208	0,007	0,007
-509,014	180,474	-0,042	0,044
-507,999	800,000	0,057	0,157
-506,985	-200,000	0,013	0,055
-505,970	-20,733	-0,091	0,040
-504,956	-31,010	0,051	-0,021
-503,941	761,231	-0,052	0,103
-502,926	-200,000	0,002	0,121
-501,912	-200,000	0,031	0,133
-500,897	-26,406	0,076	-0,032
-499,883	150,777	-0,045	0,044
-498,868	-200,000	-0,026	-0,103
-497,853	66,922	-0,052	-0,038
-496,839	-200,000	0,018	-0,104
-495,824	-200,000	-0,036	-0,117
-494,810	-87,579	0,116	-0,025
-493,795	40,303	-0,090	-0,058
-492,781	131,138	0,084	0,077
-491,766	419,703	-0,106	-0,164
-490,751	79,836	-0,049	0,038
-489,737	359,775	-0,053	-0,077
-488,722	-200,000	0,006	0,051
-487,708	-141,377	0,087	-0,006
-486,693	-200,000	-0,002	-0,171
-485,678	110,196	-0,080	0,069
-484,664	106,249	0,036	-0,031
-483,649	-200,000	-0,014	-0,106
-482,635	-106,944	0,004	-0,001
-481,620	-17,420	-0,073	-0,033
-480,605	-95,419	0,100	0,019
-479,591	32,252	-0,066	-0,041
-478,576	22,380	0,079	-0,046
-477,562	800,000	0,029	-0,080
-476,547	225,156	-0,054	-0,063
-475,532	-200,000	0,006	0,027
-474,518	40,407	-0,067	0,043
-473,503	800,000	0,021	0,055
-472,489	-95,530	-0,066	-0,013
-471,474	94,058	0,078	0,063
-470,459	-200,000	-0,006	-0,045
-469,445	183,102	-0,067	-0,071
-468,430	-139,900	-0,122	-0,009
-467,416	84,177	-0,040	-0,031
-466,401	-87,419	0,163	0,035
-465,386	647,144	0,032	0,060
-464,372	22,017	0,067	-0,039
-463,357	386,923	-0,025	0,037
-462,343	-8,538	-0,095	-0,046
-461,328	-200,000	-0,029	-0,127
-460,313	158,866	0,092	-0,091
-459,299	-113,351	0,094	-0,013
-458,284	111,563	-0,032	-0,027
-457,270	326,689	0,047	0,065
-456,255	-200,000	-0,025	-0,106
-455,241	697,428	0,025	-0,047
-454,226	112,687	-0,103	0,089
-453,211	-200,000	-0,005	0,052
-452,197	800,000	0,038	0,102
-451,182	252,160	0,040	-0,049
-450,168	277,727	0,027	-0,035
-449,153	-200,000	-0,000	0,158
-448,138	9,114	-0,169	-0,091
-447,124	323,916	-0,091	0,125
-446,109	-200,000	0,021	-0,070
-445,095	-11,285	-0,009	-0,004
-444,080	800,000	-0,011	-0,032
-443,065	-200,000	0,009	0,136
-442,051	226,567	-0,069	0,080
-441,036	-109,619	-0,106	-0,016
-440,022	-41,985	-0,145	-0,053
-439,007	-17,140	-0,047	-0,021
-437,992	296,610	-0,056	-0,073
-436,978	-200,000	0,001	-0,113
-435,963	-200,000	-0,027	0,112
-434,949	-8,270	-0,179	-0,086
-433,934	27,013	-0,035	0,021
-432,919	-200,000	0,010	-0,099
-431,905	144,488	0,036	0,035
-430,890	-200,000	-0,017	-0,140
-429,876	-84,818	0,194	0,043
-428,861	-111,526	-0,078	-0,011
-427,846	-91,386	-0,159	-0,032
-426,832	800,000	0,044	0,120
-425,817	-183,699	-0,032	-0,000
-424,803	648,660	-0,041	-0,076
-423,788	-107,031	-0,040	-0,006
-422,773	-88,355	0,158	-0,033
-421,759	-20,315	-0,098	0,043
-420,744	-200,000	0,019	0,087
-419,730	21,277	-0,075	0,043
-418,715	-200,000	0,007	-0,043
-417,701	378,418	-0,020	0,029
-416,686	185,114	0,010	-0,010
-415,671	139,245	0,062	-0,059
-414,657	800,000	0,025	0,068
-413,642	393,931	0,058	-0,087
-412,628	-144,793	-0,090	-0,006
-411,613	-79,063	-0,041	0,010
-410,598	364,569	-0,040	0,058
-409,584	78,583	0,109	0,083
-408,569	-200,000	-0,017	0,133
-407,555	766,749	-0,047	0,092
-406,540	530,805	0,040	0,068
-405,525	299,812	-0,034	0,045
-404,511	800,000	0,061	-0,130
-403,496	76,634	-0,058	-0,044
-402,482	633,366	0,042	-0,077
-401,467	-200,000	-0,002	0,025
-400,452	185,126	0,061	-0,065
-399,438	-200,000	-0,007	0,043
-398,423	-196,869	-0,157	-0,001
-397,409	190,385	-0,056	-0,060
-396,394	-200,000	-0,003	-0,076
-395,379	-200,000	-0,011	-0,062
-394,365	14,243	0,162	0,090
-393,350	132,404	0,030	-0,027
-392,336	-200,000	0,007	0,042
-391,321	-200,000	0,003	-0,104
-390,306	176,267	-0,075	-0,078
-389,292	800,000	-0,018	-0,039
-388,277	21,553	0,032	0,019
-387,263	-88,098	-0,016	-0,003
-386,248	-13,792	0,150	0,069
-385,233	288,018	-0,022	-0,028
-384,219	800,000	0,035	-0,098
-383,204	-80,574	-0,150	-0,035
-382,190	217,953	0,026	-0,030
-381,175	-200,000	0,017	0,096
-380,160	145,182	-0,135	0,129
-379,146	74,230	0,061	-0,046
-378,131	74,049	-0,024	-0,018
-377,117	-89,534	-0,075	-0,016
-376,102	524,215	0,077	-0,130
-375,088	-200,000	0,001	-0,009
-374,073	-200,000	0,014	0,097
-373,058	323,001	0,006	0,009
-372,044	-75,129	0,136	0,035
-371,029	-64,807	-0,141	0,041
-370,015	-28,253	-0,026	0,011
-369,000	-53,214	-0,052	0,017
-367,985	-5,925	0,058	-0,028
-366,971	-54,350	-0,028	0,009
-365,956	-200,000	-0,004	-0,099
-364,942	644,155	-0,038	0,070
-363,927	30,070	0,101	0,062
-362,912	-107,233	0,093	0,015
-361,898	800,000	-0,030	-0,067
-360,883	773,642	0,047	-0,092
-359,869	110,495	-0,064	0,055
-358,854	-92,487	-0,077	-0,015
-357,839	-200,000	-0,006	-0,022
-356,825	172,645	0,024	0,025
-355,810	601,305	-0,026	0,046
-354,796	14,196	0,093	-0,052
-353,781	484,307	0,072	-0,117
-352,766	-200,000	-0,004	-0,075
-351,752	-200,000	0,011	0,044
-350,737	-115,977	0,082	0,011
-349,723	70,073	-0,125	0,092
-348,708	118,657	0,187	0,165
-347,693	140,518	0,007	0,007
-346,679	15,553	-0,057	0,032
-345,664	-200,000	-0,008	-0,034
-344,650	355,116	0,068	0,097
-343,635	800,000	0,083	0,175
-342,620	-110,350	0,087	0,013
-341,606	-125,840	0,057	0,006
-340,591	-200,000	0,011	0,125
-339,577	89,062	-0,117	0,093
-338,562	471,082	0,059	-0,095
-337,548	-174,300	0,009	-0,000
-336,533	-4,341	0,101	-0,050
-335,518	-68,425	0,030	0,008
-334,504	91,587	0,108	0,087
-333,489	800,000	-0,011	-0,022
-332,475	-56,055	-0,124	-0,039
-331,460	271,355	-0,064	0,080
-330,445	-200,000	0,006	0,143
-329,431	-134,979	0,091	0,008
-328,416	-2,106	0,087	0,044
-327,402	465,907	0,053	0,085
-326,387	-41,202	-0,088	0,032
-325,372	-89,136	0,183	-0,038
-324,358	19,729	0,030	0,017
-323,343	800,000	-0,035	0,100
-322,329	800,000	0,019	0,041
-321,314	-143,350	0,100	0,007
-320,299	-60,576	-0,206	0,062
-319,285	325,585	0,018	0,024
-318,270	-26,129	0,042	-0,017
-317,256	-24,713	0,043	-0,018
-316,241	-200,000	-0,003	0,096
-315,226	130,271	0,119	-0,109
-314,212	-28,789	0,125	0,051
-313,197	800,000	-0,041	-0,108
-312,183	132,529	-0,030	-0,028
-311,168	800,000	-0,019	0,057
-310,153	221,057	-0,048	-0,054
-309,139	214,647	0,014	-0,016
-308,124	-172,978	0,063	0,001
-307,110	236,375	0,005	0,006
-306,095	-32,374	-0,092	0,036
-305,080	-137,472	-0,049	0,004
-304,066	-174,239	0,141	0,003
-303,051	-33,858	0,164	-0,064
-302,037	-200,000	-0,007	0,068
-301,022	-200,000	0,022	0,100
-300,008	238,624	0,145	0,172
-298,993	-200,000	0,003	0,179
-297,978	-200,000	0,008	0,083
-296,964	-200,000	0,009	-0,105
-295,949	-109,084	-0,103	0,015
-294,935	84,966	0,054	-0,042
-293,920	-5,835	0,058	-0,028
-292,905	51,112	0,151	-0,102
-291,891	-200,000	0,018	0,070
-290,876	-16,042	-0,114	0,052
-289,862	64,603	0,062	-0,045
-288,847	-200,000	0,011	-0,058
-287,832	668,037	-0,047	-0,088
-286,818	-92,575	-0,070	-0,014
-285,803	256,486	-0,075	-0,092
-284,789	-200,000	0,016	0,069
-283,774	127,520	0,062	0,056
-282,759	-83,124	-0,264	-0,060
-281,745	88,604	0,132	-0,104
-280,730	800,000	-0,097	-0,210
-279,716	85,187	-0,049	-0,038
-278,701	146,620	0,120	0,115
-277,686	800,000	-0,010	0,031
-276,672	191,187	-0,053	-0,057
-275,657	-70,148	-0,118	0,032
-274,643	297,317	-0,061	-0,080
-273,628	53,100	-0,141	-0,096
-272,613	-15,249	0,068	0,031
-271,599	-78,174	0,068	0,017
-270,584	800,000	0,056	0,115
-269,570	-51,149	-0,057	0,019
-268,555	29,525	0,016	-0,010
-267,540	-200,000	-0,015	-0,090
-266,526	-200,000	-0,003	0,057
-265,511	18,618	-0,068	-0,038
-264,497	-200,000	-0,013	-0,142
-263,482	776,030	-0,049	0,096
-262,467	-9,681	-0,122	0,058
-261,453	-200,000	-0,007	0,049
-260,438	245,198	0,100	0,120
-259,424	-200,000	-0,004	-0,025
-258,409	500,040	0,036	-0,059
-257,395	-142,411	-0,143	0,010
-256,380	89,580	0,119	0,095
-255,365	-200,000	0,012	-0,093
-254,351	800,000	-0,019	0,038
-253,336	30,740	-0,139	0,085
-252,322	277,845	-0,129	-0,164
-251,307	800,000	0,046	0,141
-250,292	139,847	-0,050	0,046
-249,278	219,628	0,055	0,063
-248,263	-200,000	-0,039	-0,125
-247,249	-140,564	-0,158	0,012
-246,234	-72,329	-0,100	-0,026
-245,219	17,906	0,063	-0,036
-244,205	800,000	-0,048	-0,114
-243,190	-35,008	0,182	0,070
-242,176	-35,735	0,037	-0,014
-241,161	229,821	-0,020	0,023
-240,146	-200,000	0,017	0,152
-239,132	-39,327	-0,022	-0,008
-238,117	229,222	0,073	-0,085
-237,103	-116,228	-0,077	-0,010
-236,088	-18,433	0,191	-0,085
-235,073	84,198	-0,066	0,052
-234,059	95,494	0,025	0,020
-233,044	800,000	0,031	0,073
-232,030	-1,015	-0,055	-0,028
-231,015	70,939	0,175	-0,129
-230,000	559,158	0,006	-0,010
-228,986	36,055	-0,107	-0,067
-227,971	326,697	0,071	-0,097
-226,957	-28,458	-0,042	-0,017
-225,942	189,413	-0,055	-0,058
-224,927	176,957	0,070	0,072
-223,913	-190,772	-0,109	0,001
-222,898	-9,388	-0,176	-0,083
-221,884	-200,000	0,005	0,093
-220,869	34,670	-0,119	0,073
-219,855	-200,000	0,019	0,126
-218,840	-94,274	-0,088	-0,017
-217,825	-42,100	-0,073	0,026
-216,811	645,615	0,056	0,102
-215,796	204,494	-0,053	0,058
-214,782	202,959	-0,069	0,076
-213,767	-14,088	-0,095	-0,044
-212,752	-200,000	0,016	0,216
-211,738	-153,594	0,026	-0,001
-210,723	-49,675	0,078	-0,026
-209,709	337,716	0,050	-0,069
-208,694	-200,000	-0,006	-0,144
-207,679	-200,000	0,005	-0,123
-206,665	-98,152	-0,048	0,009
-205,650	-200,000	-0,005	0,153
-204,636	46,351	-0,033	0,021
-203,621	720,291	-0,028	0,053
-202,606	141,560	-0,052	0,049
-201,592	-123,500	0,068	-0,008
-200,577	152,995	0,077	-0,075
-199,563	32,183	0,053	-0,032
-198,548	242,798	0,044	-0,052
-197,533	-77,140	-0,009	-0,002
-196,519	336,495	0,062	0,086
-195,504	800,000	0,065	-0,137
-194,490	800,000	-0,051	-0,139
-193,475	-200,000	0,007	-0,056
-192,460	800,000	-0,041	-0,085
-191,446	-71,593	0,031	-0,008
-190,431	327,175	0,069	-0,094
-189,417	3,075	-0,085	-0,044
-188,402	-200,000	0,019	-0,133
-187,387	-25,061	-0,088	-0,037
-186,373	-132,246	-0,059	-0,005
-185,358	-26,205	-0,053	0,022
-184,344	-65,641	0,144	-0,041
-183,329	718,398	-0,062	0,118
-182,315	0,333	0,136	0,069
-181,300	82,517	-0,111	-0,085
-180,285	-111,736	-0,077	-0,011
-179,271	-200,000	-0,019	-0,141
-178,256	267,902	0,081	0,100
-177,242	258,798	0,029	0,035
-176,227	-200,000	0,019	-0,080
-175,212	102,215	-0,037	0,031
-174,198	-1,618	0,110	-0,055
-173,183	-98,162	-0,174	-0,031
-172,169	800,000	-0,033	-0,069
-171,154	-200,000	0,010	-0,157
-170,139	-57,515	0,213	0,066
-169,125	208,918	0,139	0,154
-168,110	0,868	0,129	0,065
-167,096	-200,000	0,024	0,187
-166,081	122,440	0,054	0,047
-165,066	89,829	-0,022	0,017
-164,052	8,186	-0,063	-0,033
-163,037	105,468	0,056	-0,047
-162,023	-138,177	0,183	0,014
-161,008	93,205	0,149	-0,119
-159,993	-65,699	-0,097	0,027
-158,979	135,828	0,057	-0,053
-157,964	-103,411	0,076	0,013
-156,950	25,736	0,084	-0,049
-155,935	46,402	-0,070	-0,046
-154,920	-13,460	0,118	-0,054
-153,906	-54,429	-0,035	0,011
-152,891	78,685	0,142	-0,108
-151,877	672,294	0,048	-0,089
-150,862	148,118	-0,051	-0,048
-149,847	228,314	-0,052	-0,060
-148,833	-139,652	-0,120	0,009
-147,818	196,072	-0,009	0,009
-146,804	-115,514	0,065	-0,009
-145,789	800,000	-0,024	-0,066
-144,775	185,178	-0,078	-0,082
-143,760	-200,000	-0,021	-0,076
-142,745	-200,000	-0,021	-0,208
-141,731	-200,000	0,024	0,110
-140,716	400,262	0,105	0,156
-139,702	252,314	0,071	-0,086
-138,687	137,792	0,092	0,086
-137,672	17,364	-0,107	0,060
-136,658	-200,000	0,012	-0,107
-135,643	59,630	0,095	0,066
-134,629	800,000	-0,017	0,040
-133,614	5,290	0,040	0,021
-132,599	107,447	-0,026	-0,022
-131,585	800,000	0,085	0,190
-130,570	200,506	-0,147	-0,160
-129,556	-180,863	-0,066	0,001
-128,541	235,919	-0,022	-0,025
-127,526	-66,206	0,127	-0,036
-126,512	16,012	-0,100	0,056
-125,497	-200,000	0,004	0,076
-124,483	-200,000	0,004	0,053
-123,468	206,904	-0,075	0,083
-122,453	75,420	0,069	-0,051
-121,439	-200,000	0,006	0,089
-120,424	68,959	-0,015	0,011
-119,410	17,950	0,019	0,011
-118,395	-89,782	0,064	0,013
-117,380	800,000	-0,010	0,029
-116,366	800,000	0,020	0,061
-115,351	41,774	-0,139	0,089
-114,337	60,534	0,118	-0,083
-113,322	-34,866	0,067	-0,026
-112,307	800,000	-0,075	0,152
-111,293	304,086	-0,092	-0,121
-110,278	-200,000	-0,028	-0,134
-109,264	-200,000	0,018	-0,061
-108,249	690,578	-0,032	0,060
-107,234	-200,000	0,013	0,062
-106,220	-200,000	0,024	-0,077
-105,205	377,556	0,033	0,048
-104,191	-200,000	0,033	0,132
-103,176	118,505	-0,118	0,103
-102,162	305,330	0,020	0,027
-101,147	800,000	-0,032	0,085
-100,132	-200,000	-0,010	-0,073
-99,118	-200,000	-0,011	-0,054
-98,103	128,392	-0,028	-0,025
-97,089	-118,127	0,042	0,005
-96,074	800,000	-0,015	0,033
-95,059	-200,000	-0,007	0,023
-94,045	107,154	-0,055	0,046
-93,030	-156,834	-0,107	-0,005
-92,016	-200,000	-0,013	-0,059
-91,001	-117,467	0,078	0,010
-89,986	-18,395	0,069	-0,030
-88,972	414,638	0,059	0,089
-87,957	77,855	-0,057	0,043
-86,943	85,132	-0,108	0,084
-85,928	23,240	-0,113	-0,066
-84,913	634,010	0,071	0,128
-83,899	67,639	0,073	0,053
-82,884	280,296	0,078	0,099
-81,870	-200,000	-0,039	0,154
-80,855	-200,000	-0,021	-0,095
-79,840	70,605	0,046	-0,033
-78,826	-135,431	-0,210	-0,017
-77,811	679,441	-0,042	-0,077
-76,797	-161,339	-0,044	0,002
-75,782	-200,000	-0,020	-0,201
-74,767	800,000	0,022	0,055
-73,753	-50,702	0,066	0,022
-72,738	-127,073	0,113	0,012
-71,724	-136,167	-0,143	-0,012
-70,709	-200,000	-0,001	-0,109
-69,694	-110,738	-0,071	-0,010
-68,680	141,360	0,029	0,027
-67,665	400,467	-0,020	0,030
-66,651	0,029	0,074	0,037
-65,636	800,000	-0,046	0,119
-64,622	767,951	0,027	0,052
-63,607	-200,000	0,010	-0,077
-62,592	275,119	0,040	-0,050
-61,578	-200,000	-0,034	0,120
-60,563	-60,462	0,052	0,015
-59,549	369,617	-0,092	0,132
-58,534	37,784	-1,997	-1,250
-57,519	575,523	-1,153	-1,997
-56,505	-200,000	-0,413	-4,522
-55,490	460,092	0,953	1,503
-54,476	800,000	5,082	11,202
-53,461	-200,000	21,251	338,035
-52,446	800,000	758,542	2350,652
-51,432	557,598	1661,727	2839,319
-50,417	73,658	1661,580	1227,455
-49,403	18,211	1534,974	862,196
-48,388	12,141	1458,359	789,807
-47,373	19,274	1449,418	819,157
-46,359	15,533	1438,736	795,302
-45,344	10,379	1434,512	768,399
-44,330	10,305	1432,783	767,090
-43,315	10,344	1430,823	766,193
-42,300	10,325	1429,215	765,212
-41,286	10,357	1427,780	764,564
-40,271	10,304	1426,547	763,624
-39,257	10,329	1425,354	763,070
-38,242	10,365	1424,497	762,753
-37,227	10,357	1423,235	762,008
-36,213	10,351	1421,935	761,257
-35,198	10,384	1420,811	760,780
-34,184	10,416	1419,927	760,427
-33,169	10,315	1418,495	759,153
-32,154	10,379	1417,664	758,978
-31,140	10,397	1416,419	758,367
-30,125	10,427	1415,242	757,850
-29,111	10,364	1414,052	756,885
-28,096	10,334	1412,818	756,055
-27,082	10,286	1411,627	755,161
-26,067	10,281	1410,891	754,713
-25,052	10,326	1409,625	754,220
-24,038	10,338	1408,522	753,652
-23,023	10,311	1407,694	753,054
-22,009	10,337	1406,743	752,641
-20,994	10,276	1405,638	751,730
-19,979	10,336	1404,781	751,526
-18,965	10,274	1403,864	750,713
-17,950	10,261	1402,958	750,139
-16,936	10,285	1402,177	749,803
-15,921	10,193	1401,164	748,802
-14,906	10,262	1399,998	748,472
-13,892	10,282	1399,083	748,048
-12,877	10,187	1398,493	747,262
-11,863	10,256	1397,510	747,024
-10,848	10,214	1396,371	746,193
-9,833	10,152	1395,797	745,569
-8,819	10,141	1394,859	744,988
-7,804	10,102	1394,057	744,346
-6,790	10,143	1393,120	744,008
-5,775	10,150	1391,840	743,326
-4,760	10,058	1391,041	742,446
-3,746	10,129	1390,117	742,249
-2,731	10,182	1389,166	741,960
-1,717	10,089	1388,475	741,130
-0,702	10,107	1386,575	740,171
0,313	14,110	1299,434	711,973
1,327	30,244	690,190	414,738
2,342	46,884	119,650	78,313
3,356	-1,929	16,570	8,190
4,371	12,714	3,439	1,868
5,386	1,622	1,051	0,532
6,400	-200,000	0,114	0,532
7,415	11,923	-0,151	-0,082
8,429	-9,461	-0,275	-0,129
9,444	2,690	-0,317	-0,161
10,459	34,497	-0,291	-0,179
11,473	68,585	-0,346	-0,250
12,488	-93,993	-0,236	0,045
13,502	79,637	-0,253	-0,192
14,517	21,288	-0,294	-0,168
15,531	-34,307	-0,339	-0,130
16,546	93,898	-0,361	-0,288
17,561	227,951	-0,398	-0,457
18,575	186,210	-0,150	-0,157
19,590	129,160	-0,278	-0,250
20,604	-140,793	-0,191	-0,014
21,619	127,509	-0,318	-0,285
22,634	141,177	-0,356	-0,332
23,648	94,172	-0,379	-0,302
24,663	53,480	-0,480	-0,323
25,677	201,934	-0,217	-0,236
26,692	1,513	-0,362	-0,183
27,707	295,439	-0,279	-0,360
28,721	90,600	-0,396	-0,312
29,736	69,569	-0,436	-0,315
30,750	87,177	-0,388	-0,301
31,765	49,358	-0,405	-0,268
32,780	46,518	-0,288	-0,187
33,794	-135,236	-0,386	0,032
34,809	41,082	-0,346	-0,219
35,823	37,581	-0,402	-0,250
36,838	156,029	-0,269	-0,261
37,853	9,839	-0,514	-0,273
38,867	128,264	-0,370	-0,331
39,882	-116,471	-0,333	-0,043
40,896	53,119	-0,299	-0,201
41,911	9,736	-0,469	-0,249
42,926	81,557	-0,308	-0,234
43,940	104,228	-0,303	-0,251
44,955	42,131	-0,301	-0,192
45,969	52,464	-0,311	-0,208
46,984	92,469	-0,392	-0,311
47,999	23,793	-0,235	-0,135
49,013	78,910	-0,418	-0,314
50,028	349,668	-0,208	-0,290
51,042	153,338	-0,281	-0,270
52,057	186,677	-0,273	-0,286
53,071	-70,213	-0,403	-0,107
54,086	76,744	-0,316	-0,235
55,101	25,678	-0,369	-0,215
56,115	-36,322	-0,270	-0,102
57,130	-142,701	-0,338	-0,023
58,144	19,482	-0,409	-0,230
59,159	-33,125	-0,415	-0,161
60,174	305,069	-0,220	-0,287
61,188	-67,169	-0,355	-0,098
62,203	4,357	-0,309	-0,158
63,217	-145,938	-0,296	-0,018
64,232	45,253	-0,309	-0,199
65,247	46,183	-0,244	-0,158
66,261	56,298	-0,445	-0,303
67,276	215,229	-0,302	-0,337
68,290	-56,219	-0,329	-0,102
69,305	-31,306	-0,224	-0,088
70,320	-178,463	-0,363	0,006
71,334	80,117	-0,286	-0,216
72,349	80,193	-0,316	-0,238
73,363	72,000	-0,250	-0,182
74,378	66,217	-0,376	-0,267
75,393	93,643	-0,308	-0,244
76,407	-84,629	-0,121	-0,026
77,422	8,515	-0,312	-0,164
78,436	54,732	-0,294	-0,198
79,451	37,789	-0,400	-0,248
80,466	68,625	-0,285	-0,204
81,480	3,631	-0,391	-0,199
82,495	-44,978	-0,418	-0,145
83,509	34,557	-0,208	-0,127
84,524	-79,234	-0,278	-0,066
85,539	69,118	-0,280	-0,202
86,553	199,279	-0,137	-0,147
87,568	198,437	-0,264	-0,284
88,582	121,743	-0,358	-0,312
89,597	15,008	-0,368	-0,201
90,611	84,374	-0,291	-0,222
91,626	-133,674	-0,250	-0,022
92,641	60,226	-0,204	-0,141
93,655	-101,661	-0,307	-0,052
94,670	348,127	-0,150	-0,207
95,684	62,884	-0,262	-0,183
96,699	56,653	-0,362	-0,246
97,714	225,580	-0,240	-0,272
98,728	-117,621	-0,141	-0,018
99,743	-60,906	-0,373	-0,110
100,757	88,339	-0,275	-0,214
101,772	-23,334	-0,276	-0,115
102,787	7,392	-0,374	-0,195
103,801	-34,723	-0,214	-0,081
104,816	298,638	-0,132	-0,170
105,830	114,106	-0,264	-0,224
106,845	214,853	-0,141	-0,156
107,860	60,482	-0,289	-0,200
108,874	110,252	-0,307	-0,257
109,889	119,186	-0,220	-0,190
110,903	45,257	-0,308	-0,198
111,918	-150,544	-0,151	-0,008
112,933	32,792	-0,224	-0,135
113,947	149,702	-0,179	-0,169
114,962	-28,925	-0,255	-0,102
115,976	6,028	-0,312	-0,161
116,991	95,659	-0,187	-0,149
118,006	82,624	-0,331	-0,251
119,020	150,422	-0,161	-0,153
120,035	68,967	-0,219	-0,157
121,049	210,809	-0,157	-0,173
122,064	9,424	-0,319	-0,168
123,079	551,557	-0,131	-0,220
124,093	-25,017	-0,384	-0,158
125,108	-76,362	-0,333	-0,081
126,122	313,749	-0,176	-0,231
127,137	800,000	-0,069	-0,186
128,151	-27,204	-0,240	-0,097
129,166	44,485	-0,264	-0,169
130,181	40,240	-0,271	-0,170
131,195	255,337	-0,213	-0,255
132,210	119,711	-0,237	-0,205
133,224	-3,783	-0,256	-0,124
134,239	11,765	-0,313	-0,167
135,254	9,415	-0,150	-0,079
136,268	-96,385	-0,142	-0,026
137,283	165,102	-0,254	-0,250
138,297	42,614	-0,269	-0,170
139,312	-29,331	-0,279	-0,111
140,327	-18,368	-0,210	-0,091
141,341	184,404	-0,165	-0,171
142,356	-112,781	-0,303	-0,041
143,370	26,035	-0,240	-0,139
144,385	-58,673	-0,299	-0,090
145,400	39,165	-0,263	-0,164
146,414	800,000	-0,176	-0,350
147,429	446,258	-0,210	-0,323
148,443	800,000	-0,128	-0,252
149,458	229,184	-0,153	-0,174
150,473	41,649	-0,377	-0,238
151,487	52,525	-0,158	-0,105
152,502	677,310	-0,215	-0,391
153,516	545,922	-0,113	-0,188
154,531	800,000	-0,132	-0,291
155,546	143,772	-0,307	-0,285
156,560	175,847	-0,207	-0,209
157,575	-19,284	-0,262	-0,113
158,589	-1,674	-0,249	-0,122
159,604	70,889	-0,230	-0,165
160,619	19,620	-0,183	-0,102
161,633	248,457	-0,206	-0,243
162,648	83,788	-0,191	-0,145
163,662	142,488	-0,172	-0,159
164,677	-26,293	-0,203	-0,082
165,692	-10,404	-0,216	-0,099
166,706	134,949	-0,241	-0,218
167,721	47,449	-0,235	-0,152
168,735	287,046	-0,083	-0,105
169,750	-33,027	-0,201	-0,077
170,764	-60,521	-0,244	-0,072
171,779	75,090	-0,285	-0,209
172,794	-4,229	-0,270	-0,130
173,808	152,740	-0,148	-0,141
174,823	-165,229	-0,260	-0,008
175,837	48,485	-0,294	-0,191
176,852	338,170	-0,220	-0,299
177,867	800,000	-0,108	-0,311
178,881	133,627	-0,080	-0,072
179,896	8,993	-0,215	-0,112
180,910	-3,633	-0,194	-0,093
181,925	75,105	-0,330	-0,241
182,940	800,000	-0,144	-0,295
183,954	-91,633	-0,305	-0,060
184,969	-16,299	-0,211	-0,093
185,983	331,015	-0,131	-0,175
186,998	174,457	-0,071	-0,071
188,013	-129,393	-0,374	-0,036
189,027	215,678	-0,202	-0,222
190,042	27,213	-0,291	-0,169
191,056	55,701	-0,185	-0,124
192,071	-19,544	-0,267	-0,114
193,086	0,143	-0,207	-0,102
194,100	201,586	-0,234	-0,251
195,115	-53,827	-0,261	-0,082
196,129	289,352	-0,203	-0,256
197,144	800,000	-0,156	-0,340
198,159	83,833	-0,240	-0,181
199,173	120,826	-0,179	-0,154
200,188	104,887	-0,157	-0,128
201,202	800,000	-0,079	-0,204
202,217	-64,962	-0,247	-0,069
203,232	293,512	-0,175	-0,222
204,246	173,131	-0,174	-0,174
205,261	512,830	-0,163	-0,264
206,275	-40,882	-0,184	-0,066
207,290	-85,327	-0,162	-0,035
208,304	209,124	-0,129	-0,140
209,319	259,456	-0,153	-0,183
210,334	225,129	-0,168	-0,189
211,348	171,522	-0,174	-0,173
212,363	68,782	-0,285	-0,202
213,377	466,245	-0,171	-0,266
214,392	341,585	-0,165	-0,223
215,407	-159,517	-0,133	0,005
216,421	256,319	-0,115	-0,137
217,436	75,734	-0,147	-0,107
218,450	336,657	-0,125	-0,168
219,465	642,216	-0,051	-0,090
220,480	128,276	-0,163	-0,144
221,494	-157,743	-0,178	0,007
222,509	-163,080	-0,183	0,006
223,523	131,410	-0,128	-0,114
224,538	267,302	-0,232	-0,281
225,553	188,111	-0,200	-0,207
226,567	162,681	-0,186	-0,181
227,582	-23,988	-0,247	-0,102
228,596	4,252	-0,173	-0,087
229,611	-133,693	-0,221	-0,019
230,626	800,000	-0,062	-0,132
231,640	102,801	-0,261	-0,211
232,655	16,446	-0,229	-0,125
233,669	36,804	-0,212	-0,129
234,684	224,918	-0,196	-0,219
235,699	224,866	-0,067	-0,075
236,713	-77,209	-0,149	-0,035
237,728	-113,801	-0,203	-0,027
238,742	-153,034	-0,186	0,009
239,757	331,996	-0,186	-0,248
240,772	-31,250	-0,312	-0,121
241,786	-59,673	-0,154	-0,045
242,801	10,670	-0,182	-0,096
243,815	-176,486	-0,133	0,002
244,830	-67,797	-0,231	0,062
245,844	-74,582	-0,182	0,045
246,859	434,505	-0,062	-0,093
247,874	-73,941	-0,281	-0,070
248,888	50,081	-0,161	-0,105
249,903	-151,525	-0,190	0,010
250,917	-67,724	-0,245	-0,066
251,932	-140,126	-0,211	-0,015
252,947	120,141	-0,134	0,115
253,961	118,315	-0,211	-0,179
254,976	23,147	-0,263	-0,149
255,990	467,229	-0,163	-0,253
257,005	132,555	-0,204	-0,181
258,020	146,091	-0,116	-0,108
259,034	-114,755	-0,204	-0,027
260,049	-180,293	-0,111	-0,002
261,063	800,000	-0,098	-0,187
262,078	40,287	-0,341	-0,211
263,093	-20,259	-0,264	-0,112
264,107	420,774	-0,160	-0,237
265,122	73,408	-0,091	-0,066
266,136	-78,774	-0,220	-0,051
267,151	800,000	-0,086	-0,238
268,166	86,267	-0,164	-0,124
269,180	800,000	-0,119	-0,313
270,195	-47,368	-0,107	-0,036
271,209	-20,768	-0,157	-0,066
272,224	131,997	-0,082	-0,072
273,239	29,033	-0,093	-0,054
274,253	-15,972	-0,117	-0,051
275,268	-157,502	-0,060	-0,002
276,282	20,223	-0,104	-0,058
277,297	-87,255	-0,206	-0,043
278,312	38,139	-0,257	-0,157
279,326	18,623	-0,104	-0,057
280,341	37,645	-0,194	-0,118
281,355	46,414	-0,136	-0,087
282,370	5,309	-0,092	-0,046
283,384	122,622	-0,197	-0,170
284,399	-1,091	-0,242	-0,117
285,414	-200,000	0,015	-0,128
286,428	371,372	-0,184	-0,257
287,443	-200,000	-0,009	-0,043
288,457	263,553	-0,087	-0,104
289,472	-37,220	-0,254	-0,093
290,487	208,571	-0,192	-0,207
291,501	337,891	-0,194	-0,261
292,516	80,293	-0,220	-0,163
293,530	-82,400	0,062	-0,014
294,545	-73,910	-0,131	-0,033
295,560	-200,000	-0,054	-0,192
296,574	-17,808	-0,247	-0,106
297,589	664,142	-0,087	-0,156
298,603	-137,792	-0,190	-0,014
299,618	212,663	-0,197	-0,213
300,633	-200,000	-0,023	-0,176
301,647	-14,618	-0,066	0,029
302,662	64,568	-0,132	-0,091
303,676	-55,481	-0,203	-0,062
304,691	14,079	-0,248	-0,132
305,706	800,000	-0,107	-0,208
306,720	800,000	-0,051	-0,143
307,735	412,362	-0,119	-0,174
308,749	599,883	-0,071	-0,121
309,764	-120,738	-0,171	0,020
310,779	-200,000	0,002	-0,048
311,793	-9,146	-0,145	-0,066
312,808	254,459	-0,040	-0,047
313,822	-32,987	-0,296	-0,112
314,837	-152,909	-0,146	0,007
315,852	579,176	0,024	-0,041
316,866	703,422	-0,043	-0,078
317,881	-77,866	-0,122	-0,029
318,895	800,000	-0,047	-0,120
319,910	130,923	-0,132	-0,116
320,925	500,619	-0,082	-0,130
321,939	316,235	-0,070	-0,091
322,954	358,178	-0,074	-0,101
323,968	130,998	-0,175	-0,154
324,983	-200,000	-0,007	-0,110
325,997	202,951	-0,038	-0,040
327,012	-22,949	-0,057	-0,023
328,027	-33,149	-0,143	-0,054
329,041	202,456	-0,056	0,059
330,056	61,879	-0,158	-0,107
331,070	409,660	-0,035	-0,050
332,085	125,103	-0,092	-0,080
333,100	-71,504	-0,145	0,037
334,114	128,228	-0,201	-0,175
335,129	800,000	-0,096	-0,251
336,143	800,000	-0,098	-0,233
337,158	362,465	-0,171	-0,236
338,173	800,000	-0,073	-0,155
339,187	90,600	-0,155	-0,119
340,202	-70,357	-0,179	0,046
341,216	270,174	-0,159	-0,192
342,231	280,030	-0,123	-0,151
343,246	-57,243	-0,182	-0,055
344,260	579,008	-0,082	-0,138
345,275	377,551	-0,040	-0,056
346,289	68,506	-0,160	-0,112
347,304	-83,349	-0,137	-0,030
348,319	425,165	-0,106	-0,157
349,333	-31,548	-0,121	0,046
350,348	-58,519	-0,108	-0,032
351,362	62,157	-0,153	-0,104
352,377	800,000	-0,053	0,149
353,392	19,211	-0,054	-0,030
354,406	185,255	-0,147	-0,149
355,421	206,508	1312,420	1399,396
356,435	158,822	1472,836	1399,873
