DTS Sentinel unit serial number:	SN410029Multiplexer serial number:	ORYXHardware model number:	OX2-SRSoftware version number:	ORYX F/W v4,00 Oryx Data Collector v3.7.2.0data status	okinstallation	B3 Nyhavnadifferential loss correction	single-endedforward channel	channel 1reverse channel	N/Adate	2023/11/29time	21:22:30forward acquisition time	300,00reverse acquisition time	0,00gamma	499,1914k internal	0,3210k external	0,3210temperature offset calibration	1,0000default loss term (dB/km)	0,3820temperature slope calibration	1,0000multiplexer offset coefficient	1,0000multiplexer slope coefficient	1,0000fibre end	0,00T internal ref (°C)	10,82T ext. ref 1 (°C)	-4,39T ext. ref 2 (°C)	-4,46length (m)	temperature (°C)	Stokes	anti-Stokes-744,400	306,219	-0,179	-0,242
-743,385	-200,000	0,031	0,330
-742,371	-200,000	-0,033	-0,192
-741,356	-200,000	0,032	0,263
-740,342	-200,000	-0,046	-0,278
-739,327	-200,000	-0,047	0,237
-738,312	97,906	-0,329	-0,274
-737,298	141,069	-0,068	0,066
-736,283	98,044	-0,188	-0,157
-735,269	-200,000	-0,026	0,163
-734,254	800,000	-0,058	-0,185
-733,239	-200,000	-0,019	0,245
-732,225	800,000	-0,116	-0,262
-731,210	74,930	0,205	0,156
-730,196	-101,724	-0,064	-0,011
-729,181	-200,000	0,051	-0,188
-728,167	800,000	-0,023	-0,050
-727,152	-14,997	-0,134	0,062
-726,137	-200,000	0,006	-0,089
-725,123	160,273	-0,153	-0,155
-724,108	70,729	-0,129	-0,097
-723,094	-42,148	-0,119	0,044
-722,079	275,959	-0,027	-0,035
-721,064	-51,992	0,134	0,045
-720,050	59,722	-0,153	0,109
-719,035	-200,000	-0,004	-0,049
-718,021	-200,000	-0,017	-0,114
-717,006	8,416	-0,117	-0,064
-715,991	-200,000	-0,011	-0,061
-714,977	-200,000	-0,004	-0,082
-713,962	-102,679	0,046	-0,008
-712,948	800,000	-0,055	-0,117
-711,933	78,296	-0,035	0,027
-710,918	-77,271	0,091	-0,023
-709,904	267,300	-0,060	-0,076
-708,889	86,114	-0,094	-0,075
-707,875	125,951	-0,007	-0,006
-706,860	595,102	0,044	0,079
-705,845	-200,000	0,014	0,060
-704,831	-200,000	0,028	-0,120
-703,816	126,350	0,118	-0,108
-702,802	356,721	-0,049	-0,071
-701,787	-200,000	0,008	-0,195
-700,772	-200,000	-0,015	-0,053
-699,758	-200,000	-0,027	-0,089
-698,743	-200,000	0,020	-0,148
-697,729	-200,000	-0,003	0,020
-696,714	289,844	-0,094	0,124
-695,699	-200,000	0,012	-0,092
-694,685	800,000	0,020	-0,042
-693,670	317,997	0,061	-0,084
-692,656	614,338	-0,029	-0,054
-691,641	141,834	0,126	0,121
-690,627	-200,000	0,054	0,181
-689,612	-200,000	0,029	0,115
-688,597	-122,353	-0,030	0,004
-687,583	-200,000	-0,024	-0,130
-686,568	-60,737	-0,078	0,024
-685,554	800,000	0,054	0,170
-684,539	-76,272	0,104	0,026
-683,524	242,026	-0,035	0,042
-682,510	502,585	-0,052	0,087
-681,495	0,665	-0,167	0,086
-680,481	-59,888	0,097	0,030
-679,466	-120,892	-0,104	-0,013
-678,451	74,487	-0,092	-0,070
-677,437	800,000	0,013	-0,030
-676,422	263,520	-0,042	0,053
-675,408	800,000	-0,054	0,113
-674,393	-121,404	-0,001	0,000
-673,378	-200,000	0,025	-0,084
-672,364	-144,093	-0,090	-0,006
-671,349	132,423	0,070	-0,066
-670,335	3,851	0,075	-0,040
-669,320	49,697	0,100	0,068
-668,305	-81,477	-0,176	0,042
-667,291	800,000	0,004	-0,009
-666,276	-37,420	-0,069	-0,027
-665,262	-200,000	-0,011	-0,077
-664,247	-200,000	-0,033	-0,197
-663,232	244,135	-0,029	0,036
-662,218	56,981	0,029	0,020
-661,203	-200,000	-0,004	0,072
-660,189	33,981	0,070	-0,044
-659,174	-188,186	-0,114	-0,001
-658,159	-200,000	-0,022	-0,098
-657,145	-21,350	-0,109	-0,048
-656,130	-27,586	0,087	-0,036
-655,116	-61,798	-0,078	0,024
-654,101	283,031	0,050	-0,065
-653,086	25,695	0,108	0,065
-652,072	-200,000	-0,008	-0,126
-651,057	-200,000	0,009	-0,122
-650,043	-69,464	0,089	-0,024
-649,028	800,000	-0,075	-0,172
-648,014	456,214	-0,032	0,051
-646,999	-200,000	0,001	0,061
-645,984	-200,000	0,013	-0,070
-644,970	800,000	0,051	0,128
-643,955	-200,000	-0,016	-0,097
-642,941	121,701	-0,026	-0,024
-641,926	-176,859	0,082	-0,001
-640,911	123,950	0,092	-0,084
-639,897	215,755	0,011	-0,013
-638,882	369,656	-0,058	0,086
-637,868	-200,000	-0,010	-0,037
-636,853	-121,194	-0,156	-0,019
-635,838	-176,329	-0,132	-0,002
-634,824	13,149	-0,097	-0,054
-633,809	-149,272	0,058	-0,003
-632,795	-200,000	0,009	0,046
-631,780	-150,431	-0,100	-0,005
-630,765	218,741	0,058	0,067
-629,751	344,531	0,040	-0,057
-628,736	-107,425	-0,104	-0,016
-627,722	-200,000	0,009	-0,031
-626,707	800,000	-0,020	0,048
-625,692	54,349	0,094	0,065
-624,678	15,593	-0,064	0,036
-623,663	800,000	0,015	-0,045
-622,649	-173,775	-0,121	-0,003
-621,634	-200,000	0,001	0,060
-620,619	57,340	-0,057	-0,040
-619,605	116,769	0,066	-0,058
-618,590	-200,000	0,004	-0,044
-617,576	-200,000	0,044	-0,168
-616,561	-200,000	0,001	-0,044
-615,546	-200,000	0,002	0,010
-614,532	393,765	-0,031	0,047
-613,517	176,998	0,058	0,061
-612,503	-200,000	0,000	-0,131
-611,488	800,000	-0,021	-0,047
-610,474	800,000	-0,034	0,082
-609,459	800,000	0,045	-0,102
-608,444	26,526	-0,064	-0,039
-607,430	-200,000	-0,017	-0,075
-606,415	-200,000	0,016	-0,100
-605,401	19,238	0,045	0,026
-604,386	106,946	-0,098	0,084
-603,371	-200,000	0,006	-0,063
-602,357	173,124	0,128	0,133
-601,342	-200,000	-0,015	-0,130
-600,328	172,916	0,105	-0,110
-599,313	-65,438	-0,054	0,015
-598,298	-147,400	-0,051	0,003
-597,284	-62,010	0,066	0,020
-596,269	-200,000	0,009	0,070
-595,255	-200,000	-0,001	-0,012
-594,240	52,958	0,175	0,120
-593,225	-200,000	-0,001	-0,069
-592,211	800,000	-0,042	-0,103
-591,196	-59,899	-0,056	-0,017
-590,182	-25,943	-0,046	0,020
-589,167	136,898	-0,018	-0,017
-588,152	-2,393	0,111	-0,056
-587,138	800,000	-0,053	0,116
-586,123	57,276	0,058	-0,041
-585,109	35,185	-0,052	-0,033
-584,094	-200,000	-0,004	0,019
-583,079	240,647	-0,060	-0,072
-582,065	-200,000	-0,009	-0,040
-581,050	4,537	0,096	-0,050
-580,036	-39,896	0,041	0,015
-579,021	-116,895	-0,021	0,003
-578,006	-125,084	-0,142	0,015
-576,992	168,790	-0,054	0,056
-575,977	800,000	-0,023	-0,047
-574,963	62,929	0,078	-0,057
-573,948	-138,026	0,159	-0,013
-572,934	800,000	-0,028	-0,057
-571,919	-110,924	-0,093	-0,014
-570,904	289,400	-0,039	0,051
-569,890	-78,804	0,115	-0,028
-568,875	-200,000	0,025	-0,109
-567,861	515,742	-0,045	-0,077
-566,846	800,000	0,044	-0,097
-565,831	188,553	-0,101	-0,109
-564,817	-33,462	-0,133	0,053
-563,802	-83,905	-0,181	0,041
-562,788	-152,384	0,063	-0,003
-561,773	-200,000	-0,038	-0,124
-560,758	40,777	-0,015	-0,010
-559,744	410,531	-0,019	-0,029
-558,729	20,939	0,080	-0,047
-557,715	172,909	-0,130	-0,134
-556,700	-200,000	-0,032	-0,119
-555,685	-150,727	0,053	0,003
-554,671	-177,863	0,093	0,002
-553,656	93,676	-0,037	0,031
-552,642	800,000	0,045	-0,139
-551,627	800,000	-0,008	0,024
-550,612	-92,647	-0,025	0,005
-549,598	800,000	0,044	-0,135
-548,583	192,437	-0,014	-0,015
-547,569	-200,000	-0,005	0,060
-546,554	112,329	-0,068	-0,059
-545,539	83,279	0,132	0,104
-544,525	210,107	0,043	0,049
-543,510	800,000	-0,037	-0,107
-542,496	-200,000	0,029	-0,172
-541,481	-122,690	0,032	-0,004
-540,466	32,605	0,015	-0,009
-539,452	200,046	0,136	-0,151
-538,437	800,000	-0,042	0,093
-537,423	515,338	0,046	0,077
-536,408	323,441	0,046	0,063
-535,393	119,075	0,056	0,050
-534,379	-126,882	-0,073	0,008
-533,364	564,161	-0,036	-0,062
-532,350	-70,256	0,042	-0,012
-531,335	-200,000	-0,023	0,140
-530,321	-30,384	-0,066	-0,027
-529,306	-100,978	-0,148	-0,026
-528,291	-55,009	0,101	0,032
-527,277	-200,000	0,008	0,071
-526,262	800,000	0,045	0,106
-525,248	270,417	0,083	-0,105
-524,233	-200,000	-0,001	0,010
-523,218	-200,000	-0,033	0,132
-522,204	800,000	0,027	-0,073
-521,189	230,244	-0,104	-0,122
-520,175	73,044	-0,139	-0,104
-519,160	107,558	-0,058	-0,050
-518,145	-200,000	0,006	0,055
-517,131	-200,000	-0,001	0,055
-516,116	-200,000	0,007	0,029
-515,102	-200,000	-0,009	0,147
-514,087	-200,000	0,005	0,097
-513,072	-99,405	-0,048	-0,009
-512,058	41,026	-0,069	-0,044
-511,043	11,122	0,213	0,117
-510,029	-200,000	-0,023	0,082
-509,014	-200,000	-0,002	-0,024
-507,999	-55,288	-0,033	-0,011
-506,985	473,600	-0,020	0,032
-505,970	-200,000	0,012	-0,085
-504,956	227,791	-0,028	0,032
-503,941	607,387	0,065	0,118
-502,926	12,390	0,019	0,011
-501,912	59,805	-0,115	-0,081
-500,897	-12,364	0,098	-0,046
-499,883	-128,315	-0,106	-0,011
-498,868	162,789	-0,045	-0,046
-497,853	82,778	0,111	-0,086
-496,839	-68,616	0,046	0,013
-495,824	173,759	0,073	-0,076
-494,810	-26,282	-0,035	0,015
-493,795	-14,298	-0,065	-0,030
-492,781	-145,277	-0,023	0,001
-491,766	47,555	-0,053	0,035
-490,751	233,822	0,074	-0,088
-489,737	-200,000	0,004	0,017
-488,722	800,000	-0,056	-0,147
-487,708	-200,000	-0,005	0,095
-486,693	168,244	-0,042	0,043
-485,678	229,272	0,087	-0,103
-484,664	-200,000	-0,012	-0,095
-483,649	-60,397	-0,040	-0,012
-482,635	-140,495	-0,093	-0,007
-481,620	324,176	0,062	0,085
-480,605	10,232	0,047	0,026
-479,591	-95,009	-0,131	-0,025
-478,576	210,116	0,068	-0,077
-477,562	-200,000	-0,008	0,111
-476,547	800,000	-0,023	-0,071
-475,532	53,275	-0,095	0,065
-474,518	299,605	0,070	0,092
-473,503	-1,954	0,024	-0,012
-472,489	-200,000	-0,006	0,036
-471,474	139,491	-0,058	-0,055
-470,459	-132,516	-0,017	0,002
-469,445	-200,000	-0,034	-0,124
-468,430	-200,000	0,027	-0,153
-467,416	252,223	0,018	-0,022
-466,401	800,000	-0,038	0,113
-465,386	-141,604	-0,022	-0,002
-464,372	-200,000	0,007	0,032
-463,357	-6,732	-0,072	-0,035
-462,343	693,680	0,029	0,054
-461,328	243,328	-0,033	-0,040
-460,313	800,000	-0,045	0,142
-459,299	-200,000	0,018	0,065
-458,284	321,303	0,075	0,102
-457,270	661,737	-0,075	0,140
-456,255	-50,341	-0,059	0,020
-455,241	58,190	-0,113	0,080
-454,226	38,005	0,073	-0,047
-453,211	-200,000	0,007	-0,061
-452,197	-154,375	-0,083	0,004
-451,182	-97,333	0,097	0,018
-450,168	800,000	0,046	0,121
-449,153	800,000	-0,009	-0,019
-448,138	80,805	-0,174	-0,135
-447,124	-200,000	-0,000	-0,047
-446,109	664,409	-0,048	-0,089
-445,095	-71,595	0,154	0,041
-444,080	-51,769	-0,111	-0,037
-443,065	-200,000	0,001	-0,104
-442,051	35,519	0,027	0,017
-441,036	-131,660	-0,033	0,003
-440,022	-200,000	0,024	0,088
-439,007	-174,195	-0,056	-0,001
-437,992	-200,000	-0,016	-0,069
-436,978	800,000	-0,069	0,209
-435,963	-200,000	0,011	0,054
-434,949	-25,182	-0,141	0,060
-433,934	90,604	-0,065	0,052
-432,919	-200,000	-0,030	0,095
-431,905	656,287	0,035	0,065
-430,890	-200,000	0,028	0,089
-429,876	39,235	0,136	0,087
-428,861	89,397	0,144	-0,115
-427,846	-55,257	-0,081	-0,026
-426,832	800,000	0,019	0,040
-425,817	-200,000	0,000	-0,040
-424,803	-40,749	-0,192	-0,071
-423,788	170,413	-0,033	0,033
-422,773	-200,000	0,009	0,070
-421,759	800,000	0,017	-0,043
-420,744	-21,271	0,031	-0,013
-419,730	-103,978	-0,053	-0,009
-418,715	257,359	0,112	-0,139
-417,701	366,184	-0,077	-0,112
-416,686	800,000	-0,010	0,025
-415,671	464,871	0,073	0,117
-414,657	-200,000	-0,005	0,097
-413,642	-16,577	-0,029	0,013
-412,628	65,809	-0,138	-0,100
-411,613	38,932	0,105	0,067
-410,598	-200,000	-0,002	-0,054
-409,584	330,068	0,097	-0,134
-408,569	-200,000	-0,036	0,118
-407,555	41,885	0,022	-0,014
-406,540	6,068	-0,024	0,013
-405,525	-18,595	-0,087	-0,038
-404,511	-200,000	-0,010	0,076
-403,496	-48,470	-0,105	0,036
-402,482	603,283	-0,022	0,040
-401,467	-146,276	-0,067	-0,004
-400,452	-61,369	0,107	0,032
-399,438	225,251	-0,035	0,041
-398,423	465,997	-0,064	-0,103
-397,409	-200,000	-0,001	-0,067
-396,394	20,537	0,149	-0,086
-395,379	-125,112	-0,021	0,002
-394,365	-119,511	0,248	0,030
-393,350	509,920	-0,017	-0,028
-392,336	350,645	0,043	0,061
-391,321	-59,053	-0,088	-0,027
-390,306	-148,073	-0,055	-0,003
-389,292	704,529	-0,075	-0,142
-388,277	-200,000	-0,006	0,128
-387,263	-76,701	0,142	0,035
-386,248	24,523	-0,068	0,040
-385,233	800,000	0,053	0,129
-384,219	-200,000	0,011	-0,091
-383,204	-200,000	-0,032	-0,145
-382,190	-78,081	-0,209	-0,051
-381,175	-157,604	0,055	-0,002
-380,160	162,136	0,066	-0,066
-379,146	800,000	0,027	0,057
-378,131	66,989	0,163	0,119
-377,117	493,485	0,094	0,154
-376,102	8,558	-0,074	-0,039
-375,088	-13,386	-0,099	0,046
-374,073	-200,000	-0,001	-0,134
-373,058	-128,037	0,119	-0,012
-372,044	-62,430	0,174	0,051
-371,029	180,231	0,076	-0,080
-370,015	800,000	0,012	0,034
-369,000	224,501	0,079	0,091
-367,985	24,689	0,107	0,063
-366,971	649,576	-0,037	0,068
-365,956	-68,024	-0,061	0,017
-364,942	-200,000	-0,002	0,008
-363,927	-200,000	0,043	0,178
-362,912	176,374	0,064	0,066
-361,898	-44,054	0,079	-0,028
-360,883	-155,154	-0,069	0,003
-359,869	-195,451	0,094	0,000
-358,854	-200,000	-0,010	-0,094
-357,839	-122,852	0,078	-0,009
-356,825	-60,781	0,107	-0,032
-355,810	-106,112	0,047	-0,008
-354,796	85,299	0,007	-0,005
-353,781	482,475	-0,046	0,074
-352,766	538,277	-0,108	-0,184
-351,752	-20,709	-0,153	-0,067
-350,737	800,000	0,033	-0,066
-349,723	594,838	-0,060	-0,106
-348,708	-71,888	0,136	0,036
-347,693	-200,000	0,002	0,054
-346,679	800,000	-0,083	0,171
-345,664	-20,839	0,064	0,028
-344,650	-200,000	-0,012	-0,084
-343,635	56,862	0,089	0,061
-342,620	-126,103	0,160	-0,017
-341,606	192,367	0,053	-0,057
-340,591	-22,403	-0,120	-0,052
-339,577	-124,199	-0,131	-0,014
-338,562	132,258	-0,028	0,026
-337,548	-139,457	0,077	-0,006
-336,533	-187,845	0,089	-0,001
-335,518	-200,000	0,011	0,067
-334,504	-200,000	-0,011	0,170
-333,489	199,930	-0,051	0,056
-332,475	-134,567	0,032	-0,003
-331,460	448,413	-0,077	-0,122
-330,445	-33,273	0,082	-0,032
-329,431	310,540	0,029	0,039
-328,416	-19,087	0,067	-0,030
-327,402	-200,000	0,010	0,092
-326,387	-129,672	0,089	-0,009
-325,372	-149,551	-0,166	-0,009
-324,358	800,000	0,017	-0,053
-323,343	49,951	0,095	-0,064
-322,329	-200,000	-0,002	-0,061
-321,314	-2,297	0,038	0,019
-320,299	663,007	-0,039	0,072
-319,285	-200,000	0,015	-0,084
-318,270	-148,076	0,055	0,003
-317,256	800,000	0,027	-0,071
-316,241	-14,784	-0,044	-0,020
-315,226	800,000	-0,046	0,111
-314,212	800,000	0,036	0,097
-313,197	49,424	0,062	0,042
-312,183	-200,000	0,029	-0,121
-311,168	475,027	-0,060	0,097
-310,153	278,522	-0,033	-0,042
-309,139	9,227	0,130	0,070
-308,124	-54,795	-0,166	-0,053
-307,110	-22,840	0,127	-0,054
-306,095	-29,982	0,046	0,019
-305,080	20,667	-0,147	0,084
-304,066	800,000	-0,044	-0,121
-303,051	800,000	0,020	-0,048
-302,037	145,375	-0,036	-0,035
-301,022	13,911	-0,048	-0,026
-300,008	152,165	0,088	0,086
-298,993	450,607	0,072	0,114
-297,978	-33,480	-0,099	0,039
-296,964	31,102	0,172	0,105
-295,949	85,577	-0,123	-0,096
-294,935	-200,000	-0,000	0,005
-293,920	734,456	-0,047	-0,089
-292,905	-68,675	0,081	0,022
-291,891	490,308	-0,051	0,084
-290,876	-101,512	0,079	0,014
-289,862	-200,000	-0,008	0,062
-288,847	800,000	-0,065	-0,129
-287,832	-176,926	-0,052	0,001
-286,818	-14,961	-0,080	0,036
-285,803	-9,817	0,137	-0,065
-284,789	800,000	0,057	0,140
-283,774	432,882	-0,041	0,063
-282,759	149,798	0,020	-0,019
-281,745	800,000	0,019	-0,040
-280,730	93,295	-0,172	-0,139
-279,716	410,806	0,027	0,041
-278,701	-200,000	0,011	-0,068
-277,686	551,447	-0,025	0,043
-276,672	-92,958	-0,057	0,011
-275,657	-6,724	-0,056	-0,027
-274,643	-6,471	-0,021	0,010
-273,628	-107,715	-0,033	-0,005
-272,613	285,419	-0,033	0,042
-271,599	-200,000	0,014	0,134
-270,584	-90,730	-0,152	0,031
-269,570	352,586	0,015	0,021
-268,555	519,668	-0,037	0,062
-267,540	91,603	-0,137	0,110
-266,526	20,901	0,036	-0,021
-265,511	-200,000	-0,012	-0,080
-264,497	-200,000	0,000	0,084
-263,482	800,000	0,092	0,198
-262,467	54,987	0,114	0,078
-261,453	-200,000	-0,032	0,132
-260,438	132,602	-0,075	-0,069
-259,424	-200,000	-0,010	-0,061
-258,409	-111,897	-0,031	-0,004
-257,395	182,364	-0,030	0,031
-256,380	-200,000	0,014	0,086
-255,365	-85,563	0,149	-0,033
-254,351	800,000	-0,019	0,057
-253,336	-13,984	-0,175	-0,080
-252,322	-200,000	0,017	-0,095
-251,307	-86,368	-0,117	-0,025
-250,292	-200,000	0,027	0,095
-249,278	408,139	0,055	0,083
-248,263	-119,712	0,214	-0,026
-247,249	56,942	0,123	-0,085
-246,234	170,224	-0,082	0,084
-245,219	327,266	0,076	-0,103
-244,205	800,000	-0,056	-0,134
-243,190	-200,000	-0,008	0,045
-242,176	-200,000	0,016	0,072
-241,161	-31,607	0,099	0,039
-240,146	-11,523	0,022	-0,010
-239,132	-177,299	0,085	0,001
-238,117	800,000	-0,025	0,057
-237,103	135,108	0,095	0,088
-236,088	442,161	-0,021	-0,033
-235,073	800,000	-0,022	-0,049
-234,059	-182,382	0,089	-0,001
-233,044	31,070	-0,031	0,019
-232,030	-200,000	-0,000	-0,021
-231,015	93,453	-0,047	0,038
-230,000	-200,000	0,002	-0,043
-228,986	-200,000	0,003	-0,015
-227,971	737,677	-0,064	0,122
-226,957	-4,235	0,176	0,086
-225,942	55,748	-0,041	-0,028
-224,927	-79,278	-0,146	0,035
-223,913	800,000	0,029	-0,085
-222,898	192,558	0,093	-0,100
-221,884	-134,935	0,049	0,004
-220,869	-200,000	0,011	-0,102
-219,855	247,520	0,023	-0,027
-218,840	54,852	0,031	-0,021
-217,825	800,000	0,024	0,072
-216,811	102,093	-0,051	-0,043
-215,796	-200,000	-0,013	-0,051
-214,782	-200,000	-0,002	0,105
-213,767	-200,000	-0,003	-0,011
-212,752	98,199	-0,066	0,054
-211,738	-200,000	-0,010	-0,042
-210,723	591,080	-0,042	0,074
-209,709	800,000	0,011	0,029
-208,694	245,185	-0,059	0,071
-207,679	800,000	-0,035	-0,079
-206,665	34,470	0,068	0,042
-205,650	319,318	0,031	-0,042
-204,636	-29,361	-0,068	0,027
-203,621	115,252	-0,019	-0,017
-202,606	800,000	-0,038	-0,086
-201,592	25,757	-0,038	0,023
-200,577	-200,000	-0,004	-0,045
-199,563	23,470	0,106	-0,062
-198,548	-124,865	0,138	0,015
-197,533	-200,000	0,019	0,144
-196,519	-17,104	0,103	-0,046
-195,504	-200,000	-0,006	-0,048
-194,490	800,000	0,036	-0,102
-193,475	62,561	-0,032	0,023
-192,460	-100,175	0,069	0,012
-191,446	1,019	-0,014	-0,007
-190,431	38,811	-0,121	0,077
-189,417	-18,653	-0,159	0,070
-188,402	119,276	0,048	0,042
-187,387	-69,073	-0,137	0,037
-186,373	800,000	-0,036	-0,113
-185,358	-140,186	0,027	-0,002
-184,344	-98,964	0,149	0,027
-183,329	31,058	-0,029	0,018
-182,315	87,509	0,049	-0,039
-181,300	800,000	-0,009	0,019
-180,285	-123,501	-0,053	-0,006
-179,271	45,647	-0,035	-0,023
-178,256	7,526	0,076	0,040
-177,242	-200,000	0,007	-0,186
-176,227	-200,000	0,013	-0,079
-175,212	-69,390	-0,116	-0,031
-174,198	318,284	0,016	-0,021
-173,183	-16,013	0,146	0,066
-172,169	-77,421	-0,162	0,040
-171,154	142,749	-0,047	-0,044
-170,139	285,228	0,036	-0,046
-169,125	48,760	0,046	0,030
-168,110	-100,730	0,167	0,029
-167,096	800,000	-0,044	0,093
-166,081	-200,000	0,008	-0,048
-165,066	-200,000	0,015	0,071
-164,052	53,463	-0,082	-0,056
-163,037	-91,565	0,102	0,020
-162,023	-200,000	0,086	0,269
-161,008	-200,000	-0,026	0,156
-159,993	-83,165	-0,061	-0,014
-158,979	280,915	0,065	-0,082
-157,964	-129,935	0,042	0,004
-156,950	-200,000	0,020	0,070
-155,935	245,990	0,017	0,020
-154,920	62,324	-0,063	0,044
-153,906	514,300	0,047	0,078
-152,891	-106,363	0,050	0,008
-151,877	118,722	0,048	0,042
-150,862	-200,000	0,006	-0,052
-149,847	-181,574	-0,116	-0,002
-148,833	19,871	-0,073	-0,042
-147,818	38,015	0,102	0,064
-146,804	-200,000	0,018	0,089
-145,789	412,563	-0,062	0,094
-144,775	159,985	-0,069	-0,068
-143,760	-113,857	-0,096	-0,013
-142,745	214,944	-0,053	-0,060
-141,731	157,287	0,140	0,137
-140,716	-30,068	0,092	-0,037
-139,702	-200,000	0,002	0,157
-138,687	-200,000	-0,005	-0,078
-137,672	124,672	0,038	-0,034
-136,658	-91,450	-0,146	0,029
-135,643	383,607	-0,020	-0,029
-134,629	357,683	0,043	-0,060
-133,614	173,623	-0,037	0,038
-132,599	464,456	0,080	0,127
-131,585	-200,000	-0,147	0,000
-130,570	-2,275	0,032	0,016
-129,556	67,549	0,086	0,062
-128,541	414,160	-0,068	0,102
-127,526	-76,921	0,138	-0,034
-126,512	-27,628	-0,032	0,013
-125,497	-61,321	-0,031	-0,009
-124,483	-200,000	0,017	0,083
-123,468	92,555	-0,122	-0,097
-122,453	3,281	0,144	-0,074
-121,439	800,000	-0,068	0,140
-120,424	-133,684	0,084	-0,007
-119,410	-200,000	0,029	-0,099
-118,395	25,366	-0,057	0,033
-117,380	135,173	-0,106	0,097
-116,366	62,579	0,032	-0,022
-115,351	-200,000	-0,032	-0,103
-114,337	154,200	-0,075	-0,073
-113,322	18,798	0,075	-0,042
-112,307	-82,675	0,034	-0,008
-111,293	800,000	0,068	0,147
-110,278	-164,597	0,132	0,004
-109,264	-200,000	-0,006	-0,037
-108,249	-200,000	0,001	0,024
-107,234	6,182	-0,036	0,019
-106,220	91,864	-0,023	0,018
-105,205	-134,382	-0,117	-0,010
-104,191	-200,000	0,137	-0,000
-103,176	800,000	-0,055	0,155
-102,162	-122,194	0,026	-0,003
-101,147	800,000	-0,051	-0,122
-100,132	124,427	-0,063	0,056
-99,118	-5,918	0,138	-0,067
-98,103	214,467	-0,064	0,072
-97,089	-151,292	0,059	0,003
-96,074	-200,000	-0,018	0,143
-95,059	170,469	-0,008	0,008
-94,045	800,000	-0,030	-0,070
-93,030	-28,015	0,179	-0,073
-92,016	185,522	-0,154	0,162
-91,001	800,000	0,005	-0,014
-89,986	800,000	0,036	-0,087
-88,972	800,000	0,046	0,142
-87,957	443,448	0,043	0,066
-86,943	9,393	-0,065	0,035
-85,928	800,000	-0,038	-0,080
-84,913	82,973	0,072	0,055
-83,899	73,846	-0,032	-0,024
-82,884	800,000	-0,061	0,189
-81,870	-200,000	0,012	0,226
-80,855	112,734	0,106	0,090
-79,840	-85,395	-0,047	-0,010
-78,826	-94,722	0,076	0,015
-77,811	48,076	0,116	-0,077
-76,797	656,173	-0,040	0,073
-75,782	-200,000	0,021	0,116
-74,767	-200,000	-0,030	0,160
-73,753	55,242	-0,083	0,057
-72,738	-200,000	0,015	-0,063
-71,724	-52,600	0,046	0,015
-70,709	438,061	-0,053	-0,082
-69,694	-200,000	0,008	-0,076
-68,680	69,640	0,051	-0,037
-67,665	16,893	-0,052	0,029
-66,651	800,000	0,074	0,157
-65,636	-148,888	-0,214	0,012
-64,622	-114,176	-0,092	0,012
-63,607	3,964	-0,036	-0,019
-62,592	-200,000	-0,024	0,172
-61,578	800,000	-0,024	-0,050
-60,563	-74,879	0,144	0,036
-59,549	-200,000	-0,018	0,117
-58,534	21,163	-2,057	-1,176
-57,519	442,645	-1,336	-2,073
-56,505	-200,000	-0,375	-4,309
-55,490	402,392	1,000	1,489
-54,476	800,000	5,044	11,219
-53,461	-200,000	20,939	329,882
-52,446	800,000	757,721	2324,924
-51,432	550,311	1662,274	2825,845
-50,417	73,421	1663,806	1228,174
-49,403	18,659	1537,179	865,909
-48,388	12,623	1459,976	793,203
-47,373	18,997	1450,897	818,858
-46,359	15,803	1440,293	797,635
-45,344	10,960	1435,750	772,014
-44,330	10,855	1434,037	770,562
-43,315	10,815	1432,190	769,346
-42,300	10,882	1430,413	768,680
-41,286	10,880	1429,073	767,921
-40,271	10,842	1427,737	766,994
-39,257	10,863	1426,395	766,342
-38,242	10,924	1425,361	766,042
-37,227	10,902	1424,310	765,345
-36,213	10,857	1423,263	764,539
-35,198	10,847	1422,179	763,878
-34,184	10,914	1421,127	763,597
-33,169	10,877	1419,744	762,652
-32,154	10,957	1418,646	762,407
-31,140	10,951	1417,570	761,772
-30,125	10,974	1416,444	761,244
-29,111	10,913	1415,410	760,372
-28,096	10,908	1414,253	759,694
-27,082	10,864	1412,938	758,755
-26,067	10,878	1411,999	758,283
-25,052	10,850	1410,882	757,525
-24,038	10,858	1409,986	757,051
-23,023	10,832	1409,090	756,416
-22,009	10,845	1407,862	755,791
-20,994	10,838	1406,878	755,198
-19,979	10,826	1406,040	754,660
-18,965	10,799	1404,842	753,864
-17,950	10,827	1404,196	753,618
-16,936	10,790	1403,192	752,877
-15,921	10,738	1402,354	752,156
-14,906	10,712	1401,532	751,560
-13,892	10,753	1400,436	751,137
-12,877	10,784	1399,532	750,766
-11,863	10,774	1398,784	750,288
-10,848	10,700	1397,793	749,384
-9,833	10,683	1397,147	748,925
-8,819	10,656	1396,122	748,222
-7,804	10,639	1395,227	747,636
-6,790	10,673	1394,136	747,176
-5,775	10,654	1393,248	746,586
-4,760	10,739	1392,012	746,284
-3,746	10,679	1391,232	745,562
-2,731	10,681	1390,417	745,105
-1,717	10,646	1389,619	744,485
-0,702	10,648	1387,801	743,490
0,313	14,639	1301,258	715,420
1,327	30,896	692,587	417,747
2,342	48,070	120,123	79,095
3,356	-0,365	16,417	8,202
4,371	5,815	3,399	1,768
5,386	-4,907	0,907	0,439
6,400	-200,000	0,051	0,405
7,415	301,412	-0,168	-0,219
8,429	97,183	-0,363	-0,294
9,444	180,403	-0,244	-0,252
10,459	-126,646	-0,321	-0,033
11,473	19,851	-0,340	-0,193
12,488	-157,861	-0,180	-0,007
13,502	87,793	-0,329	-0,257
14,517	74,878	-0,299	-0,222
15,531	103,551	-0,363	-0,300
16,546	-35,772	-0,385	-0,146
17,561	140,796	-0,362	-0,337
18,575	580,634	-0,145	-0,252
19,590	48,082	-0,251	-0,165
20,604	331,638	-0,128	-0,174
21,619	58,297	-0,554	-0,382
22,634	182,721	-0,396	-0,412
23,648	109,779	-0,345	-0,291
24,663	196,116	-0,297	-0,319
25,677	-92,004	-0,329	-0,065
26,692	-19,750	-0,281	-0,122
27,707	77,588	-0,404	-0,302
28,721	246,096	-0,283	-0,336
29,736	116,186	-0,270	-0,233
30,750	67,431	-0,435	-0,312
31,765	61,659	-0,404	-0,283
32,780	-4,920	-0,288	-0,139
33,794	-43,783	-0,257	-0,091
34,809	401,933	-0,126	-0,186
35,823	23,486	-0,422	-0,243
36,838	92,784	-0,350	-0,278
37,853	24,331	-0,395	-0,229
38,867	24,727	-0,351	-0,204
39,882	-39,336	-0,187	-0,069
40,896	-4,898	-0,492	-0,237
41,911	-126,770	-0,289	-0,030
42,926	40,602	-0,349	-0,221
43,940	-33,344	-0,428	-0,166
44,955	14,439	-0,329	-0,180
45,969	12,199	-0,370	-0,199
46,984	20,560	-0,329	-0,187
47,999	25,327	-0,248	-0,145
49,013	-34,996	-0,275	-0,105
50,028	58,400	-0,351	-0,241
51,042	14,700	-0,342	-0,187
52,057	-34,323	-0,295	-0,113
53,071	90,524	-0,358	-0,281
54,086	-18,745	-0,411	-0,179
55,101	-18,750	-0,343	-0,149
56,115	800,000	-0,161	-0,350
57,130	16,318	-0,365	-0,202
58,144	655,845	-0,183	-0,331
59,159	111,489	-0,350	-0,296
60,174	111,727	-0,302	-0,256
61,188	26,974	-0,293	-0,172
62,203	234,083	-0,263	-0,304
63,217	-46,720	-0,247	-0,084
64,232	-37,222	-0,395	-0,147
65,247	142,539	-0,282	-0,263
66,261	102,601	-0,294	-0,242
67,276	77,208	-0,305	-0,227
68,290	50,626	-0,197	-0,130
69,305	122,837	-0,304	-0,267
70,320	188,918	-0,286	-0,301
71,334	58,358	-0,358	-0,246
72,349	32,013	-0,327	-0,197
73,363	-57,870	-0,402	-0,122
74,378	65,496	-0,304	-0,216
75,393	213,909	-0,299	-0,332
76,407	27,416	-0,282	-0,166
77,422	37,819	-0,257	-0,160
78,436	259,493	-0,200	-0,242
79,451	66,353	-0,339	-0,241
80,466	13,701	-0,284	-0,154
81,480	211,204	-0,237	-0,262
82,495	17,131	-0,305	-0,169
83,509	111,732	-0,231	-0,196
84,524	106,873	-0,276	-0,229
85,539	47,933	-0,328	-0,214
86,553	61,522	-0,289	-0,201
87,568	317,095	-0,262	-0,347
88,582	105,030	-0,370	-0,306
89,597	-61,255	-0,356	-0,104
90,611	83,829	-0,301	-0,230
91,626	-4,029	-0,278	-0,134
92,641	194,302	-0,138	-0,147
93,655	228,463	-0,274	-0,313
94,670	311,712	-0,183	-0,240
95,684	75,702	-0,396	-0,293
96,699	-115,551	-0,315	-0,041
97,714	107,348	-0,169	-0,141
98,728	-147,391	-0,145	0,008
99,743	51,642	-0,231	-0,154
100,757	-76,711	-0,321	-0,078
101,772	534,354	-0,181	-0,301
102,787	104,725	-0,327	-0,269
103,801	79,643	-0,271	-0,203
104,816	156,498	-0,213	-0,205
105,830	148,847	-0,338	-0,320
106,845	123,756	-0,232	-0,204
107,860	-31,369	-0,278	-0,109
108,874	-19,651	-0,377	-0,162
109,889	-42,294	-0,295	-0,105
110,903	-12,344	-0,297	-0,135
111,918	-112,064	-0,333	-0,046
112,933	-61,632	-0,275	-0,080
113,947	135,194	-0,278	-0,252
114,962	-26,039	-0,221	-0,090
115,976	-108,173	-0,230	-0,034
116,991	233,843	-0,218	-0,251
118,006	-88,406	-0,173	0,036
119,020	-110,976	-0,285	-0,040
120,035	73,851	-0,228	-0,167
121,049	2,930	-0,250	-0,126
122,064	153,614	-0,172	-0,165
123,079	23,842	-0,422	-0,242
124,093	49,378	-0,269	-0,176
125,108	-14,469	-0,311	-0,139
126,122	-27,120	-0,215	-0,087
127,137	-69,424	-0,328	-0,087
128,151	86,376	-0,188	-0,144
129,166	146,742	-0,230	-0,215
130,181	110,089	-0,199	-0,167
131,195	20,941	-0,371	-0,209
132,210	48,077	-0,299	-0,194
133,224	277,943	-0,151	-0,188
134,239	-132,530	-0,291	0,026
135,254	-73,807	-0,279	-0,070
136,268	-89,950	-0,318	-0,064
137,283	800,000	-0,117	-0,249
138,297	-55,542	-0,313	-0,097
139,312	211,584	-0,263	-0,289
140,327	190,496	-0,195	-0,205
141,341	465,994	-0,138	-0,216
142,356	169,558	-0,232	-0,231
143,370	145,198	-0,218	-0,203
144,385	167,097	-0,144	-0,143
145,400	-40,772	-0,257	-0,092
146,414	-6,194	-0,225	-0,107
147,429	35,863	-0,300	-0,183
148,443	19,123	-0,374	-0,208
149,458	153,838	-0,123	-0,117
150,473	-83,726	-0,255	-0,056
151,487	254,583	-0,173	-0,206
152,502	-6,520	-0,273	-0,129
153,516	148,364	-0,329	-0,310
154,531	-12,930	-0,384	-0,173
155,546	39,185	-0,216	-0,134
156,560	-200,000	-0,078	-0,253
157,575	248,402	-0,221	-0,261
158,589	195,758	-0,161	-0,171
159,604	-26,735	-0,353	-0,143
160,619	73,341	-0,210	-0,153
161,633	203,774	-0,137	-0,147
162,648	147,389	-0,248	-0,232
163,662	13,907	-0,256	-0,138
164,677	800,000	-0,107	-0,211
165,692	-118,872	-0,127	0,015
166,706	77,632	-0,220	-0,162
167,721	218,686	-0,153	-0,170
168,735	59,028	-0,343	-0,234
169,750	352,807	-0,165	-0,228
170,764	800,000	-0,119	-0,243
171,779	65,068	-0,155	-0,109
172,794	-145,073	-0,270	0,017
173,808	91,326	-0,315	-0,246
174,823	18,846	-0,372	-0,207
175,837	-17,188	-0,136	-0,060
176,852	-8,003	-0,193	-0,090
177,867	-99,799	-0,348	-0,060
178,881	7,711	-0,222	-0,115
179,896	24,103	-0,161	-0,092
180,910	-72,079	-0,202	-0,052
181,925	405,885	-0,122	-0,179
182,940	55,788	-0,241	-0,162
183,954	450,674	-0,157	-0,241
184,969	5,981	-0,185	-0,095
185,983	-114,418	-0,273	-0,036
186,998	-40,322	-0,210	-0,075
188,013	-118,034	-0,291	-0,036
189,027	-24,330	-0,162	-0,067
190,042	165,456	-0,180	-0,177
191,056	32,030	-0,255	-0,152
192,071	82,231	-0,229	-0,172
193,086	437,350	-0,121	-0,184
194,100	17,961	-0,300	-0,166
195,115	9,097	-0,212	-0,111
196,129	578,621	-0,172	-0,292
197,144	246,015	-0,128	-0,150
198,159	117,286	-0,135	-0,115
199,173	343,128	-0,159	-0,217
200,188	374,336	-0,056	-0,080
201,202	-80,434	-0,132	-0,030
202,217	17,504	-0,219	-0,121
203,232	48,352	-0,202	-0,131
204,246	-53,277	-0,186	-0,059
205,261	51,906	-0,222	-0,146
206,275	519,085	-0,061	-0,100
207,290	26,208	-0,200	-0,116
208,304	47,257	-0,172	-0,111
209,319	75,867	-0,296	-0,217
210,334	-180,777	-0,200	0,003
211,348	-88,869	-0,253	-0,051
212,363	800,000	-0,071	-0,145
213,377	800,000	-0,102	-0,243
214,392	13,364	-0,213	-0,114
215,407	-47,682	-0,193	-0,064
216,421	-165,066	-0,224	0,007
217,436	-7,549	-0,177	-0,082
218,450	137,981	-0,168	-0,153
219,465	177,487	-0,227	-0,229
220,480	-94,971	-0,171	-0,032
221,494	-42,502	-0,150	-0,053
222,509	14,602	-0,208	0,112
223,523	-174,698	-0,211	0,004
224,538	-132,891	-0,189	0,016
225,553	31,999	-0,306	-0,182
226,567	154,265	-0,195	-0,185
227,582	751,798	-0,082	-0,153
228,596	-138,656	-0,132	-0,010
229,611	-78,367	-0,211	-0,050
230,626	263,775	-0,067	-0,081
231,640	-77,511	-0,242	-0,058
232,655	-16,557	-0,169	-0,074
233,669	59,593	-0,206	-0,141
234,684	62,644	-0,186	-0,128
235,699	10,852	-0,212	-0,112
236,713	224,269	-0,164	-0,184
237,728	177,031	-0,100	-0,101
238,742	3,989	-0,322	-0,162
239,757	-49,541	-0,209	-0,068
240,772	44,954	-0,255	-0,162
241,786	-60,947	-0,228	-0,066
242,801	134,203	-0,129	-0,115
243,815	-4,434	-0,122	-0,058
244,830	13,244	-0,122	-0,065
245,844	281,187	-0,184	-0,228
246,859	51,426	-0,231	-0,151
247,874	624,281	-0,167	-0,291
248,888	800,000	-0,108	-0,316
249,903	387,066	-0,158	-0,227
250,917	-123,382	-0,145	-0,016
251,932	519,131	-0,136	-0,221
252,947	-43,061	-0,209	-0,073
253,961	228,457	-0,152	-0,172
254,976	121,693	-0,173	-0,149
255,990	559,194	-0,100	-0,168
257,005	-200,000	-0,036	-0,232
258,020	-99,167	-0,175	-0,030
259,034	800,000	-0,027	-0,078
260,049	-44,450	-0,259	-0,089
261,063	760,707	-0,133	-0,250
262,078	165,224	-0,200	-0,195
263,093	14,947	-0,174	-0,094
264,107	-149,014	-0,179	-0,010
265,122	11,594	-0,069	-0,036
266,136	35,805	-0,115	-0,069
267,151	41,983	-0,219	-0,137
268,166	66,070	-0,177	-0,123
269,180	249,898	-0,135	-0,158
270,195	-200,000	-0,027	-0,149
271,209	284,525	-0,126	-0,157
272,224	130,473	-0,175	-0,154
273,239	138,927	-0,154	-0,140
274,253	115,860	-0,133	-0,112
275,268	263,238	-0,219	-0,262
276,282	800,000	-0,142	-0,326
277,297	40,777	-0,234	-0,145
278,312	800,000	-0,062	-0,136
279,326	-100,591	-0,225	-0,038
280,341	70,573	-0,122	-0,087
281,355	800,000	-0,115	-0,251
282,370	-25,851	-0,231	-0,093
283,384	-53,853	-0,175	-0,055
284,399	85,316	-0,177	-0,134
285,414	-30,631	-0,133	-0,052
286,428	-50,124	-0,112	-0,036
287,443	372,816	-0,052	-0,073
288,457	-74,775	-0,097	-0,024
289,472	-149,475	-0,230	0,012
290,487	-1,521	-0,210	-0,102
291,501	-44,820	-0,115	-0,039
292,516	53,233	-0,227	-0,149
293,530	-44,000	-0,172	-0,059
294,545	-200,000	0,018	-0,132
295,560	-57,322	-0,076	-0,023
296,574	-120,378	-0,149	0,017
297,589	-200,000	-0,057	-0,172
298,603	403,505	-0,105	-0,153
299,618	207,232	-0,206	-0,221
300,633	-71,177	-0,057	0,015
301,647	-6,599	-0,188	-0,088
302,662	228,543	-0,107	-0,120
303,676	90,682	-0,108	-0,083
304,691	75,686	-0,268	-0,195
305,706	800,000	-0,032	-0,071
306,720	50,372	-0,083	-0,054
307,735	-66,082	-0,176	0,048
308,749	11,685	-0,175	-0,092
309,764	215,374	-0,122	-0,133
310,779	-15,173	-0,125	-0,055
311,793	-19,135	-0,153	-0,065
312,808	365,814	-0,138	-0,192
313,822	800,000	-0,080	-0,177
314,837	416,091	-0,121	-0,178
315,852	242,513	0,016	-0,019
316,866	-17,500	-0,020	0,009
317,881	-140,996	-0,141	0,010
318,895	44,562	-0,081	-0,051
319,910	173,938	-0,214	-0,212
320,925	-40,367	-0,207	-0,073
321,939	6,935	-0,175	-0,089
322,954	-83,262	-0,137	-0,030
323,968	199,549	-0,201	-0,212
324,983	14,033	-0,117	-0,062
325,997	800,000	-0,043	-0,098
327,012	722,191	-0,059	-0,109
328,027	567,905	-0,095	-0,158
329,041	-85,893	-0,128	-0,027
330,056	-64,440	-0,149	-0,041
331,070	44,789	-0,063	-0,039
332,085	-200,000	-0,034	-0,107
333,100	71,351	-0,174	-0,123
334,114	-66,180	-0,221	0,060
335,129	-134,347	-0,101	-0,008
336,143	-200,000	-0,054	-0,183
337,158	-200,000	-0,003	-0,028
338,173	89,398	-0,129	-0,098
339,187	-200,000	0,002	-0,135
340,202	31,332	-0,135	0,079
341,216	800,000	-0,051	-0,145
342,231	650,991	-0,146	-0,258
343,246	-61,336	-0,156	-0,045
344,260	63,233	-0,184	-0,126
345,275	91,239	-0,139	-0,107
346,289	677,764	0,026	0,047
347,304	258,313	-0,067	-0,079
348,319	-3,086	-0,128	-0,061
349,333	-24,491	-0,220	-0,089
350,348	182,458	-0,146	-0,148
351,362	-200,000	-0,004	0,023
352,377	427,215	-0,092	-0,137
353,392	62,902	-0,110	-0,075
354,406	23,894	-0,039	0,022
355,421	208,122	1308,718	1400,650
356,435	160,133	1468,677	1401,133
