DTS Sentinel unit serial number:	SN410029Multiplexer serial number:	ORYXHardware model number:	OX2-SRSoftware version number:	ORYX F/W v4,00 Oryx Data Collector v3.7.2.0data status	okinstallation	B3 Nyhavnadifferential loss correction	single-endedforward channel	channel 1reverse channel	N/Adate	2023/11/30time	00:27:30forward acquisition time	300,00reverse acquisition time	0,00gamma	499,1914k internal	0,3209k external	0,3209temperature offset calibration	1,0000default loss term (dB/km)	0,3820temperature slope calibration	1,0000multiplexer offset coefficient	1,0000multiplexer slope coefficient	1,0000fibre end	0,00T internal ref (°C)	10,82T ext. ref 1 (°C)	-4,47T ext. ref 2 (°C)	-4,57length (m)	temperature (°C)	Stokes	anti-Stokes-744,400	227,446	-0,193	-0,228
-743,385	-200,000	0,024	0,193
-742,371	800,000	-0,092	-0,250
-741,356	-200,000	-0,043	0,317
-740,342	189,229	-0,126	-0,137
-739,327	355,378	-0,115	0,166
-738,312	673,242	-0,108	-0,204
-737,298	346,874	-0,084	0,121
-736,283	464,420	-0,149	-0,242
-735,269	694,926	-0,093	0,178
-734,254	312,774	-0,194	-0,265
-733,239	69,170	-0,099	0,073
-732,225	770,961	-0,108	-0,213
-731,210	800,000	0,051	0,152
-730,196	-12,531	-0,117	-0,055
-729,181	-200,000	-0,010	-0,054
-728,167	-164,728	-0,185	0,006
-727,152	-200,000	0,005	-0,047
-726,137	-163,644	-0,100	0,003
-725,123	251,182	-0,049	-0,061
-724,108	144,346	-0,051	0,050
-723,094	54,161	-0,153	-0,106
-722,079	-200,000	-0,009	-0,068
-721,064	-23,194	0,105	0,045
-720,050	-200,000	0,023	0,116
-719,035	-61,163	0,075	-0,023
-718,021	-200,000	-0,020	0,091
-717,006	70,526	-0,105	-0,079
-715,991	-200,000	-0,024	-0,144
-714,977	-96,357	-0,070	-0,013
-713,962	-135,312	0,130	0,011
-712,948	327,407	0,026	0,036
-711,933	23,587	0,095	-0,056
-710,918	40,095	-0,037	-0,024
-709,904	-9,059	-0,083	-0,040
-708,889	-117,934	-0,127	-0,016
-707,875	462,598	-0,057	-0,093
-706,860	-200,000	-0,001	-0,014
-705,845	491,901	-0,042	-0,071
-704,831	78,946	0,062	-0,048
-703,816	-0,505	-0,129	-0,066
-702,802	195,406	-0,071	-0,078
-701,787	-6,996	-0,082	0,040
-700,772	-138,799	0,152	-0,012
-699,758	70,766	-0,081	0,061
-698,743	-200,000	-0,007	0,025
-697,729	-22,720	0,074	-0,032
-696,714	-163,418	-0,066	0,002
-695,699	-43,315	0,113	-0,041
-694,685	-96,149	-0,220	0,042
-693,670	241,063	0,063	0,076
-692,656	158,415	0,044	-0,044
-691,641	252,737	0,062	-0,076
-690,627	16,654	0,123	0,070
-689,612	-200,000	-0,007	0,142
-688,597	533,308	0,055	-0,095
-687,583	-134,194	0,016	-0,001
-686,568	46,988	-0,107	-0,072
-685,554	104,024	-0,118	-0,100
-684,539	800,000	-0,034	0,078
-683,524	2,813	0,092	-0,048
-682,510	-94,525	-0,104	-0,020
-681,495	-200,000	-0,018	-0,080
-680,481	-200,000	0,009	-0,056
-679,466	-200,000	-0,030	-0,177
-678,451	261,444	0,040	-0,050
-677,437	774,529	0,058	-0,115
-676,422	-148,587	0,114	-0,007
-675,408	-200,000	0,004	0,053
-674,393	451,991	0,037	-0,060
-673,378	800,000	-0,052	-0,111
-672,364	800,000	-0,080	-0,199
-671,349	-200,000	0,029	-0,111
-670,335	-17,782	-0,011	0,005
-669,320	-200,000	0,002	-0,049
-668,305	166,700	0,013	0,014
-667,291	800,000	0,078	0,159
-666,276	599,346	0,053	-0,095
-665,262	-31,774	0,042	0,017
-664,247	567,835	-0,045	-0,080
-663,232	302,245	-0,060	-0,081
-662,218	267,513	0,053	0,068
-661,203	-22,640	0,057	-0,025
-660,189	-108,883	-0,037	0,006
-659,174	-200,000	0,008	-0,051
-658,159	800,000	-0,097	-0,208
-657,145	259,970	-0,066	-0,083
-656,130	-160,768	0,007	-0,000
-655,116	-116,620	-0,060	-0,008
-654,101	74,241	-0,072	-0,055
-653,086	-50,719	-0,013	0,005
-652,072	66,854	0,106	0,078
-651,057	-200,000	0,013	-0,119
-650,043	480,798	-0,040	-0,066
-649,028	135,759	-0,100	-0,094
-648,014	-116,253	-0,081	-0,011
-646,999	52,488	0,116	-0,080
-645,984	-200,000	0,005	-0,072
-644,970	563,620	-0,044	-0,077
-643,955	-200,000	-0,010	-0,089
-642,941	178,035	-0,104	-0,109
-641,926	179,403	-0,049	-0,052
-640,911	-22,018	0,159	-0,070
-639,897	120,269	-0,082	-0,073
-638,882	-120,500	-0,043	-0,005
-637,868	95,157	0,118	-0,097
-636,853	-200,000	0,013	-0,082
-635,838	321,724	0,029	-0,040
-634,824	-31,173	0,132	-0,054
-633,809	150,717	-0,026	-0,025
-632,795	-103,411	0,082	0,014
-631,780	5,835	-0,051	-0,027
-630,765	-50,182	-0,126	0,043
-629,751	800,000	0,009	0,018
-628,736	192,332	0,094	0,102
-627,722	-200,000	0,022	-0,101
-626,707	216,929	-0,088	-0,102
-625,692	-111,817	0,086	-0,012
-624,678	800,000	0,037	-0,076
-623,663	289,749	-0,058	0,076
-622,649	-200,000	-0,014	-0,104
-621,634	-114,289	0,043	0,006
-620,619	32,317	0,124	-0,077
-619,605	-62,050	0,077	0,023
-618,590	800,000	-0,025	0,075
-617,576	213,218	-0,050	0,057
-616,561	800,000	-0,042	0,123
-615,546	-39,228	-0,120	-0,045
-614,532	113,205	-0,079	-0,069
-613,517	800,000	0,065	-0,130
-612,503	-200,000	0,021	-0,111
-611,488	-42,235	-0,205	-0,075
-610,474	128,767	-0,100	-0,092
-609,459	800,000	-0,023	0,062
-608,444	179,509	0,066	0,070
-607,430	-23,503	-0,084	-0,036
-606,415	800,000	0,050	-0,119
-605,401	583,723	0,045	-0,081
-604,386	-38,106	0,035	0,013
-603,371	800,000	-0,003	0,008
-602,357	129,649	0,114	-0,105
-601,342	-138,968	-0,040	-0,003
-600,328	592,553	-0,060	-0,107
-599,313	417,927	-0,032	-0,050
-598,298	101,392	-0,075	0,063
-597,284	28,399	0,083	0,051
-596,269	-200,000	0,009	-0,130
-595,255	-200,000	0,019	-0,211
-594,240	514,378	-0,048	0,082
-593,225	788,100	-0,110	0,218
-592,211	-60,219	-0,072	-0,022
-591,196	-76,342	-0,101	0,026
-590,182	-200,000	0,005	0,054
-589,167	800,000	0,047	0,118
-588,152	800,000	0,055	0,136
-587,138	-200,000	0,032	0,151
-586,123	-117,138	-0,161	-0,021
-585,109	800,000	-0,023	-0,055
-584,094	12,450	-0,117	-0,065
-583,079	-200,000	-0,012	0,104
-582,065	-200,000	-0,020	0,082
-581,050	390,176	0,076	0,114
-580,036	-103,612	-0,104	0,017
-579,021	452,872	0,032	-0,051
-578,006	-200,000	-0,001	-0,097
-576,992	38,725	-0,055	0,035
-575,977	30,840	-0,111	0,068
-574,963	5,091	0,103	-0,055
-573,948	-24,728	-0,026	0,011
-572,934	232,615	-0,064	0,076
-571,919	68,983	-0,058	0,043
-570,904	800,000	0,023	-0,049
-569,890	-184,736	-0,115	0,001
-568,875	-142,204	-0,096	0,007
-567,861	194,686	-0,051	-0,056
-566,846	-44,368	0,105	0,038
-565,831	710,528	0,061	0,116
-564,817	800,000	0,028	-0,057
-563,802	-67,270	0,134	-0,038
-562,788	-200,000	-0,026	-0,140
-561,773	167,365	0,055	-0,056
-560,758	48,349	-0,007	0,004
-559,744	105,228	0,005	-0,004
-558,729	800,000	0,005	0,015
-557,715	-200,000	0,021	-0,088
-556,700	5,721	-0,109	-0,058
-555,685	-54,453	-0,093	0,030
-554,671	200,029	-0,121	0,134
-553,656	115,404	-0,026	0,023
-552,642	-200,000	0,008	0,072
-551,627	-133,397	0,037	0,003
-550,612	737,536	-0,050	-0,097
-549,598	-20,377	-0,067	0,030
-548,583	-200,000	0,041	0,179
-547,569	271,763	0,006	0,007
-546,554	165,423	0,078	0,080
-545,539	252,543	0,039	0,048
-544,525	177,840	0,037	0,039
-543,510	-200,000	-0,016	-0,066
-542,496	444,219	-0,021	0,033
-541,481	3,427	-0,128	-0,067
-540,466	405,103	0,115	-0,175
-539,452	-107,758	0,084	0,013
-538,437	7,261	0,060	-0,032
-537,423	234,260	0,015	0,018
-536,408	694,988	0,014	-0,026
-535,393	23,622	-0,145	0,086
-534,379	-129,535	-0,076	0,008
-533,364	87,512	0,040	0,032
-532,350	278,543	0,135	-0,174
-531,335	113,537	-0,033	-0,029
-530,321	-200,000	0,003	0,129
-529,306	125,414	-0,042	-0,038
-528,291	106,280	-0,114	-0,097
-527,277	-34,237	0,098	-0,039
-526,262	800,000	-0,048	0,139
-525,248	678,841	-0,035	0,066
-524,233	67,155	0,105	0,077
-523,218	-116,956	0,117	0,015
-522,204	800,000	-0,028	0,056
-521,189	-200,000	0,010	-0,112
-520,175	415,567	-0,041	0,063
-519,160	-19,898	-0,080	0,035
-518,145	-28,373	0,114	0,047
-517,131	147,774	0,025	0,024
-516,116	-27,638	-0,098	0,041
-515,102	119,949	-0,059	0,052
-514,087	31,552	-0,050	0,031
-513,072	-200,000	0,002	-0,056
-512,058	-200,000	-0,014	-0,068
-511,043	-200,000	0,001	0,065
-510,029	245,007	0,056	-0,068
-509,014	800,000	-0,076	0,160
-507,999	-200,000	0,016	-0,088
-506,985	-200,000	0,007	0,042
-505,970	-164,952	0,067	0,002
-504,956	279,511	0,082	0,105
-503,941	650,788	0,033	-0,061
-502,926	-157,064	0,093	-0,004
-501,912	21,334	0,053	0,031
-500,897	800,000	0,028	0,060
-499,883	-114,516	0,045	-0,006
-498,868	102,326	0,170	-0,143
-497,853	90,241	-0,048	0,038
-496,839	-200,000	-0,053	0,204
-495,824	-91,124	-0,028	-0,006
-494,810	253,199	0,129	0,159
-493,795	-188,751	0,107	-0,001
-492,781	605,435	-0,047	-0,085
-491,766	-79,575	0,029	0,007
-490,751	-46,155	0,135	0,048
-489,737	118,624	-0,080	-0,071
-488,722	800,000	-0,025	0,069
-487,708	-23,796	0,096	-0,041
-486,693	-93,592	0,051	-0,010
-485,678	800,000	-0,039	-0,080
-484,664	463,058	-0,037	-0,060
-483,649	-200,000	-0,017	-0,124
-482,635	-99,440	-0,008	0,002
-481,620	337,927	-0,064	0,090
-480,605	375,036	0,089	0,131
-479,591	-200,000	0,014	0,087
-478,576	252,908	-0,074	0,091
-477,562	34,097	0,099	0,061
-476,547	-200,000	-0,005	-0,039
-475,532	-79,011	0,043	-0,011
-474,518	-200,000	0,036	-0,144
-473,503	-200,000	0,009	0,108
-472,489	800,000	-0,056	0,156
-471,474	212,729	0,011	0,013
-470,459	-200,000	-0,000	-0,092
-469,445	66,851	-0,141	-0,103
-468,430	-168,303	-0,048	-0,001
-467,416	297,084	0,095	-0,126
-466,401	-138,473	0,176	0,014
-465,386	800,000	-0,022	0,068
-464,372	141,344	0,026	-0,024
-463,357	73,883	-0,110	0,083
-462,343	-200,000	-0,003	0,054
-461,328	-200,000	-0,001	-0,057
-460,313	382,058	-0,011	-0,016
-459,299	111,278	-0,106	0,092
-458,284	800,000	0,040	-0,099
-457,270	-46,991	-0,047	-0,016
-456,255	145,243	-0,156	0,150
-455,241	-39,490	-0,096	-0,036
-454,226	230,053	-0,064	-0,076
-453,211	-200,000	0,014	0,081
-452,197	-135,615	0,094	0,008
-451,182	-200,000	0,033	-0,120
-450,168	462,777	-0,023	0,036
-449,153	-200,000	-0,024	-0,089
-448,138	-4,622	-0,123	-0,060
-447,124	-21,082	-0,046	-0,020
-446,109	503,962	-0,069	0,115
-445,095	-56,035	0,117	-0,037
-444,080	-129,986	0,116	-0,011
-443,065	-47,826	-0,096	0,033
-442,051	101,016	0,077	0,064
-441,036	-164,486	-0,039	0,001
-440,022	151,538	-0,216	-0,211
-439,007	800,000	0,020	-0,062
-437,992	-141,310	0,021	0,002
-436,978	-200,000	0,010	0,079
-435,963	-200,000	0,000	-0,014
-434,949	145,675	-0,133	0,128
-433,934	-7,622	-0,091	-0,044
-432,919	353,230	0,041	-0,058
-431,905	-36,612	0,137	-0,052
-430,890	800,000	0,023	-0,050
-429,876	800,000	0,014	0,037
-428,861	-200,000	0,016	0,061
-427,846	-125,623	-0,164	-0,018
-426,832	189,485	-0,136	-0,146
-425,817	104,088	-0,043	0,036
-424,803	-106,347	-0,086	0,014
-423,788	528,886	-0,063	0,106
-422,773	43,969	0,079	0,052
-421,759	-35,001	0,167	0,065
-420,744	117,965	0,048	-0,042
-419,730	-147,041	-0,114	-0,007
-418,715	-200,000	-0,017	-0,084
-417,701	-100,772	-0,058	-0,010
-416,686	74,891	-0,031	0,023
-415,671	774,983	-0,081	0,160
-414,657	258,316	0,164	0,203
-413,642	-28,652	-0,151	0,062
-412,628	-134,597	-0,051	0,004
-411,613	800,000	-0,016	0,037
-410,598	132,585	-0,092	-0,085
-409,584	98,572	0,086	-0,071
-408,569	306,403	-0,007	-0,009
-407,555	-66,803	0,147	0,041
-406,540	-161,494	0,079	0,003
-405,525	-200,000	-0,002	-0,030
-404,511	-200,000	-0,024	-0,239
-403,496	-200,000	0,016	0,124
-402,482	-200,000	-0,034	-0,123
-401,467	143,947	-0,091	-0,087
-400,452	-200,000	0,001	0,223
-399,438	-90,127	-0,121	-0,025
-398,423	363,077	-0,020	0,030
-397,409	-102,322	0,117	0,020
-396,394	-83,286	0,119	0,027
-395,379	16,921	0,041	0,023
-394,365	-38,804	0,096	-0,036
-393,350	-200,000	0,015	0,118
-392,336	800,000	0,055	0,158
-391,321	800,000	0,006	0,012
-390,306	56,744	-0,102	-0,071
-389,292	800,000	0,042	-0,132
-388,277	-52,877	0,149	-0,049
-387,263	234,351	-0,101	-0,120
-386,248	800,000	-0,078	0,214
-385,233	-200,000	0,001	0,077
-384,219	-112,378	-0,094	0,013
-383,204	-19,005	0,095	0,042
-382,190	-200,000	0,009	-0,092
-381,175	-143,556	0,053	0,004
-380,160	-154,986	-0,081	-0,004
-379,146	77,769	-0,086	-0,065
-378,131	-90,512	0,205	-0,042
-377,117	-22,664	-0,154	0,066
-376,102	-200,000	0,020	0,066
-375,088	536,178	0,064	-0,109
-374,073	800,000	0,018	-0,057
-373,058	-54,875	0,099	0,032
-372,044	-200,000	0,040	-0,183
-371,029	-200,000	0,000	-0,118
-370,015	-200,000	-0,017	0,059
-369,000	-42,481	0,101	0,037
-367,985	-55,816	0,076	0,024
-366,971	800,000	-0,054	-0,129
-365,956	309,039	-0,011	0,015
-364,942	800,000	0,040	0,110
-363,927	192,063	0,043	0,046
-362,912	-128,404	-0,028	0,003
-361,898	186,536	-0,021	0,023
-360,883	-84,816	-0,098	0,022
-359,869	-35,324	-0,129	-0,050
-358,854	18,521	0,202	0,115
-357,839	74,157	-0,070	-0,052
-356,825	51,236	-0,048	-0,032
-355,810	86,345	0,142	0,111
-354,796	-47,556	-0,150	-0,052
-353,781	61,105	0,080	-0,057
-352,766	709,283	0,055	-0,104
-351,752	45,617	-0,143	-0,094
-350,737	-83,733	-0,045	0,010
-349,723	65,435	0,040	-0,029
-348,708	135,736	0,052	-0,049
-347,693	-108,359	0,131	0,020
-346,679	84,800	-0,195	0,152
-345,664	-200,000	-0,019	0,145
-344,650	-25,297	-0,023	0,010
-343,635	-53,360	-0,051	-0,017
-342,620	-152,589	0,011	-0,001
-341,606	72,158	-0,030	0,022
-340,591	291,821	0,034	-0,044
-339,577	254,226	0,060	-0,073
-338,562	2,619	0,055	-0,028
-337,548	-200,000	-0,016	-0,129
-336,533	129,324	-0,048	0,044
-335,518	800,000	0,024	0,049
-334,504	59,031	0,157	0,110
-333,489	-74,484	0,024	0,006
-332,475	-200,000	0,045	0,156
-331,460	187,424	-0,075	0,080
-330,445	-19,774	0,016	0,007
-329,431	81,903	0,075	0,058
-328,416	29,705	0,050	-0,030
-327,402	800,000	0,052	0,164
-326,387	277,076	0,059	-0,075
-325,372	-120,790	0,060	0,007
-324,358	329,124	0,038	-0,052
-323,343	-200,000	-0,023	0,122
-322,329	-136,641	0,166	0,013
-321,314	13,590	0,133	0,073
-320,299	100,589	0,083	0,069
-319,285	380,903	-0,091	0,133
-318,270	800,000	-0,058	-0,168
-317,256	-200,000	-0,007	0,034
-316,241	-200,000	0,014	0,057
-315,226	-200,000	0,025	0,202
-314,212	800,000	-0,040	0,093
-313,197	-200,000	-0,010	-0,051
-312,183	270,597	-0,027	-0,034
-311,168	800,000	-0,026	-0,074
-310,153	-122,550	0,093	0,011
-309,139	511,306	-0,036	-0,060
-308,124	169,596	0,022	0,023
-307,110	27,427	0,025	0,015
-306,095	-30,118	0,136	-0,055
-305,080	-189,578	0,127	-0,001
-304,066	-94,732	0,034	0,007
-303,051	-200,000	-0,005	-0,094
-302,037	-71,275	-0,118	0,031
-301,022	336,450	-0,012	-0,017
-300,008	-21,284	-0,026	-0,011
-298,993	800,000	0,038	0,075
-297,978	-79,971	-0,056	-0,013
-296,964	62,626	0,078	-0,056
-295,949	-200,000	0,003	-0,173
-294,935	-200,000	-0,011	-0,057
-293,920	-125,430	0,132	-0,014
-292,905	336,557	-0,108	0,150
-291,891	-200,000	0,034	0,114
-290,876	-153,919	0,033	-0,002
-289,862	-120,677	-0,039	-0,005
-288,847	20,729	-0,031	-0,018
-287,832	235,896	-0,053	0,062
-286,818	800,000	0,043	-0,127
-285,803	-200,000	0,025	-0,105
-284,789	-200,000	0,043	0,204
-283,774	49,126	0,089	0,059
-282,759	-200,000	-0,018	-0,056
-281,745	-5,774	-0,102	-0,050
-280,730	119,986	-0,120	-0,106
-279,716	800,000	-0,051	-0,144
-278,701	-110,755	-0,109	0,016
-277,686	733,369	-0,060	0,115
-276,672	-200,000	0,015	-0,048
-275,657	-83,619	-0,083	0,019
-274,643	-200,000	0,001	0,107
-273,628	744,897	0,040	-0,078
-272,613	-200,000	-0,011	-0,076
-271,599	-85,724	0,133	-0,029
-270,584	800,000	0,028	-0,059
-269,570	800,000	-0,053	0,144
-268,555	253,220	-0,109	0,133
-267,540	800,000	0,019	-0,054
-266,526	-200,000	0,003	-0,036
-265,511	15,802	-0,072	0,040
-264,497	-200,000	0,011	-0,086
-263,482	-6,574	0,160	0,077
-262,467	86,624	-0,048	-0,038
-261,453	454,040	-0,021	0,034
-260,438	800,000	-0,027	0,067
-259,424	-200,000	-0,032	-0,215
-258,409	2,381	0,104	0,053
-257,395	-200,000	-0,001	-0,085
-256,380	-156,377	0,103	0,004
-255,365	-200,000	0,003	-0,042
-254,351	-200,000	-0,018	0,061
-253,336	391,821	-0,145	0,215
-252,322	800,000	-0,008	-0,019
-251,307	-200,000	0,010	0,038
-250,292	-200,000	-0,027	0,092
-249,278	123,576	0,044	0,039
-248,263	-200,000	-0,004	0,053
-247,249	221,509	-0,078	0,089
-246,234	-200,000	-0,006	0,114
-245,219	256,323	-0,054	0,066
-244,205	800,000	-0,033	-0,078
-243,190	160,198	0,085	-0,084
-242,176	24,042	0,168	0,099
-241,161	5,856	0,048	0,025
-240,146	-200,000	-0,012	0,088
-239,132	555,949	0,063	-0,108
-238,117	-200,000	0,000	-0,102
-237,103	-200,000	0,028	-0,121
-236,088	102,042	0,090	-0,075
-235,073	-200,000	0,022	-0,129
-234,059	800,000	-0,035	0,088
-233,044	-92,136	0,100	0,020
-232,030	-200,000	-0,002	-0,020
-231,015	-200,000	0,006	0,158
-230,000	-69,914	-0,126	0,034
-228,986	596,690	0,038	-0,067
-227,971	70,389	-0,009	-0,007
-226,957	-200,000	0,033	-0,156
-225,942	342,281	-0,017	0,024
-224,927	-200,000	0,018	0,229
-223,913	684,852	0,078	-0,145
-222,898	93,156	-0,085	-0,068
-221,884	-116,299	-0,204	-0,027
-220,869	257,508	-0,053	-0,065
-219,855	601,888	0,042	0,075
-218,840	-200,000	-0,002	0,082
-217,825	20,980	0,183	-0,105
-216,811	149,570	0,067	-0,065
-215,796	29,825	-0,066	-0,040
-214,782	-130,724	-0,026	-0,002
-213,767	44,346	-0,067	0,044
-212,752	-200,000	0,001	0,052
-211,738	800,000	0,081	0,160
-210,723	800,000	0,022	0,047
-209,709	-62,050	0,091	-0,027
-208,694	276,331	-0,115	-0,146
-207,679	-200,000	0,006	-0,108
-206,665	110,406	-0,016	0,013
-205,650	237,108	0,131	-0,154
-204,636	-59,028	-0,098	-0,030
-203,621	-200,000	0,022	-0,107
-202,606	-142,295	-0,111	0,008
-201,592	375,274	-0,037	-0,054
-200,577	-200,000	-0,032	-0,135
-199,563	-200,000	-0,019	0,093
-198,548	107,849	-0,092	0,078
-197,533	-81,784	-0,080	0,018
-196,519	284,401	0,063	0,081
-195,504	-200,000	0,006	0,118
-194,490	-41,070	-0,173	0,063
-193,475	-200,000	-0,006	0,103
-192,460	-58,445	0,031	-0,009
-191,446	69,691	0,080	-0,059
-190,431	-40,481	0,081	-0,030
-189,417	-109,433	-0,057	0,008
-188,402	93,659	-0,051	-0,041
-187,387	-200,000	-0,004	-0,155
-186,373	485,365	-0,037	-0,060
-185,358	151,567	-0,054	-0,052
-184,344	229,685	-0,025	0,029
-183,329	-174,053	0,002	0,000
-182,315	-77,547	0,082	-0,020
-181,300	-200,000	-0,005	-0,026
-180,285	548,890	-0,085	0,145
-179,271	681,422	-0,044	-0,081
-178,256	-200,000	-0,013	0,046
-177,242	-200,000	0,015	0,085
-176,227	-187,294	0,127	-0,001
-175,212	11,147	0,090	-0,049
-174,198	-200,000	0,066	-0,000
-173,183	-200,000	-0,035	-0,132
-172,169	-200,000	0,018	-0,058
-171,154	-200,000	0,016	-0,149
-170,139	-200,000	0,015	0,069
-169,125	-200,000	-0,016	0,073
-168,110	-200,000	0,020	0,120
-167,096	110,634	-0,032	-0,028
-166,081	215,139	0,064	-0,072
-165,066	133,242	-0,096	-0,088
-164,052	59,117	0,047	-0,033
-163,037	-200,000	-0,011	0,086
-162,023	-197,134	0,098	0,000
-161,008	800,000	0,054	0,124
-159,993	598,260	-0,078	0,137
-158,979	96,375	0,011	0,009
-157,964	-163,906	0,033	0,001
-156,950	-200,000	-0,006	0,042
-155,935	574,916	0,046	-0,079
-154,920	-200,000	-0,010	0,119
-153,906	-1,370	0,076	-0,038
-152,891	800,000	0,017	-0,050
-151,877	624,664	0,025	-0,044
-150,862	-40,410	0,131	-0,048
-149,847	196,138	-0,029	0,032
-148,833	231,772	0,080	0,094
-147,818	-200,000	-0,002	-0,024
-146,804	-99,555	0,168	0,030
-145,789	-158,803	0,057	0,002
-144,775	35,368	0,104	-0,065
-143,760	-65,795	-0,071	0,020
-142,745	-200,000	-0,043	-0,176
-141,731	471,918	-0,063	-0,100
-140,716	-161,146	0,082	0,003
-139,702	800,000	0,015	0,030
-138,687	446,639	0,102	0,159
-137,672	800,000	0,021	-0,044
-136,658	-45,727	0,054	0,019
-135,643	-135,198	-0,099	-0,008
-134,629	308,950	-0,089	-0,117
-133,614	227,972	-0,026	0,030
-132,599	120,485	-0,108	-0,095
-131,585	19,390	0,128	0,073
-130,570	-200,000	-0,012	0,062
-129,556	-200,000	-0,015	0,115
-128,541	-105,538	-0,107	-0,017
-127,526	330,892	-0,014	-0,019
-126,512	441,881	0,067	-0,105
-125,497	-159,445	0,136	0,005
-124,483	-93,110	-0,168	0,033
-123,468	263,946	-0,013	0,016
-122,453	800,000	0,033	-0,074
-121,439	800,000	0,085	-0,200
-120,424	-13,096	-0,039	-0,018
-119,410	-9,500	-0,050	0,023
-118,395	72,750	0,064	-0,047
-117,380	38,635	0,042	-0,027
-116,366	97,700	-0,153	0,125
-115,351	-110,761	-0,084	0,012
-114,337	-200,000	0,015	0,052
-113,322	268,072	-0,058	-0,072
-112,307	387,932	0,075	-0,110
-111,293	-200,000	-0,034	-0,139
-110,278	-200,000	0,009	-0,044
-109,264	-50,374	0,141	-0,047
-108,249	777,992	-0,074	-0,144
-107,234	107,711	0,059	0,050
-106,220	-200,000	0,016	0,058
-105,205	-200,000	-0,001	0,088
-104,191	-18,948	0,091	-0,040
-103,176	702,158	-0,091	0,171
-102,162	800,000	0,047	0,100
-101,147	217,800	-0,075	0,084
-100,132	800,000	-0,032	-0,071
-99,118	-200,000	-0,009	-0,063
-98,103	-64,188	-0,028	0,008
-97,089	-200,000	-0,009	0,042
-96,074	-46,462	0,036	-0,013
-95,059	-200,000	0,017	-0,061
-94,045	241,078	0,108	-0,128
-93,030	-200,000	0,033	-0,134
-92,016	-13,199	-0,131	0,060
-91,001	800,000	0,008	-0,016
-89,986	634,854	0,030	0,054
-88,972	328,385	0,033	-0,044
-87,957	-30,088	-0,049	-0,020
-86,943	7,584	0,026	0,014
-85,928	-69,045	-0,062	0,017
-84,913	-200,000	-0,021	-0,076
-83,899	800,000	-0,017	-0,037
-82,884	-7,864	0,116	0,055
-81,870	403,866	0,044	0,066
-80,855	764,927	-0,092	0,178
-79,840	399,280	-0,034	0,050
-78,826	424,021	0,012	-0,018
-77,811	-200,000	0,004	-0,030
-76,797	-94,540	0,097	-0,019
-75,782	-45,539	0,094	0,033
-74,767	-200,000	0,010	0,087
-73,753	-200,000	0,002	0,087
-72,738	-184,591	0,029	-0,000
-71,724	-200,000	-0,004	-0,018
-70,709	800,000	0,043	-0,107
-69,694	-10,454	-0,042	-0,019
-68,680	-68,339	-0,038	0,010
-67,665	-200,000	-0,019	-0,066
-66,651	-200,000	-0,050	-0,172
-65,636	-14,788	0,082	0,037
-64,622	40,636	0,121	-0,077
-63,607	12,367	-0,069	0,037
-62,592	-200,000	-0,017	0,094
-61,578	-45,469	0,142	0,049
-60,563	-200,000	0,020	0,068
-59,549	92,193	0,043	0,034
-58,534	30,292	-1,849	-1,113
-57,519	529,444	-1,248	-2,089
-56,505	-200,000	-0,345	-4,301
-55,490	467,685	0,996	1,582
-54,476	800,000	5,110	11,165
-53,461	-200,000	20,870	329,334
-52,446	800,000	757,191	2324,194
-51,432	550,800	1662,347	2827,293
-50,417	73,462	1664,227	1228,827
-49,403	18,669	1537,178	866,050
-48,388	12,663	1460,106	793,551
-47,373	18,946	1450,947	818,732
-46,359	15,796	1440,240	797,659
-45,344	10,892	1436,196	772,013
-44,330	10,885	1434,164	770,857
-43,315	10,835	1432,356	769,616
-42,300	10,839	1430,768	768,749
-41,286	10,851	1429,399	768,040
-40,271	10,895	1427,871	767,399
-39,257	10,828	1426,843	766,495
-38,242	10,845	1425,825	766,002
-37,227	10,857	1424,646	765,395
-36,213	10,861	1423,326	764,674
-35,198	10,878	1422,245	764,145
-34,184	10,965	1421,219	763,971
-33,169	10,872	1419,875	762,779
-32,154	10,952	1418,807	762,555
-31,140	10,972	1417,534	761,935
-30,125	10,985	1416,671	761,502
-29,111	10,959	1415,388	760,659
-28,096	10,943	1414,138	759,882
-27,082	10,853	1413,059	758,847
-26,067	10,876	1412,013	758,366
-25,052	10,893	1411,109	757,930
-24,038	10,888	1409,955	757,256
-23,023	10,858	1409,172	756,663
-22,009	10,838	1407,892	755,855
-20,994	10,846	1407,033	755,398
-19,979	10,879	1405,994	754,966
-18,965	10,807	1405,344	754,252
-17,950	10,797	1404,213	753,568
-16,936	10,795	1403,385	753,085
-15,921	10,750	1402,417	752,326
-14,906	10,762	1401,429	751,822
-13,892	10,806	1400,543	751,521
-12,877	10,756	1399,679	750,795
-11,863	10,736	1398,863	750,236
-10,848	10,737	1397,866	749,676
-9,833	10,682	1397,118	748,988
-8,819	10,664	1396,363	748,471
-7,804	10,620	1395,581	747,818
-6,790	10,658	1394,444	747,353
-5,775	10,656	1393,394	746,754
-4,760	10,707	1392,326	746,386
-3,746	10,714	1391,342	745,862
-2,731	10,694	1390,703	745,396
-1,717	10,629	1389,776	744,570
-0,702	10,680	1387,964	743,805
0,313	14,634	1301,713	715,727
1,327	30,924	692,930	418,061
2,342	48,212	120,231	79,229
3,356	-0,599	16,529	8,246
4,371	-0,673	3,456	1,723
5,386	-38,661	0,805	0,298
6,400	503,806	0,231	0,378
7,415	-90,790	-0,183	-0,037
8,429	-69,540	-0,205	-0,055
9,444	114,195	-0,284	-0,244
10,459	612,818	-0,169	-0,299
11,473	39,798	-0,358	-0,226
12,488	277,109	-0,154	-0,193
13,502	57,753	-0,237	-0,163
14,517	15,841	-0,285	-0,158
15,531	46,578	-0,346	-0,226
16,546	33,402	-0,167	-0,102
17,561	37,117	-0,388	-0,242
18,575	97,197	-0,142	-0,115
19,590	96,361	-0,158	-0,128
20,604	-55,738	-0,157	-0,049
21,619	183,341	-0,365	-0,380
22,634	187,528	-0,398	-0,419
23,648	120,547	-0,372	-0,325
24,663	81,292	-0,429	-0,326
25,677	69,281	-0,371	-0,268
26,692	36,979	-0,365	-0,227
27,707	81,657	-0,316	-0,240
28,721	60,298	-0,431	-0,300
29,736	155,095	-0,354	-0,343
30,750	47,001	-0,429	-0,280
31,765	121,134	-0,317	-0,278
32,780	211,155	-0,326	-0,362
33,794	10,252	-0,426	-0,227
34,809	272,943	-0,277	-0,345
35,823	4,058	-0,341	-0,175
36,838	15,922	-0,403	-0,223
37,853	52,764	-0,385	-0,258
38,867	61,956	-0,237	-0,166
39,882	127,969	-0,339	-0,303
40,896	87,111	-0,364	-0,282
41,911	504,018	-0,122	-0,199
42,926	131,579	-0,221	-0,199
43,940	26,465	-0,305	-0,179
44,955	120,774	-0,361	-0,316
45,969	191,362	-0,352	-0,373
46,984	402,875	-0,158	-0,234
47,999	-26,626	-0,284	-0,116
49,013	-50,088	-0,437	-0,144
50,028	53,801	-0,367	-0,247
51,042	29,603	-0,309	-0,184
52,057	82,016	-0,313	-0,238
53,071	241,563	-0,219	-0,258
54,086	111,501	-0,299	-0,253
55,101	119,768	-0,103	-0,090
56,115	166,358	-0,225	-0,224
57,130	58,745	-0,262	-0,181
58,144	-107,577	-0,472	-0,072
59,159	180,565	-0,377	-0,389
60,174	108,786	-0,337	-0,283
61,188	528,706	-0,187	-0,311
62,203	179,490	-0,312	-0,321
63,217	-71,510	-0,364	-0,095
64,232	-33,680	-0,276	-0,106
65,247	45,486	-0,381	-0,246
66,261	181,882	-0,244	-0,253
67,276	37,161	-0,407	-0,253
68,290	13,088	-0,346	-0,187
69,305	83,840	-0,297	-0,228
70,320	-99,287	-0,290	-0,051
71,334	-25,636	-0,326	-0,134
72,349	45,769	-0,320	-0,207
73,363	99,118	-0,360	-0,292
74,378	-53,085	-0,403	-0,129
75,393	-102,843	-0,175	-0,029
76,407	-168,515	-0,315	0,008
77,422	183,525	-0,267	-0,277
78,436	-20,966	-0,384	-0,164
79,451	177,142	-0,284	-0,289
80,466	68,306	-0,349	-0,250
81,480	-8,062	-0,325	-0,153
82,495	178,501	-0,234	-0,240
83,509	81,646	-0,258	-0,195
84,524	2,160	-0,227	-0,115
85,539	-80,765	-0,318	-0,074
86,553	-87,312	-0,228	-0,048
87,568	-51,098	-0,362	-0,118
88,582	91,157	-0,327	-0,257
89,597	50,102	-0,422	-0,278
90,611	-32,564	-0,277	-0,108
91,626	44,712	-0,371	-0,239
92,641	-127,424	-0,165	0,017
93,655	-15,895	-0,316	-0,140
94,670	653,828	-0,122	-0,219
95,684	93,081	-0,319	-0,253
96,699	-45,544	-0,363	-0,125
97,714	40,621	-0,296	-0,186
98,728	150,304	-0,292	-0,277
99,743	493,902	-0,153	-0,247
100,757	135,746	-0,204	-0,186
101,772	-48,960	-0,234	-0,078
102,787	30,885	-0,285	-0,171
103,801	-56,122	-0,265	-0,082
104,816	800,000	-0,133	-0,262
105,830	370,488	-0,206	-0,293
106,845	-21,150	-0,281	-0,119
107,860	-144,121	-0,340	-0,022
108,874	-135,619	-0,396	-0,032
109,889	100,169	-0,303	-0,246
110,903	129,305	-0,259	-0,231
111,918	242,961	-0,121	-0,142
112,933	154,867	-0,168	-0,162
113,947	75,596	-0,152	-0,112
114,962	323,404	-0,249	-0,332
115,976	185,043	-0,221	-0,229
116,991	-22,050	-0,330	-0,139
118,006	-66,203	-0,312	-0,086
119,020	60,829	-0,255	-0,176
120,035	79,389	-0,180	-0,135
121,049	82,380	-0,163	-0,123
122,064	18,332	-0,279	-0,155
123,079	247,431	-0,225	-0,266
124,093	0,122	-0,145	-0,072
125,108	508,514	-0,163	-0,266
126,122	109,556	-0,216	-0,180
127,137	108,869	-0,166	-0,139
128,151	17,794	-0,138	-0,076
129,166	-12,924	-0,231	-0,105
130,181	154,832	-0,262	-0,251
131,195	127,645	-0,287	-0,254
132,210	100,168	-0,260	-0,210
133,224	46,769	-0,251	-0,162
134,239	800,000	-0,125	-0,245
135,254	-135,525	-0,247	-0,020
136,268	54,327	-0,191	-0,128
137,283	-34,704	-0,261	-0,099
138,297	149,221	-0,252	-0,238
139,312	115,537	-0,190	-0,162
140,327	274,684	-0,256	-0,317
141,341	149,838	-0,212	-0,201
142,356	-44,800	-0,248	-0,086
143,370	800,000	-0,085	-0,256
144,385	343,316	-0,206	-0,282
145,400	-12,072	-0,280	-0,127
146,414	208,030	-0,183	-0,200
147,429	161,563	-0,227	-0,222
148,443	191,804	-0,188	-0,198
149,458	-168,510	-0,259	-0,007
150,473	34,096	-0,259	-0,157
151,487	63,329	-0,278	-0,194
152,502	3,335	-0,183	-0,092
153,516	308,169	-0,203	-0,264
154,531	64,014	-0,353	-0,247
155,546	87,223	-0,190	-0,146
156,560	1,155	-0,259	-0,129
157,575	19,896	-0,272	-0,152
158,589	154,272	-0,176	-0,169
159,604	-199,336	-0,229	0,001
160,619	56,957	-0,257	-0,174
161,633	481,635	-0,140	-0,222
162,648	-69,113	-0,252	-0,067
163,662	-121,205	-0,266	-0,031
164,677	291,489	-0,157	-0,200
165,692	142,765	-0,158	-0,146
166,706	577,648	-0,114	-0,194
167,721	11,392	-0,220	-0,117
168,735	31,639	-0,146	-0,087
169,750	-21,348	-0,312	-0,132
170,764	236,037	-0,202	-0,233
171,779	10,237	-0,277	-0,146
172,794	3,613	-0,175	-0,088
173,808	10,839	-0,247	-0,131
174,823	44,956	-0,225	-0,144
175,837	226,425	-0,231	-0,261
176,852	99,036	-0,211	-0,170
177,867	120,884	-0,141	-0,122
178,881	193,540	-0,147	-0,155
179,896	34,957	-0,159	-0,096
180,910	66,813	-0,247	-0,174
181,925	-0,575	-0,258	-0,126
182,940	-36,199	-0,175	-0,065
183,954	-6,841	-0,233	-0,110
184,969	290,691	-0,185	-0,234
185,983	271,577	-0,082	-0,101
186,998	77,976	-0,248	-0,184
188,013	-16,966	-0,235	-0,103
189,027	525,313	-0,078	-0,129
190,042	-4,746	-0,257	-0,122
191,056	87,325	-0,194	-0,149
192,071	100,507	-0,169	-0,136
193,086	-19,617	-0,121	-0,052
194,100	122,328	-0,135	-0,117
195,115	57,990	-0,228	-0,155
196,129	180,857	-0,318	-0,324
197,144	277,854	-0,157	-0,194
198,159	-66,689	-0,113	-0,031
199,173	119,483	-0,219	-0,188
200,188	309,557	-0,142	-0,185
201,202	-27,410	-0,153	-0,061
202,217	234,189	-0,100	-0,114
203,232	147,407	-0,079	-0,074
204,246	60,744	-0,271	-0,186
205,261	299,117	-0,227	-0,290
206,275	-117,095	-0,177	-0,022
207,290	-43,803	-0,148	-0,051
208,304	-107,078	-0,237	-0,036
209,319	-0,334	-0,315	-0,155
210,334	-69,594	-0,301	-0,079
211,348	28,084	-0,230	-0,134
212,363	295,680	-0,113	-0,143
213,377	194,457	-0,150	-0,158
214,392	-200,000	-0,063	-0,202
215,407	88,925	-0,146	-0,113
216,421	-33,957	-0,101	0,038
217,436	800,000	-0,065	-0,192
218,450	126,441	-0,256	-0,225
219,465	306,068	-0,145	-0,188
220,480	-119,931	-0,252	-0,030
221,494	93,264	-0,278	-0,217
222,509	21,480	-0,287	-0,161
223,523	-200,000	-0,043	-0,187
224,538	99,842	-0,147	-0,117
225,553	155,191	-0,224	-0,213
226,567	189,410	-0,164	-0,170
227,582	161,884	-0,170	-0,164
228,596	800,000	-0,036	-0,082
229,611	-180,878	-0,134	0,002
230,626	48,464	-0,210	-0,136
231,640	800,000	-0,066	-0,156
232,655	-200,000	-0,116	-0,370
233,669	284,105	-0,137	-0,171
234,684	-110,829	-0,174	-0,025
235,699	800,000	-0,060	-0,177
236,713	-80,582	-0,225	-0,051
237,728	104,322	-0,058	-0,047
238,742	-38,992	-0,165	-0,060
239,757	20,666	-0,262	-0,146
240,772	800,000	-0,138	-0,342
241,786	97,809	-0,211	-0,168
242,801	800,000	-0,129	-0,284
243,815	3,753	-0,182	-0,091
244,830	-170,608	-0,302	0,007
245,844	-13,153	-0,237	-0,106
246,859	-9,873	-0,270	-0,124
247,874	-18,900	-0,139	-0,059
248,888	800,000	-0,080	-0,167
249,903	145,120	-0,218	-0,201
250,917	334,755	-0,118	-0,159
251,932	89,895	-0,181	-0,140
252,947	800,000	-0,084	-0,231
253,961	389,770	-0,208	-0,298
254,976	140,267	-0,116	-0,105
255,990	-135,845	-0,165	0,013
257,005	800,000	-0,082	-0,184
258,020	-10,687	-0,186	-0,085
259,034	151,470	-0,184	-0,172
260,049	24,417	-0,141	-0,080
261,063	2,444	-0,223	-0,111
262,078	302,077	-0,190	-0,243
263,093	581,497	-0,119	-0,202
264,107	165,299	-0,150	-0,146
265,122	-9,320	-0,156	-0,071
266,136	107,626	-0,082	-0,067
267,151	-12,709	-0,075	-0,033
268,166	182,197	-0,174	-0,177
269,180	-62,446	-0,181	0,051
270,195	279,417	-0,144	-0,177
271,209	89,820	-0,128	-0,098
272,224	-77,318	-0,144	-0,034
273,239	284,706	-0,123	-0,153
274,253	222,036	-0,186	-0,206
275,268	-117,912	-0,175	-0,021
276,282	-200,000	-0,069	-0,254
277,297	47,649	-0,189	-0,121
278,312	-16,981	-0,277	-0,120
279,326	119,483	-0,084	-0,071
280,341	-105,878	-0,290	-0,045
281,355	103,965	-0,187	-0,151
282,370	-200,000	-0,023	-0,175
283,384	800,000	-0,119	-0,291
284,399	290,005	-0,106	-0,132
285,414	575,022	-0,161	-0,272
286,428	277,232	-0,072	-0,088
287,443	43,117	-0,086	-0,054
288,457	-41,899	-0,167	-0,058
289,472	96,477	-0,207	-0,163
290,487	-110,134	-0,191	-0,027
291,501	-23,762	-0,071	-0,029
292,516	209,501	-0,179	-0,193
293,530	31,909	-0,219	-0,129
294,545	505,821	-0,132	-0,212
295,560	89,259	-0,147	-0,112
296,574	-43,966	-0,302	-0,104
297,589	10,465	-0,216	-0,113
298,603	112,446	-0,156	-0,130
299,618	-175,473	-0,180	0,003
300,633	-170,745	-0,126	0,003
301,647	-118,074	-0,110	-0,013
302,662	-165,353	-0,073	-0,002
303,676	205,837	-0,147	-0,157
304,691	-9,430	-0,143	-0,066
305,706	-68,282	-0,223	-0,059
306,720	283,923	-0,110	-0,137
307,735	406,284	-0,112	-0,162
308,749	-191,897	-0,266	-0,002
309,764	317,303	-0,035	-0,045
310,779	-73,419	-0,112	-0,028
311,793	-23,776	-0,237	-0,097
312,808	56,471	-0,097	0,065
313,822	-30,567	-0,209	-0,081
314,837	169,851	-0,140	-0,137
315,852	-39,728	-0,112	-0,040
316,866	196,752	-0,132	-0,138
317,881	-122,895	-0,163	0,018
318,895	453,207	-0,087	-0,132
319,910	181,171	-0,157	-0,158
320,925	234,805	-0,101	-0,115
321,939	69,282	-0,061	0,043
322,954	-200,000	-0,011	-0,173
323,968	800,000	-0,032	-0,098
324,983	-104,667	-0,057	0,009
325,997	-118,357	-0,119	-0,014
327,012	388,954	-0,070	-0,100
328,027	-200,000	0,010	-0,154
329,041	351,214	-0,141	-0,192
330,056	-140,440	-0,176	0,012
331,070	-57,268	0,045	0,014
332,085	36,079	-0,150	-0,090
333,100	-121,443	-0,287	0,032
334,114	252,994	-0,149	-0,174
335,129	761,942	-0,102	-0,191
336,143	89,915	-0,243	-0,186
337,158	-104,372	-0,289	0,045
338,173	-200,000	-0,007	-0,107
339,187	428,728	-0,066	-0,099
340,202	800,000	-0,105	-0,214
341,216	236,542	-0,143	-0,162
342,231	-53,286	-0,178	-0,056
343,246	-58,895	-0,213	-0,063
344,260	-42,887	-0,166	-0,057
345,275	66,532	-0,095	-0,066
346,289	759,269	-0,036	-0,068
347,304	-200,000	-0,033	-0,229
348,319	13,690	-0,123	-0,065
349,333	18,013	-0,182	-0,099
350,348	650,594	-0,042	-0,074
351,362	-200,000	-0,001	-0,054
352,377	-200,000	0,013	-0,197
353,392	24,322	-0,077	0,044
354,406	217,567	-0,137	-0,150
355,421	208,127	1311,776	1404,090
356,435	160,135	1472,120	1404,578
