DTS Sentinel unit serial number:	SN410029Multiplexer serial number:	ORYXHardware model number:	OX2-SRSoftware version number:	ORYX F/W v4,00 Oryx Data Collector v3.7.2.0data status	okinstallation	B3 Nyhavnadifferential loss correction	single-endedforward channel	channel 1reverse channel	N/Adate	2023/11/29time	18:52:30forward acquisition time	300,00reverse acquisition time	0,00gamma	499,1914k internal	0,3209k external	0,3209temperature offset calibration	1,0000default loss term (dB/km)	0,3820temperature slope calibration	1,0000multiplexer offset coefficient	1,0000multiplexer slope coefficient	1,0000fibre end	0,00T internal ref (°C)	11,05T ext. ref 1 (°C)	-4,19T ext. ref 2 (°C)	-4,31length (m)	temperature (°C)	Stokes	anti-Stokes-744,400	135,557	-0,245	-0,231
-743,385	144,892	0,169	0,164
-742,371	13,498	-0,310	-0,174
-741,356	-200,000	0,065	0,343
-740,342	48,997	-0,204	-0,139
-739,327	-200,000	0,074	0,445
-738,312	416,316	-0,197	-0,306
-737,298	-200,000	-0,046	0,289
-736,283	-200,000	-0,039	-0,233
-735,269	-200,000	0,009	0,206
-734,254	731,826	-0,130	-0,253
-733,239	-95,182	-0,159	0,031
-732,225	0,289	-0,075	0,039
-731,210	143,335	0,174	0,168
-730,196	-124,182	-0,099	-0,011
-729,181	-46,896	-0,085	-0,030
-728,167	-200,000	0,001	-0,042
-727,152	-162,836	-0,039	0,001
-726,137	-200,000	-0,018	0,110
-725,123	119,787	-0,231	-0,207
-724,108	800,000	0,016	0,047
-723,094	-200,000	-0,028	-0,183
-722,079	139,913	-0,035	0,034
-721,064	61,167	-0,135	0,097
-720,050	-200,000	0,001	-0,027
-719,035	-123,195	0,058	-0,007
-718,021	-105,991	0,014	-0,002
-717,006	127,299	0,099	-0,091
-715,991	800,000	-0,066	-0,153
-714,977	129,569	-0,064	0,059
-713,962	247,498	-0,086	-0,106
-712,948	158,008	0,057	0,057
-711,933	-200,000	0,028	0,175
-710,918	800,000	-0,008	-0,018
-709,904	-90,209	-0,126	-0,026
-708,889	-200,000	0,019	-0,068
-707,875	239,824	-0,031	-0,038
-706,860	202,506	-0,044	-0,050
-705,845	254,446	0,062	0,077
-704,831	102,286	-0,069	0,059
-703,816	57,370	0,035	-0,025
-702,802	-50,162	-0,083	-0,028
-701,787	800,000	0,024	-0,065
-700,772	-12,016	-0,189	-0,089
-699,758	-200,000	-0,003	0,137
-698,743	472,118	-0,042	0,068
-697,729	154,514	-0,096	0,095
-696,714	-9,634	0,045	0,022
-695,699	185,571	0,034	0,037
-694,685	576,637	0,058	-0,102
-693,670	1,621	-0,190	0,099
-692,656	289,428	0,073	0,096
-691,641	366,580	0,027	-0,039
-690,627	204,125	0,066	0,074
-689,612	-62,147	-0,026	0,008
-688,597	-88,015	0,019	0,004
-687,583	-174,203	-0,155	-0,003
-686,568	800,000	0,002	-0,005
-685,554	-63,570	-0,149	-0,044
-684,539	-200,000	0,034	0,143
-683,524	-200,000	0,014	-0,053
-682,510	-44,652	-0,062	-0,022
-681,495	-85,028	0,055	-0,012
-680,481	251,772	-0,080	-0,099
-679,466	-7,230	-0,067	-0,033
-678,451	-200,000	0,007	0,037
-677,437	28,006	-0,041	0,025
-676,422	-135,570	0,040	0,003
-675,408	-36,265	-0,082	0,032
-674,393	187,069	-0,075	0,081
-673,378	-200,000	0,018	0,107
-672,364	27,812	0,017	-0,010
-671,349	-190,865	-0,139	-0,001
-670,335	-51,384	0,092	0,031
-669,320	89,873	0,092	0,074
-668,305	-118,670	0,066	-0,008
-667,291	-18,273	-0,075	0,034
-666,276	-200,000	0,009	0,093
-665,262	-200,000	0,024	-0,195
-664,247	-200,000	0,020	-0,079
-663,232	57,510	-0,084	-0,059
-662,218	-188,999	-0,045	-0,000
-661,203	91,944	-0,085	0,069
-660,189	31,613	0,101	0,063
-659,174	631,250	-0,076	-0,140
-658,159	-52,723	-0,054	-0,018
-657,145	346,444	-0,043	-0,062
-656,130	800,000	-0,041	0,110
-655,116	800,000	-0,069	0,147
-654,101	33,102	0,032	0,020
-653,086	157,569	-0,043	0,043
-652,072	-14,105	-0,066	-0,031
-651,057	-96,734	-0,014	0,003
-650,043	341,465	-0,091	-0,129
-649,028	-74,905	0,082	-0,021
-648,014	-84,234	-0,069	-0,016
-646,999	-49,204	0,062	-0,021
-645,984	-200,000	-0,001	0,024
-644,970	41,175	-0,066	-0,043
-643,955	-49,795	-0,059	0,020
-642,941	-200,000	0,010	-0,059
-641,926	-60,044	-0,059	-0,018
-640,911	-67,031	0,043	0,012
-639,897	-143,768	-0,043	-0,003
-638,882	-200,000	-0,016	0,197
-637,868	-200,000	0,031	0,103
-636,853	458,682	-0,069	-0,111
-635,838	-75,208	-0,087	-0,022
-634,824	381,574	0,042	-0,063
-633,809	-135,296	0,049	-0,004
-632,795	-83,770	0,124	0,028
-631,780	-29,130	0,052	0,022
-630,765	13,362	-0,094	-0,053
-629,751	-200,000	-0,008	-0,052
-628,736	-200,000	0,001	-0,135
-627,722	800,000	-0,050	-0,135
-626,707	237,312	-0,058	-0,070
-625,692	124,425	0,117	0,106
-624,678	369,037	-0,093	0,136
-623,663	68,306	-0,021	-0,015
-622,649	110,308	-0,104	-0,090
-621,634	218,699	-0,045	0,052
-620,619	120,985	-0,070	-0,063
-619,605	372,683	-0,036	0,053
-618,590	-200,000	0,026	-0,091
-617,576	2,193	-0,018	-0,010
-616,561	564,889	-0,017	-0,031
-615,546	3,187	0,132	-0,069
-614,532	-82,479	-0,164	-0,038
-613,517	206,953	0,054	-0,060
-612,503	248,391	0,112	0,137
-611,488	-158,555	0,112	-0,005
-610,474	664,183	0,036	-0,067
-609,459	21,227	-0,167	-0,097
-608,444	2,839	-0,059	-0,031
-607,430	-200,000	0,014	-0,105
-606,415	-21,135	0,031	0,013
-605,401	800,000	-0,011	-0,024
-604,386	-200,000	0,003	0,064
-603,371	-9,653	0,098	0,047
-602,357	50,978	0,070	-0,048
-601,342	800,000	0,031	-0,074
-600,328	136,904	-0,050	-0,047
-599,313	-46,731	-0,157	0,055
-598,298	-200,000	-0,036	-0,126
-597,284	-200,000	-0,022	0,083
-596,269	400,659	-0,049	-0,075
-595,255	332,331	0,070	0,098
-594,240	-91,216	-0,111	-0,023
-593,225	800,000	-0,067	-0,143
-592,211	211,625	0,027	0,031
-591,196	-200,000	-0,041	-0,217
-590,182	73,103	-0,029	0,022
-589,167	-200,000	0,049	0,164
-588,152	-70,582	0,091	-0,025
-587,138	-200,000	0,021	-0,081
-586,123	-134,203	-0,056	0,005
-585,109	-200,000	-0,006	0,029
-584,094	-200,000	-0,038	-0,166
-583,079	518,469	-0,075	0,126
-582,065	-138,946	0,029	0,002
-581,050	314,719	-0,083	-0,112
-580,036	318,425	0,033	-0,046
-579,021	599,399	0,070	-0,126
-578,006	14,312	-0,084	-0,047
-576,992	-15,628	0,060	0,028
-575,977	800,000	-0,032	0,071
-574,963	299,843	0,052	0,069
-573,948	-146,479	0,156	-0,010
-572,934	800,000	-0,018	-0,049
-571,919	63,827	-0,136	0,098
-570,904	35,670	-0,115	0,073
-569,890	-87,660	-0,088	-0,019
-568,875	152,900	0,093	0,092
-567,861	800,000	-0,087	0,179
-566,846	-177,582	0,136	-0,002
-565,831	-73,489	-0,171	0,045
-564,817	800,000	-0,035	-0,096
-563,802	-200,000	-0,002	-0,061
-562,788	-111,207	0,023	0,003
-561,773	-102,910	0,130	-0,022
-560,758	58,952	0,104	0,074
-559,744	10,842	0,102	-0,056
-558,729	800,000	-0,010	-0,028
-557,715	161,331	-0,078	-0,078
-556,700	694,169	0,060	-0,114
-555,685	19,471	-0,029	-0,017
-554,671	24,493	-0,077	0,046
-553,656	170,706	-0,049	0,050
-552,642	-200,000	0,026	0,144
-551,627	-47,673	0,103	0,036
-550,612	-200,000	-0,020	-0,069
-549,598	-78,102	-0,136	-0,034
-548,583	52,421	-0,126	-0,087
-547,569	-200,000	-0,002	0,062
-546,554	93,699	0,143	0,116
-545,539	-84,636	-0,006	0,001
-544,525	-200,000	0,015	0,185
-543,510	246,863	-0,098	-0,119
-542,496	-200,000	0,002	-0,057
-541,481	25,917	-0,071	0,042
-540,466	-200,000	0,025	-0,121
-539,452	-200,000	0,013	-0,065
-538,437	-91,400	0,135	-0,028
-537,423	-200,000	-0,017	-0,060
-536,408	395,499	0,008	-0,012
-535,393	13,876	-0,164	-0,091
-534,379	800,000	-0,049	-0,104
-533,364	86,208	-0,018	-0,014
-532,350	-46,634	-0,107	-0,037
-531,335	363,084	0,059	0,086
-530,321	327,676	-0,019	0,027
-529,306	800,000	0,033	0,068
-528,291	430,945	-0,031	0,048
-527,277	-200,000	-0,043	-0,149
-526,262	48,195	0,098	0,066
-525,248	-85,064	0,085	0,019
-524,233	-2,306	0,080	0,040
-523,218	-35,278	0,050	-0,020
-522,204	-44,740	0,066	0,024
-521,189	672,721	-0,066	0,123
-520,175	-200,000	0,004	0,024
-519,160	143,241	0,024	-0,023
-518,145	-74,242	-0,088	0,023
-517,131	-200,000	0,025	0,099
-516,116	800,000	-0,022	0,067
-515,102	168,321	-0,034	-0,035
-514,087	-200,000	-0,011	-0,163
-513,072	-68,866	0,102	0,028
-512,058	7,997	-0,051	0,027
-511,043	428,252	0,014	0,022
-510,029	-200,000	-0,010	0,084
-509,014	78,132	-0,032	-0,025
-507,999	800,000	-0,010	0,024
-506,985	172,323	0,081	0,084
-505,970	-147,473	0,060	0,004
-504,956	85,255	-0,086	0,068
-503,941	-200,000	0,003	0,092
-502,926	-83,170	0,151	0,035
-501,912	217,551	-0,068	0,078
-500,897	395,241	0,071	-0,107
-499,883	-200,000	-0,042	-0,160
-498,868	-200,000	0,047	-0,184
-497,853	71,911	-0,128	0,095
-496,839	-114,896	-0,080	-0,011
-495,824	129,349	0,084	-0,077
-494,810	-17,666	0,109	0,049
-493,795	-19,602	-0,030	0,013
-492,781	-200,000	-0,017	0,065
-491,766	-109,619	0,183	0,027
-490,751	-61,455	-0,038	0,011
-489,737	363,041	0,056	-0,081
-488,722	-27,464	0,062	-0,026
-487,708	123,306	-0,084	0,076
-486,693	164,394	0,043	0,044
-485,678	61,167	-0,044	-0,031
-484,664	666,674	0,034	-0,063
-483,649	-49,913	-0,146	-0,050
-482,635	21,937	0,016	-0,009
-481,620	193,303	0,086	0,094
-480,605	69,008	0,026	-0,019
-479,591	-200,000	-0,023	0,086
-478,576	800,000	-0,026	0,059
-477,562	-131,301	0,030	0,003
-476,547	-55,733	0,092	-0,029
-475,532	-200,000	-0,008	0,037
-474,518	132,712	-0,078	0,073
-473,503	-200,000	0,001	0,098
-472,489	-200,000	-0,017	0,086
-471,474	208,891	0,073	-0,082
-470,459	-200,000	0,008	-0,159
-469,445	-200,000	0,005	-0,025
-468,430	270,406	-0,055	-0,069
-467,416	800,000	-0,021	0,058
-466,401	39,140	0,075	0,048
-465,386	-134,856	-0,248	-0,021
-464,372	-136,708	-0,028	-0,002
-463,357	-200,000	0,035	-0,153
-462,343	800,000	-0,075	-0,186
-461,328	-200,000	0,008	-0,144
-460,313	-21,875	-0,057	0,025
-459,299	129,569	0,138	-0,127
-458,284	-200,000	-0,024	0,170
-457,270	527,893	0,079	0,134
-456,255	-9,017	-0,095	-0,045
-455,241	240,024	0,086	-0,103
-454,226	8,905	-0,118	0,063
-453,211	-89,946	-0,027	-0,006
-452,197	800,000	-0,022	-0,067
-451,182	-200,000	0,004	-0,056
-450,168	-17,690	-0,127	0,057
-449,153	-200,000	-0,017	-0,056
-448,138	-200,000	0,007	-0,037
-447,124	273,027	0,090	-0,114
-446,109	-56,084	-0,051	-0,016
-445,095	153,965	-0,032	0,031
-444,080	13,476	0,091	-0,050
-443,065	28,367	0,002	-0,001
-442,051	-200,000	-0,009	-0,036
-441,036	800,000	-0,007	0,017
-440,022	34,617	0,070	0,044
-439,007	165,869	-0,101	-0,103
-437,992	-158,605	-0,137	-0,006
-436,978	-147,378	-0,102	0,006
-435,963	653,854	0,056	0,104
-434,949	176,519	-0,059	-0,061
-433,934	-147,140	-0,135	0,008
-432,919	165,771	0,130	-0,132
-431,905	99,716	-0,038	-0,031
-430,890	-143,488	0,012	0,001
-429,876	-200,000	-0,013	-0,076
-428,861	-134,467	0,090	0,008
-427,846	291,178	0,064	-0,084
-426,832	-11,556	-0,169	-0,079
-425,817	593,714	0,046	-0,082
-424,803	193,769	-0,034	0,037
-423,788	800,000	-0,021	-0,049
-422,773	800,000	0,041	0,113
-421,759	-200,000	-0,010	0,040
-420,744	31,137	-0,073	0,045
-419,730	236,061	-0,047	-0,056
-418,715	800,000	-0,054	-0,146
-417,701	-200,000	0,000	-0,058
-416,686	293,413	-0,067	0,087
-415,671	-200,000	-0,001	0,038
-414,657	-200,000	0,023	0,143
-413,642	-193,185	0,184	0,001
-412,628	-103,771	-0,177	-0,029
-411,613	91,757	-0,100	-0,081
-410,598	-200,000	0,001	-0,096
-409,584	-82,531	-0,063	0,015
-408,569	-93,884	0,118	-0,023
-407,555	-200,000	-0,018	0,100
-406,540	-114,245	0,089	-0,012
-405,525	800,000	-0,005	-0,011
-404,511	800,000	-0,024	-0,075
-403,496	-200,000	-0,038	-0,132
-402,482	482,880	-0,065	-0,106
-401,467	-200,000	-0,015	0,073
-400,452	-32,312	0,115	0,046
-399,438	800,000	-0,031	0,095
-398,423	28,611	-0,130	-0,078
-397,409	800,000	-0,040	-0,091
-396,394	269,510	0,039	-0,049
-395,379	-200,000	-0,002	0,090
-394,365	-200,000	-0,004	-0,042
-393,350	-200,000	0,011	0,109
-392,336	115,087	-0,025	0,022
-391,321	279,231	0,056	-0,071
-390,306	2,867	-0,048	0,025
-389,292	-125,844	0,025	-0,003
-388,277	182,231	-0,088	-0,093
-387,263	800,000	-0,033	-0,074
-386,248	-2,879	0,048	-0,024
-385,233	31,672	0,016	-0,010
-384,219	-112,085	0,063	-0,009
-383,204	6,842	-0,106	-0,057
-382,190	-200,000	-0,008	-0,066
-381,175	800,000	0,064	0,171
-380,160	-8,652	0,074	0,036
-379,146	98,505	-0,066	0,054
-378,131	88,957	0,119	0,095
-377,117	220,629	0,112	0,129
-376,102	-200,000	-0,039	-0,175
-375,088	-200,000	0,009	-0,094
-374,073	38,556	0,081	0,052
-373,058	-63,041	0,093	-0,027
-372,044	-121,108	0,107	-0,013
-371,029	-200,000	0,034	0,250
-370,015	-61,790	-0,032	-0,009
-369,000	278,889	-0,048	-0,062
-367,985	283,884	0,031	-0,040
-366,971	105,939	-0,078	-0,066
-365,956	-106,390	0,138	0,022
-364,942	83,512	0,062	0,048
-363,927	101,775	-0,078	0,065
-362,912	-66,469	0,047	-0,013
-361,898	54,347	-0,037	0,025
-360,883	-184,556	-0,139	-0,002
-359,869	-148,564	0,138	0,008
-358,854	-29,304	0,026	0,011
-357,839	85,743	0,037	0,029
-356,825	800,000	0,025	0,074
-355,810	-59,806	-0,084	0,026
-354,796	141,931	-0,098	-0,092
-353,781	800,000	-0,040	-0,104
-352,766	783,449	-0,020	-0,039
-351,752	-43,828	0,146	0,052
-350,737	-36,382	0,062	0,024
-349,723	800,000	0,023	0,059
-348,708	65,132	-0,042	-0,031
-347,693	253,476	-0,075	0,092
-346,679	119,241	0,066	0,058
-345,664	-53,673	-0,184	0,060
-344,650	-200,000	0,041	0,150
-343,635	72,408	0,092	0,068
-342,620	17,559	0,102	0,058
-341,606	-200,000	0,037	0,216
-340,591	275,418	0,089	0,113
-339,577	800,000	-0,029	-0,063
-338,562	-200,000	0,003	0,068
-337,548	593,534	-0,039	-0,070
-336,533	-77,788	-0,040	-0,010
-335,518	237,854	-0,068	-0,081
-334,504	253,364	0,073	-0,090
-333,489	71,491	-0,054	0,040
-332,475	658,555	0,042	-0,078
-331,460	98,617	-0,054	-0,045
-330,445	661,389	-0,021	-0,038
-329,431	106,514	0,062	-0,052
-328,416	-200,000	-0,018	-0,064
-327,402	-200,000	-0,014	0,054
-326,387	8,656	0,099	0,053
-325,372	674,892	-0,038	0,071
-324,358	-28,394	0,052	0,021
-323,343	-58,886	0,032	0,010
-322,329	-14,836	0,067	-0,030
-321,314	-200,000	0,004	0,047
-320,299	-200,000	0,013	0,300
-319,285	-95,077	0,093	-0,018
-318,270	-200,000	-0,001	-0,116
-317,256	16,683	-0,171	-0,096
-316,241	800,000	-0,033	-0,081
-315,226	-59,567	0,145	0,044
-314,212	381,146	0,061	0,090
-313,197	50,228	0,108	-0,072
-312,183	-48,015	-0,103	0,035
-311,168	-200,000	-0,005	0,027
-310,153	257,696	0,061	-0,075
-309,139	-200,000	-0,011	-0,136
-308,124	361,948	0,049	-0,071
-307,110	-200,000	-0,029	0,133
-306,095	800,000	0,030	0,082
-305,080	-200,000	-0,022	-0,148
-304,066	-200,000	0,028	-0,129
-303,051	-200,000	0,000	0,125
-302,037	47,671	-0,048	0,032
-301,022	-86,944	-0,105	0,023
-300,008	-117,290	0,176	0,023
-298,993	333,787	0,023	0,031
-297,978	572,196	-0,043	-0,075
-296,964	73,457	-0,042	0,032
-295,949	-65,277	0,055	0,016
-294,935	36,495	0,097	0,061
-293,920	-200,000	0,007	-0,094
-292,905	-19,732	0,081	-0,036
-291,891	108,299	-0,105	-0,090
-290,876	-200,000	-0,008	0,033
-289,862	6,468	0,044	0,023
-288,847	-200,000	-0,046	-0,156
-287,832	95,788	-0,056	-0,046
-286,818	186,577	-0,072	-0,076
-285,803	-200,000	-0,016	0,145
-284,789	-81,740	0,172	0,040
-283,774	-200,000	0,012	0,149
-282,759	-43,704	-0,121	-0,043
-281,745	14,414	-0,075	-0,041
-280,730	-96,673	-0,025	-0,005
-279,716	113,410	0,080	0,069
-278,701	800,000	0,048	0,130
-277,686	-71,261	0,069	-0,018
-276,672	271,421	-0,096	-0,121
-275,657	74,003	0,086	0,064
-274,643	169,271	-0,161	-0,164
-273,628	46,160	-0,098	-0,065
-272,613	331,483	-0,070	-0,097
-271,599	160,510	0,032	-0,032
-270,584	-200,000	-0,012	0,082
-269,570	-168,118	0,137	-0,004
-268,555	156,115	-0,011	0,011
-267,540	199,927	-0,080	-0,087
-266,526	351,721	-0,021	-0,030
-265,511	253,702	0,003	0,003
-264,497	-9,390	0,024	0,011
-263,482	-4,537	0,089	0,044
-262,467	-188,493	0,206	0,002
-261,453	800,000	0,041	0,127
-260,438	133,594	-0,035	-0,032
-259,424	-84,429	-0,151	0,034
-258,409	-200,000	0,029	0,114
-257,395	-200,000	0,033	-0,189
-256,380	800,000	0,006	0,013
-255,365	212,511	0,072	0,081
-254,351	800,000	-0,091	0,187
-253,336	-170,243	-0,046	-0,001
-252,322	-200,000	-0,013	0,048
-251,307	476,083	-0,079	0,128
-250,292	10,078	0,090	-0,049
-249,278	48,730	0,082	0,055
-248,263	800,000	0,022	0,059
-247,249	-66,061	0,052	-0,015
-246,234	186,318	-0,085	-0,090
-245,219	611,676	0,106	-0,190
-244,205	530,493	-0,047	-0,079
-243,190	-200,000	0,041	0,149
-242,176	94,952	0,178	0,144
-241,161	-107,083	0,019	-0,003
-240,146	23,019	-0,046	0,027
-239,132	28,088	-0,040	0,024
-238,117	159,681	-0,046	0,045
-237,103	472,792	-0,053	-0,086
-236,088	431,222	0,063	-0,098
-235,073	-17,730	0,017	0,008
-234,059	800,000	0,037	0,110
-233,044	99,325	-0,080	0,065
-232,030	494,369	0,037	0,061
-231,015	502,704	0,071	-0,117
-230,000	-81,844	-0,082	0,019
-228,986	-200,000	-0,037	0,125
-227,971	71,085	-0,045	0,033
-226,957	228,775	0,075	0,087
-225,942	90,072	-0,080	0,064
-224,927	13,526	0,083	-0,046
-223,913	394,588	-0,034	0,051
-222,898	800,000	-0,047	0,092
-221,884	-200,000	-0,006	0,043
-220,869	-200,000	0,024	0,128
-219,855	7,866	0,130	0,069
-218,840	-200,000	0,148	0,000
-217,825	-130,343	0,074	0,007
-216,811	-200,000	-0,010	0,045
-215,796	241,866	-0,094	0,112
-214,782	-200,000	-0,014	0,082
-213,767	-134,228	0,057	0,005
-212,752	648,320	0,061	0,111
-211,738	-200,000	0,038	0,163
-210,723	-154,222	0,100	-0,005
-209,709	175,841	-0,092	-0,095
-208,694	800,000	0,015	-0,037
-207,679	620,663	-0,056	-0,100
-206,665	-38,055	0,074	0,028
-205,650	-140,088	-0,067	0,005
-204,636	-200,000	0,015	-0,113
-203,621	-200,000	-0,029	0,159
-202,606	222,127	-0,037	-0,042
-201,592	-199,227	-0,252	-0,001
-200,577	60,515	-0,047	-0,033
-199,563	295,379	0,023	-0,030
-198,548	71,058	0,074	-0,054
-197,533	167,386	-0,037	-0,037
-196,519	-69,602	-0,109	0,029
-195,504	-100,922	0,109	0,019
-194,490	365,177	-0,015	-0,022
-193,475	288,416	-0,046	0,059
-192,460	800,000	0,045	-0,091
-191,446	69,826	0,113	0,083
-190,431	-200,000	-0,012	0,099
-189,417	800,000	0,013	-0,032
-188,402	73,965	-0,084	0,062
-187,387	229,554	0,061	-0,071
-186,373	-68,215	-0,110	0,030
-185,358	-140,888	-0,109	0,008
-184,344	-200,000	0,009	-0,032
-183,329	-4,297	-0,083	0,041
-182,315	251,109	0,052	0,063
-181,300	360,102	-0,014	-0,020
-180,285	800,000	0,032	0,097
-179,271	-200,000	0,051	-0,162
-178,256	-27,616	-0,068	-0,028
-177,242	340,338	-0,105	0,145
-176,227	800,000	-0,056	0,140
-175,212	-200,000	0,006	-0,023
-174,198	103,905	-0,060	0,050
-173,183	-200,000	0,018	-0,121
-172,169	314,509	0,041	-0,054
-171,154	-41,260	0,047	0,017
-170,139	-200,000	-0,026	-0,138
-169,125	-200,000	0,053	0,187
-168,110	800,000	0,036	0,075
-167,096	224,205	-0,053	0,061
-166,081	486,245	0,073	-0,119
-165,066	-200,000	0,008	-0,092
-164,052	-200,000	-0,008	0,071
-163,037	48,948	0,089	-0,059
-162,023	655,699	0,018	0,033
-161,008	281,017	0,077	0,097
-159,993	-200,000	0,002	-0,059
-158,979	-70,775	0,097	0,026
-157,964	-200,000	0,010	0,035
-156,950	-200,000	0,002	-0,029
-155,935	65,152	0,107	-0,076
-154,920	-179,560	0,125	0,002
-153,906	-29,599	-0,089	0,036
-152,891	-85,020	0,015	0,003
-151,877	-17,507	0,028	-0,012
-150,862	-200,000	-0,025	0,104
-149,847	-25,431	0,083	-0,035
-148,833	80,982	0,039	-0,030
-147,818	370,108	0,087	0,126
-146,804	110,175	-0,106	0,090
-145,789	-121,427	-0,109	0,013
-144,775	688,477	-0,023	0,042
-143,760	634,370	0,061	-0,110
-142,745	-32,972	0,102	0,040
-141,731	-53,330	-0,015	-0,005
-140,716	-40,991	-0,056	-0,020
-139,702	27,620	0,055	-0,033
-138,687	-94,190	0,060	0,011
-137,672	-200,000	0,040	0,164
-136,658	-155,518	-0,047	-0,002
-135,643	134,699	-0,118	0,108
-134,629	-50,337	-0,116	-0,039
-133,614	273,137	0,054	-0,068
-132,599	91,785	0,123	0,098
-131,585	551,525	0,035	-0,060
-130,570	-41,283	-0,091	-0,033
-129,556	139,918	0,130	-0,121
-128,541	-107,944	-0,097	-0,015
-127,526	54,342	0,086	0,058
-126,512	-200,000	0,041	0,132
-125,497	93,066	-0,005	0,004
-124,483	-27,695	-0,091	-0,037
-123,468	282,225	0,023	-0,029
-122,453	-200,000	0,006	0,062
-121,439	-200,000	0,007	-0,076
-120,424	423,274	-0,050	-0,076
-119,410	800,000	0,049	0,119
-118,395	-107,602	0,090	0,014
-117,380	-19,475	-0,054	0,023
-116,366	-200,000	-0,098	0,000
-115,351	-200,000	-0,006	0,126
-114,337	-113,676	-0,154	-0,021
-113,322	77,033	-0,060	-0,045
-112,307	335,022	-0,060	0,082
-111,293	800,000	-0,065	0,131
-110,278	800,000	-0,004	0,012
-109,264	-83,782	0,107	-0,024
-108,249	800,000	-0,036	-0,103
-107,234	-200,000	0,014	0,076
-106,220	227,044	-0,040	-0,046
-105,205	59,054	0,110	-0,077
-104,191	39,916	0,037	0,023
-103,176	320,927	0,157	0,211
-102,162	-32,550	0,023	0,009
-101,147	396,933	-0,027	-0,039
-100,132	133,068	-0,021	0,019
-99,118	197,181	0,055	-0,060
-98,103	-94,743	0,121	0,023
-97,089	800,000	-0,028	0,068
-96,074	-32,708	-0,083	0,033
-95,059	-166,997	-0,086	0,002
-94,045	800,000	-0,031	0,082
-93,030	343,490	-0,042	-0,059
-92,016	6,581	-0,167	0,087
-91,001	288,874	-0,003	0,004
-89,986	-200,000	-0,006	-0,074
-88,972	-200,000	-0,003	0,023
-87,957	283,042	0,015	0,019
-86,943	375,655	-0,035	0,050
-85,928	-148,492	-0,048	0,003
-84,913	800,000	-0,027	-0,063
-83,899	-1,701	0,124	-0,062
-82,884	-150,036	0,113	0,006
-81,870	35,737	0,023	-0,014
-80,855	-200,000	0,004	0,118
-79,840	216,718	-0,037	-0,042
-78,826	-94,537	-0,215	-0,041
-77,811	-87,537	-0,017	-0,004
-76,797	800,000	0,021	0,046
-75,782	-69,267	0,059	0,016
-74,767	711,541	0,052	0,097
-73,753	-200,000	0,011	0,085
-72,738	800,000	-0,027	-0,072
-71,724	137,489	-0,118	-0,109
-70,709	-200,000	0,004	-0,071
-69,694	97,023	-0,153	0,124
-68,680	-200,000	0,113	0,000
-67,665	-200,000	-0,002	0,095
-66,651	249,469	-0,049	0,059
-65,636	-56,049	-0,022	-0,007
-64,622	-200,000	-0,011	-0,097
-63,607	-141,916	-0,040	0,003
-62,592	-6,881	-0,077	-0,037
-61,578	-150,094	0,097	0,005
-60,563	-6,574	0,097	-0,047
-59,549	-200,000	-0,020	0,121
-58,534	19,441	-1,935	-1,095
-57,519	348,306	-1,436	-2,006
-56,505	-200,000	-0,289	-4,490
-55,490	414,476	1,015	1,531
-54,476	800,000	5,078	11,297
-53,461	-200,000	20,800	329,264
-52,446	800,000	756,647	2321,482
-51,432	550,250	1661,897	2825,612
-50,417	73,635	1664,356	1229,904
-49,403	18,893	1537,445	867,410
-48,388	12,845	1460,409	794,665
-47,373	18,992	1451,369	819,258
-46,359	15,983	1440,517	798,769
-45,344	11,161	1436,101	773,310
-44,330	11,091	1434,280	771,962
-43,315	11,069	1432,445	770,838
-42,300	11,099	1430,681	770,003
-41,286	11,109	1429,349	769,302
-40,271	11,043	1428,164	768,323
-39,257	11,080	1426,891	767,781
-38,242	11,144	1425,702	767,416
-37,227	11,098	1424,805	766,684
-36,213	11,146	1423,417	766,135
-35,198	11,125	1422,236	765,368
-34,184	11,175	1421,457	765,154
-33,169	11,130	1420,058	764,158
-32,154	11,193	1418,839	763,771
-31,140	11,138	1417,834	762,937
-30,125	11,199	1416,682	762,577
-29,111	11,149	1415,756	761,811
-28,096	11,154	1414,349	761,047
-27,082	11,133	1413,227	760,314
-26,067	11,092	1412,444	759,669
-25,052	11,071	1411,284	758,919
-24,038	11,084	1410,092	758,309
-23,023	11,088	1409,152	757,790
-22,009	11,069	1408,235	757,181
-20,994	11,018	1407,297	756,407
-19,979	11,040	1406,283	755,933
-18,965	11,046	1405,357	755,435
-17,950	11,064	1404,368	754,959
-16,936	10,982	1403,770	754,225
-15,921	10,958	1402,434	753,363
-14,906	10,954	1401,649	752,894
-13,892	10,936	1400,773	752,307
-12,877	10,984	1399,917	752,045
-11,863	10,992	1399,213	751,670
-10,848	10,960	1398,269	750,985
-9,833	10,945	1397,369	750,402
-8,819	10,866	1396,501	749,541
-7,804	10,876	1395,616	749,083
-6,790	10,900	1394,495	748,563
-5,775	10,940	1393,396	748,126
-4,760	10,924	1392,478	747,532
-3,746	10,909	1391,659	746,992
-2,731	10,888	1390,788	746,397
-1,717	10,904	1389,776	745,902
-0,702	10,855	1388,107	744,747
0,313	14,857	1301,671	716,723
1,327	30,991	693,218	418,421
2,342	48,063	120,247	79,188
3,356	-0,236	16,533	8,269
4,371	9,953	3,498	1,868
5,386	-29,625	0,899	0,360
6,400	-200,000	0,169	0,527
7,415	-25,954	-0,201	-0,083
8,429	9,889	-0,304	-0,162
9,444	36,590	-0,302	-0,188
10,459	284,823	-0,103	-0,131
11,473	-68,134	-0,305	-0,083
12,488	-73,619	-0,252	-0,064
13,502	88,953	-0,268	-0,211
14,517	504,599	-0,180	-0,295
15,531	140,303	-0,429	-0,399
16,546	41,067	-0,432	-0,274
17,561	35,263	-0,474	-0,292
18,575	-145,187	-0,221	-0,014
19,590	59,508	-0,250	-0,173
20,604	143,279	-0,266	-0,249
21,619	2,559	-0,580	-0,295
22,634	48,680	-0,402	-0,265
23,648	52,563	-0,448	-0,301
24,663	154,925	-0,384	-0,372
25,677	217,020	-0,280	-0,315
26,692	547,580	-0,177	-0,299
27,707	60,138	-0,260	-0,181
28,721	81,520	-0,348	-0,265
29,736	67,953	-0,335	-0,241
30,750	119,168	-0,356	-0,310
31,765	63,132	-0,260	-0,183
32,780	204,404	-0,345	-0,377
33,794	255,057	-0,215	-0,259
34,809	41,557	-0,502	-0,319
35,823	-2,859	-0,407	-0,200
36,838	187,060	-0,353	-0,371
37,853	9,369	-0,429	-0,228
38,867	113,629	-0,330	-0,282
39,882	78,442	-0,288	-0,216
40,896	220,841	-0,306	-0,346
41,911	83,078	-0,329	-0,252
42,926	587,946	-0,213	-0,371
43,940	24,631	-0,466	-0,270
44,955	115,417	-0,378	-0,325
45,969	124,853	-0,341	-0,302
46,984	-58,836	-0,366	-0,111
47,999	127,653	-0,345	-0,308
49,013	43,036	-0,313	-0,200
50,028	307,244	-0,214	-0,281
51,042	389,278	-0,244	-0,357
52,057	231,900	-0,381	-0,439
53,071	191,958	-0,229	-0,243
54,086	97,376	-0,347	-0,280
55,101	96,769	-0,291	-0,234
56,115	-0,596	-0,293	-0,145
57,130	34,585	-0,352	-0,216
58,144	130,849	-0,350	-0,316
59,159	-17,544	-0,411	-0,181
60,174	66,428	-0,376	-0,268
61,188	73,013	-0,382	-0,280
62,203	-82,068	-0,409	-0,093
63,217	-44,983	-0,299	-0,104
64,232	83,630	-0,275	-0,210
65,247	76,223	-0,462	-0,343
66,261	105,014	-0,281	-0,232
67,276	24,450	-0,344	-0,199
68,290	348,680	-0,168	-0,233
69,305	2,195	-0,260	-0,132
70,320	31,872	-0,244	-0,147
71,334	-74,992	-0,384	-0,096
72,349	-13,675	-0,342	-0,155
73,363	234,619	-0,197	-0,229
74,378	122,491	-0,288	-0,253
75,393	64,552	-0,245	-0,173
76,407	-107,610	-0,278	-0,042
77,422	113,367	-0,244	-0,208
78,436	31,314	-0,281	-0,169
79,451	84,476	-0,191	-0,146
80,466	222,733	-0,336	-0,380
81,480	214,764	-0,282	-0,314
82,495	-35,391	-0,328	-0,124
83,509	429,159	-0,195	-0,296
84,524	-85,262	-0,262	-0,057
85,539	-55,889	-0,288	-0,089
86,553	210,669	-0,266	-0,293
87,568	168,923	-0,343	-0,343
88,582	148,049	-0,266	-0,251
89,597	47,952	-0,359	-0,234
90,611	78,132	-0,328	-0,245
91,626	180,915	-0,139	-0,143
92,641	121,521	-0,168	-0,146
93,655	126,918	-0,205	-0,182
94,670	43,265	-0,321	-0,205
95,684	90,455	-0,245	-0,192
96,699	118,739	-0,342	-0,296
97,714	-10,282	-0,318	-0,147
98,728	-51,809	-0,242	-0,078
99,743	29,423	-0,238	-0,141
100,757	207,331	-0,162	-0,177
101,772	-26,481	-0,316	-0,129
102,787	17,030	-0,373	-0,206
103,801	89,061	-0,391	-0,305
104,816	13,221	-0,297	-0,161
105,830	800,000	-0,041	-0,094
106,845	54,318	-0,264	-0,177
107,860	-65,297	-0,291	-0,081
108,874	50,152	-0,237	-0,156
109,889	221,259	-0,234	-0,263
110,903	343,759	-0,184	-0,253
111,918	-26,066	-0,268	-0,110
112,933	-20,024	-0,339	-0,146
113,947	-28,194	-0,317	-0,127
114,962	-115,242	-0,112	0,015
115,976	-39,044	-0,240	-0,088
116,991	-38,911	-0,338	-0,124
118,006	94,511	-0,304	-0,241
119,020	-47,312	-0,347	-0,117
120,035	47,526	-0,268	-0,175
121,049	114,513	-0,146	-0,124
122,064	42,572	-0,208	-0,132
123,079	293,730	-0,138	-0,177
124,093	182,439	-0,261	-0,269
125,108	46,158	-0,251	-0,162
126,122	125,784	-0,135	-0,119
127,137	-82,623	-0,294	-0,066
128,151	28,395	-0,217	-0,127
129,166	-35,715	-0,209	-0,079
130,181	84,006	-0,258	-0,196
131,195	101,561	-0,299	-0,243
132,210	-124,118	-0,189	-0,020
133,224	32,621	-0,289	-0,174
134,239	-175,986	-0,212	0,004
135,254	800,000	-0,094	-0,191
136,268	-36,456	-0,309	-0,115
137,283	424,179	-0,136	-0,204
138,297	800,000	-0,159	-0,377
139,312	139,491	-0,244	-0,224
140,327	47,225	-0,166	-0,108
141,341	64,260	-0,313	-0,220
142,356	47,755	-0,160	-0,104
143,370	-4,551	-0,148	-0,071
144,385	-50,803	-0,217	0,071
145,400	-70,594	-0,204	-0,054
146,414	-4,252	-0,317	-0,152
147,429	61,781	-0,243	-0,168
148,443	-34,231	-0,177	-0,067
149,458	-138,879	-0,309	-0,023
150,473	45,041	-0,137	-0,088
151,487	556,423	-0,163	-0,275
152,502	28,484	-0,267	-0,157
153,516	42,104	-0,227	-0,143
154,531	-48,109	-0,299	-0,100
155,546	207,253	-0,124	-0,135
156,560	23,923	-0,177	-0,101
157,575	-44,126	-0,237	-0,082
158,589	-53,468	-0,225	-0,071
159,604	1,588	-0,190	-0,095
160,619	181,879	-0,262	-0,269
161,633	800,000	-0,109	-0,217
162,648	104,355	-0,221	-0,181
163,662	-93,289	-0,092	0,018
164,677	-159,729	-0,265	-0,010
165,692	250,299	-0,242	-0,286
166,706	617,588	-0,075	-0,132
167,721	18,265	-0,279	-0,155
168,735	67,398	-0,304	-0,215
169,750	363,258	-0,157	-0,220
170,764	-58,059	-0,207	-0,062
171,779	68,735	-0,176	-0,126
172,794	-11,055	-0,114	-0,052
173,808	-89,664	-0,216	-0,044
174,823	128,620	-0,247	-0,219
175,837	-35,624	-0,307	-0,115
176,852	-125,111	-0,263	-0,028
177,867	130,249	-0,169	-0,150
178,881	-79,334	-0,285	-0,066
179,896	385,426	-0,152	-0,219
180,910	273,068	-0,196	-0,241
181,925	124,509	-0,147	-0,128
182,940	112,773	-0,232	-0,195
183,954	49,728	-0,312	-0,204
184,969	-63,156	-0,189	-0,054
185,983	52,495	-0,211	-0,140
186,998	240,303	-0,144	-0,167
188,013	275,370	-0,154	-0,190
189,027	58,074	-0,278	-0,189
190,042	125,943	-0,193	-0,169
191,056	-40,029	-0,224	-0,081
192,071	-2,841	-0,171	-0,083
193,086	73,662	-0,219	-0,159
194,100	-87,557	-0,079	0,016
195,115	167,737	-0,183	-0,181
196,129	60,181	-0,147	-0,101
197,144	87,601	-0,321	-0,246
198,159	222,346	-0,164	-0,184
199,173	-44,708	-0,099	-0,034
200,188	-85,202	-0,301	-0,065
201,202	3,878	-0,227	-0,115
202,217	167,350	-0,233	-0,230
203,232	108,974	-0,107	-0,089
204,246	-3,795	-0,277	-0,133
205,261	15,290	-0,172	-0,093
206,275	12,130	-0,181	-0,096
207,290	-112,102	-0,218	0,030
208,304	-129,375	-0,131	0,012
209,319	-89,097	-0,218	0,044
210,334	545,168	-0,065	-0,107
211,348	117,705	-0,185	-0,157
212,363	800,000	-0,112	-0,272
213,377	308,790	-0,102	-0,132
214,392	110,457	-0,182	-0,151
215,407	-160,884	-0,224	0,008
216,421	69,391	-0,184	-0,131
217,436	29,009	-0,212	-0,124
218,450	428,259	-0,178	-0,267
219,465	-200,000	-0,053	-0,213
220,480	260,888	-0,153	-0,183
221,494	36,712	-0,339	-0,207
222,509	523,635	-0,090	-0,147
223,523	312,169	-0,201	-0,261
224,538	117,738	-0,173	-0,147
225,553	-106,385	-0,277	0,042
226,567	-160,131	-0,294	0,011
227,582	-149,878	-0,281	-0,015
228,596	800,000	-0,064	0,145
229,611	113,822	-0,167	-0,141
230,626	143,370	-0,130	-0,119
231,640	-29,840	-0,180	-0,070
232,655	65,297	-0,142	0,099
233,669	61,973	-0,122	-0,084
234,684	-200,000	-0,042	-0,266
235,699	62,446	-0,233	-0,161
236,713	74,341	-0,208	-0,151
237,728	174,967	-0,192	-0,192
238,742	367,399	-0,157	-0,220
239,757	296,628	-0,107	-0,137
240,772	145,488	-0,161	-0,149
241,786	285,177	-0,124	-0,154
242,801	-33,198	-0,197	-0,075
243,815	186,636	-0,112	-0,115
244,830	5,887	-0,258	-0,131
245,844	50,201	-0,110	-0,072
246,859	-39,586	-0,213	-0,077
247,874	235,208	-0,208	-0,237
248,888	119,881	-0,156	-0,133
249,903	274,423	-0,151	-0,185
250,917	5,116	-0,218	-0,111
251,932	14,729	-0,163	-0,088
252,947	-12,646	-0,213	-0,095
253,961	262,280	-0,127	-0,153
254,976	99,249	-0,208	-0,166
255,990	166,940	-0,225	-0,221
257,005	11,626	-0,149	-0,079
258,020	69,058	-0,179	-0,127
259,034	61,021	-0,154	-0,106
260,049	58,263	-0,278	-0,188
261,063	161,006	-0,213	-0,206
262,078	800,000	-0,111	-0,214
263,093	-31,932	-0,197	-0,076
264,107	-55,698	0,102	-0,031
265,122	-148,211	-0,151	-0,008
266,136	-126,364	-0,207	-0,021
267,151	-146,625	-0,128	-0,008
268,166	279,547	-0,098	-0,121
269,180	328,608	-0,060	-0,079
270,195	38,683	-0,209	-0,128
271,209	28,936	-0,231	-0,135
272,224	800,000	-0,087	-0,172
273,239	78,416	-0,033	-0,024
274,253	-166,014	-0,065	0,002
275,268	-29,020	-0,164	0,065
276,282	319,992	-0,188	-0,247
277,297	16,923	-0,013	0,007
278,312	169,857	-0,113	-0,111
279,326	800,000	-0,067	-0,143
280,341	-60,436	-0,155	-0,045
281,355	-0,720	-0,086	-0,042
282,370	-200,000	-0,049	-0,228
283,384	26,026	-0,178	-0,102
284,399	240,222	-0,219	-0,252
285,414	-133,829	-0,091	0,008
286,428	508,987	-0,136	-0,218
287,443	74,592	-0,131	-0,094
288,457	-28,659	-0,161	0,063
289,472	335,108	-0,165	-0,221
290,487	70,371	-0,117	-0,083
291,501	134,030	-0,127	-0,113
292,516	800,000	-0,048	-0,140
293,530	-78,226	-0,135	-0,032
294,545	-90,436	-0,074	-0,015
295,560	94,348	-0,036	0,028
296,574	-95,567	-0,096	-0,017
297,589	349,751	-0,168	-0,229
298,603	800,000	-0,060	-0,158
299,618	102,582	-0,155	-0,125
300,633	-200,000	-0,009	-0,085
301,647	800,000	0,019	0,040
302,662	137,138	-0,071	-0,064
303,676	-200,000	-0,012	-0,045
304,691	-29,893	-0,156	-0,061
305,706	387,452	-0,144	-0,205
306,720	-45,305	-0,175	-0,059
307,735	218,254	-0,162	-0,178
308,749	131,974	-0,128	-0,113
309,764	16,111	-0,160	-0,086
310,779	91,566	-0,062	-0,048
311,793	-45,816	-0,186	-0,063
312,808	-113,457	-0,106	-0,014
313,822	215,049	-0,124	-0,135
314,837	800,000	-0,094	-0,193
315,852	-55,297	0,009	0,003
316,866	-22,066	-0,151	-0,063
317,881	196,705	-0,068	-0,071
318,895	103,989	-0,175	-0,141
319,910	410,449	-0,096	-0,140
320,925	71,913	-0,180	-0,128
321,939	-22,579	-0,190	-0,079
322,954	69,571	-0,148	-0,105
323,968	0,848	-0,067	-0,033
324,983	-94,141	-0,087	0,016
325,997	299,093	-0,082	-0,103
327,012	30,825	-0,207	-0,122
328,027	-56,951	-0,310	-0,093
329,041	16,284	-0,107	-0,058
330,056	232,885	-0,090	0,101
331,070	732,574	-0,107	-0,197
332,085	-4,240	-0,172	-0,081
333,100	-137,778	-0,175	0,013
334,114	-9,708	-0,247	-0,112
335,129	-24,115	-0,190	-0,078
336,143	584,095	-0,104	-0,175
337,158	20,100	-0,149	-0,082
338,173	-56,766	-0,104	-0,031
339,187	22,345	-0,188	0,105
340,202	79,505	-0,146	-0,107
341,216	-113,821	-0,287	-0,038
342,231	10,981	-0,226	-0,118
343,246	800,000	-0,102	-0,213
344,260	-200,000	-0,008	-0,072
345,275	-78,015	-0,043	0,010
346,289	-4,976	-0,156	-0,073
347,304	-98,720	-0,152	-0,026
348,319	-13,075	-0,280	-0,124
349,333	-29,025	-0,126	-0,049
350,348	-165,278	-0,137	-0,004
351,362	41,773	-0,252	-0,156
352,377	175,957	-0,074	-0,073
353,392	42,820	-0,032	-0,020
354,406	31,773	-0,100	-0,058
355,421	207,715	1308,099	1399,026
356,435	159,799	1468,003	1399,511
