DTS Sentinel unit serial number:	SN410029Multiplexer serial number:	ORYXHardware model number:	OX2-SRSoftware version number:	ORYX F/W v4,00 Oryx Data Collector v3.7.2.0data status	okinstallation	B3 Nyhavnadifferential loss correction	single-endedforward channel	channel 1reverse channel	N/Adate	2023/11/30time	07:52:30forward acquisition time	300,00reverse acquisition time	0,00gamma	499,1914k internal	0,3211k external	0,3211temperature offset calibration	1,0000default loss term (dB/km)	0,3820temperature slope calibration	1,0000multiplexer offset coefficient	1,0000multiplexer slope coefficient	1,0000fibre end	0,00T internal ref (°C)	9,94T ext. ref 1 (°C)	-5,49T ext. ref 2 (°C)	-5,60length (m)	temperature (°C)	Stokes	anti-Stokes-744,400	72,680	-0,312	-0,236
-743,385	417,152	0,130	0,201
-742,371	-68,431	-0,240	-0,067
-741,356	-200,000	-0,076	0,349
-740,342	199,034	-0,151	-0,168
-739,327	-200,000	-0,029	0,329
-738,312	161,516	-0,204	-0,207
-737,298	-200,000	-0,065	0,333
-736,283	-41,822	-0,299	-0,111
-735,269	-200,000	0,046	0,248
-734,254	316,083	-0,211	-0,289
-733,239	-91,320	-0,335	0,069
-732,225	-200,000	-0,021	-0,178
-731,210	737,709	0,130	0,254
-730,196	-103,975	-0,059	0,010
-729,181	205,949	0,027	0,030
-728,167	81,980	0,009	0,007
-727,152	-42,636	-0,261	-0,096
-726,137	800,000	-0,075	-0,206
-725,123	-0,118	-0,096	0,049
-724,108	500,207	0,018	-0,030
-723,094	9,984	-0,035	-0,019
-722,079	74,455	-0,099	-0,075
-721,064	6,021	-0,237	-0,127
-720,050	-138,017	0,064	0,005
-719,035	26,568	-0,266	-0,161
-718,021	80,010	0,133	0,104
-717,006	-87,935	-0,084	-0,018
-715,991	800,000	-0,047	-0,096
-714,977	800,000	-0,017	-0,038
-713,962	-94,809	-0,063	0,012
-712,948	47,359	-0,089	-0,060
-711,933	41,169	-0,037	-0,024
-710,918	291,616	-0,069	0,092
-709,904	356,244	0,056	-0,080
-708,889	165,219	-0,074	0,076
-707,875	800,000	-0,046	0,099
-706,860	-89,750	-0,087	0,018
-705,845	800,000	0,106	0,225
-704,831	-200,000	0,007	0,093
-703,816	126,347	0,047	0,043
-702,802	-200,000	-0,011	-0,073
-701,787	14,546	0,027	-0,015
-700,772	419,258	-0,081	-0,126
-699,758	128,371	0,049	-0,045
-698,743	-83,968	0,120	-0,027
-697,729	-200,000	-0,005	0,033
-696,714	-107,447	-0,072	-0,011
-695,699	-169,031	-0,093	0,002
-694,685	-148,671	0,071	-0,004
-693,670	47,561	-0,138	-0,093
-692,656	-10,016	-0,091	0,044
-691,641	800,000	-0,028	-0,084
-690,627	25,278	0,031	-0,019
-689,612	-168,387	-0,120	-0,003
-688,597	-200,000	-0,025	0,147
-687,583	-58,961	-0,054	-0,017
-686,568	-187,408	0,088	0,001
-685,554	150,344	0,014	-0,014
-684,539	-182,409	-0,168	-0,002
-683,524	-128,978	0,034	-0,003
-682,510	-99,128	0,057	-0,010
-681,495	617,480	0,030	-0,055
-680,481	-6,955	-0,073	0,036
-679,466	119,811	-0,070	0,063
-678,451	-72,760	-0,173	-0,046
-677,437	-52,938	0,134	-0,044
-676,422	31,109	0,038	0,024
-675,408	-69,621	-0,142	0,039
-674,393	32,732	0,077	-0,048
-673,378	-10,883	-0,058	0,028
-672,364	-200,000	-0,018	0,060
-671,349	-200,000	0,032	0,125
-670,335	-32,452	-0,067	-0,027
-669,320	-200,000	-0,012	-0,152
-668,305	-63,313	-0,015	-0,004
-667,291	800,000	-0,017	-0,045
-666,276	51,785	-0,088	0,060
-665,262	13,725	-0,167	0,093
-664,247	-200,000	0,001	0,027
-663,232	-200,000	0,005	-0,022
-662,218	-200,000	-0,028	0,103
-661,203	800,000	-0,045	0,097
-660,189	800,000	0,032	0,100
-659,174	-200,000	0,018	-0,085
-658,159	96,973	-0,103	-0,085
-657,145	-168,903	-0,142	0,004
-656,130	-95,520	-0,051	-0,010
-655,116	-151,164	0,095	0,005
-654,101	583,056	-0,027	0,048
-653,086	39,714	-0,010	-0,007
-652,072	368,818	0,051	-0,075
-651,057	-200,000	0,035	-0,124
-650,043	35,823	-0,025	-0,016
-649,028	-200,000	0,000	-0,015
-648,014	-17,905	0,082	0,037
-646,999	247,283	0,120	0,146
-645,984	173,263	-0,085	0,088
-644,970	-160,200	-0,110	-0,004
-643,955	-200,000	-0,002	-0,042
-642,941	-95,407	-0,237	-0,046
-641,926	800,000	0,017	-0,046
-640,911	-200,000	0,020	-0,154
-639,897	250,155	0,066	-0,081
-638,882	57,804	0,019	-0,014
-637,868	58,596	-0,168	-0,119
-636,853	-200,000	0,021	-0,145
-635,838	124,728	-0,075	-0,068
-634,824	106,593	-0,107	0,091
-633,809	-167,022	0,066	0,002
-632,795	-125,382	0,095	-0,010
-631,780	-59,474	0,150	-0,046
-630,765	-90,716	-0,024	-0,005
-629,751	-200,000	-0,036	-0,131
-628,736	75,083	-0,038	-0,029
-627,722	104,940	-0,066	0,056
-626,707	253,188	0,035	0,043
-625,692	594,951	-0,066	-0,118
-624,678	-176,478	-0,088	0,002
-623,663	-49,755	0,076	0,026
-622,649	-57,345	-0,022	-0,007
-621,634	317,864	-0,096	0,131
-620,619	-107,825	0,142	0,022
-619,605	-117,154	0,036	-0,005
-618,590	-12,820	0,092	0,043
-617,576	-200,000	-0,003	0,036
-616,561	92,822	0,023	-0,019
-615,546	123,131	-0,061	-0,055
-614,532	-2,117	-0,138	-0,070
-613,517	249,855	0,113	-0,139
-612,503	-69,358	-0,083	0,023
-611,488	25,362	0,040	-0,024
-610,474	372,060	0,042	-0,062
-609,459	-200,000	0,011	-0,154
-608,444	74,923	0,109	-0,083
-607,430	-103,252	-0,122	-0,021
-606,415	202,242	0,116	0,129
-605,401	329,856	-0,051	-0,071
-604,386	341,501	0,097	-0,138
-603,371	-200,000	0,003	-0,073
-602,357	-107,713	0,067	-0,010
-601,342	382,918	-0,068	-0,101
-600,328	-200,000	-0,033	-0,132
-599,313	-200,000	-0,003	0,042
-598,298	113,793	0,048	-0,042
-597,284	54,451	-0,019	-0,013
-596,269	-200,000	-0,006	-0,079
-595,255	-200,000	-0,022	0,149
-594,240	-25,357	-0,050	0,021
-593,225	54,030	-0,031	0,022
-592,211	-51,485	-0,173	-0,058
-591,196	569,606	0,057	0,100
-590,182	8,472	0,183	0,099
-589,167	-60,953	0,015	0,004
-588,152	-200,000	0,003	-0,046
-587,138	359,981	-0,007	-0,011
-586,123	90,551	-0,065	-0,052
-585,109	376,903	-0,063	-0,092
-584,094	273,702	0,020	0,026
-583,079	18,538	0,077	0,044
-582,065	-157,117	0,032	0,001
-581,050	566,761	0,019	0,034
-580,036	223,610	-0,062	0,073
-579,021	-27,221	-0,061	0,026
-578,006	-81,935	-0,113	-0,026
-576,992	45,049	0,037	0,025
-575,977	422,995	0,089	0,139
-574,963	800,000	-0,025	-0,052
-573,948	190,488	0,018	-0,019
-572,934	69,013	-0,078	-0,058
-571,919	-1,308	0,031	-0,016
-570,904	159,898	-0,076	-0,077
-569,890	49,615	0,056	0,038
-568,875	-138,732	0,009	-0,001
-567,861	-200,000	-0,021	-0,086
-566,846	-168,586	-0,054	-0,001
-565,831	-49,248	-0,016	-0,006
-564,817	14,168	-0,168	-0,094
-563,802	-91,713	0,120	-0,024
-562,788	-200,000	-0,027	0,155
-561,773	43,602	-0,034	0,022
-560,758	-114,158	-0,109	-0,015
-559,744	-89,473	0,157	-0,033
-558,729	-116,894	0,113	-0,015
-557,715	-200,000	-0,022	-0,176
-556,700	-200,000	-0,001	0,039
-555,685	-52,672	0,012	0,004
-554,671	-200,000	0,023	-0,079
-553,656	321,399	-0,020	-0,028
-552,642	-15,263	0,118	0,054
-551,627	559,771	0,010	0,017
-550,612	63,647	-0,145	-0,105
-549,598	-200,000	0,009	-0,157
-548,583	24,246	-0,054	-0,032
-547,569	800,000	-0,073	-0,166
-546,554	-200,000	0,008	0,060
-545,539	181,089	0,061	0,065
-544,525	-200,000	-0,029	0,095
-543,510	-31,498	-0,109	0,044
-542,496	623,264	0,053	-0,097
-541,481	800,000	0,025	-0,058
-540,466	413,422	-0,007	0,010
-539,452	-39,881	0,123	0,046
-538,437	-200,000	0,041	0,167
-537,423	-110,642	-0,074	-0,011
-536,408	243,375	-0,016	0,020
-535,393	-200,000	-0,023	0,170
-534,379	292,623	-0,023	-0,031
-533,364	325,375	-0,073	-0,101
-532,350	-200,000	-0,029	-0,202
-531,335	-114,270	0,181	0,025
-530,321	264,572	-0,036	-0,046
-529,306	187,847	-0,058	-0,063
-528,291	-200,000	-0,004	0,017
-527,277	-68,677	0,095	-0,026
-526,262	167,897	-0,075	0,076
-525,248	800,000	0,060	-0,119
-524,233	-94,688	0,057	-0,011
-523,218	132,062	-0,081	-0,075
-522,204	-200,000	-0,003	0,109
-521,189	800,000	0,057	-0,150
-520,175	-200,000	-0,014	-0,167
-519,160	62,447	0,078	-0,056
-518,145	372,242	-0,040	-0,059
-517,131	252,639	-0,114	0,140
-516,116	53,645	0,155	0,107
-515,102	800,000	-0,032	-0,089
-514,087	12,839	0,059	-0,033
-513,072	-159,852	-0,037	-0,001
-512,058	228,761	-0,059	0,069
-511,043	-110,961	-0,220	-0,032
-510,029	-19,863	0,108	0,048
-509,014	-200,000	-0,006	-0,044
-507,999	-42,654	0,088	-0,032
-506,985	215,501	-0,085	-0,097
-505,970	327,094	-0,049	0,067
-504,956	127,146	0,048	0,044
-503,941	668,549	0,015	0,028
-502,926	188,045	0,130	-0,140
-501,912	-200,000	0,037	-0,126
-500,897	693,131	-0,040	-0,075
-499,883	-45,865	0,036	0,013
-498,868	192,618	-0,044	0,048
-497,853	10,593	0,071	0,039
-496,839	-70,494	-0,046	-0,012
-495,824	-38,933	0,059	-0,022
-494,810	123,109	0,073	0,065
-493,795	97,831	-0,085	0,070
-492,781	104,601	-0,102	-0,087
-491,766	188,981	-0,160	-0,172
-490,751	800,000	0,104	-0,211
-489,737	299,593	-0,027	-0,036
-488,722	-200,000	0,035	0,112
-487,708	800,000	0,026	0,077
-486,693	167,212	-0,049	0,050
-485,678	-200,000	0,007	-0,063
-484,664	800,000	-0,046	-0,114
-483,649	-23,977	-0,089	0,038
-482,635	-200,000	-0,002	0,032
-481,620	-108,725	-0,020	0,003
-480,605	800,000	-0,056	0,147
-479,591	-57,425	0,096	-0,030
-478,576	-167,693	-0,039	-0,001
-477,562	448,725	-0,039	0,061
-476,547	-140,452	0,099	-0,007
-475,532	-77,487	-0,065	-0,016
-474,518	800,000	0,005	-0,011
-473,503	-200,000	0,013	0,070
-472,489	-200,000	-0,000	0,069
-471,474	-200,000	-0,009	0,079
-470,459	274,268	0,007	0,009
-469,445	182,844	-0,074	-0,078
-468,430	-14,936	0,013	0,006
-467,416	57,900	0,124	0,087
-466,401	800,000	0,067	0,174
-465,386	649,676	0,027	0,050
-464,372	175,979	0,109	0,113
-463,357	-200,000	-0,018	-0,095
-462,343	718,158	0,015	-0,028
-461,328	123,713	-0,081	-0,073
-460,313	-16,608	0,077	-0,035
-459,299	-60,381	-0,050	0,015
-458,284	135,203	-0,097	0,091
-457,270	7,841	0,056	-0,030
-456,255	-200,000	0,031	-0,135
-455,241	351,527	0,051	-0,073
-454,226	-78,955	0,167	-0,041
-453,211	-105,151	-0,138	0,022
-452,197	139,933	-0,051	0,048
-451,182	9,912	-0,019	-0,011
-450,168	800,000	-0,017	0,036
-449,153	195,369	-0,085	0,093
-448,138	608,374	-0,057	-0,102
-447,124	312,050	-0,058	-0,078
-446,109	740,700	0,007	0,013
-445,095	111,213	0,094	0,081
-444,080	145,075	-0,113	0,109
-443,065	106,754	-0,074	0,063
-442,051	-109,118	0,140	-0,021
-441,036	-39,878	-0,126	-0,047
-440,022	137,299	0,085	-0,080
-439,007	28,295	-0,050	0,030
-437,992	-200,000	-0,009	0,076
-436,978	23,202	0,066	0,039
-435,963	-200,000	-0,013	0,233
-434,949	-39,273	0,065	0,024
-433,934	534,944	0,023	0,040
-432,919	-102,979	-0,117	0,020
-431,905	-110,442	0,026	0,004
-430,890	132,592	-0,046	-0,042
-429,876	43,735	0,107	-0,070
-428,861	-137,022	-0,062	-0,005
-427,846	-102,380	0,061	0,010
-426,832	-200,000	0,031	-0,145
-425,817	-47,275	-0,069	0,024
-424,803	24,871	-0,082	-0,049
-423,788	280,610	0,128	0,165
-422,773	-200,000	0,006	0,029
-421,759	-200,000	0,036	0,150
-420,744	234,116	-0,034	0,040
-419,730	114,933	-0,075	-0,065
-418,715	-200,000	0,097	0,000
-417,701	-200,000	-0,004	0,032
-416,686	-200,000	0,032	0,116
-415,671	-26,209	0,045	-0,019
-414,657	-181,012	-0,021	0,000
-413,642	-200,000	0,007	-0,036
-412,628	91,739	-0,066	-0,053
-411,613	499,024	-0,044	-0,072
-410,598	-200,000	0,016	-0,183
-409,584	-200,000	0,010	-0,037
-408,569	800,000	-0,025	0,056
-407,555	-128,626	0,065	-0,006
-406,540	-132,169	0,139	0,013
-405,525	-111,547	-0,098	-0,014
-404,511	95,485	0,051	-0,042
-403,496	220,802	-0,095	0,109
-402,482	800,000	-0,011	0,033
-401,467	800,000	0,076	0,185
-400,452	-150,569	0,113	-0,006
-399,438	800,000	-0,050	0,105
-398,423	-76,379	0,075	-0,019
-397,409	-90,042	-0,062	0,013
-396,394	800,000	0,020	0,046
-395,379	-25,701	0,182	-0,076
-394,365	-164,195	0,028	-0,001
-393,350	528,254	-0,030	0,050
-392,336	-200,000	-0,000	0,088
-391,321	-200,000	0,036	-0,114
-390,306	515,734	0,079	-0,132
-389,292	-105,264	0,060	-0,010
-388,277	127,467	0,045	0,041
-387,263	249,756	-0,032	0,039
-386,248	-200,000	0,015	0,065
-385,233	-29,177	-0,051	-0,021
-384,219	0,433	-0,073	-0,037
-383,204	672,747	-0,035	-0,066
-382,190	-9,740	0,085	-0,040
-381,175	79,608	0,143	-0,109
-380,160	104,344	0,075	-0,063
-379,146	-6,919	-0,057	0,028
-378,131	800,000	0,030	0,072
-377,117	94,445	-0,209	0,169
-376,102	-64,033	0,045	0,013
-375,088	81,479	-0,064	-0,050
-374,073	-200,000	0,058	0,000
-373,058	-7,232	0,065	0,032
-372,044	218,619	0,120	0,137
-371,029	142,147	0,061	-0,058
-370,015	492,527	0,035	-0,058
-369,000	103,583	0,088	0,074
-367,985	-168,625	-0,042	-0,001
-366,971	58,327	-0,039	0,028
-365,956	-96,826	0,102	0,019
-364,942	389,089	0,093	0,138
-363,927	-119,095	-0,069	-0,009
-362,912	-200,000	0,000	0,118
-361,898	8,956	0,096	0,052
-360,883	-64,153	-0,013	-0,004
-359,869	800,000	0,025	-0,051
-358,854	-128,191	0,124	0,013
-357,839	-200,000	0,062	0,247
-356,825	526,577	-0,079	0,133
-355,810	87,719	0,082	0,065
-354,796	-58,094	-0,111	0,034
-353,781	800,000	-0,025	0,072
-352,766	-200,000	0,007	-0,070
-351,752	90,159	0,095	-0,076
-350,737	-4,363	0,035	-0,017
-349,723	294,837	0,078	0,102
-348,708	137,817	-0,070	0,066
-347,693	6,060	0,144	-0,076
-346,679	-72,304	-0,050	-0,013
-345,664	-200,000	0,029	-0,174
-344,650	800,000	-0,024	-0,065
-343,635	-200,000	0,002	-0,091
-342,620	154,564	-0,073	0,071
-341,606	589,797	-0,047	0,083
-340,591	800,000	-0,040	-0,094
-339,577	142,206	0,112	-0,106
-338,562	-200,000	-0,014	-0,107
-337,548	-49,728	0,172	0,058
-336,533	296,760	-0,055	0,072
-335,518	490,460	-0,019	0,031
-334,504	-9,996	0,124	0,059
-333,489	310,779	-0,024	-0,032
-332,475	221,900	-0,078	0,090
-331,460	-200,000	-0,050	0,161
-330,445	64,201	-0,150	-0,107
-329,431	427,595	0,072	0,112
-328,416	-12,949	-0,043	0,020
-327,402	800,000	0,023	0,050
-326,387	99,799	0,030	0,025
-325,372	366,564	-0,019	-0,028
-324,358	64,109	0,039	0,028
-323,343	-200,000	-0,014	-0,072
-322,329	800,000	-0,021	-0,043
-321,314	562,114	0,027	0,047
-320,299	266,427	0,090	0,112
-319,285	-72,042	0,147	-0,039
-318,270	-104,494	-0,080	-0,013
-317,256	800,000	0,039	-0,091
-316,241	-200,000	0,008	-0,050
-315,226	217,937	0,064	-0,073
-314,212	-148,012	-0,105	0,006
-313,197	-67,652	-0,043	0,012
-312,183	72,976	-0,058	0,043
-311,168	356,562	-0,046	-0,066
-310,153	35,588	-0,192	-0,120
-309,139	602,381	-0,025	0,044
-308,124	258,926	0,081	0,100
-307,110	107,800	-0,029	0,025
-306,095	-106,478	0,052	0,008
-305,080	-61,709	-0,081	0,024
-304,066	436,276	-0,005	-0,008
-303,051	167,106	-0,054	0,054
-302,037	-200,000	0,001	0,008
-301,022	130,760	0,047	0,043
-300,008	-146,628	0,043	-0,003
-298,993	-76,036	0,054	0,013
-297,978	800,000	-0,047	0,098
-296,964	-200,000	0,005	0,046
-295,949	-200,000	-0,001	-0,092
-294,935	-200,000	-0,038	-0,159
-293,920	105,664	-0,012	0,010
-292,905	-117,107	-0,065	0,008
-291,891	109,319	-0,031	0,027
-290,876	-16,799	-0,007	-0,003
-289,862	-200,000	0,002	-0,009
-288,847	-200,000	-0,008	0,050
-287,832	-142,236	-0,112	-0,008
-286,818	10,831	0,013	-0,007
-285,803	-200,000	-0,002	0,072
-284,789	0,131	0,129	0,065
-283,774	-200,000	-0,005	0,152
-282,759	332,505	0,068	-0,094
-281,745	451,132	0,041	-0,065
-280,730	92,609	-0,112	-0,090
-279,716	3,797	0,094	0,049
-278,701	-42,080	-0,090	-0,033
-277,686	28,773	0,107	-0,064
-276,672	73,298	0,049	-0,037
-275,657	618,240	-0,016	-0,028
-274,643	-24,022	-0,081	-0,034
-273,628	275,594	0,067	-0,084
-272,613	800,000	0,054	-0,149
-271,599	102,739	0,055	0,046
-270,584	800,000	-0,043	0,129
-269,570	-83,895	0,114	0,026
-268,555	-200,000	-0,016	0,094
-267,540	-111,318	-0,087	0,013
-266,526	147,543	-0,103	-0,099
-265,511	189,725	-0,062	0,066
-264,497	-145,881	0,075	-0,005
-263,482	396,825	0,062	0,092
-262,467	64,775	0,155	0,111
-261,453	75,595	-0,116	0,087
-260,438	800,000	0,029	0,069
-259,424	-44,049	-0,110	-0,039
-258,409	800,000	-0,021	0,048
-257,395	-1,274	0,123	-0,062
-256,380	-200,000	-0,021	0,091
-255,365	-146,074	-0,015	0,001
-254,351	-200,000	0,002	-0,021
-253,336	800,000	0,036	-0,085
-252,322	770,639	-0,023	-0,045
-251,307	-200,000	-0,022	-0,091
-250,292	-72,953	-0,029	0,008
-249,278	800,000	0,036	0,103
-248,263	529,453	0,024	0,040
-247,249	173,845	0,013	0,013
-246,234	3,638	0,135	-0,070
-245,219	-103,714	0,024	-0,004
-244,205	-200,000	0,003	-0,026
-243,190	740,076	0,056	0,107
-242,176	-90,963	0,172	0,035
-241,161	131,767	-0,022	-0,020
-240,146	169,794	-0,084	0,085
-239,132	-32,687	-0,004	-0,002
-238,117	117,072	-0,036	0,031
-237,103	-26,932	0,104	-0,043
-236,088	73,143	0,081	-0,061
-235,073	800,000	0,042	0,103
-234,059	-200,000	-0,020	0,083
-233,044	-200,000	-0,004	0,052
-232,030	-21,276	-0,082	0,035
-231,015	146,933	-0,059	0,056
-230,000	800,000	-0,057	-0,127
-228,986	352,406	0,019	-0,026
-227,971	-200,000	-0,008	-0,040
-226,957	-200,000	-0,010	-0,043
-225,942	-84,707	0,080	0,018
-224,927	58,302	-0,079	0,055
-223,913	-117,427	-0,119	0,015
-222,898	179,899	-0,063	-0,065
-221,884	-118,246	0,007	-0,001
-220,869	-77,553	0,011	0,003
-219,855	-200,000	-0,036	0,130
-218,840	208,643	-0,075	0,083
-217,825	800,000	-0,020	0,053
-216,811	-69,756	-0,084	0,023
-215,796	37,011	0,015	-0,009
-214,782	-66,415	-0,008	-0,002
-213,767	76,747	0,067	-0,051
-212,752	-200,000	0,002	0,080
-211,738	800,000	-0,060	0,179
-210,723	65,090	0,120	-0,086
-209,709	7,465	-0,054	-0,029
-208,694	17,769	0,039	-0,022
-207,679	37,577	-0,097	-0,061
-206,665	-200,000	0,016	-0,069
-205,650	-27,727	0,069	0,028
-204,636	-26,000	-0,020	-0,008
-203,621	-29,836	-0,082	-0,033
-202,606	107,056	-0,092	0,078
-201,592	-149,472	0,083	0,005
-200,577	2,013	-0,064	-0,033
-199,563	-200,000	-0,016	-0,066
-198,548	800,000	-0,044	-0,121
-197,533	40,942	0,093	-0,060
-196,519	-200,000	0,009	-0,039
-195,504	800,000	-0,015	0,041
-194,490	-200,000	-0,031	-0,117
-193,475	65,018	0,071	-0,051
-192,460	320,397	0,035	0,048
-191,446	218,559	0,050	0,056
-190,431	484,600	-0,055	-0,089
-189,417	183,504	-0,074	0,078
-188,402	-200,000	0,046	0,205
-187,387	-54,411	-0,115	-0,037
-186,373	69,358	-0,115	-0,084
-185,358	48,401	-0,050	0,033
-184,344	-62,356	0,078	0,023
-183,329	38,095	-0,083	0,052
-182,315	650,879	0,027	0,050
-181,300	500,107	-0,071	0,116
-180,285	39,715	-0,016	-0,010
-179,271	154,709	-0,100	-0,098
-178,256	12,892	-0,040	-0,022
-177,242	-104,623	0,033	-0,005
-176,227	800,000	-0,018	0,042
-175,212	91,125	0,062	0,049
-174,198	-200,000	-0,011	-0,036
-173,183	-115,752	-0,035	-0,005
-172,169	241,112	-0,055	-0,065
-171,154	3,826	-0,130	-0,067
-170,139	77,095	0,186	0,140
-169,125	-200,000	-0,005	0,101
-168,110	140,135	0,088	0,082
-167,096	603,798	0,035	0,062
-166,081	85,924	-0,118	-0,092
-165,066	75,770	0,060	0,045
-164,052	-13,973	-0,046	-0,021
-163,037	200,763	-0,078	-0,085
-162,023	294,327	0,043	-0,055
-161,008	-200,000	-0,011	0,143
-159,993	-73,493	0,172	-0,044
-158,979	117,254	0,008	0,007
-157,964	268,759	-0,074	-0,092
-156,950	-147,150	-0,162	-0,010
-155,935	-63,084	-0,129	-0,037
-154,920	107,889	0,090	-0,076
-153,906	-200,000	-0,017	0,107
-152,891	71,708	-0,055	0,041
-151,877	-200,000	-0,041	-0,132
-150,862	-200,000	-0,029	-0,107
-149,847	61,254	-0,035	-0,025
-148,833	124,941	0,012	-0,011
-147,818	-106,767	0,152	0,024
-146,804	-113,375	0,127	0,017
-145,789	800,000	0,055	-0,153
-144,775	-200,000	0,035	-0,149
-143,760	660,743	0,077	-0,141
-142,745	800,000	0,005	0,014
-141,731	-81,095	-0,107	-0,025
-140,716	-200,000	0,021	0,076
-139,702	131,902	0,039	-0,036
-138,687	-165,174	0,050	-0,002
-137,672	800,000	-0,063	0,187
-136,658	800,000	-0,071	0,144
-135,643	123,608	-0,024	-0,021
-134,629	477,097	-0,043	0,070
-133,614	800,000	0,044	0,121
-132,599	-200,000	0,018	0,113
-131,585	229,723	0,044	0,051
-130,570	-135,742	0,190	0,016
-129,556	54,950	-0,150	-0,102
-128,541	24,791	-0,135	-0,079
-127,526	-64,891	-0,091	-0,026
-126,512	800,000	-0,023	-0,060
-125,497	24,019	0,130	0,076
-124,483	-54,403	0,044	0,014
-123,468	-4,001	0,030	-0,015
-122,453	523,857	-0,070	-0,117
-121,439	35,688	-0,112	-0,070
-120,424	-59,380	-0,081	-0,024
-119,410	-200,000	-0,010	0,081
-118,395	63,364	0,083	0,059
-117,380	88,960	-0,072	0,057
-116,366	8,719	0,017	-0,009
-115,351	-98,222	-0,133	-0,024
-114,337	-139,329	-0,049	0,004
-113,322	501,801	0,019	-0,030
-112,307	296,420	0,067	0,087
-111,293	11,178	0,037	-0,020
-110,278	-200,000	-0,026	0,176
-109,264	800,000	0,019	-0,038
-108,249	387,258	-0,085	-0,124
-107,234	6,760	-0,126	-0,066
-106,220	468,015	0,056	0,089
-105,205	-180,131	0,061	-0,001
-104,191	271,826	-0,022	-0,028
-103,176	41,607	-0,076	0,049
-102,162	-46,582	0,036	0,012
-101,147	46,838	-0,073	-0,048
-100,132	543,715	-0,035	-0,060
-99,118	-200,000	-0,029	-0,128
-98,103	-13,054	0,015	-0,007
-97,089	-33,953	-0,157	-0,061
-96,074	269,401	-0,015	-0,019
-95,059	75,204	-0,056	-0,042
-94,045	11,947	-0,004	-0,002
-93,030	16,589	0,057	0,032
-92,016	92,910	-0,124	-0,099
-91,001	-200,000	0,003	0,207
-89,986	-55,461	0,035	-0,011
-88,972	-12,640	0,062	-0,029
-87,957	240,831	-0,067	-0,079
-86,943	800,000	-0,075	-0,151
-85,928	272,767	-0,028	-0,035
-84,913	-200,000	-0,008	-0,178
-83,899	371,698	0,017	0,025
-82,884	-200,000	-0,024	0,108
-81,870	-17,964	0,104	-0,046
-80,855	156,020	-0,023	-0,023
-79,840	-168,021	0,055	0,001
-78,826	-126,182	-0,153	-0,016
-77,811	-131,028	-0,074	0,007
-76,797	318,884	-0,061	0,081
-75,782	163,754	-0,101	0,101
-74,767	-90,182	0,073	0,015
-73,753	-200,000	0,023	0,073
-72,738	800,000	-0,024	0,049
-71,724	800,000	0,092	0,189
-70,709	84,962	-0,037	0,029
-69,694	-102,239	-0,138	-0,023
-68,680	-127,955	0,102	0,010
-67,665	-57,056	0,027	-0,008
-66,651	99,776	0,030	-0,024
-65,636	-200,000	-0,034	-0,126
-64,622	-126,595	0,081	-0,008
-63,607	67,414	-0,123	-0,089
-62,592	348,252	0,073	-0,102
-61,578	-58,443	0,029	0,009
-60,563	82,060	0,050	0,038
-59,549	90,999	-0,068	0,054
-58,534	37,630	-2,007	-1,255
-57,519	460,546	-1,205	-1,901
-56,505	-200,000	-0,363	-4,245
-55,490	625,411	0,807	1,444
-54,476	800,000	4,996	11,075
-53,461	-200,000	21,385	342,497
-52,446	800,000	762,132	2365,726
-51,432	559,069	1664,189	2846,525
-50,417	73,288	1660,921	1225,069
-49,403	17,859	1534,633	860,212
-48,388	11,773	1458,481	788,083
-47,373	19,445	1449,478	820,001
-46,359	15,270	1438,783	794,066
-45,344	10,029	1434,511	766,718
-44,330	9,973	1432,826	765,523
-43,315	9,996	1430,786	764,511
-42,300	10,016	1428,966	763,604
-41,286	10,038	1427,924	763,118
-40,271	9,967	1426,772	762,135
-39,257	9,931	1425,543	761,280
-38,242	9,997	1424,426	760,965
-37,227	10,028	1423,259	760,457
-36,213	10,003	1422,052	759,664
-35,198	10,019	1420,789	759,038
-34,184	10,060	1419,913	758,731
-33,169	9,968	1418,588	757,559
-32,154	10,024	1417,474	757,200
-31,140	10,029	1416,310	756,569
-30,125	10,123	1414,930	756,244
-29,111	10,046	1413,945	755,325
-28,096	9,997	1412,879	754,499
-27,082	9,986	1411,633	753,752
-26,067	9,941	1410,652	752,984
-25,052	9,973	1409,631	752,559
-24,038	10,016	1408,469	752,113
-23,023	9,960	1407,796	751,463
-22,009	9,941	1406,619	750,715
-20,994	9,962	1405,611	750,242
-19,979	9,951	1404,847	749,756
-18,965	9,932	1403,881	749,119
-17,950	9,941	1402,634	748,466
-16,936	9,942	1401,970	748,087
-15,921	9,837	1401,137	747,126
-14,906	9,849	1400,304	746,706
-13,892	9,964	1398,999	746,515
-12,877	9,879	1398,277	745,709
-11,863	9,880	1397,495	745,263
-10,848	9,837	1396,584	744,549
-9,833	9,810	1395,915	744,040
-8,819	9,793	1394,868	743,373
-7,804	9,784	1394,000	742,839
-6,790	9,810	1392,990	742,392
-5,775	9,797	1391,705	741,615
-4,760	9,817	1390,583	741,082
-3,746	9,792	1389,765	740,502
-2,731	9,761	1389,163	740,008
-1,717	9,735	1388,409	739,455
-0,702	9,756	1386,379	738,442
0,313	13,914	1299,059	710,918
1,327	30,283	689,505	414,411
2,342	47,317	119,108	78,121
3,356	-0,687	16,412	8,180
4,371	2,791	3,544	1,808
5,386	1,848	1,024	0,519
6,400	800,000	0,258	0,636
7,415	-101,226	-0,260	-0,044
8,429	27,156	-0,330	-0,195
9,444	24,822	-0,327	-0,190
10,459	-114,353	-0,209	-0,028
11,473	79,375	-0,189	-0,142
12,488	-104,676	-0,341	-0,055
13,502	64,195	-0,317	-0,225
14,517	18,444	-0,326	-0,183
15,531	27,721	-0,333	-0,197
16,546	80,477	-0,315	-0,239
17,561	166,527	-0,325	-0,325
18,575	-27,724	-0,101	0,041
19,590	193,836	-0,270	-0,289
20,604	252,184	-0,104	-0,125
21,619	244,303	-0,346	-0,410
22,634	62,298	-0,462	-0,325
23,648	40,414	-0,574	-0,363
24,663	-3,340	-0,297	-0,145
25,677	25,981	-0,424	-0,249
26,692	184,074	-0,280	-0,292
27,707	184,366	-0,284	-0,296
28,721	152,296	-0,326	-0,314
29,736	-18,837	-0,421	-0,184
30,750	-41,178	-0,326	-0,118
31,765	-7,988	-0,417	-0,197
32,780	91,059	-0,284	-0,224
33,794	129,433	-0,339	-0,304
34,809	437,669	-0,169	-0,260
35,823	102,177	-0,387	-0,318
36,838	45,450	-0,315	-0,204
37,853	172,248	-0,306	-0,310
38,867	15,248	-0,460	-0,253
39,882	84,047	-0,318	-0,244
40,896	240,397	-0,315	-0,370
41,911	75,880	-0,228	-0,169
42,926	21,081	-0,396	-0,225
43,940	64,496	-0,430	-0,304
44,955	134,894	-0,335	-0,305
45,969	46,110	-0,309	-0,201
46,984	-61,634	-0,330	-0,097
47,999	155,421	-0,221	-0,213
49,013	-35,189	-0,301	-0,115
50,028	35,399	-0,318	-0,195
51,042	67,278	-0,434	-0,310
52,057	54,916	-0,394	-0,267
53,071	138,359	-0,321	-0,296
54,086	330,244	-0,203	-0,275
55,101	54,229	-0,194	-0,131
56,115	31,144	-0,416	-0,250
57,130	-33,415	-0,413	-0,160
58,144	62,494	-0,351	-0,246
59,159	43,537	-0,498	-0,319
60,174	21,140	-0,370	-0,210
61,188	59,778	-0,304	-0,210
62,203	-47,587	-0,444	-0,151
63,217	-61,046	-0,400	-0,118
64,232	22,245	-0,303	-0,173
65,247	-18,482	-0,344	-0,150
66,261	34,751	-0,255	-0,156
67,276	361,528	-0,213	-0,301
68,290	134,836	-0,258	-0,235
69,305	28,370	-0,285	-0,169
70,320	159,100	-0,210	-0,205
71,334	-66,346	-0,288	0,080
72,349	16,100	-0,386	-0,213
73,363	128,647	-0,292	-0,261
74,378	0,657	-0,409	-0,204
75,393	-71,645	-0,330	-0,086
76,407	-18,910	-0,268	-0,116
77,422	221,659	-0,183	-0,206
78,436	12,723	-0,349	-0,188
79,451	-200,000	-0,053	-0,186
80,466	-17,057	-0,279	-0,123
81,480	56,004	-0,306	-0,208
82,495	-46,002	-0,360	-0,124
83,509	25,156	-0,303	-0,176
84,524	-53,251	-0,237	-0,076
85,539	-31,976	-0,460	-0,179
86,553	800,000	-0,157	-0,309
87,568	59,672	-0,382	-0,263
88,582	6,848	-0,275	-0,143
89,597	-2,155	-0,251	-0,123
90,611	232,757	-0,284	-0,327
91,626	117,919	-0,200	-0,173
92,641	-111,335	-0,321	-0,045
93,655	160,745	-0,328	-0,321
94,670	145,519	-0,279	-0,262
95,684	167,098	-0,192	-0,191
96,699	115,027	-0,309	-0,264
97,714	197,731	-0,297	-0,318
98,728	-46,092	-0,190	-0,065
99,743	79,802	-0,241	-0,181
100,757	37,393	-0,381	-0,236
101,772	54,233	-0,346	-0,232
102,787	-32,454	-0,354	-0,137
103,801	109,538	-0,278	-0,233
104,816	192,969	-0,138	-0,146
105,830	-117,873	-0,238	-0,029
106,845	-66,680	-0,167	-0,046
107,860	623,768	-0,119	-0,210
108,874	48,392	-0,281	-0,183
109,889	102,850	-0,248	-0,203
110,903	101,506	-0,230	-0,187
111,918	1,992	-0,336	-0,169
112,933	84,343	-0,221	-0,169
113,947	18,906	-0,292	-0,163
114,962	96,744	-0,225	-0,180
115,976	70,775	-0,253	-0,183
116,991	70,583	-0,257	-0,185
118,006	88,828	-0,345	-0,268
119,020	85,728	-0,203	-0,156
120,035	-85,765	-0,152	-0,033
121,049	-130,378	-0,266	-0,025
122,064	126,732	-0,191	-0,169
123,079	10,615	-0,326	-0,173
124,093	13,017	-0,389	-0,209
125,108	196,127	-0,219	-0,233
126,122	-32,897	-0,215	-0,083
127,137	271,546	-0,062	-0,076
128,151	-49,521	-0,115	-0,038
129,166	-157,151	-0,283	-0,012
130,181	-14,580	-0,241	-0,107
131,195	-10,482	-0,404	-0,186
132,210	129,925	-0,348	-0,311
133,224	192,592	-0,260	-0,275
134,239	217,718	-0,116	-0,129
135,254	-99,046	-0,291	-0,051
136,268	117,016	-0,222	-0,190
137,283	93,147	-0,179	-0,141
138,297	-10,189	-0,225	-0,104
139,312	205,489	-0,272	-0,295
140,327	168,056	-0,222	-0,220
141,341	46,496	-0,195	-0,126
142,356	321,961	-0,244	-0,324
143,370	-29,124	-0,355	-0,141
144,385	115,427	-0,233	-0,198
145,400	81,133	-0,217	-0,163
146,414	63,307	-0,319	-0,223
147,429	114,760	-0,353	-0,300
148,443	320,148	-0,243	-0,323
149,458	26,276	-0,145	-0,084
150,473	-15,097	-0,258	-0,115
151,487	-57,278	-0,197	-0,060
152,502	290,530	-0,110	-0,140
153,516	133,022	-0,206	-0,185
154,531	-80,467	-0,316	-0,073
155,546	77,600	-0,291	-0,215
156,560	162,904	-0,179	-0,175
157,575	95,761	-0,277	-0,220
158,589	102,194	-0,309	-0,251
159,604	135,394	-0,143	-0,130
160,619	237,218	-0,205	-0,237
161,633	84,015	-0,291	-0,221
162,648	174,607	-0,156	-0,157
163,662	-117,463	-0,175	-0,022
164,677	-27,031	-0,146	-0,059
165,692	492,464	-0,161	-0,257
166,706	115,945	-0,285	-0,243
167,721	42,810	-0,172	-0,109
168,735	52,536	-0,225	-0,149
169,750	78,363	-0,280	-0,208
170,764	38,191	-0,340	-0,210
171,779	319,984	-0,172	-0,228
172,794	60,519	-0,213	-0,146
173,808	148,066	-0,187	-0,175
174,823	-42,320	-0,291	-0,103
175,837	4,069	-0,277	-0,140
176,852	152,571	-0,112	-0,106
177,867	12,133	-0,272	-0,145
178,881	89,432	-0,201	-0,156
179,896	-190,828	-0,308	-0,002
180,910	-58,497	-0,265	-0,079
181,925	9,065	-0,242	-0,126
182,940	275,249	-0,233	-0,288
183,954	312,361	-0,180	-0,235
184,969	159,469	-0,201	-0,194
185,983	81,005	-0,268	-0,200
186,998	-41,420	-0,323	-0,115
188,013	-124,864	-0,266	-0,028
189,027	-56,658	-0,232	-0,071
190,042	216,716	-0,166	-0,183
191,056	-58,795	-0,197	-0,059
192,071	-84,843	-0,226	-0,049
193,086	-82,056	-0,354	-0,079
194,100	-28,719	-0,172	-0,068
195,115	56,993	-0,237	-0,160
196,129	-41,212	-0,216	-0,077
197,144	-18,238	-0,278	-0,120
198,159	27,257	-0,290	-0,169
199,173	228,552	-0,184	-0,208
200,188	208,713	-0,171	-0,185
201,202	39,166	-0,286	-0,177
202,217	377,230	-0,121	-0,171
203,232	111,061	-0,211	-0,176
204,246	27,698	-0,288	-0,168
205,261	99,006	-0,118	-0,094
206,275	-61,702	-0,221	-0,064
207,290	237,290	-0,092	-0,106
208,304	-33,661	-0,308	-0,117
209,319	55,862	-0,163	-0,109
210,334	800,000	-0,091	-0,190
211,348	800,000	-0,125	-0,243
212,363	138,400	-0,266	-0,242
213,377	-160,656	-0,295	0,011
214,392	105,672	-0,230	-0,188
215,407	561,546	-0,096	-0,162
216,421	-200,000	0,010	-0,255
217,436	173,724	-0,133	-0,133
218,450	96,973	-0,220	-0,175
219,465	1,251	-0,201	-0,100
220,480	800,000	-0,063	-0,130
221,494	331,763	-0,139	-0,186
222,509	59,030	-0,133	0,091
223,523	-96,346	-0,070	0,013
224,538	15,003	-0,161	-0,087
225,553	800,000	-0,143	-0,281
226,567	252,357	-0,139	-0,164
227,582	-16,105	-0,165	-0,072
228,596	773,588	-0,126	-0,239
229,611	-22,530	-0,094	-0,039
230,626	646,878	-0,064	-0,114
231,640	-118,250	-0,234	-0,028
232,655	112,926	-0,266	-0,222
233,669	90,610	-0,336	-0,260
234,684	800,000	-0,043	-0,118
235,699	125,755	-0,142	-0,124
236,713	168,996	-0,102	-0,101
237,728	567,076	-0,138	-0,233
238,742	775,317	-0,127	-0,240
239,757	37,804	-0,312	-0,191
240,772	-0,919	-0,230	-0,112
241,786	-132,970	-0,320	0,028
242,801	299,499	-0,126	-0,161
243,815	28,447	-0,208	-0,121
244,830	109,718	-0,160	-0,132
245,844	159,302	-0,184	-0,176
246,859	357,228	-0,221	-0,306
247,874	252,451	-0,263	-0,310
248,888	186,328	-0,129	-0,133
249,903	82,029	-0,126	-0,094
250,917	-83,676	-0,173	-0,038
251,932	387,227	-0,047	-0,067
252,947	107,808	-0,153	-0,126
253,961	800,000	-0,085	-0,211
254,976	-168,352	-0,194	0,005
255,990	6,368	-0,103	-0,053
257,005	15,994	-0,191	-0,103
258,020	800,000	-0,138	-0,279
259,034	-3,664	-0,135	-0,064
260,049	800,000	-0,052	-0,154
261,063	51,497	-0,194	0,127
262,078	-64,112	-0,163	-0,045
263,093	39,079	-0,251	-0,155
264,107	86,261	-0,177	-0,134
265,122	725,025	-0,083	-0,153
266,136	-111,395	-0,155	-0,022
267,151	-72,670	-0,199	-0,050
268,166	-40,208	-0,114	-0,041
269,180	-24,548	-0,230	-0,094
270,195	36,621	-0,299	-0,182
271,209	800,000	-0,100	-0,241
272,224	190,027	-0,147	-0,153
273,239	-40,827	-0,235	0,083
274,253	109,936	-0,195	-0,161
275,268	-85,821	-0,136	-0,029
276,282	175,999	-0,159	-0,159
277,297	800,000	-0,099	-0,193
278,312	81,212	-0,119	-0,088
279,326	-131,836	-0,121	-0,011
280,341	129,296	-0,083	0,073
281,355	-200,000	-0,037	-0,191
282,370	-93,378	-0,147	0,028
283,384	78,390	-0,168	-0,123
284,399	-43,595	-0,222	-0,077
285,414	800,000	-0,095	-0,223
286,428	189,292	-0,199	-0,206
287,443	6,628	-0,112	-0,057
288,457	165,336	-0,164	-0,159
289,472	-25,102	-0,241	-0,098
290,487	62,003	-0,122	-0,083
291,501	133,869	-0,208	-0,185
292,516	-58,284	-0,116	-0,035
293,530	291,370	-0,125	-0,157
294,545	69,478	-0,100	-0,071
295,560	133,731	-0,106	-0,094
296,574	-90,067	-0,118	-0,023
297,589	-74,881	-0,092	0,022
298,603	-26,918	-0,177	-0,071
299,618	-90,872	-0,187	-0,037
300,633	635,862	-0,117	-0,206
301,647	220,319	-0,085	0,094
302,662	84,346	-0,197	-0,148
303,676	52,140	-0,103	-0,068
304,691	-200,000	-0,013	-0,124
305,706	-66,733	-0,170	-0,046
306,720	-105,995	-0,176	-0,027
307,735	472,837	-0,081	-0,126
308,749	-44,820	-0,118	0,040
309,764	78,069	-0,151	-0,111
310,779	800,000	-0,078	-0,169
311,793	131,911	-0,122	-0,108
312,808	-78,113	-0,122	-0,029
313,822	-200,000	-0,019	-0,296
314,837	78,362	-0,073	0,054
315,852	54,148	-0,169	-0,111
316,866	800,000	-0,072	-0,181
317,881	68,392	-0,187	-0,131
318,895	355,183	-0,143	-0,196
319,910	-81,031	-0,179	-0,040
320,925	129,245	-0,115	-0,101
321,939	-49,535	-0,218	-0,071
322,954	-96,510	-0,093	0,017
323,968	-93,983	-0,145	-0,027
324,983	5,701	-0,160	-0,081
325,997	800,000	-0,023	-0,066
327,012	800,000	-0,128	-0,256
328,027	336,049	-0,234	-0,311
329,041	586,474	-0,121	-0,205
330,056	800,000	-0,042	-0,085
331,070	160,954	-0,091	-0,087
332,085	800,000	-0,075	-0,149
333,100	119,170	-0,123	-0,104
334,114	69,110	-0,216	-0,152
335,129	356,038	-0,083	-0,114
336,143	428,868	-0,069	0,102
337,158	104,071	-0,146	-0,118
338,173	-54,962	-0,103	-0,032
339,187	800,000	-0,102	-0,246
340,202	50,937	-0,127	-0,083
341,216	150,585	-0,184	-0,171
342,231	146,658	-0,184	-0,170
343,246	128,128	-0,082	-0,072
344,260	151,437	-0,081	-0,076
345,275	-102,684	-0,188	-0,030
346,289	118,255	-0,055	-0,047
347,304	100,348	-0,160	-0,127
348,319	88,457	-0,140	-0,107
349,333	27,770	-0,294	-0,169
350,348	800,000	-0,059	-0,116
351,362	800,000	-0,045	-0,124
352,377	-2,948	-0,064	-0,030
353,392	-6,939	-0,063	0,029
354,406	-49,543	-0,168	-0,054
355,421	208,053	1308,913	1400,314
356,435	160,071	1468,911	1400,787
