DTS Sentinel unit serial number:	SN410029Multiplexer serial number:	ORYXHardware model number:	OX2-SRSoftware version number:	ORYX F/W v4,00 Oryx Data Collector v3.7.2.0data status	okinstallation	B3 Nyhavnadifferential loss correction	single-endedforward channel	channel 1reverse channel	N/Adate	2023/11/30time	10:37:30forward acquisition time	300,00reverse acquisition time	0,00gamma	499,1914k internal	0,3211k external	0,3211temperature offset calibration	1,0000default loss term (dB/km)	0,3820temperature slope calibration	1,0000multiplexer offset coefficient	1,0000multiplexer slope coefficient	1,0000fibre end	0,00T internal ref (°C)	9,56T ext. ref 1 (°C)	-5,50T ext. ref 2 (°C)	-5,61length (m)	temperature (°C)	Stokes	anti-Stokes-744,400	290,497	-0,214	-0,282
-743,385	-200,000	-0,029	0,286
-742,371	370,901	-0,195	-0,288
-741,356	-200,000	0,033	0,387
-740,342	-79,023	-0,168	-0,041
-739,327	800,000	-0,119	0,373
-738,312	-43,127	-0,273	-0,100
-737,298	-200,000	-0,036	0,144
-736,283	96,826	-0,168	-0,139
-735,269	-200,000	-0,010	0,236
-734,254	239,753	-0,120	-0,145
-733,239	-164,820	-0,392	-0,013
-732,225	112,914	-0,148	-0,130
-731,210	-200,000	-0,005	0,042
-730,196	800,000	-0,050	-0,152
-729,181	194,778	0,010	0,011
-728,167	738,920	-0,085	0,166
-727,152	556,535	-0,053	0,094
-726,137	-200,000	-0,039	-0,134
-725,123	-135,989	-0,133	-0,011
-724,108	-200,000	-0,007	-0,090
-723,094	800,000	-0,027	-0,072
-722,079	44,400	-0,089	-0,059
-721,064	179,815	-0,050	-0,053
-720,050	201,006	-0,083	-0,092
-719,035	-200,000	-0,022	-0,082
-718,021	33,544	-0,150	0,094
-717,006	-101,127	-0,135	-0,024
-715,991	-59,783	-0,107	-0,033
-714,977	769,275	-0,064	-0,128
-713,962	800,000	0,021	-0,054
-712,948	-64,383	0,100	0,029
-711,933	-181,786	-0,060	-0,001
-710,918	650,355	-0,038	0,072
-709,904	56,575	0,045	-0,032
-708,889	775,139	-0,017	-0,035
-707,875	7,231	-0,145	-0,078
-706,860	350,752	0,027	0,038
-705,845	-200,000	0,001	0,099
-704,831	-66,579	0,124	-0,035
-703,816	246,909	-0,025	-0,030
-702,802	-109,500	-0,115	-0,017
-701,787	800,000	-0,050	-0,133
-700,772	-108,170	-0,042	-0,006
-699,758	-118,858	-0,060	0,007
-698,743	-177,848	0,185	0,003
-697,729	208,951	0,110	0,125
-696,714	459,986	-0,049	-0,079
-695,699	800,000	0,039	0,120
-694,685	73,385	-0,037	-0,028
-693,670	35,321	-0,012	-0,008
-692,656	-34,809	-0,170	0,067
-691,641	800,000	0,036	0,110
-690,627	137,287	0,077	0,073
-689,612	56,235	-0,113	-0,080
-688,597	-200,000	-0,014	-0,066
-687,583	56,870	-0,039	-0,027
-686,568	3,275	0,033	0,017
-685,554	77,674	-0,107	-0,083
-684,539	282,110	0,126	-0,164
-683,524	534,735	-0,030	0,052
-682,510	800,000	0,069	0,148
-681,495	648,917	0,024	-0,045
-680,481	-7,599	-0,079	-0,038
-679,466	800,000	-0,043	-0,123
-678,451	800,000	-0,029	0,065
-677,437	438,594	0,068	-0,107
-676,422	-200,000	0,003	0,034
-675,408	586,979	0,018	0,032
-674,393	-102,090	-0,085	0,015
-673,378	-16,825	-0,141	0,064
-672,364	36,808	-0,085	0,054
-671,349	-111,671	-0,090	0,013
-670,335	-200,000	-0,012	-0,059
-669,320	-75,425	0,134	0,034
-668,305	63,368	-0,125	0,091
-667,291	-104,749	-0,084	-0,014
-666,276	800,000	-0,030	-0,087
-665,262	-70,967	-0,096	-0,026
-664,247	4,290	0,028	0,015
-663,232	800,000	0,007	-0,017
-662,218	-200,000	-0,008	-0,130
-661,203	-69,227	-0,094	0,026
-660,189	54,917	0,079	0,055
-659,174	107,978	-0,067	-0,057
-658,159	368,035	-0,062	-0,091
-657,145	-80,607	0,098	0,023
-656,130	409,580	-0,051	-0,078
-655,116	-200,000	-0,005	0,099
-654,101	-67,368	-0,191	0,054
-653,086	158,556	0,054	-0,054
-652,072	38,673	-0,088	-0,057
-651,057	-200,000	-0,063	0,000
-650,043	-129,216	0,139	-0,014
-649,028	521,527	0,073	-0,124
-648,014	-91,687	0,056	0,011
-646,999	-200,000	0,030	0,139
-645,984	800,000	0,013	-0,033
-644,970	37,604	0,064	0,041
-643,955	391,776	-0,036	-0,054
-642,941	-200,000	-0,002	-0,110
-641,926	62,831	-0,115	-0,083
-640,911	376,524	-0,033	-0,049
-639,897	800,000	0,067	0,140
-638,882	-81,294	-0,120	0,028
-637,868	-200,000	-0,013	0,056
-636,853	-49,595	-0,061	-0,021
-635,838	800,000	-0,036	-0,098
-634,824	160,119	-0,061	0,061
-633,809	786,813	0,043	0,085
-632,795	274,404	-0,034	-0,044
-631,780	-86,710	0,004	-0,001
-630,765	502,381	0,046	0,077
-629,751	0,329	-0,192	-0,099
-628,736	800,000	-0,047	-0,127
-627,722	28,504	0,053	-0,032
-626,707	-124,166	-0,180	-0,020
-625,692	193,828	0,036	0,039
-624,678	-200,000	0,029	0,143
-623,663	131,820	-0,137	0,127
-622,649	-161,349	-0,084	0,003
-621,634	-200,000	-0,007	-0,034
-620,619	-167,570	-0,098	-0,003
-619,605	-64,030	0,038	-0,011
-618,590	-115,642	0,082	0,011
-617,576	-200,000	0,005	-0,068
-616,561	667,577	0,121	-0,228
-615,546	800,000	0,032	0,073
-614,532	-38,268	0,041	-0,016
-613,517	129,351	0,117	-0,108
-612,503	-70,676	-0,072	-0,019
-611,488	-86,559	0,131	0,029
-610,474	404,993	-0,120	0,183
-609,459	800,000	0,013	0,037
-608,444	-68,030	-0,087	-0,024
-607,430	269,574	-0,073	0,092
-606,415	137,395	0,045	-0,042
-605,401	36,681	-0,117	0,075
-604,386	117,203	-0,042	0,037
-603,371	157,353	0,064	0,064
-602,357	-46,283	-0,069	-0,024
-601,342	175,654	-0,036	-0,038
-600,328	18,682	0,159	-0,092
-599,313	-200,000	-0,089	0,000
-598,298	-127,241	0,091	-0,009
-597,284	800,000	-0,051	0,103
-596,269	800,000	-0,042	0,099
-595,255	800,000	-0,035	0,086
-594,240	-200,000	-0,041	-0,178
-593,225	528,394	-0,034	0,057
-592,211	-0,528	-0,117	-0,060
-591,196	350,166	-0,015	0,022
-590,182	-71,137	-0,031	-0,008
-589,167	-200,000	0,015	-0,120
-588,152	636,645	-0,046	0,084
-587,138	-200,000	0,029	0,109
-586,123	-200,000	0,003	-0,146
-585,109	-36,719	-0,058	0,022
-584,094	-200,000	0,030	0,101
-583,079	6,485	0,135	0,072
-582,065	26,016	0,020	-0,012
-581,050	-30,162	-0,101	-0,041
-580,036	-129,089	0,021	0,002
-579,021	307,191	-0,090	-0,121
-578,006	30,622	0,026	-0,016
-576,992	25,384	0,099	-0,059
-575,977	483,685	0,046	0,075
-574,963	800,000	-0,045	0,124
-573,948	270,947	0,067	0,086
-572,934	-200,000	-0,036	-0,122
-571,919	-54,371	-0,120	-0,039
-570,904	241,811	-0,087	0,105
-569,890	-200,000	0,004	-0,092
-568,875	291,439	0,080	-0,105
-567,861	-3,994	0,082	-0,041
-566,846	280,573	0,045	-0,058
-565,831	538,950	-0,047	0,082
-564,817	-133,346	0,192	-0,017
-563,802	244,608	0,010	0,012
-562,788	800,000	-0,024	0,062
-561,773	22,866	0,142	-0,084
-560,758	800,000	0,066	0,144
-559,744	-41,105	0,063	0,023
-558,729	-97,587	0,083	-0,015
-557,715	-27,268	-0,087	-0,036
-556,700	527,483	0,018	0,031
-555,685	-70,827	0,084	-0,023
-554,671	-200,000	-0,006	0,038
-553,656	800,000	-0,029	0,081
-552,642	-199,971	0,152	-0,001
-551,627	-200,000	0,013	-0,127
-550,612	-61,200	-0,085	-0,026
-549,598	-104,546	-0,114	0,019
-548,583	-200,000	0,105	-0,000
-547,569	20,172	0,081	0,047
-546,554	124,587	-0,032	0,029
-545,539	669,108	0,062	-0,116
-544,525	-200,000	-0,016	0,100
-543,510	-198,625	-0,068	0,000
-542,496	136,941	-0,007	0,007
-541,481	-200,000	-0,019	0,103
-540,466	-115,544	-0,197	-0,026
-539,452	52,617	0,093	0,064
-538,437	324,004	0,021	-0,030
-537,423	-200,000	-0,001	0,111
-536,408	33,830	-0,125	-0,078
-535,393	169,936	-0,038	-0,039
-534,379	-200,000	-0,030	-0,128
-533,364	17,143	0,050	0,028
-532,350	-200,000	-0,000	0,079
-531,335	474,765	0,027	-0,044
-530,321	800,000	-0,031	0,086
-529,306	-119,241	-0,075	-0,009
-528,291	749,157	-0,050	0,098
-527,277	800,000	0,018	-0,051
-526,262	-118,612	-0,146	0,018
-525,248	-200,000	0,016	-0,050
-524,233	-125,523	0,038	-0,004
-523,218	-139,232	-0,148	-0,011
-522,204	33,215	0,033	0,020
-521,189	224,345	0,034	0,040
-520,175	-61,097	0,108	0,033
-519,160	-118,423	-0,120	-0,015
-518,145	-41,803	-0,063	-0,023
-517,131	800,000	-0,028	0,070
-516,116	-200,000	-0,049	-0,210
-515,102	151,663	-0,117	0,115
-514,087	250,861	-0,060	0,073
-513,072	-93,265	-0,046	-0,009
-512,058	248,917	0,076	-0,093
-511,043	-200,000	0,012	-0,081
-510,029	-3,991	0,065	-0,032
-509,014	-200,000	0,021	-0,110
-507,999	-200,000	-0,013	0,060
-506,985	-54,200	0,077	-0,025
-505,970	92,773	-0,087	-0,070
-504,956	-9,845	-0,058	0,028
-503,941	127,148	0,048	-0,043
-502,926	-5,413	0,055	-0,027
-501,912	-200,000	0,002	-0,059
-500,897	35,069	0,015	-0,009
-499,883	159,004	0,115	-0,115
-498,868	29,193	0,051	-0,031
-497,853	-77,174	-0,151	-0,038
-496,839	337,518	0,031	-0,044
-495,824	-166,263	-0,109	0,003
-494,810	24,639	0,096	0,057
-493,795	-149,843	-0,100	0,006
-492,781	-200,000	-0,015	-0,079
-491,766	156,872	-0,049	-0,049
-490,751	655,035	-0,059	-0,109
-489,737	-104,781	0,040	0,007
-488,722	-200,000	0,099	0,000
-487,708	-20,470	0,125	0,055
-486,693	87,763	0,065	0,052
-485,678	-200,000	-0,031	-0,103
-484,664	-37,221	-0,072	0,028
-483,649	438,358	0,045	0,071
-482,635	401,498	0,053	0,081
-481,620	-200,000	-0,021	0,125
-480,605	115,863	0,114	0,100
-479,591	590,389	-0,059	0,104
-478,576	-200,000	0,026	0,099
-477,562	-102,369	-0,146	-0,025
-476,547	9,031	-0,026	-0,014
-475,532	100,400	-0,079	-0,066
-474,518	-12,549	-0,083	-0,039
-473,503	-200,000	0,008	0,116
-472,489	-82,018	0,071	0,016
-471,474	211,010	-0,018	0,021
-470,459	-73,384	-0,137	0,036
-469,445	252,325	-0,099	-0,122
-468,430	-16,356	-0,090	0,041
-467,416	60,466	-0,054	0,038
-466,401	217,872	-0,063	0,072
-465,386	-21,161	-0,074	0,032
-464,372	-200,000	0,013	0,050
-463,357	397,999	-0,047	-0,071
-462,343	-200,000	-0,024	-0,183
-461,328	56,129	0,014	0,010
-460,313	143,571	-0,053	-0,051
-459,299	252,882	-0,049	0,060
-458,284	-165,977	0,092	0,003
-457,270	126,499	0,089	-0,081
-456,255	40,918	-0,137	-0,089
-455,241	-104,056	-0,112	0,019
-454,226	405,291	-0,065	-0,098
-453,211	-200,000	-0,025	0,108
-452,197	800,000	-0,021	-0,064
-451,182	-60,070	0,193	0,059
-450,168	425,551	0,085	0,131
-449,153	-200,000	-0,001	0,074
-448,138	-200,000	0,008	-0,047
-447,124	-76,988	0,092	-0,023
-446,109	388,157	0,017	-0,025
-445,095	409,890	0,065	0,099
-444,080	-140,664	0,069	-0,005
-443,065	-200,000	-0,000	-0,016
-442,051	-200,000	-0,060	-0,190
-441,036	800,000	0,040	-0,098
-440,022	-153,236	0,038	0,002
-439,007	-123,057	-0,004	-0,000
-437,992	800,000	0,017	-0,051
-436,978	-48,384	0,063	0,022
-435,963	99,101	0,061	-0,051
-434,949	43,656	0,118	0,077
-433,934	-36,403	-0,157	-0,060
-432,919	489,931	-0,051	-0,084
-431,905	173,602	0,043	-0,045
-430,890	-53,222	0,123	-0,040
-429,876	-62,003	-0,051	0,015
-428,861	-118,131	-0,091	0,011
-427,846	99,368	0,150	0,124
-426,832	27,409	0,075	-0,045
-425,817	-200,000	-0,038	-0,162
-424,803	7,382	-0,022	-0,012
-423,788	-68,880	0,135	0,037
-422,773	-45,795	0,079	0,028
-421,759	800,000	0,083	0,206
-420,744	-154,152	0,074	-0,004
-419,730	13,945	-0,105	-0,058
-418,715	234,347	-0,079	0,094
-417,701	-124,652	-0,061	-0,007
-416,686	-95,190	0,144	-0,028
-415,671	800,000	-0,048	0,120
-414,657	223,251	-0,113	0,131
-413,642	-75,878	0,101	0,026
-412,628	-200,000	0,041	0,000
-411,613	800,000	-0,036	-0,094
-410,598	-200,000	0,002	0,111
-409,584	660,709	0,028	0,052
-408,569	-6,738	0,055	-0,027
-407,555	155,693	0,089	-0,088
-406,540	-84,510	-0,071	0,016
-405,525	200,344	-0,086	-0,094
-404,511	5,150	-0,008	-0,004
-403,496	-200,000	0,012	0,078
-402,482	354,108	0,047	0,067
-401,467	800,000	0,026	0,083
-400,452	-200,000	0,003	0,040
-399,438	800,000	-0,037	-0,089
-398,423	-200,000	0,043	-0,170
-397,409	598,438	-0,057	-0,102
-396,394	-200,000	0,021	-0,120
-395,379	-73,667	0,132	0,034
-394,365	-151,619	0,071	0,004
-393,350	-80,054	-0,066	-0,016
-392,336	128,462	0,024	0,022
-391,321	-155,252	-0,107	0,005
-390,306	-200,000	-0,014	0,076
-389,292	800,000	-0,027	-0,064
-388,277	509,737	0,012	0,019
-387,263	261,654	0,048	-0,059
-386,248	736,945	0,023	0,044
-385,233	48,172	-0,093	0,062
-384,219	-200,000	0,007	-0,033
-383,204	-200,000	0,005	-0,052
-382,190	374,287	-0,022	-0,032
-381,175	-200,000	0,005	-0,019
-380,160	-104,074	-0,147	0,024
-379,146	2,962	0,130	-0,067
-378,131	105,351	-0,082	-0,069
-377,117	-200,000	-0,010	0,132
-376,102	-9,904	0,011	-0,005
-375,088	-200,000	-0,001	-0,055
-374,073	800,000	0,058	0,122
-373,058	95,623	0,068	0,056
-372,044	-6,359	0,141	-0,069
-371,029	-61,734	0,126	0,038
-370,015	46,005	-0,072	0,048
-369,000	63,520	-0,145	0,104
-367,985	184,604	-0,126	0,133
-366,971	694,006	0,041	0,078
-365,956	572,094	0,048	-0,083
-364,942	25,336	-0,048	0,028
-363,927	19,170	0,078	0,045
-362,912	28,489	0,067	-0,041
-361,898	-145,614	0,075	-0,005
-360,883	140,742	-0,019	0,018
-359,869	-93,121	-0,285	-0,056
-358,854	5,237	0,081	-0,043
-357,839	800,000	0,047	0,131
-356,825	24,642	-0,063	-0,037
-355,810	800,000	0,030	-0,064
-354,796	800,000	-0,037	0,079
-353,781	-97,271	-0,037	0,007
-352,766	59,048	-0,045	-0,032
-351,752	361,283	0,082	-0,118
-350,737	-51,741	0,057	-0,019
-349,723	61,914	0,063	0,044
-348,708	-96,675	-0,108	-0,020
-347,693	-118,351	-0,187	-0,023
-346,679	195,964	-0,073	0,079
-345,664	800,000	-0,055	-0,127
-344,650	-48,693	-0,157	-0,053
-343,635	-62,380	0,091	-0,027
-342,620	-146,077	0,253	0,016
-341,606	-200,000	0,000	0,049
-340,591	-54,445	0,034	0,011
-339,577	154,516	-0,007	-0,007
-338,562	176,736	0,072	0,074
-337,548	-76,758	0,034	0,008
-336,533	-62,620	0,106	-0,031
-335,518	127,147	0,098	-0,089
-334,504	60,939	-0,079	0,056
-333,489	-4,501	0,095	-0,047
-332,475	-200,000	-0,010	-0,068
-331,460	17,290	0,054	0,030
-330,445	-200,000	-0,012	0,072
-329,431	33,578	0,123	0,076
-328,416	325,106	0,064	0,088
-327,402	800,000	-0,028	-0,081
-326,387	442,598	0,072	-0,113
-325,372	-18,371	-0,160	-0,071
-324,358	232,196	-0,062	0,073
-323,343	422,409	0,071	-0,109
-322,329	-146,877	-0,078	-0,005
-321,314	-101,571	0,080	-0,014
-320,299	322,380	0,038	-0,052
-319,285	-200,000	-0,021	-0,081
-318,270	-21,270	-0,062	-0,027
-317,256	-72,607	-0,020	-0,005
-316,241	-200,000	-0,015	0,072
-315,226	800,000	0,057	0,138
-314,212	123,342	-0,070	0,063
-313,197	-200,000	0,035	0,141
-312,183	211,564	-0,118	0,132
-311,168	-101,173	0,063	-0,011
-310,153	448,513	0,082	0,130
-309,139	105,484	-0,091	-0,077
-308,124	14,161	0,081	-0,045
-307,110	-200,000	0,000	0,084
-306,095	79,355	-0,022	-0,017
-305,080	-200,000	0,004	-0,045
-304,066	26,056	0,037	-0,022
-303,051	-200,000	0,015	-0,060
-302,037	-200,000	-0,025	-0,109
-301,022	122,490	0,037	0,033
-300,008	37,972	-0,046	-0,029
-298,993	71,995	0,100	-0,074
-297,978	25,340	0,030	0,018
-296,964	328,431	-0,061	-0,083
-295,949	-200,000	-0,016	-0,075
-294,935	-68,793	-0,101	-0,028
-293,920	383,879	0,080	0,117
-292,905	800,000	0,041	0,094
-291,891	228,705	0,053	0,061
-290,876	694,289	-0,021	-0,040
-289,862	-139,698	0,142	0,011
-288,847	182,011	0,043	0,045
-287,832	-7,443	-0,195	-0,094
-286,818	-200,000	-0,012	0,149
-285,803	60,536	-0,062	0,044
-284,789	-56,737	-0,045	-0,014
-283,774	-200,000	-0,022	0,103
-282,759	-200,000	0,019	0,067
-281,745	63,791	0,041	0,030
-280,730	569,867	-0,070	-0,121
-279,716	-200,000	-0,050	-0,171
-278,701	-200,000	0,027	-0,113
-277,686	47,004	0,115	-0,076
-276,672	567,183	0,006	-0,010
-275,657	800,000	-0,053	0,136
-274,643	165,429	0,075	-0,075
-273,628	800,000	-0,013	-0,027
-272,613	-200,000	0,001	-0,101
-271,599	800,000	0,050	-0,109
-270,584	52,754	0,126	0,086
-269,570	-200,000	-0,033	0,178
-268,555	-200,000	-0,041	0,131
-267,540	64,847	0,075	0,054
-266,526	-37,056	0,026	-0,010
-265,511	-73,256	0,064	-0,017
-264,497	-200,000	0,021	0,084
-263,482	-75,177	0,158	0,040
-262,467	250,844	0,084	0,101
-261,453	800,000	-0,062	-0,187
-260,438	800,000	-0,053	-0,162
-259,424	-56,952	0,092	-0,029
-258,409	-92,806	-0,027	0,005
-257,395	623,054	0,039	0,070
-256,380	-107,080	0,163	0,025
-255,365	-71,531	0,104	0,027
-254,351	246,948	-0,054	0,065
-253,336	-82,607	-0,124	-0,028
-252,322	-28,289	-0,039	-0,016
-251,307	48,605	-0,138	-0,092
-250,292	-200,000	-0,010	0,081
-249,278	-108,902	-0,094	-0,014
-248,263	-200,000	0,012	-0,100
-247,249	-200,000	-0,030	-0,130
-246,234	600,173	-0,041	0,073
-245,219	82,826	0,055	0,043
-244,205	-200,000	0,012	0,066
-243,190	-200,000	0,002	0,118
-242,176	800,000	0,036	0,112
-241,161	87,349	0,099	-0,078
-240,146	-24,100	0,115	-0,049
-239,132	-73,179	-0,106	-0,027
-238,117	42,365	-0,110	-0,071
-237,103	800,000	0,058	-0,154
-236,088	-200,000	-0,095	0,000
-235,073	-0,438	0,188	0,095
-234,059	-154,127	0,117	0,006
-233,044	800,000	0,063	0,147
-232,030	-200,000	0,002	-0,072
-231,015	-200,000	-0,013	0,177
-230,000	-10,332	0,103	-0,049
-228,986	-57,888	-0,073	-0,022
-227,971	346,487	-0,054	-0,076
-226,957	130,110	0,095	0,086
-225,942	39,782	-0,161	0,102
-224,927	-200,000	0,011	-0,089
-223,913	800,000	0,059	-0,121
-222,898	-24,372	-0,035	-0,015
-221,884	529,298	-0,063	-0,106
-220,869	-168,378	0,164	-0,004
-219,855	800,000	-0,064	-0,183
-218,840	3,373	0,015	-0,008
-217,825	500,254	-0,048	0,079
-216,811	239,695	0,046	-0,055
-215,796	-200,000	-0,010	-0,112
-214,782	-143,462	0,142	-0,009
-213,767	-88,927	-0,091	0,019
-212,752	-200,000	-0,015	0,048
-211,738	-15,534	0,132	0,060
-210,723	14,757	-0,079	-0,044
-209,709	-200,000	0,000	-0,030
-208,694	337,608	-0,109	-0,151
-207,679	-200,000	0,019	0,109
-206,665	-11,529	0,097	0,045
-205,650	155,458	-0,084	0,082
-204,636	-2,745	0,123	0,061
-203,621	247,594	-0,003	0,003
-202,606	-200,000	-0,015	0,069
-201,592	-200,000	-0,009	-0,039
-200,577	800,000	0,046	0,121
-199,563	-13,505	0,052	-0,024
-198,548	14,938	-0,078	0,043
-197,533	40,754	0,095	0,061
-196,519	-200,000	-0,002	0,175
-195,504	-61,677	0,077	0,023
-194,490	-161,136	-0,111	0,004
-193,475	429,016	0,101	0,156
-192,460	-200,000	-0,010	0,172
-191,446	280,588	-0,056	-0,071
-190,431	766,144	0,028	0,053
-189,417	-200,000	0,023	0,164
-188,402	-10,213	-0,120	0,056
-187,387	800,000	-0,022	-0,058
-186,373	-40,817	-0,119	-0,044
-185,358	-200,000	-0,014	-0,113
-184,344	88,711	0,018	-0,015
-183,329	-59,521	0,127	-0,039
-182,315	317,101	-0,052	0,070
-181,300	-200,000	-0,004	-0,081
-180,285	-41,188	-0,080	-0,029
-179,271	2,388	-0,142	-0,073
-178,256	241,578	0,074	-0,088
-177,242	800,000	0,042	-0,083
-176,227	-200,000	-0,016	0,097
-175,212	-31,266	0,121	-0,048
-174,198	7,420	-0,053	-0,028
-173,183	574,610	-0,063	-0,110
-172,169	785,673	-0,075	-0,147
-171,154	-200,000	0,030	0,096
-170,139	-90,960	0,061	-0,012
-169,125	-104,873	-0,040	0,006
-168,110	306,997	0,058	-0,077
-167,096	-38,490	-0,116	0,043
-166,081	40,789	-0,092	0,058
-165,066	-95,397	-0,112	0,021
-164,052	800,000	-0,014	-0,033
-163,037	-13,241	-0,049	0,023
-162,023	-42,982	0,066	0,024
-161,008	-200,000	-0,009	0,082
-159,993	800,000	0,041	0,096
-158,979	800,000	0,038	0,093
-157,964	45,127	-0,062	-0,040
-156,950	169,069	-0,089	-0,090
-155,935	56,641	0,025	0,017
-154,920	392,229	0,092	-0,135
-153,906	240,709	0,062	-0,073
-152,891	181,882	-0,036	-0,038
-151,877	-200,000	-0,001	0,014
-150,862	-8,031	0,133	-0,063
-149,847	-18,286	0,091	0,040
-148,833	23,255	-0,129	0,075
-147,818	161,406	0,106	0,105
-146,804	298,924	0,052	-0,068
-145,789	226,654	0,052	0,060
-144,775	425,789	-0,041	-0,063
-143,760	800,000	0,019	-0,055
-142,745	-95,733	0,094	0,018
-141,731	-200,000	-0,007	-0,020
-140,716	-200,000	0,005	0,119
-139,702	-48,171	0,080	0,027
-138,687	-200,000	-0,017	0,057
-137,672	-200,000	-0,001	-0,078
-136,658	-200,000	-0,035	-0,117
-135,643	112,540	0,045	0,038
-134,629	126,049	0,140	-0,126
-133,614	-200,000	0,004	-0,015
-132,599	184,727	-0,036	-0,038
-131,585	-200,000	0,022	0,168
-130,570	-32,236	0,078	0,031
-129,556	97,364	-0,097	0,079
-128,541	800,000	0,023	0,051
-127,526	800,000	-0,071	-0,148
-126,512	-200,000	-0,002	-0,038
-125,497	-68,619	0,076	-0,021
-124,483	-122,936	0,063	-0,007
-123,468	213,462	-0,064	0,072
-122,453	-200,000	-0,021	-0,103
-121,439	-156,641	-0,122	-0,005
-120,424	-200,000	-0,000	0,008
-119,410	-13,493	-0,158	-0,072
-118,395	109,425	0,085	0,072
-117,380	800,000	0,046	0,109
-116,366	246,162	-0,052	0,062
-115,351	800,000	0,025	-0,058
-114,337	800,000	-0,015	-0,046
-113,322	-44,888	0,100	-0,035
-112,307	-200,000	-0,008	0,039
-111,293	536,252	0,033	-0,055
-110,278	-73,806	-0,140	0,036
-109,264	-63,823	0,137	-0,039
-108,249	-200,000	-0,023	-0,186
-107,234	-200,000	0,023	-0,081
-106,220	62,210	-0,232	0,164
-105,205	-51,402	0,063	-0,021
-104,191	-69,672	0,187	-0,050
-103,176	-200,000	0,005	-0,081
-102,162	-60,502	-0,058	0,017
-101,147	-95,201	-0,076	0,014
-100,132	-23,105	-0,034	-0,015
-99,118	-200,000	0,008	-0,099
-98,103	-104,289	0,068	0,011
-97,089	-200,000	-0,016	0,142
-96,074	-104,536	0,105	0,017
-95,059	326,535	-0,079	0,108
-94,045	192,552	0,071	0,076
-93,030	2,349	0,063	-0,032
-92,016	342,990	-0,113	-0,157
-91,001	800,000	0,019	0,053
-89,986	-200,000	0,005	0,067
-88,972	-26,645	-0,095	-0,039
-87,957	196,425	0,030	-0,033
-86,943	-200,000	-0,001	-0,082
-85,928	-123,751	0,089	-0,010
-84,913	-200,000	-0,017	-0,077
-83,899	-200,000	-0,006	0,116
-82,884	800,000	-0,021	0,057
-81,870	658,594	0,051	0,094
-80,855	-200,000	-0,008	0,027
-79,840	71,215	0,068	-0,050
-78,826	-120,921	-0,091	-0,011
-77,811	-102,384	-0,126	-0,021
-76,797	-78,157	-0,044	0,011
-75,782	-200,000	-0,005	0,098
-74,767	-200,000	-0,008	0,106
-73,753	-73,213	0,050	-0,013
-72,738	-200,000	0,018	-0,111
-71,724	800,000	0,019	-0,047
-70,709	460,440	0,034	-0,053
-69,694	-57,096	-0,020	-0,006
-68,680	-200,000	-0,030	-0,125
-67,665	-200,000	-0,019	-0,075
-66,651	-200,000	-0,024	0,104
-65,636	89,799	0,022	0,017
-64,622	70,886	0,103	-0,075
-63,607	-110,378	-0,120	-0,017
-62,592	-100,801	-0,144	-0,025
-61,578	-200,000	-0,014	0,062
-60,563	-200,000	0,032	0,166
-59,549	-200,000	-0,009	0,033
-58,534	52,934	-2,057	-1,387
-57,519	473,775	-1,212	-1,936
-56,505	-200,000	-0,305	-4,403
-55,490	438,862	0,909	1,405
-54,476	800,000	5,089	11,315
-53,461	-200,000	21,774	344,294
-52,446	800,000	763,140	2348,922
-51,432	549,493	1663,273	2825,117
-50,417	71,857	1659,628	1216,802
-49,403	17,361	1533,057	856,789
-48,388	11,341	1457,032	785,194
-47,373	19,377	1448,435	819,076
-46,359	14,929	1437,360	791,645
-45,344	9,696	1433,317	764,479
-44,330	9,620	1431,589	763,168
-43,315	9,603	1429,615	762,002
-42,300	9,588	1427,934	761,007
-41,286	9,636	1426,566	760,472
-40,271	9,602	1425,415	759,671
-39,257	9,556	1424,425	758,895
-38,242	9,653	1422,964	758,546
-37,227	9,604	1422,132	757,841
-36,213	9,673	1420,661	757,350
-35,198	9,656	1419,560	756,653
-34,184	9,699	1418,457	756,239
-33,169	9,559	1417,492	755,034
-32,154	9,627	1416,292	754,686
-31,140	9,651	1414,768	753,958
-30,125	9,676	1413,658	753,450
-29,111	9,664	1412,619	752,811
-28,096	9,672	1411,536	752,243
-27,082	9,603	1410,161	751,156
-26,067	9,576	1409,240	750,511
-25,052	9,651	1408,031	750,187
-24,038	9,610	1407,308	749,579
-23,023	9,561	1406,487	748,884
-22,009	9,582	1405,305	748,323
-20,994	9,580	1404,246	747,718
-19,979	9,602	1403,290	747,284
-18,965	9,529	1402,567	746,528
-17,950	9,543	1401,399	745,945
-16,936	9,557	1400,575	745,542
-15,921	9,492	1399,800	744,793
-14,906	9,501	1398,799	744,273
-13,892	9,556	1397,680	743,906
-12,877	9,514	1397,015	743,329
-11,863	9,517	1396,230	742,895
-10,848	9,478	1395,377	742,230
-9,833	9,460	1394,408	741,599
-8,819	9,434	1393,528	740,984
-7,804	9,364	1392,691	740,183
-6,790	9,392	1391,563	739,687
-5,775	9,466	1390,323	739,338
-4,760	9,424	1389,732	738,801
-3,746	9,438	1388,567	738,218
-2,731	9,448	1387,824	737,839
-1,717	9,422	1386,765	737,126
-0,702	9,414	1385,045	736,148
0,313	13,363	1297,556	707,716
1,327	29,272	688,178	411,337
2,342	45,447	119,004	77,342
3,356	-1,664	16,536	8,188
4,371	0,604	3,721	1,870
5,386	15,611	1,087	0,601
6,400	800,000	0,274	0,591
7,415	-32,366	-0,156	-0,061
8,429	-10,402	-0,281	-0,131
9,444	-64,440	-0,376	-0,107
10,459	-91,358	-0,261	-0,052
11,473	78,787	-0,365	-0,275
12,488	72,543	-0,245	-0,180
13,502	34,719	-0,269	-0,165
14,517	61,799	-0,332	-0,233
15,531	85,761	-0,300	-0,232
16,546	87,603	-0,435	-0,339
17,561	74,259	-0,379	-0,280
18,575	5,011	-0,221	-0,114
19,590	149,968	-0,308	-0,295
20,604	-17,830	-0,200	-0,088
21,619	55,532	-0,371	-0,253
22,634	125,221	-0,365	-0,324
23,648	13,550	-0,512	-0,279
24,663	63,458	-0,335	-0,236
25,677	66,757	-0,308	-0,221
26,692	246,669	-0,305	-0,362
27,707	166,278	-0,245	-0,245
28,721	103,378	-0,401	-0,331
29,736	4,374	-0,398	-0,205
30,750	241,689	-0,274	-0,322
31,765	104,905	-0,379	-0,314
32,780	243,221	-0,271	-0,320
33,794	-30,857	-0,372	-0,147
34,809	17,620	-0,456	-0,255
35,823	49,748	-0,311	-0,206
36,838	138,539	-0,304	-0,281
37,853	5,016	-0,394	-0,203
38,867	241,638	-0,308	-0,362
39,882	51,862	-0,373	-0,249
40,896	117,583	-0,367	-0,317
41,911	-21,405	-0,462	-0,197
42,926	59,501	-0,323	-0,224
43,940	23,419	-0,365	-0,211
44,955	66,345	-0,345	-0,246
45,969	65,259	-0,390	-0,277
46,984	85,741	-0,336	-0,259
47,999	109,091	-0,227	-0,191
49,013	51,276	-0,160	-0,106
50,028	101,817	-0,421	-0,345
51,042	21,184	-0,374	-0,213
52,057	118,118	-0,350	-0,303
53,071	98,770	-0,277	-0,224
54,086	-134,530	-0,286	-0,024
55,101	62,608	-0,317	-0,222
56,115	-78,788	-0,324	-0,077
57,130	35,185	-0,357	-0,219
58,144	25,410	-0,318	-0,185
59,159	86,246	-0,308	-0,238
60,174	6,491	-0,428	-0,223
61,188	18,029	-0,423	-0,236
62,203	-47,462	-0,292	-0,099
63,217	0,421	-0,399	-0,199
64,232	0,890	-0,226	-0,113
65,247	93,446	-0,391	-0,310
66,261	-21,964	-0,375	-0,159
67,276	118,746	-0,341	-0,295
68,290	61,815	-0,310	-0,216
69,305	53,730	-0,356	-0,240
70,320	-34,754	-0,271	-0,103
71,334	477,959	-0,174	-0,278
72,349	32,939	-0,354	-0,214
73,363	-36,913	-0,290	-0,108
74,378	118,685	-0,280	-0,242
75,393	146,002	-0,236	-0,222
76,407	485,508	-0,140	-0,225
77,422	-27,754	-0,402	-0,163
78,436	32,654	-0,263	-0,159
79,451	-96,556	-0,482	-0,088
80,466	-30,787	-0,438	-0,173
81,480	37,092	-0,260	-0,161
82,495	-20,384	-0,377	-0,162
83,509	-28,674	-0,294	-0,118
84,524	43,724	-0,240	-0,154
85,539	60,922	-0,161	-0,112
86,553	75,376	-0,355	-0,262
87,568	84,819	-0,331	-0,254
88,582	137,989	-0,308	-0,282
89,597	28,603	-0,247	-0,146
90,611	-7,325	-0,340	-0,161
91,626	-78,916	-0,371	-0,088
92,641	51,743	-0,195	-0,129
93,655	-57,550	-0,299	-0,091
94,670	329,248	-0,258	-0,348
95,684	0,009	-0,359	-0,179
96,699	367,445	-0,197	-0,279
97,714	108,401	-0,328	-0,274
98,728	-49,413	-0,276	0,092
99,743	7,075	-0,208	-0,108
100,757	368,712	-0,112	-0,158
101,772	28,246	-0,229	-0,135
102,787	119,694	-0,249	-0,216
103,801	20,852	-0,211	-0,119
104,816	-55,505	-0,266	-0,083
105,830	-88,173	-0,325	-0,067
106,845	54,971	-0,256	-0,172
107,860	318,071	-0,267	-0,354
108,874	-14,343	-0,367	-0,165
109,889	535,976	-0,195	-0,325
110,903	-25,704	-0,181	-0,074
111,918	178,116	-0,234	-0,238
112,933	1,678	-0,338	-0,170
113,947	-69,858	-0,250	0,066
114,962	-8,807	-0,360	-0,168
115,976	-126,539	-0,351	-0,036
116,991	-30,602	-0,335	-0,132
118,006	-53,519	-0,352	-0,112
119,020	-42,221	-0,192	-0,068
120,035	87,108	-0,130	-0,100
121,049	533,007	-0,139	-0,231
122,064	-150,090	-0,242	-0,013
123,079	188,753	-0,139	-0,146
124,093	417,828	-0,198	-0,295
125,108	272,556	-0,192	-0,237
126,122	128,263	-0,235	-0,208
127,137	-61,330	-0,300	-0,088
128,151	0,087	-0,215	-0,107
129,166	121,542	-0,123	-0,107
130,181	-17,481	-0,301	-0,131
131,195	322,946	-0,123	-0,164
132,210	418,570	-0,186	-0,278
133,224	-105,389	-0,236	-0,037
134,239	130,679	-0,235	-0,210
135,254	12,911	-0,310	-0,166
136,268	-52,301	-0,300	-0,096
137,283	15,910	-0,278	-0,152
138,297	152,720	-0,302	-0,288
139,312	-41,367	-0,288	-0,103
140,327	57,112	-0,305	-0,207
141,341	159,018	-0,200	-0,194
142,356	31,029	-0,219	-0,131
143,370	57,121	-0,238	-0,161
144,385	-26,895	-0,344	-0,139
145,400	320,829	-0,147	-0,196
146,414	1,299	-0,402	-0,201
147,429	372,244	-0,173	-0,246
148,443	14,333	-0,262	-0,142
149,458	-114,158	-0,110	0,015
150,473	-82,885	-0,364	-0,081
151,487	-30,904	-0,251	-0,098
152,502	184,521	-0,202	-0,208
153,516	199,464	-0,242	-0,258
154,531	-44,207	-0,230	-0,080
155,546	163,290	-0,311	-0,304
156,560	142,065	-0,240	-0,222
157,575	-79,260	-0,219	0,051
158,589	116,036	-0,215	-0,183
159,604	308,382	-0,210	-0,273
160,619	196,262	-0,196	-0,208
161,633	-5,587	-0,249	-0,118
162,648	406,717	-0,121	-0,178
163,662	207,076	-0,211	-0,229
164,677	8,531	-0,178	-0,093
165,692	-2,094	-0,189	-0,092
166,706	121,331	-0,268	-0,232
167,721	-38,480	-0,323	-0,118
168,735	-112,958	-0,299	-0,041
169,750	48,000	-0,122	-0,079
170,764	-78,702	-0,140	-0,033
171,779	-123,565	-0,248	-0,027
172,794	70,621	-0,113	-0,081
173,808	-13,859	-0,259	-0,116
174,823	182,230	-0,110	-0,113
175,837	-102,022	-0,178	-0,030
176,852	-108,214	-0,275	-0,041
177,867	18,257	-0,218	-0,120
178,881	46,811	-0,068	0,044
179,896	157,579	-0,188	-0,181
180,910	104,743	-0,283	-0,231
181,925	800,000	-0,114	-0,287
182,940	515,966	-0,084	-0,137
183,954	84,882	-0,200	-0,152
184,969	73,479	-0,254	-0,184
185,983	73,895	-0,164	-0,120
186,998	47,061	-0,248	-0,160
188,013	231,764	-0,220	-0,251
189,027	167,897	-0,168	-0,165
190,042	135,390	-0,213	-0,192
191,056	35,046	-0,220	-0,133
192,071	-54,042	-0,247	-0,078
193,086	800,000	-0,074	-0,147
194,100	-28,893	-0,250	-0,099
195,115	800,000	-0,117	-0,263
196,129	114,615	-0,232	-0,196
197,144	20,690	-0,213	-0,119
198,159	6,007	-0,223	-0,114
199,173	203,978	-0,242	-0,260
200,188	-15,688	-0,200	-0,088
201,202	59,039	-0,135	-0,092
202,217	-156,836	-0,176	0,007
203,232	290,229	-0,085	-0,108
204,246	60,275	-0,125	-0,086
205,261	331,776	-0,173	-0,233
206,275	-8,054	-0,261	-0,121
207,290	456,055	-0,128	-0,198
208,304	88,202	-0,166	0,128
209,319	-18,536	-0,120	-0,052
210,334	124,018	-0,176	-0,153
211,348	36,705	-0,109	-0,066
212,363	68,605	-0,264	-0,187
213,377	140,739	-0,140	-0,129
214,392	437,577	-0,097	-0,147
215,407	-54,007	-0,322	-0,101
216,421	-182,069	-0,188	0,002
217,436	-54,236	-0,220	-0,069
218,450	-58,746	-0,283	-0,084
219,465	112,298	-0,239	-0,200
220,480	431,520	-0,016	0,024
221,494	263,181	-0,108	-0,130
222,509	90,528	-0,149	-0,116
223,523	45,682	-0,164	-0,105
224,538	800,000	-0,121	-0,301
225,553	800,000	-0,044	-0,086
226,567	125,615	-0,216	-0,189
227,582	261,957	-0,133	-0,159
228,596	300,744	-0,149	-0,191
229,611	-126,450	-0,188	0,019
230,626	63,912	-0,254	-0,176
231,640	-131,086	-0,129	-0,012
232,655	447,537	-0,149	-0,227
233,669	15,911	-0,210	-0,114
234,684	98,104	-0,118	-0,094
235,699	32,506	-0,154	-0,092
236,713	181,719	-0,046	-0,047
237,728	122,047	-0,167	-0,144
238,742	27,401	-0,246	-0,143
239,757	-151,449	-0,232	0,012
240,772	9,892	-0,289	-0,151
241,786	132,069	-0,296	-0,263
242,801	-43,788	-0,160	-0,055
243,815	800,000	-0,093	-0,224
244,830	34,598	-0,092	-0,055
245,844	646,700	-0,141	-0,249
246,859	87,659	-0,277	-0,212
247,874	399,088	-0,158	-0,229
248,888	67,364	-0,146	-0,103
249,903	-47,204	-0,258	-0,086
250,917	-103,452	-0,142	0,023
251,932	-119,853	-0,194	-0,023
252,947	-85,903	-0,183	-0,039
253,961	20,343	-0,262	-0,146
254,976	121,670	-0,231	-0,199
255,990	-22,909	-0,106	0,044
257,005	-101,315	-0,246	0,041
258,020	54,391	-0,183	-0,121
259,034	-84,411	-0,152	-0,033
260,049	800,000	-0,106	-0,232
261,063	73,309	-0,251	-0,181
262,078	-14,562	-0,297	-0,131
263,093	84,579	-0,175	-0,132
264,107	-81,699	-0,134	-0,030
265,122	800,000	-0,044	-0,108
266,136	114,455	-0,176	-0,148
267,151	50,568	-0,221	-0,144
268,166	42,638	-0,253	-0,158
269,180	188,278	-0,168	-0,173
270,195	341,609	-0,212	-0,286
271,209	178,489	-0,172	-0,173
272,224	336,699	-0,132	-0,178
273,239	-23,827	-0,088	0,036
274,253	28,298	-0,182	-0,106
275,268	-46,075	-0,201	-0,068
276,282	22,341	-0,267	-0,150
277,297	718,194	-0,167	-0,307
278,312	213,809	-0,158	-0,172
279,326	42,519	-0,164	-0,103
280,341	800,000	-0,045	-0,104
281,355	42,510	-0,165	-0,103
282,370	-3,628	-0,181	-0,086
283,384	22,840	-0,327	-0,184
284,399	59,302	-0,180	-0,122
285,414	52,986	-0,139	-0,091
286,428	82,490	-0,246	-0,184
287,443	196,863	-0,114	-0,120
288,457	217,941	-0,058	0,064
289,472	-92,392	-0,155	-0,030
290,487	270,045	-0,191	-0,231
291,501	-85,955	-0,246	0,052
292,516	-78,230	-0,118	-0,028
293,530	487,711	-0,067	-0,105
294,545	-95,359	-0,216	-0,039
295,560	-146,674	-0,146	0,009
296,574	23,858	-0,060	0,034
297,589	700,171	-0,118	-0,214
298,603	100,953	-0,156	-0,124
299,618	590,630	-0,073	-0,124
300,633	54,863	-0,129	-0,085
301,647	-200,000	-0,011	-0,088
302,662	172,419	-0,115	-0,114
303,676	367,988	-0,117	-0,163
304,691	-200,000	-0,006	-0,155
305,706	35,091	-0,159	-0,095
306,720	10,131	-0,048	-0,025
307,735	253,597	-0,146	-0,171
308,749	206,060	-0,060	-0,064
309,764	154,557	-0,085	-0,080
310,779	367,614	-0,162	-0,225
311,793	100,487	-0,148	-0,118
312,808	-200,000	-0,036	-0,109
313,822	338,073	-0,116	-0,155
314,837	10,722	-0,132	-0,069
315,852	305,393	-0,122	-0,156
316,866	-138,319	-0,248	-0,019
317,881	-24,984	-0,133	-0,054
318,895	190,820	-0,173	-0,179
319,910	-35,686	-0,321	-0,119
320,925	180,334	-0,158	-0,159
321,939	367,739	-0,092	-0,128
322,954	-42,272	-0,143	-0,050
323,968	83,550	-0,144	-0,107
324,983	-115,175	-0,219	-0,028
325,997	37,439	-0,158	-0,096
327,012	5,285	-0,219	-0,111
328,027	-200,000	-0,043	-0,168
329,041	124,884	-0,077	-0,067
330,056	135,679	-0,071	-0,064
331,070	324,265	-0,069	-0,090
332,085	-125,618	-0,221	-0,023
333,100	-33,561	-0,218	-0,082
334,114	369,043	-0,035	-0,048
335,129	-107,536	-0,310	-0,046
336,143	493,896	-0,059	-0,093
337,158	-200,000	-0,020	-0,150
338,173	199,917	-0,079	-0,083
339,187	-200,000	-0,030	-0,097
340,202	145,562	-0,169	-0,155
341,216	273,095	-0,179	-0,217
342,231	147,246	-0,083	-0,076
343,246	136,565	-0,104	-0,093
344,260	800,000	-0,045	-0,104
345,275	28,827	-0,114	-0,066
346,289	-148,966	-0,083	-0,005
347,304	138,814	-0,072	-0,065
348,319	-84,475	-0,194	-0,042
349,333	-155,627	-0,234	-0,010
350,348	-200,000	-0,002	-0,285
351,362	171,256	-0,136	-0,133
352,377	800,000	-0,042	-0,103
353,392	-144,921	-0,090	-0,006
354,406	-14,935	-0,139	-0,061
355,421	207,865	1309,507	1400,360
356,435	159,924	1469,559	1400,837
