DTS Sentinel unit serial number:	SN410029Multiplexer serial number:	ORYXHardware model number:	OX2-SRSoftware version number:	ORYX F/W v4,00 Oryx Data Collector v3.7.2.0data status	okinstallation	B3 Nyhavnadifferential loss correction	single-endedforward channel	channel 1reverse channel	N/Adate	2023/11/29time	17:22:30forward acquisition time	300,00reverse acquisition time	0,00gamma	499,1914k internal	0,3209k external	0,3209temperature offset calibration	1,0000default loss term (dB/km)	0,3820temperature slope calibration	1,0000multiplexer offset coefficient	1,0000multiplexer slope coefficient	1,0000fibre end	0,00T internal ref (°C)	11,34T ext. ref 1 (°C)	-3,83T ext. ref 2 (°C)	-3,95length (m)	temperature (°C)	Stokes	anti-Stokes-744,400	610,854	-0,169	-0,307
-743,385	-200,000	0,018	0,318
-742,371	-200,000	-0,053	-0,375
-741,356	574,994	0,127	0,226
-740,342	82,673	-0,196	-0,155
-739,327	800,000	-0,089	0,214
-738,312	216,214	-0,151	-0,175
-737,298	-200,000	-0,010	0,238
-736,283	255,214	-0,174	-0,216
-735,269	-200,000	0,015	0,311
-734,254	-200,000	-0,032	-0,272
-733,239	22,821	-0,203	0,120
-732,225	223,608	-0,151	-0,177
-731,210	-143,837	0,084	-0,006
-730,196	198,710	-0,024	-0,027
-729,181	-200,000	-0,039	-0,174
-728,167	800,000	-0,082	-0,194
-727,152	716,951	0,035	-0,067
-726,137	91,284	-0,110	-0,090
-725,123	-98,083	-0,032	0,006
-724,108	286,146	0,052	-0,068
-723,094	235,084	-0,102	-0,122
-722,079	224,072	-0,026	-0,031
-721,064	189,915	0,023	0,025
-720,050	449,022	0,021	0,033
-719,035	260,918	0,079	0,100
-718,021	33,944	-0,017	0,011
-717,006	732,817	-0,063	-0,123
-715,991	-200,000	-0,007	-0,111
-714,977	-200,000	-0,009	-0,201
-713,962	-200,000	0,014	0,061
-712,948	-200,000	0,007	0,039
-711,933	484,452	0,057	-0,095
-710,918	163,362	-0,029	-0,029
-709,904	-130,259	-0,099	-0,010
-708,889	-31,132	-0,105	-0,043
-707,875	-110,605	0,053	0,008
-706,860	143,376	0,058	-0,056
-705,845	184,001	0,033	0,035
-704,831	-115,877	0,022	0,003
-703,816	-161,879	-0,098	-0,004
-702,802	49,564	0,028	0,019
-701,787	800,000	0,018	-0,050
-700,772	171,910	0,081	-0,084
-699,758	70,993	-0,111	-0,083
-698,743	-121,275	0,107	0,013
-697,729	-200,000	0,022	-0,080
-696,714	-200,000	0,009	0,148
-695,699	-180,231	-0,154	0,002
-694,685	663,355	0,010	0,019
-693,670	171,408	-0,101	-0,105
-692,656	627,994	0,061	-0,111
-691,641	193,475	0,132	-0,144
-690,627	-14,800	-0,100	0,046
-689,612	800,000	-0,062	-0,130
-688,597	-40,646	0,160	-0,060
-687,583	-200,000	-0,002	0,010
-686,568	-50,130	-0,117	-0,040
-685,554	800,000	-0,052	-0,116
-684,539	63,075	0,050	0,036
-683,524	-85,618	-0,105	-0,024
-682,510	751,260	0,034	0,067
-681,495	-16,871	0,055	0,025
-680,481	52,548	-0,132	-0,091
-679,466	-141,900	-0,129	-0,009
-678,451	11,761	-0,064	0,036
-677,437	396,995	0,019	-0,029
-676,422	-200,000	-0,005	0,139
-675,408	16,542	0,065	0,037
-674,393	18,098	-0,074	-0,043
-673,378	-1,393	-0,069	-0,035
-672,364	-200,000	0,015	-0,130
-671,349	-4,616	-0,062	-0,031
-670,335	404,096	-0,032	-0,049
-669,320	-114,946	0,040	0,005
-668,305	-106,254	0,059	0,009
-667,291	-200,000	0,004	-0,087
-666,276	-146,867	-0,042	-0,003
-665,262	-128,113	-0,101	-0,010
-664,247	19,493	-0,136	-0,079
-663,232	115,302	0,082	0,072
-662,218	47,183	0,140	0,094
-661,203	488,307	0,082	0,136
-660,189	145,065	-0,150	-0,146
-659,174	657,223	-0,042	0,079
-658,159	-200,000	-0,002	0,013
-657,145	-43,067	0,050	-0,018
-656,130	485,345	-0,022	0,036
-655,116	89,036	0,090	0,072
-654,101	-200,000	-0,016	-0,082
-653,086	115,696	0,038	0,034
-652,072	-33,054	-0,090	-0,036
-651,057	211,665	-0,095	-0,108
-650,043	1,375	0,017	-0,009
-649,028	11,870	-0,052	-0,029
-648,014	-200,000	0,034	-0,128
-646,999	244,655	-0,067	0,081
-645,984	632,543	0,016	-0,029
-644,970	-200,000	0,013	0,105
-643,955	-34,039	-0,069	0,027
-642,941	-44,948	-0,068	-0,024
-641,926	-41,713	-0,110	-0,041
-640,911	-6,992	0,090	-0,044
-639,897	-119,420	-0,050	0,006
-638,882	-200,000	0,010	0,222
-637,868	141,557	-0,086	0,082
-636,853	-106,678	-0,054	0,009
-635,838	-169,650	0,036	-0,001
-634,824	-84,014	-0,179	0,041
-633,809	-200,000	-0,003	0,102
-632,795	-200,000	0,003	0,030
-631,780	272,758	0,102	0,130
-630,765	-200,000	0,034	-0,175
-629,751	-76,731	-0,073	-0,018
-628,736	277,180	-0,022	-0,028
-627,722	-1,930	0,059	-0,030
-626,707	274,266	0,067	0,086
-625,692	700,186	0,067	0,129
-624,678	71,416	-0,098	-0,073
-623,663	-200,000	0,018	-0,138
-622,649	-200,000	-0,015	0,130
-621,634	136,140	-0,026	-0,024
-620,619	516,110	0,016	0,028
-619,605	163,181	-0,100	-0,101
-618,590	-200,000	0,021	0,087
-617,576	107,406	-0,086	0,073
-616,561	-11,076	-0,020	-0,010
-615,546	226,942	-0,112	-0,132
-614,532	-200,000	-0,022	-0,163
-613,517	-200,000	0,007	-0,027
-612,503	413,496	-0,023	0,035
-611,488	-96,745	0,094	0,018
-610,474	-200,000	-0,043	0,146
-609,459	526,414	-0,051	0,087
-608,444	303,218	-0,041	-0,056
-607,430	-152,613	-0,146	0,007
-606,415	-93,633	0,034	-0,007
-605,401	-200,000	0,024	0,151
-604,386	-71,769	-0,045	0,012
-603,371	-37,498	-0,055	0,021
-602,357	9,271	0,097	0,053
-601,342	220,657	-0,062	0,072
-600,328	-127,648	-0,097	-0,010
-599,313	-200,000	-0,011	-0,100
-598,298	152,704	-0,071	0,070
-597,284	-200,000	-0,042	0,198
-596,269	-119,286	0,102	0,013
-595,255	-111,569	-0,109	0,016
-594,240	-95,006	0,099	-0,019
-593,225	-30,598	-0,179	-0,073
-592,211	86,472	-0,199	0,158
-591,196	-79,939	0,028	-0,007
-590,182	-200,000	-0,001	0,108
-589,167	136,984	-0,096	0,091
-588,152	42,645	-0,069	-0,045
-587,138	123,652	-0,126	0,114
-586,123	148,477	0,058	0,056
-585,109	-18,638	-0,073	0,033
-584,094	-79,929	-0,034	-0,008
-583,079	138,362	-0,082	-0,078
-582,065	90,400	-0,070	0,057
-581,050	-84,060	0,106	-0,024
-580,036	-200,000	-0,008	-0,185
-579,021	137,076	-0,036	0,034
-578,006	176,348	-0,102	-0,107
-576,992	-88,929	0,102	-0,022
-575,977	305,153	-0,095	-0,128
-574,963	800,000	-0,062	0,181
-573,948	39,106	-0,137	0,088
-572,934	-31,254	0,091	-0,037
-571,919	145,489	-0,088	0,085
-570,904	-52,336	-0,106	-0,035
-569,890	-70,472	-0,039	-0,010
-568,875	800,000	0,032	-0,099
-567,861	398,039	0,026	0,039
-566,846	-130,812	-0,063	0,006
-565,831	202,794	0,044	-0,049
-564,817	800,000	-0,024	0,076
-563,802	733,920	-0,053	-0,102
-562,788	138,439	0,038	0,036
-561,773	-200,000	-0,005	-0,147
-560,758	-161,206	0,077	0,003
-559,744	-21,920	-0,025	0,011
-558,729	-33,987	0,094	0,037
-557,715	-200,000	0,007	-0,124
-556,700	-200,000	0,005	-0,060
-555,685	-143,472	0,062	-0,004
-554,671	578,062	0,034	0,060
-553,656	757,729	-0,077	0,150
-552,642	26,059	0,075	0,045
-551,627	455,224	-0,030	-0,048
-550,612	217,699	-0,030	-0,035
-549,598	-200,000	-0,009	-0,080
-548,583	105,031	-0,077	-0,065
-547,569	-200,000	-0,041	-0,180
-546,554	206,611	-0,034	0,038
-545,539	-84,560	0,092	-0,021
-544,525	-8,655	0,110	0,053
-543,510	1,832	0,086	-0,045
-542,496	-54,656	-0,212	-0,069
-541,481	35,822	-0,226	-0,143
-540,466	293,722	-0,031	-0,041
-539,452	524,572	0,028	-0,048
-538,437	129,708	0,082	0,075
-537,423	56,613	-0,041	0,029
-536,408	800,000	-0,013	0,040
-535,393	-200,000	-0,010	-0,096
-534,379	118,184	-0,109	-0,097
-533,364	96,592	-0,045	0,037
-532,350	-200,000	0,008	0,031
-531,335	174,939	-0,096	0,100
-530,321	394,334	0,038	-0,058
-529,306	-200,000	0,024	-0,124
-528,291	800,000	-0,048	-0,120
-527,277	540,756	0,059	-0,101
-526,262	-200,000	0,021	-0,080
-525,248	800,000	-0,017	-0,051
-524,233	800,000	-0,043	-0,095
-523,218	-200,000	0,024	-0,131
-522,204	-200,000	0,026	-0,095
-521,189	-106,380	-0,124	0,020
-520,175	-200,000	-0,008	-0,092
-519,160	800,000	0,038	0,104
-518,145	273,146	0,046	-0,059
-517,131	-21,167	0,140	-0,061
-516,116	766,173	-0,092	0,180
-515,102	-93,695	0,064	-0,013
-514,087	179,455	-0,089	-0,094
-513,072	-200,000	0,036	-0,164
-512,058	800,000	0,048	-0,103
-511,043	-200,000	-0,003	0,083
-510,029	-200,000	0,017	-0,123
-509,014	83,332	-0,034	-0,027
-507,999	-137,509	0,090	-0,007
-506,985	290,089	-0,127	-0,167
-505,970	800,000	0,020	0,050
-504,956	366,049	-0,044	-0,064
-503,941	800,000	0,050	-0,127
-502,926	800,000	-0,050	0,127
-501,912	-98,704	-0,126	-0,023
-500,897	663,375	-0,063	0,118
-499,883	257,776	-0,027	-0,033
-498,868	368,085	0,017	-0,025
-497,853	-54,944	0,164	-0,053
-496,839	85,024	-0,058	0,046
-495,824	-200,000	-0,005	0,062
-494,810	800,000	0,029	-0,071
-493,795	165,487	-0,019	0,019
-492,781	-200,000	-0,007	0,042
-491,766	5,673	0,131	0,069
-490,751	-200,000	0,033	-0,112
-489,737	735,595	-0,068	0,131
-488,722	68,183	-0,010	0,007
-487,708	176,335	0,034	-0,036
-486,693	228,327	-0,056	0,066
-485,678	357,772	-0,048	-0,070
-484,664	-200,000	-0,012	-0,112
-483,649	68,615	0,016	-0,011
-482,635	53,391	-0,102	-0,070
-481,620	-62,503	-0,033	0,010
-480,605	-67,795	0,048	-0,013
-479,591	-34,132	-0,074	0,029
-478,576	-127,948	0,135	0,014
-477,562	40,509	0,194	-0,125
-476,547	-52,390	-0,030	0,010
-475,532	800,000	-0,014	-0,042
-474,518	251,567	0,094	0,115
-473,503	134,002	-0,031	0,029
-472,489	-9,633	0,091	-0,044
-471,474	-113,037	0,095	0,013
-470,459	61,423	-0,064	0,045
-469,445	-200,000	0,016	-0,083
-468,430	569,739	-0,080	0,140
-467,416	132,827	0,100	0,093
-466,401	-155,214	-0,043	0,002
-465,386	157,384	0,033	-0,033
-464,372	385,062	-0,020	-0,029
-463,357	-200,000	0,002	0,037
-462,343	-144,329	0,138	0,009
-461,328	-80,095	0,141	0,034
-460,313	-156,176	0,143	-0,006
-459,299	-200,000	-0,019	0,114
-458,284	800,000	0,010	0,026
-457,270	800,000	0,024	0,072
-456,255	-200,000	-0,001	-0,082
-455,241	-200,000	0,008	0,063
-454,226	-116,986	0,124	0,016
-453,211	800,000	0,020	0,048
-452,197	-53,237	-0,005	-0,001
-451,182	312,672	0,066	-0,089
-450,168	75,832	-0,117	0,089
-449,153	309,754	-0,064	0,085
-448,138	-51,389	-0,135	-0,045
-447,124	-200,000	0,010	-0,045
-446,109	210,624	0,123	-0,139
-445,095	532,440	0,044	-0,075
-444,080	-200,000	0,014	0,066
-443,065	723,115	0,014	-0,026
-442,051	-200,000	0,013	0,045
-441,036	-121,358	-0,098	-0,012
-440,022	800,000	-0,049	0,133
-439,007	592,541	0,030	-0,054
-437,992	-32,360	0,113	0,045
-436,978	-3,537	0,136	0,068
-435,963	420,710	0,018	0,028
-434,949	-28,859	-0,159	-0,065
-433,934	-77,695	-0,049	-0,012
-432,919	767,914	-0,012	0,024
-431,905	230,141	-0,092	-0,109
-430,890	219,751	0,084	-0,097
-429,876	390,238	0,060	-0,089
-428,861	164,398	-0,080	-0,081
-427,846	-200,000	-0,004	0,080
-426,832	800,000	0,022	-0,053
-425,817	800,000	0,036	-0,077
-424,803	74,883	-0,015	-0,012
-423,788	-21,988	-0,019	0,008
-422,773	-200,000	0,032	0,194
-421,759	586,736	0,113	0,199
-420,744	-24,531	0,037	-0,016
-419,730	305,936	0,028	-0,038
-418,715	800,000	0,043	-0,093
-417,701	-200,000	-0,004	-0,047
-416,686	417,592	-0,076	0,116
-415,671	27,124	0,084	-0,051
-414,657	-200,000	-0,006	-0,022
-413,642	41,779	-0,115	0,075
-412,628	-200,000	-0,012	-0,093
-411,613	800,000	0,068	-0,141
-410,598	-34,134	0,050	0,019
-409,584	-200,000	-0,002	0,025
-408,569	-200,000	-0,003	0,080
-407,555	800,000	0,067	0,179
-406,540	800,000	0,051	-0,111
-405,525	-200,000	0,020	-0,232
-404,511	-200,000	0,033	-0,182
-403,496	-134,148	-0,020	0,002
-402,482	295,339	0,116	0,153
-401,467	-105,295	0,068	0,011
-400,452	315,872	0,019	0,026
-399,438	222,272	-0,039	0,045
-398,423	-200,000	0,042	-0,136
-397,409	-75,576	0,117	-0,030
-396,394	61,281	-0,041	0,029
-395,379	-200,000	-0,007	0,047
-394,365	-200,000	-0,027	0,108
-393,350	-92,829	0,023	0,005
-392,336	-129,157	-0,188	0,019
-391,321	185,253	-0,068	0,073
-390,306	-200,000	-0,027	-0,160
-389,292	114,916	-0,065	-0,057
-388,277	45,594	0,042	0,027
-387,263	-65,337	0,048	0,014
-386,248	84,720	0,041	0,032
-385,233	676,770	0,011	-0,020
-384,219	-131,448	-0,078	-0,007
-383,204	-200,000	-0,005	0,144
-382,190	434,858	0,054	0,084
-381,175	-200,000	-0,002	-0,042
-380,160	-72,888	-0,051	-0,013
-379,146	-200,000	-0,003	0,126
-378,131	800,000	0,070	0,189
-377,117	-200,000	0,012	-0,130
-376,102	-83,236	0,093	0,021
-375,088	-200,000	-0,001	0,065
-374,073	39,251	-0,093	-0,059
-373,058	401,501	-0,044	-0,066
-372,044	-66,954	0,143	-0,040
-371,029	-63,867	0,124	-0,036
-370,015	-96,261	0,105	0,020
-369,000	-200,000	0,009	-0,052
-367,985	800,000	0,025	-0,078
-366,971	260,950	-0,025	-0,031
-365,956	165,235	-0,032	-0,032
-364,942	-200,000	-0,004	0,081
-363,927	-45,895	0,096	0,034
-362,912	195,399	-0,115	0,125
-361,898	229,035	0,066	0,077
-360,883	59,910	-0,063	-0,044
-359,869	-200,000	0,007	-0,120
-358,854	-200,000	0,010	-0,066
-357,839	-118,040	-0,080	-0,010
-356,825	-46,037	0,076	0,027
-355,810	-200,000	0,013	0,073
-354,796	100,464	0,110	-0,091
-353,781	-200,000	0,041	-0,164
-352,766	-200,000	0,003	-0,076
-351,752	-200,000	0,003	-0,129
-350,737	4,090	-0,034	0,018
-349,723	-200,000	0,001	0,059
-348,708	-50,503	0,036	0,012
-347,693	-200,000	-0,005	-0,202
-346,679	-200,000	0,006	-0,149
-345,664	381,230	0,071	-0,104
-344,650	792,004	-0,037	0,073
-343,635	-94,898	0,119	0,023
-342,620	800,000	-0,044	0,126
-341,606	19,704	0,197	0,113
-340,591	-91,203	-0,164	-0,033
-339,577	-200,000	0,017	-0,064
-338,562	-39,599	-0,119	-0,044
-337,548	337,389	0,018	0,026
-336,533	-137,940	0,112	-0,009
-335,518	-200,000	0,006	0,053
-334,504	-73,471	0,132	0,034
-333,489	34,963	0,082	0,051
-332,475	800,000	0,021	-0,047
-331,460	-200,000	-0,005	0,064
-330,445	513,098	-0,057	0,096
-329,431	800,000	0,014	-0,030
-328,416	-78,946	0,099	-0,024
-327,402	573,087	0,021	-0,037
-326,387	-137,763	-0,128	0,010
-325,372	-90,642	-0,142	0,029
-324,358	82,300	0,189	-0,146
-323,343	422,927	-0,049	-0,076
-322,329	800,000	0,037	0,082
-321,314	-200,000	-0,014	0,098
-320,299	-200,000	-0,000	0,076
-319,285	595,893	-0,009	0,017
-318,270	-86,562	0,100	-0,022
-317,256	-200,000	0,001	-0,006
-316,241	109,658	-0,046	0,039
-315,226	-158,813	0,096	-0,004
-314,212	800,000	-0,018	0,053
-313,197	86,601	0,148	0,117
-312,183	-200,000	-0,008	0,060
-311,168	786,071	0,085	0,166
-310,153	-200,000	0,021	-0,094
-309,139	-26,699	-0,052	0,021
-308,124	565,610	0,061	-0,105
-307,110	-200,000	0,011	0,040
-306,095	-200,000	0,002	-0,079
-305,080	-92,530	-0,123	-0,024
-304,066	-135,157	0,116	-0,010
-303,051	-106,484	-0,111	0,017
-302,037	-89,086	0,022	-0,005
-301,022	143,762	-0,094	-0,089
-300,008	-62,782	0,116	0,034
-298,993	37,594	0,030	0,019
-297,978	357,915	-0,129	0,184
-296,964	63,280	-0,059	0,042
-295,949	-22,296	-0,056	0,024
-294,935	-135,949	-0,061	-0,005
-293,920	64,591	0,031	-0,022
-292,905	-134,259	0,139	-0,012
-291,891	-117,791	0,125	0,016
-290,876	800,000	0,027	0,069
-289,862	254,782	0,083	-0,101
-288,847	-200,000	-0,054	-0,289
-287,832	-104,503	0,143	0,023
-286,818	-200,000	-0,036	0,146
-285,803	180,337	0,008	0,008
-284,789	-116,179	0,036	-0,005
-283,774	408,949	0,032	-0,049
-282,759	-41,766	-0,098	-0,035
-281,745	-200,000	0,018	-0,063
-280,730	-200,000	0,034	-0,213
-279,716	131,417	0,068	0,062
-278,701	-146,891	-0,146	0,009
-277,686	91,624	0,122	0,097
-276,672	-15,727	0,137	-0,062
-275,657	537,287	-0,086	0,147
-274,643	29,625	0,048	-0,029
-273,628	66,353	-0,164	-0,119
-272,613	800,000	-0,047	-0,093
-271,599	57,229	-0,054	-0,038
-270,584	-51,544	-0,046	-0,015
-269,570	-19,947	0,165	0,072
-268,555	147,061	0,066	0,063
-267,540	800,000	0,011	0,021
-266,526	293,218	0,051	0,066
-265,511	39,724	0,060	-0,038
-264,497	171,989	-0,032	-0,033
-263,482	87,626	-0,053	-0,042
-262,467	20,527	0,138	0,079
-261,453	313,880	-0,049	0,066
-260,438	78,165	-0,069	-0,052
-259,424	401,639	0,071	-0,107
-258,409	-200,000	-0,004	0,036
-257,395	259,790	0,048	0,059
-256,380	-200,000	-0,044	0,155
-255,365	-200,000	-0,007	-0,051
-254,351	800,000	0,029	-0,088
-253,336	-200,000	0,054	-0,182
-252,322	137,656	0,044	-0,041
-251,307	50,302	0,106	0,071
-250,292	-172,335	0,026	0,001
-249,278	-166,576	0,163	-0,005
-248,263	202,729	0,077	0,085
-247,249	-67,142	0,030	0,008
-246,234	800,000	0,012	-0,038
-245,219	800,000	-0,034	-0,071
-244,205	-130,040	-0,030	-0,003
-243,190	63,265	0,138	-0,098
-242,176	800,000	-0,015	-0,031
-241,161	0,824	0,031	0,016
-240,146	-200,000	-0,038	0,139
-239,132	279,864	-0,078	-0,099
-238,117	-200,000	-0,018	-0,086
-237,103	-72,364	0,074	0,019
-236,088	-61,171	0,125	0,037
-235,073	-200,000	0,014	0,089
-234,059	800,000	0,039	0,092
-233,044	352,199	-0,132	0,187
-232,030	-58,469	0,098	-0,030
-231,015	800,000	0,011	-0,025
-230,000	-153,410	-0,083	0,004
-228,986	455,991	0,088	-0,140
-227,971	800,000	-0,035	-0,070
-226,957	-81,427	-0,112	0,026
-225,942	-30,917	0,112	0,045
-224,927	454,926	-0,047	0,075
-223,913	-61,575	-0,106	-0,031
-222,898	-98,086	-0,126	0,023
-221,884	101,791	-0,078	0,064
-220,869	-200,000	0,003	-0,029
-219,855	-8,654	0,092	0,044
-218,840	-200,000	-0,024	-0,098
-217,825	-200,000	-0,001	-0,023
-216,811	48,173	0,052	-0,035
-215,796	-200,000	-0,024	-0,080
-214,782	800,000	-0,034	0,092
-213,767	252,792	-0,112	0,136
-212,752	-200,000	0,027	0,111
-211,738	-200,000	0,023	0,124
-210,723	-200,000	-0,021	0,103
-209,709	800,000	-0,046	-0,106
-208,694	-169,155	-0,120	-0,003
-207,679	-200,000	-0,019	0,072
-206,665	-200,000	-0,012	-0,073
-205,650	153,549	-0,054	0,052
-204,636	-59,301	0,094	0,029
-203,621	-200,000	0,042	-0,171
-202,606	101,051	-0,148	0,122
-201,592	90,719	-0,056	0,045
-200,577	-200,000	0,001	0,041
-199,563	404,349	0,040	-0,060
-198,548	96,519	0,097	0,079
-197,533	59,295	0,132	0,092
-196,519	800,000	0,040	0,080
-195,504	6,045	0,046	-0,024
-194,490	-200,000	-0,014	-0,071
-193,475	97,110	-0,106	-0,086
-192,460	-23,191	0,041	-0,017
-191,446	96,047	0,047	-0,038
-190,431	-62,156	-0,058	0,017
-189,417	-200,000	0,019	0,151
-188,402	-58,251	-0,069	0,021
-187,387	-200,000	0,013	0,049
-186,373	-120,005	-0,036	0,004
-185,358	-94,115	-0,103	-0,020
-184,344	264,393	0,076	0,095
-183,329	800,000	0,018	0,042
-182,315	-200,000	-0,015	0,089
-181,300	-51,210	-0,017	0,006
-180,285	-12,256	-0,070	-0,032
-179,271	315,890	-0,055	-0,073
-178,256	-61,406	0,042	0,013
-177,242	25,991	0,076	-0,045
-176,227	-200,000	0,057	0,240
-175,212	-200,000	0,007	0,135
-174,198	-100,618	-0,198	-0,034
-173,183	25,707	-0,079	0,047
-172,169	800,000	-0,040	-0,109
-171,154	-200,000	-0,027	0,151
-170,139	-24,537	0,046	-0,020
-169,125	-74,825	0,058	0,015
-168,110	252,739	0,079	-0,096
-167,096	156,817	-0,074	0,072
-166,081	-200,000	0,015	-0,048
-165,066	-15,011	-0,126	-0,057
-164,052	-60,715	0,110	0,033
-163,037	282,601	0,066	0,084
-162,023	-143,878	-0,035	0,002
-161,008	-148,697	0,035	-0,002
-159,993	-200,000	0,020	0,079
-158,979	255,294	-0,072	-0,087
-157,964	-89,955	-0,140	-0,029
-156,950	30,107	-0,071	-0,043
-155,935	-168,324	0,064	-0,002
-154,920	96,124	0,095	-0,077
-153,906	-200,000	-0,000	0,060
-152,891	87,012	-0,090	0,070
-151,877	251,519	0,029	-0,035
-150,862	113,851	-0,102	-0,088
-149,847	-200,000	0,004	-0,091
-148,833	800,000	0,019	0,052
-147,818	-200,000	0,001	0,096
-146,804	-20,392	-0,104	0,045
-145,789	19,337	0,077	-0,044
-144,775	-200,000	0,009	-0,108
-143,760	72,524	-0,162	-0,120
-142,745	-58,088	0,064	0,020
-141,731	263,636	0,093	-0,114
-140,716	-200,000	0,028	-0,132
-139,702	800,000	0,043	0,114
-138,687	693,697	0,072	0,134
-137,672	235,598	0,078	-0,091
-136,658	800,000	0,013	0,034
-135,643	139,413	-0,019	0,018
-134,629	-200,000	-0,028	0,090
-133,614	-75,195	0,111	0,028
-132,599	292,255	-0,014	-0,019
-131,585	110,789	0,061	0,052
-130,570	-56,954	0,109	-0,034
-129,556	-200,000	-0,008	-0,054
-128,541	-29,419	-0,132	-0,053
-127,526	-200,000	0,010	0,135
-126,512	-200,000	-0,011	0,068
-125,497	-73,973	0,183	-0,047
-124,483	-200,000	-0,006	-0,031
-123,468	-200,000	-0,007	0,059
-122,453	-200,000	-0,014	-0,146
-121,439	800,000	0,033	-0,103
-120,424	-91,026	-0,035	-0,007
-119,410	31,148	-0,048	-0,029
-118,395	-106,211	0,119	-0,019
-117,380	-45,914	0,098	-0,034
-116,366	-98,593	-0,099	0,018
-115,351	-200,000	0,008	0,031
-114,337	800,000	-0,011	-0,031
-113,322	258,611	-0,077	0,094
-112,307	548,708	-0,029	-0,049
-111,293	-200,000	0,007	0,092
-110,278	-47,594	0,153	0,052
-109,264	517,113	0,027	-0,046
-108,249	-46,902	0,090	0,031
-107,234	256,650	-0,042	0,051
-106,220	-36,758	-0,158	-0,060
-105,205	36,626	-0,046	0,029
-104,191	246,327	0,088	-0,105
-103,176	-200,000	0,018	0,136
-102,162	-200,000	0,026	0,124
-101,147	57,790	0,063	-0,043
-100,132	438,474	0,046	-0,071
-99,118	355,270	0,062	-0,088
-98,103	800,000	-0,013	0,028
-97,089	29,836	0,059	0,035
-96,074	-200,000	-0,005	-0,034
-95,059	85,751	0,081	0,063
-94,045	-51,316	-0,146	0,048
-93,030	-44,850	-0,179	-0,063
-92,016	-200,000	-0,005	0,085
-91,001	-200,000	0,002	0,008
-89,986	311,272	-0,091	-0,120
-88,972	-10,658	0,107	-0,050
-87,957	-140,627	-0,047	0,003
-86,943	287,215	-0,041	0,053
-85,928	25,061	-0,046	-0,027
-84,913	-37,194	-0,059	-0,022
-83,899	-200,000	0,009	0,092
-82,884	17,948	0,095	0,053
-81,870	-200,000	-0,011	0,052
-80,855	10,460	0,045	0,024
-79,840	-200,000	-0,006	-0,076
-78,826	800,000	-0,035	-0,073
-77,811	-153,328	-0,057	-0,003
-76,797	309,911	-0,037	0,049
-75,782	-200,000	0,007	-0,042
-74,767	136,196	0,051	-0,047
-73,753	393,999	-0,096	0,142
-72,738	800,000	-0,035	0,100
-71,724	-174,872	0,070	-0,001
-70,709	61,005	-0,126	-0,088
-69,694	-101,562	0,117	-0,020
-68,680	-200,000	0,013	-0,112
-67,665	-200,000	0,010	0,135
-66,651	-160,074	-0,078	0,003
-65,636	212,732	-0,083	0,093
-64,622	-18,156	0,019	0,009
-63,607	414,531	-0,034	-0,052
-62,592	800,000	0,065	-0,136
-61,578	313,798	0,041	0,054
-60,563	800,000	-0,044	0,124
-59,549	800,000	-0,045	0,129
-58,534	27,979	-1,840	-1,094
-57,519	405,399	-1,329	-1,985
-56,505	-200,000	-0,145	-4,366
-55,490	501,178	0,820	1,342
-54,476	800,000	5,123	11,211
-53,461	-200,000	20,657	327,555
-52,446	800,000	752,819	2314,758
-51,432	551,368	1658,360	2822,054
-50,417	74,035	1663,719	1231,532
-49,403	19,229	1537,033	868,925
-48,388	13,196	1459,757	796,046
-47,373	18,837	1450,182	817,884
-46,359	16,120	1439,739	799,029
-45,344	11,483	1435,429	774,520
-44,330	11,374	1433,752	773,067
-43,315	11,378	1431,754	771,975
-42,300	11,376	1430,077	771,030
-41,286	11,432	1428,563	770,450
-40,271	11,377	1427,289	769,473
-39,257	11,386	1426,176	768,883
-38,242	11,425	1425,111	768,464
-37,227	11,433	1423,849	767,790
-36,213	11,445	1422,644	767,168
-35,198	11,443	1421,349	766,429
-34,184	11,423	1420,619	765,912
-33,169	11,389	1419,259	764,986
-32,154	11,413	1418,322	764,565
-31,140	11,446	1417,035	763,997
-30,125	11,482	1415,847	763,496
-29,111	11,506	1414,744	762,980
-28,096	11,429	1413,497	761,918
-27,082	11,405	1412,451	761,210
-26,067	11,413	1411,433	760,668
-25,052	11,414	1410,271	760,019
-24,038	11,388	1409,582	759,493
-23,023	11,371	1408,436	758,770
-22,009	11,380	1407,308	758,172
-20,994	11,358	1406,409	757,557
-19,979	11,379	1405,499	757,132
-18,965	11,349	1404,552	756,453
-17,950	11,325	1403,614	755,806
-16,936	11,271	1403,014	755,199
-15,921	11,258	1401,921	754,524
-14,906	11,256	1400,873	753,918
-13,892	11,292	1399,756	753,454
-12,877	11,282	1398,989	752,967
-11,863	11,252	1398,463	752,515
-10,848	11,236	1397,472	751,878
-9,833	11,261	1396,404	751,389
-8,819	11,174	1395,667	750,557
-7,804	11,168	1394,722	749,991
-6,790	11,160	1393,551	749,296
-5,775	11,215	1392,673	749,048
-4,760	11,225	1391,520	748,444
-3,746	11,205	1390,813	747,941
-2,731	11,196	1390,074	747,475
-1,717	11,198	1388,903	746,822
-0,702	11,155	1387,394	745,786
0,313	15,184	1301,737	718,205
1,327	31,528	694,006	420,129
2,342	48,695	120,657	79,705
3,356	1,159	16,432	8,296
4,371	-1,286	3,429	1,703
5,386	3,864	0,844	0,433
6,400	800,000	0,146	0,369
7,415	186,379	-0,232	-0,244
8,429	-65,391	-0,373	-0,105
9,444	164,350	-0,285	-0,284
10,459	85,031	-0,284	-0,220
11,473	68,363	-0,400	-0,289
12,488	46,736	-0,221	-0,144
13,502	128,985	-0,196	-0,176
14,517	70,312	-0,284	-0,206
15,531	189,889	-0,317	-0,335
16,546	11,203	-0,301	-0,162
17,561	171,152	-0,304	-0,307
18,575	526,739	-0,126	-0,210
19,590	250,086	-0,215	-0,258
20,604	-83,579	-0,122	-0,027
21,619	66,664	-0,421	-0,302
22,634	10,409	-0,475	-0,254
23,648	-6,608	-0,542	-0,259
24,663	101,131	-0,341	-0,279
25,677	20,453	-0,390	-0,222
26,692	587,556	-0,152	-0,265
27,707	-12,660	-0,288	-0,132
28,721	23,661	-0,400	-0,231
29,736	-24,530	-0,511	-0,213
30,750	83,340	-0,458	-0,351
31,765	-39,615	-0,370	-0,136
32,780	299,735	-0,212	-0,275
33,794	106,899	-0,338	-0,282
34,809	122,243	-0,382	-0,336
35,823	422,289	-0,306	-0,464
36,838	190,795	-0,358	-0,379
37,853	90,889	-0,379	-0,299
38,867	12,014	-0,427	-0,230
39,882	64,273	-0,340	-0,240
40,896	88,526	-0,340	-0,266
41,911	174,073	-0,304	-0,309
42,926	-72,360	-0,345	-0,089
43,940	222,343	-0,295	-0,335
44,955	68,989	-0,365	-0,263
45,969	25,264	-0,430	-0,250
46,984	85,615	-0,339	-0,262
47,999	10,375	-0,186	-0,099
49,013	51,397	-0,407	-0,272
50,028	79,431	-0,360	-0,271
51,042	51,880	-0,365	-0,244
52,057	58,193	-0,391	-0,269
53,071	25,408	-0,335	-0,195
54,086	418,597	-0,199	-0,299
55,101	-44,605	-0,427	-0,149
56,115	-24,676	-0,283	-0,118
57,130	9,819	-0,453	-0,241
58,144	466,152	-0,225	-0,355
59,159	173,277	-0,356	-0,361
60,174	-48,005	-0,369	-0,124
61,188	14,359	-0,376	-0,205
62,203	181,556	-0,204	-0,211
63,217	47,950	-0,219	-0,143
64,232	30,020	-0,334	-0,199
65,247	117,415	-0,384	-0,331
66,261	14,588	-0,384	-0,210
67,276	80,648	-0,367	-0,278
68,290	121,067	-0,208	-0,181
69,305	56,628	-0,365	-0,249
70,320	8,720	-0,288	-0,152
71,334	-61,145	-0,360	-0,106
72,349	-30,522	-0,427	-0,169
73,363	-18,303	-0,470	-0,205
74,378	-81,825	-0,357	-0,081
75,393	-31,509	-0,314	-0,123
76,407	-37,213	-0,355	-0,132
77,422	25,521	-0,318	-0,185
78,436	191,098	-0,214	-0,226
79,451	40,651	-0,243	-0,153
80,466	268,959	-0,245	-0,302
81,480	85,126	-0,276	-0,212
82,495	-52,140	-0,405	-0,131
83,509	34,603	-0,293	-0,179
84,524	-14,854	-0,350	-0,157
85,539	50,399	-0,262	-0,173
86,553	-102,039	-0,319	-0,053
87,568	77,010	-0,301	-0,224
88,582	18,978	-0,293	-0,164
89,597	67,246	-0,270	-0,193
90,611	-3,767	-0,293	-0,142
91,626	30,785	-0,265	-0,159
92,641	123,633	-0,176	-0,154
93,655	-154,091	-0,298	-0,014
94,670	284,870	-0,140	-0,177
95,684	3,658	-0,452	-0,230
96,699	-144,972	-0,217	-0,014
97,714	23,028	-0,291	-0,167
98,728	-69,779	-0,369	-0,098
99,743	136,980	-0,259	-0,237
100,757	148,939	-0,312	-0,295
101,772	149,333	-0,349	-0,331
102,787	-78,056	-0,262	-0,063
103,801	-12,692	-0,296	-0,135
104,816	32,664	-0,246	-0,148
105,830	58,971	-0,120	-0,082
106,845	-43,816	-0,242	-0,085
107,860	41,786	-0,226	-0,143
108,874	144,399	-0,267	-0,249
109,889	351,221	-0,209	-0,290
110,903	293,168	-0,232	-0,297
111,918	13,064	-0,254	-0,137
112,933	41,101	-0,337	-0,213
113,947	11,026	-0,148	-0,079
114,962	60,157	-0,344	-0,237
115,976	165,319	-0,159	-0,158
116,991	208,105	-0,277	-0,302
118,006	-2,937	-0,383	-0,186
119,020	100,020	-0,223	-0,181
120,035	57,927	-0,190	-0,130
121,049	94,089	-0,268	-0,212
122,064	163,492	-0,241	-0,237
123,079	381,037	-0,191	-0,275
124,093	-48,072	-0,227	-0,076
125,108	34,971	-0,263	-0,160
126,122	72,083	-0,282	-0,205
127,137	356,063	-0,152	-0,212
128,151	176,854	-0,218	-0,222
129,166	219,493	-0,196	-0,219
130,181	306,810	-0,171	-0,222
131,195	78,799	-0,302	-0,225
132,210	-79,684	-0,366	-0,086
133,224	-85,799	-0,151	-0,032
134,239	59,913	-0,298	-0,205
135,254	175,147	-0,277	-0,280
136,268	-114,342	-0,280	-0,037
137,283	115,264	-0,244	-0,208
138,297	95,662	-0,277	-0,220
139,312	628,692	-0,154	-0,272
140,327	125,741	-0,257	-0,226
141,341	-54,156	-0,375	-0,118
142,356	-58,622	-0,199	-0,060
143,370	191,694	-0,151	-0,158
144,385	-127,053	-0,315	-0,032
145,400	-5,605	-0,354	-0,168
146,414	137,188	-0,222	-0,203
147,429	-7,887	-0,285	-0,134
148,443	112,017	-0,205	-0,172
149,458	-68,643	-0,299	-0,080
150,473	147,978	-0,261	-0,245
151,487	92,395	-0,140	-0,110
152,502	4,279	-0,307	-0,156
153,516	110,116	-0,302	-0,252
154,531	367,134	-0,183	-0,258
155,546	48,529	-0,258	-0,168
156,560	103,665	-0,205	-0,168
157,575	127,266	-0,142	-0,125
158,589	20,667	-0,336	-0,189
159,604	-17,820	-0,236	-0,102
160,619	406,025	-0,198	-0,292
161,633	477,236	-0,165	-0,261
162,648	131,301	-0,292	-0,261
163,662	454,600	-0,154	-0,239
164,677	214,729	-0,218	-0,241
165,692	114,755	-0,133	-0,113
166,706	30,994	-0,203	-0,121
167,721	451,279	-0,142	-0,220
168,735	227,758	-0,167	-0,189
169,750	-12,018	-0,256	-0,116
170,764	141,059	-0,145	-0,134
171,779	324,398	-0,162	-0,215
172,794	56,827	-0,276	-0,187
173,808	142,389	-0,104	-0,096
174,823	94,402	-0,190	-0,150
175,837	17,158	-0,294	-0,162
176,852	181,555	-0,271	-0,278
177,867	156,000	-0,144	-0,138
178,881	-2,449	-0,181	-0,088
179,896	-26,426	-0,136	-0,055
180,910	261,000	-0,174	-0,210
181,925	800,000	-0,122	-0,348
182,940	73,490	-0,184	-0,134
183,954	-10,254	-0,206	-0,094
184,969	59,550	-0,262	-0,179
185,983	102,497	-0,185	-0,150
186,998	-100,703	-0,282	-0,048
188,013	-96,889	-0,283	-0,051
189,027	139,873	-0,235	-0,215
190,042	23,170	-0,206	-0,117
191,056	190,508	-0,192	-0,200
192,071	234,267	-0,222	-0,254
193,086	29,758	-0,216	-0,127
194,100	-102,728	-0,186	-0,031
195,115	56,194	-0,226	-0,152
196,129	-96,903	-0,273	-0,049
197,144	-130,250	-0,077	-0,007
198,159	800,000	-0,118	-0,229
199,173	1,177	-0,238	-0,118
200,188	410,960	-0,081	-0,119
201,202	164,023	-0,185	-0,181
202,217	-194,789	-0,276	0,001
203,232	365,757	-0,159	-0,222
204,246	800,000	-0,098	-0,220
205,261	512,932	-0,139	-0,225
206,275	170,530	-0,248	-0,246
207,290	305,378	-0,145	-0,187
208,304	361,611	-0,058	-0,080
209,319	29,826	-0,243	-0,143
210,334	-63,954	-0,132	-0,037
211,348	146,982	-0,122	-0,114
212,363	69,827	-0,266	-0,190
213,377	-18,154	-0,215	-0,093
214,392	304,739	-0,152	-0,195
215,407	-200,000	-0,047	-0,187
216,421	-66,958	-0,226	-0,061
217,436	117,317	-0,265	-0,225
218,450	122,259	-0,209	-0,180
219,465	-63,048	-0,252	-0,072
220,480	21,656	-0,309	-0,174
221,494	-59,773	-0,212	-0,063
222,509	-57,840	-0,208	-0,062
223,523	31,051	-0,136	-0,081
224,538	-64,733	-0,184	-0,051
225,553	463,075	-0,206	-0,319
226,567	-50,511	-0,308	-0,100
227,582	113,604	-0,237	-0,199
228,596	522,844	-0,121	-0,198
229,611	174,999	-0,156	-0,157
230,626	-189,726	-0,230	0,002
231,640	-6,894	-0,123	-0,058
232,655	-72,956	-0,231	0,058
233,669	20,728	-0,216	-0,121
234,684	44,309	-0,281	-0,178
235,699	9,260	-0,248	-0,129
236,713	-200,000	0,029	-0,106
237,728	417,633	-0,102	-0,151
238,742	98,225	-0,201	-0,160
239,757	-87,054	-0,160	-0,033
240,772	-18,047	-0,224	-0,097
241,786	-29,413	-0,114	-0,045
242,801	43,940	-0,172	-0,109
243,815	-94,844	-0,115	-0,021
244,830	255,609	-0,152	-0,181
245,844	188,995	-0,217	-0,224
246,859	-54,870	-0,138	0,043
247,874	193,182	-0,129	-0,135
248,888	353,532	-0,125	-0,171
249,903	62,355	-0,147	-0,101
250,917	167,304	-0,111	-0,109
251,932	-146,111	-0,206	0,012
252,947	-34,218	-0,209	-0,079
253,961	56,238	-0,186	-0,124
254,976	-29,469	-0,202	-0,079
255,990	-194,916	-0,193	0,001
257,005	-115,897	-0,149	0,019
258,020	428,430	-0,078	-0,117
259,034	800,000	-0,051	-0,125
260,049	-1,755	-0,242	-0,117
261,063	-163,316	-0,212	-0,007
262,078	73,072	-0,267	-0,192
263,093	28,074	-0,167	-0,097
264,107	-59,062	-0,173	0,051
265,122	209,873	-0,120	-0,130
266,136	118,926	-0,126	-0,108
267,151	27,895	-0,228	-0,132
268,166	263,545	-0,107	-0,129
269,180	110,618	-0,228	-0,189
270,195	-52,485	-0,245	-0,078
271,209	-35,048	-0,176	-0,066
272,224	275,495	-0,062	-0,076
273,239	800,000	-0,116	-0,238
274,253	800,000	-0,048	-0,116
275,268	-10,020	-0,180	-0,082
276,282	-15,496	-0,202	-0,089
277,297	84,505	-0,289	-0,218
278,312	274,769	-0,159	-0,194
279,326	-47,861	-0,190	-0,063
280,341	661,485	-0,144	-0,256
281,355	-120,726	-0,087	0,010
282,370	-80,160	-0,203	-0,047
283,384	59,679	-0,120	-0,082
284,399	58,575	-0,263	-0,177
285,414	-41,264	-0,150	-0,053
286,428	-32,015	-0,133	0,051
287,443	800,000	-0,062	-0,170
288,457	7,388	-0,128	-0,065
289,472	62,397	-0,128	-0,088
290,487	35,585	-0,233	-0,140
291,501	-200,000	0,038	-0,132
292,516	-128,007	-0,179	0,017
293,530	-50,894	-0,127	-0,041
294,545	332,494	-0,127	-0,170
295,560	171,270	-0,106	-0,104
296,574	604,951	-0,121	-0,208
297,589	800,000	-0,041	-0,096
298,603	-200,000	-0,057	-0,210
299,618	800,000	-0,039	-0,117
300,633	800,000	-0,057	-0,144
301,647	-200,000	-0,040	-0,129
302,662	19,646	-0,124	-0,069
303,676	82,918	-0,110	-0,082
304,691	61,241	-0,128	-0,087
305,706	252,484	-0,163	-0,192
306,720	498,254	-0,101	-0,161
307,735	-200,000	-0,020	-0,116
308,749	112,152	-0,118	-0,098
309,764	20,289	-0,162	-0,090
310,779	-42,521	-0,258	-0,090
311,793	499,882	-0,092	-0,146
312,808	271,529	-0,069	-0,084
313,822	-7,375	-0,085	-0,039
314,837	144,870	-0,179	-0,165
315,852	108,923	-0,130	-0,106
316,866	195,037	-0,100	-0,104
317,881	-32,576	-0,128	-0,049
318,895	-200,000	-0,028	-0,148
319,910	210,076	-0,160	-0,173
320,925	12,189	-0,181	-0,095
321,939	229,369	-0,114	-0,128
322,954	-170,641	-0,097	-0,002
323,968	-83,366	-0,113	0,025
324,983	478,265	-0,071	-0,110
325,997	518,106	-0,058	-0,093
327,012	-200,000	-0,051	-0,259
328,027	-79,608	-0,125	-0,029
329,041	-26,173	-0,199	-0,080
330,056	-124,100	-0,115	-0,012
331,070	-87,488	-0,171	-0,035
332,085	-56,281	-0,187	-0,057
333,100	25,762	-0,066	0,038
334,114	-106,594	-0,163	-0,025
335,129	506,693	-0,078	-0,124
336,143	258,415	-0,143	-0,169
337,158	20,160	-0,250	-0,138
338,173	29,699	-0,114	-0,066
339,187	50,464	-0,127	-0,082
340,202	90,602	-0,181	-0,139
341,216	375,429	-0,166	-0,232
342,231	73,972	-0,194	-0,139
343,246	-200,000	-0,044	-0,260
344,260	-200,000	-0,036	-0,292
345,275	-66,236	-0,095	0,026
346,289	-200,000	0,011	-0,040
347,304	322,897	-0,108	-0,141
348,319	7,290	-0,223	-0,114
349,333	-97,788	-0,268	-0,047
350,348	-174,638	-0,083	-0,002
351,362	536,040	-0,081	-0,132
352,377	800,000	-0,050	-0,148
353,392	-200,000	-0,052	-0,250
354,406	-147,532	-0,026	-0,001
355,421	207,403	1309,124	1399,245
356,435	159,550	1469,140	1399,734
