DTS Sentinel unit serial number:	SN410029Multiplexer serial number:	ORYXHardware model number:	OX2-SRSoftware version number:	ORYX F/W v4,00 Oryx Data Collector v3.7.2.0data status	okinstallation	B3 Nyhavnadifferential loss correction	single-endedforward channel	channel 1reverse channel	N/Adate	2023/12/03time	12:02:30forward acquisition time	300,00reverse acquisition time	0,00gamma	499,1914k internal	0,3200k external	0,3200temperature offset calibration	1,0000default loss term (dB/km)	0,3820temperature slope calibration	1,0000multiplexer offset coefficient	1,0000multiplexer slope coefficient	1,0000fibre end	0,00T internal ref (°C)	13,75T ext. ref 1 (°C)	-0,52T ext. ref 2 (°C)	-0,55length (m)	temperature (°C)	Stokes	anti-Stokes-744,400	800,000	-0,090	-0,226
-743,385	-200,000	-0,018	0,333
-742,371	26,672	-0,079	-0,048
-741,356	-200,000	-0,016	0,309
-740,342	322,993	-0,179	-0,248
-739,327	-200,000	-0,062	0,298
-738,312	130,478	-0,245	-0,229
-737,298	-200,000	-0,057	0,235
-736,283	326,417	-0,193	-0,269
-735,269	-200,000	0,032	0,304
-734,254	29,987	-0,190	-0,118
-733,239	43,400	-0,276	0,183
-732,225	93,396	-0,154	-0,126
-731,210	-41,781	-0,091	0,034
-730,196	-200,000	-0,005	0,087
-729,181	-200,000	-0,044	-0,200
-728,167	187,939	-0,087	-0,095
-727,152	112,195	0,081	-0,071
-726,137	-143,810	-0,132	-0,009
-725,123	-145,442	0,115	0,007
-724,108	-200,000	-0,015	-0,111
-723,094	800,000	-0,053	-0,168
-722,079	268,101	-0,092	-0,118
-721,064	800,000	0,040	-0,112
-720,050	800,000	-0,029	0,069
-719,035	-138,620	-0,171	-0,013
-718,021	415,397	-0,033	-0,052
-717,006	-85,414	-0,053	0,012
-715,991	255,214	-0,074	0,093
-714,977	-0,213	-0,060	0,031
-713,962	3,493	-0,147	-0,077
-712,948	268,899	0,091	-0,116
-711,933	-146,230	-0,140	-0,009
-710,918	-11,789	0,014	0,007
-709,904	-48,069	-0,080	0,028
-708,889	800,000	-0,102	-0,235
-707,875	161,657	-0,113	-0,115
-706,860	-145,923	-0,094	-0,006
-705,845	-53,414	-0,110	0,036
-704,831	772,317	0,021	0,043
-703,816	-6,359	-0,078	-0,039
-702,802	-200,000	0,028	-0,131
-701,787	-1,147	-0,040	0,020
-700,772	-200,000	0,009	-0,077
-699,758	-162,452	0,020	-0,001
-698,743	41,171	0,068	0,045
-697,729	-200,000	-0,005	0,120
-696,714	800,000	0,014	0,033
-695,699	97,053	-0,055	-0,045
-694,685	200,991	0,192	-0,214
-693,670	66,397	-0,080	-0,059
-692,656	542,818	-0,038	0,066
-691,641	-92,093	-0,037	0,008
-690,627	84,994	0,149	0,119
-689,612	-200,000	0,008	-0,110
-688,597	-200,000	-0,015	0,059
-687,583	800,000	-0,040	0,101
-686,568	-78,388	0,099	-0,025
-685,554	-200,000	-0,015	-0,075
-684,539	-32,380	0,073	0,029
-683,524	-47,282	-0,118	-0,041
-682,510	670,819	-0,037	0,069
-681,495	-200,000	-0,015	-0,063
-680,481	800,000	0,022	0,067
-679,466	10,604	-0,141	-0,078
-678,451	-6,535	-0,095	0,047
-677,437	228,404	-0,027	-0,031
-676,422	28,302	-0,208	0,127
-675,408	-151,936	0,059	-0,003
-674,393	800,000	0,063	0,131
-673,378	13,823	0,132	-0,074
-672,364	71,814	0,170	-0,128
-671,349	800,000	-0,071	-0,144
-670,335	348,278	-0,043	-0,062
-669,320	-100,078	-0,092	-0,016
-668,305	-139,284	0,186	-0,014
-667,291	189,348	-0,109	0,119
-666,276	232,792	-0,057	0,068
-665,262	800,000	0,046	-0,111
-664,247	118,965	-0,047	-0,042
-663,232	642,085	-0,057	-0,105
-662,218	800,000	-0,005	0,014
-661,203	3,732	0,061	0,032
-660,189	800,000	-0,025	-0,075
-659,174	-75,993	-0,129	0,033
-658,159	-45,158	-0,048	0,017
-657,145	29,617	-0,082	-0,051
-656,130	-200,000	-0,002	-0,138
-655,116	-5,461	0,077	0,038
-654,101	-200,000	0,008	0,058
-653,086	300,554	0,022	-0,030
-652,072	-200,000	-0,003	-0,088
-651,057	-169,921	-0,180	0,005
-650,043	123,615	0,042	-0,038
-649,028	51,732	-0,071	0,049
-648,014	-16,773	0,063	0,029
-646,999	800,000	-0,029	0,063
-645,984	800,000	0,017	0,040
-644,970	800,000	0,029	-0,088
-643,955	-162,255	-0,193	-0,007
-642,941	724,873	0,063	-0,123
-641,926	138,208	0,067	-0,063
-640,911	-90,154	-0,127	-0,027
-639,897	-200,000	0,019	-0,104
-638,882	800,000	0,018	-0,042
-637,868	-119,873	0,069	0,008
-636,853	800,000	0,079	-0,175
-635,838	-200,000	-0,017	-0,171
-634,824	-59,833	-0,079	-0,024
-633,809	-62,143	0,036	-0,011
-632,795	-200,000	0,048	0,154
-631,780	312,124	-0,055	0,075
-630,765	-50,187	-0,142	-0,048
-629,751	-1,368	0,040	-0,020
-628,736	220,518	-0,074	-0,086
-627,722	694,324	0,032	-0,061
-626,707	666,016	-0,057	0,107
-625,692	241,359	-0,090	0,109
-624,678	146,871	0,088	-0,086
-623,663	192,477	0,043	-0,047
-622,649	87,263	-0,039	0,031
-621,634	-131,670	-0,049	-0,005
-620,619	785,850	-0,044	0,088
-619,605	-27,755	0,045	0,019
-618,590	-200,000	0,006	0,040
-617,576	263,169	-0,095	0,119
-616,561	119,701	0,058	-0,052
-615,546	213,152	-0,041	-0,047
-614,532	-200,000	0,018	0,125
-613,517	-54,550	-0,089	-0,029
-612,503	-200,000	-0,010	-0,056
-611,488	372,269	0,069	-0,102
-610,474	90,190	0,172	0,139
-609,459	182,958	-0,058	-0,062
-608,444	-102,943	0,057	0,010
-607,430	-200,000	-0,000	-0,169
-606,415	-200,000	-0,035	-0,189
-605,401	-75,086	0,149	0,038
-604,386	-32,911	-0,067	0,027
-603,371	689,649	0,036	-0,068
-602,357	525,356	-0,009	-0,015
-601,342	-89,700	0,115	-0,024
-600,328	49,599	-0,061	0,042
-599,313	-200,000	-0,002	-0,040
-598,298	168,264	0,076	-0,079
-597,284	97,753	0,131	-0,109
-596,269	800,000	-0,012	0,035
-595,255	-200,000	-0,024	0,111
-594,240	190,733	0,123	0,134
-593,225	-200,000	0,000	-0,097
-592,211	603,733	-0,049	-0,088
-591,196	106,225	-0,049	-0,042
-590,182	-200,000	-0,023	-0,085
-589,167	205,536	0,008	0,009
-588,152	-200,000	0,015	0,059
-587,138	29,955	-0,061	0,038
-586,123	-200,000	-0,000	0,021
-585,109	101,017	-0,116	-0,097
-584,094	800,000	-0,043	-0,094
-583,079	-52,245	-0,091	0,030
-582,065	-116,259	0,131	-0,017
-581,050	-200,000	-0,021	0,108
-580,036	-62,350	-0,201	0,060
-579,021	30,000	-0,015	-0,009
-578,006	-60,984	-0,126	0,038
-576,992	-200,000	0,001	0,049
-575,977	-74,831	0,085	-0,022
-574,963	-8,993	0,070	-0,034
-573,948	5,694	0,049	-0,026
-572,934	428,043	0,040	0,063
-571,919	-200,000	0,055	0,196
-570,904	78,611	-0,166	-0,128
-569,890	-151,022	0,130	-0,007
-568,875	-72,962	0,076	-0,020
-567,861	-200,000	0,006	-0,022
-566,846	190,071	0,026	0,028
-565,831	0,692	0,065	-0,033
-564,817	-200,000	0,023	0,072
-563,802	-200,000	0,010	-0,090
-562,788	-200,000	0,025	-0,101
-561,773	-80,464	-0,100	0,024
-560,758	-85,613	0,115	-0,026
-559,744	-200,000	0,010	0,092
-558,729	194,416	0,055	0,060
-557,715	99,580	-0,037	0,031
-556,700	-200,000	-0,049	-0,175
-555,685	-188,140	-0,029	0,000
-554,671	-108,338	-0,112	0,017
-553,656	-191,111	-0,066	0,000
-552,642	-200,000	-0,010	0,160
-551,627	333,681	-0,095	0,133
-550,612	308,650	-0,055	0,074
-549,598	411,513	-0,083	-0,127
-548,583	-200,000	0,034	-0,114
-547,569	116,276	-0,044	0,039
-546,554	-200,000	0,019	-0,144
-545,539	-58,713	0,104	-0,032
-544,525	800,000	0,050	0,126
-543,510	-200,000	-0,037	-0,131
-542,496	237,543	0,025	0,030
-541,481	-200,000	0,002	-0,017
-540,466	36,231	-0,033	-0,021
-539,452	-21,054	-0,010	0,004
-538,437	800,000	0,030	0,072
-537,423	434,705	-0,047	0,074
-536,408	-100,948	-0,110	0,019
-535,393	-69,387	-0,015	-0,004
-534,379	-8,604	0,184	-0,089
-533,364	93,878	0,061	-0,050
-532,350	-90,747	0,205	-0,042
-531,335	-200,000	-0,018	0,100
-530,321	78,858	0,013	-0,010
-529,306	-70,647	-0,102	0,028
-528,291	-200,000	-0,002	0,107
-527,277	-197,306	0,084	0,000
-526,262	-31,033	-0,078	-0,032
-525,248	53,847	0,072	0,050
-524,233	660,658	0,032	-0,060
-523,218	-200,000	-0,046	0,152
-522,204	-5,358	0,159	0,079
-521,189	56,902	0,059	-0,041
-520,175	73,654	-0,051	-0,039
-519,160	86,864	-0,122	-0,097
-518,145	4,657	0,117	0,062
-517,131	-10,363	0,048	0,023
-516,116	205,353	-0,032	-0,036
-515,102	-146,390	0,009	0,001
-514,087	-8,446	-0,134	-0,065
-513,072	-125,390	-0,010	0,001
-512,058	311,023	0,015	-0,021
-511,043	33,152	-0,074	-0,046
-510,029	-44,665	0,083	0,030
-509,014	-118,507	-0,085	-0,011
-507,999	-22,970	-0,065	0,028
-506,985	800,000	-0,054	0,140
-505,970	4,641	-0,111	0,059
-504,956	-200,000	-0,019	-0,064
-503,941	-110,061	-0,087	-0,013
-502,926	-48,235	0,068	0,024
-501,912	-105,457	0,155	-0,025
-500,897	-72,321	-0,072	0,019
-499,883	93,106	-0,045	0,036
-498,868	-88,078	-0,240	-0,051
-497,853	317,060	0,067	-0,092
-496,839	-114,936	-0,045	0,006
-495,824	80,042	-0,080	0,062
-494,810	-200,000	0,024	0,090
-493,795	-155,074	-0,080	0,004
-492,781	800,000	-0,022	0,067
-491,766	182,902	-0,091	-0,097
-490,751	50,730	0,060	0,041
-489,737	800,000	0,058	0,129
-488,722	-167,036	0,171	-0,005
-487,708	737,880	0,073	-0,142
-486,693	-47,871	-0,083	0,029
-485,678	-89,907	-0,098	-0,020
-484,664	800,000	-0,020	-0,058
-483,649	-200,000	-0,000	-0,013
-482,635	-200,000	-0,013	-0,063
-481,620	-200,000	0,049	0,173
-480,605	95,543	0,032	0,026
-479,591	-200,000	0,009	0,036
-478,576	-13,378	-0,058	-0,027
-477,562	800,000	0,051	-0,156
-476,547	10,582	0,153	0,084
-475,532	598,086	0,021	0,037
-474,518	-200,000	0,009	-0,049
-473,503	-200,000	0,056	0,206
-472,489	700,367	-0,042	0,081
-471,474	-200,000	-0,010	0,044
-470,459	-49,604	0,160	0,054
-469,445	-200,000	0,004	0,039
-468,430	214,813	0,042	-0,048
-467,416	-34,821	0,073	0,029
-466,401	-200,000	-0,014	0,063
-465,386	114,274	-0,080	0,070
-464,372	153,144	0,075	0,074
-463,357	-88,789	-0,133	-0,028
-462,343	723,786	-0,043	0,084
-461,328	-101,214	-0,103	0,018
-460,313	-63,816	0,070	-0,020
-459,299	-200,000	0,006	0,150
-458,284	28,882	-0,065	-0,040
-457,270	-200,000	0,001	0,037
-456,255	-98,824	-0,057	-0,010
-455,241	-177,071	0,058	-0,001
-454,226	-200,000	0,000	-0,011
-453,211	-77,157	0,074	0,018
-452,197	33,449	-0,093	0,058
-451,182	560,080	-0,047	0,082
-450,168	127,182	0,126	0,115
-449,153	-200,000	0,019	-0,106
-448,138	800,000	-0,031	0,083
-447,124	-170,266	0,106	-0,003
-446,109	-5,048	0,135	0,067
-445,095	73,871	-0,064	0,048
-444,080	800,000	-0,015	0,042
-443,065	-200,000	-0,011	-0,091
-442,051	-42,022	-0,063	0,023
-441,036	-64,927	-0,143	-0,041
-440,022	-124,969	-0,153	0,017
-439,007	-2,953	-0,123	-0,061
-437,992	-125,287	-0,097	0,011
-436,978	297,381	0,054	0,072
-435,963	-110,533	-0,085	0,013
-434,949	-14,140	-0,092	-0,043
-433,934	-49,400	0,076	-0,026
-432,919	-200,000	0,031	0,112
-431,905	360,670	-0,103	-0,148
-430,890	-156,603	0,036	0,002
-429,876	-70,211	0,161	0,044
-428,861	109,578	0,053	-0,046
-427,846	800,000	-0,036	-0,073
-426,832	315,652	0,015	0,020
-425,817	222,771	-0,082	-0,095
-424,803	557,624	0,036	-0,062
-423,788	100,370	0,072	0,060
-422,773	-200,000	-0,007	0,078
-421,759	-42,213	0,086	0,032
-420,744	-200,000	0,013	0,058
-419,730	618,619	0,023	-0,042
-418,715	304,394	-0,070	-0,094
-417,701	-200,000	-0,010	0,059
-416,686	-57,433	-0,069	-0,022
-415,671	-50,985	-0,027	-0,009
-414,657	45,372	-0,053	0,035
-413,642	333,994	0,020	0,029
-412,628	800,000	-0,020	0,057
-411,613	-200,000	-0,005	0,021
-410,598	800,000	0,024	-0,053
-409,584	-200,000	0,016	0,128
-408,569	655,025	0,034	0,063
-407,555	-200,000	-0,019	0,073
-406,540	330,108	0,051	0,071
-405,525	-200,000	-0,019	-0,075
-404,511	67,402	-0,055	-0,040
-403,496	-200,000	-0,020	-0,084
-402,482	-200,000	-0,033	-0,156
-401,467	361,960	0,005	-0,007
-400,452	-48,049	0,089	0,031
-399,438	31,026	-0,079	0,049
-398,423	-57,425	-0,037	0,012
-397,409	295,704	0,019	-0,025
-396,394	-200,000	-0,014	-0,059
-395,379	89,906	-0,082	0,066
-394,365	800,000	-0,015	-0,044
-393,350	800,000	0,076	0,195
-392,336	-1,467	-0,069	-0,035
-391,321	490,248	-0,085	-0,140
-390,306	188,563	0,049	0,053
-389,292	800,000	0,066	0,143
-388,277	-136,065	-0,040	0,003
-387,263	580,123	-0,089	0,158
-386,248	362,233	0,083	-0,120
-385,233	-102,765	0,033	-0,006
-384,219	89,274	-0,068	-0,054
-383,204	-30,386	0,036	0,015
-382,190	32,710	-0,066	0,041
-381,175	-81,111	-0,083	-0,019
-380,160	-58,897	0,119	0,037
-379,146	800,000	-0,022	0,053
-378,131	-200,000	0,012	-0,065
-377,117	800,000	0,044	-0,117
-376,102	280,723	-0,075	-0,096
-375,088	-34,392	0,051	-0,020
-374,073	-22,311	-0,147	0,064
-373,058	-200,000	0,009	0,052
-372,044	128,208	-0,098	0,090
-371,029	81,375	0,130	0,101
-370,015	390,512	-0,036	0,054
-369,000	154,550	-0,020	0,020
-367,985	-200,000	0,028	0,126
-366,971	14,193	-0,096	-0,054
-365,956	20,595	-0,027	0,016
-364,942	88,677	-0,056	-0,044
-363,927	223,418	0,063	0,073
-362,912	202,140	0,138	-0,153
-361,898	800,000	0,010	0,024
-360,883	194,081	-0,048	-0,052
-359,869	-63,615	-0,062	0,018
-358,854	231,912	0,058	0,069
-357,839	-200,000	0,002	0,059
-356,825	-200,000	0,007	-0,053
-355,810	800,000	0,042	0,087
-354,796	-41,847	0,083	0,030
-353,781	611,019	-0,071	-0,127
-352,766	160,156	-0,153	-0,153
-351,752	167,437	0,027	0,028
-350,737	135,399	0,058	0,054
-349,723	469,303	-0,014	0,023
-348,708	100,619	-0,065	0,054
-347,693	-3,077	-0,029	0,015
-346,679	14,782	-0,119	-0,066
-345,664	156,480	-0,038	-0,038
-344,650	515,972	-0,073	-0,122
-343,635	28,326	0,131	-0,079
-342,620	217,996	0,049	-0,056
-341,606	-7,701	0,067	-0,032
-340,591	800,000	0,019	-0,047
-339,577	145,661	0,009	-0,009
-338,562	-200,000	-0,012	-0,094
-337,548	800,000	0,045	0,111
-336,533	500,349	0,055	-0,091
-335,518	-65,622	-0,042	-0,012
-334,504	60,685	0,040	0,028
-333,489	259,702	0,045	0,055
-332,475	45,637	0,050	-0,033
-331,460	194,266	-0,018	-0,019
-330,445	800,000	0,039	-0,104
-329,431	703,890	0,019	0,036
-328,416	14,425	0,085	0,048
-327,402	800,000	-0,012	-0,038
-326,387	-93,736	-0,049	0,010
-325,372	-200,000	0,011	0,063
-324,358	-49,627	-0,132	-0,045
-323,343	-142,376	-0,060	0,004
-322,329	-27,879	0,095	-0,039
-321,314	-78,433	0,175	-0,042
-320,299	318,724	0,024	0,033
-319,285	800,000	-0,019	0,053
-318,270	-20,286	-0,136	-0,060
-317,256	-200,000	-0,004	0,049
-316,241	-200,000	0,020	0,136
-315,226	535,836	0,051	0,088
-314,212	800,000	-0,031	-0,073
-313,197	-200,000	0,008	0,096
-312,183	800,000	0,063	-0,135
-311,168	142,731	0,060	0,057
-310,153	310,355	0,089	0,119
-309,139	-200,000	0,003	-0,029
-308,124	-129,515	-0,141	-0,014
-307,110	150,661	-0,038	-0,037
-306,095	77,572	-0,103	-0,078
-305,080	-150,998	0,147	-0,008
-304,066	354,342	-0,023	-0,032
-303,051	-181,378	0,082	-0,001
-302,037	217,587	0,074	-0,084
-301,022	800,000	-0,037	-0,108
-300,008	259,025	-0,022	-0,027
-298,993	245,342	0,058	-0,070
-297,978	-90,091	-0,112	-0,023
-296,964	210,134	0,028	-0,031
-295,949	-200,000	-0,015	-0,221
-294,935	434,597	0,024	0,037
-293,920	-200,000	0,009	-0,039
-292,905	298,651	0,042	0,055
-291,891	-150,974	0,188	0,010
-290,876	-200,000	0,011	0,067
-289,862	13,911	0,083	-0,046
-288,847	-200,000	-0,015	-0,176
-287,832	-117,714	-0,072	0,009
-286,818	800,000	0,025	0,049
-285,803	796,270	0,040	0,079
-284,789	-145,510	0,132	-0,008
-283,774	73,578	-0,079	0,059
-282,759	-131,093	-0,088	0,008
-281,745	-30,244	-0,053	0,021
-280,730	757,822	0,046	-0,090
-279,716	-200,000	-0,016	0,070
-278,701	-163,212	0,085	0,003
-277,686	800,000	0,033	0,075
-276,672	0,449	0,070	0,036
-275,657	6,052	-0,148	0,078
-274,643	753,966	0,054	-0,105
-273,628	800,000	0,042	-0,093
-272,613	11,402	0,087	0,047
-271,599	-200,000	0,002	0,095
-270,584	-146,264	0,066	-0,004
-269,570	-29,552	-0,041	0,017
-268,555	800,000	-0,009	-0,029
-267,540	129,528	-0,049	0,045
-266,526	329,922	-0,023	0,031
-265,511	800,000	-0,003	0,006
-264,497	761,268	-0,033	0,065
-263,482	-37,506	0,124	0,047
-262,467	-200,000	0,016	-0,090
-261,453	279,729	-0,033	0,042
-260,438	-60,669	0,031	0,009
-259,424	-200,000	-0,001	-0,031
-258,409	327,313	-0,064	0,087
-257,395	-200,000	0,004	0,052
-256,380	800,000	0,024	0,070
-255,365	-119,322	0,057	-0,007
-254,351	-200,000	-0,007	0,068
-253,336	-58,562	-0,144	-0,044
-252,322	13,080	-0,111	-0,061
-251,307	434,312	0,049	-0,076
-250,292	726,470	-0,063	-0,120
-249,278	-200,000	0,016	-0,061
-248,263	-24,247	0,079	-0,033
-247,249	-200,000	-0,009	-0,047
-246,234	75,375	-0,164	0,123
-245,219	-200,000	0,003	0,028
-244,205	641,328	0,016	0,029
-243,190	-0,177	0,076	-0,039
-242,176	-18,570	-0,067	0,030
-241,161	-19,617	0,229	0,101
-240,146	-13,232	-0,041	-0,019
-239,132	247,743	0,078	-0,094
-238,117	66,674	-0,050	-0,036
-237,103	800,000	-0,031	-0,077
-236,088	-200,000	0,014	0,199
-235,073	-200,000	-0,010	0,054
-234,059	155,685	-0,049	-0,048
-233,044	6,881	0,114	-0,060
-232,030	147,573	0,065	-0,062
-231,015	-200,000	0,005	0,064
-230,000	18,561	-0,054	-0,031
-228,986	27,322	0,034	-0,020
-227,971	-200,000	0,020	0,142
-226,957	123,400	0,112	0,100
-225,942	11,495	-0,106	0,058
-224,927	-200,000	0,005	0,128
-223,913	800,000	-0,048	-0,120
-222,898	140,345	-0,113	-0,106
-221,884	367,352	-0,070	-0,102
-220,869	-0,147	0,071	-0,036
-219,855	751,110	0,053	0,103
-218,840	-18,461	0,011	-0,005
-217,825	310,798	0,014	-0,019
-216,811	-200,000	-0,012	-0,062
-215,796	390,890	-0,075	-0,111
-214,782	-200,000	0,002	-0,115
-213,767	-200,000	0,056	0,000
-212,752	150,992	0,125	-0,121
-211,738	58,010	-0,099	-0,069
-210,723	535,117	-0,021	0,036
-209,709	496,448	0,067	-0,111
-208,694	72,782	0,137	0,102
-207,679	800,000	-0,029	-0,066
-206,665	-47,737	0,084	0,029
-205,650	-60,468	-0,016	0,005
-204,636	145,852	0,103	0,098
-203,621	-102,323	-0,058	0,010
-202,606	-70,616	0,091	-0,024
-201,592	-174,353	-0,137	0,003
-200,577	122,192	0,144	-0,128
-199,563	16,293	-0,096	-0,054
-198,548	84,268	0,042	0,033
-197,533	96,213	0,052	0,043
-196,519	-200,000	-0,000	0,017
-195,504	368,843	0,069	-0,100
-194,490	-66,156	-0,135	-0,038
-193,475	-200,000	-0,006	0,115
-192,460	-165,612	0,051	0,002
-191,446	-48,204	-0,026	-0,009
-190,431	-200,000	0,017	-0,060
-189,417	800,000	-0,023	-0,047
-188,402	800,000	-0,016	-0,032
-187,387	-75,708	-0,123	-0,031
-186,373	-61,547	0,078	-0,023
-185,358	58,183	-0,016	-0,011
-184,344	303,547	0,168	-0,222
-183,329	800,000	-0,031	-0,079
-182,315	41,520	-0,027	-0,017
-181,300	-93,077	0,116	0,023
-180,285	-167,293	-0,202	-0,006
-179,271	-200,000	0,041	-0,222
-178,256	513,861	0,034	0,056
-177,242	-200,000	-0,020	0,081
-176,227	56,644	-0,056	-0,038
-175,212	38,743	0,101	0,064
-174,198	-200,000	0,017	0,064
-173,183	-200,000	0,015	-0,090
-172,169	-4,244	-0,059	-0,029
-171,154	301,663	-0,062	-0,081
-170,139	-107,703	-0,090	0,014
-169,125	-200,000	0,017	0,153
-168,110	368,584	0,054	0,078
-167,096	368,537	-0,033	-0,048
-166,081	9,444	-0,100	-0,054
-165,066	-200,000	-0,020	0,082
-164,052	800,000	0,018	0,051
-163,037	246,100	0,074	0,089
-162,023	-200,000	0,001	0,053
-161,008	77,053	0,067	0,051
-159,993	800,000	0,048	0,139
-158,979	273,962	-0,085	0,107
-157,964	-53,790	-0,068	-0,022
-156,950	-128,032	0,187	-0,019
-155,935	-33,870	-0,105	0,041
-154,920	-200,000	0,000	0,213
-153,906	329,109	0,037	-0,050
-152,891	564,162	-0,041	-0,070
-151,877	690,308	-0,083	-0,156
-150,862	-200,000	0,002	-0,024
-149,847	13,230	-0,088	0,048
-148,833	-200,000	0,011	-0,162
-147,818	-51,007	0,075	0,025
-146,804	800,000	0,043	0,112
-145,789	800,000	0,015	0,031
-144,775	800,000	0,023	-0,065
-143,760	323,686	0,022	0,030
-142,745	179,274	0,007	-0,007
-141,731	-156,796	0,071	0,003
-140,716	38,333	0,156	-0,098
-139,702	12,317	-0,067	0,036
-138,687	63,805	-0,059	0,042
-137,672	-87,611	0,061	-0,013
-136,658	347,679	0,062	-0,087
-135,643	-200,000	-0,013	-0,125
-134,629	441,860	0,092	-0,143
-133,614	-1,265	0,103	0,051
-132,599	-200,000	0,022	0,123
-131,585	-200,000	-0,031	0,132
-130,570	-200,000	-0,003	0,052
-129,556	800,000	0,037	0,096
-128,541	-200,000	-0,014	0,116
-127,526	-97,766	0,067	-0,012
-126,512	212,613	-0,090	-0,101
-125,497	203,700	0,035	0,039
-124,483	-125,884	-0,023	-0,002
-123,468	122,557	-0,069	-0,061
-122,453	16,106	0,168	-0,094
-121,439	-30,133	-0,159	0,064
-120,424	-111,718	0,023	-0,003
-119,410	13,672	0,049	0,027
-118,395	-200,000	0,005	0,053
-117,380	-200,000	-0,014	0,089
-116,366	-200,000	0,001	0,019
-115,351	-200,000	-0,006	-0,048
-114,337	682,150	-0,034	0,063
-113,322	315,775	-0,030	-0,041
-112,307	20,217	-0,041	-0,024
-111,293	-200,000	0,004	0,090
-110,278	800,000	-0,019	0,047
-109,264	146,246	0,044	0,042
-108,249	316,452	0,072	0,096
-107,234	-31,384	-0,072	-0,029
-106,220	-21,358	0,094	0,041
-105,205	-12,293	-0,170	0,079
-104,191	184,737	0,036	0,038
-103,176	139,840	0,024	-0,022
-102,162	800,000	0,039	-0,090
-101,147	43,790	0,043	-0,028
-100,132	152,987	-0,110	-0,106
-99,118	223,535	0,043	0,050
-98,103	646,840	0,017	0,032
-97,089	495,371	0,028	0,047
-96,074	-200,000	-0,015	-0,111
-95,059	-200,000	0,003	0,078
-94,045	800,000	-0,036	-0,088
-93,030	-8,234	-0,141	0,067
-92,016	-158,013	-0,117	0,005
-91,001	-171,592	0,186	-0,004
-89,986	-200,000	-0,009	-0,046
-88,972	42,395	0,134	0,086
-87,957	800,000	-0,004	-0,012
-86,943	-200,000	-0,021	-0,130
-85,928	800,000	-0,046	0,092
-84,913	800,000	-0,058	-0,145
-83,899	-200,000	-0,002	-0,012
-82,884	800,000	0,059	0,126
-81,870	-49,434	-0,020	0,007
-80,855	800,000	0,003	0,008
-79,840	-200,000	0,023	0,103
-78,826	-103,815	-0,141	-0,023
-77,811	-200,000	-0,016	0,072
-76,797	-8,442	-0,080	0,038
-75,782	-22,680	-0,055	-0,023
-74,767	-200,000	-0,005	0,071
-73,753	-64,129	0,035	-0,010
-72,738	255,339	-0,020	-0,024
-71,724	-114,931	-0,028	0,004
-70,709	800,000	-0,048	-0,099
-69,694	443,127	-0,108	-0,168
-68,680	-42,850	0,037	0,013
-67,665	-142,959	0,103	-0,007
-66,651	129,775	-0,162	0,147
-65,636	134,630	-0,040	0,037
-64,622	76,095	-0,076	0,057
-63,607	344,592	-0,123	-0,171
-62,592	-64,415	0,121	-0,035
-61,578	489,695	0,024	0,039
-60,563	-200,000	0,004	-0,144
-59,549	-200,000	-0,012	0,258
-58,534	-25,230	-1,641	-0,685
-57,519	426,920	-1,312	-2,011
-56,505	-200,000	-0,509	-4,438
-55,490	266,020	0,971	1,202
-54,476	800,000	4,687	10,999
-53,461	-200,000	18,935	312,003
-52,446	-200,000	739,060	2320,220
-51,432	574,458	1654,573	2870,220
-50,417	78,928	1670,588	1265,011
-49,403	21,721	1543,296	887,555
-48,388	15,612	1465,804	813,298
-47,373	17,872	1455,801	818,632
-46,359	16,799	1446,130	808,015
-45,344	13,889	1441,316	791,362
-44,330	13,768	1439,582	789,796
-43,315	13,805	1437,631	788,872
-42,300	13,819	1436,011	788,019
-41,286	13,836	1434,873	787,445
-40,271	13,811	1433,380	786,478
-39,257	13,786	1432,151	785,653
-38,242	13,863	1430,775	785,234
-37,227	13,859	1429,531	784,497
-36,213	13,864	1428,360	783,850
-35,198	13,823	1427,323	783,055
-34,184	13,876	1426,426	782,781
-33,169	13,826	1424,918	781,685
-32,154	13,883	1423,848	781,338
-31,140	13,899	1422,683	780,745
-30,125	13,872	1421,491	779,933
-29,111	13,857	1420,323	779,189
-28,096	13,843	1419,298	778,529
-27,082	13,750	1418,177	777,446
-26,067	13,809	1416,952	777,019
-25,052	13,766	1416,051	776,291
-24,038	13,764	1415,182	775,778
-23,023	13,745	1414,142	775,086
-22,009	13,756	1413,179	774,577
-20,994	13,750	1412,347	774,062
-19,979	13,743	1411,250	773,400
-18,965	13,710	1410,262	772,671
-17,950	13,683	1409,473	772,084
-16,936	13,717	1408,613	771,739
-15,921	13,653	1407,592	770,852
-14,906	13,658	1406,557	770,278
-13,892	13,695	1405,509	769,845
-12,877	13,684	1404,771	769,360
-11,863	13,673	1403,840	768,768
-10,848	13,679	1402,931	768,266
-9,833	13,636	1402,033	767,546
-8,819	13,643	1401,211	767,095
-7,804	13,590	1400,298	766,322
-6,790	13,590	1399,224	765,703
-5,775	13,596	1398,066	765,068
-4,760	13,591	1397,100	764,485
-3,746	13,618	1396,109	764,037
-2,731	13,602	1395,501	763,598
-1,717	13,563	1394,575	762,884
-0,702	13,569	1392,748	761,877
0,313	17,344	1310,629	734,470
1,327	33,433	705,313	432,517
2,342	51,305	123,766	83,011
3,356	4,052	16,678	8,605
4,371	-4,246	3,314	1,617
5,386	-18,631	0,630	0,277
6,400	219,652	0,148	0,167
7,415	30,004	-0,374	-0,225
8,429	46,067	-0,290	-0,190
9,444	114,604	-0,316	-0,273
10,459	54,156	-0,265	-0,180
11,473	-34,344	-0,393	-0,152
12,488	27,489	-0,334	-0,198
13,502	-58,485	-0,262	-0,080
14,517	136,689	-0,238	-0,220
15,531	107,661	-0,366	-0,308
16,546	-75,734	-0,471	-0,117
17,561	-9,040	-0,232	-0,110
18,575	-30,560	-0,155	-0,062
19,590	245,849	-0,193	-0,230
20,604	-115,688	-0,357	-0,047
21,619	-15,960	-0,485	-0,217
22,634	3,603	-0,431	-0,221
23,648	123,767	-0,325	-0,288
24,663	80,147	-0,365	-0,277
25,677	-40,912	-0,344	-0,125
26,692	64,653	-0,252	-0,179
27,707	91,164	-0,359	-0,285
28,721	71,838	-0,311	-0,228
29,736	254,785	-0,247	-0,299
30,750	51,476	-0,468	-0,313
31,765	3,290	-0,358	-0,183
32,780	63,384	-0,436	-0,308
33,794	240,464	-0,249	-0,293
34,809	90,386	-0,367	-0,290
35,823	68,713	-0,284	-0,205
36,838	104,149	-0,391	-0,324
37,853	84,790	-0,430	-0,332
38,867	228,516	-0,312	-0,359
39,882	116,647	-0,324	-0,280
40,896	103,791	-0,343	-0,284
41,911	233,495	-0,303	-0,353
42,926	57,387	-0,378	-0,260
43,940	126,602	-0,324	-0,289
44,955	201,779	-0,389	-0,423
45,969	205,117	-0,263	-0,288
46,984	82,278	-0,340	-0,259
47,999	144,696	-0,248	-0,234
49,013	-9,374	-0,443	-0,208
50,028	26,522	-0,373	-0,219
51,042	477,295	-0,219	-0,350
52,057	-62,034	-0,389	-0,114
53,071	250,227	-0,280	-0,335
54,086	143,168	-0,301	-0,282
55,101	-64,779	-0,333	-0,094
56,115	12,629	-0,365	-0,198
57,130	-24,848	-0,338	-0,141
58,144	59,122	-0,303	-0,210
59,159	-16,371	-0,532	-0,237
60,174	-98,211	-0,350	-0,063
61,188	-60,113	-0,478	-0,143
62,203	101,949	-0,352	-0,289
63,217	-52,454	-0,236	-0,076
64,232	-69,575	-0,373	-0,100
65,247	22,595	-0,275	-0,158
66,261	147,372	-0,401	-0,380
67,276	73,626	-0,471	-0,347
68,290	231,248	-0,231	-0,267
69,305	18,321	-0,244	-0,137
70,320	-35,123	-0,483	-0,184
71,334	-55,792	-0,277	-0,087
72,349	719,507	-0,136	-0,255
73,363	-30,748	-0,343	-0,136
74,378	135,993	-0,337	-0,309
75,393	-17,931	-0,378	-0,166
76,407	86,942	-0,236	-0,183
77,422	80,044	-0,254	-0,192
78,436	-35,427	-0,247	-0,094
79,451	33,167	-0,293	-0,178
80,466	-52,683	-0,348	-0,112
81,480	0,095	-0,297	-0,148
82,495	122,805	-0,295	-0,259
83,509	36,821	-0,261	-0,161
84,524	-19,366	-0,381	-0,165
85,539	-22,641	-0,323	-0,136
86,553	-89,113	-0,222	-0,046
87,568	-94,257	-0,330	-0,063
88,582	103,641	-0,275	-0,226
89,597	109,882	-0,318	-0,267
90,611	183,286	-0,179	-0,186
91,626	-13,918	-0,209	-0,094
92,641	-110,415	-0,365	0,053
93,655	111,040	-0,247	-0,208
94,670	35,931	-0,360	-0,222
95,684	24,957	-0,325	-0,189
96,699	114,336	-0,161	-0,138
97,714	343,280	-0,210	-0,289
98,728	37,293	-0,349	-0,216
99,743	119,880	-0,197	-0,172
100,757	135,206	-0,262	-0,239
101,772	45,631	-0,371	-0,240
102,787	56,008	-0,298	-0,203
103,801	1,270	-0,391	-0,196
104,816	282,063	-0,183	-0,231
105,830	171,285	-0,272	-0,274
106,845	0,996	-0,424	-0,213
107,860	22,045	-0,293	-0,167
108,874	86,771	-0,199	-0,154
109,889	-103,546	-0,322	-0,053
110,903	143,660	-0,155	-0,145
111,918	29,845	-0,337	-0,201
112,933	16,802	-0,115	-0,064
113,947	-83,650	-0,344	-0,076
114,962	800,000	-0,125	-0,263
115,976	84,411	-0,397	-0,304
116,991	-23,829	-0,325	-0,136
118,006	173,129	-0,173	-0,174
119,020	-1,074	-0,228	-0,112
120,035	110,206	-0,150	-0,126
121,049	140,868	-0,199	-0,184
122,064	111,577	-0,196	-0,166
123,079	-33,433	-0,300	-0,115
124,093	334,865	-0,251	-0,341
125,108	115,226	-0,324	-0,277
126,122	50,584	-0,240	-0,158
127,137	713,759	-0,106	-0,198
128,151	-62,054	-0,283	-0,082
129,166	145,719	-0,282	-0,265
130,181	368,294	-0,143	-0,203
131,195	193,578	-0,145	-0,154
132,210	161,859	-0,217	-0,213
133,224	0,040	-0,280	-0,139
134,239	48,993	-0,185	-0,122
135,254	135,096	-0,210	-0,191
136,268	55,991	-0,306	-0,207
137,283	19,510	-0,338	-0,189
138,297	51,159	-0,288	-0,191
139,312	-43,632	-0,319	-0,112
140,327	-7,332	-0,313	-0,148
141,341	-7,694	-0,141	-0,067
142,356	0,340	-0,158	-0,079
143,370	-8,502	-0,390	-0,182
144,385	-26,299	-0,314	-0,128
145,400	174,323	-0,218	-0,221
146,414	68,224	-0,325	-0,232
147,429	-6,545	-0,355	-0,168
148,443	97,126	-0,226	-0,181
149,458	63,966	-0,272	-0,191
150,473	42,079	-0,333	-0,211
151,487	17,872	-0,239	-0,132
152,502	31,902	-0,332	-0,199
153,516	75,792	-0,173	-0,128
154,531	111,672	-0,287	-0,241
155,546	0,847	-0,402	-0,200
156,560	303,490	-0,122	-0,158
157,575	433,583	-0,104	-0,159
158,589	220,073	-0,175	-0,196
159,604	-54,670	-0,299	-0,094
160,619	115,986	-0,203	-0,173
161,633	273,627	-0,203	-0,251
162,648	152,683	-0,219	-0,209
163,662	262,126	-0,261	-0,317
164,677	105,221	-0,240	-0,198
165,692	5,438	-0,332	-0,171
166,706	-104,114	-0,270	-0,043
167,721	139,730	-0,206	-0,189
168,735	244,073	-0,198	-0,232
169,750	54,037	-0,216	-0,144
170,764	162,330	-0,174	-0,170
171,779	-46,091	-0,209	-0,072
172,794	-141,621	-0,202	-0,014
173,808	-72,616	-0,373	-0,095
174,823	-6,203	-0,394	-0,187
175,837	120,544	-0,273	-0,237
176,852	172,292	-0,195	-0,195
177,867	-72,946	-0,281	-0,071
178,881	4,962	-0,303	-0,155
179,896	35,610	-0,246	-0,150
180,910	106,751	-0,127	-0,105
181,925	-2,157	-0,399	-0,195
182,940	-18,505	-0,237	-0,102
183,954	34,374	-0,312	-0,189
184,969	543,066	-0,186	-0,310
185,983	320,419	-0,183	-0,243
186,998	-78,660	-0,141	-0,033
188,013	27,378	-0,160	-0,094
189,027	47,817	-0,148	-0,096
190,042	-58,224	-0,277	-0,083
191,056	30,145	-0,211	-0,125
192,071	800,000	-0,131	-0,329
193,086	4,316	-0,199	-0,101
194,100	-59,585	-0,268	-0,079
195,115	76,924	-0,220	-0,162
196,129	273,530	-0,159	-0,196
197,144	146,447	-0,245	-0,229
198,159	121,090	-0,281	-0,243
199,173	-98,867	-0,293	0,051
200,188	215,639	-0,199	-0,220
201,202	-109,973	-0,164	-0,024
202,217	-54,963	-0,281	0,087
203,232	47,202	-0,354	-0,229
204,246	-92,546	-0,166	-0,032
205,261	362,755	-0,205	-0,287
206,275	181,470	-0,194	-0,199
207,290	95,568	-0,065	-0,052
208,304	-61,898	-0,118	-0,034
209,319	387,739	-0,226	-0,326
210,334	17,419	-0,158	-0,087
211,348	-200,000	-0,107	-0,337
212,363	483,813	-0,167	-0,264
213,377	291,588	-0,120	-0,152
214,392	114,330	-0,166	-0,140
215,407	33,286	-0,323	-0,194
216,421	40,804	-0,109	-0,068
217,436	-114,178	-0,224	-0,030
218,450	-57,723	-0,141	0,043
219,465	-90,325	-0,199	-0,040
220,480	140,240	-0,125	-0,115
221,494	67,708	-0,109	-0,077
222,509	-55,582	-0,262	-0,081
223,523	800,000	-0,114	-0,310
224,538	89,979	-0,208	-0,161
225,553	83,169	-0,191	-0,144
226,567	87,157	-0,234	-0,179
227,582	-163,853	-0,164	0,005
228,596	27,725	-0,265	-0,155
229,611	-51,743	-0,248	0,080
230,626	-200,000	-0,039	-0,120
231,640	-140,141	-0,299	-0,021
232,655	116,824	-0,112	-0,096
233,669	-22,646	-0,201	-0,084
234,684	60,718	-0,115	-0,079
235,699	-200,000	-0,076	-0,244
236,713	-3,616	-0,167	-0,080
237,728	17,586	-0,208	-0,114
238,742	107,675	-0,158	-0,131
239,757	39,048	-0,210	-0,130
240,772	-1,245	-0,245	-0,120
241,786	-2,763	-0,249	-0,120
242,801	120,294	-0,085	-0,073
243,815	-45,188	-0,224	-0,077
244,830	-2,593	-0,094	-0,045
245,844	158,422	-0,144	-0,139
246,859	-94,746	-0,296	-0,055
247,874	50,492	-0,244	-0,160
248,888	-0,631	-0,124	-0,061
249,903	349,710	-0,166	-0,227
250,917	522,084	-0,166	-0,270
251,932	300,490	-0,064	-0,082
252,947	212,787	-0,128	-0,141
253,961	39,321	-0,176	-0,109
254,976	78,261	-0,208	-0,154
255,990	9,160	-0,138	-0,072
257,005	79,675	-0,207	-0,153
258,020	49,417	-0,166	-0,108
259,034	-20,243	-0,159	-0,067
260,049	107,303	-0,163	-0,134
261,063	4,278	-0,302	-0,153
262,078	0,913	-0,299	-0,148
263,093	211,500	-0,212	-0,232
264,107	800,000	-0,106	-0,222
265,122	-21,728	-0,103	-0,043
266,136	43,618	-0,200	-0,126
267,151	250,121	-0,124	-0,146
268,166	182,015	-0,183	-0,187
269,180	-15,886	-0,247	-0,108
270,195	-19,437	-0,160	-0,068
271,209	43,659	-0,162	-0,102
272,224	280,458	-0,160	-0,199
273,239	184,258	-0,138	-0,142
274,253	65,112	-0,146	-0,102
275,268	-88,740	-0,111	0,023
276,282	681,750	-0,050	-0,091
277,297	363,377	-0,144	-0,201
278,312	76,252	-0,147	-0,107
279,326	149,163	-0,167	-0,156
280,341	-71,436	-0,202	-0,052
281,355	121,614	-0,138	-0,119
282,370	15,217	-0,131	-0,070
283,384	89,967	-0,180	-0,138
284,399	379,789	-0,108	-0,153
285,414	124,882	-0,217	-0,189
286,428	114,439	-0,144	-0,121
287,443	-105,632	-0,200	-0,031
288,457	-122,735	-0,166	0,018
289,472	105,816	-0,169	-0,138
290,487	-11,378	-0,233	-0,105
291,501	538,180	-0,091	-0,150
292,516	169,487	-0,183	-0,181
293,530	-29,913	-0,124	-0,048
294,545	174,484	-0,094	-0,093
295,560	-51,668	-0,269	-0,086
296,574	116,729	-0,014	-0,012
297,589	31,023	-0,144	-0,085
298,603	167,993	-0,191	-0,188
299,618	-65,508	-0,264	-0,073
300,633	-61,676	-0,177	-0,051
301,647	800,000	-0,052	-0,155
302,662	-151,937	-0,075	0,004
303,676	-31,910	-0,159	0,061
304,691	0,342	-0,238	-0,117
305,706	52,740	-0,178	-0,117
306,720	-45,826	-0,107	-0,036
307,735	-110,333	-0,285	0,040
308,749	-52,078	-0,164	0,052
309,764	-71,204	-0,148	0,038
310,779	-35,974	-0,114	-0,042
311,793	-109,826	-0,086	-0,012
312,808	83,947	-0,197	-0,148
313,822	499,412	-0,043	-0,069
314,837	546,595	-0,089	-0,147
315,852	-8,802	-0,211	-0,097
316,866	120,856	-0,175	-0,150
317,881	-121,382	-0,042	0,005
318,895	-53,857	-0,098	0,031
319,910	195,998	-0,127	-0,134
320,925	27,028	-0,247	-0,142
321,939	164,820	-0,133	-0,129
322,954	-89,605	-0,141	0,028
323,968	526,974	-0,052	-0,085
324,983	2,646	-0,194	-0,096
325,997	-148,550	-0,042	-0,002
327,012	-194,716	-0,177	-0,001
328,027	406,870	-0,086	-0,126
329,041	147,206	0,091	-0,084
330,056	139,613	-0,151	-0,137
331,070	48,612	-0,098	-0,063
332,085	128,221	-0,094	-0,082
333,100	-40,387	-0,214	-0,076
334,114	-151,506	-0,187	0,009
335,129	-43,604	-0,150	0,052
336,143	560,249	-0,088	-0,146
337,158	-134,765	-0,070	-0,006
338,173	42,089	-0,098	-0,061
339,187	777,724	-0,111	-0,209
340,202	-115,865	-0,050	-0,006
341,216	110,237	-0,104	0,086
342,231	11,183	-0,175	0,092
343,246	14,353	-0,175	-0,093
344,260	23,069	-0,147	-0,083
345,275	175,796	-0,124	-0,123
346,289	179,657	-0,090	-0,091
347,304	130,336	-0,232	-0,204
348,319	-138,190	-0,152	-0,011
349,333	46,042	-0,197	-0,125
350,348	338,464	-0,077	-0,103
351,362	-200,000	-0,054	-0,210
352,377	800,000	-0,054	-0,142
353,392	90,434	-0,157	-0,121
354,406	-6,155	-0,205	-0,096
355,421	209,157	1314,495	1414,140
356,435	160,960	1475,211	1414,632
