DTS Sentinel unit serial number:	SN410029Multiplexer serial number:	ORYXHardware model number:	OX2-SRSoftware version number:	ORYX F/W v4,00 Oryx Data Collector v3.7.2.0data status	okinstallation	B3 Nyhavnadifferential loss correction	single-endedforward channel	channel 1reverse channel	N/Adate	2023/12/01time	16:27:30forward acquisition time	300,00reverse acquisition time	0,00gamma	499,1914k internal	0,3207k external	0,3207temperature offset calibration	1,0000default loss term (dB/km)	0,3820temperature slope calibration	1,0000multiplexer offset coefficient	1,0000multiplexer slope coefficient	1,0000fibre end	0,00T internal ref (°C)	13,20T ext. ref 1 (°C)	-0,38T ext. ref 2 (°C)	-0,42length (m)	temperature (°C)	Stokes	anti-Stokes-744,400	292,026	-0,205	-0,272
-743,385	415,831	0,127	0,197
-742,371	442,546	-0,156	-0,249
-741,356	-200,000	0,034	0,371
-740,342	184,930	-0,251	-0,270
-739,327	-200,000	0,020	0,260
-738,312	428,269	-0,166	-0,261
-737,298	800,000	0,046	0,136
-736,283	435,136	-0,084	-0,132
-735,269	-200,000	0,063	0,331
-734,254	216,162	-0,190	-0,220
-733,239	77,314	-0,230	0,177
-732,225	800,000	-0,102	-0,286
-731,210	46,322	0,126	0,084
-730,196	800,000	-0,046	-0,101
-729,181	54,077	-0,087	-0,061
-728,167	-156,299	0,105	0,005
-727,152	20,911	0,029	-0,017
-726,137	-200,000	-0,016	-0,105
-725,123	652,579	-0,018	-0,033
-724,108	88,039	-0,078	-0,063
-723,094	146,775	-0,046	-0,045
-722,079	-200,000	-0,018	-0,102
-721,064	344,639	0,084	-0,120
-720,050	103,956	-0,060	0,051
-719,035	-131,749	-0,064	0,006
-718,021	800,000	-0,033	-0,103
-717,006	-200,000	0,000	-0,111
-715,991	315,523	0,049	-0,067
-714,977	631,011	0,048	-0,088
-713,962	-200,000	0,013	-0,166
-712,948	-200,000	-0,023	0,098
-711,933	250,329	0,068	-0,084
-710,918	-92,516	-0,153	-0,031
-709,904	-186,467	-0,178	0,002
-708,889	800,000	-0,017	-0,039
-707,875	62,326	-0,059	0,043
-706,860	76,902	0,052	0,040
-705,845	2,977	-0,075	0,039
-704,831	-111,598	-0,055	-0,008
-703,816	-66,896	0,130	0,037
-702,802	-99,543	0,035	-0,006
-701,787	100,957	-0,041	-0,035
-700,772	322,138	0,039	0,054
-699,758	-139,899	0,114	0,009
-698,743	70,592	0,043	-0,032
-697,729	-200,000	0,047	0,182
-696,714	-200,000	-0,037	0,120
-695,699	800,000	0,034	0,080
-694,685	215,627	-0,042	-0,048
-693,670	81,209	-0,101	-0,079
-692,656	-101,077	0,164	-0,029
-691,641	197,930	0,025	0,028
-690,627	-23,827	0,057	-0,024
-689,612	-103,081	0,049	-0,008
-688,597	715,200	-0,046	-0,088
-687,583	118,096	-0,144	-0,128
-686,568	554,097	0,044	-0,077
-685,554	-146,570	-0,063	-0,004
-684,539	56,045	0,039	-0,028
-683,524	-200,000	-0,022	-0,164
-682,510	-83,570	-0,032	-0,007
-681,495	96,629	-0,107	0,089
-680,481	-200,000	0,069	-0,232
-679,466	415,123	-0,036	0,056
-678,451	-200,000	-0,045	-0,187
-677,437	-200,000	-0,012	-0,051
-676,422	63,267	-0,060	-0,043
-675,408	-200,000	0,014	0,225
-674,393	-2,979	-0,105	0,053
-673,378	38,285	-0,063	-0,040
-672,364	-200,000	0,012	-0,073
-671,349	41,144	-0,119	-0,078
-670,335	666,447	-0,001	0,002
-669,320	134,914	-0,087	0,082
-668,305	-16,773	-0,068	-0,031
-667,291	-58,510	-0,088	-0,028
-666,276	-200,000	0,012	0,066
-665,262	-12,855	-0,084	0,039
-664,247	85,381	0,072	-0,058
-663,232	-146,338	-0,174	0,011
-662,218	116,818	0,118	-0,105
-661,203	800,000	-0,053	-0,109
-660,189	1,148	0,020	0,011
-659,174	-81,286	-0,097	0,023
-658,159	105,563	-0,056	-0,048
-657,145	79,745	-0,085	-0,066
-656,130	284,309	-0,082	-0,107
-655,116	-83,817	-0,035	-0,008
-654,101	111,869	0,112	0,098
-653,086	-200,000	-0,018	0,152
-652,072	339,559	-0,038	-0,053
-651,057	222,510	-0,064	0,075
-650,043	-41,450	0,005	-0,002
-649,028	601,126	-0,047	-0,085
-648,014	790,599	0,042	-0,085
-646,999	-200,000	0,011	0,042
-645,984	135,759	-0,043	0,040
-644,970	191,759	-0,051	-0,055
-643,955	266,343	0,052	-0,066
-642,941	-200,000	0,002	-0,026
-641,926	81,551	-0,049	0,039
-640,911	177,161	-0,052	-0,054
-639,897	-69,081	0,094	-0,026
-638,882	182,002	-0,073	0,078
-637,868	106,698	-0,185	0,159
-636,853	-11,606	-0,086	0,041
-635,838	593,410	-0,051	-0,091
-634,824	214,498	0,064	-0,073
-633,809	-200,000	-0,021	-0,071
-632,795	-180,359	0,115	0,002
-631,780	-83,203	-0,114	0,026
-630,765	-49,411	-0,146	-0,050
-629,751	-62,052	0,134	-0,040
-628,736	180,947	-0,082	-0,087
-627,722	113,780	0,090	-0,079
-626,707	34,093	0,065	0,041
-625,692	-67,512	0,044	-0,012
-624,678	-32,185	-0,059	-0,024
-623,663	-173,401	-0,047	0,001
-622,649	288,246	0,033	-0,043
-621,634	-11,484	-0,111	0,053
-620,619	165,698	-0,071	0,072
-619,605	-200,000	0,009	0,126
-618,590	336,166	0,050	-0,070
-617,576	-200,000	-0,018	-0,120
-616,561	132,382	0,028	0,026
-615,546	-200,000	0,004	0,036
-614,532	800,000	0,030	0,070
-613,517	800,000	-0,068	-0,140
-612,503	800,000	-0,038	-0,101
-611,488	418,510	-0,055	0,085
-610,474	-200,000	-0,043	0,138
-609,459	137,702	-0,010	0,009
-608,444	634,531	-0,102	-0,188
-607,430	800,000	-0,041	-0,104
-606,415	272,972	-0,032	-0,042
-605,401	-200,000	0,005	0,067
-604,386	69,307	0,070	-0,052
-603,371	800,000	-0,044	0,122
-602,357	424,020	-0,064	-0,100
-601,342	241,123	0,095	-0,115
-600,328	800,000	-0,085	-0,176
-599,313	-34,882	-0,088	-0,035
-598,298	0,474	-0,061	-0,031
-597,284	-154,254	0,080	0,004
-596,269	-29,283	-0,082	0,034
-595,255	-200,000	0,011	0,087
-594,240	-8,779	0,092	0,044
-593,225	-200,000	0,002	-0,016
-592,211	800,000	-0,034	-0,092
-591,196	51,730	-0,019	-0,013
-590,182	722,270	-0,046	-0,089
-589,167	-71,622	0,111	0,030
-588,152	-117,155	-0,106	-0,014
-587,138	161,329	0,037	0,038
-586,123	315,439	0,027	-0,036
-585,109	-200,000	0,004	-0,023
-584,094	800,000	-0,019	0,041
-583,079	221,027	0,093	0,108
-582,065	246,624	0,037	0,045
-581,050	-120,556	0,088	0,011
-580,036	800,000	-0,043	0,099
-579,021	-21,647	-0,102	-0,045
-578,006	-200,000	-0,007	0,028
-576,992	245,311	-0,038	-0,046
-575,977	-113,155	0,088	0,012
-574,963	-200,000	0,023	0,110
-573,948	-200,000	0,037	0,120
-572,934	-126,457	-0,145	-0,015
-571,919	56,850	-0,063	-0,044
-570,904	166,706	-0,076	-0,078
-569,890	-151,593	0,160	0,008
-568,875	311,021	0,028	-0,038
-567,861	60,510	0,065	-0,046
-566,846	21,562	-0,125	0,073
-565,831	86,633	0,048	-0,038
-564,817	-63,565	-0,155	-0,046
-563,802	60,319	0,056	-0,040
-562,788	-200,000	-0,013	-0,147
-561,773	-200,000	-0,004	0,091
-560,758	51,072	0,076	-0,052
-559,744	-200,000	-0,006	-0,031
-558,729	22,699	-0,059	-0,035
-557,715	800,000	0,060	-0,128
-556,700	175,716	-0,010	0,010
-555,685	141,644	-0,027	-0,026
-554,671	687,774	-0,024	-0,045
-553,656	-200,000	-0,005	0,058
-552,642	-200,000	-0,004	-0,089
-551,627	503,115	-0,090	0,150
-550,612	-200,000	0,012	-0,060
-549,598	800,000	0,059	-0,124
-548,583	-50,316	0,119	-0,040
-547,569	535,864	0,093	-0,160
-546,554	-68,147	0,119	-0,033
-545,539	-20,557	0,095	-0,042
-544,525	800,000	0,035	-0,079
-543,510	-200,000	0,007	-0,061
-542,496	180,316	0,056	-0,059
-541,481	285,806	-0,051	-0,067
-540,466	-61,681	-0,113	-0,034
-539,452	185,225	-0,035	-0,037
-538,437	-200,000	-0,034	0,156
-537,423	-200,000	0,025	0,097
-536,408	-105,601	0,048	-0,008
-535,393	-12,089	-0,247	-0,116
-534,379	-21,435	-0,063	-0,028
-533,364	-124,305	-0,060	0,007
-532,350	-109,824	0,067	-0,010
-531,335	-200,000	-0,025	-0,126
-530,321	458,184	0,036	-0,059
-529,306	11,120	0,085	-0,047
-528,291	-200,000	-0,025	-0,105
-527,277	-200,000	0,011	-0,183
-526,262	-200,000	0,009	-0,047
-525,248	-200,000	-0,001	0,022
-524,233	638,097	-0,034	-0,062
-523,218	-47,793	-0,036	-0,012
-522,204	-200,000	-0,022	-0,101
-521,189	516,187	-0,065	0,110
-520,175	800,000	0,041	-0,083
-519,160	291,442	-0,053	-0,070
-518,145	-200,000	-0,011	0,089
-517,131	-200,000	0,023	0,123
-516,116	-200,000	-0,007	0,077
-515,102	85,130	-0,050	-0,039
-514,087	-200,000	0,001	-0,007
-513,072	362,168	0,036	-0,053
-512,058	-133,135	-0,048	-0,004
-511,043	629,299	0,062	0,114
-510,029	-200,000	0,028	0,174
-509,014	183,018	0,058	-0,062
-507,999	-9,123	0,077	-0,037
-506,985	63,217	-0,029	-0,021
-505,970	-52,814	0,086	0,028
-504,956	-14,449	0,062	-0,029
-503,941	25,751	-0,036	-0,021
-502,926	88,597	-0,092	0,074
-501,912	156,017	0,064	0,064
-500,897	-200,000	-0,018	-0,069
-499,883	-200,000	0,037	0,120
-498,868	495,815	-0,053	0,089
-497,853	226,122	-0,018	-0,021
-496,839	-200,000	-0,009	0,042
-495,824	-42,117	0,113	0,041
-494,810	-36,060	-0,074	0,029
-493,795	-200,000	-0,010	-0,033
-492,781	-200,000	0,013	0,099
-491,766	-200,000	-0,021	-0,085
-490,751	-200,000	0,005	0,075
-489,737	54,335	-0,106	-0,073
-488,722	256,504	0,014	-0,018
-487,708	-76,621	-0,078	-0,019
-486,693	703,518	-0,016	-0,030
-485,678	657,129	0,040	-0,075
-484,664	645,758	-0,037	-0,069
-483,649	-200,000	-0,033	-0,182
-482,635	800,000	-0,021	-0,054
-481,620	-90,392	0,113	-0,023
-480,605	-133,975	0,062	-0,005
-479,591	77,676	-0,018	-0,013
-478,576	-200,000	0,046	0,166
-477,562	-200,000	0,009	0,035
-476,547	-200,000	0,009	-0,062
-475,532	156,669	0,056	0,055
-474,518	77,281	0,030	0,023
-473,503	-200,000	-0,016	0,074
-472,489	-47,473	0,212	-0,073
-471,474	-78,021	0,134	0,033
-470,459	78,223	-0,093	0,071
-469,445	-200,000	-0,006	-0,083
-468,430	-200,000	-0,009	-0,142
-467,416	-7,791	-0,080	-0,039
-466,401	-128,303	-0,072	-0,007
-465,386	43,904	0,174	0,114
-464,372	-59,525	0,094	-0,029
-463,357	74,014	0,034	0,026
-462,343	-200,000	-0,007	0,032
-461,328	-200,000	-0,000	-0,062
-460,313	-200,000	-0,011	0,043
-459,299	139,677	0,042	-0,040
-458,284	51,188	0,127	-0,086
-457,270	125,336	0,106	0,096
-456,255	-200,000	-0,012	-0,086
-455,241	-6,472	0,097	-0,047
-454,226	394,322	-0,028	0,043
-453,211	-200,000	-0,003	0,150
-452,197	402,807	-0,080	0,121
-451,182	60,816	-0,146	0,104
-450,168	21,780	0,105	0,061
-449,153	800,000	0,062	0,131
-448,138	800,000	-0,003	-0,007
-447,124	-200,000	-0,001	-0,006
-446,109	-200,000	0,007	-0,083
-445,095	-76,558	0,088	0,022
-444,080	121,315	0,078	0,070
-443,065	261,858	-0,075	-0,093
-442,051	71,080	0,086	-0,064
-441,036	-27,270	0,032	-0,013
-440,022	233,958	0,093	0,110
-439,007	-136,213	-0,149	-0,012
-437,992	800,000	-0,041	0,094
-436,978	40,085	0,115	0,074
-435,963	-10,568	-0,140	0,066
-434,949	111,898	0,051	-0,044
-433,934	800,000	-0,089	-0,206
-432,919	-127,891	-0,169	0,017
-431,905	800,000	0,044	0,099
-430,890	-200,000	0,006	-0,066
-429,876	132,353	0,101	0,093
-428,861	639,179	-0,013	-0,024
-427,846	132,699	-0,119	0,110
-426,832	-200,000	0,011	-0,090
-425,817	13,140	0,023	0,013
-424,803	420,567	0,035	-0,054
-423,788	295,465	-0,071	-0,094
-422,773	6,303	-0,045	0,024
-421,759	-200,000	0,009	-0,140
-420,744	-41,640	-0,087	0,032
-419,730	-142,586	0,141	-0,010
-418,715	-8,794	-0,107	-0,051
-417,701	62,078	0,121	0,087
-416,686	-106,869	0,021	0,003
-415,671	-134,179	0,189	0,016
-414,657	-54,539	0,054	0,017
-413,642	373,747	-0,063	0,093
-412,628	-41,524	-0,133	0,049
-411,613	534,459	-0,017	-0,029
-410,598	-145,263	-0,186	-0,012
-409,584	-56,033	-0,131	-0,042
-408,569	48,112	0,167	-0,112
-407,555	-175,584	0,053	-0,001
-406,540	317,193	0,059	0,080
-405,525	486,178	0,027	0,044
-404,511	234,612	-0,032	-0,037
-403,496	-200,000	-0,031	0,154
-402,482	-24,127	0,017	0,007
-401,467	-36,123	0,074	-0,029
-400,452	-200,000	-0,025	-0,079
-399,438	-31,400	-0,066	-0,026
-398,423	800,000	0,025	-0,055
-397,409	800,000	-0,037	-0,093
-396,394	-12,805	-0,104	-0,048
-395,379	-200,000	0,009	0,076
-394,365	-200,000	-0,004	0,076
-393,350	-105,274	0,119	-0,019
-392,336	-200,000	0,013	-0,043
-391,321	-200,000	-0,033	0,106
-390,306	-134,995	-0,163	-0,014
-389,292	800,000	0,047	-0,106
-388,277	-200,000	0,008	-0,163
-387,263	73,899	0,117	0,088
-386,248	-70,639	0,104	-0,028
-385,233	20,676	0,082	0,048
-384,219	-200,000	-0,008	0,132
-383,204	-20,172	-0,051	-0,022
-382,190	135,410	0,037	0,035
-381,175	-65,189	-0,073	-0,021
-380,160	-200,000	-0,005	-0,115
-379,146	154,314	0,036	0,035
-378,131	-74,882	0,028	-0,007
-377,117	130,206	-0,078	-0,072
-376,102	-200,000	0,001	0,009
-375,088	8,057	-0,082	-0,044
-374,073	107,170	0,136	-0,115
-373,058	-18,469	-0,064	0,029
-372,044	800,000	0,047	0,140
-371,029	58,667	-0,083	-0,058
-370,015	22,042	-0,048	0,028
-369,000	800,000	0,045	0,105
-367,985	516,250	-0,054	-0,091
-366,971	-200,000	-0,007	-0,060
-365,956	-171,496	0,131	0,003
-364,942	340,028	-0,034	-0,048
-363,927	-200,000	0,006	0,145
-362,912	800,000	-0,037	0,089
-361,898	630,202	0,058	0,106
-360,883	29,907	-0,015	-0,009
-359,869	800,000	0,047	0,120
-358,854	-108,761	-0,156	0,024
-357,839	372,974	0,003	0,004
-356,825	-66,454	0,061	0,017
-355,810	-155,775	0,044	0,002
-354,796	485,164	-0,042	-0,069
-353,781	333,757	-0,022	0,031
-352,766	800,000	-0,036	-0,072
-351,752	660,140	0,048	-0,089
-350,737	800,000	0,022	-0,059
-349,723	-200,000	-0,004	0,062
-348,708	-78,728	0,117	-0,028
-347,693	800,000	0,035	-0,083
-346,679	498,490	-0,084	-0,138
-345,664	8,754	0,042	-0,022
-344,650	-150,521	-0,170	0,009
-343,635	800,000	-0,012	0,030
-342,620	800,000	0,022	0,066
-341,606	-200,000	0,002	-0,046
-340,591	800,000	-0,040	-0,092
-339,577	-200,000	0,012	0,069
-338,562	532,876	0,056	-0,096
-337,548	90,052	0,069	-0,055
-336,533	800,000	-0,035	0,110
-335,518	316,779	-0,063	0,085
-334,504	-13,375	-0,089	0,041
-333,489	800,000	0,041	-0,091
-332,475	242,012	0,014	-0,016
-331,460	53,840	-0,147	-0,101
-330,445	-68,839	0,062	-0,017
-329,431	800,000	0,007	0,020
-328,416	800,000	-0,026	0,054
-327,402	-200,000	-0,001	0,024
-326,387	-200,000	-0,006	-0,171
-325,372	-148,218	0,128	-0,007
-324,358	52,996	0,056	0,038
-323,343	800,000	0,016	-0,035
-322,329	-85,552	-0,065	-0,014
-321,314	-77,352	-0,104	-0,026
-320,299	-91,658	0,043	0,009
-319,285	-200,000	0,027	0,107
-318,270	422,628	0,029	-0,045
-317,256	-200,000	-0,009	-0,203
-316,241	366,185	-0,032	0,046
-315,226	-33,193	0,104	0,041
-314,212	107,495	0,075	0,064
-313,197	-200,000	0,010	0,086
-312,183	116,938	0,035	0,030
-311,168	526,867	-0,033	0,056
-310,153	-200,000	-0,015	-0,059
-309,139	219,559	0,091	0,104
-308,124	-62,158	0,142	0,042
-307,110	219,395	0,159	0,182
-306,095	-89,737	-0,037	0,008
-305,080	127,264	0,082	-0,074
-304,066	131,342	-0,027	-0,024
-303,051	-11,052	-0,066	-0,031
-302,037	541,646	-0,029	-0,049
-301,022	-200,000	-0,025	0,224
-300,008	-200,000	-0,003	0,084
-298,993	-67,410	0,081	-0,023
-297,978	-63,842	-0,071	0,020
-296,964	-143,871	-0,167	0,011
-295,949	-200,000	-0,006	-0,029
-294,935	188,710	0,052	0,056
-293,920	800,000	-0,059	0,127
-292,905	435,856	0,019	0,029
-291,891	41,424	0,075	0,048
-290,876	-200,000	-0,014	-0,146
-289,862	800,000	-0,036	0,084
-288,847	-200,000	-0,030	-0,105
-287,832	800,000	-0,011	0,028
-286,818	-47,078	-0,104	0,036
-285,803	-134,713	0,070	-0,006
-284,789	800,000	0,009	0,027
-283,774	-200,000	0,018	-0,143
-282,759	292,974	-0,067	-0,087
-281,745	78,704	0,026	-0,020
-280,730	329,785	0,061	-0,084
-279,716	-200,000	-0,010	-0,108
-278,701	-200,000	-0,001	-0,012
-277,686	430,445	0,056	-0,086
-276,672	-33,793	0,080	0,031
-275,657	319,253	-0,040	-0,054
-274,643	88,349	0,082	-0,065
-273,628	-92,398	-0,035	-0,007
-272,613	81,206	-0,037	-0,029
-271,599	-200,000	0,010	0,060
-270,584	195,059	0,114	0,124
-269,570	61,830	0,152	0,108
-268,555	-200,000	-0,006	0,043
-267,540	-89,486	-0,062	-0,013
-266,526	-138,748	-0,130	0,010
-265,511	-141,675	-0,025	-0,002
-264,497	-200,000	-0,013	0,157
-263,482	-200,000	0,012	0,074
-262,467	-200,000	-0,009	-0,129
-261,453	-200,000	0,001	-0,003
-260,438	800,000	-0,021	0,058
-259,424	-200,000	-0,002	0,007
-258,409	-87,614	-0,138	-0,029
-257,395	140,742	-0,032	-0,030
-256,380	800,000	0,050	0,125
-255,365	-65,476	0,115	0,033
-254,351	-12,693	-0,076	0,035
-253,336	-63,409	-0,149	-0,043
-252,322	167,229	-0,059	-0,059
-251,307	-200,000	0,017	0,124
-250,292	-0,998	0,113	0,057
-249,278	157,920	-0,044	0,043
-248,263	-97,730	-0,186	0,034
-247,249	800,000	-0,058	0,156
-246,234	-150,475	0,078	-0,004
-245,219	800,000	-0,054	0,144
-244,205	-22,091	-0,215	0,092
-243,190	-15,456	0,086	-0,039
-242,176	-145,855	0,093	-0,006
-241,161	254,945	-0,054	0,066
-240,146	-55,461	-0,108	0,034
-239,132	248,342	0,047	0,056
-238,117	73,036	-0,120	-0,089
-237,103	143,458	-0,098	0,093
-236,088	56,159	0,089	0,061
-235,073	467,235	-0,058	-0,093
-234,059	-4,676	0,094	-0,046
-233,044	-65,245	0,097	0,028
-232,030	207,521	0,066	-0,074
-231,015	800,000	0,058	-0,146
-230,000	-13,545	0,058	-0,026
-228,986	-200,000	-0,014	0,281
-227,971	-200,000	-0,006	0,021
-226,957	280,580	0,043	0,055
-225,942	57,082	0,063	0,044
-224,927	-200,000	-0,032	0,109
-223,913	172,261	-0,059	0,060
-222,898	-200,000	0,003	0,107
-221,884	449,349	0,042	-0,065
-220,869	-200,000	-0,054	0,186
-219,855	-41,852	0,017	-0,006
-218,840	-116,174	0,105	-0,014
-217,825	-200,000	-0,017	0,225
-216,811	-108,755	0,022	0,003
-215,796	-131,806	0,032	0,003
-214,782	-200,000	-0,019	-0,082
-213,767	800,000	0,041	-0,101
-212,752	800,000	-0,025	0,066
-211,738	-44,031	0,077	-0,028
-210,723	578,410	-0,046	0,080
-209,709	-76,226	-0,047	0,012
-208,694	156,840	0,096	-0,094
-207,679	2,501	-0,042	-0,022
-206,665	-200,000	0,046	-0,181
-205,650	-140,430	-0,050	-0,004
-204,636	-68,029	0,134	-0,037
-203,621	424,332	0,031	-0,048
-202,606	384,261	-0,039	0,058
-201,592	-200,000	0,011	-0,089
-200,577	-40,241	0,052	0,019
-199,563	147,997	-0,101	-0,097
-198,548	-47,173	0,073	0,025
-197,533	-200,000	-0,008	-0,120
-196,519	-200,000	-0,020	0,075
-195,504	501,624	0,105	0,173
-194,490	558,453	-0,037	-0,064
-193,475	14,459	-0,105	-0,058
-192,460	-114,139	0,158	-0,022
-191,446	-200,000	-0,011	0,128
-190,431	61,047	0,039	-0,027
-189,417	-44,300	0,077	-0,027
-188,402	81,651	-0,057	0,044
-187,387	32,086	0,037	-0,022
-186,373	-200,000	-0,024	-0,107
-185,358	-57,947	0,079	0,024
-184,344	-200,000	0,007	0,063
-183,329	-200,000	-0,024	0,114
-182,315	-200,000	0,014	0,113
-181,300	-200,000	-0,006	0,035
-180,285	-200,000	0,020	-0,070
-179,271	-37,004	-0,120	-0,045
-178,256	71,365	0,053	0,039
-177,242	136,707	0,090	0,084
-176,227	-200,000	0,008	0,069
-175,212	-200,000	0,003	0,040
-174,198	-9,284	-0,115	-0,054
-173,183	559,870	-0,043	0,073
-172,169	-200,000	0,016	-0,114
-171,154	276,811	-0,023	-0,029
-170,139	-200,000	-0,015	-0,124
-169,125	-200,000	-0,000	0,050
-168,110	186,043	0,063	0,067
-167,096	-5,295	-0,150	0,073
-166,081	-126,397	0,003	0,000
-165,066	-200,000	-0,016	-0,097
-164,052	150,254	-0,046	-0,044
-163,037	104,883	-0,010	-0,008
-162,023	-200,000	0,004	-0,086
-161,008	-37,102	-0,070	0,026
-159,993	-200,000	-0,004	0,162
-158,979	800,000	-0,029	-0,065
-157,964	83,487	-0,003	0,002
-156,950	800,000	0,018	0,038
-155,935	-200,000	0,008	-0,028
-154,920	688,082	0,076	0,141
-153,906	323,051	0,113	0,153
-152,891	64,048	-0,126	0,089
-151,877	510,416	0,089	-0,147
-150,862	676,828	0,068	-0,126
-149,847	65,564	0,130	0,093
-148,833	302,703	-0,074	-0,097
-147,818	-200,000	0,030	-0,106
-146,804	-155,328	0,075	0,003
-145,789	42,557	0,059	0,038
-144,775	189,070	-0,020	-0,021
-143,760	-6,754	0,058	-0,028
-142,745	147,758	0,089	-0,086
-141,731	-45,472	0,086	-0,030
-140,716	-200,000	0,041	0,160
-139,702	-200,000	0,044	0,170
-138,687	535,494	-0,032	0,053
-137,672	800,000	0,039	0,092
-136,658	123,411	-0,062	0,055
-135,643	262,538	0,042	0,052
-134,629	-200,000	-0,014	-0,078
-133,614	800,000	-0,062	0,129
-132,599	-200,000	-0,027	0,088
-131,585	-184,176	0,088	-0,001
-130,570	-189,118	-0,049	-0,000
-129,556	-160,001	0,073	0,003
-128,541	-200,000	0,001	0,041
-127,526	443,523	0,043	-0,067
-126,512	-109,363	0,080	-0,012
-125,497	-2,077	-0,062	0,031
-124,483	800,000	-0,058	0,142
-123,468	-92,498	-0,094	0,019
-122,453	800,000	-0,025	-0,055
-121,439	-16,647	-0,032	-0,015
-120,424	-200,000	-0,002	0,026
-119,410	323,257	-0,124	0,168
-118,395	-90,346	0,199	0,041
-117,380	578,503	0,030	0,052
-116,366	43,432	-0,050	-0,032
-115,351	349,424	-0,076	-0,107
-114,337	45,374	-0,150	-0,098
-113,322	-200,000	-0,006	-0,153
-112,307	794,263	0,032	-0,062
-111,293	-119,309	-0,046	0,006
-110,278	-53,517	0,090	0,029
-109,264	58,168	0,041	0,029
-108,249	-200,000	0,019	-0,065
-107,234	-200,000	-0,029	0,144
-106,220	57,560	0,036	0,025
-105,205	349,621	-0,074	-0,104
-104,191	17,281	0,112	0,063
-103,176	92,769	0,029	-0,023
-102,162	-200,000	0,037	0,215
-101,147	-200,000	-0,007	0,045
-100,132	28,370	-0,062	-0,037
-99,118	74,682	0,052	0,039
-98,103	291,747	-0,080	0,103
-97,089	800,000	0,047	0,124
-96,074	-33,872	0,186	0,072
-95,059	800,000	-0,014	0,037
-94,045	155,910	-0,004	0,004
-93,030	-49,269	0,086	0,029
-92,016	-200,000	-0,004	0,053
-91,001	194,879	0,049	0,053
-89,986	320,301	0,094	-0,127
-88,972	366,212	-0,014	-0,021
-87,957	-200,000	-0,009	0,087
-86,943	-66,855	0,079	0,022
-85,928	-181,321	-0,058	0,001
-84,913	-164,415	-0,091	0,003
-83,899	-32,663	0,107	-0,042
-82,884	97,963	-0,052	-0,042
-81,870	-113,411	0,082	-0,011
-80,855	800,000	-0,062	0,168
-79,840	70,990	0,115	-0,084
-78,826	-173,138	-0,074	0,002
-77,811	267,097	-0,041	-0,051
-76,797	92,555	0,034	0,028
-75,782	800,000	-0,027	0,057
-74,767	800,000	-0,056	0,129
-73,753	-200,000	0,036	-0,117
-72,738	-200,000	-0,016	-0,081
-71,724	165,726	-0,057	-0,058
-70,709	-200,000	0,027	-0,095
-69,694	-153,850	-0,119	0,006
-68,680	-200,000	0,010	0,196
-67,665	101,317	-0,157	-0,129
-66,651	-104,500	0,041	-0,007
-65,636	800,000	0,023	-0,061
-64,622	402,863	0,030	0,044
-63,607	800,000	0,043	-0,101
-62,592	475,153	-0,014	-0,022
-61,578	-200,000	0,008	-0,080
-60,563	54,004	-0,074	0,050
-59,549	127,152	0,051	0,046
-58,534	2,358	-1,585	-0,808
-57,519	430,788	-1,418	-2,178
-56,505	-200,000	-0,496	-4,502
-55,490	246,529	0,984	1,175
-54,476	800,000	4,980	11,368
-53,461	-200,000	18,993	320,074
-52,446	-200,000	737,988	2331,302
-51,432	575,462	1651,102	2860,426
-50,417	78,260	1667,034	1256,389
-49,403	21,233	1539,971	881,381
-48,388	15,079	1462,276	807,124
-47,373	18,112	1452,969	816,550
-46,359	16,766	1442,560	804,242
-45,344	13,353	1437,958	785,370
-44,330	13,234	1436,067	783,735
-43,315	13,259	1434,278	782,851
-42,300	13,267	1432,674	781,980
-41,286	13,318	1431,456	781,528
-40,271	13,228	1430,158	780,359
-39,257	13,209	1428,803	779,499
-38,242	13,247	1427,494	778,932
-37,227	13,289	1426,456	778,538
-36,213	13,301	1425,026	777,784
-35,198	13,285	1423,808	777,008
-34,184	13,345	1422,888	776,759
-33,169	13,251	1421,659	775,616
-32,154	13,324	1420,639	775,371
-31,140	13,327	1419,322	774,638
-30,125	13,338	1418,304	774,102
-29,111	13,266	1417,249	773,159
-28,096	13,298	1416,255	772,733
-27,082	13,247	1414,926	771,741
-26,067	13,231	1413,844	771,043
-25,052	13,254	1412,627	770,455
-24,038	13,236	1411,707	769,842
-23,023	13,204	1410,540	769,025
-22,009	13,254	1409,861	768,855
-20,994	13,169	1409,127	768,026
-19,979	13,184	1408,046	767,476
-18,965	13,155	1407,270	766,889
-17,950	13,171	1406,231	766,368
-16,936	13,192	1405,379	765,970
-15,921	13,141	1404,120	765,019
-14,906	13,166	1403,402	764,710
-13,892	13,146	1402,480	764,087
-12,877	13,150	1401,521	763,552
-11,863	13,157	1400,487	762,989
-10,848	13,126	1399,643	762,355
-9,833	13,084	1398,946	761,752
-8,819	13,069	1397,792	761,023
-7,804	13,028	1397,225	760,496
-6,790	13,071	1396,065	760,034
-5,775	13,026	1394,938	759,179
-4,760	13,021	1394,129	758,687
-3,746	13,032	1393,258	758,233
-2,731	13,006	1392,383	757,609
-1,717	12,981	1391,518	756,993
-0,702	13,050	1389,787	756,336
0,313	17,076	1306,656	729,614
1,327	33,569	701,819	429,818
2,342	51,527	122,946	82,382
3,356	1,832	16,743	8,497
4,371	-2,115	3,323	1,642
5,386	53,687	0,562	0,381
6,400	-200,000	-0,031	0,323
7,415	-12,975	-0,240	-0,110
8,429	58,620	-0,186	-0,129
9,444	294,017	-0,250	-0,323
10,459	88,489	-0,261	-0,204
11,473	338,679	-0,139	-0,191
12,488	-92,220	-0,280	-0,055
13,502	26,607	-0,434	-0,256
14,517	172,246	-0,268	-0,272
15,531	24,422	-0,315	-0,183
16,546	7,245	-0,510	-0,268
17,561	-74,100	-0,223	-0,057
18,575	-11,460	-0,145	0,067
19,590	158,793	-0,212	-0,208
20,604	-106,132	-0,228	-0,036
21,619	12,407	-0,426	-0,231
22,634	30,920	-0,465	-0,280
23,648	95,472	-0,309	-0,249
24,663	90,150	-0,409	-0,322
25,677	205,162	-0,342	-0,374
26,692	122,540	-0,287	-0,253
27,707	89,622	-0,312	-0,245
28,721	105,688	-0,364	-0,303
29,736	28,630	-0,474	-0,282
30,750	141,712	-0,363	-0,339
31,765	164,214	-0,338	-0,335
32,780	27,706	-0,413	-0,244
33,794	58,766	-0,346	-0,239
34,809	57,310	-0,373	-0,256
35,823	165,970	-0,408	-0,406
36,838	39,588	-0,427	-0,269
37,853	-72,219	-0,437	-0,113
38,867	102,629	-0,500	-0,412
39,882	137,333	-0,370	-0,340
40,896	-2,303	-0,365	-0,180
41,911	-200,000	-0,118	-0,429
42,926	123,036	-0,284	-0,250
43,940	5,475	-0,433	-0,224
44,955	21,688	-0,471	-0,269
45,969	86,546	-0,316	-0,245
46,984	215,271	-0,227	-0,254
47,999	99,949	-0,265	-0,216
49,013	-64,546	-0,403	-0,114
50,028	29,159	-0,374	-0,223
51,042	-47,861	-0,435	-0,147
52,057	43,740	-0,388	-0,250
53,071	163,215	-0,347	-0,343
54,086	-13,750	-0,337	-0,153
55,101	99,670	-0,312	-0,254
56,115	57,776	-0,333	-0,229
57,130	-6,542	-0,377	-0,180
58,144	-5,668	-0,426	-0,205
59,159	85,677	-0,420	-0,324
60,174	83,155	-0,307	-0,235
61,188	160,292	-0,362	-0,355
62,203	61,447	-0,281	-0,196
63,217	204,151	-0,201	-0,219
64,232	-48,083	-0,421	-0,142
65,247	152,908	-0,232	-0,223
66,261	67,500	-0,355	-0,254
67,276	255,578	-0,264	-0,319
68,290	94,161	-0,241	-0,192
69,305	-66,956	-0,334	-0,092
70,320	55,262	-0,409	-0,277
71,334	104,348	-0,312	-0,258
72,349	107,500	-0,186	-0,155
73,363	58,406	-0,429	-0,295
74,378	-27,433	-0,349	-0,142
75,393	-38,420	-0,385	-0,142
76,407	77,458	-0,306	-0,228
77,422	224,361	-0,224	-0,255
78,436	174,782	-0,208	-0,211
79,451	108,604	-0,399	-0,334
80,466	-62,867	-0,339	-0,098
81,480	200,485	-0,265	-0,286
82,495	97,598	-0,254	-0,204
83,509	30,299	-0,370	-0,221
84,524	105,606	-0,140	-0,116
85,539	-75,758	-0,245	-0,061
86,553	67,189	-0,261	-0,186
87,568	-17,550	-0,374	-0,164
88,582	103,508	-0,281	-0,231
89,597	314,280	-0,298	-0,394
90,611	-43,990	-0,304	-0,106
91,626	-69,390	-0,373	-0,100
92,641	10,506	-0,345	-0,184
93,655	63,021	-0,269	-0,188
94,670	92,800	-0,334	-0,264
95,684	14,883	-0,401	-0,219
96,699	72,344	-0,329	-0,240
97,714	17,009	-0,221	-0,122
98,728	-87,360	-0,289	-0,061
99,743	31,770	-0,262	-0,157
100,757	-129,467	-0,180	0,017
101,772	46,925	-0,298	-0,194
102,787	49,088	-0,348	-0,228
103,801	51,245	-0,397	-0,264
104,816	11,756	-0,176	-0,094
105,830	96,975	-0,248	-0,199
106,845	32,830	-0,218	-0,132
107,860	0,287	-0,188	-0,093
108,874	105,081	-0,131	-0,108
109,889	89,820	-0,274	-0,214
110,903	92,179	-0,373	-0,294
111,918	-52,865	-0,292	-0,093
112,933	119,148	-0,203	-0,176
113,947	66,778	-0,274	-0,195
114,962	29,293	-0,284	-0,168
115,976	64,567	-0,281	-0,198
116,991	33,980	-0,303	-0,184
118,006	-32,067	-0,232	-0,090
119,020	55,793	-0,169	-0,114
120,035	800,000	-0,050	-0,106
121,049	-65,152	-0,188	-0,053
122,064	202,121	-0,197	-0,212
123,079	120,805	-0,303	-0,263
124,093	225,903	-0,180	-0,204
125,108	16,811	-0,326	-0,180
126,122	16,024	-0,178	-0,098
127,137	21,983	-0,218	-0,124
128,151	34,747	-0,217	-0,132
129,166	-25,999	-0,173	-0,071
130,181	255,293	-0,265	-0,317
131,195	129,547	-0,269	-0,240
132,210	25,949	-0,252	-0,147
133,224	-132,220	-0,305	0,027
134,239	84,880	-0,241	-0,184
135,254	73,629	-0,147	-0,107
136,268	-66,610	-0,222	-0,061
137,283	159,512	-0,183	-0,178
138,297	140,330	-0,265	-0,244
139,312	41,369	-0,276	-0,174
140,327	-19,691	-0,322	-0,138
141,341	160,377	-0,202	-0,197
142,356	74,052	-0,273	-0,200
143,370	95,120	-0,238	-0,189
144,385	317,672	-0,174	-0,231
145,400	132,534	-0,230	-0,207
146,414	91,444	-0,218	-0,171
147,429	91,003	-0,265	-0,207
148,443	537,229	-0,143	-0,238
149,458	29,301	-0,239	-0,141
150,473	218,967	-0,162	-0,181
151,487	-66,688	-0,255	-0,070
152,502	-200,000	-0,070	-0,307
153,516	169,726	-0,357	-0,356
154,531	266,320	-0,220	-0,268
155,546	14,854	-0,223	-0,121
156,560	318,572	-0,137	-0,181
157,575	18,946	-0,282	-0,157
158,589	90,332	-0,232	-0,181
159,604	-50,247	-0,247	-0,081
160,619	18,131	-0,241	-0,134
161,633	124,571	-0,172	-0,151
162,648	-72,222	-0,218	-0,056
163,662	-22,839	-0,247	-0,103
164,677	91,863	-0,265	-0,208
165,692	-145,657	-0,200	0,012
166,706	28,141	-0,242	-0,142
167,721	46,839	-0,214	-0,138
168,735	316,908	-0,232	-0,305
169,750	236,845	-0,165	-0,191
170,764	160,701	-0,267	-0,260
171,779	-59,542	-0,273	-0,081
172,794	-184,997	-0,297	-0,003
173,808	154,250	-0,197	-0,188
174,823	41,856	-0,242	-0,152
175,837	112,631	-0,193	-0,163
176,852	222,785	-0,237	-0,266
177,867	-45,041	-0,251	-0,086
178,881	243,962	-0,130	-0,152
179,896	-78,123	-0,249	-0,059
180,910	159,928	-0,174	-0,169
181,925	468,285	-0,119	-0,186
182,940	99,987	-0,231	-0,186
183,954	-36,262	-0,412	-0,154
184,969	147,350	-0,166	-0,156
185,983	51,300	-0,246	-0,162
186,998	144,385	-0,119	-0,111
188,013	83,890	-0,190	-0,144
189,027	-2,148	-0,318	-0,155
190,042	-45,006	-0,265	-0,091
191,056	111,058	-0,269	-0,225
192,071	27,756	-0,368	-0,215
193,086	70,704	-0,155	-0,111
194,100	37,204	-0,151	-0,093
195,115	-115,353	-0,170	-0,022
196,129	123,249	-0,273	-0,238
197,144	-145,655	-0,220	-0,013
198,159	542,053	-0,139	-0,231
199,173	412,538	-0,122	-0,180
200,188	373,749	-0,117	-0,165
201,202	-63,925	-0,194	-0,055
202,217	-200,000	-0,041	-0,161
203,232	-172,032	-0,179	-0,004
204,246	56,666	-0,219	-0,148
205,261	87,475	-0,244	-0,187
206,275	-200,000	-0,056	-0,232
207,290	-200,000	-0,029	-0,240
208,304	263,890	-0,171	-0,207
209,319	113,403	-0,143	-0,121
210,334	48,226	-0,183	-0,118
211,348	114,208	-0,152	-0,128
212,363	541,132	-0,203	-0,337
213,377	-200,000	-0,010	-0,122
214,392	-113,415	-0,177	-0,024
215,407	93,262	-0,195	-0,152
216,421	111,478	-0,197	-0,165
217,436	212,860	-0,253	-0,277
218,450	187,634	-0,226	-0,234
219,465	380,618	-0,173	-0,247
220,480	126,317	-0,179	-0,157
221,494	-99,098	-0,258	-0,045
222,509	-92,853	-0,275	-0,053
223,523	-11,000	-0,194	-0,088
224,538	800,000	-0,049	-0,123
225,553	119,906	-0,275	-0,236
226,567	266,102	-0,232	-0,282
227,582	235,648	-0,190	-0,218
228,596	800,000	-0,078	-0,189
229,611	55,481	-0,169	-0,113
230,626	32,206	-0,197	-0,117
231,640	-75,323	-0,341	-0,084
232,655	51,328	-0,121	-0,079
233,669	64,217	-0,249	-0,173
234,684	626,893	-0,089	-0,157
235,699	49,148	-0,157	-0,102
236,713	-119,770	-0,242	-0,028
237,728	294,337	-0,082	-0,104
238,742	136,013	-0,102	-0,092
239,757	136,579	-0,258	-0,233
240,772	320,533	-0,221	-0,291
241,786	309,169	-0,156	-0,202
242,801	57,804	-0,113	-0,076
243,815	-200,000	-0,032	-0,107
244,830	30,207	-0,204	-0,120
245,844	-53,352	-0,212	-0,067
246,859	668,349	-0,108	-0,195
247,874	-83,560	-0,303	-0,066
248,888	7,242	-0,249	-0,128
249,903	-130,722	-0,140	0,013
250,917	-32,905	-0,132	-0,050
251,932	-94,129	-0,108	-0,020
252,947	800,000	-0,047	-0,112
253,961	5,511	-0,072	-0,037
254,976	800,000	-0,147	-0,303
255,990	239,793	-0,184	-0,212
257,005	-38,473	-0,247	-0,090
258,020	-17,354	-0,145	-0,063
259,034	-200,000	-0,037	-0,150
260,049	375,409	-0,139	-0,196
261,063	-8,947	-0,198	-0,091
262,078	-89,928	-0,374	-0,075
263,093	3,621	-0,376	-0,189
264,107	234,357	-0,137	-0,156
265,122	0,625	-0,156	0,077
266,136	410,525	-0,033	-0,048
267,151	220,687	-0,132	-0,146
268,166	-50,141	-0,220	-0,071
269,180	167,707	-0,087	-0,086
270,195	67,262	-0,227	-0,159
271,209	243,286	-0,201	-0,233
272,224	-49,462	-0,110	-0,036
273,239	-7,977	-0,066	0,031
274,253	475,390	-0,122	-0,191
275,268	45,802	-0,216	-0,137
276,282	16,921	-0,133	-0,072
277,297	424,814	-0,144	-0,214
278,312	337,998	-0,181	-0,243
279,326	800,000	-0,054	-0,128
280,341	-79,845	-0,090	0,021
281,355	-123,133	-0,139	-0,015
282,370	-134,954	-0,086	-0,007
283,384	54,293	-0,160	-0,106
284,399	-57,754	-0,216	-0,065
285,414	129,147	-0,244	-0,214
286,428	9,036	-0,135	-0,070
287,443	-111,508	-0,107	-0,015
288,457	306,228	-0,102	-0,131
289,472	-10,451	-0,184	-0,084
290,487	-11,769	-0,115	-0,052
291,501	-200,000	-0,327	0,000
292,516	175,965	-0,100	-0,100
293,530	-200,000	0,001	-0,082
294,545	165,959	-0,119	-0,116
295,560	86,944	-0,261	-0,198
296,574	-115,883	-0,113	0,014
297,589	-27,988	-0,113	-0,045
298,603	67,724	-0,209	-0,147
299,618	-16,409	-0,257	-0,112
300,633	800,000	-0,125	-0,310
301,647	46,381	-0,184	-0,117
302,662	-188,452	-0,086	0,001
303,676	-52,282	-0,141	-0,045
304,691	-92,264	-0,123	-0,024
305,706	-200,000	-0,042	-0,245
306,720	429,399	-0,164	-0,245
307,735	-78,903	-0,182	0,042
308,749	-12,321	-0,135	-0,060
309,764	306,567	0,004	0,005
310,779	-53,117	-0,106	0,033
311,793	-104,415	-0,204	-0,032
312,808	800,000	-0,082	-0,207
313,822	197,997	-0,186	-0,195
314,837	491,603	-0,032	-0,050
315,852	114,764	-0,166	-0,139
316,866	800,000	-0,064	-0,149
317,881	32,855	-0,142	-0,084
318,895	-59,763	-0,141	-0,041
319,910	800,000	-0,117	-0,258
320,925	155,631	-0,162	-0,153
321,939	552,577	-0,020	-0,033
322,954	398,714	-0,134	-0,193
323,968	121,405	-0,100	-0,085
324,983	37,959	-0,155	-0,094
325,997	684,535	-0,106	-0,190
327,012	-41,392	-0,181	-0,064
328,027	-70,625	-0,264	-0,068
329,041	-104,880	-0,187	-0,029
330,056	-200,000	-0,042	-0,186
331,070	130,399	-0,179	-0,157
332,085	17,593	-0,064	0,035
333,100	235,341	-0,191	-0,216
334,114	389,253	-0,077	-0,110
335,129	104,415	-0,212	-0,171
336,143	88,937	-0,215	-0,164
337,158	429,580	-0,070	-0,104
338,173	-4,643	-0,169	-0,080
339,187	-122,862	-0,128	0,014
340,202	-52,855	-0,118	-0,037
341,216	420,753	-0,100	-0,147
342,231	-200,000	-0,015	-0,105
343,246	16,101	-0,149	-0,080
344,260	-104,820	-0,128	-0,020
345,275	-45,948	-0,106	-0,036
346,289	311,966	-0,036	0,046
347,304	558,006	-0,092	-0,153
348,319	-97,851	-0,100	0,018
349,333	800,000	-0,069	-0,194
350,348	800,000	-0,084	-0,237
351,362	-64,789	-0,037	0,010
352,377	41,529	-0,139	-0,086
353,392	372,746	-0,106	-0,148
354,406	-200,000	0,001	-0,125
355,421	208,477	1313,281	1407,931
356,435	160,418	1473,819	1408,428
