DTS Sentinel unit serial number:	SN410029Multiplexer serial number:	ORYXHardware model number:	OX2-SRSoftware version number:	ORYX F/W v4,00 Oryx Data Collector v3.7.2.0data status	okinstallation	B3 Nyhavnadifferential loss correction	single-endedforward channel	channel 1reverse channel	N/Adate	2023/12/01time	23:32:30forward acquisition time	300,00reverse acquisition time	0,00gamma	499,1914k internal	0,3196k external	0,3196temperature offset calibration	1,0000default loss term (dB/km)	0,3820temperature slope calibration	1,0000multiplexer offset coefficient	1,0000multiplexer slope coefficient	1,0000fibre end	0,00T internal ref (°C)	15,92T ext. ref 1 (°C)	1,45T ext. ref 2 (°C)	1,43length (m)	temperature (°C)	Stokes	anti-Stokes-744,400	-200,000	0,016	-0,169
-743,385	-200,000	0,071	0,268
-742,371	166,148	-0,170	-0,176
-741,356	-200,000	0,063	0,480
-740,342	-80,584	-0,284	-0,068
-739,327	-200,000	0,079	0,386
-738,312	317,413	-0,194	-0,268
-737,298	800,000	-0,071	0,219
-736,283	257,988	-0,296	-0,372
-735,269	800,000	0,141	0,411
-734,254	94,941	-0,283	-0,234
-733,239	282,569	-0,144	0,188
-732,225	7,277	-0,180	-0,097
-731,210	-58,995	-0,002	-0,001
-730,196	-105,723	-0,011	-0,002
-729,181	-200,000	-0,045	-0,181
-728,167	329,781	-0,005	-0,007
-727,152	-99,984	0,178	-0,032
-726,137	115,813	-0,125	-0,112
-725,123	546,666	0,048	0,084
-724,108	800,000	-0,036	0,083
-723,094	800,000	-0,093	-0,224
-722,079	496,211	-0,075	-0,125
-721,064	396,742	0,102	-0,155
-720,050	800,000	-0,024	0,072
-719,035	-200,000	0,013	0,130
-718,021	20,468	-0,096	0,056
-717,006	70,007	0,109	0,082
-715,991	487,834	-0,033	-0,054
-714,977	800,000	-0,032	-0,099
-713,962	-181,489	-0,062	-0,001
-712,948	-200,000	0,029	0,112
-711,933	-130,511	0,018	-0,002
-710,918	-200,000	-0,033	-0,143
-709,904	373,557	-0,087	-0,129
-708,889	-85,278	-0,057	0,013
-707,875	291,160	-0,114	-0,152
-706,860	-84,925	-0,062	0,014
-705,845	-197,956	0,052	0,000
-704,831	800,000	0,024	-0,074
-703,816	177,104	0,080	0,085
-702,802	73,053	-0,043	0,032
-701,787	231,413	-0,020	0,024
-700,772	-89,173	0,097	-0,021
-699,758	136,084	-0,071	-0,067
-698,743	-143,198	0,072	-0,005
-697,729	695,576	0,068	0,130
-696,714	-55,546	-0,046	0,015
-695,699	340,292	-0,057	0,082
-694,685	-105,988	0,205	0,033
-693,670	-163,144	-0,173	0,006
-692,656	-58,489	0,097	0,030
-691,641	111,945	0,120	0,106
-690,627	-200,000	-0,010	-0,087
-689,612	-125,164	-0,034	-0,004
-688,597	-132,540	-0,091	0,008
-687,583	-134,597	-0,119	0,010
-686,568	-200,000	-0,005	-0,100
-685,554	-200,000	-0,020	-0,085
-684,539	447,897	-0,028	0,045
-683,524	-48,320	0,161	-0,056
-682,510	92,860	-0,160	-0,131
-681,495	795,579	0,072	-0,144
-680,481	44,428	0,125	-0,083
-679,466	53,688	-0,085	-0,060
-678,451	173,332	0,111	-0,117
-677,437	-131,950	-0,030	0,003
-676,422	-179,491	0,125	-0,002
-675,408	-200,000	-0,018	0,081
-674,393	-63,027	-0,105	0,031
-673,378	-3,090	0,023	-0,011
-672,364	-200,000	0,013	-0,047
-671,349	800,000	0,033	-0,079
-670,335	16,354	0,104	0,059
-669,320	-85,977	0,078	0,017
-668,305	-166,423	-0,051	-0,002
-667,291	-200,000	0,013	-0,170
-666,276	49,897	0,030	-0,021
-665,262	-97,118	-0,086	0,016
-664,247	195,319	-0,009	0,010
-663,232	-200,000	0,001	0,026
-662,218	800,000	-0,014	-0,039
-661,203	-52,566	0,034	0,011
-660,189	259,638	-0,043	0,054
-659,174	-155,739	-0,123	-0,006
-658,159	-74,020	-0,220	-0,057
-657,145	34,441	-0,022	-0,014
-656,130	800,000	0,039	-0,096
-655,116	-25,554	-0,021	-0,009
-654,101	116,617	-0,144	-0,128
-653,086	223,817	0,085	0,100
-652,072	-200,000	0,016	0,062
-651,057	-27,665	-0,048	-0,020
-650,043	-70,810	-0,059	0,016
-649,028	-90,844	0,131	-0,027
-648,014	456,012	0,122	0,197
-646,999	11,041	-0,086	0,048
-645,984	-97,327	0,054	-0,010
-644,970	478,287	-0,087	-0,144
-643,955	-25,821	0,100	0,043
-642,941	646,203	-0,044	0,081
-641,926	88,913	-0,036	0,029
-640,911	-200,000	-0,020	0,069
-639,897	-200,000	0,042	-0,149
-638,882	48,473	0,081	-0,055
-637,868	-200,000	0,010	0,114
-636,853	-200,000	-0,004	-0,017
-635,838	385,194	0,061	-0,091
-634,824	56,614	-0,087	-0,061
-633,809	689,854	0,022	-0,042
-632,795	800,000	-0,038	-0,109
-631,780	-106,547	-0,071	0,011
-630,765	800,000	-0,032	0,102
-629,751	484,827	0,082	0,135
-628,736	-73,001	-0,145	-0,038
-627,722	-200,000	-0,010	-0,081
-626,707	384,821	-0,081	0,122
-625,692	800,000	0,034	-0,085
-624,678	800,000	0,024	0,065
-623,663	-4,719	0,069	0,034
-622,649	166,405	-0,061	0,063
-621,634	249,422	-0,093	-0,114
-620,619	637,146	-0,042	-0,077
-619,605	5,347	0,046	-0,025
-618,590	-200,000	0,035	0,123
-617,576	518,261	-0,007	-0,011
-616,561	197,580	0,027	-0,030
-615,546	-53,576	-0,167	-0,055
-614,532	157,301	-0,092	-0,092
-613,517	209,297	-0,131	-0,149
-612,503	115,932	0,091	-0,080
-611,488	52,358	-0,047	-0,033
-610,474	582,138	0,096	0,171
-609,459	90,564	0,128	-0,104
-608,444	70,545	0,030	-0,023
-607,430	26,914	-0,161	-0,098
-606,415	-200,000	-0,002	-0,016
-605,401	800,000	-0,044	0,106
-604,386	800,000	0,014	0,037
-603,371	649,160	-0,050	-0,093
-602,357	-200,000	0,017	0,093
-601,342	74,615	-0,062	-0,048
-600,328	800,000	-0,037	-0,105
-599,313	-200,000	0,009	-0,086
-598,298	131,003	-0,099	0,092
-597,284	-157,855	0,067	-0,003
-596,269	-153,948	0,129	-0,006
-595,255	-200,000	-0,024	-0,119
-594,240	105,582	0,079	-0,068
-593,225	-88,582	0,044	-0,009
-592,211	231,535	-0,095	-0,113
-591,196	-200,000	-0,014	-0,065
-590,182	-38,456	-0,129	-0,049
-589,167	-17,674	0,084	-0,038
-588,152	511,491	-0,035	-0,059
-587,138	-200,000	-0,011	-0,138
-586,123	402,270	-0,079	-0,121
-585,109	-200,000	0,001	-0,100
-584,094	325,469	0,062	-0,086
-583,079	412,237	-0,049	-0,076
-582,065	30,375	0,163	-0,101
-581,050	7,587	-0,065	0,035
-580,036	652,259	-0,024	0,044
-579,021	-146,669	0,124	0,008
-578,006	-200,000	-0,026	-0,096
-576,992	-200,000	0,028	-0,111
-575,977	407,614	-0,068	-0,104
-574,963	293,230	0,031	0,042
-573,948	800,000	0,017	0,049
-572,934	-200,000	0,003	-0,063
-571,919	204,939	0,064	-0,072
-570,904	425,625	-0,047	-0,073
-569,890	-200,000	-0,006	-0,096
-568,875	800,000	-0,062	0,182
-567,861	20,447	0,016	0,010
-566,846	299,285	0,063	-0,084
-565,831	-200,000	-0,087	-0,000
-564,817	-98,280	-0,170	0,031
-563,802	177,282	0,030	-0,032
-562,788	800,000	-0,049	-0,130
-561,773	282,498	0,023	-0,030
-560,758	-53,836	-0,013	-0,004
-559,744	-29,154	0,099	-0,041
-558,729	90,972	-0,098	-0,079
-557,715	-13,651	-0,044	-0,020
-556,700	800,000	0,048	-0,130
-555,685	-200,000	0,000	-0,035
-554,671	191,548	0,030	-0,033
-553,656	-200,000	-0,011	-0,037
-552,642	-118,066	0,173	-0,022
-551,627	489,819	0,021	0,035
-550,612	-2,917	0,036	-0,018
-549,598	80,028	-0,058	-0,045
-548,583	129,178	0,088	0,081
-547,569	-58,405	0,071	0,022
-546,554	-121,032	0,121	-0,014
-545,539	-160,489	0,009	-0,000
-544,525	-25,643	0,125	0,053
-543,510	-91,044	-0,033	-0,007
-542,496	442,666	0,027	-0,043
-541,481	14,117	0,033	-0,018
-540,466	-53,545	0,097	-0,032
-539,452	436,271	0,036	0,057
-538,437	-200,000	0,002	0,063
-537,423	-131,778	0,060	0,006
-536,408	-55,005	0,058	-0,019
-535,393	97,155	-0,081	-0,067
-534,379	61,500	0,102	0,073
-533,364	45,233	0,080	-0,053
-532,350	-110,156	0,148	-0,022
-531,335	-200,000	0,003	0,141
-530,321	-42,727	0,120	0,044
-529,306	-200,000	-0,012	0,075
-528,291	432,445	0,048	-0,075
-527,277	700,268	-0,033	-0,062
-526,262	800,000	-0,003	-0,008
-525,248	301,238	0,092	-0,123
-524,233	-53,948	0,057	0,019
-523,218	-142,389	-0,046	0,003
-522,204	-200,000	-0,021	0,092
-521,189	130,982	0,035	0,033
-520,175	45,543	0,027	-0,018
-519,160	74,780	-0,037	0,028
-518,145	645,917	0,011	-0,020
-517,131	-161,164	0,085	-0,003
-516,116	-133,186	0,048	0,004
-515,102	99,141	-0,011	-0,009
-514,087	-200,000	0,038	0,130
-513,072	-132,873	0,055	0,005
-512,058	324,511	0,086	-0,119
-511,043	-40,770	0,051	-0,019
-510,029	-200,000	0,002	0,040
-509,014	128,494	-0,024	0,022
-507,999	-130,695	0,113	-0,011
-506,985	90,865	-0,130	-0,105
-505,970	-34,309	-0,102	-0,040
-504,956	98,305	-0,129	-0,107
-503,941	251,416	0,055	-0,068
-502,926	17,697	-0,062	0,035
-501,912	697,749	-0,063	0,120
-500,897	13,737	0,063	0,035
-499,883	-25,275	-0,083	0,035
-498,868	-200,000	-0,025	-0,133
-497,853	-200,000	0,010	-0,064
-496,839	-34,411	0,083	-0,033
-495,824	-118,492	0,045	-0,006
-494,810	-115,807	0,113	0,015
-493,795	149,524	0,082	0,080
-492,781	121,475	0,035	-0,032
-491,766	-123,436	0,042	-0,005
-490,751	391,561	0,049	-0,073
-489,737	-200,000	0,039	-0,137
-488,722	800,000	0,041	0,090
-487,708	-200,000	0,013	0,098
-486,693	-200,000	-0,007	-0,048
-485,678	184,739	-0,109	-0,117
-484,664	-96,267	-0,116	0,022
-483,649	-132,957	-0,074	0,007
-482,635	-27,194	0,026	-0,011
-481,620	-32,678	0,061	0,024
-480,605	-200,000	0,006	0,103
-479,591	-40,179	0,096	0,036
-478,576	264,038	0,055	-0,069
-477,562	-200,000	-0,004	-0,098
-476,547	56,797	-0,078	-0,055
-475,532	-30,757	0,042	-0,017
-474,518	-200,000	0,002	-0,022
-473,503	800,000	0,010	0,022
-472,489	-140,792	0,124	-0,009
-471,474	8,341	-0,093	-0,050
-470,459	12,821	-0,092	-0,051
-469,445	599,216	0,034	0,060
-468,430	-191,406	-0,091	0,001
-467,416	56,320	0,036	0,025
-466,401	-134,543	0,162	0,014
-465,386	-76,814	0,130	-0,033
-464,372	39,462	-0,037	-0,024
-463,357	145,381	-0,118	0,114
-462,343	113,166	-0,039	0,034
-461,328	-200,000	0,002	0,101
-460,313	218,950	-0,029	-0,034
-459,299	800,000	0,055	0,110
-458,284	490,636	0,074	0,122
-457,270	-200,000	0,002	-0,083
-456,255	120,975	-0,050	0,045
-455,241	-72,552	-0,007	0,002
-454,226	43,061	0,085	0,056
-453,211	-200,000	0,019	0,068
-452,197	-200,000	-0,012	0,104
-451,182	-65,196	0,012	0,003
-450,168	-200,000	-0,015	0,105
-449,153	-200,000	0,031	-0,105
-448,138	-200,000	0,033	-0,207
-447,124	134,778	-0,018	-0,017
-446,109	88,391	-0,036	0,029
-445,095	-200,000	0,013	0,195
-444,080	53,760	-0,071	0,049
-443,065	800,000	0,037	0,096
-442,051	-121,814	-0,128	0,015
-441,036	469,324	-0,068	-0,110
-440,022	53,234	-0,064	-0,044
-439,007	-200,000	0,025	0,088
-437,992	-18,204	-0,007	0,003
-436,978	-143,200	0,022	0,002
-435,963	84,789	-0,063	0,049
-434,949	-150,880	-0,056	-0,003
-433,934	375,259	-0,065	0,095
-432,919	25,772	-0,035	-0,021
-431,905	-10,213	-0,038	-0,018
-430,890	107,939	-0,055	0,047
-429,876	-91,773	-0,023	-0,005
-428,861	-200,000	-0,013	-0,041
-427,846	800,000	-0,035	0,110
-426,832	-14,210	-0,087	0,040
-425,817	107,703	-0,096	-0,083
-424,803	92,301	0,038	0,031
-423,788	146,518	-0,117	-0,113
-422,773	-63,078	0,127	-0,037
-421,759	800,000	0,016	0,041
-420,744	-15,088	-0,170	0,078
-419,730	-200,000	-0,022	-0,115
-418,715	583,829	0,027	0,048
-417,701	142,389	-0,012	0,012
-416,686	-200,000	-0,024	-0,134
-415,671	-60,532	0,105	-0,032
-414,657	342,967	0,062	-0,088
-413,642	476,243	-0,029	0,047
-412,628	-120,179	-0,116	0,014
-411,613	-65,373	0,083	0,024
-410,598	-200,000	-0,000	-0,022
-409,584	800,000	0,039	0,110
-408,569	-63,526	0,110	-0,032
-407,555	187,587	-0,035	0,037
-406,540	-154,540	-0,018	-0,001
-405,525	653,573	0,033	-0,062
-404,511	25,917	-0,096	0,058
-403,496	347,190	-0,063	-0,090
-402,482	-121,176	-0,017	-0,002
-401,467	21,925	0,086	0,050
-400,452	107,051	0,151	0,129
-399,438	514,688	-0,049	0,083
-398,423	-200,000	0,025	0,093
-397,409	739,665	-0,048	-0,092
-396,394	800,000	0,023	0,048
-395,379	303,353	-0,044	-0,059
-394,365	800,000	0,088	0,228
-393,350	-200,000	0,014	0,125
-392,336	-166,008	-0,129	0,004
-391,321	-200,000	-0,000	-0,043
-390,306	3,463	0,107	-0,056
-389,292	-66,148	-0,122	0,035
-388,277	800,000	0,042	-0,099
-387,263	-25,297	-0,087	0,037
-386,248	-200,000	-0,029	0,096
-385,233	-200,000	0,032	0,114
-384,219	-53,541	-0,054	0,018
-383,204	800,000	-0,030	-0,088
-382,190	706,846	0,045	-0,086
-381,175	257,730	0,033	-0,040
-380,160	-96,695	0,068	0,013
-379,146	-108,454	0,220	0,034
-378,131	-200,000	0,016	0,059
-377,117	-200,000	0,011	0,089
-376,102	-120,912	-0,107	0,013
-375,088	116,788	-0,092	-0,081
-374,073	186,619	-0,103	0,110
-373,058	-55,644	-0,021	-0,007
-372,044	-6,683	0,037	0,018
-371,029	-200,000	0,032	-0,115
-370,015	-167,565	-0,177	0,005
-369,000	-146,917	-0,085	-0,005
-367,985	680,715	0,015	0,028
-366,971	-200,000	-0,010	0,065
-365,956	19,512	-0,014	-0,008
-364,942	456,316	0,038	0,061
-363,927	383,120	0,039	0,058
-362,912	20,862	0,049	0,029
-361,898	-21,219	-0,076	0,033
-360,883	800,000	-0,007	0,017
-359,869	453,112	-0,012	0,019
-358,854	-74,172	-0,045	0,012
-357,839	-81,547	0,111	-0,026
-356,825	-200,000	-0,007	0,095
-355,810	-123,528	0,077	0,009
-354,796	-200,000	0,047	0,183
-353,781	-200,000	-0,044	-0,222
-352,766	-125,870	-0,039	0,004
-351,752	577,929	0,027	0,047
-350,737	-20,436	0,064	0,028
-349,723	800,000	-0,026	0,081
-348,708	165,285	-0,113	0,115
-347,693	800,000	-0,036	-0,074
-346,679	127,292	-0,099	0,090
-345,664	88,554	0,119	-0,095
-344,650	-200,000	-0,006	0,089
-343,635	-85,597	0,086	0,019
-342,620	-172,073	0,105	-0,002
-341,606	14,100	-0,109	-0,061
-340,591	-200,000	-0,033	0,133
-339,577	15,127	-0,089	-0,050
-338,562	800,000	0,013	-0,037
-337,548	25,884	0,120	0,071
-336,533	262,846	0,116	0,145
-335,518	-116,068	-0,059	-0,008
-334,504	-200,000	0,007	0,080
-333,489	800,000	-0,032	0,082
-332,475	800,000	-0,022	-0,059
-331,460	-200,000	0,010	-0,034
-330,445	52,106	0,045	0,031
-329,431	-135,638	0,071	-0,006
-328,416	-90,035	-0,075	0,016
-327,402	-147,452	-0,112	-0,007
-326,387	-200,000	-0,032	0,179
-325,372	-4,444	0,058	-0,029
-324,358	227,275	-0,074	-0,086
-323,343	-58,512	0,104	-0,032
-322,329	-200,000	-0,010	-0,075
-321,314	174,054	0,150	0,156
-320,299	-98,194	0,023	0,004
-319,285	670,777	0,080	0,149
-318,270	399,020	-0,028	-0,042
-317,256	4,877	-0,056	-0,029
-316,241	-149,400	-0,093	-0,005
-315,226	800,000	-0,043	-0,093
-314,212	-123,144	0,150	0,017
-313,197	230,936	-0,084	0,099
-312,183	400,724	0,097	0,146
-311,168	800,000	-0,024	0,060
-310,153	45,842	-0,028	0,018
-309,139	231,051	0,062	-0,073
-308,124	39,398	0,036	-0,023
-307,110	59,628	0,177	-0,125
-306,095	-68,434	0,113	0,031
-305,080	34,665	-0,128	0,080
-304,066	800,000	0,029	0,090
-303,051	59,305	0,048	-0,034
-302,037	-200,000	-0,014	-0,068
-301,022	-112,752	0,057	0,008
-300,008	-86,609	0,156	-0,034
-298,993	0,649	-0,046	0,023
-297,978	79,909	0,057	0,044
-296,964	-36,310	-0,015	-0,006
-295,949	-132,926	0,046	0,004
-294,935	-200,000	-0,016	-0,067
-293,920	-32,002	-0,071	-0,028
-292,905	-16,797	-0,055	-0,025
-291,891	-78,857	0,006	0,002
-290,876	-2,949	-0,056	-0,028
-289,862	-200,000	0,010	0,065
-288,847	-83,752	-0,132	-0,030
-287,832	-121,661	0,041	0,005
-286,818	-61,040	0,024	-0,007
-285,803	-37,632	0,139	0,053
-284,789	800,000	0,036	0,076
-283,774	374,690	0,042	0,061
-282,759	-200,000	0,004	-0,024
-281,745	27,600	-0,090	-0,054
-280,730	800,000	-0,065	0,182
-279,716	-200,000	-0,011	-0,055
-278,701	-200,000	0,008	0,072
-277,686	85,449	0,034	0,026
-276,672	-200,000	0,003	-0,011
-275,657	-119,055	0,093	0,012
-274,643	36,737	-0,065	-0,041
-273,628	800,000	-0,076	-0,158
-272,613	-200,000	0,006	-0,081
-271,599	-29,160	0,062	-0,025
-270,584	201,727	0,078	0,087
-269,570	800,000	0,042	0,093
-268,555	362,359	-0,079	0,114
-267,540	-120,560	-0,174	0,021
-266,526	-200,000	0,014	-0,151
-265,511	262,697	-0,063	0,079
-264,497	492,487	-0,033	-0,054
-263,482	800,000	0,048	-0,132
-262,467	173,130	-0,086	0,089
-261,453	-200,000	-0,007	0,069
-260,438	-125,537	-0,072	0,008
-259,424	-200,000	-0,006	0,027
-258,409	696,481	-0,057	-0,107
-257,395	87,899	0,027	-0,022
-256,380	-87,700	-0,014	-0,003
-255,365	-70,788	0,038	0,010
-254,351	213,569	-0,076	0,086
-253,336	-25,783	-0,116	-0,049
-252,322	107,351	-0,082	-0,070
-251,307	-200,000	-0,006	-0,020
-250,292	-178,301	0,046	0,001
-249,278	277,679	0,079	-0,101
-248,263	333,060	-0,029	0,040
-247,249	-200,000	0,020	0,083
-246,234	-200,000	-0,016	0,065
-245,219	800,000	0,023	-0,058
-244,205	-99,847	-0,150	0,027
-243,190	477,809	0,030	0,049
-242,176	171,195	0,069	-0,070
-241,161	457,563	0,049	-0,078
-240,146	800,000	-0,032	0,101
-239,132	84,531	0,083	-0,065
-238,117	-51,498	-0,167	-0,055
-237,103	800,000	0,015	0,038
-236,088	0,270	0,075	0,038
-235,073	-34,421	0,123	0,048
-234,059	337,565	-0,069	-0,096
-233,044	-15,020	0,124	-0,057
-232,030	-35,556	-0,027	0,011
-231,015	181,621	-0,079	0,083
-230,000	486,630	-0,041	-0,067
-228,986	-49,323	0,080	0,027
-227,971	-200,000	0,020	-0,117
-226,957	800,000	-0,035	-0,083
-225,942	-200,000	0,047	0,182
-224,927	-200,000	-0,004	-0,052
-223,913	-31,489	-0,136	-0,054
-222,898	-200,000	0,004	-0,069
-221,884	-20,317	-0,123	-0,054
-220,869	-80,950	0,127	-0,030
-219,855	-48,609	0,222	0,076
-218,840	355,418	-0,031	-0,044
-217,825	293,308	0,118	0,154
-216,811	147,649	-0,131	-0,126
-215,796	498,765	-0,033	0,055
-214,782	156,159	0,020	0,020
-213,767	-148,286	-0,110	0,006
-212,752	145,163	-0,075	0,071
-211,738	-114,802	-0,084	-0,011
-210,723	-200,000	0,024	0,133
-209,709	800,000	0,029	-0,078
-208,694	800,000	0,036	-0,092
-207,679	-180,059	0,095	-0,001
-206,665	-34,298	0,115	-0,045
-205,650	201,698	0,044	-0,049
-204,636	-75,751	-0,045	-0,011
-203,621	-122,657	-0,085	0,010
-202,606	-21,864	0,053	-0,023
-201,592	329,539	0,041	0,057
-200,577	-119,529	-0,109	0,013
-199,563	-200,000	-0,041	0,144
-198,548	677,784	0,017	0,032
-197,533	-200,000	-0,010	0,060
-196,519	770,968	0,044	0,086
-195,504	800,000	0,013	0,030
-194,490	368,572	0,055	-0,080
-193,475	15,496	-0,047	-0,026
-192,460	-200,000	-0,009	0,037
-191,446	-190,058	-0,070	-0,001
-190,431	122,427	0,036	0,032
-189,417	800,000	0,019	-0,053
-188,402	-200,000	-0,024	-0,089
-187,387	-184,289	-0,104	0,001
-186,373	298,249	0,012	-0,015
-185,358	-104,052	-0,156	0,026
-184,344	-22,166	-0,060	0,026
-183,329	83,586	0,039	0,030
-182,315	-200,000	0,012	-0,074
-181,300	800,000	-0,030	0,084
-180,285	71,249	-0,059	-0,043
-179,271	800,000	0,021	-0,051
-178,256	-95,622	-0,069	-0,013
-177,242	-200,000	-0,067	-0,000
-176,227	-71,514	-0,059	-0,016
-175,212	571,007	0,059	0,103
-174,198	-200,000	-0,000	0,044
-173,183	257,009	0,062	-0,075
-172,169	126,433	-0,170	0,154
-171,154	356,002	-0,025	0,035
-170,139	-78,065	0,024	-0,006
-169,125	428,972	-0,025	0,039
-168,110	-72,359	0,060	-0,016
-167,096	-200,000	-0,022	-0,117
-166,081	-61,773	-0,088	-0,026
-165,066	-52,090	-0,062	-0,020
-164,052	304,853	0,085	0,112
-163,037	253,363	-0,035	0,043
-162,023	-200,000	0,027	0,145
-161,008	-53,758	0,056	0,018
-159,993	-200,000	-0,012	-0,092
-158,979	-200,000	0,022	-0,132
-157,964	-200,000	0,005	-0,121
-156,950	800,000	-0,054	0,118
-155,935	-200,000	0,016	0,000
-154,920	232,329	-0,125	0,147
-153,906	-49,912	0,016	0,006
-152,891	-200,000	0,016	-0,077
-151,877	-200,000	-0,006	0,024
-150,862	54,223	0,103	-0,070
-149,847	-200,000	-0,008	-0,114
-148,833	-105,635	0,076	0,012
-147,818	-200,000	0,036	0,171
-146,804	104,281	-0,033	-0,027
-145,789	60,259	-0,052	0,037
-144,775	-200,000	-0,025	-0,211
-143,760	-200,000	0,025	-0,225
-142,745	800,000	-0,031	-0,095
-141,731	800,000	0,022	0,056
-140,716	575,463	0,062	0,109
-139,702	56,234	0,147	0,101
-138,687	-164,361	0,071	0,002
-137,672	95,170	0,069	-0,056
-136,658	-200,000	0,024	-0,113
-135,643	401,853	0,031	0,047
-134,629	800,000	0,049	0,132
-133,614	-68,561	0,086	0,023
-132,599	634,229	-0,016	0,028
-131,585	-200,000	0,001	0,017
-130,570	-200,000	0,001	-0,084
-129,556	-100,874	-0,183	0,032
-128,541	337,425	-0,071	0,098
-127,526	155,707	0,059	-0,058
-126,512	-200,000	0,008	0,037
-125,497	-65,713	0,087	0,025
-124,483	32,818	0,063	-0,039
-123,468	-200,000	-0,000	-0,019
-122,453	155,520	-0,064	-0,062
-121,439	-63,033	-0,151	0,044
-120,424	123,365	0,057	-0,051
-119,410	-200,000	-0,002	-0,012
-118,395	-8,947	0,061	0,029
-117,380	-44,389	0,074	0,026
-116,366	-200,000	0,011	0,051
-115,351	149,187	-0,026	-0,025
-114,337	800,000	-0,108	-0,260
-113,322	800,000	-0,037	-0,096
-112,307	124,426	0,073	0,065
-111,293	226,228	0,101	-0,117
-110,278	35,208	-0,110	-0,068
-109,264	67,462	0,084	0,061
-108,249	800,000	-0,035	-0,071
-107,234	-98,034	-0,147	-0,027
-106,220	767,094	-0,070	-0,136
-105,205	-200,000	0,040	0,134
-104,191	-103,965	-0,050	0,008
-103,176	-200,000	-0,004	0,068
-102,162	137,258	0,040	0,037
-101,147	800,000	0,062	0,149
-100,132	55,289	-0,054	-0,037
-99,118	-123,395	-0,095	0,011
-98,103	306,240	0,050	0,066
-97,089	-1,341	0,154	0,077
-96,074	800,000	0,016	-0,047
-95,059	-200,000	0,001	0,019
-94,045	-104,622	-0,033	0,005
-93,030	-57,882	-0,109	0,033
-92,016	390,193	0,035	0,052
-91,001	306,900	0,111	0,147
-89,986	-173,381	0,128	-0,003
-88,972	-200,000	0,021	0,108
-87,957	800,000	-0,035	0,082
-86,943	-200,000	-0,005	0,068
-85,928	-40,060	-0,149	0,055
-84,913	800,000	0,028	-0,056
-83,899	-82,417	-0,059	-0,013
-82,884	67,363	-0,066	0,048
-81,870	151,132	-0,039	-0,037
-80,855	-21,935	0,067	-0,029
-79,840	-200,000	-0,010	-0,140
-78,826	-93,604	0,102	0,020
-77,811	598,559	-0,051	-0,090
-76,797	423,915	-0,090	-0,138
-75,782	15,435	-0,120	-0,066
-74,767	172,000	0,058	0,059
-73,753	-14,838	-0,097	0,044
-72,738	-50,915	0,072	0,024
-71,724	367,002	-0,092	-0,132
-70,709	-135,513	-0,099	-0,008
-69,694	78,063	-0,093	-0,070
-68,680	-200,000	0,023	0,099
-67,665	800,000	-0,029	0,087
-66,651	48,281	0,098	0,065
-65,636	-117,189	-0,122	-0,016
-64,622	438,639	0,034	0,053
-63,607	-115,218	-0,108	-0,014
-62,592	-200,000	0,011	-0,103
-61,578	585,320	0,024	0,042
-60,563	705,245	0,020	-0,037
-59,549	-200,000	-0,006	0,049
-58,534	-62,750	-1,373	-0,401
-57,519	435,386	-1,495	-2,313
-56,505	-200,000	-0,336	-4,468
-55,490	66,362	1,011	0,728
-54,476	800,000	4,712	11,303
-53,461	-200,000	17,654	281,452
-52,446	800,000	719,785	2223,116
-51,432	562,915	1634,496	2815,889
-50,417	81,045	1658,507	1268,107
-49,403	23,789	1532,598	892,951
-48,388	17,742	1455,826	819,058
-47,373	18,266	1445,356	815,648
-46,359	17,890	1435,966	808,526
-45,344	16,018	1431,477	797,066
-44,330	15,959	1429,543	795,677
-43,315	15,988	1427,691	794,751
-42,300	15,969	1426,127	793,760
-41,286	16,025	1425,002	793,367
-40,271	16,020	1423,590	792,525
-39,257	15,990	1422,518	791,757
-38,242	16,092	1420,875	791,290
-37,227	16,065	1419,733	790,499
-36,213	15,999	1418,632	789,541
-35,198	16,014	1417,361	788,874
-34,184	16,031	1416,506	788,448
-33,169	15,999	1415,336	787,613
-32,154	16,036	1414,161	787,101
-31,140	16,038	1412,715	786,277
-30,125	16,094	1411,624	785,899
-29,111	16,037	1410,644	785,057
-28,096	15,989	1409,368	784,091
-27,082	15,937	1408,401	783,279
-26,067	15,938	1407,334	782,657
-25,052	15,994	1405,927	782,104
-24,038	15,933	1405,397	781,493
-23,023	15,939	1404,131	780,789
-22,009	15,963	1403,111	780,300
-20,994	15,897	1402,252	779,485
-19,979	15,875	1401,384	778,867
-18,965	15,925	1400,131	778,373
-17,950	15,894	1399,358	777,769
-16,936	15,866	1398,184	776,955
-15,921	15,833	1397,290	776,277
-14,906	15,849	1396,160	775,692
-13,892	15,844	1395,255	775,135
-12,877	15,885	1394,366	774,799
-11,863	15,841	1393,491	774,081
-10,848	15,829	1392,628	773,512
-9,833	15,865	1391,646	773,106
-8,819	15,785	1390,483	772,059
-7,804	15,762	1389,743	771,511
-6,790	15,713	1388,910	770,791
-5,775	15,731	1387,889	770,276
-4,760	15,748	1386,903	769,779
-3,746	15,748	1386,226	769,369
-2,731	15,733	1385,260	768,736
-1,717	15,754	1384,140	768,180
-0,702	15,736	1382,410	767,106
0,313	19,479	1303,424	740,561
1,327	35,931	706,717	439,658
2,342	55,124	125,373	85,712
3,356	2,498	16,497	8,436
4,371	0,228	3,167	1,595
5,386	-20,999	0,548	0,237
6,400	259,470	0,026	0,032
7,415	27,619	-0,300	-0,178
8,429	-30,056	-0,337	-0,135
9,444	89,377	-0,374	-0,295
10,459	281,641	-0,219	-0,278
11,473	91,268	-0,286	-0,227
12,488	71,831	-0,272	-0,200
13,502	212,091	-0,234	-0,262
14,517	183,537	-0,310	-0,325
15,531	90,256	-0,455	-0,360
16,546	199,847	-0,259	-0,281
17,561	285,481	-0,364	-0,466
18,575	-106,404	-0,134	-0,021
19,590	203,841	-0,291	-0,319
20,604	85,594	-0,219	-0,170
21,619	91,307	-0,425	-0,337
22,634	181,124	-0,391	-0,407
23,648	80,544	-0,539	-0,410
24,663	160,537	-0,420	-0,415
25,677	53,991	-0,258	-0,175
26,692	-90,459	-0,365	-0,074
27,707	-18,654	-0,526	-0,231
28,721	51,802	-0,428	-0,288
29,736	152,638	-0,320	-0,309
30,750	85,456	-0,340	-0,264
31,765	83,967	-0,360	-0,278
32,780	94,516	-0,420	-0,337
33,794	20,632	-0,403	-0,230
34,809	658,083	-0,166	-0,303
35,823	302,888	-0,210	-0,275
36,838	66,477	-0,415	-0,298
37,853	82,751	-0,375	-0,288
38,867	121,403	-0,448	-0,394
39,882	117,577	-0,221	-0,192
40,896	70,461	-0,285	-0,208
41,911	10,938	-0,368	-0,198
42,926	49,399	-0,333	-0,221
43,940	84,261	-0,306	-0,236
44,955	149,976	-0,327	-0,313
45,969	124,854	-0,354	-0,314
46,984	95,488	-0,355	-0,286
47,999	298,828	-0,218	-0,283
49,013	188,051	-0,227	-0,239
50,028	111,265	-0,374	-0,318
51,042	134,225	-0,321	-0,294
52,057	-3,396	-0,297	-0,145
53,071	235,710	-0,279	-0,325
54,086	78,620	-0,348	-0,262
55,101	-73,708	-0,430	-0,110
56,115	124,606	-0,327	-0,290
57,130	220,528	-0,304	-0,344
58,144	79,733	-0,363	-0,274
59,159	-45,115	-0,456	-0,159
60,174	-13,304	-0,432	-0,197
61,188	104,648	-0,362	-0,301
62,203	-39,612	-0,339	-0,124
63,217	200,204	-0,244	-0,264
64,232	98,558	-0,289	-0,234
65,247	124,021	-0,313	-0,277
66,261	294,869	-0,332	-0,428
67,276	52,414	-0,465	-0,312
68,290	152,726	-0,327	-0,315
69,305	87,343	-0,331	-0,258
70,320	-58,546	-0,284	-0,086
71,334	-19,669	-0,395	-0,171
72,349	125,342	-0,339	-0,301
73,363	2,667	-0,385	-0,196
74,378	79,172	-0,274	-0,207
75,393	52,971	-0,307	-0,206
76,407	74,406	-0,186	-0,137
77,422	4,682	-0,274	-0,141
78,436	18,651	-0,318	-0,179
79,451	401,665	-0,221	-0,328
80,466	103,971	-0,301	-0,249
81,480	-32,816	-0,362	-0,141
82,495	11,666	-0,364	-0,196
83,509	-43,521	-0,354	-0,125
84,524	215,277	-0,228	-0,255
85,539	-53,759	-0,342	-0,109
86,553	85,573	-0,336	-0,260
87,568	21,084	-0,243	-0,138
88,582	112,274	-0,267	-0,227
89,597	-43,886	-0,317	-0,111
90,611	105,853	-0,236	-0,196
91,626	45,272	-0,354	-0,229
92,641	26,594	-0,288	-0,169
93,655	6,314	-0,258	-0,134
94,670	-5,955	-0,290	-0,139
95,684	215,904	-0,307	-0,343
96,699	156,976	-0,343	-0,334
97,714	-200,000	-0,092	-0,305
98,728	1,244	-0,219	-0,110
99,743	46,618	-0,238	-0,155
100,757	4,675	-0,284	-0,146
101,772	5,242	-0,340	-0,175
102,787	-94,145	-0,353	-0,067
103,801	119,142	-0,290	-0,252
104,816	-61,521	-0,332	-0,097
105,830	113,031	-0,253	-0,215
106,845	36,824	-0,356	-0,220
107,860	201,248	-0,158	-0,171
108,874	-0,456	-0,324	-0,161
109,889	-23,717	-0,434	-0,182
110,903	-26,209	-0,353	-0,145
111,918	251,888	-0,190	-0,228
112,933	31,108	-0,302	-0,181
113,947	205,567	-0,171	-0,186
114,962	112,376	-0,300	-0,255
115,976	316,766	-0,234	-0,311
116,991	334,757	-0,208	-0,284
118,006	135,091	-0,246	-0,225
119,020	-83,585	-0,192	-0,043
120,035	334,930	-0,177	-0,241
121,049	-40,814	-0,198	-0,072
122,064	373,148	-0,129	-0,184
123,079	10,093	-0,351	-0,186
124,093	155,007	-0,182	-0,176
125,108	165,380	-0,201	-0,200
126,122	155,926	-0,220	-0,213
127,137	-25,210	-0,322	-0,133
128,151	-65,418	-0,148	-0,041
129,166	228,158	-0,124	-0,142
130,181	84,887	-0,247	-0,189
131,195	54,951	-0,312	-0,211
132,210	204,000	-0,188	-0,204
133,224	129,504	-0,275	-0,246
134,239	-51,755	-0,204	-0,066
135,254	115,827	-0,165	-0,141
136,268	101,566	-0,286	-0,234
137,283	72,655	-0,202	-0,148
138,297	-12,996	-0,329	-0,149
139,312	143,241	-0,253	-0,236
140,327	221,314	-0,190	-0,214
141,341	108,990	-0,201	-0,168
142,356	91,089	-0,231	-0,181
143,370	164,765	-0,205	-0,202
144,385	-69,401	-0,297	-0,079
145,400	-56,240	-0,251	-0,078
146,414	258,828	-0,261	-0,316
147,429	204,825	-0,260	-0,282
148,443	70,053	-0,200	-0,144
149,458	800,000	-0,106	-0,258
150,473	138,524	-0,195	-0,179
151,487	-25,373	-0,209	-0,086
152,502	94,943	-0,240	-0,191
153,516	52,384	-0,212	-0,141
154,531	117,674	-0,262	-0,226
155,546	223,349	-0,182	-0,205
156,560	-189,131	-0,240	-0,002
157,575	189,685	-0,213	-0,224
158,589	58,020	-0,158	-0,108
159,604	279,226	-0,123	-0,154
160,619	153,654	-0,313	-0,299
161,633	42,589	-0,213	-0,135
162,648	199,335	-0,176	-0,188
163,662	9,035	-0,264	-0,139
164,677	94,608	-0,268	-0,213
165,692	127,298	-0,258	-0,229
166,706	20,060	-0,287	-0,161
167,721	189,307	-0,218	-0,229
168,735	55,354	-0,159	-0,108
169,750	463,304	-0,172	-0,269
170,764	22,664	-0,190	-0,109
171,779	-92,558	-0,099	-0,019
172,794	274,739	-0,153	-0,189
173,808	298,554	-0,182	-0,234
174,823	90,056	-0,315	-0,245
175,837	136,601	-0,260	-0,237
176,852	271,542	-0,272	-0,335
177,867	15,999	-0,207	-0,114
178,881	-89,313	-0,171	-0,035
179,896	-50,606	-0,276	-0,090
180,910	-35,624	-0,240	-0,090
181,925	145,655	-0,261	-0,244
182,940	164,711	-0,250	-0,246
183,954	800,000	-0,136	-0,277
184,969	123,018	-0,177	-0,154
185,983	-30,195	-0,195	-0,077
186,998	566,322	-0,078	-0,133
188,013	2,174	-0,179	-0,090
189,027	55,709	-0,320	-0,216
190,042	133,328	-0,329	-0,297
191,056	-143,489	-0,206	-0,013
192,071	-92,329	-0,325	-0,063
193,086	800,000	-0,045	-0,132
194,100	-36,124	-0,156	-0,058
195,115	7,450	-0,211	-0,110
196,129	112,501	-0,145	-0,122
197,144	269,472	-0,192	-0,235
198,159	157,958	-0,263	-0,254
199,173	-23,745	-0,153	-0,064
200,188	132,038	-0,155	-0,139
201,202	-8,614	-0,187	-0,087
202,217	175,758	-0,200	-0,202
203,232	24,844	-0,245	-0,141
204,246	-52,137	-0,223	-0,072
205,261	28,011	-0,177	-0,103
206,275	333,415	-0,108	-0,145
207,290	204,119	-0,154	-0,166
208,304	-76,273	-0,190	-0,046
209,319	93,972	-0,242	-0,191
210,334	267,393	-0,082	-0,100
211,348	-200,000	-0,075	-0,268
212,363	-15,164	-0,182	-0,081
213,377	-69,706	-0,216	-0,057
214,392	238,320	-0,199	-0,230
215,407	205,341	-0,007	-0,008
216,421	39,775	-0,161	-0,100
217,436	-60,835	-0,221	-0,064
218,450	104,735	-0,186	-0,152
219,465	273,454	-0,167	-0,205
220,480	-4,310	-0,204	-0,098
221,494	-52,406	-0,186	-0,059
222,509	-146,729	-0,153	0,009
223,523	-32,936	-0,261	-0,100
224,538	141,039	-0,252	-0,232
225,553	-5,113	-0,271	-0,129
226,567	168,087	-0,195	-0,193
227,582	128,326	-0,222	-0,197
228,596	800,000	-0,089	-0,216
229,611	-27,645	-0,200	-0,080
230,626	32,843	-0,219	-0,131
231,640	57,768	-0,139	-0,094
232,655	276,178	-0,147	-0,182
233,669	218,379	-0,205	-0,228
234,684	52,676	-0,263	-0,174
235,699	46,622	-0,202	-0,130
236,713	384,428	-0,106	-0,152
237,728	38,215	-0,149	-0,092
238,742	66,393	-0,163	-0,115
239,757	116,431	-0,213	-0,181
240,772	-58,470	-0,254	-0,076
241,786	105,020	-0,199	-0,163
242,801	-24,956	-0,271	-0,111
243,815	201,380	-0,159	-0,170
244,830	-72,586	-0,141	-0,036
245,844	800,000	-0,081	-0,207
246,859	241,180	-0,134	-0,156
247,874	-2,388	-0,294	-0,143
248,888	581,576	-0,177	-0,302
249,903	109,225	-0,246	-0,204
250,917	-200,000	-0,009	-0,169
251,932	402,849	-0,149	-0,218
252,947	6,535	-0,092	-0,047
253,961	281,389	-0,194	-0,241
254,976	771,580	-0,120	-0,228
255,990	52,022	-0,157	-0,104
257,005	217,914	-0,178	-0,198
258,020	-8,679	-0,369	-0,171
259,034	-200,000	0,019	-0,220
260,049	-66,212	-0,208	-0,057
261,063	-99,908	-0,192	-0,033
262,078	169,294	-0,246	-0,243
263,093	124,623	-0,191	-0,167
264,107	-59,516	-0,271	-0,080
265,122	-152,357	-0,141	0,007
266,136	414,106	-0,090	-0,133
267,151	151,933	-0,192	-0,181
268,166	12,338	-0,255	-0,136
269,180	721,698	-0,087	-0,160
270,195	60,378	-0,150	-0,103
271,209	-81,175	-0,128	0,029
272,224	-59,467	-0,177	-0,052
273,239	-200,000	-0,194	0,001
274,253	81,419	-0,120	-0,089
275,268	8,673	-0,151	-0,079
276,282	43,054	-0,202	-0,127
277,297	5,409	-0,225	-0,115
278,312	-100,401	-0,264	0,045
279,326	31,446	-0,056	-0,033
280,341	63,188	-0,081	-0,056
281,355	-7,879	-0,252	-0,117
282,370	349,537	-0,093	-0,127
283,384	-30,455	-0,187	-0,073
284,399	-200,000	-0,052	-0,169
285,414	130,332	-0,282	-0,250
286,428	78,500	-0,135	-0,099
287,443	-62,061	-0,216	-0,062
288,457	30,911	-0,166	-0,098
289,472	-2,808	-0,231	-0,111
290,487	425,203	-0,119	-0,177
291,501	-16,566	-0,254	-0,110
292,516	231,679	-0,134	-0,152
293,530	192,746	-0,144	-0,151
294,545	202,138	-0,029	-0,031
295,560	500,486	-0,099	-0,158
296,574	12,837	-0,174	-0,092
297,589	-78,317	-0,183	-0,043
298,603	93,516	-0,101	-0,079
299,618	44,929	-0,209	-0,133
300,633	800,000	-0,082	-0,173
301,647	310,097	-0,117	-0,151
302,662	75,050	-0,072	-0,052
303,676	18,564	-0,078	-0,043
304,691	291,385	-0,146	-0,184
305,706	462,606	-0,150	-0,231
306,720	94,604	-0,170	-0,133
307,735	-35,234	-0,176	-0,066
308,749	248,971	-0,099	-0,116
309,764	305,132	-0,152	-0,195
310,779	-43,465	-0,176	-0,061
311,793	6,852	-0,187	-0,095
312,808	78,346	-0,209	-0,153
313,822	-54,266	-0,131	-0,041
314,837	-86,542	-0,206	-0,043
315,852	-66,711	-0,173	-0,047
316,866	283,845	-0,146	-0,181
317,881	44,987	-0,186	-0,118
318,895	189,306	-0,128	-0,132
319,910	-200,000	-0,079	-0,266
320,925	-200,000	-0,026	-0,215
321,939	-150,088	-0,226	-0,012
322,954	764,622	-0,022	-0,042
323,968	800,000	0,016	0,033
324,983	-156,129	-0,068	0,003
325,997	-200,000	-0,035	-0,110
327,012	528,602	-0,095	-0,155
328,027	-17,331	-0,160	-0,069
329,041	43,924	-0,106	-0,067
330,056	-97,788	-0,097	0,017
331,070	-107,997	-0,067	0,010
332,085	-200,000	-0,032	-0,129
333,100	-200,000	-0,029	-0,121
334,114	128,831	-0,143	-0,126
335,129	790,616	-0,091	-0,172
336,143	36,594	-0,186	-0,113
337,158	-200,000	-0,026	-0,152
338,173	443,491	-0,092	-0,139
339,187	241,434	-0,041	0,047
340,202	-110,622	-0,165	-0,023
341,216	229,479	-0,073	-0,082
342,231	206,434	-0,130	-0,139
343,246	23,038	-0,196	-0,110
344,260	-54,516	-0,167	0,052
345,275	-76,165	-0,161	0,039
346,289	-151,493	-0,129	-0,006
347,304	-68,219	-0,234	-0,062
348,319	30,269	-0,097	-0,057
349,333	16,383	-0,212	-0,115
350,348	-29,020	-0,215	-0,084
351,362	-39,262	-0,183	-0,066
352,377	377,246	-0,032	-0,045
353,392	-6,782	-0,101	-0,047
354,406	-87,950	-0,154	-0,032
355,421	210,373	1312,821	1417,763
356,435	161,947	1473,355	1418,286
