DTS Sentinel unit serial number:	SN410029Multiplexer serial number:	ORYXHardware model number:	OX2-SRSoftware version number:	ORYX F/W v4,00 Oryx Data Collector v3.7.2.0data status	okinstallation	B3 Nyhavnadifferential loss correction	single-endedforward channel	channel 1reverse channel	N/Adate	2023/11/29time	16:22:30forward acquisition time	300,00reverse acquisition time	0,00gamma	499,1914k internal	0,3209k external	0,3209temperature offset calibration	1,0000default loss term (dB/km)	0,3820temperature slope calibration	1,0000multiplexer offset coefficient	1,0000multiplexer slope coefficient	1,0000fibre end	0,00T internal ref (°C)	11,44T ext. ref 1 (°C)	-3,65T ext. ref 2 (°C)	-3,78length (m)	temperature (°C)	Stokes	anti-Stokes-744,400	800,000	-0,146	-0,307
-743,385	-200,000	0,039	0,278
-742,371	-43,447	-0,183	-0,067
-741,356	-200,000	-0,087	0,334
-740,342	-200,000	0,013	-0,402
-739,327	321,594	0,181	0,250
-738,312	217,126	-0,254	-0,294
-737,298	-200,000	-0,054	0,390
-736,283	800,000	-0,104	-0,264
-735,269	-200,000	-0,097	0,435
-734,254	800,000	-0,102	-0,324
-733,239	119,213	-0,112	0,101
-732,225	524,073	-0,154	-0,264
-731,210	30,472	0,187	0,116
-730,196	-92,567	0,117	0,024
-729,181	-80,837	-0,121	-0,029
-728,167	243,389	0,046	0,056
-727,152	531,748	0,085	-0,147
-726,137	-115,699	-0,152	-0,020
-725,123	-200,000	-0,016	-0,120
-724,108	478,749	-0,009	-0,014
-723,094	209,801	-0,111	-0,126
-722,079	-1,154	-0,175	-0,089
-721,064	50,298	0,069	0,047
-720,050	800,000	-0,057	-0,133
-719,035	-200,000	-0,011	-0,043
-718,021	800,000	0,057	-0,125
-717,006	602,532	-0,006	0,010
-715,991	-200,000	-0,050	-0,317
-714,977	-200,000	0,006	-0,139
-713,962	163,519	-0,038	-0,039
-712,948	-15,962	0,084	-0,039
-711,933	794,430	-0,007	-0,013
-710,918	-47,447	-0,043	0,015
-709,904	184,144	-0,042	-0,046
-708,889	-200,000	0,001	-0,162
-707,875	-200,000	0,024	-0,176
-706,860	571,343	-0,044	-0,079
-705,845	-200,000	0,023	0,081
-704,831	127,562	-0,046	0,042
-703,816	3,730	0,123	0,065
-702,802	-24,176	0,080	0,035
-701,787	-44,715	-0,143	-0,051
-700,772	-200,000	0,003	-0,101
-699,758	-10,821	0,053	-0,025
-698,743	180,410	-0,069	0,074
-697,729	-81,283	0,119	-0,028
-696,714	357,610	-0,030	0,043
-695,699	-75,022	0,184	0,047
-694,685	213,505	-0,114	-0,130
-693,670	746,077	0,052	-0,102
-692,656	800,000	0,014	-0,039
-691,641	-200,000	0,002	0,009
-690,627	14,661	0,160	-0,090
-689,612	-20,836	-0,100	-0,044
-688,597	-200,000	-0,009	0,047
-687,583	41,113	0,031	0,020
-686,568	-200,000	0,015	-0,057
-685,554	-67,780	-0,076	0,021
-684,539	97,575	-0,069	-0,057
-683,524	541,303	0,056	-0,097
-682,510	524,503	-0,007	0,012
-681,495	800,000	-0,091	0,188
-680,481	-109,899	-0,105	-0,016
-679,466	800,000	-0,080	-0,213
-678,451	800,000	-0,033	-0,075
-677,437	734,343	-0,033	0,065
-676,422	173,721	0,111	0,116
-675,408	-104,259	-0,077	0,013
-674,393	169,881	-0,025	0,025
-673,378	-200,000	-0,022	-0,081
-672,364	-200,000	-0,000	-0,088
-671,349	-29,379	-0,043	0,018
-670,335	356,421	-0,054	-0,077
-669,320	426,038	0,046	0,072
-668,305	86,839	-0,070	0,056
-667,291	-200,000	0,005	0,032
-666,276	-59,723	-0,071	-0,022
-665,262	-200,000	-0,038	-0,141
-664,247	-200,000	0,040	-0,130
-663,232	107,482	0,030	-0,026
-662,218	-72,345	0,031	0,008
-661,203	800,000	-0,003	-0,009
-660,189	-52,124	-0,184	-0,061
-659,174	-195,497	0,038	-0,000
-658,159	-200,000	-0,037	-0,220
-657,145	-76,082	0,038	-0,010
-656,130	-103,660	0,134	0,023
-655,116	-75,841	0,122	0,031
-654,101	-3,699	-0,010	0,005
-653,086	325,126	0,085	-0,118
-652,072	-200,000	0,002	-0,027
-651,057	18,546	-0,055	0,032
-650,043	246,640	-0,071	-0,086
-649,028	92,727	-0,112	0,091
-648,014	-40,266	0,030	0,011
-646,999	800,000	-0,029	0,069
-645,984	-40,175	-0,093	0,035
-644,970	192,091	0,065	0,071
-643,955	800,000	-0,071	-0,184
-642,941	73,093	-0,099	0,075
-641,926	339,808	0,027	-0,038
-640,911	367,556	0,056	-0,081
-639,897	3,479	-0,056	0,030
-638,882	428,069	0,058	-0,091
-637,868	-24,922	-0,016	0,007
-636,853	-200,000	-0,002	-0,049
-635,838	331,781	0,033	-0,047
-634,824	86,388	0,087	-0,069
-633,809	-140,587	0,129	-0,009
-632,795	-21,656	-0,076	0,033
-631,780	-109,949	0,125	-0,019
-630,765	800,000	0,023	-0,053
-629,751	181,145	-0,071	0,075
-628,736	8,906	0,085	-0,046
-627,722	-200,000	0,028	-0,171
-626,707	746,006	0,051	-0,099
-625,692	-78,547	0,118	0,029
-624,678	78,355	-0,057	0,044
-623,663	-7,769	0,082	-0,040
-622,649	-200,000	-0,026	-0,090
-621,634	-39,331	-0,058	-0,022
-620,619	-200,000	-0,017	0,117
-619,605	210,242	-0,024	-0,027
-618,590	800,000	0,029	-0,065
-617,576	800,000	0,025	-0,071
-616,561	-200,000	0,003	0,035
-615,546	605,709	-0,028	-0,050
-614,532	-200,000	0,006	-0,019
-613,517	-200,000	0,009	0,040
-612,503	-25,279	0,079	0,034
-611,488	-200,000	-0,014	0,082
-610,474	800,000	-0,041	0,086
-609,459	800,000	-0,029	0,068
-608,444	-125,934	0,030	0,003
-607,430	544,080	-0,101	-0,175
-606,415	800,000	-0,045	-0,098
-605,401	302,871	0,017	0,023
-604,386	800,000	-0,015	-0,041
-603,371	751,688	0,076	0,150
-602,357	-200,000	-0,001	-0,021
-601,342	-200,000	0,002	-0,097
-600,328	-84,175	-0,116	-0,026
-599,313	234,001	0,018	0,022
-598,298	25,127	-0,045	-0,027
-597,284	-39,576	-0,072	0,027
-596,269	-200,000	0,009	-0,134
-595,255	-69,059	0,095	0,026
-594,240	56,892	0,125	0,088
-593,225	20,389	-0,103	-0,060
-592,211	800,000	-0,023	0,071
-591,196	112,007	-0,066	-0,058
-590,182	1,300	0,063	-0,033
-589,167	-53,585	-0,059	-0,019
-588,152	751,125	0,080	-0,156
-587,138	242,793	-0,022	-0,026
-586,123	-39,410	0,118	-0,045
-585,109	800,000	0,022	0,060
-584,094	-33,218	-0,030	-0,012
-583,079	800,000	-0,030	-0,063
-582,065	511,578	0,069	0,116
-581,050	80,080	-0,039	-0,030
-580,036	271,321	-0,051	0,065
-579,021	800,000	0,027	0,085
-578,006	-132,967	-0,200	-0,018
-576,992	800,000	-0,059	-0,132
-575,977	-60,562	0,070	-0,021
-574,963	-43,779	0,099	0,036
-573,948	-200,000	-0,014	0,060
-572,934	-200,000	-0,019	0,172
-571,919	223,362	0,092	-0,107
-570,904	120,885	-0,127	-0,114
-569,890	-200,000	-0,015	-0,227
-568,875	-93,203	0,034	-0,007
-567,861	16,304	0,155	-0,088
-566,846	243,385	-0,042	-0,050
-565,831	800,000	-0,029	0,063
-564,817	480,763	-0,043	0,070
-563,802	319,894	0,030	-0,041
-562,788	498,366	0,044	-0,074
-561,773	239,553	-0,022	-0,026
-560,758	-81,623	-0,141	0,033
-559,744	45,680	0,137	0,091
-558,729	32,564	0,076	-0,048
-557,715	-73,471	-0,233	-0,061
-556,700	148,216	-0,067	0,065
-555,685	519,290	-0,035	0,060
-554,671	-30,448	0,078	-0,032
-553,656	800,000	-0,048	-0,099
-552,642	-46,565	-0,026	0,009
-551,627	-21,230	-0,070	-0,031
-550,612	-200,000	0,009	0,067
-549,598	-200,000	-0,013	-0,075
-548,583	63,158	0,053	-0,038
-547,569	-14,970	-0,024	-0,011
-546,554	-17,390	-0,033	0,015
-545,539	-200,000	0,019	-0,065
-544,525	-200,000	0,006	0,142
-543,510	-35,796	-0,012	-0,005
-542,496	56,576	-0,110	-0,077
-541,481	-200,000	0,007	0,164
-540,466	-200,000	-0,018	-0,082
-539,452	-200,000	-0,007	-0,039
-538,437	-67,837	0,139	0,039
-537,423	-74,449	-0,097	-0,025
-536,408	-149,927	-0,053	0,003
-535,393	-26,234	0,151	-0,064
-534,379	-200,000	-0,019	-0,105
-533,364	-164,468	-0,108	0,003
-532,350	260,444	0,106	0,133
-531,335	47,175	0,125	0,083
-530,321	-41,470	0,125	0,046
-529,306	-177,500	-0,143	-0,002
-528,291	-71,237	-0,145	-0,039
-527,277	-200,000	-0,008	-0,084
-526,262	-200,000	0,018	-0,107
-525,248	120,161	0,033	-0,029
-524,233	-17,373	0,103	-0,046
-523,218	-200,000	-0,018	0,078
-522,204	-110,833	0,072	-0,011
-521,189	800,000	-0,025	0,072
-520,175	392,923	-0,011	0,017
-519,160	90,675	-0,065	-0,053
-518,145	-58,239	0,098	-0,030
-517,131	-200,000	-0,017	0,058
-516,116	-112,300	0,137	0,020
-515,102	51,957	-0,059	-0,040
-514,087	-113,221	-0,052	0,007
-513,072	800,000	-0,032	-0,071
-512,058	-44,636	0,143	-0,051
-511,043	552,529	-0,047	-0,081
-510,029	-200,000	-0,009	0,106
-509,014	800,000	0,022	0,058
-507,999	-200,000	0,014	0,156
-506,985	-200,000	0,009	0,078
-505,970	-90,375	-0,054	-0,011
-504,956	800,000	-0,065	-0,140
-503,941	-99,647	0,145	-0,026
-502,926	-200,000	0,003	-0,077
-501,912	43,162	0,030	0,020
-500,897	-71,149	-0,140	0,038
-499,883	-200,000	-0,023	0,108
-498,868	-122,474	-0,106	0,012
-497,853	-26,940	0,150	0,063
-496,839	800,000	-0,029	0,074
-495,824	177,757	-0,102	0,107
-494,810	-200,000	0,045	0,145
-493,795	-200,000	0,010	0,132
-492,781	800,000	-0,027	-0,064
-491,766	-200,000	0,031	0,108
-490,751	-19,230	-0,107	0,047
-489,737	-200,000	-0,002	-0,021
-488,722	-200,000	-0,059	0,190
-487,708	-200,000	-0,023	0,109
-486,693	69,807	0,199	0,147
-485,678	-200,000	-0,177	0,000
-484,664	-103,637	0,068	-0,011
-483,649	29,674	-0,086	-0,053
-482,635	-107,478	-0,076	-0,012
-481,620	800,000	0,034	0,100
-480,605	-27,169	-0,099	0,041
-479,591	-200,000	0,028	0,138
-478,576	109,855	0,015	0,013
-477,562	-83,833	-0,110	-0,025
-476,547	800,000	-0,041	0,122
-475,532	6,180	-0,098	0,052
-474,518	-124,301	-0,085	0,009
-473,503	-200,000	0,035	0,178
-472,489	-145,114	0,077	-0,005
-471,474	-200,000	0,007	-0,097
-470,459	31,202	0,028	-0,017
-469,445	466,683	0,043	-0,070
-468,430	146,867	-0,099	0,096
-467,416	-200,000	0,020	-0,148
-466,401	-16,398	0,094	-0,042
-465,386	646,205	-0,088	0,163
-464,372	-66,835	0,082	0,023
-463,357	23,196	-0,107	-0,063
-462,343	54,220	-0,017	0,012
-461,328	162,387	0,090	-0,090
-460,313	255,780	-0,039	-0,048
-459,299	-2,262	0,032	0,016
-458,284	-200,000	0,008	0,089
-457,270	80,868	0,062	0,048
-456,255	-69,343	-0,093	0,025
-455,241	375,622	-0,053	-0,078
-454,226	249,126	-0,096	-0,116
-453,211	-103,295	0,060	0,010
-452,197	800,000	0,035	0,073
-451,182	71,626	-0,049	-0,037
-450,168	-200,000	0,019	-0,079
-449,153	-161,304	-0,112	-0,004
-448,138	800,000	0,025	-0,062
-447,124	-200,000	-0,000	-0,032
-446,109	2,769	0,090	0,047
-445,095	-20,425	0,074	0,032
-444,080	-200,000	-0,003	0,135
-443,065	265,250	-0,062	0,078
-442,051	-107,303	0,187	-0,029
-441,036	800,000	0,016	0,048
-440,022	800,000	-0,013	-0,034
-439,007	-200,000	0,022	-0,077
-437,992	33,112	0,025	0,015
-436,978	5,120	-0,053	0,028
-435,963	-30,853	0,042	0,017
-434,949	-200,000	-0,009	0,050
-433,934	-132,584	-0,070	-0,006
-432,919	800,000	0,025	0,053
-431,905	-52,010	0,143	-0,047
-430,890	-187,550	-0,069	-0,001
-429,876	541,253	0,071	0,122
-428,861	200,186	0,087	0,095
-427,846	-66,830	0,102	-0,029
-426,832	-163,666	-0,131	0,004
-425,817	-200,000	-0,011	0,049
-424,803	71,715	-0,054	-0,040
-423,788	-200,000	-0,019	-0,072
-422,773	-125,861	-0,028	-0,003
-421,759	412,455	0,054	0,083
-420,744	-141,950	-0,018	0,001
-419,730	-200,000	-0,018	-0,076
-418,715	-200,000	0,009	0,060
-417,701	-46,052	-0,076	-0,027
-416,686	-200,000	-0,018	-0,072
-415,671	-200,000	-0,020	0,149
-414,657	-9,501	0,136	0,065
-413,642	43,240	0,081	0,053
-412,628	45,558	0,023	0,015
-411,613	-200,000	0,002	-0,030
-410,598	132,875	0,093	0,086
-409,584	110,650	0,015	0,013
-408,569	-200,000	0,004	-0,020
-407,555	157,181	0,062	0,061
-406,540	-200,000	0,013	0,096
-405,525	104,395	-0,069	-0,058
-404,511	-200,000	-0,013	-0,096
-403,496	-56,317	-0,256	-0,081
-402,482	127,343	-0,060	-0,055
-401,467	248,597	0,099	0,121
-400,452	-200,000	0,038	0,136
-399,438	71,616	-0,091	0,067
-398,423	-132,666	-0,009	-0,001
-397,409	-108,866	0,006	-0,001
-396,394	-130,696	0,156	0,015
-395,379	-200,000	0,006	0,059
-394,365	-39,910	-0,085	0,031
-393,350	-56,439	-0,088	0,028
-392,336	264,466	0,122	-0,152
-391,321	-2,367	0,103	0,052
-390,306	-82,822	-0,044	0,010
-389,292	-95,154	0,079	-0,015
-388,277	-93,088	0,072	-0,014
-387,263	-19,549	0,067	-0,029
-386,248	211,872	0,121	-0,136
-385,233	9,787	-0,093	0,050
-384,219	-118,325	0,144	0,018
-383,204	93,047	-0,050	0,040
-382,190	-145,808	-0,069	0,004
-381,175	-101,792	-0,061	0,010
-380,160	-40,992	0,109	0,040
-379,146	-200,000	0,008	-0,085
-378,131	-8,611	0,134	-0,064
-377,117	-98,495	-0,118	-0,021
-376,102	-193,281	0,107	0,001
-375,088	-200,000	-0,023	0,124
-374,073	800,000	-0,032	0,088
-373,058	-200,000	-0,003	-0,086
-372,044	195,255	0,075	-0,082
-371,029	800,000	-0,031	0,063
-370,015	-90,964	-0,201	-0,041
-369,000	100,439	-0,101	-0,084
-367,985	45,144	-0,065	0,043
-366,971	212,349	-0,035	0,040
-365,956	123,797	-0,036	-0,032
-364,942	43,242	0,091	-0,059
-363,927	-200,000	-0,024	-0,122
-362,912	-200,000	0,003	0,115
-361,898	-200,000	0,039	-0,163
-360,883	-200,000	0,006	-0,115
-359,869	800,000	-0,021	0,055
-358,854	-200,000	-0,001	-0,156
-357,839	800,000	-0,012	0,024
-356,825	-1,097	-0,067	0,034
-355,810	800,000	-0,060	0,165
-354,796	-62,949	0,178	-0,052
-353,781	-125,348	-0,182	0,020
-352,766	-200,000	-0,017	-0,197
-351,752	-100,138	0,037	-0,007
-350,737	-200,000	0,010	0,073
-349,723	-135,699	0,186	-0,016
-348,708	292,311	0,101	0,132
-347,693	-138,750	0,129	-0,010
-346,679	-200,000	-0,014	-0,066
-345,664	-200,000	-0,024	-0,126
-344,650	553,569	-0,022	-0,038
-343,635	12,323	-0,049	0,027
-342,620	-200,000	-0,006	-0,027
-341,606	130,066	-0,064	-0,059
-340,591	-200,000	0,049	-0,182
-339,577	38,424	-0,085	0,054
-338,562	800,000	-0,012	-0,028
-337,548	-83,389	-0,092	-0,021
-336,533	103,532	0,062	-0,052
-335,518	794,222	0,070	-0,138
-334,504	-200,000	-0,007	0,071
-333,489	45,235	-0,077	-0,051
-332,475	246,098	0,050	0,060
-331,460	800,000	-0,036	-0,086
-330,445	800,000	-0,036	-0,094
-329,431	167,481	0,127	0,129
-328,416	315,649	-0,084	-0,114
-327,402	-115,334	-0,133	-0,018
-326,387	-85,406	-0,054	0,012
-325,372	-200,000	-0,040	-0,196
-324,358	-200,000	0,003	-0,121
-323,343	567,049	0,029	0,051
-322,329	148,698	0,019	0,018
-321,314	-200,000	0,001	0,142
-320,299	-164,034	0,142	-0,005
-319,285	-15,263	-0,036	-0,016
-318,270	800,000	-0,016	-0,049
-317,256	-30,931	-0,106	-0,043
-316,241	-200,000	0,039	-0,171
-315,226	-200,000	0,006	0,091
-314,212	-153,623	-0,090	0,004
-313,197	14,360	0,081	0,045
-312,183	-200,000	0,006	0,021
-311,168	94,545	0,038	0,030
-310,153	-117,139	0,088	0,011
-309,139	351,960	0,090	0,128
-308,124	-200,000	0,002	0,012
-307,110	-200,000	0,008	0,096
-306,095	-184,657	-0,085	-0,001
-305,080	17,315	-0,095	0,054
-304,066	800,000	0,056	0,136
-303,051	-200,000	0,002	-0,064
-302,037	189,460	0,136	-0,146
-301,022	506,751	-0,016	-0,027
-300,008	-62,513	0,135	0,040
-298,993	312,855	0,087	-0,117
-297,978	452,441	-0,115	0,182
-296,964	-147,157	0,121	-0,007
-295,949	-200,000	0,025	-0,134
-294,935	217,637	0,188	-0,214
-293,920	397,436	-0,022	0,033
-292,905	-200,000	-0,011	-0,052
-291,891	210,849	0,059	0,066
-290,876	-23,276	0,146	0,062
-289,862	-43,145	-0,091	-0,033
-288,847	486,161	-0,019	-0,031
-287,832	-200,000	0,026	0,139
-286,818	-141,344	-0,089	-0,006
-285,803	-34,330	0,148	0,058
-284,789	-122,445	-0,104	0,012
-283,774	-200,000	0,016	0,085
-282,759	336,202	0,055	-0,076
-281,745	95,476	-0,095	-0,078
-280,730	-115,282	0,092	-0,012
-279,716	-44,444	-0,111	-0,039
-278,701	28,609	-0,080	-0,048
-277,686	-64,973	0,254	-0,073
-276,672	61,235	0,113	0,080
-275,657	800,000	0,042	0,105
-274,643	-40,135	-0,050	0,019
-273,628	8,250	0,058	-0,031
-272,613	-136,986	0,107	-0,009
-271,599	-200,000	0,027	-0,134
-270,584	-200,000	-0,021	0,087
-269,570	501,017	0,065	0,107
-268,555	-200,000	0,061	-0,209
-267,540	22,160	-0,120	-0,070
-266,526	-133,954	-0,254	-0,022
-265,511	800,000	0,044	-0,100
-264,497	317,533	-0,002	-0,003
-263,482	800,000	0,034	-0,081
-262,467	800,000	0,052	-0,123
-261,453	-157,092	0,097	0,004
-260,438	59,631	-0,044	0,031
-259,424	145,960	-0,104	-0,099
-258,409	-200,000	0,044	-0,168
-257,395	204,419	-0,085	0,094
-256,380	341,004	-0,052	0,072
-255,365	536,397	0,052	0,089
-254,351	-157,857	-0,016	-0,001
-253,336	-200,000	-0,024	-0,115
-252,322	66,617	-0,110	-0,079
-251,307	800,000	-0,021	0,047
-250,292	800,000	0,026	-0,076
-249,278	321,774	0,049	0,067
-248,263	800,000	0,038	0,100
-247,249	-147,119	-0,063	-0,004
-246,234	-3,404	-0,016	0,008
-245,219	652,047	-0,104	-0,190
-244,205	-108,759	-0,034	0,005
-243,190	-200,000	0,013	0,048
-242,176	282,778	-0,021	-0,027
-241,161	-86,344	0,075	-0,016
-240,146	231,658	-0,020	-0,023
-239,132	-132,339	0,049	0,004
-238,117	-200,000	0,000	-0,010
-237,103	107,098	-0,037	-0,031
-236,088	215,566	-0,052	0,059
-235,073	800,000	0,048	0,109
-234,059	800,000	0,030	0,067
-233,044	202,923	-0,039	-0,043
-232,030	-200,000	-0,012	-0,087
-231,015	121,882	0,059	0,052
-230,000	2,480	0,056	-0,029
-228,986	219,024	0,067	-0,077
-227,971	345,266	-0,038	-0,053
-226,957	43,075	0,056	0,037
-225,942	252,317	0,055	0,067
-224,927	-200,000	0,009	0,084
-223,913	-200,000	-0,028	0,187
-222,898	-200,000	0,030	0,095
-221,884	207,976	0,067	0,075
-220,869	800,000	0,054	0,135
-219,855	-144,230	0,099	0,006
-218,840	-200,000	0,015	-0,178
-217,825	-83,343	-0,077	-0,017
-216,811	800,000	-0,009	0,029
-215,796	-200,000	-0,002	-0,141
-214,782	170,721	-0,028	-0,029
-213,767	-165,181	0,172	-0,005
-212,752	-193,835	0,071	-0,000
-211,738	800,000	0,036	-0,088
-210,723	0,784	0,078	-0,040
-209,709	587,645	0,036	0,062
-208,694	-200,000	-0,040	-0,155
-207,679	212,776	-0,070	0,079
-206,665	316,504	0,041	0,055
-205,650	-24,677	-0,075	-0,032
-204,636	446,448	-0,015	-0,023
-203,621	6,974	-0,064	-0,034
-202,606	527,903	0,055	-0,092
-201,592	44,812	-0,087	-0,057
-200,577	800,000	-0,023	0,069
-199,563	284,526	0,063	0,081
-198,548	211,714	-0,103	0,115
-197,533	-200,000	-0,013	0,051
-196,519	800,000	-0,028	0,087
-195,504	800,000	-0,069	0,172
-194,490	-66,177	0,043	-0,012
-193,475	436,924	-0,056	0,087
-192,460	-40,366	0,093	0,034
-191,446	591,310	-0,009	0,017
-190,431	-141,299	0,192	0,014
-189,417	-47,057	0,028	-0,010
-188,402	298,444	-0,088	0,115
-187,387	-69,306	-0,104	-0,028
-186,373	-24,461	0,046	0,020
-185,358	-200,000	0,008	-0,097
-184,344	-65,063	-0,083	-0,024
-183,329	63,856	-0,032	0,022
-182,315	621,038	-0,045	0,081
-181,300	-65,880	-0,149	0,042
-180,285	-123,306	-0,105	0,012
-179,271	51,645	-0,110	-0,074
-178,256	14,960	0,012	0,007
-177,242	-18,112	0,037	0,016
-176,227	-84,300	-0,116	0,026
-175,212	409,352	-0,050	0,075
-174,198	800,000	-0,078	-0,171
-173,183	-200,000	0,005	-0,077
-172,169	-23,170	-0,120	-0,051
-171,154	778,114	0,023	0,045
-170,139	138,396	0,060	0,056
-169,125	281,996	0,032	0,041
-168,110	-200,000	-0,008	0,248
-167,096	17,886	0,066	0,037
-166,081	-33,045	-0,097	0,038
-165,066	-56,363	-0,077	-0,024
-164,052	17,036	0,066	-0,037
-163,037	49,533	0,087	0,058
-162,023	102,685	-0,015	-0,012
-161,008	-200,000	0,030	0,102
-159,993	298,132	-0,055	-0,072
-158,979	214,063	-0,075	-0,084
-157,964	-200,000	0,008	0,147
-156,950	-200,000	0,013	-0,069
-155,935	-39,051	-0,042	0,015
-154,920	240,322	0,033	-0,040
-153,906	187,977	-0,049	0,052
-152,891	-92,324	-0,106	0,021
-151,877	190,676	0,060	0,064
-150,862	-132,865	-0,109	-0,010
-149,847	-200,000	0,011	0,040
-148,833	12,504	-0,061	0,033
-147,818	-18,563	0,102	0,045
-146,804	615,480	-0,052	-0,092
-145,789	800,000	0,040	-0,125
-144,775	765,623	-0,030	-0,058
-143,760	-158,724	-0,051	-0,002
-142,745	542,346	0,042	-0,071
-141,731	765,377	0,053	-0,102
-140,716	-13,070	0,130	0,060
-139,702	112,609	0,031	-0,027
-138,687	-61,015	0,129	0,038
-137,672	-75,828	-0,128	-0,032
-136,658	800,000	-0,048	0,096
-135,643	55,590	0,070	-0,048
-134,629	-162,000	-0,040	0,001
-133,614	218,870	0,017	0,019
-132,599	-200,000	-0,033	0,145
-131,585	-80,078	-0,047	0,011
-130,570	-200,000	0,000	0,088
-129,556	-200,000	-0,048	-0,165
-128,541	23,792	-0,100	-0,058
-127,526	-15,778	-0,089	-0,040
-126,512	-200,000	-0,037	-0,204
-125,497	471,249	0,048	-0,077
-124,483	338,206	-0,034	0,047
-123,468	-35,913	-0,129	0,049
-122,453	74,008	0,109	0,081
-121,439	-74,459	-0,031	0,008
-120,424	66,816	0,046	0,033
-119,410	268,929	-0,110	0,136
-118,395	-200,000	-0,002	0,096
-117,380	358,134	0,020	0,028
-116,366	118,310	0,061	-0,053
-115,351	-200,000	-0,015	-0,059
-114,337	-21,219	-0,136	-0,059
-113,322	12,694	0,011	0,006
-112,307	132,325	-0,137	0,125
-111,293	-200,000	-0,013	-0,057
-110,278	-192,695	0,069	0,000
-109,264	-9,729	0,060	-0,028
-108,249	-103,856	-0,126	-0,021
-107,234	70,267	0,067	0,049
-106,220	-100,409	-0,184	-0,032
-105,205	280,013	0,027	0,035
-104,191	220,495	0,089	0,101
-103,176	-200,000	0,016	-0,057
-102,162	78,238	0,110	0,083
-101,147	800,000	-0,042	-0,104
-100,132	695,913	0,057	-0,107
-99,118	10,309	0,031	-0,017
-98,103	-112,560	-0,040	0,006
-97,089	51,725	0,102	-0,069
-96,074	187,201	0,079	0,083
-95,059	287,456	-0,091	0,117
-94,045	800,000	0,011	0,025
-93,030	614,637	-0,041	-0,072
-92,016	52,672	0,083	-0,056
-91,001	171,155	0,039	-0,040
-89,986	157,184	-0,087	0,085
-88,972	-200,000	-0,023	0,078
-87,957	800,000	0,038	0,103
-86,943	-200,000	0,050	0,208
-85,928	-20,988	-0,097	-0,042
-84,913	-200,000	-0,013	-0,057
-83,899	800,000	-0,020	0,045
-82,884	-36,172	0,086	0,033
-81,870	-200,000	-0,007	0,031
-80,855	353,902	0,112	0,158
-79,840	800,000	0,014	0,028
-78,826	186,273	0,050	-0,053
-77,811	-42,778	0,031	0,011
-76,797	-98,769	-0,076	-0,014
-75,782	386,219	0,103	0,151
-74,767	92,752	0,170	0,136
-73,753	-28,153	-0,127	-0,052
-72,738	207,701	-0,070	-0,077
-71,724	-104,657	-0,167	-0,027
-70,709	89,555	-0,129	-0,101
-69,694	-200,000	-0,014	-0,074
-68,680	-200,000	-0,028	-0,133
-67,665	-6,681	0,055	-0,026
-66,651	5,219	0,105	-0,055
-65,636	-200,000	-0,001	-0,036
-64,622	-77,775	0,147	0,036
-63,607	-158,690	0,024	-0,001
-62,592	-155,652	-0,015	0,001
-61,578	-77,950	-0,066	-0,016
-60,563	9,620	0,099	0,053
-59,549	-200,000	0,005	0,093
-58,534	44,734	-1,845	-1,197
-57,519	469,913	-1,254	-1,997
-56,505	-200,000	-0,380	-4,445
-55,490	594,895	0,779	1,368
-54,476	800,000	5,129	11,443
-53,461	-200,000	20,474	326,585
-52,446	800,000	752,194	2309,893
-51,432	549,629	1657,814	2817,879
-50,417	73,948	1663,751	1231,273
-49,403	19,294	1536,875	869,277
-48,388	13,274	1459,446	796,358
-47,373	18,711	1450,050	817,309
-46,359	16,137	1439,601	799,136
-45,344	11,558	1435,036	774,763
-44,330	11,497	1433,305	773,511
-43,315	11,536	1431,332	772,599
-42,300	11,517	1429,635	771,561
-41,286	11,511	1428,414	770,843
-40,271	11,447	1426,986	769,739
-39,257	11,446	1426,019	769,182
-38,242	11,491	1424,627	768,617
-37,227	11,510	1423,546	768,092
-36,213	11,506	1422,375	767,408
-35,198	11,528	1421,068	766,776
-34,184	11,568	1420,328	766,538
-33,169	11,493	1418,898	765,379
-32,154	11,550	1417,758	765,004
-31,140	11,553	1416,582	764,353
-30,125	11,594	1415,608	763,990
-29,111	11,529	1414,261	762,925
-28,096	11,518	1413,319	762,338
-27,082	11,469	1411,954	761,340
-26,067	11,504	1411,041	760,985
-25,052	11,509	1409,891	760,358
-24,038	11,474	1408,906	759,629
-23,023	11,468	1408,032	759,103
-22,009	11,441	1406,968	758,373
-20,994	11,407	1406,150	757,740
-19,979	11,442	1405,209	757,366
-18,965	11,424	1404,087	756,648
-17,950	11,443	1403,164	756,211
-16,936	11,413	1402,495	755,681
-15,921	11,364	1401,396	754,831
-14,906	11,373	1400,387	754,297
-13,892	11,391	1399,526	753,890
-12,877	11,419	1398,741	753,565
-11,863	11,390	1397,897	752,946
-10,848	11,372	1397,022	752,360
-9,833	11,347	1396,055	751,695
-8,819	11,274	1395,181	750,856
-7,804	11,222	1394,450	750,192
-6,790	11,273	1393,338	749,799
-5,775	11,304	1392,158	749,277
-4,760	11,286	1391,327	748,717
-3,746	11,246	1390,618	748,122
-2,731	11,276	1389,547	747,654
-1,717	11,243	1388,700	747,018
-0,702	11,230	1386,937	745,981
0,313	15,340	1301,881	719,051
1,327	31,826	694,679	421,264
2,342	49,314	120,819	80,061
3,356	-0,974	16,603	8,265
4,371	1,199	3,260	1,646
5,386	-21,181	0,677	0,291
6,400	-200,000	0,076	0,527
7,415	477,703	-0,191	-0,305
8,429	-34,615	-0,241	-0,093
9,444	215,872	-0,395	-0,444
10,459	-40,706	-0,269	-0,098
11,473	-61,468	-0,342	-0,101
12,488	-9,441	-0,336	-0,158
13,502	129,079	-0,386	-0,347
14,517	105,166	-0,340	-0,283
15,531	79,112	-0,269	-0,203
16,546	41,689	-0,422	-0,269
17,561	9,227	-0,476	-0,253
18,575	62,647	-0,056	-0,039
19,590	144,028	-0,209	-0,197
20,604	-97,651	-0,248	-0,045
21,619	43,714	-0,440	-0,283
22,634	104,209	-0,366	-0,304
23,648	231,851	-0,373	-0,432
24,663	157,318	-0,294	-0,287
25,677	371,912	-0,229	-0,328
26,692	-33,131	-0,410	-0,159
27,707	-123,757	-0,313	-0,034
28,721	29,150	-0,306	-0,183
29,736	148,111	-0,397	-0,377
30,750	144,518	-0,297	-0,280
31,765	148,313	-0,236	-0,224
32,780	55,753	-0,306	-0,209
33,794	11,599	-0,402	-0,217
34,809	76,542	-0,362	-0,269
35,823	287,719	-0,301	-0,385
36,838	42,692	-0,386	-0,247
37,853	143,475	-0,242	-0,227
38,867	86,742	-0,333	-0,259
39,882	121,938	-0,342	-0,300
40,896	14,475	-0,403	-0,220
41,911	123,281	-0,286	-0,252
42,926	65,431	-0,333	-0,237
43,940	114,283	-0,362	-0,309
44,955	37,779	-0,411	-0,256
45,969	198,690	-0,324	-0,349
46,984	179,839	-0,304	-0,314
47,999	262,111	-0,263	-0,321
49,013	193,790	-0,358	-0,381
50,028	91,447	-0,344	-0,272
51,042	19,024	-0,319	-0,179
52,057	81,636	-0,417	-0,317
53,071	61,889	-0,476	-0,333
54,086	49,017	-0,408	-0,268
55,101	77,269	-0,371	-0,277
56,115	99,057	-0,286	-0,232
57,130	242,337	-0,286	-0,337
58,144	-34,605	-0,410	-0,157
59,159	38,897	-0,336	-0,211
60,174	185,411	-0,347	-0,362
61,188	165,667	-0,321	-0,319
62,203	9,051	-0,382	-0,202
63,217	282,946	-0,209	-0,264
64,232	24,778	-0,456	-0,265
65,247	75,476	-0,306	-0,227
66,261	117,954	-0,339	-0,293
67,276	282,723	-0,221	-0,278
68,290	23,377	-0,403	-0,232
69,305	-55,316	-0,206	-0,065
70,320	137,783	-0,285	-0,262
71,334	8,227	-0,226	-0,119
72,349	11,574	-0,342	-0,183
73,363	54,176	-0,227	-0,153
74,378	39,270	-0,242	-0,152
75,393	800,000	-0,147	-0,366
76,407	27,574	-0,384	-0,226
77,422	129,166	-0,218	-0,195
78,436	3,507	-0,348	-0,177
79,451	67,033	-0,289	-0,206
80,466	193,563	-0,139	-0,147
81,480	207,688	-0,139	-0,152
82,495	-42,426	-0,412	-0,147
83,509	800,000	-0,123	-0,304
84,524	-13,811	-0,353	-0,159
85,539	1,712	-0,305	-0,154
86,553	-11,989	-0,218	-0,100
87,568	325,961	-0,125	-0,168
88,582	-0,304	-0,327	-0,162
89,597	-18,152	-0,133	-0,058
90,611	314,729	-0,171	-0,226
91,626	29,157	-0,237	-0,140
92,641	128,014	-0,215	-0,191
93,655	137,264	-0,283	-0,260
94,670	-19,903	-0,305	-0,131
95,684	94,991	-0,286	-0,228
96,699	11,907	-0,299	-0,160
97,714	114,217	-0,193	-0,164
98,728	152,031	-0,189	-0,181
99,743	48,914	-0,173	-0,114
100,757	-147,877	-0,248	-0,014
101,772	265,293	-0,249	-0,305
102,787	56,460	-0,252	-0,171
103,801	132,573	-0,271	-0,245
104,816	53,643	-0,319	-0,214
105,830	4,589	-0,312	-0,159
106,845	-62,033	-0,426	-0,124
107,860	-2,405	-0,324	-0,158
108,874	166,098	-0,207	-0,205
109,889	83,821	-0,254	-0,194
110,903	287,630	-0,246	-0,312
111,918	137,044	-0,297	-0,272
112,933	-129,223	-0,280	-0,027
113,947	800,000	-0,095	-0,223
114,962	98,022	-0,256	-0,206
115,976	-12,192	-0,251	-0,114
116,991	64,240	-0,349	-0,245
118,006	42,771	-0,230	-0,146
119,020	-31,673	-0,287	-0,112
120,035	47,380	-0,159	-0,103
121,049	732,719	-0,108	-0,202
122,064	134,036	-0,224	-0,203
123,079	-2,057	-0,254	-0,124
124,093	372,984	-0,220	-0,314
125,108	36,938	-0,277	-0,171
126,122	168,038	-0,235	-0,234
127,137	-29,933	-0,301	-0,119
128,151	-69,287	-0,142	0,038
129,166	-1,227	-0,315	-0,155
130,181	172,724	-0,173	-0,173
131,195	-153,789	-0,252	-0,012
132,210	87,458	-0,251	-0,194
133,224	97,484	-0,163	-0,131
134,239	-21,687	-0,478	-0,202
135,254	-4,018	-0,250	-0,120
136,268	10,651	-0,260	-0,138
137,283	49,381	-0,263	-0,172
138,297	175,298	-0,214	-0,217
139,312	85,974	-0,265	-0,203
140,327	252,332	-0,224	-0,266
141,341	796,567	-0,079	-0,152
142,356	182,706	-0,291	-0,300
143,370	83,191	-0,208	-0,158
144,385	800,000	-0,129	-0,342
145,400	-92,468	-0,279	-0,054
146,414	257,561	-0,327	-0,393
147,429	-48,022	-0,247	-0,083
148,443	57,659	-0,275	-0,187
149,458	75,418	-0,265	-0,194
150,473	18,663	-0,196	-0,109
151,487	41,527	-0,317	-0,200
152,502	193,012	-0,241	-0,254
153,516	322,813	-0,227	-0,302
154,531	800,000	-0,094	-0,206
155,546	83,439	-0,190	-0,144
156,560	92,655	-0,260	-0,204
157,575	174,715	-0,135	-0,136
158,589	-146,323	-0,318	-0,019
159,604	9,527	-0,173	-0,091
160,619	185,704	-0,182	-0,189
161,633	23,565	-0,278	-0,159
162,648	-28,842	-0,292	-0,116
163,662	119,149	-0,189	-0,163
164,677	100,223	-0,142	-0,115
165,692	251,573	-0,149	-0,177
166,706	144,288	-0,128	-0,119
167,721	233,695	-0,203	-0,232
168,735	134,795	-0,231	-0,209
169,750	87,704	-0,201	-0,155
170,764	332,598	-0,198	-0,267
171,779	277,092	-0,176	-0,218
172,794	133,315	-0,202	-0,181
173,808	241,457	-0,209	-0,243
174,823	85,586	-0,154	-0,118
175,837	177,685	-0,225	-0,228
176,852	166,929	-0,223	-0,220
177,867	70,663	-0,130	-0,093
178,881	64,512	-0,203	-0,142
179,896	31,232	-0,180	-0,107
180,910	171,831	-0,145	-0,144
181,925	86,214	-0,217	-0,166
182,940	-26,325	-0,347	-0,141
183,954	5,715	-0,237	-0,121
184,969	-3,824	-0,114	-0,055
185,983	224,300	-0,197	-0,221
186,998	-66,146	-0,152	-0,042
188,013	144,949	-0,231	-0,214
189,027	593,474	-0,118	-0,204
190,042	100,822	-0,187	-0,151
191,056	283,327	-0,260	-0,325
192,071	395,769	-0,097	-0,141
193,086	800,000	-0,148	-0,288
194,100	-35,708	-0,258	-0,097
195,115	139,819	-0,162	-0,148
196,129	513,136	-0,163	-0,264
197,144	220,900	-0,242	-0,269
198,159	253,794	-0,243	-0,289
199,173	240,346	-0,115	-0,134
200,188	-200,000	-0,084	-0,363
201,202	-5,513	-0,176	-0,084
202,217	8,312	-0,166	-0,086
203,232	201,034	-0,257	-0,275
204,246	137,278	-0,163	-0,148
205,261	110,908	-0,262	-0,218
206,275	20,039	-0,207	-0,115
207,290	-200,000	-0,013	-0,129
208,304	-78,351	-0,209	-0,049
209,319	235,290	-0,188	-0,215
210,334	-9,946	-0,210	-0,096
211,348	64,748	-0,284	-0,198
212,363	406,379	-0,121	-0,178
213,377	135,469	-0,167	-0,151
214,392	-51,578	-0,209	-0,067
215,407	137,693	-0,127	-0,116
216,421	-74,353	-0,324	-0,080
217,436	147,969	-0,177	-0,166
218,450	800,000	-0,101	-0,216
219,465	314,859	-0,189	-0,248
220,480	211,977	-0,272	-0,297
221,494	116,995	-0,149	-0,127
222,509	800,000	-0,096	-0,208
223,523	49,868	-0,100	-0,065
224,538	213,100	-0,201	-0,220
225,553	-29,710	-0,175	-0,069
226,567	-75,399	-0,167	-0,041
227,582	-20,469	-0,168	-0,071
228,596	228,273	-0,064	-0,072
229,611	231,216	-0,073	-0,083
230,626	800,000	-0,067	-0,139
231,640	90,383	-0,197	-0,152
232,655	97,514	-0,212	-0,168
233,669	37,831	-0,270	-0,166
234,684	247,634	-0,105	-0,122
235,699	-14,653	-0,172	-0,076
236,713	-104,522	-0,161	0,025
237,728	126,994	-0,243	-0,213
238,742	-23,902	-0,251	-0,103
239,757	138,021	-0,198	-0,179
240,772	54,085	-0,236	-0,157
241,786	-15,959	-0,250	-0,109
242,801	115,491	-0,160	-0,135
243,815	-109,294	-0,148	0,022
244,830	-113,115	-0,239	-0,032
245,844	200,036	-0,119	-0,127
246,859	103,869	-0,236	-0,192
247,874	371,213	-0,141	-0,198
248,888	-95,167	-0,136	-0,025
249,903	-200,000	-0,066	-0,229
250,917	576,960	-0,139	-0,235
251,932	-1,746	-0,212	-0,103
252,947	13,684	-0,129	-0,069
253,961	243,081	-0,158	-0,183
254,976	181,188	-0,154	-0,156
255,990	800,000	-0,108	-0,228
257,005	37,976	-0,124	-0,076
258,020	-44,327	-0,208	0,072
259,034	3,087	-0,093	-0,047
260,049	-200,000	-0,002	-0,114
261,063	-69,994	-0,168	-0,044
262,078	800,000	-0,083	-0,202
263,093	800,000	-0,090	-0,203
264,107	46,743	-0,124	-0,079
265,122	32,852	-0,220	-0,131
266,136	-200,000	-0,015	-0,094
267,151	-3,690	-0,178	-0,085
268,166	47,195	-0,313	-0,201
269,180	493,191	-0,136	-0,216
270,195	300,339	-0,171	-0,218
271,209	-25,163	-0,230	-0,094
272,224	45,494	-0,247	-0,157
273,239	104,670	-0,135	-0,109
274,253	39,004	-0,235	-0,144
275,268	24,880	-0,171	-0,097
276,282	202,793	-0,244	-0,260
277,297	192,238	-0,181	-0,188
278,312	168,664	-0,209	-0,205
279,326	381,173	-0,161	-0,228
280,341	800,000	-0,075	-0,149
281,355	118,757	-0,137	-0,117
282,370	294,002	-0,128	-0,161
283,384	192,188	-0,240	-0,250
284,399	800,000	-0,081	-0,159
285,414	-58,100	-0,380	0,113
286,428	175,586	-0,116	-0,115
287,443	288,915	-0,146	-0,182
288,457	-158,952	-0,152	0,006
289,472	-9,676	-0,094	-0,043
290,487	-98,937	-0,228	-0,039
291,501	24,927	-0,138	-0,079
292,516	201,488	-0,163	-0,173
293,530	147,252	-0,157	-0,146
294,545	-200,000	0,025	-0,093
295,560	211,473	-0,095	-0,103
296,574	-52,606	-0,227	-0,072
297,589	-94,114	-0,195	-0,036
298,603	-57,748	-0,368	-0,110
299,618	71,137	-0,197	-0,140
300,633	-133,290	-0,154	-0,013
301,647	299,319	-0,028	0,036
302,662	572,817	-0,118	-0,199
303,676	800,000	-0,067	-0,196
304,691	185,757	-0,241	-0,246
305,706	-113,479	-0,139	-0,018
306,720	320,251	-0,126	-0,165
307,735	459,314	-0,053	-0,081
308,749	800,000	-0,087	-0,219
309,764	297,901	-0,101	-0,128
310,779	248,642	-0,138	-0,160
311,793	594,538	-0,134	-0,229
312,808	23,510	-0,240	-0,135
313,822	800,000	-0,087	-0,208
314,837	757,346	-0,045	-0,085
315,852	-21,984	-0,103	-0,043
316,866	337,653	-0,068	-0,092
317,881	-19,860	-0,105	-0,044
318,895	100,570	-0,014	-0,011
319,910	-22,983	-0,221	-0,091
320,925	800,000	-0,084	-0,181
321,939	724,204	-0,140	-0,256
322,954	-114,257	-0,230	-0,030
323,968	16,190	-0,176	0,095
324,983	-40,194	-0,195	-0,069
325,997	-92,155	-0,159	0,030
327,012	-24,464	-0,186	0,076
328,027	-141,882	-0,086	0,006
329,041	55,097	-0,108	-0,071
330,056	192,559	-0,112	-0,116
331,070	19,335	-0,048	-0,026
332,085	54,298	-0,193	-0,127
333,100	800,000	-0,037	0,077
334,114	-35,458	-0,176	0,065
335,129	-177,108	-0,212	-0,004
336,143	-200,000	-0,038	-0,236
337,158	63,047	-0,188	-0,129
338,173	108,383	-0,086	-0,071
339,187	800,000	-0,046	-0,120
340,202	800,000	-0,076	-0,167
341,216	-14,587	-0,183	-0,080
342,231	11,961	-0,179	-0,094
343,246	46,903	-0,195	-0,124
344,260	800,000	-0,085	-0,180
345,275	-34,431	-0,136	-0,051
346,289	151,890	-0,043	-0,041
347,304	154,994	-0,209	-0,197
348,319	-119,839	-0,134	0,016
349,333	161,924	-0,143	-0,137
350,348	55,821	-0,143	-0,095
351,362	257,540	-0,118	-0,139
352,377	-200,000	-0,021	-0,184
353,392	-89,199	-0,136	0,027
354,406	800,000	-0,049	-0,104
355,421	208,064	1307,464	1399,646
356,435	160,088	1467,276	1400,142
