DTS Sentinel unit serial number:	SN410029Multiplexer serial number:	ORYXHardware model number:	OX2-SRSoftware version number:	ORYX F/W v4,00 Oryx Data Collector v3.7.2.0data status	okinstallation	B3 Nyhavnadifferential loss correction	single-endedforward channel	channel 1reverse channel	N/Adate	2023/12/03time	02:37:30forward acquisition time	300,00reverse acquisition time	0,00gamma	499,1914k internal	0,3201k external	0,3201temperature offset calibration	1,0000default loss term (dB/km)	0,3820temperature slope calibration	1,0000multiplexer offset coefficient	1,0000multiplexer slope coefficient	1,0000fibre end	0,00T internal ref (°C)	13,31T ext. ref 1 (°C)	-1,73T ext. ref 2 (°C)	-1,75length (m)	temperature (°C)	Stokes	anti-Stokes-744,400	800,000	-0,113	-0,304
-743,385	-200,000	0,051	0,336
-742,371	195,952	-0,184	-0,204
-741,356	-200,000	-0,005	0,395
-740,342	-24,808	-0,238	-0,103
-739,327	-200,000	-0,025	0,323
-738,312	800,000	-0,093	-0,234
-737,298	-200,000	-0,108	0,455
-736,283	123,934	-0,216	-0,197
-735,269	-200,000	0,068	0,350
-734,254	176,047	-0,240	-0,254
-733,239	-92,621	-0,250	0,050
-732,225	454,641	-0,134	-0,217
-731,210	369,486	0,039	0,058
-730,196	-140,129	0,042	-0,003
-729,181	800,000	0,024	0,052
-728,167	-200,000	-0,026	-0,152
-727,152	-34,751	0,020	-0,008
-726,137	91,348	-0,096	-0,079
-725,123	-200,000	0,013	0,048
-724,108	235,512	-0,051	-0,061
-723,094	-200,000	0,009	-0,087
-722,079	103,287	-0,120	-0,103
-721,064	383,263	0,054	-0,080
-720,050	800,000	-0,019	-0,059
-719,035	333,334	0,014	0,020
-718,021	-82,459	-0,235	0,055
-717,006	800,000	-0,033	0,089
-715,991	-33,634	-0,068	-0,027
-714,977	-55,954	-0,049	-0,016
-713,962	191,613	0,056	-0,061
-712,948	-200,000	0,011	0,237
-711,933	800,000	-0,060	0,155
-710,918	536,626	-0,080	0,139
-709,904	-200,000	-0,033	0,117
-708,889	479,444	0,056	-0,093
-707,875	32,770	-0,199	-0,125
-706,860	309,483	0,021	-0,028
-705,845	243,690	0,037	0,045
-704,831	800,000	0,061	0,177
-703,816	287,387	0,070	0,092
-702,802	-126,432	-0,073	0,008
-701,787	-85,155	0,056	-0,013
-700,772	-200,000	-0,012	-0,190
-699,758	231,132	0,020	-0,024
-698,743	78,459	0,058	-0,045
-697,729	71,543	0,042	0,032
-696,714	-128,902	-0,103	0,010
-695,699	612,551	0,054	-0,099
-694,685	423,022	-0,049	-0,076
-693,670	-200,000	-0,052	-0,237
-692,656	800,000	-0,011	0,033
-691,641	31,838	0,094	0,059
-690,627	-135,544	-0,129	0,011
-689,612	800,000	-0,024	0,062
-688,597	165,400	-0,023	0,024
-687,583	15,816	0,040	0,023
-686,568	800,000	-0,049	-0,100
-685,554	800,000	-0,054	-0,133
-684,539	-2,558	0,053	-0,027
-683,524	-200,000	0,034	0,114
-682,510	225,652	0,047	0,055
-681,495	-200,000	-0,023	0,102
-680,481	-156,579	0,078	-0,003
-679,466	-200,000	-0,011	-0,134
-678,451	757,548	-0,031	0,061
-677,437	-53,439	0,025	0,008
-676,422	259,132	-0,060	-0,076
-675,408	13,560	0,052	-0,029
-674,393	235,012	0,041	0,050
-673,378	800,000	-0,041	-0,093
-672,364	494,513	0,087	-0,145
-671,349	-152,923	-0,120	0,006
-670,335	80,852	0,045	0,035
-669,320	233,252	0,013	-0,016
-668,305	-200,000	0,011	-0,071
-667,291	800,000	-0,045	0,099
-666,276	-63,980	-0,115	-0,034
-665,262	-200,000	-0,004	-0,129
-664,247	239,813	-0,111	-0,134
-663,232	27,256	0,065	-0,040
-662,218	141,964	-0,091	0,088
-661,203	55,150	0,076	0,053
-660,189	-200,000	0,007	0,079
-659,174	-76,445	-0,128	-0,032
-658,159	54,284	-0,106	-0,074
-657,145	117,415	-0,065	-0,058
-656,130	-98,345	-0,162	0,030
-655,116	187,140	-0,039	0,042
-654,101	-177,694	0,139	-0,002
-653,086	30,474	-0,105	0,065
-652,072	138,362	0,010	-0,010
-651,057	8,359	0,112	0,061
-650,043	199,142	-0,016	0,018
-649,028	800,000	0,078	0,191
-648,014	330,652	-0,066	0,093
-646,999	-200,000	-0,004	0,040
-645,984	146,074	-0,135	-0,131
-644,970	171,752	-0,150	-0,156
-643,955	-42,167	0,100	-0,037
-642,941	-4,929	0,053	-0,027
-641,926	56,735	0,108	0,076
-640,911	800,000	-0,037	0,074
-639,897	800,000	-0,028	-0,067
-638,882	153,199	-0,083	0,083
-637,868	-200,000	0,005	-0,047
-636,853	126,200	0,051	-0,047
-635,838	-200,000	0,005	-0,104
-634,824	-24,260	-0,093	0,040
-633,809	-58,702	0,175	0,055
-632,795	411,506	-0,072	-0,111
-631,780	800,000	0,004	-0,010
-630,765	56,896	0,017	0,012
-629,751	-156,831	-0,091	0,004
-628,736	764,950	-0,047	-0,094
-627,722	-130,788	-0,038	0,004
-626,707	31,295	0,029	-0,018
-625,692	352,341	-0,085	0,122
-624,678	152,662	0,105	0,104
-623,663	-200,000	-0,005	-0,048
-622,649	600,216	-0,090	-0,162
-621,634	-107,458	0,069	0,011
-620,619	135,636	0,050	-0,047
-619,605	13,154	0,061	0,034
-618,590	-200,000	-0,024	0,083
-617,576	-143,198	0,071	0,005
-616,561	800,000	-0,048	-0,112
-615,546	431,203	-0,128	-0,202
-614,532	800,000	-0,028	-0,085
-613,517	361,247	-0,045	0,066
-612,503	-200,000	-0,004	0,050
-611,488	-50,493	0,125	0,042
-610,474	-53,076	-0,118	-0,039
-609,459	167,017	0,059	-0,061
-608,444	420,037	-0,055	-0,085
-607,430	462,408	0,058	-0,094
-606,415	685,142	-0,059	-0,112
-605,401	-200,000	0,002	0,107
-604,386	-200,000	0,007	0,049
-603,371	-28,059	-0,045	-0,019
-602,357	51,153	-0,050	-0,035
-601,342	-130,144	-0,122	-0,012
-600,328	244,689	-0,051	0,062
-599,313	-50,503	0,051	-0,017
-598,298	-12,044	-0,088	0,041
-597,284	79,619	-0,113	0,087
-596,269	-97,709	0,120	-0,022
-595,255	-200,000	-0,028	0,150
-594,240	-200,000	-0,014	0,048
-593,225	526,625	-0,051	-0,087
-592,211	297,378	-0,017	0,023
-591,196	-110,889	0,195	-0,029
-590,182	-59,167	-0,147	0,046
-589,167	-200,000	-0,008	0,048
-588,152	-176,194	0,087	0,002
-587,138	790,084	0,038	-0,076
-586,123	800,000	-0,061	0,137
-585,109	800,000	-0,071	-0,198
-584,094	40,999	0,031	0,020
-583,079	-200,000	-0,008	-0,107
-582,065	-74,161	0,097	-0,025
-581,050	210,242	-0,037	-0,042
-580,036	145,181	0,073	0,071
-579,021	-9,259	0,103	-0,049
-578,006	-121,046	-0,197	-0,024
-576,992	800,000	0,036	-0,082
-575,977	305,773	-0,009	-0,013
-574,963	10,494	0,123	0,067
-573,948	800,000	0,022	0,050
-572,934	-200,000	-0,018	-0,159
-571,919	309,042	-0,037	-0,050
-570,904	290,116	0,011	-0,015
-569,890	33,058	-0,077	-0,048
-568,875	-54,366	0,060	0,020
-567,861	-200,000	0,020	-0,174
-566,846	71,518	0,055	0,041
-565,831	-135,282	-0,130	-0,011
-564,817	-69,097	-0,061	-0,017
-563,802	800,000	-0,020	-0,047
-562,788	800,000	-0,037	-0,090
-561,773	-95,658	0,072	-0,014
-560,758	-138,824	0,150	-0,012
-559,744	-200,000	-0,008	0,144
-558,729	62,273	-0,082	0,059
-557,715	-33,100	-0,057	0,023
-556,700	133,537	-0,061	-0,057
-555,685	800,000	0,048	-0,135
-554,671	-200,000	-0,007	-0,075
-553,656	800,000	-0,048	-0,120
-552,642	151,609	0,121	0,119
-551,627	-22,377	-0,176	-0,076
-550,612	-200,000	0,011	-0,052
-549,598	-36,252	0,028	-0,011
-548,583	800,000	-0,004	-0,010
-547,569	141,279	-0,030	0,029
-546,554	243,513	0,124	0,150
-545,539	-200,000	0,000	0,052
-544,525	-165,606	-0,113	-0,003
-543,510	-200,000	0,009	0,054
-542,496	800,000	0,039	-0,104
-541,481	-200,000	-0,009	-0,087
-540,466	-112,590	0,096	0,014
-539,452	656,712	-0,054	0,100
-538,437	-146,898	-0,104	0,006
-537,423	140,425	-0,030	-0,029
-536,408	-200,000	-0,022	0,144
-535,393	-62,378	-0,190	0,057
-534,379	-101,074	-0,117	-0,021
-533,364	-200,000	0,000	0,010
-532,350	-62,056	-0,062	0,018
-531,335	-77,565	-0,082	-0,020
-530,321	37,240	-0,047	-0,030
-529,306	800,000	0,021	-0,044
-528,291	326,765	-0,038	0,052
-527,277	800,000	-0,017	-0,040
-526,262	-81,114	-0,003	0,001
-525,248	-33,033	-0,046	-0,018
-524,233	241,481	-0,100	0,120
-523,218	2,925	0,107	-0,056
-522,204	394,589	-0,066	-0,100
-521,189	107,223	0,054	0,047
-520,175	-200,000	-0,032	-0,156
-519,160	126,580	0,031	0,028
-518,145	-20,729	-0,058	-0,026
-517,131	-200,000	-0,022	0,082
-516,116	-112,549	0,045	0,006
-515,102	49,499	0,037	0,025
-514,087	-200,000	0,190	0,000
-513,072	-40,857	-0,034	-0,012
-512,058	-32,851	0,104	0,041
-511,043	96,375	0,104	-0,085
-510,029	-13,275	0,051	-0,024
-509,014	800,000	-0,047	0,117
-507,999	-200,000	0,043	0,198
-506,985	800,000	-0,053	0,114
-505,970	-200,000	-0,001	-0,083
-504,956	-40,700	0,087	-0,032
-503,941	321,107	0,016	-0,022
-502,926	113,285	0,090	0,079
-501,912	37,920	0,204	0,130
-500,897	-200,000	0,034	0,125
-499,883	15,392	0,115	0,065
-498,868	438,893	0,019	-0,030
-497,853	-200,000	-0,030	0,111
-496,839	31,032	0,065	-0,040
-495,824	126,068	0,025	0,023
-494,810	355,315	-0,013	0,018
-493,795	800,000	-0,031	0,088
-492,781	24,849	-0,030	0,018
-491,766	-0,189	0,041	0,021
-490,751	259,137	-0,066	-0,082
-489,737	800,000	0,032	-0,100
-488,722	-200,000	0,004	-0,038
-487,708	-200,000	-0,010	0,132
-486,693	800,000	0,045	-0,122
-485,678	-200,000	0,012	-0,044
-484,664	-200,000	-0,012	-0,101
-483,649	800,000	-0,047	-0,148
-482,635	-63,754	-0,071	0,021
-481,620	-28,665	0,130	0,053
-480,605	194,220	-0,049	0,053
-479,591	172,106	0,049	0,051
-478,576	-49,756	-0,049	0,017
-477,562	164,621	-0,038	-0,039
-476,547	-47,283	-0,065	0,023
-475,532	-200,000	-0,008	0,031
-474,518	-126,814	0,155	0,016
-473,503	183,798	-0,095	0,101
-472,489	-154,096	-0,061	0,003
-471,474	-95,741	-0,122	-0,023
-470,459	192,963	0,043	-0,047
-469,445	31,575	0,109	0,067
-468,430	-200,000	-0,009	0,112
-467,416	800,000	0,068	0,148
-466,401	26,043	0,098	-0,059
-465,386	110,964	0,087	0,075
-464,372	208,400	0,060	0,067
-463,357	536,137	-0,052	0,089
-462,343	-81,772	-0,131	-0,031
-461,328	-78,787	-0,068	0,017
-460,313	-200,000	0,006	0,076
-459,299	-200,000	0,009	0,090
-458,284	-81,286	0,073	-0,017
-457,270	327,040	-0,006	-0,008
-456,255	166,779	-0,066	-0,068
-455,241	58,279	-0,081	-0,057
-454,226	389,258	0,061	-0,091
-453,211	233,747	-0,030	-0,036
-452,197	-2,858	0,030	-0,015
-451,182	-200,000	0,009	0,173
-450,168	-86,346	-0,082	0,018
-449,153	-200,000	-0,009	0,045
-448,138	-7,448	0,088	-0,043
-447,124	117,053	-0,061	-0,054
-446,109	-200,000	0,014	-0,136
-445,095	-147,750	0,056	0,003
-444,080	85,845	0,090	0,071
-443,065	-35,949	0,100	-0,039
-442,051	-200,000	0,015	-0,176
-441,036	318,346	-0,016	0,022
-440,022	-139,655	-0,076	-0,006
-439,007	-114,881	0,035	0,005
-437,992	-37,007	0,021	0,008
-436,978	-22,174	0,109	0,047
-435,963	52,593	-0,090	-0,062
-434,949	-120,011	-0,035	-0,004
-433,934	562,565	-0,033	-0,057
-432,919	358,854	-0,120	-0,172
-431,905	429,115	0,028	0,044
-430,890	376,038	-0,085	-0,126
-429,876	106,142	-0,046	0,039
-428,861	55,073	-0,066	-0,046
-427,846	168,013	-0,046	-0,047
-426,832	800,000	-0,018	-0,046
-425,817	114,707	-0,090	-0,079
-424,803	-128,345	0,125	0,013
-423,788	-200,000	0,002	0,045
-422,773	213,814	0,103	0,117
-421,759	-19,773	0,060	0,026
-420,744	800,000	0,023	0,058
-419,730	140,607	-0,042	-0,040
-418,715	-176,741	-0,042	0,001
-417,701	-16,695	-0,108	0,049
-416,686	-49,267	0,114	-0,039
-415,671	-121,698	-0,089	0,010
-414,657	371,635	-0,039	-0,057
-413,642	131,392	-0,156	-0,144
-412,628	16,812	-0,133	0,075
-411,613	800,000	0,054	-0,108
-410,598	-200,000	-0,015	-0,078
-409,584	-200,000	0,004	-0,151
-408,569	47,420	-0,040	0,027
-407,555	-64,675	0,083	-0,024
-406,540	-2,879	-0,077	-0,038
-405,525	-32,367	0,143	-0,057
-404,511	42,186	-0,069	-0,045
-403,496	-200,000	0,006	-0,176
-402,482	-182,093	-0,065	0,001
-401,467	-132,509	0,148	-0,014
-400,452	800,000	-0,055	0,131
-399,438	431,251	0,081	0,126
-398,423	800,000	-0,004	-0,011
-397,409	-200,000	0,004	-0,103
-396,394	268,125	-0,099	-0,125
-395,379	-200,000	-0,011	0,036
-394,365	668,018	0,090	0,168
-393,350	712,016	0,049	0,094
-392,336	297,851	0,042	0,056
-391,321	-88,691	0,095	-0,020
-390,306	-134,441	0,015	-0,001
-389,292	-39,074	0,022	0,008
-388,277	725,077	-0,078	-0,151
-387,263	141,878	0,117	0,111
-386,248	-200,000	0,004	0,022
-385,233	-63,535	0,065	-0,019
-384,219	-200,000	-0,006	0,047
-383,204	-118,673	0,029	-0,004
-382,190	-200,000	-0,027	-0,100
-381,175	-200,000	0,008	-0,028
-380,160	80,095	0,110	0,085
-379,146	-147,936	0,083	-0,005
-378,131	180,407	0,029	-0,031
-377,117	-200,000	-0,020	-0,090
-376,102	-166,787	0,175	0,005
-375,088	115,712	0,047	0,041
-374,073	24,879	-0,091	-0,054
-373,058	800,000	-0,063	0,126
-372,044	-200,000	0,016	0,077
-371,029	246,813	-0,003	-0,003
-370,015	247,232	-0,033	0,040
-369,000	-1,157	-0,028	0,014
-367,985	313,030	-0,101	-0,136
-366,971	148,957	-0,104	-0,101
-365,956	51,926	-0,165	0,113
-364,942	-4,857	0,119	0,059
-363,927	168,458	-0,043	0,044
-362,912	-111,804	-0,140	0,020
-361,898	-71,433	0,028	0,008
-360,883	800,000	-0,056	-0,132
-359,869	-6,204	-0,171	-0,083
-358,854	107,912	0,086	-0,073
-357,839	-58,955	-0,084	-0,026
-356,825	22,670	0,060	0,035
-355,810	-88,140	-0,050	-0,011
-354,796	800,000	0,007	0,016
-353,781	193,095	0,122	0,133
-352,766	-200,000	0,002	0,011
-351,752	341,019	0,027	0,038
-350,737	-200,000	-0,039	0,132
-349,723	81,993	0,083	-0,064
-348,708	-79,228	-0,020	-0,005
-347,693	-200,000	0,017	0,140
-346,679	-128,580	0,179	-0,018
-345,664	13,575	-0,085	-0,047
-344,650	-200,000	0,004	0,056
-343,635	75,957	-0,073	0,056
-342,620	28,788	0,163	0,099
-341,606	-55,010	-0,049	-0,016
-340,591	69,278	-0,101	0,074
-339,577	-84,773	-0,071	-0,016
-338,562	800,000	0,018	-0,045
-337,548	800,000	0,018	0,040
-336,533	800,000	0,029	0,075
-335,518	87,211	0,105	0,083
-334,504	-200,000	0,026	0,135
-333,489	-200,000	-0,006	-0,183
-332,475	-200,000	0,018	-0,102
-331,460	114,239	0,110	-0,096
-330,445	27,066	-0,083	0,050
-329,431	-200,000	-0,012	0,062
-328,416	-29,064	0,163	-0,067
-327,402	-17,520	0,141	0,063
-326,387	324,438	0,028	-0,039
-325,372	55,920	-0,042	-0,029
-324,358	5,661	-0,023	0,012
-323,343	-114,175	-0,103	-0,014
-322,329	800,000	-0,030	0,093
-321,314	331,080	0,045	0,063
-320,299	-200,000	-0,010	0,056
-319,285	7,278	0,110	0,058
-318,270	52,061	-0,021	-0,014
-317,256	-200,000	-0,013	0,066
-316,241	800,000	0,042	-0,123
-315,226	22,151	0,169	0,099
-314,212	239,380	-0,036	0,043
-313,197	139,680	-0,036	-0,034
-312,183	158,342	0,106	0,106
-311,168	-200,000	-0,020	0,091
-310,153	-67,526	-0,064	0,018
-309,139	49,929	0,051	0,034
-308,124	271,934	0,071	-0,090
-307,110	-200,000	0,018	-0,074
-306,095	-33,318	-0,087	-0,034
-305,080	-32,260	-0,080	-0,032
-304,066	-109,615	0,086	-0,013
-303,051	-90,751	0,049	0,010
-302,037	247,573	-0,053	0,064
-301,022	101,587	-0,069	-0,057
-300,008	-168,138	-0,039	0,001
-298,993	473,975	0,059	0,095
-297,978	-200,000	0,030	0,144
-296,964	-200,000	-0,050	-0,000
-295,949	132,642	0,079	-0,073
-294,935	375,381	0,073	-0,107
-293,920	800,000	0,028	0,081
-292,905	45,483	0,078	-0,051
-291,891	358,083	0,048	-0,068
-290,876	-200,000	0,012	-0,083
-289,862	-142,166	0,116	0,008
-288,847	-200,000	0,020	-0,075
-287,832	521,931	0,055	-0,093
-286,818	12,769	0,058	0,032
-285,803	2,125	-0,103	0,053
-284,789	142,355	0,098	0,093
-283,774	800,000	0,058	0,140
-282,759	-200,000	-0,022	-0,106
-281,745	-142,500	0,081	0,006
-280,730	64,481	-0,075	-0,054
-279,716	48,596	-0,127	-0,085
-278,701	-55,172	0,122	-0,039
-277,686	-200,000	-0,001	0,023
-276,672	-126,375	0,076	0,008
-275,657	191,104	-0,019	0,021
-274,643	144,674	-0,060	-0,057
-273,628	225,849	0,025	-0,029
-272,613	800,000	-0,043	-0,092
-271,599	8,835	0,083	0,045
-270,584	800,000	-0,026	0,075
-269,570	-200,000	0,018	0,109
-268,555	-200,000	0,027	0,093
-267,540	-83,718	-0,046	0,010
-266,526	285,874	-0,152	-0,196
-265,511	-59,920	0,156	0,047
-264,497	-53,492	-0,093	-0,030
-263,482	-200,000	0,021	0,105
-262,467	-200,000	0,006	-0,039
-261,453	36,555	0,053	-0,034
-260,438	331,417	-0,018	0,025
-259,424	-200,000	0,010	-0,043
-258,409	37,548	-0,124	-0,078
-257,395	-200,000	0,027	-0,140
-256,380	-200,000	0,106	0,000
-255,365	716,958	-0,028	0,054
-254,351	62,697	-0,070	0,050
-253,336	800,000	0,040	-0,092
-252,322	-71,522	-0,084	0,022
-251,307	292,375	-0,085	-0,111
-250,292	-107,044	-0,070	0,011
-249,278	90,607	0,039	-0,031
-248,263	258,970	-0,044	0,055
-247,249	26,813	0,066	0,039
-246,234	399,929	-0,059	-0,088
-245,219	156,050	-0,057	0,056
-244,205	46,385	0,064	-0,043
-243,190	119,158	0,048	0,042
-242,176	-93,884	0,034	0,007
-241,161	800,000	0,061	0,168
-240,146	-131,964	0,111	-0,010
-239,132	-200,000	-0,069	0,253
-238,117	59,880	-0,111	0,078
-237,103	277,549	0,037	0,047
-236,088	218,855	-0,043	-0,049
-235,073	-110,324	-0,042	-0,006
-234,059	418,663	-0,029	-0,045
-233,044	-107,511	-0,012	0,002
-232,030	800,000	0,035	0,075
-231,015	437,749	-0,050	0,078
-230,000	139,258	-0,065	0,061
-228,986	800,000	0,031	-0,066
-227,971	800,000	-0,016	0,033
-226,957	-200,000	0,037	-0,000
-225,942	800,000	-0,022	-0,058
-224,927	-200,000	-0,022	0,068
-223,913	-21,039	0,084	-0,036
-222,898	435,831	-0,059	-0,092
-221,884	350,020	-0,053	-0,075
-220,869	-200,000	0,026	-0,112
-219,855	800,000	0,032	0,072
-218,840	-200,000	-0,020	0,074
-217,825	800,000	0,065	0,137
-216,811	-200,000	0,002	-0,021
-215,796	-200,000	0,019	-0,114
-214,782	118,068	0,050	0,044
-213,767	-173,278	-0,015	-0,000
-212,752	98,858	-0,112	-0,092
-211,738	-66,782	0,158	0,044
-210,723	-200,000	-0,024	0,133
-209,709	-138,080	-0,068	0,005
-208,694	-5,329	0,042	-0,020
-207,679	-30,828	-0,123	-0,049
-206,665	352,420	-0,065	0,093
-205,650	233,737	0,123	0,145
-204,636	330,309	-0,050	0,069
-203,621	118,892	0,060	0,053
-202,606	-117,195	-0,154	-0,020
-201,592	718,592	-0,074	-0,141
-200,577	-1,376	-0,061	-0,030
-199,563	800,000	0,022	0,067
-198,548	-21,602	0,137	-0,059
-197,533	227,502	0,043	0,050
-196,519	300,673	-0,049	0,064
-195,504	-200,000	0,019	-0,090
-194,490	147,927	0,065	0,063
-193,475	-121,789	-0,127	0,015
-192,460	190,496	0,124	0,132
-191,446	-200,000	0,003	0,049
-190,431	3,208	0,041	-0,021
-189,417	-122,533	0,147	-0,017
-188,402	428,079	-0,073	-0,112
-187,387	800,000	-0,047	-0,132
-186,373	-82,319	-0,181	0,041
-185,358	718,565	-0,066	-0,125
-184,344	800,000	-0,018	0,040
-183,329	432,097	-0,043	0,066
-182,315	-13,736	0,086	0,040
-181,300	-64,440	-0,110	-0,032
-180,285	256,729	-0,014	-0,018
-179,271	326,978	-0,042	0,058
-178,256	40,216	-0,087	0,056
-177,242	-161,109	-0,071	0,003
-176,227	258,942	-0,072	-0,089
-175,212	-200,000	0,011	0,115
-174,198	453,264	0,088	0,140
-173,183	157,976	-0,067	-0,066
-172,169	8,046	-0,148	-0,079
-171,154	-200,000	-0,017	-0,108
-170,139	-7,006	0,091	-0,044
-169,125	-200,000	0,025	0,121
-168,110	-154,670	-0,017	-0,001
-167,096	-117,642	-0,076	0,010
-166,081	800,000	-0,017	-0,050
-165,066	141,507	-0,051	0,048
-164,052	-192,202	0,117	-0,001
-163,037	-106,702	-0,041	-0,006
-162,023	-119,788	0,103	0,013
-161,008	292,734	0,053	0,069
-159,993	68,340	0,034	0,025
-158,979	187,259	0,044	-0,047
-157,964	-101,681	0,022	-0,004
-156,950	-41,609	0,053	0,019
-155,935	800,000	0,042	-0,084
-154,920	-200,000	-0,013	-0,180
-153,906	-200,000	0,002	-0,044
-152,891	-27,501	0,120	0,049
-151,877	87,745	-0,151	-0,118
-150,862	334,497	-0,035	0,049
-149,847	800,000	-0,012	0,038
-148,833	-200,000	-0,022	-0,120
-147,818	372,819	0,082	0,118
-146,804	51,206	-0,161	0,108
-145,789	173,813	-0,047	0,048
-144,775	-200,000	-0,017	0,118
-143,760	130,440	0,041	-0,037
-142,745	-140,234	-0,116	-0,009
-141,731	-87,649	0,054	0,011
-140,716	-200,000	-0,034	0,132
-139,702	160,628	-0,019	0,018
-138,687	800,000	0,053	0,118
-137,672	800,000	0,036	0,092
-136,658	91,073	0,035	-0,028
-135,643	-200,000	0,031	-0,112
-134,629	-27,601	-0,115	-0,047
-133,614	762,019	0,065	0,126
-132,599	97,694	0,073	0,059
-131,585	65,167	-0,120	-0,086
-130,570	-200,000	0,101	0,000
-129,556	470,489	-0,084	0,135
-128,541	-59,851	0,131	-0,040
-127,526	8,149	-0,120	-0,064
-126,512	416,222	0,046	-0,071
-125,497	-34,072	0,089	0,034
-124,483	-200,000	0,003	-0,034
-123,468	144,173	-0,114	-0,108
-122,453	534,200	-0,056	-0,095
-121,439	-200,000	0,023	-0,176
-120,424	548,996	-0,033	-0,056
-119,410	182,840	0,047	-0,050
-118,395	-200,000	0,026	0,251
-117,380	-8,351	0,058	0,028
-116,366	800,000	0,020	-0,058
-115,351	2,390	0,092	-0,047
-114,337	-200,000	0,001	0,009
-113,322	61,511	0,025	-0,018
-112,307	280,486	-0,048	0,061
-111,293	-77,741	0,047	-0,011
-110,278	8,450	-0,103	0,055
-109,264	36,067	-0,123	-0,077
-108,249	-200,000	-0,039	0,149
-107,234	21,342	-0,065	0,037
-106,220	-200,000	0,013	0,058
-105,205	-200,000	-0,021	0,085
-104,191	-35,634	-0,070	0,027
-103,176	24,553	-0,048	-0,028
-102,162	295,751	-0,020	0,026
-101,147	131,951	-0,061	-0,056
-100,132	128,963	-0,091	-0,083
-99,118	129,625	-0,092	-0,083
-98,103	141,775	0,061	0,057
-97,089	222,170	0,142	0,162
-96,074	-200,000	0,024	0,098
-95,059	186,273	0,016	-0,017
-94,045	443,116	-0,070	0,109
-93,030	10,286	-0,100	-0,054
-92,016	-42,395	0,030	-0,011
-91,001	-200,000	0,001	-0,049
-89,986	800,000	-0,007	-0,020
-88,972	-200,000	0,003	0,055
-87,957	321,761	-0,052	0,071
-86,943	171,449	-0,045	0,046
-85,928	-200,000	-0,056	-0,178
-84,913	-200,000	0,031	-0,177
-83,899	60,195	-0,080	-0,056
-82,884	-21,427	-0,032	0,014
-81,870	800,000	0,076	0,170
-80,855	-79,949	-0,029	-0,007
-79,840	-200,000	0,028	0,132
-78,826	37,841	-0,011	-0,007
-77,811	800,000	0,067	-0,182
-76,797	47,878	-0,037	-0,024
-75,782	465,002	-0,032	0,050
-74,767	429,163	0,050	0,077
-73,753	-27,769	0,056	-0,023
-72,738	800,000	0,052	-0,103
-71,724	543,420	-0,024	0,041
-70,709	800,000	0,019	0,043
-69,694	48,137	-0,044	-0,029
-68,680	-25,620	0,013	-0,006
-67,665	800,000	0,017	0,042
-66,651	-86,556	0,086	0,019
-65,636	8,678	0,080	-0,042
-64,622	-144,482	-0,038	0,002
-63,607	720,184	-0,026	-0,050
-62,592	165,270	0,098	-0,098
-61,578	-39,978	-0,110	-0,041
-60,563	-200,000	-0,011	0,075
-59,549	-86,922	-0,139	-0,030
-58,534	5,004	-1,520	-0,790
-57,519	405,982	-1,407	-2,109
-56,505	-200,000	-0,299	-4,494
-55,490	234,011	0,917	1,071
-54,476	800,000	5,089	11,557
-53,461	-200,000	19,200	319,779
-52,446	-200,000	740,577	2334,356
-51,432	573,528	1655,490	2869,520
-50,417	78,229	1671,002	1261,570
-49,403	21,258	1543,962	885,444
-48,388	15,171	1466,431	811,373
-47,373	17,962	1456,663	819,426
-46,359	16,693	1446,581	807,639
-45,344	13,432	1441,879	789,358
-44,330	13,316	1440,097	787,795
-43,315	13,396	1437,977	786,990
-42,300	13,349	1436,451	785,896
-41,286	13,444	1435,139	785,603
-40,271	13,320	1434,063	784,391
-39,257	13,362	1432,613	783,767
-38,242	13,439	1431,312	783,389
-37,227	13,413	1430,256	782,655
-36,213	13,376	1429,003	781,765
-35,198	13,407	1427,755	781,197
-34,184	13,429	1426,763	780,730
-33,169	13,410	1425,355	779,837
-32,154	13,438	1424,253	779,334
-31,140	13,417	1423,217	778,640
-30,125	13,471	1421,858	778,120
-29,111	13,446	1420,729	777,351
-28,096	13,428	1419,668	776,657
-27,082	13,341	1418,639	775,650
-26,067	13,310	1417,688	774,954
-25,052	13,367	1416,488	774,536
-24,038	13,337	1415,427	773,785
-23,023	13,280	1414,397	772,922
-22,009	13,341	1413,252	772,552
-20,994	13,283	1412,698	771,946
-19,979	13,328	1411,685	771,572
-18,965	13,309	1410,739	770,936
-17,950	13,257	1409,937	770,223
-16,936	13,282	1408,756	769,665
-15,921	13,257	1407,755	768,972
-14,906	13,234	1406,870	768,350
-13,892	13,283	1405,830	767,980
-12,877	13,243	1405,174	767,403
-11,863	13,261	1404,180	766,915
-10,848	13,198	1403,436	766,187
-9,833	13,215	1402,338	765,635
-8,819	13,135	1401,663	764,864
-7,804	13,129	1400,575	764,209
-6,790	13,162	1399,632	763,821
-5,775	13,168	1398,255	763,066
-4,760	13,186	1397,505	762,711
-3,746	13,142	1396,631	761,996
-2,731	13,093	1396,077	761,438
-1,717	13,139	1394,924	760,992
-0,702	13,134	1393,091	759,939
0,313	17,010	1310,009	732,563
1,327	33,118	703,974	430,908
2,342	51,218	123,382	82,706
3,356	2,421	16,557	8,451
4,371	6,082	3,260	1,703
5,386	68,386	0,527	0,382
6,400	-200,000	0,063	0,242
7,415	184,335	-0,198	-0,208
8,429	78,323	-0,115	-0,086
9,444	96,040	-0,331	-0,267
10,459	-30,471	-0,267	-0,107
11,473	13,928	-0,413	-0,226
12,488	83,508	-0,266	-0,205
13,502	101,778	-0,237	-0,195
14,517	25,118	-0,297	-0,174
15,531	131,394	-0,343	-0,312
16,546	253,614	-0,168	-0,203
17,561	73,647	-0,477	-0,353
18,575	-30,151	-0,215	-0,086
19,590	219,973	-0,234	-0,266
20,604	102,007	-0,368	-0,304
21,619	249,554	-0,394	-0,473
22,634	83,927	-0,428	-0,330
23,648	110,018	-0,415	-0,351
24,663	-1,301	-0,472	-0,235
25,677	-54,407	-0,404	-0,128
26,692	64,832	-0,348	-0,248
27,707	-43,104	-0,382	-0,136
28,721	141,721	-0,437	-0,409
29,736	534,462	-0,273	-0,458
30,750	27,287	-0,361	-0,214
31,765	89,862	-0,366	-0,288
32,780	33,236	-0,373	-0,228
33,794	103,473	-0,317	-0,262
34,809	598,121	-0,239	-0,420
35,823	158,983	-0,266	-0,261
36,838	158,155	-0,401	-0,393
37,853	21,719	-0,384	-0,220
38,867	91,874	-0,452	-0,358
39,882	99,420	-0,363	-0,296
40,896	23,939	-0,401	-0,233
41,911	200,562	-0,207	-0,224
42,926	410,564	-0,239	-0,359
43,940	47,749	-0,295	-0,194
44,955	11,023	-0,443	-0,238
45,969	192,402	-0,268	-0,285
46,984	42,144	-0,307	-0,196
47,999	-3,595	-0,419	-0,204
49,013	26,331	-0,348	-0,204
50,028	57,680	-0,269	-0,185
51,042	-6,590	-0,408	-0,195
52,057	207,729	-0,274	-0,302
53,071	191,225	-0,335	-0,356
54,086	-29,320	-0,462	-0,186
55,101	76,770	-0,366	-0,273
56,115	68,921	-0,343	-0,248
57,130	-9,981	-0,468	-0,218
58,144	114,442	-0,423	-0,363
59,159	106,437	-0,378	-0,315
60,174	22,348	-0,440	-0,252
61,188	43,120	-0,334	-0,214
62,203	-99,370	-0,323	-0,057
63,217	-16,294	-0,293	-0,130
64,232	189,542	-0,242	-0,256
65,247	127,355	-0,227	-0,203
66,261	99,132	-0,375	-0,305
67,276	557,122	-0,238	-0,405
68,290	-34,338	-0,276	-0,106
69,305	219,409	-0,169	-0,191
70,320	8,635	-0,310	-0,164
71,334	-45,040	-0,388	-0,135
72,349	19,824	-0,263	-0,149
73,363	81,446	-0,303	-0,230
74,378	51,579	-0,329	-0,220
75,393	75,516	-0,297	-0,220
76,407	22,416	-0,424	-0,243
77,422	80,389	-0,296	-0,224
78,436	-106,182	-0,329	-0,051
79,451	0,792	-0,299	-0,150
80,466	24,392	-0,269	-0,156
81,480	165,503	-0,226	-0,225
82,495	107,275	-0,370	-0,309
83,509	152,700	-0,179	-0,172
84,524	-33,505	-0,379	-0,146
85,539	-43,461	-0,304	-0,107
86,553	-85,568	-0,297	-0,064
87,568	22,013	-0,272	-0,155
88,582	-9,467	-0,439	-0,205
89,597	147,233	-0,315	-0,298
90,611	-161,330	-0,239	-0,009
91,626	40,157	-0,235	-0,148
92,641	-65,119	-0,351	-0,099
93,655	-53,308	-0,360	-0,115
94,670	282,996	-0,303	-0,383
95,684	0,252	-0,345	-0,172
96,699	49,812	-0,447	-0,295
97,714	314,302	-0,167	-0,222
98,728	-30,106	-0,242	-0,096
99,743	97,497	-0,137	-0,110
100,757	23,078	-0,311	-0,179
101,772	-35,494	-0,292	-0,111
102,787	314,126	-0,381	-0,505
103,801	143,928	-0,330	-0,309
104,816	99,797	-0,228	-0,185
105,830	13,377	-0,269	-0,146
106,845	88,519	-0,246	-0,191
107,860	22,765	-0,269	-0,154
108,874	-3,025	-0,323	-0,157
109,889	107,310	-0,270	-0,225
110,903	80,196	-0,368	-0,277
111,918	76,970	-0,283	-0,210
112,933	108,523	-0,246	-0,206
113,947	321,642	-0,114	-0,152
114,962	-52,946	-0,339	-0,109
115,976	27,855	-0,242	-0,143
116,991	177,939	-0,188	-0,192
118,006	-21,279	-0,327	-0,139
119,020	104,280	-0,118	-0,097
120,035	25,705	-0,272	-0,158
121,049	274,344	-0,165	-0,205
122,064	107,891	-0,126	-0,105
123,079	80,457	-0,277	-0,208
124,093	91,106	-0,254	-0,199
125,108	117,252	-0,351	-0,302
126,122	-22,113	-0,306	-0,129
127,137	111,346	-0,243	-0,205
128,151	-7,537	-0,150	-0,071
129,166	54,205	-0,131	-0,088
130,181	48,636	-0,273	-0,179
131,195	40,686	-0,299	-0,188
132,210	252,639	-0,221	-0,264
133,224	92,116	-0,298	-0,234
134,239	86,954	-0,220	-0,170
135,254	51,200	-0,268	-0,178
136,268	18,105	-0,193	-0,107
137,283	58,926	-0,319	-0,219
138,297	-22,699	-0,250	-0,105
139,312	7,754	-0,281	-0,146
140,327	-30,841	-0,344	-0,135
141,341	24,310	-0,253	-0,146
142,356	92,800	-0,208	-0,164
143,370	-68,814	-0,287	-0,077
144,385	16,737	-0,166	-0,091
145,400	-4,194	-0,228	-0,110
146,414	274,547	-0,246	-0,305
147,429	101,750	-0,291	-0,237
148,443	9,859	-0,350	-0,185
149,458	109,151	-0,203	-0,170
150,473	16,801	-0,342	-0,188
151,487	-74,452	-0,189	-0,047
152,502	396,333	-0,153	-0,224
153,516	-88,368	-0,228	-0,047
154,531	104,748	-0,216	-0,177
155,546	90,041	-0,187	-0,146
156,560	-200,000	-0,070	-0,244
157,575	131,207	-0,274	-0,246
158,589	-142,957	-0,277	0,018
159,604	183,608	-0,146	-0,151
160,619	12,811	-0,374	-0,201
161,633	800,000	-0,108	-0,211
162,648	45,248	-0,202	-0,130
163,662	140,593	-0,198	-0,182
164,677	96,945	-0,178	-0,143
165,692	-51,361	-0,348	-0,113
166,706	27,322	-0,305	-0,179
167,721	56,937	-0,321	-0,218
168,735	402,914	-0,183	-0,270
169,750	97,374	-0,193	-0,154
170,764	84,805	-0,119	-0,091
171,779	31,477	-0,249	-0,149
172,794	71,741	-0,353	-0,256
173,808	63,587	-0,216	-0,151
174,823	347,514	-0,125	-0,173
175,837	701,919	-0,171	-0,316
176,852	-37,393	-0,197	-0,073
177,867	-200,000	-0,046	-0,196
178,881	106,855	-0,167	-0,138
179,896	640,256	-0,150	-0,267
180,910	64,617	-0,255	-0,179
181,925	-17,687	-0,240	-0,105
182,940	409,516	-0,183	-0,270
183,954	-34,120	-0,136	-0,052
184,969	180,941	-0,292	-0,299
185,983	242,975	-0,105	-0,122
186,998	23,502	-0,255	-0,146
188,013	76,833	-0,062	-0,046
189,027	104,343	-0,221	-0,181
190,042	155,873	-0,318	-0,305
191,056	235,146	-0,234	-0,269
192,071	18,928	-0,192	-0,107
193,086	-200,000	-0,025	-0,192
194,100	55,971	-0,183	-0,123
195,115	9,937	-0,181	-0,095
196,129	650,163	-0,126	-0,226
197,144	53,410	-0,258	-0,172
198,159	250,344	-0,223	-0,264
199,173	-55,094	-0,199	-0,062
200,188	117,971	-0,157	-0,134
201,202	-74,740	-0,193	-0,048
202,217	-127,383	-0,244	-0,024
203,232	259,547	-0,145	-0,174
204,246	-121,232	-0,153	-0,018
205,261	800,000	-0,147	-0,346
206,275	506,168	-0,098	-0,158
207,290	137,832	-0,184	-0,168
208,304	55,308	-0,097	-0,065
209,319	-48,702	-0,182	-0,060
210,334	248,390	-0,209	-0,246
211,348	-30,548	-0,266	-0,104
212,363	5,080	-0,152	-0,078
213,377	-19,650	-0,262	-0,112
214,392	255,508	-0,177	-0,211
215,407	302,203	-0,184	-0,237
216,421	88,471	-0,196	-0,151
217,436	3,283	-0,187	-0,094
218,450	800,000	-0,096	-0,201
219,465	336,007	-0,108	-0,146
220,480	277,539	-0,142	-0,176
221,494	134,992	-0,147	-0,133
222,509	-4,120	-0,247	-0,118
223,523	183,709	-0,148	-0,152
224,538	-54,816	-0,243	-0,076
225,553	-5,140	-0,412	-0,196
226,567	440,615	-0,179	-0,272
227,582	79,866	-0,039	0,029
228,596	177,086	-0,170	-0,172
229,611	33,621	-0,233	-0,140
230,626	75,566	-0,234	-0,171
231,640	-48,151	-0,078	-0,026
232,655	191,087	-0,116	-0,122
233,669	364,744	-0,167	-0,234
234,684	143,085	-0,135	-0,125
235,699	97,281	-0,229	-0,182
236,713	-42,504	-0,205	-0,072
237,728	800,000	-0,141	-0,285
238,742	197,572	-0,158	-0,167
239,757	-88,242	-0,114	-0,023
240,772	26,509	-0,274	-0,158
241,786	20,511	-0,261	-0,146
242,801	122,592	-0,266	-0,231
243,815	800,000	-0,088	-0,201
244,830	-5,079	-0,145	-0,069
245,844	777,944	-0,143	-0,272
246,859	391,285	-0,042	-0,061
247,874	32,161	-0,259	-0,154
248,888	-43,071	-0,204	-0,071
249,903	-87,704	-0,182	-0,038
250,917	545,974	-0,127	-0,211
251,932	-95,138	-0,267	0,049
252,947	-38,703	-0,095	-0,035
253,961	298,398	-0,158	-0,202
254,976	49,607	-0,409	-0,266
255,990	49,553	-0,221	-0,144
257,005	192,974	-0,096	-0,100
258,020	62,198	-0,147	-0,101
259,034	-8,997	-0,215	0,099
260,049	113,036	-0,167	-0,140
261,063	-124,581	-0,288	-0,031
262,078	103,438	-0,215	-0,174
263,093	-80,176	-0,152	-0,035
264,107	-158,136	-0,190	0,008
265,122	536,807	-0,096	-0,158
266,136	347,808	-0,112	-0,153
267,151	284,903	-0,109	-0,136
268,166	378,454	-0,119	-0,169
269,180	800,000	-0,047	-0,124
270,195	142,770	-0,216	-0,199
271,209	261,722	-0,082	-0,098
272,224	72,694	-0,104	-0,075
273,239	-116,201	-0,166	-0,021
274,253	8,127	-0,142	-0,073
275,268	-45,732	-0,187	-0,064
276,282	-8,329	-0,191	-0,088
277,297	290,785	-0,157	-0,198
278,312	142,557	-0,146	-0,134
279,326	-33,072	-0,189	-0,072
280,341	-119,571	-0,203	-0,024
281,355	-72,973	-0,140	-0,035
282,370	46,883	-0,119	-0,076
283,384	80,193	-0,260	-0,193
284,399	47,347	-0,180	-0,116
285,414	800,000	-0,076	-0,168
286,428	-63,052	-0,107	-0,030
287,443	-140,589	-0,141	-0,010
288,457	-123,271	-0,219	-0,024
289,472	-80,249	-0,182	0,042
290,487	-65,576	-0,196	-0,054
291,501	66,856	-0,174	-0,122
292,516	18,097	-0,214	-0,118
293,530	-200,000	-0,055	-0,232
294,545	-61,293	-0,172	-0,050
295,560	-31,155	-0,123	-0,048
296,574	337,896	-0,098	-0,131
297,589	-43,432	-0,255	-0,088
298,603	61,039	-0,152	-0,104
299,618	50,380	-0,194	-0,126
300,633	16,490	-0,161	-0,087
301,647	-23,578	-0,069	-0,028
302,662	-50,805	-0,148	-0,048
303,676	-137,266	-0,271	-0,021
304,691	213,879	-0,166	-0,181
305,706	44,615	-0,119	-0,075
306,720	800,000	-0,092	-0,192
307,735	394,017	-0,134	-0,192
308,749	-82,174	-0,038	0,009
309,764	269,576	-0,110	-0,133
310,779	71,418	-0,180	-0,129
311,793	-41,007	-0,256	-0,091
312,808	175,168	-0,136	-0,136
313,822	44,354	-0,286	-0,180
314,837	800,000	-0,054	-0,153
315,852	48,205	-0,150	-0,096
316,866	744,797	0,033	-0,061
317,881	17,226	-0,173	0,094
318,895	83,440	-0,148	-0,111
319,910	52,113	-0,240	-0,157
320,925	800,000	-0,095	-0,233
321,939	800,000	-0,070	-0,182
322,954	19,441	-0,100	-0,055
323,968	-200,000	0,009	-0,081
324,983	664,790	-0,080	-0,143
325,997	-148,025	-0,225	-0,013
327,012	61,500	-0,160	-0,109
328,027	623,622	-0,061	-0,107
329,041	70,833	-0,073	-0,052
330,056	-5,086	-0,104	-0,049
331,070	48,988	-0,138	-0,089
332,085	-139,653	-0,217	-0,016
333,100	-200,000	-0,050	-0,175
334,114	-200,000	-0,022	-0,206
335,129	206,897	-0,126	-0,135
336,143	24,965	-0,137	-0,078
337,158	93,137	-0,236	-0,183
338,173	17,260	-0,145	-0,079
339,187	-59,178	-0,113	-0,033
340,202	-200,000	0,026	-0,081
341,216	-10,161	-0,032	0,014
342,231	-65,279	-0,197	-0,054
343,246	63,607	-0,114	0,078
344,260	177,527	-0,111	0,112
345,275	317,273	-0,175	-0,227
346,289	-180,158	0,069	0,001
347,304	-52,139	-0,033	-0,010
348,319	208,544	-0,133	-0,143
349,333	800,000	-0,063	-0,185
350,348	-55,665	-0,189	-0,058
351,362	10,499	-0,105	-0,055
352,377	106,822	-0,122	-0,099
353,392	-29,880	-0,129	-0,050
354,406	800,000	-0,055	-0,165
355,421	209,968	1312,633	1414,381
356,435	161,625	1473,091	1414,873
