DTS Sentinel unit serial number:	SN410029Multiplexer serial number:	ORYXHardware model number:	OX2-SRSoftware version number:	ORYX F/W v4,00 Oryx Data Collector v3.7.2.0data status	okinstallation	B3 Nyhavnadifferential loss correction	single-endedforward channel	channel 1reverse channel	N/Adate	2023/12/04time	07:22:30forward acquisition time	300,00reverse acquisition time	0,00gamma	499,1914k internal	0,3206k external	0,3206temperature offset calibration	1,0000default loss term (dB/km)	0,3820temperature slope calibration	1,0000multiplexer offset coefficient	1,0000multiplexer slope coefficient	1,0000fibre end	0,00T internal ref (°C)	12,23T ext. ref 1 (°C)	-2,24T ext. ref 2 (°C)	-2,28length (m)	temperature (°C)	Stokes	anti-Stokes-744,400	247,277	-0,112	-0,138
-743,385	-200,000	-0,084	0,273
-742,371	336,090	-0,133	-0,188
-741,356	800,000	0,100	0,263
-740,342	484,220	-0,140	-0,233
-739,327	-200,000	-0,014	0,354
-738,312	800,000	-0,124	-0,307
-737,298	800,000	-0,123	0,256
-736,283	278,611	-0,151	-0,196
-735,269	800,000	0,083	0,256
-734,254	800,000	-0,127	-0,277
-733,239	382,701	-0,085	0,127
-732,225	-200,000	-0,049	-0,308
-731,210	-69,487	0,175	-0,048
-730,196	29,888	-0,059	0,036
-729,181	74,608	0,003	-0,002
-728,167	64,642	-0,066	-0,049
-727,152	116,243	-0,061	-0,054
-726,137	800,000	-0,022	-0,045
-725,123	-77,324	-0,116	-0,029
-724,108	219,085	-0,064	-0,074
-723,094	72,392	0,055	-0,041
-722,079	-200,000	-0,005	0,038
-721,064	-171,461	-0,059	-0,001
-720,050	36,747	-0,078	0,050
-719,035	800,000	-0,012	0,032
-718,021	164,341	-0,049	-0,050
-717,006	-127,274	-0,164	-0,017
-715,991	800,000	-0,041	-0,097
-714,977	800,000	-0,078	-0,157
-713,962	-200,000	0,015	-0,076
-712,948	800,000	0,027	-0,078
-711,933	24,914	-0,063	-0,038
-710,918	72,699	0,042	0,032
-709,904	31,985	0,058	-0,036
-708,889	444,091	-0,083	-0,132
-707,875	83,618	-0,064	0,051
-706,860	-200,000	-0,030	-0,128
-705,845	89,124	0,130	0,105
-704,831	88,448	-0,027	-0,021
-703,816	800,000	0,005	-0,013
-702,802	-200,000	0,008	0,113
-701,787	207,755	0,038	0,043
-700,772	-200,000	0,021	-0,104
-699,758	50,644	-0,101	0,069
-698,743	-39,654	0,142	-0,054
-697,729	574,810	-0,111	0,197
-696,714	-200,000	-0,025	0,166
-695,699	-200,000	-0,012	0,109
-694,685	-200,000	-0,011	-0,105
-693,670	38,185	0,027	0,017
-692,656	800,000	-0,014	-0,035
-691,641	800,000	0,004	0,012
-690,627	-97,470	0,149	-0,028
-689,612	-126,709	0,111	-0,012
-688,597	-200,000	0,017	-0,091
-687,583	223,456	0,034	-0,040
-686,568	202,449	-0,115	-0,129
-685,554	-90,482	0,151	0,031
-684,539	800,000	-0,044	0,138
-683,524	370,269	0,066	0,097
-682,510	-200,000	0,007	-0,110
-681,495	286,023	-0,083	0,109
-680,481	594,103	-0,036	0,065
-679,466	-200,000	-0,030	0,110
-678,451	800,000	0,033	-0,079
-677,437	510,625	0,029	-0,048
-676,422	-200,000	-0,001	-0,057
-675,408	-108,384	0,095	0,015
-674,393	220,510	-0,076	-0,088
-673,378	800,000	-0,026	0,068
-672,364	-75,564	-0,220	-0,056
-671,349	15,201	-0,035	0,020
-670,335	800,000	-0,038	-0,079
-669,320	-200,000	0,047	0,163
-668,305	89,402	0,080	-0,065
-667,291	-2,164	-0,042	0,021
-666,276	8,435	-0,041	-0,022
-665,262	-61,520	-0,027	-0,008
-664,247	-38,922	-0,093	-0,035
-663,232	800,000	0,030	0,091
-662,218	122,146	-0,125	0,113
-661,203	-65,865	0,126	0,036
-660,189	252,377	-0,034	0,042
-659,174	-146,151	-0,087	0,005
-658,159	-200,000	-0,008	-0,131
-657,145	-1,100	0,058	-0,030
-656,130	-200,000	-0,020	-0,116
-655,116	-73,503	0,113	-0,030
-654,101	-105,016	0,091	-0,015
-653,086	93,870	-0,142	0,116
-652,072	-200,000	-0,023	0,076
-651,057	-67,889	-0,136	0,038
-650,043	-87,698	-0,092	0,020
-649,028	13,884	0,053	-0,030
-648,014	2,748	-0,105	0,055
-646,999	358,385	0,035	-0,051
-645,984	206,491	-0,039	0,044
-644,970	800,000	-0,031	-0,069
-643,955	-47,143	-0,074	-0,026
-642,941	-21,706	0,029	0,013
-641,926	225,275	-0,016	-0,019
-640,911	81,295	-0,051	-0,040
-639,897	38,426	-0,002	-0,001
-638,882	132,664	-0,091	-0,085
-637,868	-82,816	-0,170	-0,039
-636,853	62,262	-0,071	-0,051
-635,838	14,451	-0,081	-0,045
-634,824	134,429	0,053	-0,050
-633,809	-180,749	0,082	-0,001
-632,795	-200,000	0,027	-0,132
-631,780	-200,000	0,011	0,068
-630,765	-76,955	0,114	0,029
-629,751	800,000	-0,054	-0,113
-628,736	163,850	-0,120	0,123
-627,722	-200,000	0,016	-0,093
-626,707	0,768	-0,017	-0,009
-625,692	-67,015	-0,019	0,006
-624,678	-200,000	0,015	0,069
-623,663	800,000	0,034	-0,096
-622,649	-70,072	-0,022	-0,006
-621,634	676,708	-0,160	-0,303
-620,619	-174,751	-0,024	0,000
-619,605	-68,984	0,100	0,028
-618,590	-200,000	0,002	-0,047
-617,576	-43,346	-0,067	-0,024
-616,561	340,434	-0,085	-0,121
-615,546	80,347	-0,059	0,046
-614,532	-194,065	-0,047	0,000
-613,517	24,473	-0,072	-0,043
-612,503	-2,664	-0,058	-0,029
-611,488	-25,408	0,128	0,055
-610,474	-200,000	0,025	0,133
-609,459	226,740	-0,087	-0,103
-608,444	-119,161	0,049	-0,006
-607,430	-33,315	-0,134	0,053
-606,415	43,529	0,028	0,019
-605,401	-40,570	0,087	-0,033
-604,386	-200,000	0,073	0,253
-603,371	505,076	-0,009	-0,015
-602,357	190,327	0,092	0,100
-601,342	574,372	-0,023	0,040
-600,328	-200,000	-0,012	-0,040
-599,313	-200,000	-0,005	-0,022
-598,298	-200,000	0,011	-0,049
-597,284	407,143	0,098	-0,150
-596,269	-21,520	-0,145	-0,063
-595,255	217,725	-0,039	-0,045
-594,240	92,594	-0,067	-0,055
-593,225	327,980	-0,045	-0,063
-592,211	-200,000	-0,033	-0,135
-591,196	468,830	0,051	-0,082
-590,182	209,388	0,059	-0,067
-589,167	-159,253	0,109	0,004
-588,152	-18,631	0,037	0,016
-587,138	-200,000	-0,024	0,155
-586,123	-102,253	-0,104	0,018
-585,109	-79,521	-0,141	-0,034
-584,094	-200,000	-0,002	-0,039
-583,079	-62,951	0,033	-0,010
-582,065	-3,833	0,010	0,005
-581,050	800,000	0,071	0,154
-580,036	138,344	-0,023	0,022
-579,021	13,372	-0,044	0,024
-578,006	-131,135	0,083	-0,008
-576,992	111,759	-0,004	-0,004
-575,977	482,379	-0,079	-0,129
-574,963	-48,227	0,062	-0,021
-573,948	448,096	-0,043	-0,068
-572,934	-200,000	-0,017	0,135
-571,919	8,348	-0,047	-0,025
-570,904	130,799	0,058	-0,054
-569,890	-143,277	-0,021	0,001
-568,875	144,772	0,064	-0,061
-567,861	595,500	-0,044	-0,079
-566,846	-200,000	-0,004	0,038
-565,831	-200,000	-0,016	-0,081
-564,817	-78,896	-0,013	0,003
-563,802	33,717	0,128	0,080
-562,788	-73,247	-0,109	-0,029
-561,773	161,432	0,038	0,039
-560,758	800,000	-0,035	0,096
-559,744	800,000	0,058	0,181
-558,729	-166,892	-0,086	0,002
-557,715	-200,000	-0,001	0,063
-556,700	-200,000	0,025	0,092
-555,685	144,969	-0,114	-0,110
-554,671	420,040	0,044	0,067
-553,656	271,456	0,069	-0,088
-552,642	192,785	0,063	0,068
-551,627	-126,509	0,058	0,006
-550,612	-113,817	-0,102	-0,014
-549,598	-98,020	0,136	0,025
-548,583	10,977	0,033	-0,018
-547,569	12,257	0,047	0,026
-546,554	34,281	0,072	-0,045
-545,539	800,000	0,035	0,093
-544,525	800,000	0,026	-0,075
-543,510	-112,535	0,061	0,009
-542,496	-85,173	-0,125	-0,028
-541,481	155,424	-0,048	-0,048
-540,466	-200,000	0,002	-0,024
-539,452	-144,455	0,124	-0,008
-538,437	-88,806	0,102	-0,022
-537,423	-185,977	0,120	-0,001
-536,408	203,971	0,061	0,068
-535,393	-100,637	-0,074	0,013
-534,379	-82,670	0,026	-0,006
-533,364	4,661	-0,147	-0,077
-532,350	-200,000	-0,002	0,011
-531,335	460,284	0,044	0,071
-530,321	-84,916	-0,133	0,030
-529,306	-200,000	0,000	-0,039
-528,291	-22,316	-0,075	-0,033
-527,277	800,000	-0,028	-0,085
-526,262	-71,829	-0,162	0,043
-525,248	-54,108	-0,048	-0,015
-524,233	-108,513	-0,070	0,011
-523,218	653,272	0,052	0,096
-522,204	-33,590	-0,030	0,012
-521,189	-152,064	-0,152	-0,008
-520,175	118,744	0,050	0,044
-519,160	15,964	0,051	-0,029
-518,145	341,524	0,045	-0,064
-517,131	-200,000	0,000	0,103
-516,116	-200,000	-0,027	0,099
-515,102	128,348	-0,043	-0,040
-514,087	800,000	0,096	0,197
-513,072	-4,901	-0,139	0,069
-512,058	-200,000	-0,027	-0,153
-511,043	800,000	-0,020	0,046
-510,029	-200,000	0,007	-0,092
-509,014	-200,000	0,004	0,117
-507,999	74,269	-0,087	-0,066
-506,985	-100,702	-0,010	0,002
-505,970	-101,874	-0,050	-0,009
-504,956	-200,000	0,010	0,074
-503,941	-139,444	-0,065	-0,005
-502,926	-200,000	0,006	0,061
-501,912	800,000	0,032	0,087
-500,897	800,000	0,034	0,068
-499,883	78,027	-0,046	-0,036
-498,868	283,096	-0,040	-0,052
-497,853	408,501	0,045	-0,069
-496,839	182,266	0,054	0,057
-495,824	66,263	0,092	0,067
-494,810	65,672	0,103	0,075
-493,795	-200,000	-0,016	-0,089
-492,781	48,963	-0,047	-0,032
-491,766	290,843	-0,154	-0,201
-490,751	-200,000	-0,009	-0,075
-489,737	-200,000	0,002	0,044
-488,722	-3,120	0,043	-0,021
-487,708	109,162	0,071	0,061
-486,693	5,861	0,111	0,059
-485,678	151,278	-0,063	0,061
-484,664	800,000	-0,043	-0,099
-483,649	80,551	-0,192	-0,148
-482,635	28,166	-0,082	0,050
-481,620	-200,000	-0,031	0,150
-480,605	-100,238	0,158	0,028
-479,591	-50,978	-0,114	0,038
-478,576	398,659	0,072	0,109
-477,562	773,896	0,085	0,167
-476,547	-29,673	-0,046	-0,019
-475,532	800,000	0,016	0,043
-474,518	-134,459	-0,072	-0,006
-473,503	800,000	-0,045	0,143
-472,489	-157,709	0,099	0,004
-471,474	-200,000	0,021	-0,088
-470,459	106,492	-0,065	-0,055
-469,445	219,973	0,084	-0,097
-468,430	-200,000	0,001	-0,037
-467,416	800,000	0,021	0,048
-466,401	-200,000	-0,008	0,088
-465,386	-144,423	0,059	-0,004
-464,372	30,156	-0,052	-0,032
-463,357	-126,471	-0,111	0,012
-462,343	-120,893	-0,122	0,015
-461,328	-200,000	-0,014	-0,046
-460,313	-8,777	0,113	-0,054
-459,299	-107,218	0,150	-0,023
-458,284	23,803	0,067	-0,039
-457,270	-47,908	0,065	0,022
-456,255	-129,436	0,104	0,010
-455,241	318,961	-0,093	-0,126
-454,226	220,807	-0,034	-0,039
-453,211	800,000	0,026	0,068
-452,197	-147,296	0,111	0,007
-451,182	-8,371	0,059	0,029
-450,168	-93,697	0,080	0,016
-449,153	2,544	0,003	-0,002
-448,138	-200,000	0,001	-0,053
-447,124	592,453	-0,065	-0,115
-446,109	-29,499	0,168	0,069
-445,095	-200,000	0,017	-0,079
-444,080	800,000	-0,052	0,113
-443,065	442,544	0,042	0,066
-442,051	800,000	0,038	-0,105
-441,036	-188,955	0,102	-0,001
-440,022	376,056	-0,053	-0,077
-439,007	-34,340	0,034	-0,013
-437,992	147,335	0,041	-0,039
-436,978	-200,000	0,012	0,067
-435,963	194,198	-0,115	0,125
-434,949	512,900	0,047	-0,078
-433,934	-200,000	-0,013	-0,068
-432,919	-99,802	-0,104	-0,018
-431,905	428,778	0,075	-0,116
-430,890	-200,000	0,032	-0,101
-429,876	-165,010	0,029	0,001
-428,861	597,042	-0,015	-0,026
-427,846	-110,373	-0,135	-0,020
-426,832	69,211	-0,028	-0,021
-425,817	-200,000	-0,030	-0,162
-424,803	-29,497	0,119	-0,049
-423,788	-200,000	-0,027	0,092
-422,773	-200,000	-0,016	0,066
-421,759	213,550	0,015	-0,018
-420,744	-5,577	0,104	-0,051
-419,730	604,846	-0,054	0,097
-418,715	-10,766	-0,166	0,078
-417,701	-106,345	0,130	-0,021
-416,686	796,724	-0,031	0,062
-415,671	463,173	0,032	-0,052
-414,657	44,071	0,139	0,091
-413,642	800,000	0,028	-0,070
-412,628	56,068	-0,099	0,069
-411,613	529,436	0,077	-0,131
-410,598	324,553	-0,038	-0,053
-409,584	58,057	0,040	-0,028
-408,569	-200,000	0,044	-0,153
-407,555	-116,710	-0,087	-0,011
-406,540	236,487	0,019	-0,023
-405,525	-140,379	0,156	0,011
-404,511	800,000	-0,063	-0,189
-403,496	387,681	0,034	0,050
-402,482	800,000	0,053	-0,114
-401,467	80,960	0,073	-0,057
-400,452	-49,833	0,136	-0,046
-399,438	-200,000	-0,009	-0,085
-398,423	-200,000	0,002	-0,084
-397,409	-77,374	-0,090	-0,022
-396,394	-50,858	0,072	-0,024
-395,379	-0,167	-0,068	0,034
-394,365	800,000	-0,046	0,118
-393,350	-53,797	0,165	0,054
-392,336	-11,957	0,109	0,051
-391,321	109,433	0,064	0,055
-390,306	-200,000	-0,001	-0,014
-389,292	-169,537	0,087	-0,002
-388,277	-34,004	0,030	-0,012
-387,263	800,000	0,072	-0,143
-386,248	-49,451	0,117	-0,040
-385,233	-104,534	-0,135	-0,022
-384,219	-110,592	0,089	-0,013
-383,204	374,841	0,056	-0,083
-382,190	-65,115	-0,095	-0,027
-381,175	-8,058	0,130	-0,063
-380,160	-200,000	0,003	0,085
-379,146	-54,566	-0,081	-0,026
-378,131	-119,449	0,057	-0,007
-377,117	187,006	0,089	0,095
-376,102	156,624	-0,133	-0,132
-375,088	-200,000	-0,002	0,058
-374,073	547,053	0,071	-0,122
-373,058	-79,407	0,112	0,027
-372,044	-200,000	-0,029	0,095
-371,029	241,227	-0,046	0,055
-370,015	-200,000	-0,004	-0,022
-369,000	-185,583	-0,036	-0,000
-367,985	-25,237	-0,215	-0,091
-366,971	800,000	0,008	-0,017
-365,956	800,000	0,051	-0,131
-364,942	295,141	-0,038	-0,050
-363,927	17,115	0,046	-0,026
-362,912	182,674	-0,079	-0,084
-361,898	-105,135	-0,159	-0,026
-360,883	800,000	0,052	-0,106
-359,869	800,000	-0,026	0,056
-358,854	161,813	-0,072	0,072
-357,839	-200,000	0,073	0,254
-356,825	443,146	-0,078	0,122
-355,810	237,105	0,114	0,135
-354,796	800,000	-0,026	-0,066
-353,781	77,517	-0,052	-0,040
-352,766	-81,604	-0,110	-0,026
-351,752	150,686	0,007	0,007
-350,737	-200,000	-0,003	-0,033
-349,723	-200,000	0,002	0,015
-348,708	-200,000	0,016	0,057
-347,693	285,097	0,040	-0,052
-346,679	230,146	-0,042	0,049
-345,664	17,591	-0,039	0,022
-344,650	328,010	-0,020	0,028
-343,635	577,821	0,018	-0,032
-342,620	-200,000	0,030	-0,101
-341,606	-200,000	-0,031	-0,125
-340,591	-137,348	-0,167	0,013
-339,577	-200,000	0,008	0,062
-338,562	-139,705	0,019	0,001
-337,548	-39,705	-0,035	0,013
-336,533	800,000	0,084	0,170
-335,518	155,016	0,077	0,076
-334,504	279,382	-0,125	0,159
-333,489	43,650	-0,086	-0,056
-332,475	36,808	-0,107	-0,068
-331,460	800,000	-0,032	0,079
-330,445	-100,695	0,036	0,006
-329,431	800,000	-0,054	-0,135
-328,416	-200,000	-0,010	0,188
-327,402	614,359	0,109	0,196
-326,387	47,063	-0,085	0,056
-325,372	354,415	0,045	-0,064
-324,358	-104,008	-0,150	0,025
-323,343	84,945	-0,017	-0,013
-322,329	95,451	0,063	-0,051
-321,314	800,000	0,021	0,060
-320,299	16,406	0,140	0,079
-319,285	-200,000	0,010	0,210
-318,270	-200,000	0,006	0,057
-317,256	-200,000	0,014	0,144
-316,241	-200,000	0,027	-0,117
-315,226	-200,000	0,030	0,173
-314,212	-200,000	-0,006	-0,154
-313,197	-143,742	0,045	-0,003
-312,183	79,673	0,116	0,089
-311,168	244,529	0,067	0,080
-310,153	45,755	0,036	0,024
-309,139	93,677	-0,057	-0,046
-308,124	148,306	0,138	-0,133
-307,110	-200,000	-0,000	0,061
-306,095	-111,332	-0,032	-0,005
-305,080	143,447	0,008	0,008
-304,066	8,797	-0,126	0,067
-303,051	-200,000	-0,012	0,042
-302,037	800,000	0,022	-0,055
-301,022	-200,000	0,000	-0,179
-300,008	19,948	-0,209	-0,120
-298,993	226,855	0,097	0,112
-297,978	38,926	0,074	-0,047
-296,964	-50,930	-0,024	0,008
-295,949	166,297	-0,015	0,015
-294,935	61,990	-0,062	0,044
-293,920	261,701	-0,069	0,085
-292,905	-200,000	-0,022	0,139
-291,891	69,970	-0,049	0,036
-290,876	-200,000	0,024	-0,088
-289,862	383,734	0,094	-0,138
-288,847	-200,000	0,009	-0,155
-287,832	-200,000	-0,021	-0,169
-286,818	-200,000	0,022	-0,150
-285,803	-200,000	0,005	0,071
-284,789	126,874	-0,054	0,049
-283,774	-200,000	-0,001	-0,090
-282,759	-123,999	-0,076	0,008
-281,745	-157,651	-0,105	0,004
-280,730	77,609	-0,066	-0,050
-279,716	-4,213	0,096	0,047
-278,701	-200,000	0,040	0,129
-277,686	115,869	0,084	0,074
-276,672	42,877	0,080	0,052
-275,657	-108,518	0,007	0,001
-274,643	-2,490	-0,030	-0,015
-273,628	161,405	0,035	-0,035
-272,613	6,219	0,026	0,014
-271,599	-200,000	0,011	-0,106
-270,584	-103,454	0,070	-0,012
-269,570	614,364	0,042	0,076
-268,555	-200,000	-0,015	0,094
-267,540	37,890	-0,016	0,010
-266,526	800,000	0,049	-0,129
-265,511	-200,000	-0,012	-0,146
-264,497	-200,000	0,027	-0,093
-263,482	800,000	-0,027	-0,081
-262,467	-200,000	-0,014	-0,084
-261,453	62,545	-0,080	-0,057
-260,438	800,000	-0,017	0,035
-259,424	52,862	0,050	-0,034
-258,409	-91,841	0,062	0,012
-257,395	-107,076	0,063	0,010
-256,380	391,442	-0,009	-0,013
-255,365	800,000	-0,028	0,083
-254,351	7,953	0,070	0,037
-253,336	99,632	-0,077	0,064
-252,322	525,218	0,071	-0,120
-251,307	385,957	-0,074	-0,109
-250,292	650,958	0,067	0,122
-249,278	800,000	-0,034	0,074
-248,263	-200,000	-0,008	-0,050
-247,249	800,000	0,058	0,131
-246,234	94,662	0,049	-0,040
-245,219	80,652	-0,071	-0,054
-244,205	-76,948	0,103	0,025
-243,190	-200,000	-0,026	-0,085
-242,176	-132,393	0,156	0,014
-241,161	-39,512	0,037	-0,014
-240,146	800,000	-0,029	0,072
-239,132	-197,028	-0,036	0,000
-238,117	-150,014	-0,101	-0,006
-237,103	-200,000	0,003	-0,111
-236,088	-200,000	0,009	0,057
-235,073	35,786	0,061	-0,038
-234,059	-200,000	-0,004	0,041
-233,044	149,665	0,055	-0,053
-232,030	800,000	-0,043	-0,093
-231,015	-200,000	-0,000	-0,060
-230,000	131,510	0,038	0,035
-228,986	-200,000	0,008	-0,104
-227,971	800,000	0,094	0,216
-226,957	205,696	0,137	0,152
-225,942	203,672	0,077	0,085
-224,927	-200,000	0,005	-0,030
-223,913	-25,872	0,017	0,007
-222,898	800,000	-0,018	0,055
-221,884	800,000	-0,027	-0,062
-220,869	668,325	-0,058	0,107
-219,855	228,744	0,090	0,104
-218,840	800,000	-0,060	0,137
-217,825	356,873	-0,047	0,067
-216,811	-200,000	0,001	0,077
-215,796	800,000	0,034	-0,076
-214,782	-183,976	-0,079	0,001
-213,767	800,000	-0,055	0,112
-212,752	-85,693	0,209	0,046
-211,738	373,270	0,048	0,069
-210,723	800,000	0,014	0,028
-209,709	-200,000	-0,029	0,139
-208,694	-120,772	0,112	-0,013
-207,679	501,488	0,121	-0,199
-206,665	800,000	0,055	0,164
-205,650	-200,000	0,017	0,058
-204,636	-39,821	-0,066	-0,024
-203,621	-200,000	-0,004	0,044
-202,606	-200,000	0,017	0,062
-201,592	800,000	-0,018	-0,037
-200,577	-200,000	-0,003	-0,089
-199,563	-100,302	-0,146	0,026
-198,548	800,000	-0,024	-0,060
-197,533	721,612	-0,034	0,064
-196,519	209,771	-0,151	0,169
-195,504	-200,000	0,015	-0,090
-194,490	-200,000	0,008	-0,035
-193,475	800,000	-0,050	-0,120
-192,460	-200,000	-0,011	-0,130
-191,446	-57,661	0,072	0,022
-190,431	-200,000	-0,020	0,183
-189,417	491,017	0,034	-0,056
-188,402	267,818	-0,081	0,101
-187,387	-200,000	0,000	-0,117
-186,373	800,000	-0,010	0,020
-185,358	261,685	0,043	0,053
-184,344	800,000	0,032	0,073
-183,329	226,146	-0,092	0,107
-182,315	-130,268	-0,124	-0,012
-181,300	180,564	0,079	0,083
-180,285	129,782	-0,073	0,066
-179,271	115,381	-0,070	-0,061
-178,256	-200,000	-0,014	0,114
-177,242	-200,000	-0,036	0,172
-176,227	800,000	-0,041	0,082
-175,212	15,025	0,125	0,069
-174,198	285,666	-0,050	-0,064
-173,183	77,272	-0,147	-0,111
-172,169	-200,000	-0,021	0,153
-171,154	355,640	0,022	-0,031
-170,139	800,000	-0,015	-0,036
-169,125	-200,000	-0,014	0,099
-168,110	257,442	0,033	0,041
-167,096	800,000	-0,012	0,035
-166,081	-200,000	-0,002	-0,086
-165,066	-200,000	-0,009	-0,191
-164,052	-147,710	-0,154	0,009
-163,037	800,000	-0,014	-0,039
-162,023	13,663	-0,065	0,036
-161,008	800,000	0,043	0,134
-159,993	-8,307	0,014	-0,007
-158,979	-44,874	0,082	-0,029
-157,964	-200,000	0,022	-0,088
-156,950	-200,000	0,004	-0,055
-155,935	800,000	0,028	0,083
-154,920	-28,129	0,024	0,010
-153,906	-54,887	0,133	0,042
-152,891	35,593	-0,131	-0,081
-151,877	95,174	-0,052	0,042
-150,862	365,824	-0,030	-0,043
-149,847	95,558	-0,087	-0,070
-148,833	-60,684	-0,109	0,033
-147,818	-200,000	-0,020	0,074
-146,804	-200,000	-0,017	0,056
-145,789	439,689	0,008	-0,013
-144,775	800,000	0,015	0,039
-143,760	190,982	-0,015	0,016
-142,745	239,759	-0,066	-0,079
-141,731	-200,000	-0,064	-0,211
-140,716	85,617	0,077	0,060
-139,702	800,000	0,055	0,131
-138,687	800,000	-0,017	0,041
-137,672	-3,632	0,156	0,077
-136,658	800,000	0,020	-0,043
-135,643	800,000	-0,019	-0,055
-134,629	-200,000	-0,000	0,014
-133,614	-113,224	0,144	0,020
-132,599	27,925	0,017	-0,010
-131,585	40,241	-0,019	0,012
-130,570	-112,177	0,032	-0,005
-129,556	73,447	0,033	-0,024
-128,541	-109,200	0,081	0,012
-127,526	-200,000	0,009	-0,067
-126,512	200,310	-0,056	-0,061
-125,497	-64,037	0,109	-0,031
-124,483	-109,404	0,109	0,016
-123,468	-173,055	-0,149	0,003
-122,453	55,101	-0,131	-0,089
-121,439	-122,052	0,016	0,002
-120,424	-200,000	-0,013	0,053
-119,410	93,471	0,023	0,018
-118,395	-62,798	0,054	0,016
-117,380	-114,170	0,070	-0,009
-116,366	-200,000	0,001	0,098
-115,351	-200,000	0,003	-0,051
-114,337	205,818	-0,072	-0,079
-113,322	-200,000	0,005	-0,094
-112,307	455,103	0,066	-0,104
-111,293	-200,000	0,003	-0,028
-110,278	-200,000	-0,014	-0,056
-109,264	113,311	-0,066	0,057
-108,249	20,292	0,068	0,039
-107,234	14,831	-0,043	-0,024
-106,220	555,254	0,079	0,135
-105,205	44,961	0,039	0,025
-104,191	-156,965	0,203	-0,009
-103,176	150,518	-0,030	0,029
-102,162	-97,518	0,079	0,014
-101,147	-200,000	-0,011	0,053
-100,132	-67,182	0,167	-0,046
-99,118	800,000	-0,025	-0,076
-98,103	800,000	-0,053	-0,116
-97,089	800,000	-0,027	0,081
-96,074	-44,113	-0,050	0,018
-95,059	-200,000	0,004	-0,144
-94,045	-200,000	0,021	-0,150
-93,030	-200,000	-0,018	0,170
-92,016	-20,960	0,039	-0,017
-91,001	800,000	0,022	-0,055
-89,986	-25,605	0,040	0,017
-88,972	800,000	-0,043	0,091
-87,957	566,484	0,039	0,067
-86,943	-54,824	0,018	0,006
-85,928	168,298	-0,098	-0,098
-84,913	-200,000	0,006	-0,194
-83,899	-123,177	0,118	-0,013
-82,884	164,595	0,064	-0,064
-81,870	800,000	-0,010	0,028
-80,855	228,378	-0,097	0,112
-79,840	800,000	-0,037	-0,075
-78,826	469,691	-0,049	-0,078
-77,811	-66,399	0,071	0,020
-76,797	-200,000	-0,006	-0,175
-75,782	131,564	0,012	-0,011
-74,767	-200,000	0,035	0,167
-73,753	371,602	0,008	0,011
-72,738	223,642	0,108	0,123
-71,724	26,773	-0,167	-0,099
-70,709	-145,963	-0,048	0,003
-69,694	71,665	-0,078	-0,057
-68,680	-200,000	0,005	-0,107
-67,665	800,000	0,045	-0,113
-66,651	20,202	0,088	-0,050
-65,636	-174,724	-0,088	0,002
-64,622	43,903	-0,067	-0,043
-63,607	255,614	-0,040	-0,048
-62,592	800,000	-0,036	-0,073
-61,578	225,143	0,154	-0,177
-60,563	-200,000	0,020	-0,098
-59,549	-200,000	-0,008	0,094
-58,534	-15,701	-1,838	-0,825
-57,519	415,540	-1,337	-2,022
-56,505	-200,000	-0,579	-4,520
-55,490	296,757	1,082	1,407
-54,476	800,000	4,888	11,063
-53,461	-200,000	20,022	324,192
-52,446	800,000	750,893	2314,076
-51,432	551,309	1662,387	2831,618
-50,417	75,323	1671,774	1245,338
-49,403	20,109	1544,700	878,622
-48,388	14,100	1466,818	805,108
-47,373	18,363	1456,931	820,227
-46,359	16,402	1446,529	804,952
-45,344	12,389	1442,003	783,194
-44,330	12,298	1440,083	781,684
-43,315	12,295	1438,358	780,700
-42,300	12,287	1436,769	779,769
-41,286	12,351	1435,527	779,370
-40,271	12,283	1434,200	778,295
-39,257	12,243	1432,948	777,393
-38,242	12,331	1431,662	777,083
-37,227	12,297	1430,763	776,402
-36,213	12,305	1429,241	775,587
-35,198	12,285	1428,123	774,855
-34,184	12,360	1427,186	774,668
-33,169	12,243	1425,976	773,426
-32,154	12,370	1424,337	773,108
-31,140	12,390	1423,164	772,537
-30,125	12,383	1422,443	772,081
-29,111	12,335	1421,064	771,076
-28,096	12,334	1420,006	770,466
-27,082	12,310	1418,753	769,642
-26,067	12,263	1417,805	768,878
-25,052	12,251	1416,936	768,318
-24,038	12,268	1415,682	767,687
-23,023	12,246	1414,701	767,022
-22,009	12,216	1413,726	766,323
-20,994	12,214	1412,772	765,766
-19,979	12,253	1412,125	765,564
-18,965	12,165	1411,148	764,596
-17,950	12,233	1410,078	764,302
-16,936	12,206	1408,992	763,558
-15,921	12,194	1408,110	762,990
-14,906	12,192	1407,149	762,431
-13,892	12,190	1406,271	761,917
-12,877	12,180	1405,489	761,417
-11,863	12,170	1404,601	760,859
-10,848	12,134	1403,604	760,119
-9,833	12,131	1402,958	759,728
-8,819	12,095	1401,932	758,972
-7,804	12,078	1401,015	758,365
-6,790	12,083	1399,952	757,782
-5,775	12,058	1398,999	757,123
-4,760	12,077	1397,916	756,593
-3,746	12,098	1396,881	756,100
-2,731	12,047	1396,290	755,516
-1,717	12,052	1395,373	755,014
-0,702	12,039	1393,657	753,994
0,313	16,029	1308,692	726,432
1,327	32,376	699,998	426,116
2,342	50,325	122,099	81,372
3,356	1,393	16,582	8,393
4,371	9,761	3,120	1,666
5,386	-8,126	0,629	0,298
6,400	800,000	0,153	0,386
7,415	-31,095	-0,299	-0,118
8,429	8,200	-0,313	-0,165
9,444	213,720	-0,316	-0,353
10,459	-26,193	-0,354	-0,146
11,473	210,772	-0,151	-0,168
12,488	52,229	-0,350	-0,235
13,502	124,074	-0,323	-0,287
14,517	194,669	-0,275	-0,295
15,531	52,812	-0,346	-0,233
16,546	4,839	-0,398	-0,206
17,561	28,459	-0,454	-0,270
18,575	180,102	-0,138	-0,142
19,590	173,093	-0,247	-0,251
20,604	46,133	-0,239	-0,156
21,619	12,121	-0,474	-0,256
22,634	33,428	-0,396	-0,242
23,648	69,413	-0,341	-0,247
24,663	4,575	-0,496	-0,256
25,677	681,093	-0,190	-0,350
26,692	75,689	-0,255	-0,190
27,707	45,500	-0,420	-0,273
28,721	49,348	-0,409	-0,271
29,736	83,728	-0,262	-0,201
30,750	86,747	-0,484	-0,376
31,765	301,903	-0,276	-0,360
32,780	-38,029	-0,457	-0,170
33,794	177,012	-0,313	-0,321
34,809	45,896	-0,392	-0,255
35,823	131,575	-0,311	-0,281
36,838	19,555	-0,422	-0,239
37,853	68,604	-0,402	-0,290
38,867	25,752	-0,326	-0,191
39,882	69,709	-0,389	-0,282
40,896	-31,687	-0,440	-0,173
41,911	-19,900	-0,359	-0,155
42,926	199,787	-0,303	-0,328
43,940	24,744	-0,417	-0,242
44,955	79,537	-0,505	-0,381
45,969	158,782	-0,292	-0,285
46,984	-76,441	-0,257	-0,063
47,999	52,363	-0,245	-0,164
49,013	118,153	-0,298	-0,259
50,028	64,276	-0,286	-0,202
51,042	9,683	-0,292	-0,155
52,057	74,828	-0,368	-0,272
53,071	495,912	-0,215	-0,349
54,086	44,529	-0,315	-0,203
55,101	1,026	-0,351	-0,176
56,115	-10,293	-0,323	-0,150
57,130	44,842	-0,316	-0,204
58,144	93,360	-0,266	-0,211
59,159	105,602	-0,371	-0,308
60,174	151,077	-0,338	-0,323
61,188	315,974	-0,191	-0,254
62,203	90,410	-0,293	-0,231
63,217	26,910	-0,397	-0,233
64,232	-23,059	-0,285	-0,120
65,247	-58,652	-0,365	-0,110
66,261	68,767	-0,385	-0,278
67,276	120,282	-0,316	-0,275
68,290	127,325	-0,410	-0,365
69,305	36,139	-0,412	-0,254
70,320	-43,387	-0,418	-0,148
71,334	137,576	-0,333	-0,306
72,349	72,662	-0,328	-0,240
73,363	-200,000	-0,474	0,001
74,378	-24,118	-0,297	-0,124
75,393	-64,031	-0,283	-0,081
76,407	230,808	-0,245	-0,282
77,422	-38,243	-0,219	0,081
78,436	16,758	-0,376	-0,208
79,451	69,592	-0,229	-0,166
80,466	195,713	-0,264	-0,282
81,480	160,476	-0,157	-0,153
82,495	22,182	-0,383	-0,219
83,509	150,977	-0,254	-0,242
84,524	149,942	-0,239	-0,228
85,539	-85,189	-0,330	-0,072
86,553	87,591	-0,271	-0,210
87,568	88,009	-0,301	-0,234
88,582	-7,191	-0,344	-0,163
89,597	30,982	-0,246	-0,148
90,611	100,190	-0,299	-0,243
91,626	-14,155	-0,268	-0,120
92,641	27,002	-0,195	-0,114
93,655	-22,235	-0,249	-0,105
94,670	9,792	-0,231	-0,122
95,684	255,162	-0,273	-0,328
96,699	40,068	-0,314	-0,197
97,714	41,922	-0,283	-0,180
98,728	800,000	-0,078	-0,161
99,743	505,280	-0,149	-0,243
100,757	-38,228	-0,280	-0,104
101,772	165,457	-0,167	-0,165
102,787	150,260	-0,297	-0,282
103,801	27,189	-0,275	-0,161
104,816	-130,234	-0,250	-0,024
105,830	-68,546	-0,268	-0,072
106,845	-170,812	-0,289	0,007
107,860	-11,069	-0,137	-0,063
108,874	437,140	-0,243	-0,372
109,889	3,261	-0,251	-0,128
110,903	108,484	-0,265	-0,221
111,918	194,311	-0,230	-0,245
112,933	41,570	-0,312	-0,197
113,947	8,996	-0,225	-0,118
114,962	397,747	-0,175	-0,256
115,976	204,637	-0,186	-0,202
116,991	50,397	-0,430	-0,284
118,006	215,140	-0,253	-0,281
119,020	-54,244	-0,272	-0,086
120,035	32,890	-0,251	-0,152
121,049	57,732	-0,175	-0,119
122,064	75,614	-0,269	-0,199
123,079	569,082	-0,171	-0,292
124,093	-5,112	-0,327	-0,157
125,108	196,427	-0,330	-0,351
126,122	-187,562	-0,245	-0,002
127,137	15,613	-0,276	-0,151
128,151	142,300	-0,173	-0,160
129,166	119,454	-0,267	-0,231
130,181	-157,407	-0,286	-0,012
131,195	141,054	-0,273	-0,252
132,210	-27,950	-0,297	-0,119
133,224	179,065	-0,228	-0,233
134,239	62,902	-0,192	-0,134
135,254	-23,366	-0,310	-0,129
136,268	421,701	-0,116	-0,174
137,283	12,788	-0,299	-0,161
138,297	14,601	-0,414	-0,225
139,312	147,955	-0,200	-0,188
140,327	611,465	-0,134	-0,236
141,341	461,310	-0,184	-0,287
142,356	59,270	-0,213	-0,146
143,370	74,133	-0,109	-0,080
144,385	269,891	-0,181	-0,222
145,400	82,134	-0,214	-0,161
146,414	137,449	-0,276	-0,252
147,429	-3,393	-0,201	-0,098
148,443	-82,133	-0,356	-0,080
149,458	60,886	-0,272	-0,188
150,473	96,174	-0,232	-0,185
151,487	-15,396	-0,291	-0,129
152,502	-25,124	-0,278	-0,114
153,516	38,845	-0,288	-0,179
154,531	328,265	-0,231	-0,310
155,546	148,496	-0,188	-0,177
156,560	367,866	-0,153	-0,215
157,575	432,559	-0,164	-0,249
158,589	-41,335	-0,152	-0,054
159,604	-60,004	-0,218	-0,064
160,619	282,900	-0,196	-0,246
161,633	162,628	-0,210	-0,205
162,648	572,545	-0,077	-0,131
163,662	41,252	-0,163	-0,102
164,677	-3,341	-0,192	-0,093
165,692	-126,490	-0,227	-0,023
166,706	255,146	-0,101	-0,120
167,721	109,802	-0,165	-0,138
168,735	138,591	-0,254	-0,233
169,750	13,022	-0,275	-0,148
170,764	800,000	-0,044	-0,107
171,779	-110,019	-0,208	0,030
172,794	-47,446	-0,196	-0,066
173,808	77,228	-0,194	-0,143
174,823	-40,438	-0,388	-0,139
175,837	406,131	-0,173	-0,255
176,852	24,936	-0,261	-0,150
177,867	79,652	-0,193	-0,144
178,881	-200,000	-0,062	-0,279
179,896	117,532	-0,199	-0,170
180,910	22,958	-0,265	-0,151
181,925	111,283	-0,288	-0,241
182,940	56,106	-0,284	-0,192
183,954	160,473	-0,198	-0,192
184,969	40,711	-0,262	-0,164
185,983	237,939	-0,152	-0,175
186,998	299,768	-0,156	-0,200
188,013	245,236	-0,073	-0,086
189,027	-63,393	-0,401	-0,114
190,042	115,696	-0,257	-0,219
191,056	112,489	-0,207	-0,174
192,071	169,709	-0,135	-0,134
193,086	22,482	-0,204	-0,116
194,100	-4,951	-0,226	-0,108
195,115	32,352	-0,196	-0,117
196,129	164,477	-0,237	-0,233
197,144	360,425	-0,155	-0,217
198,159	148,103	-0,115	-0,108
199,173	265,238	-0,174	-0,211
200,188	458,233	-0,142	-0,221
201,202	35,630	-0,193	-0,117
202,217	800,000	-0,139	-0,354
203,232	110,496	-0,152	-0,127
204,246	217,253	-0,265	-0,293
205,261	800,000	-0,135	-0,300
206,275	183,179	-0,148	-0,151
207,290	207,461	-0,188	-0,204
208,304	800,000	-0,077	-0,195
209,319	45,268	-0,211	-0,135
210,334	10,321	-0,224	-0,118
211,348	136,338	-0,188	-0,170
212,363	40,958	-0,271	-0,169
213,377	-200,000	-0,080	-0,280
214,392	-27,889	-0,185	-0,074
215,407	800,000	-0,063	-0,154
216,421	642,102	-0,153	-0,271
217,436	384,385	-0,115	-0,165
218,450	332,158	-0,183	-0,245
219,465	86,273	-0,208	-0,159
220,480	197,428	-0,115	-0,122
221,494	89,695	-0,166	-0,128
222,509	115,752	-0,220	-0,186
223,523	-56,241	-0,339	-0,104
224,538	-200,000	-0,013	-0,126
225,553	-22,711	-0,220	-0,092
226,567	800,000	-0,060	-0,175
227,582	129,644	-0,172	-0,152
228,596	213,326	-0,209	-0,228
229,611	666,629	-0,090	-0,162
230,626	-91,249	-0,174	-0,034
231,640	-31,524	-0,169	-0,066
232,655	-20,523	-0,213	-0,090
233,669	-12,856	-0,290	-0,130
234,684	-143,680	-0,162	0,010
235,699	110,835	-0,201	-0,167
236,713	279,721	-0,156	-0,193
237,728	-51,899	-0,083	0,027
238,742	43,842	-0,196	-0,124
239,757	114,727	-0,173	-0,146
240,772	800,000	-0,051	-0,131
241,786	22,857	-0,266	-0,150
242,801	186,751	-0,131	-0,135
243,815	800,000	-0,047	-0,119
244,830	-56,364	-0,261	-0,080
245,844	175,003	-0,142	-0,143
246,859	800,000	-0,085	-0,231
247,874	184,595	-0,083	-0,085
248,888	-16,783	-0,266	-0,116
249,903	-65,322	-0,273	-0,075
250,917	-57,749	-0,176	-0,053
251,932	318,499	-0,159	-0,208
252,947	27,030	-0,191	-0,110
253,961	12,023	-0,186	-0,099
254,976	7,830	-0,256	-0,132
255,990	60,102	-0,233	-0,159
257,005	150,575	-0,142	-0,133
258,020	-57,308	-0,161	-0,049
259,034	546,420	-0,030	-0,050
260,049	77,314	-0,183	-0,134
261,063	-200,000	0,005	-0,172
262,078	101,988	-0,147	-0,118
263,093	23,313	-0,329	-0,186
264,107	336,457	-0,222	-0,298
265,122	-184,469	-0,119	0,001
266,136	493,919	-0,138	-0,219
267,151	352,255	-0,163	-0,223
268,166	-68,026	-0,161	-0,043
269,180	545,206	-0,095	-0,157
270,195	173,226	-0,267	-0,265
271,209	800,000	-0,098	-0,274
272,224	347,601	-0,117	-0,159
273,239	437,385	-0,059	-0,089
274,253	-158,392	-0,166	0,007
275,268	-142,740	-0,279	-0,018
276,282	11,521	-0,275	-0,145
277,297	145,123	-0,220	-0,203
278,312	21,224	-0,082	-0,046
279,326	481,332	-0,091	-0,143
280,341	-164,118	-0,237	0,007
281,355	262,585	-0,184	-0,221
282,370	102,987	-0,072	-0,058
283,384	272,992	-0,201	-0,245
284,399	-116,852	-0,140	0,017
285,414	194,509	-0,116	-0,121
286,428	800,000	-0,109	-0,221
287,443	-200,000	0,016	-0,132
288,457	-28,847	-0,128	-0,050
289,472	1,390	-0,175	-0,086
290,487	137,598	-0,196	-0,177
291,501	800,000	-0,054	-0,110
292,516	-37,220	-0,225	-0,083
293,530	-200,000	-0,046	-0,195
294,545	-65,992	-0,167	-0,046
295,560	-72,144	-0,201	-0,051
296,574	161,858	-0,045	-0,043
297,589	307,381	-0,115	-0,148
298,603	-7,049	-0,189	-0,088
299,618	37,783	-0,244	-0,149
300,633	-130,873	-0,163	0,015
301,647	557,789	-0,048	-0,079
302,662	225,100	-0,104	-0,116
303,676	64,868	-0,132	-0,091
304,691	286,487	-0,212	-0,264
305,706	404,666	-0,137	-0,199
306,720	-152,276	-0,182	-0,009
307,735	93,265	-0,147	-0,114
308,749	-178,366	-0,114	0,002
309,764	-127,365	-0,114	0,011
310,779	291,687	-0,126	-0,158
311,793	-200,000	0,004	-0,082
312,808	411,203	-0,124	-0,181
313,822	498,896	-0,182	-0,289
314,837	321,055	-0,120	-0,157
315,852	-200,000	-0,021	-0,103
316,866	598,385	0,034	0,059
317,881	-59,052	-0,183	0,054
318,895	139,051	-0,086	-0,078
319,910	136,885	-0,161	-0,145
320,925	30,571	-0,236	-0,139
321,939	243,986	-0,171	-0,197
322,954	4,403	-0,073	-0,036
323,968	427,987	-0,082	-0,123
324,983	276,339	-0,073	-0,090
325,997	508,665	-0,099	-0,159
327,012	27,313	-0,238	-0,137
328,027	800,000	-0,089	-0,242
329,041	-121,716	-0,102	-0,011
330,056	311,089	-0,197	-0,254
331,070	519,059	-0,044	-0,070
332,085	151,085	-0,072	-0,067
333,100	29,066	-0,183	-0,106
334,114	386,472	-0,072	-0,102
335,129	161,637	-0,163	-0,157
336,143	105,161	-0,207	-0,167
337,158	12,412	-0,117	-0,062
338,173	800,000	-0,052	-0,123
339,187	-25,963	-0,096	-0,038
340,202	23,966	-0,188	-0,106
341,216	800,000	-0,082	-0,236
342,231	650,260	-0,081	-0,142
343,246	-75,148	-0,228	-0,055
344,260	50,196	-0,139	-0,090
345,275	-200,000	-0,015	-0,086
346,289	800,000	0,077	-0,172
347,304	-37,916	-0,264	-0,096
348,319	-200,000	-0,015	-0,152
349,333	39,679	-0,298	-0,183
350,348	-42,795	-0,233	-0,081
351,362	-142,950	-0,202	0,013
352,377	800,000	-0,068	-0,176
353,392	585,692	-0,032	-0,053
354,406	338,799	-0,117	-0,157
355,421	208,793	1315,312	1411,491
356,435	160,663	1476,099	1411,946
