DTS Sentinel unit serial number:	SN410029Multiplexer serial number:	ORYXHardware model number:	OX2-SRSoftware version number:	ORYX F/W v4,00 Oryx Data Collector v3.7.2.0data status	okinstallation	B3 Nyhavnadifferential loss correction	single-endedforward channel	channel 1reverse channel	N/Adate	2023/12/03time	10:42:30forward acquisition time	300,00reverse acquisition time	0,00gamma	499,1914k internal	0,3201k external	0,3201temperature offset calibration	1,0000default loss term (dB/km)	0,3820temperature slope calibration	1,0000multiplexer offset coefficient	1,0000multiplexer slope coefficient	1,0000fibre end	0,00T internal ref (°C)	13,41T ext. ref 1 (°C)	-1,44T ext. ref 2 (°C)	-1,45length (m)	temperature (°C)	Stokes	anti-Stokes-744,400	280,620	-0,157	-0,205
-743,385	-200,000	-0,010	0,375
-742,371	176,466	-0,203	-0,215
-741,356	-200,000	0,023	0,316
-740,342	297,662	-0,100	-0,134
-739,327	-200,000	0,074	0,378
-738,312	415,918	-0,233	-0,363
-737,298	-200,000	-0,005	0,217
-736,283	740,456	-0,126	-0,248
-735,269	-200,000	-0,016	0,240
-734,254	800,000	-0,113	-0,284
-733,239	-55,765	-0,256	0,083
-732,225	136,486	-0,203	-0,192
-731,210	800,000	0,053	0,136
-730,196	-120,547	0,073	0,009
-729,181	-200,000	-0,003	-0,036
-728,167	-147,264	-0,060	0,004
-727,152	213,034	-0,141	-0,162
-726,137	94,657	-0,078	-0,064
-725,123	565,623	0,077	-0,137
-724,108	-106,122	-0,075	0,012
-723,094	191,315	-0,119	-0,131
-722,079	231,635	0,037	-0,045
-721,064	-86,915	-0,029	-0,006
-720,050	58,236	0,045	-0,032
-719,035	-95,018	-0,228	-0,044
-718,021	-200,000	0,010	-0,072
-717,006	-200,000	-0,051	-0,176
-715,991	-200,000	-0,031	-0,139
-714,977	56,049	-0,073	-0,051
-713,962	-200,000	0,001	-0,010
-712,948	-71,833	-0,156	-0,042
-711,933	-200,000	-0,003	0,134
-710,918	-124,321	-0,104	0,012
-709,904	-108,268	0,054	-0,008
-708,889	-100,621	0,058	-0,010
-707,875	333,642	0,033	0,047
-706,860	388,778	-0,042	-0,063
-705,845	282,291	-0,089	-0,116
-704,831	-200,000	-0,004	-0,026
-703,816	800,000	0,058	-0,122
-702,802	-200,000	0,011	-0,263
-701,787	43,625	0,069	-0,046
-700,772	-136,426	0,095	-0,008
-699,758	27,266	0,053	0,032
-698,743	186,837	0,084	0,091
-697,729	800,000	0,027	0,067
-696,714	-141,131	0,046	-0,003
-695,699	269,672	0,037	0,047
-694,685	-85,691	-0,050	0,011
-693,670	-77,765	-0,078	0,020
-692,656	800,000	-0,018	0,048
-691,641	-138,778	-0,110	0,009
-690,627	615,476	-0,042	-0,077
-689,612	800,000	-0,038	-0,081
-688,597	-132,969	0,044	-0,004
-687,583	69,598	-0,203	-0,152
-686,568	800,000	-0,042	-0,131
-685,554	-200,000	-0,028	-0,153
-684,539	800,000	0,047	-0,114
-683,524	-97,860	-0,097	0,018
-682,510	-200,000	0,005	-0,056
-681,495	302,809	-0,087	0,117
-680,481	-24,128	-0,040	-0,017
-679,466	-88,234	0,154	0,033
-678,451	515,928	-0,018	0,031
-677,437	-154,454	-0,251	-0,012
-676,422	-8,417	0,132	0,064
-675,408	-141,296	0,026	-0,002
-674,393	207,322	-0,018	-0,020
-673,378	247,639	0,079	-0,097
-672,364	-56,221	-0,024	-0,008
-671,349	-200,000	0,040	-0,194
-670,335	166,851	-0,075	0,078
-669,320	800,000	0,033	0,101
-668,305	-200,000	-0,001	0,059
-667,291	5,897	0,062	-0,033
-666,276	-200,000	-0,002	-0,103
-665,262	800,000	-0,049	-0,128
-664,247	569,558	-0,058	-0,103
-663,232	44,194	0,056	0,037
-662,218	127,114	0,097	0,089
-661,203	451,956	0,053	0,086
-660,189	117,977	-0,062	0,055
-659,174	305,132	-0,148	-0,200
-658,159	-200,000	0,026	-0,098
-657,145	-127,184	-0,043	-0,004
-656,130	62,075	-0,139	-0,100
-655,116	254,248	0,051	-0,064
-654,101	-152,343	0,115	0,006
-653,086	84,263	-0,035	0,028
-652,072	-200,000	0,010	-0,084
-651,057	800,000	0,038	-0,106
-650,043	316,186	-0,065	-0,089
-649,028	-200,000	0,002	0,050
-648,014	-7,262	0,011	0,005
-646,999	44,790	-0,130	-0,087
-645,984	-143,031	0,102	-0,007
-644,970	159,783	0,055	-0,055
-643,955	-38,641	0,128	-0,049
-642,941	-85,060	-0,155	0,035
-641,926	-90,663	-0,087	0,018
-640,911	800,000	-0,032	-0,085
-639,897	109,652	-0,059	0,051
-638,882	15,723	0,029	-0,016
-637,868	-0,462	0,058	-0,030
-636,853	782,838	0,060	0,120
-635,838	565,420	0,040	-0,071
-634,824	157,288	-0,055	-0,056
-633,809	-136,047	0,126	0,011
-632,795	-38,192	0,039	-0,015
-631,780	-14,376	-0,149	-0,069
-630,765	-71,463	0,035	-0,009
-629,751	504,785	-0,100	-0,168
-628,736	24,225	-0,062	0,037
-627,722	-50,222	0,094	-0,032
-626,707	29,075	0,130	-0,079
-625,692	211,016	0,073	-0,083
-624,678	800,000	0,032	-0,097
-623,663	-39,550	-0,116	-0,044
-622,649	-18,244	-0,068	-0,030
-621,634	800,000	0,017	0,036
-620,619	101,333	-0,056	-0,047
-619,605	-79,224	0,084	0,021
-618,590	-55,553	-0,005	0,002
-617,576	-49,314	0,058	0,020
-616,561	-126,825	0,038	-0,004
-615,546	800,000	-0,070	-0,200
-614,532	541,034	-0,059	-0,102
-613,517	-200,000	-0,001	-0,022
-612,503	-200,000	0,005	0,046
-611,488	113,410	-0,103	-0,091
-610,474	8,817	0,193	0,105
-609,459	5,446	-0,037	0,020
-608,444	687,688	-0,065	-0,124
-607,430	591,288	0,023	0,042
-606,415	313,199	-0,047	0,064
-605,401	-99,246	0,115	0,021
-604,386	15,088	-0,046	-0,026
-603,371	-200,000	0,020	-0,092
-602,357	81,440	0,147	0,115
-601,342	-200,000	-0,017	-0,152
-600,328	324,756	-0,054	-0,075
-599,313	30,076	-0,064	-0,039
-598,298	-200,000	0,006	-0,071
-597,284	-200,000	-0,007	0,065
-596,269	64,358	0,027	0,020
-595,255	300,150	-0,049	0,066
-594,240	74,971	0,038	0,029
-593,225	11,163	-0,030	0,016
-592,211	731,957	-0,002	0,003
-591,196	41,888	-0,026	0,017
-590,182	-41,667	-0,082	-0,030
-589,167	638,691	0,060	0,110
-588,152	8,255	-0,009	0,005
-587,138	290,365	-0,031	-0,041
-586,123	79,332	-0,110	-0,085
-585,109	125,161	-0,067	-0,061
-584,094	-18,260	-0,051	-0,023
-583,079	-200,000	-0,001	0,013
-582,065	-63,274	0,034	-0,010
-581,050	-119,951	-0,107	-0,013
-580,036	-32,699	0,071	-0,029
-579,021	800,000	-0,073	-0,169
-578,006	-47,324	-0,113	-0,040
-576,992	167,319	-0,082	-0,084
-575,977	-49,149	0,054	-0,019
-574,963	-200,000	-0,010	-0,076
-573,948	-147,357	0,085	-0,005
-572,934	800,000	-0,039	0,103
-571,919	-26,936	0,101	-0,042
-570,904	-200,000	-0,025	0,157
-569,890	20,542	-0,058	-0,034
-568,875	-200,000	-0,023	-0,097
-567,861	101,180	-0,054	0,045
-566,846	238,561	-0,056	0,068
-565,831	-21,279	0,106	-0,047
-564,817	490,648	-0,011	-0,019
-563,802	-7,669	-0,033	0,016
-562,788	3,063	-0,047	0,025
-561,773	539,992	-0,071	0,123
-560,758	-55,750	0,080	0,026
-559,744	409,195	0,076	0,116
-558,729	800,000	-0,030	-0,067
-557,715	800,000	-0,056	-0,140
-556,700	-200,000	-0,047	-0,151
-555,685	248,887	0,090	-0,110
-554,671	63,636	-0,043	0,031
-553,656	363,738	-0,076	0,110
-552,642	265,569	0,011	0,014
-551,627	-111,717	0,137	-0,020
-550,612	-46,791	-0,167	-0,059
-549,598	-200,000	-0,032	-0,116
-548,583	70,431	-0,024	0,018
-547,569	-186,679	0,144	-0,001
-546,554	800,000	0,015	-0,040
-545,539	-20,772	0,105	0,046
-544,525	-200,000	-0,031	0,120
-543,510	3,240	-0,070	-0,037
-542,496	-68,918	-0,092	0,025
-541,481	67,774	-0,128	-0,095
-540,466	20,124	0,023	-0,013
-539,452	120,379	-0,071	0,063
-538,437	-76,992	-0,007	-0,002
-537,423	-200,000	0,029	-0,102
-536,408	-148,814	-0,072	0,004
-535,393	10,749	-0,058	-0,032
-534,379	492,043	-0,011	-0,019
-533,364	688,611	-0,046	-0,087
-532,350	-102,930	-0,058	0,010
-531,335	44,853	-0,068	0,045
-530,321	64,776	-0,034	0,025
-529,306	-198,370	-0,074	0,000
-528,291	99,956	-0,036	0,030
-527,277	115,905	-0,018	-0,016
-526,262	-200,000	0,001	-0,004
-525,248	-121,996	0,081	-0,010
-524,233	51,605	0,097	0,066
-523,218	-64,094	0,062	0,018
-522,204	-0,253	0,043	0,022
-521,189	-122,972	-0,035	-0,004
-520,175	-142,153	-0,111	0,008
-519,160	687,810	-0,061	-0,116
-518,145	115,021	0,098	-0,086
-517,131	-200,000	-0,012	0,054
-516,116	42,344	0,054	0,035
-515,102	288,960	-0,052	-0,069
-514,087	617,678	0,015	-0,027
-513,072	400,631	-0,029	0,043
-512,058	6,495	-0,116	-0,062
-511,043	-2,757	0,099	-0,050
-510,029	-121,774	0,066	0,008
-509,014	151,156	0,046	-0,045
-507,999	-200,000	-0,026	0,109
-506,985	115,057	0,011	0,010
-505,970	116,560	-0,098	-0,087
-504,956	114,350	0,026	-0,022
-503,941	-13,203	-0,125	-0,058
-502,926	800,000	-0,017	0,038
-501,912	-54,081	0,096	-0,031
-500,897	800,000	-0,012	0,032
-499,883	-200,000	-0,012	0,062
-498,868	-200,000	0,017	-0,196
-497,853	-200,000	-0,034	-0,138
-496,839	800,000	0,032	0,065
-495,824	-15,622	0,096	0,044
-494,810	-197,964	0,124	0,001
-493,795	-56,642	0,049	-0,015
-492,781	800,000	-0,016	-0,049
-491,766	800,000	-0,059	0,146
-490,751	34,059	0,142	-0,089
-489,737	-80,218	-0,123	0,030
-488,722	800,000	-0,066	0,164
-487,708	800,000	0,083	0,201
-486,693	-29,461	-0,044	0,018
-485,678	452,442	-0,039	-0,063
-484,664	800,000	0,027	-0,085
-483,649	-200,000	-0,001	0,014
-482,635	520,260	-0,024	-0,041
-481,620	301,521	-0,047	-0,062
-480,605	478,211	-0,017	0,028
-479,591	54,200	0,154	0,106
-478,576	-200,000	-0,004	0,131
-477,562	-200,000	-0,011	-0,041
-476,547	93,562	-0,104	0,085
-475,532	185,923	-0,032	0,034
-474,518	564,532	0,080	0,140
-473,503	-36,263	0,034	0,013
-472,489	-200,000	0,015	0,103
-471,474	188,364	0,025	-0,027
-470,459	-9,936	0,044	0,021
-469,445	276,777	0,045	-0,057
-468,430	33,866	-0,030	0,019
-467,416	-111,483	0,073	0,011
-466,401	-200,000	0,047	0,162
-465,386	-123,624	0,101	0,011
-464,372	609,192	-0,055	0,099
-463,357	47,430	-0,068	0,045
-462,343	-47,368	-0,079	0,028
-461,328	-28,696	-0,036	0,015
-460,313	-30,519	0,046	0,019
-459,299	-200,000	0,004	-0,013
-458,284	109,624	-0,086	-0,074
-457,270	154,464	-0,030	-0,030
-456,255	-88,223	-0,064	-0,014
-455,241	351,527	-0,056	0,081
-454,226	800,000	-0,046	0,104
-453,211	-200,000	-0,001	0,018
-452,197	286,886	0,039	-0,051
-451,182	166,543	-0,047	0,048
-450,168	-200,000	-0,001	0,150
-449,153	26,637	-0,115	-0,069
-448,138	-23,963	0,152	0,065
-447,124	-200,000	-0,059	-0,202
-446,109	-200,000	-0,015	-0,121
-445,095	-101,844	0,069	-0,012
-444,080	-119,427	0,153	0,019
-443,065	375,263	-0,053	-0,077
-442,051	-170,511	0,197	0,005
-441,036	107,296	-0,032	-0,027
-440,022	36,898	-0,049	-0,031
-439,007	241,092	0,077	-0,093
-437,992	-164,357	0,044	-0,001
-436,978	-10,041	-0,109	0,052
-435,963	520,066	-0,034	0,058
-434,949	-168,016	0,190	-0,005
-433,934	156,751	-0,059	-0,059
-432,919	-200,000	0,014	-0,078
-431,905	-57,146	-0,073	-0,023
-430,890	240,964	0,048	0,058
-429,876	-200,000	-0,000	-0,036
-428,861	75,997	0,085	0,065
-427,846	-50,979	-0,078	0,026
-426,832	-200,000	-0,016	0,114
-425,817	232,328	0,087	-0,103
-424,803	-200,000	0,014	0,045
-423,788	800,000	-0,032	0,078
-422,773	329,136	0,041	0,056
-421,759	229,132	-0,057	0,067
-420,744	127,202	0,035	-0,032
-419,730	-57,539	-0,184	0,058
-418,715	111,870	0,071	-0,062
-417,701	-144,046	-0,054	-0,004
-416,686	-200,000	0,004	0,121
-415,671	800,000	0,024	0,075
-414,657	49,241	0,114	0,077
-413,642	-53,601	0,138	0,045
-412,628	-200,000	0,029	-0,096
-411,613	223,919	-0,091	-0,105
-410,598	-200,000	-0,016	-0,058
-409,584	-200,000	-0,011	0,104
-408,569	-24,313	0,118	0,050
-407,555	399,817	0,011	-0,016
-406,540	-200,000	-0,016	-0,111
-405,525	800,000	-0,027	-0,085
-404,511	-200,000	-0,002	0,138
-403,496	-200,000	-0,014	-0,070
-402,482	-11,045	-0,013	0,006
-401,467	-200,000	-0,004	-0,039
-400,452	311,035	-0,016	0,022
-399,438	54,145	-0,084	-0,058
-398,423	-160,751	0,135	0,005
-397,409	-200,000	0,019	0,071
-396,394	-152,925	-0,031	-0,002
-395,379	7,228	0,131	0,070
-394,365	419,267	-0,052	0,080
-393,350	446,063	0,030	-0,048
-392,336	4,002	0,040	0,021
-391,321	-61,110	0,093	0,028
-390,306	-64,971	-0,059	-0,017
-389,292	-200,000	-0,026	-0,153
-388,277	55,809	-0,071	0,050
-387,263	214,183	0,035	-0,039
-386,248	-112,832	0,010	0,001
-385,233	-200,000	0,030	0,120
-384,219	-200,000	0,040	-0,193
-383,204	133,365	-0,043	-0,039
-382,190	-200,000	-0,034	-0,128
-381,175	536,521	-0,043	-0,073
-380,160	-164,379	0,150	0,005
-379,146	-200,000	0,002	-0,019
-378,131	-200,000	0,029	0,126
-377,117	800,000	0,037	-0,088
-376,102	-52,987	-0,029	-0,010
-375,088	53,704	-0,074	0,051
-374,073	6,403	-0,044	0,024
-373,058	-27,336	-0,070	0,029
-372,044	215,877	0,085	0,097
-371,029	371,596	-0,105	0,153
-370,015	-36,590	0,093	0,036
-369,000	48,979	0,145	-0,097
-367,985	169,721	0,018	-0,018
-366,971	83,474	0,081	-0,063
-365,956	473,273	0,079	0,128
-364,942	800,000	0,021	0,062
-363,927	-200,000	0,015	0,149
-362,912	392,808	0,046	0,069
-361,898	-41,213	0,149	-0,055
-360,883	231,066	-0,022	0,026
-359,869	104,711	0,103	-0,087
-358,854	-200,000	-0,001	0,040
-357,839	-59,184	0,092	-0,028
-356,825	800,000	0,016	0,050
-355,810	31,231	-0,108	-0,066
-354,796	-109,726	0,201	-0,030
-353,781	-200,000	0,004	-0,074
-352,766	16,885	-0,086	0,049
-351,752	-200,000	0,036	-0,178
-350,737	-200,000	-0,002	0,066
-349,723	-106,062	0,185	-0,030
-348,708	-111,303	-0,204	0,030
-347,693	-200,000	0,003	-0,015
-346,679	-200,000	-0,002	-0,049
-345,664	122,337	0,012	0,011
-344,650	-200,000	-0,028	-0,131
-343,635	-2,353	0,080	-0,040
-342,620	-179,571	-0,147	0,002
-341,606	-200,000	0,036	0,135
-340,591	-65,974	-0,097	0,028
-339,577	-200,000	-0,008	-0,075
-338,562	116,694	-0,064	0,056
-337,548	-65,585	0,097	-0,028
-336,533	205,751	0,039	-0,043
-335,518	800,000	-0,028	0,080
-334,504	-66,703	-0,041	-0,012
-333,489	217,692	0,082	-0,093
-332,475	271,512	-0,010	0,012
-331,460	-96,580	-0,131	-0,024
-330,445	-200,000	0,021	0,102
-329,431	388,362	-0,017	-0,025
-328,416	235,947	0,014	0,016
-327,402	-200,000	-0,027	0,101
-326,387	110,616	0,073	-0,063
-325,372	-118,054	-0,198	0,025
-324,358	-200,000	0,002	0,010
-323,343	104,485	0,033	-0,028
-322,329	-200,000	-0,013	0,103
-321,314	-110,682	-0,096	0,014
-320,299	110,285	-0,077	0,066
-319,285	-200,000	0,010	0,096
-318,270	-200,000	-0,003	-0,030
-317,256	-155,636	-0,071	0,003
-316,241	800,000	0,010	-0,028
-315,226	142,672	-0,084	0,080
-314,212	61,484	0,149	0,106
-313,197	307,497	-0,028	0,038
-312,183	-200,000	0,022	0,098
-311,168	-131,050	-0,068	0,006
-310,153	108,521	0,086	0,073
-309,139	-86,261	0,081	-0,018
-308,124	800,000	-0,051	0,141
-307,110	68,472	0,137	0,100
-306,095	-191,564	-0,159	-0,001
-305,080	-3,184	0,143	-0,071
-304,066	-2,968	-0,096	-0,048
-303,051	-200,000	0,011	-0,265
-302,037	-50,280	0,020	-0,007
-301,022	202,788	-0,026	-0,029
-300,008	-15,238	0,086	0,039
-298,993	-140,858	0,106	-0,008
-297,978	124,440	0,062	-0,056
-296,964	-200,000	-0,008	0,075
-295,949	301,470	-0,041	0,055
-294,935	800,000	0,036	-0,080
-293,920	3,267	-0,069	-0,036
-292,905	257,727	0,076	0,094
-291,891	-58,134	0,120	-0,037
-290,876	-197,098	-0,035	-0,000
-289,862	160,453	-0,123	-0,123
-288,847	-2,547	-0,160	-0,080
-287,832	565,483	-0,020	-0,035
-286,818	409,212	-0,057	0,086
-285,803	800,000	0,046	-0,110
-284,789	40,835	0,085	0,054
-283,774	243,613	0,079	-0,094
-282,759	197,444	0,011	0,012
-281,745	-15,094	-0,082	0,037
-280,730	485,780	-0,083	-0,135
-279,716	-143,733	0,122	-0,008
-278,701	8,678	0,013	-0,007
-277,686	-124,801	0,025	0,003
-276,672	800,000	-0,091	0,191
-275,657	-20,808	0,116	0,050
-274,643	-102,941	-0,111	0,019
-273,628	-83,073	0,036	-0,008
-272,613	-112,874	-0,160	0,022
-271,599	-53,708	0,090	0,029
-270,584	-180,291	0,085	-0,001
-269,570	-200,000	0,003	0,145
-268,555	188,465	-0,037	0,040
-267,540	-112,051	-0,121	-0,017
-266,526	20,974	-0,064	0,037
-265,511	-200,000	0,112	-0,000
-264,497	385,350	0,025	-0,038
-263,482	-87,726	0,076	0,016
-262,467	180,724	0,060	0,063
-261,453	-200,000	-0,016	-0,088
-260,438	-82,767	-0,058	-0,013
-259,424	-200,000	0,002	0,014
-258,409	-23,116	-0,060	0,026
-257,395	-28,873	0,070	-0,029
-256,380	223,296	0,070	-0,081
-255,365	-200,000	0,017	0,065
-254,351	800,000	-0,043	0,101
-253,336	-74,483	-0,168	0,043
-252,322	80,839	-0,069	-0,053
-251,307	-190,233	-0,102	-0,001
-250,292	70,267	-0,145	-0,107
-249,278	702,962	-0,042	0,079
-248,263	457,590	0,088	0,139
-247,249	797,302	0,034	0,067
-246,234	-102,562	-0,050	-0,008
-245,219	-101,364	0,087	-0,015
-244,205	800,000	-0,029	0,066
-243,190	99,645	0,129	-0,106
-242,176	-104,600	-0,096	-0,016
-241,161	138,730	-0,040	0,037
-240,146	-200,000	0,003	-0,025
-239,132	-22,468	0,073	-0,031
-238,117	-200,000	-0,032	-0,189
-237,103	-200,000	-0,000	-0,092
-236,088	96,166	-0,047	-0,038
-235,073	-32,404	-0,102	-0,040
-234,059	-200,000	0,040	0,186
-233,044	-200,000	-0,011	0,180
-232,030	686,017	-0,037	-0,069
-231,015	-200,000	-0,021	-0,143
-230,000	-129,811	-0,107	-0,010
-228,986	-200,000	-0,002	0,012
-227,971	581,225	0,066	0,115
-226,957	800,000	-0,025	0,052
-225,942	-200,000	-0,003	0,056
-224,927	-200,000	-0,005	-0,039
-223,913	-200,000	-0,049	-0,198
-222,898	-200,000	0,022	0,092
-221,884	746,001	-0,058	0,113
-220,869	535,588	0,019	0,032
-219,855	407,813	0,061	-0,092
-218,840	-200,000	0,016	-0,058
-217,825	552,213	0,042	-0,072
-216,811	26,595	-0,031	-0,018
-215,796	-200,000	-0,039	-0,192
-214,782	792,713	-0,061	-0,121
-213,767	-200,000	0,010	-0,038
-212,752	436,863	0,017	-0,026
-211,738	2,289	0,170	-0,087
-210,723	-200,000	0,005	-0,060
-209,709	51,655	-0,040	-0,027
-208,694	574,175	-0,040	0,070
-207,679	-200,000	-0,015	0,056
-206,665	-30,966	0,091	0,037
-205,650	-200,000	0,033	0,119
-204,636	-200,000	0,024	0,113
-203,621	-200,000	-0,005	0,116
-202,606	-77,818	0,070	0,017
-201,592	92,717	0,039	-0,031
-200,577	-16,692	-0,213	-0,095
-199,563	-200,000	0,004	0,022
-198,548	-59,049	-0,026	-0,008
-197,533	128,575	0,081	0,074
-196,519	230,096	0,083	-0,097
-195,504	-41,827	-0,105	-0,038
-194,490	605,176	0,029	0,051
-193,475	-200,000	0,019	-0,098
-192,460	-200,000	-0,005	0,189
-191,446	-200,000	0,057	0,222
-190,431	-200,000	0,026	0,155
-189,417	800,000	-0,030	0,074
-188,402	226,903	-0,084	-0,098
-187,387	375,522	-0,061	-0,089
-186,373	403,669	-0,021	0,031
-185,358	241,160	-0,068	-0,081
-184,344	405,819	-0,035	0,053
-183,329	118,108	0,072	0,063
-182,315	682,794	-0,075	-0,139
-181,300	-9,284	0,095	-0,045
-180,285	-135,114	-0,122	-0,010
-179,271	-45,230	0,027	0,009
-178,256	194,219	-0,028	-0,030
-177,242	277,183	-0,061	-0,077
-176,227	151,779	0,052	0,051
-175,212	-200,000	-0,016	0,112
-174,198	-200,000	0,008	-0,035
-173,183	800,000	0,066	0,151
-172,169	130,751	0,109	0,100
-171,154	278,998	-0,064	0,082
-170,139	70,760	0,103	0,076
-169,125	235,474	0,077	0,091
-168,110	-200,000	0,002	-0,041
-167,096	800,000	0,030	0,067
-166,081	306,485	-0,032	-0,042
-165,066	348,340	0,056	0,078
-164,052	-88,044	0,053	0,011
-163,037	-2,935	0,055	0,027
-162,023	637,800	0,046	-0,083
-161,008	800,000	0,011	-0,029
-159,993	-130,376	-0,032	-0,003
-158,979	330,444	-0,048	0,066
-157,964	-49,287	-0,119	-0,040
-156,950	-25,749	0,127	-0,053
-155,935	-98,476	0,133	-0,024
-154,920	800,000	0,054	0,144
-153,906	-200,000	-0,015	-0,090
-152,891	-200,000	0,000	-0,011
-151,877	-49,593	-0,040	0,014
-150,862	800,000	0,010	-0,026
-149,847	-200,000	0,001	0,026
-148,833	-200,000	-0,039	0,178
-147,818	77,740	0,116	0,088
-146,804	534,315	-0,051	0,086
-145,789	89,332	0,194	0,154
-144,775	-139,770	-0,120	0,009
-143,760	19,615	-0,085	0,049
-142,745	52,013	0,021	0,014
-141,731	-143,914	0,035	-0,002
-140,716	361,603	0,093	-0,133
-139,702	-84,625	0,102	-0,023
-138,687	102,176	-0,181	0,150
-137,672	16,878	-0,113	0,063
-136,658	73,191	-0,036	-0,027
-135,643	-62,840	0,060	0,018
-134,629	-200,000	0,006	0,095
-133,614	107,868	-0,095	0,080
-132,599	124,002	-0,043	-0,039
-131,585	163,580	-0,022	0,022
-130,570	28,724	-0,050	-0,030
-129,556	138,445	0,051	-0,048
-128,541	-200,000	-0,035	-0,128
-127,526	-142,010	0,039	-0,003
-126,512	800,000	-0,024	0,050
-125,497	-32,614	0,103	-0,041
-124,483	84,737	-0,020	-0,016
-123,468	21,604	-0,057	0,033
-122,453	164,919	-0,099	-0,099
-121,439	-100,696	0,057	-0,010
-120,424	-200,000	0,005	-0,092
-119,410	-49,097	0,013	-0,004
-118,395	-200,000	0,031	0,120
-117,380	224,650	-0,100	0,114
-116,366	-74,036	0,075	0,019
-115,351	-90,967	-0,111	0,023
-114,337	112,520	-0,051	-0,044
-113,322	800,000	0,042	-0,121
-112,307	55,238	-0,009	-0,006
-111,293	24,143	0,152	0,089
-110,278	-200,000	-0,003	-0,126
-109,264	800,000	-0,031	-0,079
-108,249	-100,190	-0,126	-0,022
-107,234	-183,295	-0,100	-0,001
-106,220	-200,000	-0,027	-0,136
-105,205	666,260	-0,089	-0,163
-104,191	-200,000	0,003	-0,061
-103,176	72,818	0,058	-0,043
-102,162	228,849	0,046	0,053
-101,147	73,728	-0,050	-0,037
-100,132	-44,192	-0,091	0,032
-99,118	49,075	-0,082	0,055
-98,103	-200,000	0,013	-0,069
-97,089	-11,916	-0,106	-0,049
-96,074	-16,356	0,105	0,047
-95,059	-200,000	0,005	0,148
-94,045	-36,952	-0,124	0,047
-93,030	-56,283	-0,104	-0,033
-92,016	-124,720	-0,065	0,007
-91,001	43,272	0,047	-0,031
-89,986	-16,184	0,125	-0,056
-88,972	83,899	0,097	0,075
-87,957	-200,000	-0,007	0,052
-86,943	451,132	-0,086	-0,136
-85,928	800,000	-0,029	-0,067
-84,913	-63,880	-0,056	0,016
-83,899	800,000	-0,072	-0,141
-82,884	670,534	0,026	0,048
-81,870	-66,230	0,071	0,020
-80,855	197,244	0,091	-0,099
-79,840	-119,542	-0,097	0,012
-78,826	56,610	-0,062	0,043
-77,811	800,000	-0,030	-0,079
-76,797	56,049	0,096	0,066
-75,782	115,203	0,014	0,012
-74,767	32,769	-0,049	-0,030
-73,753	-99,781	-0,075	-0,013
-72,738	-93,548	-0,037	0,007
-71,724	-200,000	-0,002	-0,041
-70,709	-200,000	0,008	-0,044
-69,694	115,674	-0,051	-0,044
-68,680	140,269	0,065	-0,061
-67,665	-90,217	0,148	-0,030
-66,651	81,424	0,152	0,116
-65,636	-46,259	0,127	0,044
-64,622	-200,000	-0,023	-0,082
-63,607	-200,000	0,001	-0,153
-62,592	-200,000	0,022	-0,088
-61,578	800,000	0,059	0,117
-60,563	-200,000	0,034	0,161
-59,549	54,463	-0,148	0,101
-58,534	-2,338	-1,577	-0,781
-57,519	449,266	-1,305	-2,045
-56,505	-200,000	-0,484	-4,607
-55,490	259,872	1,067	1,307
-54,476	800,000	4,856	10,870
-53,461	-200,000	19,033	319,103
-52,446	-200,000	739,736	2335,057
-51,432	575,312	1654,853	2872,108
-50,417	78,517	1671,110	1263,180
-49,403	21,427	1544,021	886,377
-48,388	15,242	1466,373	811,724
-47,373	17,978	1456,415	819,402
-46,359	16,722	1446,615	807,835
-45,344	13,558	1441,786	789,949
-44,330	13,485	1439,945	788,560
-43,315	13,531	1438,031	787,700
-42,300	13,464	1436,566	786,544
-41,286	13,490	1435,208	785,893
-40,271	13,447	1433,948	784,971
-39,257	13,449	1432,652	784,238
-38,242	13,469	1431,401	783,619
-37,227	13,477	1430,122	782,924
-36,213	13,516	1428,709	782,306
-35,198	13,520	1427,704	781,740
-34,184	13,529	1426,787	781,253
-33,169	13,497	1425,373	780,294
-32,154	13,585	1424,077	779,973
-31,140	13,546	1423,036	779,184
-30,125	13,553	1421,997	778,619
-29,111	13,507	1420,851	777,744
-28,096	13,460	1419,924	776,984
-27,082	13,447	1418,756	776,253
-26,067	13,421	1417,656	775,498
-25,052	13,460	1416,416	774,972
-24,038	13,458	1415,337	774,341
-23,023	13,421	1414,493	773,673
-22,009	13,458	1413,477	773,259
-20,994	13,409	1412,472	772,450
-19,979	13,370	1411,857	771,900
-18,965	13,388	1410,725	771,333
-17,950	13,395	1409,864	770,869
-16,936	13,382	1408,752	770,166
-15,921	13,379	1407,658	769,523
-14,906	13,351	1406,927	768,965
-13,892	13,367	1406,053	768,529
-12,877	13,345	1405,102	767,876
-11,863	13,320	1404,031	767,146
-10,848	13,283	1403,618	766,718
-9,833	13,326	1402,394	766,219
-8,819	13,261	1401,545	765,423
-7,804	13,300	1400,686	765,103
-6,790	13,259	1399,465	764,216
-5,775	13,255	1398,539	763,662
-4,760	13,283	1397,496	763,190
-3,746	13,235	1396,559	762,426
-2,731	13,218	1395,884	761,950
-1,717	13,191	1395,052	761,340
-0,702	13,206	1393,286	760,414
0,313	17,074	1310,141	732,947
1,327	33,221	704,076	431,228
2,342	51,277	123,404	82,749
3,356	3,332	16,642	8,545
4,371	-0,356	3,141	1,574
5,386	-57,676	0,534	0,164
6,400	-1,146	0,055	0,028
7,415	-200,000	-0,027	-0,211
8,429	-13,855	-0,306	-0,139
9,444	3,741	-0,375	-0,193
10,459	213,824	-0,269	-0,301
11,473	90,116	-0,393	-0,310
12,488	77,840	-0,410	-0,308
13,502	1,467	-0,340	-0,172
14,517	109,695	-0,284	-0,241
15,531	119,116	-0,354	-0,309
16,546	10,277	-0,376	-0,202
17,561	104,940	-0,331	-0,276
18,575	-128,426	-0,383	-0,038
19,590	200,479	-0,289	-0,315
20,604	-3,907	-0,241	0,118
21,619	19,295	-0,566	-0,320
22,634	154,391	-0,472	-0,458
23,648	32,590	-0,393	-0,240
24,663	72,385	-0,462	-0,340
25,677	38,937	-0,333	-0,210
26,692	-68,468	-0,335	-0,091
27,707	134,963	-0,326	-0,299
28,721	-56,250	-0,432	-0,135
29,736	-41,924	-0,522	-0,188
30,750	227,750	-0,506	-0,582
31,765	43,625	-0,326	-0,210
32,780	268,605	-0,281	-0,349
33,794	176,885	-0,323	-0,332
34,809	14,812	-0,472	-0,260
35,823	95,251	-0,370	-0,297
36,838	1,108	-0,508	-0,256
37,853	85,808	-0,389	-0,302
38,867	58,813	-0,352	-0,244
39,882	183,993	-0,258	-0,269
40,896	127,082	-0,328	-0,293
41,911	42,227	-0,313	-0,200
42,926	223,546	-0,300	-0,342
43,940	34,094	-0,436	-0,267
44,955	156,360	-0,232	-0,225
45,969	175,633	-0,247	-0,253
46,984	-44,531	-0,314	-0,110
47,999	112,409	-0,354	-0,302
49,013	218,738	-0,293	-0,331
50,028	132,969	-0,305	-0,278
51,042	-18,704	-0,364	-0,159
52,057	237,011	-0,270	-0,315
53,071	4,786	-0,271	-0,140
54,086	233,636	-0,260	-0,302
55,101	2,727	-0,386	-0,197
56,115	-75,020	-0,487	-0,122
57,130	-32,756	-0,357	-0,139
58,144	79,332	-0,276	-0,208
59,159	70,033	-0,481	-0,349
60,174	398,082	-0,240	-0,354
61,188	49,572	-0,353	-0,234
62,203	65,481	-0,381	-0,271
63,217	79,187	-0,221	-0,167
64,232	344,703	-0,202	-0,280
65,247	134,483	-0,319	-0,291
66,261	4,263	-0,468	-0,240
67,276	14,878	-0,463	-0,254
68,290	-80,365	-0,351	-0,082
69,305	129,741	-0,226	-0,203
70,320	19,742	-0,349	-0,197
71,334	78,777	-0,280	-0,211
72,349	98,716	-0,209	-0,169
73,363	-29,407	-0,395	-0,158
74,378	24,243	-0,301	-0,175
75,393	65,893	-0,388	-0,276
76,407	20,937	-0,204	-0,116
77,422	20,088	-0,280	-0,158
78,436	80,826	-0,311	-0,236
79,451	89,002	-0,254	-0,199
80,466	-12,749	-0,312	-0,142
81,480	357,618	-0,213	-0,299
82,495	330,010	-0,174	-0,237
83,509	117,386	-0,204	-0,177
84,524	52,102	-0,217	-0,145
85,539	99,026	-0,245	-0,199
86,553	376,375	-0,221	-0,318
87,568	146,058	-0,312	-0,294
88,582	66,375	-0,324	-0,231
89,597	-71,866	-0,335	-0,087
90,611	-31,043	-0,298	-0,118
91,626	17,450	-0,361	-0,201
92,641	-24,234	-0,274	-0,114
93,655	10,884	-0,275	-0,147
94,670	90,768	-0,258	-0,203
95,684	-4,472	-0,362	-0,175
96,699	146,776	-0,329	-0,310
97,714	-39,405	-0,303	-0,111
98,728	42,083	-0,223	-0,142
99,743	36,504	-0,169	-0,104
100,757	-60,216	-0,365	-0,108
101,772	35,267	-0,389	-0,239
102,787	158,097	-0,325	-0,316
103,801	50,115	-0,209	-0,138
104,816	402,292	-0,207	-0,306
105,830	-10,525	-0,236	-0,109
106,845	-166,542	-0,349	0,010
107,860	65,902	-0,294	-0,209
108,874	-68,243	-0,353	-0,096
109,889	8,174	-0,291	-0,152
110,903	394,926	-0,157	-0,231
111,918	-32,365	-0,299	-0,116
112,933	15,103	-0,311	-0,170
113,947	437,325	-0,183	-0,281
114,962	272,976	-0,255	-0,317
115,976	15,859	-0,291	-0,160
116,991	-37,053	-0,384	-0,143
118,006	447,021	-0,122	-0,188
119,020	-55,416	-0,317	-0,099
120,035	7,684	-0,300	-0,157
121,049	30,864	-0,223	-0,133
122,064	-149,399	-0,330	-0,018
123,079	3,307	-0,256	-0,130
124,093	298,405	-0,206	-0,266
125,108	46,345	-0,284	-0,184
126,122	129,186	-0,302	-0,270
127,137	161,528	-0,231	-0,226
128,151	-156,481	-0,249	0,011
129,166	-137,203	-0,215	0,017
130,181	7,927	-0,238	-0,124
131,195	89,975	-0,262	-0,204
132,210	56,025	-0,379	-0,257
133,224	552,199	-0,147	-0,248
134,239	64,151	-0,228	-0,160
135,254	-51,731	-0,218	-0,071
136,268	67,874	-0,268	-0,191
137,283	148,030	-0,279	-0,264
138,297	74,267	-0,300	-0,220
139,312	174,348	-0,246	-0,249
140,327	98,459	-0,225	-0,181
141,341	72,757	-0,232	-0,169
142,356	147,936	-0,212	-0,200
143,370	748,821	-0,113	-0,213
144,385	-52,988	-0,233	-0,075
145,400	122,001	-0,211	-0,184
146,414	135,203	-0,245	-0,223
147,429	787,182	-0,120	-0,232
148,443	-200,000	-0,086	-0,319
149,458	113,123	-0,140	-0,118
150,473	123,929	-0,178	-0,156
151,487	11,465	-0,189	-0,101
152,502	116,256	-0,321	-0,275
153,516	-24,141	-0,235	-0,097
154,531	59,194	-0,377	-0,259
155,546	57,449	-0,195	-0,133
156,560	317,766	-0,116	-0,153
157,575	45,278	-0,286	-0,184
158,589	222,219	-0,208	-0,234
159,604	148,703	-0,235	-0,222
160,619	38,446	-0,233	-0,144
161,633	19,704	-0,287	-0,161
162,648	-68,553	-0,301	-0,081
163,662	64,269	-0,224	-0,157
164,677	101,099	-0,181	-0,147
165,692	28,084	-0,408	-0,239
166,706	113,564	-0,186	-0,158
167,721	800,000	-0,182	-0,366
168,735	576,839	-0,212	-0,363
169,750	-0,949	-0,161	-0,079
170,764	-38,259	-0,259	-0,095
171,779	-3,756	-0,254	-0,123
172,794	69,480	-0,296	-0,212
173,808	139,908	-0,206	-0,189
174,823	160,943	-0,271	-0,264
175,837	800,000	-0,187	-0,363
176,852	121,002	-0,230	-0,200
177,867	-22,069	-0,107	-0,045
178,881	80,011	-0,126	-0,094
179,896	187,741	-0,193	-0,201
180,910	39,341	-0,229	-0,143
181,925	104,040	-0,171	-0,140
182,940	347,039	-0,114	-0,157
183,954	252,662	-0,157	-0,187
184,969	520,229	-0,130	-0,214
185,983	63,738	-0,226	-0,158
186,998	174,598	-0,115	-0,116
188,013	36,876	-0,241	-0,148
189,027	102,426	-0,261	-0,212
190,042	100,710	-0,341	-0,275
191,056	41,666	-0,265	-0,167
192,071	212,489	-0,166	-0,183
193,086	382,629	-0,231	-0,331
194,100	79,265	-0,167	-0,124
195,115	153,965	-0,189	-0,180
196,129	231,820	-0,197	-0,225
197,144	135,147	-0,221	-0,200
198,159	100,187	-0,170	-0,137
199,173	221,967	-0,190	-0,213
200,188	-152,582	-0,142	-0,007
201,202	7,557	-0,138	0,072
202,217	22,329	-0,262	-0,149
203,232	234,440	-0,119	-0,137
204,246	322,219	-0,179	-0,238
205,261	-47,109	-0,298	-0,101
206,275	-24,203	-0,126	-0,052
207,290	-33,478	-0,269	-0,103
208,304	-39,927	-0,234	-0,084
209,319	128,202	-0,128	-0,114
210,334	607,274	-0,114	-0,199
211,348	244,893	-0,216	-0,252
212,363	104,724	-0,237	-0,194
213,377	800,000	-0,091	-0,179
214,392	-162,039	-0,209	0,007
215,407	743,252	-0,129	-0,241
216,421	16,067	-0,163	-0,089
217,436	-200,000	-0,039	-0,231
218,450	523,847	-0,154	-0,252
219,465	407,311	-0,176	-0,259
220,480	341,742	-0,156	-0,212
221,494	357,382	-0,166	-0,231
222,509	166,939	-0,066	-0,065
223,523	-139,988	-0,178	-0,013
224,538	98,133	-0,210	-0,168
225,553	49,115	-0,219	-0,143
226,567	-62,952	-0,247	-0,070
227,582	198,552	-0,180	-0,191
228,596	104,496	-0,085	-0,070
229,611	800,000	-0,077	-0,176
230,626	-200,000	-0,063	-0,223
231,640	-73,226	-0,114	-0,029
232,655	90,837	-0,238	-0,185
233,669	62,823	-0,213	-0,147
234,684	33,676	-0,228	-0,137
235,699	37,963	-0,152	-0,094
236,713	237,738	-0,156	-0,180
237,728	-118,776	-0,383	-0,046
238,742	774,068	-0,084	-0,159
239,757	139,386	-0,137	-0,125
240,772	278,299	-0,146	-0,181
241,786	98,995	-0,191	-0,152
242,801	-7,985	-0,170	-0,079
243,815	-71,357	-0,104	0,027
244,830	85,942	-0,115	-0,088
245,844	323,923	-0,179	-0,237
246,859	233,868	-0,185	-0,211
247,874	31,058	-0,252	-0,150
248,888	-40,833	-0,257	-0,092
249,903	-200,000	-0,078	-0,253
250,917	4,928	-0,156	-0,079
251,932	-26,331	-0,163	-0,066
252,947	194,198	-0,190	-0,200
253,961	36,679	-0,183	-0,112
254,976	233,327	-0,223	-0,254
255,990	200,844	-0,152	-0,162
257,005	12,082	-0,145	-0,077
258,020	-93,660	-0,225	-0,043
259,034	236,314	-0,133	-0,153
260,049	90,513	-0,159	-0,123
261,063	47,992	-0,210	-0,135
262,078	34,658	-0,171	-0,103
263,093	-50,325	-0,150	-0,049
264,107	-92,739	-0,143	-0,027
265,122	17,585	-0,095	-0,052
266,136	-1,863	-0,110	-0,053
267,151	42,272	-0,236	-0,148
268,166	800,000	-0,056	-0,110
269,180	-62,550	-0,175	-0,050
270,195	101,396	-0,226	-0,182
271,209	28,644	-0,092	0,054
272,224	58,788	-0,180	-0,122
273,239	138,467	-0,119	-0,108
274,253	-63,604	-0,187	0,053
275,268	124,926	-0,164	-0,143
276,282	396,271	-0,109	-0,158
277,297	77,691	-0,085	-0,062
278,312	563,064	-0,125	-0,210
279,326	-71,143	-0,229	-0,059
280,341	-132,034	-0,087	-0,008
281,355	245,844	-0,167	-0,194
282,370	-148,286	-0,163	-0,009
283,384	-5,557	-0,259	-0,122
284,399	-83,952	-0,205	-0,045
285,414	32,072	-0,122	-0,072
286,428	-139,806	-0,092	-0,007
287,443	63,887	-0,102	-0,071
288,457	-45,755	-0,111	0,038
289,472	-72,721	-0,167	-0,042
290,487	212,127	-0,198	-0,216
291,501	637,873	-0,151	-0,266
292,516	800,000	-0,084	-0,199
293,530	-97,193	-0,169	-0,030
294,545	180,470	-0,160	-0,162
295,560	678,500	-0,071	-0,128
296,574	184,400	-0,159	-0,163
297,589	235,602	0,050	-0,057
298,603	-200,000	-0,022	-0,147
299,618	64,896	-0,223	-0,155
300,633	261,634	-0,171	-0,204
301,647	148,095	-0,180	-0,167
302,662	-68,674	-0,118	0,031
303,676	-31,130	-0,169	0,065
304,691	173,581	-0,096	-0,095
305,706	-82,351	-0,118	-0,026
306,720	-28,982	-0,273	-0,107
307,735	206,266	-0,110	-0,119
308,749	-58,452	-0,199	0,059
309,764	800,000	-0,067	-0,192
310,779	-121,162	-0,079	0,009
311,793	339,172	-0,082	-0,110
312,808	-182,812	-0,225	-0,003
313,822	364,851	-0,036	0,050
314,837	54,994	-0,084	0,055
315,852	164,302	-0,121	-0,117
316,866	32,837	-0,154	0,091
317,881	219,054	-0,110	-0,121
318,895	277,940	-0,057	0,070
319,910	258,346	-0,160	-0,190
320,925	121,627	-0,166	-0,143
321,939	-46,005	-0,185	-0,062
322,954	-92,232	-0,238	-0,046
323,968	800,000	-0,088	-0,183
324,983	-151,081	-0,063	0,003
325,997	88,963	-0,202	-0,154
327,012	676,887	-0,060	-0,107
328,027	-200,000	-0,012	-0,128
329,041	181,763	-0,152	-0,154
330,056	-200,000	-0,006	-0,168
331,070	101,243	-0,093	-0,074
332,085	69,052	-0,089	-0,063
333,100	-188,449	-0,106	-0,001
334,114	-101,728	-0,180	-0,030
335,129	-35,556	-0,147	-0,054
336,143	155,362	-0,161	-0,152
337,158	224,300	-0,071	-0,079
338,173	63,070	-0,107	-0,074
339,187	231,745	-0,135	-0,153
340,202	221,850	-0,165	-0,183
341,216	-6,940	-0,057	0,027
342,231	-32,660	-0,068	0,026
343,246	-7,725	-0,170	-0,079
344,260	193,876	-0,072	-0,075
345,275	135,327	-0,074	0,066
346,289	227,810	-0,119	-0,133
347,304	-4,438	-0,094	-0,045
348,319	-172,921	-0,169	0,004
349,333	-6,034	-0,216	-0,101
350,348	800,000	-0,064	-0,128
351,362	800,000	-0,112	-0,225
352,377	-69,187	-0,068	-0,018
353,392	61,673	0,040	-0,027
354,406	69,908	-0,125	-0,088
355,421	208,817	1315,114	1413,626
356,435	160,685	1475,893	1414,107
