DTS Sentinel unit serial number:	SN410029Multiplexer serial number:	ORYXHardware model number:	OX2-SRSoftware version number:	ORYX F/W v4,00 Oryx Data Collector v3.7.2.0data status	okinstallation	B3 Nyhavnadifferential loss correction	single-endedforward channel	channel 1reverse channel	N/Adate	2023/12/04time	18:47:30forward acquisition time	300,00reverse acquisition time	0,00gamma	499,1914k internal	0,3200k external	0,3200temperature offset calibration	1,0000default loss term (dB/km)	0,3820temperature slope calibration	1,0000multiplexer offset coefficient	1,0000multiplexer slope coefficient	1,0000fibre end	0,00T internal ref (°C)	14,87T ext. ref 1 (°C)	-0,47T ext. ref 2 (°C)	-0,48length (m)	temperature (°C)	Stokes	anti-Stokes-744,400	198,259	-0,258	-0,287
-743,385	-200,000	0,043	0,329
-742,371	102,095	-0,260	-0,221
-741,356	-200,000	0,038	0,309
-740,342	454,758	-0,208	-0,337
-739,327	-200,000	-0,072	0,271
-738,312	-200,000	-0,041	-0,153
-737,298	-200,000	0,078	0,390
-736,283	85,495	-0,306	-0,244
-735,269	-200,000	-0,003	0,301
-734,254	202,010	-0,172	-0,193
-733,239	100,381	-0,149	0,126
-732,225	800,000	-0,083	-0,188
-731,210	116,479	0,145	0,129
-730,196	53,569	-0,131	-0,091
-729,181	471,701	-0,080	-0,131
-728,167	452,886	-0,170	-0,274
-727,152	-200,000	0,021	-0,079
-726,137	221,793	-0,006	0,007
-725,123	544,260	0,070	-0,121
-724,108	-200,000	0,023	-0,092
-723,094	89,932	-0,126	0,102
-722,079	258,924	-0,091	-0,114
-721,064	28,134	0,178	-0,109
-720,050	-200,000	-0,001	-0,036
-719,035	502,945	-0,027	-0,046
-718,021	-0,404	0,049	-0,025
-717,006	-200,000	-0,029	-0,193
-715,991	800,000	0,011	0,023
-714,977	-59,338	-0,136	0,042
-713,962	384,195	-0,073	-0,110
-712,948	-80,664	-0,056	0,013
-711,933	-50,485	-0,065	0,022
-710,918	800,000	0,027	0,069
-709,904	-200,000	-0,013	-0,078
-708,889	153,494	-0,088	-0,088
-707,875	377,290	-0,020	-0,030
-706,860	7,079	-0,030	-0,016
-705,845	674,885	0,044	0,084
-704,831	621,590	-0,037	0,068
-703,816	-20,864	0,028	0,013
-702,802	800,000	-0,033	-0,081
-701,787	20,122	-0,088	0,052
-700,772	-60,408	-0,079	0,024
-699,758	-200,000	-0,008	0,092
-698,743	21,787	0,136	0,080
-697,729	-200,000	0,005	0,118
-696,714	-200,000	0,042	0,152
-695,699	145,716	-0,112	-0,109
-694,685	-33,618	-0,125	0,050
-693,670	63,006	0,096	-0,070
-692,656	113,617	0,065	0,058
-691,641	800,000	-0,026	-0,064
-690,627	800,000	-0,024	0,065
-689,612	-166,448	-0,040	0,001
-688,597	800,000	-0,076	-0,154
-687,583	388,369	0,016	-0,025
-686,568	-86,949	-0,041	-0,009
-685,554	-10,918	-0,131	0,063
-684,539	-26,502	0,028	0,012
-683,524	-200,000	-0,001	0,016
-682,510	-83,703	-0,053	-0,012
-681,495	-33,237	-0,160	0,064
-680,481	-200,000	-0,020	-0,098
-679,466	533,130	-0,056	-0,097
-678,451	-200,000	-0,014	0,119
-677,437	-200,000	-0,010	0,089
-676,422	7,135	-0,157	0,085
-675,408	-50,753	-0,039	0,013
-674,393	113,275	-0,109	0,096
-673,378	0,540	0,052	-0,027
-672,364	-200,000	0,018	-0,126
-671,349	-200,000	0,014	-0,145
-670,335	770,433	-0,041	-0,081
-669,320	800,000	-0,029	-0,070
-668,305	104,220	-0,114	0,097
-667,291	42,393	-0,141	0,093
-666,276	-200,000	-0,034	-0,170
-665,262	626,028	-0,041	-0,076
-664,247	-200,000	-0,013	-0,118
-663,232	-12,117	0,059	-0,028
-662,218	800,000	0,032	0,090
-661,203	800,000	-0,007	-0,019
-660,189	-176,595	0,067	-0,001
-659,174	317,588	0,072	0,099
-658,159	800,000	0,040	-0,089
-657,145	-76,461	-0,123	-0,031
-656,130	-200,000	-0,017	-0,082
-655,116	-200,000	-0,024	0,082
-654,101	800,000	-0,018	-0,048
-653,086	-74,922	-0,178	-0,046
-652,072	662,844	0,076	-0,142
-651,057	-36,309	-0,087	0,034
-650,043	-200,000	-0,018	-0,075
-649,028	-101,769	-0,052	-0,009
-648,014	68,560	0,063	0,047
-646,999	-84,095	0,089	-0,020
-645,984	110,691	0,129	-0,113
-644,970	-17,622	-0,138	-0,063
-643,955	800,000	-0,049	-0,111
-642,941	1,749	-0,065	-0,034
-641,926	800,000	0,048	-0,128
-640,911	86,745	0,013	0,011
-639,897	93,254	0,067	-0,055
-638,882	488,855	-0,062	-0,104
-637,868	-200,000	0,065	-0,236
-636,853	-57,032	-0,152	-0,048
-635,838	-200,000	-0,017	-0,093
-634,824	-169,881	0,106	0,003
-633,809	95,354	0,086	0,071
-632,795	393,855	-0,024	0,036
-631,780	-103,907	-0,121	0,020
-630,765	1,654	0,109	0,057
-629,751	-111,097	0,045	0,007
-628,736	-136,928	-0,021	0,002
-627,722	-200,000	-0,013	-0,063
-626,707	84,105	0,077	0,061
-625,692	-200,000	-0,028	0,173
-624,678	-200,000	-0,022	0,126
-623,663	800,000	-0,049	0,135
-622,649	-53,407	-0,194	-0,064
-621,634	58,176	0,025	-0,018
-620,619	-156,718	0,120	0,005
-619,605	116,401	-0,008	0,007
-618,590	-109,862	-0,084	-0,013
-617,576	89,847	-0,043	0,035
-616,561	-126,422	-0,078	-0,008
-615,546	136,050	-0,136	0,129
-614,532	275,637	-0,071	0,091
-613,517	-81,920	-0,025	0,006
-612,503	-119,125	0,136	-0,017
-611,488	274,468	-0,111	-0,143
-610,474	-50,037	0,132	0,045
-609,459	-200,000	0,022	0,076
-608,444	800,000	-0,035	-0,072
-607,430	800,000	-0,026	-0,062
-606,415	-200,000	0,028	-0,102
-605,401	180,925	-0,081	-0,087
-604,386	800,000	-0,033	-0,071
-603,371	-200,000	-0,012	0,098
-602,357	-96,636	0,147	-0,028
-601,342	-200,000	-0,032	0,108
-600,328	16,849	0,099	0,056
-599,313	-58,394	-0,073	-0,023
-598,298	143,120	0,028	-0,027
-597,284	-200,000	0,017	0,073
-596,269	-3,344	0,088	0,044
-595,255	-200,000	-0,005	0,063
-594,240	348,736	0,055	-0,078
-593,225	322,872	-0,091	-0,126
-592,211	-200,000	-0,027	-0,127
-591,196	-200,000	-0,020	0,139
-590,182	136,241	0,085	-0,080
-589,167	800,000	-0,026	-0,059
-588,152	-1,329	-0,059	0,030
-587,138	176,539	-0,048	-0,051
-586,123	672,779	0,012	-0,023
-585,109	-200,000	-0,018	-0,181
-584,094	-200,000	-0,019	-0,091
-583,079	-200,000	0,001	-0,057
-582,065	675,586	-0,043	-0,082
-581,050	703,870	-0,029	-0,055
-580,036	239,150	-0,018	0,021
-579,021	-200,000	0,015	0,051
-578,006	-200,000	-0,029	-0,122
-576,992	-200,000	0,015	-0,055
-575,977	-39,389	-0,068	-0,026
-574,963	57,593	0,140	-0,099
-573,948	-122,457	0,050	-0,006
-572,934	560,132	-0,063	0,110
-571,919	777,221	0,048	-0,095
-570,904	288,253	-0,081	-0,107
-569,890	-116,323	0,136	0,018
-568,875	-71,387	0,050	0,013
-567,861	-177,845	-0,064	0,001
-566,846	13,255	0,137	0,077
-565,831	484,603	-0,065	0,108
-564,817	86,422	-0,059	-0,047
-563,802	83,414	-0,044	-0,035
-562,788	-200,000	0,022	0,083
-561,773	-135,121	0,050	-0,004
-560,758	271,199	0,028	0,035
-559,744	63,510	-0,098	0,071
-558,729	-0,387	-0,036	-0,018
-557,715	-125,515	0,021	-0,002
-556,700	238,687	-0,071	-0,085
-555,685	-111,102	0,104	-0,015
-554,671	21,470	0,036	-0,021
-553,656	-200,000	-0,004	0,021
-552,642	-200,000	0,007	0,152
-551,627	63,433	0,028	0,021
-550,612	-200,000	-0,018	-0,121
-549,598	-200,000	0,007	-0,043
-548,583	-120,650	-0,099	0,012
-547,569	800,000	0,047	0,117
-546,554	92,336	0,130	0,106
-545,539	-200,000	0,029	0,137
-544,525	-48,392	-0,095	-0,033
-543,510	-200,000	-0,005	-0,036
-542,496	29,941	-0,034	0,021
-541,481	800,000	-0,049	-0,119
-540,466	-200,000	-0,012	-0,086
-539,452	-200,000	-0,004	0,056
-538,437	-200,000	-0,033	0,156
-537,423	39,110	-0,044	0,029
-536,408	-200,000	0,017	-0,135
-535,393	443,162	0,010	0,016
-534,379	81,660	-0,108	-0,085
-533,364	132,903	-0,103	-0,096
-532,350	462,208	-0,019	0,031
-531,335	-21,683	-0,034	0,015
-530,321	-200,000	-0,005	0,047
-529,306	-1,611	0,067	-0,034
-528,291	-200,000	-0,007	-0,087
-527,277	-200,000	0,002	-0,108
-526,262	259,256	0,068	-0,085
-525,248	-26,925	0,102	-0,043
-524,233	-124,169	0,030	0,003
-523,218	-4,673	-0,157	-0,078
-522,204	-200,000	-0,042	0,218
-521,189	-141,182	0,054	-0,004
-520,175	-22,735	-0,072	-0,031
-519,160	-77,422	-0,061	0,015
-518,145	784,187	-0,012	-0,023
-517,131	-57,670	-0,062	0,019
-516,116	388,680	0,018	0,026
-515,102	653,304	0,049	-0,090
-514,087	-114,836	-0,110	-0,015
-513,072	-96,745	0,106	0,020
-512,058	319,013	-0,079	-0,109
-511,043	-200,000	0,020	-0,093
-510,029	-68,919	0,044	-0,012
-509,014	-100,650	0,116	0,020
-507,999	-200,000	0,023	0,080
-506,985	800,000	-0,028	0,063
-505,970	-89,213	-0,187	0,039
-504,956	-200,000	-0,003	0,057
-503,941	47,686	0,066	-0,044
-502,926	-19,452	0,120	0,053
-501,912	-200,000	0,005	0,032
-500,897	557,428	-0,047	-0,082
-499,883	90,374	0,077	-0,062
-498,868	112,047	-0,070	-0,061
-497,853	202,022	-0,131	0,146
-496,839	-43,550	-0,064	-0,023
-495,824	-136,573	0,065	-0,005
-494,810	324,715	-0,113	0,156
-493,795	296,960	0,122	-0,161
-492,781	359,645	-0,064	0,093
-491,766	59,905	-0,019	-0,013
-490,751	800,000	-0,074	-0,181
-489,737	677,506	0,037	-0,070
-488,722	-30,822	0,011	0,005
-487,708	28,942	-0,072	0,044
-486,693	42,589	0,045	-0,029
-485,678	800,000	-0,031	0,066
-484,664	41,370	0,018	0,012
-483,649	-92,793	-0,160	0,032
-482,635	-70,728	0,064	0,017
-481,620	563,830	0,054	0,094
-480,605	-21,659	0,090	0,039
-479,591	-6,083	-0,059	0,029
-478,576	337,092	0,079	0,111
-477,562	341,663	-0,095	-0,133
-476,547	-73,295	-0,041	-0,011
-475,532	14,222	-0,120	-0,067
-474,518	-145,865	0,127	0,008
-473,503	270,050	0,052	0,066
-472,489	-200,000	0,012	-0,069
-471,474	-50,320	-0,080	-0,027
-470,459	380,617	0,071	-0,105
-469,445	-200,000	-0,006	-0,042
-468,430	210,989	0,056	-0,064
-467,416	-200,000	0,014	0,049
-466,401	-104,737	0,165	-0,027
-465,386	-200,000	0,024	-0,151
-464,372	800,000	-0,074	-0,199
-463,357	53,293	-0,028	0,020
-462,343	546,261	-0,025	-0,043
-461,328	382,738	-0,106	0,158
-460,313	-200,000	-0,001	-0,022
-459,299	-200,000	0,011	0,051
-458,284	-118,562	-0,118	0,015
-457,270	-118,415	0,150	0,019
-456,255	-26,276	-0,031	-0,013
-455,241	307,913	-0,074	0,100
-454,226	28,123	-0,034	0,020
-453,211	10,994	0,021	-0,011
-452,197	131,860	-0,031	0,029
-451,182	800,000	0,022	0,054
-450,168	480,740	0,041	-0,067
-449,153	504,695	0,028	0,047
-448,138	478,348	-0,039	0,063
-447,124	273,248	-0,031	-0,039
-446,109	-59,303	0,176	0,054
-445,095	-43,086	-0,060	-0,022
-444,080	30,527	0,043	0,027
-443,065	-90,334	0,026	0,005
-442,051	800,000	-0,039	0,097
-441,036	119,610	0,056	-0,050
-440,022	-200,000	-0,005	-0,181
-439,007	409,397	0,028	-0,043
-437,992	94,580	0,024	-0,020
-436,978	-11,656	-0,058	0,027
-435,963	218,753	-0,018	-0,021
-434,949	-129,626	0,096	-0,009
-433,934	-200,000	0,015	-0,114
-432,919	-139,705	0,020	0,001
-431,905	374,720	0,032	-0,048
-430,890	79,421	0,088	-0,068
-429,876	800,000	0,012	-0,036
-428,861	-89,603	-0,044	-0,009
-427,846	348,769	-0,045	0,064
-426,832	-83,790	-0,121	-0,027
-425,817	-24,750	-0,028	-0,012
-424,803	50,478	0,125	-0,085
-423,788	-200,000	0,013	0,065
-422,773	-118,489	0,063	0,008
-421,759	439,024	-0,075	-0,117
-420,744	121,108	0,041	-0,036
-419,730	77,285	-0,051	-0,039
-418,715	235,346	0,109	-0,130
-417,701	28,217	-0,158	-0,096
-416,686	45,102	-0,067	-0,044
-415,671	69,488	-0,068	-0,050
-414,657	299,971	-0,058	-0,076
-413,642	-25,062	0,090	-0,038
-412,628	13,469	0,174	0,097
-411,613	-200,000	0,004	0,069
-410,598	-61,062	0,091	-0,027
-409,584	114,315	-0,076	-0,066
-408,569	124,580	0,036	0,033
-407,555	154,194	0,073	-0,072
-406,540	-200,000	0,015	0,102
-405,525	274,514	0,009	-0,011
-404,511	43,681	0,064	-0,042
-403,496	-200,000	-0,003	0,022
-402,482	12,189	0,029	-0,016
-401,467	17,243	-0,035	0,020
-400,452	-72,084	0,075	0,020
-399,438	435,441	0,042	0,066
-398,423	800,000	0,033	0,090
-397,409	-200,000	0,005	-0,096
-396,394	-58,455	-0,139	0,043
-395,379	143,334	-0,099	-0,094
-394,365	-59,345	0,095	0,029
-393,350	180,411	0,055	0,058
-392,336	62,202	0,070	0,050
-391,321	-100,892	-0,064	0,011
-390,306	-130,702	-0,072	0,007
-389,292	575,782	0,013	0,023
-388,277	-16,323	-0,133	-0,060
-387,263	19,362	0,082	0,047
-386,248	125,571	0,125	0,113
-385,233	75,420	0,043	0,032
-384,219	36,145	-0,050	-0,031
-383,204	-200,000	0,025	-0,129
-382,190	5,700	-0,029	-0,016
-381,175	-200,000	-0,005	-0,075
-380,160	-200,000	-0,002	0,010
-379,146	-200,000	0,010	0,035
-378,131	-73,645	0,063	0,016
-377,117	377,153	-0,084	0,123
-376,102	265,140	0,029	-0,036
-375,088	-200,000	0,003	0,048
-374,073	614,419	0,036	0,065
-373,058	648,734	-0,065	0,119
-372,044	67,025	0,029	0,021
-371,029	-200,000	0,015	0,106
-370,015	-26,815	-0,114	0,047
-369,000	-172,699	-0,098	-0,002
-367,985	800,000	-0,031	0,095
-366,971	-200,000	0,042	-0,172
-365,956	144,287	0,101	-0,096
-364,942	45,001	0,053	-0,035
-363,927	491,998	0,009	-0,015
-362,912	-200,000	-0,016	0,122
-361,898	-21,307	0,076	0,033
-360,883	-61,083	-0,176	-0,053
-359,869	-137,314	0,134	0,011
-358,854	800,000	-0,035	0,076
-357,839	-82,139	0,079	-0,018
-356,825	50,871	0,086	0,058
-355,810	150,269	-0,119	-0,116
-354,796	-200,000	0,002	0,091
-353,781	-129,440	-0,038	0,004
-352,766	532,978	-0,060	0,101
-351,752	800,000	0,051	-0,146
-350,737	207,041	-0,036	0,040
-349,723	800,000	0,015	-0,030
-348,708	-122,931	-0,081	-0,009
-347,693	117,516	-0,065	0,057
-346,679	-200,000	0,032	-0,161
-345,664	800,000	0,006	-0,018
-344,650	540,374	0,046	-0,078
-343,635	-200,000	-0,022	-0,097
-342,620	272,658	0,046	0,058
-341,606	-200,000	-0,018	-0,092
-340,591	-120,360	0,059	-0,007
-339,577	-119,619	0,044	0,005
-338,562	20,840	-0,174	-0,101
-337,548	593,884	-0,032	0,056
-336,533	74,527	0,113	-0,085
-335,518	-96,411	-0,049	0,009
-334,504	-200,000	0,012	0,217
-333,489	-200,000	0,013	0,044
-332,475	37,981	0,023	-0,015
-331,460	-126,245	0,112	0,012
-330,445	33,800	0,075	-0,047
-329,431	-200,000	0,010	-0,131
-328,416	277,134	0,037	0,047
-327,402	800,000	-0,024	0,069
-326,387	311,000	-0,050	-0,067
-325,372	-120,561	0,022	0,003
-324,358	800,000	0,022	-0,063
-323,343	-200,000	-0,065	0,209
-322,329	-77,217	0,252	0,062
-321,314	1,502	0,063	0,032
-320,299	217,782	0,019	0,022
-319,285	-121,947	0,044	0,005
-318,270	-200,000	-0,018	0,076
-317,256	-200,000	0,005	-0,138
-316,241	-200,000	-0,032	-0,133
-315,226	-171,362	0,094	-0,002
-314,212	164,926	0,115	0,116
-313,197	32,213	0,010	0,006
-312,183	-107,020	0,052	-0,008
-311,168	-200,000	0,027	0,122
-310,153	11,210	-0,109	0,060
-309,139	-179,636	-0,090	0,001
-308,124	300,600	-0,064	-0,085
-307,110	236,081	0,073	-0,086
-306,095	792,076	0,065	0,128
-305,080	-200,000	-0,010	-0,067
-304,066	113,597	0,106	0,092
-303,051	-131,996	-0,060	-0,006
-302,037	-103,103	-0,123	0,021
-301,022	-200,000	-0,016	0,061
-300,008	-200,000	0,001	0,041
-298,993	800,000	0,023	0,058
-297,978	-58,244	0,058	-0,018
-296,964	59,997	-0,139	0,098
-295,949	108,794	0,073	-0,062
-294,935	250,686	-0,074	0,089
-293,920	148,378	-0,052	0,050
-292,905	194,884	0,057	-0,061
-291,891	800,000	-0,102	0,230
-290,876	-200,000	-0,005	-0,043
-289,862	612,478	0,024	0,044
-288,847	-200,000	-0,017	-0,065
-287,832	42,720	0,056	-0,036
-286,818	-200,000	-0,022	-0,090
-285,803	-15,249	-0,105	0,048
-284,789	113,839	0,155	-0,135
-283,774	-200,000	0,004	-0,067
-282,759	-160,005	0,080	-0,003
-281,745	-65,034	-0,093	-0,027
-280,730	247,490	-0,058	-0,070
-279,716	2,375	-0,101	0,052
-278,701	543,272	0,032	0,055
-277,686	-200,000	0,007	0,082
-276,672	-121,308	0,046	0,005
-275,657	463,112	-0,066	0,105
-274,643	373,707	0,037	-0,053
-273,628	-69,978	-0,060	0,016
-272,613	317,300	0,043	0,058
-271,599	131,982	-0,041	-0,038
-270,584	800,000	-0,013	-0,030
-269,570	248,485	0,020	-0,024
-268,555	717,573	0,057	-0,108
-267,540	-49,182	0,044	-0,015
-266,526	108,437	0,083	0,071
-265,511	117,381	0,042	0,037
-264,497	-200,000	0,021	0,067
-263,482	199,553	0,138	0,151
-262,467	-200,000	0,000	0,053
-261,453	633,381	-0,045	-0,082
-260,438	800,000	-0,012	0,025
-259,424	800,000	-0,041	0,111
-258,409	-200,000	0,001	-0,039
-257,395	110,965	0,074	-0,064
-256,380	-30,734	-0,074	0,030
-255,365	-84,127	0,106	0,024
-254,351	800,000	0,032	-0,081
-253,336	800,000	-0,038	0,096
-252,322	-200,000	0,013	-0,138
-251,307	-200,000	-0,009	-0,086
-250,292	-5,365	0,049	-0,024
-249,278	744,984	0,071	0,137
-248,263	469,523	-0,080	0,129
-247,249	-200,000	0,018	-0,093
-246,234	-6,660	0,022	-0,011
-245,219	103,485	0,093	-0,078
-244,205	407,529	-0,024	0,036
-243,190	800,000	-0,018	-0,055
-242,176	161,555	0,084	-0,084
-241,161	-88,356	-0,109	0,023
-240,146	365,966	0,084	0,121
-239,132	9,507	0,061	0,033
-238,117	-200,000	-0,016	-0,103
-237,103	-200,000	-0,009	0,120
-236,088	458,042	-0,026	0,041
-235,073	312,962	-0,047	-0,064
-234,059	-48,447	0,074	-0,025
-233,044	224,086	0,033	0,038
-232,030	-81,282	0,067	-0,016
-231,015	91,134	-0,045	-0,036
-230,000	275,172	-0,085	-0,107
-228,986	-44,186	-0,073	0,026
-227,971	305,841	-0,066	0,088
-226,957	29,989	0,090	0,055
-225,942	-200,000	0,008	-0,114
-224,927	228,755	-0,056	-0,066
-223,913	-172,481	-0,021	-0,000
-222,898	351,482	-0,079	-0,112
-221,884	-103,730	-0,056	-0,009
-220,869	-200,000	-0,000	0,111
-219,855	-47,932	0,090	0,031
-218,840	-40,356	-0,060	-0,022
-217,825	-147,757	0,092	-0,005
-216,811	-200,000	0,034	0,115
-215,796	57,508	-0,044	0,031
-214,782	-200,000	0,015	-0,057
-213,767	176,856	0,114	0,118
-212,752	521,158	-0,122	0,205
-211,738	-80,425	-0,011	-0,003
-210,723	-200,000	0,015	0,136
-209,709	76,367	0,128	0,097
-208,694	122,990	-0,126	0,112
-207,679	296,669	-0,066	-0,086
-206,665	-200,000	0,009	-0,036
-205,650	767,465	0,054	0,104
-204,636	50,856	-0,047	0,032
-203,621	123,010	-0,069	0,062
-202,606	800,000	-0,028	0,066
-201,592	125,082	-0,101	-0,091
-200,577	-31,831	0,051	-0,020
-199,563	-16,021	0,094	0,042
-198,548	800,000	-0,059	0,167
-197,533	506,049	0,085	0,142
-196,519	127,607	-0,072	0,065
-195,504	118,885	-0,043	-0,038
-194,490	-49,093	-0,144	-0,049
-193,475	268,906	-0,105	-0,131
-192,460	-19,648	0,132	-0,058
-191,446	-200,000	-0,015	0,119
-190,431	800,000	0,053	0,108
-189,417	-200,000	-0,021	-0,077
-188,402	26,116	0,096	-0,057
-187,387	-21,789	-0,172	0,074
-186,373	-6,449	0,058	0,028
-185,358	-155,872	-0,127	-0,006
-184,344	-168,858	0,041	0,001
-183,329	-13,691	-0,112	-0,051
-182,315	-200,000	0,026	-0,104
-181,300	-200,000	0,002	0,137
-180,285	39,905	0,044	-0,028
-179,271	43,391	0,081	-0,052
-178,256	-200,000	0,001	-0,065
-177,242	-95,825	0,072	-0,014
-176,227	-200,000	0,007	0,037
-175,212	800,000	0,034	0,091
-174,198	108,422	-0,079	0,067
-173,183	-200,000	-0,005	0,122
-172,169	208,751	0,054	-0,060
-171,154	800,000	0,038	0,085
-170,139	115,555	0,118	-0,103
-169,125	-70,758	0,068	0,018
-168,110	35,923	0,034	0,021
-167,096	800,000	-0,055	0,115
-166,081	-200,000	0,002	0,066
-165,066	-200,000	0,003	-0,113
-164,052	-23,417	-0,089	-0,038
-163,037	-200,000	0,006	0,149
-162,023	-115,999	0,057	0,007
-161,008	800,000	-0,058	0,174
-159,993	800,000	0,006	0,015
-158,979	-200,000	-0,018	-0,093
-157,964	-10,643	-0,021	-0,010
-156,950	293,530	-0,092	-0,120
-155,935	-16,253	-0,091	0,041
-154,920	-2,466	0,038	-0,019
-153,906	-64,704	-0,126	-0,036
-152,891	-200,000	0,038	0,126
-151,877	-103,001	-0,038	-0,006
-150,862	-48,990	-0,076	-0,026
-149,847	3,030	0,164	0,085
-148,833	100,105	-0,055	-0,045
-147,818	487,631	-0,043	0,070
-146,804	-34,235	0,155	0,060
-145,789	-85,412	-0,089	0,020
-144,775	87,401	-0,127	-0,100
-143,760	800,000	-0,011	-0,028
-142,745	800,000	0,021	-0,054
-141,731	-31,094	0,067	0,027
-140,716	800,000	0,070	0,192
-139,702	-108,638	0,114	0,017
-138,687	391,267	0,067	0,098
-137,672	35,804	-0,033	0,021
-136,658	52,080	-0,106	0,072
-135,643	36,308	-0,048	-0,030
-134,629	-200,000	0,026	0,196
-133,614	245,761	0,069	-0,082
-132,599	116,706	0,115	0,100
-131,585	674,094	-0,022	-0,040
-130,570	-200,000	0,002	0,229
-129,556	-29,297	-0,081	-0,033
-128,541	198,162	-0,046	-0,050
-127,526	-200,000	-0,007	0,044
-126,512	206,040	0,079	0,087
-125,497	-200,000	0,005	0,137
-124,483	-200,000	-0,008	0,166
-123,468	206,498	-0,125	-0,139
-122,453	-168,763	-0,044	0,001
-121,439	50,629	0,101	0,067
-120,424	-200,000	-0,012	0,069
-119,410	800,000	-0,037	0,106
-118,395	-46,021	0,034	0,012
-117,380	-200,000	0,040	0,217
-116,366	-200,000	-0,003	0,074
-115,351	-63,843	-0,102	-0,029
-114,337	-12,600	-0,035	-0,016
-113,322	-34,162	-0,065	0,025
-112,307	-141,137	0,096	0,007
-111,293	800,000	0,034	0,084
-110,278	-200,000	-0,017	0,054
-109,264	211,402	0,085	0,095
-108,249	-200,000	-0,008	-0,091
-107,234	-60,901	-0,105	-0,031
-106,220	148,624	-0,092	-0,088
-105,205	3,214	-0,084	-0,043
-104,191	-14,870	-0,013	-0,006
-103,176	800,000	-0,021	0,046
-102,162	-200,000	-0,016	0,077
-101,147	800,000	0,062	-0,166
-100,132	51,773	-0,030	-0,020
-99,118	800,000	0,043	-0,131
-98,103	268,116	0,118	-0,146
-97,089	202,110	-0,066	0,073
-96,074	-15,948	0,152	0,068
-95,059	-71,535	-0,151	0,040
-94,045	10,811	0,030	-0,016
-93,030	-200,000	0,007	-0,048
-92,016	-90,778	-0,091	0,019
-91,001	-116,643	0,131	0,017
-89,986	-200,000	-0,002	-0,144
-88,972	39,271	0,135	0,085
-87,957	-191,104	-0,071	0,001
-86,943	800,000	-0,049	-0,114
-85,928	-33,848	-0,194	0,076
-84,913	-33,079	-0,077	-0,030
-83,899	-45,367	0,061	0,021
-82,884	68,011	-0,121	0,088
-81,870	800,000	-0,020	0,049
-80,855	800,000	0,023	-0,047
-79,840	-68,238	-0,175	0,048
-78,826	800,000	-0,038	-0,080
-77,811	561,360	-0,078	-0,133
-76,797	800,000	-0,079	0,159
-75,782	-59,493	-0,126	0,038
-74,767	-200,000	-0,016	0,096
-73,753	-200,000	0,001	-0,081
-72,738	-100,327	-0,083	-0,014
-71,724	800,000	-0,006	-0,017
-70,709	-59,416	-0,079	0,024
-69,694	-83,737	0,019	0,004
-68,680	-200,000	0,012	0,069
-67,665	800,000	-0,057	0,127
-66,651	-33,228	-0,015	-0,006
-65,636	12,455	-0,135	0,073
-64,622	-102,816	-0,117	-0,020
-63,607	-171,705	-0,077	-0,002
-62,592	-145,757	-0,047	-0,003
-61,578	-200,000	0,001	0,045
-60,563	-200,000	0,018	-0,153
-59,549	-200,000	0,005	0,123
-58,534	-67,662	-1,522	-0,419
-57,519	322,436	-1,634	-2,210
-56,505	-200,000	-0,547	-4,697
-55,490	167,064	0,885	0,890
-54,476	800,000	4,872	11,289
-53,461	-200,000	18,221	290,060
-52,446	800,000	728,277	2238,235
-51,432	556,654	1644,731	2817,510
-50,417	79,208	1666,369	1263,321
-49,403	22,779	1540,125	891,166
-48,388	16,776	1463,293	817,612
-47,373	17,821	1453,283	817,027
-46,359	17,240	1443,708	808,828
-45,344	15,004	1439,013	795,484
-44,330	14,940	1437,044	794,058
-43,315	14,952	1435,265	793,102
-42,300	14,945	1433,701	792,174
-41,286	15,001	1432,471	791,729
-40,271	14,905	1431,527	790,720
-39,257	14,943	1430,128	790,094
-38,242	14,987	1428,669	789,468
-37,227	14,998	1427,580	788,887
-36,213	15,032	1426,162	788,232
-35,198	14,943	1425,348	787,329
-34,184	15,019	1424,112	786,973
-33,169	14,947	1422,846	785,903
-32,154	15,035	1421,761	785,688
-31,140	14,952	1420,543	784,594
-30,125	15,023	1419,570	784,359
-29,111	14,992	1418,285	783,472
-28,096	14,986	1417,029	782,718
-27,082	14,928	1416,082	781,892
-26,067	14,918	1414,896	781,159
-25,052	14,952	1413,828	780,698
-24,038	14,888	1412,932	779,874
-23,023	14,863	1411,830	779,117
-22,009	14,858	1411,015	778,611
-20,994	14,843	1410,011	777,954
-19,979	14,831	1409,249	777,449
-18,965	14,841	1408,064	776,812
-17,950	14,805	1407,194	776,132
-16,936	14,807	1406,309	775,622
-15,921	14,804	1405,014	774,862
-14,906	14,810	1404,297	774,464
-13,892	14,826	1403,315	773,968
-12,877	14,802	1402,486	773,368
-11,863	14,798	1401,518	772,785
-10,848	14,727	1400,842	772,052
-9,833	14,790	1399,663	771,664
-8,819	14,783	1398,770	771,109
-7,804	14,764	1397,832	770,470
-6,790	14,723	1396,744	769,654
-5,775	14,680	1395,953	768,985
-4,760	14,687	1395,165	768,553
-3,746	14,679	1394,184	767,947
-2,731	14,708	1393,463	767,652
-1,717	14,733	1392,315	767,104
-0,702	14,711	1390,482	765,962
0,313	18,452	1309,392	738,634
1,327	34,712	706,552	436,246
2,342	53,422	124,450	84,312
3,356	4,530	16,599	8,591
4,371	9,968	3,107	1,665
5,386	-63,219	0,478	0,139
6,400	800,000	0,065	0,154
7,415	82,762	-0,236	-0,181
8,429	8,323	-0,324	-0,172
9,444	74,929	-0,292	-0,217
10,459	136,624	-0,221	-0,204
11,473	238,310	-0,116	-0,137
12,488	95,252	-0,208	-0,168
13,502	57,200	-0,317	-0,218
14,517	51,378	-0,372	-0,250
15,531	144,481	-0,352	-0,332
16,546	140,922	-0,323	-0,302
17,561	255,456	-0,360	-0,437
18,575	-138,969	-0,356	-0,027
19,590	800,000	-0,057	-0,144
20,604	-13,438	-0,315	-0,144
21,619	50,988	-0,459	-0,307
22,634	119,572	-0,328	-0,287
23,648	104,100	-0,460	-0,382
24,663	180,034	-0,398	-0,412
25,677	-17,887	-0,486	-0,214
26,692	108,544	-0,321	-0,271
27,707	-18,091	-0,375	-0,165
28,721	-25,503	-0,368	-0,153
29,736	23,850	-0,499	-0,290
30,750	112,288	-0,336	-0,287
31,765	33,335	-0,372	-0,227
32,780	242,180	-0,318	-0,376
33,794	32,236	-0,294	-0,179
34,809	145,176	-0,432	-0,408
35,823	-54,099	-0,431	-0,138
36,838	62,687	-0,329	-0,232
37,853	148,741	-0,379	-0,362
38,867	202,122	-0,391	-0,426
39,882	-93,777	-0,429	-0,083
40,896	37,819	-0,394	-0,247
41,911	125,473	-0,341	-0,303
42,926	30,310	-0,401	-0,241
43,940	1,128	-0,468	-0,236
44,955	71,698	-0,374	-0,274
45,969	45,587	-0,459	-0,298
46,984	50,419	-0,252	-0,167
47,999	14,793	-0,295	-0,162
49,013	155,096	-0,234	-0,227
50,028	122,473	-0,335	-0,295
51,042	255,700	-0,297	-0,360
52,057	-72,716	-0,394	-0,102
53,071	37,924	-0,440	-0,275
54,086	85,779	-0,283	-0,219
55,101	89,705	-0,373	-0,293
56,115	106,946	-0,320	-0,268
57,130	66,990	-0,348	-0,249
58,144	4,547	-0,411	-0,212
59,159	91,084	-0,367	-0,290
60,174	-8,374	-0,354	-0,167
61,188	188,442	-0,382	-0,403
62,203	84,847	-0,238	-0,184
63,217	60,211	-0,373	-0,260
64,232	-36,904	-0,281	-0,106
65,247	195,956	-0,210	-0,225
66,261	53,936	-0,383	-0,258
67,276	23,129	-0,411	-0,237
68,290	233,158	-0,257	-0,297
69,305	263,532	-0,183	-0,225
70,320	14,099	-0,375	-0,205
71,334	14,549	-0,229	-0,125
72,349	115,721	-0,292	-0,251
73,363	56,606	-0,351	-0,240
74,378	-21,820	-0,395	-0,168
75,393	100,054	-0,332	-0,270
76,407	60,639	-0,326	-0,227
77,422	132,466	-0,253	-0,230
78,436	-35,536	-0,313	-0,119
79,451	66,515	-0,266	-0,190
80,466	-62,756	-0,237	-0,069
81,480	49,791	-0,323	-0,214
82,495	53,227	-0,347	-0,233
83,509	48,453	-0,236	-0,155
84,524	-83,829	-0,361	-0,080
85,539	78,709	-0,184	-0,138
86,553	22,825	-0,329	-0,189
87,568	116,749	-0,323	-0,279
88,582	45,995	-0,255	-0,165
89,597	86,494	-0,258	-0,200
90,611	0,719	-0,269	-0,135
91,626	200,036	-0,150	-0,162
92,641	-101,662	-0,236	-0,040
93,655	12,750	-0,388	-0,210
94,670	-59,187	-0,252	-0,076
95,684	-31,273	-0,363	-0,143
96,699	296,421	-0,259	-0,334
97,714	-33,503	-0,256	-0,099
98,728	210,544	-0,195	-0,216
99,743	21,883	-0,318	-0,181
100,757	166,667	-0,221	-0,220
101,772	168,853	-0,272	-0,272
102,787	86,293	-0,218	-0,168
103,801	308,768	-0,164	-0,216
104,816	-160,077	-0,269	-0,010
105,830	131,374	-0,197	-0,178
106,845	-92,110	-0,199	-0,039
107,860	-18,194	-0,292	-0,128
108,874	-42,487	-0,345	-0,123
109,889	106,476	-0,271	-0,226
110,903	800,000	-0,107	-0,238
111,918	-4,061	-0,301	-0,146
112,933	800,000	-0,115	-0,242
113,947	157,975	-0,175	-0,170
114,962	44,052	-0,235	-0,151
115,976	-83,989	-0,264	-0,058
116,991	35,664	-0,348	-0,214
118,006	149,925	-0,207	-0,197
119,020	-32,591	-0,156	-0,061
120,035	106,588	-0,153	-0,127
121,049	-30,624	-0,303	-0,120
122,064	74,834	-0,161	-0,119
123,079	-200,000	-0,014	-0,198
124,093	202,067	-0,223	-0,241
125,108	103,847	-0,246	-0,203
126,122	-41,651	-0,248	-0,089
127,137	49,926	-0,280	-0,184
128,151	-76,163	-0,128	-0,031
129,166	-96,053	-0,364	-0,067
130,181	0,954	-0,278	-0,139
131,195	144,479	-0,191	-0,178
132,210	800,000	-0,143	-0,318
133,224	50,447	-0,287	-0,189
134,239	287,241	-0,191	-0,243
135,254	-11,065	-0,300	-0,138
136,268	-17,402	-0,238	-0,104
137,283	172,908	-0,286	-0,288
138,297	99,810	-0,354	-0,287
139,312	-24,539	-0,324	-0,134
140,327	206,691	-0,245	-0,267
141,341	22,276	-0,186	-0,106
142,356	158,831	-0,280	-0,272
143,370	231,912	-0,072	-0,082
144,385	-6,172	-0,193	-0,092
145,400	75,355	-0,332	-0,245
146,414	800,000	-0,104	-0,316
147,429	-60,346	-0,416	-0,123
148,443	-149,147	-0,282	-0,016
149,458	-30,607	-0,257	-0,101
150,473	40,969	-0,208	-0,131
151,487	84,392	-0,249	-0,190
152,502	-129,928	-0,179	0,017
153,516	-30,599	-0,319	-0,126
154,531	38,135	-0,262	-0,163
155,546	-132,950	-0,218	-0,019
156,560	481,088	-0,151	-0,239
157,575	161,809	-0,208	-0,203
158,589	140,846	-0,190	-0,176
159,604	143,511	-0,124	-0,115
160,619	391,747	-0,163	-0,237
161,633	763,936	-0,189	-0,360
162,648	110,896	-0,223	-0,187
163,662	198,589	-0,162	-0,173
164,677	-52,883	-0,269	-0,086
165,692	-26,162	-0,207	-0,084
166,706	44,359	-0,235	-0,150
167,721	37,215	-0,188	-0,116
168,735	-26,103	-0,236	-0,096
169,750	316,599	-0,192	-0,253
170,764	212,908	-0,164	-0,180
171,779	496,210	-0,132	-0,212
172,794	-70,593	-0,161	-0,042
173,808	24,625	-0,320	-0,184
174,823	-74,538	-0,242	-0,060
175,837	556,223	-0,154	-0,259
176,852	73,783	-0,212	-0,155
177,867	245,895	-0,134	-0,158
178,881	-13,772	-0,294	-0,132
179,896	-40,653	-0,200	-0,072
180,910	24,943	-0,216	-0,125
181,925	68,532	-0,149	-0,106
182,940	800,000	-0,070	-0,198
183,954	332,536	-0,222	-0,300
184,969	331,809	-0,214	-0,288
185,983	101,310	-0,180	-0,146
186,998	374,887	-0,129	-0,183
188,013	-55,702	-0,246	-0,076
189,027	7,182	-0,305	-0,158
190,042	-91,944	-0,341	-0,067
191,056	38,147	-0,336	-0,208
192,071	-86,991	-0,090	-0,019
193,086	133,308	-0,227	-0,204
194,100	-96,736	-0,353	-0,064
195,115	138,803	-0,211	-0,193
196,129	42,695	-0,255	-0,161
197,144	468,665	-0,145	-0,227
198,159	409,969	-0,185	-0,274
199,173	-157,005	-0,248	0,010
200,188	135,478	-0,184	-0,166
201,202	425,656	-0,140	-0,211
202,217	58,100	-0,229	-0,156
203,232	53,234	-0,213	-0,142
204,246	-38,544	-0,298	-0,109
205,261	442,706	-0,127	-0,193
206,275	396,309	-0,118	-0,172
207,290	8,705	-0,207	-0,108
208,304	-24,178	-0,212	-0,087
209,319	9,204	-0,157	-0,082
210,334	66,629	-0,245	-0,173
211,348	800,000	-0,088	-0,185
212,363	71,977	-0,207	-0,149
213,377	349,479	-0,113	-0,155
214,392	537,020	-0,137	-0,227
215,407	800,000	-0,087	-0,200
216,421	2,756	-0,205	-0,103
217,436	34,390	-0,206	-0,124
218,450	192,798	-0,196	-0,206
219,465	-21,816	-0,280	-0,118
220,480	-127,580	-0,193	0,019
221,494	33,123	-0,277	-0,166
222,509	160,116	-0,192	-0,186
223,523	224,696	-0,141	-0,159
224,538	173,895	-0,135	-0,136
225,553	-31,752	-0,177	-0,068
226,567	17,892	-0,244	-0,135
227,582	148,467	-0,121	-0,114
228,596	727,810	-0,124	-0,231
229,611	34,656	-0,118	-0,071
230,626	129,024	-0,113	-0,100
231,640	62,107	-0,263	-0,182
232,655	231,145	-0,233	-0,265
233,669	122,836	-0,186	-0,162
234,684	236,056	-0,150	-0,172
235,699	-153,376	-0,064	-0,003
236,713	-65,176	-0,166	0,046
237,728	294,172	-0,147	-0,187
238,742	-156,899	-0,237	0,010
239,757	-51,138	-0,228	-0,074
240,772	121,023	-0,198	-0,171
241,786	137,495	-0,197	-0,179
242,801	228,622	-0,213	-0,241
243,815	232,501	-0,127	-0,145
244,830	-25,000	-0,216	-0,088
245,844	66,461	-0,313	-0,220
246,859	77,418	-0,157	-0,116
247,874	134,197	-0,226	-0,203
248,888	288,555	-0,133	-0,167
249,903	325,913	-0,128	-0,170
250,917	-121,370	-0,200	-0,023
251,932	-69,110	-0,165	-0,044
252,947	-52,107	-0,286	-0,091
253,961	-1,348	-0,244	-0,119
254,976	800,000	-0,119	-0,244
255,990	221,134	-0,144	-0,161
257,005	-115,728	-0,116	0,015
258,020	-23,021	-0,128	-0,053
259,034	-67,434	-0,072	0,020
260,049	-200,000	0,008	-0,161
261,063	37,963	-0,189	-0,116
262,078	11,954	-0,153	-0,081
263,093	372,795	-0,095	-0,133
264,107	-200,000	-0,026	-0,083
265,122	274,283	-0,145	-0,177
266,136	-41,657	-0,127	-0,045
267,151	178,346	-0,146	-0,147
268,166	-77,428	-0,088	-0,021
269,180	603,316	-0,067	-0,116
270,195	563,557	-0,083	-0,139
271,209	-86,162	-0,165	-0,035
272,224	223,571	-0,176	-0,197
273,239	-37,673	-0,165	-0,060
274,253	-143,529	-0,135	-0,009
275,268	100,356	-0,200	-0,160
276,282	191,346	-0,231	-0,241
277,297	240,048	-0,187	-0,216
278,312	541,694	-0,159	-0,262
279,326	-200,000	-0,055	-0,207
280,341	168,249	-0,146	-0,144
281,355	-84,873	-0,079	0,017
282,370	-38,899	-0,174	-0,063
283,384	321,641	-0,096	-0,127
284,399	-166,187	-0,256	-0,007
285,414	192,436	-0,198	-0,207
286,428	-90,053	-0,171	0,034
287,443	-149,933	-0,052	-0,003
288,457	38,516	-0,216	-0,132
289,472	-200,000	-0,012	-0,149
290,487	89,069	-0,186	-0,143
291,501	183,807	-0,206	-0,211
292,516	164,057	-0,122	-0,119
293,530	-61,935	-0,157	0,045
294,545	-124,257	-0,198	-0,021
295,560	800,000	-0,054	-0,104
296,574	-35,601	-0,155	-0,058
297,589	-7,270	-0,173	-0,080
298,603	-200,000	0,010	-0,106
299,618	-200,000	-0,090	-0,285
300,633	630,962	-0,097	-0,171
301,647	800,000	-0,070	-0,193
302,662	10,648	-0,240	-0,126
303,676	-168,071	-0,286	0,008
304,691	107,751	-0,151	-0,124
305,706	-183,258	-0,204	-0,002
306,720	566,606	-0,079	-0,132
307,735	27,095	-0,155	-0,090
308,749	-6,958	-0,171	-0,080
309,764	-92,072	-0,133	-0,026
310,779	-76,430	-0,091	-0,022
311,793	-57,957	-0,163	-0,049
312,808	243,776	-0,163	-0,189
313,822	108,245	-0,192	-0,158
314,837	800,000	-0,067	-0,175
315,852	-67,380	-0,161	-0,043
316,866	-200,000	-0,012	-0,271
317,881	-89,786	-0,221	-0,044
318,895	-200,000	-0,045	-0,205
319,910	433,407	-0,146	-0,219
320,925	-41,630	-0,196	-0,069
321,939	67,088	-0,131	-0,092
322,954	176,441	-0,035	-0,035
323,968	-19,560	-0,095	-0,040
324,983	800,000	-0,080	-0,193
325,997	139,339	-0,118	-0,107
327,012	17,609	-0,107	-0,058
328,027	-137,830	-0,147	-0,011
329,041	186,276	-0,115	-0,117
330,056	-94,363	-0,146	-0,027
331,070	-131,034	0,010	-0,001
332,085	82,186	-0,051	-0,038
333,100	746,447	-0,068	-0,126
334,114	-44,972	-0,242	-0,082
335,129	359,585	-0,142	-0,196
336,143	58,437	-0,197	-0,133
337,158	-16,524	-0,244	-0,106
338,173	-200,000	-0,005	0,057
339,187	-63,053	-0,126	-0,036
340,202	800,000	-0,107	-0,228
341,216	36,443	-0,183	-0,111
342,231	20,236	-0,246	-0,136
343,246	506,783	-0,119	-0,191
344,260	-119,909	-0,128	-0,015
345,275	789,288	-0,055	-0,105
346,289	50,116	-0,145	-0,094
347,304	-200,000	0,002	0,068
348,319	-87,885	-0,185	-0,038
349,333	141,088	-0,242	-0,220
350,348	25,153	-0,194	-0,110
351,362	-34,642	-0,104	-0,039
352,377	-100,337	-0,051	-0,009
353,392	445,377	-0,071	-0,108
354,406	101,536	-0,163	-0,130
355,421	208,565	1317,565	1415,736
356,435	160,487	1478,649	1416,246
