DTS Sentinel unit serial number:	SN410029Multiplexer serial number:	ORYXHardware model number:	OX2-SRSoftware version number:	ORYX F/W v4,00 Oryx Data Collector v3.7.2.0data status	okinstallation	B3 Nyhavnadifferential loss correction	single-endedforward channel	channel 1reverse channel	N/Adate	2023/12/01time	19:22:30forward acquisition time	300,00reverse acquisition time	0,00gamma	499,1914k internal	0,3199k external	0,3199temperature offset calibration	1,0000default loss term (dB/km)	0,3820temperature slope calibration	1,0000multiplexer offset coefficient	1,0000multiplexer slope coefficient	1,0000fibre end	0,00T internal ref (°C)	15,41T ext. ref 1 (°C)	1,26T ext. ref 2 (°C)	1,25length (m)	temperature (°C)	Stokes	anti-Stokes-744,400	260,087	-0,242	-0,305
-743,385	-200,000	0,052	0,242
-742,371	800,000	-0,134	-0,282
-741,356	-200,000	0,055	0,464
-740,342	221,975	-0,272	-0,319
-739,327	263,821	0,183	0,232
-738,312	115,856	-0,244	-0,217
-737,298	-200,000	0,039	0,426
-736,283	82,077	-0,209	-0,165
-735,269	-200,000	-0,049	0,322
-734,254	215,606	-0,298	-0,344
-733,239	15,312	-0,251	0,143
-732,225	-200,000	-0,028	-0,308
-731,210	800,000	-0,057	0,163
-730,196	-169,505	-0,059	-0,002
-729,181	-0,303	-0,142	0,073
-728,167	800,000	0,066	-0,141
-727,152	1,743	-0,065	-0,034
-726,137	-32,124	-0,081	0,033
-725,123	-66,737	-0,188	-0,054
-724,108	190,807	-0,179	-0,196
-723,094	-200,000	-0,007	-0,053
-722,079	-200,000	-0,003	-0,121
-721,064	414,658	-0,128	-0,199
-720,050	418,774	0,062	-0,097
-719,035	52,961	0,091	-0,063
-718,021	63,757	-0,042	-0,031
-717,006	-8,052	-0,081	0,040
-715,991	-200,000	0,026	-0,124
-714,977	-200,000	0,010	-0,059
-713,962	12,786	-0,070	0,039
-712,948	-166,092	-0,043	-0,001
-711,933	-25,519	-0,088	0,038
-710,918	-22,289	-0,081	0,035
-709,904	-86,099	0,120	-0,027
-708,889	-84,236	-0,211	-0,048
-707,875	-200,000	0,001	-0,108
-706,860	-200,000	-0,029	-0,179
-705,845	800,000	0,023	-0,073
-704,831	43,081	-0,107	-0,071
-703,816	17,056	0,069	-0,040
-702,802	-200,000	-0,016	-0,109
-701,787	-200,000	-0,050	-0,171
-700,772	110,986	-0,072	0,063
-699,758	56,306	-0,097	0,069
-698,743	-46,989	0,028	0,010
-697,729	800,000	0,050	0,140
-696,714	9,895	0,064	0,035
-695,699	-200,000	0,029	-0,324
-694,685	-66,820	-0,090	-0,026
-693,670	-34,135	0,026	0,010
-692,656	-97,788	0,076	-0,014
-691,641	-200,000	-0,024	-0,092
-690,627	197,746	0,053	-0,059
-689,612	7,488	0,085	-0,046
-688,597	-36,449	0,025	0,010
-687,583	121,644	-0,090	-0,082
-686,568	-111,702	-0,120	-0,018
-685,554	301,352	0,033	0,044
-684,539	92,456	0,056	0,046
-683,524	800,000	-0,008	-0,016
-682,510	-200,000	0,012	0,079
-681,495	43,138	0,039	0,026
-680,481	-200,000	0,023	-0,135
-679,466	-200,000	0,004	-0,034
-678,451	-33,893	0,083	-0,033
-677,437	-112,151	0,191	0,028
-676,422	-122,028	0,193	-0,023
-675,408	-101,021	0,163	-0,029
-674,393	-141,172	-0,117	0,009
-673,378	84,195	-0,077	-0,061
-672,364	-143,022	-0,091	-0,006
-671,349	-25,314	-0,160	-0,068
-670,335	-122,830	0,048	0,006
-669,320	6,862	0,024	0,013
-668,305	645,469	0,112	-0,208
-667,291	-95,225	0,051	0,010
-666,276	-200,000	0,018	-0,089
-665,262	109,910	-0,036	0,031
-664,247	478,219	-0,091	0,150
-663,232	-26,713	0,095	0,040
-662,218	561,527	-0,012	-0,021
-661,203	-200,000	-0,039	-0,170
-660,189	376,391	0,054	-0,081
-659,174	-105,148	-0,061	-0,010
-658,159	-35,245	-0,100	-0,039
-657,145	-136,121	-0,171	0,014
-656,130	800,000	-0,015	-0,030
-655,116	-64,051	0,077	-0,023
-654,101	800,000	0,030	0,083
-653,086	-35,597	-0,128	-0,050
-652,072	66,005	0,107	0,079
-651,057	246,946	-0,123	-0,150
-650,043	16,748	-0,134	-0,077
-649,028	-10,917	-0,061	0,029
-648,014	402,720	-0,012	0,018
-646,999	-28,971	0,164	-0,068
-645,984	357,774	-0,108	0,157
-644,970	570,988	-0,066	-0,116
-643,955	-200,000	0,021	-0,074
-642,941	69,361	-0,184	-0,137
-641,926	78,689	0,119	-0,092
-640,911	24,373	-0,046	0,027
-639,897	-200,000	-0,011	0,063
-638,882	610,890	-0,011	-0,020
-637,868	-200,000	0,011	-0,167
-636,853	98,390	-0,091	-0,076
-635,838	-53,346	0,002	-0,001
-634,824	-81,482	0,075	-0,018
-633,809	-69,225	0,102	-0,028
-632,795	-124,252	-0,086	0,010
-631,780	25,347	0,089	0,053
-630,765	196,046	-0,111	0,123
-629,751	709,687	-0,063	-0,121
-628,736	177,721	-0,106	0,112
-627,722	800,000	0,016	-0,036
-626,707	522,442	0,063	-0,107
-625,692	95,690	0,040	-0,033
-624,678	800,000	-0,027	0,057
-623,663	-39,040	-0,060	-0,023
-622,649	-90,316	0,079	0,016
-621,634	17,630	-0,080	-0,046
-620,619	70,118	0,040	0,030
-619,605	-49,213	-0,031	0,011
-618,590	87,983	0,049	0,039
-617,576	-144,342	-0,062	-0,004
-616,561	590,352	0,078	-0,139
-615,546	-105,342	0,041	-0,007
-614,532	-19,294	-0,100	-0,045
-613,517	-62,680	0,046	-0,014
-612,503	174,198	-0,074	0,077
-611,488	-200,000	0,018	0,057
-610,474	-1,657	0,117	0,060
-609,459	-133,429	-0,114	0,010
-608,444	-200,000	0,002	-0,075
-607,430	326,777	-0,026	0,036
-606,415	25,990	-0,018	-0,011
-605,401	-200,000	0,029	-0,096
-604,386	-60,301	-0,059	0,018
-603,371	246,567	0,013	-0,016
-602,357	-200,000	0,041	0,166
-601,342	495,880	-0,107	0,179
-600,328	-114,879	-0,134	-0,018
-599,313	6,137	-0,091	-0,049
-598,298	-155,735	0,249	0,011
-597,284	-27,479	0,117	-0,049
-596,269	-56,122	0,135	0,043
-595,255	550,157	0,030	-0,052
-594,240	-4,233	-0,112	-0,056
-593,225	146,220	-0,040	0,039
-592,211	763,938	-0,026	0,051
-591,196	82,373	0,109	0,086
-590,182	119,392	-0,008	-0,008
-589,167	-200,000	-0,004	0,056
-588,152	-35,862	-0,150	0,058
-587,138	-57,352	-0,037	0,012
-586,123	-126,929	-0,078	0,008
-585,109	115,205	-0,087	0,077
-584,094	-62,823	0,057	0,017
-583,079	-53,722	0,069	0,023
-582,065	291,883	-0,016	-0,021
-581,050	568,905	-0,031	0,055
-580,036	-82,577	0,041	0,010
-579,021	-200,000	0,031	-0,104
-578,006	404,452	-0,108	-0,165
-576,992	-200,000	0,010	-0,044
-575,977	275,138	0,065	-0,084
-574,963	-178,284	0,130	0,002
-573,948	-200,000	-0,026	-0,083
-572,934	327,397	-0,067	0,093
-571,919	-96,487	-0,058	-0,011
-570,904	-200,000	-0,015	0,051
-569,890	-127,298	0,141	0,015
-568,875	800,000	0,026	0,067
-567,861	-200,000	0,114	-0,000
-566,846	326,036	-0,033	0,046
-565,831	-27,093	-0,006	-0,003
-564,817	6,955	-0,017	-0,009
-563,802	22,714	0,114	-0,067
-562,788	800,000	0,059	-0,122
-561,773	-59,128	-0,040	0,012
-560,758	-200,000	0,068	-0,000
-559,744	273,004	0,055	0,070
-558,729	800,000	0,024	0,054
-557,715	-40,607	-0,068	-0,025
-556,700	800,000	0,057	0,135
-555,685	339,558	0,025	0,036
-554,671	58,728	0,089	-0,063
-553,656	189,887	-0,079	0,086
-552,642	424,243	0,032	0,049
-551,627	-61,560	-0,077	-0,023
-550,612	250,913	-0,135	-0,167
-549,598	-200,000	-0,019	-0,184
-548,583	-130,340	-0,140	-0,014
-547,569	753,705	0,016	-0,031
-546,554	-200,000	-0,001	-0,055
-545,539	24,455	0,040	0,024
-544,525	100,364	0,038	-0,032
-543,510	-64,848	0,069	0,020
-542,496	-200,000	0,016	-0,062
-541,481	216,749	-0,030	-0,034
-540,466	11,256	-0,109	0,060
-539,452	-101,487	0,031	0,005
-538,437	45,729	0,040	-0,027
-537,423	-129,734	-0,061	-0,006
-536,408	-200,000	-0,019	-0,103
-535,393	800,000	-0,059	-0,127
-534,379	51,625	0,040	-0,027
-533,364	-27,959	0,126	-0,052
-532,350	142,857	0,053	0,050
-531,335	311,516	-0,024	-0,033
-530,321	289,896	-0,087	0,114
-529,306	-46,033	-0,046	-0,016
-528,291	201,177	0,050	0,055
-527,277	167,735	-0,064	-0,065
-526,262	162,284	-0,049	-0,050
-525,248	422,519	0,042	-0,065
-524,233	449,142	0,033	0,053
-523,218	-63,845	0,051	0,015
-522,204	-200,000	-0,033	-0,118
-521,189	533,917	-0,059	0,101
-520,175	-187,382	-0,113	0,001
-519,160	-124,355	-0,146	0,016
-518,145	-81,920	-0,035	0,008
-517,131	800,000	-0,060	0,172
-516,116	347,853	-0,118	0,168
-515,102	160,105	-0,147	0,148
-514,087	-58,383	-0,142	-0,044
-513,072	227,776	0,068	0,080
-512,058	72,501	0,115	-0,086
-511,043	-130,811	-0,092	-0,009
-510,029	657,448	-0,070	0,131
-509,014	-166,656	0,143	0,004
-507,999	62,474	0,091	0,066
-506,985	194,609	-0,073	0,080
-505,970	216,294	-0,005	-0,006
-504,956	405,524	0,081	-0,123
-503,941	-83,967	0,057	-0,013
-502,926	252,167	0,024	0,030
-501,912	-200,000	-0,015	0,071
-500,897	4,113	0,063	0,033
-499,883	11,207	-0,098	0,054
-498,868	-200,000	0,013	0,087
-497,853	800,000	-0,080	0,160
-496,839	-14,143	-0,015	-0,007
-495,824	480,872	0,066	-0,109
-494,810	800,000	0,047	0,120
-493,795	110,031	0,090	-0,078
-492,781	-108,453	-0,155	-0,024
-491,766	-200,000	0,016	0,176
-490,751	800,000	-0,051	0,145
-489,737	170,504	-0,078	0,080
-488,722	-126,932	0,092	0,010
-487,708	800,000	-0,041	0,091
-486,693	93,409	-0,026	0,021
-485,678	800,000	-0,070	-0,163
-484,664	185,588	0,061	0,065
-483,649	-45,870	-0,067	-0,024
-482,635	800,000	-0,079	0,166
-481,620	-0,803	0,055	-0,028
-480,605	-26,240	0,071	-0,030
-479,591	411,507	-0,029	0,045
-478,576	-136,758	0,023	0,002
-477,562	-185,347	-0,081	-0,001
-476,547	-200,000	-0,016	-0,054
-475,532	800,000	-0,048	-0,114
-474,518	129,478	0,104	0,096
-473,503	-101,893	0,118	-0,020
-472,489	43,020	-0,035	0,023
-471,474	29,700	0,118	0,072
-470,459	-63,664	-0,051	0,015
-469,445	-188,541	0,061	0,001
-468,430	-14,348	-0,120	-0,056
-467,416	17,175	0,145	0,082
-466,401	237,153	-0,146	0,174
-465,386	136,617	-0,095	0,089
-464,372	800,000	-0,063	-0,181
-463,357	-68,979	-0,073	0,020
-462,343	70,125	-0,071	-0,053
-461,328	508,126	0,092	-0,154
-460,313	204,946	0,068	-0,076
-459,299	800,000	0,042	0,097
-458,284	546,488	-0,063	0,109
-457,270	800,000	0,016	-0,036
-456,255	-200,000	0,003	-0,140
-455,241	-132,906	0,102	-0,009
-454,226	-200,000	0,002	-0,109
-453,211	-200,000	0,002	0,078
-452,197	176,757	0,074	0,077
-451,182	179,346	0,105	0,111
-450,168	-200,000	0,001	0,082
-449,153	-119,383	0,035	-0,004
-448,138	329,349	-0,064	0,089
-447,124	92,400	0,136	-0,111
-446,109	735,708	0,078	0,151
-445,095	-175,964	-0,080	0,002
-444,080	670,340	-0,056	0,105
-443,065	-199,017	-0,117	-0,000
-442,051	543,505	0,057	0,098
-441,036	139,820	0,107	-0,101
-440,022	-200,000	0,009	-0,116
-439,007	110,720	-0,060	0,052
-437,992	-125,696	0,080	0,009
-436,978	500,141	-0,086	0,143
-435,963	89,007	0,105	-0,084
-434,949	-200,000	-0,002	0,012
-433,934	800,000	-0,013	-0,034
-432,919	451,197	0,033	-0,053
-431,905	-27,275	-0,137	-0,057
-430,890	800,000	0,074	-0,185
-429,876	-200,000	-0,018	-0,063
-428,861	342,636	0,088	0,124
-427,846	114,736	-0,048	0,042
-426,832	-200,000	-0,001	0,010
-425,817	118,655	0,063	-0,056
-424,803	-23,705	0,110	-0,047
-423,788	267,389	-0,077	0,096
-422,773	-115,914	0,055	-0,007
-421,759	800,000	0,009	0,024
-420,744	-200,000	-0,003	-0,080
-419,730	800,000	0,053	-0,130
-418,715	800,000	-0,041	-0,128
-417,701	614,634	0,064	0,116
-416,686	800,000	-0,011	0,030
-415,671	259,079	-0,024	-0,029
-414,657	91,009	-0,051	-0,041
-413,642	-74,257	-0,127	-0,033
-412,628	552,122	0,039	-0,068
-411,613	-200,000	-0,016	0,109
-410,598	-200,000	-0,005	0,030
-409,584	-17,146	0,163	0,073
-408,569	164,320	0,103	0,104
-407,555	-52,938	-0,056	0,018
-406,540	268,033	-0,061	0,078
-405,525	800,000	-0,026	-0,080
-404,511	-78,187	0,006	-0,001
-403,496	744,954	-0,069	0,134
-402,482	191,244	-0,035	0,038
-401,467	800,000	0,047	0,100
-400,452	69,739	0,150	0,111
-399,438	-24,221	-0,078	0,033
-398,423	28,388	-0,084	0,051
-397,409	800,000	0,042	-0,113
-396,394	773,540	-0,003	-0,006
-395,379	-26,972	0,037	0,016
-394,365	-150,819	0,133	-0,007
-393,350	376,324	0,049	-0,072
-392,336	-97,204	-0,084	-0,016
-391,321	98,562	0,008	-0,007
-390,306	-200,000	-0,008	-0,041
-389,292	71,032	0,029	0,022
-388,277	66,856	-0,119	-0,087
-387,263	174,599	0,071	-0,074
-386,248	-200,000	0,008	0,135
-385,233	338,315	-0,065	0,090
-384,219	202,633	-0,095	0,105
-383,204	-200,000	0,000	-0,124
-382,190	499,566	-0,033	0,055
-381,175	52,547	0,065	0,044
-380,160	800,000	0,038	-0,088
-379,146	-68,865	0,116	-0,032
-378,131	-200,000	0,002	-0,035
-377,117	469,768	0,071	0,115
-376,102	-200,000	-0,002	-0,008
-375,088	-94,756	-0,213	-0,041
-374,073	-200,000	-0,010	0,092
-373,058	532,971	-0,084	-0,143
-372,044	-124,291	-0,137	-0,015
-371,029	-138,920	0,059	-0,005
-370,015	-145,105	-0,113	-0,007
-369,000	163,918	-0,060	-0,061
-367,985	-200,000	-0,036	-0,227
-366,971	800,000	-0,021	-0,057
-365,956	465,816	-0,074	0,119
-364,942	-200,000	-0,011	0,042
-363,927	113,992	-0,085	-0,074
-362,912	37,212	0,090	-0,057
-361,898	2,065	-0,102	0,053
-360,883	-200,000	0,008	0,151
-359,869	79,108	-0,008	-0,006
-358,854	-101,873	0,032	0,005
-357,839	121,475	0,109	-0,097
-356,825	141,222	0,072	-0,068
-355,810	-200,000	0,036	-0,165
-354,796	-32,060	0,079	0,031
-353,781	-160,187	0,105	-0,004
-352,766	-200,000	-0,015	-0,071
-351,752	800,000	-0,038	0,086
-350,737	520,881	-0,075	0,126
-349,723	800,000	0,038	-0,082
-348,708	-200,000	-0,021	0,078
-347,693	17,386	0,013	-0,007
-346,679	644,616	0,031	0,056
-345,664	252,695	0,085	-0,104
-344,650	-116,114	-0,086	-0,011
-343,635	423,493	0,052	0,081
-342,620	460,179	0,049	0,078
-341,606	143,200	-0,015	0,015
-340,591	235,103	-0,088	-0,104
-339,577	-200,000	-0,021	-0,102
-338,562	-200,000	0,001	-0,091
-337,548	-71,537	0,085	-0,023
-336,533	436,135	0,100	0,156
-335,518	180,668	0,034	-0,036
-334,504	800,000	-0,025	0,073
-333,489	-2,886	0,049	-0,024
-332,475	-200,000	-0,009	-0,106
-331,460	800,000	-0,010	-0,025
-330,445	391,328	0,056	-0,083
-329,431	274,924	0,086	-0,109
-328,416	-200,000	0,001	0,027
-327,402	-200,000	0,001	0,003
-326,387	-154,565	-0,042	-0,002
-325,372	-37,384	-0,104	0,040
-324,358	-200,000	-0,014	-0,132
-323,343	-10,365	-0,096	-0,045
-322,329	235,322	0,008	-0,009
-321,314	-8,377	-0,113	0,054
-320,299	-19,890	-0,032	-0,014
-319,285	-113,683	0,049	0,007
-318,270	11,495	0,020	-0,011
-317,256	-200,000	-0,010	-0,046
-316,241	-10,696	-0,107	0,050
-315,226	-90,594	0,059	0,012
-314,212	276,638	-0,076	0,097
-313,197	122,545	0,021	0,019
-312,183	392,197	-0,046	-0,068
-311,168	177,225	-0,041	0,043
-310,153	34,138	0,069	0,043
-309,139	-200,000	0,013	-0,100
-308,124	219,901	-0,036	0,041
-307,110	182,673	0,059	-0,062
-306,095	800,000	0,014	-0,028
-305,080	-119,085	-0,105	0,013
-304,066	-200,000	-0,016	-0,111
-303,051	-200,000	-0,002	-0,026
-302,037	244,415	0,032	-0,039
-301,022	800,000	0,020	0,051
-300,008	-117,016	0,114	0,015
-298,993	800,000	-0,027	-0,059
-297,978	-118,309	-0,087	0,011
-296,964	-39,115	-0,092	0,034
-295,949	160,924	0,057	-0,057
-294,935	-200,000	-0,032	-0,180
-293,920	800,000	0,031	-0,098
-292,905	29,758	0,154	0,093
-291,891	50,964	0,039	-0,027
-290,876	-200,000	-0,006	0,065
-289,862	461,158	-0,045	0,071
-288,847	-200,000	0,028	-0,101
-287,832	276,655	0,087	-0,110
-286,818	169,465	-0,088	-0,090
-285,803	549,370	0,068	-0,117
-284,789	718,634	0,028	0,054
-283,774	48,022	-0,023	0,016
-282,759	26,691	0,088	0,052
-281,745	214,723	0,053	-0,060
-280,730	-200,000	-0,017	-0,096
-279,716	-53,577	-0,062	-0,020
-278,701	800,000	-0,015	-0,034
-277,686	703,226	-0,065	0,123
-276,672	-49,826	0,072	0,024
-275,657	-200,000	-0,016	-0,065
-274,643	30,019	-0,140	0,085
-273,628	-91,346	0,017	-0,003
-272,613	-19,192	0,080	0,036
-271,599	800,000	-0,010	0,026
-270,584	242,194	0,057	0,068
-269,570	42,773	0,149	0,097
-268,555	-200,000	0,013	0,162
-267,540	800,000	0,032	-0,090
-266,526	67,945	-0,063	-0,046
-265,511	-102,337	0,095	0,016
-264,497	217,924	0,066	-0,075
-263,482	327,010	0,077	0,106
-262,467	-93,723	-0,126	0,024
-261,453	508,334	0,087	0,144
-260,438	35,184	0,101	-0,063
-259,424	209,206	0,067	-0,075
-258,409	-200,000	0,023	-0,129
-257,395	800,000	0,026	-0,069
-256,380	-14,471	-0,014	0,006
-255,365	197,517	0,063	0,069
-254,351	598,388	0,029	0,051
-253,336	137,018	0,097	0,090
-252,322	-31,949	-0,095	-0,038
-251,307	-166,544	-0,101	-0,003
-250,292	491,461	0,027	0,044
-249,278	-200,000	-0,015	0,084
-248,263	800,000	0,048	0,139
-247,249	503,252	0,049	-0,081
-246,234	-84,092	-0,052	0,012
-245,219	-200,000	-0,003	0,043
-244,205	263,464	0,056	-0,069
-243,190	-200,000	-0,004	0,141
-242,176	15,353	-0,062	0,035
-241,161	800,000	0,064	0,147
-240,146	-200,000	0,022	0,146
-239,132	800,000	-0,014	-0,036
-238,117	-72,697	0,151	-0,039
-237,103	-200,000	-0,006	-0,135
-236,088	27,451	0,112	-0,067
-235,073	-134,414	0,194	0,017
-234,059	277,473	0,122	0,155
-233,044	276,141	-0,074	-0,094
-232,030	320,736	0,055	0,075
-231,015	-60,597	-0,091	-0,027
-230,000	534,234	-0,050	0,085
-228,986	-121,796	0,156	0,018
-227,971	800,000	0,026	0,058
-226,957	-200,000	0,020	0,139
-225,942	-5,392	-0,107	0,052
-224,927	4,230	-0,071	0,037
-223,913	-109,615	0,069	-0,010
-222,898	590,692	0,077	0,136
-221,884	-200,000	-0,016	-0,144
-220,869	470,286	0,069	0,111
-219,855	-56,922	0,130	0,041
-218,840	221,442	-0,032	-0,037
-217,825	-200,000	0,008	-0,077
-216,811	-200,000	-0,036	-0,180
-215,796	800,000	-0,044	-0,090
-214,782	-200,000	-0,008	-0,115
-213,767	800,000	-0,045	-0,130
-212,752	28,170	-0,066	-0,040
-211,738	137,331	-0,026	-0,025
-210,723	-61,813	-0,050	0,015
-209,709	-116,803	-0,093	0,012
-208,694	23,395	0,067	-0,039
-207,679	80,496	0,030	-0,023
-206,665	-200,000	-0,030	0,096
-205,650	402,299	-0,074	0,112
-204,636	800,000	-0,031	0,077
-203,621	-16,880	0,089	-0,040
-202,606	-66,791	-0,086	0,024
-201,592	-200,000	-0,009	-0,063
-200,577	-200,000	0,036	-0,143
-199,563	-64,980	0,029	0,008
-198,548	380,964	0,018	0,026
-197,533	108,735	0,137	-0,117
-196,519	47,938	-0,049	-0,032
-195,504	-133,492	0,037	-0,003
-194,490	297,435	-0,168	-0,220
-193,475	-200,000	-0,011	0,092
-192,460	-62,363	-0,168	0,049
-191,446	-200,000	0,016	0,069
-190,431	170,714	-0,078	0,080
-189,417	342,394	-0,032	0,045
-188,402	-200,000	-0,006	-0,110
-187,387	2,596	-0,139	-0,071
-186,373	-41,401	-0,038	-0,014
-185,358	-134,246	-0,191	-0,017
-184,344	800,000	0,060	-0,130
-183,329	795,786	-0,055	0,109
-182,315	241,516	0,164	0,196
-181,300	393,697	0,066	-0,098
-180,285	18,921	0,110	0,062
-179,271	-10,224	-0,128	0,060
-178,256	323,065	-0,047	0,064
-177,242	467,429	0,054	0,086
-176,227	-35,247	-0,099	0,038
-175,212	358,582	-0,016	0,023
-174,198	-188,830	0,157	-0,001
-173,183	35,801	-0,086	-0,054
-172,169	-200,000	-0,002	0,063
-171,154	222,214	0,060	0,069
-170,139	-200,000	-0,031	-0,166
-169,125	800,000	0,026	0,077
-168,110	-105,047	0,073	0,012
-167,096	63,861	0,079	-0,056
-166,081	-200,000	0,025	-0,132
-165,066	800,000	-0,057	-0,151
-164,052	570,601	0,083	-0,144
-163,037	76,286	0,040	-0,030
-162,023	-200,000	0,028	-0,091
-161,008	-83,585	-0,057	-0,013
-159,993	-200,000	0,010	-0,073
-158,979	515,077	0,052	0,086
-157,964	241,217	-0,113	-0,134
-156,950	-123,885	-0,164	0,018
-155,935	600,184	-0,016	0,028
-154,920	42,842	-0,056	-0,036
-153,906	-200,000	0,021	0,110
-152,891	72,691	0,043	0,032
-151,877	-200,000	-0,005	0,028
-150,862	604,768	-0,071	-0,126
-149,847	-50,736	-0,036	-0,012
-148,833	124,824	-0,112	0,100
-147,818	800,000	0,055	-0,127
-146,804	-24,323	-0,134	-0,057
-145,789	-32,462	-0,033	0,013
-144,775	-62,899	0,088	-0,026
-143,760	-200,000	0,044	-0,149
-142,745	-75,184	-0,104	0,026
-141,731	446,062	-0,038	-0,059
-140,716	-76,316	-0,019	-0,005
-139,702	-200,000	0,026	0,157
-138,687	-22,446	0,066	-0,028
-137,672	-77,429	-0,143	-0,035
-136,658	-62,910	-0,065	-0,019
-135,643	-200,000	0,031	-0,111
-134,629	5,461	-0,076	0,040
-133,614	-157,771	0,049	0,002
-132,599	-38,830	0,026	-0,010
-131,585	63,360	-0,066	0,047
-130,570	-156,665	-0,050	-0,002
-129,556	146,851	-0,042	-0,040
-128,541	-200,000	0,032	-0,138
-127,526	-128,834	-0,124	0,012
-126,512	-123,500	-0,038	0,004
-125,497	-74,075	0,066	0,017
-124,483	114,839	-0,086	0,074
-123,468	-178,727	0,073	0,001
-122,453	-200,000	0,020	-0,084
-121,439	725,077	-0,082	-0,156
-120,424	141,233	-0,071	-0,067
-119,410	-100,556	0,040	0,007
-118,395	51,653	0,040	-0,027
-117,380	800,000	0,038	0,116
-116,366	192,275	-0,087	-0,094
-115,351	-65,922	0,076	-0,021
-114,337	8,742	0,033	0,017
-113,322	-16,234	-0,211	-0,095
-112,307	-100,357	-0,063	-0,011
-111,293	-23,693	0,220	0,093
-110,278	-138,786	-0,066	0,005
-109,264	71,122	0,112	0,082
-108,249	100,824	-0,106	0,088
-107,234	-47,030	-0,119	-0,041
-106,220	-200,000	0,027	0,095
-105,205	800,000	0,076	0,172
-104,191	-148,217	-0,010	-0,001
-103,176	-200,000	-0,010	0,100
-102,162	-145,694	0,116	0,007
-101,147	123,970	-0,047	-0,042
-100,132	119,573	0,089	-0,079
-99,118	451,277	-0,029	0,045
-98,103	-70,391	-0,073	0,019
-97,089	263,757	-0,031	0,038
-96,074	166,875	0,021	0,021
-95,059	800,000	-0,030	0,065
-94,045	612,800	0,038	-0,067
-93,030	42,906	-0,166	0,107
-92,016	800,000	0,019	0,060
-91,001	-27,235	0,079	0,033
-89,986	-2,617	0,152	0,075
-88,972	-200,000	0,013	-0,095
-87,957	-200,000	-0,026	0,106
-86,943	305,422	-0,021	-0,028
-85,928	-200,000	-0,042	-0,137
-84,913	-177,856	-0,054	-0,001
-83,899	-200,000	-0,062	-0,273
-82,884	-200,000	0,076	0,000
-81,870	65,827	0,199	0,143
-80,855	800,000	-0,054	-0,134
-79,840	82,377	0,047	-0,036
-78,826	-200,000	0,017	-0,060
-77,811	-200,000	-0,010	0,048
-76,797	-81,147	-0,134	0,031
-75,782	82,264	0,106	-0,081
-74,767	-52,009	0,163	-0,053
-73,753	-152,254	-0,022	-0,001
-72,738	-40,732	-0,103	0,038
-71,724	-14,467	-0,084	0,038
-70,709	122,941	-0,090	-0,080
-69,694	800,000	-0,007	0,018
-68,680	800,000	-0,030	0,076
-67,665	145,845	0,148	0,140
-66,651	147,781	0,061	-0,059
-65,636	295,623	-0,120	-0,156
-64,622	-200,000	0,026	-0,135
-63,607	-81,555	0,057	0,013
-62,592	-51,821	-0,064	-0,021
-61,578	48,578	0,050	0,033
-60,563	-200,000	0,006	0,073
-59,549	-200,000	-0,036	0,164
-58,534	-60,255	-1,538	-0,461
-57,519	424,206	-1,459	-2,230
-56,505	-200,000	-0,528	-4,421
-55,490	126,921	0,780	0,700
-54,476	800,000	4,879	11,258
-53,461	-200,000	17,924	286,883
-52,446	800,000	722,978	2232,286
-51,432	561,203	1637,773	2815,344
-50,417	80,327	1660,629	1264,871
-49,403	23,264	1534,935	890,788
-48,388	17,232	1458,143	817,096
-47,373	18,048	1447,862	815,221
-46,359	17,539	1438,354	807,410
-45,344	15,544	1433,653	795,244
-44,330	15,432	1431,996	793,761
-43,315	15,467	1429,969	792,774
-42,300	15,434	1428,432	791,731
-41,286	15,555	1427,086	791,529
-40,271	15,513	1426,014	790,703
-39,257	15,462	1424,872	789,799
-38,242	15,569	1423,233	789,365
-37,227	15,560	1422,055	788,639
-36,213	15,507	1420,850	787,689
-35,198	15,513	1419,663	787,027
-34,184	15,549	1418,681	786,618
-33,169	15,468	1417,702	785,665
-32,154	15,482	1416,616	785,096
-31,140	15,519	1415,271	784,492
-30,125	15,566	1413,924	783,936
-29,111	15,505	1412,993	783,106
-28,096	15,474	1411,876	782,309
-27,082	15,416	1410,870	781,447
-26,067	15,449	1409,677	780,913
-25,052	15,452	1408,574	780,284
-24,038	15,445	1407,429	779,585
-23,023	15,405	1406,677	778,949
-22,009	15,408	1405,757	778,423
-20,994	15,394	1404,733	777,760
-19,979	15,392	1403,787	777,199
-18,965	15,402	1402,711	776,617
-17,950	15,355	1401,946	775,943
-16,936	15,357	1400,823	775,302
-15,921	15,369	1399,727	774,718
-14,906	15,324	1398,687	773,906
-13,892	15,354	1397,921	773,589
-12,877	15,359	1397,081	773,118
-11,863	15,344	1396,018	772,426
-10,848	15,299	1395,192	771,733
-9,833	15,278	1394,318	771,122
-8,819	15,279	1393,118	770,430
-7,804	15,234	1392,386	769,788
-6,790	15,258	1391,330	769,285
-5,775	15,210	1390,440	768,539
-4,760	15,223	1389,708	768,167
-3,746	15,229	1388,798	767,659
-2,731	15,229	1387,889	767,128
-1,717	15,195	1386,802	766,338
-0,702	15,257	1384,951	765,569
0,313	19,106	1305,383	739,340
1,327	35,499	706,905	438,356
2,342	54,168	125,163	85,107
3,356	2,933	16,494	8,450
4,371	0,139	3,127	1,573
5,386	40,296	0,558	0,354
6,400	36,658	-0,076	0,048
7,415	119,436	-0,272	-0,239
8,429	166,730	-0,176	-0,177
9,444	81,601	-0,275	-0,210
10,459	27,892	-0,266	-0,158
11,473	45,243	-0,288	-0,188
12,488	-120,524	-0,289	0,034
13,502	62,465	-0,307	-0,216
14,517	106,986	-0,289	-0,243
15,531	224,685	-0,328	-0,375
16,546	82,827	-0,397	-0,305
17,561	175,152	-0,378	-0,387
18,575	198,048	-0,115	-0,124
19,590	8,308	-0,270	-0,143
20,604	-49,649	-0,184	-0,061
21,619	173,409	-0,351	-0,358
22,634	80,068	-0,506	-0,384
23,648	31,610	-0,476	-0,288
24,663	24,068	-0,416	-0,242
25,677	113,318	-0,346	-0,296
26,692	361,653	-0,217	-0,309
27,707	50,833	-0,404	-0,270
28,721	184,836	-0,257	-0,270
29,736	109,247	-0,432	-0,365
30,750	143,240	-0,341	-0,321
31,765	63,112	-0,294	-0,208
32,780	197,648	-0,367	-0,396
33,794	261,933	-0,320	-0,393
34,809	108,229	-0,295	-0,248
35,823	-145,151	-0,372	-0,023
36,838	55,893	-0,432	-0,295
37,853	104,793	-0,405	-0,337
38,867	108,137	-0,313	-0,264
39,882	63,576	-0,400	-0,283
40,896	104,058	-0,288	-0,239
41,911	413,666	-0,267	-0,402
42,926	102,826	-0,348	-0,287
43,940	156,125	-0,290	-0,283
44,955	120,051	-0,465	-0,407
45,969	17,275	-0,401	-0,224
46,984	86,925	-0,335	-0,261
47,999	-75,366	-0,207	-0,052
49,013	-8,960	-0,363	-0,171
50,028	-23,403	-0,404	-0,170
51,042	161,417	-0,313	-0,309
52,057	181,351	-0,274	-0,284
53,071	41,505	-0,234	-0,149
54,086	72,121	-0,228	-0,167
55,101	-30,655	-0,286	-0,114
56,115	-39,551	-0,455	-0,167
57,130	98,776	-0,416	-0,338
58,144	77,304	-0,304	-0,228
59,159	310,891	-0,259	-0,342
60,174	78,745	-0,404	-0,304
61,188	146,372	-0,284	-0,268
62,203	-69,582	-0,470	-0,126
63,217	62,345	-0,274	-0,192
64,232	-30,532	-0,356	-0,141
65,247	36,261	-0,360	-0,223
66,261	181,951	-0,298	-0,309
67,276	14,886	-0,373	-0,205
68,290	17,946	-0,363	-0,203
69,305	29,120	-0,342	-0,203
70,320	28,049	-0,341	-0,202
71,334	53,149	-0,323	-0,217
72,349	40,827	-0,342	-0,217
73,363	-15,161	-0,307	-0,138
74,378	137,193	-0,246	-0,227
75,393	24,769	-0,287	-0,167
76,407	3,968	-0,371	-0,190
77,422	154,294	-0,219	-0,211
78,436	173,106	-0,293	-0,297
79,451	24,922	-0,195	-0,114
80,466	-31,279	-0,318	-0,125
81,480	113,627	-0,347	-0,296
82,495	53,125	-0,325	-0,218
83,509	38,903	-0,217	-0,136
84,524	12,513	-0,193	-0,104
85,539	86,380	-0,294	-0,228
86,553	-27,267	-0,427	-0,174
87,568	99,170	-0,201	-0,163
88,582	-129,208	-0,299	-0,029
89,597	94,131	-0,418	-0,333
90,611	225,149	-0,273	-0,311
91,626	-66,253	-0,217	-0,060
92,641	-73,966	-0,266	-0,067
93,655	337,125	-0,140	-0,191
94,670	288,213	-0,184	-0,235
95,684	-47,589	-0,322	-0,109
96,699	-48,931	-0,326	-0,109
97,714	429,532	-0,185	-0,282
98,728	13,797	-0,288	-0,157
99,743	222,512	-0,191	-0,216
100,757	83,909	-0,263	-0,201
101,772	-59,594	-0,232	-0,069
102,787	-2,017	-0,333	-0,164
103,801	171,116	-0,257	-0,259
104,816	21,651	-0,401	-0,228
105,830	-41,062	-0,300	-0,108
106,845	-5,307	-0,257	-0,123
107,860	36,809	-0,247	-0,153
108,874	104,353	-0,314	-0,259
109,889	12,430	-0,248	-0,134
110,903	50,465	-0,250	-0,166
111,918	-17,989	-0,333	-0,146
112,933	103,700	-0,259	-0,213
113,947	86,424	-0,180	-0,139
114,962	16,230	-0,205	-0,113
115,976	63,803	-0,254	-0,179
116,991	40,168	-0,254	-0,160
118,006	219,487	-0,179	-0,201
119,020	69,264	-0,181	-0,130
120,035	490,626	-0,171	-0,275
121,049	26,663	-0,228	-0,133
122,064	109,937	-0,323	-0,271
123,079	5,340	-0,394	-0,203
124,093	225,716	-0,209	-0,238
125,108	-33,355	-0,289	-0,111
126,122	-151,499	-0,190	0,010
127,137	30,329	-0,279	-0,166
128,151	-48,402	-0,274	-0,092
129,166	53,858	-0,304	-0,204
130,181	18,953	-0,305	-0,171
131,195	-1,565	-0,373	-0,183
132,210	575,701	-0,134	-0,230
133,224	385,232	-0,146	-0,212
134,239	227,740	-0,225	-0,257
135,254	279,124	-0,199	-0,249
136,268	800,000	-0,083	-0,225
137,283	149,959	-0,238	-0,226
138,297	369,498	-0,157	-0,222
139,312	-59,467	-0,312	-0,093
140,327	84,199	-0,227	-0,173
141,341	-89,670	-0,224	-0,046
142,356	-200,000	-0,027	-0,224
143,370	-60,933	-0,364	-0,107
144,385	109,737	-0,222	-0,186
145,400	61,665	-0,238	-0,165
146,414	47,633	-0,360	-0,235
147,429	35,009	-0,343	-0,209
148,443	307,246	-0,232	-0,303
149,458	421,176	-0,129	-0,194
150,473	128,186	-0,225	-0,200
151,487	108,423	-0,228	-0,190
152,502	59,419	-0,264	-0,182
153,516	42,615	-0,320	-0,203
154,531	-75,831	-0,285	-0,070
155,546	154,665	-0,213	-0,205
156,560	47,112	-0,228	-0,148
157,575	63,330	-0,229	-0,160
158,589	-200,000	-0,066	-0,259
159,604	48,435	-0,164	-0,107
160,619	184,801	-0,216	-0,223
161,633	131,834	-0,218	-0,196
162,648	206,126	-0,126	-0,137
163,662	-93,766	-0,216	-0,041
164,677	80,800	-0,237	-0,178
165,692	57,131	-0,231	-0,157
166,706	150,865	-0,131	-0,125
167,721	86,875	-0,322	-0,248
168,735	473,588	-0,153	-0,241
169,750	89,054	-0,266	-0,206
170,764	-23,953	-0,203	-0,084
171,779	-18,927	-0,144	-0,062
172,794	42,979	-0,222	-0,141
173,808	-131,050	-0,290	-0,027
174,823	246,803	-0,221	-0,261
175,837	114,195	-0,293	-0,249
176,852	45,657	-0,255	-0,164
177,867	359,577	-0,102	-0,143
178,881	800,000	-0,123	-0,238
179,896	-42,542	-0,087	0,031
180,910	-9,771	-0,193	-0,089
181,925	96,335	-0,254	-0,203
182,940	124,436	-0,215	-0,189
183,954	-29,904	-0,233	-0,092
184,969	-200,000	-0,036	-0,356
185,983	57,121	-0,162	-0,110
186,998	71,605	-0,199	-0,144
188,013	117,597	-0,134	-0,114
189,027	2,191	-0,289	-0,145
190,042	47,441	-0,257	-0,166
191,056	30,569	-0,232	-0,138
192,071	424,775	-0,103	-0,154
193,086	145,646	-0,173	-0,162
194,100	275,182	-0,175	-0,216
195,115	-8,433	-0,247	-0,115
196,129	-85,647	-0,213	-0,046
197,144	56,382	-0,272	-0,184
198,159	129,769	-0,142	-0,126
199,173	237,912	-0,139	-0,161
200,188	-48,986	-0,289	-0,096
201,202	79,645	-0,136	-0,102
202,217	-24,678	-0,145	-0,060
203,232	800,000	-0,083	-0,216
204,246	385,299	-0,138	-0,198
205,261	800,000	-0,077	-0,201
206,275	104,434	-0,216	-0,177
207,290	162,789	-0,082	-0,080
208,304	81,253	-0,342	-0,257
209,319	177,479	-0,197	-0,199
210,334	-41,446	-0,338	-0,120
211,348	-44,088	-0,268	-0,093
212,363	280,185	-0,179	-0,223
213,377	800,000	-0,068	-0,157
214,392	140,238	-0,191	-0,175
215,407	484,276	-0,204	-0,324
216,421	100,634	-0,164	-0,132
217,436	163,112	-0,207	-0,202
218,450	53,923	-0,254	-0,170
219,465	61,060	-0,242	-0,167
220,480	-141,530	-0,341	0,024
221,494	-200,000	-0,012	-0,117
222,509	-200,000	-0,021	-0,112
223,523	-200,000	-0,011	-0,294
224,538	-102,256	-0,217	0,036
225,553	-40,338	-0,243	-0,087
226,567	31,194	-0,192	-0,114
227,582	420,866	-0,180	-0,268
228,596	545,522	-0,113	-0,189
229,611	-13,663	-0,152	-0,068
230,626	131,955	-0,160	-0,143
231,640	82,842	-0,233	-0,176
232,655	109,704	-0,203	-0,169
233,669	800,000	-0,095	-0,210
234,684	195,961	-0,173	-0,183
235,699	96,593	-0,224	-0,178
236,713	-149,501	-0,186	-0,010
237,728	51,758	-0,182	-0,120
238,742	-58,998	-0,324	-0,096
239,757	-19,330	-0,308	-0,132
240,772	10,808	-0,266	-0,140
241,786	313,917	-0,132	-0,173
242,801	213,842	-0,236	-0,259
243,815	-99,747	-0,236	-0,041
244,830	39,074	-0,235	-0,145
245,844	93,788	-0,221	-0,173
246,859	276,958	-0,122	-0,151
247,874	245,786	-0,140	-0,164
248,888	-200,000	-0,003	-0,032
249,903	44,072	-0,243	-0,154
250,917	-129,998	-0,127	-0,012
251,932	-200,000	-0,029	-0,130
252,947	160,544	-0,157	-0,152
253,961	-60,579	-0,167	-0,049
254,976	-34,770	-0,212	-0,080
255,990	-34,902	-0,319	-0,120
257,005	-130,877	-0,224	-0,021
258,020	-71,927	-0,111	0,028
259,034	38,116	-0,183	-0,112
260,049	10,109	-0,233	-0,122
261,063	683,979	-0,079	-0,144
262,078	20,124	-0,168	-0,094
263,093	-55,727	-0,222	-0,068
264,107	29,243	-0,165	-0,096
265,122	-76,851	-0,104	0,025
266,136	-200,000	-0,028	-0,102
267,151	2,741	-0,154	-0,077
268,166	139,473	-0,126	-0,114
269,180	241,697	-0,090	-0,104
270,195	62,996	-0,148	-0,102
271,209	-200,000	-0,005	-0,068
272,224	465,793	-0,150	-0,233
273,239	40,678	-0,031	0,019
274,253	-200,000	-0,009	-0,107
275,268	-31,104	-0,216	-0,084
276,282	9,036	-0,166	-0,086
277,297	-189,103	-0,163	-0,001
278,312	800,000	-0,136	-0,270
279,326	-200,000	-0,036	-0,153
280,341	25,403	0,011	-0,006
281,355	44,369	-0,186	-0,117
282,370	95,892	-0,249	-0,196
283,384	-95,373	-0,238	-0,044
284,399	387,540	-0,152	-0,218
285,414	-45,378	-0,169	-0,058
286,428	329,370	-0,126	-0,168
287,443	33,971	-0,136	-0,082
288,457	13,153	-0,091	-0,048
289,472	311,910	-0,110	-0,143
290,487	-185,831	-0,175	-0,002
291,501	606,255	-0,130	-0,224
292,516	-49,270	-0,288	-0,094
293,530	305,865	-0,099	-0,127
294,545	-91,346	-0,189	-0,037
295,560	-95,218	-0,089	-0,016
296,574	100,458	-0,190	-0,152
297,589	105,268	-0,225	-0,183
298,603	300,279	-0,123	-0,157
299,618	-200,000	-0,238	-0,000
300,633	51,030	-0,167	-0,109
301,647	800,000	-0,038	-0,086
302,662	-200,000	-0,012	0,074
303,676	14,991	-0,168	-0,090
304,691	-14,185	-0,088	-0,039
305,706	33,812	-0,190	-0,114
306,720	14,862	-0,264	-0,142
307,735	61,202	-0,228	-0,156
308,749	800,000	-0,063	-0,131
309,764	-200,000	0,000	-0,096
310,779	189,362	-0,056	-0,058
311,793	-21,332	-0,225	-0,094
312,808	41,247	-0,160	-0,099
313,822	248,338	-0,198	-0,231
314,837	15,276	-0,212	-0,114
315,852	145,687	-0,103	0,095
316,866	-34,795	-0,180	0,067
317,881	-4,720	-0,201	-0,095
318,895	561,905	-0,136	-0,228
319,910	25,029	-0,193	-0,110
320,925	431,572	-0,059	-0,088
321,939	146,866	-0,105	0,097
322,954	-74,190	-0,100	-0,025
323,968	-137,956	-0,213	-0,016
324,983	-88,373	-0,195	-0,040
325,997	299,646	-0,214	-0,272
327,012	-53,073	-0,221	-0,070
328,027	604,706	-0,147	-0,252
329,041	-66,103	-0,231	-0,063
330,056	-200,000	-0,019	-0,150
331,070	-121,855	-0,073	-0,008
332,085	46,919	-0,150	-0,096
333,100	27,039	-0,221	-0,127
334,114	718,114	-0,100	-0,184
335,129	-183,070	-0,124	0,001
336,143	-200,000	-0,040	-0,122
337,158	13,918	-0,161	-0,086
338,173	-200,000	-0,038	-0,131
339,187	254,115	-0,138	-0,162
340,202	-33,396	-0,122	-0,046
341,216	800,000	-0,104	-0,201
342,231	528,937	-0,087	-0,141
343,246	93,139	-0,121	-0,094
344,260	225,055	-0,177	-0,197
345,275	-114,968	-0,178	-0,023
346,289	-107,090	-0,129	0,019
347,304	-103,461	-0,145	-0,023
348,319	-200,000	-0,042	-0,211
349,333	198,408	-0,103	-0,108
350,348	-69,733	-0,060	-0,016
351,362	70,010	-0,097	-0,069
352,377	-200,000	-0,005	-0,132
353,392	-200,000	-0,013	-0,102
354,406	8,020	-0,152	-0,078
355,421	209,109	1313,325	1413,102
356,435	160,931	1473,908	1413,640
