DTS Sentinel unit serial number:	SN410029Multiplexer serial number:	ORYXHardware model number:	OX2-SRSoftware version number:	ORYX F/W v4,00 Oryx Data Collector v3.7.2.0data status	okinstallation	B3 Nyhavnadifferential loss correction	single-endedforward channel	channel 1reverse channel	N/Adate	2023/12/03time	18:32:30forward acquisition time	300,00reverse acquisition time	0,00gamma	499,1914k internal	0,3198k external	0,3198temperature offset calibration	1,0000default loss term (dB/km)	0,3820temperature slope calibration	1,0000multiplexer offset coefficient	1,0000multiplexer slope coefficient	1,0000fibre end	0,00T internal ref (°C)	14,55T ext. ref 1 (°C)	-0,77T ext. ref 2 (°C)	-0,79length (m)	temperature (°C)	Stokes	anti-Stokes-744,400	384,671	-0,193	-0,291
-743,385	-200,000	-0,030	0,407
-742,371	704,301	-0,104	-0,200
-741,356	-200,000	0,098	0,366
-740,342	-200,000	-0,048	-0,178
-739,327	-200,000	-0,051	0,267
-738,312	167,295	-0,223	-0,230
-737,298	800,000	-0,122	0,278
-736,283	56,397	-0,199	-0,140
-735,269	800,000	-0,107	0,256
-734,254	233,042	-0,205	-0,245
-733,239	-42,514	-0,195	0,072
-732,225	171,546	-0,192	-0,201
-731,210	-200,000	0,009	0,127
-730,196	420,638	0,019	0,030
-729,181	237,725	0,081	0,098
-728,167	-142,065	-0,214	0,015
-727,152	370,207	-0,023	-0,034
-726,137	-118,889	-0,119	-0,015
-725,123	109,866	-0,042	-0,037
-724,108	116,452	-0,051	-0,045
-723,094	-175,412	-0,137	0,003
-722,079	800,000	0,044	0,098
-721,064	402,001	0,048	0,073
-720,050	800,000	0,010	0,020
-719,035	-47,785	-0,050	0,018
-718,021	-200,000	-0,005	0,135
-717,006	288,895	-0,078	-0,103
-715,991	-200,000	0,037	-0,139
-714,977	-200,000	-0,000	-0,158
-713,962	81,546	-0,052	-0,041
-712,948	-140,779	0,049	-0,004
-711,933	64,266	-0,111	0,081
-710,918	348,285	-0,019	0,027
-709,904	-200,000	-0,008	-0,145
-708,889	-200,000	0,031	-0,125
-707,875	174,270	-0,086	-0,090
-706,860	800,000	0,045	0,131
-705,845	-47,003	0,097	-0,034
-704,831	733,988	-0,034	0,067
-703,816	800,000	0,021	-0,047
-702,802	-123,968	-0,113	0,013
-701,787	-18,673	-0,228	0,103
-700,772	-16,084	-0,109	0,050
-699,758	611,186	0,040	0,073
-698,743	123,081	-0,087	-0,080
-697,729	5,328	-0,043	0,023
-696,714	266,005	-0,042	0,054
-695,699	800,000	-0,080	-0,176
-694,685	-200,000	-0,011	0,047
-693,670	-30,687	0,089	0,037
-692,656	-200,000	0,012	-0,085
-691,641	84,333	0,110	-0,087
-690,627	-101,866	-0,099	-0,017
-689,612	-140,196	0,094	-0,007
-688,597	-200,000	-0,003	0,079
-687,583	800,000	0,037	-0,109
-686,568	-200,000	-0,004	-0,037
-685,554	336,758	-0,052	-0,074
-684,539	323,624	-0,052	-0,073
-683,524	25,185	-0,043	0,026
-682,510	-200,000	-0,005	-0,180
-681,495	439,639	-0,095	-0,151
-680,481	39,456	-0,039	-0,026
-679,466	-36,717	-0,080	-0,031
-678,451	169,530	-0,100	-0,104
-677,437	-44,638	0,079	-0,028
-676,422	7,586	0,142	0,077
-675,408	147,021	-0,089	0,087
-674,393	-131,965	-0,153	-0,014
-673,378	298,558	-0,038	-0,051
-672,364	301,315	-0,057	-0,076
-671,349	800,000	-0,040	-0,099
-670,335	-200,000	-0,017	-0,066
-669,320	-24,615	0,110	0,048
-668,305	-77,021	0,031	0,008
-667,291	-200,000	-0,023	-0,098
-666,276	-87,929	0,066	0,014
-665,262	800,000	0,037	-0,110
-664,247	-200,000	0,030	-0,188
-663,232	643,892	-0,074	-0,138
-662,218	-200,000	-0,010	0,042
-661,203	723,898	-0,046	0,089
-660,189	42,149	-0,108	-0,071
-659,174	-97,212	0,086	0,016
-658,159	548,610	0,058	-0,101
-657,145	800,000	0,068	-0,140
-656,130	-80,709	-0,145	0,035
-655,116	-200,000	-0,040	0,140
-654,101	-114,108	0,033	-0,005
-653,086	-74,715	0,144	-0,037
-652,072	-21,424	-0,089	-0,039
-651,057	130,902	-0,069	-0,064
-650,043	48,827	0,059	-0,040
-649,028	64,681	-0,030	-0,022
-648,014	-200,000	0,004	0,098
-646,999	303,461	0,071	0,096
-645,984	800,000	0,012	0,027
-644,970	-138,207	-0,035	0,003
-643,955	-26,178	-0,036	0,015
-642,941	175,096	0,044	-0,046
-641,926	125,655	-0,065	-0,059
-640,911	104,330	0,057	0,048
-639,897	-11,585	0,110	-0,052
-638,882	-199,511	0,060	-0,000
-637,868	444,280	-0,036	0,058
-636,853	120,303	-0,043	0,039
-635,838	15,242	-0,103	-0,058
-634,824	-130,723	-0,020	0,002
-633,809	-200,000	0,011	0,093
-632,795	-43,250	-0,030	-0,011
-631,780	121,063	0,024	0,021
-630,765	196,497	-0,053	-0,059
-629,751	-85,710	0,108	0,024
-628,736	398,357	0,107	0,163
-627,722	-135,117	-0,145	0,012
-626,707	-46,614	0,103	0,036
-625,692	102,032	0,083	0,070
-624,678	-200,000	-0,016	-0,080
-623,663	-200,000	-0,001	-0,065
-622,649	155,674	0,097	0,097
-621,634	117,368	-0,061	0,054
-620,619	-200,000	-0,005	-0,040
-619,605	-42,276	0,089	0,033
-618,590	800,000	-0,044	0,130
-617,576	800,000	-0,046	-0,128
-616,561	658,898	-0,028	0,052
-615,546	-51,577	0,170	0,057
-614,532	800,000	0,027	-0,083
-613,517	800,000	-0,065	-0,132
-612,503	-109,550	-0,052	-0,008
-611,488	27,044	0,119	0,072
-610,474	-200,000	0,019	0,080
-609,459	11,505	0,127	0,070
-608,444	57,178	-0,137	0,096
-607,430	-200,000	0,027	0,186
-606,415	-200,000	0,002	0,060
-605,401	400,431	0,053	0,081
-604,386	119,885	0,066	0,059
-603,371	210,542	-0,050	0,057
-602,357	-200,000	0,016	0,065
-601,342	272,185	-0,031	-0,040
-600,328	111,517	0,049	0,042
-599,313	-159,409	-0,034	-0,001
-598,298	44,032	-0,047	-0,031
-597,284	-200,000	-0,028	0,118
-596,269	-200,000	0,001	-0,022
-595,255	296,154	-0,096	0,127
-594,240	13,946	-0,163	0,092
-593,225	324,508	0,018	-0,025
-592,211	-200,000	-0,010	0,051
-591,196	-17,408	-0,086	0,039
-590,182	800,000	-0,010	-0,026
-589,167	187,680	-0,054	0,058
-588,152	295,409	0,009	-0,012
-587,138	-163,083	0,128	0,004
-586,123	800,000	-0,040	-0,106
-585,109	207,500	-0,070	-0,079
-584,094	-119,053	0,141	0,018
-583,079	56,526	0,042	-0,030
-582,065	72,536	0,035	-0,026
-581,050	494,830	0,054	0,089
-580,036	-87,774	0,169	0,037
-579,021	140,443	-0,049	0,047
-578,006	-200,000	-0,014	-0,167
-576,992	-101,657	-0,046	-0,008
-575,977	59,864	-0,099	-0,070
-574,963	-53,719	-0,106	-0,035
-573,948	800,000	0,031	0,088
-572,934	-155,123	-0,050	0,002
-571,919	478,803	0,086	-0,141
-570,904	-34,467	-0,061	-0,024
-569,890	70,727	-0,050	-0,037
-568,875	132,454	-0,056	0,053
-567,861	-109,709	-0,164	-0,025
-566,846	-200,000	-0,013	-0,126
-565,831	150,807	-0,038	-0,037
-564,817	-200,000	0,008	-0,157
-563,802	-200,000	-0,017	-0,141
-562,788	-128,924	-0,024	-0,002
-561,773	-200,000	0,000	0,034
-560,758	-200,000	-0,017	0,077
-559,744	-8,978	-0,002	-0,001
-558,729	256,911	0,035	0,044
-557,715	-132,667	-0,086	0,008
-556,700	241,736	-0,038	-0,046
-555,685	-134,399	-0,131	0,011
-554,671	588,109	0,021	0,038
-553,656	233,189	0,082	-0,097
-552,642	-200,000	-0,017	-0,114
-551,627	166,202	-0,068	-0,070
-550,612	-200,000	-0,039	0,138
-549,598	224,215	0,014	0,016
-548,583	-200,000	-0,022	0,126
-547,569	27,538	-0,008	0,005
-546,554	202,151	0,035	0,039
-545,539	-200,000	0,029	0,131
-544,525	110,271	0,116	0,101
-543,510	-200,000	-0,004	0,106
-542,496	800,000	-0,022	-0,061
-541,481	-200,000	-0,012	-0,074
-540,466	-98,296	0,044	-0,008
-539,452	168,136	-0,034	0,035
-538,437	41,932	-0,031	-0,020
-537,423	-51,333	0,169	-0,057
-536,408	-105,175	-0,084	-0,014
-535,393	-200,000	0,012	-0,136
-534,379	800,000	0,022	-0,053
-533,364	-200,000	-0,019	0,175
-532,350	71,625	0,028	-0,021
-531,335	-48,801	0,100	-0,035
-530,321	-200,000	-0,015	0,177
-529,306	14,637	0,111	-0,062
-528,291	-200,000	-0,009	-0,226
-527,277	136,641	-0,073	-0,069
-526,262	800,000	0,038	-0,078
-525,248	-41,577	0,079	0,029
-524,233	800,000	0,028	-0,063
-523,218	-78,326	-0,064	0,016
-522,204	-200,000	-0,014	0,099
-521,189	-200,000	0,029	-0,150
-520,175	330,229	0,091	-0,127
-519,160	800,000	0,033	0,071
-518,145	53,917	0,096	0,067
-517,131	177,179	0,044	0,046
-516,116	-34,541	-0,067	-0,026
-515,102	26,110	-0,142	0,085
-514,087	-50,063	0,033	-0,011
-513,072	333,270	0,092	-0,128
-512,058	-92,601	0,116	0,023
-511,043	80,744	0,097	0,075
-510,029	245,340	0,049	-0,060
-509,014	-80,289	-0,093	0,022
-507,999	800,000	0,028	-0,086
-506,985	186,291	0,051	-0,054
-505,970	-200,000	-0,004	-0,054
-504,956	-200,000	0,029	-0,141
-503,941	-66,355	-0,064	-0,018
-502,926	-200,000	0,014	-0,154
-501,912	800,000	-0,072	0,157
-500,897	141,006	0,101	-0,096
-499,883	264,389	-0,027	0,034
-498,868	677,455	-0,097	-0,184
-497,853	-81,870	-0,009	0,002
-496,839	-51,563	-0,147	0,049
-495,824	800,000	0,046	-0,113
-494,810	-200,000	-0,020	0,063
-493,795	40,441	-0,029	0,019
-492,781	-199,786	-0,091	0,000
-491,766	752,244	0,030	0,059
-490,751	-53,701	-0,088	0,029
-489,737	-114,167	0,019	0,003
-488,722	-200,000	-0,001	0,075
-487,708	-75,935	0,141	0,036
-486,693	-37,902	-0,039	-0,015
-485,678	184,944	0,078	-0,083
-484,664	417,651	0,010	-0,016
-483,649	800,000	0,013	0,036
-482,635	209,333	-0,085	0,096
-481,620	-139,021	0,126	0,010
-480,605	-200,000	0,012	0,040
-479,591	-11,683	0,118	-0,056
-478,576	-200,000	-0,028	-0,155
-477,562	-95,585	-0,055	-0,011
-476,547	800,000	-0,030	-0,067
-475,532	800,000	-0,053	-0,157
-474,518	211,631	-0,047	-0,053
-473,503	346,262	0,015	-0,022
-472,489	-200,000	0,003	-0,101
-471,474	800,000	0,042	-0,089
-470,459	-93,098	-0,105	0,021
-469,445	-200,000	-0,001	0,025
-468,430	414,123	-0,060	-0,093
-467,416	-200,000	0,005	-0,166
-466,401	192,768	0,087	0,095
-465,386	18,741	0,086	-0,049
-464,372	-80,605	-0,113	-0,027
-463,357	800,000	-0,024	0,061
-462,343	-80,266	-0,080	-0,019
-461,328	178,425	-0,082	0,086
-460,313	-43,576	0,046	0,017
-459,299	22,001	-0,114	-0,067
-458,284	-44,857	0,171	0,061
-457,270	281,722	-0,060	0,078
-456,255	1,972	0,054	0,028
-455,241	-10,575	-0,086	-0,041
-454,226	800,000	0,051	-0,130
-453,211	-35,451	0,079	0,031
-452,197	51,223	0,058	0,040
-451,182	412,221	-0,074	0,114
-450,168	-200,000	-0,050	-0,168
-449,153	-65,396	-0,112	-0,032
-448,138	313,065	-0,054	-0,073
-447,124	800,000	-0,020	-0,052
-446,109	800,000	0,021	0,049
-445,095	800,000	0,033	0,092
-444,080	-110,730	0,078	0,011
-443,065	-26,368	-0,194	-0,082
-442,051	76,592	0,025	0,019
-441,036	-3,068	-0,070	0,035
-440,022	8,601	-0,091	-0,049
-439,007	-117,380	-0,146	-0,019
-437,992	247,062	0,074	-0,090
-436,978	173,716	0,054	0,056
-435,963	-200,000	-0,009	-0,163
-434,949	-1,299	-0,081	0,041
-433,934	-200,000	0,009	-0,072
-432,919	-74,691	0,027	0,007
-431,905	-200,000	0,005	0,023
-430,890	-121,446	-0,003	0,000
-429,876	-200,000	0,008	0,133
-428,861	-200,000	0,011	0,117
-427,846	214,727	0,060	-0,068
-426,832	-5,160	-0,130	-0,064
-425,817	-200,000	0,020	0,097
-424,803	-40,828	0,093	0,034
-423,788	800,000	0,036	-0,074
-422,773	225,206	-0,051	0,060
-421,759	217,054	-0,087	0,100
-420,744	-200,000	0,004	-0,042
-419,730	-200,000	-0,016	-0,133
-418,715	-200,000	0,004	-0,119
-417,701	800,000	0,015	0,033
-416,686	-200,000	0,012	-0,100
-415,671	-40,867	0,069	0,025
-414,657	-41,014	0,075	0,028
-413,642	-200,000	0,002	0,010
-412,628	-200,000	-0,002	0,110
-411,613	763,497	0,060	-0,118
-410,598	-200,000	0,030	-0,102
-409,584	45,375	-0,064	-0,043
-408,569	-200,000	0,053	0,173
-407,555	-83,037	-0,107	0,025
-406,540	800,000	-0,027	-0,080
-405,525	64,495	-0,034	0,025
-404,511	-200,000	0,008	-0,078
-403,496	800,000	-0,050	-0,138
-402,482	-113,369	-0,042	0,006
-401,467	150,087	-0,038	0,037
-400,452	88,446	0,040	0,032
-399,438	374,429	-0,034	0,050
-398,423	304,146	0,014	0,019
-397,409	-200,000	0,008	-0,128
-396,394	18,873	-0,096	0,055
-395,379	-200,000	-0,009	-0,109
-394,365	59,618	0,057	0,040
-393,350	-200,000	-0,006	0,029
-392,336	0,021	-0,037	-0,019
-391,321	222,367	0,094	-0,109
-390,306	19,733	-0,081	0,047
-389,292	152,102	-0,069	-0,068
-388,277	800,000	-0,046	0,143
-387,263	-200,000	0,003	0,024
-386,248	180,524	0,031	0,033
-385,233	332,975	-0,048	0,067
-384,219	88,960	0,108	0,086
-383,204	-200,000	0,008	0,036
-382,190	219,780	0,057	-0,065
-381,175	155,263	-0,026	-0,026
-380,160	363,893	0,028	-0,041
-379,146	-200,000	0,000	0,020
-378,131	-200,000	-0,034	0,164
-377,117	-200,000	-0,018	0,142
-376,102	426,981	-0,044	0,069
-375,088	355,820	-0,029	-0,042
-374,073	-68,081	-0,080	0,022
-373,058	-29,687	0,022	-0,009
-372,044	-145,258	0,078	-0,005
-371,029	-102,548	-0,103	0,017
-370,015	235,181	0,089	-0,106
-369,000	666,119	-0,019	0,036
-367,985	198,021	0,050	-0,055
-366,971	617,662	0,020	0,036
-365,956	-200,000	-0,015	-0,147
-364,942	-200,000	0,007	0,044
-363,927	-118,917	0,162	0,020
-362,912	-200,000	-0,018	0,217
-361,898	-144,027	-0,038	-0,003
-360,883	13,520	-0,088	-0,049
-359,869	139,066	0,045	-0,042
-358,854	-200,000	0,001	0,024
-357,839	-200,000	0,042	0,220
-356,825	-20,888	0,119	0,052
-355,810	-200,000	-0,016	0,064
-354,796	800,000	0,003	-0,009
-353,781	-200,000	0,064	0,283
-352,766	7,905	-0,079	-0,042
-351,752	658,660	-0,055	0,102
-350,737	151,084	0,067	-0,066
-349,723	-18,244	-0,098	0,044
-348,708	-77,174	0,049	-0,012
-347,693	800,000	-0,100	-0,209
-346,679	-100,427	-0,123	0,022
-345,664	390,220	0,092	-0,138
-344,650	121,842	-0,060	-0,054
-343,635	740,304	-0,051	-0,099
-342,620	-200,000	0,010	0,051
-341,606	-200,000	0,016	0,060
-340,591	17,297	0,073	0,041
-339,577	-200,000	-0,013	-0,047
-338,562	-26,324	-0,055	-0,023
-337,548	1,883	0,112	0,058
-336,533	301,602	-0,097	0,129
-335,518	-200,000	-0,001	0,037
-334,504	-200,000	-0,019	0,092
-333,489	-200,000	-0,007	-0,139
-332,475	-118,591	-0,035	-0,004
-331,460	800,000	0,027	-0,056
-330,445	23,831	0,061	-0,036
-329,431	-36,594	0,181	0,069
-328,416	-200,000	0,004	-0,025
-327,402	-29,585	0,005	-0,002
-326,387	-84,926	0,008	0,002
-325,372	-88,036	0,045	-0,010
-324,358	-28,690	-0,102	-0,042
-323,343	514,655	0,035	-0,059
-322,329	-200,000	-0,009	0,089
-321,314	800,000	0,055	0,112
-320,299	800,000	-0,023	-0,054
-319,285	-52,050	-0,118	0,039
-318,270	-67,773	-0,074	-0,021
-317,256	-62,468	0,033	0,010
-316,241	-121,273	0,096	-0,011
-315,226	800,000	-0,055	0,168
-314,212	-195,828	-0,086	0,000
-313,197	635,812	0,064	0,117
-312,183	-200,000	0,014	0,097
-311,168	171,477	-0,043	-0,045
-310,153	550,591	0,035	-0,060
-309,139	-67,069	-0,022	-0,006
-308,124	-87,943	0,171	0,036
-307,110	-200,000	0,020	0,141
-306,095	388,343	0,012	-0,018
-305,080	-200,000	0,009	-0,091
-304,066	151,041	-0,136	0,132
-303,051	212,064	-0,039	-0,044
-302,037	57,107	0,019	-0,013
-301,022	-200,000	0,030	-0,108
-300,008	149,305	0,049	-0,048
-298,993	181,295	0,027	-0,029
-297,978	800,000	0,043	0,101
-296,964	-200,000	-0,004	-0,071
-295,949	99,874	-0,162	-0,134
-294,935	-8,942	0,089	-0,043
-293,920	521,938	0,065	0,110
-292,905	-200,000	0,028	-0,137
-291,891	-200,000	0,030	0,140
-290,876	75,754	0,072	0,054
-289,862	-117,419	0,120	0,015
-288,847	-200,000	-0,002	-0,198
-287,832	15,887	-0,008	-0,005
-286,818	-90,877	-0,051	-0,010
-285,803	518,115	0,052	0,088
-284,789	455,975	-0,057	0,091
-283,774	47,985	-0,035	-0,023
-282,759	-200,000	-0,021	0,070
-281,745	-200,000	0,007	-0,040
-280,730	-64,946	0,030	0,009
-279,716	-200,000	-0,001	-0,014
-278,701	69,448	0,071	0,053
-277,686	-113,569	-0,034	0,005
-276,672	-8,297	0,017	-0,008
-275,657	-33,527	-0,126	0,049
-274,643	230,930	0,019	-0,022
-273,628	-12,139	-0,070	-0,033
-272,613	122,174	-0,066	0,059
-271,599	-84,520	0,072	-0,016
-270,584	-91,432	0,154	0,031
-269,570	759,289	-0,063	0,122
-268,555	800,000	0,031	0,067
-267,540	8,100	0,075	-0,040
-266,526	488,370	0,036	-0,059
-265,511	-5,597	-0,077	-0,038
-264,497	800,000	-0,031	-0,079
-263,482	-176,066	0,228	0,004
-262,467	-16,594	0,106	0,048
-261,453	175,157	-0,034	-0,035
-260,438	-200,000	-0,036	-0,170
-259,424	-183,044	0,079	-0,001
-258,409	27,583	-0,040	0,024
-257,395	800,000	0,051	0,113
-256,380	121,529	-0,030	0,027
-255,365	135,963	0,098	0,092
-254,351	170,157	0,068	-0,070
-253,336	396,367	0,032	0,048
-252,322	534,001	0,009	-0,015
-251,307	-97,641	-0,036	0,007
-250,292	401,573	-0,034	-0,051
-249,278	92,874	0,059	0,047
-248,263	-19,760	0,040	0,018
-247,249	-52,776	0,084	0,027
-246,234	700,063	-0,003	-0,007
-245,219	324,822	-0,029	-0,039
-244,205	317,228	-0,042	-0,057
-243,190	-200,000	0,009	-0,259
-242,176	472,606	0,075	-0,121
-241,161	80,813	0,113	0,087
-240,146	-200,000	0,016	0,120
-239,132	800,000	-0,020	0,058
-238,117	-200,000	-0,016	0,085
-237,103	-200,000	-0,012	0,066
-236,088	11,402	0,103	0,056
-235,073	-200,000	0,010	0,082
-234,059	558,864	0,025	0,044
-233,044	19,730	0,170	0,097
-232,030	800,000	0,063	-0,128
-231,015	472,180	-0,016	0,025
-230,000	-138,112	-0,187	-0,015
-228,986	275,077	0,192	-0,243
-227,971	-109,788	-0,029	-0,004
-226,957	135,547	0,138	0,128
-225,942	-131,556	0,102	-0,009
-224,927	800,000	0,006	-0,015
-223,913	56,014	-0,157	-0,109
-222,898	-36,245	-0,086	0,033
-221,884	-46,571	0,097	0,034
-220,869	-200,000	0,021	0,072
-219,855	-200,000	-0,008	0,075
-218,840	147,133	-0,062	-0,059
-217,825	-33,825	0,127	-0,049
-216,811	164,056	0,082	-0,082
-215,796	-99,981	-0,154	-0,027
-214,782	800,000	-0,059	0,127
-213,767	-70,590	0,031	0,008
-212,752	21,263	0,174	0,101
-211,738	-37,708	-0,154	0,058
-210,723	-59,458	-0,086	0,026
-209,709	-200,000	0,057	-0,250
-208,694	259,492	0,009	-0,011
-207,679	360,302	-0,122	-0,174
-206,665	-200,000	-0,010	0,073
-205,650	800,000	0,021	-0,058
-204,636	7,759	-0,044	-0,023
-203,621	-200,000	0,022	0,210
-202,606	21,657	-0,028	0,016
-201,592	-200,000	-0,007	-0,069
-200,577	115,129	-0,074	-0,064
-199,563	75,470	0,081	0,061
-198,548	-99,601	0,049	-0,009
-197,533	-200,000	0,004	-0,062
-196,519	655,524	-0,026	-0,049
-195,504	800,000	0,043	-0,132
-194,490	-200,000	0,014	-0,165
-193,475	68,277	-0,107	-0,078
-192,460	-107,257	-0,105	0,016
-191,446	71,925	-0,051	0,038
-190,431	513,862	-0,044	0,074
-189,417	-200,000	0,009	0,148
-188,402	-97,575	-0,041	-0,007
-187,387	800,000	0,047	-0,132
-186,373	-14,183	0,094	-0,043
-185,358	135,933	-0,032	-0,030
-184,344	-127,452	0,069	-0,007
-183,329	-70,741	-0,126	-0,034
-182,315	546,647	0,068	0,116
-181,300	145,500	0,032	-0,031
-180,285	-200,000	0,024	-0,089
-179,271	-110,749	-0,088	-0,013
-178,256	172,955	-0,065	0,067
-177,242	-164,800	-0,088	0,003
-176,227	-128,011	-0,137	0,014
-175,212	800,000	0,020	0,059
-174,198	-127,683	-0,129	-0,013
-173,183	-34,084	-0,169	-0,066
-172,169	800,000	-0,048	-0,147
-171,154	94,973	-0,092	-0,074
-170,139	-21,926	0,157	0,068
-169,125	358,055	0,081	0,116
-168,110	115,980	-0,033	0,029
-167,096	138,520	-0,054	-0,050
-166,081	800,000	-0,030	0,078
-165,066	24,938	0,043	-0,025
-164,052	800,000	-0,028	0,056
-163,037	371,377	-0,034	-0,049
-162,023	247,793	0,009	0,011
-161,008	701,573	-0,057	0,108
-159,993	-99,427	0,063	0,011
-158,979	-54,140	-0,140	-0,045
-157,964	92,575	0,063	-0,051
-156,950	575,755	0,008	0,014
-155,935	709,476	-0,030	-0,057
-154,920	434,737	0,081	0,125
-153,906	42,808	-0,064	0,041
-152,891	80,381	0,056	-0,042
-151,877	800,000	0,026	-0,056
-150,862	236,907	0,051	-0,060
-149,847	49,755	0,108	0,072
-148,833	-200,000	-0,004	0,102
-147,818	58,390	-0,114	0,080
-146,804	800,000	0,041	0,115
-145,789	800,000	-0,016	-0,034
-144,775	621,419	-0,031	0,056
-143,760	63,333	-0,058	-0,041
-142,745	181,367	-0,026	-0,027
-141,731	60,636	-0,025	-0,017
-140,716	800,000	-0,023	-0,065
-139,702	11,559	0,115	0,062
-138,687	11,483	-0,086	-0,046
-137,672	-200,000	0,029	-0,120
-136,658	-47,655	-0,063	-0,022
-135,643	-200,000	-0,020	-0,075
-134,629	-129,270	-0,092	-0,009
-133,614	-200,000	0,000	-0,077
-132,599	320,861	0,057	0,077
-131,585	-153,194	-0,086	0,004
-130,570	293,706	0,046	-0,060
-129,556	479,210	-0,038	-0,061
-128,541	-62,419	-0,160	-0,047
-127,526	-0,279	0,027	0,014
-126,512	159,299	-0,023	0,023
-125,497	493,504	0,037	0,061
-124,483	800,000	0,022	0,053
-123,468	338,662	0,010	0,014
-122,453	556,252	0,061	-0,105
-121,439	31,595	-0,021	0,013
-120,424	337,576	-0,037	0,051
-119,410	-72,433	0,039	0,010
-118,395	800,000	0,055	-0,118
-117,380	-200,000	0,042	0,197
-116,366	-200,000	0,010	0,071
-115,351	-200,000	-0,005	-0,054
-114,337	328,439	-0,098	-0,134
-113,322	-51,928	-0,050	0,017
-112,307	172,377	-0,061	0,062
-111,293	239,086	0,069	0,082
-110,278	-54,045	0,095	0,031
-109,264	800,000	0,004	-0,013
-108,249	155,631	0,079	-0,078
-107,234	800,000	0,011	-0,023
-106,220	29,390	-0,135	-0,081
-105,205	800,000	0,032	0,080
-104,191	-200,000	-0,016	-0,182
-103,176	651,328	0,064	0,116
-102,162	800,000	-0,031	0,071
-101,147	171,669	-0,043	-0,044
-100,132	38,182	0,087	0,055
-99,118	-1,610	-0,067	-0,033
-98,103	156,583	0,081	0,079
-97,089	327,746	0,007	-0,010
-96,074	69,257	0,098	0,072
-95,059	252,279	0,029	0,036
-94,045	380,641	-0,087	-0,127
-93,030	38,174	-0,092	-0,058
-92,016	-200,000	0,028	-0,128
-91,001	201,542	0,099	0,109
-89,986	-200,000	-0,005	0,035
-88,972	-40,249	-0,035	0,013
-87,957	-200,000	-0,019	-0,079
-86,943	8,235	0,036	-0,019
-85,928	-1,162	-0,077	-0,039
-84,913	131,532	0,113	-0,103
-83,899	365,941	-0,084	-0,120
-82,884	55,734	0,019	0,013
-81,870	-63,168	-0,174	0,051
-80,855	-200,000	-0,057	0,232
-79,840	800,000	-0,027	0,063
-78,826	691,312	-0,049	-0,091
-77,811	-75,180	0,058	-0,015
-76,797	800,000	0,023	-0,045
-75,782	287,395	0,093	0,119
-74,767	-200,000	-0,016	0,204
-73,753	155,075	-0,039	-0,038
-72,738	-200,000	-0,010	-0,121
-71,724	-101,242	-0,073	-0,013
-70,709	-13,028	-0,219	-0,101
-69,694	-60,734	-0,104	0,031
-68,680	-68,791	-0,154	0,042
-67,665	467,452	-0,071	0,112
-66,651	-200,000	-0,004	0,199
-65,636	-200,000	0,001	0,063
-64,622	171,468	-0,106	0,108
-63,607	800,000	-0,021	-0,043
-62,592	241,629	0,040	0,048
-61,578	193,591	0,024	0,026
-60,563	-115,024	-0,101	-0,014
-59,549	55,965	-0,098	0,067
-58,534	-26,570	-1,430	-0,591
-57,519	410,565	-1,471	-2,218
-56,505	-200,000	-0,523	-4,539
-55,490	227,139	0,949	1,095
-54,476	800,000	4,817	10,999
-53,461	-200,000	18,504	296,702
-52,446	800,000	731,470	2257,107
-51,432	559,152	1647,820	2829,554
-50,417	78,758	1667,731	1262,804
-49,403	22,461	1540,646	890,372
-48,388	16,432	1463,669	816,628
-47,373	17,868	1453,622	817,921
-46,359	17,082	1444,161	808,800
-45,344	14,710	1439,324	794,712
-44,330	14,622	1437,418	793,209
-43,315	14,641	1435,708	792,325
-42,300	14,661	1433,914	791,400
-41,286	14,672	1432,678	790,739
-40,271	14,622	1431,833	790,002
-39,257	14,609	1430,407	789,123
-38,242	14,659	1428,975	788,536
-37,227	14,656	1427,853	787,873
-36,213	14,678	1426,548	787,225
-35,198	14,663	1425,317	786,446
-34,184	14,689	1424,506	786,089
-33,169	14,650	1423,119	785,109
-32,154	14,658	1422,064	784,533
-31,140	14,677	1420,704	783,844
-30,125	14,703	1419,764	783,414
-29,111	14,634	1418,624	782,430
-28,096	14,640	1417,519	781,814
-27,082	14,569	1416,402	780,836
-26,067	14,591	1415,254	780,275
-25,052	14,584	1414,191	779,623
-24,038	14,573	1413,256	779,028
-23,023	14,530	1412,392	778,318
-22,009	14,521	1411,500	777,751
-20,994	14,532	1410,438	777,190
-19,979	14,496	1409,521	776,482
-18,965	14,526	1408,500	776,030
-17,950	14,503	1407,622	775,410
-16,936	14,484	1406,671	774,766
-15,921	14,411	1405,790	773,910
-14,906	14,458	1404,605	773,447
-13,892	14,519	1403,563	773,126
-12,877	14,487	1402,772	772,507
-11,863	14,482	1402,024	772,042
-10,848	14,460	1401,081	771,390
-9,833	14,463	1400,147	770,861
-8,819	14,417	1399,208	770,100
-7,804	14,404	1398,234	769,471
-6,790	14,407	1397,238	768,906
-5,775	14,398	1396,139	768,232
-4,760	14,392	1395,530	767,837
-3,746	14,372	1394,738	767,277
-2,731	14,401	1393,708	766,813
-1,717	14,335	1392,980	766,076
-0,702	14,380	1391,068	765,203
0,313	18,220	1309,284	737,997
1,327	34,570	705,693	435,646
2,342	53,227	124,072	84,028
3,356	3,667	16,525	8,510
4,371	6,866	3,135	1,648
5,386	-60,512	0,674	0,201
6,400	-200,000	-0,019	0,218
7,415	71,350	-0,222	-0,163
8,429	14,348	-0,254	-0,140
9,444	61,238	-0,294	-0,206
10,459	-14,029	-0,455	-0,207
11,473	42,333	-0,245	-0,157
12,488	75,079	-0,244	-0,182
13,502	155,407	-0,288	-0,280
14,517	31,056	-0,290	-0,176
15,531	6,372	-0,447	-0,234
16,546	-24,904	-0,297	-0,124
17,561	31,552	-0,386	-0,234
18,575	26,095	-0,195	-0,115
19,590	660,484	-0,195	-0,357
20,604	-56,303	-0,304	-0,095
21,619	27,266	-0,560	-0,332
22,634	174,593	-0,377	-0,386
23,648	52,565	-0,411	-0,277
24,663	186,772	-0,293	-0,309
25,677	-23,935	-0,351	-0,148
26,692	-8,971	-0,416	-0,196
27,707	-21,408	-0,361	-0,155
28,721	-46,698	-0,543	-0,187
29,736	188,598	-0,358	-0,379
30,750	64,704	-0,344	-0,245
31,765	106,607	-0,330	-0,276
32,780	234,668	-0,282	-0,329
33,794	50,160	-0,378	-0,251
34,809	72,720	-0,293	-0,216
35,823	73,137	-0,430	-0,317
36,838	18,507	-0,385	-0,217
37,853	75,603	-0,352	-0,262
38,867	79,927	-0,413	-0,313
39,882	53,433	-0,404	-0,273
40,896	60,064	-0,460	-0,320
41,911	222,957	-0,288	-0,329
42,926	19,444	-0,410	-0,232
43,940	-32,241	-0,329	-0,129
44,955	332,530	-0,314	-0,429
45,969	181,523	-0,385	-0,400
46,984	800,000	-0,205	-0,408
47,999	107,617	-0,384	-0,322
49,013	-75,320	-0,259	-0,065
50,028	-33,627	-0,268	-0,104
51,042	152,883	-0,301	-0,291
52,057	26,036	-0,415	-0,243
53,071	-16,362	-0,367	-0,163
54,086	59,605	-0,389	-0,270
55,101	-43,987	-0,333	-0,117
56,115	-82,639	-0,334	-0,076
57,130	30,014	-0,336	-0,201
58,144	-29,725	-0,356	-0,142
59,159	103,164	-0,303	-0,250
60,174	-15,930	-0,469	-0,209
61,188	76,631	-0,361	-0,269
62,203	79,718	-0,306	-0,231
63,217	28,530	-0,316	-0,188
64,232	140,914	-0,292	-0,272
65,247	25,888	-0,403	-0,236
66,261	210,556	-0,259	-0,287
67,276	172,980	-0,362	-0,367
68,290	171,305	-0,242	-0,245
69,305	37,182	-0,242	-0,151
70,320	136,018	-0,299	-0,274
71,334	-20,218	-0,335	-0,145
72,349	-110,237	-0,541	-0,079
73,363	88,370	-0,278	-0,217
74,378	93,489	-0,268	-0,214
75,393	-24,523	-0,377	-0,157
76,407	-10,899	-0,366	-0,169
77,422	237,278	-0,170	-0,198
78,436	-50,760	-0,349	-0,115
79,451	107,979	-0,361	-0,303
80,466	46,534	-0,277	-0,180
81,480	186,635	-0,301	-0,315
82,495	99,861	-0,265	-0,216
83,509	45,281	-0,243	-0,157
84,524	-19,979	-0,267	-0,115
85,539	-199,524	-0,275	0,001
86,553	-116,821	-0,303	-0,039
87,568	81,208	-0,336	-0,255
88,582	-140,871	-0,387	-0,028
89,597	82,728	-0,307	-0,234
90,611	8,164	-0,307	-0,162
91,626	186,417	-0,213	-0,223
92,641	724,456	-0,112	-0,210
93,655	71,530	-0,201	-0,146
94,670	17,448	-0,351	-0,195
95,684	276,057	-0,322	-0,402
96,699	161,319	-0,361	-0,355
97,714	22,969	-0,264	-0,152
98,728	159,727	-0,237	-0,232
99,743	800,000	-0,118	-0,288
100,757	43,258	-0,281	-0,180
101,772	4,128	-0,318	-0,163
102,787	99,704	-0,272	-0,221
103,801	52,990	-0,275	-0,185
104,816	225,167	-0,277	-0,315
105,830	-71,534	-0,291	0,076
106,845	-26,524	-0,183	-0,075
107,860	-5,028	-0,290	-0,140
108,874	139,633	-0,255	-0,236
109,889	-30,538	-0,239	-0,095
110,903	279,896	-0,221	-0,277
111,918	-56,533	-0,300	-0,093
112,933	16,443	-0,085	-0,047
113,947	-135,300	-0,322	-0,027
114,962	82,066	-0,245	-0,186
115,976	83,660	-0,213	-0,163
116,991	35,968	-0,304	-0,187
118,006	48,617	-0,244	-0,160
119,020	16,531	-0,234	-0,129
120,035	152,798	-0,276	-0,264
121,049	59,030	-0,164	-0,113
122,064	-125,726	-0,253	0,026
123,079	-19,791	-0,251	-0,108
124,093	117,281	-0,306	-0,264
125,108	177,677	-0,303	-0,309
126,122	375,018	-0,181	-0,259
127,137	21,074	-0,287	-0,163
128,151	-27,029	-0,251	-0,102
129,166	-38,594	-0,216	-0,080
130,181	-67,930	-0,276	-0,075
131,195	235,803	-0,248	-0,288
132,210	144,888	-0,361	-0,338
133,224	134,109	-0,201	-0,182
134,239	228,552	-0,220	-0,252
135,254	28,162	-0,340	-0,201
136,268	-4,591	-0,235	-0,113
137,283	70,100	-0,258	-0,186
138,297	1,431	-0,334	-0,168
139,312	-5,444	-0,300	-0,144
140,327	234,784	-0,213	-0,246
141,341	5,709	-0,255	-0,131
142,356	-30,128	-0,221	-0,088
143,370	-27,190	-0,292	-0,118
144,385	313,917	-0,206	-0,272
145,400	183,170	-0,233	-0,241
146,414	-8,115	-0,346	-0,162
147,429	115,587	-0,239	-0,205
148,443	194,677	-0,167	-0,178
149,458	153,711	-0,142	-0,136
150,473	-131,557	-0,240	-0,022
151,487	134,366	-0,283	-0,257
152,502	69,535	-0,224	-0,161
153,516	242,679	-0,215	-0,252
154,531	-102,120	-0,267	-0,044
155,546	24,508	-0,299	-0,172
156,560	617,446	-0,118	-0,208
157,575	43,997	-0,139	-0,089
158,589	110,705	-0,332	-0,279
159,604	151,526	-0,207	-0,197
160,619	-71,772	-0,239	-0,062
161,633	87,547	-0,267	-0,206
162,648	-200,000	-0,054	-0,317
163,662	11,888	-0,262	-0,140
164,677	-95,031	-0,170	-0,032
165,692	247,030	-0,194	-0,229
166,706	192,173	-0,192	-0,202
167,721	10,826	-0,355	-0,188
168,735	-144,025	-0,328	-0,021
169,750	29,067	-0,290	-0,171
170,764	-37,617	-0,318	-0,118
171,779	292,947	-0,179	-0,228
172,794	122,025	-0,193	-0,168
173,808	-29,007	-0,303	-0,121
174,823	149,203	-0,245	-0,232
175,837	118,820	-0,294	-0,253
176,852	257,519	-0,219	-0,263
177,867	295,225	-0,076	-0,098
178,881	-200,000	-0,047	-0,247
179,896	130,245	-0,252	-0,225
180,910	156,709	-0,148	-0,142
181,925	27,403	-0,170	-0,099
182,940	53,714	-0,301	-0,201
183,954	22,890	-0,218	-0,124
184,969	89,906	-0,136	-0,106
185,983	598,133	-0,121	-0,210
186,998	-80,720	-0,164	0,038
188,013	-8,812	-0,258	-0,120
189,027	-137,754	-0,216	0,017
190,042	37,213	-0,288	-0,177
191,056	292,263	-0,127	-0,162
192,071	153,493	-0,216	-0,206
193,086	222,974	-0,135	-0,152
194,100	-41,054	-0,224	-0,080
195,115	256,017	-0,164	-0,196
196,129	237,970	-0,194	-0,224
197,144	151,435	-0,196	-0,186
198,159	48,938	-0,259	-0,169
199,173	63,932	-0,278	-0,194
200,188	28,826	-0,221	-0,130
201,202	143,456	-0,175	-0,162
202,217	26,946	-0,225	-0,131
203,232	-27,244	-0,194	-0,078
204,246	8,778	-0,284	-0,149
205,261	433,339	-0,194	-0,294
206,275	800,000	-0,154	-0,337
207,290	-80,003	-0,182	-0,042
208,304	-98,190	-0,228	-0,040
209,319	17,121	-0,159	-0,087
210,334	113,066	-0,223	-0,188
211,348	232,979	-0,246	-0,282
212,363	203,132	-0,164	-0,176
213,377	435,544	-0,168	-0,255
214,392	-128,757	-0,135	-0,013
215,407	-80,887	-0,283	-0,065
216,421	32,656	-0,218	-0,131
217,436	69,929	-0,174	-0,125
218,450	77,489	-0,184	-0,136
219,465	170,045	-0,270	-0,268
220,480	161,747	-0,250	-0,243
221,494	455,037	-0,155	-0,240
222,509	480,097	-0,120	-0,189
223,523	317,401	-0,119	-0,157
224,538	-27,991	-0,208	-0,083
225,553	47,857	-0,346	-0,224
226,567	205,708	-0,197	-0,212
227,582	235,452	-0,229	-0,263
228,596	37,375	-0,244	-0,150
229,611	10,055	-0,182	-0,096
230,626	314,330	-0,167	-0,218
231,640	713,015	-0,098	-0,182
232,655	213,544	-0,119	-0,130
233,669	12,243	-0,260	-0,139
234,684	139,509	-0,168	-0,153
235,699	62,396	-0,150	-0,104
236,713	72,848	-0,205	-0,148
237,728	276,683	-0,137	-0,169
238,742	425,603	-0,143	-0,214
239,757	100,685	-0,161	-0,130
240,772	-23,890	-0,259	-0,107
241,786	-41,742	-0,215	-0,076
242,801	-17,978	-0,318	-0,138
243,815	250,461	-0,171	-0,202
244,830	260,687	-0,076	-0,091
245,844	62,150	-0,264	-0,182
246,859	186,738	-0,203	-0,209
247,874	246,766	-0,186	-0,218
248,888	-50,478	-0,335	-0,109
249,903	-164,933	-0,181	0,006
250,917	85,040	-0,165	-0,125
251,932	-64,854	-0,156	-0,043
252,947	164,164	-0,197	-0,193
253,961	306,834	-0,237	-0,307
254,976	-0,025	-0,215	-0,106
255,990	564,111	-0,089	-0,150
257,005	-53,808	-0,241	-0,076
258,020	91,813	-0,179	-0,139
259,034	-112,339	-0,173	0,024
260,049	55,594	-0,162	-0,108
261,063	728,748	-0,119	-0,222
262,078	-200,000	-0,092	-0,301
263,093	84,024	-0,303	-0,229
264,107	36,554	-0,198	-0,121
265,122	129,912	-0,201	-0,178
266,136	800,000	-0,097	-0,253
267,151	251,859	-0,162	-0,191
268,166	71,781	-0,147	-0,106
269,180	157,989	-0,209	-0,201
270,195	317,071	-0,191	-0,250
271,209	77,073	-0,256	-0,188
272,224	162,239	-0,131	-0,127
273,239	118,168	-0,172	-0,147
274,253	-10,769	-0,143	-0,065
275,268	223,324	-0,207	-0,231
276,282	-68,474	-0,198	-0,053
277,297	800,000	-0,191	-0,372
278,312	82,955	-0,167	-0,125
279,326	98,346	-0,181	-0,144
280,341	800,000	-0,074	-0,213
281,355	324,132	-0,131	-0,173
282,370	-153,150	-0,048	-0,002
283,384	800,000	-0,096	-0,205
284,399	117,505	-0,168	-0,143
285,414	31,733	-0,251	-0,149
286,428	-43,400	-0,235	-0,082
287,443	555,888	-0,061	-0,102
288,457	-45,762	-0,186	-0,063
289,472	291,908	-0,172	-0,217
290,487	159,676	-0,188	-0,181
291,501	800,000	-0,099	-0,192
292,516	292,663	-0,179	-0,225
293,530	-117,640	-0,159	0,020
294,545	18,771	-0,114	-0,063
295,560	323,770	-0,096	0,126
296,574	41,491	-0,128	-0,080
297,589	-200,000	-0,201	0,001
298,603	643,054	-0,113	-0,199
299,618	-200,000	0,005	-0,220
300,633	135,094	-0,206	-0,185
301,647	-47,088	-0,212	-0,071
302,662	-53,426	-0,141	0,044
303,676	-144,997	-0,177	0,011
304,691	277,564	-0,180	-0,221
305,706	14,790	-0,291	-0,156
306,720	329,641	-0,131	-0,175
307,735	-86,094	-0,181	-0,038
308,749	84,168	-0,126	-0,095
309,764	-32,629	-0,084	-0,032
310,779	-96,166	-0,114	-0,021
311,793	2,385	-0,218	-0,108
312,808	47,601	-0,171	-0,110
313,822	130,338	-0,143	-0,126
314,837	204,405	-0,129	-0,137
315,852	-108,227	-0,201	0,030
316,866	664,780	-0,070	-0,125
317,881	-101,540	-0,215	-0,036
318,895	63,071	-0,168	-0,116
319,910	-125,612	-0,223	0,023
320,925	150,741	-0,152	-0,142
321,939	-2,779	-0,119	-0,057
322,954	608,798	-0,055	-0,096
323,968	82,548	-0,255	-0,191
324,983	-55,305	-0,173	-0,053
325,997	308,704	-0,129	-0,166
327,012	5,820	-0,236	-0,120
328,027	-35,972	-0,163	-0,061
329,041	404,321	-0,100	-0,145
330,056	398,514	-0,051	-0,074
331,070	261,669	-0,130	-0,155
332,085	244,436	0,039	-0,045
333,100	-200,000	-0,052	-0,159
334,114	149,926	-0,153	-0,143
335,129	-200,000	-0,042	-0,152
336,143	544,328	-0,130	-0,214
337,158	123,567	-0,077	-0,066
338,173	-200,000	-0,002	-0,028
339,187	800,000	-0,026	-0,075
340,202	800,000	-0,100	-0,238
341,216	385,576	-0,090	-0,129
342,231	29,355	-0,188	-0,109
343,246	404,500	-0,128	-0,186
344,260	481,322	-0,127	-0,199
345,275	-89,221	-0,060	0,012
346,289	-138,209	-0,158	0,012
347,304	-9,368	-0,082	0,038
348,319	71,413	-0,092	-0,066
349,333	671,027	-0,120	-0,214
350,348	-55,066	-0,207	-0,064
351,362	37,471	-0,082	-0,050
352,377	92,750	-0,102	-0,079
353,392	-69,579	-0,079	-0,021
354,406	27,603	-0,139	-0,080
355,421	208,965	1315,325	1415,372
356,435	160,810	1476,131	1415,873
