DTS Sentinel unit serial number:	SN410029Multiplexer serial number:	ORYXHardware model number:	OX2-SRSoftware version number:	ORYX F/W v4,00 Oryx Data Collector v3.7.2.0data status	okinstallation	B3 Nyhavnadifferential loss correction	single-endedforward channel	channel 1reverse channel	N/Adate	2023/12/02time	12:22:30forward acquisition time	300,00reverse acquisition time	0,00gamma	499,1914k internal	0,3199k external	0,3199temperature offset calibration	1,0000default loss term (dB/km)	0,3820temperature slope calibration	1,0000multiplexer offset coefficient	1,0000multiplexer slope coefficient	1,0000fibre end	0,00T internal ref (°C)	14,04T ext. ref 1 (°C)	-0,60T ext. ref 2 (°C)	-0,61length (m)	temperature (°C)	Stokes	anti-Stokes-744,400	6,200	-0,242	-0,130
-743,385	-200,000	0,017	0,376
-742,371	347,587	-0,148	-0,213
-741,356	-200,000	0,024	0,301
-740,342	248,993	-0,217	-0,268
-739,327	-200,000	0,036	0,238
-738,312	372,149	-0,200	-0,296
-737,298	-200,000	0,001	0,339
-736,283	160,034	-0,271	-0,275
-735,269	-200,000	-0,029	0,345
-734,254	800,000	-0,091	-0,220
-733,239	182,208	-0,138	0,148
-732,225	-200,000	-0,064	-0,383
-731,210	92,959	0,121	0,099
-730,196	112,298	-0,012	0,011
-729,181	400,918	-0,039	0,059
-728,167	-88,065	-0,129	0,028
-727,152	800,000	0,028	0,065
-726,137	153,654	-0,030	-0,030
-725,123	600,731	0,012	0,023
-724,108	-200,000	-0,049	-0,212
-723,094	-200,000	-0,055	-0,258
-722,079	-200,000	-0,026	0,000
-721,064	-109,671	0,126	0,019
-720,050	490,514	0,050	-0,084
-719,035	-168,970	-0,068	0,002
-718,021	99,817	0,134	0,113
-717,006	349,031	-0,021	0,030
-715,991	62,768	-0,070	-0,051
-714,977	-200,000	-0,015	-0,124
-713,962	258,859	0,063	0,079
-712,948	660,672	0,083	0,156
-711,933	-131,266	0,125	-0,012
-710,918	-200,000	-0,017	0,094
-709,904	-123,393	-0,074	-0,008
-708,889	109,007	0,078	-0,068
-707,875	-200,000	0,003	0,087
-706,860	-200,000	-0,003	0,046
-705,845	-156,010	0,045	0,002
-704,831	-38,161	0,099	0,038
-703,816	-90,084	0,077	-0,016
-702,802	-97,293	-0,094	0,018
-701,787	800,000	0,027	-0,085
-700,772	-32,748	-0,034	0,014
-699,758	800,000	-0,027	-0,065
-698,743	-200,000	-0,005	0,048
-697,729	800,000	0,034	0,091
-696,714	33,169	-0,054	-0,034
-695,699	113,111	-0,035	0,031
-694,685	-200,000	-0,056	-0,196
-693,670	-200,000	-0,021	-0,140
-692,656	-70,246	-0,070	-0,019
-691,641	260,973	0,066	-0,084
-690,627	54,112	0,157	-0,109
-689,612	-36,035	-0,051	0,020
-688,597	59,539	-0,079	-0,056
-687,583	95,165	-0,089	-0,074
-686,568	295,818	-0,055	0,073
-685,554	-33,530	-0,180	0,072
-684,539	347,481	0,038	0,054
-683,524	28,414	0,096	0,059
-682,510	-200,000	-0,005	-0,084
-681,495	-200,000	0,003	-0,069
-680,481	334,292	0,049	-0,069
-679,466	22,448	-0,058	0,034
-678,451	800,000	-0,002	-0,004
-677,437	-54,971	0,082	-0,027
-676,422	114,036	-0,025	0,022
-675,408	-147,038	-0,113	0,007
-674,393	-150,165	-0,032	-0,002
-673,378	268,761	-0,069	-0,089
-672,364	-200,000	-0,007	0,083
-671,349	-200,000	0,018	-0,116
-670,335	140,207	0,168	-0,161
-669,320	800,000	0,026	-0,079
-668,305	102,651	-0,026	0,022
-667,291	177,443	0,053	0,057
-666,276	-58,446	-0,099	-0,031
-665,262	98,435	-0,113	-0,094
-664,247	88,177	-0,068	-0,055
-663,232	16,261	0,178	0,102
-662,218	37,408	-0,089	0,057
-661,203	303,997	0,018	-0,025
-660,189	-28,614	-0,020	0,008
-659,174	270,528	-0,076	0,098
-658,159	254,785	0,051	-0,063
-657,145	-51,191	-0,098	0,033
-656,130	24,373	-0,110	-0,066
-655,116	496,366	0,052	-0,087
-654,101	-37,546	-0,036	0,014
-653,086	34,837	0,078	0,049
-652,072	-100,537	-0,132	0,023
-651,057	169,114	-0,043	-0,044
-650,043	13,305	-0,093	-0,052
-649,028	-200,000	-0,012	-0,078
-648,014	-130,155	-0,014	0,001
-646,999	174,771	0,066	-0,069
-645,984	38,294	-0,032	0,021
-644,970	45,497	-0,074	-0,050
-643,955	-19,843	0,108	0,048
-642,941	138,943	-0,087	0,083
-641,926	221,267	0,050	0,058
-640,911	-17,733	0,005	0,002
-639,897	-200,000	0,012	0,085
-638,882	22,432	-0,090	-0,053
-637,868	800,000	0,016	-0,042
-636,853	69,834	-0,147	-0,110
-635,838	134,136	0,099	-0,093
-634,824	394,697	0,022	-0,033
-633,809	800,000	0,029	-0,073
-632,795	-200,000	0,014	0,061
-631,780	800,000	-0,038	-0,085
-630,765	130,587	-0,030	-0,028
-629,751	800,000	-0,025	-0,071
-628,736	800,000	0,029	0,089
-627,722	67,004	-0,017	0,013
-626,707	800,000	0,039	-0,087
-625,692	800,000	0,026	-0,054
-624,678	-200,000	-0,014	0,130
-623,663	800,000	0,010	-0,030
-622,649	228,716	0,028	-0,033
-621,634	20,877	-0,062	0,036
-620,619	-178,395	-0,052	-0,001
-619,605	-64,105	-0,082	0,024
-618,590	155,973	0,026	0,026
-617,576	-200,000	0,010	0,083
-616,561	-200,000	-0,049	0,163
-615,546	393,907	-0,016	-0,024
-614,532	-129,105	-0,065	-0,006
-613,517	-200,000	0,009	-0,102
-612,503	-200,000	0,005	0,057
-611,488	10,723	0,113	-0,062
-610,474	-200,000	-0,006	0,057
-609,459	0,720	-0,057	0,029
-608,444	-159,946	-0,100	0,004
-607,430	24,170	-0,127	0,076
-606,415	800,000	0,030	-0,077
-605,401	-200,000	-0,038	-0,141
-604,386	631,536	0,024	-0,044
-603,371	-200,000	-0,005	-0,130
-602,357	800,000	-0,019	-0,057
-601,342	-2,840	-0,048	-0,024
-600,328	24,612	-0,145	-0,087
-599,313	-200,000	-0,031	-0,105
-598,298	-43,298	-0,083	0,030
-597,284	-61,311	0,196	-0,059
-596,269	-200,000	-0,019	-0,109
-595,255	0,540	0,126	-0,065
-594,240	-200,000	0,006	-0,202
-593,225	-200,000	0,004	-0,154
-592,211	10,876	-0,048	-0,026
-591,196	-200,000	-0,011	0,069
-590,182	638,592	0,037	-0,067
-589,167	461,721	-0,021	-0,034
-588,152	35,489	-0,101	-0,064
-587,138	-105,250	0,039	-0,006
-586,123	107,231	-0,053	0,045
-585,109	-48,123	0,179	0,062
-584,094	0,760	0,080	0,041
-583,079	-44,331	-0,047	-0,017
-582,065	3,203	-0,040	-0,021
-581,050	-53,926	-0,081	0,026
-580,036	800,000	0,061	0,142
-579,021	-131,703	-0,181	-0,017
-578,006	-12,876	-0,074	0,035
-576,992	-83,855	-0,054	-0,012
-575,977	-200,000	0,026	-0,260
-574,963	516,559	-0,076	0,129
-573,948	248,632	-0,117	0,144
-572,934	-108,311	-0,128	0,020
-571,919	-15,784	-0,067	-0,031
-570,904	213,873	-0,068	-0,078
-569,890	-200,000	-0,001	-0,134
-568,875	-200,000	-0,004	0,087
-567,861	79,328	0,106	0,082
-566,846	800,000	0,027	-0,078
-565,831	-75,857	-0,068	0,017
-564,817	29,827	-0,066	-0,041
-563,802	-124,652	-0,247	0,027
-562,788	20,877	0,206	-0,120
-561,773	-200,000	0,005	0,020
-560,758	140,103	0,060	-0,057
-559,744	-200,000	-0,011	-0,049
-558,729	385,141	-0,072	-0,107
-557,715	-200,000	-0,001	-0,195
-556,700	381,269	-0,049	-0,074
-555,685	-132,065	-0,063	-0,006
-554,671	-57,782	0,068	0,021
-553,656	352,933	0,047	0,067
-552,642	-86,457	-0,093	-0,021
-551,627	-107,733	-0,024	0,004
-550,612	800,000	-0,059	-0,150
-549,598	557,249	0,064	-0,111
-548,583	391,173	-0,048	-0,072
-547,569	-200,000	0,019	0,078
-546,554	165,430	-0,043	0,044
-545,539	-72,165	-0,013	0,003
-544,525	-31,101	-0,121	0,049
-543,510	-200,000	0,014	-0,119
-542,496	-200,000	-0,001	0,114
-541,481	-31,011	-0,023	-0,009
-540,466	-107,016	0,139	-0,022
-539,452	0,541	-0,128	0,066
-538,437	-200,000	0,028	0,223
-537,423	-200,000	0,012	0,059
-536,408	-200,000	-0,020	-0,099
-535,393	-134,696	-0,125	-0,011
-534,379	800,000	0,076	0,169
-533,364	-200,000	-0,002	0,058
-532,350	800,000	0,044	-0,122
-531,335	92,150	0,031	0,025
-530,321	-200,000	0,019	0,128
-529,306	23,030	-0,109	0,064
-528,291	134,293	-0,066	0,062
-527,277	-54,548	-0,096	-0,031
-526,262	122,342	-0,039	-0,035
-525,248	-200,000	-0,021	0,121
-524,233	-200,000	0,026	0,099
-523,218	-123,443	0,160	-0,018
-522,204	118,828	0,030	0,027
-521,189	800,000	-0,033	-0,088
-520,175	-67,060	-0,089	-0,025
-519,160	-171,522	0,046	0,001
-518,145	173,245	0,061	-0,064
-517,131	25,756	0,124	0,074
-516,116	308,274	0,105	-0,141
-515,102	27,920	0,046	0,028
-514,087	228,592	0,031	-0,036
-513,072	-67,734	-0,172	-0,048
-512,058	-200,000	0,013	-0,160
-511,043	214,143	0,023	-0,026
-510,029	150,148	0,054	0,053
-509,014	-200,000	-0,024	-0,094
-507,999	379,889	0,058	0,086
-506,985	243,870	0,034	0,042
-505,970	-157,573	0,080	-0,003
-504,956	-122,940	-0,055	-0,006
-503,941	-6,713	-0,061	0,030
-502,926	800,000	-0,039	0,122
-501,912	-109,076	0,069	0,011
-500,897	-35,700	0,104	0,040
-499,883	-116,273	0,052	0,007
-498,868	800,000	-0,037	-0,107
-497,853	800,000	0,026	0,082
-496,839	517,983	-0,035	-0,059
-495,824	-166,465	0,107	-0,003
-494,810	800,000	0,023	0,048
-493,795	-200,000	0,023	-0,091
-492,781	102,000	0,045	-0,038
-491,766	46,930	0,124	-0,083
-490,751	800,000	-0,031	-0,066
-489,737	800,000	0,052	0,118
-488,722	-26,681	0,036	0,015
-487,708	24,455	0,086	0,051
-486,693	117,600	0,025	0,022
-485,678	800,000	0,036	-0,076
-484,664	228,892	-0,051	-0,060
-483,649	-200,000	0,029	0,109
-482,635	-50,357	0,025	-0,009
-481,620	-5,834	0,125	0,062
-480,605	-200,000	0,011	0,155
-479,591	-200,000	0,030	0,098
-478,576	49,465	-0,066	0,045
-477,562	224,224	0,026	-0,031
-476,547	460,736	-0,053	0,085
-475,532	166,404	-0,047	-0,048
-474,518	800,000	0,045	-0,093
-473,503	81,586	0,114	0,089
-472,489	94,220	-0,097	0,079
-471,474	-119,848	-0,084	0,010
-470,459	-200,000	0,001	-0,068
-469,445	4,359	-0,183	-0,096
-468,430	-200,000	0,016	-0,114
-467,416	57,266	-0,098	-0,069
-466,401	-200,000	-0,019	0,077
-465,386	17,914	-0,151	0,086
-464,372	800,000	0,035	0,085
-463,357	56,017	-0,056	-0,039
-462,343	800,000	-0,076	-0,234
-461,328	-45,845	-0,073	-0,026
-460,313	177,676	0,045	0,047
-459,299	155,849	-0,092	0,092
-458,284	-200,000	0,053	0,172
-457,270	159,430	0,031	0,031
-456,255	-200,000	0,007	-0,024
-455,241	334,698	-0,029	-0,041
-454,226	197,460	-0,059	-0,064
-453,211	-100,893	-0,051	0,009
-452,197	800,000	-0,016	-0,050
-451,182	447,728	-0,056	-0,089
-450,168	324,079	0,053	0,074
-449,153	68,428	-0,061	0,045
-448,138	-200,000	-0,017	-0,123
-447,124	800,000	0,029	0,065
-446,109	797,200	0,021	0,041
-445,095	-200,000	0,014	0,053
-444,080	401,245	0,095	0,143
-443,065	-112,827	-0,056	0,008
-442,051	228,140	0,037	0,044
-441,036	275,385	-0,086	-0,109
-440,022	-56,257	-0,060	-0,019
-439,007	-200,000	0,030	0,106
-437,992	-130,623	0,071	0,007
-436,978	-41,730	0,017	0,006
-435,963	-200,000	-0,004	0,036
-434,949	214,904	-0,089	0,102
-433,934	-128,061	0,083	0,008
-432,919	-85,873	-0,140	-0,031
-431,905	70,069	0,084	-0,063
-430,890	-200,000	-0,001	0,135
-429,876	389,170	-0,028	0,042
-428,861	-200,000	0,001	-0,063
-427,846	800,000	0,009	-0,022
-426,832	-104,391	-0,097	-0,016
-425,817	-119,369	0,053	0,007
-424,803	-200,000	-0,043	0,142
-423,788	-200,000	-0,011	0,092
-422,773	45,517	0,140	0,093
-421,759	-122,950	0,091	0,010
-420,744	73,957	0,060	-0,045
-419,730	206,241	-0,069	-0,078
-418,715	-200,000	0,030	-0,129
-417,701	193,686	-0,013	0,014
-416,686	-52,736	-0,028	-0,009
-415,671	69,639	0,068	0,051
-414,657	272,870	-0,042	0,054
-413,642	-3,534	0,094	-0,047
-412,628	800,000	-0,017	-0,042
-411,613	126,916	-0,032	-0,030
-410,598	800,000	-0,049	-0,138
-409,584	174,645	0,053	0,055
-408,569	-200,000	-0,056	0,212
-407,555	-125,037	0,073	0,008
-406,540	-168,039	0,080	-0,002
-405,525	800,000	-0,049	-0,117
-404,511	444,823	-0,073	0,116
-403,496	-113,282	0,052	-0,007
-402,482	800,000	0,010	0,027
-401,467	-50,003	0,093	-0,032
-400,452	800,000	-0,002	0,006
-399,438	150,360	-0,017	-0,016
-398,423	213,795	-0,055	-0,062
-397,409	-200,000	-0,104	0,000
-396,394	800,000	-0,044	0,094
-395,379	800,000	0,054	-0,120
-394,365	332,078	-0,035	0,049
-393,350	41,565	0,112	0,073
-392,336	800,000	-0,035	0,078
-391,321	87,960	-0,123	0,098
-390,306	-200,000	-0,012	0,041
-389,292	-200,000	0,001	-0,048
-388,277	-87,969	0,156	0,033
-387,263	-200,000	0,019	0,091
-386,248	800,000	0,084	-0,171
-385,233	-92,817	-0,082	-0,016
-384,219	16,195	0,061	0,034
-383,204	112,933	0,041	-0,036
-382,190	-106,497	0,046	0,007
-381,175	-69,060	-0,156	0,043
-380,160	194,035	0,035	-0,038
-379,146	-200,000	0,017	0,082
-378,131	-200,000	0,050	0,203
-377,117	-200,000	0,011	0,063
-376,102	-114,724	-0,118	0,016
-375,088	297,089	0,075	0,098
-374,073	800,000	0,028	-0,080
-373,058	-176,269	0,076	-0,001
-372,044	629,101	0,023	0,042
-371,029	-128,265	0,066	-0,007
-370,015	238,310	-0,020	-0,024
-369,000	-75,623	0,168	-0,043
-367,985	703,143	-0,046	-0,087
-366,971	-200,000	-0,008	-0,091
-365,956	-200,000	0,002	-0,105
-364,942	-92,329	0,087	0,017
-363,927	122,325	-0,024	0,022
-362,912	122,233	-0,050	-0,044
-361,898	800,000	-0,016	0,042
-360,883	-73,440	0,026	-0,007
-359,869	-90,077	-0,072	-0,015
-358,854	800,000	0,042	0,121
-357,839	-200,000	-0,006	0,046
-356,825	760,319	-0,067	0,131
-355,810	-77,108	0,129	0,032
-354,796	116,289	0,086	0,076
-353,781	800,000	0,052	-0,158
-352,766	800,000	-0,070	-0,141
-351,752	23,159	0,064	-0,038
-350,737	-41,990	-0,028	-0,010
-349,723	800,000	0,051	0,125
-348,708	-113,678	-0,079	0,011
-347,693	800,000	-0,021	0,061
-346,679	138,653	-0,024	-0,022
-345,664	-200,000	-0,007	-0,149
-344,650	-144,989	-0,143	-0,009
-343,635	800,000	-0,052	-0,135
-342,620	54,745	0,126	0,087
-341,606	298,132	-0,055	0,072
-340,591	-102,947	-0,068	0,011
-339,577	338,597	-0,052	-0,072
-338,562	-83,811	-0,059	-0,013
-337,548	-73,302	0,040	-0,011
-336,533	-61,090	0,022	0,007
-335,518	58,567	-0,084	-0,059
-334,504	-17,000	0,192	0,087
-333,489	116,018	0,037	-0,033
-332,475	-99,615	-0,069	0,012
-331,460	123,482	-0,039	-0,035
-330,445	-200,000	0,018	-0,164
-329,431	-200,000	-0,005	0,024
-328,416	-200,000	0,013	0,069
-327,402	800,000	-0,059	0,129
-326,387	-74,759	0,076	0,019
-325,372	-59,473	-0,129	0,039
-324,358	-200,000	-0,024	-0,202
-323,343	800,000	-0,013	-0,030
-322,329	-34,880	0,061	-0,024
-321,314	206,505	0,101	0,112
-320,299	282,190	-0,036	-0,046
-319,285	-200,000	-0,011	-0,063
-318,270	-200,000	-0,033	-0,208
-317,256	800,000	-0,057	-0,130
-316,241	-78,808	-0,211	-0,051
-315,226	-141,965	0,081	0,006
-314,212	-93,302	-0,066	0,013
-313,197	800,000	0,037	0,075
-312,183	-48,043	0,054	0,018
-311,168	607,620	-0,059	-0,105
-310,153	41,051	-0,056	-0,036
-309,139	35,607	0,133	-0,084
-308,124	53,184	-0,024	0,016
-307,110	141,117	0,036	-0,034
-306,095	-14,288	0,145	0,066
-305,080	45,463	0,089	0,058
-304,066	-34,012	0,064	-0,025
-303,051	-160,479	0,067	-0,003
-302,037	70,399	-0,090	0,067
-301,022	-91,464	0,057	0,012
-300,008	-154,484	0,103	-0,005
-298,993	265,066	-0,049	-0,061
-297,978	800,000	0,024	-0,074
-296,964	471,213	0,050	-0,080
-295,949	-56,479	-0,057	0,018
-294,935	-105,629	-0,035	-0,006
-293,920	571,336	0,032	-0,057
-292,905	-12,231	0,073	0,034
-291,891	-200,000	0,008	0,081
-290,876	800,000	-0,026	0,076
-289,862	-121,829	-0,162	0,019
-288,847	15,518	0,026	-0,014
-287,832	-6,625	0,027	-0,013
-286,818	33,365	0,045	0,028
-285,803	-49,780	-0,090	-0,030
-284,789	-88,156	0,176	-0,037
-283,774	-20,493	0,115	-0,051
-282,759	80,589	0,055	-0,042
-281,745	326,606	0,022	-0,030
-280,730	800,000	-0,058	0,153
-279,716	-125,928	0,091	0,010
-278,701	-200,000	-0,000	0,026
-277,686	118,425	0,109	-0,096
-276,672	800,000	0,036	-0,100
-275,657	82,130	-0,088	0,068
-274,643	-136,272	-0,065	0,005
-273,628	800,000	0,048	-0,116
-272,613	158,732	0,037	0,037
-271,599	7,709	-0,099	-0,053
-270,584	-28,454	0,079	0,032
-269,570	800,000	-0,036	0,073
-268,555	212,526	0,053	0,059
-267,540	214,380	-0,016	0,019
-266,526	-200,000	-0,001	-0,010
-265,511	674,943	0,027	0,051
-264,497	-200,000	-0,004	0,031
-263,482	-60,015	0,072	0,022
-262,467	-27,236	0,118	0,049
-261,453	800,000	0,017	-0,043
-260,438	800,000	0,020	0,049
-259,424	77,143	-0,109	-0,082
-258,409	800,000	0,046	-0,125
-257,395	-200,000	-0,004	-0,090
-256,380	800,000	-0,006	-0,017
-255,365	678,525	0,064	-0,120
-254,351	173,293	0,054	-0,056
-253,336	-200,000	0,059	0,000
-252,322	800,000	-0,048	-0,118
-251,307	-200,000	-0,013	-0,062
-250,292	292,208	0,067	0,087
-249,278	194,773	0,095	0,104
-248,263	217,431	-0,135	0,154
-247,249	-53,840	0,096	0,031
-246,234	-30,440	-0,106	-0,043
-245,219	-200,000	-0,030	-0,193
-244,205	-84,171	-0,146	0,033
-243,190	-200,000	-0,006	0,030
-242,176	-43,279	0,068	0,024
-241,161	-114,270	0,068	0,009
-240,146	72,441	0,073	0,055
-239,132	-200,000	0,002	-0,036
-238,117	-103,726	-0,124	-0,020
-237,103	-200,000	-0,025	-0,203
-236,088	144,512	-0,110	-0,105
-235,073	-41,871	0,105	0,038
-234,059	800,000	0,008	0,021
-233,044	62,404	0,112	-0,080
-232,030	346,231	0,081	0,114
-231,015	-115,431	-0,217	-0,029
-230,000	121,225	-0,033	-0,029
-228,986	325,568	0,038	-0,052
-227,971	-43,883	0,032	0,011
-226,957	-200,000	0,013	0,156
-225,942	487,315	-0,080	0,131
-224,927	110,626	0,034	0,029
-223,913	-0,938	0,078	-0,039
-222,898	150,505	0,078	-0,076
-221,884	800,000	-0,076	-0,215
-220,869	-200,000	0,038	0,270
-219,855	800,000	0,035	0,072
-218,840	-200,000	-0,007	0,096
-217,825	-200,000	0,038	0,144
-216,811	260,510	0,085	0,105
-215,796	-57,856	-0,105	-0,033
-214,782	-37,575	-0,124	-0,047
-213,767	112,654	0,053	0,046
-212,752	198,229	0,111	-0,121
-211,738	-200,000	0,003	0,080
-210,723	-200,000	-0,006	0,075
-209,709	-87,904	-0,057	0,012
-208,694	-200,000	-0,035	0,137
-207,679	800,000	-0,042	-0,088
-206,665	310,033	-0,038	-0,051
-205,650	189,419	0,095	-0,102
-204,636	197,603	0,050	0,055
-203,621	-143,452	-0,117	-0,008
-202,606	130,423	0,064	0,058
-201,592	-70,489	0,106	-0,028
-200,577	37,584	0,096	0,061
-199,563	-200,000	0,001	-0,069
-198,548	507,825	0,039	0,064
-197,533	121,821	0,057	0,050
-196,519	-200,000	-0,012	0,068
-195,504	-200,000	-0,022	0,071
-194,490	-200,000	-0,037	0,138
-193,475	-68,919	-0,064	0,018
-192,460	-200,000	-0,003	-0,033
-191,446	-200,000	-0,002	-0,040
-190,431	800,000	0,058	0,134
-189,417	-200,000	-0,007	-0,024
-188,402	-7,527	-0,015	0,007
-187,387	-200,000	0,001	-0,113
-186,373	53,173	-0,071	-0,048
-185,358	-38,066	-0,071	-0,027
-184,344	87,881	0,032	0,025
-183,329	55,855	-0,114	0,078
-182,315	358,585	0,045	0,065
-181,300	-71,210	-0,115	0,031
-180,285	800,000	0,062	-0,149
-179,271	385,118	0,074	0,109
-178,256	-64,719	0,070	0,020
-177,242	210,729	-0,020	0,023
-176,227	-200,000	0,000	0,010
-175,212	29,367	0,114	-0,069
-174,198	-15,523	0,089	-0,040
-173,183	-200,000	0,002	0,009
-172,169	-200,000	-0,002	-0,098
-171,154	-200,000	-0,003	-0,034
-170,139	345,117	-0,073	0,102
-169,125	-200,000	0,002	-0,008
-168,110	577,478	0,043	0,076
-167,096	10,476	-0,022	-0,012
-166,081	-200,000	0,005	0,145
-165,066	479,980	-0,072	0,116
-164,052	-66,974	-0,127	-0,035
-163,037	-167,280	-0,102	0,003
-162,023	-168,625	-0,032	-0,001
-161,008	21,367	0,138	0,080
-159,993	23,791	-0,054	0,031
-158,979	-146,427	0,070	0,004
-157,964	264,376	0,035	0,044
-156,950	272,587	0,060	0,076
-155,935	800,000	0,030	0,069
-154,920	-76,522	0,031	0,008
-153,906	554,564	0,055	0,094
-152,891	-109,952	-0,093	-0,014
-151,877	800,000	-0,002	-0,004
-150,862	-23,604	-0,106	0,045
-149,847	-200,000	0,007	-0,171
-148,833	42,734	0,068	-0,044
-147,818	-22,493	0,039	-0,017
-146,804	-5,575	-0,059	-0,029
-145,789	31,795	0,087	0,053
-144,775	52,798	-0,078	0,053
-143,760	-40,476	-0,098	0,036
-142,745	101,860	-0,060	-0,050
-141,731	-69,110	-0,115	-0,031
-140,716	-149,787	0,064	-0,003
-139,702	41,886	0,123	0,079
-138,687	-200,000	0,009	-0,047
-137,672	-13,038	0,050	-0,023
-136,658	11,854	-0,032	-0,018
-135,643	-200,000	0,010	-0,115
-134,629	260,942	0,018	-0,022
-133,614	301,438	0,053	-0,070
-132,599	52,371	0,045	0,030
-131,585	55,625	-0,106	0,073
-130,570	8,577	-0,204	0,109
-129,556	-61,572	0,049	-0,015
-128,541	-95,232	0,058	0,011
-127,526	-200,000	-0,029	-0,102
-126,512	800,000	0,022	-0,047
-125,497	215,962	-0,032	0,036
-124,483	-76,771	0,055	0,014
-123,468	177,388	0,117	-0,121
-122,453	235,257	-0,092	0,109
-121,439	-23,909	-0,153	-0,065
-120,424	787,627	0,055	-0,107
-119,410	282,909	0,108	0,138
-118,395	260,263	-0,041	0,050
-117,380	-200,000	0,032	0,144
-116,366	-6,677	0,055	0,027
-115,351	67,231	-0,091	-0,066
-114,337	-107,763	0,128	-0,020
-113,322	39,228	-0,026	0,016
-112,307	-38,658	-0,043	-0,016
-111,293	454,806	0,010	-0,015
-110,278	-200,000	-0,029	0,191
-109,264	-200,000	0,015	0,224
-108,249	-200,000	-0,003	-0,033
-107,234	800,000	-0,038	-0,085
-106,220	800,000	-0,048	-0,140
-105,205	88,659	-0,058	-0,046
-104,191	124,056	0,070	-0,062
-103,176	210,308	-0,024	0,027
-102,162	-198,131	0,072	0,000
-101,147	147,418	-0,041	0,039
-100,132	499,532	0,076	-0,125
-99,118	430,294	-0,097	-0,149
-98,103	-45,094	-0,065	0,023
-97,089	-57,756	0,185	0,057
-96,074	-190,536	0,121	-0,001
-95,059	800,000	-0,011	0,026
-94,045	194,729	-0,070	0,076
-93,030	776,498	0,066	0,129
-92,016	-113,073	0,051	0,007
-91,001	-119,167	-0,161	0,020
-89,986	93,761	0,105	0,084
-88,972	415,621	-0,037	0,056
-87,957	578,538	0,060	0,105
-86,943	522,122	0,011	-0,018
-85,928	272,892	0,040	-0,051
-84,913	-200,000	-0,007	-0,085
-83,899	-65,749	-0,120	-0,034
-82,884	37,138	-0,038	-0,024
-81,870	-180,012	0,086	0,001
-80,855	128,289	-0,072	0,065
-79,840	562,531	0,010	-0,017
-78,826	-200,000	0,055	-0,217
-77,811	379,643	-0,053	-0,078
-76,797	-81,539	0,157	-0,036
-75,782	48,931	0,120	0,080
-74,767	-200,000	-0,024	0,105
-73,753	263,181	-0,072	0,089
-72,738	-200,000	-0,006	0,032
-71,724	-78,700	-0,075	0,018
-70,709	219,551	0,042	-0,047
-69,694	221,272	-0,090	-0,102
-68,680	-200,000	0,003	-0,064
-67,665	-74,433	-0,101	-0,026
-66,651	36,707	-0,037	-0,023
-65,636	352,880	-0,011	-0,015
-64,622	31,171	-0,083	0,050
-63,607	784,725	-0,079	0,155
-62,592	225,488	-0,085	-0,098
-61,578	-97,596	-0,128	0,023
-60,563	793,644	0,007	0,013
-59,549	338,275	0,034	0,047
-58,534	10,752	-1,554	-0,838
-57,519	438,610	-1,382	-2,144
-56,505	-200,000	-0,512	-4,515
-55,490	133,776	1,005	0,922
-54,476	800,000	4,961	11,369
-53,461	-200,000	18,847	305,447
-52,446	800,000	737,141	2298,989
-51,432	569,682	1653,448	2860,170
-50,417	78,899	1669,841	1264,942
-49,403	22,003	1542,460	888,959
-48,388	15,878	1465,150	814,645
-47,373	17,834	1455,073	818,457
-46,359	16,907	1445,334	808,503
-45,344	14,165	1440,615	792,702
-44,330	14,086	1438,639	791,205
-43,315	14,055	1437,028	790,137
-42,300	14,089	1435,329	789,337
-41,286	14,148	1434,171	788,952
-40,271	14,119	1432,759	788,003
-39,257	14,074	1431,600	787,122
-38,242	14,157	1430,178	786,702
-37,227	14,141	1429,237	786,078
-36,213	14,194	1427,628	785,413
-35,198	14,083	1426,794	784,395
-34,184	14,156	1425,724	784,122
-33,169	14,105	1424,288	783,061
-32,154	14,127	1423,181	782,526
-31,140	14,169	1421,842	781,958
-30,125	14,144	1420,807	781,236
-29,111	14,150	1419,732	780,643
-28,096	14,124	1418,432	779,777
-27,082	14,108	1417,512	779,163
-26,067	14,022	1416,711	778,289
-25,052	14,068	1415,497	777,806
-24,038	14,004	1414,679	777,023
-23,023	14,079	1413,466	776,677
-22,009	14,045	1412,409	775,909
-20,994	14,033	1411,561	775,357
-19,979	14,053	1410,751	774,975
-18,965	13,991	1409,851	774,160
-17,950	13,995	1408,840	773,589
-16,936	13,973	1407,978	772,982
-15,921	13,958	1406,746	772,205
-14,906	13,965	1405,842	771,713
-13,892	14,030	1404,770	771,397
-12,877	13,975	1403,970	770,668
-11,863	13,995	1403,104	770,258
-10,848	13,928	1402,443	769,554
-9,833	13,917	1401,501	768,954
-8,819	13,953	1400,274	768,418
-7,804	13,886	1399,547	767,677
-6,790	13,890	1398,494	767,088
-5,775	13,924	1397,389	766,606
-4,760	13,855	1396,593	765,822
-3,746	13,896	1395,624	765,448
-2,731	13,868	1394,908	764,898
-1,717	13,857	1393,933	764,281
-0,702	13,886	1392,103	763,382
0,313	17,700	1310,469	736,303
1,327	34,018	705,958	434,479
2,342	52,093	124,028	83,540
3,356	0,743	16,701	8,435
4,371	-7,132	3,245	1,553
5,386	105,029	0,359	0,300
6,400	-200,000	0,032	0,123
7,415	-53,432	-0,342	-0,110
8,429	321,171	-0,187	-0,252
9,444	163,741	-0,330	-0,329
10,459	-43,535	-0,311	-0,110
11,473	-95,274	-0,308	-0,058
12,488	11,890	-0,275	-0,149
13,502	2,421	-0,335	-0,171
14,517	-25,336	-0,418	-0,174
15,531	110,838	-0,396	-0,337
16,546	43,647	-0,347	-0,224
17,561	42,322	-0,437	-0,281
18,575	-138,474	-0,173	0,013
19,590	285,822	-0,293	-0,374
20,604	-13,261	-0,366	-0,167
21,619	38,828	-0,543	-0,342
22,634	7,643	-0,532	-0,281
23,648	115,552	-0,456	-0,394
24,663	43,881	-0,347	-0,224
25,677	246,054	-0,283	-0,338
26,692	2,743	-0,378	-0,193
27,707	-12,714	-0,300	-0,138
28,721	118,088	-0,322	-0,280
29,736	38,088	-0,391	-0,245
30,750	210,062	-0,422	-0,468
31,765	147,329	-0,303	-0,288
32,780	155,003	-0,249	-0,242
33,794	9,018	-0,439	-0,234
34,809	75,425	-0,406	-0,302
35,823	90,882	-0,472	-0,374
36,838	278,712	-0,296	-0,373
37,853	-121,826	-0,422	-0,049
38,867	552,582	-0,160	-0,272
39,882	83,970	-0,254	-0,196
40,896	201,991	-0,285	-0,310
41,911	-22,517	-0,254	-0,108
42,926	79,616	-0,373	-0,282
43,940	71,101	-0,356	-0,260
44,955	141,167	-0,350	-0,327
45,969	36,952	-0,457	-0,285
46,984	35,297	-0,396	-0,244
47,999	-27,379	-0,334	-0,136
49,013	316,846	-0,216	-0,289
50,028	99,222	-0,337	-0,275
51,042	-25,839	-0,435	-0,180
52,057	-82,529	-0,257	-0,058
53,071	225,604	-0,267	-0,305
54,086	11,754	-0,345	-0,186
55,101	213,304	-0,256	-0,285
56,115	800,000	-0,074	-0,178
57,130	107,474	-0,369	-0,309
58,144	38,453	-0,390	-0,244
59,159	14,471	-0,405	-0,222
60,174	18,415	-0,395	-0,222
61,188	62,868	-0,377	-0,265
62,203	113,971	-0,309	-0,265
63,217	345,972	-0,287	-0,398
64,232	-6,223	-0,443	-0,212
65,247	44,243	-0,365	-0,236
66,261	64,066	-0,360	-0,255
67,276	-12,573	-0,424	-0,194
68,290	77,299	-0,318	-0,238
69,305	118,806	-0,323	-0,281
70,320	150,011	-0,210	-0,200
71,334	69,322	-0,352	-0,254
72,349	-10,555	-0,301	-0,140
73,363	131,544	-0,330	-0,298
74,378	90,131	-0,401	-0,315
75,393	265,847	-0,271	-0,334
76,407	-48,136	-0,344	-0,116
77,422	-111,264	-0,225	-0,032
78,436	-85,360	-0,416	-0,091
79,451	146,708	-0,283	-0,268
80,466	131,984	-0,272	-0,247
81,480	205,723	-0,235	-0,257
82,495	55,508	-0,274	-0,187
83,509	-51,945	-0,333	-0,108
84,524	-79,062	-0,294	-0,070
85,539	26,811	-0,234	-0,138
86,553	294,785	-0,254	-0,327
87,568	125,470	-0,297	-0,263
88,582	39,518	-0,356	-0,224
89,597	28,471	-0,259	-0,154
90,611	80,597	-0,309	-0,234
91,626	31,978	-0,269	-0,162
92,641	60,844	-0,234	-0,163
93,655	-90,532	-0,319	-0,064
94,670	371,211	-0,166	-0,237
95,684	271,965	-0,339	-0,420
96,699	800,000	-0,110	-0,259
97,714	-22,504	-0,366	-0,155
98,728	27,367	-0,188	-0,110
99,743	293,099	-0,224	-0,287
100,757	-52,606	-0,354	-0,114
101,772	2,799	-0,357	-0,181
102,787	44,909	-0,339	-0,219
103,801	269,643	-0,320	-0,395
104,816	121,897	-0,244	-0,214
105,830	94,967	-0,246	-0,197
106,845	22,031	-0,125	-0,071
107,860	411,666	-0,144	-0,215
108,874	117,896	-0,277	-0,240
109,889	800,000	-0,174	-0,429
110,903	20,377	-0,265	-0,150
111,918	21,918	-0,243	-0,138
112,933	104,042	-0,255	-0,210
113,947	89,393	-0,191	-0,149
114,962	89,228	-0,258	-0,201
115,976	81,435	-0,249	-0,189
116,991	-78,208	-0,279	-0,067
118,006	-98,542	-0,306	-0,054
119,020	24,537	-0,332	-0,192
120,035	523,198	-0,170	-0,282
121,049	62,275	-0,161	-0,112
122,064	102,238	-0,141	-0,115
123,079	-65,246	-0,321	-0,090
124,093	-20,206	-0,412	-0,177
125,108	77,720	-0,263	-0,196
126,122	48,842	-0,316	-0,207
127,137	65,742	-0,317	-0,225
128,151	800,000	-0,102	-0,224
129,166	41,181	-0,234	-0,148
130,181	128,631	-0,235	-0,210
131,195	335,057	-0,318	-0,433
132,210	91,527	-0,255	-0,200
133,224	-90,481	-0,277	-0,056
134,239	32,804	-0,237	-0,144
135,254	-30,975	-0,167	-0,066
136,268	94,559	-0,212	-0,168
137,283	-19,272	-0,333	-0,144
138,297	263,069	-0,304	-0,370
139,312	75,743	-0,365	-0,270
140,327	389,379	-0,205	-0,298
141,341	412,247	-0,189	-0,282
142,356	-200,000	-0,083	-0,289
143,370	32,163	-0,260	-0,156
144,385	-37,627	-0,321	-0,119
145,400	-41,459	-0,300	-0,107
146,414	-7,443	-0,313	-0,148
147,429	-2,901	-0,259	-0,126
148,443	-15,968	-0,330	-0,146
149,458	155,866	-0,250	-0,241
150,473	65,521	-0,206	-0,146
151,487	4,120	-0,275	-0,140
152,502	47,871	-0,237	-0,154
153,516	61,962	-0,280	-0,195
154,531	60,036	-0,326	-0,225
155,546	291,209	-0,274	-0,349
156,560	147,972	-0,204	-0,192
157,575	-8,464	-0,315	-0,147
158,589	-11,095	-0,201	-0,092
159,604	-71,456	-0,303	-0,079
160,619	150,658	-0,301	-0,286
161,633	97,930	-0,296	-0,238
162,648	-107,698	-0,252	-0,038
163,662	444,534	-0,149	-0,229
164,677	442,219	-0,117	-0,180
165,692	-98,676	-0,258	-0,046
166,706	56,379	-0,215	-0,145
167,721	161,129	-0,298	-0,291
168,735	161,541	-0,263	-0,257
169,750	194,366	-0,148	-0,157
170,764	12,252	-0,262	-0,140
171,779	-135,005	-0,245	-0,020
172,794	-144,541	-0,224	-0,014
173,808	-85,791	-0,300	-0,064
174,823	97,735	-0,333	-0,267
175,837	62,091	-0,267	-0,185
176,852	-34,643	-0,283	-0,107
177,867	17,580	-0,284	-0,157
178,881	-69,822	-0,184	-0,049
179,896	377,760	-0,159	-0,227
180,910	-15,843	-0,225	-0,100
181,925	-35,483	-0,276	-0,104
182,940	314,164	-0,214	-0,281
183,954	387,870	-0,145	-0,210
184,969	318,841	-0,179	-0,237
185,983	45,250	-0,192	-0,123
186,998	5,743	-0,400	-0,205
188,013	-16,183	-0,245	-0,108
189,027	327,788	-0,134	-0,179
190,042	178,040	-0,244	-0,248
191,056	12,136	-0,118	-0,063
192,071	1,701	-0,137	-0,069
193,086	800,000	-0,098	-0,207
194,100	224,960	-0,154	-0,173
195,115	-52,361	-0,240	-0,077
196,129	64,313	-0,156	-0,109
197,144	30,411	-0,137	-0,081
198,159	-97,904	-0,258	-0,046
199,173	177,621	-0,159	-0,161
200,188	-43,732	-0,291	-0,102
201,202	-80,748	-0,216	-0,049
202,217	724,628	-0,142	-0,264
203,232	67,276	-0,154	-0,109
204,246	130,739	-0,179	-0,160
205,261	219,425	-0,260	-0,290
206,275	406,615	-0,094	-0,138
207,290	3,058	-0,196	-0,099
208,304	-70,078	-0,106	-0,028
209,319	218,368	-0,135	-0,150
210,334	152,024	-0,176	-0,167
211,348	-3,924	-0,242	-0,117
212,363	13,712	-0,304	-0,163
213,377	574,904	-0,120	-0,204
214,392	137,429	-0,064	-0,059
215,407	124,504	-0,163	-0,142
216,421	29,808	-0,236	-0,140
217,436	-13,531	-0,106	-0,048
218,450	151,314	-0,185	-0,175
219,465	800,000	-0,094	-0,242
220,480	-62,422	-0,281	-0,080
221,494	104,959	-0,141	-0,115
222,509	88,971	-0,094	-0,072
223,523	155,783	-0,121	-0,116
224,538	28,474	-0,185	-0,108
225,553	-132,428	-0,127	0,011
226,567	79,874	-0,205	-0,153
227,582	50,554	-0,181	-0,119
228,596	485,835	-0,154	-0,245
229,611	-10,627	-0,172	-0,079
230,626	0,007	-0,148	-0,073
231,640	136,477	-0,184	-0,166
232,655	-113,481	-0,249	-0,034
233,669	232,169	-0,193	-0,220
234,684	-123,513	-0,242	-0,026
235,699	-15,236	-0,161	-0,071
236,713	-29,585	-0,087	0,034
237,728	109,517	-0,117	-0,098
238,742	217,136	-0,221	-0,245
239,757	116,782	-0,158	-0,134
240,772	-46,312	-0,175	-0,059
241,786	730,056	-0,108	-0,202
242,801	136,364	-0,170	-0,154
243,815	-71,296	-0,114	-0,029
244,830	-200,000	0,026	-0,212
245,844	194,153	-0,191	-0,201
246,859	-104,135	-0,105	0,017
247,874	194,384	-0,146	-0,153
248,888	166,025	-0,231	-0,227
249,903	171,432	-0,167	-0,166
250,917	79,936	-0,148	-0,110
251,932	-19,764	-0,060	-0,025
252,947	51,254	-0,228	-0,150
253,961	55,014	-0,256	-0,171
254,976	324,308	-0,130	-0,172
255,990	69,128	-0,199	-0,141
257,005	63,551	-0,156	-0,108
258,020	-200,000	0,039	-0,178
259,034	-81,028	-0,144	-0,033
260,049	38,074	-0,114	-0,070
261,063	800,000	-0,105	-0,204
262,078	-5,102	-0,215	-0,102
263,093	-21,182	-0,287	-0,121
264,107	166,963	-0,273	-0,269
265,122	207,108	-0,126	-0,136
266,136	5,459	-0,190	-0,097
267,151	40,547	-0,235	-0,146
268,166	-13,808	-0,259	-0,115
269,180	365,332	-0,127	-0,178
270,195	-200,000	-0,039	-0,223
271,209	-50,120	-0,281	-0,092
272,224	-89,905	-0,168	0,034
273,239	-88,659	-0,208	-0,042
274,253	450,475	-0,152	-0,232
275,268	1,583	-0,165	-0,082
276,282	15,077	-0,233	-0,126
277,297	147,023	-0,184	-0,171
278,312	221,289	-0,148	-0,164
279,326	293,190	-0,079	-0,099
280,341	-124,626	-0,112	-0,012
281,355	538,035	-0,086	-0,142
282,370	460,570	-0,148	-0,229
283,384	30,660	-0,173	-0,102
284,399	-10,331	-0,221	-0,101
285,414	148,915	-0,166	-0,156
286,428	-85,902	-0,236	0,050
287,443	249,097	-0,122	-0,143
288,457	-102,865	-0,132	0,021
289,472	800,000	-0,112	-0,238
290,487	361,790	-0,012	-0,016
291,501	67,814	-0,143	-0,101
292,516	383,757	-0,144	-0,205
293,530	27,342	-0,122	-0,071
294,545	-73,991	-0,076	-0,019
295,560	40,792	-0,123	-0,076
296,574	15,945	0,049	-0,027
297,589	621,650	-0,122	-0,213
298,603	0,586	-0,258	-0,127
299,618	404,363	-0,105	-0,153
300,633	142,055	-0,058	-0,053
301,647	-200,000	-0,038	-0,160
302,662	752,955	-0,092	-0,172
303,676	-200,000	-0,044	-0,198
304,691	-71,358	-0,212	-0,054
305,706	121,173	-0,072	-0,062
306,720	205,032	-0,176	-0,188
307,735	350,975	-0,142	-0,194
308,749	-138,189	-0,080	0,006
309,764	313,169	-0,073	-0,095
310,779	-31,939	-0,067	0,026
311,793	-128,928	-0,237	-0,023
312,808	71,829	-0,152	-0,109
313,822	38,606	-0,240	-0,147
314,837	800,000	-0,105	-0,207
315,852	67,356	-0,124	-0,087
316,866	-17,147	-0,183	-0,079
317,881	39,496	-0,091	0,056
318,895	-155,597	-0,102	0,004
319,910	153,143	-0,153	-0,144
320,925	-28,562	-0,216	-0,085
321,939	3,837	-0,145	-0,072
322,954	22,609	-0,137	-0,077
323,968	-146,567	-0,188	0,011
324,983	-189,772	-0,057	0,000
325,997	152,230	-0,148	-0,139
327,012	28,862	-0,176	-0,102
328,027	322,630	-0,157	-0,207
329,041	47,274	-0,253	-0,162
330,056	800,000	-0,048	-0,133
331,070	69,900	-0,094	0,067
332,085	-200,000	-0,027	-0,089
333,100	-200,000	-0,017	-0,107
334,114	523,651	-0,103	-0,167
335,129	244,488	-0,223	-0,258
336,143	-73,555	-0,124	-0,031
337,158	-38,644	-0,265	-0,096
338,173	-81,268	-0,166	-0,037
339,187	-40,662	-0,196	0,070
340,202	91,745	-0,196	-0,152
341,216	209,208	-0,219	-0,237
342,231	-10,886	-0,221	-0,100
343,246	87,717	-0,160	-0,121
344,260	745,603	-0,030	-0,055
345,275	-45,544	-0,147	0,050
346,289	-126,175	-0,151	-0,015
347,304	-139,511	-0,145	-0,010
348,319	115,194	-0,131	-0,110
349,333	435,974	-0,106	-0,158
350,348	-86,879	-0,112	0,023
351,362	-200,000	-0,069	-0,219
352,377	297,447	-0,114	-0,144
353,392	800,000	-0,086	-0,195
354,406	-200,000	-0,035	-0,116
355,421	210,258	1309,399	1412,703
356,435	161,859	1469,472	1413,203
