DTS Sentinel unit serial number:	SN410029Multiplexer serial number:	ORYXHardware model number:	OX2-SRSoftware version number:	ORYX F/W v4,00 Oryx Data Collector v3.7.2.0data status	okinstallation	B3 Nyhavnadifferential loss correction	single-endedforward channel	channel 1reverse channel	N/Adate	2023/11/30time	02:52:30forward acquisition time	300,00reverse acquisition time	0,00gamma	499,1914k internal	0,3210k external	0,3210temperature offset calibration	1,0000default loss term (dB/km)	0,3820temperature slope calibration	1,0000multiplexer offset coefficient	1,0000multiplexer slope coefficient	1,0000fibre end	0,00T internal ref (°C)	10,32T ext. ref 1 (°C)	-5,32T ext. ref 2 (°C)	-5,45length (m)	temperature (°C)	Stokes	anti-Stokes-744,400	423,317	-0,100	-0,156
-743,385	-200,000	-0,055	0,309
-742,371	-22,647	-0,159	-0,070
-741,356	800,000	0,105	0,248
-740,342	14,800	-0,283	-0,160
-739,327	-200,000	0,102	0,381
-738,312	-44,578	-0,288	-0,104
-737,298	-200,000	-0,040	0,152
-736,283	79,368	-0,134	-0,104
-735,269	-200,000	0,056	0,260
-734,254	264,978	-0,127	-0,161
-733,239	105,337	-0,222	0,190
-732,225	-200,000	-0,007	-0,218
-731,210	-112,611	0,190	0,027
-730,196	324,640	-0,036	-0,049
-729,181	42,698	0,108	-0,071
-728,167	-11,216	0,098	0,047
-727,152	-11,735	-0,134	-0,063
-726,137	-200,000	0,027	-0,210
-725,123	800,000	0,032	0,079
-724,108	113,307	-0,068	-0,060
-723,094	247,633	-0,070	-0,086
-722,079	-4,448	-0,153	-0,076
-721,064	-200,000	0,006	0,060
-720,050	-200,000	0,011	-0,120
-719,035	-200,000	-0,021	-0,145
-718,021	-152,721	-0,262	-0,013
-717,006	133,890	-0,069	0,064
-715,991	-1,099	0,019	-0,010
-714,977	235,597	0,075	0,090
-713,962	-115,020	-0,094	-0,013
-712,948	-21,266	0,162	0,071
-711,933	376,846	-0,022	0,033
-710,918	-134,582	-0,111	0,010
-709,904	800,000	-0,002	-0,007
-708,889	306,122	-0,052	-0,071
-707,875	-200,000	-0,005	-0,101
-706,860	-82,281	0,077	-0,018
-705,845	-130,027	0,069	0,007
-704,831	-4,697	-0,120	0,060
-703,816	-131,376	-0,098	-0,009
-702,802	41,555	-0,064	0,042
-701,787	-177,094	-0,129	0,002
-700,772	-104,517	0,018	0,003
-699,758	80,092	-0,022	0,017
-698,743	106,491	-0,035	0,030
-697,729	294,622	0,008	0,011
-696,714	139,498	0,038	0,036
-695,699	-200,000	0,033	-0,109
-694,685	207,813	-0,049	-0,056
-693,670	-120,655	0,033	0,004
-692,656	26,337	-0,036	0,022
-691,641	73,075	-0,031	0,023
-690,627	-176,333	-0,022	0,000
-689,612	-200,000	-0,007	-0,071
-688,597	-46,233	0,142	0,050
-687,583	120,463	-0,074	0,066
-686,568	31,871	0,131	-0,082
-685,554	-38,202	-0,114	-0,044
-684,539	112,830	-0,040	-0,035
-683,524	-85,245	-0,015	-0,003
-682,510	-200,000	-0,017	0,141
-681,495	13,435	-0,075	0,042
-680,481	-200,000	-0,008	-0,042
-679,466	155,103	-0,079	-0,079
-678,451	46,198	-0,033	-0,022
-677,437	63,019	-0,109	0,079
-676,422	800,000	-0,019	0,042
-675,408	-200,000	-0,007	0,031
-674,393	800,000	0,023	0,049
-673,378	-200,000	-0,044	0,150
-672,364	589,286	0,073	0,131
-671,349	800,000	-0,007	-0,021
-670,335	-74,934	0,141	-0,036
-669,320	-200,000	0,003	-0,012
-668,305	-88,249	0,049	0,011
-667,291	557,501	-0,017	-0,030
-666,276	-200,000	0,009	-0,210
-665,262	82,223	0,033	-0,025
-664,247	99,120	-0,027	-0,022
-663,232	29,320	0,113	-0,069
-662,218	-192,757	-0,045	0,000
-661,203	110,076	0,071	0,061
-660,189	-200,000	0,019	0,123
-659,174	-163,393	-0,191	-0,006
-658,159	-100,723	-0,065	0,011
-657,145	-200,000	0,008	-0,177
-656,130	-200,000	0,017	0,121
-655,116	-200,000	0,002	0,008
-654,101	800,000	0,051	0,151
-653,086	266,747	-0,112	0,142
-652,072	-104,452	0,126	-0,021
-651,057	92,769	-0,213	-0,173
-650,043	-139,285	-0,102	-0,008
-649,028	-200,000	-0,009	-0,116
-648,014	-74,145	0,045	-0,012
-646,999	-200,000	-0,034	0,118
-645,984	144,579	-0,067	0,064
-644,970	-200,000	-0,008	0,056
-643,955	9,879	-0,088	-0,048
-642,941	-145,393	-0,189	0,012
-641,926	499,336	0,041	0,068
-640,911	800,000	0,006	-0,015
-639,897	328,997	0,067	0,093
-638,882	30,692	-0,063	-0,039
-637,868	-200,000	0,012	0,060
-636,853	-200,000	-0,028	0,095
-635,838	66,505	0,033	-0,024
-634,824	-93,048	-0,089	0,018
-633,809	56,196	0,097	-0,068
-632,795	6,091	-0,048	-0,025
-631,780	-73,285	0,087	0,023
-630,765	409,448	-0,073	-0,113
-629,751	-200,000	-0,004	0,033
-628,736	-200,000	0,019	-0,092
-627,722	-55,899	-0,044	0,014
-626,707	-59,122	0,077	-0,024
-625,692	206,687	0,025	-0,028
-624,678	-131,976	0,011	-0,001
-623,663	-200,000	-0,043	0,199
-622,649	-200,000	-0,012	0,057
-621,634	620,955	-0,043	-0,079
-620,619	-4,326	-0,143	-0,071
-619,605	276,428	-0,074	0,095
-618,590	-96,802	0,124	0,023
-617,576	332,162	-0,017	-0,023
-616,561	-83,887	-0,100	0,023
-615,546	-149,748	0,016	-0,001
-614,532	-200,000	-0,007	-0,030
-613,517	103,757	-0,099	-0,084
-612,503	-107,464	0,143	0,022
-611,488	-200,000	-0,027	-0,092
-610,474	8,943	0,116	0,063
-609,459	-200,000	-0,015	0,061
-608,444	540,272	-0,050	-0,087
-607,430	-53,382	-0,121	-0,040
-606,415	-200,000	-0,011	-0,112
-605,401	-200,000	-0,003	0,034
-604,386	800,000	-0,045	0,134
-603,371	-200,000	0,035	-0,113
-602,357	-63,872	0,116	0,034
-601,342	800,000	-0,028	-0,081
-600,328	182,500	-0,103	-0,110
-599,313	-106,117	-0,056	0,009
-598,298	532,289	-0,072	0,124
-597,284	-16,250	-0,133	-0,061
-596,269	-200,000	-0,005	0,158
-595,255	67,246	0,060	-0,044
-594,240	153,970	-0,062	-0,062
-593,225	-28,271	-0,138	-0,057
-592,211	800,000	-0,048	0,106
-591,196	182,990	-0,029	0,031
-590,182	270,875	0,031	-0,039
-589,167	341,402	-0,053	0,075
-588,152	-177,788	0,071	0,001
-587,138	-113,820	-0,149	0,021
-586,123	800,000	0,045	-0,117
-585,109	-200,000	-0,011	-0,122
-584,094	97,918	0,088	-0,073
-583,079	114,015	-0,138	-0,121
-582,065	-138,639	0,210	0,016
-581,050	-200,000	-0,002	-0,011
-580,036	135,602	-0,033	-0,031
-579,021	-200,000	0,009	-0,179
-578,006	453,166	-0,031	-0,049
-576,992	65,076	-0,038	0,027
-575,977	-200,000	0,001	-0,040
-574,963	272,933	0,121	0,154
-573,948	-200,000	-0,008	0,056
-572,934	424,676	-0,055	-0,086
-571,919	-200,000	-0,027	-0,103
-570,904	-109,989	0,094	0,014
-569,890	61,098	-0,043	0,030
-568,875	-200,000	0,013	0,143
-567,861	-138,752	-0,069	-0,005
-566,846	-83,647	0,097	-0,022
-565,831	-200,000	0,014	0,067
-564,817	26,186	-0,108	-0,065
-563,802	-200,000	0,013	-0,082
-562,788	800,000	0,012	0,033
-561,773	-200,000	0,005	-0,019
-560,758	262,604	0,043	-0,054
-559,744	304,014	-0,089	0,120
-558,729	-102,734	-0,062	-0,011
-557,715	238,691	-0,066	-0,079
-556,700	110,222	-0,087	0,075
-555,685	4,011	-0,079	0,041
-554,671	376,956	-0,037	0,055
-553,656	-200,000	0,059	0,190
-552,642	800,000	0,036	0,087
-551,627	296,936	-0,095	0,126
-550,612	165,469	0,066	-0,067
-549,598	-42,831	-0,073	-0,026
-548,583	20,772	0,064	-0,037
-547,569	304,251	-0,051	-0,069
-546,554	-58,870	-0,070	0,022
-545,539	210,985	0,081	-0,092
-544,525	696,094	0,067	0,126
-543,510	-200,000	0,013	0,151
-542,496	-62,195	-0,053	-0,016
-541,481	566,206	-0,013	-0,022
-540,466	451,653	0,051	0,081
-539,452	180,850	0,079	0,083
-538,437	800,000	0,028	-0,070
-537,423	113,601	-0,004	-0,003
-536,408	112,907	-0,149	0,130
-535,393	220,859	0,038	-0,044
-534,379	546,972	0,078	-0,135
-533,364	-3,655	0,131	-0,065
-532,350	-200,000	-0,019	0,080
-531,335	800,000	0,033	-0,101
-530,321	800,000	-0,010	-0,027
-529,306	-0,489	0,098	0,050
-528,291	175,903	-0,066	-0,069
-527,277	-46,783	-0,090	-0,031
-526,262	319,132	-0,023	0,032
-525,248	-136,019	0,161	0,013
-524,233	-26,634	0,094	-0,040
-523,218	-146,889	0,019	-0,001
-522,204	-9,460	0,006	-0,003
-521,189	-45,927	-0,095	-0,034
-520,175	205,413	-0,046	0,052
-519,160	-145,654	-0,048	-0,003
-518,145	606,426	0,033	0,059
-517,131	-179,584	0,142	0,002
-516,116	-200,000	0,013	0,047
-515,102	265,059	0,048	-0,060
-514,087	-83,980	-0,057	0,013
-513,072	-11,224	-0,047	0,022
-512,058	-20,943	-0,085	0,037
-511,043	800,000	0,039	0,087
-510,029	-200,000	0,009	-0,051
-509,014	-200,000	0,040	0,135
-507,999	-93,428	0,125	-0,025
-506,985	800,000	-0,029	-0,079
-505,970	-109,614	0,174	-0,026
-504,956	319,763	0,049	-0,067
-503,941	-200,000	-0,028	0,102
-502,926	-19,293	-0,040	0,018
-501,912	-200,000	0,021	-0,069
-500,897	-200,000	-0,010	0,093
-499,883	-200,000	-0,021	-0,096
-498,868	40,939	-0,129	-0,083
-497,853	7,213	-0,017	-0,009
-496,839	127,036	-0,065	0,060
-495,824	-143,526	0,068	0,005
-494,810	800,000	-0,059	0,123
-493,795	122,286	-0,044	0,040
-492,781	305,847	0,068	-0,091
-491,766	800,000	-0,027	-0,059
-490,751	11,306	-0,105	-0,057
-489,737	-200,000	0,041	0,144
-488,722	-200,000	-0,002	-0,054
-487,708	-200,000	-0,026	-0,116
-486,693	800,000	-0,020	0,055
-485,678	82,875	0,059	0,046
-484,664	146,324	0,100	-0,097
-483,649	800,000	-0,039	0,080
-482,635	-39,144	0,098	0,037
-481,620	144,524	-0,057	-0,055
-480,605	93,160	-0,040	0,032
-479,591	-35,434	-0,080	-0,031
-478,576	-200,000	0,011	-0,068
-477,562	226,553	-0,097	-0,114
-476,547	-131,629	0,137	0,013
-475,532	-200,000	-0,019	0,084
-474,518	-31,977	-0,175	-0,070
-473,503	-97,277	-0,035	0,006
-472,489	30,033	0,133	-0,081
-471,474	-64,042	0,061	0,018
-470,459	115,714	-0,074	0,065
-469,445	-200,000	0,169	0,000
-468,430	203,113	-0,062	-0,069
-467,416	800,000	-0,051	0,104
-466,401	800,000	0,026	0,063
-465,386	-120,897	-0,149	-0,018
-464,372	63,877	-0,092	0,066
-463,357	-103,678	-0,110	-0,018
-462,343	-200,000	0,003	-0,013
-461,328	303,692	0,058	-0,077
-460,313	-51,328	0,060	-0,020
-459,299	-200,000	0,002	0,118
-458,284	-84,232	-0,020	0,005
-457,270	-137,604	0,075	0,006
-456,255	-200,000	0,022	-0,105
-455,241	800,000	-0,049	-0,129
-454,226	51,570	-0,079	-0,054
-453,211	-25,192	0,060	-0,025
-452,197	-200,000	-0,009	-0,151
-451,182	101,510	0,068	0,057
-450,168	-123,383	-0,036	-0,004
-449,153	-121,381	0,005	0,001
-448,138	269,950	-0,130	-0,164
-447,124	20,130	-0,055	-0,031
-446,109	110,187	0,084	0,072
-445,095	225,754	0,035	0,041
-444,080	-25,072	0,149	0,063
-443,065	152,942	-0,079	0,078
-442,051	-200,000	0,008	-0,226
-441,036	-200,000	0,005	-0,097
-440,022	-200,000	-0,037	-0,124
-439,007	-48,430	0,182	-0,062
-437,992	74,937	0,024	0,018
-436,978	-200,000	0,023	0,095
-435,963	-200,000	-0,002	0,010
-434,949	104,922	0,079	-0,066
-433,934	-112,560	-0,151	-0,021
-432,919	-200,000	0,018	0,076
-431,905	25,373	0,055	-0,033
-430,890	400,426	-0,122	-0,184
-429,876	800,000	0,004	0,008
-428,861	91,992	0,039	0,031
-427,846	800,000	-0,020	-0,051
-426,832	-200,000	-0,020	-0,142
-425,817	427,675	0,047	0,072
-424,803	800,000	0,029	-0,077
-423,788	351,972	0,047	-0,067
-422,773	-82,692	0,035	-0,008
-421,759	800,000	0,037	0,083
-420,744	724,147	0,043	-0,082
-419,730	108,027	-0,068	-0,058
-418,715	-37,124	0,051	-0,019
-417,701	-39,336	0,090	0,034
-416,686	21,320	0,068	0,039
-415,671	1,638	-0,113	0,058
-414,657	-200,000	-0,011	0,051
-413,642	169,016	0,147	0,150
-412,628	-200,000	0,002	0,033
-411,613	625,539	0,076	-0,138
-410,598	800,000	0,043	-0,095
-409,584	-94,692	-0,110	0,021
-408,569	-200,000	0,019	0,185
-407,555	-143,717	0,197	-0,013
-406,540	97,881	-0,131	0,108
-405,525	179,724	-0,112	0,117
-404,511	800,000	-0,025	-0,063
-403,496	800,000	0,027	-0,067
-402,482	-135,669	0,025	0,002
-401,467	18,195	0,015	0,009
-400,452	-101,512	-0,092	0,016
-399,438	-20,427	0,108	0,047
-398,423	97,665	-0,169	-0,139
-397,409	10,797	0,141	-0,077
-396,394	-200,000	-0,025	-0,158
-395,379	277,219	-0,061	-0,078
-394,365	-200,000	-0,015	0,110
-393,350	-179,700	-0,027	-0,000
-392,336	299,891	-0,026	0,035
-391,321	204,711	-0,073	0,081
-390,306	10,468	-0,058	0,031
-389,292	800,000	0,043	-0,097
-388,277	-200,000	-0,027	0,106
-387,263	-200,000	0,017	0,210
-386,248	255,947	0,077	0,094
-385,233	97,924	0,114	0,094
-384,219	800,000	-0,071	-0,191
-383,204	-200,000	-0,009	-0,149
-382,190	800,000	-0,052	-0,135
-381,175	800,000	-0,010	0,029
-380,160	-200,000	0,009	-0,087
-379,146	-42,387	0,115	-0,042
-378,131	-44,208	0,106	-0,038
-377,117	319,016	0,048	0,065
-376,102	372,267	-0,131	-0,191
-375,088	137,284	-0,033	0,031
-374,073	322,914	0,089	-0,121
-373,058	-62,977	0,071	-0,021
-372,044	-74,951	0,054	0,014
-371,029	800,000	-0,010	0,021
-370,015	330,016	-0,065	0,090
-369,000	46,825	-0,055	-0,036
-367,985	265,257	0,036	0,045
-366,971	59,162	0,110	0,077
-365,956	-200,000	-0,001	0,057
-364,942	68,294	0,096	0,070
-363,927	-200,000	0,005	0,101
-362,912	-139,601	0,100	-0,008
-361,898	16,285	-0,071	-0,040
-360,883	-200,000	0,014	-0,110
-359,869	782,803	0,025	-0,050
-358,854	800,000	-0,010	-0,028
-357,839	134,903	0,022	-0,021
-356,825	-87,886	-0,100	0,021
-355,810	269,251	0,123	-0,155
-354,796	5,075	-0,099	-0,052
-353,781	-118,183	0,085	0,011
-352,766	-78,200	-0,036	0,009
-351,752	56,917	0,093	0,064
-350,737	800,000	0,012	0,036
-349,723	-135,625	0,063	0,005
-348,708	45,827	-0,022	-0,014
-347,693	-200,000	-0,016	-0,092
-346,679	-200,000	-0,011	0,074
-345,664	800,000	-0,007	-0,018
-344,650	-200,000	0,079	0,299
-343,635	91,051	0,074	0,059
-342,620	15,135	-0,211	-0,118
-341,606	-144,695	0,055	0,004
-340,591	-200,000	0,006	0,084
-339,577	-200,000	-0,015	-0,095
-338,562	-200,000	0,013	0,052
-337,548	-14,480	0,052	0,024
-336,533	-104,954	-0,109	0,018
-335,518	-89,547	0,039	0,008
-334,504	-18,334	-0,047	-0,021
-333,489	-90,174	-0,046	0,009
-332,475	-41,950	0,158	-0,058
-331,460	213,669	-0,175	-0,197
-330,445	53,693	-0,113	-0,077
-329,431	-200,000	-0,000	-0,162
-328,416	225,297	0,017	0,020
-327,402	335,690	0,036	0,050
-326,387	-200,000	0,005	0,052
-325,372	-176,904	0,047	0,001
-324,358	23,668	-0,096	0,056
-323,343	800,000	0,023	-0,047
-322,329	-140,404	-0,069	-0,005
-321,314	368,805	0,069	0,099
-320,299	212,038	0,073	-0,082
-319,285	-168,821	-0,093	0,002
-318,270	-188,977	-0,101	-0,001
-317,256	-200,000	-0,010	0,142
-316,241	24,274	0,054	0,032
-315,226	-200,000	-0,040	-0,154
-314,212	800,000	-0,021	0,049
-313,197	77,432	0,048	0,036
-312,183	513,016	-0,046	-0,077
-311,168	244,002	0,064	0,077
-310,153	58,633	0,038	-0,027
-309,139	-132,108	-0,132	0,012
-308,124	-129,625	0,071	-0,007
-307,110	30,251	-0,079	-0,048
-306,095	-200,000	0,013	0,049
-305,080	-200,000	-0,007	-0,071
-304,066	-35,924	0,070	0,027
-303,051	48,694	-0,065	-0,043
-302,037	-86,286	-0,138	0,030
-301,022	-153,077	0,083	0,004
-300,008	-200,000	-0,005	0,104
-298,993	-200,000	-0,002	0,042
-297,978	445,310	0,050	-0,079
-296,964	-200,000	-0,003	-0,030
-295,949	-8,428	0,061	0,029
-294,935	-21,998	0,203	-0,088
-293,920	538,984	-0,123	-0,209
-292,905	541,298	-0,040	-0,068
-291,891	-200,000	0,000	-0,185
-290,876	-200,000	0,017	0,062
-289,862	186,025	0,054	0,057
-288,847	775,137	-0,040	0,078
-287,832	-124,646	-0,033	-0,004
-286,818	148,057	-0,149	0,144
-285,803	561,747	0,015	0,026
-284,789	159,676	-0,022	-0,022
-283,774	-68,012	0,036	0,010
-282,759	800,000	0,035	-0,098
-281,745	-18,695	-0,103	-0,046
-280,730	98,919	-0,032	0,027
-279,716	259,253	-0,015	0,018
-278,701	-25,806	0,120	-0,050
-277,686	25,710	-0,117	-0,069
-276,672	800,000	0,031	0,078
-275,657	-13,005	-0,096	0,044
-274,643	-109,424	-0,119	0,018
-273,628	-200,000	-0,001	-0,062
-272,613	800,000	-0,041	0,116
-271,599	75,825	0,019	-0,014
-270,584	-135,785	0,140	0,012
-269,570	738,666	0,026	-0,049
-268,555	-142,270	0,087	0,006
-267,540	18,916	-0,186	0,106
-266,526	6,887	-0,093	0,049
-265,511	122,092	-0,072	-0,064
-264,497	-77,190	-0,051	-0,013
-263,482	800,000	0,056	0,118
-262,467	-200,000	0,019	0,077
-261,453	800,000	0,027	-0,084
-260,438	-18,281	0,056	-0,025
-259,424	-103,689	-0,095	-0,016
-258,409	-48,407	0,124	-0,042
-257,395	-159,664	-0,022	-0,001
-256,380	800,000	-0,018	0,046
-255,365	-8,995	0,138	0,066
-254,351	200,069	0,064	0,070
-253,336	-200,000	0,006	0,048
-252,322	800,000	-0,042	0,112
-251,307	-200,000	-0,015	-0,085
-250,292	-200,000	-0,003	0,074
-249,278	-116,079	0,115	-0,015
-248,263	419,568	-0,042	0,065
-247,249	-89,143	0,037	-0,008
-246,234	-200,000	-0,007	0,114
-245,219	-200,000	-0,017	-0,090
-244,205	-54,240	0,059	-0,019
-243,190	45,314	0,109	-0,071
-242,176	-200,000	0,018	0,086
-241,161	388,627	-0,046	0,068
-240,146	54,748	0,048	0,033
-239,132	327,116	0,055	0,076
-238,117	-82,100	-0,097	0,022
-237,103	-147,538	0,059	0,003
-236,088	129,015	0,081	-0,074
-235,073	-29,918	0,128	0,052
-234,059	229,157	-0,065	0,075
-233,044	8,258	0,087	-0,047
-232,030	15,880	-0,027	-0,015
-231,015	66,024	-0,096	-0,069
-230,000	-200,000	-0,026	-0,117
-228,986	800,000	0,098	-0,201
-227,971	31,417	-0,074	-0,045
-226,957	-200,000	-0,005	0,157
-225,942	655,979	0,032	0,059
-224,927	198,403	0,102	-0,111
-223,913	16,471	-0,028	0,015
-222,898	800,000	0,027	-0,074
-221,884	800,000	-0,042	0,114
-220,869	306,214	0,034	0,045
-219,855	-72,382	0,050	0,013
-218,840	-200,000	0,014	0,060
-217,825	75,122	-0,058	0,043
-216,811	-200,000	-0,009	-0,069
-215,796	19,388	0,066	0,037
-214,782	-200,000	-0,000	0,035
-213,767	-72,179	0,107	-0,028
-212,752	-200,000	-0,018	0,091
-211,738	-57,390	0,066	-0,020
-210,723	189,261	-0,152	0,162
-209,709	47,262	-0,010	-0,007
-208,694	-16,458	-0,081	-0,036
-207,679	251,196	0,048	0,058
-206,665	25,995	0,115	-0,068
-205,650	800,000	0,070	0,161
-204,636	-200,000	-0,032	-0,139
-203,621	65,075	0,073	0,053
-202,606	-91,560	-0,097	0,019
-201,592	-26,167	-0,102	-0,042
-200,577	647,699	0,036	0,067
-199,563	-98,892	0,075	-0,013
-198,548	-86,240	0,121	0,026
-197,533	287,508	0,100	0,129
-196,519	27,887	-0,114	-0,068
-195,504	-133,893	0,049	-0,004
-194,490	-42,203	-0,105	0,038
-193,475	-200,000	-0,018	0,076
-192,460	800,000	-0,040	-0,087
-191,446	794,075	-0,067	0,132
-190,431	42,234	-0,051	0,033
-189,417	368,924	-0,088	0,126
-188,402	157,092	0,083	0,082
-187,387	563,063	0,060	-0,103
-186,373	-81,391	0,126	0,029
-185,358	-140,047	-0,190	-0,014
-184,344	135,773	0,095	0,088
-183,329	800,000	0,054	0,111
-182,315	-200,000	0,018	-0,077
-181,300	-46,420	0,180	-0,062
-180,285	-24,966	-0,092	-0,038
-179,271	-200,000	-0,035	-0,118
-178,256	-200,000	0,037	0,139
-177,242	-200,000	0,014	-0,046
-176,227	101,669	-0,069	0,057
-175,212	-28,500	0,087	-0,035
-174,198	-8,094	-0,095	0,045
-173,183	163,474	-0,093	-0,093
-172,169	-35,242	0,085	-0,033
-171,154	29,620	0,123	0,074
-170,139	-200,000	-0,037	0,127
-169,125	261,626	0,097	0,119
-168,110	-78,923	-0,022	0,005
-167,096	-200,000	0,046	-0,197
-166,081	-31,044	0,097	-0,039
-165,066	-7,691	-0,080	0,038
-164,052	39,741	-0,090	0,057
-163,037	800,000	-0,014	0,030
-162,023	193,861	0,103	0,110
-161,008	-200,000	0,002	-0,051
-159,993	-200,000	0,031	0,166
-158,979	331,967	-0,052	0,072
-157,964	403,733	0,041	-0,061
-156,950	-200,000	0,020	-0,115
-155,935	-50,034	-0,128	0,043
-154,920	-200,000	-0,021	-0,203
-153,906	710,949	0,024	0,045
-152,891	-200,000	-0,006	0,075
-151,877	-143,484	0,059	0,004
-150,862	-74,846	-0,121	0,031
-149,847	390,264	-0,059	-0,088
-148,833	30,859	-0,107	0,065
-147,818	-200,000	-0,006	0,075
-146,804	64,419	0,070	0,050
-145,789	-200,000	-0,005	0,166
-144,775	-200,000	0,001	0,010
-143,760	-97,590	0,088	0,016
-142,745	800,000	0,057	-0,115
-141,731	-103,295	0,032	0,005
-140,716	20,814	0,058	-0,033
-139,702	-11,707	0,054	0,025
-138,687	800,000	-0,067	0,149
-137,672	221,558	-0,033	0,037
-136,658	-200,000	0,023	-0,154
-135,643	-200,000	0,010	-0,057
-134,629	-36,317	-0,098	0,037
-133,614	255,140	0,074	0,090
-132,599	144,550	-0,008	0,008
-131,585	-50,778	0,179	0,059
-130,570	-83,078	-0,059	0,013
-129,556	460,404	-0,029	0,047
-128,541	578,348	-0,026	0,045
-127,526	44,063	-0,055	0,036
-126,512	36,002	0,031	-0,019
-125,497	800,000	0,051	0,120
-124,483	-0,896	-0,067	0,034
-123,468	739,753	-0,028	0,054
-122,453	-74,964	-0,105	0,027
-121,439	161,455	0,057	0,057
-120,424	-79,550	0,017	-0,004
-119,410	-75,821	-0,063	0,016
-118,395	753,577	-0,055	0,106
-117,380	380,749	0,038	0,055
-116,366	-28,884	0,077	0,031
-115,351	-200,000	-0,000	0,063
-114,337	121,787	-0,031	0,027
-113,322	301,721	0,010	0,014
-112,307	800,000	0,032	0,073
-111,293	-159,051	0,159	-0,006
-110,278	678,756	0,020	-0,037
-109,264	451,938	0,026	0,041
-108,249	85,731	-0,207	-0,161
-107,234	366,199	-0,044	0,063
-106,220	260,345	0,022	0,027
-105,205	252,349	0,074	-0,090
-104,191	500,932	-0,066	0,108
-103,176	-155,725	0,136	-0,006
-102,162	306,722	-0,078	0,104
-101,147	-200,000	-0,001	0,126
-100,132	336,248	-0,028	0,039
-99,118	-106,556	-0,027	0,004
-98,103	800,000	0,028	-0,060
-97,089	285,828	0,068	-0,087
-96,074	415,808	0,025	0,038
-95,059	-187,892	-0,179	-0,002
-94,045	-200,000	-0,037	-0,166
-93,030	559,868	-0,059	-0,101
-92,016	-153,110	-0,078	-0,004
-91,001	738,582	-0,047	-0,090
-89,986	-26,232	0,030	-0,012
-88,972	361,903	0,081	0,115
-87,957	-161,851	-0,057	0,002
-86,943	-15,910	-0,046	0,020
-85,928	188,660	-0,063	-0,067
-84,913	23,291	-0,074	0,043
-83,899	-200,000	-0,018	0,102
-82,884	58,343	-0,064	0,044
-81,870	503,420	-0,023	-0,037
-80,855	45,171	-0,030	-0,019
-79,840	322,094	-0,062	0,083
-78,826	206,728	0,090	0,099
-77,811	-160,165	-0,047	-0,002
-76,797	70,600	-0,043	0,031
-75,782	800,000	0,038	0,087
-74,767	-200,000	-0,006	-0,108
-73,753	144,229	-0,033	0,031
-72,738	-88,230	0,100	-0,021
-71,724	800,000	0,035	-0,087
-70,709	197,193	0,109	0,118
-69,694	800,000	0,038	-0,079
-68,680	800,000	0,032	0,094
-67,665	109,852	-0,105	0,089
-66,651	37,737	0,096	0,060
-65,636	-114,993	-0,192	0,025
-64,622	800,000	0,022	-0,061
-63,607	557,344	-0,060	-0,103
-62,592	-200,000	-0,004	0,027
-61,578	800,000	0,042	0,105
-60,563	127,889	-0,035	-0,032
-59,549	-99,988	0,149	0,026
-58,534	29,161	-2,043	-1,222
-57,519	451,447	-1,201	-1,880
-56,505	-200,000	-0,231	-4,284
-55,490	427,201	0,894	1,366
-54,476	800,000	5,186	11,168
-53,461	-200,000	21,093	337,574
-52,446	800,000	758,742	2350,519
-51,432	557,637	1661,807	2839,944
-50,417	73,627	1661,929	1227,730
-49,403	18,203	1535,374	862,503
-48,388	12,149	1458,821	790,210
-47,373	19,217	1449,911	819,281
-46,359	15,508	1438,992	795,436
-45,344	10,436	1434,812	768,939
-44,330	10,392	1432,900	767,674
-43,315	10,375	1431,108	766,603
-42,300	10,334	1429,307	765,414
-41,286	10,371	1428,260	764,997
-40,271	10,376	1426,826	764,225
-39,257	10,324	1425,946	763,475
-38,242	10,366	1424,754	763,004
-37,227	10,351	1423,614	762,292
-36,213	10,416	1422,061	761,738
-35,198	10,380	1421,108	761,028
-34,184	10,413	1420,318	760,730
-33,169	10,393	1418,907	759,850
-32,154	10,401	1417,924	759,333
-31,140	10,411	1416,508	758,592
-30,125	10,448	1415,663	758,281
-29,111	10,409	1414,460	757,427
-28,096	10,409	1413,177	756,706
-27,082	10,364	1411,900	755,781
-26,067	10,353	1411,046	755,244
-25,052	10,389	1409,853	754,745
-24,038	10,342	1409,030	754,051
-23,023	10,353	1408,102	753,579
-22,009	10,363	1406,969	752,988
-20,994	10,368	1405,812	752,364
-19,979	10,309	1405,157	751,706
-18,965	10,347	1404,036	751,257
-17,950	10,336	1403,186	750,718
-16,936	10,283	1402,635	750,147
-15,921	10,253	1401,403	749,320
-14,906	10,255	1400,549	748,843
-13,892	10,316	1399,430	748,498
-12,877	10,272	1398,703	747,875
-11,863	10,240	1398,021	747,332
-10,848	10,224	1397,009	746,686
-9,833	10,169	1396,209	745,976
-8,819	10,152	1395,216	745,336
-7,804	10,133	1394,775	744,980
-6,790	10,167	1393,407	744,380
-5,775	10,157	1392,329	743,726
-4,760	10,133	1391,440	743,113
-3,746	10,164	1390,522	742,734
-2,731	10,131	1389,592	742,058
-1,717	10,164	1388,676	741,692
-0,702	10,140	1386,723	740,507
0,313	14,103	1299,706	712,196
1,327	30,129	690,576	414,769
2,342	46,736	119,426	78,121
3,356	-1,584	16,608	8,229
4,371	-8,097	3,759	1,780
5,386	-10,815	0,872	0,405
6,400	800,000	0,162	0,440
7,415	290,406	-0,167	-0,215
8,429	41,474	-0,265	-0,169
9,444	204,482	-0,260	-0,284
10,459	49,602	-0,294	-0,195
11,473	177,054	-0,252	-0,259
12,488	78,454	-0,335	-0,252
13,502	7,508	-0,361	-0,189
14,517	-23,399	-0,260	-0,110
15,531	128,677	-0,276	-0,248
16,546	64,081	-0,324	-0,229
17,561	49,825	-0,401	-0,266
18,575	-84,675	-0,214	-0,047
19,590	800,000	-0,101	-0,218
20,604	-21,699	-0,356	-0,152
21,619	-5,123	-0,529	-0,255
22,634	106,958	-0,404	-0,337
23,648	177,781	-0,355	-0,365
24,663	241,091	-0,369	-0,435
25,677	105,739	-0,291	-0,242
26,692	28,662	-0,304	-0,181
27,707	269,855	-0,238	-0,295
28,721	99,259	-0,323	-0,263
29,736	116,156	-0,324	-0,279
30,750	100,558	-0,372	-0,304
31,765	145,642	-0,352	-0,332
32,780	216,454	-0,271	-0,304
33,794	95,936	-0,241	-0,193
34,809	297,403	-0,313	-0,406
35,823	29,999	-0,318	-0,190
36,838	132,891	-0,362	-0,329
37,853	170,659	-0,325	-0,328
38,867	26,346	-0,421	-0,247
39,882	-35,283	-0,363	-0,138
40,896	78,801	-0,278	-0,209
41,911	89,344	-0,370	-0,290
42,926	22,496	-0,453	-0,260
43,940	79,628	-0,198	-0,149
44,955	58,991	-0,375	-0,259
45,969	26,442	-0,282	-0,165
46,984	51,966	-0,249	-0,166
47,999	0,331	-0,342	-0,171
49,013	-59,175	-0,416	-0,125
50,028	-50,042	-0,363	-0,120
51,042	136,135	-0,380	-0,348
52,057	15,314	-0,347	-0,191
53,071	185,229	-0,387	-0,404
54,086	3,143	-0,439	-0,223
55,101	63,260	-0,322	-0,226
56,115	-28,257	-0,323	-0,131
57,130	37,390	-0,335	-0,208
58,144	-28,609	-0,396	-0,160
59,159	116,245	-0,328	-0,282
60,174	40,401	-0,443	-0,279
61,188	84,202	-0,279	-0,214
62,203	98,993	-0,326	-0,264
63,217	-35,852	-0,388	-0,147
64,232	-10,779	-0,220	-0,102
65,247	97,009	-0,375	-0,301
66,261	91,606	-0,386	-0,304
67,276	-40,503	-0,362	-0,131
68,290	118,186	-0,229	-0,198
69,305	172,587	-0,162	-0,164
70,320	-43,848	-0,331	-0,116
71,334	127,843	-0,242	-0,216
72,349	-106,102	-0,152	-0,024
73,363	0,753	-0,322	-0,161
74,378	66,446	-0,350	-0,249
75,393	48,120	-0,306	-0,200
76,407	157,771	-0,209	-0,203
77,422	72,128	-0,217	-0,158
78,436	73,037	-0,190	-0,139
79,451	168,969	-0,304	-0,304
80,466	11,360	-0,323	-0,173
81,480	25,597	-0,289	-0,168
82,495	-16,524	-0,261	-0,115
83,509	-53,336	-0,349	-0,111
84,524	14,963	-0,233	-0,127
85,539	188,054	-0,255	-0,267
86,553	-80,659	-0,234	-0,054
87,568	61,904	-0,414	-0,289
88,582	92,201	-0,309	-0,243
89,597	-49,269	-0,291	-0,097
90,611	138,584	-0,322	-0,296
91,626	119,648	-0,223	-0,194
92,641	-136,396	-0,357	-0,029
93,655	-36,677	-0,147	-0,055
94,670	30,135	-0,330	-0,196
95,684	138,622	-0,221	-0,203
96,699	6,208	-0,334	-0,173
97,714	-8,846	-0,405	-0,189
98,728	29,653	-0,295	-0,175
99,743	-36,779	-0,291	-0,109
100,757	-49,259	-0,315	-0,105
101,772	488,884	-0,190	-0,305
102,787	300,388	-0,246	-0,318
103,801	177,116	-0,254	-0,258
104,816	173,471	-0,347	-0,350
105,830	-18,290	-0,239	-0,104
106,845	87,189	-0,239	-0,185
107,860	140,003	-0,199	-0,183
108,874	739,286	-0,082	-0,155
109,889	118,763	-0,302	-0,260
110,903	79,520	-0,242	-0,181
111,918	-63,621	-0,318	-0,091
112,933	15,072	-0,253	-0,138
113,947	69,217	-0,224	-0,161
114,962	47,300	-0,244	-0,158
115,976	-186,489	-0,235	0,002
116,991	157,326	-0,296	-0,286
118,006	111,831	-0,345	-0,291
119,020	-23,490	-0,247	-0,103
120,035	-85,425	-0,189	-0,041
121,049	39,947	-0,309	-0,193
122,064	95,368	-0,240	-0,191
123,079	90,003	-0,212	-0,165
124,093	-13,800	-0,200	-0,090
125,108	150,230	-0,137	-0,130
126,122	171,182	-0,186	-0,186
127,137	396,512	-0,198	-0,289
128,151	43,011	-0,291	-0,185
129,166	-62,074	-0,177	-0,051
130,181	164,070	-0,234	-0,230
131,195	-17,062	-0,268	-0,118
132,210	-32,893	-0,296	-0,114
133,224	321,763	-0,097	-0,130
134,239	133,011	-0,201	-0,181
135,254	264,451	-0,156	-0,190
136,268	128,216	-0,253	-0,225
137,283	62,885	-0,278	-0,194
138,297	39,630	-0,327	-0,204
139,312	180,341	-0,313	-0,321
140,327	-1,080	-0,271	-0,133
141,341	-95,935	-0,351	-0,065
142,356	-136,827	-0,308	0,024
143,370	37,327	-0,239	-0,147
144,385	5,281	-0,387	-0,198
145,400	11,141	-0,248	-0,132
146,414	60,136	-0,278	-0,191
147,429	96,571	-0,223	-0,177
148,443	79,023	-0,142	-0,106
149,458	174,139	-0,163	-0,164
150,473	290,867	-0,207	-0,263
151,487	694,218	-0,153	-0,281
152,502	386,395	-0,151	-0,217
153,516	75,403	-0,239	-0,175
154,531	108,845	-0,215	-0,179
155,546	331,875	-0,152	-0,205
156,560	190,604	-0,187	-0,196
157,575	177,903	-0,161	-0,163
158,589	-53,183	-0,312	-0,099
159,604	180,318	-0,240	-0,245
160,619	-9,894	-0,344	-0,159
161,633	307,460	-0,211	-0,274
162,648	70,710	-0,229	-0,165
163,662	16,112	-0,267	-0,146
164,677	87,473	-0,194	-0,149
165,692	67,382	-0,221	-0,157
166,706	114,028	-0,297	-0,251
167,721	284,326	-0,165	-0,207
168,735	-147,353	-0,176	-0,010
169,750	-36,250	-0,211	-0,079
170,764	2,407	-0,237	-0,119
171,779	-196,438	-0,220	-0,001
172,794	270,198	-0,108	-0,132
173,808	134,294	-0,147	-0,133
174,823	-44,781	-0,190	-0,065
175,837	57,716	-0,233	-0,158
176,852	66,161	-0,303	-0,214
177,867	-15,863	-0,218	-0,096
178,881	60,880	-0,194	-0,133
179,896	-14,685	-0,268	-0,119
180,910	115,377	-0,228	-0,193
181,925	-17,582	-0,118	-0,051
182,940	31,581	-0,366	-0,218
183,954	92,314	-0,173	-0,136
184,969	220,460	-0,174	-0,194
185,983	278,470	-0,110	-0,136
186,998	-92,961	-0,162	-0,031
188,013	18,818	-0,186	-0,103
189,027	427,480	-0,208	-0,312
190,042	41,228	-0,226	-0,141
191,056	2,363	-0,235	-0,117
192,071	800,000	-0,032	-0,096
193,086	91,403	-0,128	-0,099
194,100	206,432	-0,187	-0,202
195,115	774,152	-0,076	-0,144
196,129	247,853	-0,092	-0,108
197,144	6,366	-0,162	-0,083
198,159	-172,853	-0,126	0,003
199,173	-19,768	-0,270	-0,115
200,188	83,849	-0,214	-0,162
201,202	45,272	-0,269	-0,171
202,217	-83,547	-0,223	-0,049
203,232	-6,137	-0,268	-0,127
204,246	179,535	-0,190	-0,193
205,261	195,213	-0,199	-0,209
206,275	-69,955	-0,187	-0,049
207,290	361,291	-0,106	-0,148
208,304	62,168	-0,167	-0,115
209,319	263,283	-0,227	-0,274
210,334	44,069	-0,239	-0,152
211,348	148,159	-0,321	-0,300
212,363	63,895	-0,218	-0,151
213,377	2,980	-0,143	-0,072
214,392	800,000	-0,078	-0,156
215,407	-37,942	-0,236	-0,086
216,421	-88,270	-0,155	-0,032
217,436	-200,000	-0,033	-0,135
218,450	-97,934	-0,296	-0,052
219,465	246,266	-0,167	-0,195
220,480	-78,162	-0,286	-0,068
221,494	-200,000	0,029	-0,215
222,509	108,987	-0,223	-0,185
223,523	205,858	-0,131	-0,141
224,538	180,077	-0,178	-0,181
225,553	69,860	-0,179	-0,127
226,567	143,855	-0,207	-0,191
227,582	-68,505	-0,182	-0,048
228,596	193,665	-0,164	-0,172
229,611	-144,154	-0,151	-0,010
230,626	191,865	-0,129	-0,135
231,640	764,571	-0,147	-0,277
232,655	-200,000	-0,069	-0,225
233,669	165,272	-0,200	-0,196
234,684	-98,581	-0,135	-0,024
235,699	205,239	-0,168	-0,180
236,713	32,822	-0,101	-0,061
237,728	-24,245	-0,246	-0,101
238,742	-118,141	-0,252	-0,031
239,757	287,860	-0,106	-0,133
240,772	217,744	-0,153	-0,169
241,786	68,156	-0,160	-0,113
242,801	532,723	-0,161	-0,264
243,815	-174,450	-0,110	-0,002
244,830	6,670	-0,227	-0,116
245,844	105,435	-0,126	-0,103
246,859	3,206	-0,240	-0,120
247,874	169,103	-0,204	-0,201
248,888	203,702	-0,126	-0,135
249,903	-158,488	-0,195	-0,008
250,917	298,692	-0,128	-0,164
251,932	-108,277	-0,154	-0,023
252,947	-89,551	-0,149	-0,030
253,961	637,673	-0,116	-0,205
254,976	800,000	-0,058	-0,155
255,990	48,314	-0,241	-0,155
257,005	120,696	-0,142	-0,122
258,020	614,163	-0,055	-0,096
259,034	-200,000	-0,025	-0,102
260,049	-50,158	-0,219	-0,071
261,063	-64,787	-0,194	-0,054
262,078	-62,493	-0,217	-0,062
263,093	203,800	-0,204	-0,218
264,107	-98,072	-0,147	-0,026
265,122	800,000	0,047	-0,128
266,136	86,220	-0,088	-0,067
267,151	738,610	-0,134	-0,248
268,166	-141,897	-0,223	0,015
269,180	-37,372	-0,048	-0,018
270,195	11,436	-0,232	-0,122
271,209	599,674	-0,148	-0,255
272,224	800,000	-0,101	-0,207
273,239	-58,861	-0,105	-0,031
274,253	-112,433	-0,246	-0,033
275,268	68,623	-0,131	-0,093
276,282	47,276	-0,150	-0,096
277,297	37,147	-0,196	-0,119
278,312	-54,951	-0,247	-0,076
279,326	-74,437	-0,093	0,023
280,341	191,810	-0,132	-0,137
281,355	108,714	-0,260	-0,213
282,370	8,562	-0,166	-0,086
283,384	191,214	-0,156	-0,162
284,399	-28,437	-0,119	-0,047
285,414	161,138	-0,220	-0,211
286,428	-200,000	-0,033	-0,162
287,443	800,000	-0,110	-0,312
288,457	48,352	-0,178	-0,114
289,472	-91,968	-0,215	-0,041
290,487	134,423	-0,207	-0,185
291,501	187,104	-0,079	-0,081
292,516	-84,728	-0,234	-0,050
293,530	62,739	-0,085	0,059
294,545	283,699	-0,089	-0,111
295,560	-67,845	-0,150	0,040
296,574	83,334	-0,190	-0,142
297,589	595,844	-0,111	-0,190
298,603	692,332	-0,098	-0,177
299,618	36,668	-0,143	-0,087
300,633	133,932	-0,145	-0,129
301,647	36,322	-0,187	-0,113
302,662	-43,125	-0,197	-0,068
303,676	-200,000	0,009	0,045
304,691	-166,386	-0,150	0,004
305,706	-48,698	-0,084	0,028
306,720	178,945	-0,118	-0,118
307,735	150,797	-0,176	-0,164
308,749	-113,735	-0,144	-0,019
309,764	3,878	-0,111	-0,056
310,779	-44,798	-0,128	-0,043
311,793	98,638	-0,135	-0,107
312,808	201,446	-0,202	-0,214
313,822	-64,789	-0,192	-0,053
314,837	145,107	-0,142	-0,130
315,852	800,000	-0,065	-0,190
316,866	-200,000	0,000	-0,142
317,881	109,608	-0,077	-0,064
318,895	-160,225	-0,189	-0,007
319,910	275,814	-0,131	-0,159
320,925	60,516	-0,258	-0,175
321,939	39,603	-0,175	-0,107
322,954	-147,997	-0,144	-0,008
323,968	-140,394	-0,279	-0,020
324,983	68,276	-0,183	-0,128
325,997	33,242	-0,249	-0,148
327,012	11,675	-0,185	-0,097
328,027	130,342	-0,103	-0,091
329,041	800,000	-0,072	-0,166
330,056	463,757	-0,029	0,044
331,070	-55,316	-0,111	0,034
332,085	418,705	-0,069	-0,102
333,100	800,000	-0,100	-0,203
334,114	469,186	-0,101	-0,155
335,129	-125,901	-0,164	-0,017
336,143	219,625	-0,156	-0,171
337,158	126,853	-0,136	-0,118
338,173	-200,000	0,000	-0,019
339,187	-93,688	-0,096	-0,018
340,202	87,037	-0,138	-0,104
341,216	406,436	-0,230	-0,334
342,231	127,808	-0,080	-0,069
343,246	-28,521	-0,100	0,039
344,260	800,000	0,015	-0,041
345,275	-83,716	-0,198	-0,043
346,289	-10,177	-0,141	-0,064
347,304	-145,382	-0,159	0,010
348,319	-11,268	-0,267	-0,120
349,333	663,261	-0,139	-0,247
350,348	135,376	-0,069	-0,061
351,362	241,245	-0,072	-0,082
352,377	800,000	-0,055	-0,108
353,392	239,339	-0,035	-0,040
354,406	75,592	-0,173	-0,125
355,421	206,583	1311,331	1398,663
356,435	158,882	1471,621	1399,142
