DTS Sentinel unit serial number:	SN410029Multiplexer serial number:	ORYXHardware model number:	OX2-SRSoftware version number:	ORYX F/W v4,00 Oryx Data Collector v3.7.2.0data status	okinstallation	B3 Nyhavnadifferential loss correction	single-endedforward channel	channel 1reverse channel	N/Adate	2023/12/03time	22:07:30forward acquisition time	300,00reverse acquisition time	0,00gamma	499,1914k internal	0,3200k external	0,3200temperature offset calibration	1,0000default loss term (dB/km)	0,3820temperature slope calibration	1,0000multiplexer offset coefficient	1,0000multiplexer slope coefficient	1,0000fibre end	0,00T internal ref (°C)	13,32T ext. ref 1 (°C)	-2,07T ext. ref 2 (°C)	-2,11length (m)	temperature (°C)	Stokes	anti-Stokes-744,400	457,863	-0,206	-0,335
-743,385	-200,000	0,037	0,239
-742,371	59,013	-0,152	-0,109
-741,356	189,373	0,122	0,133
-740,342	188,300	-0,154	-0,168
-739,327	-200,000	-0,029	0,454
-738,312	250,452	-0,217	-0,269
-737,298	-200,000	0,023	0,278
-736,283	800,000	-0,087	-0,249
-735,269	800,000	-0,145	0,409
-734,254	214,073	-0,310	-0,357
-733,239	498,293	-0,148	0,249
-732,225	70,273	-0,236	-0,177
-731,210	-87,857	0,077	0,017
-730,196	-200,000	0,017	-0,071
-729,181	38,797	0,040	-0,026
-728,167	-68,629	-0,185	-0,052
-727,152	-200,000	0,006	-0,107
-726,137	-200,000	0,005	0,035
-725,123	326,138	-0,052	0,073
-724,108	-7,900	0,110	0,054
-723,094	-200,000	-0,012	-0,098
-722,079	231,603	-0,102	-0,122
-721,064	82,678	0,104	0,082
-720,050	680,349	-0,021	-0,039
-719,035	800,000	0,057	0,137
-718,021	-200,000	0,009	-0,078
-717,006	181,572	-0,165	-0,176
-715,991	479,584	-0,126	-0,209
-714,977	-200,000	-0,060	-0,195
-713,962	-200,000	-0,006	-0,066
-712,948	41,924	-0,051	-0,034
-711,933	203,078	0,068	0,077
-710,918	-200,000	-0,001	-0,004
-709,904	-200,000	-0,038	-0,141
-708,889	-200,000	0,020	-0,087
-707,875	800,000	0,015	-0,038
-706,860	-24,564	0,162	0,070
-705,845	300,112	0,028	-0,038
-704,831	-200,000	-0,012	-0,047
-703,816	291,137	-0,063	-0,083
-702,802	800,000	-0,051	-0,139
-701,787	-83,156	-0,112	-0,026
-700,772	559,350	0,050	-0,087
-699,758	-38,516	-0,130	-0,050
-698,743	84,871	0,083	-0,066
-697,729	-66,580	0,147	-0,042
-696,714	-200,000	0,012	0,077
-695,699	800,000	0,013	-0,042
-694,685	-200,000	0,049	-0,158
-693,670	-82,122	-0,095	-0,022
-692,656	-123,348	-0,141	0,016
-691,641	-200,000	-0,013	0,067
-690,627	-19,044	-0,138	-0,062
-689,612	270,677	-0,055	0,070
-688,597	-200,000	0,005	0,025
-687,583	-200,000	-0,033	-0,111
-686,568	362,424	0,011	-0,017
-685,554	-200,000	0,026	-0,110
-684,539	-200,000	-0,001	-0,101
-683,524	-122,536	-0,032	0,004
-682,510	-85,579	-0,084	0,019
-681,495	67,624	-0,094	0,069
-680,481	-172,188	-0,126	-0,003
-679,466	209,686	-0,056	-0,064
-678,451	90,413	-0,046	0,037
-677,437	-73,950	-0,005	0,001
-676,422	-33,322	-0,128	0,051
-675,408	65,144	0,044	0,033
-674,393	800,000	0,039	0,078
-673,378	12,216	-0,092	-0,051
-672,364	-200,000	-0,023	-0,128
-671,349	-200,000	-0,034	-0,159
-670,335	-83,604	-0,029	-0,007
-669,320	539,194	-0,010	-0,017
-668,305	-133,789	0,105	-0,009
-667,291	-200,000	-0,039	-0,128
-666,276	65,874	0,051	-0,037
-665,262	-6,858	-0,052	0,026
-664,247	-200,000	0,001	-0,186
-663,232	-58,789	-0,163	-0,051
-662,218	-200,000	-0,005	0,143
-661,203	-200,000	0,013	0,046
-660,189	47,799	0,121	0,081
-659,174	-77,288	-0,171	0,043
-658,159	800,000	0,037	-0,083
-657,145	-119,984	-0,081	0,010
-656,130	-29,378	-0,040	0,017
-655,116	-71,453	-0,047	0,013
-654,101	-107,214	-0,118	0,019
-653,086	43,872	-0,031	-0,021
-652,072	-65,822	-0,111	-0,032
-651,057	-200,000	0,022	-0,133
-650,043	-161,182	-0,057	-0,002
-649,028	-74,426	-0,085	-0,022
-648,014	-200,000	0,001	-0,051
-646,999	-200,000	-0,002	-0,106
-645,984	800,000	-0,014	0,034
-644,970	109,979	0,086	-0,074
-643,955	59,732	-0,060	-0,043
-642,941	-170,416	0,045	0,001
-641,926	89,520	0,050	-0,040
-640,911	489,077	0,078	-0,130
-639,897	800,000	0,070	0,188
-638,882	161,436	-0,071	0,072
-637,868	-183,753	0,078	-0,001
-636,853	45,430	0,109	-0,073
-635,838	-200,000	-0,037	0,143
-634,824	-200,000	-0,031	-0,118
-633,809	-23,205	0,066	0,029
-632,795	-200,000	-0,008	0,061
-631,780	-63,718	-0,126	-0,037
-630,765	259,742	0,039	-0,049
-629,751	174,606	-0,094	-0,099
-628,736	171,544	-0,145	-0,151
-627,722	-120,980	0,175	0,021
-626,707	296,752	0,028	0,037
-625,692	206,825	-0,086	-0,097
-624,678	120,729	-0,099	0,089
-623,663	33,317	-0,017	0,011
-622,649	440,356	-0,045	-0,072
-621,634	129,106	-0,068	-0,063
-620,619	51,660	-0,089	-0,061
-619,605	-200,000	-0,005	-0,015
-618,590	502,830	-0,066	0,111
-617,576	-128,475	0,077	0,008
-616,561	-200,000	0,008	0,030
-615,546	-154,813	-0,034	-0,002
-614,532	21,508	-0,114	-0,067
-613,517	270,804	-0,071	-0,090
-612,503	800,000	0,008	-0,026
-611,488	-34,727	0,067	-0,027
-610,474	-68,754	-0,053	0,015
-609,459	152,199	0,011	-0,011
-608,444	28,695	-0,034	0,021
-607,430	-59,215	-0,094	-0,029
-606,415	-200,000	-0,000	-0,038
-605,401	208,762	0,073	0,083
-604,386	526,060	-0,082	-0,140
-603,371	-200,000	-0,012	0,055
-602,357	-200,000	-0,019	-0,075
-601,342	13,759	-0,104	-0,058
-600,328	-156,642	-0,051	-0,002
-599,313	-200,000	-0,026	-0,135
-598,298	-200,000	0,030	-0,103
-597,284	19,999	0,089	-0,052
-596,269	-53,019	0,138	-0,046
-595,255	24,535	0,172	0,103
-594,240	-30,197	0,069	-0,028
-593,225	75,788	-0,041	0,031
-592,211	-27,049	-0,040	-0,017
-591,196	-75,458	-0,099	-0,025
-590,182	286,035	0,030	-0,040
-589,167	-200,000	-0,021	-0,097
-588,152	123,348	0,031	-0,028
-587,138	800,000	0,023	0,060
-586,123	-94,153	0,089	0,017
-585,109	-104,723	-0,135	-0,022
-584,094	55,740	0,057	0,040
-583,079	-42,697	0,086	0,032
-582,065	800,000	-0,068	-0,137
-581,050	506,145	-0,072	0,121
-580,036	2,671	-0,076	0,040
-579,021	66,892	-0,046	0,034
-578,006	800,000	0,032	-0,082
-576,992	-200,000	0,052	-0,194
-575,977	74,188	-0,074	0,056
-574,963	-51,488	0,124	0,042
-573,948	-40,002	0,053	0,020
-572,934	-200,000	-0,009	-0,060
-571,919	-33,089	0,063	0,025
-570,904	-38,636	0,051	0,019
-569,890	16,955	0,142	-0,081
-568,875	381,215	-0,084	0,125
-567,861	53,728	-0,079	0,054
-566,846	-66,956	-0,084	-0,024
-565,831	-200,000	-0,020	0,142
-564,817	-200,000	-0,003	-0,019
-563,802	-17,912	0,103	-0,046
-562,788	-200,000	-0,035	0,136
-561,773	-199,654	-0,098	0,000
-560,758	-200,000	-0,026	-0,115
-559,744	-48,054	0,008	-0,003
-558,729	627,552	0,063	0,116
-557,715	-38,753	0,021	-0,008
-556,700	599,322	-0,054	-0,098
-555,685	-35,879	-0,186	-0,072
-554,671	-98,229	0,136	-0,025
-553,656	90,883	0,050	0,040
-552,642	-200,000	0,004	-0,094
-551,627	183,910	-0,038	0,041
-550,612	10,686	0,079	0,043
-549,598	62,703	-0,088	-0,064
-548,583	-200,000	0,026	-0,086
-547,569	206,944	0,039	0,044
-546,554	-90,777	0,140	0,029
-545,539	-48,666	0,135	0,047
-544,525	150,288	0,031	0,030
-543,510	-200,000	0,003	-0,109
-542,496	55,169	-0,023	0,016
-541,481	-172,916	-0,070	0,002
-540,466	-122,303	-0,105	-0,012
-539,452	-104,067	0,043	-0,007
-538,437	-137,744	0,086	0,007
-537,423	158,984	0,044	-0,044
-536,408	-34,778	0,119	-0,047
-535,393	-200,000	-0,015	-0,117
-534,379	288,551	-0,079	-0,103
-533,364	115,451	0,074	-0,066
-532,350	34,670	-0,026	0,017
-531,335	91,148	0,163	0,132
-530,321	800,000	-0,067	0,173
-529,306	153,441	0,028	0,028
-528,291	800,000	-0,046	-0,104
-527,277	-28,403	-0,085	-0,035
-526,262	-200,000	0,014	-0,105
-525,248	-200,000	0,017	-0,130
-524,233	289,829	0,126	0,165
-523,218	154,619	-0,026	-0,025
-522,204	-200,000	-0,007	-0,051
-521,189	-200,000	-0,014	-0,068
-520,175	-129,513	-0,158	0,016
-519,160	-64,771	-0,125	0,036
-518,145	-200,000	-0,023	0,100
-517,131	-157,669	-0,068	-0,003
-516,116	-16,713	-0,103	-0,047
-515,102	-5,860	0,112	0,055
-514,087	529,589	-0,077	0,131
-513,072	-125,469	-0,148	0,016
-512,058	297,764	-0,024	-0,031
-511,043	8,128	0,071	-0,038
-510,029	-200,000	0,000	-0,062
-509,014	-95,761	-0,040	-0,008
-507,999	222,557	0,014	0,017
-506,985	-112,028	-0,090	-0,013
-505,970	-47,310	-0,046	-0,016
-504,956	-127,150	-0,054	-0,006
-503,941	-200,000	0,048	0,188
-502,926	-200,000	-0,025	-0,146
-501,912	-81,820	0,063	-0,015
-500,897	-200,000	-0,007	-0,057
-499,883	323,907	-0,072	-0,099
-498,868	-200,000	-0,005	0,049
-497,853	295,448	-0,052	0,069
-496,839	800,000	0,011	-0,026
-495,824	-113,146	0,109	0,015
-494,810	-200,000	-0,004	0,063
-493,795	-65,406	-0,059	0,017
-492,781	420,660	0,034	0,052
-491,766	304,437	-0,033	-0,044
-490,751	101,605	-0,100	-0,084
-489,737	273,787	-0,086	0,110
-488,722	-200,000	0,023	0,127
-487,708	-128,127	0,087	0,009
-486,693	177,389	-0,048	0,051
-485,678	-162,333	-0,130	0,005
-484,664	800,000	-0,084	-0,180
-483,649	800,000	-0,038	-0,096
-482,635	29,248	0,091	-0,056
-481,620	230,485	-0,107	-0,126
-480,605	-185,381	0,143	0,002
-479,591	-200,000	0,012	0,070
-478,576	-200,000	-0,009	0,175
-477,562	-14,497	-0,121	0,056
-476,547	-184,752	0,089	0,001
-475,532	20,378	0,111	-0,065
-474,518	-200,000	-0,013	-0,071
-473,503	63,340	-0,053	0,038
-472,489	-200,000	-0,028	-0,120
-471,474	104,335	-0,032	0,027
-470,459	-200,000	-0,015	-0,081
-469,445	-200,000	0,020	-0,173
-468,430	-112,094	-0,023	-0,003
-467,416	359,057	-0,052	-0,075
-466,401	775,935	0,073	0,144
-465,386	800,000	0,025	0,069
-464,372	-200,000	-0,016	0,059
-463,357	208,794	-0,096	-0,108
-462,343	800,000	-0,022	0,047
-461,328	-67,682	0,033	0,009
-460,313	-80,891	0,180	-0,043
-459,299	-114,649	-0,053	0,007
-458,284	-200,000	0,005	0,116
-457,270	-200,000	-0,007	-0,161
-456,255	509,811	0,050	-0,084
-455,241	346,870	-0,044	0,062
-454,226	227,134	-0,061	0,071
-453,211	-44,218	0,018	0,007
-452,197	-200,000	-0,002	0,060
-451,182	800,000	0,034	0,085
-450,168	-200,000	0,021	0,126
-449,153	36,011	-0,096	-0,061
-448,138	800,000	-0,046	-0,108
-447,124	-200,000	-0,001	-0,006
-446,109	69,805	-0,062	0,046
-445,095	-100,997	0,109	0,019
-444,080	-200,000	-0,031	0,103
-443,065	431,415	0,032	0,051
-442,051	-200,000	-0,004	0,019
-441,036	-200,000	-0,004	0,103
-440,022	83,146	-0,070	0,054
-439,007	-200,000	-0,036	-0,155
-437,992	35,464	0,103	-0,065
-436,978	-200,000	0,005	-0,067
-435,963	-200,000	-0,007	0,223
-434,949	27,019	-0,091	-0,055
-433,934	219,908	0,085	0,098
-432,919	-200,000	-0,064	0,210
-431,905	-43,503	0,057	-0,021
-430,890	146,359	-0,026	-0,026
-429,876	331,628	0,060	0,083
-428,861	95,830	0,113	0,093
-427,846	247,917	-0,090	0,110
-426,832	-200,000	-0,015	-0,072
-425,817	323,663	-0,094	-0,130
-424,803	351,294	0,012	-0,017
-423,788	136,828	-0,024	0,022
-422,773	-200,000	0,008	0,059
-421,759	800,000	-0,013	0,027
-420,744	33,374	0,098	-0,061
-419,730	266,488	-0,091	-0,114
-418,715	800,000	-0,034	-0,083
-417,701	308,183	-0,029	0,039
-416,686	800,000	0,015	-0,032
-415,671	254,657	0,048	0,059
-414,657	800,000	0,049	0,152
-413,642	36,226	-0,009	-0,005
-412,628	-200,000	-0,010	-0,120
-411,613	305,331	-0,072	-0,096
-410,598	-200,000	-0,007	0,041
-409,584	-156,078	0,139	0,006
-408,569	800,000	0,053	0,131
-407,555	-77,318	-0,096	0,024
-406,540	-200,000	-0,011	-0,049
-405,525	-200,000	-0,001	0,045
-404,511	800,000	0,033	-0,076
-403,496	-200,000	-0,018	-0,074
-402,482	45,560	0,043	-0,028
-401,467	-200,000	-0,029	0,106
-400,452	-200,000	0,012	-0,059
-399,438	-90,144	-0,084	-0,017
-398,423	-200,000	-0,042	-0,142
-397,409	44,852	0,081	-0,053
-396,394	-142,459	0,083	0,006
-395,379	-60,734	-0,049	0,015
-394,365	800,000	-0,020	0,042
-393,350	800,000	0,029	-0,075
-392,336	10,316	-0,186	-0,101
-391,321	126,647	-0,106	0,097
-390,306	182,771	-0,096	0,101
-389,292	100,663	-0,136	-0,113
-388,277	29,351	0,034	0,021
-387,263	41,519	-0,098	0,064
-386,248	-200,000	-0,018	0,088
-385,233	-200,000	0,010	0,072
-384,219	85,627	0,021	0,017
-383,204	253,321	-0,023	0,028
-382,190	140,326	-0,158	-0,150
-381,175	800,000	-0,002	-0,005
-380,160	396,092	-0,053	0,080
-379,146	800,000	-0,028	0,083
-378,131	54,224	0,010	-0,007
-377,117	-170,421	-0,120	0,003
-376,102	800,000	-0,034	-0,095
-375,088	40,156	-0,089	-0,058
-374,073	-200,000	0,006	-0,043
-373,058	-200,000	0,004	0,255
-372,044	-200,000	-0,007	0,101
-371,029	-200,000	0,010	-0,063
-370,015	400,264	0,075	-0,113
-369,000	-200,000	0,002	-0,035
-367,985	800,000	0,062	-0,175
-366,971	-200,000	0,010	0,088
-365,956	-200,000	0,010	-0,044
-364,942	-200,000	0,008	0,089
-363,927	-117,425	0,056	0,007
-362,912	-24,138	0,062	0,026
-361,898	449,128	0,110	-0,175
-360,883	-200,000	0,030	-0,107
-359,869	-84,820	0,054	-0,012
-358,854	-166,924	0,183	-0,005
-357,839	800,000	-0,056	-0,123
-356,825	-200,000	0,028	0,175
-355,810	-18,636	-0,115	0,051
-354,796	-200,000	0,013	0,062
-353,781	22,312	-0,045	0,026
-352,766	800,000	-0,008	-0,020
-351,752	-200,000	-0,026	0,188
-350,737	185,316	0,072	0,076
-349,723	142,327	0,079	0,075
-348,708	293,990	-0,038	0,049
-347,693	212,600	0,125	-0,142
-346,679	-200,000	0,003	-0,050
-345,664	-116,055	0,064	-0,008
-344,650	-136,684	0,086	-0,007
-343,635	-94,417	-0,013	-0,002
-342,620	-200,000	-0,005	0,064
-341,606	800,000	0,053	0,107
-340,591	-156,416	0,094	0,004
-339,577	800,000	0,081	-0,240
-338,562	-97,505	-0,062	0,011
-337,548	-99,875	-0,103	0,018
-336,533	800,000	-0,030	-0,073
-335,518	800,000	-0,025	-0,063
-334,504	-89,700	-0,254	0,053
-333,489	378,707	0,024	-0,035
-332,475	184,388	0,039	-0,042
-331,460	-200,000	0,026	-0,097
-330,445	33,153	0,047	0,029
-329,431	-200,000	-0,014	0,050
-328,416	85,675	-0,051	-0,040
-327,402	-35,537	0,043	-0,016
-326,387	800,000	-0,040	0,087
-325,372	-200,000	0,002	-0,008
-324,358	-56,334	0,062	-0,020
-323,343	285,549	0,007	-0,008
-322,329	800,000	0,028	-0,077
-321,314	-48,186	0,134	0,046
-320,299	-129,077	0,045	0,004
-319,285	164,396	-0,069	0,070
-318,270	-200,000	-0,013	-0,048
-317,256	-200,000	0,018	0,120
-316,241	66,974	0,192	-0,140
-315,226	9,437	-0,076	0,041
-314,212	-70,471	0,070	0,019
-313,197	130,157	0,076	-0,070
-312,183	-15,360	-0,045	0,021
-311,168	166,981	0,053	-0,054
-310,153	-21,225	-0,061	0,027
-309,139	366,356	0,013	0,019
-308,124	39,646	-0,060	-0,039
-307,110	-83,165	0,195	0,045
-306,095	-34,856	0,089	-0,035
-305,080	-49,149	0,075	0,026
-304,066	38,888	0,083	0,053
-303,051	-9,009	-0,051	-0,024
-302,037	253,374	0,112	-0,137
-301,022	178,812	-0,026	0,027
-300,008	-28,741	0,058	0,024
-298,993	10,680	-0,026	-0,014
-297,978	355,286	-0,058	-0,083
-296,964	339,068	0,023	0,032
-295,949	-138,726	-0,022	-0,002
-294,935	-70,695	0,050	0,013
-293,920	-36,347	-0,035	-0,013
-292,905	-200,000	-0,016	0,078
-291,891	-200,000	-0,035	0,121
-290,876	-200,000	0,038	0,131
-289,862	41,212	-0,040	-0,026
-288,847	-200,000	-0,008	-0,026
-287,832	-93,816	-0,161	0,031
-286,818	140,545	0,078	-0,073
-285,803	-200,000	-0,041	-0,156
-284,789	800,000	0,021	-0,046
-283,774	800,000	0,046	0,118
-282,759	-52,378	-0,074	0,024
-281,745	800,000	-0,032	-0,068
-280,730	-200,000	0,004	-0,027
-279,716	40,277	-0,079	0,051
-278,701	12,361	0,121	0,066
-277,686	228,369	-0,070	0,082
-276,672	-200,000	0,029	0,182
-275,657	661,627	0,047	-0,087
-274,643	-200,000	0,006	0,026
-273,628	-68,586	-0,047	-0,013
-272,613	547,566	0,063	-0,107
-271,599	240,900	-0,058	0,069
-270,584	-185,899	-0,108	0,001
-269,570	-2,777	0,062	-0,031
-268,555	57,564	-0,083	0,058
-267,540	314,792	-0,075	0,101
-266,526	800,000	-0,026	-0,054
-265,511	-200,000	0,021	-0,145
-264,497	24,229	0,102	0,060
-263,482	3,328	0,042	0,022
-262,467	-200,000	0,005	0,069
-261,453	247,893	0,103	0,125
-260,438	-120,999	-0,033	-0,004
-259,424	364,458	-0,037	-0,054
-258,409	-23,565	0,120	-0,051
-257,395	800,000	-0,025	-0,075
-256,380	216,183	-0,033	0,038
-255,365	79,782	0,079	0,061
-254,351	391,287	0,090	0,133
-253,336	389,991	0,032	-0,047
-252,322	-132,626	-0,058	-0,005
-251,307	275,003	0,035	0,045
-250,292	555,201	0,059	0,101
-249,278	-36,674	0,121	-0,046
-248,263	-147,438	-0,066	0,004
-247,249	800,000	0,023	0,059
-246,234	153,845	-0,068	-0,067
-245,219	800,000	-0,041	-0,116
-244,205	-70,433	0,071	-0,019
-243,190	-200,000	0,017	-0,102
-242,176	-200,000	0,018	0,130
-241,161	-200,000	-0,015	0,063
-240,146	-118,071	-0,018	0,002
-239,132	-33,505	-0,091	0,036
-238,117	91,977	0,059	-0,047
-237,103	448,147	-0,061	-0,096
-236,088	-18,263	0,166	-0,074
-235,073	732,947	-0,013	-0,025
-234,059	-200,000	0,009	0,053
-233,044	-200,000	-0,001	-0,018
-232,030	-111,124	0,018	-0,003
-231,015	110,521	0,033	-0,028
-230,000	303,080	-0,095	-0,125
-228,986	-109,053	0,055	0,008
-227,971	800,000	-0,031	-0,082
-226,957	144,839	0,031	-0,030
-225,942	-54,323	-0,028	0,009
-224,927	599,834	0,020	0,036
-223,913	-200,000	0,001	0,077
-222,898	-50,735	-0,186	-0,062
-221,884	-200,000	0,014	-0,138
-220,869	800,000	-0,066	0,149
-219,855	88,210	0,062	0,049
-218,840	74,426	0,049	0,036
-217,825	5,377	0,106	-0,055
-216,811	282,939	-0,049	0,063
-215,796	402,947	-0,099	0,150
-214,782	72,507	-0,169	0,126
-213,767	226,081	0,138	0,160
-212,752	549,945	0,057	0,098
-211,738	380,448	0,135	0,197
-210,723	-200,000	-0,031	-0,134
-209,709	26,661	-0,117	-0,070
-208,694	-69,358	0,115	0,031
-207,679	-200,000	-0,009	-0,073
-206,665	-48,430	0,088	-0,030
-205,650	28,003	0,093	0,056
-204,636	-200,000	0,006	0,159
-203,621	-69,239	-0,051	0,014
-202,606	146,395	-0,073	-0,070
-201,592	-85,270	-0,147	-0,032
-200,577	180,694	-0,071	-0,075
-199,563	39,212	0,022	0,014
-198,548	28,774	0,040	0,024
-197,533	309,762	-0,105	0,140
-196,519	-84,835	0,025	-0,006
-195,504	-200,000	-0,009	-0,052
-194,490	269,450	0,045	-0,056
-193,475	31,704	0,079	0,049
-192,460	-200,000	0,005	0,126
-191,446	100,298	0,054	0,045
-190,431	107,552	0,070	-0,059
-189,417	-200,000	0,014	0,057
-188,402	349,990	-0,096	-0,135
-187,387	172,454	0,038	-0,039
-186,373	-32,503	0,082	0,032
-185,358	-137,079	-0,114	-0,009
-184,344	302,649	0,084	0,110
-183,329	-200,000	-0,043	0,152
-182,315	726,008	0,102	0,195
-181,300	-24,014	0,124	-0,052
-180,285	-91,700	-0,067	-0,013
-179,271	159,103	-0,082	-0,081
-178,256	12,358	0,050	0,027
-177,242	-10,009	0,150	-0,071
-176,227	45,696	0,116	0,076
-175,212	642,665	0,027	0,049
-174,198	-200,000	0,003	0,040
-173,183	-40,237	-0,129	-0,048
-172,169	-23,681	0,105	-0,045
-171,154	780,421	-0,020	0,038
-170,139	-7,002	0,034	0,016
-169,125	554,431	-0,110	-0,188
-168,110	180,003	0,102	-0,107
-167,096	152,350	-0,106	0,103
-166,081	-200,000	0,016	-0,079
-165,066	379,466	-0,038	-0,056
-164,052	39,020	0,050	0,032
-163,037	-125,440	-0,182	-0,020
-162,023	-4,247	0,148	-0,072
-161,008	-200,000	0,027	0,153
-159,993	-200,000	0,021	0,085
-158,979	-200,000	-0,022	-0,109
-157,964	-111,440	-0,134	0,019
-156,950	10,478	-0,084	-0,045
-155,935	256,476	0,018	-0,022
-154,920	-91,139	0,126	0,026
-153,906	234,886	0,125	0,147
-152,891	-200,000	0,049	0,176
-151,877	800,000	-0,060	-0,140
-150,862	-98,679	-0,138	0,025
-149,847	407,682	-0,036	0,054
-148,833	-30,607	-0,092	0,037
-147,818	-20,883	0,052	-0,023
-146,804	-34,772	-0,043	-0,017
-145,789	800,000	0,026	-0,056
-144,775	-125,355	-0,073	0,008
-143,760	263,234	-0,091	-0,113
-142,745	-60,015	-0,097	-0,029
-141,731	-200,000	-0,002	-0,021
-140,716	-200,000	0,017	0,055
-139,702	27,803	-0,101	-0,061
-138,687	562,106	-0,031	0,054
-137,672	81,381	0,117	0,089
-136,658	-140,906	-0,036	-0,003
-135,643	-60,669	0,068	-0,020
-134,629	26,213	-0,045	0,027
-133,614	90,004	0,035	0,028
-132,599	-25,119	0,108	-0,045
-131,585	800,000	-0,031	0,073
-130,570	246,025	0,013	0,015
-129,556	-107,690	0,085	0,013
-128,541	5,185	-0,120	-0,062
-127,526	-55,773	-0,070	-0,022
-126,512	800,000	-0,025	0,059
-125,497	-190,393	-0,104	0,001
-124,483	319,696	0,042	0,057
-123,468	212,959	-0,077	0,086
-122,453	800,000	0,019	-0,061
-121,439	-200,000	-0,019	0,083
-120,424	666,469	0,041	-0,075
-119,410	-200,000	-0,001	0,112
-118,395	169,140	0,060	-0,061
-117,380	228,300	0,109	-0,126
-116,366	-94,241	-0,097	0,019
-115,351	56,137	-0,129	-0,089
-114,337	158,381	-0,082	0,081
-113,322	-74,167	0,128	-0,033
-112,307	111,092	0,117	-0,100
-111,293	-127,047	0,123	-0,013
-110,278	299,268	-0,080	0,105
-109,264	618,954	0,066	-0,118
-108,249	-200,000	-0,015	-0,082
-107,234	222,534	-0,088	-0,101
-106,220	10,395	0,026	-0,014
-105,205	45,830	0,129	-0,084
-104,191	174,890	0,036	0,037
-103,176	643,036	-0,078	0,142
-102,162	408,145	-0,030	0,045
-101,147	763,562	-0,070	-0,136
-100,132	24,292	-0,040	0,023
-99,118	-115,137	-0,134	-0,018
-98,103	-183,821	-0,043	-0,001
-97,089	347,919	0,044	-0,062
-96,074	800,000	0,026	-0,074
-95,059	-36,741	0,092	0,035
-94,045	-28,447	-0,126	0,051
-93,030	-200,000	-0,035	0,141
-92,016	-200,000	0,022	-0,129
-91,001	82,160	0,041	0,032
-89,986	-133,475	0,046	0,004
-88,972	89,472	-0,017	-0,013
-87,957	-139,441	0,226	-0,017
-86,943	7,340	-0,092	-0,048
-85,928	184,017	-0,052	0,054
-84,913	-33,008	-0,038	-0,015
-83,899	-83,564	-0,122	-0,028
-82,884	173,860	-0,046	0,047
-81,870	-28,707	0,076	-0,031
-80,855	493,037	0,071	0,116
-79,840	638,247	-0,056	-0,101
-78,826	-200,000	0,024	-0,165
-77,811	800,000	-0,047	-0,107
-76,797	634,863	-0,038	-0,068
-75,782	-200,000	0,006	0,184
-74,767	24,636	-0,047	-0,027
-73,753	-200,000	-0,019	-0,068
-72,738	-80,813	-0,057	-0,013
-71,724	-59,809	0,077	-0,023
-70,709	800,000	0,038	0,083
-69,694	8,902	-0,084	0,045
-68,680	-200,000	-0,023	0,114
-67,665	87,104	0,060	-0,047
-66,651	207,322	0,021	-0,023
-65,636	-200,000	-0,005	-0,061
-64,622	120,727	-0,078	-0,069
-63,607	-200,000	0,018	-0,101
-62,592	254,704	-0,062	-0,076
-61,578	-200,000	0,030	0,119
-60,563	94,429	0,061	0,049
-59,549	257,614	0,017	0,021
-58,534	-15,621	-1,794	-0,807
-57,519	361,914	-1,401	-1,997
-56,505	-200,000	-0,585	-4,490
-55,490	220,365	1,033	1,174
-54,476	800,000	4,911	11,230
-53,461	-200,000	19,325	320,189
-52,446	-200,000	741,025	2334,736
-51,432	572,785	1656,173	2870,159
-50,417	78,309	1671,975	1263,126
-49,403	21,323	1544,654	886,459
-48,388	15,208	1467,310	812,310
-47,373	17,937	1457,430	820,009
-46,359	16,676	1447,249	808,194
-45,344	13,428	1442,616	790,002
-44,330	13,359	1440,773	788,629
-43,315	13,364	1439,071	787,692
-42,300	13,363	1437,230	786,650
-41,286	13,406	1435,983	786,141
-40,271	13,363	1434,819	785,266
-39,257	13,332	1433,626	784,432
-38,242	13,438	1432,130	784,091
-37,227	13,389	1430,913	783,161
-36,213	13,418	1429,636	782,567
-35,198	13,477	1428,510	782,198
-34,184	13,431	1427,802	781,563
-33,169	13,405	1426,161	780,509
-32,154	13,437	1425,133	780,067
-31,140	13,499	1423,715	779,556
-30,125	13,485	1422,739	778,921
-29,111	13,439	1421,523	778,009
-28,096	13,389	1420,694	777,287
-27,082	13,373	1419,530	776,545
-26,067	13,347	1418,443	775,797
-25,052	13,368	1417,347	775,265
-24,038	13,274	1416,266	774,198
-23,023	13,301	1415,290	773,763
-22,009	13,343	1414,069	773,261
-20,994	13,248	1413,420	772,431
-19,979	13,357	1412,344	772,323
-18,965	13,255	1411,751	771,490
-17,950	13,340	1410,364	771,100
-16,936	13,281	1409,589	770,370
-15,921	13,252	1408,520	769,618
-14,906	13,259	1407,725	769,185
-13,892	13,303	1406,451	768,667
-12,877	13,257	1405,818	768,075
-11,863	13,274	1404,958	767,654
-10,848	13,239	1404,114	766,999
-9,833	13,219	1403,182	766,364
-8,819	13,168	1402,431	765,689
-7,804	13,150	1401,469	765,048
-6,790	13,174	1400,462	764,578
-5,775	13,157	1399,402	763,893
-4,760	13,181	1398,259	763,346
-3,746	13,167	1397,518	762,847
-2,731	13,153	1396,681	762,294
-1,717	13,128	1395,854	761,696
-0,702	13,141	1393,997	760,716
0,313	16,955	1310,936	733,082
1,327	33,040	704,388	431,124
2,342	50,995	123,468	82,704
3,356	1,119	16,688	8,447
4,371	5,239	3,231	1,680
5,386	-58,308	0,712	0,218
6,400	-200,000	0,029	0,108
7,415	183,538	-0,185	-0,193
8,429	1,132	-0,335	-0,169
9,444	75,163	-0,362	-0,270
10,459	564,871	-0,238	-0,409
11,473	-28,111	-0,321	-0,131
12,488	48,024	-0,414	-0,273
13,502	165,100	-0,234	-0,234
14,517	-75,973	-0,399	-0,099
15,531	41,775	-0,364	-0,233
16,546	-53,477	-0,398	-0,128
17,561	102,492	-0,421	-0,348
18,575	91,573	-0,162	-0,129
19,590	182,320	-0,253	-0,263
20,604	-13,294	-0,174	-0,080
21,619	92,421	-0,374	-0,298
22,634	34,601	-0,469	-0,289
23,648	19,355	-0,499	-0,282
24,663	728,713	-0,201	-0,381
25,677	41,055	-0,400	-0,255
26,692	57,964	-0,246	-0,170
27,707	187,450	-0,202	-0,213
28,721	-11,278	-0,427	-0,198
29,736	5,228	-0,461	-0,239
30,750	22,662	-0,391	-0,225
31,765	113,523	-0,397	-0,340
32,780	77,553	-0,368	-0,276
33,794	405,701	-0,166	-0,249
34,809	111,000	-0,317	-0,269
35,823	102,617	-0,423	-0,349
36,838	101,090	-0,296	-0,243
37,853	228,653	-0,320	-0,368
38,867	163,587	-0,319	-0,317
39,882	136,974	-0,360	-0,332
40,896	69,322	-0,283	-0,205
41,911	46,121	-0,329	-0,215
42,926	-32,657	-0,450	-0,176
43,940	-18,789	-0,355	-0,155
44,955	91,496	-0,312	-0,247
45,969	71,424	-0,308	-0,225
46,984	149,584	-0,307	-0,293
47,999	36,765	-0,218	-0,135
49,013	10,656	-0,241	-0,129
50,028	-7,904	-0,299	-0,142
51,042	62,940	-0,374	-0,264
52,057	66,574	-0,298	-0,213
53,071	35,246	-0,439	-0,271
54,086	234,595	-0,262	-0,304
55,101	7,249	-0,410	-0,215
56,115	-42,157	-0,303	-0,109
57,130	43,269	-0,392	-0,252
58,144	-18,673	-0,447	-0,195
59,159	-22,352	-0,488	-0,207
60,174	7,816	-0,416	-0,219
61,188	-44,339	-0,424	-0,149
62,203	33,444	-0,346	-0,211
63,217	130,267	-0,265	-0,239
64,232	-74,764	-0,346	-0,087
65,247	182,599	-0,290	-0,301
66,261	299,196	-0,300	-0,389
67,276	188,667	-0,335	-0,353
68,290	64,953	-0,224	-0,159
69,305	4,840	-0,280	-0,145
70,320	82,115	-0,372	-0,283
71,334	-25,048	-0,348	-0,145
72,349	-41,261	-0,373	-0,135
73,363	172,909	-0,294	-0,298
74,378	-145,159	-0,180	-0,011
75,393	258,006	-0,269	-0,326
76,407	-93,491	-0,236	-0,045
77,422	183,640	-0,228	-0,237
78,436	-31,087	-0,320	-0,126
79,451	-14,603	-0,286	-0,129
80,466	80,604	-0,362	-0,274
81,480	6,413	-0,373	-0,194
82,495	-3,081	-0,289	-0,141
83,509	-60,469	-0,197	-0,059
84,524	4,068	-0,287	-0,147
85,539	143,013	-0,178	-0,167
86,553	-0,671	-0,270	-0,134
87,568	216,094	-0,218	-0,243
88,582	72,753	-0,308	-0,226
89,597	-55,005	-0,404	-0,127
90,611	96,238	-0,279	-0,224
91,626	-68,935	-0,272	-0,073
92,641	64,295	-0,171	-0,121
93,655	-48,867	-0,241	-0,081
94,670	-70,404	-0,373	-0,098
95,684	147,639	-0,363	-0,344
96,699	279,085	-0,233	-0,292
97,714	229,943	-0,150	-0,173
98,728	-124,371	-0,298	-0,032
99,743	173,323	-0,202	-0,205
100,757	440,197	-0,180	-0,277
101,772	-28,577	-0,364	-0,147
102,787	38,169	-0,268	-0,167
103,801	-3,518	-0,285	-0,139
104,816	-6,698	-0,157	-0,075
105,830	63,805	-0,232	-0,163
106,845	-97,586	-0,304	-0,055
107,860	-154,327	-0,286	-0,013
108,874	368,395	-0,187	-0,267
109,889	32,648	-0,254	-0,154
110,903	-94,019	-0,296	-0,056
111,918	529,039	-0,169	-0,280
112,933	-3,885	-0,228	-0,111
113,947	125,118	-0,217	-0,192
114,962	782,492	-0,099	-0,190
115,976	128,508	-0,166	-0,148
116,991	202,575	-0,269	-0,291
118,006	484,904	-0,193	-0,308
119,020	153,607	-0,235	-0,226
120,035	54,023	-0,283	-0,190
121,049	335,660	-0,142	-0,194
122,064	24,916	-0,223	-0,129
123,079	-70,713	-0,383	-0,101
124,093	13,282	-0,248	-0,134
125,108	277,805	-0,234	-0,293
126,122	237,489	-0,124	-0,144
127,137	91,525	-0,183	-0,144
128,151	-77,940	-0,347	-0,083
129,166	59,357	-0,256	-0,176
130,181	-8,956	-0,163	-0,076
131,195	23,234	-0,371	-0,213
132,210	-40,707	-0,362	-0,130
133,224	57,975	-0,284	-0,194
134,239	69,583	-0,190	-0,136
135,254	294,221	-0,259	-0,332
136,268	117,881	-0,207	-0,178
137,283	140,926	-0,228	-0,211
138,297	-21,568	-0,252	-0,107
139,312	800,000	-0,107	-0,313
140,327	181,586	-0,191	-0,196
141,341	371,773	-0,188	-0,267
142,356	90,668	-0,252	-0,198
143,370	112,247	-0,257	-0,217
144,385	251,198	-0,223	-0,266
145,400	179,613	-0,261	-0,268
146,414	98,685	-0,185	-0,149
147,429	68,658	-0,243	-0,174
148,443	117,975	-0,235	-0,202
149,458	418,749	-0,097	-0,145
150,473	118,553	-0,228	-0,197
151,487	34,983	-0,211	-0,129
152,502	75,145	-0,227	-0,167
153,516	88,644	-0,185	-0,144
154,531	64,543	-0,332	-0,233
155,546	53,462	-0,187	-0,125
156,560	376,125	-0,148	-0,211
157,575	61,140	-0,228	-0,158
158,589	129,003	-0,203	-0,181
159,604	56,401	-0,255	-0,172
160,619	-1,832	-0,316	-0,155
161,633	11,010	-0,212	-0,113
162,648	70,029	-0,243	-0,175
163,662	-200,000	-0,055	-0,240
164,677	196,860	-0,156	-0,166
165,692	12,958	-0,222	-0,119
166,706	101,223	-0,283	-0,230
167,721	98,510	-0,247	-0,198
168,735	177,634	-0,264	-0,269
169,750	15,168	-0,308	-0,168
170,764	-95,713	-0,237	-0,044
171,779	44,090	-0,129	-0,082
172,794	-29,760	-0,248	-0,098
173,808	94,509	-0,235	-0,186
174,823	88,752	-0,262	-0,203
175,837	258,452	-0,211	-0,254
176,852	176,936	-0,220	-0,223
177,867	800,000	-0,105	-0,211
178,881	800,000	-0,113	-0,223
179,896	291,972	-0,202	-0,256
180,910	-200,000	-0,036	-0,210
181,925	-67,697	-0,365	-0,099
182,940	86,189	-0,209	-0,160
183,954	59,248	-0,186	-0,128
184,969	-200,000	-0,052	-0,176
185,983	800,000	-0,073	-0,197
186,998	190,084	-0,247	-0,258
188,013	21,124	-0,208	-0,117
189,027	97,070	-0,266	-0,213
190,042	66,986	-0,209	-0,148
191,056	40,299	-0,294	-0,184
192,071	-141,126	-0,067	-0,005
193,086	-11,797	-0,193	-0,088
194,100	-99,556	-0,155	0,027
195,115	240,792	-0,206	-0,240
196,129	-32,128	-0,269	-0,104
197,144	661,079	-0,136	-0,244
198,159	93,360	-0,265	-0,208
199,173	135,786	-0,122	-0,111
200,188	63,472	-0,153	-0,107
201,202	21,438	-0,112	-0,063
202,217	-159,454	-0,262	0,010
203,232	64,539	-0,249	-0,174
204,246	0,332	-0,257	-0,127
205,261	150,216	-0,181	-0,171
206,275	-94,647	-0,158	-0,030
207,290	231,303	-0,199	-0,227
208,304	-61,075	-0,284	-0,083
209,319	449,039	-0,097	-0,149
210,334	57,459	-0,200	-0,135
211,348	121,088	-0,191	-0,165
212,363	114,449	-0,210	-0,177
213,377	-200,000	0,001	-0,143
214,392	79,655	-0,093	-0,069
215,407	8,355	-0,195	-0,102
216,421	401,504	-0,096	-0,140
217,436	291,787	-0,291	-0,369
218,450	800,000	-0,155	-0,308
219,465	311,925	-0,144	-0,188
220,480	-4,441	-0,329	-0,157
221,494	14,742	-0,184	-0,100
222,509	-200,000	-0,188	0,000
223,523	137,721	-0,109	-0,099
224,538	419,568	-0,098	-0,145
225,553	484,083	-0,181	-0,288
226,567	51,460	-0,205	-0,135
227,582	97,892	-0,147	-0,117
228,596	55,837	-0,261	-0,175
229,611	617,172	-0,105	-0,183
230,626	-17,823	-0,166	-0,072
231,640	-116,758	-0,280	-0,035
232,655	529,497	-0,098	-0,162
233,669	-200,000	-0,003	-0,146
234,684	187,356	-0,153	-0,158
235,699	249,232	-0,124	-0,147
236,713	-98,107	-0,079	0,014
237,728	800,000	-0,061	-0,163
238,742	5,319	-0,280	-0,143
239,757	496,729	-0,149	-0,238
240,772	12,145	-0,253	-0,135
241,786	298,442	-0,147	-0,188
242,801	800,000	-0,071	-0,152
243,815	-59,593	-0,209	-0,062
244,830	-136,143	-0,100	0,008
245,844	22,185	-0,198	-0,112
246,859	183,304	-0,217	-0,222
247,874	454,493	-0,205	-0,316
248,888	119,231	-0,122	-0,105
249,903	220,750	-0,152	-0,170
250,917	301,337	-0,078	-0,100
251,932	-54,019	-0,126	-0,040
252,947	42,720	-0,087	-0,055
253,961	800,000	-0,128	-0,296
254,976	290,668	-0,162	-0,204
255,990	198,774	-0,168	-0,178
257,005	-76,922	-0,192	-0,046
258,020	-60,375	-0,216	-0,063
259,034	88,002	-0,130	-0,099
260,049	-45,585	-0,209	-0,071
261,063	289,609	-0,060	-0,076
262,078	237,422	-0,238	-0,273
263,093	-0,563	-0,257	-0,126
264,107	219,203	-0,154	-0,171
265,122	355,653	-0,145	-0,200
266,136	50,218	-0,147	-0,096
267,151	14,913	-0,175	-0,095
268,166	122,357	-0,246	-0,212
269,180	-37,751	-0,190	-0,070
270,195	97,264	-0,354	-0,280
271,209	120,299	-0,058	-0,050
272,224	-129,004	-0,119	-0,011
273,239	-84,903	-0,132	-0,028
274,253	-9,506	-0,154	-0,071
275,268	-3,080	-0,173	-0,083
276,282	-118,408	-0,192	-0,023
277,297	178,692	-0,167	-0,168
278,312	432,647	-0,096	-0,144
279,326	128,108	-0,178	-0,156
280,341	12,757	-0,239	-0,127
281,355	-80,216	-0,239	-0,055
282,370	800,000	-0,045	-0,130
283,384	463,871	-0,186	-0,288
284,399	176,948	-0,212	-0,213
285,414	77,398	-0,137	-0,101
286,428	117,236	-0,126	-0,107
287,443	-5,021	-0,119	-0,056
288,457	-72,883	-0,227	-0,057
289,472	23,074	-0,129	-0,073
290,487	627,320	-0,122	-0,213
291,501	765,600	-0,085	-0,161
292,516	-33,815	-0,190	0,072
293,530	392,365	-0,101	-0,146
294,545	-152,692	-0,185	-0,009
295,560	800,000	-0,052	-0,114
296,574	235,023	-0,123	-0,140
297,589	-198,796	-0,254	-0,001
298,603	800,000	-0,090	-0,177
299,618	-200,000	-0,035	-0,146
300,633	-200,000	-0,022	-0,149
301,647	-50,550	-0,098	-0,032
302,662	-106,821	-0,213	-0,032
303,676	-82,173	-0,094	0,021
304,691	19,007	-0,061	0,033
305,706	59,837	-0,163	-0,111
306,720	80,087	-0,124	-0,092
307,735	109,701	-0,099	-0,082
308,749	176,562	-0,096	-0,096
309,764	154,609	-0,103	-0,097
310,779	-74,836	-0,142	-0,035
311,793	-37,621	-0,061	-0,022
312,808	-19,690	-0,212	-0,090
313,822	14,124	-0,150	-0,080
314,837	101,856	-0,168	-0,135
315,852	-122,907	-0,061	0,007
316,866	50,243	-0,097	-0,063
317,881	145,418	-0,055	-0,051
318,895	326,856	-0,174	-0,231
319,910	800,000	-0,086	-0,229
320,925	56,746	-0,197	-0,132
321,939	-37,824	-0,070	-0,025
322,954	-103,615	-0,068	0,011
323,968	44,705	-0,080	0,050
324,983	-146,675	-0,155	0,009
325,997	800,000	-0,071	-0,148
327,012	335,635	-0,105	-0,141
328,027	90,090	-0,230	-0,177
329,041	317,870	-0,071	-0,093
330,056	198,046	-0,097	-0,102
331,070	-68,535	-0,097	-0,026
332,085	248,895	-0,079	-0,093
333,100	-200,000	-0,026	-0,166
334,114	775,370	-0,085	-0,160
335,129	576,680	-0,077	-0,131
336,143	446,845	-0,115	-0,175
337,158	124,147	-0,121	-0,105
338,173	800,000	0,051	-0,131
339,187	280,015	-0,126	-0,155
340,202	115,451	-0,093	-0,078
341,216	20,386	-0,177	-0,098
342,231	-95,295	-0,141	-0,026
343,246	188,288	-0,094	-0,097
344,260	257,834	-0,138	-0,164
345,275	-73,059	-0,145	-0,036
346,289	-200,000	0,000	0,009
347,304	800,000	-0,039	-0,076
348,319	-49,129	-0,113	-0,037
349,333	-28,332	-0,193	-0,076
350,348	-160,109	-0,054	0,002
351,362	36,590	-0,179	-0,109
352,377	-94,772	-0,167	-0,031
353,392	30,532	-0,104	0,061
354,406	800,000	-0,052	0,117
355,421	207,559	1315,415	1410,519
356,435	159,670	1476,223	1411,010
