DTS Sentinel unit serial number:	SN410029Multiplexer serial number:	ORYXHardware model number:	OX2-SRSoftware version number:	ORYX F/W v4,00 Oryx Data Collector v3.7.2.0data status	okinstallation	B3 Nyhavnadifferential loss correction	single-endedforward channel	channel 1reverse channel	N/Adate	2023/12/04time	18:22:30forward acquisition time	300,00reverse acquisition time	0,00gamma	499,1914k internal	0,3200k external	0,3200temperature offset calibration	1,0000default loss term (dB/km)	0,3820temperature slope calibration	1,0000multiplexer offset coefficient	1,0000multiplexer slope coefficient	1,0000fibre end	0,00T internal ref (°C)	14,96T ext. ref 1 (°C)	-0,17T ext. ref 2 (°C)	-0,20length (m)	temperature (°C)	Stokes	anti-Stokes-744,400	205,589	-0,179	-0,202
-743,385	-200,000	-0,016	0,314
-742,371	-35,291	-0,168	-0,066
-741,356	-200,000	0,079	0,365
-740,342	136,544	-0,153	-0,145
-739,327	-200,000	-0,064	0,476
-738,312	-20,750	-0,287	-0,128
-737,298	-200,000	-0,046	0,349
-736,283	800,000	-0,055	-0,115
-735,269	-200,000	-0,048	0,345
-734,254	27,555	-0,242	-0,148
-733,239	-31,554	-0,297	0,121
-732,225	-200,000	-0,025	-0,191
-731,210	766,521	0,054	0,107
-730,196	800,000	0,028	-0,082
-729,181	-200,000	-0,016	0,103
-728,167	154,197	-0,126	-0,126
-727,152	378,971	-0,075	-0,112
-726,137	-200,000	-0,000	0,052
-725,123	540,986	0,027	-0,047
-724,108	-200,000	0,037	-0,198
-723,094	-200,000	0,007	-0,111
-722,079	130,783	-0,043	-0,040
-721,064	229,785	-0,099	0,118
-720,050	12,469	-0,112	-0,063
-719,035	699,880	-0,094	-0,180
-718,021	800,000	0,036	-0,074
-717,006	9,141	-0,093	0,051
-715,991	11,491	-0,078	-0,043
-714,977	533,206	-0,048	-0,084
-713,962	87,744	0,095	-0,077
-712,948	800,000	-0,031	-0,074
-711,933	-102,829	0,111	0,019
-710,918	-200,000	-0,005	-0,122
-709,904	-200,000	-0,012	-0,056
-708,889	-200,000	-0,017	-0,174
-707,875	-200,000	0,017	-0,062
-706,860	400,160	-0,063	0,097
-705,845	407,123	-0,078	-0,120
-704,831	-46,452	0,299	0,106
-703,816	-118,355	-0,135	-0,017
-702,802	367,533	-0,107	-0,157
-701,787	800,000	0,042	-0,102
-700,772	-112,757	0,109	-0,016
-699,758	685,146	0,036	0,068
-698,743	-70,616	0,168	-0,046
-697,729	-200,000	0,044	-0,145
-696,714	-200,000	0,004	-0,016
-695,699	768,283	0,062	0,124
-694,685	800,000	-0,067	-0,168
-693,670	-200,000	0,004	-0,183
-692,656	-200,000	0,013	-0,056
-691,641	-54,395	-0,119	-0,039
-690,627	-200,000	0,033	0,124
-689,612	97,014	0,053	0,044
-688,597	316,578	-0,050	0,069
-687,583	58,366	-0,087	-0,062
-686,568	26,816	-0,098	-0,059
-685,554	7,039	0,077	-0,042
-684,539	-15,322	0,040	-0,019
-683,524	-18,583	0,066	0,030
-682,510	8,777	0,026	0,014
-681,495	800,000	0,023	-0,056
-680,481	130,436	-0,126	-0,117
-679,466	33,434	-0,104	-0,066
-678,451	597,907	-0,030	0,055
-677,437	-96,314	-0,197	-0,037
-676,422	-200,000	0,010	0,073
-675,408	800,000	0,035	0,076
-674,393	800,000	-0,031	0,067
-673,378	117,263	-0,156	-0,139
-672,364	800,000	-0,058	-0,141
-671,349	240,967	0,080	0,097
-670,335	7,892	-0,025	-0,013
-669,320	-200,000	0,036	0,121
-668,305	108,647	-0,053	-0,046
-667,291	-200,000	-0,005	0,031
-666,276	780,026	-0,072	-0,144
-665,262	-117,560	0,136	0,018
-664,247	-176,480	-0,156	0,003
-663,232	-55,282	-0,144	0,047
-662,218	16,533	0,089	0,051
-661,203	127,589	-0,073	0,067
-660,189	5,213	0,115	0,061
-659,174	-200,000	-0,026	-0,103
-658,159	52,260	-0,025	0,017
-657,145	202,811	-0,047	-0,053
-656,130	-200,000	0,000	-0,099
-655,116	19,957	0,058	0,034
-654,101	24,369	0,154	0,092
-653,086	-200,000	0,014	0,146
-652,072	343,276	-0,056	0,080
-651,057	-89,948	-0,229	0,048
-650,043	16,974	-0,063	-0,036
-649,028	344,366	-0,059	-0,084
-648,014	-200,000	0,018	0,168
-646,999	-127,622	0,069	-0,007
-645,984	-200,000	0,049	0,188
-644,970	54,893	0,119	-0,083
-643,955	142,717	-0,028	0,027
-642,941	40,180	-0,077	-0,050
-641,926	19,393	0,024	-0,014
-640,911	800,000	0,045	0,140
-639,897	-200,000	-0,035	0,182
-638,882	-70,173	0,055	0,015
-637,868	10,079	-0,045	0,025
-636,853	-59,110	0,041	-0,013
-635,838	-39,687	0,035	-0,013
-634,824	346,853	0,122	-0,175
-633,809	41,626	-0,028	-0,018
-632,795	800,000	-0,047	0,109
-631,780	199,864	0,041	-0,045
-630,765	203,284	-0,120	-0,134
-629,751	-200,000	-0,007	-0,083
-628,736	-200,000	-0,025	-0,185
-627,722	269,862	-0,030	-0,038
-626,707	297,697	-0,046	-0,061
-625,692	-110,647	0,052	-0,008
-624,678	78,079	-0,029	-0,022
-623,663	-34,445	0,047	0,019
-622,649	42,265	0,027	0,018
-621,634	-200,000	0,000	-0,162
-620,619	-200,000	0,006	-0,097
-619,605	-200,000	-0,031	-0,125
-618,590	-200,000	-0,003	0,034
-617,576	-71,287	-0,056	0,015
-616,561	-41,545	-0,022	-0,008
-615,546	-94,652	-0,120	0,023
-614,532	331,987	-0,082	-0,115
-613,517	150,763	0,177	-0,174
-612,503	483,815	-0,057	-0,094
-611,488	-200,000	0,007	0,092
-610,474	20,312	-0,124	0,073
-609,459	110,445	0,079	-0,069
-608,444	386,683	-0,063	-0,095
-607,430	142,928	0,059	-0,057
-606,415	-200,000	0,008	-0,090
-605,401	34,859	-0,051	0,032
-604,386	571,428	-0,046	0,081
-603,371	800,000	-0,035	-0,087
-602,357	-200,000	-0,006	0,077
-601,342	603,134	0,034	0,061
-600,328	-35,037	0,106	-0,042
-599,313	72,795	-0,116	-0,088
-598,298	800,000	0,020	-0,046
-597,284	-23,885	-0,032	0,014
-596,269	-152,898	0,132	0,007
-595,255	-200,000	0,015	0,080
-594,240	93,945	0,160	0,131
-593,225	69,299	-0,139	-0,104
-592,211	800,000	0,046	-0,139
-591,196	243,511	0,088	-0,106
-590,182	-120,600	0,009	-0,001
-589,167	800,000	-0,023	0,061
-588,152	-90,456	0,039	-0,008
-587,138	499,554	-0,076	-0,128
-586,123	-19,582	0,063	-0,028
-585,109	-123,712	-0,111	-0,013
-584,094	115,188	0,056	-0,050
-583,079	66,763	0,075	0,055
-582,065	-84,148	0,139	-0,032
-581,050	800,000	0,004	0,011
-580,036	-200,000	-0,015	0,061
-579,021	705,765	-0,039	-0,075
-578,006	455,961	-0,010	-0,016
-576,992	82,997	0,046	-0,036
-575,977	-21,260	-0,035	0,015
-574,963	-41,254	0,081	-0,030
-573,948	-139,085	-0,159	-0,012
-572,934	-52,220	0,152	0,050
-571,919	-200,000	-0,027	-0,132
-570,904	-82,976	-0,019	0,004
-569,890	-200,000	0,022	-0,126
-568,875	181,746	-0,064	-0,069
-567,861	112,881	0,101	-0,088
-566,846	20,166	-0,052	-0,030
-565,831	-200,000	0,010	-0,049
-564,817	-82,592	-0,068	-0,016
-563,802	-62,660	-0,077	0,023
-562,788	-200,000	-0,012	-0,117
-561,773	-130,817	0,066	-0,006
-560,758	43,704	0,080	0,053
-559,744	586,388	0,059	-0,106
-558,729	-94,002	-0,068	0,013
-557,715	227,446	-0,012	0,014
-556,700	-200,000	0,021	-0,082
-555,685	-160,184	0,072	0,003
-554,671	255,842	-0,100	-0,124
-553,656	-14,893	0,116	0,053
-552,642	-127,811	-0,091	0,009
-551,627	-74,053	-0,133	-0,035
-550,612	-65,984	-0,109	0,031
-549,598	-200,000	0,008	0,104
-548,583	337,896	-0,126	-0,177
-547,569	-1,113	0,027	-0,014
-546,554	22,560	-0,183	0,108
-545,539	194,466	-0,054	-0,059
-544,525	800,000	0,001	-0,004
-543,510	-141,469	0,061	-0,004
-542,496	-81,262	0,043	-0,010
-541,481	74,872	0,065	-0,049
-540,466	145,444	-0,047	-0,045
-539,452	180,131	0,054	-0,058
-538,437	-171,241	0,066	-0,002
-537,423	190,500	0,044	0,048
-536,408	-159,564	-0,199	0,008
-535,393	-57,081	-0,061	-0,019
-534,379	800,000	0,042	-0,132
-533,364	47,072	0,115	-0,077
-532,350	97,501	-0,023	-0,019
-531,335	-89,982	0,067	0,014
-530,321	-200,000	-0,048	0,213
-529,306	744,040	-0,010	-0,019
-528,291	46,505	-0,102	0,068
-527,277	-200,000	0,016	0,068
-526,262	-200,000	0,002	-0,069
-525,248	-55,762	-0,051	-0,016
-524,233	17,153	0,095	0,054
-523,218	-115,816	0,012	-0,002
-522,204	-200,000	0,003	0,040
-521,189	-24,213	-0,104	-0,045
-520,175	42,076	-0,056	0,037
-519,160	-200,000	0,021	-0,088
-518,145	800,000	-0,049	0,128
-517,131	648,681	0,035	-0,065
-516,116	-100,983	-0,066	0,012
-515,102	12,958	-0,066	0,037
-514,087	-138,893	-0,105	0,008
-513,072	564,008	0,027	0,047
-512,058	240,397	-0,124	-0,149
-511,043	800,000	-0,050	0,105
-510,029	-200,000	0,035	-0,190
-509,014	-200,000	-0,005	0,053
-507,999	447,909	0,035	0,055
-506,985	800,000	-0,083	-0,178
-505,970	-38,542	-0,036	0,014
-504,956	800,000	-0,055	0,124
-503,941	36,435	0,045	-0,029
-502,926	-44,781	-0,019	-0,007
-501,912	-200,000	-0,004	0,118
-500,897	296,290	0,046	-0,061
-499,883	130,407	0,077	0,071
-498,868	300,169	-0,071	-0,094
-497,853	233,158	-0,044	0,052
-496,839	343,439	0,009	-0,013
-495,824	-200,000	-0,001	-0,042
-494,810	-108,483	0,019	-0,003
-493,795	-63,417	-0,056	-0,016
-492,781	55,750	0,076	0,053
-491,766	690,324	0,017	0,033
-490,751	-116,974	-0,101	-0,013
-489,737	309,971	-0,087	-0,117
-488,722	-37,281	0,125	-0,048
-487,708	487,102	0,083	0,138
-486,693	-113,581	0,102	0,014
-485,678	52,636	0,046	0,032
-484,664	-200,000	0,004	0,025
-483,649	543,043	-0,006	0,010
-482,635	72,177	-0,052	-0,039
-481,620	281,359	0,060	-0,078
-480,605	184,971	-0,033	-0,035
-479,591	214,912	0,052	0,059
-478,576	-64,362	-0,181	-0,053
-477,562	749,076	0,032	0,063
-476,547	7,122	-0,127	-0,068
-475,532	800,000	-0,009	0,028
-474,518	-32,114	0,082	0,033
-473,503	800,000	0,038	0,077
-472,489	200,709	-0,052	-0,057
-471,474	579,176	0,051	-0,090
-470,459	385,879	0,079	0,117
-469,445	86,853	-0,111	-0,089
-468,430	630,802	0,020	0,036
-467,416	61,383	0,074	0,053
-466,401	181,964	-0,062	0,066
-465,386	-123,395	-0,150	0,017
-464,372	-76,672	0,091	-0,023
-463,357	800,000	-0,026	-0,081
-462,343	800,000	-0,026	0,059
-461,328	-8,348	0,031	0,015
-460,313	94,424	0,094	0,077
-459,299	-200,000	0,016	0,058
-458,284	50,508	-0,084	0,057
-457,270	435,290	0,048	-0,075
-456,255	98,223	-0,058	0,048
-455,241	3,421	-0,128	-0,067
-454,226	-33,951	-0,085	0,033
-453,211	188,606	-0,032	-0,034
-452,197	243,204	0,087	0,105
-451,182	443,440	0,046	-0,073
-450,168	194,299	0,012	0,013
-449,153	800,000	0,005	-0,010
-448,138	497,310	-0,032	0,053
-447,124	-70,887	-0,115	-0,031
-446,109	-160,654	0,010	-0,000
-445,095	-200,000	-0,004	0,085
-444,080	415,515	0,072	0,111
-443,065	115,330	0,040	-0,035
-442,051	412,698	-0,015	-0,024
-441,036	-200,000	0,010	-0,093
-440,022	691,442	-0,094	-0,179
-439,007	-100,434	0,097	-0,017
-437,992	800,000	0,031	0,074
-436,978	253,985	0,057	0,070
-435,963	-200,000	-0,019	-0,081
-434,949	-90,446	-0,120	0,025
-433,934	130,472	-0,015	0,014
-432,919	-107,701	-0,164	0,025
-431,905	321,923	-0,103	-0,142
-430,890	-200,000	0,001	0,005
-429,876	-137,784	-0,021	0,002
-428,861	-200,000	-0,008	0,071
-427,846	-54,453	0,101	0,033
-426,832	-200,000	0,021	0,083
-425,817	-89,785	0,115	0,024
-424,803	-181,945	-0,086	-0,001
-423,788	800,000	-0,028	0,083
-422,773	-39,703	0,103	0,039
-421,759	292,788	-0,028	-0,036
-420,744	-200,000	-0,012	-0,042
-419,730	357,203	-0,089	-0,128
-418,715	800,000	0,012	0,036
-417,701	-49,539	-0,089	0,030
-416,686	-200,000	-0,130	0,000
-415,671	800,000	0,096	0,209
-414,657	800,000	0,079	0,221
-413,642	478,414	-0,028	0,046
-412,628	294,101	-0,025	0,032
-411,613	251,333	0,071	0,087
-410,598	-111,065	-0,075	0,011
-409,584	178,234	0,039	-0,041
-408,569	-200,000	0,027	0,183
-407,555	253,522	-0,079	0,097
-406,540	624,556	0,011	0,020
-405,525	-200,000	-0,003	-0,054
-404,511	319,130	0,032	0,044
-403,496	33,015	-0,106	0,066
-402,482	-50,022	0,019	-0,006
-401,467	-200,000	0,045	0,184
-400,452	800,000	-0,040	-0,082
-399,438	-200,000	0,007	-0,023
-398,423	580,849	0,041	-0,072
-397,409	226,426	-0,100	-0,116
-396,394	401,947	0,054	-0,082
-395,379	-200,000	-0,007	-0,152
-394,365	-200,000	-0,012	0,105
-393,350	800,000	0,046	0,094
-392,336	532,703	0,031	0,054
-391,321	-111,575	-0,182	0,026
-390,306	73,598	-0,090	0,068
-389,292	800,000	-0,068	-0,143
-388,277	89,780	-0,019	0,015
-387,263	-50,854	0,177	-0,059
-386,248	-74,817	0,116	-0,030
-385,233	-200,000	0,014	0,108
-384,219	6,729	0,107	0,057
-383,204	-163,181	0,126	0,004
-382,190	-189,775	-0,006	0,000
-381,175	20,956	0,031	0,018
-380,160	203,160	0,014	-0,016
-379,146	-54,723	0,113	-0,036
-378,131	-150,460	0,123	-0,007
-377,117	146,190	0,084	0,081
-376,102	-138,571	-0,150	-0,012
-375,088	151,386	0,056	-0,055
-374,073	-88,075	-0,141	0,030
-373,058	-78,683	0,045	-0,011
-372,044	-188,209	0,165	-0,001
-371,029	-53,261	0,051	0,017
-370,015	208,006	-0,086	0,096
-369,000	800,000	-0,061	0,149
-367,985	198,402	0,059	0,064
-366,971	800,000	-0,049	0,108
-365,956	48,864	0,044	0,030
-364,942	-10,822	0,161	0,076
-363,927	362,491	-0,032	-0,046
-362,912	800,000	-0,045	-0,091
-361,898	800,000	0,003	-0,007
-360,883	-102,866	-0,050	0,008
-359,869	-200,000	-0,021	-0,078
-358,854	-200,000	0,005	0,077
-357,839	-200,000	-0,017	0,159
-356,825	-62,731	0,063	-0,019
-355,810	89,473	0,025	-0,020
-354,796	17,396	-0,111	-0,063
-353,781	-55,410	-0,084	-0,027
-352,766	122,791	-0,028	-0,025
-351,752	-56,536	0,137	0,043
-350,737	-1,925	0,115	0,058
-349,723	41,814	-0,082	0,053
-348,708	800,000	0,059	0,173
-347,693	-15,472	0,071	-0,032
-346,679	-3,257	-0,120	-0,060
-345,664	-49,028	0,043	0,015
-344,650	-200,000	-0,020	-0,162
-343,635	-57,972	0,029	-0,009
-342,620	81,950	0,055	-0,042
-341,606	78,531	0,051	-0,039
-340,591	800,000	-0,046	-0,125
-339,577	87,344	0,055	0,044
-338,562	-200,000	-0,008	-0,083
-337,548	-124,867	0,091	0,010
-336,533	800,000	-0,021	0,064
-335,518	-118,852	0,263	0,033
-334,504	800,000	0,074	0,223
-333,489	-100,177	-0,125	0,022
-332,475	92,768	-0,017	-0,014
-331,460	619,936	0,058	-0,105
-330,445	17,585	-0,098	-0,055
-329,431	517,915	0,022	-0,037
-328,416	-54,793	0,066	-0,021
-327,402	124,689	-0,085	0,076
-326,387	-200,000	-0,017	0,071
-325,372	-200,000	-0,009	-0,030
-324,358	-200,000	-0,008	-0,032
-323,343	-126,074	0,088	-0,009
-322,329	393,801	0,016	-0,024
-321,314	-97,927	0,081	0,015
-320,299	-107,553	-0,041	0,006
-319,285	-8,204	-0,076	0,037
-318,270	415,457	0,055	0,084
-317,256	172,093	-0,105	-0,108
-316,241	405,169	0,050	-0,076
-315,226	56,699	-0,082	-0,057
-314,212	-200,000	-0,064	-0,245
-313,197	800,000	0,079	-0,170
-312,183	800,000	0,015	-0,030
-311,168	475,375	0,014	0,022
-310,153	-200,000	-0,018	0,062
-309,139	211,208	-0,040	0,046
-308,124	-200,000	0,001	-0,018
-307,110	-71,054	0,054	-0,014
-306,095	800,000	0,026	0,070
-305,080	-200,000	-0,009	-0,145
-304,066	-73,559	-0,110	-0,029
-303,051	-200,000	0,044	-0,194
-302,037	-73,031	-0,105	-0,027
-301,022	-122,690	-0,096	-0,011
-300,008	-200,000	-0,024	-0,196
-298,993	30,836	-0,022	0,014
-297,978	290,083	0,035	0,046
-296,964	33,650	-0,051	-0,032
-295,949	176,091	-0,089	-0,092
-294,935	192,014	-0,053	-0,057
-293,920	-2,173	0,175	0,087
-292,905	98,705	-0,012	0,010
-291,891	800,000	-0,031	0,080
-290,876	216,001	0,033	0,038
-289,862	-47,196	-0,003	0,001
-288,847	63,965	-0,033	-0,024
-287,832	153,077	0,015	0,014
-286,818	297,521	0,091	-0,120
-285,803	631,182	-0,036	0,066
-284,789	188,125	0,111	0,119
-283,774	-100,886	0,065	-0,011
-282,759	-110,280	-0,143	-0,021
-281,745	42,172	-0,048	0,031
-280,730	800,000	-0,051	-0,130
-279,716	-71,608	-0,116	-0,031
-278,701	-200,000	-0,023	0,080
-277,686	-22,065	-0,162	-0,070
-276,672	800,000	-0,035	-0,095
-275,657	-61,185	-0,086	-0,026
-274,643	-200,000	-0,009	0,137
-273,628	-200,000	-0,009	-0,052
-272,613	800,000	-0,013	0,030
-271,599	-200,000	0,001	-0,022
-270,584	14,482	0,048	-0,027
-269,570	-200,000	-0,004	0,136
-268,555	-152,288	0,142	-0,007
-267,540	255,288	-0,051	-0,063
-266,526	32,183	-0,022	-0,014
-265,511	-61,741	-0,011	-0,003
-264,497	800,000	-0,025	-0,064
-263,482	800,000	-0,036	0,111
-262,467	800,000	-0,029	0,066
-261,453	800,000	-0,039	0,100
-260,438	-28,400	-0,070	0,029
-259,424	-92,546	0,081	0,016
-258,409	53,549	-0,026	0,018
-257,395	399,430	-0,057	-0,085
-256,380	-148,871	0,149	-0,008
-255,365	-138,848	0,009	-0,001
-254,351	-43,536	0,073	-0,026
-253,336	-200,000	0,015	0,064
-252,322	-54,167	-0,083	-0,027
-251,307	-110,310	-0,039	0,006
-250,292	113,830	0,135	0,117
-249,278	365,771	-0,082	0,118
-248,263	-7,063	0,140	-0,068
-247,249	-200,000	0,006	0,027
-246,234	334,164	-0,108	0,150
-245,219	-200,000	-0,025	0,136
-244,205	-200,000	0,045	-0,159
-243,190	33,853	0,108	-0,067
-242,176	178,451	0,094	-0,098
-241,161	800,000	0,021	0,062
-240,146	-76,943	0,096	0,024
-239,132	800,000	0,029	-0,060
-238,117	-200,000	-0,009	0,052
-237,103	75,884	-0,051	0,039
-236,088	-108,425	-0,015	0,002
-235,073	-200,000	0,011	0,112
-234,059	138,482	-0,030	0,028
-233,044	429,827	0,033	0,052
-232,030	-100,084	0,076	0,013
-231,015	-58,009	-0,055	0,017
-230,000	-82,133	-0,082	-0,019
-228,986	-129,771	0,193	-0,019
-227,971	800,000	-0,021	-0,046
-226,957	-200,000	-0,026	0,089
-225,942	-106,435	-0,081	-0,013
-224,927	176,310	0,050	-0,052
-223,913	-56,290	0,040	-0,013
-222,898	-139,284	0,085	0,006
-221,884	-200,000	-0,012	0,040
-220,869	562,385	-0,034	0,060
-219,855	69,404	0,102	-0,075
-218,840	800,000	-0,013	0,037
-217,825	48,949	-0,050	-0,033
-216,811	800,000	0,037	0,099
-215,796	-200,000	-0,031	0,154
-214,782	356,065	0,030	0,042
-213,767	800,000	-0,032	0,080
-212,752	800,000	0,035	0,074
-211,738	309,183	0,050	-0,066
-210,723	483,078	0,027	0,044
-209,709	-4,240	0,084	0,041
-208,694	-200,000	0,012	-0,114
-207,679	800,000	-0,026	0,062
-206,665	392,714	-0,042	-0,062
-205,650	800,000	0,026	0,052
-204,636	-200,000	0,004	0,098
-203,621	78,240	0,044	-0,034
-202,606	-65,693	-0,054	-0,015
-201,592	-200,000	0,019	0,068
-200,577	119,352	-0,082	0,072
-199,563	53,639	0,032	0,022
-198,548	-200,000	-0,005	0,138
-197,533	163,322	0,083	-0,083
-196,519	-126,589	0,053	-0,006
-195,504	-200,000	0,005	0,076
-194,490	116,993	0,041	0,036
-193,475	152,530	0,087	-0,084
-192,460	800,000	-0,025	0,061
-191,446	800,000	0,009	0,021
-190,431	171,026	-0,045	-0,046
-189,417	-15,317	-0,136	0,062
-188,402	148,715	-0,038	0,036
-187,387	-104,925	-0,157	-0,025
-186,373	-20,161	-0,081	-0,035
-185,358	190,868	-0,073	-0,078
-184,344	800,000	0,014	0,037
-183,329	-51,468	0,151	-0,050
-182,315	568,962	0,049	0,085
-181,300	11,530	0,096	0,052
-180,285	187,902	-0,012	0,013
-179,271	49,851	0,056	0,038
-178,256	57,433	0,086	0,060
-177,242	-164,229	-0,056	-0,002
-176,227	-30,919	-0,078	-0,031
-175,212	800,000	-0,003	-0,010
-174,198	800,000	0,017	0,043
-173,183	-119,264	0,009	0,001
-172,169	695,156	-0,065	-0,122
-171,154	179,044	-0,007	0,007
-170,139	-200,000	-0,002	0,025
-169,125	800,000	0,058	0,143
-168,110	-10,814	0,146	0,068
-167,096	-155,839	0,042	0,002
-166,081	239,657	-0,055	-0,065
-165,066	-16,321	0,077	0,035
-164,052	714,120	0,030	-0,057
-163,037	-51,224	0,157	-0,052
-162,023	-71,309	-0,030	0,008
-161,008	9,095	0,058	-0,031
-159,993	-200,000	0,038	-0,138
-158,979	-200,000	0,011	0,075
-157,964	4,511	-0,039	0,020
-156,950	-200,000	-0,036	0,177
-155,935	62,815	-0,053	-0,038
-154,920	637,966	-0,039	-0,070
-153,906	-200,000	-0,011	0,085
-152,891	284,212	0,015	-0,019
-151,877	-136,772	0,077	0,006
-150,862	-200,000	-0,009	0,127
-149,847	800,000	0,023	0,060
-148,833	36,663	0,080	-0,050
-147,818	291,012	0,044	-0,057
-146,804	-200,000	-0,004	0,032
-145,789	800,000	0,026	0,068
-144,775	800,000	-0,029	0,066
-143,760	-155,961	-0,074	-0,003
-142,745	650,586	0,069	0,126
-141,731	-200,000	0,012	0,064
-140,716	-200,000	0,056	0,203
-139,702	-200,000	-0,015	0,190
-138,687	800,000	0,035	0,092
-137,672	268,114	0,087	-0,108
-136,658	-1,790	-0,069	0,034
-135,643	11,804	-0,070	-0,038
-134,629	-200,000	-0,035	0,157
-133,614	253,290	-0,079	0,096
-132,599	-200,000	-0,011	0,050
-131,585	-200,000	-0,012	0,185
-130,570	800,000	0,032	-0,095
-129,556	-200,000	-0,011	-0,037
-128,541	390,932	-0,060	-0,089
-127,526	-200,000	-0,002	-0,124
-126,512	722,994	0,022	0,042
-125,497	-17,659	0,057	0,025
-124,483	-131,520	0,124	0,011
-123,468	-200,000	0,036	0,119
-122,453	133,596	-0,032	-0,030
-121,439	-200,000	-0,007	-0,077
-120,424	261,274	-0,061	-0,076
-119,410	244,097	0,087	0,104
-118,395	359,805	-0,050	-0,071
-117,380	-3,744	0,059	0,029
-116,366	800,000	-0,007	0,019
-115,351	168,677	-0,017	0,018
-114,337	800,000	0,057	-0,148
-113,322	-63,957	-0,010	0,003
-112,307	-51,154	-0,156	-0,052
-111,293	168,515	0,072	0,073
-110,278	800,000	0,025	0,067
-109,264	-200,000	-0,005	0,214
-108,249	-200,000	0,047	-0,148
-107,234	61,065	0,106	-0,074
-106,220	52,859	-0,025	0,017
-105,205	-67,918	-0,069	0,019
-104,191	800,000	0,030	-0,093
-103,176	499,303	0,088	0,144
-102,162	153,605	0,069	0,068
-101,147	92,741	-0,107	0,086
-100,132	-200,000	-0,007	-0,037
-99,118	7,890	0,083	-0,044
-98,103	-200,000	-0,001	0,053
-97,089	-200,000	0,004	0,073
-96,074	-147,087	0,044	0,003
-95,059	37,513	0,080	0,050
-94,045	36,602	-0,101	0,063
-93,030	-4,062	-0,142	-0,069
-92,016	54,246	-0,166	-0,113
-91,001	0,953	-0,044	0,023
-89,986	-54,644	0,123	0,039
-88,972	21,607	0,173	0,100
-87,957	227,405	0,077	0,089
-86,943	-200,000	-0,010	-0,067
-85,928	-48,632	0,082	-0,028
-84,913	-200,000	0,027	0,093
-83,899	-117,515	0,035	0,004
-82,884	-200,000	0,038	0,124
-81,870	365,176	0,059	0,085
-80,855	189,606	-0,094	0,100
-79,840	-200,000	-0,014	0,122
-78,826	-103,401	-0,130	-0,022
-77,811	-155,724	-0,047	-0,002
-76,797	365,915	-0,043	-0,062
-75,782	306,170	0,048	0,064
-74,767	31,763	-0,013	0,008
-73,753	300,832	0,043	0,056
-72,738	-21,902	0,036	0,016
-71,724	200,316	0,149	-0,162
-70,709	-200,000	-0,031	-0,185
-69,694	-57,001	0,077	-0,024
-68,680	800,000	0,027	0,073
-67,665	70,572	0,022	0,016
-66,651	-200,000	-0,001	-0,067
-65,636	800,000	-0,018	0,041
-64,622	-12,597	0,080	0,037
-63,607	524,642	-0,021	0,036
-62,592	-69,474	-0,142	-0,038
-61,578	464,034	0,123	0,196
-60,563	550,473	0,019	0,033
-59,549	-200,000	0,008	0,219
-58,534	-76,382	-1,518	-0,376
-57,519	409,123	-1,452	-2,184
-56,505	-200,000	-0,462	-4,701
-55,490	165,831	0,945	0,947
-54,476	800,000	4,863	11,475
-53,461	-200,000	18,298	289,166
-52,446	800,000	727,492	2233,290
-51,432	555,753	1643,924	2814,395
-50,417	79,252	1666,274	1263,523
-49,403	22,844	1539,875	891,385
-48,388	16,812	1463,090	817,707
-47,373	17,873	1452,909	817,097
-46,359	17,255	1443,414	808,768
-45,344	15,107	1438,784	795,879
-44,330	15,009	1436,712	794,237
-43,315	15,018	1435,067	793,339
-42,300	15,032	1433,429	792,468
-41,286	15,124	1432,110	792,145
-40,271	15,037	1431,076	791,126
-39,257	15,002	1429,792	790,220
-38,242	15,071	1428,380	789,734
-37,227	15,040	1427,281	788,951
-36,213	15,072	1425,902	788,306
-35,198	15,050	1424,846	787,588
-34,184	15,090	1424,070	787,317
-33,169	15,007	1422,710	786,144
-32,154	15,083	1421,525	785,813
-31,140	15,093	1420,164	785,078
-30,125	15,123	1419,033	784,564
-29,111	15,127	1417,894	783,922
-28,096	15,078	1416,856	783,085
-27,082	15,001	1415,771	782,094
-26,067	14,987	1414,881	781,506
-25,052	15,013	1413,550	780,859
-24,038	14,941	1412,542	779,934
-23,023	14,975	1411,562	779,522
-22,009	14,964	1410,826	779,033
-20,994	14,919	1409,955	778,310
-19,979	14,974	1408,777	777,887
-18,965	14,919	1407,743	777,028
-17,950	14,915	1406,985	776,562
-16,936	14,939	1406,001	776,099
-15,921	14,889	1404,794	775,166
-14,906	14,847	1404,039	774,523
-13,892	14,926	1403,017	774,298
-12,877	14,885	1402,144	773,595
-11,863	14,848	1401,367	772,962
-10,848	14,867	1400,320	772,442
-9,833	14,822	1399,606	771,811
-8,819	14,839	1398,531	771,266
-7,804	14,815	1397,742	770,690
-6,790	14,823	1396,630	770,081
-5,775	14,817	1395,474	769,386
-4,760	14,808	1394,677	768,875
-3,746	14,808	1393,806	768,364
-2,731	14,829	1393,082	768,030
-1,717	14,817	1391,998	767,345
-0,702	14,807	1390,184	766,272
0,313	18,524	1309,330	738,943
1,327	34,690	707,078	436,539
2,342	53,195	124,775	84,446
3,356	1,384	16,560	8,397
4,371	-2,017	3,132	1,552
5,386	14,084	0,647	0,355
6,400	336,752	-0,066	0,091
7,415	-181,101	-0,255	-0,004
8,429	61,733	-0,329	-0,231
9,444	-22,605	-0,383	-0,163
10,459	-92,516	-0,408	-0,080
11,473	-127,330	-0,269	-0,027
12,488	97,047	-0,208	-0,169
13,502	54,381	-0,260	-0,177
14,517	37,368	-0,389	-0,243
15,531	19,154	-0,291	-0,165
16,546	31,154	-0,466	-0,282
17,561	135,894	-0,373	-0,343
18,575	85,474	-0,067	-0,052
19,590	100,396	-0,275	-0,226
20,604	-41,847	-0,205	-0,074
21,619	70,876	-0,401	-0,293
22,634	80,478	-0,482	-0,366
23,648	161,655	-0,441	-0,436
24,663	25,055	-0,461	-0,269
25,677	62,286	-0,450	-0,317
26,692	-12,993	-0,331	-0,151
27,707	72,113	-0,338	-0,248
28,721	57,963	-0,480	-0,332
29,736	236,529	-0,377	-0,442
30,750	203,026	-0,293	-0,320
31,765	51,824	-0,293	-0,197
32,780	13,435	-0,334	-0,183
33,794	116,465	-0,357	-0,309
34,809	130,376	-0,283	-0,255
35,823	58,903	-0,314	-0,218
36,838	215,374	-0,351	-0,394
37,853	56,400	-0,388	-0,265
38,867	154,695	-0,369	-0,358
39,882	165,983	-0,367	-0,366
40,896	-4,459	-0,463	-0,225
41,911	189,207	-0,232	-0,245
42,926	-62,926	-0,413	-0,120
43,940	107,237	-0,355	-0,298
44,955	41,863	-0,346	-0,221
45,969	173,404	-0,299	-0,304
46,984	82,627	-0,352	-0,270
47,999	257,159	-0,154	-0,187
49,013	35,475	-0,310	-0,191
50,028	10,736	-0,326	-0,175
51,042	81,167	-0,276	-0,210
52,057	123,120	-0,288	-0,255
53,071	84,166	-0,334	-0,257
54,086	92,287	-0,251	-0,199
55,101	-52,426	-0,280	-0,091
56,115	102,930	-0,234	-0,193
57,130	145,898	-0,394	-0,373
58,144	39,062	-0,386	-0,243
59,159	28,153	-0,407	-0,241
60,174	120,293	-0,410	-0,358
61,188	54,230	-0,295	-0,200
62,203	-43,336	-0,385	-0,136
63,217	159,256	-0,245	-0,240
64,232	-13,917	-0,436	-0,198
65,247	269,569	-0,304	-0,377
66,261	46,554	-0,394	-0,257
67,276	117,625	-0,334	-0,289
68,290	26,499	-0,316	-0,185
69,305	68,532	-0,264	-0,190
70,320	-82,795	-0,287	-0,065
71,334	67,802	-0,185	-0,133
72,349	-31,980	-0,449	-0,176
73,363	88,133	-0,256	-0,200
74,378	147,898	-0,303	-0,287
75,393	22,114	-0,414	-0,237
76,407	62,530	-0,304	-0,213
77,422	131,299	-0,155	-0,140
78,436	42,995	-0,381	-0,244
79,451	94,153	-0,291	-0,232
80,466	800,000	-0,122	-0,242
81,480	105,666	-0,414	-0,344
82,495	32,136	-0,356	-0,215
83,509	87,330	-0,388	-0,301
84,524	241,977	-0,205	-0,241
85,539	122,174	-0,329	-0,289
86,553	84,357	-0,268	-0,205
87,568	144,896	-0,288	-0,270
88,582	34,742	-0,285	-0,174
89,597	24,745	-0,257	-0,149
90,611	29,282	-0,280	-0,167
91,626	37,210	-0,271	-0,168
92,641	389,827	-0,215	-0,314
93,655	188,519	-0,224	-0,235
94,670	71,103	-0,346	-0,252
95,684	109,476	-0,408	-0,343
96,699	17,008	-0,326	-0,181
97,714	48,003	-0,293	-0,192
98,728	181,678	-0,154	-0,159
99,743	-41,835	-0,288	-0,103
100,757	-61,396	-0,309	-0,091
101,772	-22,926	-0,281	-0,118
102,787	-40,949	-0,366	-0,132
103,801	47,105	-0,379	-0,247
104,816	92,103	-0,268	-0,212
105,830	55,192	-0,287	-0,194
106,845	123,429	-0,243	-0,214
107,860	-36,227	-0,193	-0,073
108,874	121,697	-0,340	-0,297
109,889	2,955	-0,364	-0,185
110,903	114,193	-0,401	-0,342
111,918	18,018	-0,390	-0,217
112,933	8,006	-0,200	-0,105
113,947	-54,121	-0,307	-0,097
114,962	207,225	-0,147	-0,160
115,976	7,587	-0,299	-0,156
116,991	130,515	-0,262	-0,236
118,006	176,770	-0,274	-0,280
119,020	-53,211	-0,313	-0,100
120,035	4,717	-0,217	-0,112
121,049	-114,180	-0,242	-0,032
122,064	-78,517	-0,307	-0,073
123,079	55,891	-0,277	-0,188
124,093	70,788	-0,357	-0,259
125,108	-12,663	-0,277	-0,126
126,122	41,351	-0,254	-0,161
127,137	-33,205	-0,327	-0,126
128,151	132,515	-0,221	-0,200
129,166	-37,324	-0,262	-0,097
130,181	-29,278	-0,236	-0,094
131,195	221,385	-0,281	-0,316
132,210	40,776	-0,310	-0,195
133,224	-13,156	-0,301	-0,136
134,239	-4,808	-0,336	-0,161
135,254	222,434	-0,232	-0,261
136,268	3,508	-0,290	-0,147
137,283	-56,911	-0,357	-0,110
138,297	6,510	-0,317	-0,164
139,312	-146,660	-0,267	0,016
140,327	126,780	-0,237	-0,210
141,341	800,000	-0,171	-0,342
142,356	-56,488	-0,296	-0,091
143,370	140,204	-0,296	-0,273
144,385	-78,490	-0,252	-0,060
145,400	55,121	-0,269	-0,181
146,414	284,395	-0,203	-0,256
147,429	257,685	-0,181	-0,218
148,443	-22,080	-0,350	-0,148
149,458	-44,894	-0,218	-0,075
150,473	-45,254	-0,186	-0,064
151,487	-86,327	-0,290	-0,062
152,502	191,415	-0,231	-0,243
153,516	163,202	-0,245	-0,241
154,531	-42,009	-0,251	-0,089
155,546	319,981	-0,221	-0,294
156,560	217,055	-0,207	-0,230
157,575	98,404	-0,150	-0,120
158,589	-3,668	-0,190	-0,092
159,604	104,502	-0,278	-0,228
160,619	159,088	-0,215	-0,209
161,633	238,696	-0,210	-0,243
162,648	70,654	-0,235	-0,170
163,662	342,991	-0,057	-0,078
164,677	-28,871	-0,263	-0,105
165,692	616,497	-0,136	-0,240
166,706	129,315	-0,212	-0,189
167,721	-13,499	-0,137	-0,062
168,735	45,289	-0,276	-0,177
169,750	4,285	-0,365	-0,186
170,764	239,510	-0,150	-0,175
171,779	30,269	-0,219	-0,130
172,794	-25,735	-0,317	-0,130
173,808	65,210	-0,183	-0,129
174,823	-58,245	-0,252	-0,076
175,837	800,000	-0,144	-0,305
176,852	-98,211	-0,367	0,065
177,867	81,064	-0,218	-0,164
178,881	69,666	-0,175	-0,125
179,896	41,159	-0,316	-0,199
180,910	104,417	-0,255	-0,209
181,925	108,868	-0,163	-0,136
182,940	257,773	-0,228	-0,273
183,954	24,923	-0,222	-0,128
184,969	337,263	-0,135	-0,183
185,983	341,723	-0,177	-0,242
186,998	117,913	-0,120	-0,103
188,013	112,038	-0,167	-0,140
189,027	-28,025	-0,350	-0,140
190,042	175,428	-0,127	-0,128
191,056	-112,546	-0,180	-0,025
192,071	414,297	-0,119	-0,177
193,086	-106,297	-0,231	-0,036
194,100	-2,289	-0,238	-0,116
195,115	12,047	-0,262	-0,140
196,129	251,791	-0,192	-0,228
197,144	4,485	-0,213	-0,108
198,159	184,894	-0,152	-0,157
199,173	57,229	-0,195	-0,132
200,188	-46,860	-0,142	-0,048
201,202	-70,297	-0,143	0,037
202,217	68,050	-0,131	-0,093
203,232	583,115	-0,197	-0,337
204,246	458,184	-0,149	-0,231
205,261	306,567	-0,111	-0,143
206,275	263,665	-0,185	-0,224
207,290	160,275	-0,187	-0,181
208,304	14,542	-0,232	-0,126
209,319	12,945	-0,172	-0,092
210,334	148,005	-0,274	-0,257
211,348	800,000	-0,079	-0,208
212,363	102,082	-0,208	-0,169
213,377	87,874	-0,193	-0,149
214,392	22,963	-0,317	-0,180
215,407	180,703	-0,200	-0,204
216,421	204,030	-0,096	-0,104
217,436	408,936	-0,212	-0,313
218,450	156,429	-0,237	-0,227
219,465	4,894	-0,264	-0,134
220,480	133,643	-0,157	-0,141
221,494	-30,073	-0,150	-0,059
222,509	209,921	-0,169	-0,184
223,523	-174,586	-0,237	-0,005
224,538	72,295	-0,193	-0,140
225,553	170,103	-0,191	-0,190
226,567	10,048	-0,183	-0,096
227,582	102,827	-0,249	-0,202
228,596	287,691	-0,195	-0,245
229,611	262,124	-0,107	-0,129
230,626	-7,871	-0,277	-0,129
231,640	7,508	-0,243	-0,126
232,655	-67,652	-0,304	-0,082
233,669	-18,717	-0,260	-0,112
234,684	18,341	-0,150	-0,083
235,699	646,512	-0,108	-0,192
236,713	800,000	-0,091	-0,189
237,728	800,000	-0,061	-0,151
238,742	2,237	-0,289	-0,144
239,757	135,882	-0,281	-0,254
240,772	680,780	-0,072	-0,130
241,786	-10,355	-0,308	-0,141
242,801	97,659	-0,246	-0,195
243,815	289,364	-0,102	-0,129
244,830	15,229	-0,235	-0,127
245,844	113,501	-0,214	-0,180
246,859	460,478	-0,135	-0,209
247,874	-10,202	-0,247	-0,113
248,888	-173,073	-0,210	-0,004
249,903	60,715	-0,194	-0,133
250,917	88,269	-0,136	0,104
251,932	-10,962	-0,087	-0,040
252,947	202,946	-0,178	-0,190
253,961	32,863	-0,197	-0,118
254,976	-62,759	-0,208	-0,059
255,990	145,804	-0,210	-0,195
257,005	30,372	-0,181	-0,107
258,020	-71,735	-0,189	-0,048
259,034	-121,467	-0,141	-0,016
260,049	47,755	-0,246	-0,158
261,063	-89,538	-0,212	-0,043
262,078	688,571	-0,167	-0,304
263,093	67,296	-0,258	-0,181
264,107	111,698	-0,196	-0,163
265,122	800,000	-0,073	-0,146
266,136	50,917	-0,140	-0,091
267,151	800,000	-0,081	-0,240
268,166	51,219	-0,229	-0,150
269,180	169,345	-0,241	-0,238
270,195	154,694	-0,154	-0,146
271,209	133,951	-0,199	-0,178
272,224	-134,305	-0,151	-0,013
273,239	-25,532	-0,213	-0,086
274,253	800,000	-0,117	-0,278
275,268	60,409	-0,201	-0,138
276,282	-57,692	-0,227	-0,068
277,297	-45,960	-0,249	-0,085
278,312	-11,791	-0,230	-0,104
279,326	142,490	-0,049	0,045
280,341	-0,224	-0,112	-0,055
281,355	-156,325	-0,174	0,007
282,370	-103,721	-0,222	-0,036
283,384	41,563	-0,212	-0,132
284,399	137,147	-0,156	-0,141
285,414	89,303	-0,276	-0,212
286,428	264,847	-0,185	-0,223
287,443	82,662	-0,144	-0,108
288,457	-85,488	-0,208	-0,044
289,472	-111,843	-0,144	-0,020
290,487	92,622	-0,097	-0,076
291,501	265,441	-0,175	-0,211
292,516	800,000	-0,025	-0,050
293,530	-20,256	-0,180	-0,076
294,545	288,966	-0,167	-0,209
295,560	-45,697	-0,157	-0,053
296,574	-20,986	-0,198	-0,083
297,589	497,222	-0,147	-0,235
298,603	271,107	-0,179	-0,217
299,618	418,476	-0,074	-0,109
300,633	153,461	-0,068	-0,065
301,647	-23,627	-0,156	-0,064
302,662	-49,066	-0,152	0,050
303,676	102,025	-0,174	-0,140
304,691	91,423	-0,271	-0,210
305,706	-27,174	-0,206	-0,082
306,720	-74,446	-0,171	-0,042
307,735	-14,423	-0,189	-0,084
308,749	-52,015	-0,165	-0,052
309,764	629,523	-0,021	-0,037
310,779	33,070	-0,139	-0,083
311,793	468,174	-0,068	-0,105
312,808	152,302	-0,205	-0,193
313,822	112,158	-0,132	-0,110
314,837	128,055	-0,110	-0,097
315,852	-190,312	-0,082	-0,001
316,866	477,621	-0,034	-0,053
317,881	-62,667	-0,184	0,052
318,895	50,274	-0,197	-0,128
319,910	143,217	-0,085	0,078
320,925	-63,827	-0,165	-0,046
321,939	541,704	-0,107	-0,176
322,954	-200,000	-0,003	-0,171
323,968	43,950	-0,052	-0,032
324,983	37,439	-0,104	-0,063
325,997	-199,308	-0,167	0,001
327,012	96,040	-0,155	-0,122
328,027	-60,408	-0,226	-0,066
329,041	-100,112	-0,221	-0,037
330,056	-111,287	-0,161	0,022
331,070	16,521	-0,077	-0,042
332,085	29,013	-0,141	-0,082
333,100	208,432	-0,143	-0,154
334,114	427,311	-0,138	-0,205
335,129	380,215	-0,183	-0,259
336,143	53,686	-0,232	-0,153
337,158	265,138	-0,121	-0,145
338,173	-161,850	-0,030	0,001
339,187	-26,940	-0,074	-0,029
340,202	-200,000	-0,017	-0,119
341,216	768,791	-0,095	-0,179
342,231	-200,000	-0,046	-0,169
343,246	-138,469	-0,240	-0,018
344,260	71,804	-0,256	-0,183
345,275	-123,168	-0,226	0,025
346,289	-62,685	-0,117	0,033
347,304	84,460	-0,166	-0,125
348,319	-52,741	-0,210	-0,066
349,333	800,000	-0,091	-0,219
350,348	60,929	-0,228	-0,155
351,362	800,000	-0,064	-0,122
352,377	196,010	-0,041	-0,043
353,392	800,000	-0,050	-0,110
354,406	100,068	-0,146	-0,116
355,421	208,305	1317,678	1415,119
356,435	160,269	1478,790	1415,615
