DTS Sentinel unit serial number:	SN410029Multiplexer serial number:	ORYXHardware model number:	OX2-SRSoftware version number:	ORYX F/W v4,00 Oryx Data Collector v3.7.2.0data status	okinstallation	B3 Nyhavnadifferential loss correction	single-endedforward channel	channel 1reverse channel	N/Adate	2023/12/01time	11:52:30forward acquisition time	300,00reverse acquisition time	0,00gamma	499,1914k internal	0,3213k external	0,3213temperature offset calibration	1,0000default loss term (dB/km)	0,3820temperature slope calibration	1,0000multiplexer offset coefficient	1,0000multiplexer slope coefficient	1,0000fibre end	0,00T internal ref (°C)	8,62T ext. ref 1 (°C)	-5,33T ext. ref 2 (°C)	-5,44length (m)	temperature (°C)	Stokes	anti-Stokes-744,400	-200,000	-0,035	-0,278
-743,385	800,000	0,071	0,204
-742,371	637,705	-0,061	-0,112
-741,356	-200,000	0,004	0,323
-740,342	630,387	-0,150	-0,277
-739,327	-200,000	0,046	0,299
-738,312	194,287	-0,123	-0,136
-737,298	219,037	-0,096	0,112
-736,283	396,793	-0,116	-0,176
-735,269	-200,000	0,031	0,220
-734,254	182,227	-0,226	-0,242
-733,239	-52,309	-0,288	0,096
-732,225	800,000	-0,065	-0,204
-731,210	800,000	0,057	0,142
-730,196	12,696	-0,123	0,068
-729,181	207,635	0,050	0,057
-728,167	639,696	0,033	-0,062
-727,152	-200,000	0,011	-0,050
-726,137	-12,347	0,017	-0,008
-725,123	-58,813	-0,129	-0,040
-724,108	52,726	-0,143	-0,099
-723,094	-200,000	-0,003	-0,081
-722,079	435,978	-0,022	0,035
-721,064	-181,726	-0,123	0,002
-720,050	186,308	0,021	0,023
-719,035	49,574	-0,091	0,062
-718,021	-200,000	0,023	-0,094
-717,006	-28,080	-0,091	-0,038
-715,991	15,504	-0,166	-0,094
-714,977	-200,000	-0,011	-0,091
-713,962	103,526	-0,095	-0,081
-712,948	800,000	-0,009	0,018
-711,933	212,331	-0,019	0,021
-710,918	800,000	0,001	-0,002
-709,904	800,000	0,062	-0,162
-708,889	-137,543	-0,060	-0,005
-707,875	666,206	-0,097	-0,182
-706,860	800,000	-0,043	-0,100
-705,845	-200,000	-0,011	-0,117
-704,831	6,072	-0,166	0,089
-703,816	-52,847	0,017	-0,005
-702,802	-200,000	0,010	-0,096
-701,787	623,394	0,069	-0,127
-700,772	-200,000	-0,006	-0,098
-699,758	-89,405	-0,092	0,019
-698,743	577,118	0,014	0,024
-697,729	130,017	0,091	-0,084
-696,714	70,742	-0,004	0,003
-695,699	-167,561	0,068	-0,002
-694,685	-167,999	-0,088	-0,002
-693,670	197,493	-0,104	-0,115
-692,656	747,694	0,028	-0,055
-691,641	360,365	-0,018	-0,027
-690,627	176,284	-0,084	0,088
-689,612	-200,000	-0,034	-0,111
-688,597	9,738	0,067	0,036
-687,583	-64,508	-0,081	-0,024
-686,568	181,459	-0,129	-0,137
-685,554	-200,000	-0,015	-0,134
-684,539	800,000	-0,038	-0,100
-683,524	-63,376	0,131	0,039
-682,510	800,000	0,023	-0,070
-681,495	205,523	0,063	-0,070
-680,481	800,000	0,080	-0,168
-679,466	-200,000	0,024	0,108
-678,451	800,000	-0,010	0,022
-677,437	123,766	-0,043	0,039
-676,422	-200,000	0,015	-0,139
-675,408	-200,000	-0,030	-0,108
-674,393	314,134	-0,039	-0,053
-673,378	-200,000	-0,020	0,083
-672,364	207,435	-0,055	-0,062
-671,349	25,867	0,069	-0,042
-670,335	189,739	-0,054	-0,059
-669,320	127,689	0,069	-0,064
-668,305	356,929	0,109	-0,158
-667,291	103,171	0,048	-0,041
-666,276	517,050	-0,062	-0,106
-665,262	800,000	0,025	0,060
-664,247	-200,000	-0,010	0,065
-663,232	800,000	0,030	-0,067
-662,218	800,000	-0,008	0,016
-661,203	800,000	-0,024	0,064
-660,189	800,000	-0,041	-0,084
-659,174	-200,000	0,014	-0,082
-658,159	44,989	0,094	0,063
-657,145	49,866	0,081	-0,055
-656,130	7,844	0,083	-0,045
-655,116	630,123	0,031	0,056
-654,101	-200,000	0,001	0,047
-653,086	226,066	0,063	-0,074
-652,072	-200,000	-0,016	-0,199
-651,057	-116,198	-0,061	-0,008
-650,043	-9,252	-0,165	0,079
-649,028	-67,004	-0,079	0,022
-648,014	800,000	0,023	0,068
-646,999	343,781	0,039	0,055
-645,984	169,574	0,065	0,067
-644,970	162,581	-0,125	-0,127
-643,955	-139,545	0,119	0,009
-642,941	800,000	-0,060	-0,160
-641,926	426,190	0,036	0,056
-640,911	-115,482	0,094	0,013
-639,897	-70,121	0,108	0,030
-638,882	92,287	-0,063	-0,051
-637,868	728,805	0,052	-0,101
-636,853	800,000	-0,033	0,087
-635,838	116,630	-0,108	0,096
-634,824	-118,394	-0,030	0,004
-633,809	-3,297	0,110	-0,055
-632,795	9,425	0,060	0,033
-631,780	107,675	0,064	0,055
-630,765	-200,000	0,022	0,093
-629,751	800,000	-0,036	-0,084
-628,736	-200,000	0,005	-0,064
-627,722	186,841	-0,091	-0,098
-626,707	-23,402	0,052	0,023
-625,692	243,600	0,096	-0,117
-624,678	-75,649	-0,108	0,027
-623,663	-69,945	0,085	0,023
-622,649	-200,000	-0,023	-0,079
-621,634	-200,000	0,021	-0,113
-620,619	-190,902	0,043	-0,000
-619,605	6,057	0,020	-0,010
-618,590	77,684	-0,034	-0,026
-617,576	-200,000	-0,018	0,124
-616,561	-200,000	0,015	0,061
-615,546	365,761	-0,060	-0,088
-614,532	800,000	0,031	-0,094
-613,517	14,047	0,113	-0,063
-612,503	204,356	0,079	-0,089
-611,488	189,772	-0,021	0,022
-610,474	77,860	0,052	-0,040
-609,459	484,039	0,016	0,026
-608,444	800,000	0,034	0,083
-607,430	551,826	-0,081	-0,140
-606,415	637,620	-0,059	-0,109
-605,401	-156,564	-0,119	0,005
-604,386	800,000	-0,021	0,058
-603,371	-43,602	0,085	-0,031
-602,357	33,597	-0,163	-0,102
-601,342	800,000	-0,058	-0,125
-600,328	-200,000	0,012	-0,060
-599,313	-200,000	-0,010	-0,135
-598,298	-144,176	-0,039	-0,003
-597,284	100,519	0,088	0,073
-596,269	35,019	0,105	-0,066
-595,255	0,617	-0,084	0,043
-594,240	155,069	-0,031	-0,030
-593,225	13,035	-0,029	-0,016
-592,211	57,368	-0,135	-0,095
-591,196	3,593	-0,054	-0,028
-590,182	-200,000	0,004	0,186
-589,167	-111,973	-0,103	-0,015
-588,152	-126,226	0,102	-0,011
-587,138	-200,000	-0,040	-0,166
-586,123	-117,837	-0,077	-0,010
-585,109	590,027	0,075	-0,133
-584,094	43,151	0,114	0,075
-583,079	-101,913	-0,057	-0,010
-582,065	437,144	-0,044	0,069
-581,050	52,369	-0,073	0,050
-580,036	-10,975	0,076	0,036
-579,021	-127,534	0,073	0,007
-578,006	665,122	0,057	-0,107
-576,992	-80,546	-0,115	0,027
-575,977	-200,000	0,005	-0,049
-574,963	-200,000	-0,026	0,123
-573,948	562,259	0,028	-0,048
-572,934	-148,913	-0,065	-0,004
-571,919	-111,640	-0,047	-0,007
-570,904	431,025	0,063	0,099
-569,890	-200,000	0,018	-0,148
-568,875	-71,893	-0,146	0,039
-567,861	800,000	-0,037	0,089
-566,846	457,861	0,066	0,107
-565,831	104,100	0,103	0,087
-564,817	288,952	-0,027	0,035
-563,802	251,526	-0,069	0,085
-562,788	78,671	0,004	0,003
-561,773	-10,242	-0,114	0,054
-560,758	800,000	0,026	0,070
-559,744	515,719	0,076	0,127
-558,729	-39,421	0,092	-0,035
-557,715	147,624	-0,019	-0,019
-556,700	-200,000	-0,022	-0,073
-555,685	-13,594	-0,041	-0,019
-554,671	-91,969	0,106	-0,021
-553,656	-62,134	0,091	-0,027
-552,642	344,326	0,062	0,088
-551,627	156,562	-0,106	0,106
-550,612	-98,850	0,160	0,029
-549,598	170,806	-0,054	-0,055
-548,583	-200,000	-0,011	-0,148
-547,569	-33,116	0,064	0,025
-546,554	-200,000	-0,001	0,007
-545,539	197,520	0,044	0,048
-544,525	-200,000	-0,024	0,123
-543,510	232,798	-0,124	-0,147
-542,496	-200,000	-0,021	-0,083
-541,481	3,429	-0,062	-0,032
-540,466	-200,000	0,006	0,087
-539,452	-81,193	-0,028	0,007
-538,437	-38,003	-0,150	-0,057
-537,423	-86,673	0,142	0,031
-536,408	800,000	0,057	0,130
-535,393	-200,000	-0,000	-0,101
-534,379	67,772	-0,106	-0,078
-533,364	106,877	-0,089	-0,076
-532,350	800,000	0,020	0,058
-531,335	295,011	0,019	0,025
-530,321	800,000	-0,064	0,171
-529,306	107,429	0,134	0,114
-528,291	-16,476	-0,212	0,096
-527,277	-38,290	-0,174	-0,066
-526,262	-200,000	0,009	-0,098
-525,248	672,220	0,019	-0,035
-524,233	-150,633	0,119	0,006
-523,218	352,725	-0,128	0,183
-522,204	229,712	-0,007	-0,009
-521,189	400,115	-0,033	-0,050
-520,175	-199,614	-0,134	0,000
-519,160	-64,750	0,136	-0,039
-518,145	49,110	0,045	0,030
-517,131	-200,000	0,007	-0,038
-516,116	800,000	0,023	-0,052
-515,102	51,606	-0,074	-0,051
-514,087	800,000	0,024	-0,049
-513,072	277,943	-0,072	-0,092
-512,058	-200,000	0,033	-0,106
-511,043	145,785	-0,048	-0,046
-510,029	-200,000	0,020	0,118
-509,014	35,025	-0,108	0,067
-507,999	166,149	-0,036	0,036
-506,985	-200,000	0,007	-0,099
-505,970	-8,885	0,045	-0,021
-504,956	-69,895	-0,069	-0,019
-503,941	503,082	-0,035	-0,059
-502,926	81,652	0,140	0,108
-501,912	-132,463	0,068	-0,006
-500,897	-108,084	0,064	0,010
-499,883	-83,314	-0,093	-0,021
-498,868	-200,000	0,021	-0,165
-497,853	173,958	0,105	-0,109
-496,839	40,191	0,071	-0,046
-495,824	349,452	0,091	0,129
-494,810	402,301	-0,038	0,058
-493,795	-143,346	0,092	-0,006
-492,781	221,815	-0,014	0,017
-491,766	800,000	0,010	-0,023
-490,751	147,881	0,073	-0,071
-489,737	-109,425	0,084	-0,013
-488,722	-200,000	-0,009	-0,031
-487,708	276,493	0,060	0,077
-486,693	642,774	0,052	-0,096
-485,678	313,980	0,036	0,049
-484,664	16,224	-0,202	-0,114
-483,649	6,781	-0,061	-0,032
-482,635	-121,583	0,092	0,011
-481,620	-200,000	-0,012	-0,050
-480,605	537,566	0,084	0,144
-479,591	106,596	0,180	0,153
-478,576	203,677	0,044	0,049
-477,562	-52,108	-0,065	0,021
-476,547	91,031	-0,079	-0,063
-475,532	538,198	0,068	-0,116
-474,518	103,651	-0,147	0,123
-473,503	106,001	0,053	0,045
-472,489	692,927	-0,018	0,034
-471,474	433,795	-0,026	0,040
-470,459	715,728	-0,076	-0,145
-469,445	-200,000	-0,024	-0,198
-468,430	-200,000	-0,012	-0,207
-467,416	-39,436	-0,124	0,046
-466,401	-80,403	0,114	0,027
-465,386	-101,359	-0,091	-0,016
-464,372	-94,758	-0,104	0,020
-463,357	-41,909	-0,054	-0,020
-462,343	97,650	0,062	-0,051
-461,328	800,000	0,022	-0,060
-460,313	16,240	0,044	-0,025
-459,299	485,384	0,041	0,067
-458,284	800,000	0,006	0,015
-457,270	15,386	0,080	0,045
-456,255	-200,000	0,015	0,160
-455,241	139,694	-0,120	0,113
-454,226	-69,233	0,108	0,029
-453,211	424,664	0,010	-0,015
-452,197	-57,836	0,120	0,037
-451,182	48,867	-0,048	0,032
-450,168	35,211	0,102	0,064
-449,153	476,478	0,020	-0,033
-448,138	-46,097	-0,187	-0,066
-447,124	800,000	-0,027	-0,080
-446,109	270,307	0,126	0,158
-445,095	460,929	-0,069	0,110
-444,080	308,702	0,093	0,124
-443,065	-24,861	0,074	-0,031
-442,051	90,126	-0,057	0,045
-441,036	800,000	-0,031	-0,064
-440,022	2,372	0,116	-0,060
-439,007	-45,513	0,102	0,036
-437,992	800,000	-0,024	0,052
-436,978	-200,000	0,013	0,103
-435,963	-41,377	-0,071	0,026
-434,949	800,000	0,035	-0,093
-433,934	-200,000	-0,017	-0,143
-432,919	-56,753	-0,066	0,021
-431,905	-111,755	-0,089	-0,013
-430,890	357,756	0,081	0,117
-429,876	140,202	0,092	0,087
-428,861	266,361	-0,122	-0,153
-427,846	800,000	0,059	0,118
-426,832	-167,885	-0,182	0,005
-425,817	323,759	0,069	-0,094
-424,803	-200,000	0,015	-0,057
-423,788	800,000	-0,022	0,069
-422,773	-54,742	-0,018	-0,006
-421,759	152,570	0,105	0,103
-420,744	-200,000	0,026	0,102
-419,730	800,000	0,048	-0,100
-418,715	42,938	-0,048	-0,031
-417,701	-26,272	-0,080	-0,033
-416,686	-200,000	-0,015	-0,082
-415,671	-55,203	0,085	0,027
-414,657	800,000	-0,034	-0,073
-413,642	-54,293	0,221	0,071
-412,628	-200,000	0,027	-0,187
-411,613	-200,000	-0,001	-0,166
-410,598	-200,000	-0,008	-0,086
-409,584	800,000	0,028	0,056
-408,569	-200,000	0,011	0,045
-407,555	575,534	0,076	0,133
-406,540	559,882	0,062	-0,107
-405,525	-137,120	-0,055	-0,004
-404,511	-49,360	-0,116	-0,039
-403,496	-95,188	0,084	-0,016
-402,482	9,363	-0,048	0,026
-401,467	800,000	0,021	0,057
-400,452	-200,000	-0,010	0,128
-399,438	-200,000	-0,011	-0,080
-398,423	-200,000	-0,012	-0,080
-397,409	677,178	-0,062	0,116
-396,394	580,333	-0,094	0,166
-395,379	163,818	0,071	0,072
-394,365	-17,260	-0,105	0,047
-393,350	47,971	0,105	0,070
-392,336	250,650	0,053	-0,065
-391,321	-107,142	-0,077	-0,012
-390,306	-129,824	-0,109	-0,011
-389,292	-33,043	-0,107	-0,042
-388,277	-50,107	0,153	-0,051
-387,263	800,000	0,051	-0,127
-386,248	-82,539	0,002	0,000
-385,233	70,095	0,080	0,059
-384,219	599,397	0,028	0,049
-383,204	-115,661	-0,100	-0,013
-382,190	148,021	-0,094	-0,090
-381,175	800,000	0,016	-0,041
-380,160	57,246	0,049	0,034
-379,146	-84,571	-0,159	0,035
-378,131	800,000	-0,030	0,068
-377,117	-200,000	-0,010	0,093
-376,102	479,761	0,029	-0,047
-375,088	-66,823	-0,127	-0,036
-374,073	54,062	-0,091	-0,062
-373,058	-200,000	-0,044	0,160
-372,044	280,517	0,074	0,094
-371,029	40,337	0,053	0,034
-370,015	51,681	0,054	-0,037
-369,000	-49,722	-0,243	-0,082
-367,985	-104,399	0,077	-0,013
-366,971	220,926	0,056	-0,064
-365,956	-92,578	0,063	0,013
-364,942	-166,129	-0,099	0,003
-363,927	73,014	0,074	0,055
-362,912	-127,610	0,054	0,006
-361,898	123,877	-0,046	-0,041
-360,883	133,637	-0,066	-0,061
-359,869	-186,703	0,050	-0,000
-358,854	43,962	0,038	-0,025
-357,839	433,733	0,006	0,009
-356,825	-98,616	0,038	-0,007
-355,810	17,551	-0,127	0,072
-354,796	-94,909	-0,124	0,024
-353,781	266,591	0,080	0,100
-352,766	780,087	0,029	-0,056
-351,752	-200,000	-0,021	0,157
-350,737	-200,000	0,009	0,073
-349,723	296,309	0,037	0,048
-348,708	-21,705	0,128	-0,055
-347,693	-48,209	0,076	0,026
-346,679	73,082	-0,062	0,046
-345,664	156,445	0,057	-0,056
-344,650	412,360	-0,012	-0,019
-343,635	-79,259	-0,060	-0,014
-342,620	-200,000	-0,003	0,059
-341,606	52,853	0,043	-0,029
-340,591	83,424	-0,072	-0,056
-339,577	-111,390	-0,084	0,012
-338,562	-154,362	-0,062	0,003
-337,548	288,910	0,042	-0,055
-336,533	72,781	-0,041	0,031
-335,518	138,012	0,078	0,073
-334,504	-179,626	-0,106	-0,002
-333,489	77,539	0,042	0,032
-332,475	165,379	-0,086	0,087
-331,460	-200,000	0,018	-0,103
-330,445	-23,615	-0,129	0,055
-329,431	301,108	-0,021	-0,028
-328,416	-200,000	0,004	0,026
-327,402	-200,000	0,024	0,077
-326,387	-200,000	-0,020	-0,105
-325,372	800,000	-0,022	-0,051
-324,358	78,492	-0,006	-0,005
-323,343	81,442	0,051	-0,039
-322,329	-23,502	-0,081	0,035
-321,314	-200,000	0,016	0,105
-320,299	800,000	-0,043	0,090
-319,285	-177,063	0,003	0,000
-318,270	-34,484	0,056	0,022
-317,256	29,420	-0,201	-0,121
-316,241	181,978	0,076	0,080
-315,226	-3,340	0,044	0,022
-314,212	-116,584	0,115	0,015
-313,197	-33,739	0,136	-0,053
-312,183	-200,000	0,010	0,096
-311,168	-200,000	-0,003	-0,157
-310,153	800,000	-0,021	-0,049
-309,139	11,764	0,120	0,065
-308,124	368,031	0,033	-0,047
-307,110	188,060	0,053	0,057
-306,095	-200,000	0,015	0,188
-305,080	-123,082	0,135	-0,015
-304,066	513,788	0,029	-0,048
-303,051	560,185	-0,057	-0,098
-302,037	277,560	0,173	-0,220
-301,022	-62,108	0,078	-0,023
-300,008	-200,000	0,004	0,056
-298,993	35,672	0,083	-0,052
-297,978	-200,000	0,016	0,117
-296,964	226,160	-0,008	-0,009
-295,949	-38,808	0,059	-0,022
-294,935	-200,000	0,003	-0,020
-293,920	-96,866	-0,019	0,003
-292,905	-200,000	-0,004	0,024
-291,891	282,347	0,040	0,051
-290,876	137,562	0,117	0,109
-289,862	37,268	-0,106	0,066
-288,847	800,000	-0,041	-0,115
-287,832	-154,170	-0,057	0,003
-286,818	231,916	-0,075	0,088
-285,803	17,036	0,055	0,031
-284,789	-45,179	-0,104	-0,036
-283,774	115,071	0,106	0,092
-282,759	-23,364	-0,142	-0,060
-281,745	800,000	-0,023	-0,053
-280,730	-57,805	-0,081	0,025
-279,716	52,562	-0,082	-0,056
-278,701	66,097	0,075	0,054
-277,686	185,369	-0,025	-0,027
-276,672	-137,129	0,057	0,005
-275,657	-200,000	0,010	-0,035
-274,643	-128,144	-0,119	-0,012
-273,628	142,649	-0,037	-0,035
-272,613	-200,000	-0,022	-0,085
-271,599	800,000	-0,020	-0,055
-270,584	-200,000	-0,031	0,113
-269,570	-27,921	0,052	0,021
-268,555	-200,000	-0,021	-0,076
-267,540	-24,746	0,064	0,027
-266,526	501,785	-0,072	-0,118
-265,511	470,346	0,058	-0,093
-264,497	-142,296	0,115	0,008
-263,482	190,547	0,070	0,075
-262,467	1,280	0,076	-0,039
-261,453	609,071	0,008	-0,014
-260,438	-1,324	-0,031	0,015
-259,424	13,301	-0,130	0,071
-258,409	147,420	0,027	-0,026
-257,395	-200,000	0,032	-0,121
-256,380	800,000	0,041	-0,111
-255,365	-93,669	0,156	-0,030
-254,351	-113,912	0,110	0,015
-253,336	782,867	-0,029	-0,057
-252,322	22,542	0,052	0,030
-251,307	-172,814	-0,109	-0,002
-250,292	-44,905	-0,090	-0,032
-249,278	-111,081	0,066	-0,009
-248,263	800,000	0,080	0,188
-247,249	-200,000	-0,032	0,122
-246,234	-106,026	-0,140	-0,022
-245,219	-80,553	-0,077	0,018
-244,205	-200,000	-0,042	0,132
-243,190	-1,477	-0,114	0,057
-242,176	274,895	-0,106	0,134
-241,161	-200,000	0,019	0,229
-240,146	-90,080	-0,043	0,009
-239,132	60,793	0,068	-0,048
-238,117	370,233	0,041	0,059
-237,103	-48,759	-0,059	-0,020
-236,088	-200,000	-0,028	0,190
-235,073	-166,079	0,121	0,004
-234,059	446,112	0,057	-0,089
-233,044	-10,622	0,093	-0,044
-232,030	43,880	-0,064	-0,041
-231,015	-200,000	0,006	-0,097
-230,000	-200,000	-0,003	-0,068
-228,986	800,000	0,076	0,151
-227,971	800,000	-0,039	0,078
-226,957	211,827	0,068	-0,076
-225,942	251,669	0,036	0,044
-224,927	42,845	0,029	-0,018
-223,913	718,805	-0,094	-0,179
-222,898	-98,126	0,034	0,006
-221,884	181,728	-0,011	-0,012
-220,869	20,232	-0,013	0,007
-219,855	-40,484	0,077	-0,028
-218,840	20,136	0,114	0,065
-217,825	26,010	0,032	0,019
-216,811	106,949	-0,085	-0,072
-215,796	-101,259	-0,017	-0,003
-214,782	-200,000	-0,005	-0,168
-213,767	181,063	-0,029	-0,030
-212,752	9,356	0,080	-0,043
-211,738	9,767	0,107	-0,058
-210,723	-200,000	-0,002	0,014
-209,709	24,685	0,032	0,019
-208,694	-4,223	-0,075	-0,037
-207,679	-24,219	0,026	0,011
-206,665	37,880	-0,019	0,012
-205,650	16,692	-0,105	0,059
-204,636	-200,000	-0,050	0,168
-203,621	-99,085	-0,062	-0,011
-202,606	-53,602	0,006	-0,002
-201,592	-19,257	-0,030	0,013
-200,577	93,117	0,030	-0,024
-199,563	182,891	-0,112	-0,118
-198,548	210,703	0,102	0,114
-197,533	-108,403	0,113	0,017
-196,519	106,877	-0,063	0,053
-195,504	-9,628	-0,147	0,069
-194,490	554,172	-0,103	-0,176
-193,475	-200,000	0,023	-0,093
-192,460	-91,608	-0,129	-0,026
-191,446	224,432	-0,053	0,061
-190,431	123,544	0,099	-0,088
-189,417	740,893	-0,075	0,143
-188,402	-200,000	-0,003	-0,088
-187,387	461,530	-0,047	0,075
-186,373	129,438	-0,061	0,055
-185,358	-200,000	-0,001	0,067
-184,344	206,270	0,052	0,057
-183,329	335,620	0,021	-0,029
-182,315	800,000	0,036	-0,108
-181,300	-110,918	-0,059	0,009
-180,285	-200,000	-0,010	-0,032
-179,271	-41,267	-0,059	0,022
-178,256	-68,554	0,002	-0,001
-177,242	800,000	0,061	-0,121
-176,227	558,535	0,027	0,047
-175,212	90,303	0,144	0,114
-174,198	123,293	-0,091	-0,081
-173,183	800,000	-0,034	-0,083
-172,169	-105,975	0,031	-0,005
-171,154	143,913	-0,012	-0,011
-170,139	-200,000	0,018	-0,076
-169,125	565,278	0,073	0,126
-168,110	527,179	-0,037	-0,062
-167,096	113,042	-0,079	0,068
-166,081	-18,296	-0,066	-0,029
-165,066	800,000	0,053	-0,146
-164,052	-200,000	0,012	-0,079
-163,037	62,076	0,051	0,036
-162,023	569,086	-0,014	0,025
-161,008	10,709	-0,095	0,051
-159,993	800,000	0,063	0,147
-158,979	501,970	-0,018	0,029
-157,964	-200,000	0,015	-0,053
-156,950	-98,718	0,047	0,008
-155,935	-200,000	0,005	0,064
-154,920	146,789	0,025	0,023
-153,906	302,692	0,072	0,094
-152,891	158,576	-0,015	0,015
-151,877	800,000	-0,044	-0,100
-150,862	800,000	0,051	-0,154
-149,847	-200,000	0,013	0,071
-148,833	28,877	0,016	-0,009
-147,818	181,544	-0,065	0,068
-146,804	94,006	0,069	-0,056
-145,789	84,518	-0,024	0,019
-144,775	113,622	0,083	-0,071
-143,760	-50,257	0,060	-0,020
-142,745	-46,455	-0,106	-0,037
-141,731	144,584	-0,056	0,053
-140,716	-200,000	-0,017	-0,100
-139,702	-200,000	-0,031	0,146
-138,687	646,971	-0,045	0,081
-137,672	49,428	0,017	0,011
-136,658	-200,000	0,009	-0,080
-135,643	-88,137	-0,069	0,015
-134,629	-195,434	0,033	-0,000
-133,614	71,160	-0,034	0,025
-132,599	800,000	-0,013	0,038
-131,585	16,927	-0,030	0,017
-130,570	40,716	-0,059	-0,038
-129,556	-200,000	-0,027	-0,291
-128,541	-200,000	0,010	0,178
-127,526	317,065	-0,032	-0,043
-126,512	55,791	-0,076	0,052
-125,497	-200,000	-0,011	-0,088
-124,483	-134,988	0,129	-0,011
-123,468	800,000	0,022	0,062
-122,453	800,000	0,037	-0,092
-121,439	-56,862	0,076	0,024
-120,424	187,739	0,107	0,113
-119,410	176,901	0,042	0,043
-118,395	800,000	0,051	0,123
-117,380	-122,214	0,046	0,005
-116,366	800,000	0,019	-0,058
-115,351	116,192	-0,084	-0,073
-114,337	-200,000	0,001	-0,025
-113,322	-21,129	0,019	-0,008
-112,307	800,000	-0,013	-0,026
-111,293	465,077	0,052	0,083
-110,278	-184,901	-0,153	0,002
-109,264	143,787	0,099	-0,093
-108,249	-100,670	-0,110	0,019
-107,234	63,104	-0,076	-0,054
-106,220	7,182	-0,078	-0,041
-105,205	-28,209	0,127	0,052
-104,191	800,000	0,038	0,079
-103,176	-98,294	0,167	0,030
-102,162	-200,000	0,009	-0,108
-101,147	255,671	-0,065	-0,079
-100,132	-36,377	-0,069	0,026
-99,118	800,000	0,029	-0,083
-98,103	-136,206	0,072	0,006
-97,089	125,931	0,115	0,103
-96,074	-50,037	0,081	0,027
-95,059	-11,948	0,208	-0,096
-94,045	-200,000	-0,092	-0,000
-93,030	-200,000	-0,010	-0,140
-92,016	477,446	0,057	-0,091
-91,001	-116,770	0,085	-0,011
-89,986	-46,277	0,049	-0,017
-88,972	800,000	0,013	0,028
-87,957	-8,274	-0,028	-0,013
-86,943	-99,491	0,052	0,009
-85,928	277,297	-0,116	-0,145
-84,913	91,182	-0,076	-0,060
-83,899	661,152	-0,043	0,079
-82,884	-139,985	0,081	0,006
-81,870	-20,198	-0,053	0,023
-80,855	-32,178	-0,007	0,003
-79,840	4,241	-0,018	0,009
-78,826	-200,000	-0,031	-0,123
-77,811	81,439	-0,121	-0,092
-76,797	800,000	0,044	-0,096
-75,782	-20,975	-0,040	0,017
-74,767	283,847	0,067	0,086
-73,753	-200,000	-0,024	0,079
-72,738	-24,297	-0,015	0,006
-71,724	-66,132	-0,082	0,023
-70,709	-200,000	0,004	-0,084
-69,694	-200,000	-0,026	-0,143
-68,680	-122,333	0,042	0,005
-67,665	447,191	0,020	-0,031
-66,651	-17,903	0,129	-0,057
-65,636	-200,000	-0,018	0,079
-64,622	-62,758	-0,029	0,009
-63,607	94,273	0,063	-0,050
-62,592	-35,062	0,153	-0,059
-61,578	110,744	0,057	0,048
-60,563	32,973	0,182	-0,111
-59,549	-200,000	-0,000	-0,037
-58,534	46,533	-2,131	-1,392
-57,519	678,501	-1,057	-1,948
-56,505	-200,000	-0,436	-4,598
-55,490	800,000	0,791	1,693
-54,476	800,000	5,197	11,344
-53,461	-200,000	22,139	340,559
-52,446	800,000	758,761	2292,546
-51,432	531,006	1652,718	2765,898
-50,417	68,737	1650,958	1193,536
-49,403	16,274	1526,498	846,904
-48,388	10,487	1451,242	777,279
-47,373	19,158	1443,551	814,565
-46,359	13,894	1432,243	783,235
-45,344	8,761	1428,197	756,648
-44,330	8,726	1426,391	755,494
-43,315	8,695	1424,585	754,361
-42,300	8,721	1422,535	753,369
-41,286	8,758	1421,684	753,062
-40,271	8,683	1420,195	751,890
-39,257	8,690	1418,979	751,248
-38,242	8,733	1417,925	750,866
-37,227	8,722	1416,889	750,233
-36,213	8,736	1415,504	749,536
-35,198	8,735	1414,263	748,847
-34,184	8,767	1413,411	748,516
-33,169	8,632	1412,211	747,217
-32,154	8,686	1411,120	746,861
-31,140	8,679	1409,664	746,028
-30,125	8,735	1408,512	745,651
-29,111	8,700	1407,408	744,876
-28,096	8,713	1406,226	744,278
-27,082	8,651	1404,975	743,301
-26,067	8,640	1403,967	742,683
-25,052	8,666	1402,935	742,231
-24,038	8,656	1402,031	741,676
-23,023	8,621	1401,106	740,994
-22,009	8,589	1400,149	740,310
-20,994	8,611	1398,944	739,745
-19,979	8,653	1397,816	739,313
-18,965	8,620	1397,087	738,746
-17,950	8,623	1396,005	738,158
-16,936	8,589	1395,252	737,576
-15,921	8,544	1394,264	736,815
-14,906	8,583	1393,152	736,379
-13,892	8,595	1392,317	735,961
-12,877	8,590	1391,602	735,530
-11,863	8,540	1391,039	734,974
-10,848	8,561	1390,054	734,522
-9,833	8,527	1389,074	733,817
-8,819	8,465	1388,064	732,970
-7,804	8,482	1387,058	732,486
-6,790	8,492	1386,207	732,055
-5,775	8,465	1384,996	731,260
-4,760	8,511	1384,143	730,994
-3,746	8,536	1383,074	730,514
-2,731	8,528	1382,128	729,948
-1,717	8,509	1381,395	729,446
-0,702	8,476	1379,831	728,441
0,313	12,588	1291,062	700,243
1,327	28,511	682,581	405,944
2,342	44,341	117,769	76,057
3,356	-1,768	16,551	8,182
4,371	-4,095	3,788	1,843
5,386	12,127	1,264	0,683
6,400	800,000	0,346	0,728
7,415	-141,811	-0,047	-0,003
8,429	64,607	-0,271	-0,192
9,444	32,485	-0,239	-0,145
10,459	14,626	-0,377	-0,207
11,473	140,780	-0,176	-0,164
12,488	98,050	-0,260	-0,211
13,502	-75,484	-0,385	-0,096
14,517	-42,888	-0,298	-0,106
15,531	125,592	-0,289	-0,256
16,546	1,943	-0,334	-0,169
17,561	-7,980	-0,467	-0,221
18,575	-103,916	-0,244	-0,040
19,590	155,175	-0,266	-0,258
20,604	-51,378	-0,249	-0,081
21,619	94,082	-0,330	-0,264
22,634	129,966	-0,431	-0,388
23,648	169,770	-0,365	-0,367
24,663	121,626	-0,478	-0,419
25,677	-10,859	-0,354	-0,164
26,692	-119,588	-0,354	-0,043
27,707	35,396	-0,343	-0,211
28,721	185,762	-0,355	-0,371
29,736	134,532	-0,382	-0,349
30,750	404,361	-0,322	-0,479
31,765	12,241	-0,486	-0,262
32,780	241,102	-0,190	-0,224
33,794	24,234	-0,363	-0,210
34,809	272,122	-0,122	-0,152
35,823	19,026	-0,342	-0,192
36,838	168,792	-0,325	-0,325
37,853	30,686	-0,479	-0,288
38,867	130,917	-0,338	-0,305
39,882	-5,788	-0,129	-0,062
40,896	-41,939	-0,237	-0,085
41,911	172,801	-0,362	-0,366
42,926	332,802	-0,273	-0,372
43,940	161,795	-0,341	-0,335
44,955	153,519	-0,361	-0,347
45,969	163,852	-0,374	-0,369
46,984	39,857	-0,237	-0,149
47,999	48,410	-0,374	-0,245
49,013	28,997	-0,345	-0,205
50,028	34,470	-0,371	-0,227
51,042	262,590	-0,282	-0,345
52,057	106,834	-0,266	-0,221
53,071	51,531	-0,244	-0,163
54,086	36,638	-0,276	-0,171
55,101	44,626	-0,386	-0,249
56,115	-72,649	-0,339	-0,087
57,130	-3,627	-0,337	-0,164
58,144	-3,233	-0,460	-0,224
59,159	147,307	-0,393	-0,372
60,174	119,542	-0,458	-0,398
61,188	30,939	-0,435	-0,261
62,203	285,849	-0,232	-0,294
63,217	16,957	-0,260	-0,144
64,232	-96,739	-0,349	-0,064
65,247	137,844	-0,279	-0,257
66,261	25,778	-0,456	-0,266
67,276	147,263	-0,372	-0,351
68,290	176,472	-0,374	-0,381
69,305	208,214	-0,172	-0,189
70,320	-200,000	-0,302	-0,000
71,334	-4,361	-0,302	-0,146
72,349	163,201	-0,298	-0,293
73,363	17,901	-0,177	-0,098
74,378	3,497	-0,270	-0,137
75,393	29,660	-0,330	-0,196
76,407	223,388	-0,161	-0,182
77,422	159,258	-0,316	-0,308
78,436	2,543	-0,364	-0,184
79,451	-3,294	-0,317	-0,154
80,466	117,584	-0,335	-0,289
81,480	280,163	-0,199	-0,250
82,495	13,350	-0,269	-0,146
83,509	270,384	-0,255	-0,315
84,524	-8,387	-0,253	-0,119
85,539	390,096	-0,196	-0,285
86,553	40,412	-0,272	-0,171
87,568	0,431	-0,201	-0,100
88,582	35,399	-0,362	-0,221
89,597	40,770	-0,208	-0,131
90,611	64,442	-0,167	-0,117
91,626	-53,128	-0,269	-0,086
92,641	18,310	-0,278	-0,155
93,655	39,648	-0,162	-0,101
94,670	-15,978	-0,421	-0,186
95,684	3,419	-0,216	-0,110
96,699	-47,162	-0,245	-0,083
97,714	64,911	-0,265	-0,186
98,728	94,297	-0,269	-0,214
99,743	-5,760	-0,347	-0,165
100,757	-12,819	-0,229	-0,104
101,772	16,431	-0,285	-0,157
102,787	114,252	-0,283	-0,241
103,801	110,720	-0,181	-0,152
104,816	67,089	-0,373	-0,265
105,830	349,681	-0,161	-0,223
106,845	145,714	-0,201	-0,188
107,860	145,649	-0,272	-0,254
108,874	247,606	-0,153	-0,181
109,889	-21,546	-0,294	-0,124
110,903	-19,979	-0,268	-0,115
111,918	104,891	-0,233	-0,191
112,933	86,817	-0,232	-0,179
113,947	-109,328	-0,258	-0,038
114,962	-126,360	-0,214	-0,022
115,976	94,676	-0,293	-0,233
116,991	80,918	-0,212	-0,159
118,006	127,798	-0,217	-0,192
119,020	140,420	-0,178	-0,164
120,035	-80,251	-0,223	0,052
121,049	30,016	-0,207	-0,123
122,064	85,124	-0,308	-0,235
123,079	54,293	-0,299	-0,201
124,093	62,425	-0,323	-0,224
125,108	800,000	-0,203	-0,426
126,122	54,630	-0,205	-0,138
127,137	-130,434	-0,286	-0,027
128,151	79,572	-0,257	-0,192
129,166	302,445	-0,115	-0,149
130,181	1,426	-0,235	-0,117
131,195	164,793	-0,218	-0,214
132,210	102,099	-0,174	-0,142
133,224	132,015	-0,218	-0,196
134,239	-132,177	-0,184	-0,016
135,254	-44,258	-0,219	-0,076
136,268	32,372	-0,221	-0,132
137,283	150,089	-0,131	-0,124
138,297	176,130	-0,255	-0,258
139,312	182,844	-0,231	-0,238
140,327	42,683	-0,362	-0,229
141,341	132,374	-0,269	-0,241
142,356	-91,342	-0,213	-0,042
143,370	62,427	-0,111	-0,077
144,385	-3,524	-0,255	-0,123
145,400	134,261	-0,262	-0,236
146,414	79,794	-0,274	-0,205
147,429	34,526	-0,226	-0,137
148,443	219,499	-0,307	-0,342
149,458	-50,744	-0,170	-0,055
150,473	44,795	-0,178	-0,113
151,487	-14,805	-0,229	-0,102
152,502	-34,256	-0,261	-0,099
153,516	26,230	-0,235	-0,136
154,531	59,500	-0,274	-0,188
155,546	13,255	-0,393	-0,211
156,560	15,818	-0,282	-0,154
157,575	18,674	-0,306	-0,170
158,589	329,133	-0,124	-0,166
159,604	33,175	-0,311	-0,187
160,619	322,158	-0,177	-0,235
161,633	535,323	-0,146	-0,242
162,648	-200,000	-0,077	-0,283
163,662	93,045	-0,267	-0,210
164,677	800,000	-0,072	-0,169
165,692	-2,231	-0,286	-0,139
166,706	103,445	-0,236	-0,193
167,721	66,518	-0,248	-0,175
168,735	41,493	-0,225	-0,141
169,750	41,099	-0,167	-0,104
170,764	-51,998	-0,241	-0,077
171,779	-184,611	-0,232	0,003
172,794	53,562	-0,281	-0,187
173,808	171,088	-0,160	-0,160
174,823	91,159	-0,292	-0,227
175,837	111,262	-0,204	-0,171
176,852	-167,227	-0,142	0,004
177,867	41,077	-0,266	-0,166
178,881	30,219	-0,310	-0,183
179,896	318,690	-0,155	-0,205
180,910	-60,808	-0,239	-0,070
181,925	593,365	-0,200	-0,344
182,940	53,738	-0,163	-0,108
183,954	135,149	-0,188	-0,170
184,969	-200,000	-0,067	-0,250
185,983	332,320	-0,125	-0,168
186,998	-110,952	-0,180	-0,025
188,013	-79,061	-0,188	-0,044
189,027	101,583	-0,272	-0,220
190,042	70,124	-0,224	-0,160
191,056	141,395	-0,136	-0,124
192,071	51,431	-0,270	-0,178
193,086	-133,099	-0,136	-0,012
194,100	35,938	-0,170	-0,103
195,115	-200,000	-0,066	-0,203
196,129	149,580	-0,140	-0,132
197,144	19,979	-0,181	-0,101
198,159	-73,914	-0,262	-0,065
199,173	-76,915	-0,273	-0,066
200,188	-200,000	-0,018	-0,118
201,202	-44,100	-0,167	-0,058
202,217	348,112	-0,070	-0,096
203,232	39,311	-0,266	-0,165
204,246	65,704	-0,187	-0,131
205,261	169,922	-0,215	-0,213
206,275	-15,061	-0,199	-0,088
207,290	40,765	-0,283	-0,176
208,304	170,390	-0,187	-0,186
209,319	99,257	-0,082	-0,066
210,334	150,631	-0,159	-0,150
211,348	-8,350	-0,272	-0,126
212,363	284,637	-0,170	-0,213
213,377	129,125	-0,232	-0,205
214,392	-73,952	-0,152	-0,038
215,407	193,516	-0,164	-0,172
216,421	79,368	-0,284	-0,210
217,436	800,000	-0,085	-0,215
218,450	727,847	-0,127	-0,236
219,465	272,767	-0,175	-0,214
220,480	54,261	-0,239	-0,159
221,494	-71,728	-0,179	0,046
222,509	73,216	-0,260	-0,188
223,523	663,495	-0,112	-0,201
224,538	55,598	-0,211	-0,141
225,553	27,266	-0,225	-0,131
226,567	225,615	-0,226	-0,254
227,582	505,070	-0,119	-0,192
228,596	800,000	-0,100	-0,212
229,611	-116,269	-0,161	-0,020
230,626	-146,309	-0,178	0,011
231,640	-5,409	-0,110	-0,052
232,655	335,118	-0,171	-0,229
233,669	387,183	-0,095	-0,136
234,684	183,305	-0,138	-0,141
235,699	24,448	-0,246	-0,140
236,713	-77,455	-0,163	-0,039
237,728	226,005	-0,173	-0,194
238,742	80,374	-0,207	-0,154
239,757	310,446	-0,150	-0,195
240,772	-38,445	-0,180	-0,065
241,786	1,772	-0,096	-0,048
242,801	198,782	-0,078	-0,083
243,815	-17,308	-0,180	-0,078
244,830	158,306	-0,055	-0,053
245,844	-5,136	-0,289	-0,137
246,859	96,004	-0,143	-0,113
247,874	126,410	-0,234	-0,204
248,888	-200,000	-0,046	-0,237
249,903	113,299	-0,161	-0,135
250,917	18,773	-0,162	-0,089
251,932	-142,293	-0,158	-0,011
252,947	-120,990	-0,110	-0,013
253,961	88,363	-0,113	-0,087
254,976	203,778	-0,182	-0,195
255,990	26,959	-0,250	-0,144
257,005	-68,950	-0,211	-0,056
258,020	-200,000	-0,107	-0,332
259,034	65,867	-0,149	-0,104
260,049	17,657	-0,189	-0,104
261,063	-38,723	-0,218	-0,079
262,078	276,401	-0,125	-0,153
263,093	-200,000	-0,268	-0,000
264,107	49,397	-0,191	-0,124
265,122	170,631	-0,067	-0,066
266,136	-117,156	-0,187	-0,023
267,151	-19,903	-0,262	-0,111
268,166	524,344	-0,047	-0,077
269,180	25,290	-0,192	-0,110
270,195	142,482	-0,268	-0,245
271,209	-200,000	-0,031	-0,178
272,224	53,625	-0,163	-0,108
273,239	-128,932	-0,125	0,012
274,253	-130,304	-0,156	-0,014
275,268	-89,739	-0,184	-0,037
276,282	-163,335	-0,174	-0,006
277,297	38,693	-0,174	-0,106
278,312	204,939	-0,186	-0,199
279,326	-200,000	0,000	0,057
280,341	-96,412	-0,106	0,019
281,355	138,717	-0,115	-0,104
282,370	-10,375	-0,199	-0,090
283,384	92,395	-0,177	-0,137
284,399	11,744	-0,185	-0,097
285,414	305,182	-0,116	-0,148
286,428	55,839	-0,136	-0,090
287,443	-35,088	-0,153	-0,057
288,457	-92,523	-0,129	-0,025
289,472	82,571	-0,179	-0,134
290,487	800,000	-0,053	-0,143
291,501	131,446	-0,175	-0,154
292,516	341,892	-0,140	-0,188
293,530	-15,700	-0,118	-0,052
294,545	549,190	-0,046	-0,076
295,560	-98,496	-0,214	-0,037
296,574	18,393	-0,077	-0,042
297,589	158,006	-0,246	-0,235
298,603	800,000	-0,088	-0,215
299,618	800,000	-0,066	-0,145
300,633	289,892	-0,080	-0,100
301,647	378,569	-0,034	-0,048
302,662	-83,619	-0,099	-0,021
303,676	-17,827	-0,185	-0,080
304,691	127,035	-0,145	-0,127
305,706	97,193	-0,184	-0,145
306,720	222,589	-0,102	-0,113
307,735	148,159	0,028	-0,026
308,749	264,130	-0,136	-0,162
309,764	-166,191	-0,142	-0,004
310,779	-141,650	-0,168	0,011
311,793	398,444	-0,112	-0,162
312,808	90,287	-0,086	-0,066
313,822	165,682	-0,168	-0,163
314,837	-200,000	-0,009	-0,176
315,852	-22,159	-0,097	0,040
316,866	87,200	-0,161	-0,122
317,881	19,609	-0,239	-0,132
318,895	45,595	-0,211	-0,133
319,910	229,468	-0,185	-0,208
320,925	-200,000	-0,053	-0,203
321,939	410,369	-0,102	-0,149
322,954	-29,208	-0,043	0,017
323,968	-200,000	0,008	-0,063
324,983	-146,932	-0,200	0,012
325,997	-37,495	-0,117	-0,042
327,012	-18,831	-0,160	-0,068
328,027	267,489	-0,177	-0,213
329,041	-33,121	-0,160	-0,061
330,056	20,065	-0,128	-0,071
331,070	91,110	-0,109	-0,083
332,085	-104,372	-0,187	-0,029
333,100	241,680	-0,070	-0,081
334,114	-35,005	-0,092	-0,034
335,129	110,342	-0,188	-0,155
336,143	28,060	-0,202	-0,116
337,158	664,377	-0,071	-0,125
338,173	-74,572	-0,217	0,053
339,187	-200,000	-0,105	0,000
340,202	-154,668	-0,115	0,005
341,216	230,609	-0,166	-0,186
342,231	372,465	-0,126	-0,176
343,246	230,757	-0,125	-0,141
344,260	17,677	-0,109	-0,059
345,275	105,646	-0,081	-0,066
346,289	-54,039	-0,138	-0,043
347,304	800,000	0,013	-0,033
348,319	-27,836	-0,254	-0,100
349,333	-78,409	-0,181	-0,042
350,348	800,000	-0,093	-0,242
351,362	-115,080	-0,129	0,017
352,377	-80,878	-0,044	-0,010
353,392	-200,000	-0,024	-0,078
354,406	-94,530	-0,326	-0,060
355,421	207,815	1310,283	1399,824
356,435	159,876	1470,433	1400,274
