DTS Sentinel unit serial number:	SN410029Multiplexer serial number:	ORYXHardware model number:	OX2-SRSoftware version number:	ORYX F/W v4,00 Oryx Data Collector v3.7.2.0data status	okinstallation	B3 Nyhavnadifferential loss correction	single-endedforward channel	channel 1reverse channel	N/Adate	2023/12/02time	10:17:30forward acquisition time	300,00reverse acquisition time	0,00gamma	499,1914k internal	0,3196k external	0,3196temperature offset calibration	1,0000default loss term (dB/km)	0,3820temperature slope calibration	1,0000multiplexer offset coefficient	1,0000multiplexer slope coefficient	1,0000fibre end	0,00T internal ref (°C)	14,62T ext. ref 1 (°C)	-1,06T ext. ref 2 (°C)	-1,08length (m)	temperature (°C)	Stokes	anti-Stokes-744,400	116,589	-0,285	-0,255
-743,385	-200,000	0,003	0,264
-742,371	215,943	-0,172	-0,200
-741,356	-200,000	0,080	0,347
-740,342	41,976	-0,231	-0,153
-739,327	800,000	0,132	0,425
-738,312	264,720	-0,236	-0,300
-737,298	-200,000	0,008	0,062
-736,283	239,695	-0,221	-0,269
-735,269	-200,000	0,077	0,296
-734,254	128,376	-0,179	-0,166
-733,239	150,078	-0,108	0,107
-732,225	622,393	-0,091	-0,168
-731,210	174,635	0,076	0,080
-730,196	-200,000	0,000	-0,086
-729,181	183,845	0,100	-0,108
-728,167	239,232	-0,062	-0,075
-727,152	800,000	0,024	-0,056
-726,137	157,898	-0,042	-0,042
-725,123	119,185	-0,086	0,078
-724,108	-200,000	0,002	-0,089
-723,094	63,189	-0,082	-0,060
-722,079	257,386	-0,033	0,042
-721,064	-200,000	-0,007	-0,029
-720,050	-200,000	-0,025	0,080
-719,035	-1,052	0,048	-0,025
-718,021	-43,821	-0,052	0,019
-717,006	800,000	-0,050	-0,109
-715,991	7,564	-0,107	-0,058
-714,977	800,000	0,088	-0,203
-713,962	-116,017	-0,135	0,018
-712,948	-200,000	0,001	0,019
-711,933	601,218	0,045	0,082
-710,918	800,000	0,020	-0,056
-709,904	800,000	0,072	-0,202
-708,889	-156,951	-0,205	-0,009
-707,875	65,295	-0,152	-0,111
-706,860	-200,000	-0,007	-0,054
-705,845	222,218	0,013	-0,015
-704,831	-200,000	0,007	0,047
-703,816	-132,504	0,064	-0,006
-702,802	-200,000	0,027	-0,095
-701,787	-30,183	-0,103	-0,043
-700,772	-200,000	-0,001	-0,127
-699,758	310,306	0,012	-0,017
-698,743	800,000	0,056	0,122
-697,729	68,925	0,012	-0,009
-696,714	-45,865	-0,090	0,032
-695,699	-200,000	0,013	-0,064
-694,685	-200,000	-0,007	-0,088
-693,670	397,805	-0,024	-0,036
-692,656	-46,042	-0,052	0,018
-691,641	-113,739	-0,037	0,005
-690,627	-200,000	0,022	0,119
-689,612	248,553	0,048	0,059
-688,597	-200,000	-0,003	0,071
-687,583	-43,270	0,061	-0,022
-686,568	-164,372	-0,034	-0,001
-685,554	800,000	0,058	-0,122
-684,539	-85,610	0,048	0,011
-683,524	-200,000	-0,003	-0,105
-682,510	-62,460	0,114	-0,034
-681,495	-64,823	-0,117	0,034
-680,481	-38,638	-0,121	-0,046
-679,466	-16,478	0,053	0,024
-678,451	800,000	-0,030	0,085
-677,437	-110,027	-0,201	-0,030
-676,422	-111,694	0,208	-0,030
-675,408	-200,000	-0,015	-0,074
-674,393	-200,000	-0,003	-0,063
-673,378	282,257	-0,101	-0,131
-672,364	22,175	-0,107	-0,063
-671,349	177,573	0,030	0,031
-670,335	583,818	0,036	-0,065
-669,320	47,294	0,030	-0,020
-668,305	120,125	0,044	-0,040
-667,291	182,907	-0,050	0,054
-666,276	130,326	-0,038	0,036
-665,262	-200,000	0,005	-0,081
-664,247	-127,702	-0,212	-0,022
-663,232	-17,828	-0,058	-0,026
-662,218	800,000	-0,023	0,056
-661,203	800,000	0,007	-0,019
-660,189	196,960	-0,095	-0,106
-659,174	-135,267	-0,072	0,006
-658,159	800,000	-0,025	-0,053
-657,145	65,929	-0,124	-0,091
-656,130	16,394	-0,103	-0,059
-655,116	775,169	0,005	0,011
-654,101	-130,906	0,124	0,012
-653,086	-147,583	0,032	0,002
-652,072	-200,000	-0,004	0,056
-651,057	800,000	-0,049	-0,132
-650,043	-6,735	-0,039	0,019
-649,028	323,342	0,051	0,071
-648,014	134,529	0,008	-0,008
-646,999	-200,000	0,023	-0,091
-645,984	-53,766	0,097	0,032
-644,970	-113,779	0,072	-0,010
-643,955	762,846	0,012	0,024
-642,941	800,000	-0,023	-0,065
-641,926	65,665	-0,030	0,022
-640,911	1,585	0,060	-0,031
-639,897	-200,000	-0,036	0,140
-638,882	136,750	-0,046	-0,044
-637,868	319,560	-0,065	-0,090
-636,853	-26,703	-0,085	-0,036
-635,838	-15,964	0,168	0,077
-634,824	-200,000	0,001	-0,031
-633,809	-200,000	0,001	-0,016
-632,795	-115,385	0,062	0,008
-631,780	-200,000	-0,009	0,146
-630,765	-200,000	0,010	0,062
-629,751	119,475	-0,032	0,029
-628,736	-200,000	-0,017	0,081
-627,722	-7,429	0,085	0,042
-626,707	45,956	0,109	0,073
-625,692	800,000	-0,025	0,052
-624,678	146,355	-0,114	-0,111
-623,663	185,204	-0,095	-0,102
-622,649	-71,488	-0,083	0,022
-621,634	295,212	0,076	-0,101
-620,619	209,033	0,032	-0,037
-619,605	-23,083	-0,187	-0,081
-618,590	20,192	-0,061	0,036
-617,576	125,152	-0,047	0,043
-616,561	-125,777	-0,063	0,007
-615,546	294,180	-0,132	-0,175
-614,532	-149,293	-0,122	0,007
-613,517	43,007	0,020	-0,013
-612,503	800,000	-0,012	-0,032
-611,488	-12,776	0,092	-0,043
-610,474	-86,633	-0,039	0,009
-609,459	-154,096	0,056	-0,003
-608,444	-200,000	-0,030	0,173
-607,430	18,470	-0,193	-0,112
-606,415	-51,103	-0,068	-0,023
-605,401	-200,000	-0,005	-0,036
-604,386	80,245	0,073	0,057
-603,371	629,257	-0,084	0,155
-602,357	-200,000	-0,006	0,036
-601,342	-200,000	0,029	0,095
-600,328	32,940	-0,109	-0,068
-599,313	-29,471	0,061	-0,025
-598,298	60,851	-0,065	0,047
-597,284	341,301	0,090	0,127
-596,269	43,248	-0,099	-0,065
-595,255	-25,140	-0,110	0,047
-594,240	108,233	-0,031	0,027
-593,225	790,887	-0,041	0,082
-592,211	800,000	-0,046	-0,118
-591,196	42,550	0,157	-0,103
-590,182	-42,147	0,016	-0,006
-589,167	134,415	0,100	-0,094
-588,152	242,817	0,065	-0,079
-587,138	800,000	0,024	0,058
-586,123	-200,000	-0,053	-0,205
-585,109	-200,000	0,040	-0,158
-584,094	-57,549	-0,045	0,014
-583,079	122,027	0,035	0,031
-582,065	111,369	0,077	0,067
-581,050	57,347	0,031	-0,022
-580,036	-54,935	-0,093	0,030
-579,021	73,090	-0,090	-0,068
-578,006	74,938	0,024	-0,018
-576,992	170,924	-0,092	-0,096
-575,977	285,994	0,039	0,051
-574,963	40,612	-0,063	-0,041
-573,948	69,959	-0,150	0,112
-572,934	632,580	-0,017	-0,032
-571,919	-89,933	0,077	-0,016
-570,904	-200,000	-0,019	-0,128
-569,890	134,593	-0,075	-0,070
-568,875	98,068	0,047	-0,039
-567,861	74,553	-0,088	-0,067
-566,846	800,000	-0,014	0,032
-565,831	800,000	-0,047	-0,106
-564,817	208,167	-0,074	0,084
-563,802	800,000	-0,047	-0,141
-562,788	144,015	-0,038	-0,037
-561,773	-4,919	0,128	-0,063
-560,758	-200,000	-0,001	0,034
-559,744	-91,339	-0,014	-0,003
-558,729	-31,044	-0,014	-0,006
-557,715	540,417	0,055	0,095
-556,700	709,784	0,028	-0,053
-555,685	-15,047	0,100	-0,046
-554,671	-13,292	-0,020	-0,009
-553,656	171,281	-0,055	-0,058
-552,642	19,596	0,143	0,083
-551,627	-200,000	0,008	-0,074
-550,612	-200,000	0,010	0,041
-549,598	-200,000	-0,016	0,121
-548,583	226,950	-0,034	0,040
-547,569	-200,000	0,013	-0,096
-546,554	-64,433	-0,063	-0,018
-545,539	545,387	-0,104	0,181
-544,525	329,563	-0,068	0,094
-543,510	-200,000	-0,014	0,049
-542,496	800,000	-0,073	-0,163
-541,481	-200,000	0,002	-0,125
-540,466	217,650	0,049	-0,056
-539,452	800,000	-0,031	0,091
-538,437	-200,000	-0,001	-0,068
-537,423	214,801	0,104	-0,120
-536,408	800,000	-0,056	-0,121
-535,393	193,161	-0,087	0,096
-534,379	-200,000	-0,008	-0,063
-533,364	-9,079	0,052	0,025
-532,350	-27,788	-0,066	-0,027
-531,335	-200,000	-0,022	0,137
-530,321	51,125	0,097	0,066
-529,306	-39,984	-0,075	-0,028
-528,291	-200,000	-0,044	-0,157
-527,277	187,671	-0,091	-0,098
-526,262	-200,000	0,037	-0,150
-525,248	-40,683	-0,114	-0,042
-524,233	-30,008	-0,031	0,013
-523,218	-79,245	-0,130	0,032
-522,204	-79,944	-0,148	0,036
-521,189	800,000	0,039	0,095
-520,175	-200,000	-0,009	-0,049
-519,160	451,040	-0,054	-0,087
-518,145	183,465	-0,154	-0,165
-517,131	800,000	-0,019	0,044
-516,116	167,939	0,083	-0,085
-515,102	246,511	0,037	-0,045
-514,087	-153,088	-0,058	0,003
-513,072	192,147	-0,130	-0,142
-512,058	-200,000	-0,010	-0,089
-511,043	57,562	0,050	-0,035
-510,029	-200,000	0,021	-0,068
-509,014	100,680	0,059	0,050
-507,999	-200,000	-0,010	0,093
-506,985	267,044	0,054	-0,069
-505,970	640,596	-0,013	-0,024
-504,956	15,289	0,104	0,059
-503,941	95,228	0,116	-0,095
-502,926	279,420	-0,013	0,017
-501,912	-200,000	0,039	0,124
-500,897	-82,306	0,143	-0,033
-499,883	-57,785	-0,068	0,021
-498,868	-123,874	-0,199	-0,022
-497,853	38,177	-0,079	-0,051
-496,839	-200,000	-0,003	0,019
-495,824	121,678	0,152	-0,137
-494,810	-28,145	0,079	0,033
-493,795	-200,000	0,006	0,046
-492,781	-55,729	-0,116	0,037
-491,766	-200,000	0,000	-0,030
-490,751	446,100	-0,008	0,013
-489,737	234,384	0,072	-0,085
-488,722	11,828	0,076	-0,042
-487,708	-200,000	-0,000	-0,140
-486,693	39,582	0,032	0,021
-485,678	269,313	0,065	-0,082
-484,664	255,626	0,016	0,019
-483,649	-200,000	0,016	0,063
-482,635	-134,100	-0,059	-0,005
-481,620	21,676	-0,066	0,039
-480,605	-118,068	0,023	0,003
-479,591	800,000	-0,020	0,046
-478,576	327,018	0,052	0,073
-477,562	-110,115	-0,037	-0,006
-476,547	393,263	-0,071	0,107
-475,532	37,637	0,122	0,078
-474,518	14,091	-0,140	0,078
-473,503	-108,751	0,119	0,018
-472,489	168,820	0,077	0,079
-471,474	173,905	-0,025	-0,026
-470,459	731,232	-0,044	0,086
-469,445	-200,000	-0,039	-0,128
-468,430	-9,937	0,094	-0,045
-467,416	800,000	0,026	0,074
-466,401	795,393	-0,066	-0,132
-465,386	80,489	0,031	-0,024
-464,372	-200,000	-0,018	-0,063
-463,357	-200,000	-0,031	0,119
-462,343	99,192	-0,034	-0,028
-461,328	-13,673	0,009	0,004
-460,313	297,249	-0,056	0,074
-459,299	-46,119	0,129	0,045
-458,284	212,829	-0,073	-0,083
-457,270	-32,704	0,028	-0,011
-456,255	-22,949	-0,030	-0,013
-455,241	-100,104	-0,179	0,032
-454,226	131,449	-0,028	-0,026
-453,211	259,886	-0,050	-0,062
-452,197	-95,959	0,077	0,015
-451,182	-97,733	0,076	-0,014
-450,168	129,496	0,023	-0,021
-449,153	-24,570	0,103	-0,044
-448,138	52,703	0,053	-0,036
-447,124	662,635	-0,048	-0,089
-446,109	-46,047	0,129	0,046
-445,095	210,141	0,128	0,145
-444,080	-195,180	-0,080	-0,000
-443,065	-64,734	-0,027	0,008
-442,051	-200,000	-0,008	0,173
-441,036	-124,634	0,046	-0,005
-440,022	-136,992	-0,145	0,012
-439,007	-56,785	-0,153	0,048
-437,992	-200,000	0,006	-0,036
-436,978	-137,884	0,150	-0,012
-435,963	195,850	0,113	0,123
-434,949	-96,022	-0,094	-0,018
-433,934	-200,000	-0,026	-0,086
-432,919	-68,227	-0,026	0,007
-431,905	-200,000	0,019	-0,077
-430,890	-12,295	-0,026	-0,012
-429,876	-110,929	0,134	0,020
-428,861	800,000	0,032	0,081
-427,846	130,063	-0,041	0,038
-426,832	172,234	0,013	0,013
-425,817	32,041	-0,092	-0,057
-424,803	73,387	0,107	-0,080
-423,788	295,907	0,062	0,081
-422,773	800,000	0,061	0,140
-421,759	-44,351	0,058	0,021
-420,744	550,683	-0,029	0,050
-419,730	6,619	0,083	-0,044
-418,715	544,893	0,061	-0,104
-417,701	-200,000	0,016	-0,080
-416,686	47,512	0,158	0,106
-415,671	-13,453	-0,097	0,045
-414,657	-141,146	-0,099	-0,007
-413,642	-26,629	0,122	0,051
-412,628	-67,177	0,026	0,007
-411,613	79,114	-0,078	0,060
-410,598	80,755	0,073	0,056
-409,584	-6,946	0,065	-0,032
-408,569	-200,000	-0,041	-0,206
-407,555	-9,483	0,114	0,055
-406,540	589,223	-0,050	0,090
-405,525	800,000	0,070	-0,152
-404,511	-200,000	-0,007	-0,057
-403,496	88,428	0,060	-0,048
-402,482	-117,636	0,027	0,003
-401,467	382,631	0,072	-0,107
-400,452	-200,000	-0,027	0,201
-399,438	-200,000	0,007	0,029
-398,423	800,000	-0,033	0,093
-397,409	-200,000	0,001	-0,132
-396,394	-139,774	-0,163	-0,012
-395,379	138,632	0,173	-0,164
-394,365	-86,266	0,143	-0,031
-393,350	-200,000	0,026	0,127
-392,336	256,579	0,069	0,085
-391,321	800,000	0,042	-0,085
-390,306	594,774	-0,078	-0,138
-389,292	103,655	-0,114	-0,096
-388,277	-171,045	0,067	0,002
-387,263	-131,187	-0,002	-0,000
-386,248	800,000	-0,026	0,077
-385,233	-200,000	0,007	-0,072
-384,219	800,000	-0,085	0,181
-383,204	-65,713	-0,106	-0,030
-382,190	-116,901	0,041	0,005
-381,175	135,116	-0,092	-0,086
-380,160	-89,592	-0,102	-0,021
-379,146	-51,578	0,017	-0,006
-378,131	-51,884	0,033	0,011
-377,117	-63,026	0,137	0,041
-376,102	-172,713	-0,128	-0,003
-375,088	9,600	0,179	-0,097
-374,073	256,954	-0,058	0,072
-373,058	-68,951	0,101	0,028
-372,044	-27,208	-0,033	0,014
-371,029	-150,232	-0,131	0,007
-370,015	800,000	0,053	-0,120
-369,000	-200,000	-0,009	0,057
-367,985	-200,000	-0,013	-0,125
-366,971	-200,000	-0,015	0,195
-365,956	800,000	-0,008	-0,015
-364,942	-200,000	-0,001	-0,124
-363,927	-1,631	0,175	0,088
-362,912	-200,000	0,038	0,144
-361,898	-200,000	-0,012	0,137
-360,883	-200,000	-0,006	-0,104
-359,869	-145,064	-0,060	0,004
-358,854	54,329	0,041	0,029
-357,839	124,647	0,040	-0,036
-356,825	800,000	0,039	0,118
-355,810	333,678	0,057	0,079
-354,796	-200,000	0,013	0,053
-353,781	273,831	-0,096	-0,123
-352,766	49,250	-0,132	0,089
-351,752	-94,193	0,058	0,011
-350,737	252,170	0,022	0,027
-349,723	108,500	0,085	-0,072
-348,708	250,583	0,082	-0,100
-347,693	-107,395	0,094	-0,015
-346,679	800,000	-0,009	-0,020
-345,664	800,000	-0,031	-0,089
-344,650	800,000	0,035	0,071
-343,635	493,860	-0,020	-0,034
-342,620	260,823	-0,011	0,014
-341,606	-45,560	0,109	0,038
-340,591	456,389	-0,079	-0,126
-339,577	-74,213	-0,214	-0,055
-338,562	-200,000	0,006	-0,036
-337,548	-200,000	-0,008	0,051
-336,533	431,143	0,033	-0,051
-335,518	37,879	0,171	-0,109
-334,504	-200,000	0,000	0,012
-333,489	-124,792	0,028	0,003
-332,475	-200,000	-0,063	-0,239
-331,460	-7,570	-0,042	-0,020
-330,445	-92,015	-0,139	0,028
-329,431	276,813	0,069	0,088
-328,416	-200,000	-0,009	0,150
-327,402	257,802	-0,055	0,068
-326,387	800,000	-0,034	-0,104
-325,372	236,212	-0,036	-0,042
-324,358	776,295	-0,020	0,040
-323,343	8,105	-0,084	0,045
-322,329	-79,791	-0,037	-0,009
-321,314	196,600	0,093	-0,102
-320,299	99,902	-0,077	0,064
-319,285	90,664	-0,087	0,069
-318,270	800,000	0,020	-0,054
-317,256	197,363	0,053	-0,058
-316,241	-200,000	-0,003	-0,017
-315,226	-117,788	-0,017	-0,002
-314,212	403,153	0,040	0,061
-313,197	800,000	-0,046	-0,105
-312,183	505,041	0,084	0,140
-311,168	-8,302	0,087	0,042
-310,153	800,000	0,065	0,142
-309,139	-5,154	-0,203	-0,100
-308,124	-121,086	0,026	0,003
-307,110	-200,000	-0,002	0,009
-306,095	-20,048	0,050	-0,022
-305,080	202,264	0,088	0,097
-304,066	333,556	0,019	-0,026
-303,051	74,298	-0,113	0,085
-302,037	800,000	-0,013	0,031
-301,022	83,666	0,087	0,068
-300,008	-70,495	0,089	0,024
-298,993	-200,000	0,049	0,183
-297,978	-5,730	0,024	-0,012
-296,964	-81,593	0,055	-0,013
-295,949	-179,171	-0,063	0,001
-294,935	203,855	-0,070	-0,077
-293,920	-28,934	0,086	0,035
-292,905	85,108	0,034	-0,027
-291,891	-200,000	-0,020	0,097
-290,876	-188,393	0,122	0,001
-289,862	-7,657	-0,054	0,026
-288,847	84,494	0,085	0,067
-287,832	-200,000	0,010	-0,058
-286,818	800,000	0,012	-0,029
-285,803	77,721	0,131	0,100
-284,789	10,808	-0,048	0,026
-283,774	174,886	0,186	0,193
-282,759	490,530	0,027	0,044
-281,745	-95,899	-0,072	-0,014
-280,730	-200,000	-0,135	-0,000
-279,716	68,047	-0,088	0,065
-278,701	-105,775	-0,085	0,014
-277,686	14,631	0,042	-0,024
-276,672	-135,535	-0,040	0,003
-275,657	-200,000	-0,012	-0,098
-274,643	-95,528	0,068	0,013
-273,628	-22,382	-0,092	-0,040
-272,613	-74,995	-0,057	0,014
-271,599	800,000	0,055	0,122
-270,584	646,456	0,041	0,076
-269,570	800,000	-0,031	0,071
-268,555	465,270	-0,041	0,066
-267,540	152,554	-0,073	-0,071
-266,526	-27,041	-0,073	-0,030
-265,511	100,018	0,112	0,093
-264,497	544,314	-0,038	-0,064
-263,482	260,813	-0,017	-0,021
-262,467	184,784	0,168	0,178
-261,453	800,000	0,028	0,077
-260,438	800,000	-0,018	-0,055
-259,424	219,837	-0,078	-0,089
-258,409	800,000	0,068	0,177
-257,395	-60,240	0,066	-0,020
-256,380	-200,000	-0,018	0,148
-255,365	248,826	0,032	0,039
-254,351	167,469	0,035	0,035
-253,336	-133,501	-0,025	0,002
-252,322	-51,002	-0,029	0,010
-251,307	-57,230	0,062	-0,020
-250,292	152,896	-0,080	0,078
-249,278	-22,251	0,143	0,062
-248,263	197,548	0,121	0,132
-247,249	-200,000	0,009	-0,117
-246,234	-200,000	0,020	-0,068
-245,219	97,385	-0,086	-0,070
-244,205	192,715	0,024	-0,025
-243,190	117,176	-0,094	0,082
-242,176	73,642	0,083	-0,062
-241,161	5,269	0,024	-0,013
-240,146	22,889	0,053	-0,031
-239,132	-200,000	-0,030	-0,097
-238,117	146,128	0,033	0,032
-237,103	-76,839	-0,155	-0,038
-236,088	118,884	0,067	0,059
-235,073	-200,000	-0,003	0,080
-234,059	60,331	0,162	0,114
-233,044	-200,000	-0,030	0,097
-232,030	-82,623	-0,087	-0,020
-231,015	-200,000	0,007	0,041
-230,000	226,441	-0,038	-0,044
-228,986	293,389	-0,059	0,077
-227,971	-82,067	0,058	-0,013
-226,957	-200,000	0,008	0,032
-225,942	-200,000	-0,020	0,100
-224,927	-193,361	0,055	0,000
-223,913	420,537	-0,078	-0,120
-222,898	71,886	-0,075	0,056
-221,884	110,005	-0,052	0,044
-220,869	-17,996	-0,057	0,026
-219,855	610,438	0,065	-0,116
-218,840	800,000	0,054	-0,113
-217,825	-29,713	0,094	-0,038
-216,811	210,613	-0,046	-0,052
-215,796	-31,962	-0,102	-0,041
-214,782	31,596	0,090	0,055
-213,767	198,706	0,104	0,114
-212,752	448,023	0,048	0,075
-211,738	-153,476	0,057	0,003
-210,723	-200,000	-0,010	-0,052
-209,709	-200,000	-0,050	-0,197
-208,694	-160,052	0,108	0,004
-207,679	-10,546	-0,025	0,012
-206,665	111,591	-0,023	-0,020
-205,650	800,000	0,031	0,067
-204,636	-11,329	0,035	-0,017
-203,621	296,666	-0,064	0,084
-202,606	15,201	-0,140	-0,078
-201,592	63,142	-0,195	-0,139
-200,577	-18,523	0,099	0,044
-199,563	-200,000	-0,003	0,024
-198,548	-120,070	0,064	0,008
-197,533	-200,000	0,011	0,109
-196,519	-24,561	-0,037	-0,016
-195,504	-55,581	0,030	0,009
-194,490	-67,145	-0,117	0,033
-193,475	800,000	0,062	-0,190
-192,460	-55,437	0,109	-0,035
-191,446	647,203	0,019	0,035
-190,431	192,622	-0,091	0,099
-189,417	453,823	-0,027	0,042
-188,402	-2,672	0,091	-0,045
-187,387	231,749	-0,077	0,091
-186,373	305,500	0,051	-0,068
-185,358	69,411	0,061	0,044
-184,344	-200,000	0,006	0,052
-183,329	-200,000	0,016	0,093
-182,315	-71,706	0,069	-0,018
-181,300	74,683	-0,023	0,018
-180,285	-143,544	0,066	0,004
-179,271	-200,000	-0,041	0,132
-178,256	-6,953	0,035	0,017
-177,242	-122,980	0,177	-0,020
-176,227	146,783	-0,080	0,077
-175,212	-9,669	-0,065	0,031
-174,198	-163,044	0,144	0,005
-173,183	329,013	-0,065	-0,090
-172,169	-200,000	-0,041	-0,131
-171,154	-117,341	-0,139	-0,018
-170,139	800,000	-0,084	0,200
-169,125	399,460	-0,009	0,014
-168,110	42,726	0,026	-0,017
-167,096	9,854	-0,097	-0,052
-166,081	-25,828	0,032	-0,013
-165,066	-200,000	0,002	0,087
-164,052	-67,073	-0,130	-0,036
-163,037	142,662	-0,027	-0,025
-162,023	-123,076	0,133	-0,015
-161,008	-200,000	-0,022	-0,068
-159,993	-0,168	0,070	0,035
-158,979	366,314	-0,055	-0,079
-157,964	-8,267	-0,083	-0,039
-156,950	-200,000	0,012	0,089
-155,935	800,000	0,045	-0,113
-154,920	-200,000	0,007	0,045
-153,906	-92,802	0,084	-0,017
-152,891	800,000	0,029	-0,062
-151,877	701,820	0,051	-0,095
-150,862	-200,000	-0,015	-0,094
-149,847	-68,201	-0,068	0,019
-148,833	304,574	0,024	0,031
-147,818	297,653	-0,038	-0,050
-146,804	507,531	0,043	-0,071
-145,789	77,363	-0,025	-0,019
-144,775	-26,564	0,048	-0,020
-143,760	-99,585	-0,065	0,011
-142,745	-98,622	0,048	-0,009
-141,731	800,000	0,046	-0,113
-140,716	-200,000	0,015	-0,125
-139,702	-200,000	0,012	0,081
-138,687	800,000	0,025	0,067
-137,672	-140,930	-0,138	-0,010
-136,658	-163,841	-0,062	0,002
-135,643	198,476	0,076	-0,083
-134,629	-200,000	0,033	-0,236
-133,614	-57,672	-0,018	0,006
-132,599	-179,676	-0,087	-0,001
-131,585	135,186	-0,068	-0,063
-130,570	-200,000	0,001	-0,036
-129,556	409,452	0,033	0,050
-128,541	144,880	-0,012	-0,011
-127,526	-53,907	-0,172	-0,055
-126,512	-136,541	0,198	0,016
-125,497	785,537	0,020	0,039
-124,483	-200,000	0,002	-0,026
-123,468	187,921	0,086	-0,091
-122,453	136,589	-0,062	-0,058
-121,439	-117,363	-0,009	0,001
-120,424	99,328	0,086	-0,070
-119,410	800,000	0,016	-0,039
-118,395	-42,040	0,099	-0,036
-117,380	415,239	0,051	0,078
-116,366	-86,697	-0,108	0,023
-115,351	-125,963	-0,099	0,010
-114,337	144,664	-0,128	-0,122
-113,322	261,322	0,118	-0,145
-112,307	-63,304	-0,046	0,013
-111,293	800,000	0,026	0,052
-110,278	555,306	0,040	0,069
-109,264	-38,115	0,043	0,016
-108,249	184,668	-0,047	-0,050
-107,234	-67,226	0,069	-0,019
-106,220	200,627	-0,108	-0,118
-105,205	-43,499	0,123	0,044
-104,191	125,663	0,059	0,053
-103,176	118,199	-0,094	0,083
-102,162	800,000	0,043	-0,107
-101,147	-46,102	0,113	-0,039
-100,132	800,000	-0,036	-0,073
-99,118	188,723	0,052	-0,056
-98,103	-162,703	0,082	0,003
-97,089	-200,000	0,007	-0,055
-96,074	-172,986	0,105	0,002
-95,059	136,128	0,061	0,056
-94,045	800,000	-0,031	-0,069
-93,030	-200,000	-0,034	-0,157
-92,016	136,597	0,081	-0,075
-91,001	558,777	0,017	-0,030
-89,986	800,000	0,037	0,100
-88,972	800,000	0,056	0,117
-87,957	63,840	0,078	0,056
-86,943	-153,769	-0,054	-0,003
-85,928	-200,000	0,025	0,097
-84,913	-2,255	-0,107	0,053
-83,899	-200,000	0,010	0,082
-82,884	-200,000	-0,007	0,050
-81,870	405,273	0,061	0,092
-80,855	-103,673	-0,083	0,014
-79,840	14,953	0,145	0,080
-78,826	-200,000	-0,018	-0,083
-77,811	800,000	-0,040	0,085
-76,797	84,500	0,083	-0,065
-75,782	-200,000	0,000	-0,163
-74,767	-93,131	0,149	0,029
-73,753	-200,000	0,015	0,089
-72,738	-200,000	0,045	0,232
-71,724	107,518	-0,090	0,076
-70,709	269,325	-0,129	-0,162
-69,694	288,514	0,083	-0,107
-68,680	-200,000	-0,003	0,107
-67,665	800,000	0,031	0,091
-66,651	-123,896	0,245	-0,027
-65,636	140,027	0,067	0,063
-64,622	131,794	-0,045	0,041
-63,607	193,131	-0,039	-0,042
-62,592	-58,107	-0,078	-0,024
-61,578	-168,336	0,068	0,002
-60,563	-200,000	0,013	0,060
-59,549	-200,000	-0,001	-0,029
-58,534	-39,927	-1,548	-0,570
-57,519	394,855	-1,376	-2,041
-56,505	-200,000	-0,625	-4,494
-55,490	202,624	0,845	0,927
-54,476	800,000	4,952	11,416
-53,461	-200,000	18,390	295,073
-52,446	800,000	731,353	2252,358
-51,432	558,763	1647,161	2829,725
-50,417	78,819	1666,469	1263,091
-49,403	22,536	1539,720	890,878
-48,388	16,494	1462,787	817,045
-47,373	17,881	1452,871	818,167
-46,359	17,122	1443,169	809,036
-45,344	14,756	1438,520	795,077
-44,330	14,717	1436,675	793,841
-43,315	14,695	1434,851	792,699
-42,300	14,766	1433,218	792,103
-41,286	14,780	1432,081	791,507
-40,271	14,731	1430,787	790,531
-39,257	14,673	1429,608	789,571
-38,242	14,759	1428,107	789,118
-37,227	14,757	1426,868	788,393
-36,213	14,748	1425,812	787,734
-35,198	14,714	1424,746	786,952
-34,184	14,730	1423,684	786,412
-33,169	14,706	1422,325	785,518
-32,154	14,737	1421,330	785,084
-31,140	14,692	1420,130	784,178
-30,125	14,791	1419,003	783,988
-29,111	14,749	1417,850	783,122
-28,096	14,736	1416,593	782,339
-27,082	14,727	1415,610	781,722
-26,067	14,678	1414,536	780,866
-25,052	14,648	1413,535	780,142
-24,038	14,592	1412,835	779,460
-23,023	14,638	1411,404	778,856
-22,009	14,595	1410,559	778,160
-20,994	14,592	1409,607	777,588
-19,979	14,591	1408,729	777,069
-18,965	14,574	1407,773	776,431
-17,950	14,577	1406,770	775,859
-16,936	14,587	1405,780	775,331
-15,921	14,561	1404,598	774,525
-14,906	14,543	1403,997	774,082
-13,892	14,572	1402,992	773,631
-12,877	14,533	1402,002	772,871
-11,863	14,557	1401,218	772,521
-10,848	14,568	1400,216	771,990
-9,833	14,517	1399,218	771,170
-8,819	14,489	1398,447	770,584
-7,804	14,486	1397,344	769,934
-6,790	14,510	1396,320	769,450
-5,775	14,471	1395,431	768,750
-4,760	14,476	1394,469	768,209
-3,746	14,440	1393,943	767,722
-2,731	14,470	1392,900	767,256
-1,717	14,456	1392,073	766,707
-0,702	14,457	1390,301	765,703
0,313	18,217	1308,620	738,159
1,327	34,536	705,452	435,741
2,342	52,992	124,029	83,969
3,356	0,813	16,664	8,428
4,371	11,838	3,152	1,710
5,386	-29,606	0,517	0,208
6,400	187,909	-0,076	0,081
7,415	141,817	-0,175	-0,164
8,429	-8,961	-0,358	-0,169
9,444	800,000	-0,174	-0,368
10,459	5,294	-0,377	-0,196
11,473	167,177	-0,348	-0,350
12,488	58,423	-0,246	-0,171
13,502	238,387	-0,290	-0,341
14,517	169,527	-0,209	-0,212
15,531	118,466	-0,352	-0,307
16,546	18,613	-0,318	-0,179
17,561	23,632	-0,399	-0,232
18,575	-59,674	-0,108	0,032
19,590	299,859	-0,264	-0,345
20,604	197,811	-0,178	-0,192
21,619	208,584	-0,343	-0,380
22,634	97,879	-0,417	-0,339
23,648	141,906	-0,422	-0,396
24,663	136,147	-0,367	-0,339
25,677	35,120	-0,331	-0,205
26,692	96,937	-0,350	-0,284
27,707	67,436	-0,255	-0,184
28,721	208,492	-0,352	-0,389
29,736	1,763	-0,308	-0,156
30,750	83,324	-0,345	-0,265
31,765	155,469	-0,400	-0,390
32,780	35,736	-0,447	-0,277
33,794	-16,564	-0,417	-0,186
34,809	82,565	-0,354	-0,271
35,823	206,035	-0,338	-0,372
36,838	67,608	-0,384	-0,277
37,853	110,160	-0,408	-0,346
38,867	35,669	-0,237	-0,147
39,882	-45,795	-0,361	-0,125
40,896	166,488	-0,346	-0,346
41,911	-26,918	-0,392	-0,161
42,926	-46,279	-0,393	-0,136
43,940	10,357	-0,429	-0,230
44,955	231,006	-0,290	-0,336
45,969	-29,090	-0,455	-0,184
46,984	196,631	-0,184	-0,198
47,999	187,253	-0,305	-0,321
49,013	221,579	-0,252	-0,286
50,028	-8,320	-0,410	-0,194
51,042	116,359	-0,296	-0,256
52,057	50,856	-0,320	-0,214
53,071	-10,378	-0,324	-0,151
54,086	303,470	-0,246	-0,322
55,101	2,269	-0,370	-0,188
56,115	139,735	-0,327	-0,304
57,130	71,875	-0,235	-0,172
58,144	47,759	-0,402	-0,264
59,159	212,607	-0,391	-0,435
60,174	139,702	-0,337	-0,313
61,188	47,204	-0,325	-0,213
62,203	240,427	-0,265	-0,312
63,217	110,938	-0,272	-0,231
64,232	-51,988	-0,338	-0,110
65,247	24,963	-0,272	-0,159
66,261	50,676	-0,427	-0,284
67,276	-14,635	-0,383	-0,173
68,290	149,130	-0,281	-0,268
69,305	66,780	-0,267	-0,191
70,320	-2,624	-0,374	-0,184
71,334	119,029	-0,326	-0,284
72,349	-4,368	-0,229	-0,111
73,363	101,943	-0,233	-0,191
74,378	-32,067	-0,378	-0,148
75,393	88,550	-0,352	-0,275
76,407	102,854	-0,275	-0,227
77,422	64,261	-0,351	-0,249
78,436	40,802	-0,249	-0,158
79,451	98,520	-0,193	-0,156
80,466	17,346	-0,322	-0,180
81,480	93,285	-0,323	-0,257
82,495	175,702	-0,340	-0,347
83,509	44,954	-0,294	-0,190
84,524	10,364	-0,246	-0,131
85,539	103,945	-0,267	-0,220
86,553	-13,706	-0,335	-0,152
87,568	-52,942	-0,327	-0,105
88,582	59,590	-0,321	-0,222
89,597	36,345	-0,344	-0,213
90,611	170,919	-0,258	-0,260
91,626	174,687	-0,161	-0,164
92,641	57,744	-0,186	-0,127
93,655	124,479	-0,297	-0,262
94,670	-4,830	-0,319	-0,154
95,684	162,487	-0,338	-0,334
96,699	212,959	-0,279	-0,309
97,714	21,232	-0,223	-0,127
98,728	34,418	-0,235	-0,144
99,743	63,598	-0,270	-0,190
100,757	-137,036	-0,299	-0,024
101,772	23,263	-0,316	-0,182
102,787	800,000	-0,166	-0,355
103,801	546,104	-0,173	-0,291
104,816	162,447	-0,112	-0,111
105,830	-34,566	-0,392	-0,150
106,845	-47,300	-0,278	-0,094
107,860	145,820	-0,177	-0,166
108,874	-12,266	-0,336	-0,154
109,889	65,081	-0,347	-0,246
110,903	15,091	-0,335	-0,183
111,918	114,346	-0,112	-0,096
112,933	39,705	-0,253	-0,159
113,947	-82,647	-0,243	-0,055
114,962	87,827	-0,201	-0,156
115,976	25,312	-0,262	-0,152
116,991	32,011	-0,322	-0,194
118,006	79,771	-0,207	-0,156
119,020	457,201	-0,166	-0,260
120,035	-37,565	-0,275	-0,102
121,049	224,211	-0,184	-0,209
122,064	82,013	-0,238	-0,181
123,079	127,390	-0,351	-0,312
124,093	93,279	-0,278	-0,221
125,108	25,594	-0,248	-0,144
126,122	207,386	-0,277	-0,303
127,137	-38,897	-0,153	-0,056
128,151	62,381	-0,242	-0,169
129,166	73,600	-0,229	-0,168
130,181	17,834	-0,262	-0,146
131,195	88,752	-0,326	-0,254
132,210	177,005	-0,259	-0,264
133,224	-117,012	-0,237	-0,030
134,239	126,661	-0,111	-0,098
135,254	507,950	-0,155	-0,252
136,268	-79,573	-0,266	-0,062
137,283	-84,996	-0,342	-0,075
138,297	49,447	-0,305	-0,201
139,312	137,918	-0,264	-0,243
140,327	290,995	-0,210	-0,268
141,341	91,024	-0,229	-0,180
142,356	38,834	-0,312	-0,194
143,370	20,820	-0,323	-0,183
144,385	-42,341	-0,373	-0,132
145,400	94,069	-0,228	-0,181
146,414	179,935	-0,322	-0,330
147,429	7,379	-0,307	-0,160
148,443	85,902	-0,249	-0,191
149,458	210,436	-0,186	-0,205
150,473	474,649	-0,106	-0,168
151,487	-120,339	-0,308	-0,036
152,502	141,520	-0,258	-0,239
153,516	85,392	-0,246	-0,189
154,531	70,769	-0,256	-0,185
155,546	45,757	-0,142	-0,092
156,560	274,013	-0,211	-0,262
157,575	-200,000	-0,035	-0,233
158,589	80,433	-0,313	-0,235
159,604	-118,734	-0,178	-0,022
160,619	-8,309	-0,356	-0,167
161,633	21,420	-0,302	-0,171
162,648	30,455	-0,188	-0,112
163,662	65,679	-0,230	-0,162
164,677	169,474	-0,188	-0,188
165,692	306,340	-0,153	-0,199
166,706	146,697	-0,350	-0,329
167,721	314,834	-0,219	-0,289
168,735	-71,278	-0,305	-0,079
169,750	84,649	-0,255	-0,195
170,764	131,718	-0,174	-0,156
171,779	226,268	-0,225	-0,255
172,794	296,016	-0,182	-0,233
173,808	26,819	-0,299	-0,174
174,823	-200,000	0,004	-0,225
175,837	81,012	-0,252	-0,189
176,852	140,663	-0,267	-0,246
177,867	19,798	-0,292	-0,164
178,881	-2,639	-0,322	-0,157
179,896	-46,943	-0,285	-0,097
180,910	-36,068	-0,222	-0,083
181,925	165,593	-0,234	-0,231
182,940	662,002	-0,125	-0,225
183,954	-189,180	-0,266	0,002
184,969	-124,132	-0,190	-0,021
185,983	336,199	-0,132	-0,179
186,998	243,420	-0,193	-0,226
188,013	212,086	-0,186	-0,205
189,027	136,350	-0,207	-0,188
190,042	-12,954	-0,254	-0,115
191,056	84,072	-0,243	-0,185
192,071	-76,707	-0,201	-0,049
193,086	62,055	-0,256	-0,177
194,100	143,536	-0,212	-0,197
195,115	7,322	-0,242	-0,126
196,129	46,272	-0,278	-0,179
197,144	141,012	-0,275	-0,254
198,159	-25,826	-0,265	-0,108
199,173	-126,936	-0,332	0,034
200,188	71,381	-0,190	-0,137
201,202	-44,965	-0,217	-0,075
202,217	136,263	-0,198	-0,179
203,232	-120,233	-0,222	-0,026
204,246	134,217	-0,267	-0,241
205,261	422,932	-0,184	-0,277
206,275	628,769	-0,067	-0,119
207,290	-32,697	-0,337	-0,130
208,304	-98,465	-0,156	0,028
209,319	91,207	-0,089	-0,070
210,334	244,660	-0,149	-0,174
211,348	61,536	-0,313	-0,216
212,363	73,709	-0,204	-0,149
213,377	487,515	-0,141	-0,225
214,392	186,309	-0,126	-0,130
215,407	123,662	-0,103	-0,090
216,421	83,064	-0,099	-0,075
217,436	163,725	-0,206	-0,201
218,450	217,237	-0,178	-0,197
219,465	800,000	-0,089	-0,172
220,480	800,000	-0,048	-0,096
221,494	117,391	-0,129	-0,110
222,509	-74,583	-0,310	-0,077
223,523	10,451	-0,197	-0,104
224,538	132,146	-0,103	-0,092
225,553	-22,905	-0,222	-0,093
226,567	39,512	-0,204	-0,127
227,582	261,261	-0,145	-0,175
228,596	-200,000	-0,021	-0,146
229,611	-56,683	-0,199	-0,061
230,626	-27,706	-0,146	-0,058
231,640	-37,855	-0,123	-0,045
232,655	350,772	-0,112	-0,155
233,669	6,953	-0,315	-0,163
234,684	3,960	-0,149	-0,075
235,699	1,414	-0,182	-0,091
236,713	152,659	-0,176	-0,167
237,728	-16,766	-0,123	-0,054
238,742	587,487	-0,129	-0,221
239,757	-139,675	-0,270	0,020
240,772	141,410	-0,245	-0,225
241,786	304,126	-0,209	-0,270
242,801	448,017	-0,099	-0,152
243,815	130,253	-0,195	-0,173
244,830	-106,545	-0,188	-0,029
245,844	422,046	-0,187	-0,279
246,859	-15,227	-0,167	0,074
247,874	-24,899	-0,188	-0,077
248,888	145,945	-0,315	-0,293
249,903	-76,124	-0,249	-0,061
250,917	-2,604	-0,223	-0,108
251,932	100,821	-0,088	-0,071
252,947	-140,017	-0,224	-0,016
253,961	94,945	-0,115	-0,090
254,976	125,495	-0,206	-0,180
255,990	189,470	-0,241	-0,250
257,005	-10,050	-0,174	-0,080
258,020	-1,406	-0,125	-0,061
259,034	-200,000	-0,061	-0,198
260,049	-1,104	-0,164	-0,080
261,063	-49,483	-0,196	-0,064
262,078	74,771	-0,170	-0,124
263,093	-107,932	-0,318	-0,047
264,107	800,000	-0,093	-0,223
265,122	229,760	-0,130	-0,147
266,136	-52,166	-0,202	-0,064
267,151	210,886	-0,109	-0,118
268,166	800,000	-0,048	-0,100
269,180	58,927	-0,201	-0,137
270,195	32,542	-0,201	-0,120
271,209	-200,000	-0,034	-0,164
272,224	86,651	-0,242	-0,184
273,239	-127,697	-0,175	0,017
274,253	71,675	-0,116	-0,083
275,268	220,896	-0,130	-0,144
276,282	95,180	-0,211	-0,166
277,297	-161,792	-0,225	0,008
278,312	11,647	-0,267	-0,141
279,326	800,000	-0,047	-0,139
280,341	-182,302	-0,147	0,002
281,355	604,254	-0,087	-0,151
282,370	56,211	-0,250	-0,167
283,384	800,000	-0,109	-0,250
284,399	26,457	-0,199	-0,115
285,414	-200,000	-0,018	-0,071
286,428	117,726	-0,140	-0,119
287,443	-128,686	-0,037	-0,004
288,457	453,318	-0,115	-0,176
289,472	786,267	-0,077	-0,148
290,487	432,799	-0,086	-0,130
291,501	452,266	-0,115	-0,175
292,516	73,352	-0,179	-0,130
293,530	166,628	-0,127	-0,125
294,545	-21,090	-0,185	-0,078
295,560	-200,000	-0,049	-0,216
296,574	800,000	-0,073	-0,143
297,589	-48,381	-0,230	-0,076
298,603	600,919	-0,124	-0,214
299,618	-51,410	-0,265	-0,085
300,633	525,498	-0,113	-0,185
301,647	126,311	-0,144	-0,126
302,662	292,237	-0,069	-0,087
303,676	82,705	-0,082	-0,062
304,691	111,736	-0,293	-0,244
305,706	788,398	-0,158	-0,300
306,720	168,819	-0,165	-0,163
307,735	-12,315	-0,163	-0,073
308,749	-21,176	-0,063	0,027
309,764	-179,053	-0,115	-0,002
310,779	-48,588	-0,219	-0,072
311,793	-27,283	-0,210	-0,084
312,808	73,841	-0,131	-0,094
313,822	-44,863	-0,236	-0,081
314,837	-22,747	-0,233	-0,097
315,852	-108,249	-0,068	-0,010
316,866	79,633	-0,106	-0,079
317,881	101,411	-0,053	0,043
318,895	-107,074	-0,076	-0,011
319,910	194,644	-0,205	-0,215
320,925	-51,879	-0,273	-0,087
321,939	161,580	-0,116	-0,112
322,954	39,967	-0,164	-0,101
323,968	194,840	-0,110	-0,115
324,983	-154,366	-0,114	0,005
325,997	-35,059	-0,178	-0,067
327,012	164,039	-0,093	-0,091
328,027	508,331	-0,130	-0,209
329,041	-103,752	-0,171	-0,027
330,056	39,385	-0,160	-0,098
331,070	25,699	-0,061	0,035
332,085	249,003	-0,128	-0,150
333,100	31,183	-0,173	-0,102
334,114	506,715	0,010	-0,015
335,129	45,870	-0,115	-0,073
336,143	143,706	-0,190	-0,174
337,158	800,000	-0,076	-0,189
338,173	-106,042	-0,082	-0,013
339,187	62,886	-0,130	-0,090
340,202	-200,000	0,030	-0,155
341,216	164,288	-0,170	-0,165
342,231	152,091	-0,171	-0,161
343,246	576,058	-0,097	-0,164
344,260	-200,000	0,008	-0,026
345,275	102,801	-0,143	-0,115
346,289	-192,588	-0,090	-0,001
347,304	-200,000	0,034	-0,139
348,319	72,015	-0,105	-0,075
349,333	639,493	-0,034	-0,060
350,348	247,459	-0,169	-0,197
351,362	-174,000	-0,165	0,003
352,377	17,643	-0,214	-0,117
353,392	-64,181	-0,140	-0,039
354,406	69,506	-0,174	-0,123
355,421	209,432	1313,228	1415,581
356,435	161,182	1473,804	1416,085
