DTS Sentinel unit serial number:	SN410029Multiplexer serial number:	ORYXHardware model number:	OX2-SRSoftware version number:	ORYX F/W v4,00 Oryx Data Collector v3.7.2.0data status	okinstallation	B3 Nyhavnadifferential loss correction	single-endedforward channel	channel 1reverse channel	N/Adate	2023/11/29time	06:47:30forward acquisition time	300,00reverse acquisition time	0,00gamma	499,1914k internal	0,3211k external	0,3211temperature offset calibration	1,0000default loss term (dB/km)	0,3820temperature slope calibration	1,0000multiplexer offset coefficient	1,0000multiplexer slope coefficient	1,0000fibre end	0,00T internal ref (°C)	8,93T ext. ref 1 (°C)	-6,40T ext. ref 2 (°C)	-6,51length (m)	temperature (°C)	Stokes	anti-Stokes-744,400	103,416	-0,247	-0,210
-743,385	-200,000	-0,036	0,372
-742,371	369,948	-0,089	-0,132
-741,356	-200,000	-0,034	0,425
-740,342	237,519	-0,208	-0,251
-739,327	726,740	-0,100	0,195
-738,312	125,183	-0,228	-0,209
-737,298	-200,000	-0,019	0,236
-736,283	52,683	-0,155	-0,107
-735,269	-200,000	0,044	0,274
-734,254	156,773	-0,222	-0,223
-733,239	-68,883	-0,167	0,046
-732,225	800,000	-0,085	-0,194
-731,210	11,069	0,111	0,061
-730,196	-200,000	0,009	0,123
-729,181	326,051	-0,154	-0,214
-728,167	800,000	-0,037	0,088
-727,152	-200,000	0,002	0,079
-726,137	25,549	-0,065	0,039
-725,123	100,602	-0,139	-0,117
-724,108	0,234	-0,111	0,057
-723,094	-32,897	-0,012	0,005
-722,079	-15,262	-0,148	-0,068
-721,064	-91,001	-0,030	0,006
-720,050	183,815	0,089	-0,096
-719,035	-117,907	-0,062	0,008
-718,021	198,002	-0,028	-0,031
-717,006	-169,605	-0,037	-0,001
-715,991	800,000	-0,073	-0,172
-714,977	66,150	-0,162	-0,119
-713,962	81,251	0,026	0,020
-712,948	-200,000	0,034	0,115
-711,933	128,909	0,037	0,034
-710,918	-200,000	-0,010	0,069
-709,904	799,027	-0,033	0,066
-708,889	800,000	-0,014	-0,046
-707,875	-200,000	-0,001	-0,059
-706,860	114,647	-0,032	0,028
-705,845	569,589	-0,051	0,090
-704,831	241,112	0,038	-0,046
-703,816	-89,949	0,141	0,030
-702,802	454,758	-0,052	-0,084
-701,787	-121,268	-0,116	0,014
-700,772	262,544	-0,086	-0,108
-699,758	800,000	0,020	-0,048
-698,743	33,313	0,097	-0,061
-697,729	67,243	0,085	-0,062
-696,714	-105,398	0,098	-0,016
-695,699	-95,477	-0,035	-0,007
-694,685	800,000	-0,063	-0,144
-693,670	-102,870	-0,070	0,012
-692,656	128,878	0,043	-0,039
-691,641	24,983	-0,112	0,067
-690,627	82,569	0,140	-0,110
-689,612	-200,000	-0,017	-0,070
-688,597	-12,257	-0,106	-0,050
-687,583	-13,229	-0,041	-0,019
-686,568	-67,609	-0,153	-0,043
-685,554	-200,000	-0,001	-0,072
-684,539	-166,235	-0,090	-0,003
-683,524	63,314	0,051	-0,037
-682,510	302,534	-0,094	-0,126
-681,495	-200,000	-0,043	-0,151
-680,481	-200,000	-0,020	0,179
-679,466	648,404	-0,035	-0,065
-678,451	-81,218	-0,139	0,033
-677,437	800,000	-0,030	0,079
-676,422	161,679	0,047	-0,048
-675,408	77,196	-0,095	0,073
-674,393	-46,891	0,070	-0,025
-673,378	-185,163	-0,039	-0,000
-672,364	-175,842	-0,085	-0,002
-671,349	-200,000	0,034	-0,115
-670,335	-200,000	-0,009	-0,081
-669,320	159,945	-0,069	0,069
-668,305	245,629	0,079	0,096
-667,291	-200,000	-0,016	0,098
-666,276	-58,133	-0,183	-0,057
-665,262	-200,000	-0,007	-0,072
-664,247	-200,000	0,062	-0,211
-663,232	-44,729	0,224	0,080
-662,218	583,968	-0,026	0,047
-661,203	-200,000	0,006	0,079
-660,189	-200,000	0,026	-0,102
-659,174	-142,743	-0,135	-0,009
-658,159	-200,000	0,008	-0,065
-657,145	267,742	-0,073	-0,093
-656,130	-54,740	-0,041	-0,013
-655,116	284,062	0,051	0,066
-654,101	9,503	0,014	0,008
-653,086	-13,786	-0,102	-0,047
-652,072	800,000	-0,049	-0,144
-651,057	30,116	-0,044	0,027
-650,043	-200,000	-0,008	-0,084
-649,028	334,735	0,021	-0,030
-648,014	-37,140	-0,106	0,041
-646,999	-200,000	-0,002	0,044
-645,984	-16,820	0,008	0,004
-644,970	72,404	-0,025	-0,019
-643,955	279,830	-0,054	-0,069
-642,941	-19,549	-0,158	-0,070
-641,926	76,471	0,005	0,004
-640,911	-175,451	-0,084	-0,002
-639,897	-24,812	-0,074	0,032
-638,882	503,698	0,026	0,044
-637,868	66,949	-0,102	0,075
-636,853	591,793	-0,062	-0,110
-635,838	-53,036	-0,100	0,033
-634,824	-200,000	0,003	-0,049
-633,809	395,305	-0,055	-0,083
-632,795	-144,473	-0,048	0,003
-631,780	172,591	0,061	-0,064
-630,765	57,519	-0,099	-0,069
-629,751	-200,000	0,011	-0,057
-628,736	-200,000	-0,005	0,022
-627,722	63,844	-0,069	-0,050
-626,707	18,748	-0,051	-0,029
-625,692	772,041	-0,048	-0,095
-624,678	-200,000	-0,013	0,061
-623,663	-106,444	-0,037	0,006
-622,649	-41,888	-0,088	-0,032
-621,634	-24,110	0,128	-0,055
-620,619	-157,408	0,122	0,005
-619,605	-200,000	-0,034	-0,129
-618,590	800,000	-0,038	-0,093
-617,576	-93,267	-0,091	0,018
-616,561	800,000	-0,032	0,071
-615,546	800,000	0,014	0,032
-614,532	643,290	-0,062	-0,115
-613,517	-12,112	-0,124	-0,059
-612,503	-98,296	-0,029	0,005
-611,488	-200,000	0,020	-0,091
-610,474	18,299	0,071	0,041
-609,459	-9,134	0,042	0,020
-608,444	-182,518	-0,075	-0,001
-607,430	-200,000	0,032	-0,146
-606,415	800,000	0,017	0,047
-605,401	-200,000	-0,000	0,027
-604,386	28,316	0,083	-0,050
-603,371	-16,731	0,148	0,067
-602,357	-67,448	-0,083	0,023
-601,342	146,430	-0,072	-0,070
-600,328	109,326	-0,089	-0,077
-599,313	-100,174	-0,019	-0,003
-598,298	151,347	0,024	0,023
-597,284	-39,940	0,101	0,038
-596,269	473,482	-0,064	0,104
-595,255	219,693	0,053	0,061
-594,240	-200,000	-0,017	0,084
-593,225	155,565	-0,077	-0,076
-592,211	109,825	-0,019	-0,017
-591,196	-85,528	0,106	0,024
-590,182	187,252	0,117	-0,125
-589,167	-6,548	-0,047	0,023
-588,152	-200,000	-0,005	0,095
-587,138	20,573	-0,177	0,103
-586,123	-200,000	0,004	-0,078
-585,109	-40,041	-0,119	-0,045
-584,094	-25,645	0,022	0,010
-583,079	-200,000	0,009	0,040
-582,065	691,782	0,039	0,075
-581,050	-47,479	0,027	0,009
-580,036	-170,544	-0,053	0,001
-579,021	-3,981	-0,025	-0,012
-578,006	800,000	-0,007	0,021
-576,992	549,679	-0,023	-0,039
-575,977	-153,986	0,168	-0,008
-574,963	58,415	0,073	-0,052
-573,948	-200,000	0,010	-0,058
-572,934	-134,934	-0,077	-0,007
-571,919	171,553	0,059	0,061
-570,904	-200,000	-0,028	-0,112
-569,890	123,296	-0,053	0,048
-568,875	174,680	0,077	-0,081
-567,861	57,575	-0,050	0,035
-566,846	-31,146	-0,090	-0,036
-565,831	-200,000	0,007	0,085
-564,817	134,946	0,068	-0,063
-563,802	99,267	-0,078	-0,065
-562,788	800,000	-0,036	0,110
-561,773	-159,919	-0,092	-0,004
-560,758	800,000	0,059	0,176
-559,744	-13,616	-0,026	0,012
-558,729	87,307	0,021	0,017
-557,715	800,000	-0,007	-0,022
-556,700	-200,000	-0,018	-0,192
-555,685	465,052	0,052	0,084
-554,671	127,493	-0,051	0,047
-553,656	61,412	-0,042	-0,030
-552,642	-200,000	0,005	0,018
-551,627	800,000	0,069	-0,144
-550,612	50,660	-0,120	-0,081
-549,598	-200,000	0,019	-0,073
-548,583	-175,342	0,078	-0,001
-547,569	317,851	0,051	-0,070
-546,554	640,520	0,064	0,118
-545,539	800,000	-0,027	0,067
-544,525	396,173	0,062	0,093
-543,510	-150,813	-0,064	0,003
-542,496	421,756	0,020	-0,031
-541,481	75,251	0,059	0,045
-540,466	-200,000	-0,003	0,039
-539,452	-97,488	0,062	0,012
-538,437	134,243	0,045	0,042
-537,423	-26,333	0,113	0,047
-536,408	800,000	-0,009	-0,029
-535,393	149,501	-0,093	-0,091
-534,379	-125,612	0,028	0,003
-533,364	-200,000	0,000	-0,074
-532,350	493,389	-0,082	0,136
-531,335	-47,173	-0,153	-0,053
-530,321	-40,139	-0,157	0,058
-529,306	-62,624	-0,105	-0,031
-528,291	185,536	-0,074	0,079
-527,277	387,725	0,067	0,100
-526,262	-96,901	0,173	0,032
-525,248	50,799	-0,102	-0,069
-524,233	728,151	0,034	-0,065
-523,218	432,054	-0,051	-0,080
-522,204	-200,000	0,016	-0,058
-521,189	170,755	-0,049	-0,051
-520,175	-200,000	0,017	-0,198
-519,160	1,816	-0,046	-0,024
-518,145	54,986	-0,078	-0,054
-517,131	409,029	0,037	-0,056
-516,116	-50,309	0,102	-0,034
-515,102	91,669	0,124	-0,100
-514,087	452,258	0,032	-0,051
-513,072	204,807	-0,084	-0,093
-512,058	524,084	-0,052	-0,088
-511,043	77,088	-0,030	-0,023
-510,029	388,309	0,046	0,069
-509,014	-40,352	0,095	-0,035
-507,999	370,248	-0,063	0,092
-506,985	123,906	-0,072	-0,065
-505,970	-200,000	-0,000	-0,042
-504,956	-200,000	0,035	-0,138
-503,941	-200,000	0,019	-0,080
-502,926	129,766	0,074	0,068
-501,912	-44,028	-0,077	0,028
-500,897	-200,000	0,032	0,162
-499,883	349,554	-0,074	0,105
-498,868	-23,251	-0,078	-0,034
-497,853	-129,329	0,074	0,007
-496,839	422,761	-0,066	-0,103
-495,824	-97,076	0,119	0,022
-494,810	736,670	0,028	0,053
-493,795	223,721	-0,051	0,060
-492,781	400,213	-0,052	-0,079
-491,766	7,824	-0,028	0,015
-490,751	800,000	0,031	-0,090
-489,737	140,132	-0,069	-0,065
-488,722	47,104	-0,042	0,028
-487,708	-63,271	0,095	-0,028
-486,693	-9,284	0,100	0,048
-485,678	-200,000	0,004	-0,024
-484,664	-119,332	-0,123	-0,015
-483,649	280,388	-0,054	0,070
-482,635	361,158	0,073	-0,105
-481,620	800,000	-0,017	0,052
-480,605	141,932	0,163	0,155
-479,591	-200,000	0,015	-0,103
-478,576	363,763	0,051	0,073
-477,562	756,069	-0,027	0,052
-476,547	493,529	0,022	-0,036
-475,532	-45,974	-0,029	-0,010
-474,518	124,417	0,043	0,039
-473,503	-200,000	0,003	-0,083
-472,489	800,000	0,035	-0,076
-471,474	-35,480	0,105	0,041
-470,459	1,415	0,076	-0,039
-469,445	-28,924	-0,192	-0,079
-468,430	-200,000	-0,013	-0,251
-467,416	8,267	0,193	-0,104
-466,401	10,800	-0,097	-0,053
-465,386	-111,349	-0,148	-0,021
-464,372	126,766	0,058	-0,053
-463,357	241,083	0,066	-0,079
-462,343	-200,000	-0,001	-0,110
-461,328	-200,000	-0,030	0,126
-460,313	800,000	0,036	0,090
-459,299	-200,000	0,013	0,078
-458,284	437,778	0,040	0,062
-457,270	-200,000	0,042	0,135
-456,255	-200,000	0,008	-0,081
-455,241	-21,978	-0,065	-0,028
-454,226	118,598	-0,023	0,021
-453,211	15,045	-0,051	-0,028
-452,197	-200,000	-0,030	0,117
-451,182	-200,000	0,036	0,196
-450,168	132,021	0,046	0,043
-449,153	51,598	-0,085	-0,058
-448,138	168,308	-0,025	-0,026
-447,124	-200,000	-0,033	-0,144
-446,109	477,748	0,025	0,040
-445,095	8,307	-0,076	-0,041
-444,080	-200,000	0,040	-0,146
-443,065	282,756	0,080	-0,102
-442,051	800,000	-0,011	-0,026
-441,036	-200,000	-0,001	-0,096
-440,022	800,000	0,041	0,108
-439,007	626,789	-0,042	-0,076
-437,992	92,805	0,077	0,062
-436,978	313,662	0,023	0,032
-435,963	81,572	-0,056	0,043
-434,949	499,925	0,053	-0,088
-433,934	425,015	0,010	-0,016
-432,919	800,000	0,011	0,028
-431,905	-166,321	-0,190	0,006
-430,890	156,143	0,113	0,112
-429,876	-144,454	0,064	-0,004
-428,861	52,255	0,050	0,034
-427,846	-46,937	0,182	0,063
-426,832	84,626	-0,143	-0,112
-425,817	493,883	0,031	-0,051
-424,803	-200,000	0,013	-0,088
-423,788	201,180	0,020	0,022
-422,773	800,000	0,077	0,162
-421,759	-200,000	-0,056	0,178
-420,744	56,825	0,027	-0,019
-419,730	-82,120	0,013	-0,003
-418,715	-200,000	0,001	-0,153
-417,701	-105,943	-0,072	-0,012
-416,686	-200,000	0,009	-0,055
-415,671	54,780	0,099	-0,068
-414,657	-34,377	-0,051	-0,020
-413,642	435,140	-0,054	0,085
-412,628	368,622	0,067	0,098
-411,613	321,436	-0,046	0,063
-410,598	13,815	-0,045	-0,025
-409,584	800,000	0,036	0,093
-408,569	156,532	-0,027	-0,027
-407,555	757,087	-0,058	0,112
-406,540	17,731	0,095	0,054
-405,525	-23,483	-0,097	-0,042
-404,511	-200,000	-0,012	-0,079
-403,496	298,367	-0,030	-0,039
-402,482	-149,539	0,062	-0,003
-401,467	43,032	0,143	-0,093
-400,452	-96,552	0,137	0,026
-399,438	-59,395	0,114	0,035
-398,423	505,909	-0,028	0,047
-397,409	44,366	-0,126	-0,083
-396,394	144,780	-0,123	-0,118
-395,379	-104,255	-0,148	-0,024
-394,365	202,092	-0,028	-0,031
-393,350	-12,766	0,130	0,060
-392,336	800,000	-0,052	0,137
-391,321	112,412	-0,060	0,052
-390,306	800,000	-0,049	-0,115
-389,292	-103,731	-0,078	0,013
-388,277	3,385	-0,048	-0,025
-387,263	-74,120	0,076	-0,020
-386,248	-64,365	0,045	-0,013
-385,233	329,148	0,040	-0,055
-384,219	-14,089	0,147	0,067
-383,204	-72,269	-0,174	-0,046
-382,190	-84,581	-0,109	-0,024
-381,175	681,573	0,059	-0,109
-380,160	180,031	0,065	-0,069
-379,146	-200,000	0,013	0,082
-378,131	541,232	-0,015	0,026
-377,117	-6,545	-0,113	-0,055
-376,102	-2,511	-0,067	0,033
-375,088	-200,000	-0,012	-0,151
-374,073	-180,485	-0,024	0,000
-373,058	88,583	0,102	0,081
-372,044	800,000	-0,007	0,020
-371,029	569,937	0,026	0,045
-370,015	-200,000	0,035	0,117
-369,000	215,515	0,089	0,101
-367,985	54,510	-0,118	-0,081
-366,971	-200,000	0,003	-0,048
-365,956	361,731	0,033	0,047
-364,942	-200,000	0,021	0,104
-363,927	-30,168	0,118	-0,047
-362,912	-88,582	0,105	0,022
-361,898	-48,855	-0,153	-0,052
-360,883	386,199	0,020	0,030
-359,869	-0,590	-0,059	0,030
-358,854	-200,000	0,007	0,057
-357,839	461,908	0,024	0,038
-356,825	-176,053	-0,006	-0,000
-355,810	-200,000	0,005	0,033
-354,796	100,708	-0,118	0,098
-353,781	243,303	0,032	-0,038
-352,766	-200,000	0,013	0,058
-351,752	440,627	-0,024	-0,038
-350,737	-24,590	0,086	0,036
-349,723	-200,000	0,035	0,191
-348,708	-147,079	0,083	0,005
-347,693	-200,000	-0,010	-0,086
-346,679	-200,000	0,027	-0,155
-345,664	800,000	-0,026	0,065
-344,650	96,158	-0,039	0,032
-343,635	-200,000	0,013	0,088
-342,620	-200,000	-0,034	-0,158
-341,606	-200,000	-0,007	-0,058
-340,591	-31,654	-0,082	0,033
-339,577	-200,000	-0,008	-0,053
-338,562	-86,798	-0,076	0,016
-337,548	800,000	0,040	0,096
-336,533	355,502	0,035	0,050
-335,518	214,950	-0,087	0,099
-334,504	-38,735	0,046	0,017
-333,489	63,584	-0,053	-0,038
-332,475	-75,411	-0,069	-0,017
-331,460	46,810	-0,028	-0,019
-330,445	96,967	0,021	-0,017
-329,431	23,548	0,070	0,041
-328,416	-200,000	-0,025	-0,099
-327,402	343,839	0,028	0,039
-326,387	-148,278	-0,071	0,004
-325,372	271,308	-0,097	-0,122
-324,358	303,489	0,030	-0,040
-323,343	-200,000	-0,003	0,087
-322,329	-98,911	0,059	-0,011
-321,314	-148,498	0,079	0,005
-320,299	-200,000	-0,030	0,150
-319,285	800,000	0,036	0,107
-318,270	-16,401	0,075	-0,034
-317,256	800,000	0,013	0,033
-316,241	-200,000	0,005	-0,022
-315,226	-134,677	0,086	0,007
-314,212	-122,311	-0,098	-0,011
-313,197	-200,000	-0,012	0,105
-312,183	-41,631	-0,145	-0,053
-311,168	262,170	0,063	0,078
-310,153	157,772	-0,046	-0,045
-309,139	178,364	0,067	0,070
-308,124	11,664	-0,040	-0,022
-307,110	-200,000	-0,001	0,122
-306,095	114,482	0,092	0,080
-305,080	-200,000	0,018	0,086
-304,066	-200,000	0,011	-0,049
-303,051	-109,679	-0,097	-0,014
-302,037	205,034	0,076	-0,084
-301,022	-200,000	0,026	-0,109
-300,008	148,930	0,096	0,092
-298,993	-138,010	0,062	-0,005
-297,978	-200,000	0,009	0,060
-296,964	-90,841	-0,066	-0,013
-295,949	-200,000	-0,044	-0,141
-294,935	800,000	0,023	0,068
-293,920	32,750	-0,060	-0,037
-292,905	96,255	0,076	0,062
-291,891	-200,000	0,033	0,119
-290,876	-59,319	-0,085	0,026
-289,862	338,152	-0,070	0,098
-288,847	-132,234	0,032	0,003
-287,832	-200,000	0,030	-0,141
-286,818	-200,000	0,067	-0,235
-285,803	-91,402	0,140	-0,028
-284,789	800,000	0,053	0,110
-283,774	703,474	-0,061	0,116
-282,759	-200,000	-0,010	0,090
-281,745	-200,000	-0,002	-0,118
-280,730	-200,000	0,009	0,036
-279,716	-200,000	0,021	0,077
-278,701	67,069	0,032	0,023
-277,686	14,850	0,085	-0,047
-276,672	-200,000	-0,031	0,134
-275,657	-200,000	0,013	-0,051
-274,643	-200,000	-0,023	-0,155
-273,628	208,240	-0,051	-0,057
-272,613	26,314	0,122	-0,072
-271,599	-68,989	-0,060	-0,016
-270,584	569,364	-0,027	0,047
-269,570	-54,597	0,063	-0,020
-268,555	800,000	0,045	0,124
-267,540	23,469	-0,103	-0,060
-266,526	-200,000	-0,012	0,102
-265,511	-25,496	0,046	0,019
-264,497	6,865	0,029	0,015
-263,482	-154,202	0,098	-0,005
-262,467	243,244	0,044	0,053
-261,453	-200,000	0,013	0,141
-260,438	658,592	0,038	-0,071
-259,424	-69,562	-0,073	0,020
-258,409	-200,000	0,016	0,083
-257,395	800,000	0,029	-0,068
-256,380	306,059	0,029	0,039
-255,365	-159,324	0,102	0,004
-254,351	-65,120	0,094	-0,027
-253,336	97,748	-0,041	-0,033
-252,322	23,720	0,050	-0,029
-251,307	282,492	0,072	-0,092
-250,292	-99,915	-0,097	0,017
-249,278	-4,399	0,048	0,024
-248,263	74,576	0,160	0,119
-247,249	195,099	-0,060	0,065
-246,234	37,203	-0,112	0,070
-245,219	-200,000	-0,031	0,133
-244,205	-200,000	-0,081	0,000
-243,190	114,843	-0,068	0,059
-242,176	164,735	0,045	-0,046
-241,161	71,790	0,109	-0,080
-240,146	323,306	0,016	0,022
-239,132	-200,000	-0,022	0,141
-238,117	-200,000	0,002	0,028
-237,103	800,000	0,047	0,105
-236,088	-38,620	0,102	0,038
-235,073	-200,000	0,021	0,184
-234,059	64,527	0,075	-0,054
-233,044	-145,575	-0,117	-0,007
-232,030	10,610	-0,177	-0,096
-231,015	-159,972	0,105	0,004
-230,000	121,156	-0,004	0,004
-228,986	-200,000	-0,000	-0,045
-227,971	-200,000	-0,017	0,060
-226,957	72,377	0,060	0,044
-225,942	-183,968	0,057	0,001
-224,927	-130,968	-0,066	-0,006
-223,913	800,000	-0,039	-0,103
-222,898	4,004	0,145	-0,075
-221,884	-35,982	-0,129	-0,049
-220,869	-163,007	-0,115	-0,004
-219,855	-19,109	0,040	-0,017
-218,840	-200,000	-0,007	0,058
-217,825	-35,393	-0,130	-0,050
-216,811	-41,825	-0,117	-0,042
-215,796	33,540	-0,094	0,058
-214,782	333,977	-0,023	-0,031
-213,767	-22,277	0,048	0,020
-212,752	-200,000	0,010	0,054
-211,738	-25,092	0,171	-0,072
-210,723	-200,000	-0,027	-0,196
-209,709	-65,724	0,060	0,017
-208,694	-166,156	-0,121	-0,004
-207,679	-79,669	0,080	-0,019
-206,665	-200,000	0,004	0,120
-205,650	-200,000	-0,001	0,049
-204,636	800,000	0,047	0,111
-203,621	800,000	0,018	0,047
-202,606	292,726	0,016	-0,021
-201,592	-200,000	-0,022	-0,105
-200,577	172,648	-0,081	0,083
-199,563	315,545	-0,061	-0,082
-198,548	494,805	0,034	-0,055
-197,533	724,207	0,028	0,054
-196,519	2,165	0,078	0,040
-195,504	800,000	-0,041	-0,091
-194,490	245,383	-0,034	0,040
-193,475	60,272	-0,084	-0,059
-192,460	54,543	0,083	0,056
-191,446	188,091	0,070	0,075
-190,431	463,179	0,087	0,138
-189,417	-200,000	0,000	0,061
-188,402	800,000	0,021	-0,065
-187,387	-24,021	-0,086	-0,036
-186,373	-13,467	-0,018	0,008
-185,358	-97,758	0,011	0,002
-184,344	-105,932	-0,056	-0,009
-183,329	-143,203	0,128	-0,009
-182,315	-200,000	0,016	0,051
-181,300	-200,000	-0,007	0,052
-180,285	800,000	0,027	-0,064
-179,271	637,632	-0,040	0,072
-178,256	125,400	0,071	0,063
-177,242	234,826	0,095	0,111
-176,227	-87,482	0,075	0,016
-175,212	380,867	0,042	-0,062
-174,198	48,410	-0,175	0,116
-173,183	62,060	-0,085	-0,060
-172,169	42,778	0,118	-0,076
-171,154	36,640	-0,084	0,053
-170,139	22,450	-0,041	0,024
-169,125	-55,870	0,044	-0,014
-168,110	-200,000	-0,011	-0,047
-167,096	-42,952	-0,116	0,041
-166,081	279,007	0,044	0,056
-165,066	70,599	0,070	-0,051
-164,052	-138,974	0,070	0,005
-163,037	-200,000	0,018	0,126
-162,023	-200,000	-0,005	0,146
-161,008	-69,522	0,076	-0,021
-159,993	-200,000	0,004	0,071
-158,979	141,083	0,059	-0,056
-157,964	-51,075	-0,076	-0,025
-156,950	-200,000	-0,023	-0,131
-155,935	250,728	0,046	0,055
-154,920	49,993	-0,006	-0,004
-153,906	-36,020	0,109	-0,041
-152,891	-8,094	0,141	-0,067
-151,877	153,591	-0,056	0,054
-150,862	256,429	0,056	0,069
-149,847	-149,543	-0,125	0,007
-148,833	-89,216	0,024	-0,005
-147,818	72,635	0,050	0,037
-146,804	-163,296	-0,017	0,001
-145,789	-135,333	0,137	-0,011
-144,775	134,271	-0,055	0,050
-143,760	128,035	-0,068	-0,061
-142,745	-72,257	-0,161	0,042
-141,731	252,041	-0,035	-0,043
-140,716	-200,000	0,004	0,134
-139,702	261,068	0,036	0,045
-138,687	-200,000	-0,017	-0,120
-137,672	-3,222	0,158	0,078
-136,658	-200,000	-0,058	0,200
-135,643	-200,000	0,017	-0,112
-134,629	-200,000	-0,013	-0,151
-133,614	-119,926	-0,039	0,005
-132,599	-85,842	-0,050	-0,011
-131,585	-200,000	0,029	0,167
-130,570	-88,933	-0,159	-0,033
-129,556	-72,815	-0,106	-0,027
-128,541	-150,393	-0,177	-0,009
-127,526	-200,000	0,016	-0,062
-126,512	800,000	0,019	0,047
-125,497	-138,795	0,111	-0,008
-124,483	-200,000	-0,018	0,091
-123,468	342,114	-0,016	-0,023
-122,453	-99,470	-0,114	-0,020
-121,439	-87,581	0,050	-0,011
-120,424	800,000	0,037	0,099
-119,410	-200,000	-0,029	0,096
-118,395	-200,000	-0,015	-0,082
-117,380	-161,124	0,077	-0,003
-116,366	14,206	0,159	0,087
-115,351	129,180	0,092	0,083
-114,337	-25,073	0,118	-0,049
-113,322	-200,000	-0,003	-0,009
-112,307	-200,000	-0,004	0,116
-111,293	209,717	-0,076	0,085
-110,278	566,965	0,039	-0,068
-109,264	800,000	-0,008	-0,023
-108,249	-124,902	-0,139	-0,015
-107,234	-122,178	0,093	-0,011
-106,220	-53,381	0,063	0,020
-105,205	170,830	-0,099	0,101
-104,191	-55,923	0,027	-0,008
-103,176	-177,767	0,195	0,003
-102,162	-22,422	-0,109	0,046
-101,147	-200,000	0,008	-0,037
-100,132	-65,525	-0,132	-0,037
-99,118	-200,000	-0,002	-0,131
-98,103	452,170	0,085	-0,133
-97,089	-12,367	-0,089	0,041
-96,074	21,391	0,037	0,021
-95,059	-59,108	0,094	-0,028
-94,045	-109,260	-0,065	0,010
-93,030	800,000	0,017	-0,044
-92,016	-200,000	0,003	-0,032
-91,001	-200,000	0,031	-0,105
-89,986	658,517	0,074	-0,134
-88,972	388,649	0,106	0,155
-87,957	-200,000	-0,022	0,178
-86,943	720,255	0,021	0,040
-85,928	86,616	-0,071	-0,055
-84,913	800,000	0,037	-0,095
-83,899	-200,000	0,021	-0,109
-82,884	-55,141	-0,050	-0,016
-81,870	-200,000	0,012	-0,078
-80,855	27,412	-0,040	0,024
-79,840	390,440	-0,120	0,176
-78,826	140,696	-0,071	-0,067
-77,811	800,000	-0,033	-0,067
-76,797	-22,626	-0,074	-0,031
-75,782	-62,560	0,067	0,019
-74,767	-25,186	-0,070	0,029
-73,753	800,000	-0,062	0,132
-72,738	-163,029	0,016	-0,001
-71,724	29,863	-0,150	-0,090
-70,709	-200,000	-0,018	-0,239
-69,694	-200,000	-0,015	0,051
-68,680	-88,849	-0,058	-0,012
-67,665	455,089	-0,039	-0,061
-66,651	44,844	-0,048	0,031
-65,636	116,363	-0,096	-0,083
-64,622	77,599	-0,060	0,045
-63,607	-113,397	-0,070	-0,010
-62,592	26,391	-0,034	0,020
-61,578	-95,151	-0,168	0,032
-60,563	399,296	0,074	0,110
-59,549	-118,370	0,061	0,008
-58,534	42,611	-2,034	-1,304
-57,519	458,904	-1,191	-1,877
-56,505	-200,000	-0,231	-4,345
-55,490	598,815	0,909	1,598
-54,476	800,000	5,238	11,475
-53,461	-200,000	21,836	336,662
-52,446	800,000	758,727	2294,437
-51,432	533,063	1652,612	2771,770
-50,417	69,174	1650,042	1195,815
-49,403	16,590	1524,879	848,105
-48,388	10,747	1449,561	778,101
-47,373	18,964	1441,631	813,048
-46,359	14,107	1430,544	783,783
-45,344	9,063	1426,408	757,589
-44,330	9,003	1424,579	756,300
-43,315	9,005	1422,668	755,265
-42,300	8,978	1420,868	754,155
-41,286	9,032	1419,731	753,778
-40,271	8,957	1418,799	752,899
-39,257	8,998	1417,488	752,365
-38,242	9,039	1416,329	751,911
-37,227	9,033	1415,142	751,226
-36,213	9,046	1413,753	750,518
-35,198	9,027	1412,525	749,746
-34,184	9,032	1411,640	749,271
-33,169	8,977	1410,197	748,219
-32,154	8,982	1409,613	747,900
-31,140	8,967	1408,139	747,020
-30,125	9,029	1406,967	746,661
-29,111	9,074	1405,645	746,139
-28,096	8,985	1404,619	745,146
-27,082	8,973	1403,294	744,357
-26,067	8,966	1402,291	743,766
-25,052	8,973	1401,287	743,235
-24,038	9,005	1400,300	742,830
-23,023	8,945	1399,513	742,107
-22,009	8,938	1398,364	741,433
-20,994	8,942	1397,366	740,895
-19,979	8,941	1396,529	740,416
-18,965	8,972	1395,252	739,855
-17,950	8,908	1394,521	739,139
-16,936	8,872	1393,859	738,594
-15,921	8,847	1392,662	737,813
-14,906	8,881	1391,864	737,517
-13,892	8,967	1390,640	737,239
-12,877	8,893	1390,159	736,612
-11,863	8,887	1389,273	736,087
-10,848	8,906	1388,177	735,563
-9,833	8,792	1387,382	734,589
-8,819	8,785	1386,485	734,052
-7,804	8,784	1385,536	733,516
-6,790	8,775	1384,554	732,926
-5,775	8,759	1383,559	732,293
-4,760	8,764	1382,487	731,719
-3,746	8,834	1381,682	731,590
-2,731	8,812	1380,712	730,944
-1,717	8,825	1379,815	730,499
-0,702	8,801	1377,951	729,373
0,313	12,800	1289,764	700,870
1,327	28,690	682,033	406,261
2,342	44,321	117,464	75,898
3,356	-4,072	16,572	8,070
4,371	4,972	3,684	1,905
5,386	13,576	1,138	0,621
6,400	800,000	0,263	0,641
7,415	285,316	-0,035	-0,045
8,429	85,284	-0,270	-0,209
9,444	208,693	-0,215	-0,237
10,459	-47,870	-0,297	-0,101
11,473	35,451	-0,351	-0,216
12,488	51,905	-0,292	-0,196
13,502	-35,270	-0,340	-0,130
14,517	-23,263	-0,299	-0,126
15,531	109,069	-0,404	-0,340
16,546	22,218	-0,459	-0,263
17,561	134,977	-0,303	-0,277
18,575	-66,040	-0,185	-0,052
19,590	800,000	-0,083	-0,163
20,604	-68,789	-0,328	-0,089
21,619	137,781	-0,378	-0,348
22,634	-8,243	-0,360	-0,170
23,648	91,361	-0,479	-0,379
24,663	124,481	-0,361	-0,319
25,677	347,207	-0,203	-0,282
26,692	94,662	-0,262	-0,210
27,707	7,836	-0,469	-0,246
28,721	351,681	-0,300	-0,420
29,736	239,137	-0,266	-0,312
30,750	73,874	-0,394	-0,291
31,765	19,974	-0,377	-0,213
32,780	92,008	-0,333	-0,264
33,794	-33,222	-0,399	-0,155
34,809	78,206	-0,299	-0,224
35,823	156,636	-0,323	-0,314
36,838	57,633	-0,374	-0,256
37,853	106,473	-0,415	-0,346
38,867	76,069	-0,315	-0,234
39,882	640,816	-0,197	-0,354
40,896	132,261	-0,359	-0,325
41,911	109,035	-0,284	-0,239
42,926	23,573	-0,415	-0,239
43,940	42,647	-0,406	-0,259
44,955	111,068	-0,313	-0,265
45,969	84,249	-0,297	-0,228
46,984	62,310	-0,290	-0,203
47,999	110,474	-0,342	-0,288
49,013	222,111	-0,244	-0,276
50,028	128,482	-0,296	-0,265
51,042	337,450	-0,179	-0,244
52,057	383,199	-0,231	-0,335
53,071	102,496	-0,291	-0,238
54,086	31,517	-0,430	-0,259
55,101	116,766	-0,204	-0,176
56,115	201,791	-0,321	-0,348
57,130	138,950	-0,311	-0,287
58,144	61,362	-0,410	-0,286
59,159	149,164	-0,364	-0,346
60,174	250,043	-0,263	-0,313
61,188	39,247	-0,307	-0,192
62,203	19,060	-0,272	-0,152
63,217	207,286	-0,314	-0,344
64,232	23,053	-0,353	-0,203
65,247	52,977	-0,379	-0,254
66,261	-66,174	-0,451	-0,125
67,276	157,367	-0,234	-0,227
68,290	-81,608	-0,237	-0,054
69,305	33,912	-0,292	-0,178
70,320	4,756	-0,361	-0,185
71,334	24,339	-0,411	-0,238
72,349	124,481	-0,281	-0,248
73,363	43,359	-0,395	-0,252
74,378	12,353	-0,348	-0,187
75,393	-6,003	-0,301	-0,144
76,407	74,004	-0,223	-0,164
77,422	18,454	-0,243	-0,136
78,436	-31,443	-0,345	-0,135
79,451	-30,077	-0,339	-0,135
80,466	-123,996	-0,443	-0,048
81,480	25,455	-0,413	-0,240
82,495	90,767	-0,311	-0,244
83,509	-2,427	-0,258	-0,126
84,524	68,722	-0,307	-0,220
85,539	107,868	-0,192	-0,160
86,553	109,717	-0,211	-0,177
87,568	-114,237	-0,331	-0,044
88,582	61,663	-0,242	-0,169
89,597	522,466	-0,240	-0,395
90,611	166,344	-0,261	-0,259
91,626	100,289	-0,129	-0,105
92,641	122,192	-0,218	-0,190
93,655	2,039	-0,394	-0,199
94,670	24,852	-0,210	-0,121
95,684	93,196	-0,429	-0,339
96,699	98,690	-0,398	-0,321
97,714	167,493	-0,206	-0,205
98,728	240,774	-0,212	-0,248
99,743	-121,575	-0,276	-0,032
100,757	82,039	-0,337	-0,255
101,772	-22,918	-0,256	-0,108
102,787	735,734	-0,172	-0,323
103,801	148,124	-0,251	-0,237
104,816	69,023	-0,257	-0,185
105,830	165,655	-0,300	-0,297
106,845	129,126	-0,294	-0,262
107,860	129,756	-0,135	-0,120
108,874	235,236	-0,209	-0,242
109,889	21,660	-0,399	-0,227
110,903	-4,643	-0,348	-0,167
111,918	398,674	-0,205	-0,301
112,933	-129,033	-0,225	-0,022
113,947	401,386	-0,202	-0,297
114,962	8,511	-0,245	-0,129
115,976	27,484	-0,209	-0,122
116,991	-99,999	-0,222	-0,038
118,006	-90,746	-0,415	-0,083
119,020	53,121	-0,283	-0,189
120,035	0,688	-0,255	-0,127
121,049	159,917	-0,251	-0,245
122,064	-59,252	-0,253	-0,076
123,079	82,954	-0,187	-0,142
124,093	3,534	-0,360	-0,183
125,108	188,130	-0,314	-0,328
126,122	-75,303	-0,184	-0,045
127,137	-36,322	-0,209	-0,078
128,151	356,048	-0,178	-0,247
129,166	-53,767	-0,289	-0,092
130,181	522,816	-0,131	-0,216
131,195	-41,946	-0,279	-0,099
132,210	207,768	-0,232	-0,253
133,224	229,884	-0,175	-0,199
134,239	173,054	-0,235	-0,236
135,254	153,872	-0,165	-0,158
136,268	74,939	-0,269	-0,197
137,283	-6,681	-0,225	-0,106
138,297	85,806	-0,203	-0,155
139,312	129,573	-0,358	-0,319
140,327	-38,361	-0,197	-0,072
141,341	-36,223	-0,237	-0,089
142,356	-122,096	-0,270	-0,030
143,370	-13,529	-0,319	-0,143
144,385	62,767	-0,253	-0,176
145,400	334,002	-0,192	-0,260
146,414	262,174	-0,279	-0,337
147,429	31,679	-0,284	-0,170
148,443	562,422	-0,155	-0,262
149,458	-60,466	-0,261	-0,077
150,473	18,208	-0,171	-0,095
151,487	330,463	-0,169	-0,228
152,502	-39,578	-0,172	-0,062
153,516	197,723	-0,244	-0,260
154,531	2,516	-0,270	-0,135
155,546	31,407	-0,188	-0,112
156,560	65,170	-0,334	-0,234
157,575	93,826	-0,263	-0,207
158,589	110,359	-0,188	-0,157
159,604	-21,275	-0,225	-0,095
160,619	28,459	-0,265	-0,155
161,633	-27,780	-0,369	-0,148
162,648	181,969	-0,252	-0,259
163,662	-38,391	-0,196	-0,072
164,677	-1,164	-0,231	-0,113
165,692	50,372	-0,292	-0,192
166,706	481,152	-0,136	-0,215
167,721	309,937	-0,215	-0,281
168,735	22,266	-0,167	-0,094
169,750	442,954	-0,139	-0,212
170,764	172,906	-0,208	-0,208
171,779	368,325	-0,121	-0,170
172,794	-157,020	-0,171	-0,007
173,808	-13,431	-0,190	-0,085
174,823	182,113	-0,221	-0,226
175,837	167,035	-0,262	-0,259
176,852	-52,538	-0,338	-0,108
177,867	-124,952	-0,303	-0,032
178,881	137,919	-0,203	-0,185
179,896	-111,225	-0,155	-0,022
180,910	-11,142	-0,199	-0,091
181,925	-9,771	-0,162	-0,075
182,940	126,816	-0,273	-0,240
183,954	365,380	-0,184	-0,258
184,969	714,651	-0,151	-0,280
185,983	123,264	-0,134	-0,117
186,998	152,028	-0,232	-0,219
188,013	146,441	-0,260	-0,243
189,027	46,853	-0,267	-0,172
190,042	44,262	-0,190	-0,121
191,056	-111,978	-0,300	-0,041
192,071	350,561	-0,119	-0,163
193,086	92,552	-0,126	-0,099
194,100	26,252	-0,237	-0,137
195,115	-9,513	-0,316	-0,146
196,129	-58,097	-0,249	-0,075
197,144	-9,081	-0,182	-0,084
198,159	800,000	-0,059	-0,168
199,173	254,900	-0,118	-0,140
200,188	325,481	-0,207	-0,275
201,202	4,124	-0,246	-0,124
202,217	-2,932	-0,316	-0,152
203,232	-108,140	-0,149	-0,022
204,246	-49,675	-0,265	-0,087
205,261	146,675	-0,266	-0,248
206,275	800,000	-0,129	-0,249
207,290	609,094	-0,074	-0,128
208,304	51,160	-0,147	-0,097
209,319	-95,536	-0,160	-0,029
210,334	167,708	-0,225	-0,222
211,348	108,329	-0,163	-0,134
212,363	615,296	-0,115	-0,201
213,377	69,984	-0,288	-0,205
214,392	-200,000	-0,009	-0,035
215,407	-89,020	-0,180	-0,036
216,421	340,166	-0,239	-0,323
217,436	-1,113	-0,299	-0,146
218,450	-15,311	-0,341	-0,150
219,465	98,735	-0,146	-0,116
220,480	800,000	-0,107	-0,255
221,494	102,869	-0,166	-0,135
222,509	-200,000	-0,072	-0,258
223,523	-200,000	-0,026	-0,107
224,538	51,991	-0,241	-0,159
225,553	95,739	-0,115	-0,090
226,567	177,400	-0,120	-0,121
227,582	188,364	-0,214	-0,221
228,596	-44,440	-0,171	-0,059
229,611	65,845	-0,164	-0,115
230,626	-101,325	-0,225	-0,038
231,640	-144,965	-0,299	-0,019
232,655	70,921	-0,256	-0,183
233,669	233,501	-0,171	-0,195
234,684	69,262	-0,233	-0,165
235,699	27,740	-0,230	-0,133
236,713	244,808	-0,111	-0,129
237,728	-63,080	-0,216	-0,061
238,742	106,112	-0,193	-0,158
239,757	612,047	-0,197	-0,342
240,772	84,793	-0,227	-0,172
241,786	17,513	-0,240	-0,131
242,801	25,492	-0,190	-0,109
243,815	12,029	-0,231	-0,122
244,830	291,192	-0,070	-0,088
245,844	457,914	-0,083	-0,128
246,859	-6,959	-0,180	-0,084
247,874	1,251	-0,262	-0,129
248,888	282,901	-0,158	-0,196
249,903	416,106	-0,163	-0,241
250,917	-75,390	-0,133	-0,032
251,932	-152,172	-0,149	0,007
252,947	-79,159	-0,211	-0,049
253,961	41,067	-0,194	-0,121
254,976	482,267	-0,211	-0,332
255,990	800,000	-0,110	-0,231
257,005	11,849	-0,224	-0,118
258,020	-101,315	-0,168	-0,028
259,034	-111,026	-0,219	-0,031
260,049	144,937	-0,076	-0,070
261,063	258,340	-0,161	-0,191
262,078	27,143	-0,347	-0,201
263,093	760,762	-0,136	-0,255
264,107	21,688	-0,132	-0,074
265,122	-38,864	-0,143	0,052
266,136	-38,322	-0,275	-0,100
267,151	-200,000	-0,063	-0,275
268,166	37,206	-0,092	-0,056
269,180	49,042	-0,161	-0,104
270,195	-116,156	-0,219	-0,028
271,209	12,709	-0,218	-0,116
272,224	800,000	-0,046	0,108
273,239	12,921	-0,027	0,014
274,253	384,372	-0,079	-0,112
275,268	402,528	-0,116	-0,168
276,282	88,242	-0,211	-0,161
277,297	800,000	-0,054	-0,125
278,312	-200,000	-0,058	-0,201
279,326	-124,137	-0,092	-0,010
280,341	-131,713	-0,119	-0,011
281,355	-47,169	-0,174	-0,058
282,370	90,185	-0,144	-0,111
283,384	80,077	-0,238	-0,176
284,399	170,609	-0,129	-0,127
285,414	294,154	-0,136	-0,171
286,428	-25,202	-0,229	-0,093
287,443	-21,476	-0,119	0,050
288,457	-152,683	-0,220	-0,011
289,472	74,363	-0,092	-0,066
290,487	-66,165	-0,282	-0,077
291,501	725,683	-0,139	-0,255
292,516	-132,023	-0,271	-0,024
293,530	-82,191	-0,203	-0,045
294,545	116,220	-0,198	-0,167
295,560	-169,231	-0,205	0,005
296,574	230,797	-0,017	-0,019
297,589	244,537	-0,124	-0,143
298,603	49,170	-0,213	-0,137
299,618	-158,904	-0,194	-0,007
300,633	506,649	-0,088	-0,141
301,647	98,735	-0,188	-0,149
302,662	-200,000	-0,046	-0,157
303,676	251,377	-0,136	-0,159
304,691	-37,897	-0,183	-0,066
305,706	267,060	-0,119	-0,143
306,720	41,014	-0,175	-0,108
307,735	-109,930	-0,068	-0,010
308,749	483,718	-0,068	-0,107
309,764	-145,117	-0,130	-0,008
310,779	704,909	-0,059	-0,107
311,793	137,318	-0,113	-0,102
312,808	141,746	-0,125	-0,113
313,822	-110,955	-0,266	-0,037
314,837	489,956	-0,051	-0,080
315,852	49,719	-0,090	-0,058
316,866	585,537	-0,093	0,158
317,881	-169,350	-0,096	-0,002
318,895	21,322	-0,295	-0,164
319,910	-8,321	-0,319	-0,147
320,925	-70,657	-0,103	0,026
321,939	94,686	-0,219	-0,170
322,954	-4,209	-0,204	-0,097
323,968	111,256	-0,015	0,012
324,983	-141,259	-0,203	0,014
325,997	-200,000	0,044	-0,147
327,012	-106,330	-0,114	-0,017
328,027	62,196	-0,310	-0,212
329,041	323,868	-0,135	-0,177
330,056	613,667	-0,078	-0,134
331,070	2,301	-0,107	-0,053
332,085	800,000	0,024	0,064
333,100	321,618	-0,079	-0,104
334,114	683,068	-0,131	-0,234
335,129	224,263	-0,125	-0,139
336,143	800,000	-0,060	-0,171
337,158	5,063	-0,125	-0,063
338,173	9,184	-0,076	-0,039
339,187	-50,708	-0,213	-0,068
340,202	12,825	-0,110	-0,058
341,216	800,000	-0,082	-0,159
342,231	256,962	-0,111	-0,130
343,246	469,264	-0,147	-0,227
344,260	729,603	-0,037	-0,067
345,275	78,903	-0,081	-0,059
346,289	-45,253	-0,068	-0,023
347,304	141,315	-0,147	-0,133
348,319	800,000	-0,092	-0,225
349,333	263,979	-0,159	-0,189
350,348	251,398	-0,108	-0,126
351,362	-63,446	-0,168	0,047
352,377	15,987	-0,149	-0,080
353,392	-71,028	-0,192	-0,049
354,406	-78,020	-0,156	0,036
355,421	208,102	1306,676	1397,673
356,435	160,114	1466,384	1398,144
