DTS Sentinel unit serial number:	SN410029Multiplexer serial number:	ORYXHardware model number:	OX2-SRSoftware version number:	ORYX F/W v4,00 Oryx Data Collector v3.7.2.0data status	okinstallation	B3 Nyhavnadifferential loss correction	single-endedforward channel	channel 1reverse channel	N/Adate	2023/12/02time	10:22:30forward acquisition time	300,00reverse acquisition time	0,00gamma	499,1914k internal	0,3196k external	0,3196temperature offset calibration	1,0000default loss term (dB/km)	0,3820temperature slope calibration	1,0000multiplexer offset coefficient	1,0000multiplexer slope coefficient	1,0000fibre end	0,00T internal ref (°C)	14,59T ext. ref 1 (°C)	-1,13T ext. ref 2 (°C)	-1,16length (m)	temperature (°C)	Stokes	anti-Stokes-744,400	800,000	-0,174	-0,361
-743,385	-200,000	-0,042	0,301
-742,371	123,486	-0,243	-0,222
-741,356	552,669	0,151	0,265
-740,342	-200,000	-0,044	-0,235
-739,327	-200,000	0,034	0,332
-738,312	158,256	-0,186	-0,188
-737,298	-200,000	-0,056	0,250
-736,283	294,296	-0,182	-0,243
-735,269	-200,000	0,069	0,354
-734,254	-9,571	-0,244	-0,118
-733,239	136,055	-0,043	0,041
-732,225	310,929	-0,107	-0,146
-731,210	-52,285	0,082	0,027
-730,196	-67,886	-0,082	-0,023
-729,181	-32,280	-0,152	-0,062
-728,167	-87,572	0,047	0,010
-727,152	800,000	-0,030	-0,063
-726,137	-87,047	-0,135	0,030
-725,123	-200,000	0,027	0,121
-724,108	620,511	0,027	0,049
-723,094	189,572	-0,096	-0,105
-722,079	157,316	-0,082	-0,083
-721,064	800,000	-0,064	-0,163
-720,050	198,150	-0,129	0,143
-719,035	134,231	-0,122	-0,115
-718,021	-200,000	0,021	-0,084
-717,006	90,752	-0,180	-0,146
-715,991	43,061	-0,046	-0,031
-714,977	800,000	-0,034	-0,086
-713,962	24,031	-0,142	-0,085
-712,948	-24,698	-0,070	-0,030
-711,933	120,131	0,045	0,041
-710,918	-200,000	-0,013	0,042
-709,904	145,075	-0,082	0,080
-708,889	-200,000	0,030	-0,127
-707,875	-113,637	-0,102	0,014
-706,860	-57,744	0,031	-0,010
-705,845	25,994	-0,031	-0,019
-704,831	-75,331	0,051	-0,013
-703,816	800,000	0,033	0,083
-702,802	-115,011	-0,133	-0,018
-701,787	-46,420	-0,181	-0,064
-700,772	800,000	-0,032	-0,076
-699,758	800,000	-0,023	0,071
-698,743	389,917	0,038	0,057
-697,729	-200,000	0,005	0,125
-696,714	443,319	-0,064	0,103
-695,699	202,521	0,086	-0,097
-694,685	173,953	-0,031	-0,032
-693,670	-32,937	-0,026	0,011
-692,656	-200,000	0,008	-0,070
-691,641	267,988	-0,100	0,127
-690,627	274,013	0,057	0,073
-689,612	-110,990	-0,053	-0,008
-688,597	-200,000	-0,063	-0,347
-687,583	520,247	-0,096	-0,163
-686,568	-30,362	-0,076	-0,031
-685,554	102,598	-0,044	-0,037
-684,539	-61,760	0,065	0,020
-683,524	800,000	-0,015	0,033
-682,510	100,720	-0,053	-0,045
-681,495	39,083	-0,081	0,053
-680,481	-200,000	-0,032	-0,148
-679,466	-54,160	-0,094	-0,031
-678,451	191,236	0,128	-0,140
-677,437	-200,000	0,001	0,077
-676,422	-200,000	-0,015	0,069
-675,408	203,320	-0,052	-0,058
-674,393	200,443	-0,096	-0,107
-673,378	-86,447	-0,100	0,022
-672,364	238,411	-0,122	-0,147
-671,349	38,734	0,087	-0,056
-670,335	-200,000	0,009	-0,031
-669,320	800,000	-0,031	0,085
-668,305	800,000	-0,039	0,102
-667,291	-14,900	-0,018	0,008
-666,276	432,761	0,014	0,023
-665,262	-200,000	0,024	-0,082
-664,247	271,742	-0,036	0,046
-663,232	-112,810	0,031	0,004
-662,218	-96,444	0,103	0,020
-661,203	-200,000	-0,010	0,157
-660,189	28,436	0,060	0,037
-659,174	800,000	0,031	-0,075
-658,159	30,494	-0,124	-0,077
-657,145	35,821	-0,109	-0,069
-656,130	-50,719	0,121	0,041
-655,116	-71,140	-0,100	0,027
-654,101	-200,000	-0,001	0,022
-653,086	-56,311	0,074	-0,024
-652,072	-200,000	0,000	0,070
-651,057	-66,831	-0,095	0,027
-650,043	608,198	-0,030	0,054
-649,028	800,000	0,014	0,042
-648,014	55,551	0,038	0,027
-646,999	-82,586	-0,094	0,022
-645,984	-160,441	-0,090	-0,003
-644,970	94,736	-0,109	-0,090
-643,955	563,057	0,032	-0,056
-642,941	800,000	-0,026	-0,056
-641,926	-39,610	0,033	-0,012
-640,911	-110,016	0,026	0,004
-639,897	238,931	0,100	0,121
-638,882	-200,000	0,016	-0,075
-637,868	-143,135	0,180	-0,012
-636,853	579,949	0,025	-0,044
-635,838	-200,000	0,007	-0,041
-634,824	-200,000	-0,001	-0,060
-633,809	-200,000	-0,042	-0,175
-632,795	-67,854	-0,020	-0,006
-631,780	276,027	-0,017	-0,022
-630,765	-32,668	-0,090	0,036
-629,751	199,071	0,076	-0,085
-628,736	28,517	-0,034	-0,021
-627,722	-72,462	0,055	0,015
-626,707	7,377	-0,097	-0,052
-625,692	121,538	0,028	-0,025
-624,678	-57,593	0,172	-0,054
-623,663	800,000	0,009	-0,024
-622,649	-62,170	0,041	-0,012
-621,634	-200,000	0,008	0,102
-620,619	-63,163	-0,061	-0,018
-619,605	349,717	-0,075	0,107
-618,590	-200,000	-0,024	0,161
-617,576	-34,913	0,119	-0,047
-616,561	800,000	0,038	-0,094
-615,546	-25,572	0,094	-0,040
-614,532	327,659	-0,128	-0,179
-613,517	-95,532	-0,056	0,011
-612,503	96,660	0,040	-0,033
-611,488	28,722	0,035	0,021
-610,474	-29,790	-0,100	-0,041
-609,459	-76,139	-0,054	0,014
-608,444	-200,000	-0,016	0,068
-607,430	-200,000	-0,017	-0,092
-606,415	25,994	0,031	0,019
-605,401	611,087	-0,051	-0,093
-604,386	5,611	-0,066	-0,035
-603,371	225,794	0,049	-0,058
-602,357	-65,054	0,030	0,009
-601,342	800,000	-0,064	-0,165
-600,328	-43,135	-0,138	-0,050
-599,313	-200,000	0,011	-0,068
-598,298	-39,042	-0,108	0,041
-597,284	-44,277	0,090	0,033
-596,269	61,191	-0,068	-0,049
-595,255	94,553	-0,086	-0,071
-594,240	-200,000	-0,007	-0,112
-593,225	-147,075	-0,074	-0,005
-592,211	389,089	0,047	-0,070
-591,196	-57,289	-0,072	-0,023
-590,182	-42,954	0,115	-0,042
-589,167	414,853	-0,060	0,093
-588,152	-200,000	-0,017	-0,135
-587,138	800,000	0,049	-0,104
-586,123	220,441	-0,027	0,031
-585,109	16,645	-0,073	0,042
-584,094	-200,000	0,008	-0,142
-583,079	229,535	-0,044	-0,052
-582,065	-200,000	0,003	-0,018
-581,050	-76,815	0,042	-0,011
-580,036	35,670	0,026	0,016
-579,021	800,000	0,078	-0,212
-578,006	309,588	-0,063	0,085
-576,992	369,305	0,080	0,117
-575,977	124,085	-0,043	-0,039
-574,963	121,140	0,110	-0,099
-573,948	348,975	0,113	0,162
-572,934	-200,000	-0,001	0,023
-571,919	121,803	-0,070	0,063
-570,904	800,000	-0,086	-0,209
-569,890	466,911	0,035	-0,057
-568,875	199,481	-0,113	-0,126
-567,861	263,686	-0,054	0,068
-566,846	359,329	0,006	0,009
-565,831	800,000	-0,034	-0,090
-564,817	-19,008	-0,140	-0,063
-563,802	-27,759	-0,058	0,024
-562,788	152,085	0,080	0,079
-561,773	72,406	0,101	-0,076
-560,758	-168,489	0,100	0,003
-559,744	-125,580	0,078	-0,008
-558,729	276,563	0,044	-0,057
-557,715	-200,000	-0,021	-0,089
-556,700	122,581	-0,038	0,034
-555,685	-47,311	0,152	-0,053
-554,671	256,388	0,062	0,077
-553,656	51,766	-0,096	0,066
-552,642	-158,206	-0,099	0,004
-551,627	-145,271	-0,090	-0,006
-550,612	357,965	-0,030	0,044
-549,598	-76,251	-0,072	-0,018
-548,583	-0,250	0,016	0,008
-547,569	183,513	0,057	-0,061
-546,554	-78,523	0,029	-0,007
-545,539	-62,601	0,036	-0,011
-544,525	514,297	-0,071	0,120
-543,510	-200,000	-0,020	-0,095
-542,496	345,038	0,024	-0,035
-541,481	-199,642	-0,089	-0,000
-540,466	-145,473	-0,108	-0,007
-539,452	-200,000	-0,011	-0,058
-538,437	10,028	-0,027	-0,015
-537,423	-78,852	-0,121	-0,030
-536,408	-95,690	-0,017	-0,003
-535,393	168,493	-0,107	-0,110
-534,379	507,168	-0,046	-0,077
-533,364	-200,000	0,003	-0,039
-532,350	33,906	0,158	0,099
-531,335	-200,000	0,005	0,073
-530,321	-16,854	-0,079	0,036
-529,306	162,207	-0,097	-0,098
-528,291	-46,204	0,067	0,024
-527,277	424,453	-0,026	0,041
-526,262	106,016	-0,098	0,084
-525,248	-101,320	0,094	0,016
-524,233	32,820	0,142	-0,089
-523,218	800,000	-0,010	0,026
-522,204	27,534	-0,088	-0,053
-521,189	54,034	-0,149	-0,104
-520,175	573,943	-0,086	-0,152
-519,160	285,032	-0,043	-0,056
-518,145	-200,000	-0,006	0,049
-517,131	461,057	-0,044	0,071
-516,116	324,130	-0,039	0,053
-515,102	20,408	-0,145	0,085
-514,087	153,087	-0,096	-0,095
-513,072	800,000	-0,039	-0,093
-512,058	55,612	0,081	-0,056
-511,043	198,165	0,100	0,110
-510,029	47,403	-0,135	0,090
-509,014	800,000	-0,025	0,072
-507,999	-61,387	-0,046	0,014
-506,985	-179,129	-0,102	-0,002
-505,970	16,561	0,051	-0,029
-504,956	-127,594	0,121	0,013
-503,941	-78,745	-0,105	-0,026
-502,926	-105,588	0,070	-0,011
-501,912	-200,000	0,004	0,107
-500,897	230,522	0,039	0,046
-499,883	-200,000	0,011	-0,051
-498,868	-200,000	0,017	0,073
-497,853	-200,000	-0,020	-0,117
-496,839	-51,956	0,042	0,014
-495,824	800,000	-0,018	0,041
-494,810	89,375	-0,018	0,015
-493,795	800,000	0,035	-0,078
-492,781	-200,000	0,005	0,031
-491,766	-129,242	-0,141	-0,014
-490,751	681,681	0,043	-0,082
-489,737	800,000	-0,044	0,137
-488,722	-200,000	0,008	0,137
-487,708	-79,036	0,134	0,033
-486,693	318,514	0,088	0,120
-485,678	59,434	-0,219	0,155
-484,664	367,303	-0,054	0,079
-483,649	-200,000	0,001	-0,010
-482,635	-200,000	-0,008	-0,143
-481,620	263,400	0,030	-0,037
-480,605	-145,882	0,096	-0,006
-479,591	493,236	-0,011	0,019
-478,576	133,998	-0,043	0,040
-477,562	800,000	0,029	-0,064
-476,547	-200,000	-0,023	-0,084
-475,532	265,108	0,020	0,025
-474,518	800,000	0,046	-0,139
-473,503	293,706	0,099	0,131
-472,489	-112,722	0,085	-0,012
-471,474	47,831	0,019	-0,013
-470,459	172,217	-0,026	-0,027
-469,445	-96,859	-0,080	0,015
-468,430	117,601	-0,124	0,110
-467,416	800,000	-0,062	0,156
-466,401	248,422	-0,049	0,059
-465,386	-56,901	0,070	0,022
-464,372	800,000	0,040	0,082
-463,357	56,154	-0,045	0,032
-462,343	-200,000	-0,006	0,020
-461,328	79,047	0,044	-0,034
-460,313	98,533	0,113	0,094
-459,299	-200,000	0,025	0,086
-458,284	-42,452	-0,030	-0,011
-457,270	94,574	0,078	0,064
-456,255	-16,680	-0,060	0,027
-455,241	-200,000	-0,048	-0,181
-454,226	71,368	0,092	-0,069
-453,211	169,729	0,066	-0,068
-452,197	-138,209	0,074	0,006
-451,182	-200,000	-0,010	0,070
-450,168	-200,000	-0,035	0,127
-449,153	-50,898	-0,235	-0,079
-448,138	585,983	-0,031	-0,055
-447,124	141,246	0,029	-0,028
-446,109	137,259	0,128	0,121
-445,095	15,560	-0,136	0,077
-444,080	47,223	-0,114	0,076
-443,065	-56,937	0,078	-0,025
-442,051	-200,000	0,007	-0,029
-441,036	800,000	-0,047	-0,139
-440,022	-160,048	-0,154	0,006
-439,007	253,060	-0,033	-0,041
-437,992	-200,000	0,049	-0,172
-436,978	-54,967	0,082	-0,026
-435,963	800,000	0,039	-0,092
-434,949	26,417	-0,067	-0,040
-433,934	800,000	-0,055	-0,133
-432,919	78,941	0,031	0,024
-431,905	-145,691	0,073	-0,005
-430,890	-63,985	0,061	0,018
-429,876	172,713	0,079	0,082
-428,861	94,700	0,036	-0,029
-427,846	189,465	-0,069	0,075
-426,832	-32,604	0,094	-0,037
-425,817	-200,000	0,039	-0,179
-424,803	102,517	-0,116	0,097
-423,788	132,732	0,051	-0,048
-422,773	467,599	0,045	-0,073
-421,759	800,000	0,041	0,132
-420,744	-67,781	-0,092	0,026
-419,730	-200,000	0,008	-0,043
-418,715	470,203	-0,044	-0,071
-417,701	-200,000	-0,018	-0,059
-416,686	304,586	0,071	-0,095
-415,671	-38,374	0,037	0,014
-414,657	-200,000	-0,037	0,135
-413,642	-67,824	0,136	0,038
-412,628	499,961	-0,040	0,066
-411,613	147,655	-0,067	-0,065
-410,598	-200,000	0,004	-0,030
-409,584	322,618	0,045	0,062
-408,569	220,019	-0,054	-0,062
-407,555	55,716	-0,140	-0,097
-406,540	-90,757	0,023	0,005
-405,525	800,000	-0,065	-0,169
-404,511	800,000	-0,011	-0,032
-403,496	325,902	0,030	-0,042
-402,482	-62,175	0,031	-0,009
-401,467	140,149	-0,063	0,059
-400,452	391,457	0,049	0,073
-399,438	-84,017	0,079	-0,018
-398,423	133,746	-0,072	-0,067
-397,409	-200,000	-0,008	-0,042
-396,394	800,000	-0,025	0,064
-395,379	65,239	0,028	0,020
-394,365	283,331	0,038	-0,050
-393,350	-39,204	0,032	0,012
-392,336	131,995	0,075	-0,069
-391,321	-200,000	0,002	-0,082
-390,306	-200,000	-0,019	0,132
-389,292	303,913	0,004	0,005
-388,277	-200,000	-0,008	-0,069
-387,263	137,320	0,110	0,103
-386,248	-122,089	0,123	-0,014
-385,233	-9,142	-0,066	-0,032
-384,219	-90,768	0,108	0,022
-383,204	-32,859	0,106	0,042
-382,190	-0,187	-0,108	0,055
-381,175	-200,000	0,001	0,085
-380,160	30,029	0,080	0,049
-379,146	-200,000	0,000	-0,035
-378,131	173,764	0,070	-0,073
-377,117	187,654	0,097	-0,105
-376,102	440,235	-0,037	0,059
-375,088	152,358	0,011	0,011
-374,073	268,647	0,088	-0,112
-373,058	-22,710	-0,135	0,058
-372,044	-15,037	0,054	0,025
-371,029	168,526	-0,027	0,028
-370,015	-200,000	0,017	0,118
-369,000	-78,421	0,107	-0,026
-367,985	-58,375	0,051	-0,016
-366,971	93,081	0,041	-0,033
-365,956	-120,738	0,172	-0,021
-364,942	-83,854	-0,095	0,022
-363,927	97,206	0,089	0,074
-362,912	-52,007	0,103	-0,034
-361,898	211,933	0,071	0,080
-360,883	-80,989	0,110	0,026
-359,869	164,262	0,049	-0,049
-358,854	765,420	0,047	0,093
-357,839	336,922	0,060	0,084
-356,825	800,000	-0,088	0,191
-355,810	102,988	-0,034	-0,029
-354,796	-139,733	0,039	0,003
-353,781	-87,379	-0,077	0,017
-352,766	-200,000	0,008	-0,075
-351,752	-43,129	0,144	0,052
-350,737	-60,644	0,035	0,010
-349,723	96,187	0,052	0,042
-348,708	51,046	0,079	0,053
-347,693	-58,330	-0,007	-0,002
-346,679	-200,000	-0,019	-0,159
-345,664	-200,000	-0,010	-0,051
-344,650	342,154	0,014	0,019
-343,635	92,190	0,090	0,073
-342,620	-74,394	0,058	-0,015
-341,606	-200,000	0,010	0,084
-340,591	-25,895	0,157	0,066
-339,577	340,805	-0,086	-0,121
-338,562	61,260	0,046	-0,032
-337,548	466,847	-0,024	-0,038
-336,533	800,000	0,020	0,052
-335,518	800,000	-0,020	-0,050
-334,504	-42,729	0,119	-0,043
-333,489	129,200	-0,023	0,021
-332,475	-179,621	0,049	-0,001
-331,460	186,684	-0,133	-0,142
-330,445	-34,542	0,095	-0,037
-329,431	61,140	0,159	-0,113
-328,416	357,925	-0,055	0,079
-327,402	-70,634	0,122	-0,033
-326,387	438,653	0,008	-0,012
-325,372	-98,007	-0,216	0,040
-324,358	-200,000	-0,004	-0,093
-323,343	-200,000	-0,015	-0,085
-322,329	-171,214	-0,041	-0,001
-321,314	107,818	-0,034	0,029
-320,299	-200,000	-0,034	0,152
-319,285	-200,000	-0,002	-0,123
-318,270	800,000	-0,031	0,092
-317,256	800,000	-0,018	0,041
-316,241	61,919	0,038	-0,027
-315,226	-200,000	-0,016	-0,058
-314,212	-97,050	-0,056	0,010
-313,197	172,211	0,086	0,088
-312,183	-200,000	0,053	0,185
-311,168	-1,137	-0,085	-0,043
-310,153	663,407	0,055	-0,101
-309,139	33,656	0,134	-0,084
-308,124	-200,000	-0,034	0,125
-307,110	-102,544	-0,152	-0,026
-306,095	312,202	0,084	0,113
-305,080	134,973	0,123	0,115
-304,066	170,359	-0,117	-0,120
-303,051	-200,000	0,022	-0,106
-302,037	-175,347	-0,040	0,001
-301,022	800,000	-0,032	0,074
-300,008	236,547	-0,058	0,069
-298,993	800,000	-0,071	0,169
-297,978	800,000	0,036	0,079
-296,964	-49,219	-0,168	0,057
-295,949	-177,891	-0,084	0,001
-294,935	-37,584	-0,179	0,068
-293,920	-200,000	0,019	-0,072
-292,905	164,305	-0,039	-0,039
-291,891	-108,467	-0,052	0,008
-290,876	-67,141	-0,111	0,031
-289,862	-200,000	-0,010	0,064
-288,847	189,063	0,101	0,109
-287,832	-97,007	-0,052	-0,010
-286,818	433,776	-0,030	-0,047
-285,803	-187,490	0,092	-0,001
-284,789	220,170	-0,129	0,148
-283,774	364,629	-0,085	0,123
-282,759	42,087	0,147	0,095
-281,745	800,000	0,025	-0,070
-280,730	800,000	-0,052	0,156
-279,716	258,689	0,084	-0,104
-278,701	618,880	-0,013	0,024
-277,686	800,000	0,041	0,098
-276,672	9,918	0,035	0,019
-275,657	-200,000	0,010	0,086
-274,643	-27,089	-0,182	-0,076
-273,628	-200,000	0,015	-0,051
-272,613	-23,458	-0,017	-0,007
-271,599	-80,041	0,109	-0,026
-270,584	-200,000	0,011	-0,140
-269,570	-136,054	-0,090	0,007
-268,555	-200,000	0,005	0,121
-267,540	12,561	-0,026	0,014
-266,526	10,129	-0,100	-0,054
-265,511	272,205	-0,051	0,064
-264,497	40,406	0,077	-0,050
-263,482	-200,000	0,013	0,100
-262,467	-200,000	0,027	-0,087
-261,453	-200,000	0,025	0,121
-260,438	107,730	-0,031	0,027
-259,424	-100,515	0,078	-0,014
-258,409	-27,385	0,112	-0,046
-257,395	-110,706	-0,100	-0,015
-256,380	590,497	0,070	0,124
-255,365	223,980	0,072	0,083
-254,351	-176,491	0,114	0,002
-253,336	-17,923	-0,089	-0,040
-252,322	-109,136	-0,098	0,015
-251,307	-200,000	0,005	-0,135
-250,292	399,788	-0,008	-0,012
-249,278	-13,687	0,100	0,046
-248,263	-200,000	0,015	0,069
-247,249	-200,000	0,002	0,161
-246,234	-62,825	-0,092	-0,027
-245,219	364,136	0,037	-0,053
-244,205	-200,000	-0,026	-0,164
-243,190	199,838	0,025	0,028
-242,176	-200,000	0,042	0,204
-241,161	32,089	-0,038	-0,023
-240,146	800,000	0,048	0,133
-239,132	202,695	-0,058	-0,064
-238,117	800,000	0,063	-0,130
-237,103	-200,000	-0,037	-0,182
-236,088	-32,393	0,066	0,026
-235,073	-200,000	0,004	-0,030
-234,059	800,000	0,038	0,106
-233,044	-71,173	-0,025	0,007
-232,030	-40,808	0,095	-0,035
-231,015	97,071	0,065	0,054
-230,000	-165,205	-0,053	0,002
-228,986	12,885	0,015	0,008
-227,971	-200,000	-0,072	0,235
-226,957	59,140	0,087	-0,061
-225,942	22,641	0,033	-0,019
-224,927	-30,165	0,103	-0,042
-223,913	-99,508	0,060	0,011
-222,898	-200,000	-0,028	-0,096
-221,884	230,454	-0,025	0,029
-220,869	-121,293	-0,017	-0,002
-219,855	65,810	0,088	0,063
-218,840	800,000	0,047	0,098
-217,825	800,000	-0,065	-0,177
-216,811	31,522	-0,065	-0,040
-215,796	-67,095	0,063	-0,017
-214,782	252,086	-0,077	-0,094
-213,767	-86,591	0,125	0,027
-212,752	-146,518	0,071	0,004
-211,738	-67,721	0,104	-0,029
-210,723	679,605	-0,055	-0,103
-209,709	-117,819	-0,139	-0,018
-208,694	248,974	0,009	0,011
-207,679	-24,760	0,103	-0,044
-206,665	-200,000	-0,005	-0,051
-205,650	-200,000	-0,002	-0,034
-204,636	220,458	0,038	0,043
-203,621	-200,000	-0,003	0,071
-202,606	-50,018	0,078	0,026
-201,592	116,294	-0,050	-0,044
-200,577	-200,000	0,024	0,092
-199,563	-18,492	-0,019	-0,008
-198,548	-200,000	-0,010	-0,057
-197,533	800,000	0,032	0,068
-196,519	800,000	-0,055	0,130
-195,504	161,073	-0,092	0,092
-194,490	-200,000	-0,024	0,085
-193,475	547,229	-0,063	-0,108
-192,460	54,508	0,039	-0,027
-191,446	-79,934	0,092	0,022
-190,431	621,317	0,057	0,103
-189,417	-37,926	0,020	-0,008
-188,402	-190,048	-0,139	-0,001
-187,387	-86,334	-0,042	-0,009
-186,373	-71,765	-0,096	0,025
-185,358	-83,574	-0,113	-0,025
-184,344	-200,000	-0,013	0,147
-183,329	283,459	0,065	0,084
-182,315	145,499	-0,007	-0,007
-181,300	292,658	-0,048	0,063
-180,285	513,847	-0,076	-0,127
-179,271	465,868	-0,074	-0,118
-178,256	125,080	-0,133	-0,119
-177,242	-61,015	0,038	-0,011
-176,227	-57,138	0,155	-0,048
-175,212	-130,743	0,064	0,006
-174,198	51,860	0,052	0,036
-173,183	800,000	0,019	-0,047
-172,169	48,251	-0,086	0,057
-171,154	-11,925	-0,100	0,047
-170,139	-118,110	0,033	-0,004
-169,125	-200,000	0,003	0,147
-168,110	343,644	0,113	0,158
-167,096	64,063	-0,024	0,017
-166,081	-67,817	-0,151	-0,042
-165,066	-200,000	0,002	0,018
-164,052	762,292	0,029	0,057
-163,037	-200,000	0,023	0,000
-162,023	800,000	-0,033	0,096
-161,008	98,476	-0,052	0,043
-159,993	800,000	0,018	-0,050
-158,979	462,780	-0,056	-0,090
-157,964	-52,763	-0,015	0,005
-156,950	271,854	-0,018	-0,023
-155,935	150,444	0,082	0,080
-154,920	81,174	0,118	0,091
-153,906	-200,000	0,011	0,127
-152,891	683,567	0,067	0,125
-151,877	111,841	-0,025	-0,021
-150,862	245,579	-0,065	0,079
-149,847	-101,952	0,081	-0,014
-148,833	800,000	-0,055	0,119
-147,818	800,000	-0,057	0,142
-146,804	32,854	-0,029	0,018
-145,789	-105,119	0,082	0,013
-144,775	800,000	0,046	-0,106
-143,760	257,943	-0,045	0,055
-142,745	-200,000	0,004	0,068
-141,731	-115,571	-0,094	0,012
-140,716	-200,000	0,003	0,039
-139,702	800,000	0,067	0,193
-138,687	527,706	0,038	-0,063
-137,672	109,917	-0,091	-0,077
-136,658	-200,000	-0,011	0,037
-135,643	-71,121	-0,037	0,010
-134,629	-68,766	-0,020	-0,005
-133,614	124,031	-0,059	0,053
-132,599	-200,000	0,010	-0,070
-131,585	-131,240	-0,050	0,005
-130,570	-64,238	-0,061	-0,017
-129,556	89,834	-0,078	0,062
-128,541	-200,000	0,009	0,088
-127,526	-200,000	0,017	-0,176
-126,512	17,600	-0,196	0,111
-125,497	-34,925	-0,049	-0,019
-124,483	-200,000	0,002	-0,139
-123,468	517,174	-0,054	-0,089
-122,453	-98,492	0,091	-0,016
-121,439	134,594	0,031	0,028
-120,424	-200,000	-0,053	-0,208
-119,410	26,353	0,011	0,007
-118,395	55,622	0,052	0,036
-117,380	-37,748	-0,087	-0,033
-116,366	236,732	0,058	0,069
-115,351	-18,379	-0,151	0,067
-114,337	800,000	-0,034	-0,078
-113,322	-31,802	0,078	-0,031
-112,307	-13,558	-0,046	0,021
-111,293	177,233	0,039	-0,041
-110,278	-94,311	-0,043	-0,008
-109,264	-200,000	0,007	-0,143
-108,249	-200,000	0,053	-0,201
-107,234	-200,000	0,019	-0,101
-106,220	-200,000	-0,001	-0,016
-105,205	800,000	0,028	-0,077
-104,191	64,773	0,052	-0,037
-103,176	-200,000	-0,008	0,098
-102,162	106,561	0,052	-0,044
-101,147	215,580	-0,025	0,028
-100,132	167,908	0,015	0,015
-99,118	-157,622	-0,049	0,002
-98,103	-74,968	-0,064	-0,016
-97,089	79,129	0,009	0,006
-96,074	717,476	-0,043	0,081
-95,059	260,448	-0,133	-0,163
-94,045	-200,000	-0,001	-0,014
-93,030	-200,000	-0,004	-0,018
-92,016	-200,000	-0,028	-0,182
-91,001	-39,279	-0,059	0,022
-89,986	-70,368	-0,039	-0,010
-88,972	27,901	-0,022	0,013
-87,957	443,022	0,032	0,050
-86,943	95,270	-0,083	0,067
-85,928	294,610	0,089	-0,115
-84,913	116,876	-0,027	0,023
-83,899	121,652	-0,065	0,058
-82,884	-102,013	0,141	-0,024
-81,870	213,785	0,042	-0,047
-80,855	27,855	0,073	0,044
-79,840	411,705	-0,092	-0,140
-78,826	-107,690	-0,048	-0,007
-77,811	-200,000	0,002	0,009
-76,797	800,000	-0,046	-0,093
-75,782	-200,000	0,014	-0,072
-74,767	-36,101	0,095	0,036
-73,753	158,154	-0,061	-0,060
-72,738	800,000	0,044	0,107
-71,724	587,713	0,064	-0,112
-70,709	64,062	-0,125	-0,089
-69,694	-92,359	-0,134	0,026
-68,680	-129,936	0,050	0,005
-67,665	-200,000	0,001	-0,041
-66,651	-200,000	-0,012	-0,143
-65,636	-123,900	-0,072	0,008
-64,622	415,779	0,021	-0,033
-63,607	312,066	-0,036	0,048
-62,592	170,581	0,071	0,073
-61,578	314,269	-0,085	-0,114
-60,563	800,000	-0,024	0,069
-59,549	-200,000	-0,015	0,186
-58,534	-38,012	-1,639	-0,614
-57,519	405,777	-1,441	-2,163
-56,505	-200,000	-0,326	-4,359
-55,490	184,329	0,892	0,938
-54,476	800,000	4,881	11,279
-53,461	-200,000	18,473	295,199
-52,446	800,000	731,171	2254,326
-51,432	559,332	1647,584	2831,533
-50,417	78,822	1666,733	1263,275
-49,403	22,513	1539,983	890,889
-48,388	16,481	1462,832	816,980
-47,373	17,870	1453,096	818,216
-46,359	17,098	1443,420	809,038
-45,344	14,774	1438,568	795,166
-44,330	14,626	1436,802	793,454
-43,315	14,671	1435,063	792,678
-42,300	14,649	1433,342	791,588
-41,286	14,710	1432,100	791,162
-40,271	14,686	1431,072	790,451
-39,257	14,691	1429,623	789,640
-38,242	14,710	1428,300	788,970
-37,227	14,733	1427,035	788,350
-36,213	14,688	1425,965	787,515
-35,198	14,705	1424,766	786,902
-34,184	14,691	1423,945	786,350
-33,169	14,657	1422,412	785,309
-32,154	14,709	1421,344	784,935
-31,140	14,695	1420,108	784,157
-30,125	14,739	1418,881	783,654
-29,111	14,717	1417,814	782,928
-28,096	14,690	1416,778	782,199
-27,082	14,630	1415,724	781,303
-26,067	14,654	1414,666	780,802
-25,052	14,624	1413,626	780,056
-24,038	14,593	1412,627	779,327
-23,023	14,631	1411,492	778,851
-22,009	14,601	1410,700	778,241
-20,994	14,535	1409,767	777,386
-19,979	14,583	1408,925	777,118
-18,965	14,518	1407,857	776,190
-17,950	14,541	1406,853	775,717
-16,936	14,532	1406,037	775,190
-15,921	14,494	1404,963	774,393
-14,906	14,497	1403,931	773,807
-13,892	14,488	1403,004	773,225
-12,877	14,521	1402,174	772,890
-11,863	14,521	1401,223	772,335
-10,848	14,508	1400,261	771,711
-9,833	14,443	1399,643	771,036
-8,819	14,461	1398,674	770,557
-7,804	14,468	1397,580	769,955
-6,790	14,414	1396,584	769,129
-5,775	14,435	1395,430	768,557
-4,760	14,437	1394,646	768,105
-3,746	14,380	1394,072	767,496
-2,731	14,429	1393,083	767,146
-1,717	14,399	1392,069	766,421
-0,702	14,387	1390,364	765,393
0,313	18,223	1308,879	738,311
1,327	34,678	705,553	436,118
2,342	52,989	124,213	84,090
3,356	2,092	16,664	8,499
4,371	8,341	3,081	1,636
5,386	-52,086	0,458	0,150
6,400	-200,000	-0,042	0,180
7,415	145,935	-0,278	-0,264
8,429	92,111	-0,285	-0,227
9,444	165,941	-0,320	-0,321
10,459	-110,460	-0,267	-0,039
11,473	111,864	-0,356	-0,304
12,488	-131,333	-0,295	0,027
13,502	77,248	-0,279	-0,210
14,517	-121,809	-0,352	-0,041
15,531	74,701	-0,303	-0,225
16,546	-66,010	-0,351	-0,098
17,561	114,574	-0,324	-0,279
18,575	85,168	-0,257	-0,200
19,590	342,639	-0,180	-0,250
20,604	-79,786	-0,240	-0,057
21,619	12,247	-0,425	-0,231
22,634	40,548	-0,545	-0,347
23,648	116,757	-0,441	-0,383
24,663	128,536	-0,431	-0,388
25,677	318,256	-0,279	-0,375
26,692	38,645	-0,330	-0,208
27,707	110,990	-0,427	-0,364
28,721	23,754	-0,378	-0,220
29,736	139,007	-0,376	-0,350
30,750	119,147	-0,470	-0,411
31,765	19,559	-0,461	-0,261
32,780	46,475	-0,437	-0,286
33,794	121,183	-0,359	-0,315
34,809	567,918	-0,231	-0,398
35,823	188,068	-0,336	-0,355
36,838	20,219	-0,523	-0,298
37,853	248,779	-0,270	-0,323
38,867	-41,305	-0,421	-0,152
39,882	-18,172	-0,575	-0,253
40,896	51,579	-0,278	-0,186
41,911	196,308	-0,255	-0,275
42,926	116,910	-0,384	-0,333
43,940	36,905	-0,311	-0,193
44,955	25,679	-0,363	-0,213
45,969	69,478	-0,340	-0,246
46,984	-12,928	-0,487	-0,223
47,999	93,427	-0,307	-0,245
49,013	6,993	-0,511	-0,268
50,028	-57,406	-0,322	-0,099
51,042	-0,201	-0,520	-0,260
52,057	102,330	-0,369	-0,304
53,071	105,146	-0,297	-0,248
54,086	-42,734	-0,365	-0,130
55,101	22,143	-0,309	-0,177
56,115	322,085	-0,208	-0,280
57,130	150,715	-0,232	-0,223
58,144	40,063	-0,372	-0,235
59,159	50,933	-0,448	-0,299
60,174	110,980	-0,336	-0,285
61,188	64,977	-0,371	-0,264
62,203	99,271	-0,248	-0,202
63,217	128,859	-0,286	-0,257
64,232	79,730	-0,340	-0,257
65,247	79,575	-0,324	-0,244
66,261	92,120	-0,306	-0,243
67,276	108,840	-0,329	-0,277
68,290	150,950	-0,283	-0,271
69,305	138,197	-0,232	-0,215
70,320	-5,333	-0,340	-0,164
71,334	105,873	-0,312	-0,260
72,349	-1,114	-0,299	-0,148
73,363	-121,520	-0,296	-0,034
74,378	36,542	-0,286	-0,177
75,393	-19,108	-0,301	-0,131
76,407	530,735	-0,158	-0,265
77,422	-50,395	-0,436	-0,144
78,436	15,531	-0,308	-0,170
79,451	171,378	-0,250	-0,253
80,466	79,704	-0,300	-0,227
81,480	81,273	-0,293	-0,223
82,495	-28,358	-0,378	-0,153
83,509	10,738	-0,273	-0,146
84,524	221,045	-0,218	-0,247
85,539	145,941	-0,189	-0,178
86,553	684,776	-0,182	-0,335
87,568	41,625	-0,364	-0,231
88,582	-28,008	-0,225	-0,091
89,597	179,091	-0,251	-0,258
90,611	-61,601	-0,166	-0,049
91,626	64,861	-0,296	-0,210
92,641	64,625	-0,188	-0,133
93,655	130,905	-0,306	-0,276
94,670	264,388	-0,271	-0,332
95,684	58,505	-0,220	-0,151
96,699	-81,144	-0,296	-0,068
97,714	87,781	-0,264	-0,205
98,728	57,290	-0,325	-0,223
99,743	-61,809	-0,315	-0,092
100,757	-77,787	-0,376	-0,091
101,772	-19,288	-0,367	-0,159
102,787	244,141	-0,233	-0,275
103,801	139,471	-0,158	-0,146
104,816	-7,622	-0,291	-0,138
105,830	-54,733	-0,206	-0,065
106,845	10,151	-0,298	-0,158
107,860	-48,810	-0,381	-0,128
108,874	165,936	-0,257	-0,255
109,889	34,908	-0,209	-0,128
110,903	-7,081	-0,359	-0,170
111,918	85,954	-0,201	-0,155
112,933	549,414	-0,180	-0,304
113,947	34,103	-0,264	-0,161
114,962	62,379	-0,207	-0,145
115,976	116,358	-0,235	-0,202
116,991	311,732	-0,263	-0,346
118,006	104,875	-0,303	-0,250
119,020	197,239	-0,290	-0,311
120,035	176,792	-0,254	-0,260
121,049	-5,107	-0,141	-0,068
122,064	-88,265	-0,341	-0,071
123,079	169,600	-0,244	-0,244
124,093	168,447	-0,259	-0,259
125,108	32,129	-0,348	-0,210
126,122	90,209	-0,234	-0,183
127,137	-42,423	-0,197	-0,070
128,151	-3,556	-0,263	-0,128
129,166	-68,378	-0,304	-0,082
130,181	50,127	-0,306	-0,202
131,195	170,518	-0,172	-0,173
132,210	41,379	-0,330	-0,209
133,224	179,250	-0,244	-0,250
134,239	39,457	-0,296	-0,185
135,254	256,344	-0,293	-0,353
136,268	392,035	-0,132	-0,193
137,283	220,143	-0,194	-0,217
138,297	69,625	-0,288	-0,208
139,312	73,873	-0,336	-0,246
140,327	25,873	-0,345	-0,201
141,341	80,602	-0,197	-0,148
142,356	-67,919	-0,211	-0,057
143,370	51,612	-0,282	-0,188
144,385	102,210	-0,246	-0,201
145,400	75,562	-0,331	-0,244
146,414	126,441	-0,197	-0,174
147,429	191,659	-0,206	-0,218
148,443	8,112	-0,279	-0,146
149,458	87,195	-0,200	-0,155
150,473	164,673	-0,263	-0,259
151,487	-0,509	-0,265	-0,131
152,502	-16,881	-0,350	-0,154
153,516	228,903	-0,160	-0,182
154,531	38,302	-0,227	-0,141
155,546	358,835	-0,201	-0,282
156,560	29,771	-0,128	-0,076
157,575	84,393	-0,130	-0,100
158,589	105,925	-0,259	-0,214
159,604	-27,104	-0,314	-0,128
160,619	135,292	-0,267	-0,242
161,633	201,248	-0,285	-0,307
162,648	25,741	-0,284	-0,165
163,662	-53,485	-0,274	-0,087
164,677	-18,178	-0,261	-0,114
165,692	-4,475	-0,208	-0,100
166,706	477,194	-0,176	-0,280
167,721	378,387	-0,241	-0,345
168,735	111,010	-0,255	-0,214
169,750	82,067	-0,228	-0,172
170,764	127,476	-0,192	-0,170
171,779	-120,395	-0,243	-0,028
172,794	53,653	-0,187	-0,125
173,808	-5,663	-0,315	-0,150
174,823	160,082	-0,221	-0,215
175,837	52,060	-0,250	-0,166
176,852	154,589	-0,234	-0,225
177,867	-47,894	-0,130	0,044
178,881	47,529	-0,164	-0,107
179,896	-0,065	-0,210	-0,104
180,910	47,164	-0,317	-0,205
181,925	-30,358	-0,219	-0,086
182,940	26,320	-0,264	-0,153
183,954	147,445	-0,289	-0,272
184,969	448,722	-0,092	-0,141
185,983	268,215	-0,248	-0,303
186,998	175,950	-0,212	-0,215
188,013	227,655	-0,215	-0,244
189,027	440,927	-0,119	-0,181
190,042	59,228	-0,257	-0,176
191,056	488,450	-0,141	-0,226
192,071	38,764	-0,162	-0,100
193,086	245,104	-0,162	-0,190
194,100	-25,010	-0,183	-0,075
195,115	-166,152	-0,239	0,007
196,129	9,525	-0,245	-0,129
197,144	75,041	-0,169	-0,124
198,159	-200,000	-0,104	-0,335
199,173	130,294	-0,162	-0,145
200,188	-119,365	-0,205	-0,025
201,202	341,407	-0,120	-0,164
202,217	-4,617	-0,135	-0,065
203,232	-26,479	-0,249	-0,101
204,246	71,620	-0,184	-0,133
205,261	-6,832	-0,340	-0,160
206,275	800,000	-0,120	-0,231
207,290	-64,375	-0,163	-0,046
208,304	-99,555	-0,314	-0,054
209,319	-72,782	-0,202	-0,051
210,334	-29,299	-0,228	-0,090
211,348	118,759	-0,190	-0,164
212,363	175,399	-0,170	-0,172
213,377	144,698	-0,211	-0,196
214,392	-85,842	-0,185	-0,040
215,407	-27,536	-0,161	-0,065
216,421	-200,000	-0,008	-0,087
217,436	702,004	-0,075	-0,138
218,450	152,719	-0,155	-0,148
219,465	30,805	-0,174	-0,104
220,480	46,543	-0,132	-0,085
221,494	238,239	-0,183	-0,212
222,509	-50,080	-0,262	-0,086
223,523	53,192	-0,231	-0,153
224,538	-123,796	-0,327	-0,036
225,553	166,441	-0,129	-0,127
226,567	-103,294	-0,254	-0,041
227,582	32,624	-0,186	-0,112
228,596	325,215	-0,107	-0,142
229,611	115,951	-0,193	-0,164
230,626	408,485	-0,146	-0,216
231,640	569,889	-0,130	-0,220
232,655	29,713	-0,137	-0,081
233,669	-78,926	-0,301	-0,071
234,684	-71,299	-0,231	-0,060
235,699	37,537	-0,065	0,040
236,713	-140,995	-0,125	-0,009
237,728	40,666	-0,056	-0,035
238,742	-100,237	-0,172	-0,029
239,757	-22,442	-0,210	-0,088
240,772	86,851	-0,230	-0,176
241,786	-93,165	-0,246	-0,047
242,801	-163,035	-0,266	-0,009
243,815	-112,703	-0,142	-0,019
244,830	-158,228	-0,155	-0,006
245,844	-43,401	-0,225	-0,078
246,859	439,057	-0,210	-0,319
247,874	102,356	-0,198	-0,161
248,888	167,795	-0,117	-0,116
249,903	75,170	-0,211	-0,154
250,917	-168,689	-0,126	-0,003
251,932	32,631	-0,201	-0,120
252,947	-200,000	-0,044	-0,164
253,961	-79,246	-0,174	0,041
254,976	156,701	-0,128	-0,123
255,990	800,000	-0,070	-0,155
257,005	800,000	-0,110	-0,212
258,020	122,326	-0,078	-0,068
259,034	75,288	-0,155	-0,113
260,049	41,169	-0,222	-0,139
261,063	17,678	-0,209	-0,115
262,078	182,568	-0,108	-0,110
263,093	40,617	-0,252	-0,157
264,107	-123,752	-0,253	-0,027
265,122	148,523	-0,090	-0,084
266,136	-143,879	-0,183	0,012
267,151	-97,450	-0,116	0,021
268,166	33,041	-0,245	-0,147
269,180	-29,429	-0,155	-0,061
270,195	163,506	-0,222	-0,216
271,209	203,376	-0,223	-0,239
272,224	307,140	-0,074	-0,095
273,239	57,549	-0,119	-0,080
274,253	417,000	-0,030	-0,044
275,268	800,000	-0,071	-0,175
276,282	522,917	-0,093	-0,151
277,297	125,565	-0,149	-0,130
278,312	-17,729	-0,301	-0,130
279,326	-173,924	-0,162	-0,003
280,341	-45,069	-0,094	-0,032
281,355	-122,427	-0,109	0,012
282,370	93,202	-0,161	-0,126
283,384	129,993	-0,217	-0,192
284,399	800,000	-0,095	-0,262
285,414	246,782	-0,101	-0,118
286,428	440,694	-0,042	-0,063
287,443	35,750	-0,082	0,050
288,457	-16,432	-0,167	-0,073
289,472	-12,153	-0,184	-0,083
290,487	28,312	-0,139	-0,081
291,501	264,329	-0,133	-0,160
292,516	-66,798	-0,189	-0,051
293,530	454,071	-0,120	-0,183
294,545	461,188	-0,155	-0,240
295,560	-144,933	-0,170	-0,011
296,574	433,665	-0,122	-0,183
297,589	147,133	-0,188	-0,175
298,603	78,418	-0,189	-0,139
299,618	195,417	-0,100	-0,105
300,633	346,491	-0,148	-0,202
301,647	532,385	-0,103	-0,169
302,662	646,573	-0,065	-0,115
303,676	-200,000	-0,037	-0,148
304,691	721,348	-0,041	-0,076
305,706	431,458	-0,091	-0,136
306,720	-60,267	-0,270	-0,079
307,735	35,871	-0,203	-0,123
308,749	70,998	-0,095	-0,068
309,764	465,617	-0,114	-0,177
310,779	-46,360	-0,210	-0,071
311,793	35,252	-0,164	-0,099
312,808	266,972	-0,190	-0,230
313,822	229,636	-0,176	-0,199
314,837	-143,399	-0,156	0,010
315,852	328,269	-0,104	-0,138
316,866	800,000	-0,024	0,047
317,881	-200,000	-0,024	-0,135
318,895	-8,037	-0,248	-0,115
319,910	-174,826	-0,375	-0,007
320,925	800,000	-0,103	-0,210
321,939	-29,895	-0,097	-0,038
322,954	19,070	-0,183	-0,101
323,968	-96,534	-0,152	-0,027
324,983	556,639	-0,026	-0,044
325,997	103,932	-0,121	-0,098
327,012	52,623	-0,214	-0,140
328,027	56,817	-0,200	-0,134
329,041	650,802	-0,145	-0,257
330,056	203,202	-0,153	-0,163
331,070	136,195	-0,121	-0,109
332,085	53,532	-0,249	-0,164
333,100	-65,797	-0,209	-0,057
334,114	97,314	-0,183	-0,145
335,129	293,287	-0,148	-0,186
336,143	81,416	-0,152	-0,113
337,158	-91,825	-0,127	0,025
338,173	-60,281	-0,181	0,053
339,187	-200,000	-0,034	0,113
340,202	391,880	-0,111	-0,160
341,216	687,295	-0,121	-0,219
342,231	501,909	-0,115	-0,184
343,246	-50,748	-0,158	0,051
344,260	-86,826	-0,157	-0,033
345,275	198,179	-0,098	0,103
346,289	145,700	-0,071	-0,066
347,304	177,140	-0,113	-0,113
348,319	6,296	-0,163	-0,083
349,333	66,868	-0,241	-0,168
350,348	64,134	-0,224	-0,155
351,362	256,637	-0,077	-0,091
352,377	-92,447	-0,143	-0,027
353,392	800,000	0,016	0,044
354,406	32,343	-0,067	-0,040
355,421	208,628	1313,339	1413,218
356,435	160,535	1473,908	1413,719
