DTS Sentinel unit serial number:	SN410029Multiplexer serial number:	ORYXHardware model number:	OX2-SRSoftware version number:	ORYX F/W v4,00 Oryx Data Collector v3.7.2.0data status	okinstallation	B3 Nyhavnadifferential loss correction	single-endedforward channel	channel 1reverse channel	N/Adate	2023/11/28time	20:27:30forward acquisition time	300,00reverse acquisition time	0,00gamma	499,1914k internal	0,3212k external	0,3212temperature offset calibration	1,0000default loss term (dB/km)	0,3820temperature slope calibration	1,0000multiplexer offset coefficient	1,0000multiplexer slope coefficient	1,0000fibre end	0,00T internal ref (°C)	7,95T ext. ref 1 (°C)	-6,65T ext. ref 2 (°C)	-6,78length (m)	temperature (°C)	Stokes	anti-Stokes-744,400	28,982	-0,198	-0,121
-743,385	-200,000	-0,065	0,222
-742,371	32,644	-0,200	-0,125
-741,356	800,000	0,106	0,232
-740,342	227,882	-0,155	-0,184
-739,327	-200,000	-0,082	0,292
-738,312	290,939	-0,235	-0,311
-737,298	-200,000	-0,056	0,268
-736,283	586,612	-0,167	-0,299
-735,269	-200,000	0,063	0,374
-734,254	-20,628	-0,190	-0,084
-733,239	-145,920	-0,332	0,021
-732,225	-200,000	-0,023	-0,258
-731,210	-200,000	-0,046	0,186
-730,196	800,000	0,017	0,039
-729,181	-200,000	0,018	0,092
-728,167	-73,566	-0,068	0,018
-727,152	106,665	-0,106	-0,091
-726,137	29,097	0,127	0,078
-725,123	506,015	-0,036	-0,060
-724,108	128,823	0,086	-0,080
-723,094	-98,598	-0,075	-0,014
-722,079	800,000	0,023	-0,056
-721,064	136,409	-0,013	-0,013
-720,050	-200,000	-0,023	-0,101
-719,035	-104,785	0,117	0,019
-718,021	9,954	-0,121	0,066
-717,006	-32,830	-0,048	0,019
-715,991	-200,000	-0,005	-0,157
-714,977	-0,859	0,082	-0,042
-713,962	-200,000	-0,012	-0,135
-712,948	-57,965	-0,105	0,033
-711,933	634,947	-0,011	0,020
-710,918	13,559	0,198	-0,111
-709,904	800,000	-0,048	-0,099
-708,889	272,817	-0,067	-0,086
-707,875	615,415	-0,053	-0,096
-706,860	800,000	0,035	-0,089
-705,845	800,000	-0,029	0,085
-704,831	141,516	-0,060	-0,057
-703,816	-148,458	-0,070	0,004
-702,802	-126,485	-0,131	-0,014
-701,787	17,670	-0,158	-0,091
-700,772	30,393	-0,027	-0,017
-699,758	-200,000	-0,092	0,000
-698,743	59,671	0,028	0,020
-697,729	-173,990	-0,078	-0,002
-696,714	100,832	-0,087	-0,073
-695,699	-18,241	-0,063	0,029
-694,685	-200,000	0,024	-0,079
-693,670	254,609	0,057	-0,071
-692,656	326,490	0,075	-0,104
-691,641	-200,000	-0,018	-0,142
-690,627	-109,992	0,166	0,025
-689,612	800,000	0,038	0,118
-688,597	-3,456	0,092	-0,046
-687,583	-200,000	-0,020	-0,115
-686,568	24,003	-0,071	-0,042
-685,554	-165,609	0,067	0,002
-684,539	-200,000	0,011	-0,091
-683,524	786,199	-0,027	-0,054
-682,510	-200,000	0,005	0,090
-681,495	478,128	0,040	-0,065
-680,481	800,000	-0,048	-0,134
-679,466	403,652	0,088	-0,135
-678,451	488,142	-0,095	-0,157
-677,437	-200,000	-0,023	-0,075
-676,422	-169,900	0,054	0,001
-675,408	800,000	0,028	-0,089
-674,393	-200,000	0,012	0,124
-673,378	17,518	0,038	-0,022
-672,364	-74,412	-0,143	-0,037
-671,349	425,403	-0,018	0,028
-670,335	-35,717	0,174	-0,068
-669,320	-200,000	0,011	0,085
-668,305	800,000	-0,014	-0,033
-667,291	-4,315	-0,123	0,061
-666,276	433,178	-0,058	-0,091
-665,262	-97,793	-0,067	-0,012
-664,247	-200,000	0,009	0,067
-663,232	-161,937	-0,151	-0,005
-662,218	-73,498	0,117	0,031
-661,203	-78,710	0,119	-0,029
-660,189	-31,101	-0,148	-0,060
-659,174	-136,537	-0,051	0,004
-658,159	462,594	-0,094	-0,152
-657,145	328,212	0,070	-0,098
-656,130	800,000	0,021	0,041
-655,116	-103,514	0,179	0,030
-654,101	-200,000	0,002	0,143
-653,086	371,357	-0,074	-0,109
-652,072	-117,205	0,105	-0,014
-651,057	-200,000	-0,002	-0,119
-650,043	-200,000	-0,023	-0,206
-649,028	-17,270	0,038	-0,017
-648,014	683,101	0,089	0,168
-646,999	-84,356	-0,090	-0,020
-645,984	203,936	-0,117	0,131
-644,970	416,256	0,050	-0,077
-643,955	-200,000	-0,001	0,049
-642,941	178,477	0,072	-0,076
-641,926	-125,291	0,050	-0,005
-640,911	-106,442	0,189	0,030
-639,897	26,657	-0,088	-0,053
-638,882	-111,474	0,111	-0,016
-637,868	272,661	0,144	-0,184
-636,853	-200,000	-0,004	-0,131
-635,838	-124,213	-0,088	-0,010
-634,824	211,638	-0,031	-0,036
-633,809	-25,631	0,145	-0,062
-632,795	438,078	-0,081	-0,127
-631,780	56,611	0,046	-0,032
-630,765	1,487	-0,062	-0,032
-629,751	800,000	-0,051	-0,140
-628,736	171,630	-0,123	0,127
-627,722	800,000	0,020	0,054
-626,707	211,301	0,080	-0,091
-625,692	-77,516	-0,071	0,018
-624,678	-33,601	-0,046	-0,018
-623,663	392,449	-0,026	-0,039
-622,649	-113,342	-0,043	-0,006
-621,634	-57,081	-0,050	-0,016
-620,619	47,320	-0,029	-0,019
-619,605	-58,638	-0,139	0,043
-618,590	-57,632	0,083	-0,026
-617,576	-200,000	0,012	0,056
-616,561	-76,819	-0,108	0,027
-615,546	-200,000	0,021	0,069
-614,532	-20,710	-0,123	0,054
-613,517	-200,000	-0,024	-0,103
-612,503	198,287	-0,057	0,063
-611,488	108,072	-0,022	-0,019
-610,474	409,417	0,078	0,120
-609,459	69,074	-0,084	-0,062
-608,444	-93,867	0,038	-0,007
-607,430	-200,000	-0,024	0,098
-606,415	182,184	-0,065	-0,069
-605,401	800,000	-0,067	-0,145
-604,386	511,807	0,032	0,054
-603,371	800,000	-0,025	0,054
-602,357	251,720	-0,092	0,113
-601,342	-44,146	-0,118	0,043
-600,328	172,063	0,067	-0,069
-599,313	47,751	-0,063	0,043
-598,298	51,813	0,079	-0,054
-597,284	-14,215	0,089	-0,041
-596,269	-200,000	-0,007	0,064
-595,255	800,000	0,047	0,101
-594,240	-200,000	0,024	-0,123
-593,225	81,864	-0,048	-0,037
-592,211	158,017	0,032	0,032
-591,196	77,993	-0,046	0,035
-590,182	-113,766	0,098	-0,014
-589,167	-60,715	-0,018	-0,006
-588,152	376,228	-0,027	-0,040
-587,138	-58,475	-0,118	-0,037
-586,123	32,342	-0,090	-0,056
-585,109	-135,924	-0,078	0,007
-584,094	800,000	-0,062	-0,129
-583,079	800,000	0,019	-0,041
-582,065	-200,000	0,001	-0,076
-581,050	-200,000	0,001	-0,136
-580,036	-63,519	-0,027	-0,008
-579,021	-8,908	-0,069	-0,033
-578,006	-25,969	-0,113	-0,048
-576,992	-93,852	0,165	-0,032
-575,977	58,118	0,060	0,042
-574,963	24,351	0,038	-0,022
-573,948	-91,567	0,137	0,028
-572,934	60,398	0,051	0,037
-571,919	-115,152	-0,089	-0,012
-570,904	241,666	0,070	-0,084
-569,890	800,000	-0,029	-0,063
-568,875	36,043	-0,034	-0,022
-567,861	800,000	0,034	0,072
-566,846	-113,165	0,043	0,006
-565,831	-200,000	-0,014	-0,117
-564,817	80,407	-0,064	-0,050
-563,802	-149,756	-0,147	0,008
-562,788	-91,035	0,125	-0,026
-561,773	-32,782	0,025	-0,010
-560,758	-200,000	0,009	0,072
-559,744	561,955	-0,059	-0,103
-558,729	-20,638	0,067	-0,029
-557,715	65,484	-0,071	0,051
-556,700	-11,460	-0,060	0,028
-555,685	-200,000	0,060	-0,208
-554,671	-51,238	-0,127	-0,042
-553,656	-37,872	-0,088	-0,033
-552,642	232,591	-0,079	0,094
-551,627	207,034	0,031	0,034
-550,612	800,000	-0,028	0,067
-549,598	800,000	0,019	-0,053
-548,583	800,000	-0,044	0,099
-547,569	-93,617	0,093	0,018
-546,554	-123,204	0,090	-0,010
-545,539	-46,150	0,086	0,030
-544,525	269,243	0,053	0,067
-543,510	800,000	-0,036	-0,100
-542,496	-77,890	0,118	0,029
-541,481	-200,000	-0,176	-0,000
-540,466	-200,000	-0,031	-0,123
-539,452	-200,000	-0,003	0,121
-538,437	412,139	0,082	-0,126
-537,423	-65,209	0,096	-0,028
-536,408	-200,000	0,003	-0,037
-535,393	-200,000	-0,019	-0,113
-534,379	800,000	-0,077	-0,153
-533,364	30,313	0,091	0,056
-532,350	-106,939	0,121	0,019
-531,335	0,946	0,091	0,047
-530,321	151,991	0,048	-0,047
-529,306	-75,338	0,128	-0,033
-528,291	-6,909	0,131	-0,064
-527,277	479,884	-0,036	-0,059
-526,262	-200,000	0,014	0,074
-525,248	344,688	0,029	0,040
-524,233	147,237	0,088	0,085
-523,218	2,736	0,116	-0,060
-522,204	380,873	-0,051	0,076
-521,189	-200,000	-0,023	0,079
-520,175	-59,944	-0,141	0,043
-519,160	-200,000	0,002	0,036
-518,145	67,179	-0,025	-0,018
-517,131	-54,514	0,139	0,045
-516,116	-128,088	0,047	0,005
-515,102	-200,000	-0,004	-0,139
-514,087	253,021	-0,073	-0,090
-513,072	-101,770	-0,103	-0,018
-512,058	-200,000	0,017	-0,105
-511,043	-122,910	-0,103	0,012
-510,029	28,574	-0,106	0,064
-509,014	-62,572	-0,017	0,005
-507,999	187,600	0,103	0,111
-506,985	-137,129	-0,079	0,006
-505,970	59,109	-0,060	-0,043
-504,956	-137,226	-0,070	-0,006
-503,941	460,369	0,047	0,076
-502,926	517,402	-0,062	0,105
-501,912	10,969	0,199	0,109
-500,897	-200,000	-0,041	0,175
-499,883	39,648	-0,090	-0,058
-498,868	800,000	0,054	-0,114
-497,853	-200,000	-0,016	-0,135
-496,839	208,812	-0,074	-0,084
-495,824	422,294	0,029	0,045
-494,810	426,922	0,048	0,075
-493,795	-200,000	-0,007	0,137
-492,781	25,931	0,048	0,029
-491,766	189,088	-0,054	-0,058
-490,751	-14,861	-0,064	0,029
-489,737	9,528	-0,101	0,055
-488,722	9,615	0,024	0,013
-487,708	-86,220	-0,068	-0,015
-486,693	-200,000	-0,008	0,053
-485,678	-200,000	0,004	0,155
-484,664	-200,000	-0,025	-0,150
-483,649	-200,000	-0,018	-0,091
-482,635	82,734	-0,000	-0,000
-481,620	256,944	0,061	0,076
-480,605	355,074	0,064	0,091
-479,591	-200,000	0,004	0,024
-478,576	-200,000	0,005	0,058
-477,562	800,000	0,029	-0,079
-476,547	-108,743	0,133	-0,020
-475,532	-24,841	0,106	-0,045
-474,518	136,030	0,086	-0,081
-473,503	-120,291	0,057	-0,007
-472,489	-200,000	-0,023	0,100
-471,474	94,902	-0,113	0,092
-470,459	659,026	0,023	0,043
-469,445	-200,000	-0,003	-0,077
-468,430	525,120	-0,052	0,088
-467,416	405,736	0,016	-0,024
-466,401	-200,000	-0,003	0,017
-465,386	337,412	0,057	-0,080
-464,372	-200,000	0,003	-0,045
-463,357	356,740	-0,024	-0,034
-462,343	800,000	-0,058	-0,171
-461,328	800,000	-0,078	-0,225
-460,313	-79,925	-0,036	-0,009
-459,299	178,488	0,092	0,096
-458,284	-200,000	0,012	0,096
-457,270	-30,907	-0,093	0,037
-456,255	-60,767	-0,076	-0,023
-455,241	-200,000	-0,017	-0,110
-454,226	-200,000	-0,001	-0,010
-453,211	278,981	-0,052	0,067
-452,197	-102,600	0,069	0,012
-451,182	-200,000	0,006	0,068
-450,168	8,189	-0,155	-0,083
-449,153	227,961	0,122	-0,142
-448,138	-101,970	-0,079	-0,014
-447,124	75,219	-0,075	0,057
-446,109	800,000	-0,025	0,071
-445,095	-200,000	0,006	0,228
-444,080	-20,143	0,074	-0,033
-443,065	-200,000	0,020	0,073
-442,051	-19,413	-0,064	0,029
-441,036	365,849	-0,021	-0,030
-440,022	-135,558	-0,152	-0,013
-439,007	-200,000	-0,015	-0,077
-437,992	428,515	0,023	-0,036
-436,978	62,819	-0,059	0,042
-435,963	-200,000	0,015	0,157
-434,949	-200,000	-0,001	-0,015
-433,934	72,279	-0,037	-0,028
-432,919	-200,000	0,050	0,158
-431,905	165,806	0,046	-0,047
-430,890	108,742	0,093	0,079
-429,876	32,077	0,161	0,099
-428,861	-200,000	-0,033	0,135
-427,846	-200,000	0,038	0,141
-426,832	-200,000	0,016	0,076
-425,817	-73,710	0,053	-0,014
-424,803	-91,420	-0,092	-0,019
-423,788	-79,928	0,050	-0,012
-422,773	800,000	0,063	0,162
-421,759	-200,000	0,039	0,150
-420,744	-200,000	0,003	0,038
-419,730	-16,748	-0,121	-0,055
-418,715	217,454	-0,074	-0,084
-417,701	-148,764	0,047	0,003
-416,686	-200,000	-0,017	0,065
-415,671	800,000	-0,038	0,077
-414,657	-200,000	-0,005	0,054
-413,642	16,578	0,095	0,054
-412,628	199,897	-0,086	0,095
-411,613	473,323	-0,026	-0,042
-410,598	-200,000	0,003	0,066
-409,584	8,925	0,096	-0,052
-408,569	-200,000	0,028	-0,163
-407,555	-18,174	0,092	-0,041
-406,540	313,783	-0,028	0,038
-405,525	-200,000	0,009	-0,084
-404,511	259,603	-0,092	-0,114
-403,496	-63,084	-0,056	-0,016
-402,482	84,423	0,027	0,021
-401,467	696,704	0,030	0,056
-400,452	243,277	-0,076	0,091
-399,438	800,000	0,038	0,097
-398,423	234,363	-0,011	-0,014
-397,409	310,269	-0,112	-0,151
-396,394	-177,686	-0,106	0,002
-395,379	-200,000	-0,031	-0,146
-394,365	-200,000	-0,018	0,156
-393,350	-75,855	0,077	-0,019
-392,336	-40,752	0,064	-0,023
-391,321	17,272	-0,135	0,077
-390,306	192,996	0,056	-0,061
-389,292	-200,000	-0,009	-0,073
-388,277	800,000	-0,039	0,105
-387,263	-117,404	0,184	0,024
-386,248	281,879	0,024	0,031
-385,233	378,373	0,072	0,105
-384,219	163,547	0,044	-0,044
-383,204	269,938	-0,118	0,149
-382,190	-200,000	-0,003	-0,071
-381,175	397,187	0,040	-0,060
-380,160	288,281	0,011	0,015
-379,146	-200,000	0,010	-0,079
-378,131	-200,000	0,045	0,202
-377,117	-200,000	-0,009	0,048
-376,102	-26,103	-0,032	0,013
-375,088	-33,242	-0,193	-0,076
-374,073	29,921	0,092	-0,056
-373,058	800,000	-0,015	-0,048
-372,044	-134,410	0,147	0,013
-371,029	-61,060	0,124	0,037
-370,015	-148,483	0,074	0,004
-369,000	346,278	0,025	0,035
-367,985	-61,539	-0,103	0,031
-366,971	454,406	0,063	-0,100
-365,956	4,350	0,126	-0,066
-364,942	-113,129	0,119	0,017
-363,927	800,000	0,039	-0,103
-362,912	-162,994	-0,019	-0,001
-361,898	178,881	-0,077	-0,081
-360,883	372,977	-0,016	0,023
-359,869	-200,000	-0,033	0,116
-358,854	-74,784	0,143	-0,037
-357,839	715,345	0,024	0,046
-356,825	598,876	0,100	0,179
-355,810	54,192	0,107	-0,073
-354,796	-111,598	-0,132	0,019
-353,781	800,000	0,034	-0,089
-352,766	800,000	-0,042	-0,107
-351,752	-200,000	-0,009	0,033
-350,737	-200,000	0,006	0,084
-349,723	-8,095	0,042	-0,020
-348,708	249,692	-0,048	-0,059
-347,693	-200,000	-0,001	-0,099
-346,679	-100,431	0,090	-0,016
-345,664	-3,018	-0,103	0,051
-344,650	-118,330	0,127	-0,016
-343,635	-9,832	0,009	-0,004
-342,620	273,162	-0,047	0,060
-341,606	98,218	0,114	-0,094
-340,591	-72,029	-0,226	-0,060
-339,577	89,280	-0,028	-0,022
-338,562	-200,000	-0,003	0,065
-337,548	24,542	0,029	0,017
-336,533	-4,626	0,066	0,032
-335,518	800,000	0,052	-0,112
-334,504	503,871	0,026	-0,044
-333,489	343,965	-0,023	-0,032
-332,475	-145,747	0,035	-0,002
-331,460	-92,329	-0,066	-0,013
-330,445	-114,078	-0,174	0,024
-329,431	-156,415	0,066	0,003
-328,416	-120,389	0,090	-0,011
-327,402	266,061	-0,065	0,081
-326,387	-200,000	-0,002	0,048
-325,372	-200,000	-0,005	-0,064
-324,358	-179,841	0,029	0,000
-323,343	-45,884	-0,066	-0,023
-322,329	-31,246	0,037	0,015
-321,314	232,729	0,099	0,116
-320,299	-74,171	-0,072	-0,018
-319,285	-35,120	0,082	-0,032
-318,270	-67,580	-0,110	0,030
-317,256	-87,023	-0,137	-0,030
-316,241	800,000	-0,012	0,032
-315,226	663,477	-0,044	-0,082
-314,212	-28,726	-0,063	0,026
-313,197	-47,932	-0,138	0,047
-312,183	216,901	-0,066	0,075
-311,168	-36,996	-0,054	0,020
-310,153	-200,000	0,005	-0,070
-309,139	800,000	0,019	-0,055
-308,124	-200,000	-0,010	-0,050
-307,110	132,673	0,033	-0,030
-306,095	266,429	0,102	-0,127
-305,080	386,743	-0,057	0,085
-304,066	-200,000	0,002	-0,042
-303,051	32,756	-0,161	0,099
-302,037	-116,061	0,124	-0,016
-301,022	-200,000	0,010	-0,075
-300,008	-200,000	-0,016	0,052
-298,993	-2,988	0,065	-0,032
-297,978	318,210	-0,075	0,102
-296,964	93,048	-0,032	0,026
-295,949	-200,000	0,011	-0,090
-294,935	-200,000	-0,012	-0,049
-293,920	30,711	0,026	-0,016
-292,905	-80,151	0,036	-0,008
-291,891	-119,863	0,138	-0,017
-290,876	-200,000	0,019	-0,069
-289,862	-134,978	-0,010	0,001
-288,847	-165,969	0,045	-0,001
-287,832	-63,496	-0,033	-0,010
-286,818	794,595	-0,016	0,032
-285,803	-200,000	0,019	0,084
-284,789	-200,000	-0,005	0,076
-283,774	-126,487	-0,054	-0,006
-282,759	66,602	0,116	-0,084
-281,745	308,257	-0,065	0,086
-280,730	800,000	0,024	0,054
-279,716	800,000	-0,103	-0,210
-278,701	-45,636	0,153	-0,054
-277,686	80,153	0,085	-0,065
-276,672	433,884	0,063	0,098
-275,657	181,230	-0,032	0,034
-274,643	294,599	-0,066	0,086
-273,628	-26,060	0,067	0,028
-272,613	347,370	-0,099	-0,139
-271,599	-200,000	0,027	-0,124
-270,584	-200,000	-0,038	-0,172
-269,570	588,452	-0,053	0,093
-268,555	-119,341	0,098	-0,012
-267,540	40,871	-0,010	0,006
-266,526	800,000	0,015	-0,042
-265,511	456,911	-0,068	0,108
-264,497	513,084	-0,047	-0,078
-263,482	181,144	0,048	0,051
-262,467	800,000	-0,076	0,164
-261,453	73,077	-0,043	-0,032
-260,438	15,866	0,048	0,027
-259,424	-130,147	-0,210	-0,020
-258,409	104,089	-0,113	-0,095
-257,395	150,135	-0,019	0,018
-256,380	-200,000	0,032	0,116
-255,365	46,843	0,028	0,018
-254,351	-200,000	0,019	0,115
-253,336	-135,728	-0,070	0,006
-252,322	-10,716	-0,140	0,066
-251,307	138,436	0,080	0,074
-250,292	361,569	0,065	-0,093
-249,278	-200,000	0,025	0,134
-248,263	800,000	-0,055	0,134
-247,249	453,849	0,125	-0,198
-246,234	800,000	-0,074	-0,219
-245,219	-200,000	0,013	0,073
-244,205	258,838	0,028	-0,035
-243,190	-200,000	0,013	0,056
-242,176	-85,879	0,135	0,030
-241,161	800,000	0,020	0,057
-240,146	194,853	0,014	-0,015
-239,132	507,461	0,084	-0,139
-238,117	1,182	-0,065	0,033
-237,103	-167,455	-0,201	-0,006
-236,088	-145,200	0,141	0,009
-235,073	315,087	-0,101	0,135
-234,059	-20,268	0,088	-0,038
-233,044	-200,000	0,005	0,177
-232,030	465,027	0,024	0,039
-231,015	-156,349	0,106	-0,005
-230,000	425,508	-0,074	-0,114
-228,986	193,064	0,105	-0,113
-227,971	-200,000	-0,091	0,000
-226,957	-200,000	0,013	0,169
-225,942	-200,000	-0,001	0,010
-224,927	-108,816	-0,160	0,024
-223,913	800,000	-0,047	-0,093
-222,898	-145,409	0,075	0,005
-221,884	-113,412	0,026	-0,004
-220,869	164,914	-0,036	0,036
-219,855	2,818	-0,044	0,023
-218,840	-59,391	0,064	0,019
-217,825	-28,101	-0,079	-0,032
-216,811	118,307	0,100	0,088
-215,796	-200,000	0,013	0,043
-214,782	221,088	-0,032	0,037
-213,767	-200,000	-0,009	0,164
-212,752	-184,175	-0,160	0,002
-211,738	24,155	0,110	-0,064
-210,723	-200,000	0,001	-0,061
-209,709	-200,000	0,000	-0,052
-208,694	-200,000	0,005	-0,113
-207,679	329,198	-0,070	-0,095
-206,665	-200,000	-0,009	-0,129
-205,650	-6,919	0,070	-0,034
-204,636	23,791	-0,173	-0,101
-203,621	730,256	0,044	0,085
-202,606	87,437	-0,062	-0,048
-201,592	-200,000	-0,014	0,143
-200,577	104,501	0,108	0,090
-199,563	800,000	-0,019	0,049
-198,548	800,000	-0,016	-0,031
-197,533	-200,000	0,006	-0,028
-196,519	-200,000	0,035	0,118
-195,504	800,000	-0,022	-0,047
-194,490	570,245	0,025	0,044
-193,475	215,181	0,149	0,168
-192,460	433,731	0,029	-0,045
-191,446	-200,000	-0,001	0,025
-190,431	800,000	-0,026	0,056
-189,417	198,505	-0,077	-0,084
-188,402	180,656	0,043	0,045
-187,387	-77,347	-0,075	-0,018
-186,373	41,482	-0,088	-0,057
-185,358	271,662	0,022	-0,027
-184,344	-200,000	-0,011	0,081
-183,329	88,250	0,116	0,092
-182,315	432,744	-0,035	-0,054
-181,300	55,875	-0,066	0,046
-180,285	282,645	0,066	-0,085
-179,271	-200,000	0,033	-0,218
-178,256	-31,919	0,027	-0,011
-177,242	-9,947	-0,021	-0,010
-176,227	-200,000	0,015	0,229
-175,212	-95,416	-0,129	-0,024
-174,198	800,000	-0,013	0,032
-173,183	800,000	0,031	0,066
-172,169	60,126	-0,098	-0,069
-171,154	800,000	0,031	0,082
-170,139	317,830	0,113	0,152
-169,125	-200,000	0,039	0,146
-168,110	-200,000	0,023	0,085
-167,096	26,065	0,116	-0,069
-166,081	326,210	0,054	-0,074
-165,066	92,623	-0,077	-0,062
-164,052	246,747	-0,042	0,050
-163,037	187,527	-0,070	-0,075
-162,023	-57,725	0,074	0,023
-161,008	-0,193	0,057	0,029
-159,993	-155,290	0,115	-0,005
-158,979	800,000	-0,028	0,057
-157,964	800,000	-0,038	-0,104
-156,950	800,000	0,041	-0,112
-155,935	67,634	0,065	-0,047
-154,920	49,413	0,133	-0,089
-153,906	338,663	-0,008	0,011
-152,891	-58,309	0,058	-0,018
-151,877	167,525	-0,032	-0,032
-150,862	-8,943	-0,185	-0,087
-149,847	-69,798	0,027	0,007
-148,833	-81,159	0,113	-0,026
-147,818	-200,000	0,000	0,075
-146,804	-25,465	0,106	-0,044
-145,789	-200,000	-0,017	0,129
-144,775	-200,000	0,003	0,025
-143,760	143,356	0,068	0,064
-142,745	800,000	-0,068	-0,135
-141,731	151,347	-0,097	-0,093
-140,716	-112,580	0,050	-0,007
-139,702	800,000	-0,023	0,057
-138,687	800,000	0,063	-0,143
-137,672	164,769	0,017	-0,017
-136,658	-200,000	-0,034	-0,132
-135,643	800,000	-0,052	-0,113
-134,629	-66,487	-0,163	0,045
-133,614	-33,626	-0,088	-0,034
-132,599	215,383	0,090	-0,102
-131,585	-200,000	-0,006	0,029
-130,570	800,000	-0,030	-0,092
-129,556	694,981	-0,043	-0,081
-128,541	800,000	-0,066	-0,142
-127,526	800,000	0,014	-0,037
-126,512	76,899	0,088	-0,066
-125,497	175,848	-0,047	0,048
-124,483	643,581	-0,061	0,111
-123,468	60,910	-0,025	-0,017
-122,453	7,803	-0,069	-0,037
-121,439	83,283	-0,083	0,064
-120,424	-169,770	-0,045	-0,001
-119,410	48,725	0,076	0,050
-118,395	-163,386	-0,064	0,002
-117,380	171,810	0,050	0,051
-116,366	53,991	0,039	-0,026
-115,351	103,270	0,030	-0,025
-114,337	1,687	0,047	-0,024
-113,322	40,338	0,085	0,054
-112,307	252,192	-0,089	0,107
-111,293	263,541	0,065	-0,080
-110,278	-68,761	0,102	0,028
-109,264	401,077	-0,032	-0,048
-108,249	-200,000	-0,020	-0,074
-107,234	-82,905	-0,031	-0,007
-106,220	-121,977	-0,075	-0,009
-105,205	189,482	-0,048	-0,051
-104,191	202,040	0,029	-0,031
-103,176	-45,786	-0,110	0,038
-102,162	-4,824	-0,067	0,032
-101,147	-200,000	-0,016	0,085
-100,132	70,020	0,085	-0,062
-99,118	-200,000	-0,025	-0,125
-98,103	-78,014	-0,050	0,012
-97,089	126,988	0,151	-0,135
-96,074	-141,656	-0,060	0,004
-95,059	-122,711	0,074	0,008
-94,045	-200,000	0,003	-0,068
-93,030	143,754	-0,035	-0,033
-92,016	511,818	-0,100	-0,165
-91,001	434,628	0,012	-0,018
-89,986	-200,000	-0,011	0,054
-88,972	-74,458	-0,161	-0,041
-87,957	-200,000	-0,007	-0,135
-86,943	452,967	-0,033	-0,052
-85,928	-125,073	-0,130	0,014
-84,913	426,378	-0,113	-0,173
-83,899	-200,000	-0,006	0,074
-82,884	220,353	0,092	0,104
-81,870	149,676	-0,057	0,055
-80,855	138,154	-0,081	0,075
-79,840	-172,171	-0,050	-0,001
-78,826	800,000	-0,039	0,106
-77,811	23,231	-0,061	0,035
-76,797	753,641	-0,048	-0,092
-75,782	42,941	-0,027	-0,018
-74,767	218,218	0,044	-0,050
-73,753	14,178	-0,083	-0,045
-72,738	-63,559	-0,175	0,050
-71,724	-10,265	0,067	-0,031
-70,709	-200,000	0,004	-0,132
-69,694	800,000	-0,014	-0,044
-68,680	-200,000	0,036	-0,174
-67,665	-90,111	-0,059	-0,012
-66,651	41,987	0,115	0,074
-65,636	-174,867	0,057	-0,001
-64,622	86,311	0,048	-0,038
-63,607	226,358	-0,098	-0,113
-62,592	121,541	0,045	-0,040
-61,578	30,670	0,075	-0,045
-60,563	800,000	0,044	-0,096
-59,549	-127,694	-0,121	-0,012
-58,534	89,112	-2,021	-1,587
-57,519	518,488	-1,185	-1,966
-56,505	-200,000	-0,495	-4,381
-55,490	593,257	0,955	1,673
-54,476	800,000	5,232	11,214
-53,461	-200,000	22,393	344,874
-52,446	800,000	755,697	2290,232
-51,432	532,810	1640,393	2750,250
-50,417	67,756	1638,471	1180,040
-49,403	15,592	1515,835	837,921
-48,388	9,811	1441,805	769,309
-47,373	19,256	1434,410	810,210
-46,359	13,326	1423,011	775,836
-45,344	8,111	1419,123	749,084
-44,330	8,089	1417,157	747,913
-43,315	8,035	1415,319	746,661
-42,300	8,047	1413,443	745,697
-41,286	8,105	1412,242	745,306
-40,271	8,011	1411,053	744,206
-39,257	8,011	1410,028	743,639
-38,242	8,084	1408,808	743,306
-37,227	8,052	1407,637	742,511
-36,213	8,059	1406,434	741,879
-35,198	8,056	1405,012	741,088
-34,184	8,108	1404,282	740,914
-33,169	7,947	1403,178	739,549
-32,154	8,040	1402,100	739,386
-31,140	8,002	1400,840	738,517
-30,125	8,036	1399,624	738,002
-29,111	8,051	1398,317	737,356
-28,096	8,008	1397,510	736,702
-27,082	7,965	1396,203	735,783
-26,067	7,976	1395,010	735,177
-25,052	8,004	1394,040	734,766
-24,038	7,995	1393,138	734,221
-23,023	7,988	1392,268	733,699
-22,009	7,982	1391,013	732,981
-20,994	7,985	1390,032	732,446
-19,979	7,966	1389,172	731,877
-18,965	7,879	1388,330	731,002
-17,950	7,951	1387,255	730,742
-16,936	7,940	1386,370	730,197
-15,921	7,873	1385,466	729,381
-14,906	7,878	1384,479	728,854
-13,892	7,948	1383,449	728,606
-12,877	7,922	1382,732	728,080
-11,863	7,904	1381,903	727,532
-10,848	7,885	1381,079	726,981
-9,833	7,810	1380,314	726,205
-8,819	7,801	1379,302	725,602
-7,804	7,811	1378,177	725,028
-6,790	7,822	1377,202	724,536
-5,775	7,803	1376,299	723,947
-4,760	7,808	1375,337	723,435
-3,746	7,822	1374,399	722,978
-2,731	7,847	1373,597	722,640
-1,717	7,799	1372,874	722,013
-0,702	7,788	1371,212	721,061
0,313	11,779	1281,651	691,992
1,327	27,722	674,619	399,641
2,342	43,017	115,749	74,293
3,356	0,058	16,614	8,319
4,371	-10,837	3,922	1,820
5,386	43,469	1,218	0,783
6,400	376,716	0,340	0,491
7,415	124,852	-0,209	-0,185
8,429	-16,551	-0,306	-0,136
9,444	36,594	-0,271	-0,168
10,459	437,858	-0,130	-0,201
11,473	17,768	-0,319	-0,179
12,488	1,774	-0,301	-0,152
13,502	-124,925	-0,247	-0,026
14,517	288,810	-0,130	-0,166
15,531	32,013	-0,397	-0,240
16,546	-45,759	-0,401	-0,139
17,561	319,790	-0,301	-0,403
18,575	79,079	-0,246	-0,185
19,590	-24,836	-0,303	-0,126
20,604	-78,454	-0,228	-0,055
21,619	58,193	-0,430	-0,296
22,634	107,515	-0,450	-0,377
23,648	236,957	-0,349	-0,407
24,663	119,690	-0,325	-0,283
25,677	100,719	-0,350	-0,286
26,692	38,272	-0,233	-0,145
27,707	81,857	-0,366	-0,279
28,721	276,200	-0,291	-0,365
29,736	6,877	-0,353	-0,185
30,750	12,099	-0,493	-0,266
31,765	108,544	-0,351	-0,295
32,780	43,476	-0,330	-0,211
33,794	401,089	-0,182	-0,270
34,809	129,979	-0,290	-0,261
35,823	169,856	-0,312	-0,314
36,838	96,023	-0,444	-0,356
37,853	-33,914	-0,493	-0,190
38,867	-37,744	-0,458	-0,171
39,882	-92,855	-0,341	-0,066
40,896	90,960	-0,311	-0,245
41,911	115,888	-0,222	-0,191
42,926	134,940	-0,266	-0,242
43,940	40,113	-0,414	-0,261
44,955	8,885	-0,344	-0,182
45,969	598,935	-0,173	-0,302
46,984	48,796	-0,403	-0,265
47,999	-159,575	-0,256	0,010
49,013	5,706	-0,306	-0,159
50,028	71,948	-0,358	-0,261
51,042	-9,594	-0,334	-0,156
52,057	84,712	-0,380	-0,292
53,071	82,342	-0,308	-0,235
54,086	73,993	-0,293	-0,215
55,101	80,229	-0,406	-0,306
56,115	145,367	-0,343	-0,322
57,130	94,736	-0,354	-0,282
58,144	-40,777	-0,328	-0,119
59,159	72,531	-0,437	-0,319
60,174	57,571	-0,348	-0,238
61,188	1,081	-0,352	-0,176
62,203	103,604	-0,304	-0,250
63,217	63,862	-0,312	-0,220
64,232	1,832	-0,269	-0,136
65,247	106,584	-0,299	-0,248
66,261	79,778	-0,276	-0,207
67,276	92,784	-0,292	-0,231
68,290	55,891	-0,329	-0,223
69,305	39,318	-0,296	-0,185
70,320	97,664	-0,094	-0,076
71,334	-96,666	-0,370	-0,068
72,349	57,752	-0,333	-0,228
73,363	79,814	-0,310	-0,233
74,378	608,041	-0,138	-0,243
75,393	17,736	-0,337	-0,187
76,407	75,895	-0,246	-0,182
77,422	-56,750	-0,123	-0,038
78,436	-59,673	-0,488	-0,145
79,451	-6,669	-0,259	-0,123
80,466	93,861	-0,319	-0,253
81,480	-4,926	-0,337	-0,162
82,495	-44,681	-0,327	-0,114
83,509	238,629	-0,238	-0,277
84,524	-126,796	-0,209	-0,021
85,539	62,259	-0,339	-0,237
86,553	23,814	-0,285	-0,164
87,568	169,223	-0,268	-0,268
88,582	710,980	-0,184	-0,342
89,597	106,993	-0,248	-0,206
90,611	105,432	-0,239	-0,198
91,626	-33,320	-0,293	-0,113
92,641	6,060	-0,246	-0,127
93,655	-129,059	-0,324	-0,031
94,670	132,802	-0,235	-0,212
95,684	244,293	-0,241	-0,283
96,699	-14,497	-0,256	-0,115
97,714	112,925	-0,214	-0,181
98,728	-169,916	-0,166	0,004
99,743	132,386	-0,298	-0,268
100,757	-80,407	-0,331	-0,077
101,772	70,407	-0,239	-0,173
102,787	171,996	-0,190	-0,191
103,801	153,898	-0,239	-0,229
104,816	-74,727	-0,319	-0,080
105,830	114,485	-0,193	-0,164
106,845	347,516	-0,174	-0,240
107,860	128,458	-0,322	-0,286
108,874	-47,613	-0,360	-0,122
109,889	1,616	-0,316	-0,158
110,903	-20,345	-0,322	-0,138
111,918	119,390	-0,293	-0,253
112,933	367,246	-0,129	-0,183
113,947	454,209	-0,173	-0,268
114,962	-65,342	-0,252	-0,070
115,976	-5,988	-0,165	-0,078
116,991	-35,415	-0,320	-0,121
118,006	-34,627	-0,350	-0,133
119,020	64,840	-0,153	-0,108
120,035	89,144	-0,215	-0,167
121,049	-97,503	-0,243	-0,044
122,064	95,989	-0,135	-0,108
123,079	-30,581	-0,303	-0,119
124,093	-98,033	-0,265	-0,047
125,108	-18,185	-0,343	-0,149
126,122	-95,548	-0,376	-0,070
127,137	388,362	-0,296	-0,429
128,151	58,249	-0,229	-0,156
129,166	19,979	-0,341	-0,191
130,181	247,188	-0,190	-0,225
131,195	2,185	-0,296	-0,149
132,210	-43,039	-0,307	-0,108
133,224	-30,771	-0,229	-0,090
134,239	142,215	-0,242	-0,223
135,254	55,877	-0,152	-0,102
136,268	165,519	-0,281	-0,277
137,283	-27,699	-0,208	-0,084
138,297	-20,131	-0,217	-0,093
139,312	150,612	-0,145	-0,137
140,327	110,623	-0,306	-0,256
141,341	-39,210	-0,225	-0,082
142,356	-106,508	-0,216	-0,033
143,370	-112,310	-0,134	0,018
144,385	60,406	-0,096	-0,066
145,400	-35,349	-0,192	-0,072
146,414	230,565	-0,173	-0,197
147,429	-5,278	-0,166	-0,079
148,443	100,136	-0,232	-0,187
149,458	568,093	-0,115	-0,195
150,473	-104,039	-0,190	-0,031
151,487	53,830	-0,238	-0,159
152,502	372,728	-0,209	-0,296
153,516	-56,558	-0,266	-0,082
154,531	54,861	-0,318	-0,213
155,546	71,776	-0,241	-0,174
156,560	138,329	-0,223	-0,204
157,575	76,383	-0,193	-0,142
158,589	142,075	-0,226	-0,208
159,604	-41,792	-0,286	-0,102
160,619	243,935	-0,228	-0,266
161,633	70,082	-0,256	-0,183
162,648	-46,576	-0,317	-0,107
163,662	-37,729	-0,153	-0,056
164,677	409,904	-0,092	-0,136
165,692	-32,274	-0,294	-0,114
166,706	-5,274	-0,190	-0,090
167,721	48,840	-0,347	-0,226
168,735	-4,173	-0,272	-0,130
169,750	-111,192	-0,316	-0,044
170,764	800,000	-0,057	-0,131
171,779	139,373	-0,093	-0,085
172,794	620,045	-0,121	-0,212
173,808	-44,580	-0,336	-0,116
174,823	55,076	-0,154	-0,103
175,837	72,200	-0,235	-0,170
176,852	-35,483	-0,123	0,046
177,867	-155,604	-0,279	-0,012
178,881	-68,710	-0,226	-0,060
179,896	59,354	-0,157	-0,107
180,910	93,600	-0,260	-0,204
181,925	61,530	-0,145	-0,100
182,940	24,471	-0,183	-0,105
183,954	-187,690	-0,251	0,002
184,969	108,353	-0,182	-0,150
185,983	63,915	-0,167	-0,116
186,998	108,249	-0,173	-0,144
188,013	-200,000	-0,056	-0,190
189,027	441,577	-0,133	-0,203
190,042	-5,839	-0,329	-0,156
191,056	-83,791	-0,213	-0,047
192,071	61,948	-0,216	-0,149
193,086	33,132	-0,160	-0,096
194,100	145,017	-0,158	-0,146
195,115	84,288	-0,126	-0,095
196,129	46,933	-0,234	-0,151
197,144	141,543	-0,192	-0,176
198,159	168,530	-0,193	-0,190
199,173	175,628	-0,200	-0,201
200,188	117,354	-0,178	-0,152
201,202	134,508	-0,177	-0,159
202,217	167,917	-0,129	-0,127
203,232	357,161	0,074	-0,103
204,246	22,964	-0,190	-0,108
205,261	112,996	-0,284	-0,238
206,275	-70,390	-0,166	-0,043
207,290	-53,544	-0,210	-0,066
208,304	-153,949	-0,180	-0,008
209,319	123,913	-0,206	-0,179
210,334	44,495	-0,110	-0,070
211,348	166,905	-0,265	-0,260
212,363	147,644	-0,118	-0,110
213,377	800,000	-0,055	-0,157
214,392	27,330	-0,125	-0,072
215,407	-93,475	-0,176	0,033
216,421	212,533	-0,165	-0,181
217,436	800,000	-0,070	-0,137
218,450	107,911	-0,175	-0,144
219,465	-49,383	-0,215	-0,071
220,480	-24,761	-0,318	-0,130
221,494	0,192	-0,127	-0,062
222,509	-105,707	-0,119	-0,018
223,523	-111,010	-0,100	-0,014
224,538	378,111	-0,116	-0,165
225,553	139,895	-0,127	-0,116
226,567	-98,918	-0,085	-0,015
227,582	35,453	-0,181	-0,110
228,596	-47,567	-0,219	-0,073
229,611	687,924	-0,080	-0,146
230,626	149,244	-0,161	-0,150
231,640	-15,437	-0,362	-0,159
232,655	25,405	-0,252	-0,144
233,669	605,142	-0,183	-0,316
234,684	-8,808	-0,224	-0,103
235,699	137,945	-0,201	-0,182
236,713	-26,738	-0,137	-0,055
237,728	-91,227	-0,232	-0,045
238,742	-195,273	-0,036	0,000
239,757	65,150	-0,154	-0,107
240,772	65,516	-0,163	-0,114
241,786	22,587	-0,313	-0,177
242,801	-63,062	-0,171	-0,049
243,815	2,231	-0,256	-0,128
244,830	-141,780	-0,199	0,014
245,844	273,707	-0,137	-0,168
246,859	145,832	-0,240	-0,222
247,874	-14,655	-0,180	-0,079
248,888	112,968	-0,189	-0,158
249,903	70,824	-0,160	-0,114
250,917	-27,909	-0,083	0,033
251,932	103,887	-0,220	-0,178
252,947	-158,022	-0,218	-0,009
253,961	-200,000	-0,068	-0,255
254,976	72,867	-0,265	-0,190
255,990	101,658	-0,230	-0,185
257,005	-40,263	-0,162	-0,058
258,020	-135,819	-0,110	-0,009
259,034	30,154	-0,136	-0,080
260,049	18,321	-0,137	-0,075
261,063	-142,041	-0,100	-0,007
262,078	-116,777	-0,302	-0,038
263,093	64,363	-0,268	-0,186
264,107	-73,481	-0,218	-0,054
265,122	174,346	-0,115	-0,115
266,136	-33,454	-0,236	-0,089
267,151	84,889	-0,317	-0,239
268,166	-81,880	-0,127	-0,028
269,180	260,821	-0,096	-0,114
270,195	350,767	-0,140	-0,191
271,209	-13,720	-0,131	-0,058
272,224	46,678	-0,101	-0,065
273,239	101,842	-0,101	-0,081
274,253	195,917	-0,134	-0,140
275,268	284,334	-0,190	-0,236
276,282	-50,840	-0,253	-0,081
277,297	-132,880	-0,239	-0,021
278,312	-32,129	-0,230	-0,088
279,326	31,088	-0,180	-0,106
280,341	-4,719	-0,164	-0,078
281,355	16,221	-0,142	-0,077
282,370	90,635	-0,061	-0,047
283,384	-87,247	-0,206	0,043
284,399	363,407	-0,067	-0,093
285,414	20,947	-0,139	-0,077
286,428	49,594	-0,147	-0,095
287,443	159,371	-0,181	-0,173
288,457	-111,989	-0,170	-0,023
289,472	92,786	-0,108	-0,084
290,487	238,983	-0,126	-0,144
291,501	117,393	-0,204	-0,172
292,516	107,514	-0,234	-0,191
293,530	606,988	-0,063	-0,108
294,545	102,404	-0,202	-0,162
295,560	649,233	-0,074	-0,131
296,574	-99,162	-0,118	-0,020
297,589	-58,404	-0,106	0,031
298,603	-1,701	-0,255	-0,123
299,618	199,859	-0,176	-0,186
300,633	-100,866	-0,199	-0,033
301,647	-118,765	-0,101	-0,012
302,662	135,153	-0,065	-0,058
303,676	-68,296	-0,145	-0,038
304,691	-200,000	0,002	-0,289
305,706	-200,000	-0,017	-0,161
306,720	-87,719	-0,125	-0,026
307,735	784,766	-0,109	-0,207
308,749	-61,234	-0,207	-0,060
309,764	-200,000	-0,027	-0,090
310,779	-58,989	-0,142	0,042
311,793	347,994	-0,039	-0,053
312,808	19,503	-0,157	-0,086
313,822	64,496	-0,210	-0,145
314,837	328,141	-0,036	-0,047
315,852	-26,311	-0,174	0,070
316,866	-8,272	-0,168	-0,077
317,881	161,270	-0,105	-0,100
318,895	25,670	-0,242	-0,138
319,910	329,176	-0,032	-0,042
320,925	191,280	-0,189	-0,196
321,939	46,655	-0,045	-0,029
322,954	772,354	-0,111	-0,208
323,968	195,754	-0,173	-0,181
324,983	399,427	-0,059	-0,086
325,997	-23,428	-0,153	0,063
327,012	800,000	-0,073	-0,157
328,027	384,141	-0,120	-0,170
329,041	-28,292	-0,172	-0,068
330,056	194,846	-0,081	-0,084
331,070	800,000	-0,031	-0,067
332,085	108,539	-0,133	-0,109
333,100	241,291	-0,069	-0,079
334,114	-200,000	-0,049	-0,188
335,129	304,350	-0,105	-0,134
336,143	154,136	-0,167	-0,157
337,158	143,960	-0,093	-0,085
338,173	60,598	-0,135	-0,092
339,187	4,541	-0,209	-0,105
340,202	-112,834	-0,141	-0,019
341,216	405,635	-0,045	-0,065
342,231	3,675	-0,229	-0,114
343,246	32,278	-0,093	-0,055
344,260	-61,388	-0,077	0,022
345,275	430,421	-0,108	-0,161
346,289	409,353	-0,082	-0,119
347,304	91,956	-0,040	-0,031
348,319	246,828	-0,076	-0,088
349,333	134,669	-0,194	-0,172
350,348	280,352	-0,127	-0,156
351,362	-200,000	-0,005	-0,201
352,377	-200,000	-0,050	-0,151
353,392	144,773	-0,066	-0,061
354,406	-200,000	-0,070	-0,248
355,421	206,501	1305,100	1390,916
356,435	158,823	1464,590	1391,386
