DTS Sentinel unit serial number:	SN410029Multiplexer serial number:	ORYXHardware model number:	OX2-SRSoftware version number:	ORYX F/W v4,00 Oryx Data Collector v3.7.2.0data status	okinstallation	B3 Nyhavnadifferential loss correction	single-endedforward channel	channel 1reverse channel	N/Adate	2023/12/02time	13:52:30forward acquisition time	300,00reverse acquisition time	0,00gamma	499,1914k internal	0,3198k external	0,3198temperature offset calibration	1,0000default loss term (dB/km)	0,3820temperature slope calibration	1,0000multiplexer offset coefficient	1,0000multiplexer slope coefficient	1,0000fibre end	0,00T internal ref (°C)	14,72T ext. ref 1 (°C)	0,35T ext. ref 2 (°C)	0,34length (m)	temperature (°C)	Stokes	anti-Stokes-744,400	230,632	-0,164	-0,195
-743,385	-200,000	-0,058	0,210
-742,371	10,662	-0,212	-0,117
-741,356	800,000	0,130	0,398
-740,342	323,945	-0,140	-0,195
-739,327	-200,000	0,047	0,337
-738,312	6,159	-0,316	-0,170
-737,298	-200,000	0,048	0,254
-736,283	561,244	-0,133	-0,234
-735,269	-200,000	-0,002	0,232
-734,254	55,366	-0,196	-0,138
-733,239	-110,227	-0,184	0,028
-732,225	597,522	-0,088	-0,160
-731,210	37,041	0,120	0,077
-730,196	-57,988	0,025	0,008
-729,181	800,000	-0,057	-0,137
-728,167	-16,455	0,049	0,023
-727,152	176,336	-0,091	-0,096
-726,137	53,729	-0,048	0,034
-725,123	8,958	-0,034	0,018
-724,108	575,334	-0,101	-0,179
-723,094	48,925	-0,131	-0,089
-722,079	800,000	-0,030	-0,075
-721,064	-200,000	-0,003	0,148
-720,050	274,807	0,079	-0,102
-719,035	-95,815	0,096	0,019
-718,021	-140,863	0,040	0,003
-717,006	120,032	-0,035	0,032
-715,991	134,763	-0,120	-0,113
-714,977	-132,498	0,055	-0,005
-713,962	147,872	-0,079	-0,077
-712,948	800,000	0,009	-0,018
-711,933	-200,000	-0,008	-0,158
-710,918	-200,000	0,002	-0,030
-709,904	-7,732	0,056	-0,028
-708,889	-122,310	-0,082	0,010
-707,875	-200,000	-0,017	-0,088
-706,860	286,350	-0,051	0,068
-705,845	-200,000	0,010	-0,118
-704,831	540,315	0,060	-0,104
-703,816	91,598	0,109	0,089
-702,802	-59,517	0,078	-0,024
-701,787	385,688	-0,043	-0,065
-700,772	-200,000	0,018	-0,089
-699,758	97,477	0,185	-0,154
-698,743	-77,532	0,139	-0,035
-697,729	-116,308	0,106	0,014
-696,714	-200,000	-0,004	0,136
-695,699	403,464	-0,013	0,020
-694,685	226,472	-0,107	-0,127
-693,670	-57,692	-0,208	-0,066
-692,656	-200,000	0,000	0,166
-691,641	-10,213	0,028	0,013
-690,627	-110,347	-0,095	0,014
-689,612	-4,721	0,104	0,052
-688,597	-96,594	-0,080	-0,015
-687,583	435,059	0,106	-0,168
-686,568	26,593	-0,143	-0,086
-685,554	-200,000	0,002	-0,244
-684,539	150,199	-0,040	0,039
-683,524	191,264	0,068	0,075
-682,510	124,008	-0,127	-0,116
-681,495	-129,562	-0,060	-0,006
-680,481	96,331	0,053	-0,044
-679,466	160,970	-0,100	-0,102
-678,451	10,723	-0,039	-0,022
-677,437	268,264	0,043	-0,055
-676,422	-40,658	0,145	0,054
-675,408	-149,051	-0,062	0,004
-674,393	407,369	-0,116	0,178
-673,378	800,000	0,073	-0,223
-672,364	6,657	-0,178	-0,096
-671,349	-127,185	0,098	-0,010
-670,335	-200,000	0,031	0,111
-669,320	65,257	0,109	0,080
-668,305	-200,000	0,016	-0,105
-667,291	800,000	0,054	-0,139
-666,276	-200,000	0,034	0,120
-665,262	-62,220	0,014	0,004
-664,247	-200,000	-0,012	0,118
-663,232	-200,000	-0,004	-0,076
-662,218	-63,229	-0,099	-0,029
-661,203	800,000	0,052	0,133
-660,189	262,852	-0,026	-0,033
-659,174	-200,000	0,000	-0,005
-658,159	27,391	0,021	0,013
-657,145	-124,180	0,082	0,009
-656,130	39,953	0,052	0,034
-655,116	800,000	-0,049	0,107
-654,101	110,347	0,040	-0,035
-653,086	266,212	0,086	0,109
-652,072	-200,000	-0,002	-0,086
-651,057	227,413	0,024	-0,028
-650,043	-144,668	-0,066	-0,004
-649,028	82,257	-0,049	0,038
-648,014	124,585	-0,050	0,045
-646,999	-19,619	-0,077	-0,035
-645,984	-200,000	0,004	0,081
-644,970	-14,823	0,018	0,008
-643,955	-24,439	-0,032	-0,014
-642,941	581,797	-0,021	0,038
-641,926	219,638	0,094	0,109
-640,911	-200,000	-0,013	0,163
-639,897	98,111	-0,037	0,031
-638,882	-23,156	-0,068	0,029
-637,868	91,503	0,059	-0,048
-636,853	9,566	-0,069	-0,038
-635,838	-36,749	-0,139	0,054
-634,824	800,000	0,013	0,042
-633,809	311,302	-0,063	0,086
-632,795	800,000	0,009	0,022
-631,780	142,975	-0,058	0,056
-630,765	-200,000	0,016	0,126
-629,751	-26,669	-0,053	0,022
-628,736	62,360	0,112	-0,081
-627,722	-200,000	-0,037	0,134
-626,707	17,444	0,038	0,022
-625,692	224,984	0,091	0,106
-624,678	-65,362	-0,074	-0,021
-623,663	330,603	-0,004	0,005
-622,649	-165,963	0,100	-0,003
-621,634	-131,062	-0,143	-0,014
-620,619	368,632	-0,086	-0,126
-619,605	234,867	-0,099	-0,119
-618,590	42,526	0,099	0,065
-617,576	382,005	-0,026	-0,039
-616,561	59,834	0,075	0,053
-615,546	563,872	-0,067	0,118
-614,532	177,718	-0,116	-0,123
-613,517	-66,947	0,087	0,025
-612,503	-6,509	-0,045	-0,022
-611,488	191,557	0,056	0,061
-610,474	71,545	0,076	0,057
-609,459	-125,705	0,037	-0,004
-608,444	35,762	0,076	-0,048
-607,430	-69,343	-0,197	0,054
-606,415	70,263	-0,083	-0,062
-605,401	-200,000	0,001	-0,011
-604,386	800,000	0,053	-0,146
-603,371	31,836	-0,076	0,047
-602,357	82,046	0,114	-0,089
-601,342	201,920	0,041	-0,045
-600,328	498,622	-0,053	-0,089
-599,313	800,000	-0,032	-0,082
-598,298	2,304	0,049	0,026
-597,284	-45,970	0,142	-0,051
-596,269	-200,000	0,019	0,200
-595,255	-200,000	0,008	-0,067
-594,240	-49,104	-0,083	-0,029
-593,225	168,113	0,018	-0,019
-592,211	144,550	0,069	-0,067
-591,196	117,864	-0,042	-0,038
-590,182	-102,023	-0,109	0,019
-589,167	51,934	0,121	-0,084
-588,152	22,351	0,122	0,072
-587,138	800,000	0,009	-0,022
-586,123	-53,041	-0,040	-0,013
-585,109	-200,000	0,005	0,045
-584,094	-39,192	-0,065	0,025
-583,079	-90,273	-0,037	0,008
-582,065	208,087	0,038	-0,043
-581,050	351,256	0,026	-0,037
-580,036	80,605	-0,102	-0,080
-579,021	-200,000	-0,016	-0,062
-578,006	800,000	0,014	0,043
-576,992	256,090	0,072	-0,089
-575,977	67,614	-0,062	0,046
-574,963	-10,550	0,090	0,043
-573,948	800,000	-0,078	0,159
-572,934	800,000	-0,032	0,066
-571,919	800,000	-0,051	-0,120
-570,904	17,469	0,064	0,037
-569,890	-200,000	-0,004	-0,082
-568,875	-124,879	-0,062	0,007
-567,861	800,000	0,045	-0,102
-566,846	16,228	-0,058	-0,033
-565,831	101,751	0,050	0,042
-564,817	11,855	0,024	0,013
-563,802	508,016	-0,048	-0,080
-562,788	800,000	-0,007	-0,016
-561,773	-7,861	-0,042	0,021
-560,758	-97,214	-0,110	0,021
-559,744	5,422	-0,019	0,010
-558,729	88,307	0,059	0,047
-557,715	800,000	-0,023	0,062
-556,700	344,920	-0,052	-0,074
-555,685	-52,995	0,089	0,029
-554,671	497,413	-0,076	0,126
-553,656	-30,073	-0,085	-0,035
-552,642	-55,328	0,071	0,023
-551,627	-200,000	0,010	-0,150
-550,612	11,173	-0,072	-0,040
-549,598	-11,185	0,032	0,015
-548,583	-200,000	0,034	-0,124
-547,569	158,830	-0,028	-0,028
-546,554	-112,337	0,166	-0,024
-545,539	-105,084	0,030	0,005
-544,525	-8,557	0,148	-0,072
-543,510	289,763	-0,043	0,057
-542,496	29,110	-0,058	-0,035
-541,481	-16,118	-0,045	0,021
-540,466	-200,000	-0,017	0,080
-539,452	-200,000	-0,016	0,107
-538,437	800,000	-0,049	-0,139
-537,423	800,000	-0,022	-0,050
-536,408	391,197	0,050	0,075
-535,393	-7,004	0,038	-0,019
-534,379	14,764	-0,072	-0,041
-533,364	-63,504	0,039	-0,012
-532,350	-53,097	-0,070	0,023
-531,335	-71,168	0,124	0,033
-530,321	-200,000	0,007	0,047
-529,306	-79,286	-0,118	-0,029
-528,291	143,581	0,041	0,040
-527,277	89,991	-0,119	0,096
-526,262	45,478	0,058	-0,039
-525,248	165,320	0,057	-0,058
-524,233	-200,000	-0,031	0,116
-523,218	-166,740	0,129	-0,004
-522,204	408,358	-0,103	-0,158
-521,189	-44,357	-0,096	-0,035
-520,175	-200,000	-0,034	-0,139
-519,160	319,233	-0,077	0,106
-518,145	546,555	-0,061	0,105
-517,131	-200,000	-0,019	-0,081
-516,116	-200,000	0,019	-0,065
-515,102	-110,644	-0,026	0,004
-514,087	-94,028	-0,067	0,013
-513,072	199,224	0,047	0,052
-512,058	53,574	0,071	0,049
-511,043	-200,000	-0,024	0,118
-510,029	-200,000	-0,023	0,080
-509,014	-200,000	0,003	0,033
-507,999	-200,000	-0,073	0,000
-506,985	-31,240	-0,162	-0,066
-505,970	-200,000	0,027	-0,103
-504,956	-59,479	-0,113	-0,035
-503,941	-14,111	0,101	0,047
-502,926	-38,535	0,140	-0,053
-501,912	-82,088	-0,072	-0,017
-500,897	147,334	0,038	0,037
-499,883	-104,461	0,126	-0,021
-498,868	302,627	-0,036	-0,048
-497,853	-200,000	0,006	0,107
-496,839	-200,000	0,004	-0,087
-495,824	-200,000	-0,038	0,135
-494,810	593,633	0,061	0,108
-493,795	800,000	0,020	0,045
-492,781	800,000	-0,054	-0,114
-491,766	-200,000	0,001	-0,151
-490,751	581,092	-0,075	-0,133
-489,737	-129,812	0,027	-0,003
-488,722	-40,697	-0,118	-0,044
-487,708	-200,000	-0,025	0,136
-486,693	-200,000	0,009	0,051
-485,678	-200,000	0,007	0,146
-484,664	800,000	-0,065	-0,204
-483,649	359,195	-0,041	0,059
-482,635	149,616	0,052	-0,050
-481,620	103,215	-0,044	0,037
-480,605	-200,000	-0,034	0,136
-479,591	-200,000	-0,027	0,099
-478,576	-103,328	0,079	-0,013
-477,562	114,672	0,037	0,032
-476,547	-200,000	0,017	-0,194
-475,532	-200,000	0,009	0,047
-474,518	-200,000	-0,018	-0,077
-473,503	145,765	-0,099	0,095
-472,489	213,006	-0,072	0,082
-471,474	274,380	-0,092	-0,118
-470,459	264,060	-0,133	0,167
-469,445	14,217	-0,224	-0,126
-468,430	-200,000	0,038	-0,131
-467,416	-200,000	-0,002	0,213
-466,401	126,456	0,117	0,107
-465,386	-14,545	0,081	0,037
-464,372	800,000	0,011	0,030
-463,357	164,342	-0,096	0,097
-462,343	-200,000	-0,012	-0,044
-461,328	-200,000	0,107	0,000
-460,313	-200,000	-0,009	-0,061
-459,299	800,000	-0,049	0,112
-458,284	732,141	-0,026	0,050
-457,270	800,000	0,054	0,141
-456,255	170,195	0,056	0,058
-455,241	79,962	-0,125	0,096
-454,226	-200,000	0,021	-0,136
-453,211	-200,000	0,036	-0,117
-452,197	54,610	0,033	-0,023
-451,182	800,000	0,089	-0,195
-450,168	-45,732	-0,188	-0,067
-449,153	-200,000	0,002	-0,017
-448,138	-199,760	-0,183	-0,001
-447,124	-106,004	0,024	0,004
-446,109	-145,060	-0,089	0,006
-445,095	-110,392	0,190	0,028
-444,080	26,454	-0,186	0,112
-443,065	-200,000	0,004	-0,079
-442,051	-59,106	-0,079	0,024
-441,036	-200,000	0,012	0,078
-440,022	62,581	-0,023	0,016
-439,007	-200,000	-0,009	0,182
-437,992	121,913	0,044	0,040
-436,978	127,703	0,050	0,046
-435,963	283,056	0,099	-0,128
-434,949	-126,641	-0,057	0,006
-433,934	-200,000	0,016	-0,082
-432,919	525,083	-0,089	-0,151
-431,905	-68,861	0,096	0,027
-430,890	800,000	0,045	-0,133
-429,876	-77,929	0,148	0,036
-428,861	-10,086	0,029	0,014
-427,846	-200,000	-0,014	-0,122
-426,832	108,028	0,047	-0,041
-425,817	-27,871	-0,072	-0,030
-424,803	-158,092	0,161	0,007
-423,788	-200,000	0,001	0,063
-422,773	-200,000	0,003	0,030
-421,759	-69,128	0,081	-0,022
-420,744	800,000	-0,027	-0,062
-419,730	714,480	-0,082	-0,156
-418,715	138,329	0,124	-0,117
-417,701	99,095	0,030	-0,025
-416,686	-111,669	-0,100	0,014
-415,671	-27,950	0,252	0,104
-414,657	-200,000	-0,016	0,114
-413,642	-28,924	-0,070	0,029
-412,628	634,190	0,048	-0,087
-411,613	235,611	0,039	-0,047
-410,598	-52,992	0,024	-0,008
-409,584	56,047	-0,124	0,086
-408,569	-200,000	-0,004	0,085
-407,555	461,047	0,034	0,055
-406,540	-200,000	-0,010	0,083
-405,525	-82,081	-0,037	-0,009
-404,511	-24,425	-0,037	-0,016
-403,496	-88,907	-0,105	0,022
-402,482	-200,000	0,039	0,128
-401,467	512,663	0,039	0,065
-400,452	-200,000	0,006	-0,138
-399,438	-193,337	0,018	-0,000
-398,423	-100,138	0,061	-0,011
-397,409	317,858	-0,117	-0,159
-396,394	96,491	-0,065	-0,053
-395,379	-200,000	0,021	0,206
-394,365	18,782	0,120	-0,069
-393,350	93,028	0,199	0,161
-392,336	273,763	-0,032	0,041
-391,321	370,020	0,095	-0,138
-390,306	-169,405	-0,131	-0,003
-389,292	-116,305	0,058	-0,008
-388,277	-200,000	-0,008	-0,085
-387,263	800,000	-0,040	0,125
-386,248	800,000	0,033	0,104
-385,233	-47,061	-0,091	0,032
-384,219	-52,395	0,060	-0,020
-383,204	-52,346	-0,160	-0,053
-382,190	-105,872	0,027	0,004
-381,175	223,956	0,070	-0,081
-380,160	255,039	0,072	-0,089
-379,146	800,000	0,045	0,140
-378,131	10,743	0,160	-0,088
-377,117	-200,000	-0,002	0,016
-376,102	41,238	-0,079	-0,051
-375,088	563,465	-0,074	-0,129
-374,073	-119,056	-0,165	0,020
-373,058	376,194	0,047	0,069
-372,044	-200,000	0,015	0,107
-371,029	44,313	-0,084	-0,056
-370,015	-200,000	0,001	0,061
-369,000	-65,843	-0,110	-0,031
-367,985	-28,018	0,061	-0,025
-366,971	-122,324	-0,061	-0,007
-365,956	266,218	0,033	0,042
-364,942	174,056	0,070	-0,072
-363,927	800,000	-0,026	-0,062
-362,912	16,384	0,019	-0,011
-361,898	-200,000	0,016	-0,125
-360,883	-200,000	0,023	0,089
-359,869	-200,000	-0,022	0,079
-358,854	329,972	0,034	0,047
-357,839	800,000	0,017	-0,050
-356,825	800,000	0,053	-0,129
-355,810	-154,912	0,124	-0,006
-354,796	-200,000	0,002	-0,106
-353,781	-92,589	0,087	-0,017
-352,766	677,419	-0,017	0,031
-351,752	-167,090	-0,033	0,001
-350,737	120,098	0,086	0,076
-349,723	-117,450	0,054	0,007
-348,708	59,306	0,063	-0,044
-347,693	-200,000	-0,049	-0,166
-346,679	603,630	0,049	-0,087
-345,664	778,958	-0,091	-0,179
-344,650	800,000	0,052	-0,109
-343,635	-151,573	0,092	-0,005
-342,620	-200,000	-0,018	0,201
-341,606	97,731	0,042	-0,035
-340,591	72,761	0,110	-0,082
-339,577	385,016	-0,068	0,101
-338,562	800,000	-0,052	-0,127
-337,548	-31,241	-0,029	-0,012
-336,533	-200,000	0,022	0,101
-335,518	45,035	-0,094	0,062
-334,504	79,444	0,085	0,065
-333,489	16,126	0,070	0,039
-332,475	24,245	-0,071	0,042
-331,460	-79,296	-0,083	-0,020
-330,445	-184,906	0,039	-0,000
-329,431	200,042	0,165	0,182
-328,416	84,279	-0,059	0,046
-327,402	152,326	0,097	0,095
-326,387	-200,000	-0,013	-0,048
-325,372	800,000	0,053	-0,115
-324,358	-200,000	-0,009	0,045
-323,343	353,338	-0,049	-0,069
-322,329	-107,850	0,108	-0,017
-321,314	-200,000	0,013	-0,108
-320,299	-100,053	0,059	0,010
-319,285	-129,191	-0,073	0,007
-318,270	73,352	-0,097	0,073
-317,256	128,094	-0,121	-0,110
-316,241	3,128	0,137	-0,071
-315,226	-200,000	-0,007	0,085
-314,212	22,129	0,029	0,017
-313,197	59,880	-0,092	-0,065
-312,183	-70,216	0,070	0,019
-311,168	800,000	-0,086	0,173
-310,153	94,911	-0,057	0,047
-309,139	-50,713	0,085	-0,028
-308,124	-99,823	0,055	-0,010
-307,110	47,284	0,093	-0,062
-306,095	221,896	0,062	0,072
-305,080	-31,118	0,057	-0,023
-304,066	237,510	0,107	-0,127
-303,051	137,889	-0,035	-0,033
-302,037	-65,509	0,009	0,003
-301,022	298,797	0,081	-0,107
-300,008	-200,000	-0,011	-0,073
-298,993	-200,000	-0,002	0,086
-297,978	800,000	-0,021	-0,057
-296,964	153,469	-0,105	-0,103
-295,949	-200,000	0,028	-0,133
-294,935	163,493	-0,106	-0,107
-293,920	800,000	0,063	0,131
-292,905	255,690	-0,084	-0,103
-291,891	-101,233	0,078	0,013
-290,876	-59,074	0,118	0,036
-289,862	-136,557	-0,054	-0,004
-288,847	-200,000	-0,000	-0,037
-287,832	-61,128	-0,123	-0,037
-286,818	334,985	-0,057	0,079
-285,803	14,758	0,242	0,135
-284,789	-63,434	0,082	0,024
-283,774	-200,000	-0,005	-0,039
-282,759	-57,669	-0,074	-0,023
-281,745	5,794	0,095	0,050
-280,730	-200,000	-0,004	-0,033
-279,716	-84,884	-0,033	0,007
-278,701	109,997	0,058	0,050
-277,686	-46,136	0,140	0,049
-276,672	-200,000	0,007	-0,038
-275,657	-200,000	-0,005	0,027
-274,643	-174,057	0,114	0,002
-273,628	800,000	0,055	-0,134
-272,613	319,006	0,045	-0,061
-271,599	-85,677	0,136	0,030
-270,584	-55,263	-0,045	-0,014
-269,570	461,607	0,053	0,085
-268,555	800,000	0,043	0,103
-267,540	-43,536	-0,123	0,044
-266,526	-200,000	-0,052	-0,164
-265,511	-157,467	-0,184	-0,008
-264,497	-92,181	0,047	0,009
-263,482	16,017	0,134	0,075
-262,467	-200,000	0,020	0,107
-261,453	800,000	-0,072	0,170
-260,438	201,723	-0,068	-0,075
-259,424	89,291	-0,042	0,033
-258,409	-141,198	0,047	-0,003
-257,395	-200,000	-0,033	-0,105
-256,380	-42,269	0,145	0,052
-255,365	487,735	-0,096	0,157
-254,351	-129,377	0,051	0,005
-253,336	676,782	-0,044	0,083
-252,322	-170,705	-0,105	-0,003
-251,307	176,775	-0,022	-0,023
-250,292	-105,769	-0,039	0,006
-249,278	-122,050	0,134	0,016
-248,263	-200,000	0,010	0,043
-247,249	155,707	0,049	0,048
-246,234	-200,000	0,002	0,105
-245,219	-200,000	0,002	0,011
-244,205	-55,525	-0,159	0,051
-243,190	23,079	0,143	-0,083
-242,176	-200,000	-0,035	-0,181
-241,161	794,527	0,077	0,152
-240,146	88,219	0,075	0,059
-239,132	-98,357	0,083	0,015
-238,117	-127,954	-0,180	0,018
-237,103	-123,114	-0,067	-0,008
-236,088	229,238	0,055	-0,064
-235,073	-41,874	-0,219	-0,080
-234,059	3,022	0,054	0,028
-233,044	-70,291	-0,077	-0,021
-232,030	138,427	-0,045	-0,042
-231,015	298,670	-0,067	-0,088
-230,000	51,302	0,069	0,047
-228,986	593,423	-0,038	0,067
-227,971	-42,639	0,057	-0,020
-226,957	-200,000	0,027	0,101
-225,942	298,966	-0,097	0,127
-224,927	153,601	-0,067	-0,066
-223,913	-112,341	-0,169	0,024
-222,898	-200,000	0,015	-0,150
-221,884	800,000	-0,005	0,010
-220,869	-42,220	0,039	0,014
-219,855	43,147	0,050	0,033
-218,840	4,510	0,187	-0,098
-217,825	-149,289	0,138	0,008
-216,811	158,563	-0,045	0,045
-215,796	145,026	-0,121	-0,116
-214,782	669,408	-0,085	-0,157
-213,767	202,368	-0,049	-0,054
-212,752	-200,000	-0,001	0,119
-211,738	-67,937	0,096	0,027
-210,723	-200,000	-0,005	0,018
-209,709	251,664	0,035	-0,042
-208,694	126,225	-0,089	0,080
-207,679	-7,639	0,053	-0,026
-206,665	22,640	-0,031	0,018
-205,650	50,117	0,032	-0,022
-204,636	239,428	0,027	0,032
-203,621	33,212	-0,141	-0,087
-202,606	-140,382	-0,109	0,008
-201,592	122,455	-0,086	-0,077
-200,577	-109,736	-0,088	0,013
-199,563	800,000	0,022	0,044
-198,548	-132,907	0,128	0,011
-197,533	72,773	0,060	0,044
-196,519	800,000	-0,019	0,055
-195,504	337,488	0,104	-0,144
-194,490	-200,000	0,000	-0,068
-193,475	-34,704	0,032	0,012
-192,460	17,977	0,138	-0,078
-191,446	451,966	0,089	0,140
-190,431	-7,622	0,059	0,029
-189,417	-200,000	0,008	0,060
-188,402	209,903	0,051	-0,057
-187,387	-69,308	0,073	0,020
-186,373	380,851	-0,050	-0,073
-185,358	461,339	0,016	0,026
-184,344	403,045	0,088	0,133
-183,329	800,000	0,021	-0,064
-182,315	-17,758	-0,078	0,035
-181,300	-200,000	0,027	-0,145
-180,285	-200,000	-0,016	0,067
-179,271	-200,000	-0,017	-0,122
-178,256	800,000	0,110	-0,232
-177,242	800,000	-0,027	0,056
-176,227	-200,000	0,011	0,174
-175,212	800,000	-0,041	0,090
-174,198	10,688	0,026	0,014
-173,183	74,971	0,073	0,055
-172,169	-133,556	0,107	0,009
-171,154	-200,000	-0,011	0,043
-170,139	76,637	0,024	-0,018
-169,125	-3,781	-0,047	0,023
-168,110	800,000	0,047	0,118
-167,096	800,000	0,021	0,043
-166,081	-49,474	0,100	-0,034
-165,066	800,000	-0,012	-0,028
-164,052	-72,321	-0,158	0,041
-163,037	-98,368	0,070	-0,013
-162,023	237,670	-0,113	0,134
-161,008	-200,000	-0,004	0,022
-159,993	248,976	-0,059	-0,071
-158,979	-200,000	-0,017	-0,184
-157,964	-200,000	0,009	-0,076
-156,950	-94,355	-0,028	0,005
-155,935	-15,211	-0,070	-0,032
-154,920	368,626	-0,011	-0,016
-153,906	121,103	-0,028	0,025
-152,891	-149,814	-0,115	0,006
-151,877	233,634	0,081	-0,095
-150,862	69,251	-0,042	-0,031
-149,847	637,662	0,118	-0,214
-148,833	-136,516	0,160	0,013
-147,818	398,871	-0,077	0,115
-146,804	-63,836	0,099	-0,029
-145,789	-39,992	0,050	-0,019
-144,775	-94,925	0,082	0,016
-143,760	243,480	-0,049	-0,059
-142,745	756,799	-0,042	-0,082
-141,731	800,000	-0,037	0,090
-140,716	75,424	0,017	0,012
-139,702	-200,000	0,006	-0,053
-138,687	475,756	-0,031	-0,050
-137,672	694,450	-0,066	0,123
-136,658	-200,000	0,014	0,089
-135,643	-35,489	0,026	0,010
-134,629	-55,430	0,064	-0,020
-133,614	-200,000	0,028	0,112
-132,599	55,083	0,003	0,002
-131,585	15,000	0,132	0,073
-130,570	-200,000	-0,014	-0,103
-129,556	234,237	-0,131	-0,154
-128,541	-200,000	-0,015	0,060
-127,526	198,069	-0,042	0,046
-126,512	-91,945	0,073	-0,015
-125,497	523,867	-0,040	0,067
-124,483	36,093	0,118	0,074
-123,468	11,999	0,079	0,043
-122,453	-115,219	-0,078	-0,010
-121,439	52,424	-0,088	-0,060
-120,424	-117,530	0,136	-0,017
-119,410	-200,000	0,004	0,110
-118,395	-2,596	0,018	-0,009
-117,380	-132,821	0,047	0,004
-116,366	269,116	-0,065	0,081
-115,351	-200,000	-0,010	0,080
-114,337	5,136	0,093	0,048
-113,322	-200,000	0,002	-0,071
-112,307	-200,000	-0,005	0,079
-111,293	-108,755	0,169	-0,025
-110,278	-200,000	-0,030	0,149
-109,264	-71,977	-0,084	-0,022
-108,249	-27,437	-0,102	-0,042
-107,234	176,631	-0,088	-0,091
-106,220	-117,983	0,105	0,013
-105,205	116,518	-0,035	0,030
-104,191	-112,626	-0,038	0,005
-103,176	97,334	0,089	0,073
-102,162	800,000	0,031	-0,088
-101,147	100,092	-0,064	0,053
-100,132	-178,439	-0,063	-0,001
-99,118	29,735	-0,024	0,014
-98,103	-200,000	0,022	0,077
-97,089	-18,691	0,111	0,049
-96,074	-200,000	0,002	-0,067
-95,059	21,366	0,058	0,033
-94,045	-11,253	-0,090	-0,042
-93,030	28,998	0,035	-0,021
-92,016	-16,439	-0,060	0,027
-91,001	56,201	0,040	0,027
-89,986	-200,000	-0,002	-0,067
-88,972	181,354	0,075	-0,078
-87,957	188,443	-0,074	0,079
-86,943	-103,394	0,063	-0,010
-85,928	-86,101	-0,007	0,001
-84,913	-112,013	-0,147	-0,021
-83,899	-93,310	-0,048	-0,009
-82,884	800,000	0,023	0,051
-81,870	535,427	-0,031	-0,052
-80,855	-200,000	0,003	-0,067
-79,840	125,734	0,088	-0,079
-78,826	152,539	-0,091	-0,088
-77,811	307,470	0,063	-0,083
-76,797	-48,615	-0,077	-0,026
-75,782	262,865	0,016	-0,020
-74,767	-74,246	0,023	0,006
-73,753	1,937	0,114	0,058
-72,738	418,445	-0,067	0,102
-71,724	-117,578	-0,030	0,004
-70,709	-200,000	0,002	-0,194
-69,694	-200,000	0,008	0,053
-68,680	196,296	-0,107	0,116
-67,665	-200,000	0,004	0,116
-66,651	-200,000	0,010	0,080
-65,636	-49,782	0,110	-0,037
-64,622	243,028	-0,031	-0,037
-63,607	-24,983	0,014	-0,006
-62,592	107,752	-0,089	-0,075
-61,578	-200,000	0,017	0,072
-60,563	800,000	0,032	0,073
-59,549	15,361	0,033	0,018
-58,534	-46,645	-1,654	-0,571
-57,519	427,174	-1,548	-2,374
-56,505	-200,000	-0,665	-4,493
-55,490	117,342	0,997	0,869
-54,476	800,000	4,800	11,311
-53,461	-200,000	18,262	291,353
-52,446	800,000	728,539	2242,325
-51,432	559,226	1644,463	2823,881
-50,417	79,071	1665,762	1262,876
-49,403	22,613	1539,013	890,181
-48,388	16,591	1461,947	816,423
-47,373	17,849	1452,015	816,905
-46,359	17,173	1442,458	808,262
-45,344	14,838	1437,757	794,441
-44,330	14,797	1435,606	793,026
-43,315	14,849	1433,880	792,293
-42,300	14,776	1432,411	791,102
-41,286	14,833	1431,338	790,748
-40,271	14,796	1430,041	789,822
-39,257	14,797	1428,887	789,162
-38,242	14,859	1427,380	788,588
-37,227	14,867	1426,166	787,925
-36,213	14,859	1424,723	787,059
-35,198	14,827	1423,684	786,301
-34,184	14,810	1423,048	785,841
-33,169	14,802	1421,572	784,956
-32,154	14,828	1420,689	784,559
-31,140	14,854	1419,077	783,761
-30,125	14,834	1418,076	783,083
-29,111	14,870	1416,991	782,620
-28,096	14,818	1415,873	781,727
-27,082	14,743	1414,853	780,780
-26,067	14,719	1413,650	779,976
-25,052	14,744	1412,723	779,551
-24,038	14,723	1411,833	778,930
-23,023	14,750	1410,609	778,349
-22,009	14,720	1409,715	777,683
-20,994	14,682	1408,919	777,036
-19,979	14,707	1407,990	776,612
-18,965	14,666	1406,816	775,739
-17,950	14,686	1405,974	775,338
-16,936	14,707	1405,090	774,921
-15,921	14,655	1403,774	773,919
-14,906	14,656	1403,000	773,466
-13,892	14,661	1402,226	773,033
-12,877	14,662	1401,218	772,452
-11,863	14,684	1400,074	771,891
-10,848	14,624	1399,276	771,144
-9,833	14,617	1398,447	770,621
-8,819	14,616	1397,569	770,102
-7,804	14,538	1396,810	769,292
-6,790	14,562	1395,701	768,762
-5,775	14,544	1394,454	767,964
-4,760	14,557	1393,696	767,572
-3,746	14,526	1392,992	767,013
-2,731	14,543	1392,131	766,587
-1,717	14,561	1390,991	766,012
-0,702	14,602	1389,403	765,294
0,313	18,349	1308,400	738,044
1,327	34,619	706,135	436,020
2,342	52,907	124,566	84,234
3,356	0,304	16,706	8,414
4,371	9,965	2,978	1,596
5,386	-70,544	0,507	0,135
6,400	-85,104	0,075	-0,016
7,415	448,317	-0,136	-0,212
8,429	202,064	-0,259	-0,283
9,444	162,724	-0,259	-0,257
10,459	272,976	-0,213	-0,267
11,473	-38,967	-0,285	-0,106
12,488	256,524	-0,168	-0,204
13,502	108,523	-0,302	-0,255
14,517	87,969	-0,302	-0,237
15,531	10,408	-0,365	-0,196
16,546	40,674	-0,443	-0,282
17,561	205,230	-0,255	-0,281
18,575	-2,159	-0,119	-0,059
19,590	280,227	-0,173	-0,219
20,604	41,448	-0,266	-0,170
21,619	4,916	-0,465	-0,241
22,634	120,393	-0,428	-0,376
23,648	184,637	-0,344	-0,360
24,663	164,946	-0,369	-0,368
25,677	210,764	-0,250	-0,278
26,692	92,782	-0,303	-0,242
27,707	0,180	-0,392	-0,197
28,721	204,714	-0,275	-0,302
29,736	51,720	-0,396	-0,265
30,750	76,831	-0,415	-0,311
31,765	51,534	-0,423	-0,283
32,780	198,855	-0,252	-0,273
33,794	213,763	-0,252	-0,282
34,809	86,073	-0,292	-0,227
35,823	76,225	-0,347	-0,259
36,838	148,589	-0,388	-0,371
37,853	119,491	-0,358	-0,313
38,867	166,546	-0,375	-0,376
39,882	455,262	-0,246	-0,386
40,896	44,918	-0,269	-0,174
41,911	-23,029	-0,427	-0,181
42,926	-43,976	-0,397	-0,140
43,940	31,410	-0,391	-0,236
44,955	276,108	-0,279	-0,351
45,969	-1,993	-0,315	-0,155
46,984	87,672	-0,316	-0,247
47,999	-41,360	-0,349	-0,126
49,013	10,169	-0,266	-0,142
50,028	81,103	-0,318	-0,242
51,042	205,586	-0,287	-0,315
52,057	33,539	-0,305	-0,187
53,071	74,129	-0,348	-0,257
54,086	62,944	-0,435	-0,307
55,101	-16,227	-0,380	-0,170
56,115	-6,910	-0,405	-0,193
57,130	19,241	-0,328	-0,185
58,144	66,360	-0,472	-0,338
59,159	83,949	-0,315	-0,242
60,174	154,193	-0,344	-0,332
61,188	73,574	-0,260	-0,192
62,203	18,511	-0,324	-0,182
63,217	29,093	-0,496	-0,296
64,232	-15,913	-0,314	-0,140
65,247	187,074	-0,274	-0,288
66,261	186,996	-0,308	-0,324
67,276	185,877	-0,372	-0,390
68,290	120,625	-0,284	-0,248
69,305	-53,766	-0,210	-0,067
70,320	-12,766	-0,350	-0,160
71,334	299,514	-0,243	-0,316
72,349	93,559	-0,369	-0,294
73,363	42,672	-0,434	-0,278
74,378	189,257	-0,309	-0,326
75,393	-5,281	-0,251	-0,121
76,407	-41,323	-0,212	-0,076
77,422	267,349	-0,311	-0,384
78,436	0,515	-0,246	-0,123
79,451	18,922	-0,214	-0,121
80,466	-14,284	-0,510	-0,230
81,480	-5,668	-0,418	-0,201
82,495	-6,024	-0,368	-0,176
83,509	56,027	-0,257	-0,175
84,524	167,365	-0,235	-0,235
85,539	183,127	-0,237	-0,246
86,553	21,638	-0,361	-0,206
87,568	537,495	-0,151	-0,252
88,582	85,489	-0,396	-0,305
89,597	172,667	-0,208	-0,211
90,611	-127,932	-0,351	-0,035
91,626	800,000	-0,096	-0,186
92,641	80,981	-0,224	-0,170
93,655	91,108	-0,252	-0,198
94,670	152,971	-0,243	-0,234
95,684	-80,098	-0,245	-0,057
96,699	18,700	-0,299	-0,167
97,714	23,340	-0,224	-0,129
98,728	32,658	-0,279	-0,169
99,743	115,400	-0,166	-0,142
100,757	-16,875	-0,337	-0,149
101,772	-80,288	-0,383	-0,089
102,787	-50,210	-0,271	-0,089
103,801	34,685	-0,326	-0,199
104,816	106,149	-0,191	-0,159
105,830	-33,524	-0,254	-0,098
106,845	-161,012	-0,172	0,006
107,860	-148,749	-0,141	0,008
108,874	27,030	-0,310	-0,182
109,889	147,745	-0,278	-0,263
110,903	69,810	-0,303	-0,219
111,918	448,873	-0,195	-0,303
112,933	184,590	-0,216	-0,225
113,947	159,802	-0,285	-0,278
114,962	182,828	-0,136	-0,141
115,976	56,610	-0,245	-0,167
116,991	205,131	-0,177	-0,193
118,006	16,699	-0,332	-0,183
119,020	66,214	-0,311	-0,221
120,035	228,837	-0,214	-0,245
121,049	100,121	-0,195	-0,159
122,064	170,302	-0,276	-0,277
123,079	121,432	-0,224	-0,195
124,093	800,000	-0,080	-0,216
125,108	-12,362	-0,312	-0,142
126,122	59,468	-0,230	-0,159
127,137	-68,587	-0,287	-0,077
128,151	-84,440	-0,350	-0,077
129,166	-148,714	-0,354	0,020
130,181	-16,654	-0,264	-0,116
131,195	52,095	-0,229	-0,153
132,210	30,212	-0,285	-0,170
133,224	-58,563	-0,304	-0,092
134,239	-75,043	-0,241	-0,060
135,254	-66,978	-0,250	-0,069
136,268	347,461	-0,125	-0,173
137,283	-77,180	-0,396	-0,096
138,297	210,610	-0,164	-0,180
139,312	24,491	-0,214	-0,123
140,327	15,399	-0,231	-0,126
141,341	-6,681	-0,209	-0,099
142,356	45,888	-0,220	-0,142
143,370	308,895	-0,170	-0,222
144,385	-119,994	-0,204	0,024
145,400	119,764	-0,287	-0,249
146,414	5,383	-0,295	-0,152
147,429	138,938	-0,204	-0,188
148,443	398,486	-0,149	-0,219
149,458	-36,413	-0,231	-0,086
150,473	85,816	-0,183	-0,140
151,487	61,649	-0,300	-0,208
152,502	127,274	-0,277	-0,246
153,516	247,572	-0,201	-0,238
154,531	190,005	-0,205	-0,216
155,546	239,713	-0,217	-0,252
156,560	377,172	-0,098	-0,140
157,575	121,565	-0,173	-0,150
158,589	226,273	-0,169	-0,192
159,604	-137,706	-0,294	-0,023
160,619	31,082	-0,192	-0,115
161,633	81,718	-0,280	-0,211
162,648	34,517	-0,246	-0,150
163,662	173,083	-0,202	-0,203
164,677	-88,291	-0,251	-0,052
165,692	-49,759	-0,118	-0,039
166,706	227,405	-0,167	-0,190
167,721	-27,274	-0,358	-0,145
168,735	454,550	-0,135	-0,209
169,750	-12,082	-0,293	-0,133
170,764	75,799	-0,280	-0,206
171,779	17,609	-0,250	-0,138
172,794	138,031	-0,146	-0,133
173,808	-91,825	-0,287	-0,056
174,823	73,421	-0,207	-0,151
175,837	69,058	-0,181	-0,130
176,852	156,484	-0,205	-0,197
177,867	200,945	-0,132	-0,142
178,881	146,156	-0,165	-0,154
179,896	197,161	-0,151	-0,161
180,910	54,913	-0,318	-0,214
181,925	142,890	-0,210	-0,195
182,940	91,697	-0,291	-0,228
183,954	327,427	-0,218	-0,292
184,969	76,739	-0,179	-0,132
185,983	-120,064	-0,150	-0,018
186,998	238,546	-0,085	-0,098
188,013	246,111	-0,123	-0,145
189,027	158,979	-0,224	-0,217
190,042	20,680	-0,226	-0,127
191,056	199,128	-0,178	-0,190
192,071	42,913	-0,276	-0,175
193,086	-166,182	-0,075	0,002
194,100	800,000	-0,057	-0,115
195,115	300,808	-0,187	-0,241
196,129	111,026	-0,229	-0,192
197,144	253,667	-0,146	-0,174
198,159	37,853	-0,228	-0,141
199,173	123,139	-0,154	-0,135
200,188	-95,461	-0,252	-0,047
201,202	-4,015	-0,191	-0,092
202,217	193,300	-0,234	-0,246
203,232	131,902	-0,279	-0,250
204,246	-5,453	-0,208	-0,099
205,261	253,758	-0,276	-0,328
206,275	291,363	-0,168	-0,214
207,290	-36,948	-0,263	-0,098
208,304	-21,551	-0,162	-0,068
209,319	226,336	-0,166	-0,188
210,334	263,745	-0,105	-0,127
211,348	140,459	-0,261	-0,240
212,363	181,377	-0,132	-0,135
213,377	15,706	-0,238	-0,130
214,392	268,302	-0,109	-0,133
215,407	432,055	-0,128	-0,193
216,421	-104,122	-0,178	-0,029
217,436	124,762	-0,241	-0,211
218,450	222,771	-0,204	-0,229
219,465	126,348	-0,210	-0,185
220,480	-200,000	-0,091	-0,311
221,494	800,000	-0,079	-0,160
222,509	48,696	-0,097	-0,063
223,523	136,751	-0,131	-0,119
224,538	47,644	-0,195	-0,126
225,553	31,256	-0,275	-0,164
226,567	-25,304	-0,308	-0,126
227,582	86,764	-0,196	-0,150
228,596	-131,161	-0,213	-0,019
229,611	-126,910	-0,153	-0,015
230,626	639,167	-0,094	-0,167
231,640	686,086	-0,086	-0,156
232,655	800,000	-0,096	-0,219
233,669	-27,293	-0,265	-0,107
234,684	47,822	-0,271	-0,175
235,699	-200,000	0,006	-0,149
236,713	352,676	-0,060	-0,083
237,728	800,000	-0,097	-0,188
238,742	800,000	-0,070	-0,173
239,757	-200,000	-0,010	-0,122
240,772	38,861	-0,226	-0,140
241,786	800,000	-0,099	-0,292
242,801	201,740	-0,141	-0,151
243,815	125,613	-0,202	-0,177
244,830	-107,030	-0,222	-0,034
245,844	90,285	-0,248	-0,192
246,859	0,374	-0,179	-0,088
247,874	213,415	-0,190	-0,209
248,888	35,491	-0,261	-0,158
249,903	232,630	-0,145	-0,165
250,917	-200,000	-0,005	-0,114
251,932	45,938	-0,205	0,131
252,947	-68,121	-0,115	0,031
253,961	800,000	-0,119	-0,293
254,976	454,026	-0,181	-0,279
255,990	230,266	-0,173	-0,196
257,005	49,603	-0,122	-0,079
258,020	250,057	-0,052	-0,061
259,034	380,022	-0,090	-0,127
260,049	-9,678	-0,194	-0,089
261,063	-143,082	-0,196	-0,013
262,078	348,968	-0,130	-0,178
263,093	59,860	-0,195	-0,133
264,107	144,499	-0,135	-0,125
265,122	-200,000	0,043	-0,184
266,136	-61,334	-0,174	-0,050
267,151	-66,361	-0,118	-0,032
268,166	78,350	-0,202	-0,149
269,180	85,084	-0,148	-0,112
270,195	0,355	-0,302	-0,149
271,209	-66,748	-0,240	-0,065
272,224	-18,738	-0,030	-0,013
273,239	-132,082	-0,216	0,019
274,253	346,399	-0,108	-0,148
275,268	-64,019	-0,197	0,055
276,282	102,886	-0,225	-0,182
277,297	77,873	-0,209	-0,154
278,312	79,517	-0,260	-0,192
279,326	-116,766	-0,144	-0,018
280,341	115,817	-0,161	-0,136
281,355	309,989	-0,054	-0,070
282,370	800,000	-0,061	-0,160
283,384	20,819	-0,169	-0,094
284,399	45,315	-0,222	-0,141
285,414	-68,987	-0,155	-0,041
286,428	-130,689	-0,178	-0,016
287,443	-33,273	-0,175	-0,066
288,457	-35,411	-0,150	-0,056
289,472	81,882	-0,179	-0,134
290,487	-59,078	-0,156	-0,046
291,501	152,974	-0,175	-0,165
292,516	723,815	-0,123	-0,228
293,530	86,488	-0,124	-0,094
294,545	-154,650	-0,227	0,010
295,560	-200,000	0,009	0,064
296,574	45,113	-0,291	-0,185
297,589	21,546	-0,177	-0,099
298,603	10,145	-0,059	-0,031
299,618	-200,000	-0,026	-0,170
300,633	115,532	-0,189	-0,159
301,647	-53,381	-0,026	-0,008
302,662	186,869	-0,047	-0,048
303,676	-200,000	-0,003	-0,043
304,691	22,287	-0,223	-0,125
305,706	800,000	-0,084	-0,225
306,720	83,819	-0,115	-0,086
307,735	-90,886	-0,178	0,035
308,749	-50,159	-0,203	-0,066
309,764	188,104	-0,170	-0,176
310,779	-200,000	0,004	-0,111
311,793	800,000	-0,061	-0,178
312,808	-142,386	-0,275	-0,018
313,822	212,775	-0,193	-0,210
314,837	84,072	-0,195	-0,147
315,852	-82,716	-0,093	-0,021
316,866	-200,000	-0,016	-0,143
317,881	533,883	-0,130	-0,213
318,895	123,597	-0,234	-0,202
319,910	2,761	-0,262	-0,131
320,925	-180,552	-0,249	0,003
321,939	-165,547	-0,237	-0,007
322,954	-122,949	-0,076	0,008
323,968	-79,560	-0,178	-0,041
324,983	-200,000	-0,052	-0,208
325,997	-159,431	-0,193	-0,007
327,012	-145,374	-0,226	-0,014
328,027	41,065	-0,150	-0,093
329,041	101,321	-0,098	0,078
330,056	-200,000	-0,011	-0,105
331,070	-168,000	-0,164	0,004
332,085	-98,184	-0,149	-0,026
333,100	117,238	-0,239	0,202
334,114	44,899	-0,184	-0,116
335,129	545,318	-0,130	-0,214
336,143	800,000	-0,046	0,114
337,158	-103,314	-0,089	0,014
338,173	-30,802	-0,108	-0,042
339,187	21,690	-0,172	-0,096
340,202	316,713	-0,093	-0,121
341,216	-200,000	-0,079	-0,244
342,231	159,184	-0,165	-0,158
343,246	22,438	-0,068	-0,038
344,260	66,839	-0,218	-0,152
345,275	-73,113	-0,159	-0,040
346,289	69,095	-0,091	0,064
347,304	725,799	-0,041	-0,075
348,319	-10,674	-0,116	-0,053
349,333	119,482	-0,142	-0,121
350,348	-107,176	-0,268	-0,040
351,362	800,000	-0,062	-0,158
352,377	183,627	-0,047	-0,048
353,392	221,844	-0,073	-0,080
354,406	800,000	-0,104	-0,208
355,421	207,217	1313,286	1407,832
356,435	159,396	1473,850	1408,351
