DTS Sentinel unit serial number:	SN410029Multiplexer serial number:	ORYXHardware model number:	OX2-SRSoftware version number:	ORYX F/W v4,00 Oryx Data Collector v3.7.2.0data status	okinstallation	B3 Nyhavnadifferential loss correction	single-endedforward channel	channel 1reverse channel	N/Adate	2023/12/04time	05:17:30forward acquisition time	300,00reverse acquisition time	0,00gamma	499,1914k internal	0,3206k external	0,3206temperature offset calibration	1,0000default loss term (dB/km)	0,3820temperature slope calibration	1,0000multiplexer offset coefficient	1,0000multiplexer slope coefficient	1,0000fibre end	0,00T internal ref (°C)	12,00T ext. ref 1 (°C)	-2,91T ext. ref 2 (°C)	-2,95length (m)	temperature (°C)	Stokes	anti-Stokes-744,400	221,544	-0,138	-0,161
-743,385	-200,000	0,047	0,281
-742,371	-200,000	0,035	-0,220
-741,356	-200,000	0,002	0,271
-740,342	275,602	-0,210	-0,271
-739,327	-200,000	0,004	0,306
-738,312	562,534	-0,182	-0,321
-737,298	-200,000	0,026	0,208
-736,283	-42,474	-0,305	-0,112
-735,269	-200,000	0,001	0,232
-734,254	-46,560	-0,098	-0,035
-733,239	297,149	-0,102	0,136
-732,225	135,694	-0,185	-0,175
-731,210	262,059	0,087	0,109
-730,196	653,900	-0,072	0,135
-729,181	800,000	-0,058	-0,127
-728,167	-46,151	0,115	-0,041
-727,152	12,395	-0,130	0,073
-726,137	733,382	-0,068	-0,132
-725,123	800,000	-0,018	0,051
-724,108	-10,672	-0,100	-0,048
-723,094	190,541	-0,127	-0,139
-722,079	-119,836	-0,156	-0,019
-721,064	-84,134	0,142	-0,032
-720,050	-200,000	0,007	-0,053
-719,035	-200,000	-0,042	0,177
-718,021	343,719	0,014	0,020
-717,006	-131,486	-0,070	-0,007
-715,991	-200,000	0,017	-0,135
-714,977	-60,792	-0,105	-0,032
-713,962	183,250	0,045	-0,048
-712,948	262,613	-0,040	-0,051
-711,933	-106,826	0,091	-0,015
-710,918	206,564	-0,033	0,038
-709,904	-117,974	-0,204	-0,026
-708,889	195,533	-0,132	-0,146
-707,875	-136,402	-0,104	0,009
-706,860	72,877	0,110	0,084
-705,845	91,310	-0,183	-0,149
-704,831	-200,000	0,009	-0,135
-703,816	5,640	-0,161	-0,086
-702,802	20,997	-0,043	0,025
-701,787	111,002	-0,024	0,021
-700,772	800,000	-0,031	-0,080
-699,758	-200,000	0,003	0,014
-698,743	-200,000	0,026	-0,143
-697,729	625,010	-0,029	0,054
-696,714	274,833	-0,043	-0,055
-695,699	-3,100	0,080	-0,040
-694,685	55,362	-0,152	-0,106
-693,670	-200,000	-0,005	-0,181
-692,656	331,190	-0,110	-0,154
-691,641	-49,447	0,146	-0,050
-690,627	-34,908	0,071	0,028
-689,612	800,000	0,033	0,083
-688,597	-200,000	-0,003	0,031
-687,583	148,808	0,107	-0,105
-686,568	226,000	-0,047	-0,055
-685,554	-200,000	0,001	0,034
-684,539	164,568	0,204	-0,209
-683,524	800,000	0,021	0,056
-682,510	198,100	0,056	-0,062
-681,495	173,596	-0,126	-0,132
-680,481	-21,055	-0,069	-0,031
-679,466	734,527	-0,056	-0,109
-678,451	-103,245	0,108	0,018
-677,437	-200,000	0,004	0,018
-676,422	611,271	-0,063	0,114
-675,408	-200,000	0,026	-0,089
-674,393	800,000	-0,064	-0,161
-673,378	-82,881	-0,096	0,022
-672,364	-119,047	-0,063	-0,008
-671,349	800,000	-0,024	-0,067
-670,335	-200,000	0,027	0,100
-669,320	800,000	-0,018	-0,049
-668,305	800,000	-0,058	0,180
-667,291	-164,282	-0,131	-0,004
-666,276	-0,041	-0,052	0,027
-665,262	472,200	-0,074	-0,121
-664,247	251,747	-0,064	-0,080
-663,232	90,831	0,070	0,057
-662,218	-75,553	-0,155	-0,040
-661,203	-6,173	-0,065	0,032
-660,189	-200,000	-0,014	-0,068
-659,174	-200,000	-0,012	0,037
-658,159	-142,206	-0,022	0,002
-657,145	-84,311	-0,065	-0,015
-656,130	140,980	-0,055	0,052
-655,116	102,726	-0,082	0,069
-654,101	-200,000	-0,013	0,075
-653,086	136,147	0,028	-0,027
-652,072	-9,183	-0,214	-0,103
-651,057	-200,000	0,001	-0,060
-650,043	116,560	-0,070	-0,062
-649,028	3,676	-0,052	0,027
-648,014	-88,222	0,117	0,025
-646,999	-200,000	0,006	0,221
-645,984	-70,179	-0,083	-0,023
-644,970	121,902	-0,113	-0,102
-643,955	-200,000	-0,003	-0,123
-642,941	362,370	0,069	0,101
-641,926	257,558	0,079	0,098
-640,911	266,302	0,080	0,101
-639,897	315,026	0,046	0,063
-638,882	-200,000	0,017	0,086
-637,868	-10,697	0,037	0,018
-636,853	-140,012	0,117	0,009
-635,838	-157,450	-0,073	-0,003
-634,824	800,000	0,022	0,064
-633,809	-200,000	0,001	0,020
-632,795	-78,696	0,065	-0,016
-631,780	-95,279	-0,082	0,016
-630,765	488,029	-0,082	0,136
-629,751	79,732	0,015	0,012
-628,736	91,556	-0,059	-0,048
-627,722	-143,346	-0,106	-0,007
-626,707	17,973	0,143	-0,082
-625,692	-200,000	-0,038	-0,133
-624,678	-200,000	0,008	-0,052
-623,663	-34,151	0,068	0,027
-622,649	238,057	-0,042	-0,051
-621,634	136,811	0,028	-0,026
-620,619	-8,103	-0,042	-0,020
-619,605	731,682	0,093	-0,181
-618,590	-22,236	-0,103	0,045
-617,576	-200,000	-0,014	0,172
-616,561	279,485	0,042	-0,055
-615,546	-200,000	-0,009	-0,099
-614,532	-107,364	0,095	-0,015
-613,517	-200,000	0,037	-0,117
-612,503	26,083	-0,090	-0,054
-611,488	-200,000	-0,003	0,027
-610,474	646,731	0,025	0,047
-609,459	314,597	0,073	-0,100
-608,444	-96,021	-0,186	-0,035
-607,430	800,000	0,031	0,096
-606,415	800,000	0,047	-0,129
-605,401	-177,196	-0,067	-0,001
-604,386	-76,852	0,150	-0,038
-603,371	-200,000	0,002	0,027
-602,357	607,309	-0,025	-0,044
-601,342	-63,356	-0,030	-0,009
-600,328	800,000	0,052	-0,147
-599,313	65,586	0,048	-0,035
-598,298	-200,000	-0,021	0,068
-597,284	-143,782	-0,144	-0,010
-596,269	-150,825	0,136	-0,007
-595,255	85,451	0,091	0,072
-594,240	-71,072	-0,148	-0,040
-593,225	131,037	-0,044	-0,041
-592,211	13,328	-0,135	-0,075
-591,196	800,000	-0,036	0,081
-590,182	-200,000	0,013	0,053
-589,167	198,191	0,096	0,107
-588,152	-128,590	-0,069	0,007
-587,138	273,350	0,058	-0,074
-586,123	800,000	0,034	-0,097
-585,109	-200,000	0,000	-0,039
-584,094	143,070	0,062	-0,060
-583,079	43,265	0,102	0,067
-582,065	655,856	0,015	0,028
-581,050	406,602	0,066	-0,101
-580,036	-200,000	-0,022	-0,113
-579,021	800,000	0,042	-0,134
-578,006	-149,233	-0,085	-0,005
-576,992	399,207	-0,005	-0,008
-575,977	-98,459	-0,040	0,007
-574,963	568,482	0,029	0,051
-573,948	-115,251	-0,049	-0,007
-572,934	310,439	0,029	0,039
-571,919	-90,231	-0,067	0,014
-570,904	-1,485	-0,139	-0,070
-569,890	187,935	0,058	0,062
-568,875	20,234	0,106	0,062
-567,861	-200,000	-0,020	0,142
-566,846	138,672	-0,028	-0,027
-565,831	-120,002	0,041	0,005
-564,817	-129,364	-0,036	0,004
-563,802	-200,000	0,016	-0,168
-562,788	-154,082	-0,059	0,003
-561,773	-103,705	-0,031	-0,005
-560,758	-109,935	0,141	0,021
-559,744	37,017	0,015	0,010
-558,729	-18,346	0,047	0,021
-557,715	-200,000	-0,009	-0,063
-556,700	-67,939	0,066	0,018
-555,685	-124,610	-0,057	0,006
-554,671	-200,000	-0,012	-0,053
-553,656	193,602	0,086	-0,094
-552,642	800,000	0,045	0,112
-551,627	-118,397	-0,155	-0,020
-550,612	-200,000	0,018	-0,064
-549,598	164,189	-0,047	-0,048
-548,583	-19,666	-0,114	0,051
-547,569	-182,805	0,022	-0,000
-546,554	-68,206	0,091	0,025
-545,539	134,864	0,071	0,066
-544,525	-200,000	0,025	0,081
-543,510	800,000	-0,052	0,113
-542,496	-185,707	-0,101	-0,001
-541,481	461,221	-0,024	-0,039
-540,466	-200,000	-0,004	0,022
-539,452	111,618	-0,034	0,030
-538,437	-200,000	-0,014	0,126
-537,423	-89,694	0,115	-0,024
-536,408	-200,000	0,009	-0,049
-535,393	92,142	-0,113	0,091
-534,379	-114,174	-0,238	-0,033
-533,364	-200,000	0,008	-0,068
-532,350	264,241	-0,053	0,066
-531,335	-48,990	-0,032	0,011
-530,321	-9,362	-0,139	0,067
-529,306	-200,000	-0,009	-0,074
-528,291	-200,000	0,024	-0,112
-527,277	800,000	-0,028	-0,069
-526,262	-200,000	0,010	-0,111
-525,248	153,360	-0,041	0,040
-524,233	-65,318	-0,068	0,019
-523,218	-200,000	0,023	-0,074
-522,204	662,770	-0,054	0,100
-521,189	-125,935	-0,062	0,007
-520,175	280,187	0,085	-0,109
-519,160	800,000	-0,027	-0,067
-518,145	-200,000	0,011	-0,080
-517,131	-200,000	-0,017	0,073
-516,116	-200,000	0,031	-0,128
-515,102	235,011	0,094	-0,112
-514,087	225,087	-0,040	-0,046
-513,072	50,989	-0,059	-0,040
-512,058	316,204	-0,008	0,011
-511,043	-200,000	0,031	-0,104
-510,029	30,028	0,054	0,033
-509,014	-200,000	0,019	0,070
-507,999	65,451	-0,068	0,049
-506,985	-200,000	-0,013	-0,099
-505,970	-53,445	0,077	-0,025
-504,956	-200,000	0,051	0,166
-503,941	-128,233	-0,058	0,006
-502,926	-200,000	0,006	-0,042
-501,912	-200,000	0,034	0,122
-500,897	-200,000	0,003	-0,091
-499,883	-200,000	-0,024	-0,122
-498,868	-200,000	0,023	-0,096
-497,853	-200,000	0,012	0,118
-496,839	-200,000	0,025	0,085
-495,824	88,055	0,157	0,125
-494,810	55,701	0,033	-0,023
-493,795	-34,230	0,061	0,024
-492,781	800,000	-0,012	-0,030
-491,766	-152,355	0,081	0,004
-490,751	800,000	0,014	-0,043
-489,737	800,000	0,021	0,052
-488,722	132,521	0,068	-0,063
-487,708	395,991	0,086	0,129
-486,693	-200,000	-0,009	-0,083
-485,678	-130,016	-0,039	0,004
-484,664	-200,000	-0,018	0,144
-483,649	800,000	-0,017	-0,046
-482,635	504,029	0,022	-0,036
-481,620	-1,711	0,176	-0,089
-480,605	62,817	-0,043	0,031
-479,591	-200,000	-0,003	0,128
-478,576	217,863	0,021	-0,024
-477,562	229,684	-0,103	-0,121
-476,547	384,561	-0,068	-0,101
-475,532	-54,456	-0,121	0,039
-474,518	-91,096	0,080	0,016
-473,503	-32,474	0,162	-0,064
-472,489	-20,566	-0,059	0,026
-471,474	95,773	-0,075	0,061
-470,459	-33,184	-0,131	-0,052
-469,445	-110,431	-0,043	0,006
-468,430	-200,000	-0,006	0,022
-467,416	8,116	-0,089	-0,048
-466,401	-26,405	0,110	0,046
-465,386	162,491	-0,056	0,057
-464,372	179,166	0,067	-0,071
-463,357	30,440	0,076	-0,046
-462,343	-200,000	-0,020	-0,087
-461,328	-200,000	-0,008	-0,035
-460,313	299,777	0,021	-0,028
-459,299	331,226	0,040	0,056
-458,284	49,104	0,106	0,072
-457,270	-45,932	-0,015	-0,005
-456,255	778,440	0,017	0,034
-455,241	173,166	0,092	-0,095
-454,226	-200,000	-0,030	0,160
-453,211	-200,000	0,002	0,159
-452,197	-32,568	0,041	-0,016
-451,182	126,307	0,074	0,068
-450,168	-200,000	0,026	0,090
-449,153	800,000	0,021	0,061
-448,138	358,084	0,061	-0,088
-447,124	587,225	-0,026	-0,046
-446,109	179,405	0,092	-0,097
-445,095	153,489	0,079	0,078
-444,080	-200,000	0,001	0,137
-443,065	-125,413	0,078	-0,008
-442,051	-112,823	-0,172	0,024
-441,036	183,376	-0,009	0,010
-440,022	379,427	0,082	-0,121
-439,007	523,302	-0,033	-0,056
-437,992	-121,096	0,163	0,019
-436,978	-200,000	-0,027	0,141
-435,963	126,073	0,108	0,098
-434,949	-103,138	-0,087	0,015
-433,934	-68,593	-0,026	0,007
-432,919	-122,802	-0,083	-0,009
-431,905	485,394	0,071	-0,116
-430,890	-78,373	0,142	0,035
-429,876	-101,218	0,141	0,025
-428,861	-200,000	-0,003	-0,057
-427,846	-200,000	0,021	0,137
-426,832	-89,383	-0,154	-0,032
-425,817	-200,000	0,001	-0,023
-424,803	526,579	0,020	0,033
-423,788	232,657	0,053	0,062
-422,773	-168,497	0,036	-0,001
-421,759	-80,502	0,158	0,038
-420,744	-200,000	0,014	0,086
-419,730	-200,000	-0,008	0,113
-418,715	108,965	-0,029	0,025
-417,701	5,193	0,035	0,019
-416,686	-129,334	-0,106	-0,010
-415,671	-200,000	0,028	0,091
-414,657	540,262	-0,060	0,102
-413,642	15,491	-0,018	0,010
-412,628	289,963	0,069	0,090
-411,613	165,619	0,076	-0,077
-410,598	800,000	-0,016	-0,035
-409,584	-104,421	0,037	0,006
-408,569	-96,745	0,102	0,019
-407,555	403,969	0,046	-0,070
-406,540	-81,761	-0,072	0,017
-405,525	800,000	-0,024	-0,065
-404,511	800,000	-0,097	-0,200
-403,496	227,450	0,063	-0,074
-402,482	-200,000	0,020	-0,132
-401,467	-30,416	-0,140	0,057
-400,452	800,000	0,032	-0,076
-399,438	117,050	-0,059	0,052
-398,423	-200,000	0,016	-0,082
-397,409	800,000	0,031	0,067
-396,394	-200,000	-0,011	-0,078
-395,379	-68,787	0,067	0,019
-394,365	-20,685	-0,104	0,045
-393,350	213,327	0,102	0,116
-392,336	-200,000	0,002	0,010
-391,321	-200,000	0,023	0,085
-390,306	239,972	-0,055	-0,066
-389,292	286,406	-0,095	0,123
-388,277	-200,000	0,002	0,108
-387,263	13,035	-0,005	0,003
-386,248	-53,065	-0,038	0,012
-385,233	164,017	0,047	0,047
-384,219	24,243	-0,069	-0,041
-383,204	-144,626	-0,230	0,015
-382,190	4,087	-0,044	-0,023
-381,175	775,730	-0,053	-0,103
-380,160	-200,000	-0,019	0,111
-379,146	114,451	0,044	-0,038
-378,131	225,591	0,083	0,096
-377,117	800,000	-0,035	0,108
-376,102	533,508	-0,032	0,055
-375,088	-143,843	0,080	-0,005
-374,073	800,000	-0,049	0,123
-373,058	-200,000	-0,017	0,084
-372,044	-19,775	0,134	0,059
-371,029	659,322	0,089	0,164
-370,015	-94,915	0,142	-0,027
-369,000	199,759	-0,047	-0,051
-367,985	800,000	-0,030	0,076
-366,971	168,038	-0,061	0,063
-365,956	98,654	0,177	0,146
-364,942	-179,050	0,032	-0,000
-363,927	-127,798	-0,153	0,016
-362,912	25,871	0,091	0,054
-361,898	-19,652	-0,053	0,024
-360,883	201,937	-0,019	-0,021
-359,869	52,197	0,012	0,008
-358,854	134,876	0,099	0,092
-357,839	-160,065	-0,096	-0,004
-356,825	93,699	0,097	0,078
-355,810	-121,393	-0,068	-0,008
-354,796	17,784	-0,077	-0,044
-353,781	800,000	0,045	-0,121
-352,766	-60,824	-0,138	0,041
-351,752	800,000	-0,007	0,020
-350,737	-13,566	-0,035	0,016
-349,723	-81,599	-0,112	0,026
-348,708	-66,237	0,163	-0,046
-347,693	-48,141	-0,050	-0,017
-346,679	48,766	-0,071	-0,047
-345,664	44,464	-0,012	-0,008
-344,650	173,109	0,107	0,110
-343,635	221,178	-0,057	0,066
-342,620	11,686	0,042	0,023
-341,606	-62,574	-0,141	-0,042
-340,591	-200,000	-0,007	-0,166
-339,577	-200,000	-0,016	-0,083
-338,562	32,654	-0,083	-0,051
-337,548	-200,000	-0,006	0,046
-336,533	-184,650	0,141	-0,002
-335,518	-200,000	-0,004	-0,028
-334,504	-200,000	0,017	0,055
-333,489	800,000	0,052	0,119
-332,475	134,310	0,012	0,011
-331,460	-200,000	0,003	-0,182
-330,445	-42,773	-0,051	0,018
-329,431	800,000	0,048	0,127
-328,416	-14,516	-0,050	-0,023
-327,402	800,000	0,061	0,136
-326,387	228,912	-0,017	0,019
-325,372	800,000	-0,032	-0,067
-324,358	-121,730	-0,118	0,014
-323,343	62,157	0,114	0,081
-322,329	-5,112	0,056	0,027
-321,314	-200,000	-0,010	-0,087
-320,299	447,474	0,040	-0,064
-319,285	198,191	-0,065	0,071
-318,270	-158,936	0,112	0,004
-317,256	95,472	-0,177	-0,144
-316,241	376,777	-0,016	0,023
-315,226	-92,778	-0,069	0,014
-314,212	-22,257	-0,015	-0,007
-313,197	373,658	0,017	0,025
-312,183	-200,000	0,040	0,135
-311,168	38,439	-0,051	-0,032
-310,153	129,212	-0,137	-0,125
-309,139	-140,960	-0,067	-0,005
-308,124	-200,000	-0,019	0,072
-307,110	150,460	0,052	-0,050
-306,095	-200,000	0,004	0,060
-305,080	-100,339	-0,097	0,017
-304,066	-106,729	-0,124	-0,020
-303,051	-200,000	-0,003	-0,025
-302,037	-150,535	-0,157	0,008
-301,022	33,731	0,066	0,041
-300,008	800,000	0,057	0,135
-298,993	-200,000	0,011	-0,071
-297,978	-200,000	0,009	0,042
-296,964	320,246	-0,054	-0,073
-295,949	-44,489	0,133	-0,047
-294,935	800,000	-0,058	-0,140
-293,920	800,000	-0,065	-0,135
-292,905	-175,880	0,075	-0,001
-291,891	-200,000	0,005	0,020
-290,876	800,000	-0,039	-0,097
-289,862	-29,712	-0,086	0,035
-288,847	-35,468	0,141	-0,054
-287,832	65,740	0,079	-0,057
-286,818	-200,000	0,015	-0,144
-285,803	304,776	-0,047	-0,063
-284,789	320,539	0,109	-0,148
-283,774	800,000	-0,028	0,058
-282,759	-200,000	-0,010	-0,040
-281,745	59,571	0,051	-0,036
-280,730	-121,798	-0,033	0,004
-279,716	535,644	0,082	-0,140
-278,701	-51,157	0,086	-0,029
-277,686	800,000	0,005	0,014
-276,672	221,352	-0,047	-0,054
-275,657	-142,460	0,162	0,011
-274,643	107,117	0,056	0,047
-273,628	800,000	-0,043	-0,088
-272,613	-54,995	-0,083	0,027
-271,599	-132,893	0,045	0,004
-270,584	-81,211	-0,042	0,010
-269,570	301,446	-0,025	0,033
-268,555	-200,000	0,003	0,029
-267,540	-116,039	-0,055	-0,007
-266,526	282,074	0,031	0,040
-265,511	-200,000	0,007	-0,070
-264,497	-33,590	-0,054	0,021
-263,482	800,000	-0,040	0,079
-262,467	-20,641	0,074	-0,032
-261,453	-175,220	-0,115	0,002
-260,438	800,000	-0,044	-0,100
-259,424	692,842	-0,110	-0,206
-258,409	800,000	0,029	0,088
-257,395	-130,560	0,039	0,004
-256,380	-174,287	0,038	0,001
-255,365	87,542	-0,044	0,035
-254,351	-200,000	0,002	-0,020
-253,336	-200,000	-0,001	-0,092
-252,322	-200,000	0,003	-0,015
-251,307	-115,912	0,030	-0,004
-250,292	-44,271	-0,162	-0,057
-249,278	19,001	0,048	0,027
-248,263	800,000	0,037	0,100
-247,249	800,000	-0,008	-0,019
-246,234	13,244	-0,110	-0,060
-245,219	28,269	0,110	0,066
-244,205	112,916	0,062	-0,053
-243,190	128,350	-0,074	0,067
-242,176	-200,000	-0,023	0,127
-241,161	-148,907	0,057	-0,003
-240,146	-169,178	-0,183	-0,005
-239,132	44,428	-0,042	-0,028
-238,117	800,000	0,020	-0,056
-237,103	800,000	-0,013	0,036
-236,088	-108,053	-0,203	-0,031
-235,073	-27,000	0,129	-0,053
-234,059	-76,751	0,091	-0,023
-233,044	-25,300	0,087	-0,037
-232,030	-84,364	0,049	0,011
-231,015	337,000	-0,056	-0,078
-230,000	141,234	-0,007	-0,007
-228,986	-200,000	-0,022	0,139
-227,971	-46,713	0,076	0,026
-226,957	498,518	0,128	0,211
-225,942	800,000	-0,053	0,160
-224,927	-200,000	-0,017	-0,061
-223,913	516,653	-0,080	-0,134
-222,898	-27,658	-0,062	-0,025
-221,884	-200,000	0,027	-0,179
-220,869	265,275	-0,021	-0,026
-219,855	30,200	0,127	0,077
-218,840	124,830	-0,087	0,078
-217,825	-108,482	0,139	-0,021
-216,811	243,696	-0,104	-0,124
-215,796	-200,000	-0,003	0,032
-214,782	135,213	0,040	-0,037
-213,767	800,000	-0,061	0,149
-212,752	-59,544	0,095	-0,029
-211,738	-101,462	0,084	0,014
-210,723	-93,533	-0,075	-0,015
-209,709	-183,037	-0,018	0,000
-208,694	-29,858	-0,193	-0,078
-207,679	27,857	-0,019	-0,011
-206,665	800,000	-0,011	-0,026
-205,650	35,029	0,080	0,049
-204,636	55,127	-0,068	-0,046
-203,621	-120,421	0,137	-0,016
-202,606	-69,019	-0,065	-0,018
-201,592	689,755	0,075	-0,141
-200,577	-200,000	-0,003	0,032
-199,563	569,178	0,052	0,089
-198,548	-200,000	-0,007	-0,031
-197,533	-101,316	0,130	-0,022
-196,519	494,941	-0,019	0,031
-195,504	212,407	0,033	0,037
-194,490	245,405	-0,019	-0,022
-193,475	537,634	-0,016	0,027
-192,460	203,910	-0,075	-0,083
-191,446	-168,939	0,121	0,003
-190,431	51,079	0,049	0,033
-189,417	800,000	0,070	-0,150
-188,402	58,368	-0,027	0,019
-187,387	213,348	-0,041	0,046
-186,373	-16,073	-0,085	0,038
-185,358	-9,492	-0,136	0,064
-184,344	800,000	0,013	-0,032
-183,329	153,366	-0,079	0,077
-182,315	656,528	-0,010	0,018
-181,300	-200,000	0,052	0,199
-180,285	374,071	-0,077	-0,111
-179,271	-200,000	0,000	-0,053
-178,256	-200,000	-0,022	-0,071
-177,242	-200,000	-0,018	0,093
-176,227	-200,000	-0,009	0,093
-175,212	30,777	0,038	-0,023
-174,198	-200,000	-0,024	0,075
-173,183	-39,866	-0,127	-0,047
-172,169	-186,287	-0,112	0,001
-171,154	-53,974	-0,037	-0,012
-170,139	-109,725	-0,063	0,009
-169,125	-200,000	0,001	-0,025
-168,110	800,000	0,061	0,160
-167,096	800,000	-0,018	0,045
-166,081	434,354	0,030	-0,047
-165,066	233,884	0,057	-0,066
-164,052	-200,000	-0,016	-0,050
-163,037	516,930	0,059	0,098
-162,023	-200,000	-0,021	0,158
-161,008	-200,000	0,005	-0,121
-159,993	-112,903	0,106	-0,015
-158,979	800,000	0,021	0,046
-157,964	49,089	-0,047	-0,032
-156,950	-200,000	-0,007	-0,047
-155,935	176,362	0,075	-0,077
-154,920	-200,000	0,035	-0,128
-153,906	226,359	-0,052	0,060
-152,891	116,930	-0,066	-0,058
-151,877	577,646	-0,061	0,106
-150,862	149,976	-0,072	0,069
-149,847	-96,499	-0,062	0,012
-148,833	198,050	0,079	0,086
-147,818	559,788	0,046	0,080
-146,804	800,000	-0,055	-0,111
-145,789	-38,701	-0,062	0,023
-144,775	-200,000	-0,002	-0,024
-143,760	301,390	0,038	-0,050
-142,745	-200,000	0,027	-0,116
-141,731	-178,975	0,030	0,000
-140,716	-200,000	-0,005	0,168
-139,702	-127,999	0,234	-0,023
-138,687	-36,238	-0,205	-0,078
-137,672	381,502	-0,043	-0,063
-136,658	151,088	-0,046	-0,045
-135,643	800,000	-0,027	-0,079
-134,629	605,720	0,012	0,021
-133,614	394,153	0,021	-0,031
-132,599	625,721	0,070	0,125
-131,585	306,129	0,080	0,105
-130,570	37,773	-0,070	0,044
-129,556	50,532	-0,160	-0,107
-128,541	-200,000	-0,010	-0,121
-127,526	144,232	0,042	0,040
-126,512	-62,742	0,105	-0,031
-125,497	225,977	0,098	0,113
-124,483	-200,000	0,003	0,021
-123,468	800,000	-0,045	0,108
-122,453	-65,924	0,010	0,003
-121,439	800,000	-0,027	0,053
-120,424	127,550	-0,063	0,057
-119,410	-146,139	0,126	-0,008
-118,395	128,230	0,159	0,143
-117,380	50,489	0,005	0,003
-116,366	378,074	-0,056	0,081
-115,351	800,000	0,018	0,050
-114,337	371,823	-0,084	-0,121
-113,322	-13,183	0,084	-0,038
-112,307	28,742	-0,058	-0,035
-111,293	639,375	0,053	-0,096
-110,278	41,950	0,145	0,093
-109,264	550,961	-0,026	0,045
-108,249	181,374	-0,069	0,072
-107,234	608,341	-0,035	-0,062
-106,220	-200,000	-0,016	0,077
-105,205	2,967	0,111	0,057
-104,191	130,539	-0,121	-0,110
-103,176	-151,193	-0,063	-0,003
-102,162	-1,146	0,153	0,076
-101,147	800,000	-0,053	-0,141
-100,132	800,000	-0,044	-0,126
-99,118	800,000	0,017	-0,049
-98,103	-37,216	-0,051	-0,019
-97,089	299,890	0,071	0,093
-96,074	70,090	0,149	0,109
-95,059	87,633	-0,035	0,027
-94,045	-5,704	0,055	0,027
-93,030	-200,000	0,017	0,091
-92,016	441,474	-0,053	-0,083
-91,001	-79,187	0,027	0,007
-89,986	-115,602	0,076	0,010
-88,972	800,000	0,029	-0,061
-87,957	253,771	0,061	-0,074
-86,943	-68,551	0,107	-0,029
-85,928	122,502	-0,141	-0,125
-84,913	11,462	0,096	0,052
-83,899	314,458	-0,035	-0,047
-82,884	302,436	0,060	-0,079
-81,870	123,406	-0,023	0,020
-80,855	177,464	0,160	-0,165
-79,840	52,554	0,076	0,051
-78,826	273,064	-0,071	-0,089
-77,811	75,539	-0,093	-0,069
-76,797	-67,546	-0,172	0,047
-75,782	800,000	0,032	0,073
-74,767	-200,000	0,016	0,052
-73,753	4,056	0,102	0,053
-72,738	40,735	0,052	0,033
-71,724	-113,322	-0,114	0,016
-70,709	3,291	0,042	0,022
-69,694	-200,000	-0,048	-0,172
-68,680	248,291	0,063	0,076
-67,665	-19,625	0,095	0,041
-66,651	-200,000	-0,041	-0,138
-65,636	-200,000	0,031	-0,124
-64,622	-88,782	-0,106	-0,022
-63,607	385,127	-0,019	-0,028
-62,592	800,000	0,050	-0,127
-61,578	462,792	0,056	-0,089
-60,563	-50,285	-0,028	-0,009
-59,549	-71,951	0,137	-0,036
-58,534	13,157	-1,789	-0,977
-57,519	356,722	-1,382	-1,953
-56,505	-200,000	-0,462	-4,636
-55,490	432,092	0,994	1,529
-54,476	800,000	4,935	11,061
-53,461	-200,000	20,323	324,298
-52,446	800,000	752,277	2310,562
-51,432	548,928	1662,618	2826,745
-50,417	74,761	1671,364	1242,018
-49,403	19,889	1544,230	877,141
-48,388	13,811	1467,210	803,827
-47,373	18,438	1457,297	820,708
-46,359	16,297	1446,795	804,509
-45,344	12,133	1442,225	782,001
-44,330	12,035	1440,589	780,615
-43,315	12,049	1438,740	779,650
-42,300	12,020	1437,057	778,568
-41,286	12,058	1435,661	777,959
-40,271	12,021	1434,464	777,103
-39,257	12,023	1433,146	776,370
-38,242	12,117	1431,819	776,069
-37,227	12,089	1430,505	775,192
-36,213	12,028	1429,500	774,324
-35,198	12,055	1428,283	773,762
-34,184	12,103	1427,544	773,560
-33,169	12,058	1425,885	772,416
-32,154	12,081	1424,916	771,969
-31,140	12,109	1423,502	771,305
-30,125	12,114	1422,734	770,883
-29,111	12,106	1421,270	770,024
-28,096	12,125	1420,267	769,538
-27,082	12,052	1419,089	768,526
-26,067	12,001	1418,194	767,768
-25,052	12,062	1417,077	767,420
-24,038	12,044	1416,214	766,840
-23,023	12,022	1415,053	766,076
-22,009	12,007	1414,043	765,430
-20,994	11,963	1413,044	764,652
-19,979	11,973	1412,380	764,306
-18,965	11,999	1411,214	763,768
-17,950	11,992	1410,490	763,315
-16,936	11,976	1409,513	762,678
-15,921	11,963	1408,346	761,958
-14,906	11,963	1407,522	761,481
-13,892	11,990	1406,542	761,045
-12,877	11,939	1405,665	760,304
-11,863	11,909	1404,747	759,636
-10,848	11,893	1404,012	759,136
-9,833	11,848	1402,920	758,307
-8,819	11,863	1402,254	757,984
-7,804	11,843	1401,303	757,345
-6,790	11,867	1400,076	756,766
-5,775	11,867	1399,198	756,261
-4,760	11,862	1398,087	755,605
-3,746	11,834	1397,521	755,139
-2,731	11,877	1396,377	754,694
-1,717	11,768	1395,893	753,897
-0,702	11,768	1393,911	752,797
0,313	15,752	1308,614	725,109
1,327	32,044	699,395	424,946
2,342	49,796	121,892	81,021
3,356	1,950	16,527	8,395
4,371	-6,803	3,214	1,538
5,386	4,810	0,731	0,378
6,400	-200,000	0,091	0,338
7,415	-113,361	-0,216	-0,030
8,429	92,812	-0,283	-0,225
9,444	242,438	-0,236	-0,279
10,459	130,971	-0,383	-0,347
11,473	137,310	-0,257	-0,238
12,488	-12,206	-0,361	-0,166
13,502	20,528	-0,277	-0,157
14,517	237,551	-0,309	-0,362
15,531	-22,905	-0,300	-0,127
16,546	348,949	-0,290	-0,404
17,561	112,323	-0,470	-0,401
18,575	-82,146	-0,273	-0,062
19,590	191,999	-0,231	-0,246
20,604	-56,273	-0,312	-0,097
21,619	158,460	-0,397	-0,389
22,634	43,351	-0,515	-0,331
23,648	76,228	-0,485	-0,362
24,663	202,114	-0,363	-0,395
25,677	78,232	-0,360	-0,271
26,692	105,576	-0,338	-0,282
27,707	127,982	-0,282	-0,253
28,721	-16,676	-0,455	-0,202
29,736	130,996	-0,352	-0,318
30,750	118,809	-0,465	-0,405
31,765	80,184	-0,393	-0,298
32,780	11,319	-0,252	-0,135
33,794	279,083	-0,249	-0,314
34,809	61,644	-0,310	-0,217
35,823	117,080	-0,290	-0,251
36,838	456,344	-0,290	-0,454
37,853	178,229	-0,323	-0,332
38,867	41,345	-0,469	-0,298
39,882	107,476	-0,228	-0,191
40,896	162,518	-0,244	-0,241
41,911	-33,030	-0,424	-0,165
42,926	69,636	-0,279	-0,202
43,940	39,941	-0,418	-0,264
44,955	63,706	-0,419	-0,296
45,969	67,202	-0,316	-0,227
46,984	147,156	-0,321	-0,304
47,999	-11,835	-0,358	-0,165
49,013	-25,885	-0,424	-0,175
50,028	182,657	-0,289	-0,300
51,042	320,838	-0,303	-0,405
52,057	409,742	-0,257	-0,384
53,071	43,013	-0,343	-0,219
54,086	258,684	-0,219	-0,266
55,101	105,152	-0,413	-0,343
56,115	73,073	-0,331	-0,243
57,130	23,185	-0,343	-0,197
58,144	-42,482	-0,457	-0,163
59,159	46,151	-0,393	-0,255
60,174	503,252	-0,230	-0,376
61,188	-43,310	-0,265	-0,094
62,203	-75,033	-0,305	-0,076
63,217	-85,645	-0,389	-0,084
64,232	8,297	-0,359	-0,189
65,247	59,365	-0,303	-0,210
66,261	180,986	-0,260	-0,268
67,276	145,051	-0,370	-0,347
68,290	200,374	-0,200	-0,216
69,305	167,038	-0,269	-0,269
70,320	44,263	-0,413	-0,266
71,334	104,995	-0,243	-0,201
72,349	34,138	-0,394	-0,241
73,363	34,835	-0,400	-0,245
74,378	-34,465	-0,421	-0,161
75,393	215,020	-0,225	-0,251
76,407	368,709	-0,189	-0,269
77,422	353,557	-0,122	-0,170
78,436	52,244	-0,331	-0,221
79,451	128,302	-0,220	-0,197
80,466	-117,839	-0,408	-0,051
81,480	305,389	-0,261	-0,341
82,495	650,223	-0,181	-0,326
83,509	64,935	-0,340	-0,241
84,524	-109,776	-0,321	-0,047
85,539	51,712	-0,230	-0,153
86,553	38,681	-0,249	-0,155
87,568	74,659	-0,427	-0,315
88,582	97,340	-0,312	-0,251
89,597	20,500	-0,315	-0,178
90,611	118,433	-0,206	-0,178
91,626	31,003	-0,282	-0,169
92,641	38,402	-0,287	-0,179
93,655	800,000	-0,126	-0,306
94,670	566,025	-0,201	-0,343
95,684	139,967	-0,265	-0,245
96,699	-16,948	-0,333	-0,147
97,714	-16,704	-0,336	-0,148
98,728	45,841	-0,228	-0,148
99,743	-46,104	-0,316	-0,108
100,757	22,237	-0,277	-0,158
101,772	42,459	-0,296	-0,188
102,787	166,839	-0,177	-0,175
103,801	-7,520	-0,436	-0,206
104,816	310,805	-0,168	-0,221
105,830	-37,966	-0,200	-0,074
106,845	-112,474	-0,264	-0,036
107,860	-61,193	-0,316	-0,093
108,874	51,113	-0,314	-0,208
109,889	-16,545	-0,284	-0,126
110,903	59,227	-0,235	-0,161
111,918	563,538	-0,169	-0,287
112,933	45,813	-0,139	-0,090
113,947	800,000	-0,059	-0,121
114,962	-3,450	-0,256	-0,124
115,976	77,357	-0,319	-0,237
116,991	60,371	-0,294	-0,203
118,006	131,563	-0,200	-0,180
119,020	77,671	-0,159	-0,118
120,035	17,724	-0,355	-0,197
121,049	-66,764	-0,265	-0,073
122,064	82,955	-0,166	-0,126
123,079	-42,442	-0,351	-0,124
124,093	65,615	-0,329	-0,232
125,108	0,919	-0,417	-0,208
126,122	160,543	-0,260	-0,254
127,137	-115,063	-0,312	-0,041
128,151	73,586	-0,253	-0,185
129,166	-166,925	-0,247	0,007
130,181	87,902	-0,177	-0,137
131,195	27,766	-0,428	-0,251
132,210	-25,867	-0,276	-0,113
133,224	72,309	-0,279	-0,203
134,239	88,391	-0,270	-0,209
135,254	-61,424	-0,268	-0,078
136,268	30,059	-0,261	-0,155
137,283	50,960	-0,260	-0,171
138,297	226,598	-0,250	-0,284
139,312	160,537	-0,176	-0,172
140,327	47,132	-0,212	-0,138
141,341	254,786	-0,202	-0,242
142,356	26,246	-0,258	-0,150
143,370	331,946	-0,186	-0,252
144,385	71,297	-0,262	-0,189
145,400	494,150	-0,181	-0,290
146,414	262,566	-0,183	-0,222
147,429	124,387	-0,233	-0,204
148,443	16,729	-0,265	-0,146
149,458	86,450	-0,220	-0,169
150,473	-21,193	-0,257	-0,109
151,487	79,861	-0,165	-0,123
152,502	383,121	-0,238	-0,342
153,516	80,444	-0,260	-0,195
154,531	148,562	-0,278	-0,262
155,546	101,887	-0,232	-0,189
156,560	-200,000	-0,087	-0,295
157,575	800,000	-0,068	-0,201
158,589	52,061	-0,276	-0,183
159,604	45,849	-0,259	-0,166
160,619	193,477	-0,213	-0,225
161,633	75,955	-0,240	-0,177
162,648	-84,652	-0,258	-0,056
163,662	469,896	-0,129	-0,203
164,677	46,297	-0,160	-0,103
165,692	102,453	-0,172	-0,140
166,706	63,764	-0,268	-0,188
167,721	149,949	-0,233	-0,220
168,735	91,137	-0,258	-0,202
169,750	327,604	-0,153	-0,205
170,764	538,556	-0,068	-0,113
171,779	54,847	-0,289	-0,194
172,794	344,925	-0,192	-0,264
173,808	219,288	-0,225	-0,250
174,823	343,366	-0,188	-0,257
175,837	5,768	-0,244	-0,125
176,852	98,454	-0,252	-0,202
177,867	4,615	-0,243	-0,124
178,881	64,698	-0,277	-0,194
179,896	195,557	-0,175	-0,185
180,910	-28,130	-0,322	-0,129
181,925	233,185	-0,235	-0,269
182,940	138,081	-0,190	-0,173
183,954	-16,780	-0,346	-0,152
184,969	584,765	-0,134	-0,230
185,983	620,383	-0,121	-0,212
186,998	74,445	-0,216	-0,157
188,013	320,514	-0,178	-0,236
189,027	-11,995	-0,196	-0,089
190,042	203,644	-0,195	-0,210
191,056	800,000	-0,115	-0,241
192,071	-57,584	-0,210	-0,064
193,086	633,364	-0,053	-0,094
194,100	322,514	-0,095	-0,126
195,115	28,404	-0,175	-0,102
196,129	-41,270	-0,259	-0,092
197,144	-52,237	-0,299	-0,096
198,159	30,927	-0,253	-0,150
199,173	227,201	-0,159	-0,179
200,188	246,695	-0,174	-0,204
201,202	33,052	-0,124	-0,074
202,217	-4,110	-0,340	-0,163
203,232	-50,376	-0,202	-0,066
204,246	42,059	-0,232	-0,146
205,261	84,135	-0,216	-0,164
206,275	17,619	-0,208	-0,115
207,290	54,511	-0,161	-0,108
208,304	164,831	-0,147	-0,144
209,319	105,785	-0,194	-0,159
210,334	3,742	-0,304	-0,153
211,348	100,496	-0,243	-0,196
212,363	19,535	-0,279	-0,155
213,377	338,433	-0,120	-0,162
214,392	-5,372	-0,249	-0,118
215,407	276,957	-0,064	-0,078
216,421	296,029	-0,112	-0,143
217,436	182,417	-0,217	-0,222
218,450	85,077	-0,191	-0,145
219,465	77,203	-0,232	-0,171
220,480	67,168	-0,223	-0,157
221,494	143,726	-0,098	-0,091
222,509	283,610	-0,133	-0,166
223,523	-64,700	-0,299	-0,083
224,538	27,220	-0,233	-0,135
225,553	21,476	-0,314	-0,177
226,567	38,901	-0,293	-0,181
227,582	102,089	-0,172	-0,139
228,596	27,403	-0,120	-0,070
229,611	136,834	-0,014	0,013
230,626	-49,367	-0,239	-0,078
231,640	-155,807	-0,307	-0,013
232,655	62,772	-0,161	-0,111
233,669	251,754	-0,189	-0,223
234,684	27,460	-0,209	-0,121
235,699	-41,723	-0,173	-0,061
236,713	659,093	-0,134	-0,239
237,728	-82,026	-0,300	0,067
238,742	-57,667	-0,154	-0,046
239,757	358,794	-0,190	-0,263
240,772	199,554	-0,172	-0,183
241,786	260,657	-0,146	-0,175
242,801	305,049	-0,065	-0,083
243,815	-106,247	-0,216	-0,033
244,830	105,519	-0,219	-0,179
245,844	-197,430	-0,139	0,001
246,859	277,595	-0,170	-0,210
247,874	310,143	-0,188	-0,244
248,888	-10,505	-0,248	-0,113
249,903	391,722	-0,137	-0,197
250,917	696,668	-0,067	-0,122
251,932	-4,730	-0,164	-0,078
252,947	359,741	-0,148	-0,206
253,961	800,000	-0,126	-0,252
254,976	-45,664	-0,225	-0,077
255,990	-16,035	-0,263	-0,115
257,005	-73,430	-0,173	-0,043
258,020	-21,749	-0,214	-0,089
259,034	287,069	-0,103	-0,128
260,049	-60,286	-0,149	-0,044
261,063	-83,086	-0,214	-0,047
262,078	-148,333	-0,156	-0,009
263,093	-102,682	-0,214	0,035
264,107	-58,577	-0,202	-0,060
265,122	-186,028	-0,285	0,003
266,136	-15,998	-0,179	-0,078
267,151	13,984	-0,261	-0,140
268,166	12,576	-0,196	-0,104
269,180	225,650	-0,307	-0,344
270,195	-3,995	-0,137	-0,065
271,209	144,291	-0,219	-0,202
272,224	736,368	-0,136	-0,252
273,239	-15,240	-0,191	-0,084
274,253	-39,407	-0,157	-0,056
275,268	-93,643	-0,161	-0,030
276,282	74,841	-0,246	-0,179
277,297	648,719	-0,170	-0,301
278,312	396,644	-0,067	-0,097
279,326	-33,580	-0,195	-0,074
280,341	-62,711	-0,140	-0,040
281,355	-115,300	-0,186	0,024
282,370	329,912	-0,201	-0,267
283,384	598,479	-0,090	-0,155
284,399	-52,120	-0,285	-0,091
285,414	800,000	-0,077	-0,188
286,428	609,757	-0,072	-0,124
287,443	6,254	-0,153	-0,078
288,457	245,444	-0,089	0,103
289,472	-67,989	-0,200	-0,053
290,487	25,937	-0,078	0,045
291,501	35,168	-0,054	-0,033
292,516	210,133	-0,168	-0,182
293,530	800,000	-0,098	-0,263
294,545	-200,000	0,011	-0,110
295,560	800,000	0,026	0,075
296,574	-90,473	-0,084	-0,017
297,589	-185,473	-0,064	0,001
298,603	800,000	-0,058	-0,150
299,618	0,444	-0,263	-0,129
300,633	271,752	-0,139	-0,169
301,647	-25,758	-0,135	-0,055
302,662	800,000	-0,055	-0,106
303,676	369,616	-0,213	-0,297
304,691	129,629	-0,188	-0,165
305,706	800,000	-0,043	-0,124
306,720	800,000	0,064	-0,159
307,735	-88,578	-0,242	-0,049
308,749	-65,041	-0,174	0,048
309,764	4,910	-0,100	-0,050
310,779	111,265	-0,157	-0,130
311,793	-38,195	-0,058	-0,021
312,808	677,219	-0,069	-0,125
313,822	800,000	-0,077	-0,180
314,837	25,885	-0,119	-0,068
315,852	-147,808	-0,177	-0,010
316,866	108,111	-0,096	-0,078
317,881	118,447	-0,168	-0,143
318,895	181,996	-0,146	-0,148
319,910	123,287	-0,140	-0,120
320,925	705,822	-0,073	-0,133
321,939	-200,000	-0,026	-0,178
322,954	800,000	0,012	-0,025
323,968	800,000	-0,028	-0,057
324,983	-109,157	-0,089	-0,013
325,997	532,172	-0,077	-0,126
327,012	-42,687	-0,204	-0,071
328,027	39,045	-0,229	-0,140
329,041	-200,000	0,007	-0,057
330,056	194,527	-0,138	-0,144
331,070	-200,000	0,006	-0,063
332,085	171,892	-0,119	0,117
333,100	-41,724	-0,209	-0,073
334,114	-78,327	-0,216	-0,050
335,129	652,712	-0,096	-0,169
336,143	225,880	-0,144	-0,161
337,158	9,455	-0,097	0,050
338,173	-130,215	-0,206	-0,019
339,187	-200,000	-0,048	-0,190
340,202	203,275	-0,122	-0,130
341,216	84,138	-0,210	-0,157
342,231	-200,000	0,002	0,006
343,246	-41,826	-0,176	-0,062
344,260	-113,985	-0,222	-0,029
345,275	65,566	-0,105	-0,073
346,289	-78,059	-0,186	-0,044
347,304	233,554	-0,086	-0,097
348,319	-78,879	-0,159	-0,037
349,333	365,130	-0,132	-0,183
350,348	-200,000	-0,036	-0,152
351,362	366,456	-0,107	-0,149
352,377	800,000	-0,040	-0,116
353,392	162,720	0,081	-0,078
354,406	205,671	-0,116	-0,124
355,421	207,862	1316,199	1409,462
356,435	159,916	1477,082	1409,934
