DTS Sentinel unit serial number:	SN410029Multiplexer serial number:	ORYXHardware model number:	OX2-SRSoftware version number:	ORYX F/W v4,00 Oryx Data Collector v3.7.2.0data status	okinstallation	B3 Nyhavnadifferential loss correction	single-endedforward channel	channel 1reverse channel	N/Adate	2023/11/30time	01:12:30forward acquisition time	300,00reverse acquisition time	0,00gamma	499,1914k internal	0,3210k external	0,3210temperature offset calibration	1,0000default loss term (dB/km)	0,3820temperature slope calibration	1,0000multiplexer offset coefficient	1,0000multiplexer slope coefficient	1,0000fibre end	0,00T internal ref (°C)	10,70T ext. ref 1 (°C)	-4,81T ext. ref 2 (°C)	-4,93length (m)	temperature (°C)	Stokes	anti-Stokes-744,400	363,545	-0,187	-0,274
-743,385	-200,000	-0,057	0,202
-742,371	151,948	-0,196	-0,194
-741,356	-200,000	-0,062	0,239
-740,342	50,710	-0,244	-0,168
-739,327	800,000	0,072	0,202
-738,312	108,518	-0,296	-0,256
-737,298	800,000	-0,073	0,228
-736,283	64,243	-0,297	-0,217
-735,269	-200,000	0,056	0,236
-734,254	179,785	-0,184	-0,196
-733,239	61,320	-0,207	0,149
-732,225	511,803	-0,132	-0,223
-731,210	196,818	0,021	0,023
-730,196	77,736	0,078	-0,061
-729,181	180,779	0,121	0,129
-728,167	-34,723	0,057	-0,022
-727,152	-200,000	0,013	-0,068
-726,137	-32,643	-0,115	0,046
-725,123	800,000	-0,044	0,092
-724,108	21,472	-0,116	0,068
-723,094	66,195	-0,055	-0,040
-722,079	800,000	0,015	0,031
-721,064	-200,000	0,016	-0,162
-720,050	99,831	-0,088	0,074
-719,035	24,905	-0,051	0,030
-718,021	-200,000	0,002	-0,042
-717,006	-144,273	-0,193	0,013
-715,991	800,000	0,013	-0,027
-714,977	-200,000	0,027	-0,116
-713,962	-28,194	0,066	0,027
-712,948	287,398	-0,039	0,051
-711,933	2,780	-0,059	0,031
-710,918	-200,000	0,066	0,000
-709,904	-49,633	0,020	0,007
-708,889	82,199	-0,042	-0,033
-707,875	800,000	0,077	-0,177
-706,860	89,085	0,128	-0,104
-705,845	37,358	0,071	-0,045
-704,831	-200,000	0,002	-0,138
-703,816	-40,504	-0,021	-0,008
-702,802	-200,000	-0,000	-0,059
-701,787	-200,000	-0,166	-0,000
-700,772	-108,969	-0,047	-0,007
-699,758	317,867	0,062	-0,085
-698,743	-94,979	-0,091	-0,018
-697,729	27,699	-0,097	-0,059
-696,714	-200,000	0,005	0,105
-695,699	-200,000	-0,041	-0,230
-694,685	800,000	0,049	-0,124
-693,670	386,371	0,046	-0,070
-692,656	-36,385	0,122	0,047
-691,641	-200,000	-0,015	-0,055
-690,627	132,966	0,023	0,022
-689,612	25,403	-0,075	-0,045
-688,597	-199,318	-0,286	0,001
-687,583	-200,000	0,023	-0,074
-686,568	20,560	0,095	-0,056
-685,554	-84,770	0,079	0,018
-684,539	-123,424	0,057	0,006
-683,524	-200,000	0,016	-0,060
-682,510	-200,000	-0,026	0,123
-681,495	13,530	-0,105	-0,059
-680,481	800,000	-0,022	-0,046
-679,466	800,000	0,061	-0,149
-678,451	266,276	-0,034	0,043
-677,437	-62,306	-0,104	0,031
-676,422	-115,466	-0,106	0,014
-675,408	-147,651	0,086	-0,005
-674,393	-200,000	-0,005	-0,090
-673,378	39,058	-0,053	0,034
-672,364	260,229	-0,073	-0,091
-671,349	-2,476	0,021	0,011
-670,335	309,737	0,036	-0,049
-669,320	-200,000	0,003	0,082
-668,305	-83,126	-0,036	-0,008
-667,291	124,932	-0,009	-0,009
-666,276	485,428	-0,041	-0,068
-665,262	-53,388	0,071	0,023
-664,247	584,805	0,112	-0,200
-663,232	706,689	-0,026	0,049
-662,218	131,755	0,030	0,028
-661,203	162,872	-0,073	0,075
-660,189	345,406	0,049	-0,070
-659,174	43,812	-0,122	-0,080
-658,159	400,031	-0,082	0,124
-657,145	572,359	0,040	-0,071
-656,130	800,000	-0,042	-0,120
-655,116	-200,000	0,006	0,068
-654,101	278,372	0,025	-0,032
-653,086	424,254	-0,052	0,081
-652,072	-117,559	-0,106	-0,014
-651,057	-4,219	-0,114	0,057
-650,043	800,000	-0,052	-0,112
-649,028	-81,529	-0,147	-0,035
-648,014	-200,000	0,027	-0,101
-646,999	160,869	0,039	0,040
-645,984	219,248	0,063	0,073
-644,970	-138,893	0,073	-0,006
-643,955	80,017	-0,112	-0,087
-642,941	-75,509	-0,101	-0,026
-641,926	13,346	0,102	0,057
-640,911	136,068	0,099	0,093
-639,897	37,772	-0,090	-0,058
-638,882	-200,000	0,013	-0,120
-637,868	24,984	0,017	0,010
-636,853	-200,000	0,009	-0,036
-635,838	-200,000	-0,016	0,066
-634,824	381,964	-0,046	-0,068
-633,809	-98,612	0,024	0,004
-632,795	-77,272	0,193	0,048
-631,780	84,031	0,043	0,034
-630,765	48,224	-0,055	0,037
-629,751	-32,599	0,105	-0,042
-628,736	-200,000	-0,164	0,000
-627,722	170,982	-0,020	0,021
-626,707	16,824	-0,039	0,022
-625,692	285,732	0,057	-0,075
-624,678	407,915	0,035	0,054
-623,663	-95,344	-0,097	0,019
-622,649	130,705	-0,043	-0,040
-621,634	-200,000	-0,016	-0,101
-620,619	121,668	0,079	0,071
-619,605	-200,000	-0,002	-0,037
-618,590	800,000	0,023	0,055
-617,576	-200,000	0,028	-0,133
-616,561	-26,530	-0,064	-0,027
-615,546	11,523	0,075	0,041
-614,532	131,536	-0,108	-0,100
-613,517	-31,366	0,082	0,033
-612,503	605,697	0,047	-0,085
-611,488	-200,000	-0,033	-0,105
-610,474	150,264	-0,136	0,133
-609,459	-114,085	0,044	0,006
-608,444	-200,000	-0,000	-0,076
-607,430	-200,000	-0,029	-0,182
-606,415	-46,931	-0,103	0,036
-605,401	15,270	0,074	0,042
-604,386	-200,000	0,033	-0,128
-603,371	619,323	-0,083	0,151
-602,357	-200,000	0,014	-0,093
-601,342	-200,000	-0,018	0,065
-600,328	178,466	-0,070	-0,074
-599,313	-200,000	0,021	-0,176
-598,298	-104,460	-0,119	-0,020
-597,284	752,555	-0,018	-0,035
-596,269	-77,716	0,083	0,021
-595,255	165,262	0,038	0,038
-594,240	-35,848	0,112	0,044
-593,225	261,358	-0,089	-0,111
-592,211	-200,000	0,016	0,095
-591,196	-38,859	0,113	-0,043
-590,182	588,281	0,021	-0,037
-589,167	-131,448	-0,160	0,015
-588,152	645,667	-0,089	-0,164
-587,138	614,707	0,010	0,019
-586,123	800,000	0,009	-0,028
-585,109	10,960	-0,176	-0,097
-584,094	-56,868	-0,108	-0,034
-583,079	-69,891	0,054	-0,015
-582,065	800,000	0,047	0,136
-581,050	800,000	0,013	-0,031
-580,036	-132,486	-0,153	-0,014
-579,021	106,086	0,023	-0,020
-578,006	225,587	-0,054	-0,063
-576,992	-126,701	0,094	0,010
-575,977	232,789	-0,085	0,100
-574,963	167,503	0,065	0,066
-573,948	257,665	0,084	0,104
-572,934	800,000	0,061	0,174
-571,919	800,000	-0,014	-0,029
-570,904	-63,220	-0,103	0,030
-569,890	25,687	-0,128	-0,077
-568,875	-200,000	-0,007	0,027
-567,861	77,676	-0,099	0,076
-566,846	720,798	0,073	0,141
-565,831	-89,390	-0,118	-0,025
-564,817	-200,000	-0,032	-0,150
-563,802	433,219	-0,070	-0,110
-562,788	-72,811	0,168	0,044
-561,773	-36,990	-0,072	-0,028
-560,758	-200,000	-0,007	-0,044
-559,744	-86,661	0,129	0,028
-558,729	-200,000	0,003	-0,017
-557,715	328,798	-0,040	-0,055
-556,700	-58,677	-0,077	-0,024
-555,685	-100,968	0,053	-0,009
-554,671	-200,000	0,001	-0,014
-553,656	-200,000	0,005	-0,098
-552,642	252,255	0,020	-0,025
-551,627	-200,000	-0,023	0,083
-550,612	-108,000	-0,020	0,003
-549,598	800,000	0,056	-0,112
-548,583	-200,000	-0,005	0,072
-547,569	420,126	-0,054	-0,084
-546,554	252,145	0,111	0,136
-545,539	415,001	-0,076	0,117
-544,525	-200,000	0,010	0,050
-543,510	355,892	-0,022	0,032
-542,496	140,458	-0,080	-0,076
-541,481	-200,000	-0,014	0,065
-540,466	-22,386	-0,127	-0,055
-539,452	-73,925	0,062	-0,016
-538,437	-54,681	0,038	0,012
-537,423	15,450	0,097	-0,055
-536,408	540,764	-0,084	0,144
-535,393	-200,000	-0,005	-0,097
-534,379	150,458	-0,130	-0,127
-533,364	95,823	-0,151	-0,124
-532,350	-46,957	0,174	0,061
-531,335	-200,000	0,011	-0,088
-530,321	-200,000	-0,003	0,117
-529,306	322,085	0,063	0,087
-528,291	-80,755	-0,198	-0,047
-527,277	-105,954	-0,038	-0,006
-526,262	228,425	-0,044	-0,052
-525,248	5,129	0,051	-0,027
-524,233	-41,275	0,108	0,040
-523,218	164,894	0,041	-0,042
-522,204	800,000	0,035	-0,103
-521,189	-200,000	0,011	-0,068
-520,175	209,865	0,091	0,103
-519,160	-117,815	-0,070	0,009
-518,145	122,890	0,116	0,104
-517,131	348,360	0,037	-0,052
-516,116	790,515	-0,044	-0,088
-515,102	-116,225	0,098	0,013
-514,087	-25,962	-0,129	-0,054
-513,072	800,000	-0,090	-0,211
-512,058	389,279	-0,017	-0,025
-511,043	-21,747	-0,062	-0,027
-510,029	-200,000	-0,013	0,049
-509,014	192,715	0,039	0,043
-507,999	800,000	-0,010	0,027
-506,985	-177,434	-0,033	0,001
-505,970	13,031	-0,138	-0,076
-504,956	-106,959	0,095	0,015
-503,941	231,798	0,076	-0,090
-502,926	-200,000	0,007	-0,152
-501,912	-200,000	-0,014	0,050
-500,897	65,540	-0,117	0,085
-499,883	-200,000	0,007	0,059
-498,868	-32,963	-0,144	-0,057
-497,853	4,186	0,032	-0,017
-496,839	-200,000	-0,046	0,194
-495,824	-37,066	0,069	-0,026
-494,810	17,980	0,120	0,069
-493,795	310,694	-0,089	-0,120
-492,781	-117,358	-0,148	0,019
-491,766	-48,242	0,161	0,056
-490,751	-93,204	-0,082	0,016
-489,737	-200,000	0,039	0,145
-488,722	-67,317	0,146	0,041
-487,708	-200,000	-0,005	0,057
-486,693	800,000	-0,023	0,069
-485,678	658,403	0,026	0,048
-484,664	101,056	0,120	-0,101
-483,649	66,804	0,040	0,029
-482,635	-68,970	0,054	0,015
-481,620	-6,694	0,071	0,035
-480,605	-6,073	0,158	-0,077
-479,591	-143,972	0,114	-0,008
-478,576	269,338	-0,053	0,066
-477,562	270,891	-0,129	0,164
-476,547	13,275	-0,050	-0,028
-475,532	46,712	0,143	0,095
-474,518	-137,994	-0,068	-0,005
-473,503	-200,000	-0,117	0,000
-472,489	31,790	0,027	0,017
-471,474	-141,397	0,066	0,005
-470,459	59,401	-0,036	0,026
-469,445	-200,000	-0,010	-0,041
-468,430	-200,000	-0,001	-0,066
-467,416	205,728	0,083	-0,093
-466,401	20,384	0,089	0,052
-465,386	-200,000	0,019	0,062
-464,372	800,000	-0,013	0,033
-463,357	-79,164	-0,074	0,018
-462,343	96,272	-0,018	0,015
-461,328	-200,000	0,024	-0,097
-460,313	-161,777	0,046	0,002
-459,299	92,635	0,129	0,104
-458,284	65,999	0,068	-0,049
-457,270	-200,000	0,002	0,085
-456,255	22,331	0,029	-0,017
-455,241	-200,000	0,005	0,024
-454,226	-147,211	0,032	-0,002
-453,211	49,755	-0,080	0,054
-452,197	45,370	0,156	0,103
-451,182	-200,000	0,006	-0,149
-450,168	26,977	-0,106	0,064
-449,153	-46,684	-0,154	-0,054
-448,138	-200,000	-0,004	-0,051
-447,124	45,130	-0,013	-0,009
-446,109	50,786	0,082	0,055
-445,095	-146,571	-0,049	0,003
-444,080	53,750	0,034	0,023
-443,065	800,000	-0,028	0,060
-442,051	800,000	-0,057	0,153
-441,036	-49,457	-0,075	-0,026
-440,022	-200,000	-0,018	-0,189
-439,007	645,654	0,105	-0,193
-437,992	-138,272	0,146	-0,011
-436,978	-200,000	-0,011	0,047
-435,963	47,360	0,062	-0,041
-434,949	-137,296	0,074	-0,006
-433,934	-200,000	0,000	-0,110
-432,919	86,049	0,012	-0,010
-431,905	17,401	-0,100	0,057
-430,890	474,515	0,102	0,166
-429,876	599,599	0,090	0,161
-428,861	800,000	0,036	-0,088
-427,846	800,000	0,012	-0,039
-426,832	38,058	0,034	-0,022
-425,817	-32,679	-0,184	-0,073
-424,803	-200,000	-0,002	-0,025
-423,788	355,217	0,051	0,073
-422,773	-28,186	0,036	0,015
-421,759	-200,000	0,010	0,033
-420,744	262,337	-0,107	-0,133
-419,730	-130,094	-0,110	0,011
-418,715	-200,000	0,012	-0,050
-417,701	7,141	-0,162	-0,086
-416,686	-200,000	0,013	0,086
-415,671	684,181	0,032	0,061
-414,657	-200,000	0,025	0,107
-413,642	85,478	0,039	0,030
-412,628	-200,000	0,004	-0,100
-411,613	-70,798	-0,105	0,028
-410,598	13,347	-0,093	-0,052
-409,584	-200,000	0,006	-0,068
-408,569	-5,543	0,135	0,066
-407,555	800,000	0,041	0,119
-406,540	52,812	-0,112	0,077
-405,525	800,000	-0,048	-0,129
-404,511	800,000	0,024	0,052
-403,496	800,000	0,044	-0,107
-402,482	467,852	-0,018	0,028
-401,467	-2,684	0,116	0,058
-400,452	607,335	-0,035	0,062
-399,438	259,327	0,078	-0,096
-398,423	800,000	-0,014	-0,035
-397,409	-200,000	-0,014	-0,061
-396,394	-6,145	-0,179	-0,087
-395,379	-57,049	0,112	-0,035
-394,365	-136,114	-0,081	0,007
-393,350	800,000	0,067	0,136
-392,336	800,000	0,058	0,128
-391,321	42,180	-0,135	-0,088
-390,306	-200,000	0,003	-0,018
-389,292	-200,000	0,009	-0,060
-388,277	106,160	0,087	-0,074
-387,263	-122,933	0,136	-0,016
-386,248	419,327	0,021	-0,032
-385,233	10,361	0,061	-0,033
-384,219	47,913	0,075	-0,050
-383,204	-38,705	-0,184	-0,069
-382,190	-200,000	-0,026	-0,087
-381,175	-200,000	0,009	-0,052
-380,160	185,558	-0,039	-0,042
-379,146	57,672	0,021	0,015
-378,131	-106,211	-0,087	0,014
-377,117	62,654	0,056	0,040
-376,102	-200,000	0,009	-0,122
-375,088	-73,476	-0,129	-0,033
-374,073	25,079	0,158	-0,093
-373,058	106,560	0,103	0,087
-372,044	782,443	-0,059	-0,116
-371,029	800,000	-0,049	0,104
-370,015	-200,000	0,005	-0,024
-369,000	270,334	-0,042	-0,053
-367,985	-78,471	-0,057	0,014
-366,971	-10,003	-0,026	0,012
-365,956	-176,652	0,174	0,003
-364,942	202,504	0,043	-0,048
-363,927	-44,368	-0,126	-0,045
-362,912	-58,243	0,081	-0,025
-361,898	-200,000	-0,021	0,100
-360,883	-45,156	0,028	-0,010
-359,869	14,869	-0,104	-0,058
-358,854	-120,897	0,060	0,007
-357,839	-166,054	0,213	0,006
-356,825	225,873	0,043	0,050
-355,810	-155,971	0,131	-0,006
-354,796	-200,000	0,038	-0,153
-353,781	96,078	0,097	-0,079
-352,766	-200,000	-0,003	-0,032
-351,752	-24,230	0,093	-0,039
-350,737	146,453	-0,086	0,083
-349,723	108,978	0,080	-0,068
-348,708	-200,000	-0,034	0,182
-347,693	146,973	0,072	0,070
-346,679	800,000	-0,019	-0,056
-345,664	-75,072	-0,042	-0,011
-344,650	-81,377	0,076	0,018
-343,635	-19,082	-0,055	0,024
-342,620	-200,000	-0,053	0,186
-341,606	-200,000	0,003	0,057
-340,591	-30,097	0,112	-0,045
-339,577	-67,545	-0,111	-0,031
-338,562	71,921	-0,112	-0,083
-337,548	116,757	0,072	-0,063
-336,533	252,869	0,020	-0,025
-335,518	-138,732	-0,116	0,009
-334,504	800,000	-0,041	0,102
-333,489	12,991	-0,048	-0,027
-332,475	170,972	0,018	-0,019
-331,460	-200,000	-0,030	0,104
-330,445	-200,000	0,016	-0,135
-329,431	800,000	0,018	0,055
-328,416	14,671	0,008	-0,004
-327,402	-200,000	0,016	0,082
-326,387	800,000	-0,032	0,094
-325,372	232,663	0,068	-0,079
-324,358	-7,111	-0,172	0,083
-323,343	-200,000	0,008	-0,119
-322,329	-49,465	0,041	-0,014
-321,314	5,364	0,043	0,023
-320,299	107,916	-0,050	-0,043
-319,285	529,257	-0,070	-0,118
-318,270	-200,000	-0,013	-0,047
-317,256	32,189	-0,136	0,083
-316,241	463,268	0,076	-0,122
-315,226	30,204	0,044	-0,027
-314,212	577,756	0,064	0,112
-313,197	800,000	0,013	0,029
-312,183	347,670	-0,044	0,062
-311,168	-66,944	-0,049	-0,014
-310,153	28,405	0,083	-0,050
-309,139	425,753	0,032	-0,050
-308,124	283,996	-0,091	0,117
-307,110	-85,135	-0,058	-0,013
-306,095	-41,140	0,030	0,011
-305,080	161,572	0,008	0,008
-304,066	149,991	0,071	0,069
-303,051	-200,000	0,007	-0,118
-302,037	-200,000	-0,009	-0,081
-301,022	-200,000	-0,014	-0,051
-300,008	426,918	-0,042	0,065
-298,993	-200,000	0,005	0,130
-297,978	183,347	-0,107	0,113
-296,964	-200,000	-0,002	0,021
-295,949	-200,000	0,021	-0,073
-294,935	-200,000	-0,023	-0,211
-293,920	-200,000	0,002	-0,043
-292,905	-200,000	0,001	0,021
-291,891	-200,000	-0,011	0,140
-290,876	276,373	0,117	0,149
-289,862	19,535	-0,037	0,021
-288,847	-200,000	0,026	-0,094
-287,832	413,945	-0,016	0,025
-286,818	800,000	-0,038	-0,077
-285,803	382,683	-0,056	-0,083
-284,789	-16,607	-0,057	0,026
-283,774	-200,000	-0,004	-0,097
-282,759	-51,824	0,165	0,054
-281,745	234,122	-0,008	0,009
-280,730	-200,000	-0,004	0,026
-279,716	38,638	-0,070	0,044
-278,701	800,000	0,086	0,174
-277,686	-37,812	0,247	0,093
-276,672	-27,284	-0,176	0,073
-275,657	-200,000	0,013	0,045
-274,643	-200,000	-0,005	0,087
-273,628	542,860	0,009	-0,016
-272,613	463,710	-0,048	-0,077
-271,599	672,969	0,066	-0,122
-270,584	800,000	-0,008	0,017
-269,570	328,278	-0,025	-0,034
-268,555	-200,000	0,037	-0,139
-267,540	-200,000	-0,011	-0,038
-266,526	-127,655	0,051	0,005
-265,511	65,932	0,170	-0,123
-264,497	-101,936	-0,110	-0,019
-263,482	-118,381	0,196	0,025
-262,467	-200,000	0,001	-0,056
-261,453	48,789	-0,168	0,112
-260,438	-22,145	-0,081	-0,035
-259,424	-29,274	0,023	0,009
-258,409	800,000	-0,044	0,086
-257,395	98,874	0,108	0,089
-256,380	20,022	-0,091	0,052
-255,365	-200,000	0,020	0,078
-254,351	-200,000	-0,004	0,027
-253,336	-53,671	-0,075	-0,024
-252,322	-69,838	0,075	-0,020
-251,307	-200,000	0,020	-0,135
-250,292	162,341	-0,061	-0,061
-249,278	97,776	0,087	0,071
-248,263	-44,442	-0,094	-0,033
-247,249	800,000	0,034	-0,079
-246,234	-5,535	-0,221	-0,107
-245,219	-200,000	-0,014	-0,053
-244,205	800,000	-0,040	0,083
-243,190	423,739	-0,059	0,090
-242,176	-97,369	-0,093	-0,017
-241,161	-60,408	0,182	-0,055
-240,146	155,561	-0,013	0,012
-239,132	800,000	0,029	-0,069
-238,117	66,476	0,089	-0,064
-237,103	-61,787	-0,062	0,018
-236,088	-200,000	-0,017	0,068
-235,073	103,314	0,032	0,027
-234,059	772,048	0,027	0,052
-233,044	-200,000	-0,004	-0,038
-232,030	-200,000	0,030	0,116
-231,015	525,053	-0,055	0,093
-230,000	37,426	0,095	-0,060
-228,986	202,028	-0,030	-0,033
-227,971	737,439	0,053	-0,102
-226,957	-200,000	-0,007	0,092
-225,942	7,890	0,060	-0,032
-224,927	-54,137	0,028	-0,009
-223,913	28,537	-0,054	-0,033
-222,898	-48,758	-0,143	0,048
-221,884	-200,000	0,028	-0,118
-220,869	242,949	0,039	-0,047
-219,855	-27,638	0,081	0,033
-218,840	-112,813	0,030	-0,004
-217,825	-200,000	-0,003	0,036
-216,811	-65,660	0,035	-0,010
-215,796	-3,400	-0,074	0,036
-214,782	-200,000	0,001	-0,064
-213,767	-139,743	0,126	0,009
-212,752	270,596	-0,076	0,096
-211,738	62,018	0,058	0,041
-210,723	-200,000	-0,037	0,145
-209,709	800,000	-0,031	-0,066
-208,694	39,523	-0,038	0,024
-207,679	278,606	0,036	-0,045
-206,665	78,126	0,057	0,043
-205,650	-200,000	0,045	0,144
-204,636	-200,000	0,008	0,093
-203,621	9,022	-0,093	-0,049
-202,606	-200,000	-0,002	0,054
-201,592	212,813	-0,106	0,119
-200,577	-90,623	0,056	-0,011
-199,563	32,980	0,122	0,075
-198,548	-63,061	0,176	0,051
-197,533	-200,000	-0,013	0,060
-196,519	-200,000	-0,004	0,064
-195,504	-95,880	-0,070	-0,013
-194,490	46,724	-0,072	-0,047
-193,475	-200,000	-0,011	-0,102
-192,460	219,144	0,018	-0,021
-191,446	800,000	-0,048	0,097
-190,431	258,977	-0,042	-0,051
-189,417	-200,000	-0,003	0,020
-188,402	130,834	0,169	0,154
-187,387	173,637	-0,043	-0,044
-186,373	109,496	-0,036	-0,030
-185,358	-200,000	0,030	0,105
-184,344	171,807	0,117	-0,119
-183,329	-107,959	-0,057	-0,009
-182,315	-200,000	-0,036	0,153
-181,300	-73,387	0,066	0,017
-180,285	366,963	-0,044	0,063
-179,271	228,688	-0,040	0,046
-178,256	800,000	0,040	0,101
-177,242	-42,818	0,039	0,014
-176,227	381,059	-0,101	-0,147
-175,212	800,000	0,027	-0,071
-174,198	-200,000	0,035	-0,114
-173,183	800,000	0,082	-0,167
-172,169	-200,000	-0,011	-0,176
-171,154	133,104	-0,040	-0,037
-170,139	-95,068	0,141	0,027
-169,125	700,059	-0,071	0,133
-168,110	-110,187	-0,047	0,007
-167,096	800,000	-0,048	0,094
-166,081	205,207	-0,076	0,083
-165,066	-98,985	-0,133	-0,024
-164,052	14,149	0,084	0,046
-163,037	-200,000	0,017	0,098
-162,023	-200,000	-0,004	0,056
-161,008	372,851	-0,029	-0,041
-159,993	123,608	-0,130	0,116
-158,979	18,223	-0,128	0,072
-157,964	-24,085	0,080	-0,034
-156,950	156,068	0,090	0,088
-155,935	93,175	0,111	0,089
-154,920	85,228	-0,038	0,030
-153,906	-141,066	-0,094	0,007
-152,891	-200,000	0,047	0,225
-151,877	-200,000	-0,007	0,035
-150,862	294,904	-0,056	-0,073
-149,847	40,417	0,115	0,073
-148,833	-200,000	0,009	0,037
-147,818	-200,000	-0,008	-0,136
-146,804	-150,310	0,046	0,002
-145,789	112,779	0,060	0,052
-144,775	-67,224	-0,089	-0,025
-143,760	-200,000	-0,049	-0,176
-142,745	660,040	-0,083	-0,152
-141,731	424,492	0,047	-0,072
-140,716	-42,997	0,089	-0,032
-139,702	628,886	-0,016	0,028
-138,687	-157,995	0,085	-0,003
-137,672	-200,000	-0,008	-0,066
-136,658	-44,291	-0,031	0,011
-135,643	662,347	0,020	0,037
-134,629	-30,443	-0,029	-0,012
-133,614	559,503	0,009	-0,016
-132,599	800,000	0,069	0,161
-131,585	49,510	0,070	-0,047
-130,570	-121,729	-0,120	0,014
-129,556	-200,000	0,027	-0,146
-128,541	627,909	0,020	0,036
-127,526	117,970	0,070	0,061
-126,512	18,669	0,017	0,010
-125,497	-130,551	0,081	-0,008
-124,483	-17,976	-0,110	-0,048
-123,468	-68,244	0,065	-0,018
-122,453	-200,000	0,011	0,127
-121,439	-68,843	0,040	-0,011
-120,424	-116,350	0,101	-0,013
-119,410	-200,000	-0,003	-0,067
-118,395	363,436	0,021	-0,030
-117,380	-149,486	0,138	-0,008
-116,366	5,807	0,105	0,055
-115,351	-200,000	0,002	-0,096
-114,337	246,839	0,009	0,010
-113,322	-200,000	0,014	-0,100
-112,307	-178,732	0,142	0,002
-111,293	399,259	0,064	0,095
-110,278	308,243	-0,099	-0,131
-109,264	-200,000	-0,007	0,149
-108,249	379,444	-0,019	-0,027
-107,234	-118,277	-0,038	-0,005
-106,220	556,383	-0,094	-0,160
-105,205	17,610	0,063	-0,036
-104,191	-47,226	0,139	0,047
-103,176	-126,732	0,124	-0,013
-102,162	-200,000	0,021	-0,069
-101,147	62,177	-0,083	0,059
-100,132	-200,000	0,004	-0,063
-99,118	-101,830	0,120	-0,020
-98,103	-200,000	-0,003	-0,074
-97,089	-44,130	-0,055	0,020
-96,074	205,473	0,057	-0,063
-95,059	413,995	-0,039	-0,059
-94,045	133,551	-0,030	-0,028
-93,030	-29,846	-0,153	-0,061
-92,016	-69,258	-0,064	0,017
-91,001	289,008	-0,078	-0,100
-89,986	-200,000	0,012	0,163
-88,972	161,485	0,121	0,120
-87,957	-200,000	-0,033	0,128
-86,943	-75,030	-0,054	-0,014
-85,928	10,323	-0,122	-0,065
-84,913	-139,072	-0,044	-0,003
-83,899	362,619	0,037	0,052
-82,884	526,786	0,047	-0,078
-81,870	396,569	-0,074	-0,109
-80,855	-200,000	0,007	-0,038
-79,840	13,986	-0,220	0,120
-78,826	270,504	-0,037	0,046
-77,811	788,105	-0,062	-0,121
-76,797	-76,509	0,127	-0,031
-75,782	201,562	0,032	-0,034
-74,767	71,811	-0,083	-0,061
-73,753	87,500	0,070	-0,055
-72,738	-200,000	-0,017	0,054
-71,724	-37,940	-0,073	-0,027
-70,709	800,000	-0,050	-0,111
-69,694	5,772	-0,192	0,100
-68,680	6,383	0,129	0,068
-67,665	56,546	0,049	0,034
-66,651	264,606	-0,081	-0,100
-65,636	84,345	-0,061	-0,047
-64,622	-139,092	-0,113	-0,009
-63,607	800,000	0,053	-0,112
-62,592	-156,712	-0,090	-0,004
-61,578	375,246	-0,040	-0,058
-60,563	-48,879	0,195	0,066
-59,549	78,597	0,040	0,031
-58,534	58,993	-1,786	-1,239
-57,519	387,724	-1,364	-1,998
-56,505	-200,000	-0,290	-4,365
-55,490	526,522	0,903	1,509
-54,476	800,000	5,162	11,029
-53,461	-200,000	20,988	332,803
-52,446	800,000	758,323	2331,066
-51,432	550,820	1662,812	2828,052
-50,417	73,349	1664,448	1228,383
-49,403	18,569	1537,493	865,698
-48,388	12,545	1460,380	793,111
-47,373	19,183	1451,339	820,065
-46,359	15,812	1440,625	797,928
-45,344	10,855	1436,298	771,870
-44,330	10,801	1434,501	770,616
-43,315	10,736	1432,682	769,298
-42,300	10,798	1430,450	768,363
-41,286	10,772	1429,605	767,756
-40,271	10,715	1428,266	766,734
-39,257	10,748	1427,217	766,300
-38,242	10,784	1425,769	765,663
-37,227	10,761	1424,948	765,084
-36,213	10,765	1423,636	764,368
-35,198	10,754	1422,512	763,681
-34,184	10,775	1421,812	763,373
-33,169	10,751	1420,314	762,425
-32,154	10,818	1419,224	762,126
-31,140	10,806	1418,043	761,404
-30,125	10,830	1417,037	760,949
-29,111	10,839	1415,856	760,325
-28,096	10,830	1414,483	759,518
-27,082	10,796	1413,224	758,651
-26,067	10,735	1412,544	757,968
-25,052	10,765	1411,308	757,415
-24,038	10,718	1410,487	756,724
-23,023	10,740	1409,440	756,235
-22,009	10,744	1408,314	755,623
-20,994	10,703	1407,256	754,831
-19,979	10,728	1406,355	754,437
-18,965	10,688	1405,472	753,746
-17,950	10,677	1404,683	753,241
-16,936	10,668	1403,830	752,710
-15,921	10,576	1402,899	751,752
-14,906	10,652	1401,818	751,496
-13,892	10,679	1400,857	751,079
-12,877	10,619	1400,167	750,401
-11,863	10,605	1399,445	749,920
-10,848	10,568	1398,307	749,107
-9,833	10,600	1397,227	748,645
-8,819	10,547	1396,606	748,037
-7,804	10,538	1395,724	747,494
-6,790	10,551	1394,617	746,934
-5,775	10,575	1393,631	746,484
-4,760	10,597	1392,572	745,990
-3,746	10,569	1391,601	745,311
-2,731	10,561	1390,848	744,843
-1,717	10,531	1390,051	744,247
-0,702	10,527	1388,180	743,195
0,313	14,490	1301,675	715,065
1,327	30,634	692,825	417,333
2,342	47,860	120,065	78,983
3,356	0,774	16,609	8,362
4,371	13,006	3,443	1,874
5,386	37,898	0,901	0,564
6,400	800,000	0,138	0,395
7,415	472,691	-0,203	-0,323
8,429	354,816	-0,198	-0,278
9,444	21,810	-0,274	-0,157
10,459	121,195	-0,264	-0,232
11,473	76,993	-0,247	-0,185
12,488	36,444	-0,212	-0,131
13,502	-50,122	-0,303	-0,101
14,517	-46,520	-0,381	-0,131
15,531	22,158	-0,339	-0,194
16,546	-61,895	-0,415	-0,121
17,561	147,081	-0,297	-0,282
18,575	588,356	-0,101	-0,176
19,590	251,762	-0,172	-0,206
20,604	-46,046	-0,203	-0,070
21,619	139,247	-0,484	-0,448
22,634	113,602	-0,405	-0,346
23,648	37,138	-0,452	-0,281
24,663	271,479	-0,293	-0,364
25,677	55,122	-0,377	-0,256
26,692	577,963	-0,240	-0,416
27,707	12,001	-0,360	-0,194
28,721	-17,699	-0,433	-0,191
29,736	168,321	-0,247	-0,248
30,750	84,829	-0,394	-0,303
31,765	-38,319	-0,350	-0,130
32,780	68,523	-0,417	-0,300
33,794	63,588	-0,360	-0,254
34,809	156,215	-0,340	-0,331
35,823	17,723	-0,431	-0,241
36,838	5,607	-0,384	-0,199
37,853	212,240	-0,414	-0,460
38,867	188,977	-0,388	-0,410
39,882	-25,753	-0,373	-0,154
40,896	45,656	-0,333	-0,216
41,911	329,640	-0,172	-0,233
42,926	-7,983	-0,483	-0,228
43,940	36,413	-0,360	-0,222
44,955	67,649	-0,404	-0,290
45,969	417,461	-0,204	-0,307
46,984	28,369	-0,403	-0,239
47,999	33,797	-0,346	-0,211
49,013	32,737	-0,229	-0,139
50,028	53,873	-0,341	-0,230
51,042	122,218	-0,172	-0,151
52,057	14,254	-0,420	-0,229
53,071	68,967	-0,314	-0,226
54,086	57,724	-0,261	-0,179
55,101	127,498	-0,237	-0,212
56,115	132,843	-0,305	-0,277
57,130	86,754	-0,337	-0,261
58,144	17,166	-0,424	-0,235
59,159	95,899	-0,279	-0,223
60,174	57,432	-0,321	-0,220
61,188	218,565	-0,306	-0,344
62,203	-13,130	-0,332	-0,151
63,217	93,456	-0,360	-0,286
64,232	11,611	-0,323	-0,173
65,247	78,672	-0,314	-0,236
66,261	-23,521	-0,354	-0,149
67,276	111,524	-0,376	-0,318
68,290	331,289	-0,169	-0,230
69,305	166,368	-0,228	-0,227
70,320	152,243	-0,204	-0,196
71,334	146,801	-0,284	-0,268
72,349	167,490	-0,224	-0,224
73,363	4,857	-0,244	-0,126
74,378	-41,295	-0,465	-0,167
75,393	173,792	-0,321	-0,326
76,407	84,184	-0,241	-0,185
77,422	205,127	-0,251	-0,273
78,436	-53,355	-0,317	-0,101
79,451	24,228	-0,314	-0,181
80,466	231,532	-0,212	-0,244
81,480	6,718	-0,289	-0,150
82,495	174,495	-0,255	-0,259
83,509	-104,975	-0,282	-0,045
84,524	-132,425	-0,309	-0,028
85,539	205,388	-0,247	-0,269
86,553	47,737	-0,364	-0,238
87,568	44,890	-0,290	-0,187
88,582	99,481	-0,310	-0,251
89,597	276,616	-0,226	-0,282
90,611	11,170	-0,248	-0,133
91,626	175,707	-0,238	-0,242
92,641	-49,011	-0,363	-0,121
93,655	-73,982	-0,325	-0,082
94,670	-36,777	-0,212	-0,079
95,684	218,251	-0,277	-0,310
96,699	25,745	-0,284	-0,165
97,714	16,269	-0,266	-0,147
98,728	55,114	-0,256	-0,173
99,743	83,696	-0,236	-0,180
100,757	71,561	-0,325	-0,236
101,772	95,252	-0,279	-0,222
102,787	94,901	-0,347	-0,276
103,801	67,905	-0,368	-0,263
104,816	56,417	-0,182	-0,124
105,830	754,921	-0,132	-0,250
106,845	67,934	-0,283	-0,202
107,860	588,426	-0,152	-0,262
108,874	37,686	-0,147	-0,091
109,889	-24,319	-0,371	-0,154
110,903	31,848	-0,236	-0,142
111,918	186,929	-0,288	-0,300
112,933	-44,805	-0,317	-0,110
113,947	769,614	-0,084	-0,160
114,962	-54,150	-0,388	-0,122
115,976	181,371	-0,237	-0,244
116,991	103,773	-0,151	-0,124
118,006	115,845	-0,254	-0,217
119,020	24,189	-0,199	-0,114
120,035	263,245	-0,201	-0,244
121,049	800,000	-0,031	-0,075
122,064	153,351	-0,188	-0,179
123,079	128,113	-0,201	-0,178
124,093	271,021	-0,208	-0,257
125,108	52,839	-0,236	-0,157
126,122	79,884	-0,280	-0,209
127,137	-12,829	-0,211	-0,096
128,151	-23,605	-0,081	0,034
129,166	-120,718	-0,339	-0,040
130,181	32,857	-0,281	-0,169
131,195	67,954	-0,294	-0,209
132,210	285,758	-0,143	-0,180
133,224	196,703	-0,267	-0,284
134,239	19,525	-0,396	-0,222
135,254	-29,266	-0,240	-0,095
136,268	41,859	-0,256	-0,162
137,283	94,981	-0,315	-0,250
138,297	30,898	-0,335	-0,200
139,312	152,491	-0,223	-0,213
140,327	176,143	-0,249	-0,252
141,341	263,386	-0,284	-0,345
142,356	123,106	-0,167	-0,146
143,370	-93,874	-0,168	-0,032
144,385	632,940	-0,118	-0,209
145,400	93,347	-0,282	-0,222
146,414	320,551	-0,232	-0,308
147,429	90,658	-0,108	-0,084
148,443	28,350	-0,318	-0,187
149,458	152,974	-0,188	-0,179
150,473	77,670	-0,209	-0,155
151,487	-43,455	-0,232	-0,081
152,502	50,203	-0,271	-0,178
153,516	104,900	-0,246	-0,202
154,531	38,647	-0,311	-0,193
155,546	155,333	-0,151	-0,145
156,560	196,346	-0,297	-0,315
157,575	-100,912	-0,258	-0,044
158,589	-82,729	-0,315	-0,070
159,604	134,948	-0,350	-0,317
160,619	224,815	-0,259	-0,292
161,633	120,621	-0,330	-0,285
162,648	210,408	-0,247	-0,270
163,662	96,095	-0,170	-0,135
164,677	116,982	-0,149	-0,127
165,692	-70,784	-0,199	-0,052
166,706	-3,797	-0,244	-0,117
167,721	208,047	-0,163	-0,178
168,735	78,236	-0,337	-0,250
169,750	141,651	-0,238	-0,219
170,764	172,040	-0,236	-0,236
171,779	-24,737	-0,192	-0,079
172,794	113,875	-0,199	-0,169
173,808	-101,251	-0,287	-0,048
174,823	385,101	-0,138	-0,199
175,837	-20,548	-0,387	-0,165
176,852	800,000	-0,130	-0,261
177,867	105,141	-0,069	-0,056
178,881	162,556	-0,241	-0,235
179,896	257,954	-0,107	-0,128
180,910	-153,487	-0,301	-0,014
181,925	-73,203	-0,297	-0,075
182,940	182,626	-0,234	-0,240
183,954	598,331	-0,101	-0,174
184,969	42,276	-0,269	-0,170
185,983	149,295	-0,168	-0,158
186,998	304,908	-0,163	-0,210
188,013	-4,498	-0,296	-0,142
189,027	-81,268	-0,231	-0,053
190,042	50,728	-0,165	-0,108
191,056	-49,819	-0,189	-0,062
192,071	15,092	-0,270	-0,146
193,086	-98,312	-0,173	-0,031
194,100	258,690	-0,199	-0,239
195,115	-198,244	-0,229	0,001
196,129	-200,000	-0,271	0,000
197,144	148,253	-0,247	-0,231
198,159	78,008	-0,218	-0,161
199,173	483,248	-0,128	-0,202
200,188	100,372	-0,124	-0,100
201,202	-49,968	-0,212	0,069
202,217	-52,592	-0,302	-0,096
203,232	184,079	-0,260	-0,267
204,246	214,676	-0,031	-0,034
205,261	250,385	-0,150	-0,177
206,275	87,376	-0,251	-0,193
207,290	-77,164	-0,246	-0,059
208,304	-33,976	-0,185	-0,070
209,319	548,804	-0,091	-0,152
210,334	210,619	-0,170	-0,186
211,348	589,932	-0,139	-0,239
212,363	-16,657	-0,180	-0,078
213,377	-200,000	-0,047	-0,223
214,392	-4,276	-0,187	-0,089
215,407	93,651	-0,213	-0,167
216,421	-17,041	-0,230	-0,100
217,436	645,476	-0,185	-0,328
218,450	128,102	-0,243	-0,214
219,465	-2,068	-0,192	-0,093
220,480	50,630	-0,247	-0,162
221,494	66,238	-0,119	-0,084
222,509	-61,217	-0,210	-0,061
223,523	800,000	-0,096	-0,246
224,538	-15,834	-0,177	-0,078
225,553	71,765	-0,235	-0,169
226,567	128,491	-0,251	-0,221
227,582	123,641	-0,172	-0,150
228,596	109,799	-0,194	-0,161
229,611	378,453	-0,101	-0,143
230,626	-96,046	-0,138	-0,025
231,640	-31,131	-0,274	-0,106
232,655	119,646	-0,165	-0,141
233,669	113,408	-0,193	-0,162
234,684	800,000	-0,074	-0,145
235,699	246,624	-0,087	-0,102
236,713	194,761	-0,121	-0,127
237,728	56,522	-0,124	-0,083
238,742	-2,347	-0,316	-0,152
239,757	229,210	-0,112	-0,127
240,772	107,495	-0,190	-0,156
241,786	121,102	-0,190	-0,164
242,801	-120,016	-0,168	0,020
243,815	-200,000	0,002	-0,066
244,830	-147,566	-0,234	-0,013
245,844	445,148	-0,116	-0,177
246,859	170,767	-0,181	-0,179
247,874	594,163	-0,166	-0,285
248,888	462,537	-0,185	-0,287
249,903	-200,000	-0,038	-0,171
250,917	-61,557	-0,255	-0,074
251,932	72,943	-0,314	-0,226
252,947	-63,464	-0,257	-0,072
253,961	265,078	-0,166	-0,200
254,976	50,741	-0,214	-0,139
255,990	376,234	-0,169	-0,239
257,005	438,208	-0,150	-0,227
258,020	800,000	-0,120	-0,241
259,034	-29,370	-0,162	-0,064
260,049	-107,484	-0,254	0,038
261,063	764,986	-0,182	-0,342
262,078	-167,768	-0,221	-0,006
263,093	110,597	-0,265	-0,220
264,107	-2,694	-0,221	-0,106
265,122	47,269	-0,217	-0,139
266,136	-61,138	-0,107	-0,031
267,151	-48,589	-0,194	-0,064
268,166	182,956	-0,099	-0,101
269,180	42,342	-0,299	-0,187
270,195	-181,924	-0,293	-0,004
271,209	-40,791	-0,208	-0,074
272,224	800,000	-0,068	-0,160
273,239	226,065	-0,077	-0,086
274,253	-54,536	-0,206	-0,064
275,268	266,902	-0,099	-0,120
276,282	428,022	-0,124	-0,184
277,297	58,838	-0,245	-0,166
278,312	239,982	-0,089	-0,103
279,326	101,200	-0,180	-0,144
280,341	-62,407	-0,191	-0,054
281,355	-200,000	-0,063	-0,199
282,370	-22,570	-0,207	-0,086
283,384	204,139	-0,175	-0,187
284,399	206,016	-0,157	-0,168
285,414	65,233	-0,113	-0,079
286,428	203,025	-0,216	-0,230
287,443	245,397	-0,167	-0,194
288,457	191,114	-0,131	-0,136
289,472	-51,509	-0,255	-0,081
290,487	-86,445	-0,250	-0,052
291,501	-69,107	-0,172	-0,045
292,516	800,000	-0,128	-0,273
293,530	201,355	-0,063	-0,067
294,545	78,788	-0,130	-0,095
295,560	174,061	-0,161	-0,160
296,574	114,721	-0,253	-0,212
297,589	76,116	-0,208	-0,151
298,603	620,426	-0,035	-0,061
299,618	-113,269	-0,157	-0,021
300,633	-92,301	-0,160	0,031
301,647	-100,247	-0,040	0,007
302,662	800,000	-0,035	-0,099
303,676	-39,124	-0,115	-0,041
304,691	264,360	-0,112	-0,134
305,706	-2,068	-0,077	-0,037
306,720	125,713	-0,107	-0,093
307,735	139,635	-0,100	-0,090
308,749	-95,411	-0,068	0,012
309,764	800,000	-0,042	-0,127
310,779	98,463	-0,108	-0,085
311,793	-124,151	-0,128	-0,014
312,808	198,304	-0,128	-0,135
313,822	146,988	-0,177	-0,164
314,837	14,336	-0,130	-0,070
315,852	-17,322	-0,140	-0,060
316,866	-10,949	-0,089	-0,040
317,881	-108,953	-0,096	-0,014
318,895	348,411	-0,071	-0,096
319,910	-6,448	-0,159	-0,074
320,925	-114,698	-0,190	-0,025
321,939	-10,751	-0,108	-0,049
322,954	-78,799	-0,190	-0,044
323,968	538,516	-0,092	-0,151
324,983	557,674	-0,038	-0,063
325,997	-74,671	-0,164	0,040
327,012	800,000	-0,101	-0,233
328,027	-103,841	-0,132	-0,021
329,041	-200,000	-0,039	-0,167
330,056	-109,000	-0,115	-0,017
331,070	305,735	-0,078	-0,100
332,085	-93,475	-0,206	0,039
333,100	46,800	-0,017	0,011
334,114	-40,565	-0,173	-0,061
335,129	-55,786	-0,117	-0,036
336,143	58,286	-0,134	-0,090
337,158	192,638	-0,201	-0,208
338,173	478,262	-0,083	-0,129
339,187	663,372	-0,107	-0,190
340,202	465,484	-0,064	-0,098
341,216	-78,523	-0,144	-0,033
342,231	113,565	-0,146	-0,121
343,246	51,429	-0,165	-0,107
344,260	1,516	-0,079	-0,039
345,275	237,112	-0,112	-0,127
346,289	-162,624	-0,043	-0,001
347,304	-200,000	-0,032	-0,166
348,319	399,968	-0,116	-0,167
349,333	174,372	-0,136	-0,134
350,348	128,979	-0,142	-0,124
351,362	39,860	-0,124	-0,076
352,377	195,835	-0,076	-0,080
353,392	516,058	-0,076	-0,121
354,406	244,080	-0,113	-0,130
355,421	205,605	1313,755	1398,511
356,435	158,095	1474,334	1399,008
