DTS Sentinel unit serial number:	SN410029Multiplexer serial number:	ORYXHardware model number:	OX2-SRSoftware version number:	ORYX F/W v4,00 Oryx Data Collector v3.7.2.0data status	okinstallation	B3 Nyhavnadifferential loss correction	single-endedforward channel	channel 1reverse channel	N/Adate	2023/11/29time	22:12:30forward acquisition time	300,00reverse acquisition time	0,00gamma	499,1914k internal	0,3210k external	0,3210temperature offset calibration	1,0000default loss term (dB/km)	0,3820temperature slope calibration	1,0000multiplexer offset coefficient	1,0000multiplexer slope coefficient	1,0000fibre end	0,00T internal ref (°C)	10,81T ext. ref 1 (°C)	-4,22T ext. ref 2 (°C)	-4,32length (m)	temperature (°C)	Stokes	anti-Stokes-744,400	38,743	-0,127	-0,082
-743,385	444,677	0,212	0,338
-742,371	84,072	-0,196	-0,155
-741,356	800,000	0,130	0,322
-740,342	416,618	-0,159	-0,247
-739,327	-200,000	0,015	0,379
-738,312	106,429	-0,301	-0,258
-737,298	782,338	0,155	0,309
-736,283	446,648	-0,140	-0,224
-735,269	-200,000	0,003	0,273
-734,254	1,239	-0,272	-0,141
-733,239	17,978	-0,171	0,098
-732,225	-1,354	-0,199	-0,101
-731,210	800,000	0,058	0,119
-730,196	-78,632	-0,167	-0,041
-729,181	800,000	-0,062	-0,152
-728,167	-31,119	-0,122	0,050
-727,152	800,000	-0,035	0,079
-726,137	531,657	0,039	-0,067
-725,123	97,751	-0,054	0,045
-724,108	-99,990	-0,088	-0,016
-723,094	333,747	-0,039	-0,054
-722,079	-145,673	-0,138	-0,009
-721,064	800,000	0,010	-0,023
-720,050	-200,000	-0,005	0,125
-719,035	37,173	-0,127	0,081
-718,021	-200,000	-0,022	-0,109
-717,006	-200,000	-0,016	-0,061
-715,991	699,626	-0,045	0,085
-714,977	-200,000	-0,016	-0,123
-713,962	408,663	0,045	-0,069
-712,948	208,286	0,007	-0,008
-711,933	129,745	0,089	0,083
-710,918	-109,096	-0,143	-0,022
-709,904	800,000	-0,042	-0,087
-708,889	-101,790	-0,141	-0,024
-707,875	-200,000	-0,007	-0,109
-706,860	-121,847	0,025	0,003
-705,845	-200,000	-0,002	0,017
-704,831	174,550	0,108	0,113
-703,816	800,000	-0,026	0,079
-702,802	800,000	-0,058	-0,138
-701,787	800,000	0,025	-0,069
-700,772	381,246	0,070	-0,105
-699,758	658,612	-0,022	-0,042
-698,743	211,454	0,036	-0,041
-697,729	800,000	-0,003	0,010
-696,714	157,855	0,106	-0,107
-695,699	800,000	-0,023	-0,065
-694,685	291,829	-0,034	-0,045
-693,670	118,585	0,064	-0,057
-692,656	800,000	0,031	-0,096
-691,641	-103,058	0,108	-0,018
-690,627	-200,000	-0,010	0,062
-689,612	800,000	0,051	0,116
-688,597	-56,383	-0,045	0,014
-687,583	135,332	0,036	-0,033
-686,568	800,000	-0,016	0,033
-685,554	-200,000	-0,003	-0,086
-684,539	-105,987	0,116	0,019
-683,524	13,604	-0,010	-0,006
-682,510	102,167	0,158	0,134
-681,495	-119,016	-0,082	0,010
-680,481	-19,232	-0,180	-0,081
-679,466	-200,000	-0,018	0,072
-678,451	800,000	-0,047	0,095
-677,437	271,177	0,091	0,116
-676,422	-103,860	0,122	-0,020
-675,408	-11,898	-0,033	0,016
-674,393	360,427	-0,063	0,091
-673,378	708,306	-0,019	-0,036
-672,364	-118,543	-0,102	-0,013
-671,349	-200,000	0,004	-0,089
-670,335	59,869	-0,075	-0,054
-669,320	121,467	0,161	0,146
-668,305	25,422	0,074	0,044
-667,291	275,809	-0,088	-0,114
-666,276	-200,000	0,012	-0,057
-665,262	73,102	-0,056	-0,042
-664,247	-200,000	0,012	0,102
-663,232	477,664	0,040	0,066
-662,218	-200,000	0,012	0,125
-661,203	-126,524	0,025	-0,003
-660,189	800,000	-0,005	-0,012
-659,174	-74,991	-0,087	0,022
-658,159	800,000	-0,060	0,151
-657,145	-200,000	-0,007	-0,047
-656,130	60,871	0,154	0,110
-655,116	800,000	-0,032	0,083
-654,101	800,000	-0,019	0,051
-653,086	-200,000	-0,019	0,068
-652,072	-200,000	0,004	0,111
-651,057	-200,000	-0,017	-0,093
-650,043	-200,000	-0,006	0,108
-649,028	-41,267	-0,053	0,020
-648,014	318,467	-0,025	-0,035
-646,999	114,535	0,016	0,014
-645,984	-200,000	-0,003	0,076
-644,970	800,000	0,044	-0,116
-643,955	-132,936	0,035	0,003
-642,941	-10,172	-0,090	-0,043
-641,926	-22,097	-0,011	0,005
-640,911	18,231	0,219	0,126
-639,897	308,370	0,056	0,076
-638,882	68,803	0,046	-0,034
-637,868	218,697	-0,044	-0,051
-636,853	9,325	-0,069	0,038
-635,838	-200,000	-0,013	-0,129
-634,824	164,725	0,086	-0,087
-633,809	8,823	0,054	0,029
-632,795	-40,037	0,093	-0,035
-631,780	11,071	-0,107	0,059
-630,765	211,951	0,022	0,025
-629,751	-71,868	0,060	-0,016
-628,736	-200,000	0,002	-0,102
-627,722	-105,068	-0,106	-0,017
-626,707	146,947	0,037	0,036
-625,692	-200,000	0,013	-0,070
-624,678	94,533	-0,072	0,059
-623,663	-45,665	0,086	0,030
-622,649	800,000	-0,060	-0,142
-621,634	-200,000	-0,035	-0,189
-620,619	257,224	-0,022	-0,027
-619,605	9,714	0,083	-0,045
-618,590	-70,365	0,043	-0,012
-617,576	387,253	-0,063	-0,095
-616,561	-200,000	0,003	-0,115
-615,546	-83,644	-0,068	-0,016
-614,532	-59,562	-0,011	0,004
-613,517	-200,000	0,020	-0,183
-612,503	-90,716	0,102	-0,021
-611,488	-200,000	-0,023	-0,080
-610,474	44,108	0,095	-0,063
-609,459	800,000	0,024	0,054
-608,444	220,679	-0,069	-0,080
-607,430	-47,867	-0,079	0,027
-606,415	-91,675	0,058	0,012
-605,401	800,000	0,012	0,028
-604,386	800,000	0,030	0,071
-603,371	800,000	0,021	0,051
-602,357	68,514	-0,131	-0,097
-601,342	-200,000	0,010	-0,069
-600,328	-143,961	-0,147	-0,010
-599,313	-118,593	0,058	-0,007
-598,298	0,082	-0,062	0,032
-597,284	-200,000	-0,016	-0,080
-596,269	242,202	0,012	-0,015
-595,255	97,791	0,088	-0,073
-594,240	-128,343	-0,122	0,012
-593,225	-23,474	-0,084	0,036
-592,211	-200,000	0,047	-0,174
-591,196	-200,000	0,011	-0,106
-590,182	-200,000	-0,011	0,167
-589,167	274,733	0,048	0,061
-588,152	-200,000	-0,010	0,099
-587,138	-18,793	0,133	-0,059
-586,123	433,182	-0,089	-0,140
-585,109	16,143	-0,084	0,048
-584,094	301,614	0,029	-0,038
-583,079	123,983	-0,125	-0,113
-582,065	800,000	-0,058	-0,138
-581,050	-200,000	-0,035	-0,140
-580,036	90,974	-0,022	0,018
-579,021	-163,391	0,012	0,000
-578,006	800,000	0,039	-0,107
-576,992	-8,045	-0,078	0,038
-575,977	0,056	-0,147	0,075
-574,963	-200,000	0,025	0,092
-573,948	90,560	-0,041	0,033
-572,934	-159,622	-0,088	0,003
-571,919	108,135	-0,078	-0,067
-570,904	245,598	-0,103	-0,125
-569,890	714,320	-0,062	-0,119
-568,875	-182,440	-0,010	-0,000
-567,861	800,000	0,038	0,101
-566,846	286,108	0,080	0,104
-565,831	-102,445	0,140	0,024
-564,817	48,446	-0,130	-0,088
-563,802	-200,000	0,019	0,081
-562,788	800,000	0,050	0,118
-561,773	-73,877	0,062	-0,016
-560,758	-100,742	0,052	0,009
-559,744	-90,618	-0,073	0,015
-558,729	72,429	0,031	0,023
-557,715	-36,903	-0,055	0,021
-556,700	242,308	-0,154	-0,186
-555,685	-200,000	0,002	-0,090
-554,671	-84,354	-0,022	-0,005
-553,656	-200,000	-0,011	0,059
-552,642	-83,469	0,095	-0,022
-551,627	-86,370	-0,040	0,009
-550,612	464,510	-0,006	-0,010
-549,598	0,859	-0,089	0,046
-548,583	800,000	0,039	0,105
-547,569	417,994	0,091	0,140
-546,554	-200,000	0,005	-0,021
-545,539	212,369	0,053	-0,060
-544,525	-200,000	0,018	0,068
-543,510	-158,912	-0,139	0,006
-542,496	-88,858	0,095	-0,020
-541,481	98,803	-0,107	-0,089
-540,466	800,000	0,020	0,054
-539,452	49,165	0,129	0,087
-538,437	800,000	-0,036	-0,114
-537,423	-29,363	-0,041	0,017
-536,408	276,753	-0,005	0,007
-535,393	67,196	-0,190	-0,139
-534,379	-200,000	-0,032	-0,232
-533,364	498,564	0,068	0,113
-532,350	-8,182	-0,168	0,081
-531,335	513,024	0,063	0,106
-530,321	85,376	-0,022	-0,018
-529,306	-45,614	0,117	-0,041
-528,291	248,984	-0,062	-0,076
-527,277	38,993	-0,151	0,097
-526,262	-200,000	0,001	0,063
-525,248	-200,000	0,009	0,136
-524,233	-200,000	-0,016	0,084
-523,218	-131,903	0,107	-0,010
-522,204	76,214	0,073	-0,055
-521,189	326,711	-0,054	0,075
-520,175	226,543	0,017	-0,020
-519,160	288,052	0,027	0,035
-518,145	-200,000	-0,035	0,203
-517,131	-47,521	0,028	0,010
-516,116	-200,000	0,007	0,042
-515,102	-67,528	-0,086	0,024
-514,087	-200,000	-0,005	0,019
-513,072	160,768	-0,044	-0,044
-512,058	-146,811	0,109	0,007
-511,043	166,921	-0,091	0,093
-510,029	282,183	0,052	0,067
-509,014	800,000	0,032	0,088
-507,999	-200,000	-0,028	0,135
-506,985	21,483	-0,052	-0,030
-505,970	17,582	-0,026	-0,015
-504,956	-73,877	0,087	-0,023
-503,941	57,224	-0,019	-0,013
-502,926	37,312	0,013	-0,008
-501,912	-89,959	0,045	-0,009
-500,897	190,029	-0,103	0,112
-499,883	-67,880	-0,026	-0,007
-498,868	10,089	-0,063	-0,034
-497,853	-200,000	0,038	-0,272
-496,839	142,171	0,010	-0,010
-495,824	800,000	-0,058	-0,134
-494,810	-200,000	-0,023	0,090
-493,795	-200,000	0,004	0,018
-492,781	-200,000	0,019	-0,142
-491,766	596,099	-0,091	0,163
-490,751	-171,286	-0,115	-0,003
-489,737	203,428	0,074	0,083
-488,722	-200,000	-0,011	-0,079
-487,708	-200,000	-0,009	0,070
-486,693	-33,772	-0,049	-0,019
-485,678	-8,038	0,134	0,065
-484,664	-200,000	-0,001	-0,027
-483,649	126,341	-0,055	0,050
-482,635	800,000	0,013	-0,029
-481,620	800,000	0,020	0,058
-480,605	-200,000	-0,030	0,169
-479,591	101,596	0,100	0,084
-478,576	319,067	-0,064	0,087
-477,562	-102,927	-0,091	-0,015
-476,547	-200,000	0,034	-0,117
-475,532	-62,623	-0,070	0,021
-474,518	-200,000	-0,003	0,059
-473,503	-111,659	0,041	-0,006
-472,489	-56,787	0,069	0,022
-471,474	178,905	0,034	-0,036
-470,459	-200,000	-0,009	0,052
-469,445	-75,930	-0,147	-0,037
-468,430	800,000	0,026	0,078
-467,416	800,000	0,052	-0,106
-466,401	486,375	0,045	-0,074
-465,386	38,882	-0,089	0,057
-464,372	-93,823	0,075	0,015
-463,357	332,635	0,027	0,037
-462,343	-200,000	-0,004	-0,149
-461,328	-200,000	0,015	-0,085
-460,313	800,000	0,055	0,167
-459,299	189,353	0,027	-0,029
-458,284	472,515	0,055	0,089
-457,270	800,000	-0,026	0,075
-456,255	198,921	-0,021	0,023
-455,241	-18,221	0,091	-0,041
-454,226	402,307	0,062	-0,093
-453,211	-200,000	-0,012	-0,045
-452,197	800,000	0,004	0,012
-451,182	-160,374	-0,062	0,002
-450,168	-159,950	0,047	0,002
-449,153	-200,000	-0,010	-0,079
-448,138	-200,000	0,024	-0,090
-447,124	-200,000	-0,006	-0,071
-446,109	-200,000	-0,009	-0,044
-445,095	217,369	0,126	0,144
-444,080	-6,888	-0,011	0,005
-443,065	182,549	-0,080	0,085
-442,051	-200,000	-0,028	0,092
-441,036	-200,000	-0,002	-0,095
-440,022	800,000	-0,068	0,146
-439,007	-157,755	0,118	0,005
-437,992	800,000	0,013	-0,034
-436,978	-126,319	-0,015	-0,002
-435,963	-200,000	0,000	0,042
-434,949	322,650	-0,008	-0,010
-433,934	800,000	-0,043	-0,106
-432,919	-9,461	0,043	0,021
-431,905	800,000	-0,007	0,015
-430,890	-200,000	0,041	-0,000
-429,876	317,173	0,091	0,123
-428,861	131,394	-0,028	0,026
-427,846	-90,401	0,124	0,026
-426,832	84,415	-0,049	0,038
-425,817	54,545	0,029	0,020
-424,803	595,555	-0,054	-0,095
-423,788	-47,210	-0,101	0,035
-422,773	249,668	-0,050	-0,061
-421,759	-200,000	0,014	-0,099
-420,744	800,000	-0,057	0,155
-419,730	-200,000	0,004	0,036
-418,715	121,074	0,017	-0,015
-417,701	377,928	0,037	-0,054
-416,686	-12,675	0,023	-0,011
-415,671	-139,306	0,187	-0,014
-414,657	-200,000	0,000	0,027
-413,642	-105,774	0,022	0,004
-412,628	173,873	-0,072	0,075
-411,613	119,310	0,079	-0,070
-410,598	95,275	-0,099	0,081
-409,584	-200,000	0,016	0,101
-408,569	641,019	0,062	0,113
-407,555	-166,723	-0,019	-0,001
-406,540	54,951	-0,046	0,032
-405,525	2,861	-0,091	-0,047
-404,511	-73,430	0,024	-0,006
-403,496	-200,000	-0,040	-0,128
-402,482	-21,555	-0,117	0,051
-401,467	-0,216	0,087	-0,044
-400,452	55,317	-0,084	-0,058
-399,438	-200,000	0,008	0,029
-398,423	55,154	-0,119	-0,083
-397,409	0,691	-0,083	-0,043
-396,394	800,000	-0,051	-0,127
-395,379	18,659	-0,080	0,046
-394,365	-84,239	0,124	0,028
-393,350	18,533	0,113	0,064
-392,336	-49,308	0,103	0,035
-391,321	-200,000	-0,035	0,125
-390,306	118,943	0,080	0,071
-389,292	-80,821	-0,119	0,028
-388,277	407,067	0,034	-0,052
-387,263	98,990	0,154	0,127
-386,248	18,026	0,211	0,120
-385,233	800,000	-0,012	-0,034
-384,219	-189,150	-0,120	-0,001
-383,204	24,744	-0,252	-0,149
-382,190	-200,000	0,036	-0,134
-381,175	-62,422	0,124	0,037
-380,160	-200,000	-0,005	-0,118
-379,146	47,224	-0,003	-0,002
-378,131	28,215	-0,021	0,012
-377,117	800,000	0,016	0,032
-376,102	71,880	0,049	0,037
-375,088	96,036	-0,097	-0,079
-374,073	481,300	-0,091	-0,148
-373,058	-67,726	0,134	-0,037
-372,044	800,000	-0,007	-0,017
-371,029	800,000	-0,034	0,092
-370,015	156,317	-0,064	0,064
-369,000	-200,000	0,034	-0,112
-367,985	-73,673	-0,091	-0,024
-366,971	-200,000	-0,018	-0,072
-365,956	-186,395	-0,116	0,001
-364,942	-200,000	0,029	0,137
-363,927	-200,000	0,015	0,092
-362,912	543,307	-0,075	0,128
-361,898	36,160	-0,088	0,055
-360,883	-25,885	0,079	-0,033
-359,869	178,655	-0,030	-0,032
-358,854	800,000	-0,025	0,053
-357,839	800,000	0,061	0,163
-356,825	-200,000	-0,014	-0,051
-355,810	36,738	-0,033	-0,021
-354,796	33,523	0,125	0,078
-353,781	207,487	0,078	-0,087
-352,766	-58,847	-0,023	0,007
-351,752	-111,539	-0,057	0,008
-350,737	-23,026	0,039	-0,017
-349,723	800,000	0,085	0,194
-348,708	800,000	-0,060	0,149
-347,693	-200,000	0,016	-0,170
-346,679	800,000	0,033	0,083
-345,664	136,965	0,063	0,059
-344,650	56,089	-0,157	-0,108
-343,635	-200,000	0,005	-0,130
-342,620	-145,825	0,177	-0,011
-341,606	127,671	0,086	0,078
-340,591	377,247	-0,112	0,165
-339,577	434,483	-0,090	-0,140
-338,562	-48,747	-0,115	0,039
-337,548	51,567	0,091	0,062
-336,533	539,034	0,057	-0,097
-335,518	800,000	-0,040	0,087
-334,504	800,000	-0,016	0,047
-333,489	800,000	0,012	-0,031
-332,475	-200,000	-0,007	-0,231
-331,460	95,492	-0,142	-0,116
-330,445	100,511	0,140	-0,116
-329,431	-200,000	0,015	-0,112
-328,416	173,168	-0,007	-0,007
-327,402	468,428	0,063	-0,101
-326,387	-200,000	0,012	-0,093
-325,372	107,835	0,118	0,100
-324,358	-190,201	-0,130	-0,001
-323,343	96,920	0,082	-0,067
-322,329	800,000	0,017	-0,040
-321,314	-200,000	-0,001	0,111
-320,299	429,867	0,050	0,078
-319,285	-4,330	-0,066	0,032
-318,270	-200,000	0,014	-0,138
-317,256	46,837	-0,231	-0,153
-316,241	-49,158	0,067	0,023
-315,226	-89,521	0,071	-0,015
-314,212	452,981	-0,065	0,103
-313,197	-200,000	0,000	0,064
-312,183	476,752	0,028	0,045
-311,168	-200,000	0,030	-0,114
-310,153	-113,312	0,033	0,005
-309,139	800,000	-0,011	-0,028
-308,124	267,787	-0,095	-0,118
-307,110	82,454	-0,024	-0,019
-306,095	270,629	-0,069	0,086
-305,080	560,988	0,048	0,082
-304,066	-7,357	0,109	0,053
-303,051	687,699	-0,062	0,116
-302,037	-200,000	0,013	0,056
-301,022	27,356	0,031	-0,018
-300,008	458,455	0,083	0,131
-298,993	-200,000	0,005	0,217
-297,978	-200,000	-0,001	0,012
-296,964	-200,000	-0,016	-0,085
-295,949	800,000	0,039	-0,093
-294,935	800,000	0,034	0,079
-293,920	33,986	0,076	-0,047
-292,905	-106,629	0,103	-0,016
-291,891	-130,603	-0,060	0,006
-290,876	-200,000	-0,028	0,115
-289,862	-200,000	0,022	0,081
-288,847	-200,000	-0,012	-0,054
-287,832	-90,822	-0,144	-0,029
-286,818	25,191	0,032	0,019
-285,803	-92,381	0,148	-0,030
-284,789	800,000	-0,042	-0,109
-283,774	-58,146	0,146	-0,045
-282,759	-200,000	0,009	0,116
-281,745	-200,000	-0,002	0,018
-280,730	767,629	-0,085	-0,165
-279,716	375,523	0,054	0,078
-278,701	358,229	0,072	0,102
-277,686	-149,214	0,121	0,007
-276,672	-200,000	0,005	-0,126
-275,657	64,125	0,051	0,036
-274,643	19,805	-0,101	-0,058
-273,628	419,798	-0,071	-0,109
-272,613	-200,000	-0,022	0,091
-271,599	-72,310	0,031	-0,008
-270,584	496,674	0,111	0,182
-269,570	-144,636	0,135	0,009
-268,555	465,484	0,062	0,099
-267,540	85,094	0,026	-0,020
-266,526	-200,000	0,005	-0,066
-265,511	194,423	-0,069	-0,075
-264,497	800,000	-0,013	-0,030
-263,482	101,191	0,096	0,080
-262,467	-43,121	0,123	0,044
-261,453	39,036	-0,193	-0,122
-260,438	-136,823	-0,055	-0,004
-259,424	-153,978	-0,106	0,005
-258,409	141,116	-0,091	-0,086
-257,395	347,074	0,044	0,062
-256,380	-154,463	-0,125	-0,006
-255,365	413,032	0,084	-0,128
-254,351	-200,000	0,067	0,000
-253,336	-166,661	0,063	0,002
-252,322	-200,000	-0,045	-0,174
-251,307	357,997	-0,064	-0,091
-250,292	151,147	-0,025	-0,024
-249,278	138,444	0,042	0,039
-248,263	289,580	0,037	0,047
-247,249	-200,000	-0,003	0,109
-246,234	-200,000	-0,008	-0,125
-245,219	-200,000	0,017	0,111
-244,205	-200,000	-0,007	0,059
-243,190	434,506	-0,019	0,030
-242,176	-200,000	0,012	0,057
-241,161	-200,000	0,008	0,088
-240,146	-200,000	0,018	0,119
-239,132	38,081	-0,029	-0,018
-238,117	-200,000	0,002	0,144
-237,103	317,952	-0,117	0,157
-236,088	800,000	-0,020	-0,049
-235,073	-94,165	0,042	0,008
-234,059	-72,342	0,026	0,007
-233,044	695,776	-0,039	0,073
-232,030	-200,000	0,006	0,035
-231,015	-200,000	0,011	-0,074
-230,000	-200,000	-0,007	0,024
-228,986	15,886	-0,131	-0,073
-227,971	-90,495	-0,035	-0,007
-226,957	438,861	-0,020	-0,031
-225,942	210,814	0,119	0,133
-224,927	-29,282	-0,026	-0,011
-223,913	-143,133	-0,120	-0,008
-222,898	-200,000	0,004	-0,085
-221,884	-106,033	-0,070	0,011
-220,869	-200,000	-0,038	-0,125
-219,855	-68,735	0,081	0,022
-218,840	100,780	0,149	-0,123
-217,825	-92,394	-0,008	0,001
-216,811	-200,000	-0,005	-0,169
-215,796	390,829	-0,073	-0,108
-214,782	-44,721	-0,093	-0,033
-213,767	-200,000	-0,006	0,021
-212,752	-200,000	0,027	0,161
-211,738	452,324	0,048	0,076
-210,723	-22,363	0,057	0,025
-209,709	210,592	-0,029	-0,033
-208,694	23,917	0,040	-0,024
-207,679	427,874	-0,024	0,036
-206,665	800,000	0,027	-0,065
-205,650	-49,579	0,124	0,042
-204,636	26,745	0,128	0,076
-203,621	30,659	-0,011	0,007
-202,606	-200,000	0,037	-0,179
-201,592	800,000	0,036	-0,080
-200,577	-130,545	-0,024	-0,002
-199,563	-54,548	0,198	0,063
-198,548	568,877	-0,047	-0,082
-197,533	24,939	0,100	0,059
-196,519	400,515	-0,035	-0,052
-195,504	800,000	0,032	-0,075
-194,490	63,452	-0,080	-0,057
-193,475	704,493	0,095	-0,178
-192,460	211,941	-0,095	-0,107
-191,446	800,000	-0,041	0,114
-190,431	-200,000	-0,003	0,075
-189,417	66,570	-0,020	-0,015
-188,402	-83,094	-0,149	0,034
-187,387	-200,000	-0,007	0,052
-186,373	80,803	0,067	-0,051
-185,358	630,761	0,030	0,055
-184,344	328,215	0,009	0,012
-183,329	130,396	0,059	0,054
-182,315	800,000	-0,052	0,109
-181,300	-66,336	-0,047	-0,013
-180,285	161,713	-0,030	0,030
-179,271	800,000	0,017	0,051
-178,256	800,000	-0,009	0,026
-177,242	800,000	0,033	-0,069
-176,227	-200,000	-0,008	-0,032
-175,212	231,328	0,115	0,134
-174,198	-65,877	0,180	-0,051
-173,183	-8,936	0,040	0,019
-172,169	-88,584	0,154	-0,032
-171,154	83,392	-0,080	0,062
-170,139	-0,649	-0,043	0,022
-169,125	-119,073	0,090	-0,011
-168,110	194,406	0,029	-0,031
-167,096	79,672	-0,039	0,030
-166,081	-34,385	-0,024	-0,009
-165,066	-12,325	0,021	0,010
-164,052	-200,000	0,008	0,053
-163,037	373,548	-0,049	0,070
-162,023	317,274	-0,100	0,134
-161,008	82,258	-0,070	0,054
-159,993	800,000	-0,037	0,111
-158,979	259,384	0,054	-0,066
-157,964	-200,000	-0,004	-0,072
-156,950	-45,121	0,090	-0,032
-155,935	-11,777	0,012	-0,006
-154,920	631,761	-0,008	0,014
-153,906	-200,000	0,017	0,057
-152,891	-200,000	0,014	-0,106
-151,877	36,250	0,142	-0,089
-150,862	153,896	0,051	-0,050
-149,847	-29,099	-0,100	-0,040
-148,833	53,097	0,060	-0,040
-147,818	153,996	0,081	0,079
-146,804	179,455	0,033	-0,034
-145,789	259,846	0,073	-0,090
-144,775	72,354	-0,041	-0,030
-143,760	-18,813	-0,050	0,022
-142,745	-119,610	0,156	-0,019
-141,731	-20,430	0,110	-0,048
-140,716	477,369	0,103	0,166
-139,702	-200,000	0,016	-0,064
-138,687	-67,990	0,202	0,055
-137,672	63,727	-0,048	-0,034
-136,658	800,000	0,086	-0,258
-135,643	-144,466	-0,109	-0,007
-134,629	220,781	0,026	0,030
-133,614	-200,000	0,030	0,108
-132,599	-200,000	0,030	0,109
-131,585	356,633	0,044	0,062
-130,570	800,000	0,037	-0,078
-129,556	783,730	0,032	-0,062
-128,541	800,000	0,005	0,016
-127,526	-200,000	-0,017	-0,054
-126,512	-200,000	0,028	0,162
-125,497	-128,281	-0,085	0,009
-124,483	800,000	0,018	0,055
-123,468	-10,327	-0,074	-0,034
-122,453	-200,000	-0,001	-0,140
-121,439	-147,677	0,105	0,006
-120,424	223,795	0,095	-0,108
-119,410	-20,474	-0,036	-0,016
-118,395	-24,897	-0,009	-0,004
-117,380	-13,618	0,039	-0,018
-116,366	-200,000	0,013	0,062
-115,351	160,508	-0,057	-0,056
-114,337	343,092	-0,066	0,091
-113,322	87,805	-0,006	-0,005
-112,307	760,733	0,008	0,015
-111,293	-200,000	0,008	0,064
-110,278	494,908	-0,044	-0,072
-109,264	142,395	-0,071	0,067
-108,249	-200,000	0,008	0,079
-107,234	800,000	-0,043	-0,102
-106,220	102,330	-0,141	-0,116
-105,205	-200,000	0,060	-0,196
-104,191	-200,000	-0,016	-0,069
-103,176	800,000	-0,023	-0,045
-102,162	-0,951	-0,160	0,080
-101,147	-97,922	0,035	-0,006
-100,132	85,747	-0,081	0,063
-99,118	218,901	0,085	0,096
-98,103	20,080	0,086	-0,049
-97,089	194,176	0,049	0,053
-96,074	228,247	0,092	0,106
-95,059	-200,000	-0,001	-0,164
-94,045	27,725	0,159	0,094
-93,030	-11,728	-0,080	0,037
-92,016	-200,000	-0,019	0,082
-91,001	145,138	-0,056	0,053
-89,986	10,592	0,084	0,045
-88,972	69,186	-0,056	0,041
-87,957	-64,344	0,129	0,037
-86,943	-127,509	-0,089	-0,009
-85,928	-200,000	-0,011	-0,277
-84,913	187,297	-0,054	-0,057
-83,899	-200,000	0,010	-0,043
-82,884	-200,000	0,000	0,029
-81,870	-200,000	-0,001	0,147
-80,855	184,818	-0,022	-0,023
-79,840	126,711	0,042	-0,037
-78,826	-3,503	-0,134	-0,066
-77,811	-94,733	-0,040	-0,008
-76,797	-200,000	-0,012	0,175
-75,782	196,415	-0,050	0,054
-74,767	6,029	-0,052	0,027
-73,753	-90,952	0,096	0,019
-72,738	64,854	-0,035	-0,025
-71,724	-9,244	-0,178	-0,084
-70,709	-92,998	0,131	0,026
-69,694	-200,000	0,001	0,063
-68,680	145,939	-0,007	-0,006
-67,665	-200,000	0,026	-0,113
-66,651	-1,684	-0,065	-0,032
-65,636	117,519	0,061	-0,053
-64,622	-117,448	-0,105	-0,013
-63,607	-81,115	-0,128	0,030
-62,592	-200,000	0,012	0,117
-61,578	75,746	0,074	0,055
-60,563	90,407	-0,029	-0,023
-59,549	-200,000	-0,004	0,063
-58,534	5,351	-2,005	-1,041
-57,519	562,106	-1,220	-2,092
-56,505	-200,000	-0,465	-4,485
-55,490	464,454	0,961	1,522
-54,476	800,000	4,927	11,226
-53,461	-200,000	20,947	330,165
-52,446	800,000	758,006	2324,774
-51,432	549,446	1662,634	2824,477
-50,417	73,315	1663,839	1227,578
-49,403	18,626	1536,948	865,555
-48,388	12,637	1459,919	793,188
-47,373	19,058	1450,560	818,909
-46,359	15,743	1440,095	797,186
-45,344	10,946	1435,731	771,889
-44,330	10,836	1433,941	770,372
-43,315	10,872	1432,082	769,513
-42,300	10,887	1430,270	768,579
-41,286	10,906	1429,097	768,006
-40,271	10,842	1427,685	766,915
-39,257	10,850	1426,655	766,370
-38,242	10,863	1425,539	765,801
-37,227	10,844	1424,427	765,082
-36,213	10,865	1423,337	764,566
-35,198	10,887	1421,937	763,889
-34,184	10,954	1421,051	763,699
-33,169	10,856	1419,691	762,474
-32,154	10,904	1418,768	762,177
-31,140	10,911	1417,588	761,546
-30,125	10,974	1416,523	761,237
-29,111	10,978	1415,202	760,517
-28,096	10,946	1413,975	759,676
-27,082	10,837	1413,079	758,654
-26,067	10,870	1411,822	758,103
-25,052	10,914	1410,698	757,678
-24,038	10,869	1409,886	756,998
-23,023	10,828	1408,941	756,269
-22,009	10,825	1407,856	755,642
-20,994	10,794	1406,782	754,891
-19,979	10,804	1405,974	754,476
-18,965	10,816	1404,862	753,905
-17,950	10,774	1404,181	753,314
-16,936	10,773	1403,263	752,784
-15,921	10,757	1402,307	752,167
-14,906	10,730	1401,577	751,621
-13,892	10,773	1400,193	751,049
-12,877	10,807	1399,294	750,695
-11,863	10,723	1398,633	749,920
-10,848	10,713	1397,929	749,470
-9,833	10,678	1397,040	748,799
-8,819	10,660	1396,132	748,197
-7,804	10,640	1395,133	747,543
-6,790	10,673	1394,083	747,100
-5,775	10,669	1393,076	746,513
-4,760	10,712	1392,060	746,138
-3,746	10,684	1391,176	745,506
-2,731	10,712	1390,418	745,200
-1,717	10,650	1389,738	744,517
-0,702	10,711	1387,585	743,617
0,313	14,671	1301,128	715,439
1,327	30,907	692,219	417,522
2,342	47,869	119,991	78,926
3,356	1,566	16,414	8,307
4,371	11,264	3,442	1,853
5,386	-13,347	0,933	0,426
6,400	800,000	0,148	0,458
7,415	-155,620	-0,325	-0,014
8,429	183,095	-0,242	-0,252
9,444	74,767	-0,226	-0,168
10,459	61,471	-0,349	-0,244
11,473	51,953	-0,256	-0,172
12,488	11,750	-0,210	-0,113
13,502	-64,022	-0,199	-0,057
14,517	24,327	-0,264	-0,153
15,531	144,010	-0,297	-0,280
16,546	-15,042	-0,338	-0,152
17,561	128,916	-0,292	-0,262
18,575	78,933	-0,135	-0,102
19,590	15,128	-0,243	-0,134
20,604	107,295	-0,214	-0,179
21,619	185,768	-0,390	-0,409
22,634	37,984	-0,494	-0,309
23,648	-10,183	-0,371	-0,173
24,663	83,058	-0,434	-0,332
25,677	67,758	-0,289	-0,208
26,692	162,861	-0,211	-0,208
27,707	91,634	-0,357	-0,282
28,721	247,015	-0,389	-0,463
29,736	3,498	-0,372	-0,190
30,750	99,421	-0,436	-0,354
31,765	46,096	-0,430	-0,280
32,780	129,014	-0,243	-0,218
33,794	16,902	-0,415	-0,231
34,809	16,503	-0,348	-0,193
35,823	323,569	-0,268	-0,361
36,838	31,894	-0,516	-0,312
37,853	-17,447	-0,357	-0,157
38,867	81,587	-0,355	-0,270
39,882	69,769	-0,365	-0,265
40,896	68,498	-0,343	-0,247
41,911	72,223	-0,251	-0,184
42,926	-64,616	-0,376	-0,106
43,940	36,725	-0,470	-0,292
44,955	39,371	-0,285	-0,179
45,969	119,419	-0,288	-0,251
46,984	300,955	-0,224	-0,291
47,999	-45,688	-0,367	-0,127
49,013	8,149	-0,370	-0,195
50,028	-53,153	-0,449	-0,144
51,042	220,131	-0,308	-0,347
52,057	11,223	-0,420	-0,225
53,071	-43,668	-0,427	-0,150
54,086	114,263	-0,275	-0,235
55,101	-8,432	-0,342	-0,161
56,115	-22,224	-0,304	-0,129
57,130	80,922	-0,249	-0,188
58,144	98,550	-0,378	-0,306
59,159	23,931	-0,348	-0,201
60,174	-8,086	-0,265	-0,125
61,188	52,141	-0,367	-0,245
62,203	151,334	-0,222	-0,212
63,217	-77,501	-0,317	-0,076
64,232	93,828	-0,264	-0,210
65,247	123,094	-0,263	-0,231
66,261	9,763	-0,223	-0,118
67,276	23,530	-0,310	-0,179
68,290	42,975	-0,217	-0,139
69,305	145,937	-0,298	-0,280
70,320	217,529	-0,164	-0,184
71,334	-15,154	-0,322	-0,144
72,349	-160,568	-0,442	-0,016
73,363	53,425	-0,347	-0,233
74,378	101,162	-0,392	-0,319
75,393	493,966	-0,185	-0,298
76,407	112,884	-0,218	-0,185
77,422	-4,610	-0,353	-0,170
78,436	103,509	-0,216	-0,177
79,451	174,588	-0,311	-0,316
80,466	16,270	-0,308	-0,170
81,480	119,473	-0,328	-0,285
82,495	62,096	-0,222	-0,155
83,509	-96,525	-0,235	-0,043
84,524	63,407	-0,226	-0,158
85,539	284,480	-0,264	-0,333
86,553	181,686	-0,219	-0,226
87,568	24,124	-0,325	-0,187
88,582	176,498	-0,275	-0,280
89,597	100,501	-0,374	-0,304
90,611	68,299	-0,276	-0,198
91,626	-24,408	-0,283	-0,118
92,641	-35,648	-0,284	-0,107
93,655	53,509	-0,251	-0,168
94,670	132,523	-0,351	-0,317
95,684	-44,877	-0,362	-0,126
96,699	13,024	-0,325	-0,175
97,714	-58,406	-0,346	-0,105
98,728	257,835	-0,103	-0,124
99,743	104,024	-0,212	-0,174
100,757	271,592	-0,227	-0,280
101,772	11,313	-0,427	-0,228
102,787	383,036	-0,176	-0,254
103,801	105,954	-0,350	-0,290
104,816	194,974	-0,133	-0,142
105,830	1,295	-0,336	-0,168
106,845	114,971	-0,285	-0,243
107,860	642,001	-0,131	-0,235
108,874	-1,541	-0,292	-0,144
109,889	-21,687	-0,383	-0,162
110,903	67,227	-0,302	-0,215
111,918	93,513	-0,131	-0,104
112,933	266,634	-0,191	-0,233
113,947	61,287	-0,254	-0,176
114,962	106,641	-0,218	-0,181
115,976	105,271	-0,233	-0,192
116,991	34,476	-0,304	-0,185
118,006	-38,222	-0,343	-0,126
119,020	124,429	-0,211	-0,185
120,035	70,830	-0,296	-0,213
121,049	-14,239	-0,192	-0,086
122,064	-82,755	-0,431	-0,097
123,079	272,555	-0,126	-0,155
124,093	110,772	-0,263	-0,221
125,108	170,832	-0,233	-0,233
126,122	243,752	-0,298	-0,349
127,137	144,168	-0,208	-0,193
128,151	34,928	-0,245	-0,149
129,166	-99,843	-0,238	-0,041
130,181	39,045	-0,280	-0,174
131,195	135,731	-0,132	-0,120
132,210	-200,000	-0,098	-0,310
133,224	-35,461	-0,280	-0,106
134,239	-11,220	-0,218	-0,100
135,254	124,985	-0,250	-0,220
136,268	89,260	-0,183	-0,142
137,283	-10,443	-0,209	-0,096
138,297	88,937	-0,278	-0,216
139,312	69,157	-0,307	-0,220
140,327	260,688	-0,176	-0,213
141,341	115,409	-0,161	-0,137
142,356	-2,938	-0,299	-0,145
143,370	191,832	-0,168	-0,177
144,385	106,134	-0,325	-0,268
145,400	199,023	-0,213	-0,228
146,414	208,017	-0,233	-0,254
147,429	-17,949	-0,294	-0,128
148,443	-200,000	-0,077	-0,370
149,458	110,835	-0,164	-0,137
150,473	275,345	-0,264	-0,327
151,487	372,539	-0,136	-0,192
152,502	65,847	-0,151	-0,106
153,516	-28,751	-0,165	-0,066
154,531	183,178	-0,354	-0,364
155,546	-14,139	-0,175	-0,078
156,560	-124,718	-0,274	-0,029
157,575	-20,548	-0,200	-0,085
158,589	12,214	-0,224	-0,120
159,604	81,327	-0,240	-0,180
160,619	-0,676	-0,350	-0,172
161,633	-113,676	-0,274	-0,037
162,648	46,156	-0,205	-0,132
163,662	36,573	-0,229	-0,141
164,677	-30,805	-0,195	-0,076
165,692	50,309	-0,206	-0,135
166,706	63,845	-0,293	-0,205
167,721	33,754	-0,193	-0,116
168,735	111,208	-0,348	-0,291
169,750	79,898	-0,263	-0,197
170,764	93,419	-0,276	-0,217
171,779	75,317	-0,148	-0,109
172,794	317,892	-0,157	-0,207
173,808	-2,879	-0,161	-0,078
174,823	87,772	-0,244	-0,187
175,837	-28,267	-0,348	-0,139
176,852	-48,686	-0,224	-0,074
177,867	-9,399	-0,142	0,066
178,881	45,900	-0,230	-0,148
179,896	86,468	-0,206	-0,158
180,910	-67,023	-0,223	-0,061
181,925	-15,510	-0,251	-0,111
182,940	74,622	-0,200	-0,146
183,954	461,636	-0,164	-0,254
184,969	45,072	-0,172	-0,110
185,983	800,000	-0,025	-0,071
186,998	769,536	-0,054	-0,102
188,013	114,654	-0,197	-0,167
189,027	452,539	-0,162	-0,250
190,042	800,000	-0,117	-0,286
191,056	169,997	-0,213	-0,212
192,071	-33,444	-0,276	-0,106
193,086	-68,591	-0,223	0,060
194,100	31,984	-0,229	-0,137
195,115	250,725	-0,098	-0,116
196,129	0,298	-0,299	-0,148
197,144	432,188	-0,240	-0,362
198,159	20,067	-0,164	-0,092
199,173	238,887	-0,154	-0,177
200,188	800,000	-0,153	-0,375
201,202	38,142	-0,274	-0,169
202,217	320,783	-0,128	-0,170
203,232	365,691	-0,146	-0,205
204,246	33,045	-0,234	-0,141
205,261	42,120	-0,197	-0,124
206,275	218,479	-0,227	-0,251
207,290	-36,800	-0,236	-0,087
208,304	267,272	-0,169	-0,206
209,319	-145,165	-0,182	-0,011
210,334	30,530	-0,086	-0,051
211,348	800,000	-0,116	-0,228
212,363	344,501	-0,171	-0,232
213,377	233,431	-0,164	-0,187
214,392	38,522	-0,065	-0,040
215,407	129,919	-0,143	-0,127
216,421	-8,684	-0,136	-0,063
217,436	273,862	-0,143	-0,175
218,450	-104,188	-0,333	0,053
219,465	-4,800	-0,301	-0,143
220,480	-81,864	-0,265	-0,060
221,494	-43,349	-0,133	-0,046
222,509	36,578	-0,164	-0,100
223,523	65,759	-0,173	-0,121
224,538	-26,991	-0,246	-0,099
225,553	448,730	-0,200	-0,305
226,567	143,895	-0,260	-0,240
227,582	165,156	-0,264	-0,259
228,596	398,883	-0,046	-0,067
229,611	51,532	-0,216	-0,142
230,626	19,362	-0,213	-0,118
231,640	166,707	-0,124	-0,122
232,655	-103,407	-0,184	-0,030
233,669	604,860	-0,139	-0,241
234,684	-42,562	-0,190	-0,067
235,699	43,195	-0,165	-0,104
236,713	-79,965	-0,193	-0,044
237,728	127,479	-0,137	-0,120
238,742	-105,422	-0,244	-0,038
239,757	120,272	-0,185	-0,159
240,772	216,666	-0,230	-0,254
241,786	117,931	-0,199	-0,169
242,801	49,980	-0,202	-0,131
243,815	-49,430	-0,167	0,055
244,830	-43,624	-0,137	-0,048
245,844	-62,245	-0,149	0,043
246,859	-176,134	-0,190	-0,003
247,874	370,206	-0,078	-0,109
248,888	16,438	-0,199	-0,108
249,903	140,587	-0,101	-0,092
250,917	-28,212	-0,094	-0,037
251,932	193,639	-0,128	-0,134
252,947	323,112	-0,044	-0,058
253,961	-37,541	-0,215	-0,079
254,976	135,241	-0,175	-0,157
255,990	-200,000	-0,084	-0,301
257,005	51,954	-0,135	-0,089
258,020	-31,204	-0,293	-0,113
259,034	-14,342	-0,254	-0,113
260,049	-92,311	-0,168	-0,032
261,063	106,283	-0,210	-0,172
262,078	307,014	-0,123	-0,159
263,093	800,000	-0,116	-0,227
264,107	800,000	-0,079	-0,198
265,122	-92,058	-0,177	-0,034
266,136	31,940	-0,207	-0,123
267,151	64,258	-0,189	-0,131
268,166	44,362	-0,146	-0,092
269,180	-68,656	-0,178	-0,047
270,195	173,176	-0,179	-0,178
271,209	67,429	-0,220	-0,155
272,224	-2,897	-0,167	-0,080
273,239	-93,976	-0,146	0,027
274,253	-16,653	-0,137	-0,059
275,268	-6,826	-0,207	-0,097
276,282	147,241	-0,181	-0,168
277,297	-13,071	-0,270	-0,121
278,312	72,860	-0,228	-0,164
279,326	34,165	-0,193	-0,116
280,341	-121,555	-0,121	-0,014
281,355	-174,996	-0,076	-0,001
282,370	-120,757	-0,217	-0,025
283,384	-123,430	-0,231	0,025
284,399	100,483	-0,166	-0,133
285,414	132,040	-0,153	-0,135
286,428	-0,496	-0,067	-0,033
287,443	-91,978	-0,155	0,030
288,457	70,031	-0,184	-0,131
289,472	121,734	-0,096	-0,082
290,487	-64,710	-0,212	-0,059
291,501	-73,436	-0,214	-0,053
292,516	325,899	-0,151	-0,199
293,530	369,668	-0,167	-0,234
294,545	-53,479	-0,169	-0,053
295,560	286,873	-0,107	-0,133
296,574	-63,331	-0,102	0,029
297,589	52,232	-0,147	-0,096
298,603	-75,224	-0,093	0,023
299,618	-200,000	-0,018	-0,133
300,633	800,000	-0,101	-0,234
301,647	13,292	-0,195	-0,103
302,662	23,411	-0,143	-0,080
303,676	56,894	-0,166	-0,111
304,691	151,776	-0,108	-0,102
305,706	163,438	-0,108	-0,104
306,720	-158,805	-0,142	0,005
307,735	-6,123	-0,139	-0,065
308,749	137,102	-0,124	-0,112
309,764	-22,344	-0,131	-0,054
310,779	318,553	-0,104	-0,136
311,793	508,247	-0,132	-0,211
312,808	-200,000	-0,023	-0,203
313,822	44,767	-0,148	-0,094
314,837	278,674	-0,219	-0,268
315,852	-200,000	0,011	-0,158
316,866	-78,835	-0,068	-0,016
317,881	91,332	-0,106	-0,081
318,895	-32,961	-0,130	-0,049
319,910	377,378	-0,038	-0,054
320,925	64,620	-0,154	-0,106
321,939	-200,000	-0,007	-0,109
322,954	-15,879	-0,075	0,033
323,968	-134,373	-0,100	-0,008
324,983	177,085	-0,077	-0,077
325,997	101,123	-0,158	-0,126
327,012	-95,359	-0,081	-0,015
328,027	30,782	-0,228	-0,133
329,041	190,485	-0,153	-0,158
330,056	800,000	-0,063	-0,124
331,070	-200,000	-0,015	-0,139
332,085	800,000	-0,066	-0,196
333,100	25,466	-0,191	-0,109
334,114	-0,884	-0,255	-0,123
335,129	-18,250	-0,243	-0,104
336,143	-194,460	-0,207	-0,001
337,158	-72,512	-0,177	0,044
338,173	-49,986	-0,146	0,047
339,187	160,828	-0,105	-0,101
340,202	800,000	-0,047	-0,117
341,216	-109,359	-0,147	0,021
342,231	316,717	-0,123	-0,160
343,246	800,000	-0,097	-0,229
344,260	800,000	-0,067	-0,167
345,275	800,000	-0,080	-0,233
346,289	426,893	-0,079	-0,118
347,304	-175,857	-0,168	0,003
348,319	504,649	-0,113	-0,179
349,333	-200,000	-0,037	-0,158
350,348	231,285	-0,086	-0,097
351,362	74,202	-0,234	-0,168
352,377	10,441	-0,103	0,054
353,392	-177,345	-0,215	0,004
354,406	800,000	-0,058	-0,142
355,421	206,100	1309,639	1395,427
356,435	158,498	1469,715	1395,929
