DTS Sentinel unit serial number:	SN410029Multiplexer serial number:	ORYXHardware model number:	OX2-SRSoftware version number:	ORYX F/W v4,00 Oryx Data Collector v3.7.2.0data status	okinstallation	B3 Nyhavnadifferential loss correction	single-endedforward channel	channel 1reverse channel	N/Adate	2023/12/03time	03:02:30forward acquisition time	300,00reverse acquisition time	0,00gamma	499,1914k internal	0,3201k external	0,3201temperature offset calibration	1,0000default loss term (dB/km)	0,3820temperature slope calibration	1,0000multiplexer offset coefficient	1,0000multiplexer slope coefficient	1,0000fibre end	0,00T internal ref (°C)	13,32T ext. ref 1 (°C)	-1,64T ext. ref 2 (°C)	-1,65length (m)	temperature (°C)	Stokes	anti-Stokes-744,400	-59,254	-0,335	-0,104
-743,385	-200,000	0,053	0,178
-742,371	131,581	-0,214	-0,200
-741,356	800,000	0,090	0,282
-740,342	95,174	-0,232	-0,192
-739,327	800,000	-0,132	0,290
-738,312	50,387	-0,212	-0,146
-737,298	-200,000	0,009	0,189
-736,283	800,000	-0,078	-0,194
-735,269	800,000	0,114	0,274
-734,254	266,021	-0,143	-0,182
-733,239	-97,550	-0,336	0,063
-732,225	78,889	-0,114	-0,089
-731,210	223,043	0,098	0,115
-730,196	-8,618	-0,159	-0,077
-729,181	250,027	-0,079	-0,098
-728,167	-52,984	-0,098	0,033
-727,152	800,000	0,044	0,139
-726,137	-81,511	-0,124	0,029
-725,123	-104,439	-0,111	-0,018
-724,108	800,000	0,036	0,085
-723,094	-67,934	-0,182	0,051
-722,079	-56,702	-0,044	-0,014
-721,064	-30,143	0,090	-0,037
-720,050	800,000	0,022	0,069
-719,035	52,719	0,055	-0,038
-718,021	60,470	0,066	-0,048
-717,006	-180,822	-0,148	0,002
-715,991	-93,417	-0,103	0,020
-714,977	138,722	0,023	-0,022
-713,962	108,284	-0,094	0,081
-712,948	-80,264	-0,096	-0,023
-711,933	97,198	0,073	0,061
-710,918	459,914	0,035	0,057
-709,904	93,546	-0,077	0,063
-708,889	-80,697	-0,061	0,015
-707,875	-68,875	0,184	-0,051
-706,860	-74,797	-0,227	0,059
-705,845	248,424	0,056	0,069
-704,831	-140,606	-0,119	0,009
-703,816	169,887	-0,062	-0,064
-702,802	800,000	0,071	0,177
-701,787	-45,841	-0,023	-0,008
-700,772	-200,000	-0,035	-0,154
-699,758	172,593	0,030	0,031
-698,743	-121,977	0,040	-0,005
-697,729	-108,708	-0,065	-0,010
-696,714	-200,000	0,009	0,101
-695,699	8,560	-0,051	-0,028
-694,685	-200,000	-0,019	-0,177
-693,670	800,000	-0,040	-0,123
-692,656	-117,578	0,139	0,018
-691,641	205,858	-0,081	-0,092
-690,627	-200,000	0,009	-0,122
-689,612	-200,000	0,013	0,117
-688,597	-200,000	0,008	-0,029
-687,583	-200,000	-0,025	-0,165
-686,568	302,906	-0,021	-0,029
-685,554	800,000	0,034	-0,086
-684,539	8,276	-0,047	-0,025
-683,524	800,000	-0,030	-0,062
-682,510	800,000	0,051	-0,148
-681,495	-200,000	-0,041	0,140
-680,481	47,655	-0,091	0,061
-679,466	-200,000	0,005	-0,075
-678,451	-200,000	0,027	-0,112
-677,437	-48,527	-0,050	-0,017
-676,422	-41,729	-0,073	0,027
-675,408	228,662	-0,127	-0,151
-674,393	-200,000	-0,006	-0,036
-673,378	-22,408	0,075	-0,033
-672,364	-200,000	-0,061	-0,205
-671,349	800,000	-0,071	-0,193
-670,335	104,574	0,105	0,089
-669,320	-128,958	0,069	0,007
-668,305	-200,000	0,024	0,104
-667,291	326,103	-0,069	-0,096
-666,276	-200,000	-0,015	0,129
-665,262	-104,065	0,020	-0,003
-664,247	800,000	0,032	-0,097
-663,232	-44,341	-0,016	0,006
-662,218	99,974	0,010	0,009
-661,203	-57,137	-0,101	0,032
-660,189	-85,664	-0,057	0,013
-659,174	-102,608	-0,077	0,013
-658,159	172,661	-0,098	-0,102
-657,145	372,938	-0,122	-0,180
-656,130	-166,580	-0,010	0,000
-655,116	-200,000	0,029	-0,108
-654,101	800,000	-0,011	0,035
-653,086	-59,951	0,169	-0,052
-652,072	162,022	-0,052	0,052
-651,057	273,188	-0,068	-0,088
-650,043	763,713	-0,078	-0,155
-649,028	168,498	-0,095	-0,098
-648,014	56,383	0,116	-0,082
-646,999	-99,546	0,102	0,018
-645,984	66,695	0,081	-0,060
-644,970	80,352	0,128	-0,099
-643,955	-38,782	-0,108	-0,041
-642,941	-76,423	-0,098	-0,025
-641,926	-25,924	0,040	-0,017
-640,911	473,399	-0,023	0,038
-639,897	142,520	-0,028	-0,027
-638,882	74,735	-0,100	0,076
-637,868	800,000	-0,024	0,066
-636,853	-45,075	0,040	0,014
-635,838	-73,738	-0,074	0,019
-634,824	-136,932	-0,114	-0,009
-633,809	800,000	0,022	0,048
-632,795	15,754	-0,071	0,040
-631,780	-200,000	-0,004	0,075
-630,765	158,621	0,078	-0,078
-629,751	800,000	-0,083	-0,177
-628,736	57,148	0,036	-0,025
-627,722	100,661	0,218	-0,183
-626,707	226,916	0,031	0,037
-625,692	-200,000	0,014	0,079
-624,678	-200,000	-0,023	-0,132
-623,663	-200,000	-0,013	0,092
-622,649	-200,000	0,016	-0,136
-621,634	-6,830	-0,041	-0,020
-620,619	-200,000	-0,041	-0,140
-619,605	-200,000	-0,036	-0,141
-618,590	204,883	0,052	0,058
-617,576	-200,000	0,034	0,132
-616,561	-134,175	-0,067	0,006
-615,546	-200,000	-0,005	0,069
-614,532	46,422	0,083	0,056
-613,517	-200,000	-0,022	-0,114
-612,503	5,231	-0,134	-0,071
-611,488	-5,807	-0,040	0,020
-610,474	-200,000	0,003	0,145
-609,459	-200,000	0,031	-0,106
-608,444	800,000	-0,065	-0,147
-607,430	-200,000	-0,002	-0,046
-606,415	-200,000	0,007	-0,092
-605,401	-182,796	-0,028	-0,000
-604,386	-46,391	0,057	0,020
-603,371	800,000	0,014	0,043
-602,357	191,764	-0,119	0,130
-601,342	81,136	0,074	0,058
-600,328	596,824	-0,182	-0,328
-599,313	430,629	-0,014	-0,022
-598,298	512,654	-0,107	-0,181
-597,284	8,793	0,016	-0,008
-596,269	156,138	0,030	-0,030
-595,255	-74,145	0,108	0,028
-594,240	372,812	-0,053	-0,078
-593,225	198,155	0,094	-0,104
-592,211	800,000	-0,059	-0,177
-591,196	23,823	-0,102	-0,061
-590,182	22,078	0,136	0,080
-589,167	-123,064	0,100	0,012
-588,152	41,529	0,079	0,051
-587,138	138,822	-0,046	0,044
-586,123	-200,000	-0,005	-0,164
-585,109	-200,000	0,053	-0,175
-584,094	114,659	0,103	-0,091
-583,079	-2,363	0,070	-0,035
-582,065	147,731	-0,054	-0,053
-581,050	287,963	0,018	-0,024
-580,036	199,299	-0,152	0,168
-579,021	-17,696	-0,049	0,022
-578,006	27,089	-0,147	0,089
-576,992	237,063	0,105	-0,126
-575,977	-163,262	-0,030	0,001
-574,963	109,397	0,148	0,128
-573,948	13,135	-0,125	-0,070
-572,934	-200,000	-0,018	-0,161
-571,919	-26,592	-0,148	-0,062
-570,904	-1,787	0,044	-0,022
-569,890	170,455	-0,041	0,043
-568,875	143,309	-0,038	0,036
-567,861	-200,000	0,031	0,274
-566,846	-200,000	0,005	0,050
-565,831	800,000	-0,038	-0,091
-564,817	-111,605	-0,174	-0,025
-563,802	-164,168	0,058	-0,002
-562,788	137,508	-0,118	0,111
-561,773	88,174	-0,128	-0,102
-560,758	-200,000	0,044	0,177
-559,744	248,244	0,079	0,097
-558,729	-35,414	-0,069	-0,027
-557,715	-200,000	-0,024	0,090
-556,700	-174,214	0,109	0,002
-555,685	42,997	-0,079	0,052
-554,671	-63,146	-0,013	-0,004
-553,656	158,767	0,080	0,080
-552,642	-32,732	0,039	-0,016
-551,627	-200,000	0,049	-0,000
-550,612	-200,000	-0,021	0,094
-549,598	151,217	0,073	-0,072
-548,583	800,000	-0,016	0,050
-547,569	110,294	0,040	0,035
-546,554	202,873	0,089	0,100
-545,539	-200,000	0,005	0,116
-544,525	491,035	0,035	0,058
-543,510	-170,272	0,076	-0,002
-542,496	117,339	0,045	-0,040
-541,481	-96,543	0,137	-0,026
-540,466	43,820	-0,087	-0,057
-539,452	511,661	-0,023	-0,039
-538,437	-85,577	0,133	-0,030
-537,423	187,843	-0,119	0,128
-536,408	-200,000	0,021	-0,119
-535,393	-47,886	0,051	0,018
-534,379	422,386	-0,076	-0,118
-533,364	487,188	-0,089	-0,146
-532,350	225,221	0,061	0,072
-531,335	800,000	-0,039	0,084
-530,321	800,000	0,029	-0,092
-529,306	-52,398	-0,070	-0,023
-528,291	-34,723	-0,067	0,026
-527,277	-200,000	-0,001	-0,105
-526,262	800,000	-0,035	-0,102
-525,248	-90,926	-0,125	-0,026
-524,233	-14,853	0,048	0,022
-523,218	436,774	0,032	0,051
-522,204	-189,853	-0,145	0,001
-521,189	-200,000	-0,019	-0,093
-520,175	-200,000	-0,001	-0,087
-519,160	688,927	0,047	-0,088
-518,145	-41,167	-0,051	-0,019
-517,131	150,940	0,025	0,024
-516,116	-200,000	-0,004	0,020
-515,102	154,157	-0,089	0,088
-514,087	-200,000	0,013	0,095
-513,072	-25,129	-0,081	0,034
-512,058	-167,894	-0,084	0,002
-511,043	-200,000	-0,004	0,106
-510,029	800,000	-0,031	0,070
-509,014	-157,407	0,161	-0,007
-507,999	-200,000	-0,001	0,125
-506,985	-200,000	-0,022	-0,100
-505,970	-22,255	-0,168	0,073
-504,956	-200,000	0,019	-0,122
-503,941	-106,560	0,107	0,017
-502,926	75,676	0,140	-0,107
-501,912	172,315	0,025	0,026
-500,897	46,692	0,078	0,052
-499,883	53,718	0,088	-0,061
-498,868	-47,266	-0,074	-0,026
-497,853	234,030	0,071	0,084
-496,839	-200,000	-0,033	0,148
-495,824	-107,107	0,052	0,008
-494,810	513,235	0,098	0,165
-493,795	167,055	-0,027	0,027
-492,781	0,183	-0,126	0,065
-491,766	-30,586	0,051	-0,021
-490,751	-97,667	-0,062	-0,011
-489,737	136,321	-0,073	-0,068
-488,722	253,050	0,066	0,081
-487,708	501,751	0,073	0,121
-486,693	-50,488	-0,118	0,040
-485,678	89,372	0,060	0,048
-484,664	-200,000	-0,018	-0,071
-483,649	-86,935	-0,038	-0,008
-482,635	-200,000	-0,020	0,133
-481,620	430,422	-0,045	0,070
-480,605	-200,000	-0,007	0,206
-479,591	644,136	0,042	-0,078
-478,576	628,058	0,053	0,097
-477,562	146,180	-0,060	-0,058
-476,547	-23,720	0,113	-0,048
-475,532	-155,811	-0,173	-0,008
-474,518	-99,260	-0,054	0,010
-473,503	137,853	-0,056	0,053
-472,489	210,007	0,081	0,092
-471,474	800,000	-0,045	0,103
-470,459	194,471	-0,132	-0,144
-469,445	35,894	-0,141	-0,089
-468,430	-155,895	0,023	0,001
-467,416	-44,682	0,014	0,005
-466,401	-53,857	0,086	0,028
-465,386	-200,000	-0,004	0,113
-464,372	-89,708	-0,098	0,020
-463,357	-200,000	0,023	0,138
-462,343	-6,687	-0,135	-0,066
-461,328	563,733	-0,035	0,060
-460,313	800,000	0,042	0,124
-459,299	169,485	-0,051	-0,053
-458,284	56,554	0,084	0,059
-457,270	8,034	0,094	0,051
-456,255	770,330	0,039	-0,077
-455,241	84,533	0,036	-0,029
-454,226	3,911	-0,063	-0,033
-453,211	-126,551	-0,078	0,008
-452,197	-136,756	0,110	-0,009
-451,182	-128,184	0,030	-0,003
-450,168	102,757	-0,049	-0,042
-449,153	436,583	0,042	-0,066
-448,138	277,857	-0,073	0,093
-447,124	500,987	-0,078	-0,130
-446,109	116,239	0,157	0,138
-445,095	19,893	-0,008	-0,005
-444,080	-200,000	-0,013	-0,074
-443,065	719,646	-0,069	0,132
-442,051	94,250	0,156	0,127
-441,036	118,548	-0,058	0,051
-440,022	-200,000	-0,019	-0,177
-439,007	155,694	-0,050	0,050
-437,992	-141,431	0,085	0,006
-436,978	72,392	-0,026	-0,019
-435,963	-200,000	0,018	0,093
-434,949	357,134	-0,015	0,022
-433,934	-101,209	-0,050	0,009
-432,919	-200,000	-0,011	0,063
-431,905	773,528	-0,059	-0,115
-430,890	-130,599	0,032	-0,003
-429,876	-124,078	0,136	-0,015
-428,861	-200,000	-0,002	0,095
-427,846	31,640	-0,071	0,044
-426,832	-130,739	-0,071	0,007
-425,817	512,680	0,030	-0,051
-424,803	-124,903	0,102	0,011
-423,788	-160,286	0,041	-0,002
-422,773	-140,861	0,029	-0,002
-421,759	800,000	-0,013	0,036
-420,744	119,563	-0,098	0,087
-419,730	-200,000	-0,016	-0,062
-418,715	371,530	0,025	-0,036
-417,701	179,501	-0,126	0,133
-416,686	-200,000	-0,006	0,165
-415,671	800,000	0,048	0,113
-414,657	197,118	-0,056	0,061
-413,642	-141,675	-0,033	-0,002
-412,628	67,772	0,106	-0,077
-411,613	62,025	-0,089	0,064
-410,598	541,355	-0,043	-0,073
-409,584	-200,000	0,002	-0,079
-408,569	534,927	0,037	0,064
-407,555	-135,277	-0,030	-0,003
-406,540	-70,619	0,042	-0,011
-405,525	26,839	-0,077	0,046
-404,511	39,610	-0,050	-0,032
-403,496	800,000	-0,041	-0,085
-402,482	-200,000	-0,008	0,108
-401,467	-73,683	0,065	-0,017
-400,452	675,972	0,031	-0,058
-399,438	790,018	-0,038	0,075
-398,423	100,236	-0,078	-0,065
-397,409	196,555	0,037	0,041
-396,394	364,617	-0,038	-0,055
-395,379	-39,253	-0,110	-0,041
-394,365	-77,378	0,096	0,024
-393,350	186,814	-0,113	-0,121
-392,336	195,041	-0,041	-0,045
-391,321	-117,682	-0,051	-0,007
-390,306	532,155	-0,026	-0,045
-389,292	-200,000	-0,000	-0,028
-388,277	-200,000	0,033	-0,179
-387,263	800,000	0,037	-0,074
-386,248	-200,000	0,006	0,021
-385,233	-160,234	-0,075	0,003
-384,219	103,125	0,015	0,013
-383,204	-96,806	-0,091	-0,017
-382,190	-125,760	-0,063	-0,007
-381,175	17,920	-0,012	0,007
-380,160	224,395	-0,084	-0,098
-379,146	-200,000	-0,011	-0,144
-378,131	3,464	-0,014	0,007
-377,117	-40,685	-0,007	0,002
-376,102	-200,000	-0,007	-0,135
-375,088	39,789	-0,090	0,058
-374,073	800,000	-0,069	-0,161
-373,058	395,179	-0,014	0,021
-372,044	788,802	-0,026	0,051
-371,029	380,671	0,021	0,031
-370,015	76,136	-0,037	0,028
-369,000	34,548	-0,090	-0,056
-367,985	23,949	0,071	0,042
-366,971	489,488	0,025	-0,041
-365,956	-167,140	0,063	0,002
-364,942	800,000	-0,025	-0,055
-363,927	-96,155	-0,027	0,005
-362,912	-27,014	0,127	-0,053
-361,898	470,105	-0,042	0,068
-360,883	216,741	-0,104	-0,118
-359,869	-200,000	0,018	-0,062
-358,854	-200,000	0,006	0,096
-357,839	-200,000	-0,013	-0,043
-356,825	800,000	0,037	0,081
-355,810	36,308	-0,065	-0,041
-354,796	-200,000	-0,005	-0,058
-353,781	-200,000	0,052	-0,164
-352,766	-102,069	-0,120	-0,020
-351,752	111,708	-0,085	0,073
-350,737	800,000	0,015	-0,033
-349,723	371,742	0,057	0,083
-348,708	-200,000	0,012	-0,119
-347,693	800,000	0,044	-0,089
-346,679	-200,000	-0,006	0,099
-345,664	49,140	0,021	0,014
-344,650	120,491	-0,011	0,010
-343,635	299,832	-0,024	-0,032
-342,620	800,000	-0,052	0,115
-341,606	307,084	0,069	-0,092
-340,591	-72,616	0,043	-0,011
-339,577	800,000	-0,030	-0,067
-338,562	-80,789	0,014	-0,003
-337,548	800,000	-0,026	0,053
-336,533	217,508	0,073	-0,083
-335,518	50,924	-0,122	0,083
-334,504	-51,862	0,170	0,056
-333,489	800,000	-0,030	-0,077
-332,475	132,253	-0,119	-0,110
-331,460	-200,000	-0,009	-0,226
-330,445	292,955	-0,064	-0,083
-329,431	-69,009	0,083	0,023
-328,416	800,000	0,043	0,124
-327,402	-200,000	-0,003	0,223
-326,387	-77,821	0,076	-0,019
-325,372	-200,000	-0,015	0,064
-324,358	-69,256	-0,164	0,045
-323,343	338,398	0,069	0,097
-322,329	44,628	0,144	0,095
-321,314	101,247	0,032	0,027
-320,299	800,000	-0,040	0,116
-319,285	-39,233	0,090	0,034
-318,270	240,343	0,019	-0,022
-317,256	-114,603	-0,070	0,009
-316,241	-2,170	0,130	0,065
-315,226	451,620	-0,012	-0,020
-314,212	180,535	0,107	0,113
-313,197	144,109	0,137	0,130
-312,183	199,829	-0,076	-0,083
-311,168	35,848	-0,079	-0,049
-310,153	800,000	-0,038	0,119
-309,139	-9,992	0,116	-0,055
-308,124	-200,000	0,012	-0,179
-307,110	-21,134	-0,058	-0,025
-306,095	-17,903	-0,053	-0,024
-305,080	-200,000	0,002	-0,020
-304,066	-6,134	-0,115	-0,056
-303,051	601,689	-0,010	0,017
-302,037	-108,318	0,145	0,022
-301,022	-80,745	0,130	-0,031
-300,008	800,000	-0,007	0,015
-298,993	419,901	0,041	-0,064
-297,978	198,224	0,080	0,087
-296,964	160,819	-0,134	0,134
-295,949	113,312	0,054	-0,047
-294,935	40,917	-0,066	-0,043
-293,920	-8,300	0,106	0,051
-292,905	707,706	-0,038	0,072
-291,891	-98,059	0,106	0,019
-290,876	-200,000	-0,028	-0,098
-289,862	-200,000	-0,018	-0,172
-288,847	-161,043	-0,031	0,001
-287,832	-64,083	0,074	0,021
-286,818	800,000	-0,026	0,062
-285,803	800,000	0,025	0,058
-284,789	-200,000	-0,004	0,114
-283,774	265,286	0,072	-0,090
-282,759	20,740	-0,136	-0,078
-281,745	272,702	0,046	0,058
-280,730	-134,470	-0,106	-0,009
-279,716	-200,000	0,018	0,062
-278,701	146,494	0,067	-0,064
-277,686	142,607	-0,112	-0,106
-276,672	37,174	0,159	0,101
-275,657	800,000	-0,027	-0,059
-274,643	60,509	0,054	-0,038
-273,628	662,470	0,066	-0,121
-272,613	-16,979	-0,077	0,035
-271,599	298,970	0,055	0,072
-270,584	-200,000	-0,013	0,082
-269,570	-41,991	0,060	0,022
-268,555	-200,000	-0,013	-0,053
-267,540	800,000	-0,022	-0,055
-266,526	129,080	0,019	0,017
-265,511	-118,961	0,071	-0,009
-264,497	-47,166	-0,205	-0,071
-263,482	-69,574	0,077	0,021
-262,467	800,000	0,049	-0,106
-261,453	800,000	0,049	-0,148
-260,438	318,914	0,048	-0,065
-259,424	-181,401	0,068	0,001
-258,409	800,000	-0,049	-0,124
-257,395	538,617	0,069	-0,117
-256,380	-200,000	0,016	0,075
-255,365	800,000	0,040	0,120
-254,351	652,276	0,041	0,075
-253,336	800,000	0,043	0,104
-252,322	114,197	-0,037	-0,032
-251,307	244,826	0,094	-0,113
-250,292	521,134	0,029	0,048
-249,278	-39,334	0,135	0,050
-248,263	-200,000	0,023	0,223
-247,249	-200,000	0,007	0,039
-246,234	-91,882	0,094	-0,019
-245,219	800,000	-0,031	-0,081
-244,205	-54,973	0,081	0,026
-243,190	-34,457	-0,052	0,020
-242,176	-151,425	-0,090	0,005
-241,161	-32,940	0,033	0,013
-240,146	106,640	0,055	-0,047
-239,132	198,418	0,085	-0,092
-238,117	-146,738	-0,033	0,002
-237,103	112,088	0,083	0,072
-236,088	90,204	0,027	0,021
-235,073	-200,000	-0,002	0,146
-234,059	8,133	0,090	0,048
-233,044	-200,000	-0,008	0,056
-232,030	154,386	-0,124	-0,121
-231,015	-37,996	0,043	-0,016
-230,000	-165,633	-0,122	-0,004
-228,986	800,000	0,033	-0,084
-227,971	-200,000	-0,017	0,135
-226,957	593,112	0,035	-0,061
-225,942	-200,000	0,000	-0,058
-224,927	189,610	-0,045	0,049
-223,913	-21,751	0,040	-0,017
-222,898	-134,441	-0,088	-0,008
-221,884	132,506	-0,052	0,048
-220,869	694,744	0,014	0,026
-219,855	-134,434	0,082	0,007
-218,840	-200,000	0,021	0,168
-217,825	128,716	0,112	-0,102
-216,811	-200,000	0,039	-0,145
-215,796	-200,000	-0,040	0,135
-214,782	374,472	-0,078	-0,113
-213,767	705,716	0,029	0,054
-212,752	658,804	-0,090	0,166
-211,738	-200,000	0,033	0,145
-210,723	800,000	0,029	0,088
-209,709	-200,000	0,000	0,072
-208,694	43,834	-0,118	-0,077
-207,679	-200,000	-0,017	-0,067
-206,665	143,554	0,033	-0,031
-205,650	800,000	0,053	0,107
-204,636	-200,000	-0,014	0,075
-203,621	-30,464	0,036	0,015
-202,606	-200,000	-0,000	-0,077
-201,592	-44,210	-0,010	-0,003
-200,577	-33,754	0,026	0,010
-199,563	-10,944	0,086	-0,040
-198,548	541,022	0,057	0,097
-197,533	75,385	-0,018	-0,013
-196,519	-200,000	-0,029	0,108
-195,504	14,384	-0,186	-0,103
-194,490	81,594	-0,019	-0,014
-193,475	-200,000	0,018	-0,132
-192,460	-50,166	0,112	-0,038
-191,446	-24,875	0,042	-0,018
-190,431	158,181	0,128	0,126
-189,417	800,000	0,048	0,140
-188,402	-200,000	0,010	0,045
-187,387	-37,352	0,054	0,021
-186,373	145,355	-0,082	-0,079
-185,358	-200,000	0,016	-0,074
-184,344	342,805	-0,048	-0,068
-183,329	156,319	0,127	0,124
-182,315	-200,000	0,008	0,028
-181,300	-200,000	0,004	-0,049
-180,285	-124,986	-0,049	-0,005
-179,271	-200,000	-0,019	-0,103
-178,256	-85,813	0,070	0,015
-177,242	-31,541	0,068	-0,027
-176,227	-200,000	-0,008	0,189
-175,212	-19,504	0,126	-0,055
-174,198	30,706	0,041	-0,025
-173,183	-200,000	-0,007	-0,113
-172,169	-200,000	-0,043	-0,158
-171,154	800,000	-0,032	-0,081
-170,139	800,000	0,018	-0,041
-169,125	125,981	0,029	0,026
-168,110	80,410	0,079	0,061
-167,096	-55,170	-0,112	0,036
-166,081	-180,029	-0,091	-0,001
-165,066	612,488	-0,044	-0,079
-164,052	1,347	0,047	0,024
-163,037	-37,922	0,124	-0,047
-162,023	86,764	-0,123	0,096
-161,008	140,268	-0,097	0,091
-159,993	242,907	0,084	-0,100
-158,979	-99,746	0,054	0,009
-157,964	-4,281	-0,049	0,024
-156,950	800,000	-0,019	-0,040
-155,935	162,734	0,099	0,099
-154,920	100,626	-0,061	0,050
-153,906	-200,000	0,020	0,100
-152,891	143,514	0,115	0,109
-151,877	-56,764	0,042	0,013
-150,862	-174,544	-0,102	0,002
-149,847	800,000	-0,020	-0,044
-148,833	-175,786	-0,135	-0,003
-147,818	-8,076	-0,095	-0,046
-146,804	-200,000	0,010	0,095
-145,789	800,000	0,059	0,178
-144,775	-200,000	0,007	-0,024
-143,760	-144,408	-0,031	0,002
-142,745	-200,000	-0,018	-0,172
-141,731	456,366	-0,021	-0,034
-140,716	-130,570	0,129	0,012
-139,702	78,376	0,062	0,047
-138,687	12,040	-0,110	0,060
-137,672	662,655	-0,087	-0,160
-136,658	800,000	-0,081	-0,162
-135,643	-200,000	-0,035	-0,202
-134,629	-104,758	-0,192	-0,031
-133,614	-194,604	0,031	0,000
-132,599	-90,652	0,059	0,012
-131,585	170,079	0,042	-0,043
-130,570	-5,247	0,181	-0,088
-129,556	-37,255	0,096	0,036
-128,541	104,176	-0,057	0,048
-127,526	43,184	-0,073	-0,047
-126,512	240,848	-0,013	-0,016
-125,497	157,296	0,034	0,033
-124,483	125,076	-0,052	-0,047
-123,468	8,788	-0,029	0,016
-122,453	444,760	0,045	-0,071
-121,439	800,000	0,049	-0,151
-120,424	34,965	-0,029	0,018
-119,410	-50,760	-0,068	0,023
-118,395	414,107	-0,030	-0,045
-117,380	-42,841	-0,027	-0,010
-116,366	-55,989	-0,059	0,019
-115,351	50,509	0,055	-0,037
-114,337	800,000	-0,025	0,055
-113,322	157,373	0,059	0,058
-112,307	800,000	0,053	-0,155
-111,293	-138,044	0,023	0,002
-110,278	-200,000	-0,046	0,154
-109,264	800,000	-0,010	0,024
-108,249	81,617	0,048	-0,037
-107,234	800,000	0,027	0,082
-106,220	102,269	-0,136	-0,113
-105,205	324,657	0,069	0,093
-104,191	477,184	0,040	0,064
-103,176	-90,268	0,090	-0,018
-102,162	107,930	0,060	-0,051
-101,147	273,983	0,035	-0,045
-100,132	273,119	-0,133	-0,167
-99,118	-75,774	0,050	0,013
-98,103	-200,000	-0,012	0,067
-97,089	232,238	0,071	-0,083
-96,074	239,822	0,040	0,047
-95,059	386,287	-0,057	0,084
-94,045	-200,000	-0,030	0,100
-93,030	245,176	0,024	-0,029
-92,016	-46,661	-0,053	-0,018
-91,001	-200,000	0,036	0,146
-89,986	-200,000	-0,011	0,064
-88,972	160,848	0,112	0,111
-87,957	800,000	-0,050	-0,126
-86,943	136,299	-0,064	0,059
-85,928	637,934	0,029	-0,053
-84,913	593,182	0,006	-0,011
-83,899	800,000	0,009	-0,027
-82,884	800,000	-0,033	-0,073
-81,870	-200,000	0,037	-0,116
-80,855	441,590	0,043	0,068
-79,840	-64,165	0,074	0,021
-78,826	795,417	0,051	-0,101
-77,811	-128,724	-0,048	-0,005
-76,797	-200,000	0,158	0,000
-75,782	555,967	-0,071	0,122
-74,767	21,324	-0,068	-0,039
-73,753	128,714	0,060	-0,054
-72,738	-200,000	0,013	0,063
-71,724	800,000	-0,052	-0,106
-70,709	800,000	-0,012	-0,030
-69,694	-200,000	-0,003	-0,069
-68,680	48,755	0,056	0,037
-67,665	800,000	-0,046	0,096
-66,651	-59,796	0,016	0,005
-65,636	800,000	0,009	-0,018
-64,622	-200,000	-0,003	-0,044
-63,607	-55,385	0,058	-0,018
-62,592	404,888	0,022	-0,032
-61,578	-146,223	0,098	-0,006
-60,563	227,792	0,044	0,051
-59,549	800,000	0,038	-0,117
-58,534	-24,357	-1,664	-0,699
-57,519	349,883	-1,422	-1,995
-56,505	-200,000	-0,492	-4,521
-55,490	158,521	1,118	1,100
-54,476	800,000	5,056	11,562
-53,461	-200,000	19,208	319,052
-52,446	-200,000	740,469	2333,955
-51,432	573,791	1655,221	2869,679
-50,417	78,242	1671,070	1261,730
-49,403	21,282	1543,840	885,526
-48,388	15,163	1466,233	811,257
-47,373	17,873	1456,721	819,061
-46,359	16,629	1446,355	807,234
-45,344	13,421	1441,880	789,332
-44,330	13,354	1439,693	787,786
-43,315	13,371	1438,264	787,051
-42,300	13,350	1436,379	785,890
-41,286	13,374	1435,094	785,269
-40,271	13,294	1433,902	784,206
-39,257	13,338	1432,644	783,697
-38,242	13,408	1431,217	783,216
-37,227	13,351	1430,249	782,385
-36,213	13,371	1428,710	781,608
-35,198	13,444	1427,606	781,318
-34,184	13,439	1426,665	780,751
-33,169	13,408	1425,401	779,880
-32,154	13,449	1424,229	779,399
-31,140	13,452	1422,943	778,679
-30,125	13,439	1421,855	777,994
-29,111	13,432	1420,888	777,400
-28,096	13,402	1419,568	776,507
-27,082	13,387	1418,363	775,746
-26,067	13,319	1417,425	774,880
-25,052	13,341	1416,391	774,387
-24,038	13,292	1415,318	773,538
-23,023	13,273	1414,478	772,959
-22,009	13,343	1413,239	772,581
-20,994	13,311	1412,542	772,021
-19,979	13,287	1411,824	771,483
-18,965	13,303	1410,526	770,821
-17,950	13,282	1409,584	770,175
-16,936	13,313	1408,721	769,817
-15,921	13,264	1407,609	768,953
-14,906	13,250	1406,780	768,403
-13,892	13,277	1405,805	767,966
-12,877	13,270	1404,932	767,424
-11,863	13,285	1403,881	766,892
-10,848	13,227	1403,203	766,221
-9,833	13,208	1402,371	765,645
-8,819	13,202	1401,564	765,148
-7,804	13,176	1400,444	764,386
-6,790	13,171	1399,514	763,824
-5,775	13,152	1398,615	763,212
-4,760	13,160	1397,404	762,558
-3,746	13,157	1396,609	762,082
-2,731	13,126	1396,016	761,584
-1,717	13,110	1394,927	760,885
-0,702	13,091	1393,116	759,780
0,313	16,964	1310,013	732,394
1,327	33,234	703,688	431,014
2,342	51,057	123,358	82,630
3,356	1,511	16,705	8,476
4,371	11,709	3,169	1,716
5,386	13,885	0,566	0,311
6,400	800,000	0,118	0,296
7,415	-127,622	-0,129	0,013
8,429	-52,617	-0,378	-0,123
9,444	35,637	-0,418	-0,259
10,459	-57,731	-0,296	-0,091
11,473	19,123	-0,243	-0,137
12,488	13,675	-0,225	-0,123
13,502	-49,850	-0,310	-0,104
14,517	119,616	-0,274	-0,240
15,531	34,834	-0,374	-0,231
16,546	6,333	-0,373	-0,195
17,561	335,074	-0,241	-0,330
18,575	463,800	-0,197	-0,311
19,590	101,681	-0,230	-0,190
20,604	80,401	-0,255	-0,194
21,619	56,467	-0,545	-0,374
22,634	9,632	-0,421	-0,225
23,648	129,794	-0,416	-0,376
24,663	243,145	-0,305	-0,362
25,677	109,276	-0,304	-0,257
26,692	-15,194	-0,402	-0,181
27,707	9,116	-0,453	-0,241
28,721	75,455	-0,370	-0,276
29,736	0,605	-0,460	-0,232
30,750	329,437	-0,299	-0,407
31,765	228,791	-0,375	-0,432
32,780	137,608	-0,358	-0,331
33,794	113,870	-0,382	-0,328
34,809	13,918	-0,325	-0,178
35,823	-62,963	-0,385	-0,111
36,838	10,174	-0,355	-0,190
37,853	151,950	-0,368	-0,354
38,867	131,513	-0,429	-0,389
39,882	35,657	-0,316	-0,196
40,896	78,374	-0,216	-0,163
41,911	25,967	-0,305	-0,179
42,926	284,674	-0,319	-0,406
43,940	126,685	-0,400	-0,357
44,955	35,461	-0,362	-0,223
45,969	55,764	-0,334	-0,228
46,984	133,518	-0,325	-0,296
47,999	-7,709	-0,350	-0,166
49,013	-9,575	-0,430	-0,201
50,028	107,006	-0,308	-0,258
51,042	32,153	-0,455	-0,276
52,057	291,726	-0,290	-0,373
53,071	100,810	-0,355	-0,291
54,086	116,474	-0,280	-0,242
55,101	15,979	-0,374	-0,207
56,115	79,488	-0,258	-0,195
57,130	26,234	-0,412	-0,242
58,144	3,939	-0,338	-0,173
59,159	112,231	-0,259	-0,220
60,174	-54,079	-0,374	-0,119
61,188	-12,582	-0,440	-0,201
62,203	-19,197	-0,361	-0,157
63,217	20,245	-0,310	-0,176
64,232	-79,195	-0,244	-0,058
65,247	-11,053	-0,449	-0,208
66,261	5,291	-0,306	-0,158
67,276	64,394	-0,337	-0,238
68,290	21,989	-0,326	-0,186
69,305	-52,998	-0,418	-0,134
70,320	28,131	-0,371	-0,220
71,334	-46,248	-0,339	-0,117
72,349	115,021	-0,391	-0,335
73,363	62,271	-0,332	-0,233
74,378	16,852	-0,324	-0,180
75,393	8,666	-0,423	-0,224
76,407	78,710	-0,249	-0,187
77,422	27,989	-0,304	-0,180
78,436	376,691	-0,127	-0,182
79,451	34,638	-0,248	-0,152
80,466	19,611	-0,320	-0,180
81,480	52,125	-0,286	-0,191
82,495	137,045	-0,298	-0,274
83,509	216,368	-0,315	-0,352
84,524	25,101	-0,295	-0,172
85,539	-75,773	-0,284	-0,070
86,553	-15,168	-0,297	-0,133
87,568	-28,456	-0,293	-0,118
88,582	74,628	-0,315	-0,232
89,597	106,832	-0,268	-0,223
90,611	81,055	-0,324	-0,246
91,626	-92,563	-0,242	-0,047
92,641	63,889	-0,256	-0,180
93,655	128,829	-0,267	-0,239
94,670	55,684	-0,334	-0,227
95,684	-39,719	-0,280	-0,102
96,699	156,682	-0,297	-0,288
97,714	101,052	-0,250	-0,204
98,728	130,156	-0,284	-0,255
99,743	15,317	-0,246	-0,135
100,757	49,992	-0,342	-0,226
101,772	82,661	-0,377	-0,287
102,787	30,673	-0,305	-0,183
103,801	411,703	-0,265	-0,396
104,816	60,310	-0,359	-0,248
105,830	299,053	-0,183	-0,236
106,845	117,695	-0,125	-0,108
107,860	800,000	-0,104	-0,207
108,874	220,786	-0,257	-0,289
109,889	152,920	-0,267	-0,256
110,903	651,512	-0,218	-0,393
111,918	-42,584	-0,235	-0,083
112,933	260,948	-0,231	-0,281
113,947	-98,534	-0,287	-0,051
114,962	-135,611	-0,182	-0,015
115,976	53,168	-0,197	-0,132
116,991	-17,384	-0,315	-0,138
118,006	729,135	-0,132	-0,247
119,020	755,563	-0,145	-0,276
120,035	800,000	-0,137	-0,276
121,049	-39,793	-0,292	-0,106
122,064	25,220	-0,198	-0,115
123,079	103,167	-0,227	-0,186
124,093	-52,072	-0,284	-0,092
125,108	256,336	-0,140	-0,168
126,122	235,576	-0,178	-0,206
127,137	107,595	-0,234	-0,195
128,151	-115,627	-0,373	-0,048
129,166	164,299	-0,138	-0,136
130,181	89,495	-0,208	-0,163
131,195	56,369	-0,277	-0,188
132,210	113,870	-0,213	-0,181
133,224	245,442	-0,268	-0,316
134,239	101,095	-0,168	-0,136
135,254	273,676	-0,147	-0,182
136,268	170,248	-0,277	-0,277
137,283	97,596	-0,263	-0,211
138,297	454,794	-0,204	-0,317
139,312	156,177	-0,219	-0,212
140,327	612,559	-0,181	-0,318
141,341	48,761	-0,277	-0,181
142,356	149,203	-0,336	-0,318
143,370	-52,056	-0,291	-0,094
144,385	145,957	-0,195	-0,183
145,400	253,914	-0,168	-0,201
146,414	312,881	-0,181	-0,238
147,429	28,991	-0,244	-0,144
148,443	-11,474	-0,178	-0,082
149,458	-135,766	-0,201	0,016
150,473	61,086	-0,269	-0,186
151,487	72,773	-0,224	-0,163
152,502	170,600	-0,266	-0,266
153,516	288,331	-0,214	-0,271
154,531	259,444	-0,172	-0,208
155,546	75,645	-0,199	-0,146
156,560	31,417	-0,272	-0,162
157,575	7,909	-0,080	-0,042
158,589	330,108	-0,175	-0,236
159,604	-12,396	-0,182	-0,083
160,619	73,953	-0,208	-0,152
161,633	53,191	-0,281	-0,187
162,648	-47,362	-0,353	-0,119
163,662	172,509	-0,143	-0,144
164,677	402,589	-0,183	-0,269
165,692	-54,060	-0,212	-0,067
166,706	54,885	-0,315	-0,212
167,721	79,242	-0,167	-0,125
168,735	115,467	-0,247	-0,211
169,750	238,301	-0,208	-0,242
170,764	78,823	-0,171	-0,128
171,779	-13,445	-0,237	-0,107
172,794	30,796	-0,291	-0,174
173,808	117,222	-0,181	-0,155
174,823	-81,672	-0,139	-0,031
175,837	24,654	-0,312	-0,179
176,852	-0,829	-0,166	-0,082
177,867	800,000	-0,121	-0,281
178,881	183,528	-0,070	-0,073
179,896	209,957	-0,146	-0,160
180,910	381,269	-0,165	-0,236
181,925	592,230	-0,152	-0,262
182,940	193,907	-0,215	-0,227
183,954	37,510	-0,240	-0,148
184,969	-59,890	-0,289	0,085
185,983	125,413	-0,103	-0,090
186,998	-4,807	-0,316	-0,151
188,013	173,339	-0,170	-0,170
189,027	108,680	-0,243	-0,202
190,042	50,088	-0,186	-0,122
191,056	800,000	-0,142	-0,281
192,071	41,077	-0,209	-0,131
193,086	233,077	-0,165	-0,189
194,100	152,088	-0,204	-0,194
195,115	178,435	-0,174	-0,177
196,129	-76,978	-0,214	-0,052
197,144	32,650	-0,209	-0,125
198,159	62,069	-0,150	-0,104
199,173	143,651	-0,189	-0,176
200,188	78,117	-0,201	-0,149
201,202	-123,818	-0,175	-0,019
202,217	-9,488	-0,275	-0,127
203,232	126,506	-0,188	-0,166
204,246	-68,053	-0,251	-0,068
205,261	-110,052	-0,320	-0,046
206,275	-124,980	-0,195	-0,021
207,290	26,895	-0,144	-0,084
208,304	432,125	-0,153	-0,231
209,319	-15,757	-0,351	-0,155
210,334	418,783	-0,178	-0,265
211,348	180,751	-0,236	-0,241
212,363	17,619	-0,218	-0,120
213,377	632,148	-0,173	-0,306
214,392	133,667	-0,177	-0,159
215,407	-45,561	-0,196	-0,067
216,421	-45,557	-0,117	0,040
217,436	378,263	-0,154	-0,219
218,450	48,580	-0,220	-0,143
219,465	202,754	-0,167	-0,179
220,480	0,506	-0,139	-0,069
221,494	-42,655	-0,235	-0,082
222,509	-61,729	-0,197	-0,057
223,523	378,089	-0,021	-0,030
224,538	229,764	-0,206	-0,233
225,553	-22,902	-0,203	-0,085
226,567	144,949	-0,207	-0,192
227,582	82,121	-0,126	-0,095
228,596	351,481	-0,092	-0,127
229,611	538,344	-0,152	-0,252
230,626	161,019	-0,166	-0,161
231,640	-2,949	-0,266	0,128
232,655	135,472	-0,192	-0,174
233,669	148,088	-0,121	-0,113
234,684	254,015	-0,134	-0,159
235,699	-79,797	-0,149	0,035
236,713	223,599	-0,180	-0,202
237,728	96,408	-0,157	-0,125
238,742	-47,417	-0,221	-0,074
239,757	214,308	-0,193	-0,212
240,772	355,437	-0,123	-0,170
241,786	80,602	-0,219	-0,164
242,801	400,239	-0,095	-0,138
243,815	-12,672	-0,206	-0,093
244,830	800,000	-0,076	-0,185
245,844	-2,973	-0,176	-0,085
246,859	283,263	-0,146	-0,182
247,874	76,201	-0,222	-0,163
248,888	800,000	-0,079	-0,174
249,903	591,796	-0,066	-0,114
250,917	800,000	-0,054	-0,127
251,932	409,048	-0,061	-0,090
252,947	123,524	-0,147	-0,127
253,961	213,880	-0,139	-0,152
254,976	273,561	-0,133	-0,162
255,990	-79,037	-0,289	-0,068
257,005	30,740	-0,222	-0,131
258,020	-26,313	-0,166	-0,067
259,034	86,585	-0,135	-0,103
260,049	-19,892	-0,194	-0,083
261,063	292,456	-0,104	-0,131
262,078	140,364	-0,180	-0,164
263,093	44,955	-0,204	-0,129
264,107	-118,385	-0,206	0,025
265,122	800,000	-0,126	-0,268
266,136	-75,853	-0,144	-0,035
267,151	800,000	-0,026	-0,066
268,166	8,382	-0,280	-0,145
269,180	4,180	-0,187	-0,094
270,195	212,883	-0,236	-0,258
271,209	156,509	-0,303	-0,289
272,224	264,529	-0,124	-0,149
273,239	152,815	-0,162	-0,153
274,253	-63,742	-0,148	-0,042
275,268	380,492	-0,194	-0,276
276,282	21,938	-0,232	-0,130
277,297	-81,505	-0,212	-0,048
278,312	509,969	-0,141	-0,227
279,326	174,547	-0,151	-0,151
280,341	-10,084	-0,172	-0,079
281,355	-65,802	-0,161	-0,044
282,370	79,431	-0,093	-0,069
283,384	-103,923	-0,230	-0,037
284,399	59,410	-0,206	-0,140
285,414	-52,315	-0,157	-0,050
286,428	-79,947	-0,147	0,034
287,443	-46,389	-0,196	-0,066
288,457	-10,032	-0,276	-0,126
289,472	-143,386	-0,332	0,022
290,487	-64,096	-0,186	-0,052
291,501	69,353	-0,140	-0,100
292,516	604,037	-0,005	-0,008
293,530	44,773	-0,238	-0,151
294,545	-91,281	-0,118	0,023
295,560	122,872	-0,102	-0,088
296,574	532,098	-0,089	-0,146
297,589	54,811	-0,231	-0,153
298,603	30,952	-0,151	-0,089
299,618	21,991	-0,231	-0,129
300,633	48,240	-0,243	-0,156
301,647	-93,351	-0,301	-0,057
302,662	256,560	-0,137	-0,162
303,676	279,564	-0,076	-0,093
304,691	-113,313	-0,205	0,027
305,706	227,991	-0,126	-0,141
306,720	367,315	-0,091	-0,126
307,735	-139,103	-0,104	0,008
308,749	1,119	-0,075	-0,037
309,764	444,932	-0,119	-0,180
310,779	-172,219	-0,083	0,002
311,793	-61,219	-0,133	-0,038
312,808	240,853	-0,113	-0,130
313,822	-157,541	-0,263	0,011
314,837	256,752	-0,044	-0,052
315,852	99,911	-0,141	0,113
316,866	137,655	0,035	-0,031
317,881	58,725	-0,060	-0,040
318,895	-2,425	-0,201	-0,097
319,910	197,150	-0,144	-0,152
320,925	-3,595	-0,139	-0,066
321,939	137,867	-0,136	-0,122
322,954	382,838	-0,097	-0,138
323,968	-55,305	-0,139	0,043
324,983	128,861	-0,122	-0,107
325,997	38,720	-0,186	-0,114
327,012	-200,000	-0,023	-0,140
328,027	613,254	-0,138	-0,238
329,041	134,353	-0,125	-0,111
330,056	80,448	-0,142	-0,105
331,070	-200,000	-0,040	-0,130
332,085	-43,099	-0,105	-0,037
333,100	378,183	-0,117	-0,165
334,114	128,422	-0,243	-0,212
335,129	260,211	-0,117	-0,139
336,143	-158,163	-0,203	-0,008
337,158	49,715	-0,101	0,065
338,173	-200,000	0,011	-0,067
339,187	-69,386	-0,037	-0,010
340,202	-122,673	-0,294	-0,032
341,216	111,607	-0,185	-0,153
342,231	-7,585	-0,175	-0,081
343,246	-63,219	-0,060	-0,017
344,260	3,194	-0,160	-0,080
345,275	800,000	-0,079	-0,171
346,289	-109,609	-0,162	-0,023
347,304	-54,092	-0,096	-0,030
348,319	29,465	-0,141	-0,082
349,333	110,979	-0,125	-0,104
350,348	-15,046	-0,271	-0,119
351,362	573,340	-0,062	-0,104
352,377	-42,431	-0,025	-0,009
353,392	629,454	-0,061	-0,106
354,406	-77,963	-0,121	-0,028
355,421	210,650	1311,567	1415,342
356,435	162,173	1471,906	1415,828
