DTS Sentinel unit serial number:	SN410029Multiplexer serial number:	ORYXHardware model number:	OX2-SRSoftware version number:	ORYX F/W v4,00 Oryx Data Collector v3.7.2.0data status	okinstallation	B3 Nyhavnadifferential loss correction	single-endedforward channel	channel 1reverse channel	N/Adate	2023/12/01time	21:57:30forward acquisition time	300,00reverse acquisition time	0,00gamma	499,1914k internal	0,3196k external	0,3196temperature offset calibration	1,0000default loss term (dB/km)	0,3820temperature slope calibration	1,0000multiplexer offset coefficient	1,0000multiplexer slope coefficient	1,0000fibre end	0,00T internal ref (°C)	15,97T ext. ref 1 (°C)	0,82T ext. ref 2 (°C)	0,80length (m)	temperature (°C)	Stokes	anti-Stokes-744,400	53,470	-0,208	-0,145
-743,385	-200,000	0,064	0,456
-742,371	-200,000	-0,053	-0,184
-741,356	-200,000	-0,016	0,266
-740,342	150,191	-0,248	-0,245
-739,327	-200,000	-0,065	0,300
-738,312	-200,000	-0,080	-0,284
-737,298	-200,000	0,012	0,332
-736,283	440,069	-0,142	-0,227
-735,269	581,851	0,119	0,214
-734,254	346,281	-0,134	-0,192
-733,239	-65,972	-0,156	0,045
-732,225	800,000	-0,079	-0,166
-731,210	106,458	0,217	0,188
-730,196	-31,100	-0,151	-0,062
-729,181	-7,597	0,091	0,044
-728,167	196,205	-0,095	-0,106
-727,152	800,000	0,040	-0,085
-726,137	176,787	0,052	-0,055
-725,123	131,949	-0,084	0,078
-724,108	-24,332	0,031	-0,013
-723,094	-200,000	0,014	-0,074
-722,079	369,088	-0,092	0,136
-721,064	-200,000	-0,001	0,121
-720,050	-26,957	0,130	0,055
-719,035	800,000	0,025	0,074
-718,021	-103,553	-0,091	-0,015
-717,006	-138,278	-0,121	0,010
-715,991	800,000	-0,040	-0,100
-714,977	-200,000	0,023	0,079
-713,962	331,364	0,031	-0,043
-712,948	-42,306	0,113	0,042
-711,933	326,156	-0,044	-0,062
-710,918	800,000	-0,016	0,043
-709,904	90,482	-0,085	0,069
-708,889	-198,104	-0,023	0,000
-707,875	123,779	-0,038	0,035
-706,860	181,128	-0,034	0,037
-705,845	-200,000	0,000	0,023
-704,831	800,000	0,063	0,142
-703,816	131,065	0,034	0,032
-702,802	447,886	0,037	-0,060
-701,787	800,000	-0,005	0,014
-700,772	595,531	-0,062	0,113
-699,758	-200,000	0,000	0,118
-698,743	-200,000	0,018	-0,085
-697,729	798,707	-0,083	0,168
-696,714	189,482	-0,021	-0,023
-695,699	146,996	-0,071	-0,070
-694,685	-94,106	0,062	-0,012
-693,670	-91,705	-0,169	-0,035
-692,656	-200,000	0,009	-0,051
-691,641	-23,598	0,080	0,035
-690,627	33,662	-0,063	0,040
-689,612	-104,304	0,209	0,035
-688,597	-63,458	-0,153	0,045
-687,583	353,940	0,046	-0,066
-686,568	-57,545	-0,023	0,007
-685,554	397,310	0,029	-0,044
-684,539	-200,000	-0,012	0,041
-683,524	-108,470	-0,065	-0,010
-682,510	-157,450	-0,083	-0,004
-681,495	-191,442	-0,026	0,000
-680,481	-86,925	-0,025	-0,006
-679,466	437,974	-0,155	-0,247
-678,451	289,446	0,061	-0,081
-677,437	-128,191	0,036	-0,004
-676,422	96,094	-0,059	0,049
-675,408	329,793	0,073	-0,102
-674,393	96,475	0,051	-0,042
-673,378	-200,000	0,060	0,000
-672,364	106,555	-0,104	0,090
-671,349	-200,000	-0,015	-0,139
-670,335	20,299	0,065	0,038
-669,320	-168,199	0,069	0,002
-668,305	93,152	0,064	-0,052
-667,291	1,479	0,029	-0,015
-666,276	-103,126	-0,056	0,009
-665,262	-200,000	-0,009	0,048
-664,247	800,000	-0,016	-0,040
-663,232	-1,268	0,019	0,010
-662,218	-200,000	0,005	0,137
-661,203	-43,473	0,093	-0,034
-660,189	-0,328	0,053	0,027
-659,174	8,139	0,051	-0,028
-658,159	-13,150	-0,125	-0,059
-657,145	800,000	-0,012	-0,033
-656,130	-94,611	-0,146	0,029
-655,116	-130,199	0,090	0,009
-654,101	109,510	-0,019	0,017
-653,086	-119,106	-0,054	-0,007
-652,072	242,600	0,021	-0,026
-651,057	-200,000	0,023	-0,091
-650,043	-39,621	0,138	-0,052
-649,028	-200,000	-0,026	-0,086
-648,014	-15,602	0,128	0,059
-646,999	275,060	0,080	0,103
-645,984	82,762	-0,073	-0,058
-644,970	52,201	-0,074	-0,051
-643,955	177,895	-0,045	0,047
-642,941	116,226	-0,105	0,093
-641,926	-200,000	0,013	-0,068
-640,911	-200,000	-0,024	-0,099
-639,897	66,186	0,031	0,022
-638,882	177,988	0,031	0,033
-637,868	-116,706	0,076	-0,010
-636,853	800,000	0,029	-0,072
-635,838	-200,000	0,036	-0,159
-634,824	-118,665	-0,051	-0,007
-633,809	-123,590	0,166	0,019
-632,795	30,584	-0,119	0,074
-631,780	0,023	0,033	0,017
-630,765	-200,000	0,025	-0,123
-629,751	-66,534	0,015	0,004
-628,736	462,135	-0,075	-0,123
-627,722	-49,593	0,050	-0,017
-626,707	-200,000	-0,004	-0,018
-625,692	70,688	0,083	0,062
-624,678	-130,462	-0,052	0,005
-623,663	-28,621	-0,022	0,009
-622,649	-200,000	0,007	0,074
-621,634	395,826	-0,018	-0,027
-620,619	148,384	0,022	-0,022
-619,605	-53,010	-0,080	-0,027
-618,590	87,730	0,078	0,063
-617,576	-200,000	-0,028	-0,102
-616,561	-45,493	-0,077	-0,028
-615,546	-200,000	-0,039	-0,152
-614,532	-103,547	-0,048	-0,008
-613,517	102,364	0,083	0,070
-612,503	-200,000	-0,007	0,055
-611,488	-30,469	-0,025	0,010
-610,474	800,000	-0,023	-0,059
-609,459	-84,703	-0,059	-0,013
-608,444	-5,558	0,024	0,012
-607,430	4,922	-0,078	0,041
-606,415	-139,452	-0,132	0,010
-605,401	-88,814	-0,052	-0,011
-604,386	75,991	0,025	-0,019
-603,371	-147,198	0,126	0,008
-602,357	800,000	-0,068	0,169
-601,342	-48,827	0,058	-0,020
-600,328	672,156	-0,093	-0,175
-599,313	11,798	-0,149	0,083
-598,298	800,000	0,029	0,083
-597,284	159,679	0,030	-0,030
-596,269	106,191	0,122	-0,104
-595,255	545,811	-0,080	0,138
-594,240	-200,000	0,023	0,086
-593,225	-200,000	-0,044	-0,156
-592,211	509,577	0,046	-0,077
-591,196	-200,000	0,004	-0,017
-590,182	-200,000	0,005	0,025
-589,167	42,185	-0,022	0,014
-588,152	80,858	0,086	-0,067
-587,138	-150,428	-0,023	0,001
-586,123	210,403	-0,064	-0,073
-585,109	-200,000	0,004	-0,089
-584,094	-60,094	0,103	0,032
-583,079	-37,252	-0,134	0,052
-582,065	114,698	0,040	0,036
-581,050	-200,000	0,011	-0,099
-580,036	43,646	-0,082	0,055
-579,021	800,000	-0,016	-0,035
-578,006	229,189	0,052	-0,061
-576,992	-54,915	0,050	-0,016
-575,977	127,478	-0,034	-0,031
-574,963	-142,747	0,117	-0,008
-573,948	-200,000	0,028	-0,128
-572,934	-200,000	0,025	-0,085
-571,919	94,906	-0,115	-0,095
-570,904	800,000	0,029	0,088
-569,890	23,861	0,099	0,059
-568,875	94,295	-0,067	0,055
-567,861	-200,000	0,016	0,061
-566,846	501,213	0,025	0,042
-565,831	26,986	0,124	0,075
-564,817	-20,786	-0,132	0,059
-563,802	312,693	0,015	0,020
-562,788	800,000	-0,040	-0,106
-561,773	-138,393	0,097	0,008
-560,758	2,026	0,095	0,050
-559,744	-200,000	0,002	-0,076
-558,729	-118,697	0,020	0,003
-557,715	-78,553	-0,052	0,013
-556,700	211,462	-0,021	0,024
-555,685	-200,000	0,020	-0,091
-554,671	133,704	-0,046	-0,043
-553,656	62,239	0,129	0,093
-552,642	-140,059	-0,069	0,005
-551,627	-4,242	-0,127	-0,063
-550,612	-200,000	-0,004	0,050
-549,598	-200,000	-0,000	-0,006
-548,583	-55,909	0,042	0,014
-547,569	-200,000	0,040	-0,130
-546,554	-124,789	0,133	0,015
-545,539	800,000	0,019	-0,055
-544,525	-200,000	0,012	0,060
-543,510	-181,759	-0,170	-0,002
-542,496	800,000	0,041	-0,107
-541,481	94,626	0,078	0,064
-540,466	153,917	0,006	-0,006
-539,452	-76,975	0,034	-0,008
-538,437	-200,000	0,011	-0,078
-537,423	-142,138	-0,064	0,005
-536,408	-17,593	-0,128	-0,058
-535,393	800,000	-0,023	-0,056
-534,379	83,502	-0,024	0,019
-533,364	-15,836	-0,035	-0,016
-532,350	-200,000	-0,010	0,090
-531,335	-200,000	0,017	0,126
-530,321	800,000	-0,018	0,041
-529,306	-25,655	-0,083	-0,035
-528,291	150,818	-0,016	0,015
-527,277	-200,000	-0,008	0,052
-526,262	-91,135	-0,212	0,044
-525,248	-123,315	0,058	0,007
-524,233	6,488	0,102	0,055
-523,218	659,109	-0,021	-0,039
-522,204	-18,525	0,066	0,030
-521,189	48,053	-0,050	0,034
-520,175	3,385	-0,021	0,011
-519,160	227,837	-0,044	-0,052
-518,145	-47,740	0,047	0,016
-517,131	-200,000	-0,025	-0,107
-516,116	-200,000	-0,020	0,215
-515,102	129,105	-0,035	0,033
-514,087	800,000	-0,022	0,044
-513,072	-14,642	0,046	-0,021
-512,058	800,000	-0,021	0,045
-511,043	-108,796	0,072	-0,011
-510,029	96,692	-0,015	-0,012
-509,014	63,115	0,065	0,047
-507,999	-156,310	0,182	-0,008
-506,985	46,672	-0,028	-0,019
-505,970	-81,856	-0,059	-0,014
-504,956	-43,863	-0,097	-0,035
-503,941	670,156	-0,068	-0,128
-502,926	-172,789	-0,043	0,001
-501,912	-35,660	0,130	0,051
-500,897	105,581	-0,080	-0,068
-499,883	-200,000	0,007	-0,051
-498,868	222,527	-0,022	-0,025
-497,853	-27,415	0,083	-0,035
-496,839	695,661	0,038	0,073
-495,824	183,473	-0,030	0,032
-494,810	128,576	0,083	0,076
-493,795	495,079	0,012	0,019
-492,781	-135,213	-0,061	-0,005
-491,766	-200,000	-0,019	-0,110
-490,751	-64,314	-0,080	0,023
-489,737	39,706	-0,023	0,015
-488,722	83,441	0,107	-0,084
-487,708	800,000	0,062	-0,131
-486,693	800,000	-0,017	-0,039
-485,678	130,922	0,056	-0,052
-484,664	-31,770	0,105	-0,042
-483,649	79,318	-0,029	0,023
-482,635	-200,000	0,004	-0,017
-481,620	800,000	0,015	-0,032
-480,605	-115,176	0,094	0,013
-479,591	-14,571	-0,062	0,029
-478,576	407,264	0,019	-0,029
-477,562	-43,354	0,067	-0,024
-476,547	288,088	0,041	-0,054
-475,532	-200,000	0,007	0,044
-474,518	308,789	-0,055	0,075
-473,503	14,734	0,073	0,041
-472,489	-200,000	-0,014	-0,080
-471,474	-70,570	-0,126	0,034
-470,459	51,962	-0,105	0,072
-469,445	30,451	-0,036	-0,022
-468,430	205,783	-0,056	-0,062
-467,416	800,000	-0,030	-0,070
-466,401	42,981	0,158	0,104
-465,386	-39,221	0,088	0,033
-464,372	537,075	0,039	0,067
-463,357	-107,788	-0,158	-0,025
-462,343	430,446	-0,040	-0,063
-461,328	110,283	-0,053	-0,046
-460,313	-29,531	-0,137	-0,056
-459,299	-200,000	-0,019	0,115
-458,284	229,669	0,113	0,133
-457,270	-113,445	-0,085	-0,012
-456,255	-129,650	-0,066	-0,007
-455,241	45,256	-0,046	-0,031
-454,226	383,244	0,021	0,031
-453,211	584,126	0,071	0,126
-452,197	105,408	0,064	0,055
-451,182	559,903	0,064	0,112
-450,168	800,000	0,017	-0,050
-449,153	1,335	-0,050	-0,026
-448,138	69,168	-0,129	-0,095
-447,124	-170,629	0,128	0,003
-446,109	23,461	-0,089	-0,052
-445,095	82,022	0,033	0,025
-444,080	-200,000	0,017	0,114
-443,065	399,160	0,034	0,051
-442,051	18,921	-0,078	0,045
-441,036	-200,000	-0,027	0,149
-440,022	104,886	0,029	-0,025
-439,007	77,058	-0,087	0,066
-437,992	38,887	0,006	0,004
-436,978	-20,115	0,146	-0,065
-435,963	98,055	0,069	-0,057
-434,949	58,314	-0,029	0,021
-433,934	-200,000	0,008	0,043
-432,919	184,130	0,045	-0,048
-431,905	-200,000	-0,004	-0,112
-430,890	-98,362	0,157	-0,029
-429,876	9,415	0,065	0,035
-428,861	-65,224	0,055	0,016
-427,846	800,000	0,013	0,034
-426,832	-200,000	0,001	-0,155
-425,817	-102,529	-0,165	0,028
-424,803	56,453	0,030	0,021
-423,788	-140,230	0,042	0,003
-422,773	-109,586	0,052	0,008
-421,759	800,000	0,006	0,018
-420,744	148,907	-0,051	0,049
-419,730	-200,000	0,002	-0,040
-418,715	800,000	0,004	0,014
-417,701	150,298	-0,038	-0,037
-416,686	-182,054	-0,064	0,001
-415,671	-200,000	0,014	0,149
-414,657	16,092	0,133	0,075
-413,642	800,000	-0,026	0,053
-412,628	-54,809	-0,123	-0,040
-411,613	345,644	0,061	-0,086
-410,598	158,101	-0,062	-0,062
-409,584	800,000	0,095	-0,212
-408,569	-72,989	0,044	0,012
-407,555	-200,000	-0,009	0,111
-406,540	-200,000	-0,022	-0,109
-405,525	43,561	-0,065	0,043
-404,511	415,766	-0,018	-0,028
-403,496	712,889	0,049	0,093
-402,482	-200,000	-0,001	-0,116
-401,467	800,000	0,046	0,146
-400,452	-31,439	-0,115	0,046
-399,438	-5,214	0,101	0,050
-398,423	344,492	-0,063	0,089
-397,409	-200,000	0,006	-0,099
-396,394	18,566	0,088	0,050
-395,379	251,686	0,089	0,109
-394,365	347,064	-0,031	-0,043
-393,350	800,000	-0,022	-0,049
-392,336	-160,353	0,136	0,005
-391,321	137,430	-0,041	0,039
-390,306	-200,000	-0,010	-0,051
-389,292	108,051	-0,015	-0,013
-388,277	-13,039	0,032	-0,015
-387,263	297,551	-0,040	-0,053
-386,248	265,866	-0,005	-0,007
-385,233	433,666	0,059	0,092
-384,219	543,088	0,059	-0,102
-383,204	-200,000	0,003	-0,089
-382,190	686,081	0,047	-0,088
-381,175	64,727	-0,019	0,014
-380,160	-7,256	0,115	0,056
-379,146	100,485	0,048	0,040
-378,131	800,000	0,041	0,109
-377,117	-200,000	-0,021	0,078
-376,102	-96,991	-0,165	0,031
-375,088	-200,000	-0,013	-0,142
-374,073	320,807	-0,073	-0,100
-373,058	-100,784	0,116	-0,020
-372,044	44,113	0,044	0,029
-371,029	-47,660	-0,038	0,013
-370,015	800,000	-0,027	-0,081
-369,000	-191,670	-0,114	-0,001
-367,985	48,657	0,077	-0,052
-366,971	150,842	0,111	-0,109
-365,956	284,448	0,087	-0,113
-364,942	119,245	0,111	-0,099
-363,927	-47,501	-0,064	-0,022
-362,912	-133,605	-0,120	0,011
-361,898	252,600	-0,031	-0,038
-360,883	136,096	-0,042	-0,040
-359,869	302,735	-0,044	0,058
-358,854	353,858	-0,092	0,132
-357,839	-134,632	0,064	-0,006
-356,825	464,792	-0,040	0,064
-355,810	193,485	-0,086	0,094
-354,796	-200,000	-0,015	0,047
-353,781	-121,747	-0,156	0,018
-352,766	29,385	-0,089	0,054
-351,752	-112,225	0,131	-0,019
-350,737	159,045	0,012	-0,012
-349,723	-200,000	-0,024	0,082
-348,708	257,574	0,049	-0,060
-347,693	-200,000	-0,034	-0,179
-346,679	498,497	-0,097	-0,161
-345,664	-200,000	0,026	-0,175
-344,650	457,389	-0,027	-0,043
-343,635	335,794	0,015	0,021
-342,620	-200,000	0,004	0,056
-341,606	-52,272	0,015	-0,005
-340,591	800,000	0,028	0,072
-339,577	-200,000	-0,004	0,138
-338,562	225,521	0,050	-0,058
-337,548	-95,469	-0,051	0,010
-336,533	-101,357	0,049	0,009
-335,518	-22,513	0,043	0,019
-334,504	44,671	0,042	0,027
-333,489	-93,977	0,067	0,013
-332,475	-99,025	-0,050	0,009
-331,460	-200,000	-0,009	0,044
-330,445	360,525	0,038	-0,054
-329,431	-78,792	-0,080	0,019
-328,416	800,000	0,058	0,126
-327,402	-41,232	-0,087	0,032
-326,387	-200,000	-0,008	-0,030
-325,372	83,002	-0,144	-0,112
-324,358	65,937	-0,092	-0,067
-323,343	65,786	0,124	-0,090
-322,329	-200,000	-0,041	-0,142
-321,314	-148,890	0,076	0,004
-320,299	-51,995	-0,068	0,023
-319,285	800,000	-0,028	0,084
-318,270	-200,000	0,000	-0,122
-317,256	80,961	0,096	-0,074
-316,241	800,000	-0,062	-0,189
-315,226	-200,000	0,005	0,155
-314,212	-200,000	0,038	0,175
-313,197	-200,000	-0,014	-0,047
-312,183	71,925	-0,121	-0,090
-311,168	156,514	-0,097	-0,096
-310,153	5,773	-0,037	-0,019
-309,139	-33,668	-0,091	0,036
-308,124	800,000	0,030	0,068
-307,110	-200,000	-0,047	0,155
-306,095	283,537	0,059	0,076
-305,080	-68,907	0,025	-0,007
-304,066	800,000	-0,015	-0,042
-303,051	-200,000	-0,001	-0,094
-302,037	215,458	-0,035	0,039
-301,022	479,573	-0,083	0,135
-300,008	65,853	0,078	0,057
-298,993	-200,000	0,012	0,172
-297,978	-200,000	-0,005	0,065
-296,964	-123,530	0,133	-0,015
-295,949	-200,000	-0,038	-0,186
-294,935	561,542	0,012	-0,022
-293,920	-200,000	0,004	-0,043
-292,905	-80,826	0,068	0,016
-291,891	-139,915	0,149	0,011
-290,876	-200,000	-0,018	0,066
-289,862	-200,000	-0,015	0,051
-288,847	800,000	-0,076	-0,195
-287,832	79,514	0,119	-0,091
-286,818	81,182	0,068	-0,052
-285,803	800,000	0,014	-0,037
-284,789	-6,484	-0,095	0,046
-283,774	-200,000	0,031	0,135
-282,759	308,437	-0,076	0,102
-281,745	-200,000	-0,029	-0,108
-280,730	-184,803	-0,164	0,002
-279,716	-19,806	0,086	0,038
-278,701	-200,000	-0,033	0,158
-277,686	-51,770	-0,075	0,025
-276,672	46,913	0,088	-0,058
-275,657	-119,064	0,045	-0,006
-274,643	17,633	-0,143	-0,081
-273,628	-200,000	-0,014	0,100
-272,613	-22,526	-0,074	0,032
-271,599	-90,213	0,042	-0,009
-270,584	168,356	-0,031	0,031
-269,570	-200,000	-0,035	0,114
-268,555	-200,000	0,021	-0,104
-267,540	14,038	0,113	-0,063
-266,526	-200,000	0,002	0,025
-265,511	-23,511	-0,199	0,085
-264,497	206,587	-0,035	0,039
-263,482	-78,703	0,075	-0,018
-262,467	-71,088	0,083	0,022
-261,453	-10,991	-0,135	-0,064
-260,438	48,710	0,211	-0,141
-259,424	-0,499	-0,066	-0,033
-258,409	-19,512	-0,040	0,018
-257,395	159,281	0,143	0,143
-256,380	-58,328	0,108	0,033
-255,365	-179,869	-0,031	-0,000
-254,351	-200,000	-0,013	-0,093
-253,336	2,278	-0,057	0,029
-252,322	220,487	-0,060	0,068
-251,307	-95,017	-0,133	-0,026
-250,292	74,987	0,090	0,068
-249,278	261,389	0,088	0,109
-248,263	800,000	0,073	0,163
-247,249	-165,689	0,106	0,003
-246,234	-200,000	-0,020	-0,103
-245,219	-74,619	-0,023	0,006
-244,205	157,018	0,034	0,034
-243,190	-200,000	-0,030	-0,113
-242,176	-145,214	-0,117	-0,007
-241,161	-10,160	0,063	0,030
-240,146	-78,880	-0,079	-0,019
-239,132	-49,293	-0,098	0,033
-238,117	18,973	-0,016	0,009
-237,103	-200,000	0,002	0,017
-236,088	-24,003	0,114	-0,049
-235,073	-102,735	0,077	0,013
-234,059	-101,858	-0,070	0,012
-233,044	343,375	0,021	0,029
-232,030	-68,791	-0,058	-0,016
-231,015	-82,777	-0,051	-0,012
-230,000	184,966	0,078	-0,083
-228,986	-43,866	-0,062	0,022
-227,971	19,878	-0,153	0,088
-226,957	800,000	-0,038	0,085
-225,942	-107,639	0,190	-0,029
-224,927	42,369	-0,065	-0,042
-223,913	22,682	-0,071	0,041
-222,898	-148,378	0,168	0,010
-221,884	633,501	0,023	0,042
-220,869	-200,000	0,012	0,069
-219,855	-200,000	0,004	-0,034
-218,840	452,840	0,100	0,158
-217,825	-124,114	-0,060	-0,007
-216,811	-21,426	0,046	0,020
-215,796	800,000	0,007	-0,017
-214,782	-88,161	0,061	-0,013
-213,767	-200,000	0,008	0,173
-212,752	208,314	0,061	0,068
-211,738	-118,515	0,062	-0,008
-210,723	240,338	0,032	0,038
-209,709	-130,934	-0,134	0,013
-208,694	-200,000	-0,021	-0,092
-207,679	-11,599	0,100	0,047
-206,665	-200,000	0,005	0,086
-205,650	-53,050	0,060	-0,020
-204,636	800,000	-0,037	0,093
-203,621	-111,783	0,065	0,009
-202,606	245,107	-0,065	-0,078
-201,592	745,704	-0,073	0,141
-200,577	574,713	-0,024	-0,042
-199,563	-105,481	-0,068	-0,011
-198,548	-200,000	0,012	-0,054
-197,533	-175,480	-0,142	0,003
-196,519	-200,000	-0,010	0,181
-195,504	320,000	-0,028	-0,038
-194,490	149,071	0,041	-0,040
-193,475	800,000	-0,069	-0,164
-192,460	-200,000	0,009	0,038
-191,446	18,839	-0,073	-0,041
-190,431	800,000	0,053	0,157
-189,417	800,000	0,051	-0,101
-188,402	800,000	-0,077	-0,183
-187,387	521,468	0,062	-0,104
-186,373	47,537	0,071	-0,047
-185,358	61,697	-0,115	0,081
-184,344	210,273	-0,036	-0,040
-183,329	361,198	0,077	0,111
-182,315	383,194	-0,081	0,119
-181,300	542,685	0,053	-0,090
-180,285	-191,299	-0,164	0,001
-179,271	-200,000	0,041	0,201
-178,256	111,955	0,101	0,087
-177,242	228,769	0,085	-0,099
-176,227	146,274	-0,063	-0,060
-175,212	216,663	0,029	0,033
-174,198	-31,763	-0,090	-0,036
-173,183	800,000	0,032	-0,072
-172,169	203,548	0,040	-0,045
-171,154	-200,000	0,019	-0,103
-170,139	219,699	-0,088	-0,100
-169,125	800,000	0,062	0,149
-168,110	-200,000	0,020	0,124
-167,096	-8,280	-0,010	-0,005
-166,081	52,046	-0,063	-0,043
-165,066	-200,000	0,024	-0,106
-164,052	172,080	0,053	0,055
-163,037	-200,000	-0,002	-0,081
-162,023	-200,000	-0,011	0,081
-161,008	800,000	-0,067	0,135
-159,993	-138,794	0,112	0,009
-158,979	3,605	-0,068	0,035
-157,964	-200,000	0,015	-0,063
-156,950	-200,000	0,022	-0,086
-155,935	-133,825	0,189	-0,017
-154,920	440,287	0,050	0,079
-153,906	-166,845	0,148	-0,004
-152,891	-10,067	-0,021	-0,010
-151,877	-200,000	0,012	-0,061
-150,862	-200,000	0,006	-0,060
-149,847	41,030	0,029	0,018
-148,833	673,810	-0,044	0,081
-147,818	-78,896	0,045	0,011
-146,804	-73,722	-0,069	0,018
-145,789	114,571	-0,064	0,055
-144,775	-6,553	-0,125	-0,060
-143,760	158,316	-0,019	-0,019
-142,745	-111,939	-0,143	-0,020
-141,731	-55,701	-0,069	-0,022
-140,716	-153,926	-0,070	0,003
-139,702	-11,002	0,109	0,051
-138,687	70,281	0,034	0,025
-137,672	148,642	-0,124	0,119
-136,658	-28,799	0,052	-0,021
-135,643	-139,869	0,082	-0,006
-134,629	158,321	0,030	-0,030
-133,614	-45,540	-0,105	0,037
-132,599	800,000	-0,028	0,076
-131,585	-40,595	0,042	0,016
-130,570	274,095	-0,063	-0,080
-129,556	800,000	0,053	0,142
-128,541	-200,000	0,019	0,106
-127,526	52,877	-0,058	0,040
-126,512	-200,000	0,018	0,142
-125,497	631,065	-0,075	0,135
-124,483	-200,000	-0,030	0,116
-123,468	26,941	-0,088	-0,052
-122,453	62,546	-0,062	0,044
-121,439	800,000	0,015	-0,034
-120,424	142,379	0,115	0,109
-119,410	175,390	-0,101	0,104
-118,395	-200,000	0,083	0,000
-117,380	92,868	0,189	0,152
-116,366	113,721	0,019	0,016
-115,351	37,083	-0,037	-0,023
-114,337	48,952	0,035	0,023
-113,322	-200,000	-0,031	0,132
-112,307	135,595	0,011	0,010
-111,293	302,449	-0,033	0,043
-110,278	-64,426	0,135	-0,039
-109,264	164,895	-0,023	-0,023
-108,249	-200,000	-0,004	-0,045
-107,234	5,988	-0,029	-0,015
-106,220	-76,569	0,033	0,008
-105,205	658,475	0,055	0,102
-104,191	-200,000	-0,007	0,122
-103,176	800,000	-0,015	0,032
-102,162	297,154	-0,026	0,034
-101,147	33,767	0,090	-0,056
-100,132	320,703	-0,041	-0,055
-99,118	270,654	-0,120	-0,150
-98,103	305,513	0,059	-0,078
-97,089	142,192	-0,021	-0,020
-96,074	800,000	0,001	0,003
-95,059	426,828	0,099	0,153
-94,045	157,811	-0,039	0,038
-93,030	-54,258	-0,066	-0,021
-92,016	-151,961	0,074	0,004
-91,001	-106,650	0,012	-0,002
-89,986	217,450	-0,065	0,074
-88,972	-200,000	0,007	-0,061
-87,957	-68,420	0,072	0,020
-86,943	-111,765	0,081	-0,012
-85,928	-115,152	-0,115	-0,015
-84,913	-126,876	-0,134	0,014
-83,899	-163,394	-0,035	0,001
-82,884	-115,287	0,071	0,009
-81,870	-54,702	0,048	-0,015
-80,855	54,254	-0,054	0,037
-79,840	30,600	-0,049	-0,030
-78,826	-167,620	-0,042	0,001
-77,811	-163,689	-0,066	-0,002
-76,797	149,822	0,044	-0,042
-75,782	205,487	0,085	0,094
-74,767	504,680	-0,034	-0,056
-73,753	-34,905	-0,033	0,013
-72,738	146,891	0,060	-0,057
-71,724	363,034	0,086	-0,123
-70,709	219,985	-0,017	0,019
-69,694	71,769	-0,065	0,048
-68,680	-118,282	0,066	-0,008
-67,665	3,156	-0,077	0,039
-66,651	-116,401	-0,102	0,013
-65,636	37,854	0,021	0,013
-64,622	-130,146	-0,094	-0,009
-63,607	-94,690	0,070	-0,013
-62,592	397,302	-0,085	-0,127
-61,578	197,134	0,109	-0,119
-60,563	-33,562	0,114	0,044
-59,549	142,214	-0,075	0,070
-58,534	-80,338	-1,502	-0,353
-57,519	412,757	-1,549	-2,343
-56,505	-200,000	-0,542	-4,434
-55,490	117,551	0,932	0,813
-54,476	800,000	4,746	11,434
-53,461	-200,000	17,713	280,859
-52,446	800,000	719,957	2220,230
-51,432	561,101	1634,361	2812,458
-50,417	80,992	1658,034	1267,682
-49,403	23,839	1532,177	893,104
-48,388	17,819	1455,730	819,506
-47,373	18,288	1445,124	815,753
-46,359	17,859	1436,011	808,531
-45,344	16,049	1431,130	797,149
-44,330	16,045	1429,180	796,012
-43,315	15,982	1427,581	794,791
-42,300	16,030	1425,726	793,956
-41,286	16,105	1424,721	793,719
-40,271	15,996	1423,354	792,408
-39,257	16,036	1422,192	791,919
-38,242	16,086	1420,681	791,283
-37,227	16,115	1419,343	790,643
-36,213	16,084	1418,321	789,899
-35,198	16,047	1417,160	789,043
-34,184	16,124	1416,058	788,763
-33,169	16,010	1414,946	787,577
-32,154	16,049	1413,946	787,169
-31,140	16,134	1412,451	786,708
-30,125	16,122	1411,346	786,005
-29,111	16,116	1410,185	785,297
-28,096	16,081	1409,121	784,509
-27,082	15,992	1408,215	783,559
-26,067	16,003	1407,029	782,918
-25,052	16,028	1405,775	782,304
-24,038	15,985	1404,963	781,621
-23,023	15,937	1403,930	780,795
-22,009	15,986	1402,930	780,434
-20,994	15,929	1402,161	779,710
-19,979	15,985	1400,973	779,277
-18,965	15,928	1400,051	778,472
-17,950	15,921	1399,043	777,844
-16,936	15,910	1398,195	777,291
-15,921	15,914	1396,956	776,589
-14,906	15,902	1395,927	775,933
-13,892	15,939	1395,121	775,626
-12,877	15,932	1394,052	774,967
-11,863	15,919	1393,359	774,490
-10,848	15,859	1392,451	773,682
-9,833	15,893	1391,320	773,179
-8,819	15,858	1390,446	772,498
-7,804	15,821	1389,495	771,768
-6,790	15,840	1388,301	771,165
-5,775	15,812	1387,466	770,540
-4,760	15,752	1386,789	769,856
-3,746	15,791	1385,774	769,443
-2,731	15,811	1385,047	769,098
-1,717	15,786	1383,945	768,344
-0,702	15,818	1382,012	767,385
0,313	19,575	1302,823	740,750
1,327	35,944	706,616	439,698
2,342	54,965	125,361	85,655
3,356	1,340	16,549	8,399
4,371	1,731	3,123	1,589
5,386	-21,622	0,503	0,216
6,400	616,665	-0,110	0,196
7,415	84,692	-0,299	-0,231
8,429	79,334	-0,315	-0,239
9,444	36,515	-0,331	-0,207
10,459	9,661	-0,205	-0,110
11,473	134,988	-0,185	-0,170
12,488	-42,905	-0,285	-0,102
13,502	25,923	-0,204	-0,120
14,517	-53,993	-0,389	-0,125
15,531	27,815	-0,316	-0,188
16,546	153,324	-0,229	-0,222
17,561	201,964	-0,339	-0,370
18,575	76,673	-0,139	-0,104
19,590	91,562	-0,281	-0,223
20,604	78,112	-0,210	-0,158
21,619	181,487	-0,395	-0,412
22,634	134,644	-0,421	-0,387
23,648	-16,124	-0,571	-0,256
24,663	11,171	-0,336	-0,181
25,677	0,021	-0,390	-0,196
26,692	-159,409	-0,342	0,013
27,707	12,964	-0,361	-0,197
28,721	103,152	-0,269	-0,223
29,736	42,980	-0,451	-0,290
30,750	138,176	-0,307	-0,285
31,765	6,366	-0,396	-0,207
32,780	112,701	-0,406	-0,347
33,794	46,144	-0,432	-0,282
34,809	222,524	-0,238	-0,272
35,823	-9,452	-0,371	-0,174
36,838	57,364	-0,357	-0,246
37,853	15,921	-0,448	-0,248
38,867	487,445	-0,209	-0,338
39,882	324,065	-0,240	-0,324
40,896	44,673	-0,359	-0,233
41,911	-34,117	-0,400	-0,155
42,926	-8,678	-0,286	-0,135
43,940	-48,252	-0,500	-0,169
44,955	-1,644	-0,388	-0,192
45,969	218,241	-0,272	-0,307
46,984	116,660	-0,340	-0,294
47,999	253,276	-0,277	-0,334
49,013	120,867	-0,393	-0,345
50,028	30,009	-0,414	-0,248
51,042	112,641	-0,255	-0,218
52,057	1,954	-0,420	-0,213
53,071	-13,304	-0,360	-0,164
54,086	-45,354	-0,413	-0,144
55,101	62,321	-0,289	-0,203
56,115	-1,597	-0,328	-0,163
57,130	125,944	-0,380	-0,338
58,144	75,606	-0,211	-0,157
59,159	25,534	-0,467	-0,273
60,174	127,184	-0,303	-0,271
61,188	-1,959	-0,416	-0,205
62,203	92,877	-0,170	-0,135
63,217	48,409	-0,183	-0,121
64,232	154,292	-0,287	-0,278
65,247	64,027	-0,443	-0,313
66,261	100,778	-0,364	-0,298
67,276	207,492	-0,266	-0,293
68,290	225,098	-0,311	-0,356
69,305	110,865	-0,345	-0,293
70,320	32,124	-0,258	-0,156
71,334	-139,436	-0,327	-0,024
72,349	71,361	-0,256	-0,187
73,363	98,028	-0,330	-0,267
74,378	142,746	-0,271	-0,253
75,393	7,541	-0,325	-0,171
76,407	140,911	-0,277	-0,258
77,422	-76,603	-0,363	-0,089
78,436	20,728	-0,231	-0,131
79,451	83,367	-0,293	-0,224
80,466	-53,919	-0,388	-0,124
81,480	28,789	-0,359	-0,214
82,495	141,253	-0,277	-0,258
83,509	276,210	-0,268	-0,335
84,524	286,903	-0,318	-0,405
85,539	-37,647	-0,288	-0,107
86,553	26,139	-0,302	-0,177
87,568	0,226	-0,309	-0,154
88,582	-41,102	-0,205	0,074
89,597	56,533	-0,378	-0,258
90,611	207,187	-0,232	-0,255
91,626	-56,782	-0,364	-0,113
92,641	-17,066	-0,289	-0,128
93,655	43,532	-0,275	-0,177
94,670	162,598	-0,253	-0,250
95,684	147,433	-0,269	-0,255
96,699	17,217	-0,416	-0,231
97,714	-46,371	-0,273	-0,094
98,728	21,824	-0,274	-0,156
99,743	102,696	-0,140	-0,115
100,757	82,270	-0,299	-0,228
101,772	64,932	-0,290	-0,205
102,787	149,717	-0,349	-0,333
103,801	99,869	-0,218	-0,177
104,816	-57,622	-0,329	-0,101
105,830	81,159	-0,193	-0,146
106,845	800,000	-0,107	-0,246
107,860	206,159	-0,224	-0,245
108,874	-4,184	-0,344	-0,167
109,889	-17,009	-0,277	-0,122
110,903	-75,222	-0,425	-0,106
111,918	153,678	-0,153	-0,147
112,933	7,864	-0,332	-0,174
113,947	68,490	-0,149	-0,107
114,962	800,000	-0,094	-0,195
115,976	17,744	-0,242	-0,135
116,991	66,840	-0,413	-0,295
118,006	31,697	-0,392	-0,236
119,020	-145,077	-0,303	-0,019
120,035	1,932	-0,274	-0,138
121,049	-79,777	-0,198	-0,046
122,064	-57,577	-0,287	-0,088
123,079	-59,194	-0,348	-0,105
124,093	0,314	-0,290	-0,145
125,108	97,768	-0,184	-0,148
126,122	34,178	-0,193	-0,117
127,137	75,616	-0,226	-0,167
128,151	-136,992	-0,305	-0,024
129,166	123,770	-0,187	-0,164
130,181	285,911	-0,269	-0,341
131,195	571,770	-0,220	-0,377
132,210	312,986	-0,194	-0,256
133,224	1,232	-0,314	-0,157
134,239	-91,016	-0,196	-0,039
135,254	-140,318	-0,291	-0,021
136,268	25,305	-0,185	-0,107
137,283	-11,687	-0,412	-0,189
138,297	1,109	-0,258	-0,129
139,312	86,740	-0,309	-0,239
140,327	135,956	-0,262	-0,239
141,341	78,352	-0,207	-0,154
142,356	-31,277	-0,137	-0,054
143,370	51,775	-0,187	-0,124
144,385	5,165	-0,285	-0,146
145,400	88,636	-0,314	-0,244
146,414	-83,468	-0,368	-0,082
147,429	166,156	-0,243	-0,241
148,443	77,503	-0,221	-0,164
149,458	201,138	-0,147	-0,159
150,473	-77,804	-0,279	-0,067
151,487	-74,100	-0,273	-0,069
152,502	357,850	-0,208	-0,291
153,516	-22,422	-0,252	-0,106
154,531	124,167	-0,287	-0,252
155,546	74,768	-0,129	-0,095
156,560	-47,967	-0,270	-0,091
157,575	15,878	-0,229	-0,125
158,589	-63,063	-0,311	-0,089
159,604	32,267	-0,291	-0,175
160,619	20,980	-0,269	-0,152
161,633	272,000	-0,193	-0,238
162,648	-11,281	-0,233	-0,107
163,662	183,071	-0,154	-0,159
164,677	603,507	-0,161	-0,280
165,692	-75,614	-0,242	-0,060
166,706	-111,894	-0,298	0,042
167,721	-75,030	-0,223	-0,055
168,735	67,166	-0,300	-0,213
169,750	800,000	-0,120	-0,252
170,764	10,202	-0,132	-0,070
171,779	280,180	-0,154	-0,192
172,794	-1,805	-0,169	-0,083
173,808	516,928	-0,070	-0,115
174,823	48,867	-0,304	-0,199
175,837	52,559	-0,207	-0,138
176,852	200,507	-0,274	-0,294
177,867	-157,238	-0,255	0,011
178,881	102,736	-0,205	-0,167
179,896	128,009	-0,171	-0,152
180,910	379,401	-0,174	-0,249
181,925	49,332	-0,272	-0,178
182,940	94,915	-0,272	-0,216
183,954	48,987	-0,236	-0,154
184,969	-35,218	-0,233	-0,088
185,983	800,000	-0,061	-0,154
186,998	174,362	-0,179	-0,181
188,013	-64,017	-0,300	-0,085
189,027	126,873	-0,238	-0,210
190,042	113,761	-0,236	-0,200
191,056	12,107	-0,218	-0,117
192,071	-55,235	-0,307	-0,096
193,086	59,952	-0,210	-0,144
194,100	1,974	-0,193	-0,097
195,115	247,459	-0,158	-0,187
196,129	341,396	-0,096	-0,130
197,144	95,059	-0,257	-0,204
198,159	617,659	-0,214	-0,375
199,173	210,453	-0,298	-0,326
200,188	238,719	-0,151	-0,176
201,202	-53,970	-0,161	-0,051
202,217	36,350	-0,219	-0,134
203,232	224,420	-0,137	-0,155
204,246	34,366	-0,298	-0,181
205,261	275,015	-0,188	-0,232
206,275	84,886	-0,230	-0,175
207,290	94,976	-0,160	-0,127
208,304	-20,872	-0,208	-0,088
209,319	67,772	-0,193	-0,137
210,334	75,827	-0,322	-0,237
211,348	167,537	-0,229	-0,227
212,363	531,762	-0,154	-0,254
213,377	800,000	-0,096	-0,287
214,392	77,896	-0,192	-0,142
215,407	353,816	-0,164	-0,227
216,421	73,194	-0,206	-0,149
217,436	75,141	-0,217	-0,159
218,450	141,797	-0,138	-0,127
219,465	21,634	-0,334	-0,188
220,480	-16,308	-0,110	-0,048
221,494	11,453	-0,173	-0,092
222,509	176,700	-0,250	-0,253
223,523	-200,000	-0,039	-0,154
224,538	-100,348	-0,285	-0,049
225,553	-5,581	-0,230	-0,109
226,567	16,852	-0,146	-0,080
227,582	154,118	-0,202	-0,192
228,596	64,756	-0,140	-0,098
229,611	-200,000	0,008	-0,041
230,626	576,109	-0,145	-0,247
231,640	56,637	-0,235	-0,159
232,655	348,192	-0,141	-0,194
233,669	153,823	-0,221	-0,210
234,684	34,162	-0,231	-0,140
235,699	-55,560	-0,139	-0,043
236,713	-36,795	-0,147	-0,054
237,728	-102,712	-0,181	-0,030
238,742	133,663	-0,133	-0,119
239,757	799,139	-0,117	-0,226
240,772	61,922	-0,178	-0,123
241,786	800,000	-0,086	-0,167
242,801	1,981	-0,097	-0,048
243,815	-75,816	-0,199	-0,049
244,830	18,315	-0,159	0,088
245,844	800,000	-0,103	-0,232
246,859	44,691	-0,213	-0,136
247,874	-17,175	-0,209	-0,091
248,888	522,916	-0,155	-0,254
249,903	-151,908	-0,170	-0,008
250,917	228,098	-0,124	-0,141
251,932	221,766	-0,110	-0,123
252,947	-114,128	-0,219	-0,029
253,961	140,626	-0,146	-0,134
254,976	604,464	-0,126	-0,219
255,990	653,567	-0,083	-0,148
257,005	-183,265	-0,181	0,002
258,020	40,703	-0,063	-0,039
259,034	-109,459	-0,116	-0,017
260,049	-200,000	-0,042	-0,141
261,063	578,777	-0,099	-0,169
262,078	-2,113	-0,160	-0,078
263,093	4,040	-0,295	-0,149
264,107	2,931	-0,241	-0,121
265,122	468,045	-0,114	-0,178
266,136	-84,788	-0,255	-0,055
267,151	-62,269	-0,121	-0,035
268,166	509,411	-0,133	-0,214
269,180	515,042	-0,129	-0,209
270,195	86,660	-0,249	-0,190
271,209	270,472	-0,128	-0,156
272,224	132,831	-0,088	-0,079
273,239	313,540	-0,082	-0,107
274,253	47,777	-0,185	-0,120
275,268	-24,272	-0,167	-0,069
276,282	590,416	-0,115	-0,197
277,297	160,274	-0,173	-0,167
278,312	107,966	-0,191	-0,157
279,326	610,925	-0,097	-0,168
280,341	-0,917	-0,138	-0,067
281,355	59,451	-0,106	-0,072
282,370	149,769	-0,149	-0,140
283,384	106,260	-0,181	-0,148
284,399	56,533	-0,154	-0,103
285,414	318,693	-0,126	-0,165
286,428	-30,690	-0,154	-0,060
287,443	-52,652	-0,094	-0,030
288,457	361,283	-0,071	-0,098
289,472	-98,212	-0,210	0,037
290,487	-84,336	-0,196	-0,042
291,501	64,747	-0,229	-0,159
292,516	44,620	-0,132	-0,084
293,530	-69,224	-0,174	-0,046
294,545	800,000	-0,041	-0,115
295,560	472,246	-0,030	0,046
296,574	47,864	-0,189	-0,122
297,589	-21,789	-0,290	-0,121
298,603	-78,580	-0,228	0,053
299,618	187,747	-0,082	-0,085
300,633	49,396	-0,229	-0,149
301,647	89,290	-0,135	-0,104
302,662	-124,091	-0,178	-0,019
303,676	120,856	-0,179	-0,154
304,691	163,180	-0,132	-0,128
305,706	122,144	-0,230	-0,198
306,720	-144,831	-0,299	-0,019
307,735	78,207	-0,150	-0,110
308,749	-7,183	-0,077	-0,036
309,764	576,723	-0,122	-0,206
310,779	-200,000	-0,037	-0,126
311,793	66,624	-0,127	-0,089
312,808	32,273	-0,176	-0,104
313,822	653,686	-0,038	-0,067
314,837	77,496	-0,086	-0,063
315,852	-20,635	-0,127	-0,053
316,866	-33,918	-0,162	-0,061
317,881	-77,020	-0,150	-0,036
318,895	14,070	-0,090	0,048
319,910	56,765	-0,250	-0,167
320,925	-76,020	-0,139	-0,034
321,939	800,000	-0,106	-0,227
322,954	12,616	-0,107	-0,057
323,968	-111,109	-0,063	-0,009
324,983	143,572	-0,118	-0,108
325,997	181,090	-0,169	-0,171
327,012	-28,914	-0,146	-0,058
328,027	339,153	-0,177	-0,238
329,041	2,364	-0,224	-0,111
330,056	-200,000	-0,024	-0,075
331,070	196,258	-0,156	-0,164
332,085	356,571	-0,113	-0,155
333,100	800,000	-0,013	-0,029
334,114	-200,000	0,010	-0,141
335,129	-83,168	-0,167	-0,037
336,143	-159,351	-0,166	-0,006
337,158	70,256	-0,165	-0,117
338,173	31,927	0,013	0,008
339,187	341,184	-0,063	-0,084
340,202	-81,558	-0,070	-0,016
341,216	-27,421	-0,241	-0,096
342,231	-60,722	-0,089	-0,026
343,246	154,251	-0,159	-0,150
344,260	81,856	-0,144	-0,107
345,275	-200,000	-0,005	-0,033
346,289	524,947	-0,093	-0,151
347,304	-200,000	-0,014	-0,062
348,319	-61,674	-0,332	-0,095
349,333	3,314	-0,134	-0,067
350,348	133,859	-0,080	-0,071
351,362	-17,349	-0,178	0,077
352,377	31,524	-0,095	0,056
353,392	-73,568	-0,101	0,025
354,406	389,345	-0,121	-0,173
355,421	209,883	1312,935	1416,628
356,435	161,550	1473,479	1417,148
