DTS Sentinel unit serial number:	SN410029Multiplexer serial number:	ORYXHardware model number:	OX2-SRSoftware version number:	ORYX F/W v4,00 Oryx Data Collector v3.7.2.0data status	okinstallation	B3 Nyhavnadifferential loss correction	single-endedforward channel	channel 1reverse channel	N/Adate	2023/12/01time	01:42:30forward acquisition time	300,00reverse acquisition time	0,00gamma	499,1914k internal	0,3211k external	0,3211temperature offset calibration	1,0000default loss term (dB/km)	0,3820temperature slope calibration	1,0000multiplexer offset coefficient	1,0000multiplexer slope coefficient	1,0000fibre end	0,00T internal ref (°C)	8,82T ext. ref 1 (°C)	-6,24T ext. ref 2 (°C)	-6,36length (m)	temperature (°C)	Stokes	anti-Stokes-744,400	212,676	-0,202	-0,231
-743,385	800,000	0,095	0,238
-742,371	-60,088	-0,169	-0,052
-741,356	800,000	0,057	0,171
-740,342	48,225	-0,182	-0,123
-739,327	-200,000	-0,066	0,233
-738,312	-200,000	-0,070	-0,265
-737,298	800,000	-0,134	0,386
-736,283	306,427	-0,132	-0,178
-735,269	-200,000	-0,008	0,362
-734,254	33,017	-0,182	-0,114
-733,239	-116,882	-0,255	0,034
-732,225	58,470	-0,185	-0,131
-731,210	418,945	0,103	0,160
-730,196	42,987	0,087	-0,057
-729,181	86,427	-0,061	0,048
-728,167	-200,000	-0,012	-0,179
-727,152	-200,000	0,020	0,147
-726,137	396,340	-0,051	-0,077
-725,123	-122,522	-0,074	-0,009
-724,108	49,438	-0,115	-0,078
-723,094	800,000	0,059	-0,136
-722,079	800,000	-0,060	-0,133
-721,064	429,813	-0,043	-0,067
-720,050	-141,946	-0,167	-0,012
-719,035	361,912	0,022	0,033
-718,021	234,385	-0,066	0,079
-717,006	-162,144	0,113	0,004
-715,991	-13,784	-0,129	0,060
-714,977	198,972	-0,027	-0,031
-713,962	546,549	-0,061	-0,106
-712,948	800,000	0,047	0,110
-711,933	800,000	-0,044	0,103
-710,918	-200,000	0,002	0,012
-709,904	-200,000	0,003	-0,083
-708,889	25,039	-0,092	-0,055
-707,875	121,910	-0,095	0,086
-706,860	284,458	-0,111	-0,145
-705,845	169,897	0,051	-0,053
-704,831	107,185	-0,117	0,101
-703,816	-56,985	-0,114	0,036
-702,802	32,651	-0,034	0,021
-701,787	64,688	0,090	-0,065
-700,772	308,780	0,079	0,107
-699,758	-200,000	-0,043	-0,145
-698,743	-55,872	0,014	0,004
-697,729	800,000	-0,010	-0,026
-696,714	-200,000	0,031	0,132
-695,699	118,331	-0,009	-0,008
-694,685	-15,446	0,106	-0,049
-693,670	-200,000	0,038	-0,165
-692,656	-133,360	-0,129	0,012
-691,641	-200,000	-0,012	-0,041
-690,627	-200,000	-0,003	0,119
-689,612	-200,000	0,005	-0,032
-688,597	-66,024	0,073	-0,021
-687,583	123,816	0,037	0,033
-686,568	590,718	-0,064	-0,114
-685,554	800,000	-0,070	-0,146
-684,539	207,415	-0,028	-0,032
-683,524	800,000	0,029	0,061
-682,510	-123,192	-0,031	0,004
-681,495	-55,906	-0,052	0,017
-680,481	504,950	-0,076	-0,128
-679,466	650,069	0,054	-0,100
-678,451	-178,307	0,073	0,001
-677,437	225,254	0,017	0,020
-676,422	-200,000	-0,003	-0,061
-675,408	137,610	-0,098	0,092
-674,393	800,000	-0,041	0,089
-673,378	601,261	-0,104	-0,187
-672,364	118,571	-0,050	-0,045
-671,349	-58,616	0,020	0,006
-670,335	246,235	0,029	0,035
-669,320	133,792	0,044	-0,041
-668,305	7,099	0,062	0,033
-667,291	-18,566	-0,178	-0,080
-666,276	800,000	-0,055	-0,139
-665,262	800,000	-0,090	-0,188
-664,247	188,270	-0,077	-0,083
-663,232	-200,000	-0,012	0,152
-662,218	171,209	0,043	0,044
-661,203	37,973	0,086	0,055
-660,189	-94,905	0,183	-0,036
-659,174	630,266	0,040	-0,074
-658,159	100,788	0,061	0,052
-657,145	-200,000	0,010	0,102
-656,130	73,993	0,073	0,055
-655,116	800,000	0,012	-0,038
-654,101	-138,647	0,122	-0,009
-653,086	628,965	0,023	-0,042
-652,072	-200,000	-0,012	-0,076
-651,057	-200,000	0,000	-0,063
-650,043	-200,000	-0,005	-0,121
-649,028	25,277	-0,037	-0,022
-648,014	18,979	0,120	0,069
-646,999	16,987	0,088	0,050
-645,984	-145,792	0,166	0,011
-644,970	534,041	0,091	-0,156
-643,955	318,122	0,080	0,110
-642,941	-200,000	-0,007	-0,099
-641,926	132,774	0,026	0,024
-640,911	-200,000	-0,011	-0,067
-639,897	-76,754	0,070	0,018
-638,882	63,927	-0,087	-0,063
-637,868	754,500	-0,055	0,109
-636,853	-2,522	-0,141	-0,071
-635,838	-112,682	-0,025	-0,004
-634,824	526,388	-0,037	0,063
-633,809	-149,624	-0,077	-0,004
-632,795	800,000	0,042	0,117
-631,780	800,000	-0,054	0,140
-630,765	-200,000	0,013	0,129
-629,751	53,430	-0,108	-0,075
-628,736	-39,709	-0,020	0,008
-627,722	489,710	-0,023	-0,038
-626,707	240,134	0,013	0,015
-625,692	800,000	-0,011	0,027
-624,678	71,857	0,094	-0,071
-623,663	87,070	0,083	-0,066
-622,649	585,939	-0,029	-0,052
-621,634	19,439	0,072	-0,041
-620,619	800,000	-0,043	0,116
-619,605	236,688	-0,077	0,092
-618,590	800,000	0,074	0,171
-617,576	737,462	-0,033	-0,065
-616,561	-200,000	-0,013	0,101
-615,546	800,000	-0,023	0,061
-614,532	-102,824	-0,092	0,016
-613,517	800,000	-0,046	-0,141
-612,503	-144,237	0,036	-0,002
-611,488	-117,808	0,117	-0,015
-610,474	429,280	0,025	0,039
-609,459	-200,000	0,006	-0,079
-608,444	-48,947	-0,038	0,013
-607,430	186,156	-0,091	-0,098
-606,415	181,320	-0,118	-0,125
-605,401	-200,000	0,014	0,048
-604,386	-200,000	0,001	-0,092
-603,371	143,828	-0,058	-0,056
-602,357	800,000	0,033	0,084
-601,342	-80,259	-0,075	0,018
-600,328	752,513	0,033	-0,064
-599,313	-200,000	0,025	-0,080
-598,298	800,000	-0,048	-0,136
-597,284	-200,000	0,005	0,038
-596,269	-200,000	0,006	0,057
-595,255	-10,657	-0,083	0,039
-594,240	800,000	-0,025	-0,057
-593,225	-200,000	0,001	-0,117
-592,211	-12,094	0,051	0,024
-591,196	800,000	0,048	-0,096
-590,182	-200,000	-0,037	-0,174
-589,167	-119,444	-0,106	0,013
-588,152	-80,991	0,026	0,006
-587,138	-29,374	-0,051	-0,021
-586,123	33,399	-0,037	0,023
-585,109	158,407	0,065	-0,065
-584,094	-77,133	0,049	0,012
-583,079	-104,259	-0,097	-0,016
-582,065	-117,673	0,092	0,012
-581,050	26,347	0,077	-0,046
-580,036	210,642	0,056	0,064
-579,021	669,879	-0,034	-0,064
-578,006	-69,518	-0,242	0,066
-576,992	-200,000	-0,007	0,109
-575,977	-200,000	-0,013	-0,041
-574,963	168,023	0,037	0,038
-573,948	-200,000	0,001	-0,041
-572,934	33,957	-0,118	0,074
-571,919	-200,000	-0,037	-0,180
-570,904	-200,000	0,001	-0,229
-569,890	-200,000	-0,008	-0,206
-568,875	800,000	-0,036	-0,079
-567,861	-200,000	-0,001	-0,032
-566,846	78,536	0,074	-0,057
-565,831	214,351	-0,059	0,068
-564,817	40,482	-0,074	0,048
-563,802	800,000	-0,035	-0,108
-562,788	152,443	0,060	0,059
-561,773	-29,560	0,078	-0,032
-560,758	7,828	0,087	-0,047
-559,744	736,528	-0,022	0,044
-558,729	-200,000	0,013	0,044
-557,715	-200,000	-0,017	-0,122
-556,700	-3,557	-0,049	0,024
-555,685	-140,318	0,134	-0,010
-554,671	14,407	-0,146	0,082
-553,656	-168,611	0,161	-0,004
-552,642	-200,000	0,015	0,127
-551,627	800,000	0,058	0,130
-550,612	312,519	-0,094	-0,128
-549,598	-200,000	-0,031	-0,193
-548,583	-33,647	-0,040	0,016
-547,569	140,387	0,130	0,123
-546,554	-200,000	-0,004	0,023
-545,539	-108,967	0,064	-0,010
-544,525	-69,030	0,122	-0,034
-543,510	-1,619	0,104	-0,053
-542,496	37,416	0,091	-0,058
-541,481	10,245	-0,141	-0,077
-540,466	336,208	0,024	-0,034
-539,452	-116,299	0,029	0,004
-538,437	-126,598	0,096	0,010
-537,423	-121,002	-0,133	0,016
-536,408	800,000	-0,039	-0,112
-535,393	382,987	0,025	0,037
-534,379	800,000	-0,022	-0,049
-533,364	-200,000	0,021	-0,083
-532,350	-179,220	0,095	-0,001
-531,335	487,401	-0,050	0,082
-530,321	143,347	0,144	-0,138
-529,306	-74,152	-0,105	-0,027
-528,291	17,262	-0,041	0,024
-527,277	15,844	-0,149	-0,084
-526,262	112,552	0,070	0,061
-525,248	-200,000	0,030	0,121
-524,233	800,000	0,057	0,115
-523,218	258,265	0,086	-0,106
-522,204	-102,331	0,102	-0,017
-521,189	30,602	0,039	0,024
-520,175	-84,790	-0,173	-0,039
-519,160	-200,000	-0,011	-0,082
-518,145	-157,164	-0,050	-0,002
-517,131	800,000	-0,021	0,063
-516,116	-200,000	-0,000	-0,053
-515,102	669,999	0,072	0,134
-514,087	-95,199	0,079	-0,015
-513,072	-200,000	-0,032	-0,149
-512,058	-200,000	0,004	0,041
-511,043	-155,111	-0,180	0,008
-510,029	42,318	0,090	0,058
-509,014	275,106	0,016	0,020
-507,999	220,434	-0,072	0,083
-506,985	-159,948	-0,047	0,002
-505,970	720,514	0,039	0,076
-504,956	138,278	0,043	-0,041
-503,941	-200,000	-0,026	0,136
-502,926	-200,000	0,021	0,184
-501,912	347,007	-0,080	0,113
-500,897	-68,329	0,068	-0,019
-499,883	282,975	-0,101	-0,131
-498,868	461,250	-0,076	-0,122
-497,853	469,361	-0,043	0,069
-496,839	-80,214	-0,071	0,017
-495,824	800,000	-0,037	0,076
-494,810	-200,000	0,023	0,165
-493,795	23,163	0,075	-0,044
-492,781	-52,735	0,051	-0,017
-491,766	-7,520	-0,088	0,043
-490,751	178,931	0,034	-0,036
-489,737	345,154	0,093	-0,132
-488,722	155,170	-0,054	0,053
-487,708	-12,911	0,108	0,050
-486,693	62,030	-0,044	0,032
-485,678	-129,692	0,059	-0,006
-484,664	-112,718	-0,091	-0,013
-483,649	-200,000	0,006	-0,063
-482,635	523,396	-0,032	0,054
-481,620	-13,877	0,124	-0,057
-480,605	637,494	-0,068	0,125
-479,591	93,605	0,064	-0,052
-478,576	66,831	0,141	0,103
-477,562	109,478	-0,006	-0,005
-476,547	800,000	-0,013	-0,037
-475,532	227,273	-0,018	0,022
-474,518	220,661	-0,020	-0,023
-473,503	20,780	0,098	0,057
-472,489	-48,546	0,116	0,040
-471,474	396,205	-0,065	-0,097
-470,459	-73,396	-0,131	-0,034
-469,445	399,116	-0,037	0,055
-468,430	122,933	0,082	-0,073
-467,416	91,559	0,097	0,078
-466,401	12,464	0,070	-0,039
-465,386	-200,000	-0,006	0,169
-464,372	711,275	-0,010	-0,019
-463,357	-81,512	0,034	-0,008
-462,343	800,000	0,067	-0,154
-461,328	-29,028	0,075	0,031
-460,313	-200,000	0,011	0,040
-459,299	435,418	0,057	0,089
-458,284	205,739	0,081	0,090
-457,270	-200,000	0,019	0,082
-456,255	-200,000	-0,023	0,083
-455,241	-95,637	-0,100	-0,019
-454,226	-200,000	0,010	-0,051
-453,211	-135,864	0,072	-0,006
-452,197	218,142	-0,053	0,060
-451,182	8,188	0,057	-0,031
-450,168	-29,599	-0,086	0,035
-449,153	-200,000	0,017	0,148
-448,138	-200,000	-0,040	-0,135
-447,124	-92,795	-0,047	-0,009
-446,109	126,818	0,107	-0,097
-445,095	-178,270	0,110	-0,002
-444,080	-200,000	-0,022	0,074
-443,065	110,985	0,069	0,059
-442,051	-0,430	0,065	0,033
-441,036	101,514	-0,092	-0,077
-440,022	-200,000	0,005	-0,064
-439,007	-200,000	0,003	0,056
-437,992	-28,367	0,107	-0,044
-436,978	800,000	0,011	0,028
-435,963	281,028	-0,075	-0,097
-434,949	233,009	0,015	-0,017
-433,934	-22,716	-0,033	-0,014
-432,919	177,446	-0,092	0,096
-431,905	-100,655	0,052	0,009
-430,890	119,802	-0,072	0,064
-429,876	522,670	0,103	0,175
-428,861	-170,104	0,060	-0,001
-427,846	-200,000	0,004	0,100
-426,832	54,649	-0,013	-0,009
-425,817	337,374	0,018	-0,025
-424,803	445,700	0,004	0,007
-423,788	165,879	-0,032	-0,033
-422,773	284,894	-0,028	0,036
-421,759	-200,000	0,008	0,199
-420,744	-200,000	-0,010	-0,038
-419,730	-200,000	-0,012	-0,115
-418,715	800,000	-0,025	-0,058
-417,701	-91,712	-0,092	-0,018
-416,686	-200,000	-0,024	0,115
-415,671	800,000	-0,062	0,184
-414,657	-200,000	0,001	0,064
-413,642	-62,395	0,033	-0,010
-412,628	-200,000	-0,010	-0,092
-411,613	567,815	0,020	-0,036
-410,598	631,526	-0,047	-0,085
-409,584	-200,000	-0,006	0,044
-408,569	79,247	0,023	0,017
-407,555	-200,000	0,011	0,095
-406,540	518,948	0,025	0,041
-405,525	120,006	-0,132	0,117
-404,511	119,679	-0,045	0,040
-403,496	58,765	-0,085	-0,060
-402,482	71,606	0,076	-0,056
-401,467	123,634	0,054	0,048
-400,452	-182,081	0,076	0,001
-399,438	-200,000	-0,010	0,167
-398,423	98,782	-0,027	-0,022
-397,409	49,073	0,096	-0,064
-396,394	137,850	0,021	0,020
-395,379	800,000	0,011	-0,023
-394,365	-36,796	0,109	0,042
-393,350	623,782	0,094	0,170
-392,336	-200,000	0,005	-0,041
-391,321	26,875	-0,024	-0,014
-390,306	78,640	-0,143	0,109
-389,292	-37,854	-0,097	-0,037
-388,277	-81,993	0,133	-0,031
-387,263	-200,000	0,006	0,077
-386,248	-200,000	-0,004	-0,022
-385,233	-177,035	0,049	0,001
-384,219	-33,560	-0,097	0,038
-383,204	-200,000	-0,006	-0,021
-382,190	13,172	0,107	-0,059
-381,175	578,282	-0,052	-0,091
-380,160	-200,000	-0,003	0,049
-379,146	-9,892	0,134	-0,063
-378,131	41,495	-0,079	-0,051
-377,117	-200,000	0,021	-0,107
-376,102	21,186	-0,182	-0,105
-375,088	800,000	-0,021	0,057
-374,073	98,256	-0,082	0,068
-373,058	800,000	-0,031	0,080
-372,044	-200,000	0,012	0,049
-371,029	418,351	-0,101	0,155
-370,015	-200,000	0,009	0,094
-369,000	-131,261	-0,034	-0,003
-367,985	40,296	-0,051	-0,033
-366,971	800,000	0,042	0,085
-365,956	43,298	0,094	0,061
-364,942	21,972	0,101	-0,058
-363,927	-136,747	0,073	-0,006
-362,912	-200,000	-0,007	0,024
-361,898	-52,478	0,146	-0,048
-360,883	-81,903	-0,190	-0,044
-359,869	-149,322	0,102	-0,006
-358,854	-200,000	-0,018	0,115
-357,839	489,778	0,032	-0,053
-356,825	800,000	-0,049	-0,114
-355,810	-108,169	-0,104	0,016
-354,796	-119,894	-0,157	-0,019
-353,781	-33,505	-0,023	0,009
-352,766	191,076	-0,067	-0,073
-351,752	220,864	0,049	-0,056
-350,737	100,507	0,008	0,007
-349,723	-166,808	0,038	0,001
-348,708	-40,221	0,065	-0,024
-347,693	21,927	0,019	-0,011
-346,679	85,104	-0,097	-0,076
-345,664	268,885	-0,075	-0,094
-344,650	218,292	-0,041	0,047
-343,635	-200,000	-0,007	0,065
-342,620	-129,863	-0,158	-0,015
-341,606	-200,000	-0,027	0,131
-340,591	-108,085	0,118	0,018
-339,577	-63,559	-0,079	0,023
-338,562	800,000	0,032	-0,095
-337,548	-200,000	-0,000	-0,078
-336,533	-88,830	-0,123	0,026
-335,518	-132,866	0,172	0,015
-334,504	6,937	0,063	-0,033
-333,489	-60,663	-0,203	-0,061
-332,475	800,000	0,013	0,029
-331,460	-200,000	0,006	-0,086
-330,445	61,220	-0,054	-0,038
-329,431	-0,539	0,164	-0,083
-328,416	-200,000	-0,028	0,108
-327,402	-25,313	-0,039	0,016
-326,387	161,587	0,020	0,020
-325,372	-76,999	-0,071	-0,018
-324,358	677,960	-0,045	-0,085
-323,343	91,993	-0,040	-0,032
-322,329	190,500	0,081	0,087
-321,314	20,609	-0,080	0,046
-320,299	-200,000	-0,004	-0,040
-319,285	-200,000	0,012	-0,099
-318,270	8,392	-0,080	0,043
-317,256	89,089	-0,101	-0,080
-316,241	566,885	-0,023	-0,041
-315,226	-82,860	-0,072	0,016
-314,212	-61,168	0,099	-0,029
-313,197	-156,717	0,044	-0,002
-312,183	-200,000	0,004	0,040
-311,168	-200,000	0,024	-0,092
-310,153	-200,000	0,005	-0,064
-309,139	-24,220	-0,145	-0,061
-308,124	-200,000	-0,021	0,137
-307,110	-97,389	0,105	-0,019
-306,095	419,939	-0,030	-0,046
-305,080	-200,000	0,049	0,180
-304,066	585,373	-0,048	-0,085
-303,051	338,965	0,070	-0,098
-302,037	-200,000	0,017	-0,062
-301,022	284,168	-0,073	0,093
-300,008	20,988	0,087	0,050
-298,993	380,976	0,076	-0,111
-297,978	135,360	0,111	0,103
-296,964	800,000	-0,046	0,097
-295,949	-96,830	0,153	0,028
-294,935	19,632	-0,025	0,014
-293,920	410,474	0,048	-0,073
-292,905	-120,463	0,039	-0,005
-291,891	74,323	0,035	-0,026
-290,876	-12,146	0,049	-0,023
-289,862	230,473	0,116	0,136
-288,847	-200,000	-0,009	0,077
-287,832	-114,512	-0,047	0,006
-286,818	-142,360	0,089	-0,006
-285,803	522,201	-0,027	-0,045
-284,789	-200,000	0,031	0,195
-283,774	-44,190	-0,115	0,041
-282,759	220,955	-0,031	-0,036
-281,745	-200,000	-0,004	-0,148
-280,730	-67,113	-0,042	-0,012
-279,716	100,830	-0,093	-0,077
-278,701	174,184	0,101	0,104
-277,686	-200,000	0,018	0,122
-276,672	455,425	0,021	0,033
-275,657	800,000	-0,027	-0,055
-274,643	-200,000	-0,005	-0,028
-273,628	-200,000	0,020	-0,186
-272,613	-76,588	-0,099	-0,024
-271,599	-200,000	-0,017	0,097
-270,584	68,244	0,083	0,061
-269,570	-200,000	0,027	0,187
-268,555	397,379	0,055	0,083
-267,540	99,027	-0,035	0,029
-266,526	-200,000	-0,003	0,018
-265,511	-39,823	-0,050	0,019
-264,497	-200,000	0,002	0,127
-263,482	-31,693	0,156	0,062
-262,467	167,828	-0,036	-0,036
-261,453	-42,382	-0,017	0,006
-260,438	-81,728	-0,082	-0,019
-259,424	123,830	-0,067	-0,059
-258,409	321,960	0,050	-0,068
-257,395	800,000	0,032	-0,073
-256,380	113,633	-0,057	0,050
-255,365	317,174	0,061	0,083
-254,351	175,903	-0,027	-0,028
-253,336	800,000	-0,030	-0,063
-252,322	6,086	-0,083	-0,043
-251,307	444,398	-0,042	-0,066
-250,292	-200,000	-0,027	-0,116
-249,278	-78,915	-0,027	-0,006
-248,263	32,479	-0,250	0,153
-247,249	-107,217	0,143	0,022
-246,234	800,000	-0,050	-0,116
-245,219	-200,000	0,011	-0,183
-244,205	111,493	-0,131	-0,112
-243,190	305,757	0,101	0,134
-242,176	426,925	-0,080	0,123
-241,161	65,118	-0,081	0,058
-240,146	-200,000	0,021	0,162
-239,132	800,000	-0,010	0,023
-238,117	-184,945	0,156	-0,002
-237,103	-1,323	-0,090	-0,045
-236,088	128,477	-0,023	-0,020
-235,073	-47,170	0,140	0,048
-234,059	-76,158	0,087	-0,022
-233,044	89,073	0,031	-0,025
-232,030	47,303	-0,091	-0,060
-231,015	-32,572	0,127	0,050
-230,000	691,578	0,057	-0,107
-228,986	-200,000	0,025	0,083
-227,971	-44,595	0,019	0,007
-226,957	-177,776	0,129	0,002
-225,942	-200,000	-0,021	0,111
-224,927	-13,594	-0,097	0,045
-223,913	505,904	0,054	-0,088
-222,898	-46,161	-0,033	-0,012
-221,884	290,148	-0,036	0,047
-220,869	800,000	-0,027	0,062
-219,855	78,292	0,023	-0,018
-218,840	-200,000	-0,010	0,086
-217,825	-145,225	-0,060	0,004
-216,811	102,222	0,093	-0,077
-215,796	800,000	0,033	-0,067
-214,782	197,844	-0,121	-0,132
-213,767	-200,000	-0,007	-0,098
-212,752	20,294	0,069	0,039
-211,738	85,193	-0,090	0,070
-210,723	-200,000	0,003	0,055
-209,709	22,899	0,060	0,035
-208,694	-75,951	-0,090	0,023
-207,679	-83,097	-0,063	-0,014
-206,665	48,176	0,072	0,048
-205,650	249,479	0,057	0,069
-204,636	21,458	-0,053	0,031
-203,621	-118,772	-0,061	0,007
-202,606	-18,285	-0,105	0,047
-201,592	19,206	0,070	-0,040
-200,577	-200,000	0,005	0,068
-199,563	-43,943	-0,058	-0,020
-198,548	-79,715	0,164	0,039
-197,533	-200,000	-0,043	-0,227
-196,519	524,881	0,097	-0,162
-195,504	239,504	-0,068	-0,080
-194,490	-200,000	-0,031	-0,200
-193,475	102,837	-0,059	0,049
-192,460	305,370	0,092	-0,121
-191,446	800,000	0,036	-0,083
-190,431	-200,000	-0,004	0,108
-189,417	74,614	-0,058	-0,044
-188,402	-200,000	-0,027	-0,107
-187,387	-58,201	0,106	-0,032
-186,373	-71,484	-0,086	0,023
-185,358	-200,000	-0,008	0,039
-184,344	-33,929	0,121	-0,047
-183,329	266,133	0,096	0,119
-182,315	106,696	0,044	0,037
-181,300	324,511	0,030	-0,040
-180,285	-82,274	-0,032	-0,007
-179,271	800,000	0,018	0,052
-178,256	124,481	-0,016	0,014
-177,242	541,670	-0,029	-0,050
-176,227	266,365	-0,056	0,070
-175,212	-40,931	-0,107	0,039
-174,198	203,434	-0,023	-0,026
-173,183	-200,000	-0,010	-0,149
-172,169	-200,000	-0,022	0,076
-171,154	-44,048	0,078	0,028
-170,139	800,000	0,041	-0,111
-169,125	428,072	0,039	0,061
-168,110	800,000	0,064	-0,141
-167,096	-1,305	0,140	-0,070
-166,081	376,992	-0,057	-0,083
-165,066	456,953	-0,069	-0,109
-164,052	605,521	-0,054	0,095
-163,037	800,000	-0,020	0,047
-162,023	-136,262	0,094	-0,008
-161,008	-54,419	-0,084	0,027
-159,993	-4,345	0,020	0,010
-158,979	42,054	0,040	-0,026
-157,964	-128,312	-0,129	-0,013
-156,950	-47,869	-0,088	0,030
-155,935	-200,000	-0,007	0,065
-154,920	49,940	-0,040	0,027
-153,906	-96,279	0,089	0,017
-152,891	-178,907	0,074	-0,001
-151,877	178,629	-0,088	-0,091
-150,862	4,803	-0,113	0,059
-149,847	-24,481	0,040	-0,017
-148,833	216,507	-0,024	0,027
-147,818	-200,000	0,001	0,064
-146,804	-64,126	-0,030	0,009
-145,789	348,464	-0,039	-0,054
-144,775	-200,000	-0,019	0,060
-143,760	22,085	-0,117	0,067
-142,745	128,464	-0,053	0,048
-141,731	-69,157	0,179	0,048
-140,716	-9,781	-0,139	0,065
-139,702	-22,347	0,143	0,061
-138,687	273,741	-0,018	0,022
-137,672	15,387	-0,073	-0,041
-136,658	32,546	-0,071	-0,043
-135,643	-83,803	-0,073	-0,016
-134,629	-200,000	0,026	-0,093
-133,614	-20,093	-0,130	-0,057
-132,599	-36,832	-0,073	-0,028
-131,585	-200,000	-0,028	0,151
-130,570	48,281	0,064	-0,043
-129,556	-22,385	0,044	-0,019
-128,541	85,019	0,080	0,062
-127,526	-200,000	-0,013	-0,161
-126,512	-56,407	0,068	0,021
-125,497	123,650	0,092	0,082
-124,483	112,597	-0,079	-0,068
-123,468	-92,234	0,148	0,029
-122,453	616,637	0,034	-0,060
-121,439	-200,000	-0,062	-0,198
-120,424	-200,000	0,011	0,082
-119,410	800,000	0,022	0,042
-118,395	154,050	-0,029	-0,028
-117,380	-121,867	0,095	-0,011
-116,366	-34,259	-0,130	-0,050
-115,351	-200,000	-0,013	-0,057
-114,337	158,693	-0,031	-0,030
-113,322	-67,401	-0,230	-0,064
-112,307	85,491	-0,111	-0,086
-111,293	207,456	0,140	0,155
-110,278	-200,000	-0,006	0,116
-109,264	121,737	0,028	0,024
-108,249	-34,994	0,065	0,025
-107,234	-200,000	-0,145	-0,000
-106,220	278,078	0,096	-0,122
-105,205	37,284	-0,053	0,033
-104,191	360,517	-0,115	0,163
-103,176	83,197	0,035	-0,027
-102,162	-200,000	0,009	-0,039
-101,147	-200,000	-0,001	-0,052
-100,132	567,913	-0,049	-0,085
-99,118	55,683	0,102	-0,070
-98,103	-200,000	0,012	0,074
-97,089	-100,299	0,056	0,010
-96,074	189,522	-0,131	0,138
-95,059	39,230	0,066	0,041
-94,045	-43,136	-0,077	0,028
-93,030	-82,061	-0,147	-0,034
-92,016	-200,000	0,002	-0,110
-91,001	-30,867	-0,027	0,011
-89,986	236,825	0,033	0,039
-88,972	86,808	0,114	0,089
-87,957	500,605	0,035	0,058
-86,943	-132,042	-0,093	0,008
-85,928	452,253	-0,053	-0,082
-84,913	-200,000	0,012	-0,136
-83,899	-60,477	-0,014	0,004
-82,884	-139,045	-0,087	0,007
-81,870	88,200	0,108	0,085
-80,855	265,051	-0,018	0,022
-79,840	-170,616	0,082	0,002
-78,826	21,065	-0,075	0,043
-77,811	44,674	-0,062	0,040
-76,797	-200,000	-0,023	-0,173
-75,782	800,000	0,015	-0,029
-74,767	-200,000	0,030	-0,121
-73,753	-41,145	0,096	0,035
-72,738	7,317	-0,069	0,036
-71,724	-200,000	0,027	-0,093
-70,709	-141,980	-0,092	-0,006
-69,694	133,194	-0,135	-0,123
-68,680	-44,404	0,110	0,039
-67,665	131,727	0,035	-0,032
-66,651	-79,038	0,097	0,023
-65,636	372,596	0,034	-0,049
-64,622	-200,000	-0,005	0,141
-63,607	-200,000	-0,018	-0,104
-62,592	72,119	-0,117	-0,086
-61,578	-200,000	0,031	0,104
-60,563	2,101	0,099	-0,050
-59,549	-81,671	0,090	0,021
-58,534	47,180	-2,014	-1,321
-57,519	449,851	-1,142	-1,784
-56,505	-200,000	-0,365	-4,680
-55,490	559,172	0,837	1,432
-54,476	800,000	5,405	12,129
-53,461	-200,000	22,057	340,147
-52,446	800,000	759,251	2295,534
-51,432	531,852	1653,143	2770,228
-50,417	69,014	1651,177	1195,886
-49,403	16,489	1526,437	848,506
-48,388	10,667	1451,061	778,559
-47,373	19,108	1443,065	814,586
-46,359	14,051	1432,031	784,374
-45,344	8,957	1427,862	757,897
-44,330	8,888	1426,005	756,552
-43,315	8,915	1423,999	755,589
-42,300	8,938	1422,231	754,728
-41,286	8,960	1421,143	754,226
-40,271	8,910	1420,030	753,369
-39,257	8,900	1418,754	752,616
-38,242	8,937	1417,571	752,129
-37,227	8,913	1416,496	751,420
-36,213	8,891	1415,069	750,527
-35,198	8,920	1413,980	750,058
-34,184	8,979	1412,861	749,709
-33,169	8,826	1411,671	748,329
-32,154	8,911	1410,772	748,222
-31,140	8,929	1409,358	747,527
-30,125	8,908	1408,146	746,757
-29,111	8,917	1407,052	746,189
-28,096	8,907	1405,791	745,442
-27,082	8,857	1404,783	744,647
-26,067	8,823	1403,736	743,901
-25,052	8,857	1402,699	743,483
-24,038	8,862	1401,722	742,957
-23,023	8,869	1400,861	742,506
-22,009	8,854	1399,894	741,895
-20,994	8,868	1398,692	741,294
-19,979	8,803	1397,995	740,592
-18,965	8,787	1396,667	739,783
-17,950	8,795	1395,698	739,280
-16,936	8,775	1395,090	738,836
-15,921	8,726	1394,119	738,063
-14,906	8,786	1392,988	737,715
-13,892	8,811	1392,096	737,330
-12,877	8,754	1391,509	736,723
-11,863	8,763	1390,641	736,276
-10,848	8,779	1389,554	735,744
-9,833	8,756	1388,601	735,107
-8,819	8,699	1387,848	734,415
-7,804	8,670	1386,852	733,726
-6,790	8,684	1386,005	733,310
-5,775	8,667	1384,966	732,653
-4,760	8,659	1384,109	732,135
-3,746	8,694	1383,151	731,762
-2,731	8,677	1382,322	731,217
-1,717	8,692	1381,291	730,709
-0,702	8,720	1379,528	729,877
0,313	12,816	1290,666	701,464
1,327	29,003	681,984	406,950
2,342	45,192	117,471	76,234
3,356	1,075	16,489	8,314
4,371	2,498	3,720	1,893
5,386	6,998	1,262	0,661
6,400	800,000	0,271	0,692
7,415	36,978	-0,261	-0,162
8,429	47,412	-0,260	-0,171
9,444	-18,948	-0,364	-0,159
10,459	-184,452	-0,281	-0,003
11,473	24,647	-0,192	-0,112
12,488	1,999	-0,275	-0,139
13,502	56,249	-0,344	-0,235
14,517	-53,495	-0,327	-0,105
15,531	204,323	-0,212	-0,231
16,546	114,587	-0,359	-0,308
17,561	5,067	-0,403	-0,208
18,575	124,697	-0,111	-0,099
19,590	729,835	-0,123	-0,232
20,604	74,715	-0,237	-0,175
21,619	103,515	-0,479	-0,396
22,634	297,614	-0,305	-0,395
23,648	158,147	-0,409	-0,399
24,663	43,353	-0,343	-0,220
25,677	2,663	-0,266	-0,135
26,692	56,691	-0,333	-0,228
27,707	-72,354	-0,301	-0,078
28,721	-12,365	-0,332	-0,152
29,736	19,102	-0,420	-0,237
30,750	115,271	-0,360	-0,309
31,765	309,814	-0,351	-0,463
32,780	-55,314	-0,516	-0,162
33,794	80,272	-0,305	-0,230
34,809	-5,044	-0,383	-0,185
35,823	-1,616	-0,346	-0,171
36,838	167,783	-0,352	-0,352
37,853	62,310	-0,441	-0,309
38,867	82,121	-0,449	-0,342
39,882	121,431	-0,312	-0,273
40,896	365,581	-0,236	-0,335
41,911	94,418	-0,365	-0,291
42,926	71,953	-0,453	-0,330
43,940	-41,595	-0,424	-0,152
44,955	27,688	-0,301	-0,177
45,969	23,025	-0,432	-0,249
46,984	139,722	-0,342	-0,317
47,999	147,039	-0,254	-0,240
49,013	-0,038	-0,422	-0,210
50,028	6,473	-0,392	-0,204
51,042	53,772	-0,332	-0,224
52,057	-41,536	-0,446	-0,160
53,071	-53,890	-0,294	-0,093
54,086	15,411	-0,329	-0,181
55,101	208,106	-0,249	-0,274
56,115	60,904	-0,347	-0,242
57,130	-2,303	-0,363	-0,178
58,144	54,344	-0,478	-0,322
59,159	7,262	-0,454	-0,237
60,174	-40,443	-0,262	-0,095
61,188	7,690	-0,352	-0,184
62,203	165,183	-0,291	-0,288
63,217	101,751	-0,338	-0,277
64,232	103,141	-0,257	-0,211
65,247	158,441	-0,279	-0,271
66,261	-6,329	-0,458	-0,218
67,276	31,964	-0,497	-0,300
68,290	244,868	-0,223	-0,263
69,305	151,897	-0,167	-0,160
70,320	-64,660	-0,153	-0,043
71,334	36,583	-0,358	-0,221
72,349	5,327	-0,377	-0,194
73,363	62,331	-0,303	-0,212
74,378	59,378	-0,267	-0,184
75,393	18,662	-0,396	-0,222
76,407	64,541	-0,317	-0,224
77,422	57,242	-0,197	-0,134
78,436	-6,524	-0,215	-0,102
79,451	107,628	-0,354	-0,295
80,466	90,960	-0,223	-0,175
81,480	113,114	-0,358	-0,304
82,495	16,282	-0,374	-0,206
83,509	19,611	-0,341	-0,192
84,524	-107,918	-0,175	-0,026
85,539	267,529	-0,217	-0,267
86,553	26,519	-0,220	-0,129
87,568	-31,810	-0,334	-0,131
88,582	26,381	-0,344	-0,201
89,597	33,746	-0,305	-0,185
90,611	-51,554	-0,336	-0,109
91,626	135,321	-0,167	-0,152
92,641	-31,937	-0,323	-0,126
93,655	243,769	-0,094	-0,111
94,670	-77,859	-0,373	-0,089
95,684	39,871	-0,292	-0,183
96,699	159,631	-0,200	-0,195
97,714	-7,762	-0,258	-0,121
98,728	97,551	-0,202	-0,162
99,743	140,554	-0,244	-0,225
100,757	-53,335	-0,271	-0,086
101,772	342,572	-0,183	-0,252
102,787	96,071	-0,239	-0,191
103,801	45,632	-0,242	-0,156
104,816	800,000	-0,104	-0,212
105,830	-1,949	-0,256	-0,125
106,845	-71,900	-0,373	-0,096
107,860	152,307	-0,187	-0,179
108,874	-41,711	-0,332	-0,118
109,889	93,909	-0,314	-0,248
110,903	69,176	-0,338	-0,242
111,918	83,782	-0,264	-0,201
112,933	40,155	-0,241	-0,151
113,947	566,029	-0,166	-0,283
114,962	374,708	-0,201	-0,287
115,976	-139,867	-0,183	-0,013
116,991	26,545	-0,277	-0,162
118,006	181,304	-0,226	-0,232
119,020	-88,676	-0,335	-0,069
120,035	-42,302	-0,245	-0,087
121,049	800,000	-0,079	-0,197
122,064	343,848	-0,193	-0,265
123,079	180,562	-0,285	-0,292
124,093	68,826	-0,248	-0,178
125,108	166,035	-0,215	-0,212
126,122	41,059	-0,212	-0,134
127,137	-87,881	-0,186	-0,039
128,151	227,126	-0,228	-0,259
129,166	248,913	-0,168	-0,199
130,181	140,234	-0,348	-0,320
131,195	142,872	-0,264	-0,245
132,210	513,422	-0,187	-0,305
133,224	24,803	-0,274	-0,158
134,239	122,595	-0,198	-0,172
135,254	81,206	-0,150	-0,113
136,268	361,522	-0,135	-0,189
137,283	48,263	-0,284	-0,185
138,297	154,250	-0,198	-0,190
139,312	46,146	-0,251	-0,162
140,327	68,822	-0,276	-0,197
141,341	476,890	-0,113	-0,179
142,356	-35,131	-0,189	-0,071
143,370	363,346	-0,209	-0,293
144,385	174,758	-0,230	-0,232
145,400	24,514	-0,142	-0,082
146,414	800,000	-0,145	-0,318
147,429	215,547	-0,219	-0,242
148,443	-177,425	-0,252	0,004
149,458	-131,500	-0,175	-0,016
150,473	800,000	-0,074	-0,173
151,487	139,994	-0,184	-0,169
152,502	12,194	-0,245	-0,131
153,516	77,397	-0,149	-0,110
154,531	31,100	-0,280	-0,167
155,546	250,656	-0,162	-0,192
156,560	46,738	-0,243	-0,157
157,575	70,179	-0,167	-0,120
158,589	-162,828	-0,234	-0,008
159,604	-64,756	-0,240	-0,067
160,619	221,233	-0,191	-0,213
161,633	17,450	-0,388	-0,214
162,648	259,045	-0,131	-0,157
163,662	265,742	-0,179	-0,217
164,677	138,746	-0,241	-0,220
165,692	81,799	-0,233	-0,175
166,706	298,467	-0,208	-0,266
167,721	107,909	-0,198	-0,164
168,735	-12,752	-0,316	-0,143
169,750	161,620	-0,239	-0,232
170,764	-168,616	-0,213	0,005
171,779	-24,796	-0,230	-0,095
172,794	132,191	-0,184	-0,164
173,808	18,002	-0,223	-0,123
174,823	88,738	-0,236	-0,182
175,837	225,644	-0,238	-0,268
176,852	210,253	-0,254	-0,278
177,867	-31,375	-0,184	-0,072
178,881	-114,759	-0,238	-0,031
179,896	169,793	-0,203	-0,201
180,910	596,906	-0,141	-0,243
181,925	77,003	-0,204	-0,150
182,940	253,036	-0,224	-0,266
183,954	176,716	-0,244	-0,246
184,969	7,827	-0,232	-0,120
185,983	222,779	-0,123	-0,137
186,998	97,986	-0,199	-0,159
188,013	-118,151	-0,305	-0,037
189,027	27,664	-0,256	-0,149
190,042	104,780	-0,240	-0,196
191,056	12,453	-0,236	-0,126
192,071	543,098	-0,134	-0,222
193,086	216,612	-0,131	-0,144
194,100	-71,646	-0,171	-0,044
195,115	800,000	-0,059	-0,126
196,129	5,883	-0,249	-0,128
197,144	80,273	-0,282	-0,210
198,159	367,144	-0,136	-0,191
199,173	-85,558	-0,309	-0,066
200,188	567,878	-0,143	-0,242
201,202	8,849	-0,189	-0,098
202,217	7,667	-0,179	-0,093
203,232	148,151	-0,185	-0,173
204,246	-36,640	-0,276	-0,102
205,261	20,399	-0,140	-0,078
206,275	-52,954	-0,154	-0,049
207,290	800,000	-0,097	-0,221
208,304	-11,848	-0,249	-0,113
209,319	115,973	-0,131	-0,111
210,334	56,724	-0,136	-0,092
211,348	113,159	-0,266	-0,224
212,363	4,277	-0,172	-0,087
213,377	95,480	-0,258	-0,204
214,392	76,892	-0,105	-0,077
215,407	65,737	-0,220	-0,154
216,421	-68,182	-0,224	-0,060
217,436	90,627	-0,148	-0,115
218,450	60,092	-0,309	-0,211
219,465	196,804	-0,184	-0,194
220,480	550,624	-0,077	0,128
221,494	-63,689	-0,175	-0,049
222,509	145,831	-0,086	0,080
223,523	130,617	-0,110	-0,098
224,538	321,798	-0,216	-0,286
225,553	-82,329	-0,227	-0,051
226,567	94,319	-0,236	-0,185
227,582	320,778	-0,187	-0,247
228,596	-141,663	-0,141	0,010
229,611	62,065	-0,144	-0,099
230,626	96,621	-0,219	-0,173
231,640	86,685	-0,169	-0,129
232,655	353,818	-0,253	-0,348
233,669	108,135	-0,193	-0,159
234,684	156,192	-0,160	-0,153
235,699	47,388	-0,242	-0,156
236,713	81,839	-0,196	-0,147
237,728	349,282	-0,081	0,111
238,742	181,160	-0,105	-0,107
239,757	50,366	-0,176	-0,114
240,772	-5,042	-0,204	-0,097
241,786	800,000	-0,106	-0,215
242,801	106,050	-0,165	-0,135
243,815	58,907	-0,182	-0,123
244,830	132,181	-0,141	-0,125
245,844	173,084	-0,178	-0,177
246,859	-68,149	-0,183	-0,049
247,874	366,808	-0,145	-0,202
248,888	311,825	-0,195	-0,253
249,903	110,525	-0,196	-0,163
250,917	19,563	-0,174	-0,096
251,932	386,800	-0,038	-0,055
252,947	-16,478	-0,170	-0,074
253,961	800,000	-0,078	-0,163
254,976	61,337	-0,206	-0,141
255,990	404,576	-0,122	-0,177
257,005	800,000	-0,081	-0,182
258,020	-47,231	-0,167	-0,056
259,034	-26,029	-0,157	-0,063
260,049	156,508	-0,199	-0,190
261,063	229,691	-0,185	-0,208
262,078	800,000	-0,099	-0,197
263,093	327,989	-0,161	-0,214
264,107	411,592	-0,135	-0,198
265,122	438,842	-0,137	-0,207
266,136	22,335	-0,200	-0,112
267,151	800,000	-0,084	-0,174
268,166	-10,904	-0,125	-0,056
269,180	132,322	-0,196	-0,174
270,195	800,000	-0,084	-0,215
271,209	-77,571	-0,143	-0,034
272,224	-14,588	-0,229	-0,101
273,239	43,149	-0,210	-0,132
274,253	227,434	-0,129	-0,145
275,268	407,154	-0,093	-0,136
276,282	428,254	-0,156	-0,232
277,297	-200,000	-0,071	-0,310
278,312	24,024	-0,221	-0,125
279,326	98,525	-0,088	-0,070
280,341	-153,082	-0,170	0,008
281,355	-77,501	-0,152	0,036
282,370	-44,445	-0,064	0,022
283,384	-200,000	-0,071	-0,238
284,399	395,037	-0,130	-0,187
285,414	5,924	-0,158	-0,080
286,428	195,056	-0,100	-0,105
287,443	723,100	-0,124	-0,228
288,457	371,260	-0,120	-0,168
289,472	-83,063	-0,308	-0,068
290,487	19,492	-0,240	-0,132
291,501	71,518	-0,165	-0,118
292,516	710,927	-0,086	-0,157
293,530	701,640	-0,094	-0,171
294,545	235,298	-0,099	-0,113
295,560	-65,997	-0,099	0,027
296,574	-51,105	-0,164	-0,052
297,589	107,805	-0,107	-0,087
298,603	-107,439	-0,214	0,032
299,618	70,923	-0,148	-0,105
300,633	65,511	-0,088	-0,061
301,647	-65,343	-0,100	0,028
302,662	-46,011	-0,115	-0,039
303,676	40,519	-0,194	-0,120
304,691	-108,534	-0,172	-0,025
305,706	372,362	-0,205	-0,286
306,720	800,000	-0,082	-0,170
307,735	154,781	-0,179	-0,169
308,749	67,788	-0,114	-0,080
309,764	-13,291	-0,160	-0,071
310,779	109,033	-0,154	-0,126
311,793	213,656	-0,096	-0,104
312,808	276,917	-0,167	-0,205
313,822	175,083	-0,222	-0,221
314,837	-118,339	-0,221	-0,027
315,852	-111,160	-0,139	-0,019
316,866	-3,305	-0,140	-0,067
317,881	36,464	-0,095	-0,058
318,895	164,431	-0,131	-0,127
319,910	-200,000	-0,069	-0,214
320,925	24,430	-0,154	-0,087
321,939	-181,523	-0,160	0,002
322,954	85,958	-0,096	-0,073
323,968	-35,290	-0,120	0,044
324,983	78,437	-0,055	-0,040
325,997	-9,609	-0,216	-0,098
327,012	174,354	-0,161	-0,160
328,027	409,309	-0,147	-0,213
329,041	-200,000	-0,032	-0,196
330,056	-88,040	-0,141	0,029
331,070	-106,026	-0,171	-0,026
332,085	258,152	-0,113	-0,133
333,100	-47,872	-0,137	-0,045
334,114	48,399	-0,186	-0,119
335,129	37,979	-0,213	-0,129
336,143	145,124	-0,153	-0,140
337,158	11,036	-0,102	-0,053
338,173	9,068	-0,106	-0,055
339,187	-69,356	-0,065	-0,017
340,202	-33,343	-0,157	-0,059
341,216	153,787	-0,139	-0,131
342,231	-200,000	-0,048	-0,166
343,246	42,065	-0,157	-0,097
344,260	321,370	-0,164	-0,214
345,275	800,000	-0,083	-0,194
346,289	203,195	-0,115	-0,122
347,304	-200,000	-0,021	-0,233
348,319	86,790	-0,135	-0,102
349,333	-4,141	-0,104	-0,049
350,348	122,587	-0,091	-0,078
351,362	88,819	-0,161	-0,123
352,377	-59,355	-0,063	0,018
353,392	33,015	-0,036	0,021
354,406	98,415	-0,184	-0,145
355,421	207,153	1309,823	1398,246
356,435	159,341	1469,910	1398,699
