DTS Sentinel unit serial number:	SN410029Multiplexer serial number:	ORYXHardware model number:	OX2-SRSoftware version number:	ORYX F/W v4,00 Oryx Data Collector v3.7.2.0data status	okinstallation	B3 Nyhavnadifferential loss correction	single-endedforward channel	channel 1reverse channel	N/Adate	2023/11/30time	22:22:30forward acquisition time	300,00reverse acquisition time	0,00gamma	499,1914k internal	0,3211k external	0,3211temperature offset calibration	1,0000default loss term (dB/km)	0,3820temperature slope calibration	1,0000multiplexer offset coefficient	1,0000multiplexer slope coefficient	1,0000fibre end	0,00T internal ref (°C)	10,12T ext. ref 1 (°C)	-5,04T ext. ref 2 (°C)	-5,18length (m)	temperature (°C)	Stokes	anti-Stokes-744,400	244,781	-0,160	-0,195
-743,385	-200,000	-0,010	0,241
-742,371	138,678	-0,183	-0,174
-741,356	-200,000	-0,014	0,251
-740,342	344,712	-0,201	-0,287
-739,327	800,000	-0,119	0,318
-738,312	800,000	-0,154	-0,370
-737,298	68,144	-0,117	0,087
-736,283	463,257	-0,174	-0,283
-735,269	-200,000	0,006	0,346
-734,254	31,713	-0,234	-0,145
-733,239	-8,943	-0,159	0,077
-732,225	268,650	-0,185	-0,235
-731,210	73,365	0,158	0,120
-730,196	237,704	-0,033	0,040
-729,181	103,534	-0,130	-0,110
-728,167	-3,672	-0,026	-0,013
-727,152	409,022	0,019	0,029
-726,137	-200,000	-0,007	0,050
-725,123	-25,187	-0,039	0,016
-724,108	-115,761	-0,124	0,017
-723,094	-200,000	0,000	-0,062
-722,079	309,168	-0,089	0,121
-721,064	800,000	-0,032	-0,076
-720,050	181,681	0,077	0,082
-719,035	-71,504	-0,091	-0,024
-718,021	-72,766	-0,056	0,015
-717,006	-108,285	-0,097	0,015
-715,991	-71,163	-0,161	-0,043
-714,977	1,402	-0,146	-0,076
-713,962	-48,886	0,114	-0,040
-712,948	217,039	0,118	0,137
-711,933	38,971	-0,091	-0,059
-710,918	800,000	0,048	0,133
-709,904	-96,780	-0,102	0,019
-708,889	800,000	0,091	-0,223
-707,875	-144,911	-0,156	0,010
-706,860	800,000	-0,035	0,073
-705,845	104,252	-0,041	-0,035
-704,831	-67,170	-0,136	0,039
-703,816	-43,153	0,098	-0,036
-702,802	-200,000	-0,008	-0,097
-701,787	800,000	0,037	-0,084
-700,772	-142,266	0,174	-0,012
-699,758	-33,035	0,074	-0,029
-698,743	-200,000	0,027	-0,108
-697,729	800,000	0,002	0,004
-696,714	285,963	0,066	0,087
-695,699	800,000	0,042	-0,132
-694,685	-200,000	-0,014	-0,170
-693,670	-200,000	0,011	-0,092
-692,656	-29,314	-0,083	-0,034
-691,641	192,724	-0,030	-0,033
-690,627	-90,121	0,122	0,026
-689,612	-77,025	-0,083	0,021
-688,597	-200,000	0,012	-0,109
-687,583	81,366	0,063	-0,049
-686,568	153,809	-0,028	-0,027
-685,554	800,000	0,021	-0,063
-684,539	-138,211	-0,100	0,008
-683,524	-200,000	0,054	0,000
-682,510	83,353	-0,106	0,083
-681,495	78,968	-0,050	-0,038
-680,481	-89,549	-0,084	-0,018
-679,466	177,508	-0,049	-0,052
-678,451	-200,000	-0,016	-0,153
-677,437	530,491	0,081	-0,140
-676,422	-88,131	0,099	-0,021
-675,408	97,218	-0,039	0,033
-674,393	800,000	-0,034	0,082
-673,378	712,400	-0,078	0,151
-672,364	290,356	0,123	0,163
-671,349	-182,652	-0,143	-0,002
-670,335	800,000	-0,053	0,129
-669,320	460,379	0,062	0,101
-668,305	800,000	0,056	0,159
-667,291	20,933	-0,155	-0,091
-666,276	-84,489	0,108	-0,024
-665,262	55,331	-0,040	0,028
-664,247	175,425	0,016	-0,017
-663,232	-155,170	0,030	-0,001
-662,218	-200,000	0,008	-0,061
-661,203	800,000	0,010	0,026
-660,189	800,000	-0,041	-0,086
-659,174	318,717	-0,017	-0,023
-658,159	-200,000	-0,047	-0,184
-657,145	-53,651	0,085	-0,028
-656,130	199,383	0,047	-0,052
-655,116	-200,000	0,012	-0,048
-654,101	800,000	0,039	0,120
-653,086	54,164	-0,163	-0,113
-652,072	460,793	-0,037	-0,060
-651,057	406,074	-0,099	-0,152
-650,043	-200,000	0,022	-0,235
-649,028	-200,000	0,007	-0,067
-648,014	70,109	0,140	0,104
-646,999	-121,393	0,124	0,015
-645,984	-37,765	-0,133	-0,051
-644,970	232,224	-0,053	-0,063
-643,955	-39,841	-0,079	-0,030
-642,941	192,333	-0,038	-0,041
-641,926	201,677	0,019	0,021
-640,911	-144,887	-0,090	0,006
-639,897	236,662	0,044	0,053
-638,882	800,000	0,009	0,024
-637,868	-200,000	-0,001	-0,036
-636,853	79,276	-0,150	-0,116
-635,838	186,647	-0,124	-0,134
-634,824	-17,101	0,008	0,004
-633,809	726,161	-0,041	0,079
-632,795	-167,873	-0,047	-0,001
-631,780	-140,987	-0,054	0,004
-630,765	800,000	-0,035	0,073
-629,751	6,706	-0,167	-0,089
-628,736	-200,000	0,030	-0,110
-627,722	691,217	0,027	-0,051
-626,707	562,660	0,029	-0,052
-625,692	800,000	0,029	0,084
-624,678	-174,295	0,042	-0,001
-623,663	189,280	-0,077	0,083
-622,649	147,407	-0,086	-0,084
-621,634	800,000	-0,008	0,016
-620,619	-200,000	0,025	-0,222
-619,605	-86,820	0,065	0,014
-618,590	-200,000	-0,023	0,208
-617,576	117,289	0,127	0,113
-616,561	-61,054	0,068	0,021
-615,546	256,609	-0,037	-0,046
-614,532	-1,370	-0,156	-0,079
-613,517	70,614	-0,057	0,042
-612,503	-135,433	0,074	-0,006
-611,488	-200,000	0,001	-0,121
-610,474	800,000	-0,014	-0,032
-609,459	-2,968	0,023	-0,011
-608,444	-76,979	-0,064	0,016
-607,430	214,126	-0,023	-0,027
-606,415	-60,402	-0,076	-0,023
-605,401	46,222	0,024	0,016
-604,386	179,703	0,086	0,091
-603,371	-36,384	0,145	-0,056
-602,357	349,371	0,039	0,056
-601,342	141,096	-0,045	-0,043
-600,328	-200,000	0,037	-0,152
-599,313	86,553	-0,079	-0,063
-598,298	-135,814	0,039	-0,003
-597,284	137,625	0,058	0,055
-596,269	8,861	-0,117	0,063
-595,255	-77,061	0,133	-0,033
-594,240	670,952	-0,018	-0,034
-593,225	-200,000	-0,032	-0,130
-592,211	-200,000	0,020	-0,123
-591,196	-29,029	0,061	-0,025
-590,182	161,753	-0,043	-0,043
-589,167	37,600	0,134	-0,085
-588,152	-50,902	-0,052	-0,018
-587,138	793,244	-0,041	0,081
-586,123	36,049	-0,067	-0,042
-585,109	501,540	0,083	-0,139
-584,094	431,554	0,053	-0,082
-583,079	-140,755	0,042	-0,003
-582,065	-200,000	0,030	0,116
-581,050	-103,992	-0,072	0,012
-580,036	800,000	0,037	0,097
-579,021	425,065	0,082	-0,127
-578,006	32,092	-0,067	-0,042
-576,992	-84,182	0,043	0,010
-575,977	-56,483	-0,051	-0,016
-574,963	-76,431	0,114	0,029
-573,948	-179,291	-0,118	-0,002
-572,934	800,000	-0,032	0,093
-571,919	526,939	0,086	-0,146
-570,904	89,887	0,072	-0,058
-569,890	69,345	0,117	-0,087
-568,875	453,463	0,032	0,051
-567,861	-200,000	-0,003	0,014
-566,846	142,240	-0,030	0,029
-565,831	146,099	-0,065	0,063
-564,817	-90,491	-0,065	0,013
-563,802	-200,000	0,018	-0,112
-562,788	-200,000	0,004	-0,063
-561,773	78,212	-0,038	0,029
-560,758	800,000	0,026	-0,058
-559,744	226,045	-0,091	0,106
-558,729	186,267	0,107	0,115
-557,715	800,000	-0,076	-0,198
-556,700	386,691	0,045	-0,067
-555,685	207,100	-0,084	0,095
-554,671	-29,467	-0,046	0,019
-553,656	347,924	-0,048	0,068
-552,642	-60,820	-0,102	0,031
-551,627	-200,000	0,006	0,047
-550,612	63,077	0,101	-0,073
-549,598	-200,000	-0,008	-0,142
-548,583	-200,000	0,028	0,095
-547,569	800,000	0,024	-0,075
-546,554	361,367	0,067	-0,097
-545,539	339,993	0,036	-0,050
-544,525	16,903	-0,093	-0,053
-543,510	-77,929	0,022	-0,005
-542,496	72,549	0,053	-0,040
-541,481	-200,000	-0,032	-0,108
-540,466	11,761	-0,153	-0,084
-539,452	169,691	-0,075	0,077
-538,437	-139,503	0,085	-0,006
-537,423	-27,437	-0,045	0,019
-536,408	14,696	0,137	0,077
-535,393	-63,901	-0,063	-0,018
-534,379	334,611	0,059	0,083
-533,364	800,000	0,019	-0,039
-532,350	-57,067	0,149	0,047
-531,335	36,849	0,050	0,032
-530,321	-200,000	0,008	-0,043
-529,306	195,984	-0,023	0,025
-528,291	151,511	-0,038	-0,037
-527,277	-16,561	-0,088	-0,040
-526,262	-72,188	0,093	-0,025
-525,248	-200,000	-0,000	-0,024
-524,233	100,977	-0,033	-0,027
-523,218	60,839	-0,043	0,030
-522,204	-200,000	0,005	0,132
-521,189	275,775	-0,064	0,081
-520,175	800,000	-0,036	0,074
-519,160	345,216	0,010	0,014
-518,145	-200,000	0,017	-0,079
-517,131	714,328	-0,054	0,104
-516,116	-200,000	0,004	-0,178
-515,102	800,000	-0,013	0,041
-514,087	196,703	0,049	-0,054
-513,072	-94,750	-0,239	0,046
-512,058	-200,000	-0,002	-0,064
-511,043	800,000	-0,036	-0,098
-510,029	-2,225	0,091	0,046
-509,014	-75,362	-0,063	0,016
-507,999	-200,000	-0,037	0,179
-506,985	-85,122	0,152	0,034
-505,970	-200,000	0,017	-0,056
-504,956	-200,000	0,000	-0,001
-503,941	80,689	0,145	-0,112
-502,926	800,000	0,033	-0,075
-501,912	800,000	-0,081	0,168
-500,897	249,027	-0,102	-0,124
-499,883	578,221	0,039	0,068
-498,868	51,896	0,126	-0,086
-497,853	761,886	-0,025	0,049
-496,839	-87,050	-0,061	-0,013
-495,824	-200,000	-0,018	0,077
-494,810	435,835	-0,040	-0,062
-493,795	58,060	-0,039	0,028
-492,781	4,972	-0,149	0,079
-491,766	86,117	-0,101	0,080
-490,751	800,000	-0,026	-0,067
-489,737	800,000	-0,019	0,048
-488,722	224,584	-0,038	-0,045
-487,708	273,562	0,021	0,027
-486,693	-84,525	0,092	0,021
-485,678	762,822	0,065	0,127
-484,664	-200,000	0,002	-0,012
-483,649	-28,344	0,189	-0,078
-482,635	69,366	0,116	-0,085
-481,620	-69,464	0,086	-0,024
-480,605	314,811	-0,032	0,043
-479,591	5,596	0,154	0,081
-478,576	70,823	-0,088	0,066
-477,562	-37,619	0,104	0,040
-476,547	800,000	0,027	-0,072
-475,532	-200,000	-0,000	-0,081
-474,518	-74,879	0,069	0,018
-473,503	192,835	0,047	0,051
-472,489	800,000	0,033	0,090
-471,474	-200,000	-0,024	-0,100
-470,459	43,021	0,029	-0,019
-469,445	-71,809	-0,051	0,013
-468,430	800,000	0,044	0,093
-467,416	-131,823	0,037	-0,003
-466,401	212,786	0,032	0,036
-465,386	-200,000	0,016	0,131
-464,372	74,435	0,119	0,090
-463,357	253,509	0,028	-0,035
-462,343	-200,000	0,023	-0,137
-461,328	-16,468	-0,051	0,023
-460,313	-93,923	-0,029	-0,006
-459,299	-41,101	0,070	0,026
-458,284	-108,206	-0,049	0,008
-457,270	-21,777	0,065	-0,028
-456,255	800,000	-0,038	0,104
-455,241	800,000	-0,030	0,070
-454,226	800,000	-0,014	0,036
-453,211	-200,000	-0,006	-0,022
-452,197	97,151	-0,075	-0,061
-451,182	530,877	-0,010	-0,018
-450,168	346,609	0,013	0,018
-449,153	800,000	-0,055	-0,156
-448,138	466,237	0,037	0,060
-447,124	-42,158	0,026	0,010
-446,109	236,651	0,038	-0,045
-445,095	687,334	0,023	0,044
-444,080	368,256	0,090	-0,130
-443,065	600,930	0,075	-0,135
-442,051	-12,601	0,145	-0,068
-441,036	-200,000	0,017	0,111
-440,022	-70,109	0,048	-0,013
-439,007	340,371	0,094	0,132
-437,992	-200,000	0,006	0,145
-436,978	-200,000	0,027	-0,123
-435,963	800,000	-0,050	0,101
-434,949	800,000	0,020	-0,048
-433,934	-75,446	-0,099	-0,025
-432,919	800,000	0,049	-0,144
-431,905	-200,000	0,012	-0,060
-430,890	-2,714	0,139	0,069
-429,876	300,861	0,054	0,071
-428,861	2,119	0,013	-0,007
-427,846	-200,000	0,008	0,056
-426,832	129,613	0,045	-0,041
-425,817	7,210	0,036	-0,019
-424,803	538,092	0,030	-0,052
-423,788	148,225	0,092	0,089
-422,773	800,000	-0,051	0,106
-421,759	126,532	-0,081	0,074
-420,744	602,751	0,059	0,106
-419,730	12,175	0,017	0,010
-418,715	-24,614	-0,117	0,050
-417,701	-200,000	-0,030	-0,157
-416,686	-8,501	-0,017	-0,008
-415,671	-162,519	-0,174	-0,006
-414,657	-26,801	0,134	0,056
-413,642	-200,000	0,000	0,072
-412,628	270,576	0,033	-0,041
-411,613	-44,061	0,068	-0,024
-410,598	-92,881	-0,054	-0,011
-409,584	-200,000	0,009	-0,035
-408,569	181,859	0,006	-0,007
-407,555	-119,044	0,129	-0,016
-406,540	209,184	-0,087	0,098
-405,525	-103,979	-0,115	-0,019
-404,511	-95,701	-0,170	0,032
-403,496	-119,341	0,117	0,014
-402,482	95,541	0,028	-0,023
-401,467	-76,572	-0,077	0,019
-400,452	-200,000	-0,004	-0,015
-399,438	152,798	0,025	-0,024
-398,423	77,314	-0,129	-0,098
-397,409	544,588	-0,097	-0,167
-396,394	141,224	-0,077	-0,073
-395,379	3,744	-0,005	0,003
-394,365	800,000	-0,062	0,165
-393,350	-30,696	0,132	-0,053
-392,336	112,373	-0,064	0,056
-391,321	-200,000	0,020	-0,095
-390,306	-74,932	-0,090	-0,023
-389,292	-117,389	-0,157	-0,020
-388,277	507,444	-0,031	0,052
-387,263	455,528	-0,057	0,090
-386,248	-166,921	-0,002	0,000
-385,233	-88,392	-0,018	0,004
-384,219	20,969	-0,043	-0,025
-383,204	770,695	-0,055	0,108
-382,190	-200,000	-0,009	-0,144
-381,175	-60,006	0,078	-0,024
-380,160	134,753	0,095	-0,088
-379,146	-200,000	-0,009	-0,060
-378,131	689,722	-0,028	0,053
-377,117	800,000	-0,020	0,042
-376,102	-200,000	-0,030	-0,148
-375,088	-37,286	0,035	0,013
-374,073	-200,000	-0,040	0,000
-373,058	-200,000	0,028	0,124
-372,044	800,000	-0,019	0,056
-371,029	-79,099	-0,039	0,009
-370,015	800,000	0,004	0,011
-369,000	97,166	-0,075	-0,061
-367,985	28,766	-0,062	0,038
-366,971	-151,034	-0,082	0,004
-365,956	-37,750	0,117	0,044
-364,942	-3,986	0,051	0,025
-363,927	-200,000	0,023	-0,147
-362,912	-64,459	-0,067	-0,019
-361,898	-153,588	0,057	0,003
-360,883	260,227	0,035	0,043
-359,869	-19,216	-0,134	-0,059
-358,854	-200,000	-0,025	0,147
-357,839	-34,634	0,031	-0,012
-356,825	-105,997	0,072	-0,011
-355,810	49,037	-0,070	0,047
-354,796	-200,000	-0,013	-0,104
-353,781	572,419	-0,076	0,132
-352,766	125,424	-0,071	0,064
-351,752	-79,091	0,093	-0,022
-350,737	74,626	0,124	-0,093
-349,723	432,257	-0,017	-0,026
-348,708	316,895	0,047	0,063
-347,693	-200,000	-0,023	0,112
-346,679	-22,367	-0,079	-0,034
-345,664	-200,000	0,032	-0,105
-344,650	-200,000	0,012	-0,087
-343,635	308,841	-0,047	-0,062
-342,620	659,157	-0,024	0,044
-341,606	66,276	0,061	-0,044
-340,591	306,619	-0,073	0,097
-339,577	115,199	0,084	0,073
-338,562	117,577	-0,146	-0,128
-337,548	17,510	-0,113	0,064
-336,533	598,131	-0,056	0,100
-335,518	140,412	0,084	-0,079
-334,504	160,609	-0,103	0,103
-333,489	800,000	-0,009	-0,019
-332,475	-171,068	0,100	-0,002
-331,460	800,000	-0,040	-0,114
-330,445	800,000	0,023	0,070
-329,431	-83,909	0,061	0,014
-328,416	223,766	0,034	0,039
-327,402	20,215	0,070	0,040
-326,387	-20,743	-0,076	0,033
-325,372	218,261	-0,095	-0,108
-324,358	800,000	-0,025	-0,054
-323,343	499,862	-0,030	0,049
-322,329	800,000	-0,025	0,052
-321,314	123,973	-0,064	-0,058
-320,299	303,070	0,168	0,223
-319,285	-200,000	0,015	0,059
-318,270	-200,000	-0,004	0,088
-317,256	296,474	-0,030	-0,039
-316,241	-138,777	0,110	-0,008
-315,226	30,305	-0,046	-0,028
-314,212	140,692	-0,006	-0,005
-313,197	-200,000	0,003	-0,023
-312,183	-82,860	0,068	-0,015
-311,168	-162,862	-0,201	0,007
-310,153	-200,000	0,013	-0,066
-309,139	118,429	-0,071	-0,062
-308,124	-151,919	-0,053	0,003
-307,110	-200,000	-0,007	-0,029
-306,095	317,343	0,110	0,148
-305,080	0,579	0,026	-0,013
-304,066	77,537	0,131	0,099
-303,051	-93,505	0,069	0,014
-302,037	64,964	-0,129	-0,093
-301,022	-174,068	-0,118	0,002
-300,008	-200,000	-0,005	-0,099
-298,993	800,000	-0,028	-0,071
-297,978	-200,000	0,024	0,221
-296,964	470,475	-0,017	0,027
-295,949	-200,000	-0,010	-0,033
-294,935	10,362	0,035	-0,019
-293,920	166,107	0,045	0,046
-292,905	-46,859	0,094	-0,033
-291,891	-67,385	-0,061	-0,017
-290,876	87,008	0,043	0,034
-289,862	178,714	-0,098	0,102
-288,847	-200,000	-0,001	-0,093
-287,832	-101,640	-0,074	-0,013
-286,818	-158,864	-0,104	0,004
-285,803	10,455	0,071	0,039
-284,789	800,000	-0,029	0,092
-283,774	623,881	-0,074	0,133
-282,759	248,684	0,033	0,040
-281,745	-26,750	0,078	0,033
-280,730	-200,000	-0,006	-0,113
-279,716	74,681	-0,040	-0,030
-278,701	153,385	0,118	-0,115
-277,686	286,220	0,079	-0,102
-276,672	-139,276	-0,081	0,006
-275,657	-200,000	0,029	0,107
-274,643	800,000	-0,076	-0,158
-273,628	345,279	0,078	-0,110
-272,613	-200,000	0,030	-0,189
-271,599	126,279	0,094	-0,084
-270,584	-200,000	-0,018	0,095
-269,570	-92,202	0,156	-0,031
-268,555	12,015	-0,034	-0,018
-267,540	205,406	-0,030	-0,033
-266,526	-54,651	-0,149	0,048
-265,511	2,142	0,121	-0,062
-264,497	-200,000	0,024	0,140
-263,482	170,256	-0,084	0,086
-262,467	87,419	-0,031	0,024
-261,453	394,801	0,035	0,053
-260,438	145,691	0,096	0,092
-259,424	76,616	-0,054	-0,041
-258,409	25,826	-0,030	-0,018
-257,395	-61,333	0,070	0,021
-256,380	48,313	-0,045	-0,030
-255,365	-200,000	0,052	0,210
-254,351	-40,903	-0,018	-0,007
-253,336	-80,093	0,042	-0,010
-252,322	-200,000	-0,005	0,049
-251,307	-200,000	-0,026	0,131
-250,292	41,025	0,076	-0,049
-249,278	3,700	0,047	0,024
-248,263	545,157	-0,069	0,118
-247,249	-172,398	0,127	0,003
-246,234	521,018	-0,059	0,099
-245,219	45,825	-0,160	0,105
-244,205	800,000	-0,027	-0,063
-243,190	-200,000	-0,014	-0,180
-242,176	121,883	0,051	0,045
-241,161	-200,000	-0,013	-0,041
-240,146	-110,532	0,091	0,013
-239,132	-94,399	0,034	-0,006
-238,117	800,000	0,069	-0,195
-237,103	201,548	-0,108	-0,119
-236,088	646,027	0,028	0,051
-235,073	231,647	0,050	0,059
-234,059	-200,000	0,000	0,049
-233,044	-74,324	0,139	-0,035
-232,030	-200,000	-0,006	-0,073
-231,015	-200,000	-0,030	0,174
-230,000	-106,592	-0,202	-0,032
-228,986	800,000	0,035	-0,077
-227,971	89,145	-0,115	0,091
-226,957	14,411	0,164	0,091
-225,942	-200,000	-0,007	0,099
-224,927	-109,498	-0,084	0,013
-223,913	-200,000	0,007	-0,031
-222,898	-16,932	0,038	0,017
-221,884	-200,000	0,003	-0,011
-220,869	157,318	0,086	-0,085
-219,855	100,712	-0,048	0,040
-218,840	800,000	0,034	0,104
-217,825	-175,346	-0,201	0,004
-216,811	-24,929	0,147	-0,062
-215,796	108,416	-0,090	-0,076
-214,782	-200,000	0,023	-0,077
-213,767	756,848	-0,050	-0,096
-212,752	489,132	-0,034	-0,055
-211,738	87,068	0,060	-0,047
-210,723	800,000	0,063	0,127
-209,709	-122,340	0,025	0,003
-208,694	800,000	0,011	-0,028
-207,679	800,000	0,030	0,071
-206,665	-43,720	0,172	-0,061
-205,650	-200,000	0,003	0,051
-204,636	800,000	-0,015	0,037
-203,621	800,000	0,028	-0,058
-202,606	663,897	-0,109	-0,200
-201,592	-60,832	0,084	-0,025
-200,577	800,000	0,039	0,092
-199,563	160,660	-0,055	0,054
-198,548	-147,249	0,205	0,012
-197,533	-200,000	0,007	0,102
-196,519	-102,680	-0,243	-0,041
-195,504	15,831	-0,005	-0,003
-194,490	800,000	0,046	-0,144
-193,475	424,189	-0,042	-0,064
-192,460	261,465	0,051	-0,063
-191,446	-51,314	0,139	0,046
-190,431	-200,000	0,000	0,070
-189,417	800,000	-0,033	-0,070
-188,402	-101,824	0,016	-0,003
-187,387	-200,000	0,001	-0,022
-186,373	-200,000	0,009	0,050
-185,358	-79,556	-0,079	0,019
-184,344	329,504	0,068	-0,094
-183,329	44,472	0,078	0,050
-182,315	123,717	0,044	0,039
-181,300	212,576	0,049	0,055
-180,285	-145,031	-0,088	-0,006
-179,271	135,641	0,090	0,084
-178,256	-32,643	0,132	0,052
-177,242	800,000	-0,063	0,155
-176,227	347,960	0,088	0,123
-175,212	800,000	-0,079	0,190
-174,198	800,000	0,046	0,127
-173,183	-200,000	-0,004	0,105
-172,169	-200,000	0,010	-0,031
-171,154	300,863	-0,140	-0,183
-170,139	-101,156	-0,017	-0,003
-169,125	-200,000	-0,004	-0,023
-168,110	87,775	-0,047	-0,037
-167,096	213,031	-0,068	0,076
-166,081	-133,420	-0,055	0,005
-165,066	-39,745	-0,012	-0,005
-164,052	-108,616	-0,057	-0,009
-163,037	697,321	-0,056	0,105
-162,023	-67,157	0,116	-0,032
-161,008	-25,595	-0,059	0,025
-159,993	-200,000	0,001	-0,038
-158,979	-200,000	0,002	0,010
-157,964	444,044	-0,065	-0,101
-156,950	-200,000	0,041	-0,151
-155,935	56,404	-0,105	0,072
-154,920	-200,000	0,004	0,076
-153,906	351,316	-0,028	0,040
-152,891	-200,000	-0,026	0,114
-151,877	185,190	-0,018	0,019
-150,862	119,944	-0,187	-0,164
-149,847	-107,783	0,082	0,013
-148,833	342,988	-0,008	0,011
-147,818	-200,000	-0,013	0,135
-146,804	8,064	0,090	-0,047
-145,789	-74,277	-0,085	0,021
-144,775	-200,000	-0,003	-0,037
-143,760	99,792	-0,075	0,062
-142,745	25,072	-0,054	-0,031
-141,731	56,772	0,121	0,083
-140,716	174,612	0,110	0,113
-139,702	19,975	-0,001	0,000
-138,687	438,924	0,033	0,052
-137,672	-200,000	-0,023	0,103
-136,658	-71,936	-0,053	0,014
-135,643	-200,000	0,029	0,126
-134,629	-200,000	0,004	0,079
-133,614	800,000	0,019	-0,052
-132,599	-168,864	0,102	-0,003
-131,585	158,260	-0,075	0,074
-130,570	323,706	0,068	0,092
-129,556	-65,280	-0,061	-0,017
-128,541	-200,000	0,003	-0,068
-127,526	-200,000	0,019	-0,138
-126,512	201,427	-0,126	0,137
-125,497	-200,000	-0,040	-0,130
-124,483	6,451	-0,063	0,033
-123,468	-155,273	0,091	0,004
-122,453	28,810	-0,056	-0,034
-121,439	-200,000	-0,005	-0,120
-120,424	5,743	-0,107	0,056
-119,410	6,806	0,107	-0,056
-118,395	148,673	-0,055	0,053
-117,380	60,821	0,057	-0,040
-116,366	-200,000	-0,005	-0,116
-115,351	167,695	0,049	0,049
-114,337	-89,027	-0,024	0,005
-113,322	-200,000	0,002	-0,016
-112,307	800,000	-0,028	-0,066
-111,293	73,687	0,111	0,082
-110,278	-200,000	-0,019	0,059
-109,264	100,248	0,066	0,054
-108,249	-200,000	0,001	0,049
-107,234	209,293	-0,044	0,049
-106,220	351,382	-0,120	-0,168
-105,205	-200,000	0,072	-0,227
-104,191	-0,316	-0,083	-0,042
-103,176	65,177	0,039	0,028
-102,162	-112,299	-0,036	-0,005
-101,147	-200,000	-0,005	0,043
-100,132	-17,517	-0,136	-0,060
-99,118	278,193	-0,034	-0,043
-98,103	800,000	0,033	0,077
-97,089	-166,961	-0,202	-0,006
-96,074	148,717	0,120	0,115
-95,059	-200,000	-0,016	0,163
-94,045	800,000	0,019	-0,052
-93,030	800,000	-0,019	0,056
-92,016	-65,428	0,024	-0,007
-91,001	-200,000	-0,019	0,071
-89,986	-99,490	-0,085	0,015
-88,972	165,505	0,111	0,111
-87,957	735,694	0,006	-0,011
-86,943	800,000	0,033	0,087
-85,928	699,898	-0,054	-0,102
-84,913	-20,357	-0,003	0,001
-83,899	-200,000	-0,022	0,109
-82,884	465,567	-0,115	0,182
-81,870	-22,286	0,044	-0,019
-80,855	-136,005	0,125	0,010
-79,840	-200,000	-0,041	0,154
-78,826	-200,000	-0,011	-0,059
-77,811	800,000	0,022	0,050
-76,797	334,754	0,003	-0,004
-75,782	-141,284	0,049	0,003
-74,767	-200,000	-0,010	0,091
-73,753	171,446	-0,101	0,102
-72,738	14,388	-0,086	0,047
-71,724	138,140	-0,056	-0,052
-70,709	95,060	0,057	-0,046
-69,694	66,254	-0,056	0,040
-68,680	-200,000	-0,049	0,158
-67,665	800,000	-0,046	0,090
-66,651	-162,350	0,163	-0,006
-65,636	69,942	0,084	0,061
-64,622	-200,000	0,023	-0,116
-63,607	92,758	-0,043	0,034
-62,592	-39,743	0,115	0,042
-61,578	-200,000	0,016	0,127
-60,563	683,070	-0,045	0,084
-59,549	268,797	-0,108	-0,134
-58,534	59,824	-1,999	-1,391
-57,519	447,311	-1,188	-1,851
-56,505	-200,000	-0,372	-4,365
-55,490	547,474	0,774	1,313
-54,476	800,000	5,473	11,922
-53,461	-200,000	21,551	344,944
-52,446	800,000	761,933	2368,720
-51,432	559,691	1665,501	2850,037
-50,417	73,683	1663,651	1229,095
-49,403	18,057	1537,534	862,842
-48,388	11,968	1461,287	790,542
-47,373	19,666	1452,199	822,599
-46,359	15,548	1441,289	796,775
-45,344	10,263	1437,265	769,309
-44,330	10,161	1435,454	767,820
-43,315	10,168	1433,470	766,764
-42,300	10,180	1431,847	765,922
-41,286	10,198	1430,400	765,205
-40,271	10,175	1429,205	764,426
-39,257	10,136	1428,277	763,714
-38,242	10,206	1426,940	763,298
-37,227	10,176	1425,675	762,448
-36,213	10,230	1424,501	762,046
-35,198	10,194	1423,510	761,317
-34,184	10,239	1422,449	760,934
-33,169	10,189	1421,011	759,899
-32,154	10,201	1420,149	759,463
-31,140	10,192	1418,851	758,696
-30,125	10,245	1417,556	758,224
-29,111	10,251	1416,599	757,708
-28,096	10,224	1415,571	757,000
-27,082	10,173	1414,208	756,002
-26,067	10,159	1413,276	755,410
-25,052	10,156	1412,276	754,830
-24,038	10,156	1411,075	754,160
-23,023	10,164	1410,178	753,685
-22,009	10,121	1409,188	752,925
-20,994	10,145	1408,170	752,463
-19,979	10,102	1407,243	751,737
-18,965	10,142	1406,330	751,407
-17,950	10,111	1405,550	750,817
-16,936	10,063	1404,716	750,116
-15,921	10,047	1403,754	749,500
-14,906	10,045	1402,967	749,039
-13,892	10,110	1401,692	748,633
-12,877	10,077	1400,949	748,051
-11,863	10,049	1400,149	747,467
-10,848	10,026	1399,212	746,829
-9,833	10,000	1398,329	746,205
-8,819	9,938	1397,608	745,506
-7,804	9,998	1396,596	745,213
-6,790	9,953	1395,519	744,402
-5,775	9,965	1394,315	743,786
-4,760	9,984	1393,524	743,421
-3,746	9,963	1392,543	742,773
-2,731	9,947	1391,675	742,203
-1,717	9,946	1390,907	741,760
-0,702	9,962	1389,101	740,841
0,313	13,949	1301,491	712,397
1,327	30,067	691,252	414,972
2,342	46,623	119,595	78,176
3,356	-0,575	16,464	8,212
4,371	18,554	3,491	1,963
5,386	-24,019	1,126	0,473
6,400	-200,000	0,124	0,488
7,415	-31,321	-0,169	0,067
8,429	76,405	-0,280	-0,209
9,444	24,778	-0,214	-0,125
10,459	55,894	-0,346	-0,236
11,473	-37,620	-0,333	-0,125
12,488	729,250	-0,205	-0,387
13,502	38,682	-0,301	-0,189
14,517	339,122	-0,256	-0,353
15,531	34,573	-0,507	-0,312
16,546	127,657	-0,306	-0,274
17,561	545,129	-0,245	-0,413
18,575	-165,630	-0,418	0,013
19,590	16,747	-0,257	-0,143
20,604	-178,340	-0,343	0,006
21,619	62,504	-0,421	-0,296
22,634	115,822	-0,349	-0,301
23,648	117,431	-0,448	-0,388
24,663	-31,725	-0,474	-0,187
25,677	-54,637	-0,359	-0,114
26,692	83,321	-0,297	-0,227
27,707	-58,334	-0,411	-0,125
28,721	177,262	-0,347	-0,356
29,736	225,814	-0,378	-0,432
30,750	83,112	-0,355	-0,271
31,765	-50,708	-0,336	-0,111
32,780	-58,164	-0,493	-0,150
33,794	209,259	-0,258	-0,285
34,809	157,315	-0,297	-0,289
35,823	14,517	-0,394	-0,216
36,838	19,555	-0,400	-0,226
37,853	112,680	-0,340	-0,290
38,867	-36,721	-0,353	-0,133
39,882	51,047	-0,225	-0,150
40,896	16,123	-0,323	-0,179
41,911	-89,673	-0,350	-0,072
42,926	-28,191	-0,357	-0,144
43,940	83,688	-0,345	-0,264
44,955	30,518	-0,306	-0,184
45,969	-1,054	-0,430	-0,213
46,984	84,935	-0,293	-0,226
47,999	15,073	-0,316	-0,173
49,013	414,499	-0,193	-0,289
50,028	78,251	-0,302	-0,226
51,042	45,277	-0,431	-0,278
52,057	246,865	-0,265	-0,315
53,071	70,753	-0,266	-0,193
54,086	247,806	-0,235	-0,280
55,101	-20,386	-0,502	-0,216
56,115	69,159	-0,406	-0,292
57,130	51,194	-0,380	-0,253
58,144	25,964	-0,283	-0,165
59,159	158,620	-0,347	-0,339
60,174	172,507	-0,338	-0,341
61,188	84,446	-0,355	-0,272
62,203	21,662	-0,372	-0,212
63,217	-34,333	-0,329	-0,126
64,232	42,141	-0,314	-0,200
65,247	253,552	-0,231	-0,278
66,261	139,813	-0,291	-0,269
67,276	227,800	-0,371	-0,424
68,290	106,038	-0,320	-0,266
69,305	-67,106	-0,356	-0,098
70,320	-4,971	-0,291	-0,140
71,334	-11,105	-0,216	-0,099
72,349	25,619	-0,301	-0,175
73,363	103,884	-0,287	-0,236
74,378	25,123	-0,337	-0,196
75,393	-67,422	-0,325	-0,089
76,407	-78,745	-0,382	-0,091
77,422	100,681	-0,202	-0,164
78,436	4,917	-0,248	-0,128
79,451	159,471	-0,216	-0,210
80,466	19,673	-0,340	-0,191
81,480	139,765	-0,331	-0,306
82,495	89,374	-0,341	-0,266
83,509	89,916	-0,249	-0,194
84,524	-77,894	-0,257	-0,062
85,539	-37,687	-0,337	-0,125
86,553	10,010	-0,247	-0,131
87,568	57,925	-0,207	-0,142
88,582	21,325	-0,380	-0,216
89,597	5,795	-0,310	-0,160
90,611	194,219	-0,234	-0,249
91,626	-9,173	-0,191	-0,089
92,641	-124,333	-0,255	0,027
93,655	-9,190	-0,354	-0,165
94,670	9,906	-0,334	-0,177
95,684	-79,730	-0,354	-0,083
96,699	22,553	-0,288	-0,164
97,714	117,913	-0,212	-0,183
98,728	48,143	-0,213	-0,139
99,743	-41,844	-0,261	-0,093
100,757	125,754	-0,185	-0,164
101,772	2,340	-0,226	-0,114
102,787	117,121	-0,251	-0,215
103,801	28,222	-0,374	-0,220
104,816	-47,119	-0,339	-0,115
105,830	132,998	-0,236	-0,213
106,845	-63,524	-0,291	-0,083
107,860	0,574	-0,388	-0,193
108,874	-1,544	-0,371	-0,182
109,889	130,780	-0,193	-0,173
110,903	99,827	-0,336	-0,272
111,918	18,252	-0,189	-0,105
112,933	-70,431	-0,167	-0,044
113,947	81,801	-0,190	-0,143
114,962	-71,238	-0,194	-0,050
115,976	-25,520	-0,232	-0,095
116,991	337,878	-0,264	-0,359
118,006	384,438	-0,194	-0,279
119,020	-94,787	-0,423	-0,079
120,035	432,690	-0,166	-0,252
121,049	61,445	-0,129	-0,089
122,064	19,493	-0,282	-0,158
123,079	-13,420	-0,262	-0,118
124,093	211,466	-0,218	-0,239
125,108	95,908	-0,158	-0,126
126,122	231,332	-0,161	-0,185
127,137	-159,313	-0,055	-0,002
128,151	5,378	-0,240	-0,123
129,166	55,396	-0,163	-0,110
130,181	83,714	-0,248	-0,189
131,195	63,475	-0,276	-0,193
132,210	42,332	-0,227	-0,144
133,224	67,914	-0,254	-0,181
134,239	87,365	-0,313	-0,241
135,254	-75,399	-0,057	0,014
136,268	74,446	-0,181	-0,133
137,283	32,180	-0,337	-0,202
138,297	181,501	-0,191	-0,196
139,312	96,087	-0,234	-0,186
140,327	-6,093	-0,312	-0,148
141,341	94,817	-0,154	-0,122
142,356	-46,616	-0,335	-0,114
143,370	-176,338	-0,180	-0,003
144,385	51,123	-0,243	-0,161
145,400	138,602	-0,240	-0,220
146,414	8,564	-0,322	-0,168
147,429	8,780	-0,234	-0,123
148,443	89,638	-0,223	-0,173
149,458	-79,157	-0,194	-0,045
150,473	-45,604	-0,089	-0,030
151,487	-5,423	-0,109	-0,052
152,502	212,664	-0,222	-0,244
153,516	180,695	-0,268	-0,274
154,531	229,821	-0,270	-0,307
155,546	-94,079	-0,216	-0,041
156,560	-12,288	-0,223	-0,101
157,575	350,955	-0,178	-0,246
158,589	170,602	-0,161	-0,161
159,604	-50,006	-0,275	-0,090
160,619	12,710	-0,253	-0,136
161,633	-17,411	-0,312	-0,136
162,648	-57,917	-0,170	-0,051
163,662	35,636	-0,138	-0,084
164,677	-63,624	-0,123	-0,035
165,692	484,516	-0,118	-0,187
166,706	-22,328	-0,246	-0,103
167,721	35,707	-0,276	-0,168
168,735	411,050	-0,157	-0,233
169,750	15,840	-0,365	-0,199
170,764	98,296	-0,253	-0,202
171,779	800,000	-0,158	-0,348
172,794	-127,093	-0,244	-0,025
173,808	135,081	-0,226	-0,204
174,823	68,958	-0,307	-0,219
175,837	222,330	-0,246	-0,276
176,852	179,627	-0,276	-0,281
177,867	800,000	-0,087	-0,199
178,881	800,000	-0,078	-0,177
179,896	228,643	-0,121	-0,137
180,910	-104,001	-0,268	-0,043
181,925	11,130	-0,250	-0,133
182,940	209,415	-0,245	-0,267
183,954	80,996	-0,287	-0,215
184,969	-48,201	-0,204	-0,068
185,983	505,054	-0,173	-0,279
186,998	229,939	-0,234	-0,266
188,013	59,018	-0,206	-0,141
189,027	136,719	-0,266	-0,241
190,042	-38,742	-0,242	-0,088
191,056	113,421	-0,207	-0,175
192,071	32,500	-0,172	-0,103
193,086	198,919	-0,152	-0,162
194,100	-14,541	-0,236	-0,105
195,115	236,620	-0,110	-0,126
196,129	60,472	-0,133	-0,091
197,144	-67,721	-0,172	-0,046
198,159	-34,693	-0,242	-0,091
199,173	112,460	-0,294	-0,246
200,188	-84,760	-0,210	-0,045
201,202	-31,568	-0,139	-0,054
202,217	-163,026	-0,245	-0,008
203,232	127,076	-0,225	-0,198
204,246	215,383	-0,142	-0,156
205,261	30,718	-0,279	-0,165
206,275	370,491	-0,210	-0,296
207,290	318,081	-0,138	-0,182
208,304	106,668	-0,234	-0,192
209,319	32,939	-0,294	-0,176
210,334	310,300	-0,087	-0,113
211,348	281,641	-0,202	-0,252
212,363	273,963	-0,183	-0,224
213,377	338,053	-0,175	-0,236
214,392	14,590	-0,168	-0,091
215,407	387,800	-0,100	-0,144
216,421	-52,308	-0,193	-0,061
217,436	416,299	-0,117	-0,173
218,450	800,000	-0,115	-0,274
219,465	59,956	-0,234	-0,160
220,480	-113,701	-0,302	-0,040
221,494	-10,616	-0,145	-0,066
222,509	188,806	-0,208	-0,216
223,523	142,340	-0,081	-0,074
224,538	55,830	-0,145	-0,097
225,553	231,395	-0,256	-0,291
226,567	-111,307	-0,152	-0,021
227,582	-200,000	-0,020	-0,144
228,596	68,683	-0,247	-0,175
229,611	19,810	-0,191	-0,106
230,626	318,774	-0,130	-0,171
231,640	44,505	-0,188	-0,119
232,655	98,368	-0,150	-0,120
233,669	147,011	-0,234	-0,217
234,684	-70,385	-0,248	-0,065
235,699	113,992	-0,175	-0,147
236,713	36,447	-0,166	-0,101
237,728	335,225	-0,161	-0,216
238,742	18,054	-0,253	-0,139
239,757	82,048	-0,257	-0,192
240,772	71,292	-0,298	-0,214
241,786	8,851	-0,116	0,060
242,801	45,573	-0,208	-0,132
243,815	800,000	-0,060	-0,154
244,830	-77,901	-0,106	-0,025
245,844	-45,146	-0,281	-0,096
246,859	63,558	-0,221	-0,153
247,874	8,084	-0,308	-0,159
248,888	-75,206	-0,328	-0,080
249,903	800,000	-0,042	-0,096
250,917	234,753	-0,149	-0,170
251,932	228,734	-0,212	-0,238
252,947	-115,177	-0,095	0,012
253,961	-68,048	-0,222	-0,059
254,976	393,067	-0,265	-0,382
255,990	193,774	-0,253	-0,264
257,005	233,203	-0,190	-0,216
258,020	62,049	-0,208	-0,143
259,034	-150,460	-0,209	-0,011
260,049	-138,031	-0,244	-0,018
261,063	-84,997	-0,209	-0,045
262,078	-200,000	-0,053	-0,255
263,093	370,021	-0,167	-0,234
264,107	1,601	-0,152	-0,075
265,122	-3,509	-0,135	-0,064
266,136	-37,226	-0,065	0,024
267,151	6,923	-0,181	-0,093
268,166	-135,197	-0,146	0,012
269,180	135,652	-0,216	-0,194
270,195	181,570	-0,234	-0,238
271,209	-56,254	-0,235	-0,072
272,224	64,245	-0,212	-0,147
273,239	243,685	-0,143	-0,165
274,253	116,436	-0,186	-0,157
275,268	75,887	-0,204	-0,148
276,282	446,018	-0,158	-0,240
277,297	-91,689	-0,252	-0,049
278,312	38,386	-0,064	-0,039
279,326	54,454	-0,167	-0,110
280,341	548,137	-0,080	-0,132
281,355	133,147	-0,108	-0,096
282,370	-80,757	-0,291	-0,066
283,384	-151,153	-0,184	0,009
284,399	19,690	-0,147	-0,081
285,414	318,877	-0,114	-0,150
286,428	-139,722	-0,115	-0,008
287,443	327,707	-0,123	-0,162
288,457	-7,522	-0,055	-0,025
289,472	-117,591	-0,168	-0,021
290,487	78,324	-0,168	-0,123
291,501	751,879	-0,113	-0,211
292,516	800,000	-0,152	-0,295
293,530	-129,953	-0,159	-0,015
294,545	391,125	0,075	-0,108
295,560	-188,204	-0,132	0,001
296,574	200,094	-0,117	-0,124
297,589	-115,482	-0,264	0,034
298,603	481,970	-0,071	-0,111
299,618	-200,000	-0,053	-0,165
300,633	-44,876	-0,189	-0,064
301,647	124,347	-0,104	-0,089
302,662	-49,037	-0,047	-0,015
303,676	-117,080	-0,146	-0,018
304,691	800,000	-0,095	-0,211
305,706	-200,000	-0,059	-0,198
306,720	-60,904	-0,250	-0,072
307,735	67,904	-0,155	-0,109
308,749	800,000	-0,063	-0,151
309,764	54,012	-0,146	-0,097
310,779	87,248	-0,078	-0,060
311,793	0,438	-0,191	-0,093
312,808	341,426	-0,154	-0,206
313,822	143,114	-0,145	-0,132
314,837	-169,846	-0,183	0,004
315,852	155,334	-0,084	-0,079
316,866	-48,730	-0,160	-0,052
317,881	254,717	-0,196	-0,230
318,895	259,274	-0,088	-0,104
319,910	112,405	-0,190	-0,158
320,925	76,991	-0,230	-0,167
321,939	385,056	-0,101	-0,143
322,954	190,158	-0,169	-0,174
323,968	17,923	-0,050	-0,027
324,983	148,489	-0,096	-0,089
325,997	-85,233	-0,166	-0,035
327,012	7,582	-0,169	-0,086
328,027	800,000	-0,085	-0,213
329,041	-41,835	-0,256	-0,090
330,056	800,000	-0,074	-0,164
331,070	294,505	-0,060	-0,075
332,085	397,113	-0,102	-0,147
333,100	-93,814	-0,097	-0,018
334,114	211,197	-0,063	-0,068
335,129	-22,598	-0,152	-0,063
336,143	12,268	-0,246	-0,130
337,158	29,401	-0,157	-0,091
338,173	-118,380	-0,112	-0,013
339,187	800,000	-0,063	-0,148
340,202	43,341	-0,176	-0,110
341,216	-30,966	-0,262	-0,101
342,231	668,922	-0,088	-0,157
343,246	261,850	-0,173	-0,205
344,260	-200,000	-0,032	-0,135
345,275	-10,203	-0,125	0,056
346,289	-200,000	0,019	-0,093
347,304	192,605	-0,070	-0,072
348,319	800,000	-0,039	-0,075
349,333	-200,000	-0,035	-0,146
350,348	151,401	-0,113	-0,105
351,362	-123,266	-0,158	0,017
352,377	28,759	-0,094	0,054
353,392	-32,489	-0,158	-0,060
354,406	416,530	-0,046	-0,067
355,421	207,923	1310,274	1401,375
356,435	159,972	1470,406	1401,844
