DTS Sentinel unit serial number:	SN410029Multiplexer serial number:	ORYXHardware model number:	OX2-SRSoftware version number:	ORYX F/W v4,00 Oryx Data Collector v3.7.2.0data status	okinstallation	B3 Nyhavnadifferential loss correction	single-endedforward channel	channel 1reverse channel	N/Adate	2023/11/29time	18:47:30forward acquisition time	300,00reverse acquisition time	0,00gamma	499,1914k internal	0,3209k external	0,3209temperature offset calibration	1,0000default loss term (dB/km)	0,3820temperature slope calibration	1,0000multiplexer offset coefficient	1,0000multiplexer slope coefficient	1,0000fibre end	0,00T internal ref (°C)	11,06T ext. ref 1 (°C)	-4,15T ext. ref 2 (°C)	-4,28length (m)	temperature (°C)	Stokes	anti-Stokes-744,400	543,788	-0,121	-0,210
-743,385	-200,000	0,041	0,321
-742,371	19,882	-0,249	-0,145
-741,356	-200,000	0,052	0,397
-740,342	-39,659	-0,214	-0,081
-739,327	-200,000	-0,028	0,368
-738,312	-27,125	-0,302	-0,127
-737,298	800,000	-0,075	0,163
-736,283	293,531	-0,284	-0,376
-735,269	-200,000	0,018	0,214
-734,254	800,000	-0,120	-0,342
-733,239	-75,263	-0,182	0,047
-732,225	800,000	-0,074	-0,231
-731,210	25,968	0,163	0,098
-730,196	23,816	-0,100	0,059
-729,181	-200,000	-0,026	-0,126
-728,167	-8,434	-0,041	0,020
-727,152	800,000	0,001	0,001
-726,137	142,255	-0,129	-0,124
-725,123	301,414	-0,105	-0,141
-724,108	88,607	-0,159	-0,128
-723,094	-145,253	0,147	-0,009
-722,079	800,000	0,046	-0,092
-721,064	-82,577	0,073	0,017
-720,050	-6,662	0,098	-0,048
-719,035	-200,000	0,008	-0,039
-718,021	-200,000	-0,006	-0,050
-717,006	-30,440	0,106	-0,043
-715,991	43,783	-0,010	0,007
-714,977	-164,333	-0,010	0,000
-713,962	-173,284	0,102	-0,002
-712,948	85,084	-0,065	0,052
-711,933	85,555	0,052	-0,041
-710,918	-123,104	-0,162	0,019
-709,904	800,000	0,003	-0,007
-708,889	-3,518	-0,185	-0,093
-707,875	-126,849	0,034	-0,004
-706,860	172,163	-0,024	0,025
-705,845	127,996	0,178	-0,164
-704,831	-50,095	-0,090	0,031
-703,816	411,223	-0,004	-0,006
-702,802	-161,585	0,124	-0,005
-701,787	109,314	0,031	0,027
-700,772	38,976	-0,065	-0,042
-699,758	-110,597	0,142	0,021
-698,743	-105,254	0,092	-0,015
-697,729	800,000	-0,061	0,134
-696,714	-64,536	0,064	-0,019
-695,699	314,557	-0,032	0,044
-694,685	-93,957	0,033	0,007
-693,670	37,581	-0,071	0,046
-692,656	-7,793	0,183	-0,089
-691,641	-27,728	-0,042	-0,018
-690,627	-200,000	0,002	-0,038
-689,612	290,903	0,044	0,058
-688,597	259,949	-0,055	0,069
-687,583	-200,000	0,002	-0,047
-686,568	424,708	-0,009	-0,013
-685,554	-200,000	0,018	-0,066
-684,539	-48,604	0,115	0,040
-683,524	526,897	-0,052	-0,089
-682,510	0,827	-0,067	-0,035
-681,495	-200,000	-0,009	0,037
-680,481	-73,969	0,029	-0,007
-679,466	194,439	-0,082	-0,090
-678,451	800,000	-0,038	-0,094
-677,437	-200,000	-0,019	-0,108
-676,422	-200,000	-0,024	0,158
-675,408	-183,940	-0,070	0,001
-674,393	-200,000	0,004	-0,154
-673,378	800,000	-0,031	-0,084
-672,364	-200,000	-0,016	0,072
-671,349	-34,747	0,041	0,016
-670,335	800,000	-0,049	-0,114
-669,320	800,000	0,019	0,058
-668,305	201,561	-0,014	0,016
-667,291	59,423	0,032	-0,023
-666,276	-200,000	-0,053	-0,190
-665,262	133,627	-0,098	-0,091
-664,247	263,821	0,071	0,089
-663,232	-200,000	0,009	0,084
-662,218	800,000	-0,017	-0,044
-661,203	-114,188	-0,142	0,020
-660,189	-200,000	0,006	-0,053
-659,174	29,970	0,070	-0,043
-658,159	205,269	0,067	-0,076
-657,145	800,000	-0,031	0,074
-656,130	29,690	0,044	0,027
-655,116	-32,786	-0,048	0,019
-654,101	5,357	0,123	0,065
-653,086	130,482	-0,072	-0,067
-652,072	-0,756	-0,085	-0,043
-651,057	800,000	-0,087	0,195
-650,043	800,000	-0,032	0,072
-649,028	-200,000	-0,018	-0,111
-648,014	-200,000	0,023	0,147
-646,999	83,233	-0,109	0,086
-645,984	-42,646	-0,169	0,062
-644,970	4,405	0,044	-0,023
-643,955	21,038	-0,071	-0,042
-642,941	-93,034	0,074	-0,015
-641,926	93,119	-0,049	-0,040
-640,911	23,199	-0,139	0,082
-639,897	800,000	-0,058	-0,148
-638,882	-16,634	0,090	-0,041
-637,868	49,850	0,030	0,020
-636,853	170,176	-0,010	-0,010
-635,838	391,999	-0,043	0,064
-634,824	208,771	0,076	-0,087
-633,809	-101,186	0,132	0,023
-632,795	-110,201	-0,068	-0,010
-631,780	-1,209	-0,090	0,046
-630,765	5,648	-0,060	-0,032
-629,751	-53,367	-0,145	0,048
-628,736	-90,000	-0,110	-0,023
-627,722	-200,000	0,033	-0,149
-626,707	59,995	0,072	-0,052
-625,692	-58,411	0,066	-0,021
-624,678	-66,863	0,074	-0,021
-623,663	69,458	-0,077	0,057
-622,649	-104,368	0,028	0,005
-621,634	-200,000	0,003	-0,015
-620,619	-74,699	-0,134	-0,035
-619,605	268,817	0,064	-0,081
-618,590	22,518	0,099	-0,058
-617,576	232,989	0,033	0,039
-616,561	-200,000	0,009	-0,043
-615,546	228,057	-0,077	-0,090
-614,532	800,000	-0,054	-0,121
-613,517	800,000	0,017	-0,043
-612,503	397,815	0,026	0,039
-611,488	161,279	0,062	-0,063
-610,474	193,628	0,119	0,130
-609,459	-200,000	-0,002	0,066
-608,444	131,621	-0,098	-0,091
-607,430	372,311	-0,057	0,083
-606,415	550,653	0,140	-0,243
-605,401	-200,000	0,005	-0,255
-604,386	-200,000	-0,014	0,136
-603,371	3,900	0,010	-0,005
-602,357	404,861	-0,114	-0,175
-601,342	72,180	0,052	-0,039
-600,328	-200,000	-0,007	-0,195
-599,313	-133,788	0,117	0,010
-598,298	569,113	-0,058	-0,102
-597,284	199,481	-0,042	0,047
-596,269	171,701	0,043	0,045
-595,255	-200,000	-0,016	0,141
-594,240	406,759	0,073	0,111
-593,225	-113,731	-0,047	0,007
-592,211	-200,000	-0,007	-0,114
-591,196	264,392	-0,085	-0,106
-590,182	800,000	-0,028	0,075
-589,167	185,890	0,059	0,063
-588,152	-78,243	-0,084	-0,021
-587,138	-71,074	0,109	-0,029
-586,123	220,678	0,064	-0,074
-585,109	-21,414	0,025	0,011
-584,094	-4,125	-0,043	0,021
-583,079	146,573	0,070	0,067
-582,065	800,000	0,006	-0,014
-581,050	-200,000	-0,013	-0,110
-580,036	800,000	-0,030	-0,067
-579,021	800,000	-0,072	-0,168
-578,006	-190,234	0,102	-0,001
-576,992	-65,405	-0,226	0,065
-575,977	-116,490	0,070	-0,009
-574,963	-200,000	0,012	0,080
-573,948	-34,818	-0,110	0,043
-572,934	-25,325	0,142	-0,060
-571,919	476,727	-0,051	-0,084
-570,904	59,619	-0,119	-0,085
-569,890	513,918	0,014	0,023
-568,875	-200,000	0,003	0,112
-567,861	419,128	-0,020	-0,031
-566,846	-25,381	0,139	0,059
-565,831	-32,090	0,038	-0,015
-564,817	-72,865	-0,035	0,009
-563,802	-126,778	-0,169	-0,018
-562,788	310,716	0,056	-0,076
-561,773	-56,836	0,081	-0,026
-560,758	-145,763	-0,204	0,013
-559,744	9,391	0,124	-0,067
-558,729	-200,000	-0,006	0,094
-557,715	800,000	0,093	-0,271
-556,700	800,000	-0,025	-0,074
-555,685	187,644	0,171	-0,184
-554,671	-200,000	0,022	-0,079
-553,656	-129,523	-0,008	0,001
-552,642	-133,904	0,108	-0,009
-551,627	140,376	-0,089	0,084
-550,612	-200,000	0,010	0,071
-549,598	800,000	0,033	-0,099
-548,583	800,000	0,033	-0,074
-547,569	122,536	0,030	-0,027
-546,554	226,415	0,128	0,150
-545,539	32,186	0,076	-0,047
-544,525	184,797	0,044	0,047
-543,510	346,173	-0,016	-0,023
-542,496	473,630	0,091	-0,148
-541,481	800,000	0,020	-0,052
-540,466	748,454	0,026	0,050
-539,452	-157,357	0,123	0,005
-538,437	-200,000	0,048	0,170
-537,423	127,300	0,086	-0,078
-536,408	163,239	-0,124	-0,125
-535,393	-116,831	-0,154	-0,020
-534,379	155,076	0,022	0,022
-533,364	-149,799	0,071	0,004
-532,350	580,374	-0,091	0,161
-531,335	580,938	0,074	0,132
-530,321	800,000	-0,073	0,170
-529,306	-36,158	-0,124	-0,048
-528,291	800,000	0,039	-0,108
-527,277	84,931	-0,052	-0,041
-526,262	80,028	0,085	0,065
-525,248	800,000	0,079	0,159
-524,233	-200,000	-0,002	0,032
-523,218	-59,612	-0,119	-0,036
-522,204	74,390	0,022	0,017
-521,189	800,000	-0,082	-0,168
-520,175	97,491	0,025	0,021
-519,160	-66,653	-0,094	-0,027
-518,145	-200,000	0,006	-0,090
-517,131	130,818	-0,022	0,020
-516,116	-166,692	-0,038	0,001
-515,102	-200,000	-0,012	-0,073
-514,087	21,044	-0,123	0,072
-513,072	111,384	-0,056	0,049
-512,058	158,538	-0,060	0,060
-511,043	245,243	0,050	0,061
-510,029	-2,059	0,051	0,026
-509,014	-200,000	-0,001	0,045
-507,999	-126,228	0,162	0,017
-506,985	-200,000	0,001	-0,010
-505,970	-200,000	-0,007	-0,094
-504,956	800,000	-0,010	-0,022
-503,941	304,998	0,023	-0,030
-502,926	491,435	0,051	0,084
-501,912	800,000	-0,047	-0,106
-500,897	-24,480	-0,017	0,007
-499,883	134,082	-0,100	0,093
-498,868	75,413	-0,123	-0,093
-497,853	435,682	-0,061	-0,096
-496,839	-7,786	0,076	-0,037
-495,824	216,761	0,132	0,151
-494,810	-200,000	-0,007	0,056
-493,795	138,509	0,132	0,124
-492,781	800,000	0,033	0,087
-491,766	-200,000	0,032	-0,108
-490,751	400,180	0,024	0,036
-489,737	385,537	0,024	0,036
-488,722	175,179	-0,060	-0,063
-487,708	-200,000	-0,041	0,153
-486,693	-36,157	0,092	0,035
-485,678	800,000	0,046	-0,126
-484,664	-74,692	0,036	-0,009
-483,649	-200,000	-0,002	-0,033
-482,635	-200,000	0,021	-0,068
-481,620	-200,000	0,014	-0,082
-480,605	577,882	0,012	0,021
-479,591	-33,428	0,190	-0,075
-478,576	800,000	0,041	-0,121
-477,562	137,794	-0,007	0,006
-476,547	354,595	0,011	-0,016
-475,532	272,879	0,006	-0,008
-474,518	-29,424	0,086	0,035
-473,503	1,962	-0,062	-0,032
-472,489	800,000	0,040	0,120
-471,474	135,181	0,065	0,060
-470,459	-47,881	-0,061	0,021
-469,445	-200,000	0,017	-0,089
-468,430	181,981	-0,026	-0,028
-467,416	-200,000	0,003	-0,076
-466,401	-15,157	0,086	-0,039
-465,386	74,878	0,060	-0,045
-464,372	105,954	0,030	-0,026
-463,357	-118,863	-0,155	-0,019
-462,343	-187,823	-0,098	-0,001
-461,328	-87,160	-0,040	0,009
-460,313	172,451	0,061	0,063
-459,299	225,607	0,083	0,097
-458,284	194,925	-0,095	-0,103
-457,270	331,959	0,070	-0,098
-456,255	-30,295	-0,185	-0,075
-455,241	-200,000	-0,026	-0,170
-454,226	800,000	-0,024	-0,057
-453,211	-107,853	-0,108	0,017
-452,197	800,000	-0,044	0,104
-451,182	-200,000	-0,017	0,055
-450,168	119,757	0,082	0,073
-449,153	109,883	-0,061	0,052
-448,138	691,777	-0,013	0,025
-447,124	-104,509	0,049	-0,008
-446,109	222,058	-0,051	0,059
-445,095	567,707	0,009	-0,015
-444,080	-88,067	0,125	0,027
-443,065	-61,691	-0,050	0,015
-442,051	800,000	0,033	0,089
-441,036	-200,000	0,023	0,103
-440,022	41,980	0,116	-0,075
-439,007	-200,000	0,017	0,108
-437,992	-200,000	-0,016	-0,056
-436,978	306,632	-0,039	-0,053
-435,963	719,210	-0,060	0,114
-434,949	-73,860	0,068	0,018
-433,934	-32,984	-0,041	-0,016
-432,919	-57,530	0,108	0,034
-431,905	-200,000	-0,028	0,092
-430,890	-200,000	0,023	0,146
-429,876	426,126	0,027	0,042
-428,861	195,321	0,020	0,022
-427,846	-48,105	-0,042	-0,015
-426,832	154,422	0,043	-0,043
-425,817	-11,216	-0,083	-0,039
-424,803	-12,961	-0,074	0,034
-423,788	-19,634	-0,068	0,030
-422,773	614,820	0,109	0,197
-421,759	-200,000	-0,028	0,188
-420,744	-13,940	-0,147	-0,068
-419,730	-200,000	-0,018	-0,058
-418,715	2,199	0,039	-0,020
-417,701	74,203	0,051	-0,038
-416,686	-73,625	0,040	0,010
-415,671	-200,000	-0,010	0,064
-414,657	-50,333	0,049	0,017
-413,642	800,000	-0,011	0,025
-412,628	-200,000	-0,003	0,025
-411,613	178,143	-0,129	-0,135
-410,598	-200,000	-0,047	-0,184
-409,584	375,321	0,071	0,104
-408,569	674,829	-0,109	0,203
-407,555	-7,192	0,028	0,014
-406,540	-147,426	-0,093	0,006
-405,525	242,429	0,021	0,026
-404,511	-200,000	-0,042	-0,158
-403,496	143,153	0,062	0,059
-402,482	-200,000	-0,007	-0,093
-401,467	-28,138	0,135	-0,055
-400,452	238,790	0,105	0,125
-399,438	-91,091	-0,143	0,029
-398,423	800,000	-0,019	-0,043
-397,409	90,537	-0,093	-0,074
-396,394	-131,309	-0,014	0,001
-395,379	361,862	-0,077	0,111
-394,365	-182,463	0,032	-0,000
-393,350	-200,000	-0,025	-0,084
-392,336	800,000	-0,029	0,071
-391,321	-200,000	0,002	-0,054
-390,306	-200,000	0,020	-0,077
-389,292	149,014	-0,070	0,068
-388,277	-200,000	-0,016	0,107
-387,263	40,406	-0,070	-0,045
-386,248	254,468	0,103	0,126
-385,233	165,719	0,084	0,085
-384,219	153,759	-0,079	-0,078
-383,204	748,619	-0,047	-0,091
-382,190	248,615	-0,070	-0,085
-381,175	587,516	-0,068	0,120
-380,160	-136,863	-0,022	-0,002
-379,146	1,558	0,126	0,065
-378,131	-136,000	-0,038	-0,003
-377,117	-0,595	0,090	0,045
-376,102	-200,000	-0,044	0,155
-375,088	-139,618	0,069	0,005
-374,073	-23,139	-0,057	0,025
-373,058	269,983	0,109	0,138
-372,044	-199,534	-0,086	-0,000
-371,029	-200,000	-0,019	0,067
-370,015	130,646	-0,044	0,040
-369,000	46,930	0,090	-0,060
-367,985	-113,152	-0,080	-0,011
-366,971	-43,853	0,146	-0,052
-365,956	-124,373	-0,081	0,009
-364,942	104,624	0,063	0,053
-363,927	249,308	-0,049	0,060
-362,912	-1,894	-0,063	0,032
-361,898	-188,783	0,116	0,001
-360,883	-200,000	0,002	-0,044
-359,869	-125,366	-0,124	0,013
-358,854	-200,000	-0,033	0,122
-357,839	800,000	0,097	0,198
-356,825	92,807	-0,043	0,034
-355,810	215,679	0,086	0,098
-354,796	266,316	0,054	-0,068
-353,781	-118,115	0,154	0,019
-352,766	800,000	-0,061	-0,161
-351,752	-200,000	-0,003	-0,102
-350,737	24,152	0,118	0,069
-349,723	-27,350	0,128	-0,053
-348,708	437,993	-0,030	0,047
-347,693	800,000	-0,033	-0,077
-346,679	800,000	-0,009	-0,028
-345,664	-6,959	-0,157	-0,076
-344,650	800,000	0,037	-0,100
-343,635	-93,386	0,134	0,026
-342,620	-200,000	-0,029	0,115
-341,606	132,828	0,065	-0,060
-340,591	674,006	-0,057	0,107
-339,577	-94,974	-0,071	0,014
-338,562	-59,350	0,135	-0,041
-337,548	114,444	0,082	0,071
-336,533	-200,000	0,008	0,067
-335,518	-200,000	0,005	0,082
-334,504	75,444	-0,050	0,038
-333,489	-200,000	0,002	-0,025
-332,475	-82,770	-0,026	-0,006
-331,460	339,850	0,003	-0,005
-330,445	-25,900	-0,041	0,017
-329,431	800,000	0,060	0,120
-328,416	-18,534	0,064	0,028
-327,402	74,834	0,037	-0,027
-326,387	-174,478	-0,050	-0,001
-325,372	144,096	0,046	-0,044
-324,358	800,000	-0,053	-0,113
-323,343	-200,000	-0,004	-0,097
-322,329	-200,000	0,016	0,091
-321,314	196,618	-0,102	-0,111
-320,299	222,422	0,024	0,028
-319,285	800,000	0,023	-0,056
-318,270	223,528	-0,036	-0,042
-317,256	-200,000	0,017	0,056
-316,241	489,120	0,064	0,105
-315,226	43,880	0,090	0,059
-314,212	87,434	-0,151	0,119
-313,197	56,527	0,057	-0,039
-312,183	575,620	-0,058	-0,101
-311,168	-200,000	0,002	0,031
-310,153	-64,823	-0,180	0,052
-309,139	-200,000	0,017	0,106
-308,124	800,000	-0,021	-0,053
-307,110	800,000	-0,019	0,057
-306,095	104,066	-0,015	-0,012
-305,080	688,475	-0,032	-0,061
-304,066	-116,043	-0,149	-0,020
-303,051	800,000	-0,050	-0,112
-302,037	-200,000	-0,020	-0,073
-301,022	-200,000	0,011	-0,212
-300,008	-8,688	0,049	-0,023
-298,993	636,570	-0,040	0,072
-297,978	27,468	-0,072	0,043
-296,964	-200,000	-0,041	-0,182
-295,949	800,000	-0,023	-0,067
-294,935	76,031	-0,099	-0,074
-293,920	-22,719	0,048	-0,021
-292,905	-76,904	-0,114	-0,028
-291,891	800,000	0,035	0,100
-290,876	143,385	0,102	0,097
-289,862	741,220	-0,013	-0,025
-288,847	-100,531	-0,162	0,028
-287,832	-200,000	-0,003	-0,021
-286,818	-15,994	-0,034	-0,015
-285,803	152,457	0,140	0,136
-284,789	193,924	-0,055	0,060
-283,774	94,832	0,038	-0,031
-282,759	-82,902	-0,068	0,016
-281,745	-200,000	-0,001	0,040
-280,730	604,567	0,041	-0,073
-279,716	800,000	0,043	-0,108
-278,701	800,000	0,061	0,186
-277,686	450,512	0,016	0,025
-276,672	-200,000	0,001	0,014
-275,657	-0,471	-0,068	0,034
-274,643	-200,000	-0,014	-0,094
-273,628	16,984	-0,189	0,107
-272,613	-5,533	0,072	-0,035
-271,599	-200,000	0,001	-0,035
-270,584	273,338	0,083	0,105
-269,570	-200,000	0,027	0,201
-268,555	800,000	0,005	-0,014
-267,540	-200,000	-0,006	0,054
-266,526	800,000	0,031	0,078
-265,511	-200,000	0,035	0,143
-264,497	634,218	0,028	0,052
-263,482	48,080	0,029	-0,020
-262,467	800,000	0,019	-0,060
-261,453	-138,735	-0,126	0,010
-260,438	-15,190	-0,098	0,044
-259,424	-157,264	-0,187	-0,008
-258,409	75,790	-0,016	0,012
-257,395	-99,404	0,132	0,023
-256,380	-200,000	0,003	-0,093
-255,365	800,000	0,048	0,097
-254,351	800,000	-0,039	-0,102
-253,336	-27,744	0,094	-0,039
-252,322	94,434	-0,018	-0,015
-251,307	800,000	-0,007	0,019
-250,292	-200,000	-0,013	-0,087
-249,278	593,439	0,092	-0,162
-248,263	248,369	0,079	0,095
-247,249	800,000	-0,057	0,159
-246,234	208,865	-0,052	0,058
-245,219	-164,327	-0,096	-0,003
-244,205	800,000	0,024	0,063
-243,190	-200,000	-0,012	0,050
-242,176	-68,500	0,066	0,018
-241,161	800,000	-0,034	0,099
-240,146	103,979	0,107	0,090
-239,132	-29,191	0,062	0,025
-238,117	-138,207	0,117	-0,009
-237,103	-131,130	0,088	-0,008
-236,088	156,581	-0,105	0,103
-235,073	273,075	-0,019	-0,024
-234,059	13,028	0,069	0,038
-233,044	-97,558	-0,073	-0,013
-232,030	-62,787	-0,045	0,013
-231,015	128,864	-0,125	-0,114
-230,000	-200,000	-0,025	-0,086
-228,986	-200,000	-0,007	-0,099
-227,971	3,181	0,112	0,058
-226,957	86,786	0,048	-0,038
-225,942	-11,621	-0,025	-0,012
-224,927	95,850	-0,062	-0,051
-223,913	-200,000	-0,026	-0,212
-222,898	331,688	-0,082	-0,113
-221,884	337,436	0,048	0,067
-220,869	-49,708	0,108	0,036
-219,855	42,172	-0,134	0,087
-218,840	-95,352	0,106	0,020
-217,825	193,441	0,049	-0,053
-216,811	800,000	0,044	0,089
-215,796	-15,047	-0,132	-0,060
-214,782	64,460	-0,072	-0,052
-213,767	-126,494	0,144	0,015
-212,752	-200,000	-0,013	-0,079
-211,738	437,918	-0,026	0,041
-210,723	140,890	0,035	-0,033
-209,709	-136,144	-0,062	-0,005
-208,694	800,000	-0,005	0,015
-207,679	800,000	-0,031	-0,085
-206,665	-200,000	-0,014	0,054
-205,650	386,401	0,028	0,042
-204,636	-200,000	0,011	-0,125
-203,621	25,643	-0,035	-0,021
-202,606	-200,000	-0,012	0,088
-201,592	472,621	0,031	-0,050
-200,577	14,756	0,054	0,030
-199,563	800,000	-0,021	-0,050
-198,548	360,422	0,094	0,134
-197,533	-34,367	-0,094	0,036
-196,519	559,288	0,040	0,068
-195,504	139,166	-0,051	-0,048
-194,490	-200,000	0,008	-0,049
-193,475	-190,975	-0,077	0,001
-192,460	20,855	-0,108	0,062
-191,446	-51,894	0,142	0,047
-190,431	-111,064	0,142	-0,020
-189,417	-200,000	0,022	0,124
-188,402	2,934	0,072	0,037
-187,387	-200,000	-0,009	-0,100
-186,373	305,032	-0,030	0,039
-185,358	17,821	0,114	-0,064
-184,344	-141,282	-0,098	-0,007
-183,329	41,631	-0,058	0,037
-182,315	-200,000	-0,005	0,065
-181,300	-157,022	-0,059	0,003
-180,285	-57,211	-0,213	-0,066
-179,271	222,984	0,086	-0,098
-178,256	89,403	0,065	0,051
-177,242	108,285	0,123	0,104
-176,227	-200,000	-0,011	-0,035
-175,212	800,000	0,046	-0,113
-174,198	-43,998	0,071	-0,025
-173,183	183,848	-0,064	-0,067
-172,169	-28,967	-0,098	0,040
-171,154	-200,000	0,006	0,035
-170,139	40,927	0,129	0,082
-169,125	365,384	0,084	0,120
-168,110	-200,000	0,004	0,016
-167,096	-200,000	-0,020	-0,066
-166,081	800,000	0,007	0,013
-165,066	149,728	-0,107	-0,103
-164,052	199,468	0,109	-0,118
-163,037	-123,745	-0,095	-0,011
-162,023	800,000	0,096	0,234
-161,008	-200,000	0,003	0,049
-159,993	800,000	-0,009	-0,021
-158,979	452,977	-0,084	-0,132
-157,964	-103,484	-0,027	-0,004
-156,950	313,378	-0,068	-0,091
-155,935	319,732	0,079	0,106
-154,920	30,442	0,037	-0,022
-153,906	598,994	0,058	-0,103
-152,891	-172,028	0,067	-0,001
-151,877	-15,175	-0,102	-0,046
-150,862	-200,000	-0,006	0,066
-149,847	-200,000	-0,022	0,161
-148,833	170,833	-0,052	-0,053
-147,818	-67,206	0,197	0,054
-146,804	336,944	-0,102	0,141
-145,789	35,967	0,128	0,080
-144,775	-135,829	-0,110	-0,009
-143,760	168,275	0,042	0,043
-142,745	269,113	0,113	-0,141
-141,731	323,976	-0,024	0,033
-140,716	633,163	0,023	0,041
-139,702	111,648	0,056	0,048
-138,687	34,223	0,036	0,022
-137,672	23,314	-0,070	0,040
-136,658	-200,000	0,016	-0,145
-135,643	-200,000	0,034	0,115
-134,629	-200,000	0,025	0,081
-133,614	-35,844	-0,094	-0,036
-132,599	-141,745	0,094	0,007
-131,585	-151,835	0,035	0,002
-130,570	-1,874	-0,050	-0,025
-129,556	755,682	0,041	-0,079
-128,541	628,375	0,019	0,035
-127,526	178,436	-0,078	0,081
-126,512	-73,341	0,032	0,008
-125,497	-51,104	0,112	-0,037
-124,483	65,827	0,060	-0,043
-123,468	-200,000	-0,012	0,119
-122,453	800,000	0,070	-0,144
-121,439	49,259	0,046	0,030
-120,424	309,415	0,067	-0,089
-119,410	146,643	0,010	-0,010
-118,395	-200,000	-0,013	-0,042
-117,380	444,790	0,050	-0,078
-116,366	26,941	-0,030	0,018
-115,351	-2,319	-0,080	0,040
-114,337	-41,881	0,139	0,050
-113,322	342,152	0,006	0,009
-112,307	683,109	-0,047	0,087
-111,293	-5,899	0,051	0,025
-110,278	-118,589	-0,100	-0,012
-109,264	80,557	0,074	0,056
-108,249	133,104	-0,081	-0,074
-107,234	-65,434	-0,073	-0,021
-106,220	-200,000	-0,009	-0,090
-105,205	-200,000	-0,027	-0,114
-104,191	800,000	0,030	0,073
-103,176	41,540	0,051	0,033
-102,162	-56,276	-0,060	-0,019
-101,147	-27,731	-0,026	-0,011
-100,132	-73,565	-0,095	-0,024
-99,118	-200,000	-0,006	0,046
-98,103	692,495	-0,028	0,052
-97,089	800,000	0,019	0,039
-96,074	316,280	-0,019	-0,026
-95,059	63,065	0,053	0,038
-94,045	86,254	-0,064	-0,050
-93,030	307,433	-0,097	-0,129
-92,016	125,623	0,084	-0,075
-91,001	-200,000	-0,015	0,101
-89,986	375,913	0,096	-0,139
-88,972	-200,000	0,009	0,080
-87,957	60,908	0,032	0,022
-86,943	-200,000	0,026	-0,115
-85,928	367,916	0,024	-0,034
-84,913	-132,011	-0,126	-0,011
-83,899	-18,904	0,124	-0,055
-82,884	-200,000	-0,005	0,023
-81,870	176,003	-0,045	0,046
-80,855	277,132	-0,038	0,048
-79,840	-129,568	0,063	0,006
-78,826	-26,381	-0,127	0,052
-77,811	-200,000	-0,029	-0,127
-76,797	705,501	-0,021	-0,040
-75,782	-42,287	0,124	0,044
-74,767	323,669	-0,038	0,051
-73,753	800,000	0,051	0,158
-72,738	467,518	0,076	0,121
-71,724	-200,000	-0,014	-0,197
-70,709	800,000	-0,054	0,125
-69,694	-200,000	-0,003	0,039
-68,680	-64,552	-0,024	-0,007
-67,665	-91,166	-0,116	-0,023
-66,651	-200,000	-0,003	-0,034
-65,636	50,287	0,125	0,083
-64,622	-200,000	0,005	-0,195
-63,607	-161,526	-0,148	-0,005
-62,592	-79,414	0,120	0,028
-61,578	138,950	0,050	-0,047
-60,563	94,938	0,007	-0,006
-59,549	203,483	-0,024	0,027
-58,534	20,441	-1,979	-1,127
-57,519	442,547	-1,284	-1,992
-56,505	-200,000	-0,317	-4,337
-55,490	420,702	0,944	1,433
-54,476	800,000	5,095	11,201
-53,461	-200,000	20,718	328,879
-52,446	800,000	755,895	2320,849
-51,432	551,013	1661,514	2826,584
-50,417	73,727	1664,383	1230,411
-49,403	18,929	1537,529	867,651
-48,388	12,882	1460,473	794,890
-47,373	19,033	1451,104	819,316
-46,359	16,061	1440,439	799,105
-45,344	11,206	1436,040	773,500
-44,330	11,123	1434,416	772,199
-43,315	11,101	1432,534	771,051
-42,300	11,123	1430,640	770,103
-41,286	11,127	1429,633	769,551
-40,271	11,082	1428,140	768,504
-39,257	11,074	1427,211	767,934
-38,242	11,134	1425,773	767,414
-37,227	11,113	1424,893	766,810
-36,213	11,133	1423,502	766,127
-35,198	11,147	1422,490	765,616
-34,184	11,157	1421,492	765,100
-33,169	11,140	1420,117	764,246
-32,154	11,155	1419,140	763,761
-31,140	11,145	1417,761	762,944
-30,125	11,225	1416,697	762,715
-29,111	11,170	1415,744	761,915
-28,096	11,157	1414,452	761,129
-27,082	11,106	1413,304	760,238
-26,067	11,130	1411,965	759,603
-25,052	11,130	1410,999	759,052
-24,038	11,155	1410,119	758,667
-23,023	11,086	1409,290	757,866
-22,009	11,092	1408,028	757,188
-20,994	11,021	1407,384	756,476
-19,979	11,092	1406,272	756,180
-18,965	11,105	1405,138	755,600
-17,950	11,037	1404,489	754,907
-16,936	11,058	1403,612	754,501
-15,921	10,980	1402,689	753,612
-14,906	10,985	1401,630	753,038
-13,892	11,047	1400,519	752,698
-12,877	10,997	1399,998	752,156
-11,863	11,038	1399,056	751,809
-10,848	10,961	1398,209	750,967
-9,833	10,969	1397,257	750,464
-8,819	10,881	1396,713	749,736
-7,804	10,841	1395,823	749,044
-6,790	10,899	1394,487	748,565
-5,775	10,899	1393,554	748,034
-4,760	10,921	1392,673	747,630
-3,746	10,936	1391,631	747,112
-2,731	10,891	1390,742	746,399
-1,717	10,882	1389,930	745,892
-0,702	10,859	1388,153	744,802
0,313	14,860	1301,958	716,903
1,327	31,047	693,573	418,767
2,342	48,486	120,235	79,344
3,356	-1,707	16,602	8,222
4,371	23,151	3,302	1,908
5,386	-9,764	0,871	0,408
6,400	800,000	0,259	0,556
7,415	-168,989	-0,263	-0,007
8,429	40,124	-0,275	-0,174
9,444	175,146	-0,288	-0,294
10,459	262,055	-0,164	-0,201
11,473	138,757	-0,277	-0,257
12,488	11,723	-0,252	-0,136
13,502	147,728	-0,391	-0,372
14,517	-8,078	-0,361	-0,171
15,531	170,503	-0,214	-0,216
16,546	26,069	-0,287	-0,169
17,561	450,113	-0,242	-0,378
18,575	37,677	-0,204	-0,127
19,590	-74,557	-0,371	-0,093
20,604	23,875	-0,214	-0,124
21,619	-25,331	-0,464	-0,193
22,634	83,789	-0,382	-0,293
23,648	-17,877	-0,429	-0,189
24,663	71,664	-0,373	-0,272
25,677	59,712	-0,304	-0,211
26,692	129,616	-0,201	-0,181
27,707	232,093	-0,267	-0,309
28,721	15,313	-0,352	-0,194
29,736	154,901	-0,350	-0,339
30,750	38,221	-0,471	-0,294
31,765	124,719	-0,417	-0,370
32,780	94,454	-0,271	-0,217
33,794	128,574	-0,315	-0,283
34,809	21,677	-0,356	-0,204
35,823	41,886	-0,298	-0,189
36,838	48,647	-0,382	-0,252
37,853	368,016	-0,281	-0,400
38,867	195,322	-0,379	-0,406
39,882	17,166	-0,296	-0,165
40,896	-6,414	-0,306	-0,146
41,911	-79,787	-0,346	-0,081
42,926	191,056	-0,285	-0,302
43,940	25,119	-0,381	-0,222
44,955	227,908	-0,395	-0,452
45,969	-18,614	-0,397	-0,173
46,984	193,142	-0,283	-0,301
47,999	268,883	-0,242	-0,299
49,013	207,760	-0,254	-0,279
50,028	169,289	-0,291	-0,292
51,042	-2,632	-0,307	-0,151
52,057	136,898	-0,294	-0,270
53,071	25,953	-0,318	-0,186
54,086	27,802	-0,333	-0,197
55,101	23,260	-0,240	-0,138
56,115	107,708	-0,330	-0,276
57,130	89,949	-0,254	-0,199
58,144	31,655	-0,355	-0,214
59,159	79,662	-0,427	-0,322
60,174	149,121	-0,364	-0,346
61,188	79,761	-0,363	-0,274
62,203	-43,730	-0,429	-0,151
63,217	-62,412	-0,215	-0,062
64,232	-57,873	-0,363	-0,111
65,247	196,517	-0,284	-0,304
66,261	-33,667	-0,285	-0,110
67,276	114,157	-0,390	-0,333
68,290	45,052	-0,319	-0,206
69,305	76,645	-0,328	-0,244
70,320	-33,366	-0,401	-0,155
71,334	2,645	-0,400	-0,203
72,349	93,126	-0,349	-0,276
73,363	31,640	-0,282	-0,170
74,378	190,263	-0,326	-0,344
75,393	96,396	-0,313	-0,251
76,407	0,507	-0,274	-0,137
77,422	117,256	-0,268	-0,231
78,436	107,279	-0,319	-0,265
79,451	-102,897	-0,251	-0,041
80,466	291,553	-0,298	-0,381
81,480	22,804	-0,341	-0,195
82,495	24,922	-0,246	-0,142
83,509	171,393	-0,211	-0,213
84,524	-121,333	-0,197	-0,023
85,539	-25,907	-0,178	-0,073
86,553	78,090	-0,205	-0,153
87,568	53,770	-0,306	-0,205
88,582	7,060	-0,379	-0,197
89,597	44,500	-0,181	-0,116
90,611	-20,231	-0,350	-0,150
91,626	-88,376	-0,249	-0,052
92,641	0,593	-0,326	-0,162
93,655	243,595	-0,215	-0,252
94,670	44,310	-0,393	-0,252
95,684	122,433	-0,302	-0,264
96,699	65,387	-0,229	-0,162
97,714	-54,332	-0,368	-0,116
98,728	17,155	-0,267	-0,148
99,743	-1,413	-0,336	-0,165
100,757	53,881	-0,143	-0,096
101,772	72,461	-0,203	-0,148
102,787	-44,700	-0,218	-0,076
103,801	203,758	-0,264	-0,286
104,816	0,702	-0,225	-0,112
105,830	100,951	-0,268	-0,218
106,845	-45,273	-0,254	-0,088
107,860	239,689	-0,178	-0,208
108,874	37,470	-0,300	-0,186
109,889	92,136	-0,276	-0,217
110,903	381,911	-0,249	-0,359
111,918	316,701	-0,201	-0,266
112,933	48,438	-0,232	-0,151
113,947	185,831	-0,114	-0,118
114,962	-70,462	-0,336	0,088
115,976	28,504	-0,314	-0,185
116,991	-6,895	-0,219	-0,103
118,006	153,489	-0,380	-0,363
119,020	475,693	-0,218	-0,345
120,035	7,157	-0,201	-0,104
121,049	339,110	-0,070	-0,096
122,064	-35,488	-0,244	-0,092
123,079	94,086	-0,082	-0,065
124,093	92,033	-0,252	-0,198
125,108	232,363	-0,226	-0,259
126,122	53,561	-0,355	-0,237
127,137	188,628	-0,208	-0,218
128,151	325,780	-0,143	-0,192
129,166	16,909	-0,175	0,096
130,181	135,312	-0,279	-0,253
131,195	-31,027	-0,367	-0,144
132,210	72,032	-0,253	-0,184
133,224	-61,079	-0,320	-0,094
134,239	99,153	-0,259	-0,209
135,254	591,370	-0,163	-0,283
136,268	-189,325	-0,329	-0,003
137,283	148,799	-0,278	-0,262
138,297	64,145	-0,254	-0,178
139,312	-131,371	-0,233	-0,021
140,327	93,240	-0,210	-0,165
141,341	223,697	-0,197	-0,222
142,356	184,442	-0,242	-0,251
143,370	139,521	-0,098	-0,090
144,385	39,819	-0,299	-0,187
145,400	212,899	-0,244	-0,269
146,414	-76,595	-0,265	-0,064
147,429	127,354	-0,323	-0,286
148,443	64,002	-0,272	-0,190
149,458	85,481	-0,206	-0,157
150,473	22,913	-0,283	-0,161
151,487	78,806	-0,212	-0,158
152,502	5,971	-0,248	-0,128
153,516	98,965	-0,247	-0,199
154,531	49,234	-0,269	-0,176
155,546	0,800	-0,355	-0,176
156,560	253,404	-0,119	-0,142
157,575	123,667	-0,153	-0,134
158,589	32,933	-0,292	-0,175
159,604	55,266	-0,334	-0,224
160,619	65,199	-0,345	-0,243
161,633	-60,776	-0,196	-0,058
162,648	-64,111	-0,187	-0,053
163,662	-1,321	-0,313	-0,153
164,677	70,880	-0,131	-0,094
165,692	-95,600	-0,186	-0,034
166,706	-145,091	-0,162	-0,010
167,721	347,955	-0,148	-0,204
168,735	-38,063	-0,396	-0,145
169,750	-52,453	-0,206	-0,066
170,764	145,435	-0,186	-0,173
171,779	395,481	-0,120	-0,175
172,794	193,862	-0,103	-0,108
173,808	31,363	-0,290	-0,173
174,823	67,173	-0,285	-0,201
175,837	180,934	-0,202	-0,207
176,852	-67,417	-0,195	0,053
177,867	275,276	-0,145	-0,179
178,881	64,530	-0,119	0,083
179,896	14,596	-0,207	-0,112
180,910	-29,157	-0,282	-0,112
181,925	14,528	-0,267	-0,144
182,940	-10,598	-0,244	-0,112
183,954	-26,946	-0,288	-0,116
184,969	-200,000	-0,030	-0,145
185,983	-108,571	-0,183	0,027
186,998	177,910	-0,195	-0,198
188,013	91,328	-0,228	-0,177
189,027	677,566	-0,112	-0,202
190,042	536,366	-0,126	-0,208
191,056	195,901	-0,250	-0,264
192,071	228,322	-0,095	-0,107
193,086	52,130	-0,188	-0,124
194,100	221,027	-0,087	-0,097
195,115	-128,820	-0,156	-0,015
196,129	206,780	-0,187	-0,203
197,144	-36,270	-0,246	-0,092
198,159	-105,653	-0,288	-0,045
199,173	55,193	-0,142	-0,095
200,188	800,000	-0,103	-0,209
201,202	-70,609	-0,200	-0,052
202,217	75,556	-0,255	-0,187
203,232	-93,168	-0,278	-0,053
204,246	72,093	-0,243	-0,175
205,261	-141,897	-0,171	-0,012
206,275	-20,606	-0,241	-0,102
207,290	-200,000	-0,017	-0,125
208,304	-60,778	-0,191	0,056
209,319	105,198	-0,173	-0,141
210,334	256,857	-0,163	-0,194
211,348	243,946	-0,165	-0,192
212,363	-21,001	-0,237	-0,100
213,377	224,833	-0,255	-0,287
214,392	556,483	-0,136	-0,227
215,407	211,772	-0,212	-0,232
216,421	165,947	-0,251	-0,247
217,436	152,908	-0,192	-0,182
218,450	164,489	-0,183	-0,179
219,465	798,701	-0,072	-0,139
220,480	385,289	-0,121	-0,173
221,494	218,053	-0,110	-0,122
222,509	271,054	-0,149	-0,182
223,523	-148,436	-0,132	-0,007
224,538	64,629	-0,197	-0,137
225,553	80,071	-0,239	-0,178
226,567	596,839	-0,124	-0,214
227,582	800,000	-0,111	-0,335
228,596	110,581	-0,126	-0,105
229,611	528,199	-0,092	-0,151
230,626	216,801	-0,046	0,051
231,640	71,011	-0,194	-0,139
232,655	124,149	-0,140	-0,121
233,669	31,985	-0,256	-0,152
234,684	15,784	-0,233	-0,126
235,699	148,686	-0,191	-0,178
236,713	213,985	-0,109	-0,120
237,728	116,581	-0,233	-0,198
238,742	-60,758	-0,101	-0,029
239,757	741,878	-0,158	-0,294
240,772	420,862	-0,121	-0,179
241,786	40,216	-0,296	-0,184
242,801	800,000	-0,108	-0,256
243,815	139,814	-0,147	-0,134
244,830	-10,625	-0,156	0,071
245,844	-90,206	-0,234	-0,047
246,859	-45,069	-0,243	-0,083
247,874	728,761	-0,143	-0,264
248,888	100,071	-0,222	-0,177
249,903	24,587	-0,136	-0,078
250,917	800,000	-0,113	-0,269
251,932	426,199	-0,138	-0,205
252,947	542,028	-0,070	-0,115
253,961	226,618	-0,136	-0,152
254,976	33,698	-0,243	-0,146
255,990	-112,151	-0,239	-0,033
257,005	-24,062	-0,189	-0,077
258,020	-86,572	-0,325	-0,068
259,034	-149,959	-0,157	-0,008
260,049	-180,267	-0,181	0,003
261,063	12,561	-0,197	-0,105
262,078	141,694	-0,227	-0,207
263,093	362,673	-0,086	-0,120
264,107	800,000	-0,106	-0,236
265,122	132,455	-0,136	-0,121
266,136	-88,464	-0,154	-0,031
267,151	43,650	-0,132	-0,083
268,166	8,550	-0,265	-0,137
269,180	6,027	-0,182	-0,093
270,195	515,626	-0,117	-0,189
271,209	451,220	-0,120	-0,183
272,224	-200,000	-0,002	-0,154
273,239	495,143	-0,073	-0,116
274,253	-171,391	-0,150	-0,003
275,268	-50,543	-0,269	-0,087
276,282	-55,562	-0,240	-0,074
277,297	-65,845	-0,103	-0,028
278,312	800,000	-0,100	-0,280
279,326	-26,201	-0,163	-0,066
280,341	800,000	0,035	-0,081
281,355	800,000	-0,076	-0,150
282,370	-161,776	-0,203	0,007
283,384	-6,964	-0,142	-0,066
284,399	-94,016	-0,193	-0,036
285,414	15,694	-0,183	-0,099
286,428	800,000	-0,077	-0,185
287,443	800,000	-0,080	-0,188
288,457	17,199	-0,192	-0,104
289,472	60,952	0,049	-0,034
290,487	13,971	-0,315	-0,168
291,501	149,662	-0,119	-0,111
292,516	132,415	-0,275	-0,244
293,530	93,806	-0,112	-0,087
294,545	195,226	-0,177	-0,186
295,560	93,777	-0,096	-0,075
296,574	-200,000	-0,053	-0,214
297,589	-141,233	-0,285	0,020
298,603	-96,539	-0,197	-0,035
299,618	148,315	-0,210	-0,195
300,633	263,121	-0,112	-0,134
301,647	-200,000	-0,020	-0,062
302,662	151,912	-0,218	-0,204
303,676	6,129	-0,164	0,083
304,691	118,308	-0,102	-0,087
305,706	166,269	-0,239	-0,233
306,720	178,515	-0,197	-0,198
307,735	800,000	-0,109	-0,246
308,749	-200,000	0,012	-0,121
309,764	442,274	0,054	-0,082
310,779	97,258	-0,136	-0,107
311,793	800,000	-0,099	-0,216
312,808	800,000	-0,136	-0,298
313,822	130,926	-0,175	-0,154
314,837	800,000	-0,053	-0,150
315,852	-121,877	-0,097	0,011
316,866	84,858	-0,138	-0,104
317,881	41,216	-0,191	-0,118
318,895	-167,186	-0,211	-0,006
319,910	-131,633	-0,121	0,011
320,925	-2,536	-0,150	-0,072
321,939	601,833	-0,059	-0,100
322,954	-107,508	-0,207	-0,031
323,968	367,365	-0,103	-0,142
324,983	-200,000	-0,021	-0,190
325,997	74,101	-0,094	-0,068
327,012	800,000	-0,067	-0,138
328,027	18,065	-0,236	-0,129
329,041	-77,122	-0,122	-0,029
330,056	-46,719	-0,140	-0,047
331,070	329,033	-0,067	-0,089
332,085	185,656	-0,113	-0,115
333,100	800,000	-0,029	-0,068
334,114	-200,000	-0,004	-0,092
335,129	291,705	-0,078	-0,097
336,143	-4,347	-0,067	-0,032
337,158	435,345	-0,113	-0,169
338,173	-86,930	-0,093	0,019
339,187	36,377	-0,188	-0,113
340,202	-108,781	-0,209	0,030
341,216	172,723	-0,233	-0,230
342,231	62,453	-0,221	-0,151
343,246	-56,391	-0,120	0,036
344,260	800,000	-0,079	-0,172
345,275	17,516	-0,039	-0,021
346,289	224,790	-0,066	-0,073
347,304	-91,469	-0,195	0,038
348,319	321,543	-0,109	-0,142
349,333	304,659	-0,125	-0,159
350,348	31,133	-0,234	-0,137
351,362	-170,511	-0,145	-0,003
352,377	-200,000	0,023	-0,091
353,392	800,000	-0,019	-0,055
354,406	800,000	-0,035	-0,089
355,421	207,295	1309,268	1399,025
356,435	159,461	1469,307	1399,510
