DTS Sentinel unit serial number:	SN410029Multiplexer serial number:	ORYXHardware model number:	OX2-SRSoftware version number:	ORYX F/W v4,00 Oryx Data Collector v3.7.2.0data status	okinstallation	B3 Nyhavnadifferential loss correction	single-endedforward channel	channel 1reverse channel	N/Adate	2023/12/04time	18:52:30forward acquisition time	300,00reverse acquisition time	0,00gamma	499,1914k internal	0,3200k external	0,3200temperature offset calibration	1,0000default loss term (dB/km)	0,3820temperature slope calibration	1,0000multiplexer offset coefficient	1,0000multiplexer slope coefficient	1,0000fibre end	0,00T internal ref (°C)	14,85T ext. ref 1 (°C)	-0,50T ext. ref 2 (°C)	-0,52length (m)	temperature (°C)	Stokes	anti-Stokes-744,400	-4,283	-0,253	-0,127
-743,385	-200,000	-0,019	0,351
-742,371	427,264	-0,110	-0,174
-741,356	-200,000	-0,026	0,351
-740,342	-48,522	-0,202	-0,070
-739,327	-200,000	-0,034	0,312
-738,312	59,364	-0,344	-0,247
-737,298	-200,000	0,039	0,334
-736,283	800,000	-0,124	-0,252
-735,269	800,000	-0,174	0,358
-734,254	23,518	-0,252	-0,150
-733,239	-49,673	-0,165	0,057
-732,225	578,535	-0,073	-0,131
-731,210	36,587	0,046	-0,029
-730,196	369,063	-0,082	-0,121
-729,181	181,900	0,176	-0,189
-728,167	219,101	0,086	0,100
-727,152	59,734	0,084	-0,061
-726,137	800,000	0,022	-0,067
-725,123	-3,626	-0,047	0,024
-724,108	178,580	-0,082	0,087
-723,094	-200,000	-0,002	-0,131
-722,079	-44,730	-0,108	-0,039
-721,064	-200,000	0,032	-0,109
-720,050	-183,062	-0,102	0,001
-719,035	-93,268	0,080	-0,016
-718,021	3,179	-0,081	0,043
-717,006	-18,049	-0,132	-0,060
-715,991	-6,096	-0,072	-0,036
-714,977	800,000	0,028	-0,057
-713,962	733,958	-0,033	-0,065
-712,948	-128,153	-0,154	-0,016
-711,933	-200,000	0,014	0,136
-710,918	-97,708	-0,059	0,011
-709,904	800,000	0,037	0,093
-708,889	-84,476	-0,037	-0,008
-707,875	-187,080	-0,035	-0,000
-706,860	78,576	-0,119	-0,092
-705,845	-200,000	-0,009	0,055
-704,831	-121,904	0,026	0,003
-703,816	-137,554	-0,155	-0,013
-702,802	800,000	0,045	0,127
-701,787	-200,000	0,014	-0,112
-700,772	209,539	-0,108	-0,124
-699,758	800,000	0,031	0,093
-698,743	800,000	0,003	0,008
-697,729	-7,499	-0,034	0,017
-696,714	186,667	0,036	-0,039
-695,699	32,567	-0,117	0,073
-694,685	-164,522	-0,299	0,010
-693,670	800,000	0,027	0,075
-692,656	-49,817	-0,070	0,024
-691,641	-137,348	0,054	0,004
-690,627	155,942	0,023	-0,023
-689,612	430,009	0,039	0,061
-688,597	-200,000	0,010	-0,090
-687,583	446,520	-0,072	-0,116
-686,568	-200,000	-0,033	-0,120
-685,554	800,000	-0,008	-0,026
-684,539	-49,787	-0,036	-0,012
-683,524	-22,154	-0,082	-0,036
-682,510	403,490	-0,047	-0,073
-681,495	800,000	-0,046	0,115
-680,481	-28,655	-0,112	0,047
-679,466	120,857	-0,116	-0,105
-678,451	24,182	-0,090	-0,054
-677,437	205,340	-0,038	-0,043
-676,422	230,700	0,030	0,035
-675,408	800,000	-0,018	0,057
-674,393	-86,688	-0,112	-0,025
-673,378	800,000	-0,040	-0,107
-672,364	150,359	-0,160	-0,158
-671,349	141,800	-0,122	-0,117
-670,335	-8,746	-0,074	0,036
-669,320	154,370	-0,089	-0,088
-668,305	-200,000	0,037	0,122
-667,291	85,881	-0,121	-0,096
-666,276	800,000	0,042	-0,106
-665,262	-136,354	-0,030	0,002
-664,247	800,000	0,053	-0,153
-663,232	56,016	0,078	-0,055
-662,218	800,000	-0,037	-0,094
-661,203	290,928	-0,042	0,056
-660,189	-43,570	-0,056	-0,020
-659,174	155,881	-0,059	-0,059
-658,159	127,119	-0,088	-0,081
-657,145	-200,000	-0,004	-0,091
-656,130	800,000	0,042	-0,102
-655,116	-200,000	0,008	0,107
-654,101	322,158	-0,068	0,094
-653,086	800,000	-0,049	0,125
-652,072	76,810	-0,133	-0,102
-651,057	-200,000	-0,027	-0,152
-650,043	-59,575	-0,069	-0,021
-649,028	-104,245	-0,023	0,004
-648,014	778,325	0,056	-0,112
-646,999	-200,000	0,037	0,141
-645,984	-90,046	0,037	0,008
-644,970	800,000	0,033	0,097
-643,955	87,773	-0,155	-0,125
-642,941	-200,000	-0,010	-0,043
-641,926	-147,807	-0,200	-0,012
-640,911	290,382	-0,018	-0,023
-639,897	-200,000	-0,012	-0,123
-638,882	715,457	0,040	-0,077
-637,868	9,544	0,059	-0,032
-636,853	800,000	0,048	0,120
-635,838	56,810	0,018	-0,013
-634,824	-200,000	0,000	0,104
-633,809	179,553	0,025	0,027
-632,795	-200,000	-0,003	-0,030
-631,780	-57,297	0,176	0,056
-630,765	252,616	-0,007	0,008
-629,751	-20,934	-0,093	0,041
-628,736	86,714	-0,056	0,045
-627,722	791,009	0,043	-0,087
-626,707	139,227	0,025	0,024
-625,692	86,988	0,048	0,039
-624,678	-200,000	-0,005	0,059
-623,663	-200,000	0,041	-0,177
-622,649	-106,194	-0,025	0,004
-621,634	-200,000	-0,002	-0,050
-620,619	288,379	-0,090	-0,118
-619,605	-71,858	0,032	-0,008
-618,590	-6,992	0,055	0,027
-617,576	-27,545	-0,058	-0,024
-616,561	472,331	-0,048	-0,079
-615,546	-200,000	0,009	-0,070
-614,532	-71,979	-0,121	-0,032
-613,517	733,617	-0,041	-0,079
-612,503	800,000	0,035	-0,108
-611,488	800,000	-0,038	0,096
-610,474	413,976	0,069	0,106
-609,459	-200,000	0,001	0,057
-608,444	-122,907	-0,042	0,005
-607,430	-200,000	-0,020	0,076
-606,415	-125,857	0,027	0,003
-605,401	78,913	-0,025	0,020
-604,386	800,000	-0,031	0,066
-603,371	-92,362	-0,185	0,037
-602,357	201,654	0,046	0,052
-601,342	123,170	-0,168	-0,152
-600,328	800,000	-0,075	-0,238
-599,313	-133,230	-0,105	0,009
-598,298	182,470	-0,043	0,045
-597,284	186,346	-0,009	0,010
-596,269	-200,000	-0,007	0,056
-595,255	-200,000	-0,011	0,064
-594,240	-178,240	0,103	0,002
-593,225	54,755	-0,135	-0,094
-592,211	-200,000	-0,003	-0,098
-591,196	800,000	-0,033	-0,076
-590,182	-200,000	-0,011	0,066
-589,167	248,345	0,100	0,122
-588,152	-6,032	0,053	0,026
-587,138	79,879	-0,077	0,060
-586,123	800,000	0,009	-0,022
-585,109	3,171	0,082	0,043
-584,094	232,275	-0,070	-0,083
-583,079	-200,000	0,016	0,055
-582,065	-171,745	0,013	0,000
-581,050	-200,000	0,004	-0,016
-580,036	387,102	0,041	0,062
-579,021	4,414	-0,116	0,061
-578,006	-200,000	-0,005	-0,151
-576,992	27,621	0,084	0,051
-575,977	436,043	0,043	0,067
-574,963	148,461	0,022	-0,021
-573,948	-187,716	-0,033	0,000
-572,934	-8,435	-0,098	-0,047
-571,919	45,289	0,124	0,082
-570,904	800,000	0,020	0,050
-569,890	21,624	0,066	-0,039
-568,875	267,212	-0,076	-0,096
-567,861	800,000	-0,013	-0,029
-566,846	-135,013	0,089	0,008
-565,831	-136,614	-0,098	0,008
-564,817	800,000	-0,033	-0,083
-563,802	264,956	-0,043	-0,054
-562,788	93,323	-0,109	-0,089
-561,773	-145,426	-0,078	-0,005
-560,758	-200,000	0,001	-0,011
-559,744	-200,000	-0,042	0,187
-558,729	-154,823	0,045	-0,002
-557,715	14,436	-0,074	0,041
-556,700	800,000	0,020	0,060
-555,685	144,222	0,040	0,038
-554,671	800,000	-0,026	0,077
-553,656	-200,000	-0,009	-0,080
-552,642	-200,000	0,013	0,204
-551,627	-200,000	-0,022	0,143
-550,612	-200,000	-0,009	0,040
-549,598	273,181	-0,034	0,043
-548,583	547,205	-0,028	-0,049
-547,569	125,340	0,060	-0,055
-546,554	110,098	-0,065	0,056
-545,539	800,000	-0,050	0,153
-544,525	-125,429	0,109	-0,012
-543,510	-85,070	-0,167	0,038
-542,496	590,267	-0,065	0,117
-541,481	-200,000	0,010	-0,058
-540,466	-200,000	-0,001	-0,048
-539,452	-67,034	-0,059	-0,017
-538,437	-27,605	-0,105	0,044
-537,423	734,513	-0,106	0,206
-536,408	279,528	-0,030	-0,039
-535,393	800,000	-0,114	-0,246
-534,379	42,130	-0,078	-0,051
-533,364	-200,000	0,010	0,100
-532,350	-34,280	-0,019	-0,008
-531,335	50,123	0,050	0,034
-530,321	101,658	-0,075	-0,063
-529,306	-200,000	-0,032	-0,105
-528,291	-178,843	-0,071	0,001
-527,277	37,660	-0,095	-0,061
-526,262	-43,001	-0,106	0,039
-525,248	800,000	0,018	0,036
-524,233	349,914	-0,040	-0,057
-523,218	-200,000	0,018	-0,129
-522,204	-200,000	-0,003	0,022
-521,189	150,440	-0,070	-0,068
-520,175	46,933	-0,193	-0,129
-519,160	135,326	0,076	-0,072
-518,145	342,883	-0,041	0,059
-517,131	-150,254	0,040	-0,002
-516,116	800,000	0,033	-0,088
-515,102	800,000	0,034	-0,099
-514,087	-200,000	0,006	-0,114
-513,072	188,811	-0,097	-0,105
-512,058	-200,000	-0,008	-0,044
-511,043	116,186	-0,005	-0,004
-510,029	30,526	0,169	-0,104
-509,014	152,196	-0,048	-0,047
-507,999	-133,843	-0,084	0,007
-506,985	318,212	-0,060	-0,082
-505,970	22,941	-0,106	0,063
-504,956	692,002	-0,036	-0,068
-503,941	-200,000	-0,003	0,052
-502,926	10,668	0,105	-0,057
-501,912	-21,247	0,138	-0,061
-500,897	-6,761	-0,147	0,072
-499,883	-200,000	0,001	-0,079
-498,868	-151,475	-0,117	-0,006
-497,853	56,232	-0,049	0,034
-496,839	-162,156	-0,101	-0,004
-495,824	-80,723	0,090	-0,021
-494,810	-4,545	-0,171	-0,085
-493,795	74,595	-0,032	-0,024
-492,781	682,372	-0,091	-0,172
-491,766	-128,935	-0,125	-0,012
-490,751	-127,441	0,127	0,013
-489,737	-99,803	-0,046	0,008
-488,722	-200,000	0,040	0,154
-487,708	33,555	-0,038	0,024
-486,693	16,851	0,065	-0,037
-485,678	800,000	-0,034	-0,100
-484,664	366,746	-0,077	-0,113
-483,649	-46,525	-0,149	-0,052
-482,635	-0,473	-0,074	-0,038
-481,620	251,386	-0,072	0,089
-480,605	-20,157	0,045	0,020
-479,591	800,000	-0,068	0,161
-478,576	-79,714	-0,150	-0,036
-477,562	37,880	0,067	0,042
-476,547	-70,637	0,030	0,008
-475,532	-3,600	0,103	-0,051
-474,518	735,653	-0,042	0,082
-473,503	52,832	-0,042	0,029
-472,489	-200,000	0,018	0,129
-471,474	153,052	0,071	-0,069
-470,459	562,399	-0,059	-0,104
-469,445	-128,496	0,118	-0,012
-468,430	-200,000	-0,000	-0,135
-467,416	-29,124	0,038	0,016
-466,401	800,000	-0,068	0,151
-465,386	-200,000	0,004	0,036
-464,372	528,084	-0,038	-0,064
-463,357	-177,021	-0,113	0,002
-462,343	-47,494	-0,138	0,048
-461,328	800,000	-0,053	0,148
-460,313	-162,642	0,059	0,002
-459,299	-200,000	-0,036	0,117
-458,284	569,561	0,068	0,119
-457,270	-56,870	0,061	-0,019
-456,255	355,528	-0,030	0,043
-455,241	-159,071	0,026	0,001
-454,226	-92,073	-0,010	-0,002
-453,211	-77,074	0,060	-0,015
-452,197	-200,000	-0,014	0,238
-451,182	-200,000	-0,018	0,079
-450,168	-69,474	0,112	-0,031
-449,153	-200,000	0,016	-0,137
-448,138	-200,000	-0,004	-0,041
-447,124	56,728	-0,077	-0,054
-446,109	-129,434	-0,031	-0,003
-445,095	-200,000	-0,022	0,070
-444,080	-200,000	-0,003	0,079
-443,065	126,626	-0,040	-0,037
-442,051	218,064	-0,061	-0,070
-441,036	22,606	-0,068	-0,040
-440,022	121,518	-0,041	-0,037
-439,007	168,094	0,105	-0,107
-437,992	51,024	0,085	-0,058
-436,978	236,737	-0,016	0,019
-435,963	75,304	0,093	-0,070
-434,949	-200,000	-0,055	-0,211
-433,934	800,000	0,050	0,109
-432,919	44,802	0,072	-0,047
-431,905	-200,000	0,013	-0,079
-430,890	41,957	0,113	0,074
-429,876	-136,763	0,132	-0,011
-428,861	172,753	0,043	0,045
-427,846	16,786	0,061	0,035
-426,832	-46,446	-0,059	0,021
-425,817	72,251	-0,114	-0,085
-424,803	118,266	0,128	-0,113
-423,788	-94,371	-0,156	-0,030
-422,773	-200,000	0,028	0,099
-421,759	800,000	0,022	0,060
-420,744	800,000	0,045	0,126
-419,730	42,276	-0,078	0,051
-418,715	800,000	-0,014	0,037
-417,701	32,135	0,063	0,039
-416,686	-62,787	0,125	0,037
-415,671	-17,420	-0,150	0,068
-414,657	282,415	0,065	0,084
-413,642	-54,460	-0,057	0,018
-412,628	-200,000	0,015	0,097
-411,613	14,114	-0,118	-0,066
-410,598	14,739	0,079	-0,044
-409,584	-62,947	0,057	0,017
-408,569	800,000	-0,058	0,119
-407,555	245,373	-0,069	0,083
-406,540	-23,901	-0,066	-0,028
-405,525	248,790	-0,066	0,081
-404,511	800,000	0,081	-0,161
-403,496	-57,599	-0,143	-0,045
-402,482	92,049	0,089	-0,072
-401,467	-200,000	0,004	-0,013
-400,452	-77,326	0,107	-0,027
-399,438	-21,011	0,039	0,017
-398,423	341,581	-0,027	0,038
-397,409	800,000	-0,013	0,037
-396,394	-200,000	-0,004	-0,069
-395,379	-54,080	0,051	0,017
-394,365	236,974	-0,035	-0,042
-393,350	-159,074	0,106	-0,004
-392,336	-33,542	0,034	0,014
-391,321	-50,770	0,101	-0,034
-390,306	-52,696	-0,089	0,029
-389,292	407,181	-0,077	-0,118
-388,277	-78,008	0,105	0,026
-387,263	-142,005	0,078	0,005
-386,248	800,000	-0,022	0,051
-385,233	-75,436	-0,061	0,016
-384,219	-64,958	-0,046	-0,013
-383,204	-200,000	-0,011	0,085
-382,190	152,621	-0,019	-0,018
-381,175	-109,657	0,047	-0,007
-380,160	115,767	0,056	0,049
-379,146	-200,000	0,004	0,113
-378,131	-200,000	0,004	0,149
-377,117	246,612	0,053	-0,064
-376,102	-68,186	-0,137	-0,038
-375,088	-200,000	0,018	-0,135
-374,073	800,000	0,044	0,126
-373,058	57,449	0,052	-0,037
-372,044	-187,761	-0,135	-0,001
-371,029	204,913	-0,074	0,083
-370,015	-200,000	0,026	-0,106
-369,000	384,650	-0,021	-0,031
-367,985	-200,000	0,011	-0,040
-366,971	795,492	0,065	-0,129
-365,956	-171,891	0,073	0,002
-364,942	-14,762	0,078	-0,036
-363,927	-200,000	-0,020	0,118
-362,912	-200,000	-0,002	0,176
-361,898	800,000	0,057	-0,119
-360,883	-200,000	0,020	0,089
-359,869	-33,175	-0,005	0,002
-358,854	-73,925	0,048	-0,012
-357,839	417,603	-0,038	0,059
-356,825	554,175	-0,036	-0,062
-355,810	-200,000	0,010	0,064
-354,796	-200,000	-0,022	0,091
-353,781	-200,000	0,011	-0,055
-352,766	308,013	0,052	-0,070
-351,752	-96,869	-0,154	0,029
-350,737	-129,303	-0,012	0,001
-349,723	-127,702	0,121	0,012
-348,708	-200,000	0,035	-0,163
-347,693	800,000	-0,030	0,061
-346,679	-153,153	0,078	0,004
-345,664	-200,000	-0,014	0,060
-344,650	800,000	-0,070	-0,166
-343,635	313,798	0,032	0,044
-342,620	-167,921	0,107	-0,003
-341,606	800,000	0,045	0,130
-340,591	-90,794	-0,026	-0,005
-339,577	800,000	0,043	0,090
-338,562	-200,000	0,013	-0,089
-337,548	-120,305	0,038	-0,005
-336,533	800,000	-0,063	-0,158
-335,518	-200,000	0,003	0,070
-334,504	-200,000	0,053	0,222
-333,489	-157,531	-0,014	0,001
-332,475	-103,295	-0,142	-0,024
-331,460	289,378	0,052	-0,068
-330,445	106,420	-0,108	0,091
-329,431	-95,790	0,062	0,012
-328,416	6,447	0,087	-0,046
-327,402	-74,481	0,070	0,018
-326,387	603,529	0,014	-0,024
-325,372	393,036	-0,039	-0,059
-324,358	-28,424	0,069	-0,028
-323,343	-107,191	-0,015	0,002
-322,329	800,000	0,101	-0,256
-321,314	800,000	0,021	-0,051
-320,299	21,534	0,109	-0,064
-319,285	-200,000	0,004	0,107
-318,270	-16,014	-0,044	0,020
-317,256	381,129	-0,065	-0,096
-316,241	-94,193	0,150	0,029
-315,226	800,000	-0,006	0,014
-314,212	-128,543	0,063	0,006
-313,197	-200,000	0,014	0,045
-312,183	-9,714	0,025	-0,012
-311,168	-200,000	-0,007	-0,109
-310,153	166,866	0,016	-0,016
-309,139	224,747	0,021	0,024
-308,124	516,326	0,057	0,095
-307,110	-1,637	0,115	-0,058
-306,095	329,315	-0,002	0,003
-305,080	19,446	-0,113	-0,065
-304,066	269,205	-0,020	0,026
-303,051	-154,910	0,099	-0,005
-302,037	280,219	0,036	-0,046
-301,022	-70,223	-0,118	0,032
-300,008	-65,437	0,060	0,017
-298,993	-69,847	0,139	-0,038
-297,978	-99,990	0,058	-0,010
-296,964	383,726	-0,067	0,099
-295,949	-200,000	0,018	0,099
-294,935	-65,172	-0,074	-0,021
-293,920	-131,699	-0,057	-0,005
-292,905	175,725	-0,019	0,020
-291,891	52,546	-0,066	-0,045
-290,876	-200,000	0,019	-0,091
-289,862	175,002	-0,018	-0,019
-288,847	377,249	0,027	-0,039
-287,832	-185,353	-0,099	0,001
-286,818	400,308	-0,096	-0,145
-285,803	537,175	-0,059	-0,100
-284,789	22,965	0,042	0,025
-283,774	350,243	-0,035	0,049
-282,759	149,844	0,073	-0,070
-281,745	456,929	-0,039	-0,062
-280,730	-13,517	-0,154	0,071
-279,716	129,491	-0,035	-0,032
-278,701	800,000	0,029	-0,064
-277,686	-200,000	-0,008	0,135
-276,672	-94,262	0,087	0,017
-275,657	73,570	0,096	-0,072
-274,643	556,217	-0,020	0,035
-273,628	217,560	0,104	-0,119
-272,613	-29,668	0,034	0,014
-271,599	135,719	0,062	0,058
-270,584	317,799	-0,114	0,154
-269,570	800,000	-0,048	-0,136
-268,555	-135,867	0,123	-0,010
-267,540	314,625	0,085	0,114
-266,526	-200,000	-0,021	-0,090
-265,511	-154,190	0,136	0,006
-264,497	-6,549	-0,158	0,077
-263,482	260,861	0,122	-0,151
-262,467	-200,000	0,005	-0,062
-261,453	-175,093	0,123	-0,002
-260,438	282,858	-0,104	-0,134
-259,424	-115,888	0,069	0,009
-258,409	18,072	0,033	0,019
-257,395	-143,178	0,117	-0,008
-256,380	103,113	0,069	0,058
-255,365	-200,000	-0,016	0,114
-254,351	191,598	0,091	0,098
-253,336	157,075	-0,069	-0,068
-252,322	-91,220	-0,053	-0,011
-251,307	98,320	-0,061	-0,050
-250,292	-116,463	0,044	0,006
-249,278	-200,000	0,002	0,109
-248,263	348,912	0,056	-0,079
-247,249	389,799	0,007	0,010
-246,234	650,284	0,014	-0,026
-245,219	-36,472	0,048	0,018
-244,205	-48,172	-0,085	-0,029
-243,190	-102,100	0,021	-0,004
-242,176	-200,000	-0,019	-0,101
-241,161	25,026	0,119	0,070
-240,146	-200,000	-0,048	0,154
-239,132	-132,268	-0,045	-0,004
-238,117	-200,000	-0,009	0,048
-237,103	-133,997	0,109	0,009
-236,088	-113,378	0,110	0,015
-235,073	-110,738	0,079	-0,011
-234,059	-142,445	0,016	0,001
-233,044	-114,259	-0,125	0,017
-232,030	-21,393	0,138	0,060
-231,015	242,710	0,054	0,065
-230,000	-200,000	0,006	-0,123
-228,986	118,238	-0,037	-0,032
-227,971	124,037	0,087	-0,078
-226,957	-200,000	-0,024	0,139
-225,942	198,788	0,054	0,059
-224,927	-200,000	0,035	-0,118
-223,913	380,831	0,040	-0,059
-222,898	-200,000	0,019	0,096
-221,884	-200,000	-0,015	0,047
-220,869	-102,831	-0,057	0,010
-219,855	-153,208	0,204	0,010
-218,840	220,973	0,129	0,148
-217,825	255,733	0,057	0,070
-216,811	281,197	-0,057	0,073
-215,796	-200,000	-0,004	0,066
-214,782	800,000	-0,004	0,011
-213,767	33,594	-0,043	0,027
-212,752	155,338	0,180	0,177
-211,738	800,000	0,040	0,079
-210,723	456,015	-0,030	0,047
-209,709	391,255	0,015	0,022
-208,694	-200,000	0,013	-0,169
-207,679	-7,601	-0,073	-0,035
-206,665	-200,000	-0,027	-0,126
-205,650	-109,500	0,075	0,011
-204,636	379,810	-0,029	-0,042
-203,621	-200,000	0,013	-0,102
-202,606	-200,000	-0,020	0,093
-201,592	12,138	-0,087	-0,048
-200,577	106,090	0,050	-0,042
-199,563	800,000	-0,058	-0,129
-198,548	499,924	0,060	0,099
-197,533	-87,420	0,101	-0,022
-196,519	-45,520	0,098	0,034
-195,504	-200,000	0,005	-0,041
-194,490	-119,964	0,064	-0,008
-193,475	-200,000	0,001	0,037
-192,460	-120,948	0,136	0,016
-191,446	287,128	0,129	0,166
-190,431	800,000	-0,014	-0,035
-189,417	-200,000	-0,001	0,038
-188,402	-200,000	-0,010	0,092
-187,387	683,480	0,039	0,073
-186,373	695,281	0,065	0,122
-185,358	103,835	-0,065	0,054
-184,344	-108,562	-0,106	0,016
-183,329	701,097	0,061	0,116
-182,315	800,000	0,028	0,083
-181,300	268,421	0,037	-0,047
-180,285	-82,098	-0,033	0,008
-179,271	800,000	-0,038	0,082
-178,256	-200,000	0,002	0,026
-177,242	88,040	0,096	0,076
-176,227	-135,856	-0,158	0,013
-175,212	131,557	0,038	0,034
-174,198	133,308	-0,052	-0,048
-173,183	170,854	-0,056	0,057
-172,169	-200,000	-0,003	0,035
-171,154	-130,540	-0,067	-0,006
-170,139	209,082	0,068	0,076
-169,125	395,591	0,080	-0,119
-168,110	-91,973	0,085	-0,017
-167,096	-4,357	0,057	-0,028
-166,081	576,138	-0,077	-0,134
-165,066	103,552	-0,140	-0,117
-164,052	92,213	0,082	0,066
-163,037	76,761	0,084	-0,063
-162,023	-57,980	0,098	-0,030
-161,008	9,440	0,078	0,042
-159,993	-200,000	-0,000	0,058
-158,979	138,347	-0,025	0,023
-157,964	-43,736	-0,077	-0,028
-156,950	-156,830	0,084	0,004
-155,935	273,222	-0,090	-0,114
-154,920	592,046	0,027	-0,047
-153,906	230,748	-0,010	0,012
-152,891	-111,101	0,098	0,014
-151,877	800,000	-0,021	-0,051
-150,862	-200,000	-0,032	-0,195
-149,847	-200,000	-0,002	-0,212
-148,833	99,367	-0,055	-0,045
-147,818	53,860	-0,081	-0,055
-146,804	-84,437	0,051	0,011
-145,789	-11,809	-0,018	-0,008
-144,775	3,697	0,117	0,060
-143,760	800,000	-0,022	0,048
-142,745	17,072	-0,083	0,047
-141,731	242,482	-0,024	0,029
-140,716	15,314	0,093	0,051
-139,702	-200,000	0,027	0,099
-138,687	-55,165	-0,171	0,054
-137,672	211,570	-0,110	0,124
-136,658	-200,000	-0,001	-0,143
-135,643	799,438	0,048	-0,095
-134,629	184,687	0,042	-0,045
-133,614	800,000	-0,072	0,174
-132,599	-200,000	0,035	0,200
-131,585	252,944	0,069	0,084
-130,570	-102,486	-0,078	-0,013
-129,556	71,887	0,032	-0,023
-128,541	123,034	-0,110	-0,098
-127,526	-73,760	0,056	0,014
-126,512	40,666	0,095	-0,061
-125,497	-200,000	-0,017	0,124
-124,483	-114,017	-0,168	0,023
-123,468	-102,551	0,104	0,017
-122,453	800,000	-0,087	0,236
-121,439	-63,885	-0,171	0,049
-120,424	-200,000	0,023	-0,091
-119,410	-200,000	0,012	0,105
-118,395	-112,538	0,070	0,010
-117,380	-62,756	0,114	-0,033
-116,366	515,926	0,069	0,115
-115,351	365,379	-0,014	0,020
-114,337	-127,619	-0,060	0,006
-113,322	-200,000	-0,016	-0,079
-112,307	800,000	0,030	-0,078
-111,293	67,652	0,140	0,102
-110,278	-77,772	-0,033	-0,008
-109,264	168,446	0,082	0,083
-108,249	181,755	-0,096	-0,100
-107,234	-65,858	-0,059	0,017
-106,220	659,515	0,134	-0,246
-105,205	800,000	0,032	-0,091
-104,191	-4,579	-0,157	-0,077
-103,176	86,185	-0,038	-0,030
-102,162	-200,000	0,025	-0,118
-101,147	800,000	0,030	-0,066
-100,132	-99,445	0,100	0,018
-99,118	-21,860	-0,036	0,016
-98,103	-83,359	-0,068	-0,015
-97,089	800,000	0,109	0,255
-96,074	196,005	0,089	0,096
-95,059	-200,000	0,012	0,055
-94,045	684,007	-0,029	-0,054
-93,030	-100,358	-0,131	-0,023
-92,016	-70,602	-0,083	-0,022
-91,001	-200,000	-0,006	-0,029
-89,986	800,000	-0,026	0,081
-88,972	-200,000	0,009	0,044
-87,957	-110,884	0,074	0,011
-86,943	645,333	0,047	-0,086
-85,928	-8,242	-0,073	-0,035
-84,913	117,870	0,038	0,034
-83,899	-53,651	0,114	-0,037
-82,884	342,482	-0,066	0,092
-81,870	341,696	0,090	0,126
-80,855	-200,000	0,025	0,101
-79,840	-58,355	-0,099	-0,030
-78,826	109,798	0,087	0,074
-77,811	-38,636	-0,160	0,060
-76,797	559,087	0,092	-0,158
-75,782	800,000	-0,036	0,086
-74,767	217,388	-0,140	0,158
-73,753	691,520	-0,031	0,057
-72,738	-36,191	-0,130	0,050
-71,724	-60,269	-0,051	0,015
-70,709	43,614	-0,156	-0,101
-69,694	70,855	-0,082	-0,060
-68,680	684,763	-0,015	0,027
-67,665	-134,339	-0,084	-0,007
-66,651	631,378	0,028	0,051
-65,636	-28,686	-0,093	-0,038
-64,622	-151,676	-0,090	0,005
-63,607	161,517	-0,085	-0,085
-62,592	19,185	0,094	-0,053
-61,578	-127,036	-0,090	0,009
-60,563	155,200	0,040	0,039
-59,549	-200,000	-0,004	0,059
-58,534	-47,821	-1,462	-0,499
-57,519	366,835	-1,550	-2,221
-56,505	-200,000	-0,599	-4,512
-55,490	148,685	1,091	1,045
-54,476	800,000	4,768	11,287
-53,461	-200,000	18,330	291,253
-52,446	800,000	728,727	2240,495
-51,432	556,437	1644,927	2817,507
-50,417	79,147	1666,566	1263,209
-49,403	22,725	1540,325	891,041
-48,388	16,692	1463,376	817,283
-47,373	17,806	1453,275	816,978
-46,359	17,170	1443,913	808,641
-45,344	14,975	1439,067	795,403
-44,330	14,883	1437,409	794,016
-43,315	14,891	1435,467	792,952
-42,300	14,949	1433,767	792,260
-41,286	14,959	1432,669	791,668
-40,271	14,922	1431,620	790,879
-39,257	14,909	1430,290	790,054
-38,242	14,983	1428,809	789,553
-37,227	14,975	1427,615	788,827
-36,213	14,988	1426,342	788,150
-35,198	14,968	1424,971	787,269
-34,184	15,025	1424,165	787,061
-33,169	14,899	1422,933	785,755
-32,154	14,958	1422,010	785,490
-31,140	14,930	1420,571	784,535
-30,125	14,994	1419,481	784,201
-29,111	14,934	1418,477	783,332
-28,096	14,963	1417,191	782,731
-27,082	14,900	1416,065	781,779
-26,067	14,881	1415,245	781,209
-25,052	14,881	1414,138	780,564
-24,038	14,839	1413,061	779,741
-23,023	14,827	1412,045	779,096
-22,009	14,843	1411,095	778,612
-20,994	14,838	1410,007	777,960
-19,979	14,816	1409,230	777,397
-18,965	14,842	1408,068	776,848
-17,950	14,837	1407,090	776,251
-16,936	14,788	1406,479	775,656
-15,921	14,781	1405,331	774,961
-14,906	14,811	1404,106	774,392
-13,892	14,776	1403,471	773,849
-12,877	14,782	1402,510	773,318
-11,863	14,782	1401,523	772,739
-10,848	14,761	1400,949	772,299
-9,833	14,752	1399,794	771,590
-8,819	14,711	1398,928	770,888
-7,804	14,706	1398,046	770,348
-6,790	14,687	1396,835	769,564
-5,775	14,677	1395,879	768,961
-4,760	14,666	1395,246	768,530
-3,746	14,680	1394,231	768,006
-2,731	14,689	1393,569	767,650
-1,717	14,660	1392,546	766,922
-0,702	14,631	1390,900	765,853
0,313	18,379	1309,286	738,288
1,327	34,676	706,187	435,956
2,342	53,025	124,569	84,239
3,356	2,984	16,575	8,493
4,371	5,238	3,195	1,661
5,386	-31,988	0,579	0,228
6,400	351,801	0,104	0,147
7,415	0,961	-0,266	-0,135
8,429	368,063	-0,211	-0,303
9,444	25,410	-0,263	-0,154
10,459	59,408	-0,246	-0,171
11,473	181,779	-0,321	-0,334
12,488	-5,649	-0,310	-0,150
13,502	24,917	-0,378	-0,221
14,517	128,817	-0,256	-0,231
15,531	275,147	-0,352	-0,441
16,546	4,507	-0,357	-0,185
17,561	48,913	-0,487	-0,323
18,575	41,069	-0,109	-0,070
19,590	128,286	-0,307	-0,276
20,604	9,264	-0,255	-0,136
21,619	-9,039	-0,458	-0,216
22,634	2,019	-0,487	-0,247
23,648	-15,849	-0,469	-0,210
24,663	16,084	-0,447	-0,248
25,677	13,379	-0,439	-0,240
26,692	240,979	-0,308	-0,363
27,707	50,217	-0,366	-0,244
28,721	6,511	-0,540	-0,283
29,736	258,981	-0,357	-0,436
30,750	145,638	-0,427	-0,404
31,765	129,524	-0,392	-0,353
32,780	122,802	-0,380	-0,336
33,794	44,732	-0,308	-0,199
34,809	121,007	-0,331	-0,291
35,823	137,919	-0,329	-0,304
36,838	102,207	-0,345	-0,285
37,853	-80,166	-0,463	-0,109
38,867	-91,626	-0,348	-0,069
39,882	125,724	-0,365	-0,325
40,896	173,494	-0,351	-0,357
41,911	52,425	-0,445	-0,299
42,926	37,743	-0,454	-0,284
43,940	0,546	-0,470	-0,236
44,955	45,236	-0,371	-0,241
45,969	92,322	-0,233	-0,185
46,984	4,237	-0,349	-0,180
47,999	26,527	-0,326	-0,192
49,013	-2,315	-0,354	-0,174
50,028	133,957	-0,306	-0,279
51,042	65,560	-0,305	-0,218
52,057	121,811	-0,351	-0,308
53,071	-8,400	-0,388	-0,183
54,086	240,061	-0,203	-0,239
55,101	54,321	-0,420	-0,285
56,115	19,944	-0,305	-0,173
57,130	-43,821	-0,351	-0,124
58,144	139,946	-0,345	-0,321
59,159	70,131	-0,388	-0,282
60,174	87,182	-0,341	-0,265
61,188	48,485	-0,373	-0,246
62,203	124,524	-0,283	-0,251
63,217	206,033	-0,289	-0,317
64,232	-33,336	-0,287	-0,111
65,247	84,497	-0,290	-0,223
66,261	-7,244	-0,309	-0,147
67,276	76,747	-0,336	-0,251
68,290	179,617	-0,190	-0,196
69,305	106,326	-0,271	-0,226
70,320	7,349	-0,279	-0,146
71,334	59,589	-0,191	-0,132
72,349	-78,040	-0,378	-0,091
73,363	15,999	-0,369	-0,204
74,378	359,644	-0,233	-0,329
75,393	90,223	-0,274	-0,215
76,407	202,349	-0,206	-0,223
77,422	11,243	-0,258	-0,138
78,436	48,164	-0,349	-0,229
79,451	33,853	-0,347	-0,212
80,466	62,839	-0,392	-0,276
81,480	25,002	-0,357	-0,208
82,495	65,688	-0,440	-0,313
83,509	69,282	-0,250	-0,181
84,524	56,620	-0,256	-0,174
85,539	59,456	-0,262	-0,181
86,553	-96,541	-0,204	-0,037
87,568	19,954	-0,294	-0,166
88,582	-3,368	-0,243	-0,118
89,597	9,740	-0,323	-0,172
90,611	80,648	-0,189	-0,143
91,626	22,796	-0,238	-0,136
92,641	67,048	-0,227	-0,162
93,655	20,251	-0,401	-0,227
94,670	13,546	-0,377	-0,205
95,684	312,248	-0,187	-0,247
96,699	115,001	-0,362	-0,310
97,714	13,449	-0,320	-0,174
98,728	66,379	-0,258	-0,184
99,743	246,222	-0,173	-0,205
100,757	262,689	-0,256	-0,312
101,772	-25,213	-0,318	-0,132
102,787	-29,024	-0,412	-0,165
103,801	800,000	-0,199	-0,443
104,816	111,975	-0,286	-0,242
105,830	100,707	-0,251	-0,204
106,845	99,422	-0,228	-0,185
107,860	18,013	-0,185	-0,103
108,874	175,929	-0,206	-0,210
109,889	-91,053	-0,370	-0,074
110,903	-22,295	-0,343	-0,145
111,918	-66,596	-0,484	-0,134
112,933	94,117	-0,150	-0,119
113,947	142,877	-0,163	-0,152
114,962	168,623	-0,199	-0,199
115,976	46,529	-0,292	-0,190
116,991	210,374	-0,270	-0,298
118,006	140,720	-0,335	-0,310
119,020	173,888	-0,150	-0,152
120,035	-6,292	-0,263	-0,125
121,049	168,009	-0,175	-0,174
122,064	129,688	-0,208	-0,186
123,079	163,849	-0,227	-0,223
124,093	113,935	-0,274	-0,233
125,108	56,801	-0,378	-0,257
126,122	207,304	-0,250	-0,273
127,137	124,238	-0,281	-0,247
128,151	268,964	-0,155	-0,191
129,166	20,621	-0,327	-0,185
130,181	76,212	-0,325	-0,240
131,195	481,834	-0,224	-0,357
132,210	11,722	-0,445	-0,238
133,224	-99,779	-0,247	-0,043
134,239	-27,924	-0,202	-0,081
135,254	-58,153	-0,233	-0,071
136,268	146,688	-0,253	-0,238
137,283	173,825	-0,182	-0,184
138,297	149,430	-0,229	-0,217
139,312	57,555	-0,329	-0,224
140,327	48,047	-0,224	-0,146
141,341	35,135	-0,377	-0,231
142,356	88,866	-0,241	-0,187
143,370	10,895	-0,210	-0,112
144,385	257,809	-0,159	-0,192
145,400	88,034	-0,248	-0,192
146,414	129,737	-0,331	-0,296
147,429	41,297	-0,289	-0,182
148,443	307,835	-0,261	-0,341
149,458	-102,460	-0,294	-0,049
150,473	800,000	-0,079	-0,178
151,487	-191,190	-0,271	0,002
152,502	-115,100	-0,166	0,022
153,516	488,691	-0,214	-0,342
154,531	-44,366	-0,346	-0,120
155,546	220,135	-0,189	-0,212
156,560	-200,000	-0,045	-0,214
157,575	153,302	-0,102	-0,098
158,589	201,129	-0,165	-0,178
159,604	46,292	-0,280	-0,181
160,619	81,765	-0,222	-0,168
161,633	96,524	-0,266	-0,212
162,648	167,648	-0,146	-0,145
163,662	181,609	-0,168	-0,172
164,677	141,465	-0,192	-0,177
165,692	25,949	-0,259	-0,150
166,706	31,128	-0,203	-0,121
167,721	614,434	-0,164	-0,287
168,735	198,771	-0,258	-0,276
169,750	315,505	-0,188	-0,248
170,764	167,585	-0,150	-0,149
171,779	121,038	-0,125	-0,109
172,794	-129,424	-0,302	-0,029
173,808	31,208	-0,140	-0,084
174,823	-47,077	-0,331	-0,112
175,837	-78,493	-0,155	-0,037
176,852	-21,991	-0,322	-0,136
177,867	-43,725	-0,205	-0,071
178,881	-0,529	-0,168	-0,083
179,896	93,463	-0,195	-0,154
180,910	91,268	-0,287	-0,224
181,925	70,739	-0,144	-0,104
182,940	71,867	-0,274	-0,198
183,954	82,355	-0,301	-0,227
184,969	-42,149	-0,131	-0,046
185,983	32,385	-0,149	-0,090
186,998	113,645	-0,212	-0,180
188,013	-1,354	-0,255	-0,125
189,027	-0,298	-0,251	-0,124
190,042	-58,573	-0,312	-0,094
191,056	27,653	-0,262	-0,153
192,071	-43,178	-0,246	-0,086
193,086	213,305	-0,097	-0,107
194,100	34,688	-0,262	-0,159
195,115	-78,537	-0,259	-0,061
196,129	15,454	-0,209	-0,114
197,144	43,974	-0,203	-0,129
198,159	-94,986	-0,183	-0,034
199,173	415,298	-0,140	-0,208
200,188	-37,328	-0,316	-0,117
201,202	800,000	-0,093	-0,209
202,217	317,664	-0,142	-0,188
203,232	-35,397	-0,263	-0,099
204,246	253,295	-0,168	-0,200
205,261	-41,855	-0,259	-0,092
206,275	618,501	-0,129	-0,226
207,290	41,869	-0,207	-0,130
208,304	145,271	-0,154	-0,144
209,319	87,786	-0,107	-0,082
210,334	203,329	-0,229	-0,246
211,348	534,522	-0,128	-0,211
212,363	511,886	-0,154	-0,250
213,377	400,743	-0,111	-0,163
214,392	234,277	-0,195	-0,223
215,407	-130,981	-0,210	-0,019
216,421	4,104	-0,031	0,016
217,436	202,803	-0,203	-0,218
218,450	23,797	-0,136	-0,078
219,465	438,609	-0,096	-0,146
220,480	6,723	-0,228	-0,118
221,494	70,341	-0,193	-0,138
222,509	22,322	-0,202	-0,115
223,523	-62,014	-0,108	-0,031
224,538	-3,668	-0,315	-0,151
225,553	216,062	-0,154	-0,171
226,567	-104,353	-0,257	0,041
227,582	58,645	-0,200	-0,136
228,596	139,021	-0,172	-0,157
229,611	271,529	-0,162	-0,198
230,626	314,201	-0,172	-0,226
231,640	93,401	-0,239	-0,187
232,655	326,848	-0,178	-0,237
233,669	237,332	-0,222	-0,255
234,684	147,009	-0,207	-0,194
235,699	396,876	-0,124	-0,180
236,713	52,825	-0,230	-0,152
237,728	21,217	-0,162	-0,091
238,742	171,403	-0,104	-0,104
239,757	29,958	-0,321	-0,189
240,772	169,224	-0,160	-0,158
241,786	62,810	-0,351	-0,243
242,801	11,367	-0,187	-0,099
243,815	157,185	-0,179	-0,171
244,830	127,218	-0,147	-0,129
245,844	226,285	-0,150	-0,169
246,859	-22,583	-0,261	-0,109
247,874	53,693	-0,252	-0,167
248,888	65,696	-0,218	-0,153
249,903	-200,000	-0,021	-0,196
250,917	33,766	-0,166	-0,099
251,932	-80,018	-0,342	-0,079
252,947	51,415	-0,220	-0,144
253,961	249,383	-0,157	-0,184
254,976	117,850	-0,216	-0,184
255,990	471,096	-0,154	-0,240
257,005	71,779	-0,227	-0,163
258,020	-200,000	-0,010	-0,134
259,034	36,134	-0,121	-0,074
260,049	39,115	-0,182	-0,112
261,063	158,195	-0,201	-0,193
262,078	398,824	-0,128	-0,186
263,093	-47,795	-0,175	-0,058
264,107	20,919	-0,205	-0,114
265,122	-175,627	-0,216	-0,004
266,136	-76,196	-0,153	-0,037
267,151	-74,937	-0,203	-0,050
268,166	-192,263	-0,274	-0,002
269,180	800,000	-0,068	-0,199
270,195	351,258	-0,166	-0,227
271,209	62,229	-0,174	-0,120
272,224	46,042	-0,147	-0,094
273,239	55,943	-0,137	-0,092
274,253	-128,334	-0,280	0,027
275,268	-35,995	-0,185	-0,069
276,282	115,519	-0,247	-0,209
277,297	316,142	-0,126	-0,165
278,312	309,323	-0,156	-0,202
279,326	-160,041	-0,156	-0,006
280,341	562,793	-0,110	-0,184
281,355	284,720	-0,140	-0,174
282,370	102,689	-0,153	-0,124
283,384	800,000	-0,091	-0,210
284,399	-76,417	-0,179	-0,043
285,414	98,659	-0,205	-0,163
286,428	-49,613	-0,087	-0,029
287,443	-88,443	-0,164	0,033
288,457	78,778	-0,101	-0,074
289,472	-38,812	-0,113	-0,041
290,487	26,424	-0,162	-0,094
291,501	112,786	-0,143	-0,120
292,516	13,549	-0,264	-0,141
293,530	27,188	-0,096	-0,055
294,545	68,276	-0,081	-0,057
295,560	-54,519	-0,127	-0,040
296,574	86,350	-0,110	-0,083
297,589	390,722	-0,137	-0,196
298,603	0,838	-0,184	-0,091
299,618	110,871	-0,112	-0,093
300,633	229,222	-0,125	-0,141
301,647	800,000	-0,034	-0,101
302,662	148,578	-0,085	-0,079
303,676	800,000	-0,076	-0,168
304,691	40,341	-0,223	-0,138
305,706	800,000	-0,100	-0,202
306,720	184,302	-0,174	-0,178
307,735	-55,405	-0,186	-0,057
308,749	68,734	-0,108	-0,076
309,764	-86,792	-0,087	0,018
310,779	-44,156	-0,155	-0,053
311,793	39,095	-0,174	-0,107
312,808	68,468	-0,215	-0,152
313,822	-200,000	0,028	-0,124
314,837	-55,324	-0,092	-0,028
315,852	429,892	-0,104	-0,155
316,866	-143,717	-0,171	0,011
317,881	-76,978	-0,122	-0,029
318,895	510,764	-0,035	-0,056
319,910	274,445	-0,166	-0,203
320,925	-53,270	-0,251	-0,079
321,939	800,000	-0,051	-0,127
322,954	26,736	-0,114	-0,066
323,968	308,090	-0,101	-0,130
324,983	-13,117	-0,156	-0,069
325,997	-5,362	-0,179	-0,084
327,012	-200,000	0,031	-0,149
328,027	-24,785	-0,109	-0,044
329,041	-15,622	-0,177	-0,077
330,056	71,006	-0,153	-0,109
331,070	-125,669	-0,245	0,025
332,085	-200,000	-0,017	-0,111
333,100	417,571	-0,153	-0,225
334,114	113,822	-0,217	-0,181
335,129	416,959	-0,053	-0,078
336,143	504,524	-0,129	-0,205
337,158	117,661	-0,193	-0,163
338,173	222,579	-0,025	-0,028
339,187	661,711	-0,053	-0,094
340,202	-5,634	-0,115	0,054
341,216	452,993	-0,103	-0,157
342,231	34,438	-0,222	-0,133
343,246	-135,647	-0,254	0,020
344,260	31,292	-0,168	-0,099
345,275	-94,080	-0,138	-0,026
346,289	-102,351	-0,166	-0,027
347,304	70,843	-0,075	-0,053
348,319	-16,197	-0,206	-0,089
349,333	35,665	-0,189	-0,114
350,348	-54,158	-0,220	-0,068
351,362	113,330	-0,192	-0,160
352,377	312,978	-0,121	-0,156
353,392	265,889	-0,138	-0,166
354,406	-44,093	-0,232	-0,079
355,421	208,304	1315,713	1413,007
356,435	160,266	1476,588	1413,496
