DTS Sentinel unit serial number:	SN410029Multiplexer serial number:	ORYXHardware model number:	OX2-SRSoftware version number:	ORYX F/W v4,00 Oryx Data Collector v3.7.2.0data status	okinstallation	B3 Nyhavnadifferential loss correction	single-endedforward channel	channel 1reverse channel	N/Adate	2023/12/04time	08:47:30forward acquisition time	300,00reverse acquisition time	0,00gamma	499,1914k internal	0,3204k external	0,3204temperature offset calibration	1,0000default loss term (dB/km)	0,3820temperature slope calibration	1,0000multiplexer offset coefficient	1,0000multiplexer slope coefficient	1,0000fibre end	0,00T internal ref (°C)	12,87T ext. ref 1 (°C)	-1,48T ext. ref 2 (°C)	-1,51length (m)	temperature (°C)	Stokes	anti-Stokes-744,400	323,856	-0,150	-0,209
-743,385	800,000	0,109	0,294
-742,371	129,210	-0,245	-0,228
-741,356	-200,000	-0,068	0,361
-740,342	95,237	-0,166	-0,137
-739,327	394,135	0,133	0,201
-738,312	153,074	-0,270	-0,268
-737,298	-200,000	-0,024	0,155
-736,283	37,677	-0,203	-0,131
-735,269	-200,000	0,066	0,374
-734,254	43,854	-0,262	-0,174
-733,239	124,711	-0,180	0,165
-732,225	260,094	-0,075	-0,094
-731,210	-200,000	-0,007	-0,025
-730,196	-200,000	0,017	-0,058
-729,181	-200,000	-0,027	0,087
-728,167	-200,000	-0,011	-0,059
-727,152	126,427	0,005	0,005
-726,137	349,180	-0,077	0,111
-725,123	-33,150	-0,070	-0,028
-724,108	-94,127	-0,127	-0,025
-723,094	135,757	-0,129	0,122
-722,079	-200,000	0,025	-0,141
-721,064	-28,600	0,197	-0,082
-720,050	-42,943	-0,059	0,022
-719,035	125,822	-0,054	-0,049
-718,021	130,813	-0,056	0,052
-717,006	-63,280	0,049	-0,015
-715,991	-41,693	-0,102	-0,038
-714,977	116,994	-0,125	0,112
-713,962	153,803	0,037	0,036
-712,948	-132,379	0,083	-0,008
-711,933	800,000	0,053	0,122
-710,918	404,740	-0,058	-0,090
-709,904	527,623	0,032	-0,054
-708,889	-200,000	0,000	-0,003
-707,875	-108,881	-0,050	-0,008
-706,860	-5,779	-0,093	0,046
-705,845	133,705	-0,093	0,087
-704,831	-200,000	-0,016	0,088
-703,816	-200,000	-0,010	0,096
-702,802	-161,310	-0,144	-0,005
-701,787	800,000	-0,036	-0,087
-700,772	174,039	-0,044	-0,046
-699,758	800,000	-0,021	0,064
-698,743	339,517	0,025	0,035
-697,729	-200,000	-0,000	0,027
-696,714	-200,000	-0,009	0,099
-695,699	101,983	0,050	0,042
-694,685	-41,733	-0,023	-0,008
-693,670	312,725	-0,083	-0,114
-692,656	-200,000	-0,011	-0,107
-691,641	54,641	0,089	-0,062
-690,627	61,459	0,094	0,067
-689,612	763,535	-0,016	0,031
-688,597	800,000	-0,049	0,134
-687,583	-200,000	0,019	0,115
-686,568	-57,585	-0,174	-0,055
-685,554	800,000	0,088	-0,197
-684,539	-200,000	-0,015	0,066
-683,524	36,867	0,034	-0,022
-682,510	-200,000	-0,002	-0,023
-681,495	-200,000	-0,020	0,096
-680,481	-86,631	-0,033	0,007
-679,466	-200,000	-0,006	-0,147
-678,451	-87,825	-0,163	-0,035
-677,437	107,073	0,065	-0,056
-676,422	-200,000	0,016	-0,066
-675,408	-45,393	0,102	0,037
-674,393	-200,000	-0,015	-0,134
-673,378	3,429	-0,060	-0,031
-672,364	321,967	-0,006	-0,008
-671,349	800,000	0,045	-0,107
-670,335	-10,197	0,121	-0,058
-669,320	-200,000	-0,001	0,039
-668,305	107,825	0,080	0,069
-667,291	800,000	0,037	0,078
-666,276	228,111	-0,050	-0,059
-665,262	182,893	-0,065	-0,070
-664,247	-200,000	0,015	0,079
-663,232	-20,132	0,074	0,033
-662,218	800,000	0,033	0,101
-661,203	-93,814	0,171	0,034
-660,189	-9,539	0,103	-0,050
-659,174	164,884	0,020	-0,021
-658,159	111,225	0,058	-0,050
-657,145	-71,447	-0,249	0,067
-656,130	216,109	0,132	-0,153
-655,116	-200,000	0,016	-0,122
-654,101	156,325	0,013	-0,013
-653,086	-200,000	0,006	-0,030
-652,072	-116,535	-0,139	0,018
-651,057	151,947	-0,012	-0,012
-650,043	-13,995	0,089	-0,042
-649,028	323,867	0,044	0,061
-648,014	800,000	0,019	0,056
-646,999	-137,559	0,018	0,001
-645,984	-200,000	0,033	0,110
-644,970	422,206	-0,011	-0,018
-643,955	-200,000	-0,007	-0,149
-642,941	-200,000	0,000	-0,004
-641,926	-200,000	-0,006	0,024
-640,911	-39,373	0,075	0,028
-639,897	-200,000	-0,026	0,138
-638,882	800,000	-0,021	0,047
-637,868	100,903	-0,116	-0,098
-636,853	800,000	0,011	0,023
-635,838	-187,521	-0,180	0,002
-634,824	-87,417	0,036	0,008
-633,809	292,527	0,030	0,039
-632,795	-152,972	0,042	-0,002
-631,780	800,000	-0,024	0,053
-630,765	-45,423	-0,121	0,043
-629,751	800,000	0,019	0,044
-628,736	-92,819	-0,126	0,025
-627,722	6,933	0,024	0,013
-626,707	34,736	0,063	0,040
-625,692	15,609	0,060	-0,034
-624,678	-93,786	0,167	0,033
-623,663	-13,881	-0,112	0,052
-622,649	29,360	-0,205	0,126
-621,634	-15,935	0,055	-0,025
-620,619	-200,000	-0,014	-0,168
-619,605	144,895	0,045	0,044
-618,590	-99,738	-0,106	-0,019
-617,576	171,057	0,024	0,025
-616,561	-200,000	-0,004	-0,106
-615,546	-200,000	-0,005	-0,069
-614,532	-112,954	-0,081	0,011
-613,517	245,710	0,055	0,067
-612,503	800,000	-0,020	0,042
-611,488	-20,309	0,113	-0,050
-610,474	133,762	0,033	-0,031
-609,459	-93,192	0,067	-0,013
-608,444	168,289	-0,020	-0,021
-607,430	156,508	-0,088	-0,088
-606,415	90,028	-0,099	-0,080
-605,401	-87,039	0,050	-0,011
-604,386	-63,475	0,050	0,015
-603,371	-28,619	0,113	0,047
-602,357	800,000	0,026	-0,061
-601,342	-84,803	-0,117	-0,026
-600,328	73,537	-0,070	-0,053
-599,313	-44,810	-0,170	-0,061
-598,298	-200,000	-0,006	0,028
-597,284	-67,369	-0,032	0,009
-596,269	584,723	0,055	-0,098
-595,255	22,868	-0,037	-0,022
-594,240	87,714	-0,124	0,099
-593,225	-200,000	-0,001	-0,030
-592,211	-200,000	-0,020	-0,073
-591,196	69,197	-0,125	-0,093
-590,182	-0,485	0,077	0,040
-589,167	-116,469	0,156	0,021
-588,152	3,690	0,025	0,013
-587,138	800,000	-0,018	-0,041
-586,123	641,981	0,042	-0,077
-585,109	240,817	-0,108	-0,130
-584,094	-161,962	0,110	-0,004
-583,079	-61,425	0,029	-0,009
-582,065	287,148	0,048	0,063
-581,050	489,244	0,030	-0,050
-580,036	-186,001	0,026	-0,000
-579,021	37,881	0,075	0,048
-578,006	38,803	0,052	0,033
-576,992	140,136	0,099	0,095
-575,977	-75,830	0,150	-0,038
-574,963	36,163	-0,099	-0,063
-573,948	-37,014	0,108	-0,042
-572,934	149,288	-0,059	-0,057
-571,919	-200,000	0,022	-0,135
-570,904	-101,724	-0,184	0,032
-569,890	-194,625	-0,089	0,000
-568,875	188,637	0,032	-0,035
-567,861	-41,727	-0,124	-0,046
-566,846	800,000	-0,010	0,027
-565,831	71,033	0,047	0,035
-564,817	-125,102	0,066	0,007
-563,802	50,035	-0,128	-0,087
-562,788	-9,382	-0,091	-0,044
-561,773	-143,690	-0,113	-0,008
-560,758	365,095	0,053	0,077
-559,744	51,239	-0,064	0,043
-558,729	-54,574	0,141	0,046
-557,715	-118,246	0,064	0,008
-556,700	33,850	-0,093	-0,058
-555,685	800,000	-0,076	-0,224
-554,671	-93,485	-0,209	-0,041
-553,656	-200,000	-0,032	0,109
-552,642	-6,228	0,116	0,057
-551,627	800,000	-0,024	-0,063
-550,612	800,000	-0,028	-0,080
-549,598	87,423	-0,109	-0,087
-548,583	19,701	-0,142	-0,082
-547,569	551,403	0,081	-0,141
-546,554	-200,000	0,039	0,153
-545,539	321,317	-0,058	-0,080
-544,525	-200,000	-0,014	-0,121
-543,510	99,774	-0,021	-0,017
-542,496	450,907	-0,033	-0,052
-541,481	374,889	-0,025	0,037
-540,466	-200,000	0,006	-0,172
-539,452	-19,811	0,076	-0,034
-538,437	-179,899	-0,139	-0,002
-537,423	-200,000	-0,047	0,158
-536,408	400,016	-0,012	0,018
-535,393	-200,000	-0,015	0,109
-534,379	-59,453	-0,065	-0,020
-533,364	547,426	-0,049	-0,085
-532,350	46,532	0,089	0,059
-531,335	-151,949	0,032	0,002
-530,321	800,000	0,056	-0,172
-529,306	-136,159	0,029	-0,002
-528,291	-43,515	-0,035	0,012
-527,277	-104,199	-0,221	0,037
-526,262	800,000	0,046	0,127
-525,248	-30,580	0,092	0,037
-524,233	-123,971	0,219	0,025
-523,218	-70,926	0,067	0,018
-522,204	24,513	0,023	0,014
-521,189	-74,554	-0,098	0,025
-520,175	0,754	-0,086	-0,044
-519,160	-81,768	0,021	0,005
-518,145	567,088	0,034	-0,059
-517,131	586,243	0,035	0,062
-516,116	-200,000	0,020	0,075
-515,102	45,356	-0,107	0,071
-514,087	-37,799	-0,115	-0,044
-513,072	-200,000	0,008	0,050
-512,058	761,260	-0,079	-0,155
-511,043	-148,051	0,025	-0,001
-510,029	323,605	0,012	0,016
-509,014	-200,000	0,011	-0,049
-507,999	-200,000	0,048	0,182
-506,985	23,081	-0,071	-0,042
-505,970	236,316	-0,096	-0,114
-504,956	35,166	-0,155	0,098
-503,941	278,591	-0,072	-0,092
-502,926	107,637	0,062	0,053
-501,912	85,070	-0,024	-0,019
-500,897	128,408	0,117	0,108
-499,883	-200,000	-0,011	-0,109
-498,868	363,667	-0,013	-0,019
-497,853	-200,000	-0,012	-0,039
-496,839	-68,470	0,078	-0,022
-495,824	-197,481	-0,109	-0,000
-494,810	148,016	0,088	0,085
-493,795	421,212	0,100	0,155
-492,781	-106,284	-0,151	-0,024
-491,766	-62,647	-0,035	-0,010
-490,751	151,440	0,129	-0,127
-489,737	359,035	0,064	-0,092
-488,722	-200,000	-0,012	-0,049
-487,708	-99,316	-0,121	0,022
-486,693	-200,000	0,019	-0,118
-485,678	92,778	0,100	-0,081
-484,664	190,623	-0,087	-0,095
-483,649	-200,000	0,010	-0,058
-482,635	-96,046	0,134	-0,025
-481,620	-14,096	-0,098	0,045
-480,605	-200,000	-0,010	0,060
-479,591	800,000	0,037	-0,082
-478,576	-200,000	0,007	0,193
-477,562	433,078	0,108	-0,169
-476,547	111,014	-0,104	0,090
-475,532	7,924	0,075	-0,041
-474,518	-80,311	0,091	0,022
-473,503	139,133	0,035	0,033
-472,489	177,210	0,103	0,108
-471,474	-80,777	-0,038	-0,009
-470,459	332,848	-0,046	-0,064
-469,445	-200,000	0,004	-0,043
-468,430	800,000	-0,046	0,093
-467,416	-200,000	0,004	-0,027
-466,401	-56,049	0,040	-0,013
-465,386	1,931	-0,016	-0,008
-464,372	-101,446	-0,030	-0,005
-463,357	-200,000	0,021	0,075
-462,343	800,000	-0,043	-0,117
-461,328	23,236	-0,069	-0,041
-460,313	-186,106	-0,121	-0,001
-459,299	748,429	0,024	0,047
-458,284	800,000	0,031	-0,075
-457,270	-49,927	-0,053	0,018
-456,255	-14,163	0,028	0,013
-455,241	-155,171	-0,147	0,007
-454,226	530,519	0,039	-0,066
-453,211	-200,000	-0,032	0,132
-452,197	-102,431	0,154	-0,026
-451,182	-200,000	0,014	-0,075
-450,168	-46,892	0,096	-0,034
-449,153	317,596	-0,102	0,139
-448,138	-200,000	-0,002	-0,109
-447,124	0,490	-0,108	-0,055
-446,109	-200,000	0,001	-0,149
-445,095	800,000	-0,017	0,038
-444,080	162,142	-0,024	-0,024
-443,065	-200,000	0,038	-0,196
-442,051	-152,566	-0,140	0,007
-441,036	9,932	0,053	0,029
-440,022	196,972	-0,015	0,017
-439,007	-200,000	-0,022	0,197
-437,992	800,000	-0,012	0,035
-436,978	-22,761	0,046	0,020
-435,963	800,000	-0,026	0,066
-434,949	-200,000	0,032	0,113
-433,934	436,592	-0,066	-0,104
-432,919	148,639	0,087	0,084
-431,905	800,000	-0,029	-0,086
-430,890	800,000	-0,046	-0,092
-429,876	-200,000	0,007	0,094
-428,861	-24,467	0,105	-0,045
-427,846	-200,000	0,005	-0,045
-426,832	-103,890	-0,071	0,012
-425,817	48,954	-0,089	-0,060
-424,803	157,841	0,043	-0,043
-423,788	-124,518	0,123	0,014
-422,773	800,000	0,066	0,158
-421,759	173,742	-0,084	0,088
-420,744	-200,000	0,008	0,062
-419,730	-60,754	0,110	-0,033
-418,715	-131,844	-0,061	0,006
-417,701	273,813	0,029	-0,037
-416,686	-200,000	0,039	0,144
-415,671	88,931	0,100	-0,080
-414,657	-42,814	0,118	-0,043
-413,642	21,907	-0,052	-0,030
-412,628	159,029	-0,057	-0,056
-411,613	-200,000	0,029	-0,140
-410,598	615,164	0,045	0,081
-409,584	-179,487	0,024	-0,000
-408,569	213,802	-0,041	0,046
-407,555	-135,988	-0,027	0,002
-406,540	-200,000	0,024	0,089
-405,525	189,660	0,044	0,048
-404,511	-108,544	0,067	0,010
-403,496	143,075	-0,062	-0,059
-402,482	800,000	0,005	-0,016
-401,467	-4,902	0,036	-0,018
-400,452	800,000	0,028	0,063
-399,438	800,000	0,075	0,153
-398,423	-28,552	0,020	0,008
-397,409	-23,063	-0,062	-0,027
-396,394	-200,000	0,035	-0,171
-395,379	800,000	-0,064	-0,157
-394,365	584,654	0,006	0,010
-393,350	-200,000	0,005	0,024
-392,336	39,400	0,033	-0,021
-391,321	-45,643	0,096	0,034
-390,306	-200,000	0,004	-0,041
-389,292	-26,827	-0,108	-0,045
-388,277	-105,883	-0,145	0,023
-387,263	19,046	0,120	-0,069
-386,248	357,592	0,081	0,116
-385,233	781,840	0,062	0,122
-384,219	-19,781	0,092	-0,041
-383,204	-200,000	0,002	-0,224
-382,190	-93,974	0,037	-0,007
-381,175	-200,000	0,004	0,163
-380,160	-200,000	0,007	0,044
-379,146	-97,629	-0,045	0,008
-378,131	287,554	0,079	0,102
-377,117	-200,000	0,004	0,043
-376,102	-98,115	0,056	-0,010
-375,088	-89,636	-0,122	-0,025
-374,073	-65,437	0,057	0,016
-373,058	800,000	-0,025	-0,072
-372,044	-200,000	-0,032	0,130
-371,029	800,000	-0,032	-0,071
-370,015	-200,000	0,007	0,024
-369,000	-146,794	-0,026	-0,002
-367,985	-200,000	0,039	0,143
-366,971	67,942	-0,078	0,057
-365,956	-200,000	0,036	0,140
-364,942	341,271	0,078	-0,109
-363,927	-200,000	-0,034	0,114
-362,912	48,628	0,015	0,010
-361,898	622,047	-0,135	-0,244
-360,883	800,000	-0,024	-0,055
-359,869	-200,000	0,002	-0,038
-358,854	553,690	0,048	0,083
-357,839	484,479	-0,043	-0,071
-356,825	415,875	0,130	0,198
-355,810	56,475	0,092	0,064
-354,796	-96,876	-0,044	0,008
-353,781	76,972	-0,057	0,044
-352,766	-122,888	-0,186	-0,021
-351,752	1,436	0,056	-0,029
-350,737	-200,000	0,015	0,069
-349,723	-200,000	-0,042	0,170
-348,708	-200,000	-0,000	0,061
-347,693	-26,656	-0,015	-0,006
-346,679	323,806	-0,066	-0,090
-345,664	100,185	-0,068	-0,056
-344,650	-168,845	0,170	-0,004
-343,635	800,000	-0,060	0,124
-342,620	800,000	0,052	0,111
-341,606	55,817	0,057	0,040
-340,591	44,972	-0,139	-0,091
-339,577	-64,357	0,077	-0,022
-338,562	-61,062	-0,059	-0,018
-337,548	479,526	-0,016	-0,026
-336,533	-135,852	0,220	-0,018
-335,518	-13,724	0,139	-0,064
-334,504	-200,000	-0,018	-0,160
-333,489	-200,000	0,001	0,016
-332,475	112,383	0,060	-0,052
-331,460	196,551	0,079	-0,086
-330,445	-108,426	-0,093	0,014
-329,431	-200,000	-0,005	-0,025
-328,416	800,000	0,064	0,183
-327,402	-200,000	0,008	0,121
-326,387	-18,094	-0,065	0,029
-325,372	237,029	0,062	-0,074
-324,358	6,480	-0,086	-0,046
-323,343	-129,613	-0,047	0,005
-322,329	391,743	0,047	0,070
-321,314	185,404	0,059	0,063
-320,299	800,000	0,079	0,187
-319,285	-62,243	-0,127	0,037
-318,270	-79,772	-0,047	0,011
-317,256	323,473	-0,079	0,108
-316,241	800,000	0,037	-0,096
-315,226	800,000	-0,038	0,077
-314,212	716,466	0,096	0,183
-313,197	800,000	0,023	0,055
-312,183	-102,913	-0,162	0,027
-311,168	800,000	0,021	0,061
-310,153	171,941	-0,085	-0,087
-309,139	-40,774	0,041	-0,015
-308,124	-114,563	0,122	0,016
-307,110	21,040	-0,133	0,077
-306,095	800,000	-0,031	0,086
-305,080	-55,645	-0,138	0,044
-304,066	-81,102	-0,154	-0,036
-303,051	35,972	0,050	0,031
-302,037	-77,239	-0,121	-0,030
-301,022	-49,669	0,069	0,023
-300,008	800,000	0,036	0,070
-298,993	-25,071	-0,109	-0,046
-297,978	85,704	-0,052	0,041
-296,964	800,000	-0,018	-0,048
-295,949	485,357	-0,023	-0,038
-294,935	-104,157	-0,145	0,024
-293,920	50,265	0,023	0,016
-292,905	29,501	0,082	-0,050
-291,891	-66,235	-0,062	-0,017
-290,876	800,000	0,052	0,117
-289,862	-36,523	-0,057	0,022
-288,847	35,254	0,077	0,048
-287,832	-200,000	-0,003	0,060
-286,818	101,603	0,067	0,055
-285,803	-194,406	0,203	-0,001
-284,789	532,862	0,048	0,081
-283,774	800,000	0,049	-0,121
-282,759	800,000	-0,035	-0,080
-281,745	-128,207	-0,156	-0,016
-280,730	-200,000	0,002	-0,185
-279,716	-200,000	-0,005	0,117
-278,701	139,134	-0,062	0,058
-277,686	-2,726	0,101	0,050
-276,672	-200,000	-0,006	0,089
-275,657	284,616	-0,029	-0,037
-274,643	600,233	-0,049	-0,087
-273,628	151,603	-0,048	-0,047
-272,613	755,334	0,015	-0,029
-271,599	-119,562	0,101	0,012
-270,584	-118,423	0,208	-0,026
-269,570	167,920	0,009	-0,010
-268,555	-200,000	-0,028	-0,100
-267,540	-200,000	0,014	-0,075
-266,526	115,809	-0,087	-0,076
-265,511	800,000	0,060	-0,184
-264,497	-130,307	0,100	0,010
-263,482	0,631	0,083	0,042
-262,467	-149,127	0,168	0,009
-261,453	31,168	-0,105	-0,064
-260,438	-22,414	-0,101	-0,043
-259,424	-200,000	0,006	-0,054
-258,409	-64,682	0,087	-0,025
-257,395	800,000	-0,041	0,090
-256,380	-200,000	0,008	-0,070
-255,365	-72,249	0,057	0,015
-254,351	345,110	0,090	-0,126
-253,336	-200,000	0,000	0,016
-252,322	-200,000	-0,026	-0,094
-251,307	113,705	0,069	0,060
-250,292	171,944	0,086	-0,088
-249,278	186,144	0,076	-0,081
-248,263	542,364	-0,046	-0,078
-247,249	-200,000	0,017	0,096
-246,234	800,000	-0,020	0,049
-245,219	-200,000	-0,022	-0,112
-244,205	244,172	-0,133	-0,160
-243,190	-44,560	0,035	0,012
-242,176	-200,000	0,120	-0,000
-241,161	326,809	-0,052	-0,071
-240,146	109,967	-0,057	0,049
-239,132	-121,645	0,056	0,007
-238,117	-200,000	0,013	-0,165
-237,103	-12,078	-0,090	0,042
-236,088	229,497	-0,096	0,112
-235,073	-104,546	0,108	0,018
-234,059	800,000	0,053	0,157
-233,044	-200,000	0,004	0,094
-232,030	-16,981	-0,028	0,013
-231,015	-68,378	-0,027	0,007
-230,000	-175,689	-0,015	0,000
-228,986	397,358	-0,037	0,055
-227,971	-38,128	0,191	0,072
-226,957	800,000	-0,030	0,093
-225,942	-200,000	-0,021	-0,076
-224,927	-166,398	-0,142	-0,004
-223,913	-2,570	0,119	0,059
-222,898	35,320	0,192	-0,119
-221,884	-18,105	-0,136	0,060
-220,869	686,428	-0,032	-0,060
-219,855	-56,160	-0,038	-0,012
-218,840	208,967	0,144	0,161
-217,825	-200,000	-0,008	-0,057
-216,811	-104,126	-0,158	-0,026
-215,796	-6,024	-0,062	0,030
-214,782	-1,592	0,039	0,020
-213,767	188,040	0,005	0,006
-212,752	-200,000	0,053	0,235
-211,738	107,283	-0,078	0,066
-210,723	43,578	-0,057	0,037
-209,709	-81,409	-0,063	0,015
-208,694	-200,000	0,029	-0,111
-207,679	52,449	-0,050	-0,034
-206,665	49,974	0,095	-0,064
-205,650	-94,338	0,123	0,024
-204,636	-200,000	0,011	0,119
-203,621	-52,419	0,139	0,045
-202,606	440,693	-0,058	-0,091
-201,592	-200,000	-0,004	-0,014
-200,577	169,942	-0,016	-0,016
-199,563	-25,352	0,097	0,040
-198,548	800,000	-0,077	0,205
-197,533	434,663	0,032	0,049
-196,519	-200,000	0,031	-0,123
-195,504	-9,328	-0,100	0,047
-194,490	-200,000	0,011	-0,066
-193,475	195,141	-0,037	-0,040
-192,460	-37,655	0,111	0,042
-191,446	-143,670	0,161	-0,011
-190,431	800,000	0,054	0,111
-189,417	236,280	-0,096	-0,113
-188,402	16,805	-0,022	0,012
-187,387	-200,000	0,038	-0,176
-186,373	680,971	-0,063	-0,117
-185,358	132,055	-0,071	-0,065
-184,344	54,377	0,090	-0,061
-183,329	-38,784	0,239	0,089
-182,315	-200,000	-0,004	0,017
-181,300	42,247	0,068	0,044
-180,285	800,000	-0,021	0,052
-179,271	257,390	-0,038	-0,046
-178,256	26,957	0,099	0,059
-177,242	283,795	0,017	0,022
-176,227	-6,669	-0,027	-0,013
-175,212	32,125	-0,089	0,054
-174,198	-200,000	0,019	0,205
-173,183	-200,000	-0,010	0,118
-172,169	-200,000	-0,005	-0,085
-171,154	583,164	0,041	-0,073
-170,139	375,700	0,085	-0,123
-169,125	800,000	0,048	0,120
-168,110	647,554	0,102	0,186
-167,096	141,639	-0,047	-0,044
-166,081	-200,000	-0,048	-0,152
-165,066	800,000	0,013	0,036
-164,052	-80,793	0,085	0,020
-163,037	-105,773	-0,138	0,022
-162,023	-200,000	-0,023	0,092
-161,008	-200,000	-0,040	-0,216
-159,993	-154,969	0,006	0,000
-158,979	101,927	-0,049	0,041
-157,964	160,787	-0,061	0,061
-156,950	-97,825	0,066	-0,012
-155,935	800,000	-0,022	0,053
-154,920	69,013	0,063	-0,046
-153,906	800,000	0,025	0,058
-152,891	-112,083	-0,091	0,013
-151,877	-120,136	0,039	-0,005
-150,862	87,962	-0,116	-0,091
-149,847	-60,406	-0,140	0,042
-148,833	-69,045	0,124	-0,034
-147,818	-8,439	-0,094	0,045
-146,804	81,860	-0,056	0,043
-145,789	-200,000	-0,007	0,025
-144,775	99,087	-0,077	0,063
-143,760	761,630	-0,051	-0,099
-142,745	149,391	-0,048	-0,046
-141,731	800,000	0,030	0,061
-140,716	526,495	-0,024	0,041
-139,702	-65,034	0,111	-0,032
-138,687	-200,000	-0,015	0,083
-137,672	477,335	0,087	0,140
-136,658	-69,339	0,067	0,018
-135,643	432,310	-0,046	0,071
-134,629	-200,000	0,010	0,089
-133,614	-200,000	-0,004	0,048
-132,599	800,000	-0,026	0,060
-131,585	800,000	0,044	0,087
-130,570	514,580	-0,076	0,126
-129,556	124,757	-0,058	0,052
-128,541	1,175	-0,065	-0,033
-127,526	-73,470	-0,085	0,022
-126,512	38,959	-0,118	0,074
-125,497	520,867	-0,014	0,023
-124,483	-55,202	0,122	0,039
-123,468	41,683	0,113	-0,073
-122,453	800,000	-0,022	-0,060
-121,439	-25,598	-0,094	0,039
-120,424	145,466	-0,013	0,012
-119,410	-38,297	0,022	0,008
-118,395	-8,572	-0,114	-0,054
-117,380	-200,000	0,006	-0,129
-116,366	-190,162	0,108	0,001
-115,351	16,905	-0,066	-0,037
-114,337	800,000	0,032	-0,089
-113,322	126,186	-0,114	0,102
-112,307	269,723	0,042	0,052
-111,293	-192,199	0,106	-0,001
-110,278	800,000	0,051	0,119
-109,264	-200,000	0,004	0,107
-108,249	-200,000	0,005	-0,037
-107,234	-90,083	-0,025	-0,005
-106,220	-112,406	-0,007	0,001
-105,205	-200,000	0,023	-0,077
-104,191	-36,358	0,075	0,029
-103,176	231,321	0,020	-0,023
-102,162	-157,808	-0,062	0,003
-101,147	-200,000	-0,034	0,158
-100,132	-200,000	-0,000	-0,021
-99,118	-200,000	0,011	0,132
-98,103	40,674	-0,099	0,063
-97,089	196,478	0,121	-0,131
-96,074	-10,607	0,174	0,081
-95,059	-200,000	-0,011	-0,051
-94,045	-200,000	0,002	-0,122
-93,030	310,833	-0,105	-0,140
-92,016	676,980	-0,038	0,070
-91,001	800,000	-0,064	-0,139
-89,986	-90,864	0,155	0,031
-88,972	-60,878	-0,058	0,017
-87,957	309,380	0,062	0,082
-86,943	-200,000	-0,014	0,158
-85,928	-109,986	0,150	0,022
-84,913	154,042	-0,086	-0,083
-83,899	19,245	-0,080	0,045
-82,884	-127,530	0,046	0,005
-81,870	800,000	-0,032	0,075
-80,855	-200,000	-0,008	0,123
-79,840	-200,000	-0,009	0,054
-78,826	693,002	0,030	0,056
-77,811	800,000	0,086	0,170
-76,797	6,526	0,050	-0,026
-75,782	-200,000	0,004	0,057
-74,767	-200,000	-0,015	0,069
-73,753	655,991	-0,028	-0,052
-72,738	800,000	-0,055	-0,112
-71,724	310,434	0,025	-0,033
-70,709	446,468	-0,121	-0,189
-69,694	150,914	-0,017	0,017
-68,680	371,407	-0,060	0,086
-67,665	-43,197	0,158	0,056
-66,651	102,141	-0,031	-0,026
-65,636	141,414	0,051	0,048
-64,622	238,139	0,099	0,117
-63,607	-200,000	0,014	0,094
-62,592	-118,347	-0,106	-0,013
-61,578	-200,000	0,001	-0,024
-60,563	-19,530	0,082	0,036
-59,549	170,803	-0,089	0,091
-58,534	-22,998	-1,702	-0,722
-57,519	369,749	-1,406	-2,020
-56,505	-200,000	-0,623	-4,524
-55,490	301,324	0,995	1,303
-54,476	800,000	4,864	10,958
-53,461	-200,000	19,518	323,300
-52,446	-200,000	743,060	2332,293
-51,432	570,025	1655,927	2860,092
-50,417	77,482	1670,217	1255,778
-49,403	20,845	1543,769	882,247
-48,388	14,708	1466,319	808,163
-47,373	18,085	1456,049	818,773
-46,359	16,513	1446,100	805,614
-45,344	12,995	1441,469	786,166
-44,330	12,908	1439,548	784,673
-43,315	12,888	1437,985	783,693
-42,300	12,912	1436,231	782,819
-41,286	12,913	1435,006	782,126
-40,271	12,894	1433,761	781,329
-39,257	12,917	1432,425	780,680
-38,242	12,971	1430,881	780,064
-37,227	12,979	1429,704	779,428
-36,213	12,956	1428,542	778,654
-35,198	12,994	1427,171	778,055
-34,184	12,987	1426,330	777,534
-33,169	12,945	1425,080	776,623
-32,154	12,942	1424,178	776,085
-31,140	13,016	1422,641	775,569
-30,125	13,015	1421,678	775,007
-29,111	12,981	1420,447	774,145
-28,096	12,952	1419,279	773,339
-27,082	12,941	1418,301	772,723
-26,067	12,908	1417,116	771,895
-25,052	12,946	1416,081	771,479
-24,038	12,870	1415,271	770,646
-23,023	12,855	1414,247	769,990
-22,009	12,881	1413,174	769,499
-20,994	12,916	1412,109	769,050
-19,979	12,858	1411,430	768,380
-18,965	12,826	1410,302	767,583
-17,950	12,840	1409,439	767,150
-16,936	12,850	1408,502	766,654
-15,921	12,837	1407,390	765,961
-14,906	12,799	1406,806	765,435
-13,892	12,768	1405,894	764,760
-12,877	12,794	1404,917	764,323
-11,863	12,818	1403,841	763,818
-10,848	12,833	1403,059	763,432
-9,833	12,767	1402,250	762,652
-8,819	12,772	1401,287	762,121
-7,804	12,695	1400,550	761,333
-6,790	12,701	1399,472	760,745
-5,775	12,770	1398,160	760,325
-4,760	12,781	1397,194	759,817
-3,746	12,723	1396,477	759,127
-2,731	12,698	1395,639	758,528
-1,717	12,636	1394,876	757,798
-0,702	12,694	1392,935	756,979
0,313	16,599	1309,054	729,438
1,327	32,908	701,889	428,677
2,342	50,612	122,806	81,993
3,356	2,061	16,614	8,450
4,371	12,904	3,214	1,751
5,386	-47,361	0,580	0,198
6,400	174,425	0,122	0,125
7,415	-6,094	-0,366	-0,176
8,429	38,857	-0,375	-0,236
9,444	-31,777	-0,298	-0,118
10,459	-53,386	-0,370	-0,119
11,473	173,193	-0,230	-0,234
12,488	83,181	-0,207	-0,159
13,502	41,523	-0,343	-0,219
14,517	85,162	-0,395	-0,306
15,531	148,819	-0,429	-0,410
16,546	55,428	-0,378	-0,258
17,561	470,390	-0,318	-0,507
18,575	49,418	-0,173	-0,115
19,590	17,428	-0,294	-0,165
20,604	-50,294	-0,334	-0,111
21,619	272,748	-0,329	-0,411
22,634	32,234	-0,388	-0,236
23,648	88,585	-0,360	-0,282
24,663	90,434	-0,395	-0,312
25,677	84,071	-0,417	-0,321
26,692	-2,023	-0,314	-0,155
27,707	30,988	-0,490	-0,296
28,721	71,529	-0,335	-0,245
29,736	182,604	-0,262	-0,273
30,750	74,475	-0,323	-0,239
31,765	104,527	-0,346	-0,287
32,780	-23,432	-0,392	-0,165
33,794	167,716	-0,287	-0,288
34,809	43,469	-0,451	-0,290
35,823	60,717	-0,414	-0,288
36,838	66,440	-0,428	-0,306
37,853	92,830	-0,371	-0,295
38,867	175,064	-0,362	-0,370
39,882	-86,602	-0,319	-0,068
40,896	-19,781	-0,404	-0,175
41,911	4,759	-0,254	-0,131
42,926	-64,097	-0,399	-0,114
43,940	18,538	-0,326	-0,183
44,955	-55,849	-0,409	-0,128
45,969	-33,858	-0,344	-0,133
46,984	226,151	-0,273	-0,312
47,999	58,878	-0,322	-0,223
49,013	41,699	-0,362	-0,231
50,028	93,676	-0,321	-0,256
51,042	239,761	-0,218	-0,256
52,057	152,648	-0,303	-0,291
53,071	82,357	-0,304	-0,232
54,086	40,395	-0,345	-0,218
55,101	85,607	-0,388	-0,300
56,115	93,602	-0,276	-0,220
57,130	-81,923	-0,322	-0,074
58,144	42,035	-0,346	-0,221
59,159	25,938	-0,480	-0,281
60,174	19,555	-0,399	-0,225
61,188	298,083	-0,313	-0,405
62,203	104,725	-0,344	-0,285
63,217	80,871	-0,295	-0,224
64,232	-147,208	-0,265	-0,016
65,247	-76,657	-0,354	-0,087
66,261	77,705	-0,382	-0,286
67,276	197,518	-0,316	-0,339
68,290	85,109	-0,398	-0,307
69,305	64,208	-0,382	-0,270
70,320	52,611	-0,188	-0,126
71,334	82,144	-0,348	-0,265
72,349	-5,470	-0,337	-0,162
73,363	442,340	-0,233	-0,360
74,378	188,105	-0,308	-0,324
75,393	39,424	-0,248	-0,156
76,407	173,642	-0,178	-0,181
77,422	90,824	-0,172	-0,135
78,436	494,138	-0,163	-0,263
79,451	114,723	-0,159	-0,136
80,466	205,043	-0,270	-0,295
81,480	69,227	-0,246	-0,177
82,495	-67,279	-0,382	-0,105
83,509	763,146	-0,072	-0,137
84,524	153,052	-0,307	-0,295
85,539	43,807	-0,238	-0,153
86,553	18,942	-0,325	-0,182
87,568	-8,472	-0,344	-0,162
88,582	-68,836	-0,242	-0,065
89,597	16,007	-0,322	-0,177
90,611	14,879	-0,329	-0,180
91,626	144,608	-0,204	-0,191
92,641	51,984	-0,316	-0,211
93,655	21,899	-0,240	-0,137
94,670	49,277	-0,294	-0,193
95,684	13,053	-0,258	-0,140
96,699	153,671	-0,170	-0,163
97,714	100,348	-0,303	-0,246
98,728	-15,158	-0,299	-0,134
99,743	93,155	-0,220	-0,174
100,757	-78,147	-0,333	-0,080
101,772	25,263	-0,253	-0,147
102,787	121,750	-0,256	-0,223
103,801	3,270	-0,310	-0,157
104,816	8,322	-0,284	-0,149
105,830	49,495	-0,260	-0,171
106,845	29,494	-0,250	-0,148
107,860	-45,742	-0,345	-0,119
108,874	-62,674	-0,282	-0,081
109,889	288,193	-0,175	-0,222
110,903	265,798	-0,264	-0,323
111,918	115,248	-0,284	-0,243
112,933	165,393	-0,274	-0,271
113,947	142,232	-0,201	-0,187
114,962	141,022	-0,200	-0,185
115,976	-35,998	-0,407	-0,153
116,991	165,229	-0,293	-0,290
118,006	263,938	-0,250	-0,305
119,020	22,651	-0,208	-0,119
120,035	78,706	-0,205	-0,154
121,049	90,973	-0,260	-0,204
122,064	800,000	-0,148	-0,318
123,079	-33,591	-0,306	-0,118
124,093	70,025	-0,307	-0,221
125,108	-45,782	-0,252	-0,087
126,122	645,515	-0,160	-0,287
127,137	208,032	-0,253	-0,276
128,151	-54,896	-0,159	-0,050
129,166	-19,704	-0,330	-0,142
130,181	79,543	-0,247	-0,185
131,195	56,601	-0,444	-0,302
132,210	3,922	-0,343	-0,175
133,224	95,153	-0,236	-0,188
134,239	-34,851	-0,228	-0,086
135,254	80,934	-0,225	-0,169
136,268	181,449	-0,332	-0,341
137,283	-99,209	-0,278	-0,049
138,297	543,648	-0,195	-0,327
139,312	16,764	-0,186	-0,102
140,327	8,743	-0,326	-0,171
141,341	62,156	-0,161	-0,112
142,356	-200,000	-0,080	-0,263
143,370	64,646	-0,294	-0,207
144,385	46,043	-0,317	-0,205
145,400	141,337	-0,350	-0,324
146,414	107,423	-0,336	-0,279
147,429	194,968	-0,204	-0,216
148,443	58,436	-0,252	-0,172
149,458	-59,634	-0,266	-0,079
150,473	15,232	-0,324	-0,177
151,487	-21,715	-0,231	-0,098
152,502	328,604	-0,244	-0,327
153,516	392,286	-0,189	-0,274
154,531	455,228	-0,169	-0,263
155,546	-179,810	-0,285	0,004
156,560	479,866	-0,172	-0,272
157,575	140,336	-0,176	-0,162
158,589	-200,000	-0,056	-0,202
159,604	-92,464	-0,329	-0,064
160,619	88,508	-0,302	-0,234
161,633	142,273	-0,149	-0,138
162,648	192,250	-0,147	-0,155
163,662	90,313	-0,345	-0,269
164,677	-81,071	-0,387	-0,088
165,692	149,933	-0,182	-0,172
166,706	447,720	-0,160	-0,246
167,721	245,214	-0,253	-0,297
168,735	-200,000	-0,052	-0,178
169,750	-34,669	-0,227	-0,086
170,764	318,686	-0,150	-0,199
171,779	305,564	-0,118	-0,154
172,794	130,926	-0,107	-0,096
173,808	103,895	-0,318	-0,260
174,823	22,482	-0,208	-0,118
175,837	402,012	-0,192	-0,282
176,852	133,589	-0,166	-0,150
177,867	251,022	-0,144	-0,171
178,881	-85,601	-0,275	-0,059
179,896	-89,692	-0,254	-0,051
180,910	-51,340	-0,345	-0,112
181,925	188,921	-0,170	-0,177
182,940	-15,238	-0,193	-0,086
183,954	195,063	-0,197	-0,208
184,969	27,186	-0,252	-0,147
185,983	337,593	-0,145	-0,197
186,998	-168,401	-0,217	0,006
188,013	82,142	-0,103	-0,077
189,027	-22,182	-0,219	-0,092
190,042	-69,217	-0,335	-0,089
191,056	197,070	-0,168	-0,178
192,071	210,454	-0,126	-0,138
193,086	166,843	-0,115	-0,113
194,100	-151,946	-0,250	0,012
195,115	-34,892	-0,254	-0,096
196,129	74,610	-0,140	-0,103
197,144	58,630	-0,242	-0,165
198,159	149,209	-0,248	-0,234
199,173	236,289	-0,138	-0,159
200,188	396,844	-0,068	-0,099
201,202	-81,186	-0,242	-0,055
202,217	-89,105	-0,217	-0,044
203,232	-66,139	-0,208	-0,057
204,246	43,134	-0,120	-0,076
205,261	112,686	-0,204	-0,172
206,275	3,503	-0,297	-0,150
207,290	-73,498	-0,175	-0,044
208,304	-101,994	-0,175	-0,029
209,319	349,231	-0,195	-0,267
210,334	67,406	-0,145	-0,103
211,348	8,887	-0,222	-0,116
212,363	346,647	-0,188	-0,257
213,377	99,744	-0,140	-0,112
214,392	-111,435	-0,146	-0,020
215,407	-159,562	-0,136	-0,005
216,421	-1,360	-0,229	-0,112
217,436	24,948	-0,187	-0,108
218,450	107,940	-0,211	-0,175
219,465	239,591	-0,217	-0,251
220,480	76,860	-0,218	-0,161
221,494	570,222	-0,105	-0,177
222,509	-200,000	-0,053	-0,183
223,523	-49,915	-0,255	-0,084
224,538	84,120	-0,279	-0,211
225,553	149,043	-0,257	-0,241
226,567	93,098	-0,202	-0,158
227,582	-58,267	-0,112	0,034
228,596	266,326	-0,132	-0,160
229,611	-18,424	-0,161	-0,069
230,626	178,068	-0,164	-0,165
231,640	107,827	-0,238	-0,196
232,655	308,159	-0,229	-0,297
233,669	124,356	-0,239	-0,208
234,684	-71,739	-0,374	-0,096
235,699	-32,737	-0,144	-0,055
236,713	175,212	-0,200	-0,200
237,728	12,065	-0,127	-0,068
238,742	90,099	-0,265	-0,205
239,757	33,409	-0,204	-0,122
240,772	76,297	-0,354	-0,259
241,786	-120,961	-0,279	-0,032
242,801	-49,087	-0,151	-0,050
243,815	29,795	-0,204	-0,120
244,830	-200,000	0,056	-0,228
245,844	34,277	-0,261	-0,157
246,859	36,256	-0,209	-0,127
247,874	1,951	-0,250	-0,124
248,888	34,024	-0,224	-0,135
249,903	4,088	-0,206	-0,104
250,917	-111,093	-0,235	0,033
251,932	176,614	-0,149	-0,150
252,947	87,769	-0,182	-0,140
253,961	-44,508	-0,216	-0,074
254,976	-11,226	-0,299	-0,135
255,990	323,023	-0,187	-0,247
257,005	289,377	-0,110	-0,138
258,020	-200,000	-0,069	-0,220
259,034	142,002	-0,108	-0,099
260,049	148,535	-0,218	-0,203
261,063	-98,431	-0,302	-0,053
262,078	-24,037	-0,251	-0,103
263,093	4,112	-0,123	0,062
264,107	373,578	-0,099	-0,139
265,122	238,227	-0,154	-0,177
266,136	235,991	-0,198	-0,226
267,151	96,384	-0,131	-0,103
268,166	-200,000	-0,034	-0,227
269,180	57,488	-0,216	-0,145
270,195	175,450	-0,195	-0,195
271,209	-163,954	-0,135	-0,004
272,224	-200,000	-0,004	0,015
273,239	-84,602	-0,200	-0,043
274,253	-200,000	-0,009	-0,068
275,268	-22,573	-0,304	-0,126
276,282	142,607	-0,124	-0,114
277,297	13,384	-0,177	-0,095
278,312	66,644	-0,201	-0,141
279,326	-200,000	-0,033	-0,109
280,341	-55,230	-0,184	0,057
281,355	-10,102	-0,121	-0,055
282,370	19,618	-0,135	-0,075
283,384	-196,683	-0,154	-0,001
284,399	598,668	-0,154	-0,265
285,414	-102,740	-0,214	-0,035
286,428	-138,920	-0,156	0,012
287,443	-200,000	0,002	-0,106
288,457	537,032	-0,086	-0,141
289,472	800,000	-0,078	-0,202
290,487	800,000	-0,039	-0,109
291,501	686,971	-0,071	-0,129
292,516	0,269	-0,224	-0,110
293,530	37,212	-0,174	-0,106
294,545	-200,000	-0,045	-0,155
295,560	377,498	-0,082	-0,116
296,574	280,557	-0,055	-0,068
297,589	77,249	-0,205	-0,150
298,603	141,021	-0,168	-0,153
299,618	44,654	-0,183	-0,116
300,633	-50,633	-0,230	-0,074
301,647	-200,000	-0,030	-0,153
302,662	71,788	-0,146	0,104
303,676	-200,000	0,019	-0,074
304,691	800,000	-0,047	-0,112
305,706	302,408	-0,107	-0,137
306,720	52,733	-0,108	-0,071
307,735	284,804	-0,107	-0,133
308,749	-128,027	-0,078	0,008
309,764	-197,668	-0,070	0,000
310,779	37,336	-0,162	-0,099
311,793	86,889	-0,140	-0,106
312,808	101,555	-0,160	-0,129
313,822	75,892	-0,297	-0,216
314,837	-200,000	-0,025	-0,118
315,852	-200,000	-0,007	-0,054
316,866	209,673	-0,164	-0,177
317,881	-48,968	-0,134	-0,044
318,895	-55,583	-0,207	-0,063
319,910	260,558	-0,156	-0,186
320,925	167,005	-0,208	-0,203
321,939	-160,898	-0,124	0,004
322,954	-123,120	-0,106	-0,011
323,968	-53,412	-0,187	-0,058
324,983	-69,507	-0,230	-0,060
325,997	165,509	-0,134	-0,131
327,012	-43,960	-0,201	-0,069
328,027	31,185	-0,190	-0,112
329,041	-59,850	-0,208	-0,061
330,056	-97,795	-0,084	-0,015
331,070	9,086	-0,127	-0,065
332,085	45,447	-0,069	-0,044
333,100	-157,857	-0,242	0,010
334,114	-200,000	-0,028	-0,214
335,129	-99,197	-0,112	-0,019
336,143	251,176	-0,124	-0,145
337,158	-109,557	-0,146	-0,021
338,173	575,168	-0,069	-0,116
339,187	-200,000	-0,031	0,102
340,202	541,512	-0,053	0,087
341,216	291,801	-0,123	-0,154
342,231	-38,506	-0,146	-0,053
343,246	92,043	-0,179	-0,138
344,260	800,000	-0,045	-0,098
345,275	-84,645	-0,147	0,031
346,289	-142,077	-0,169	-0,011
347,304	-200,000	-0,065	-0,295
348,319	-2,616	-0,192	-0,092
349,333	-67,566	-0,294	-0,079
350,348	207,080	-0,038	-0,041
351,362	-22,723	-0,147	-0,060
352,377	-122,681	-0,090	0,010
353,392	297,075	-0,088	-0,111
354,406	161,179	-0,122	-0,117
355,421	210,906	1313,297	1416,364
356,435	162,382	1473,838	1416,849
