DTS Sentinel unit serial number:	SN410029Multiplexer serial number:	ORYXHardware model number:	OX2-SRSoftware version number:	ORYX F/W v4,00 Oryx Data Collector v3.7.2.0data status	okinstallation	B3 Nyhavnadifferential loss correction	single-endedforward channel	channel 1reverse channel	N/Adate	2023/12/01time	14:42:30forward acquisition time	300,00reverse acquisition time	0,00gamma	499,1914k internal	0,3212k external	0,3212temperature offset calibration	1,0000default loss term (dB/km)	0,3820temperature slope calibration	1,0000multiplexer offset coefficient	1,0000multiplexer slope coefficient	1,0000fibre end	0,00T internal ref (°C)	11,02T ext. ref 1 (°C)	-2,34T ext. ref 2 (°C)	-2,41length (m)	temperature (°C)	Stokes	anti-Stokes-744,400	280,522	-0,125	-0,163
-743,385	-200,000	-0,008	0,314
-742,371	315,073	-0,094	-0,129
-741,356	800,000	-0,097	0,275
-740,342	409,470	-0,156	-0,240
-739,327	-200,000	0,031	0,282
-738,312	499,313	-0,145	-0,243
-737,298	-200,000	-0,082	0,356
-736,283	800,000	-0,094	-0,231
-735,269	-200,000	0,000	0,275
-734,254	262,306	-0,153	-0,193
-733,239	12,746	-0,228	0,127
-732,225	-200,000	-0,014	-0,128
-731,210	800,000	-0,039	0,098
-730,196	-200,000	0,033	-0,154
-729,181	186,345	-0,136	-0,147
-728,167	800,000	-0,036	-0,095
-727,152	772,581	0,010	-0,021
-726,137	303,026	0,028	-0,038
-725,123	144,007	-0,089	0,086
-724,108	-112,504	-0,051	0,007
-723,094	-65,275	-0,034	-0,010
-722,079	800,000	0,014	0,030
-721,064	-200,000	-0,013	-0,073
-720,050	71,642	-0,031	-0,024
-719,035	11,003	-0,096	0,053
-718,021	800,000	0,008	0,023
-717,006	-109,874	-0,062	0,009
-715,991	-79,007	-0,126	-0,031
-714,977	-200,000	-0,022	-0,069
-713,962	93,886	0,069	-0,056
-712,948	-90,400	-0,060	-0,013
-711,933	-37,525	0,099	0,038
-710,918	-200,000	-0,011	-0,057
-709,904	497,486	-0,049	-0,082
-708,889	-200,000	-0,013	-0,052
-707,875	84,728	-0,125	-0,099
-706,860	-93,149	0,056	-0,011
-705,845	-200,000	-0,065	0,250
-704,831	55,284	0,115	0,080
-703,816	375,239	-0,055	0,082
-702,802	-200,000	0,002	-0,056
-701,787	-7,895	-0,118	0,057
-700,772	800,000	-0,074	-0,149
-699,758	209,251	0,034	-0,039
-698,743	800,000	0,066	0,205
-697,729	61,587	0,050	-0,036
-696,714	24,729	0,062	0,037
-695,699	800,000	0,039	-0,083
-694,685	-200,000	-0,036	-0,129
-693,670	-81,066	-0,191	-0,045
-692,656	-96,698	0,071	-0,013
-691,641	-68,399	0,033	-0,009
-690,627	-200,000	0,013	-0,052
-689,612	-1,115	0,109	-0,056
-688,597	112,476	-0,130	-0,114
-687,583	-200,000	-0,230	0,000
-686,568	-200,000	-0,042	-0,147
-685,554	90,904	-0,069	-0,056
-684,539	714,370	-0,023	-0,045
-683,524	-22,729	0,063	0,027
-682,510	216,534	0,043	-0,049
-681,495	800,000	-0,036	0,080
-680,481	800,000	0,032	-0,080
-679,466	290,062	-0,125	-0,165
-678,451	-200,000	-0,013	0,166
-677,437	-191,063	0,017	0,000
-676,422	257,723	0,051	0,063
-675,408	-200,000	-0,002	0,048
-674,393	-200,000	-0,010	-0,055
-673,378	149,701	0,040	-0,039
-672,364	257,548	-0,031	0,039
-671,349	-200,000	0,033	-0,140
-670,335	800,000	-0,071	-0,164
-669,320	-8,387	0,074	-0,036
-668,305	75,336	0,067	0,051
-667,291	109,962	-0,019	-0,016
-666,276	89,710	0,042	-0,034
-665,262	153,499	-0,076	-0,075
-664,247	320,811	-0,094	-0,129
-663,232	-8,943	-0,152	-0,073
-662,218	-200,000	-0,015	0,101
-661,203	166,970	-0,051	0,053
-660,189	726,330	0,066	-0,128
-659,174	-7,906	-0,081	0,039
-658,159	-186,770	-0,079	-0,001
-657,145	-102,856	-0,123	0,021
-656,130	289,519	-0,069	-0,091
-655,116	-200,000	0,016	0,175
-654,101	253,070	-0,057	0,070
-653,086	25,106	-0,069	-0,041
-652,072	307,658	0,108	0,146
-651,057	-164,024	-0,060	0,002
-650,043	-65,639	-0,046	-0,013
-649,028	-58,465	0,081	0,025
-648,014	-164,397	-0,119	0,004
-646,999	19,285	-0,135	0,078
-645,984	-51,388	-0,034	-0,011
-644,970	232,232	-0,120	-0,143
-643,955	-124,984	-0,097	-0,011
-642,941	-200,000	0,004	-0,084
-641,926	-195,669	0,058	0,000
-640,911	10,311	-0,082	-0,045
-639,897	-9,059	0,113	0,054
-638,882	-159,484	-0,129	0,005
-637,868	-200,000	0,006	-0,113
-636,853	-24,382	-0,106	0,045
-635,838	-200,000	0,039	-0,176
-634,824	-200,000	-0,015	-0,083
-633,809	79,404	0,069	0,054
-632,795	-67,608	0,137	0,038
-631,780	164,177	-0,047	-0,048
-630,765	800,000	-0,063	-0,127
-629,751	-113,746	-0,309	0,043
-628,736	800,000	-0,045	-0,136
-627,722	800,000	-0,035	0,085
-626,707	105,913	0,178	0,152
-625,692	-200,000	0,011	0,111
-624,678	-200,000	-0,005	0,030
-623,663	502,304	-0,016	-0,026
-622,649	-200,000	0,021	-0,210
-621,634	-33,293	-0,188	-0,075
-620,619	173,899	-0,020	-0,021
-619,605	217,985	-0,082	0,094
-618,590	800,000	-0,026	0,080
-617,576	-200,000	0,011	0,134
-616,561	222,317	0,097	-0,113
-615,546	-200,000	0,006	-0,071
-614,532	170,422	-0,017	0,018
-613,517	132,803	0,021	0,020
-612,503	-200,000	-0,003	-0,107
-611,488	-200,000	-0,006	0,052
-610,474	219,510	-0,071	-0,083
-609,459	-135,327	-0,049	-0,004
-608,444	-180,839	-0,198	0,003
-607,430	-154,745	-0,145	-0,007
-606,415	-200,000	0,018	-0,142
-605,401	376,819	0,075	0,111
-604,386	109,271	0,048	0,041
-603,371	28,288	-0,010	-0,006
-602,357	353,623	-0,071	-0,102
-601,342	160,207	0,026	0,026
-600,328	800,000	-0,032	-0,095
-599,313	800,000	-0,028	-0,060
-598,298	116,821	0,099	-0,088
-597,284	-200,000	-0,027	0,107
-596,269	263,155	0,114	0,143
-595,255	-106,825	0,131	-0,021
-594,240	121,679	-0,118	0,106
-593,225	-200,000	0,021	-0,080
-592,211	-39,710	-0,009	0,003
-591,196	-200,000	-0,028	0,099
-590,182	88,067	-0,038	0,031
-589,167	800,000	0,007	0,014
-588,152	-33,180	0,074	0,029
-587,138	118,141	0,074	0,066
-586,123	-94,530	0,075	0,014
-585,109	-200,000	-0,024	-0,119
-584,094	-200,000	-0,004	-0,034
-583,079	246,955	-0,029	0,036
-582,065	24,005	0,036	-0,022
-581,050	204,344	-0,025	0,028
-580,036	-200,000	-0,032	-0,130
-579,021	31,124	-0,090	-0,056
-578,006	800,000	0,040	-0,090
-576,992	800,000	-0,071	-0,157
-575,977	-39,225	-0,063	0,024
-574,963	-200,000	0,028	0,126
-573,948	-200,000	0,011	0,134
-572,934	52,239	-0,119	0,082
-571,919	311,434	-0,049	-0,067
-570,904	397,745	-0,062	-0,093
-569,890	-200,000	-0,004	0,084
-568,875	221,525	0,047	-0,054
-567,861	-80,832	-0,067	0,016
-566,846	-104,976	0,075	0,012
-565,831	-67,034	0,065	-0,018
-564,817	-42,364	0,044	0,016
-563,802	800,000	-0,092	-0,206
-562,788	183,307	-0,017	0,018
-561,773	-48,880	0,161	0,055
-560,758	-200,000	0,027	0,131
-559,744	-24,096	-0,086	-0,037
-558,729	282,973	-0,079	0,103
-557,715	199,764	-0,023	0,025
-556,700	-200,000	0,023	-0,082
-555,685	-154,079	-0,184	-0,009
-554,671	212,536	0,031	0,035
-553,656	800,000	-0,050	0,153
-552,642	399,001	-0,042	-0,063
-551,627	-200,000	-0,109	0,000
-550,612	-200,000	-0,026	0,263
-549,598	-200,000	-0,046	-0,194
-548,583	-200,000	0,040	-0,153
-547,569	-200,000	-0,011	-0,051
-546,554	104,119	0,135	-0,114
-545,539	-14,160	-0,012	-0,005
-544,525	153,749	-0,096	-0,094
-543,510	368,234	-0,028	0,041
-542,496	-13,872	-0,155	-0,072
-541,481	-200,000	-0,005	-0,030
-540,466	31,897	0,181	0,112
-539,452	373,545	0,098	0,144
-538,437	23,434	0,113	0,066
-537,423	33,196	-0,061	-0,038
-536,408	734,398	0,003	-0,005
-535,393	83,429	0,103	0,081
-534,379	15,199	0,099	0,055
-533,364	-200,000	0,016	0,072
-532,350	560,199	0,015	-0,027
-531,335	350,609	-0,055	0,079
-530,321	-200,000	0,002	-0,064
-529,306	-46,384	-0,042	-0,015
-528,291	-200,000	0,007	-0,037
-527,277	-80,121	-0,110	0,026
-526,262	-200,000	0,002	-0,046
-525,248	34,305	0,153	0,096
-524,233	440,041	0,064	0,101
-523,218	166,219	-0,031	0,032
-522,204	360,346	-0,016	-0,023
-521,189	800,000	-0,016	-0,032
-520,175	-1,208	-0,063	-0,032
-519,160	-200,000	0,012	-0,083
-518,145	800,000	0,067	0,179
-517,131	249,213	0,087	-0,106
-516,116	603,521	0,047	0,085
-515,102	-200,000	0,008	-0,071
-514,087	-136,645	-0,070	-0,006
-513,072	31,738	0,035	0,022
-512,058	208,316	-0,051	0,058
-511,043	395,330	-0,098	0,148
-510,029	800,000	0,047	0,121
-509,014	-200,000	-0,004	-0,028
-507,999	32,049	0,059	0,037
-506,985	49,810	-0,165	-0,111
-505,970	91,801	-0,112	-0,090
-504,956	-200,000	-0,012	0,048
-503,941	-200,000	-0,024	0,108
-502,926	258,827	-0,030	-0,037
-501,912	28,045	0,048	0,029
-500,897	419,668	0,002	0,004
-499,883	-20,609	-0,043	-0,019
-498,868	-200,000	0,003	-0,061
-497,853	797,910	0,024	-0,048
-496,839	4,988	0,062	-0,033
-495,824	800,000	0,040	-0,090
-494,810	98,024	-0,057	0,047
-493,795	-145,672	0,135	0,009
-492,781	800,000	-0,033	-0,097
-491,766	-200,000	0,009	0,086
-490,751	-200,000	0,013	-0,075
-489,737	-85,541	0,122	0,027
-488,722	-200,000	0,014	0,081
-487,708	800,000	0,029	-0,091
-486,693	-200,000	0,023	-0,146
-485,678	-166,166	-0,151	0,005
-484,664	41,005	-0,126	-0,081
-483,649	51,384	0,103	-0,070
-482,635	-200,000	0,004	-0,067
-481,620	222,064	0,062	0,072
-480,605	84,225	0,039	0,030
-479,591	-200,000	-0,009	0,137
-478,576	624,628	-0,009	0,015
-477,562	-200,000	-0,033	0,116
-476,547	152,974	0,093	0,091
-475,532	-4,054	-0,036	-0,018
-474,518	-59,184	0,035	0,011
-473,503	-200,000	-0,002	0,179
-472,489	116,846	0,072	0,064
-471,474	800,000	0,022	0,062
-470,459	-62,102	-0,102	-0,030
-469,445	79,681	-0,088	-0,067
-468,430	194,452	0,040	0,044
-467,416	198,606	0,107	-0,118
-466,401	76,135	0,019	-0,015
-465,386	121,721	0,064	0,057
-464,372	72,413	-0,090	0,067
-463,357	138,368	0,048	-0,045
-462,343	82,623	-0,031	-0,024
-461,328	800,000	-0,006	-0,012
-460,313	-200,000	0,024	-0,093
-459,299	-76,827	-0,064	0,016
-458,284	800,000	-0,042	0,114
-457,270	-56,715	-0,062	0,020
-456,255	800,000	0,021	-0,048
-455,241	12,717	-0,050	0,028
-454,226	-79,614	-0,058	-0,014
-453,211	104,606	0,081	-0,068
-452,197	91,030	0,107	0,086
-451,182	607,949	0,107	0,191
-450,168	-200,000	-0,026	0,150
-449,153	-200,000	0,012	-0,109
-448,138	-200,000	0,016	-0,052
-447,124	800,000	0,038	-0,078
-446,109	96,290	0,047	-0,039
-445,095	421,495	0,032	0,049
-444,080	800,000	0,041	0,086
-443,065	-9,814	0,056	0,027
-442,051	800,000	-0,037	0,115
-441,036	-200,000	-0,010	-0,038
-440,022	-200,000	-0,024	0,089
-439,007	154,195	0,062	0,061
-437,992	-16,022	0,070	0,032
-436,978	-45,384	0,124	-0,044
-435,963	-88,514	-0,113	-0,024
-434,949	-83,982	0,074	-0,017
-433,934	800,000	0,012	-0,027
-432,919	-100,623	-0,083	0,015
-431,905	-200,000	-0,027	-0,109
-430,890	22,450	0,086	0,050
-429,876	323,772	0,029	0,039
-428,861	-200,000	-0,011	-0,046
-427,846	-200,000	0,006	0,025
-426,832	44,754	-0,114	-0,075
-425,817	-28,241	-0,093	0,038
-424,803	-200,000	0,037	-0,170
-423,788	-162,185	0,049	-0,002
-422,773	800,000	0,062	-0,147
-421,759	-17,979	0,167	-0,075
-420,744	725,562	-0,021	0,041
-419,730	-200,000	-0,006	0,047
-418,715	-66,215	-0,130	0,037
-417,701	101,103	0,090	-0,075
-416,686	22,672	0,120	-0,070
-415,671	-200,000	0,006	-0,042
-414,657	-76,289	0,083	0,021
-413,642	-83,845	-0,043	0,010
-412,628	36,059	-0,102	-0,064
-411,613	-200,000	0,024	-0,083
-410,598	-200,000	-0,019	-0,171
-409,584	-200,000	-0,000	-0,048
-408,569	169,818	0,083	-0,085
-407,555	126,466	0,048	-0,044
-406,540	-190,556	-0,126	0,001
-405,525	-200,000	0,008	-0,117
-404,511	168,407	0,032	-0,033
-403,496	-200,000	0,016	-0,130
-402,482	-90,042	0,091	0,019
-401,467	-67,741	0,124	0,035
-400,452	272,530	-0,082	0,104
-399,438	52,565	-0,156	0,107
-398,423	121,726	0,103	0,092
-397,409	-35,291	-0,073	-0,028
-396,394	-200,000	0,010	0,044
-395,379	611,033	0,019	0,034
-394,365	800,000	0,036	0,083
-393,350	800,000	0,099	0,233
-392,336	105,666	0,041	0,035
-391,321	-1,199	0,066	0,033
-390,306	96,972	-0,142	-0,116
-389,292	292,403	-0,037	0,049
-388,277	-66,815	0,130	0,037
-387,263	-200,000	-0,015	-0,112
-386,248	30,394	0,043	0,026
-385,233	340,511	0,076	0,106
-384,219	103,127	-0,030	0,025
-383,204	-200,000	0,023	-0,099
-382,190	-200,000	0,039	0,155
-381,175	53,693	-0,082	-0,056
-380,160	800,000	0,066	0,171
-379,146	44,632	0,095	-0,062
-378,131	800,000	-0,019	0,056
-377,117	800,000	-0,033	0,094
-376,102	-97,049	-0,093	-0,017
-375,088	259,959	-0,086	-0,106
-374,073	-56,303	0,137	-0,043
-373,058	-200,000	-0,013	0,088
-372,044	269,066	-0,059	-0,074
-371,029	501,412	0,058	0,097
-370,015	234,148	-0,024	0,029
-369,000	800,000	-0,078	-0,159
-367,985	-200,000	-0,020	-0,116
-366,971	-62,441	0,030	0,009
-365,956	399,706	-0,026	0,040
-364,942	-195,364	0,172	0,001
-363,927	-5,034	-0,065	0,032
-362,912	160,903	0,057	0,057
-361,898	-114,335	-0,072	-0,010
-360,883	-200,000	0,022	-0,105
-359,869	-113,223	0,058	-0,008
-358,854	-200,000	0,009	-0,063
-357,839	463,718	0,038	0,061
-356,825	800,000	0,024	0,049
-355,810	-200,000	0,008	-0,033
-354,796	250,252	0,065	-0,079
-353,781	-200,000	0,020	-0,133
-352,766	-20,406	0,008	0,004
-351,752	-200,000	-0,005	0,106
-350,737	-200,000	0,039	0,129
-349,723	58,381	0,117	0,082
-348,708	-8,862	-0,132	0,063
-347,693	-78,420	-0,091	0,022
-346,679	-100,276	0,109	-0,019
-345,664	-31,696	0,053	-0,021
-344,650	-55,379	0,078	0,025
-343,635	-1,897	0,042	-0,021
-342,620	800,000	-0,008	0,023
-341,606	-200,000	0,002	0,017
-340,591	-200,000	-0,012	-0,117
-339,577	184,207	-0,020	-0,021
-338,562	81,301	-0,034	0,026
-337,548	217,260	-0,061	-0,069
-336,533	27,116	-0,069	0,041
-335,518	562,535	0,025	-0,043
-334,504	-200,000	0,010	0,073
-333,489	800,000	0,036	-0,092
-332,475	800,000	0,042	0,097
-331,460	-200,000	0,003	0,155
-330,445	-20,994	-0,051	0,022
-329,431	-200,000	-0,017	0,075
-328,416	-108,312	0,050	0,008
-327,402	442,882	0,055	0,087
-326,387	-200,000	-0,014	0,075
-325,372	-200,000	-0,012	-0,095
-324,358	187,349	-0,022	-0,023
-323,343	-57,963	-0,137	-0,042
-322,329	800,000	-0,038	0,109
-321,314	-74,480	0,061	-0,016
-320,299	-45,284	0,151	0,053
-319,285	-200,000	0,026	0,158
-318,270	800,000	0,024	0,064
-317,256	55,592	-0,122	-0,084
-316,241	-106,860	0,171	0,027
-315,226	269,337	0,036	-0,045
-314,212	-15,435	0,057	0,026
-313,197	773,762	-0,036	0,070
-312,183	-200,000	-0,003	-0,029
-311,168	35,387	-0,111	0,069
-310,153	-53,203	0,016	0,005
-309,139	199,329	0,099	-0,108
-308,124	767,729	0,073	-0,142
-307,110	-120,575	0,056	0,007
-306,095	800,000	0,073	0,208
-305,080	-200,000	-0,024	0,087
-304,066	800,000	0,069	0,162
-303,051	-99,692	-0,077	-0,014
-302,037	-135,822	-0,074	-0,006
-301,022	192,686	0,088	-0,095
-300,008	-90,995	0,173	0,035
-298,993	800,000	-0,030	0,094
-297,978	-96,593	0,064	0,012
-296,964	-200,000	0,034	0,111
-295,949	-200,000	0,029	-0,137
-294,935	-200,000	0,011	-0,042
-293,920	258,025	0,015	0,019
-292,905	-82,550	0,052	0,012
-291,891	-65,392	0,113	-0,032
-290,876	-150,016	-0,143	-0,008
-289,862	-51,836	-0,050	-0,017
-288,847	800,000	-0,031	-0,068
-287,832	-53,616	-0,016	0,005
-286,818	-73,352	-0,011	-0,003
-285,803	556,859	0,055	0,095
-284,789	800,000	-0,025	0,066
-283,774	86,635	0,124	0,098
-282,759	-53,850	-0,057	-0,018
-281,745	800,000	0,010	-0,027
-280,730	-142,752	-0,005	-0,000
-279,716	-200,000	0,002	0,068
-278,701	208,095	0,066	0,073
-277,686	-200,000	-0,008	0,036
-276,672	-200,000	-0,014	-0,133
-275,657	-10,026	-0,091	0,043
-274,643	-110,654	0,060	-0,009
-273,628	-199,330	-0,143	-0,001
-272,613	-48,553	-0,115	-0,039
-271,599	-200,000	-0,022	0,109
-270,584	9,897	0,101	0,055
-269,570	66,198	-0,037	0,026
-268,555	-58,748	0,136	0,042
-267,540	-200,000	-0,011	0,068
-266,526	19,730	0,058	-0,033
-265,511	-200,000	0,012	-0,143
-264,497	-70,280	0,028	0,007
-263,482	-139,160	0,106	0,008
-262,467	-200,000	0,029	0,096
-261,453	-200,000	-0,023	-0,085
-260,438	-200,000	-0,017	0,061
-259,424	222,704	-0,136	-0,156
-258,409	-200,000	-0,009	-0,028
-257,395	-200,000	0,022	-0,134
-256,380	-200,000	0,009	-0,158
-255,365	-3,199	0,113	-0,056
-254,351	227,779	0,079	-0,091
-253,336	-63,905	0,149	-0,043
-252,322	-21,681	0,083	0,036
-251,307	118,960	0,038	-0,033
-250,292	607,265	0,039	0,070
-249,278	-37,098	-0,124	-0,047
-248,263	-200,000	0,006	-0,019
-247,249	589,348	0,021	-0,037
-246,234	-17,838	-0,127	-0,056
-245,219	800,000	0,042	0,100
-244,205	366,401	-0,054	-0,078
-243,190	-71,627	0,115	0,030
-242,176	800,000	0,043	0,125
-241,161	-91,964	0,061	0,012
-240,146	-12,535	0,061	-0,028
-239,132	-200,000	0,034	0,117
-238,117	617,227	-0,045	-0,080
-237,103	-17,608	-0,075	-0,034
-236,088	92,357	-0,015	0,012
-235,073	67,319	-0,104	0,075
-234,059	37,446	0,105	0,066
-233,044	800,000	-0,018	0,053
-232,030	-200,000	0,017	0,057
-231,015	92,292	0,033	0,027
-230,000	800,000	-0,053	-0,145
-228,986	125,077	0,058	-0,052
-227,971	-147,363	-0,095	-0,006
-226,957	-167,021	-0,054	0,002
-225,942	715,889	-0,011	0,020
-224,927	-107,955	-0,130	0,020
-223,913	-200,000	0,048	-0,159
-222,898	507,641	-0,043	0,071
-221,884	-200,000	-0,026	-0,143
-220,869	800,000	-0,069	-0,139
-219,855	-200,000	-0,022	0,072
-218,840	116,357	0,125	-0,109
-217,825	316,942	-0,096	0,130
-216,811	-200,000	-0,013	-0,043
-215,796	86,636	-0,132	-0,104
-214,782	-106,079	-0,128	-0,020
-213,767	246,282	0,038	-0,046
-212,752	-33,700	-0,169	0,066
-211,738	-76,506	0,070	0,017
-210,723	317,606	0,047	-0,064
-209,709	-200,000	-0,015	-0,105
-208,694	-200,000	0,009	0,069
-207,679	178,171	-0,146	-0,151
-206,665	800,000	0,070	0,171
-205,650	-95,394	0,018	-0,003
-204,636	197,999	-0,048	-0,052
-203,621	115,772	-0,083	0,072
-202,606	-200,000	0,012	-0,086
-201,592	-200,000	-0,042	-0,132
-200,577	-134,892	-0,161	0,014
-199,563	-63,073	-0,028	-0,008
-198,548	-165,654	-0,040	0,001
-197,533	-121,762	0,023	-0,003
-196,519	-134,784	-0,154	-0,013
-195,504	-81,253	-0,048	0,011
-194,490	-67,035	0,046	0,013
-193,475	-42,921	0,077	-0,028
-192,460	-200,000	0,010	0,047
-191,446	-58,347	0,102	-0,031
-190,431	301,490	0,024	-0,032
-189,417	76,627	-0,023	-0,017
-188,402	141,353	0,040	-0,037
-187,387	126,756	-0,090	-0,081
-186,373	323,895	-0,013	0,017
-185,358	-51,428	0,034	-0,011
-184,344	15,881	0,124	0,069
-183,329	-48,394	0,170	0,058
-182,315	-200,000	-0,015	0,143
-181,300	-200,000	0,001	0,117
-180,285	-73,664	-0,006	-0,002
-179,271	-200,000	0,005	-0,019
-178,256	461,193	0,068	-0,108
-177,242	422,604	-0,043	0,066
-176,227	-200,000	-0,010	0,064
-175,212	-31,215	-0,240	0,096
-174,198	-36,995	0,105	0,040
-173,183	601,335	-0,024	0,042
-172,169	-85,892	-0,063	0,014
-171,154	-0,088	0,096	-0,048
-170,139	-20,820	-0,073	0,032
-169,125	-44,601	0,018	-0,006
-168,110	-50,848	0,097	-0,032
-167,096	800,000	0,027	-0,070
-166,081	-73,142	-0,101	-0,026
-165,066	-200,000	-0,043	-0,136
-164,052	-200,000	-0,001	-0,065
-163,037	-155,121	-0,044	0,002
-162,023	163,875	0,056	0,056
-161,008	-19,522	0,047	-0,021
-159,993	800,000	0,003	-0,008
-158,979	-200,000	0,004	-0,150
-157,964	-31,665	-0,150	-0,059
-156,950	85,713	-0,041	-0,032
-155,935	800,000	-0,040	0,085
-154,920	545,025	-0,052	0,088
-153,906	-200,000	-0,026	0,110
-152,891	800,000	-0,053	-0,138
-151,877	90,927	0,069	-0,055
-150,862	-200,000	-0,037	-0,130
-149,847	-29,900	0,065	-0,026
-148,833	800,000	0,026	0,058
-147,818	-56,093	0,014	0,004
-146,804	276,543	-0,069	-0,087
-145,789	-128,124	0,046	-0,005
-144,775	-200,000	0,028	-0,136
-143,760	491,944	-0,114	-0,186
-142,745	-13,149	-0,111	-0,051
-141,731	800,000	0,046	-0,105
-140,716	800,000	0,025	-0,076
-139,702	-43,340	0,127	0,045
-138,687	785,638	0,060	-0,117
-137,672	-43,775	0,107	-0,038
-136,658	-85,416	0,129	0,028
-135,643	-125,862	-0,066	0,007
-134,629	78,850	-0,009	-0,007
-133,614	800,000	-0,023	0,060
-132,599	87,075	-0,047	0,037
-131,585	-200,000	-0,032	0,129
-130,570	505,420	0,016	0,027
-129,556	-94,107	-0,089	0,017
-128,541	-200,000	-0,161	0,000
-127,526	-200,000	0,014	-0,057
-126,512	-118,138	-0,087	-0,011
-125,497	-200,000	-0,013	-0,069
-124,483	179,584	0,108	-0,112
-123,468	-0,572	-0,093	0,046
-122,453	177,594	-0,070	-0,072
-121,439	-129,583	-0,148	0,014
-120,424	32,601	-0,086	-0,052
-119,410	-181,780	-0,105	-0,001
-118,395	337,804	-0,061	-0,085
-117,380	63,139	-0,058	0,041
-116,366	-200,000	-0,021	0,127
-115,351	57,758	-0,115	0,080
-114,337	499,148	0,100	-0,164
-113,322	155,446	-0,090	0,088
-112,307	-200,000	0,015	0,200
-111,293	735,728	0,041	-0,078
-110,278	800,000	0,051	0,120
-109,264	-37,134	-0,010	-0,004
-108,249	-11,162	-0,029	-0,013
-107,234	-162,416	-0,032	0,001
-106,220	143,058	-0,043	0,041
-105,205	-200,000	0,001	0,071
-104,191	-101,243	0,087	-0,015
-103,176	-92,304	0,110	-0,022
-102,162	325,959	-0,063	-0,086
-101,147	-118,389	-0,070	-0,009
-100,132	-11,645	-0,121	-0,056
-99,118	65,983	0,099	-0,071
-98,103	-200,000	0,017	-0,056
-97,089	299,343	0,033	0,043
-96,074	314,124	0,080	-0,107
-95,059	322,250	-0,035	0,047
-94,045	-200,000	0,036	-0,138
-93,030	800,000	-0,060	-0,123
-92,016	-42,582	0,085	-0,031
-91,001	-200,000	0,006	0,020
-89,986	-19,448	-0,046	-0,020
-88,972	23,208	0,084	0,049
-87,957	770,548	-0,078	0,151
-86,943	128,263	0,046	-0,042
-85,928	179,752	-0,114	-0,118
-84,913	-187,889	-0,058	-0,001
-83,899	-53,486	-0,067	0,022
-82,884	70,790	0,087	-0,064
-81,870	176,631	-0,063	0,065
-80,855	-51,725	-0,025	0,008
-79,840	271,808	-0,053	-0,066
-78,826	-84,377	-0,135	0,030
-77,811	93,460	-0,105	0,084
-76,797	4,688	-0,072	-0,037
-75,782	-63,804	-0,047	-0,014
-74,767	800,000	0,029	0,081
-73,753	319,796	-0,020	-0,026
-72,738	800,000	0,034	-0,104
-71,724	-153,477	-0,130	0,006
-70,709	800,000	-0,031	0,069
-69,694	-200,000	-0,012	-0,050
-68,680	25,587	0,022	-0,013
-67,665	-200,000	-0,004	-0,081
-66,651	113,867	0,065	0,055
-65,636	98,521	-0,108	-0,088
-64,622	220,509	-0,060	0,068
-63,607	248,124	0,021	-0,026
-62,592	72,140	-0,058	-0,042
-61,578	181,232	-0,020	0,021
-60,563	181,924	-0,083	-0,087
-59,549	8,953	-0,056	-0,030
-58,534	33,542	-1,811	-1,108
-57,519	538,761	-1,234	-2,079
-56,505	-200,000	-0,406	-4,376
-55,490	408,293	0,946	1,417
-54,476	800,000	5,154	11,285
-53,461	-200,000	20,631	329,343
-52,446	800,000	754,336	2318,581
-51,432	553,184	1660,476	2826,398
-50,417	73,886	1664,811	1230,266
-49,403	18,914	1538,250	867,088
-48,388	12,877	1461,010	794,334
-47,373	18,988	1451,656	818,563
-46,359	15,979	1440,985	798,191
-45,344	11,128	1436,772	772,721
-44,330	11,044	1435,025	771,353
-43,315	11,062	1432,823	770,222
-42,300	11,066	1431,211	769,344
-41,286	11,086	1429,791	768,648
-40,271	11,053	1428,565	767,801
-39,257	11,068	1427,398	767,213
-38,242	11,078	1426,266	766,621
-37,227	11,049	1425,283	765,928
-36,213	11,073	1424,168	765,411
-35,198	11,121	1422,789	764,864
-34,184	11,171	1421,890	764,590
-33,169	11,104	1420,274	763,375
-32,154	11,144	1419,348	763,033
-31,140	11,166	1418,119	762,448
-30,125	11,164	1416,899	761,750
-29,111	11,134	1416,094	761,148
-28,096	11,124	1414,893	760,423
-27,082	11,078	1413,545	759,453
-26,067	11,049	1412,631	758,798
-25,052	11,110	1411,614	758,507
-24,038	11,058	1410,522	757,645
-23,023	11,048	1409,510	757,023
-22,009	11,049	1408,335	756,367
-20,994	11,059	1407,513	755,945
-19,979	11,049	1406,553	755,349
-18,965	10,997	1405,841	754,697
-17,950	11,016	1404,802	754,198
-16,936	10,976	1404,116	753,612
-15,921	10,968	1402,977	752,934
-14,906	10,930	1402,036	752,224
-13,892	10,955	1400,926	751,715
-12,877	10,990	1400,302	751,513
-11,863	10,974	1399,464	750,955
-10,848	10,920	1398,596	750,210
-9,833	10,936	1397,621	749,735
-8,819	10,860	1396,945	748,989
-7,804	10,848	1395,998	748,394
-6,790	10,856	1394,957	747,842
-5,775	10,868	1393,814	747,255
-4,760	10,886	1392,972	746,859
-3,746	10,840	1392,189	746,198
-2,731	10,841	1391,249	745,667
-1,717	10,848	1390,449	745,242
-0,702	10,855	1388,656	744,284
0,313	14,986	1302,523	717,016
1,327	31,254	694,545	419,388
2,342	48,154	120,772	79,489
3,356	0,416	16,657	8,359
4,371	1,064	3,440	1,733
5,386	6,828	0,794	0,416
6,400	800,000	0,210	0,488
7,415	-79,075	-0,240	-0,057
8,429	225,827	-0,233	-0,266
9,444	51,190	-0,453	-0,302
10,459	219,549	-0,241	-0,272
11,473	-27,970	-0,448	-0,182
12,488	-137,544	-0,242	0,019
13,502	22,843	-0,287	-0,165
14,517	-17,560	-0,313	-0,138
15,531	-12,680	-0,421	-0,193
16,546	170,744	-0,229	-0,231
17,561	279,494	-0,206	-0,259
18,575	215,984	-0,230	-0,257
19,590	800,000	-0,167	-0,408
20,604	-55,010	-0,192	-0,060
21,619	64,790	-0,381	-0,270
22,634	67,063	-0,525	-0,376
23,648	241,017	-0,371	-0,437
24,663	158,342	-0,275	-0,268
25,677	-6,961	-0,422	-0,201
26,692	308,820	-0,245	-0,322
27,707	263,635	-0,265	-0,325
28,721	-9,653	-0,392	-0,183
29,736	81,787	-0,356	-0,271
30,750	62,209	-0,391	-0,274
31,765	136,988	-0,426	-0,392
32,780	163,670	-0,366	-0,362
33,794	34,651	-0,275	-0,169
34,809	242,590	-0,298	-0,351
35,823	114,012	-0,388	-0,332
36,838	-6,320	-0,543	-0,259
37,853	33,552	-0,443	-0,270
38,867	16,017	-0,422	-0,233
39,882	155,270	-0,315	-0,305
40,896	236,497	-0,251	-0,293
41,911	44,486	-0,321	-0,207
42,926	108,655	-0,383	-0,321
43,940	118,194	-0,303	-0,263
44,955	167,113	-0,300	-0,299
45,969	-75,213	-0,352	-0,088
46,984	-23,106	-0,344	-0,145
47,999	-35,444	-0,357	-0,135
49,013	26,113	-0,377	-0,221
50,028	35,388	-0,435	-0,268
51,042	660,093	-0,184	-0,334
52,057	334,271	-0,288	-0,392
53,071	-46,554	-0,331	-0,113
54,086	54,964	-0,380	-0,257
55,101	118,870	-0,331	-0,287
56,115	-54,055	-0,403	-0,128
57,130	208,364	-0,229	-0,252
58,144	169,641	-0,373	-0,374
59,159	-16,077	-0,339	-0,151
60,174	83,089	-0,433	-0,330
61,188	77,926	-0,274	-0,205
62,203	12,747	-0,409	-0,221
63,217	152,682	-0,220	-0,210
64,232	85,839	-0,368	-0,283
65,247	208,473	-0,317	-0,348
66,261	-11,122	-0,464	-0,214
67,276	-26,061	-0,423	-0,173
68,290	388,590	-0,216	-0,314
69,305	13,594	-0,289	-0,157
70,320	-16,298	-0,507	-0,225
71,334	1,294	-0,278	-0,140
72,349	-12,123	-0,182	-0,083
73,363	36,922	-0,380	-0,235
74,378	401,068	-0,275	-0,405
75,393	184,356	-0,350	-0,364
76,407	19,025	-0,344	-0,193
77,422	68,284	-0,266	-0,191
78,436	-1,548	-0,336	-0,165
79,451	-35,053	-0,436	-0,166
80,466	105,383	-0,236	-0,195
81,480	86,740	-0,373	-0,288
82,495	19,215	-0,266	-0,149
83,509	89,928	-0,166	-0,130
84,524	-35,799	-0,339	-0,128
85,539	-27,866	-0,297	-0,120
86,553	-62,756	-0,326	-0,094
87,568	79,449	-0,307	-0,231
88,582	-26,316	-0,324	-0,132
89,597	-33,606	-0,364	-0,140
90,611	-81,901	-0,288	-0,065
91,626	42,853	-0,238	-0,151
92,641	548,359	-0,178	-0,299
93,655	9,456	-0,245	-0,129
94,670	190,656	-0,370	-0,389
95,684	49,415	-0,316	-0,208
96,699	66,604	-0,319	-0,227
97,714	202,536	-0,213	-0,230
98,728	87,119	-0,219	-0,169
99,743	-40,518	-0,309	-0,112
100,757	133,430	-0,319	-0,288
101,772	59,455	-0,279	-0,192
102,787	83,559	-0,300	-0,229
103,801	107,612	-0,286	-0,238
104,816	134,346	-0,192	-0,174
105,830	-148,048	-0,234	-0,013
106,845	-13,976	-0,239	-0,107
107,860	19,694	-0,231	-0,129
108,874	22,708	-0,296	-0,169
109,889	534,297	-0,190	-0,315
110,903	119,470	-0,235	-0,203
111,918	132,665	-0,256	-0,231
112,933	7,493	-0,281	-0,146
113,947	-27,136	-0,324	-0,131
114,962	36,782	-0,400	-0,246
115,976	-2,017	-0,263	-0,129
116,991	97,378	-0,261	-0,209
118,006	97,215	-0,211	-0,169
119,020	32,162	-0,324	-0,195
120,035	156,904	-0,292	-0,281
121,049	4,545	-0,195	-0,099
122,064	65,793	-0,118	-0,083
123,079	101,571	-0,238	-0,194
124,093	297,174	-0,284	-0,365
125,108	280,390	-0,274	-0,342
126,122	85,900	-0,306	-0,234
127,137	45,923	-0,229	-0,147
128,151	36,092	-0,100	-0,061
129,166	800,000	-0,106	-0,254
130,181	120,335	-0,205	-0,177
131,195	305,081	-0,230	-0,298
132,210	-40,022	-0,272	-0,098
133,224	29,873	-0,261	-0,154
134,239	44,299	-0,214	-0,137
135,254	-173,032	-0,209	0,004
136,268	747,232	-0,108	-0,203
137,283	12,528	-0,250	-0,134
138,297	188,725	-0,299	-0,312
139,312	154,560	-0,197	-0,188
140,327	97,647	-0,286	-0,229
141,341	-61,168	-0,338	-0,099
142,356	-21,439	-0,031	-0,013
143,370	136,283	-0,196	-0,178
144,385	125,134	-0,253	-0,222
145,400	258,579	-0,201	-0,241
146,414	199,948	-0,215	-0,230
147,429	166,377	-0,258	-0,255
148,443	-25,840	-0,289	-0,118
149,458	-149,994	-0,402	0,021
150,473	-158,160	-0,207	-0,008
151,487	16,805	-0,314	-0,173
152,502	31,051	-0,313	-0,186
153,516	18,364	-0,256	-0,142
154,531	142,058	-0,308	-0,284
155,546	-16,513	-0,275	-0,121
156,560	358,315	-0,204	-0,285
157,575	119,648	-0,244	-0,210
158,589	254,934	-0,213	-0,254
159,604	290,860	-0,270	-0,342
160,619	36,067	-0,431	-0,263
161,633	107,001	-0,280	-0,231
162,648	293,090	-0,147	-0,187
163,662	237,386	-0,148	-0,171
164,677	-46,367	-0,189	-0,064
165,692	153,668	-0,174	-0,166
166,706	-0,684	-0,307	-0,151
167,721	220,657	-0,111	-0,124
168,735	165,852	-0,304	-0,299
169,750	191,760	-0,159	-0,167
170,764	83,505	-0,244	-0,185
171,779	-7,897	-0,240	-0,112
172,794	-198,803	-0,256	-0,001
173,808	43,382	-0,254	-0,161
174,823	511,308	-0,166	-0,269
175,837	330,043	-0,134	-0,179
176,852	206,040	-0,208	-0,225
177,867	712,061	-0,124	-0,228
178,881	-68,776	-0,159	-0,042
179,896	-1,335	-0,209	-0,102
180,910	418,558	-0,202	-0,300
181,925	101,786	-0,256	-0,207
182,940	-35,308	-0,246	-0,092
183,954	462,474	-0,147	-0,228
184,969	54,298	-0,275	-0,183
185,983	57,712	-0,289	-0,196
186,998	255,035	-0,206	-0,246
188,013	121,522	-0,164	-0,142
189,027	-200,000	-0,095	-0,332
190,042	386,577	-0,172	-0,247
191,056	55,555	-0,256	-0,172
192,071	-28,354	-0,244	-0,097
193,086	242,478	-0,112	-0,130
194,100	-7,574	-0,152	-0,071
195,115	72,561	-0,211	-0,152
196,129	94,813	-0,323	-0,254
197,144	167,673	-0,209	-0,206
198,159	800,000	-0,055	-0,143
199,173	800,000	-0,119	-0,278
200,188	-163,127	-0,134	0,004
201,202	800,000	0,078	-0,170
202,217	-74,734	-0,183	0,045
203,232	457,667	-0,147	-0,227
204,246	46,138	-0,266	-0,170
205,261	21,876	-0,228	-0,128
206,275	462,348	-0,188	-0,292
207,290	800,000	-0,049	-0,138
208,304	123,956	-0,224	-0,195
209,319	-126,986	-0,123	-0,012
210,334	-178,819	-0,198	-0,003
211,348	71,239	-0,241	-0,173
212,363	444,002	-0,192	-0,293
213,377	77,090	-0,236	-0,173
214,392	89,185	-0,274	-0,211
215,407	-200,000	-0,012	-0,179
216,421	244,881	-0,122	-0,142
217,436	8,331	-0,215	-0,111
218,450	572,529	-0,164	-0,277
219,465	172,251	-0,220	-0,219
220,480	50,545	-0,240	-0,157
221,494	139,581	-0,208	-0,189
222,509	265,277	-0,187	-0,226
223,523	133,307	-0,189	-0,169
224,538	150,231	-0,224	-0,211
225,553	145,709	-0,191	-0,177
226,567	359,816	-0,149	-0,207
227,582	151,726	-0,256	-0,241
228,596	252,930	-0,163	-0,193
229,611	522,118	-0,068	-0,111
230,626	88,635	-0,113	-0,087
231,640	33,706	-0,143	-0,086
232,655	538,123	-0,079	-0,130
233,669	87,690	-0,223	-0,171
234,684	301,583	-0,154	-0,197
235,699	140,916	-0,142	-0,130
236,713	285,945	-0,115	-0,144
237,728	342,790	-0,091	-0,124
238,742	-115,478	-0,191	0,024
239,757	72,361	-0,197	-0,142
240,772	49,794	-0,197	-0,128
241,786	-22,087	-0,186	-0,078
242,801	702,391	-0,053	-0,097
243,815	44,352	-0,205	-0,129
244,830	3,126	-0,188	-0,094
245,844	374,882	-0,170	-0,239
246,859	128,721	-0,187	-0,164
247,874	98,988	-0,136	-0,108
248,888	724,463	-0,086	-0,160
249,903	40,882	-0,165	-0,103
250,917	85,538	-0,154	-0,117
251,932	-44,381	-0,321	-0,110
252,947	-83,275	-0,281	-0,062
253,961	74,560	-0,157	-0,114
254,976	271,529	-0,069	-0,084
255,990	1,753	-0,172	-0,085
257,005	800,000	-0,050	-0,115
258,020	-200,000	-0,024	-0,161
259,034	-200,000	-0,034	-0,117
260,049	280,155	-0,163	-0,201
261,063	163,504	-0,129	-0,125
262,078	-41,353	-0,300	-0,106
263,093	-68,150	-0,336	-0,090
264,107	99,015	-0,179	-0,143
265,122	800,000	0,012	-0,024
266,136	466,985	-0,085	-0,131
267,151	522,464	-0,097	-0,158
268,166	800,000	-0,086	-0,250
269,180	214,808	-0,138	-0,150
270,195	559,958	-0,086	-0,143
271,209	43,907	-0,192	-0,121
272,224	232,303	-0,172	-0,194
273,239	304,324	-0,127	-0,162
274,253	-22,743	-0,183	-0,076
275,268	142,226	-0,107	-0,098
276,282	48,334	-0,196	-0,126
277,297	-200,000	-0,058	-0,259
278,312	-177,919	-0,241	-0,004
279,326	-74,797	-0,188	-0,046
280,341	-33,936	-0,083	-0,031
281,355	107,258	-0,151	-0,124
282,370	679,141	-0,072	-0,129
283,384	800,000	-0,075	-0,201
284,399	480,554	-0,103	-0,161
285,414	566,638	-0,114	-0,190
286,428	59,996	-0,116	-0,079
287,443	69,887	-0,194	-0,137
288,457	-200,000	0,045	-0,200
289,472	629,831	-0,054	-0,094
290,487	168,213	-0,167	-0,163
291,501	230,728	-0,157	-0,177
292,516	-190,902	-0,157	0,001
293,530	-77,076	-0,224	-0,053
294,545	8,561	-0,168	0,087
295,560	449,328	-0,135	-0,205
296,574	134,050	-0,096	-0,085
297,589	510,538	-0,153	-0,246
298,603	131,017	-0,216	-0,190
299,618	-200,000	-0,045	-0,189
300,633	203,067	-0,067	-0,072
301,647	800,000	-0,058	-0,154
302,662	18,125	-0,158	0,086
303,676	633,938	-0,091	-0,159
304,691	785,358	-0,127	-0,241
305,706	180,729	-0,168	-0,169
306,720	-200,000	-0,024	-0,185
307,735	398,517	-0,143	-0,205
308,749	800,000	-0,071	-0,185
309,764	200,281	-0,164	-0,173
310,779	-91,065	-0,197	-0,039
311,793	140,681	-0,192	-0,174
312,808	-102,075	-0,120	-0,020
313,822	-42,492	-0,220	-0,076
314,837	105,113	-0,127	-0,103
315,852	58,922	-0,176	-0,118
316,866	221,066	-0,132	-0,145
317,881	-95,916	-0,201	-0,036
318,895	547,924	-0,087	-0,144
319,910	800,000	-0,131	-0,289
320,925	89,579	-0,226	-0,173
321,939	-200,000	-0,039	-0,212
322,954	-200,000	0,030	-0,159
323,968	171,614	-0,046	-0,045
324,983	320,336	-0,104	-0,136
325,997	411,642	-0,019	0,028
327,012	-64,537	-0,140	0,039
328,027	182,028	-0,248	-0,250
329,041	-132,134	-0,181	-0,016
330,056	-2,462	-0,019	-0,009
331,070	-200,000	-0,015	-0,086
332,085	118,001	-0,056	-0,048
333,100	433,835	-0,016	-0,024
334,114	149,089	-0,149	-0,138
335,129	66,620	-0,277	-0,193
336,143	-200,000	-0,037	-0,136
337,158	118,539	-0,139	-0,118
338,173	-69,715	-0,123	-0,032
339,187	10,751	-0,072	-0,038
340,202	-200,000	-0,038	-0,200
341,216	166,211	-0,124	-0,120
342,231	-8,101	-0,127	-0,058
343,246	189,379	-0,145	-0,148
344,260	216,230	-0,137	-0,149
345,275	-200,000	-0,008	-0,104
346,289	-0,311	-0,148	-0,072
347,304	522,877	-0,139	-0,224
348,319	243,105	-0,123	-0,141
349,333	76,854	-0,163	-0,118
350,348	-1,127	-0,292	-0,141
351,362	-200,000	-0,013	-0,145
352,377	-101,170	-0,141	0,023
353,392	248,676	-0,079	-0,091
354,406	157,464	-0,135	-0,128
355,421	209,740	1312,730	1408,664
356,435	161,438	1473,187	1409,138
