DTS Sentinel unit serial number:	SN410029Multiplexer serial number:	ORYXHardware model number:	OX2-SRSoftware version number:	ORYX F/W v4,00 Oryx Data Collector v3.7.2.0data status	okinstallation	B3 Nyhavnadifferential loss correction	single-endedforward channel	channel 1reverse channel	N/Adate	2023/12/04time	13:07:30forward acquisition time	300,00reverse acquisition time	0,00gamma	499,1914k internal	0,3201k external	0,3201temperature offset calibration	1,0000default loss term (dB/km)	0,3820temperature slope calibration	1,0000multiplexer offset coefficient	1,0000multiplexer slope coefficient	1,0000fibre end	0,00T internal ref (°C)	14,76T ext. ref 1 (°C)	0,29T ext. ref 2 (°C)	0,29length (m)	temperature (°C)	Stokes	anti-Stokes-744,400	282,357	-0,210	-0,274
-743,385	-200,000	0,038	0,335
-742,371	-34,768	-0,316	-0,125
-741,356	-200,000	0,076	0,246
-740,342	73,362	-0,178	-0,136
-739,327	800,000	0,120	0,285
-738,312	360,954	-0,224	-0,327
-737,298	-200,000	0,035	0,353
-736,283	335,305	-0,166	-0,235
-735,269	332,184	-0,079	0,112
-734,254	595,475	-0,182	-0,330
-733,239	-55,916	-0,219	0,071
-732,225	800,000	-0,042	-0,113
-731,210	2,141	0,197	0,103
-730,196	-58,761	-0,134	0,042
-729,181	265,960	0,155	-0,197
-728,167	-126,849	0,107	-0,011
-727,152	486,959	0,023	-0,038
-726,137	8,513	-0,064	-0,035
-725,123	454,680	0,129	-0,209
-724,108	719,362	-0,057	-0,111
-723,094	22,630	-0,154	-0,091
-722,079	-159,803	-0,103	0,004
-721,064	306,410	0,052	-0,070
-720,050	-83,999	0,051	-0,012
-719,035	167,716	-0,143	-0,148
-718,021	151,795	0,023	0,023
-717,006	-98,233	-0,086	-0,016
-715,991	-49,445	-0,140	-0,048
-714,977	-200,000	-0,007	-0,082
-713,962	-8,066	-0,087	0,042
-712,948	91,205	-0,057	0,046
-711,933	790,896	-0,043	0,087
-710,918	277,884	-0,054	-0,070
-709,904	-50,119	0,108	-0,037
-708,889	16,379	0,032	0,018
-707,875	-200,000	-0,015	0,051
-706,860	81,953	-0,067	-0,053
-705,845	-112,570	0,150	0,022
-704,831	385,983	0,008	0,012
-703,816	-200,000	-0,006	-0,091
-702,802	334,293	0,042	0,059
-701,787	2,048	-0,082	-0,043
-700,772	-200,000	0,012	-0,068
-699,758	419,315	0,049	0,077
-698,743	278,988	0,126	0,163
-697,729	680,371	0,029	0,055
-696,714	-159,193	0,046	0,002
-695,699	137,993	-0,063	-0,060
-694,685	-38,132	-0,140	-0,054
-693,670	129,456	0,070	-0,065
-692,656	-200,000	-0,016	-0,053
-691,641	47,410	0,117	0,079
-690,627	38,323	-0,018	-0,012
-689,612	-92,711	-0,042	-0,008
-688,597	756,465	0,053	-0,105
-687,583	153,260	-0,172	-0,171
-686,568	-55,659	0,071	-0,023
-685,554	102,911	0,081	-0,069
-684,539	69,348	0,058	0,043
-683,524	27,890	-0,036	0,022
-682,510	22,908	-0,084	0,050
-681,495	-125,335	0,146	-0,016
-680,481	-149,921	-0,078	0,004
-679,466	569,872	-0,031	0,056
-678,451	514,796	-0,058	-0,099
-677,437	-99,172	-0,079	-0,014
-676,422	83,386	0,108	0,085
-675,408	-115,306	0,109	0,015
-674,393	-96,492	-0,098	-0,019
-673,378	-26,816	-0,149	0,063
-672,364	-200,000	-0,033	-0,218
-671,349	702,119	-0,018	-0,035
-670,335	567,522	0,058	-0,103
-669,320	-10,885	0,082	-0,039
-668,305	174,695	0,035	0,037
-667,291	-5,280	0,038	0,019
-666,276	-149,070	-0,150	-0,009
-665,262	-200,000	-0,006	-0,132
-664,247	-85,628	-0,125	-0,028
-663,232	-47,963	0,068	0,024
-662,218	302,668	-0,093	-0,125
-661,203	-80,173	0,081	0,019
-660,189	187,121	-0,095	-0,102
-659,174	-91,708	0,035	-0,007
-658,159	-200,000	-0,019	0,081
-657,145	-21,572	-0,106	0,046
-656,130	800,000	-0,054	0,115
-655,116	-200,000	-0,002	-0,016
-654,101	-38,172	-0,128	0,049
-653,086	-200,000	-0,005	-0,016
-652,072	-42,473	-0,038	0,014
-651,057	-200,000	0,003	0,013
-650,043	-76,374	-0,130	-0,033
-649,028	-200,000	0,021	-0,072
-648,014	-200,000	-0,027	0,094
-646,999	329,822	0,065	-0,091
-645,984	800,000	0,019	-0,053
-644,970	49,436	-0,148	-0,101
-643,955	161,087	0,031	-0,031
-642,941	-200,000	-0,074	0,000
-641,926	800,000	0,035	-0,077
-640,911	-200,000	0,001	0,137
-639,897	800,000	0,010	-0,030
-638,882	97,372	-0,086	-0,071
-637,868	-200,000	0,037	0,154
-636,853	-200,000	0,042	-0,183
-635,838	-94,976	-0,113	0,022
-634,824	-200,000	0,032	-0,144
-633,809	-200,000	0,020	-0,146
-632,795	800,000	-0,050	-0,113
-631,780	-200,000	0,029	0,133
-630,765	9,193	-0,111	0,060
-629,751	-106,283	-0,115	0,018
-628,736	340,966	-0,089	-0,126
-627,722	346,514	-0,033	-0,048
-626,707	-200,000	0,043	0,157
-625,692	267,135	0,081	0,103
-624,678	-123,879	0,081	0,009
-623,663	-123,991	0,067	-0,008
-622,649	45,205	-0,110	0,073
-621,634	-110,044	-0,087	0,013
-620,619	-66,829	-0,037	0,011
-619,605	88,681	0,032	0,026
-618,590	281,244	-0,095	0,123
-617,576	303,395	0,072	0,097
-616,561	-156,195	0,021	0,001
-615,546	42,397	0,054	-0,035
-614,532	800,000	-0,064	-0,179
-613,517	-47,580	-0,151	-0,053
-612,503	-200,000	0,012	0,055
-611,488	295,268	-0,079	0,105
-610,474	-138,434	0,189	-0,015
-609,459	-200,000	0,008	0,000
-608,444	800,000	-0,039	-0,124
-607,430	800,000	0,055	-0,122
-606,415	-200,000	-0,001	-0,069
-605,401	43,813	-0,044	-0,029
-604,386	33,707	0,213	-0,134
-603,371	-200,000	-0,012	-0,071
-602,357	735,685	-0,058	0,113
-601,342	128,358	0,065	-0,059
-600,328	128,158	0,031	-0,029
-599,313	-0,880	0,039	-0,020
-598,298	800,000	0,019	0,043
-597,284	-200,000	0,026	0,209
-596,269	-200,000	0,020	0,068
-595,255	-71,549	0,056	-0,015
-594,240	-62,217	-0,177	0,053
-593,225	800,000	-0,040	0,111
-592,211	-162,762	0,064	-0,002
-591,196	-60,546	-0,027	0,008
-590,182	-200,000	0,004	-0,017
-589,167	-200,000	0,012	0,138
-588,152	32,170	0,064	-0,040
-587,138	-103,413	-0,101	0,017
-586,123	-71,908	0,058	-0,015
-585,109	362,495	0,026	-0,038
-584,094	-153,442	-0,032	0,002
-583,079	384,597	-0,022	0,032
-582,065	-21,384	-0,033	-0,014
-581,050	132,194	-0,091	-0,085
-580,036	-200,000	0,025	-0,081
-579,021	98,677	0,092	0,077
-578,006	-35,382	-0,094	-0,037
-576,992	-81,607	0,045	0,011
-575,977	-24,776	0,094	0,040
-574,963	-200,000	-0,028	0,116
-573,948	-16,355	-0,017	-0,008
-572,934	-47,057	-0,147	0,052
-571,919	-87,880	-0,104	-0,022
-570,904	-98,110	-0,136	-0,025
-569,890	-200,000	0,019	-0,062
-568,875	-169,295	0,065	-0,002
-567,861	800,000	-0,062	0,190
-566,846	472,874	-0,027	-0,043
-565,831	-65,788	0,069	-0,020
-564,817	16,992	0,116	-0,066
-563,802	139,565	-0,049	0,046
-562,788	285,936	-0,081	-0,106
-561,773	800,000	-0,012	0,034
-560,758	800,000	0,045	0,117
-559,744	226,754	0,028	0,033
-558,729	456,183	0,035	-0,057
-557,715	-137,344	-0,051	-0,004
-556,700	-200,000	0,016	0,074
-555,685	-200,000	0,029	0,140
-554,671	-56,096	0,057	-0,018
-553,656	-200,000	0,009	-0,113
-552,642	-200,000	-0,001	-0,070
-551,627	-122,218	0,046	0,005
-550,612	225,128	-0,064	-0,075
-549,598	398,549	-0,029	0,044
-548,583	349,864	-0,068	-0,098
-547,569	-200,000	-0,006	0,032
-546,554	800,000	0,013	-0,031
-545,539	-126,804	0,112	0,012
-544,525	-200,000	-0,017	-0,101
-543,510	40,050	0,115	-0,075
-542,496	-200,000	-0,014	-0,090
-541,481	260,812	-0,076	-0,095
-540,466	10,934	0,038	0,021
-539,452	207,505	-0,077	0,087
-538,437	-200,000	-0,022	-0,105
-537,423	-51,667	0,138	0,046
-536,408	-73,068	0,142	-0,037
-535,393	-200,000	0,001	0,012
-534,379	800,000	-0,034	-0,100
-533,364	800,000	-0,037	0,102
-532,350	-10,770	0,099	-0,047
-531,335	-200,000	0,020	0,117
-530,321	-96,088	-0,025	0,005
-529,306	329,617	0,030	0,042
-528,291	-15,964	-0,059	-0,027
-527,277	87,541	-0,126	-0,100
-526,262	724,193	-0,051	-0,099
-525,248	-200,000	-0,006	0,047
-524,233	-128,640	-0,078	-0,008
-523,218	127,961	-0,100	0,092
-522,204	60,050	-0,109	0,077
-521,189	-200,000	0,019	-0,099
-520,175	479,279	0,076	0,124
-519,160	-32,246	0,106	0,043
-518,145	311,610	-0,126	-0,171
-517,131	-63,946	0,048	0,014
-516,116	-200,000	0,007	0,046
-515,102	-200,000	-0,008	-0,028
-514,087	-110,937	0,042	-0,006
-513,072	135,637	-0,058	-0,054
-512,058	298,986	0,038	-0,050
-511,043	-200,000	0,002	-0,052
-510,029	800,000	0,056	0,123
-509,014	-200,000	-0,004	-0,015
-507,999	29,109	0,077	-0,047
-506,985	81,885	-0,027	-0,021
-505,970	223,331	-0,101	-0,118
-504,956	-200,000	-0,027	-0,116
-503,941	519,811	-0,025	-0,042
-502,926	-42,417	0,085	-0,031
-501,912	37,666	0,117	0,075
-500,897	-200,000	-0,005	0,041
-499,883	368,954	-0,047	-0,069
-498,868	800,000	-0,060	-0,190
-497,853	541,946	0,049	-0,085
-496,839	96,807	-0,060	-0,049
-495,824	800,000	0,050	0,145
-494,810	320,117	-0,033	-0,045
-493,795	93,155	-0,122	0,099
-492,781	-200,000	-0,006	-0,030
-491,766	58,673	0,109	0,077
-490,751	-127,421	-0,128	0,013
-489,737	-200,000	-0,004	0,113
-488,722	35,954	0,131	0,083
-487,708	-13,758	0,097	0,045
-486,693	286,821	-0,100	0,130
-485,678	-200,000	-0,019	0,100
-484,664	293,381	-0,063	-0,083
-483,649	800,000	0,032	-0,082
-482,635	-200,000	0,022	-0,127
-481,620	-5,636	0,029	0,014
-480,605	427,973	-0,011	-0,017
-479,591	-200,000	0,043	0,179
-478,576	800,000	-0,038	0,099
-477,562	800,000	0,019	-0,053
-476,547	151,836	0,129	-0,127
-475,532	161,932	-0,083	-0,084
-474,518	-81,886	-0,032	0,008
-473,503	269,107	-0,098	0,124
-472,489	-108,358	0,061	-0,009
-471,474	-200,000	-0,001	-0,109
-470,459	-194,750	-0,009	0,000
-469,445	158,520	0,045	-0,045
-468,430	800,000	-0,039	-0,098
-467,416	672,121	-0,030	0,055
-466,401	-32,178	-0,066	0,026
-465,386	-200,000	0,002	0,109
-464,372	-200,000	0,006	0,042
-463,357	-125,789	-0,091	0,010
-462,343	295,832	-0,097	-0,128
-461,328	800,000	0,055	-0,156
-460,313	173,801	-0,074	-0,077
-459,299	-200,000	0,005	0,029
-458,284	767,729	0,080	-0,157
-457,270	-17,386	-0,156	0,070
-456,255	-200,000	0,004	0,111
-455,241	-8,438	-0,169	-0,081
-454,226	-200,000	0,012	0,131
-453,211	800,000	-0,009	0,026
-452,197	581,205	0,086	0,152
-451,182	341,698	0,115	0,162
-450,168	-23,122	0,130	-0,056
-449,153	125,368	0,008	-0,008
-448,138	-200,000	-0,031	0,106
-447,124	326,892	0,073	-0,101
-446,109	132,151	-0,042	-0,039
-445,095	122,531	0,109	-0,098
-444,080	800,000	0,036	0,110
-443,065	-113,838	-0,133	-0,018
-442,051	-164,732	0,134	0,004
-441,036	648,436	0,019	-0,035
-440,022	394,438	0,068	0,101
-439,007	-92,300	0,134	-0,027
-437,992	800,000	0,059	-0,159
-436,978	-88,649	-0,083	0,018
-435,963	-200,000	-0,001	0,083
-434,949	51,718	0,037	-0,025
-433,934	-6,867	0,026	0,013
-432,919	76,009	-0,043	0,033
-431,905	-117,906	0,073	-0,009
-430,890	-200,000	0,033	0,189
-429,876	-42,994	0,067	-0,024
-428,861	531,540	0,048	0,082
-427,846	-39,883	-0,134	0,050
-426,832	-122,736	-0,074	-0,009
-425,817	580,378	0,067	0,118
-424,803	654,413	0,087	-0,160
-423,788	800,000	0,049	-0,119
-422,773	424,627	-0,011	0,017
-421,759	-3,507	-0,116	0,058
-420,744	-31,572	-0,074	0,030
-419,730	800,000	-0,018	-0,055
-418,715	58,550	-0,107	-0,075
-417,701	-200,000	-0,017	0,063
-416,686	35,765	-0,058	0,037
-415,671	-46,923	0,185	-0,064
-414,657	515,538	-0,019	0,032
-413,642	-200,000	-0,031	0,149
-412,628	146,057	-0,061	0,059
-411,613	800,000	-0,032	0,090
-410,598	-178,091	0,086	0,001
-409,584	-66,300	-0,126	0,036
-408,569	800,000	0,020	0,055
-407,555	-200,000	-0,002	0,149
-406,540	800,000	0,040	0,095
-405,525	22,428	0,032	0,019
-404,511	7,329	0,046	-0,025
-403,496	-175,684	0,014	0,000
-402,482	25,181	0,038	0,023
-401,467	241,967	-0,073	-0,087
-400,452	240,507	0,039	-0,047
-399,438	-114,169	0,040	0,005
-398,423	-200,000	0,001	0,146
-397,409	-86,843	-0,047	0,010
-396,394	9,122	0,086	-0,047
-395,379	393,181	0,071	-0,106
-394,365	800,000	0,044	-0,125
-393,350	188,187	0,147	0,158
-392,336	540,509	-0,056	0,096
-391,321	-200,000	0,003	0,061
-390,306	-9,153	-0,148	-0,071
-389,292	141,005	0,050	0,048
-388,277	-31,924	-0,086	0,034
-387,263	800,000	-0,037	0,076
-386,248	-90,345	0,091	-0,019
-385,233	322,173	0,041	0,057
-384,219	68,936	0,034	0,025
-383,204	439,991	-0,111	-0,174
-382,190	-200,000	0,008	-0,175
-381,175	29,776	-0,079	0,048
-380,160	125,011	0,120	-0,108
-379,146	-200,000	-0,035	0,183
-378,131	-51,410	0,066	0,022
-377,117	800,000	-0,029	-0,070
-376,102	-200,000	-0,001	-0,059
-375,088	161,805	0,074	-0,074
-374,073	67,157	-0,067	-0,049
-373,058	-106,915	0,116	-0,018
-372,044	-12,556	0,072	-0,034
-371,029	575,672	0,065	0,115
-370,015	-200,000	0,010	0,075
-369,000	31,414	-0,117	-0,072
-367,985	-200,000	-0,021	0,135
-366,971	-200,000	-0,033	-0,124
-365,956	63,644	0,054	-0,039
-364,942	73,563	-0,055	0,041
-363,927	13,160	0,044	-0,024
-362,912	129,651	0,055	0,051
-361,898	63,273	0,014	0,010
-360,883	112,843	-0,087	0,075
-359,869	69,493	-0,076	-0,056
-358,854	437,457	-0,058	-0,092
-357,839	-59,088	0,104	-0,032
-356,825	377,839	-0,048	0,071
-355,810	-200,000	-0,018	-0,092
-354,796	63,786	0,038	-0,028
-353,781	61,690	0,090	-0,064
-352,766	-45,913	-0,067	-0,024
-351,752	800,000	0,035	0,099
-350,737	187,642	0,102	0,109
-349,723	800,000	-0,031	0,072
-348,708	-28,313	0,191	-0,079
-347,693	-139,048	-0,112	0,009
-346,679	282,509	-0,058	-0,074
-345,664	437,357	0,035	-0,055
-344,650	39,390	-0,055	-0,035
-343,635	-200,000	-0,003	-0,025
-342,620	-63,411	-0,087	0,026
-341,606	800,000	-0,032	0,078
-340,591	77,556	0,011	0,009
-339,577	-77,278	0,094	0,023
-338,562	467,087	-0,040	-0,065
-337,548	-15,372	-0,090	0,041
-336,533	424,686	-0,090	0,139
-335,518	192,189	0,071	0,077
-334,504	-119,805	0,085	-0,010
-333,489	-200,000	-0,022	-0,075
-332,475	-190,137	0,132	-0,001
-331,460	319,698	-0,122	-0,166
-330,445	85,252	-0,034	-0,026
-329,431	-126,236	-0,083	0,009
-328,416	-200,000	0,032	0,165
-327,402	-200,000	0,021	0,180
-326,387	119,865	0,055	0,049
-325,372	-200,000	0,027	-0,089
-324,358	42,891	-0,161	-0,105
-323,343	-106,884	0,108	0,017
-322,329	-71,415	0,087	-0,023
-321,314	96,017	0,088	0,072
-320,299	-121,361	0,132	-0,016
-319,285	278,707	-0,011	0,014
-318,270	-54,785	0,055	0,018
-317,256	-39,037	-0,228	-0,085
-316,241	63,064	-0,050	-0,036
-315,226	-43,210	0,035	0,012
-314,212	648,171	-0,022	0,041
-313,197	151,392	-0,020	0,019
-312,183	0,730	0,050	-0,026
-311,168	-100,690	0,033	-0,006
-310,153	-200,000	-0,024	-0,181
-309,139	-31,482	-0,178	-0,071
-308,124	45,311	-0,064	-0,042
-307,110	800,000	0,047	0,131
-306,095	139,839	-0,056	0,053
-305,080	-114,455	-0,015	-0,002
-304,066	131,323	-0,109	0,100
-303,051	63,987	0,024	0,018
-302,037	-138,478	0,126	-0,010
-301,022	-127,472	0,125	-0,013
-300,008	-10,019	0,068	0,032
-298,993	508,695	0,032	0,053
-297,978	168,810	0,060	0,062
-296,964	-135,134	-0,094	-0,008
-295,949	284,815	-0,088	-0,113
-294,935	488,744	-0,054	0,088
-293,920	450,777	0,121	0,192
-292,905	274,579	0,046	-0,059
-291,891	154,567	-0,090	0,088
-290,876	61,738	-0,052	-0,037
-289,862	-8,321	-0,047	0,023
-288,847	97,321	-0,096	0,079
-287,832	-200,000	-0,049	-0,169
-286,818	-72,388	-0,037	-0,010
-285,803	-86,519	0,065	0,014
-284,789	800,000	-0,004	-0,010
-283,774	-24,000	0,065	-0,028
-282,759	-74,502	0,103	-0,026
-281,745	28,137	0,093	0,056
-280,730	10,177	-0,067	0,036
-279,716	0,966	0,097	-0,049
-278,701	147,488	0,014	0,013
-277,686	-126,847	0,078	0,008
-276,672	-1,474	0,095	-0,048
-275,657	179,411	-0,049	0,051
-274,643	195,334	-0,092	-0,100
-273,628	-200,000	-0,033	-0,132
-272,613	800,000	0,071	-0,156
-271,599	-200,000	0,012	-0,040
-270,584	62,726	0,215	0,153
-269,570	-200,000	0,002	0,122
-268,555	-200,000	0,013	0,122
-267,540	-200,000	0,021	-0,187
-266,526	-200,000	0,012	0,055
-265,511	800,000	0,038	-0,086
-264,497	57,344	0,048	0,033
-263,482	70,194	0,122	0,090
-262,467	743,711	0,099	-0,190
-261,453	-133,515	-0,046	-0,004
-260,438	800,000	-0,026	0,071
-259,424	8,625	-0,099	-0,053
-258,409	30,809	-0,115	-0,070
-257,395	-200,000	-0,011	0,096
-256,380	454,314	0,069	-0,109
-255,365	-200,000	-0,014	0,059
-254,351	334,771	-0,024	0,033
-253,336	-200,000	0,008	0,062
-252,322	46,412	0,112	0,074
-251,307	139,589	-0,068	-0,064
-250,292	309,771	-0,032	0,042
-249,278	-98,584	-0,031	0,006
-248,263	-111,845	0,081	0,012
-247,249	-200,000	-0,014	0,060
-246,234	-162,174	-0,064	-0,002
-245,219	-200,000	0,000	0,045
-244,205	800,000	-0,046	-0,128
-243,190	88,546	0,027	0,022
-242,176	110,064	0,014	0,012
-241,161	-160,487	-0,059	0,002
-240,146	345,505	0,034	-0,048
-239,132	-200,000	0,005	-0,078
-238,117	-54,516	-0,226	-0,073
-237,103	99,064	-0,055	0,045
-236,088	-96,584	-0,099	0,018
-235,073	-200,000	-0,037	0,143
-234,059	71,108	-0,021	-0,015
-233,044	127,856	0,033	-0,030
-232,030	26,901	0,115	-0,069
-231,015	-85,899	-0,053	-0,011
-230,000	800,000	-0,002	-0,005
-228,986	-83,464	0,075	-0,017
-227,971	-2,174	-0,101	-0,050
-226,957	-200,000	0,015	-0,135
-225,942	800,000	0,038	-0,093
-224,927	-200,000	-0,023	0,142
-223,913	-164,913	-0,103	-0,003
-222,898	108,276	-0,081	-0,069
-221,884	12,889	0,096	0,053
-220,869	800,000	-0,040	-0,104
-219,855	-61,365	0,105	0,031
-218,840	-41,436	0,049	0,018
-217,825	-200,000	-0,000	-0,008
-216,811	779,350	0,077	-0,151
-215,796	-40,290	0,087	0,032
-214,782	-7,859	0,012	-0,006
-213,767	175,944	-0,058	-0,060
-212,752	149,409	0,065	0,062
-211,738	18,730	0,073	0,041
-210,723	-81,862	-0,077	0,018
-209,709	53,501	-0,108	-0,074
-208,694	800,000	-0,042	0,103
-207,679	-200,000	0,010	0,109
-206,665	-2,709	-0,098	0,049
-205,650	-77,855	-0,045	-0,011
-204,636	23,704	0,044	0,026
-203,621	-200,000	0,003	0,046
-202,606	-76,381	-0,071	0,018
-201,592	2,103	0,028	0,014
-200,577	800,000	0,018	0,041
-199,563	174,615	-0,043	0,044
-198,548	-200,000	0,005	-0,075
-197,533	800,000	0,040	0,101
-196,519	800,000	-0,027	0,083
-195,504	800,000	-0,023	0,053
-194,490	390,592	-0,046	-0,067
-193,475	-80,298	0,138	-0,033
-192,460	-200,000	0,005	-0,022
-191,446	-111,378	0,026	-0,004
-190,431	574,119	-0,051	0,088
-189,417	-86,927	-0,081	0,017
-188,402	-136,932	0,130	0,010
-187,387	18,997	-0,112	-0,063
-186,373	-200,000	0,015	-0,121
-185,358	-108,207	-0,026	0,004
-184,344	5,994	0,142	-0,074
-183,329	-16,021	-0,090	-0,041
-182,315	208,903	-0,074	0,083
-181,300	-200,000	-0,019	-0,109
-180,285	402,564	0,083	-0,125
-179,271	-165,349	-0,059	-0,002
-178,256	-102,385	-0,030	0,005
-177,242	213,115	0,028	0,031
-176,227	176,132	0,150	0,155
-175,212	-200,000	0,006	0,021
-174,198	800,000	-0,027	0,081
-173,183	699,380	-0,015	-0,029
-172,169	-200,000	-0,054	-0,181
-171,154	-114,036	0,074	-0,010
-170,139	-15,639	0,107	0,048
-169,125	54,672	-0,054	-0,037
-168,110	473,994	-0,060	0,096
-167,096	-200,000	0,024	0,120
-166,081	-200,000	0,004	0,102
-165,066	-200,000	-0,019	0,113
-164,052	-200,000	0,032	-0,100
-163,037	108,670	0,078	-0,066
-162,023	-149,113	-0,032	0,002
-161,008	-23,625	0,054	0,023
-159,993	-52,592	-0,093	0,031
-158,979	-200,000	0,005	-0,074
-157,964	-200,000	-0,042	-0,172
-156,950	-107,010	0,031	0,005
-155,935	-32,006	0,017	0,007
-154,920	800,000	-0,025	0,068
-153,906	-79,750	-0,090	-0,021
-152,891	-151,140	0,086	-0,005
-151,877	800,000	0,051	0,100
-150,862	268,013	0,058	-0,072
-149,847	-200,000	0,040	-0,256
-148,833	-137,253	0,042	-0,003
-147,818	800,000	0,033	0,068
-146,804	800,000	-0,006	0,016
-145,789	-68,664	-0,120	0,033
-144,775	800,000	-0,074	-0,157
-143,760	152,630	-0,045	-0,044
-142,745	800,000	-0,044	-0,091
-141,731	-17,773	-0,051	0,023
-140,716	-200,000	0,014	-0,080
-139,702	800,000	-0,017	-0,036
-138,687	28,768	-0,033	0,020
-137,672	800,000	0,025	0,051
-136,658	336,845	-0,059	0,082
-135,643	-200,000	-0,010	-0,045
-134,629	-150,027	0,192	-0,010
-133,614	316,921	-0,054	-0,073
-132,599	139,993	0,033	-0,031
-131,585	-18,624	0,009	-0,004
-130,570	125,240	-0,015	0,014
-129,556	-174,168	-0,072	0,001
-128,541	-116,852	-0,087	-0,011
-127,526	685,729	-0,012	-0,023
-126,512	-200,000	0,017	0,103
-125,497	141,324	0,091	0,086
-124,483	-59,087	0,031	0,010
-123,468	-49,056	-0,080	-0,027
-122,453	-67,571	-0,053	0,015
-121,439	-53,067	-0,032	-0,011
-120,424	166,933	-0,038	-0,038
-119,410	395,080	0,099	0,146
-118,395	319,806	-0,083	0,112
-117,380	-67,450	-0,024	-0,007
-116,366	-112,094	0,092	-0,013
-115,351	75,185	-0,102	-0,076
-114,337	-21,094	-0,095	-0,041
-113,322	800,000	0,037	0,110
-112,307	800,000	-0,018	-0,037
-111,293	800,000	0,062	-0,152
-110,278	-35,387	0,093	0,036
-109,264	56,700	-0,046	0,032
-108,249	263,355	-0,018	-0,023
-107,234	292,822	-0,065	-0,084
-106,220	456,092	-0,069	0,109
-105,205	-103,788	0,035	-0,006
-104,191	-200,000	0,006	0,026
-103,176	-49,539	0,058	0,019
-102,162	-200,000	-0,127	0,000
-101,147	800,000	0,052	-0,145
-100,132	-41,373	-0,094	-0,034
-99,118	489,750	-0,071	-0,115
-98,103	-165,332	-0,019	0,001
-97,089	-200,000	-0,020	0,069
-96,074	-119,107	0,038	0,005
-95,059	2,867	-0,130	-0,067
-94,045	-198,127	0,114	0,000
-93,030	447,691	-0,044	0,070
-92,016	143,579	0,091	0,086
-91,001	-16,768	0,152	-0,068
-89,986	0,366	0,077	-0,039
-88,972	-200,000	-0,021	0,088
-87,957	179,557	0,031	0,032
-86,943	231,278	-0,053	-0,061
-85,928	483,665	-0,039	0,063
-84,913	800,000	-0,032	0,065
-83,899	554,921	0,014	-0,025
-82,884	-113,679	0,053	-0,007
-81,870	-200,000	-0,003	0,054
-80,855	-200,000	0,005	0,188
-79,840	-200,000	-0,011	0,087
-78,826	-111,246	-0,071	0,010
-77,811	800,000	-0,006	-0,015
-76,797	-83,607	0,147	0,033
-75,782	800,000	-0,046	0,134
-74,767	-100,548	0,071	0,012
-73,753	-77,994	0,035	-0,009
-72,738	-192,909	0,131	0,001
-71,724	247,454	-0,119	-0,143
-70,709	-200,000	-0,009	-0,067
-69,694	90,736	-0,093	-0,074
-68,680	-161,066	0,034	-0,001
-67,665	-72,720	-0,056	0,015
-66,651	800,000	-0,048	0,117
-65,636	27,979	-0,051	0,030
-64,622	84,775	-0,057	-0,044
-63,607	-70,283	-0,086	-0,023
-62,592	266,642	-0,058	0,073
-61,578	800,000	0,077	-0,152
-60,563	-19,566	-0,086	0,038
-59,549	-200,000	-0,004	-0,041
-58,534	-64,213	-1,523	-0,437
-57,519	454,705	-1,373	-2,162
-56,505	-200,000	-0,614	-4,466
-55,490	150,028	1,062	1,020
-54,476	800,000	4,746	11,028
-53,461	-200,000	18,205	290,314
-52,446	800,000	728,326	2238,653
-51,432	556,773	1644,518	2816,252
-50,417	79,119	1665,925	1262,026
-49,403	22,681	1539,450	889,922
-48,388	16,617	1462,680	816,170
-47,373	17,800	1452,531	816,173
-46,359	17,145	1443,115	807,717
-45,344	14,863	1438,639	794,282
-44,330	14,790	1436,613	792,784
-43,315	14,766	1434,924	791,708
-42,300	14,830	1433,193	791,023
-41,286	14,833	1432,011	790,355
-40,271	14,882	1430,481	789,711
-39,257	14,825	1429,578	788,913
-38,242	14,837	1428,168	788,159
-37,227	14,891	1427,001	787,742
-36,213	14,893	1425,551	786,916
-35,198	14,838	1424,382	785,979
-34,184	14,889	1423,599	785,761
-33,169	14,847	1422,185	784,747
-32,154	14,884	1421,260	784,382
-31,140	14,871	1420,019	783,607
-30,125	14,911	1418,767	783,072
-29,111	14,899	1417,540	782,306
-28,096	14,860	1416,628	781,588
-27,082	14,838	1415,410	780,781
-26,067	14,802	1414,470	780,064
-25,052	14,782	1413,328	779,310
-24,038	14,799	1412,343	778,816
-23,023	14,765	1411,328	778,063
-22,009	14,800	1410,234	777,594
-20,994	14,677	1409,619	776,652
-19,979	14,723	1408,735	776,348
-18,965	14,717	1407,486	775,597
-17,950	14,679	1406,830	775,030
-16,936	14,706	1405,683	774,494
-15,921	14,655	1404,788	773,733
-14,906	14,682	1403,785	773,274
-13,892	14,732	1402,859	772,965
-12,877	14,692	1401,905	772,223
-11,863	14,643	1401,115	771,528
-10,848	14,714	1400,001	771,216
-9,833	14,647	1399,458	770,575
-8,819	14,623	1398,434	769,871
-7,804	14,585	1397,547	769,173
-6,790	14,596	1396,270	768,490
-5,775	14,561	1395,336	767,787
-4,760	14,627	1394,316	767,498
-3,746	14,581	1393,801	766,971
-2,731	14,594	1392,801	766,449
-1,717	14,584	1391,991	765,930
-0,702	14,564	1390,111	764,773
0,313	18,352	1309,091	737,733
1,327	34,573	706,365	435,638
2,342	53,098	124,493	84,180
3,356	2,713	16,488	8,430
4,371	3,270	3,117	1,599
5,386	-4,646	0,508	0,247
6,400	-200,000	0,020	0,088
7,415	34,379	-0,253	-0,156
8,429	58,783	-0,194	-0,134
9,444	135,700	-0,331	-0,305
10,459	-33,477	-0,365	-0,142
11,473	99,206	-0,341	-0,278
12,488	47,490	-0,292	-0,192
13,502	-122,453	-0,411	-0,047
14,517	57,266	-0,363	-0,250
15,531	89,968	-0,382	-0,301
16,546	155,021	-0,267	-0,260
17,561	105,234	-0,375	-0,313
18,575	800,000	-0,051	-0,103
19,590	11,677	-0,342	-0,185
20,604	-9,399	-0,256	-0,120
21,619	-8,783	-0,495	-0,234
22,634	110,811	-0,386	-0,328
23,648	142,652	-0,469	-0,440
24,663	57,838	-0,450	-0,310
25,677	77,845	-0,490	-0,368
26,692	137,099	-0,342	-0,316
27,707	58,064	-0,305	-0,211
28,721	-11,200	-0,360	-0,167
29,736	216,624	-0,353	-0,396
30,750	22,810	-0,421	-0,243
31,765	354,826	-0,304	-0,428
32,780	120,760	-0,281	-0,246
33,794	138,851	-0,409	-0,380
34,809	91,656	-0,384	-0,305
35,823	55,504	-0,455	-0,310
36,838	-29,161	-0,458	-0,184
37,853	49,718	-0,434	-0,288
38,867	34,233	-0,415	-0,255
39,882	117,465	-0,350	-0,304
40,896	149,479	-0,290	-0,277
41,911	12,671	-0,356	-0,193
42,926	114,145	-0,347	-0,298
43,940	315,568	-0,303	-0,404
44,955	6,762	-0,416	-0,218
45,969	124,493	-0,312	-0,277
46,984	135,205	-0,337	-0,309
47,999	22,008	-0,292	-0,167
49,013	14,180	-0,354	-0,194
50,028	41,606	-0,318	-0,202
51,042	21,290	-0,319	-0,182
52,057	249,138	-0,228	-0,272
53,071	121,927	-0,293	-0,257
54,086	-12,812	-0,300	-0,137
55,101	800,000	-0,165	-0,365
56,115	83,466	-0,315	-0,241
57,130	-96,815	-0,504	-0,092
58,144	-16,230	-0,431	-0,192
59,159	35,745	-0,431	-0,266
60,174	-38,718	-0,422	-0,156
61,188	1,151	-0,398	-0,200
62,203	42,244	-0,308	-0,196
63,217	89,755	-0,349	-0,274
64,232	-72,692	-0,249	-0,064
65,247	53,277	-0,309	-0,208
66,261	-13,863	-0,416	-0,188
67,276	-47,328	-0,328	-0,112
68,290	107,794	-0,408	-0,342
69,305	-15,805	-0,329	-0,147
70,320	77,554	-0,143	-0,107
71,334	-4,305	-0,314	-0,152
72,349	15,568	-0,243	-0,134
73,363	197,400	-0,250	-0,268
74,378	80,537	-0,317	-0,240
75,393	86,889	-0,318	-0,247
76,407	-32,774	-0,321	-0,125
77,422	71,901	-0,260	-0,190
78,436	0,901	-0,399	-0,200
79,451	10,571	-0,257	-0,137
80,466	32,709	-0,390	-0,237
81,480	-33,281	-0,368	-0,143
82,495	-92,951	-0,393	-0,076
83,509	-123,776	-0,302	0,033
84,524	-46,588	-0,318	-0,109
85,539	28,932	-0,362	-0,215
86,553	6,321	-0,336	-0,174
87,568	-93,934	-0,266	-0,051
88,582	81,558	-0,273	-0,207
89,597	133,352	-0,312	-0,283
90,611	-55,355	-0,261	-0,082
91,626	357,453	-0,153	-0,215
92,641	88,429	-0,239	-0,186
93,655	-82,119	-0,391	-0,089
94,670	111,923	-0,261	-0,221
95,684	201,817	-0,134	-0,145
96,699	25,381	-0,340	-0,198
97,714	-200,000	-0,079	-0,262
98,728	217,589	-0,174	-0,195
99,743	128,650	-0,303	-0,271
100,757	-3,764	-0,275	-0,134
101,772	-41,598	-0,245	-0,088
102,787	41,606	-0,330	-0,209
103,801	250,609	-0,248	-0,296
104,816	166,881	-0,233	-0,231
105,830	-116,248	-0,298	-0,038
106,845	-75,820	-0,369	-0,091
107,860	31,612	-0,181	-0,109
108,874	-15,548	-0,349	-0,155
109,889	44,814	-0,271	-0,175
110,903	81,701	-0,279	-0,212
111,918	429,611	-0,096	-0,146
112,933	800,000	-0,058	-0,120
113,947	44,749	-0,243	-0,156
114,962	341,475	-0,193	-0,265
115,976	144,342	-0,234	-0,219
116,991	78,754	-0,286	-0,214
118,006	99,199	-0,281	-0,227
119,020	38,411	-0,285	-0,178
120,035	68,246	-0,166	-0,119
121,049	62,092	-0,287	-0,200
122,064	200,915	-0,156	-0,168
123,079	-39,587	-0,316	-0,115
124,093	99,489	-0,261	-0,211
125,108	144,227	-0,283	-0,265
126,122	125,424	-0,258	-0,228
127,137	6,541	-0,299	-0,155
128,151	-41,531	-0,196	-0,070
129,166	104,342	-0,217	-0,179
130,181	81,589	-0,327	-0,247
131,195	-156,519	-0,224	-0,010
132,210	48,493	-0,286	-0,187
133,224	106,581	-0,276	-0,229
134,239	167,769	-0,235	-0,234
135,254	25,488	-0,255	-0,148
136,268	4,232	-0,215	-0,110
137,283	800,000	-0,089	-0,215
138,297	328,068	-0,168	-0,227
139,312	39,089	-0,315	-0,197
140,327	54,050	-0,412	-0,276
141,341	56,450	-0,343	-0,233
142,356	-101,941	-0,248	-0,041
143,370	-90,486	-0,220	-0,044
144,385	-21,799	-0,268	-0,113
145,400	-188,024	-0,311	0,003
146,414	69,684	-0,228	-0,164
147,429	310,333	-0,191	-0,250
148,443	64,234	-0,200	-0,141
149,458	-122,972	-0,243	-0,027
150,473	76,440	-0,171	-0,126
151,487	84,456	-0,289	-0,221
152,502	532,676	-0,247	-0,410
153,516	64,073	-0,321	-0,225
154,531	-200,000	-0,059	-0,270
155,546	-19,657	-0,274	-0,118
156,560	94,713	-0,169	-0,134
157,575	393,525	-0,155	-0,226
158,589	81,429	-0,252	-0,190
159,604	198,555	-0,212	-0,227
160,619	111,440	-0,255	-0,214
161,633	-54,071	-0,279	-0,088
162,648	-24,585	-0,261	-0,108
163,662	-81,269	-0,277	-0,063
164,677	159,004	-0,120	-0,116
165,692	143,396	-0,204	-0,190
166,706	132,682	-0,247	-0,222
167,721	68,046	-0,294	-0,209
168,735	21,602	-0,262	-0,148
169,750	425,578	-0,108	-0,163
170,764	-60,783	-0,339	-0,099
171,779	40,400	-0,209	-0,131
172,794	671,906	-0,139	-0,252
173,808	34,572	-0,207	-0,126
174,823	181,796	-0,219	-0,225
175,837	-63,838	-0,135	-0,038
176,852	411,225	-0,172	-0,255
177,867	-83,418	-0,199	-0,044
178,881	167,753	-0,208	-0,207
179,896	214,364	-0,183	-0,202
180,910	-27,915	-0,211	-0,085
181,925	83,337	-0,257	-0,194
182,940	-16,016	-0,221	-0,097
183,954	-60,484	-0,199	-0,059
184,969	69,962	-0,327	-0,235
185,983	-4,359	-0,211	-0,101
186,998	-160,295	-0,048	-0,002
188,013	-68,813	-0,188	-0,050
189,027	34,764	-0,247	-0,150
190,042	203,752	-0,233	-0,251
191,056	800,000	-0,148	-0,290
192,071	89,539	-0,281	-0,218
193,086	208,915	-0,205	-0,223
194,100	-150,633	-0,101	-0,005
195,115	-117,460	-0,267	-0,033
196,129	-31,926	-0,261	-0,101
197,144	399,193	-0,146	-0,213
198,159	11,848	-0,300	-0,160
199,173	-200,000	-0,031	-0,126
200,188	-100,402	-0,245	-0,042
201,202	-116,486	-0,258	-0,033
202,217	86,930	-0,158	-0,121
203,232	-35,162	-0,168	-0,063
204,246	223,988	-0,159	-0,178
205,261	-30,975	-0,229	-0,089
206,275	178,580	-0,150	-0,153
207,290	-92,876	-0,169	-0,033
208,304	-93,280	-0,165	0,031
209,319	177,463	-0,120	-0,122
210,334	116,631	-0,202	-0,172
211,348	46,854	-0,169	-0,109
212,363	186,857	-0,169	-0,175
213,377	608,267	-0,125	-0,217
214,392	170,968	-0,133	-0,133
215,407	-97,536	-0,292	-0,052
216,421	800,000	-0,086	-0,204
217,436	-12,614	-0,202	-0,091
218,450	434,091	-0,109	-0,165
219,465	458,721	-0,201	-0,311
220,480	85,956	-0,178	-0,135
221,494	-108,246	-0,135	0,020
222,509	64,865	-0,204	-0,143
223,523	800,000	-0,101	-0,248
224,538	410,325	-0,086	-0,127
225,553	38,309	-0,240	-0,148
226,567	276,413	-0,181	-0,223
227,582	41,267	-0,233	-0,146
228,596	139,212	-0,112	-0,103
229,611	67,703	-0,313	-0,221
230,626	-21,431	-0,240	-0,101
231,640	-68,035	-0,174	-0,047
232,655	26,907	-0,149	-0,086
233,669	-88,107	-0,176	-0,036
234,684	7,811	-0,093	-0,048
235,699	39,269	-0,235	-0,146
236,713	777,441	-0,044	-0,083
237,728	146,703	-0,167	-0,156
238,742	800,000	-0,074	-0,145
239,757	193,443	-0,095	-0,100
240,772	202,372	-0,193	-0,207
241,786	182,241	-0,184	-0,188
242,801	150,662	-0,167	-0,157
243,815	-4,038	-0,106	-0,051
244,830	218,149	-0,083	-0,092
245,844	-80,995	-0,266	-0,061
246,859	218,325	-0,159	-0,177
247,874	63,983	-0,217	-0,151
248,888	84,379	-0,122	-0,092
249,903	-44,388	-0,283	-0,098
250,917	182,603	-0,115	-0,117
251,932	-36,903	-0,279	-0,103
252,947	-1,336	-0,265	-0,129
253,961	-26,515	-0,241	-0,097
254,976	59,168	-0,234	-0,159
255,990	97,340	-0,210	-0,166
257,005	30,423	-0,261	-0,154
258,020	-123,171	-0,155	0,017
259,034	-39,783	-0,220	0,079
260,049	91,903	-0,070	-0,054
261,063	-61,501	-0,235	-0,068
262,078	79,445	-0,162	-0,120
263,093	147,261	-0,185	-0,172
264,107	15,058	-0,233	-0,126
265,122	-125,098	-0,250	0,026
266,136	-81,660	-0,184	0,041
267,151	155,009	-0,222	-0,212
268,166	522,250	-0,120	-0,196
269,180	-200,000	-0,061	-0,294
270,195	9,611	-0,249	-0,130
271,209	432,377	-0,221	-0,333
272,224	-1,946	-0,234	-0,113
273,239	-75,383	-0,008	0,002
274,253	555,778	-0,105	-0,175
275,268	-148,142	-0,271	0,015
276,282	371,345	-0,154	-0,217
277,297	243,078	-0,235	-0,272
278,312	-14,224	-0,227	-0,100
279,326	-60,498	-0,282	-0,082
280,341	86,045	-0,162	-0,123
281,355	249,441	-0,128	-0,150
282,370	486,350	-0,113	-0,179
283,384	151,982	-0,212	-0,199
284,399	85,701	-0,218	-0,165
285,414	32,714	-0,246	-0,147
286,428	-200,000	-0,017	-0,159
287,443	-130,194	-0,070	0,007
288,457	359,629	-0,097	-0,134
289,472	9,557	-0,147	-0,076
290,487	-200,000	-0,041	-0,175
291,501	800,000	-0,068	-0,202
292,516	800,000	-0,061	-0,164
293,530	-18,771	-0,066	-0,028
294,545	10,653	-0,129	-0,068
295,560	-18,474	-0,136	-0,058
296,574	800,000	-0,042	-0,112
297,589	-105,117	-0,210	-0,033
298,603	-79,109	-0,190	0,044
299,618	-19,219	-0,212	-0,090
300,633	641,118	-0,123	-0,217
301,647	-63,528	-0,120	-0,034
302,662	109,993	0,070	-0,058
303,676	30,812	-0,134	-0,079
304,691	-59,999	-0,282	-0,082
305,706	379,142	-0,104	-0,147
306,720	-78,571	-0,229	-0,054
307,735	-200,000	0,004	-0,032
308,749	674,663	-0,102	-0,184
309,764	-149,749	-0,219	-0,012
310,779	-4,909	-0,130	-0,061
311,793	9,783	-0,036	-0,019
312,808	198,411	-0,071	-0,075
313,822	73,683	-0,160	-0,116
314,837	135,283	-0,196	-0,175
315,852	-162,136	-0,184	-0,006
316,866	167,039	-0,131	-0,128
317,881	-152,816	-0,088	0,004
318,895	132,579	-0,179	-0,158
319,910	-28,254	-0,104	-0,041
320,925	-53,171	-0,201	-0,063
321,939	-200,000	-0,038	-0,193
322,954	30,770	-0,083	-0,049
323,968	522,911	-0,165	-0,267
324,983	46,928	-0,136	-0,087
325,997	-0,823	-0,092	0,045
327,012	201,734	-0,167	-0,177
328,027	686,908	-0,092	-0,166
329,041	239,786	-0,136	-0,156
330,056	147,019	-0,048	-0,044
331,070	726,906	-0,067	-0,123
332,085	-80,233	-0,032	0,007
333,100	326,877	-0,112	-0,148
334,114	191,933	-0,230	-0,239
335,129	800,000	-0,141	-0,317
336,143	-73,030	-0,091	-0,023
337,158	-48,187	-0,143	-0,047
338,173	129,794	-0,092	-0,080
339,187	76,871	-0,060	-0,044
340,202	144,856	-0,197	-0,181
341,216	122,305	-0,170	-0,146
342,231	-38,587	-0,212	-0,076
343,246	-200,000	-0,066	-0,213
344,260	54,110	-0,050	-0,033
345,275	448,829	-0,036	-0,054
346,289	149,564	-0,089	0,083
347,304	267,634	-0,072	-0,086
348,319	134,124	-0,147	-0,131
349,333	-17,945	-0,186	-0,080
350,348	60,316	-0,199	-0,135
351,362	212,187	-0,038	-0,041
352,377	75,900	-0,053	-0,039
353,392	134,853	-0,150	-0,134
354,406	240,553	-0,135	-0,155
355,421	209,018	1314,788	1413,558
356,435	160,850	1475,530	1414,050
