DTS Sentinel unit serial number:	SN410029Multiplexer serial number:	ORYXHardware model number:	OX2-SRSoftware version number:	ORYX F/W v4,00 Oryx Data Collector v3.7.2.0data status	okinstallation	B3 Nyhavnadifferential loss correction	single-endedforward channel	channel 1reverse channel	N/Adate	2023/12/02time	01:52:30forward acquisition time	300,00reverse acquisition time	0,00gamma	499,1914k internal	0,3195k external	0,3195temperature offset calibration	1,0000default loss term (dB/km)	0,3820temperature slope calibration	1,0000multiplexer offset coefficient	1,0000multiplexer slope coefficient	1,0000fibre end	0,00T internal ref (°C)	16,57T ext. ref 1 (°C)	1,89T ext. ref 2 (°C)	1,89length (m)	temperature (°C)	Stokes	anti-Stokes-744,400	75,815	-0,218	-0,168
-743,385	-200,000	0,060	0,318
-742,371	115,845	-0,136	-0,121
-741,356	-200,000	0,055	0,428
-740,342	145,286	-0,112	-0,109
-739,327	-200,000	0,051	0,225
-738,312	800,000	-0,146	-0,362
-737,298	-200,000	0,074	0,339
-736,283	349,054	-0,164	-0,236
-735,269	-200,000	0,029	0,335
-734,254	511,767	-0,102	-0,175
-733,239	59,878	-0,227	0,163
-732,225	800,000	-0,054	-0,140
-731,210	262,959	0,116	0,147
-730,196	-75,672	-0,064	0,017
-729,181	237,898	-0,046	-0,056
-728,167	-200,000	-0,023	0,106
-727,152	-200,000	-0,004	-0,162
-726,137	-58,628	-0,124	0,039
-725,123	57,307	0,072	-0,051
-724,108	435,206	-0,101	-0,161
-723,094	-200,000	0,002	-0,072
-722,079	800,000	-0,086	-0,175
-721,064	800,000	0,078	-0,195
-720,050	800,000	-0,019	0,049
-719,035	434,363	-0,052	-0,082
-718,021	800,000	-0,032	-0,077
-717,006	-200,000	-0,014	-0,114
-715,991	102,873	-0,086	-0,074
-714,977	-200,000	0,025	-0,122
-713,962	-200,000	0,005	-0,023
-712,948	289,405	-0,019	0,026
-711,933	298,424	0,034	-0,046
-710,918	800,000	-0,036	0,100
-709,904	-45,445	-0,069	0,025
-708,889	518,860	-0,117	-0,200
-707,875	800,000	-0,041	-0,117
-706,860	103,935	-0,056	-0,047
-705,845	-133,858	0,107	0,010
-704,831	-200,000	0,012	0,068
-703,816	28,555	-0,022	0,014
-702,802	79,480	0,056	-0,044
-701,787	-200,000	-0,034	-0,144
-700,772	312,478	-0,065	-0,089
-699,758	-122,456	0,029	0,003
-698,743	-164,016	0,083	-0,003
-697,729	-102,899	0,114	0,020
-696,714	800,000	-0,022	-0,066
-695,699	-43,464	-0,120	0,044
-694,685	800,000	-0,055	-0,150
-693,670	150,905	-0,043	-0,042
-692,656	36,750	-0,060	-0,039
-691,641	800,000	-0,035	-0,078
-690,627	-79,396	-0,086	0,021
-689,612	800,000	0,008	0,018
-688,597	800,000	0,040	-0,097
-687,583	-42,414	-0,022	0,008
-686,568	309,422	-0,055	0,074
-685,554	412,385	-0,004	0,006
-684,539	-132,004	0,095	0,009
-683,524	800,000	0,007	-0,019
-682,510	301,352	-0,043	0,058
-681,495	32,394	0,062	-0,039
-680,481	-200,000	-0,008	0,103
-679,466	-200,000	0,028	-0,111
-678,451	-24,808	-0,119	-0,051
-677,437	-126,644	0,035	0,004
-676,422	378,886	-0,033	0,050
-675,408	-200,000	-0,036	0,148
-674,393	506,210	0,054	-0,092
-673,378	46,125	-0,114	-0,076
-672,364	-97,178	-0,194	-0,036
-671,349	144,651	-0,008	-0,008
-670,335	149,268	-0,099	-0,097
-669,320	-125,627	0,036	0,004
-668,305	-200,000	0,005	-0,024
-667,291	-171,189	0,118	0,003
-666,276	54,511	0,094	0,066
-665,262	80,068	-0,110	-0,086
-664,247	263,165	-0,094	-0,119
-663,232	-200,000	0,008	-0,124
-662,218	800,000	-0,022	0,057
-661,203	160,849	-0,094	0,096
-660,189	-200,000	0,044	-0,197
-659,174	383,192	-0,060	-0,090
-658,159	558,507	-0,087	-0,152
-657,145	800,000	-0,024	-0,072
-656,130	149,206	0,040	-0,040
-655,116	443,529	-0,012	0,019
-654,101	800,000	0,023	-0,049
-653,086	275,683	0,092	0,119
-652,072	-137,866	0,032	-0,003
-651,057	117,666	-0,158	0,141
-650,043	800,000	0,019	-0,058
-649,028	-200,000	-0,014	-0,085
-648,014	187,831	0,011	-0,012
-646,999	-30,339	-0,030	0,012
-645,984	-42,870	-0,075	-0,027
-644,970	-84,888	0,142	-0,032
-643,955	95,637	-0,109	-0,090
-642,941	-200,000	0,034	-0,139
-641,926	13,428	-0,165	-0,093
-640,911	-125,282	-0,078	-0,009
-639,897	-22,370	0,111	0,049
-638,882	45,583	0,031	-0,021
-637,868	-78,751	-0,138	-0,034
-636,853	-79,379	-0,086	0,021
-635,838	-200,000	-0,012	-0,152
-634,824	67,198	0,087	-0,064
-633,809	655,871	0,009	0,018
-632,795	-160,954	-0,045	-0,002
-631,780	-200,000	0,016	0,072
-630,765	-81,453	-0,182	0,043
-629,751	-66,782	-0,056	-0,016
-628,736	-31,801	-0,144	0,058
-627,722	-84,241	0,097	-0,022
-626,707	377,638	0,058	0,086
-625,692	-200,000	0,017	-0,117
-624,678	-200,000	0,008	0,126
-623,663	183,655	-0,024	0,026
-622,649	-158,189	0,084	0,003
-621,634	14,603	-0,099	-0,056
-620,619	-29,834	-0,045	-0,018
-619,605	162,183	0,068	-0,069
-618,590	-159,324	0,109	0,004
-617,576	800,000	-0,011	0,032
-616,561	386,021	-0,075	-0,112
-615,546	-200,000	0,077	0,000
-614,532	92,042	0,150	-0,122
-613,517	472,451	0,043	0,070
-612,503	-65,071	0,092	0,027
-611,488	-200,000	-0,050	0,220
-610,474	-200,000	-0,000	0,052
-609,459	-53,833	0,089	0,029
-608,444	494,335	0,004	0,007
-607,430	-200,000	0,022	-0,105
-606,415	-200,000	-0,014	-0,049
-605,401	144,111	0,107	-0,103
-604,386	7,309	0,071	-0,039
-603,371	-47,840	0,063	0,022
-602,357	9,134	0,069	-0,038
-601,342	166,194	-0,069	-0,071
-600,328	91,368	-0,078	0,063
-599,313	-87,613	-0,069	-0,015
-598,298	-108,351	-0,022	0,003
-597,284	-37,979	0,120	0,046
-596,269	166,274	0,108	0,111
-595,255	67,428	-0,038	-0,028
-594,240	781,933	0,021	-0,042
-593,225	138,566	0,069	-0,066
-592,211	800,000	-0,054	-0,110
-591,196	800,000	-0,034	-0,088
-590,182	-171,281	-0,049	-0,001
-589,167	800,000	0,020	-0,043
-588,152	29,388	0,018	-0,011
-587,138	-134,287	0,062	0,005
-586,123	800,000	-0,041	-0,084
-585,109	265,928	-0,043	-0,055
-584,094	528,467	0,084	-0,143
-583,079	-193,321	0,063	-0,000
-582,065	800,000	0,066	0,202
-581,050	-22,343	-0,059	-0,026
-580,036	-83,675	-0,047	-0,011
-579,021	-121,064	-0,149	0,018
-578,006	-90,780	-0,115	0,024
-576,992	369,232	0,030	0,043
-575,977	-200,000	-0,016	-0,074
-574,963	800,000	-0,026	-0,069
-573,948	-194,308	0,071	-0,000
-572,934	-62,922	-0,044	0,013
-571,919	412,013	-0,055	-0,084
-570,904	147,491	0,036	-0,035
-569,890	675,156	-0,007	0,014
-568,875	513,999	0,050	-0,084
-567,861	67,163	0,056	-0,042
-566,846	37,928	-0,089	-0,057
-565,831	-200,000	-0,042	-0,148
-564,817	-17,817	-0,015	0,007
-563,802	1,001	-0,165	-0,085
-562,788	800,000	-0,049	-0,123
-561,773	-200,000	0,022	0,076
-560,758	3,001	0,088	0,046
-559,744	800,000	0,015	0,045
-558,729	-58,626	0,030	-0,009
-557,715	-69,983	-0,148	-0,041
-556,700	562,857	-0,072	-0,127
-555,685	-83,458	-0,098	-0,022
-554,671	-200,000	-0,019	-0,132
-553,656	-15,396	-0,051	-0,024
-552,642	-200,000	0,051	0,175
-551,627	800,000	-0,008	0,019
-550,612	379,330	-0,075	0,111
-549,598	-200,000	-0,014	-0,063
-548,583	800,000	-0,071	-0,160
-547,569	-172,233	0,034	0,001
-546,554	701,872	0,025	0,048
-545,539	-152,350	-0,070	0,004
-544,525	51,408	0,075	0,051
-543,510	382,800	-0,021	-0,031
-542,496	-82,825	0,038	-0,009
-541,481	-83,408	0,028	0,007
-540,466	222,902	0,069	0,081
-539,452	282,254	-0,082	0,107
-538,437	-59,013	0,083	0,026
-537,423	-115,069	-0,023	-0,003
-536,408	-200,000	0,007	0,066
-535,393	800,000	-0,032	-0,072
-534,379	178,242	-0,090	-0,095
-533,364	-35,671	0,095	0,037
-532,350	800,000	-0,017	-0,053
-531,335	260,847	0,025	-0,032
-530,321	18,446	0,070	0,040
-529,306	800,000	0,025	-0,073
-528,291	400,647	-0,017	-0,026
-527,277	1,321	-0,143	0,074
-526,262	53,435	0,042	-0,029
-525,248	-50,615	-0,033	0,011
-524,233	398,475	-0,059	-0,090
-523,218	593,083	0,068	0,122
-522,204	800,000	0,027	-0,074
-521,189	343,324	-0,092	-0,131
-520,175	-200,000	0,003	-0,014
-519,160	85,914	-0,048	-0,038
-518,145	48,239	0,099	-0,067
-517,131	482,595	-0,041	0,067
-516,116	-200,000	-0,006	0,047
-515,102	-108,652	0,135	0,021
-514,087	-142,475	-0,060	-0,004
-513,072	45,342	-0,026	0,018
-512,058	126,902	0,040	0,037
-511,043	0,849	0,137	-0,070
-510,029	-197,042	0,182	-0,001
-509,014	-78,140	-0,038	0,009
-507,999	592,452	0,055	0,098
-506,985	-28,260	-0,068	-0,028
-505,970	-148,591	0,119	-0,007
-504,956	-200,000	-0,010	-0,095
-503,941	99,040	-0,039	0,032
-502,926	-200,000	0,003	-0,149
-501,912	31,991	0,109	-0,068
-500,897	31,255	0,131	0,081
-499,883	800,000	0,009	-0,018
-498,868	49,972	-0,023	-0,016
-497,853	800,000	-0,016	-0,039
-496,839	47,917	0,046	-0,031
-495,824	800,000	-0,023	0,060
-494,810	800,000	0,040	0,115
-493,795	144,899	0,011	0,010
-492,781	-40,897	0,012	-0,004
-491,766	800,000	0,046	0,129
-490,751	-200,000	0,005	0,062
-489,737	-186,199	0,101	-0,001
-488,722	-200,000	-0,003	0,058
-487,708	-95,715	0,024	0,005
-486,693	162,911	-0,049	0,050
-485,678	529,631	0,058	0,099
-484,664	800,000	-0,027	-0,060
-483,649	411,922	-0,095	-0,146
-482,635	-66,668	0,112	0,032
-481,620	59,967	-0,035	0,025
-480,605	-74,322	-0,044	0,011
-479,591	305,416	-0,116	0,156
-478,576	-178,533	-0,114	0,002
-477,562	111,971	-0,073	-0,064
-476,547	-200,000	-0,013	-0,052
-475,532	-164,218	0,107	0,003
-474,518	-150,357	0,138	-0,008
-473,503	-200,000	0,006	0,090
-472,489	260,636	0,078	0,097
-471,474	-200,000	-0,024	0,121
-470,459	-138,436	-0,131	0,010
-469,445	-200,000	0,005	-0,032
-468,430	-128,457	-0,059	-0,006
-467,416	800,000	0,055	0,139
-466,401	800,000	-0,029	0,079
-465,386	-200,000	-0,003	0,073
-464,372	-200,000	-0,019	-0,099
-463,357	-116,493	-0,133	0,018
-462,343	-155,103	0,082	0,004
-461,328	800,000	-0,109	-0,232
-460,313	-16,701	0,173	-0,079
-459,299	-200,000	0,043	-0,148
-458,284	60,188	0,121	0,086
-457,270	-107,355	0,197	-0,031
-456,255	800,000	-0,028	-0,080
-455,241	104,248	-0,074	0,063
-454,226	38,515	0,037	-0,023
-453,211	10,349	0,184	-0,101
-452,197	800,000	-0,012	0,029
-451,182	-200,000	0,023	0,122
-450,168	-123,231	-0,039	-0,004
-449,153	46,224	-0,056	-0,037
-448,138	367,970	-0,081	-0,119
-447,124	-200,000	0,001	0,013
-446,109	36,100	-0,120	-0,076
-445,095	-200,000	0,002	-0,020
-444,080	146,577	0,089	-0,086
-443,065	-200,000	0,006	0,053
-442,051	-91,763	0,074	-0,015
-441,036	-31,495	-0,093	-0,038
-440,022	380,577	-0,010	0,014
-439,007	800,000	-0,006	-0,018
-437,992	-184,135	0,095	0,001
-436,978	51,267	0,187	0,127
-435,963	800,000	0,035	0,099
-434,949	30,903	-0,030	-0,018
-433,934	-14,896	-0,106	0,049
-432,919	-22,128	-0,117	0,051
-431,905	-200,000	0,001	0,067
-430,890	-80,428	0,094	0,022
-429,876	800,000	0,060	0,146
-428,861	-161,976	-0,068	0,002
-427,846	-200,000	-0,007	0,119
-426,832	-200,000	-0,005	0,076
-425,817	-200,000	-0,003	-0,102
-424,803	-200,000	0,007	0,046
-423,788	64,698	0,092	0,067
-422,773	-200,000	-0,044	0,145
-421,759	-200,000	-0,005	-0,095
-420,744	24,748	0,066	-0,039
-419,730	539,853	-0,069	-0,118
-418,715	452,222	-0,118	-0,188
-417,701	172,970	-0,027	0,028
-416,686	-200,000	-0,001	0,061
-415,671	800,000	-0,039	0,102
-414,657	126,183	-0,068	-0,062
-413,642	-141,458	0,067	-0,005
-412,628	34,216	-0,104	0,065
-411,613	-200,000	0,001	-0,020
-410,598	318,767	0,051	-0,069
-409,584	-200,000	-0,013	0,115
-408,569	51,069	0,053	-0,036
-407,555	683,435	0,013	0,024
-406,540	100,298	0,055	-0,046
-405,525	800,000	-0,040	0,083
-404,511	-180,966	-0,028	-0,000
-403,496	-200,000	0,014	-0,160
-402,482	800,000	0,028	0,088
-401,467	11,715	0,033	0,018
-400,452	338,837	-0,076	0,107
-399,438	403,415	-0,066	0,100
-398,423	49,623	0,039	-0,026
-397,409	17,670	-0,050	-0,028
-396,394	-200,000	-0,054	-0,213
-395,379	-8,908	0,104	0,050
-394,365	-137,282	-0,064	-0,005
-393,350	-200,000	-0,001	0,018
-392,336	-200,000	-0,018	-0,083
-391,321	-140,599	-0,110	-0,008
-390,306	192,769	-0,114	-0,124
-389,292	-14,877	-0,153	-0,070
-388,277	21,132	0,041	0,024
-387,263	746,015	0,068	-0,133
-386,248	4,486	0,088	-0,046
-385,233	4,942	0,105	0,055
-384,219	-200,000	0,012	-0,047
-383,204	-146,037	-0,085	0,005
-382,190	57,422	-0,057	0,040
-381,175	800,000	-0,034	-0,074
-380,160	153,637	0,017	0,017
-379,146	-200,000	0,035	0,139
-378,131	73,586	0,034	0,025
-377,117	94,992	-0,045	-0,037
-376,102	-82,363	0,051	0,012
-375,088	-154,004	-0,253	-0,012
-374,073	40,948	0,121	0,078
-373,058	-65,996	-0,132	0,038
-372,044	38,543	-0,026	-0,016
-371,029	-154,292	0,088	-0,004
-370,015	-68,010	-0,048	0,013
-369,000	-200,000	0,002	0,039
-367,985	800,000	-0,024	-0,070
-366,971	-149,998	-0,148	0,008
-365,956	-50,655	0,090	0,030
-364,942	-200,000	-0,048	0,206
-363,927	511,167	0,016	-0,026
-362,912	-200,000	0,021	0,072
-361,898	57,109	-0,040	-0,028
-360,883	-17,968	-0,033	-0,015
-359,869	17,424	-0,124	0,070
-358,854	800,000	0,022	0,047
-357,839	27,769	0,037	0,022
-356,825	568,947	-0,038	-0,066
-355,810	-200,000	-0,002	0,024
-354,796	63,331	-0,041	0,030
-353,781	-78,098	-0,137	-0,034
-352,766	-187,731	0,127	-0,001
-351,752	312,156	-0,035	0,047
-350,737	279,251	0,039	0,050
-349,723	53,675	0,095	0,065
-348,708	88,248	-0,086	-0,068
-347,693	59,188	-0,064	-0,045
-346,679	-200,000	0,024	0,135
-345,664	-190,571	0,095	-0,001
-344,650	36,672	0,054	-0,034
-343,635	-2,717	-0,022	-0,011
-342,620	-92,166	0,161	0,032
-341,606	-14,125	-0,075	0,035
-340,591	278,205	0,093	-0,119
-339,577	-106,517	-0,114	0,018
-338,562	-200,000	-0,014	-0,072
-337,548	1,946	-0,108	0,056
-336,533	-136,301	-0,085	0,007
-335,518	-9,301	0,156	0,074
-334,504	-200,000	-0,027	0,122
-333,489	364,247	-0,027	0,039
-332,475	-22,074	0,039	0,017
-331,460	-200,000	0,013	-0,048
-330,445	-80,754	-0,099	0,023
-329,431	208,892	0,075	0,084
-328,416	-200,000	-0,016	-0,109
-327,402	436,843	-0,046	0,072
-326,387	397,539	0,019	0,028
-325,372	-55,651	-0,036	-0,011
-324,358	94,205	-0,127	-0,104
-323,343	-94,514	-0,121	0,023
-322,329	-149,995	0,097	0,005
-321,314	154,673	0,033	0,032
-320,299	-200,000	-0,003	0,120
-319,285	-44,812	0,041	-0,014
-318,270	-97,712	0,125	-0,023
-317,256	-200,000	0,027	-0,102
-316,241	48,779	0,126	0,084
-315,226	17,593	0,022	0,013
-314,212	-17,663	0,042	0,019
-313,197	294,228	-0,049	0,065
-312,183	669,071	0,090	0,168
-311,168	-103,032	-0,098	0,016
-310,153	151,641	0,015	-0,015
-309,139	-118,387	0,105	0,013
-308,124	117,109	-0,009	-0,008
-307,110	-200,000	0,015	0,149
-306,095	-200,000	-0,024	0,109
-305,080	-200,000	-0,009	-0,065
-304,066	-160,196	0,101	-0,004
-303,051	201,057	-0,050	-0,056
-302,037	323,823	-0,059	-0,081
-301,022	629,427	-0,051	-0,093
-300,008	-158,628	0,038	0,002
-298,993	47,360	0,029	0,019
-297,978	-47,786	0,127	0,044
-296,964	-67,508	-0,104	-0,029
-295,949	776,286	-0,065	-0,127
-294,935	-58,201	-0,019	-0,006
-293,920	43,033	0,009	-0,006
-292,905	217,070	-0,003	-0,003
-291,891	-156,485	-0,165	-0,007
-290,876	108,517	0,044	0,038
-289,862	800,000	-0,045	-0,116
-288,847	800,000	0,008	0,023
-287,832	800,000	0,004	0,010
-286,818	-200,000	-0,004	-0,096
-285,803	-11,136	0,079	-0,037
-284,789	-41,792	0,095	0,035
-283,774	800,000	0,050	-0,123
-282,759	-68,990	0,093	-0,025
-281,745	-200,000	-0,026	0,160
-280,730	-147,649	-0,010	0,001
-279,716	-200,000	0,031	-0,154
-278,701	-31,169	0,034	-0,014
-277,686	-106,304	0,070	-0,011
-276,672	-200,000	0,013	-0,074
-275,657	284,905	0,116	-0,150
-274,643	800,000	0,038	0,080
-273,628	800,000	-0,027	-0,072
-272,613	800,000	-0,022	-0,050
-271,599	-115,257	0,083	-0,011
-270,584	800,000	-0,040	-0,093
-269,570	182,574	-0,050	-0,052
-268,555	-200,000	-0,010	-0,067
-267,540	-72,407	-0,087	-0,023
-266,526	58,789	0,035	0,025
-265,511	-80,172	-0,103	-0,024
-264,497	800,000	0,051	0,106
-263,482	434,722	0,037	0,058
-262,467	800,000	0,045	0,117
-261,453	-200,000	-0,007	0,039
-260,438	-101,635	-0,163	-0,028
-259,424	-185,825	0,008	0,000
-258,409	-200,000	0,002	-0,063
-257,395	-21,162	-0,091	-0,040
-256,380	-200,000	0,012	0,054
-255,365	249,155	0,064	-0,077
-254,351	232,627	-0,016	-0,018
-253,336	448,862	-0,069	-0,108
-252,322	-200,000	-0,031	0,124
-251,307	135,179	0,036	-0,033
-250,292	204,072	0,044	-0,049
-249,278	-200,000	0,004	0,052
-248,263	399,206	-0,019	-0,029
-247,249	118,749	-0,056	0,049
-246,234	-164,961	-0,070	0,002
-245,219	-200,000	-0,002	-0,126
-244,205	-200,000	0,013	0,112
-243,190	-78,490	0,087	0,021
-242,176	800,000	0,037	0,103
-241,161	656,067	-0,067	0,124
-240,146	698,523	-0,025	0,047
-239,132	-200,000	0,004	-0,038
-238,117	12,722	-0,075	-0,041
-237,103	539,966	-0,090	-0,154
-236,088	-64,657	0,023	0,007
-235,073	-80,646	-0,126	0,030
-234,059	-167,645	-0,088	-0,002
-233,044	93,951	-0,095	-0,077
-232,030	-128,229	0,068	0,007
-231,015	-68,859	0,156	0,043
-230,000	-151,518	0,120	-0,006
-228,986	-41,351	-0,070	0,026
-227,971	134,475	0,098	0,091
-226,957	101,950	0,119	0,099
-225,942	15,941	0,059	0,033
-224,927	-68,501	0,071	0,020
-223,913	-23,845	-0,089	0,038
-222,898	117,791	-0,081	0,071
-221,884	-200,000	0,004	-0,027
-220,869	-112,314	0,143	-0,020
-219,855	-200,000	0,002	0,166
-218,840	-200,000	-0,003	0,063
-217,825	800,000	-0,016	-0,046
-216,811	800,000	-0,066	0,147
-215,796	-200,000	-0,004	-0,106
-214,782	-80,539	0,077	0,018
-213,767	-138,558	0,029	-0,002
-212,752	-200,000	0,000	0,004
-211,738	-200,000	0,006	0,083
-210,723	7,881	0,041	0,022
-209,709	800,000	-0,009	0,023
-208,694	-200,000	0,011	-0,056
-207,679	-0,146	-0,058	0,029
-206,665	800,000	0,025	0,063
-205,650	-64,807	0,115	0,033
-204,636	85,901	0,067	0,052
-203,621	718,127	-0,033	-0,064
-202,606	-200,000	0,007	-0,089
-201,592	-200,000	-0,010	-0,067
-200,577	-200,000	-0,000	-0,156
-199,563	-167,341	0,078	0,002
-198,548	-200,000	0,023	-0,113
-197,533	11,405	-0,126	0,069
-196,519	131,082	0,128	0,118
-195,504	-70,048	0,094	-0,025
-194,490	-200,000	-0,009	-0,057
-193,475	32,804	-0,163	-0,100
-192,460	24,131	0,114	0,067
-191,446	-200,000	0,014	-0,047
-190,431	-200,000	-0,002	0,127
-189,417	-200,000	0,011	0,038
-188,402	335,171	-0,114	0,158
-187,387	168,856	-0,095	-0,097
-186,373	-200,000	-0,051	-0,184
-185,358	-200,000	0,029	-0,146
-184,344	747,082	0,031	0,059
-183,329	576,669	-0,065	0,114
-182,315	800,000	0,076	0,210
-181,300	-164,940	-0,102	-0,003
-180,285	234,111	0,022	-0,026
-179,271	32,156	0,012	-0,007
-178,256	210,822	0,033	0,037
-177,242	265,905	0,021	-0,026
-176,227	-200,000	-0,015	0,145
-175,212	568,592	0,044	0,077
-174,198	-200,000	-0,025	-0,100
-173,183	-55,331	-0,036	-0,012
-172,169	114,832	-0,082	-0,071
-171,154	120,352	-0,116	0,103
-170,139	508,093	0,030	-0,049
-169,125	-136,022	0,053	-0,004
-168,110	31,866	0,082	-0,050
-167,096	-178,986	-0,065	0,001
-166,081	-200,000	-0,002	0,061
-165,066	-200,000	0,000	-0,106
-164,052	-200,000	0,006	-0,082
-163,037	-130,681	0,060	0,006
-162,023	266,997	-0,095	0,119
-161,008	595,050	0,062	0,109
-159,993	129,773	-0,058	0,053
-158,979	800,000	0,031	0,072
-157,964	-200,000	0,031	0,210
-156,950	-184,002	0,069	0,001
-155,935	228,438	-0,081	-0,094
-154,920	88,036	0,157	0,124
-153,906	557,355	0,036	0,063
-152,891	-109,998	-0,118	-0,017
-151,877	-200,000	-0,001	-0,032
-150,862	-144,830	-0,144	-0,009
-149,847	-81,478	0,023	-0,005
-148,833	-1,275	0,018	-0,009
-147,818	295,140	-0,027	-0,035
-146,804	800,000	0,034	0,092
-145,789	-8,980	-0,040	-0,019
-144,775	-89,541	-0,157	-0,032
-143,760	152,893	-0,028	0,027
-142,745	-200,000	0,000	0,033
-141,731	112,490	-0,027	0,023
-140,716	46,651	0,035	-0,023
-139,702	-200,000	-0,006	-0,028
-138,687	-62,521	-0,051	0,015
-137,672	-93,472	0,063	0,012
-136,658	261,405	-0,029	0,036
-135,643	86,372	-0,046	0,036
-134,629	-200,000	-0,019	-0,125
-133,614	97,087	0,046	-0,037
-132,599	-200,000	-0,019	-0,071
-131,585	163,466	-0,026	0,026
-130,570	-200,000	-0,004	0,029
-129,556	800,000	0,010	-0,031
-128,541	-36,513	-0,084	-0,032
-127,526	121,173	0,090	-0,080
-126,512	800,000	0,036	0,092
-125,497	164,404	0,036	0,036
-124,483	56,508	0,023	0,016
-123,468	-200,000	0,052	0,188
-122,453	-200,000	-0,007	-0,085
-121,439	562,534	0,037	-0,064
-120,424	800,000	-0,020	0,043
-119,410	148,406	-0,043	0,041
-118,395	-34,619	0,132	-0,051
-117,380	156,193	-0,086	0,084
-116,366	-200,000	0,006	0,067
-115,351	269,285	-0,090	0,112
-114,337	-30,510	-0,162	-0,065
-113,322	-200,000	0,004	-0,076
-112,307	74,583	0,117	-0,087
-111,293	800,000	0,017	-0,051
-110,278	517,768	-0,028	0,046
-109,264	-200,000	0,018	-0,061
-108,249	800,000	0,035	-0,087
-107,234	-142,800	0,056	0,004
-106,220	70,150	-0,086	-0,063
-105,205	-35,372	0,099	-0,038
-104,191	-200,000	-0,010	0,106
-103,176	-200,000	0,025	0,118
-102,162	155,281	-0,029	0,028
-101,147	-94,473	-0,042	0,008
-100,132	-39,336	-0,092	0,034
-99,118	-200,000	0,009	0,110
-98,103	695,547	0,025	0,047
-97,089	-140,615	0,049	0,004
-96,074	800,000	0,046	0,133
-95,059	-123,369	0,058	0,007
-94,045	7,719	-0,084	-0,044
-93,030	202,553	0,182	0,199
-92,016	-106,739	-0,087	-0,014
-91,001	-200,000	-0,008	-0,039
-89,986	38,334	0,113	-0,072
-88,972	800,000	0,042	-0,109
-87,957	-200,000	0,023	0,124
-86,943	59,676	-0,103	0,072
-85,928	-53,902	-0,141	-0,045
-84,913	53,957	0,102	-0,069
-83,899	-200,000	-0,014	-0,064
-82,884	332,778	0,082	-0,113
-81,870	702,086	0,072	0,135
-80,855	-9,477	0,053	0,025
-79,840	-56,627	0,047	-0,015
-78,826	-119,543	-0,212	-0,026
-77,811	131,452	-0,080	-0,073
-76,797	340,740	0,009	0,013
-75,782	-91,347	0,145	-0,029
-74,767	778,325	0,005	-0,010
-73,753	-93,142	-0,093	0,018
-72,738	310,940	-0,018	0,023
-71,724	297,305	-0,082	0,107
-70,709	800,000	-0,053	-0,129
-69,694	354,840	-0,098	-0,138
-68,680	155,612	0,068	0,067
-67,665	285,264	-0,139	-0,178
-66,651	-74,588	0,082	-0,021
-65,636	-200,000	0,023	0,155
-64,622	-200,000	0,017	-0,063
-63,607	141,798	-0,083	-0,078
-62,592	10,682	0,089	0,048
-61,578	-58,233	0,067	-0,021
-60,563	66,630	0,040	-0,029
-59,549	99,665	-0,068	0,056
-58,534	-99,450	-1,265	-0,224
-57,519	337,047	-1,560	-2,156
-56,505	-200,000	-0,384	-4,411
-55,490	84,150	0,908	0,703
-54,476	800,000	4,715	11,268
-53,461	-200,000	17,288	268,274
-52,446	800,000	715,009	2178,611
-51,432	551,027	1629,743	2784,892
-50,417	81,303	1655,202	1267,458
-49,403	24,382	1529,542	894,567
-48,388	18,419	1452,919	821,058
-47,373	18,523	1442,451	815,610
-46,359	18,245	1433,333	809,098
-45,344	16,721	1428,550	799,139
-44,330	16,637	1426,737	797,694
-43,315	16,632	1425,074	796,710
-42,300	16,681	1423,546	796,052
-41,286	16,699	1422,328	795,427
-40,271	16,664	1420,914	794,439
-39,257	16,625	1419,686	793,537
-38,242	16,644	1418,524	792,946
-37,227	16,660	1417,187	792,242
-36,213	16,652	1415,939	791,473
-35,198	16,641	1414,779	790,743
-34,184	16,696	1413,899	790,479
-33,169	16,609	1412,622	789,322
-32,154	16,670	1411,667	789,045
-31,140	16,697	1410,109	788,271
-30,125	16,748	1409,153	787,945
-29,111	16,706	1408,082	787,115
-28,096	16,678	1406,910	786,298
-27,082	16,575	1405,918	785,234
-26,067	16,629	1404,489	784,657
-25,052	16,592	1403,526	783,916
-24,038	16,602	1402,576	783,397
-23,023	16,587	1401,599	782,752
-22,009	16,529	1400,790	781,998
-20,994	16,515	1399,579	781,229
-19,979	16,540	1398,669	780,805
-18,965	16,471	1397,684	779,905
-17,950	16,510	1396,761	779,538
-16,936	16,509	1395,877	779,012
-15,921	16,540	1394,412	778,306
-14,906	16,491	1393,724	777,663
-13,892	16,561	1392,757	777,417
-12,877	16,517	1392,076	776,800
-11,863	16,509	1390,950	776,105
-10,848	16,509	1390,051	775,572
-9,833	16,504	1389,083	774,981
-8,819	16,430	1388,197	774,113
-7,804	16,392	1387,348	773,432
-6,790	16,409	1386,301	772,898
-5,775	16,422	1385,143	772,284
-4,760	16,387	1384,679	771,829
-3,746	16,381	1383,702	771,231
-2,731	16,371	1382,698	770,591
-1,717	16,304	1381,975	769,851
-0,702	16,390	1379,973	769,099
0,313	20,214	1301,823	743,158
1,327	36,708	707,570	442,177
2,342	56,079	125,775	86,407
3,356	2,585	16,680	8,538
4,371	3,782	3,112	1,605
5,386	-27,297	0,600	0,246
6,400	800,000	0,046	0,133
7,415	231,674	-0,189	-0,220
8,429	171,834	-0,374	-0,381
9,444	203,871	-0,303	-0,333
10,459	91,413	-0,366	-0,291
11,473	-19,596	-0,339	-0,148
12,488	135,155	-0,215	-0,198
13,502	-24,133	-0,349	-0,147
14,517	5,313	-0,299	-0,156
15,531	-58,173	-0,341	-0,105
16,546	313,617	-0,193	-0,258
17,561	3,412	-0,378	-0,194
18,575	-94,177	-0,186	-0,036
19,590	118,846	-0,266	-0,233
20,604	50,004	-0,222	-0,148
21,619	102,670	-0,472	-0,390
22,634	109,204	-0,449	-0,380
23,648	232,567	-0,393	-0,457
24,663	67,379	-0,320	-0,231
25,677	167,096	-0,266	-0,267
26,692	41,737	-0,341	-0,218
27,707	-50,299	-0,367	-0,122
28,721	95,000	-0,377	-0,303
29,736	268,078	-0,320	-0,397
30,750	76,138	-0,388	-0,290
31,765	223,046	-0,276	-0,315
32,780	26,115	-0,412	-0,243
33,794	112,462	-0,297	-0,254
34,809	235,210	-0,311	-0,363
35,823	-25,042	-0,330	-0,138
36,838	110,478	-0,465	-0,395
37,853	38,351	-0,491	-0,309
38,867	259,719	-0,364	-0,445
39,882	107,602	-0,219	-0,184
40,896	-7,949	-0,528	-0,251
41,911	24,984	-0,414	-0,242
42,926	-56,656	-0,368	-0,114
43,940	191,015	-0,284	-0,302
44,955	112,553	-0,315	-0,270
45,969	56,788	-0,378	-0,259
46,984	404,061	-0,175	-0,262
47,999	119,069	-0,300	-0,262
49,013	39,801	-0,388	-0,245
50,028	9,651	-0,382	-0,204
51,042	111,083	-0,338	-0,287
52,057	81,580	-0,341	-0,260
53,071	46,967	-0,427	-0,279
54,086	202,460	-0,273	-0,298
55,101	44,463	-0,454	-0,294
56,115	79,325	-0,348	-0,263
57,130	37,657	-0,239	-0,149
58,144	-20,230	-0,444	-0,192
59,159	621,397	-0,166	-0,297
60,174	42,739	-0,396	-0,254
61,188	43,337	-0,226	-0,146
62,203	274,717	-0,220	-0,276
63,217	51,735	-0,231	-0,155
64,232	387,908	-0,246	-0,360
65,247	-53,670	-0,521	-0,167
66,261	30,528	-0,350	-0,210
67,276	52,223	-0,314	-0,211
68,290	193,148	-0,324	-0,345
69,305	76,515	-0,316	-0,236
70,320	-76,691	-0,305	-0,075
71,334	-60,029	-0,299	-0,089
72,349	86,637	-0,387	-0,301
73,363	37,481	-0,391	-0,244
74,378	60,070	-0,353	-0,246
75,393	-0,317	-0,400	-0,199
76,407	-116,845	-0,314	-0,040
77,422	13,690	-0,305	-0,166
78,436	50,651	-0,270	-0,180
79,451	77,565	-0,309	-0,232
80,466	11,852	-0,322	-0,173
81,480	27,204	-0,325	-0,192
82,495	127,229	-0,272	-0,243
83,509	104,011	-0,398	-0,329
84,524	112,793	-0,196	-0,167
85,539	-55,376	-0,269	-0,084
86,553	167,525	-0,261	-0,261
87,568	250,631	-0,170	-0,203
88,582	100,015	-0,241	-0,197
89,597	-29,107	-0,339	-0,136
90,611	244,921	-0,142	-0,168
91,626	71,463	-0,226	-0,165
92,641	48,625	-0,350	-0,230
93,655	241,645	-0,204	-0,241
94,670	3,238	-0,299	-0,153
95,684	344,652	-0,226	-0,313
96,699	-0,809	-0,294	-0,146
97,714	-51,905	-0,281	-0,091
98,728	178,752	-0,190	-0,195
99,743	63,553	-0,269	-0,189
100,757	-55,145	-0,251	-0,079
101,772	-24,100	-0,232	-0,097
102,787	-43,914	-0,329	-0,116
103,801	110,852	-0,306	-0,259
104,816	-12,276	-0,334	-0,153
105,830	287,191	-0,141	-0,179
106,845	367,505	-0,206	-0,293
107,860	-37,926	-0,341	-0,127
108,874	82,548	-0,353	-0,269
109,889	75,556	-0,206	-0,153
110,903	177,941	-0,219	-0,225
111,918	131,800	-0,271	-0,245
112,933	223,154	-0,230	-0,260
113,947	-65,702	-0,288	-0,081
114,962	-43,360	-0,265	-0,094
115,976	6,562	-0,255	-0,132
116,991	65,567	-0,283	-0,201
118,006	800,000	-0,118	-0,312
119,020	18,813	-0,374	-0,210
120,035	339,149	-0,045	-0,062
121,049	160,185	-0,183	-0,179
122,064	106,860	-0,166	-0,138
123,079	138,797	-0,218	-0,201
124,093	548,596	-0,152	-0,257
125,108	162,316	-0,259	-0,255
126,122	692,027	-0,132	-0,244
127,137	13,831	-0,189	-0,103
128,151	75,755	-0,223	-0,165
129,166	-140,734	-0,273	0,019
130,181	114,510	-0,263	-0,225
131,195	416,956	-0,131	-0,196
132,210	-28,564	-0,345	-0,139
133,224	71,856	-0,201	-0,147
134,239	158,614	-0,216	-0,210
135,254	-50,571	-0,202	-0,066
136,268	-50,008	-0,186	-0,061
137,283	3,831	-0,410	-0,209
138,297	78,765	-0,240	-0,180
139,312	-32,256	-0,206	-0,080
140,327	374,440	-0,196	-0,280
141,341	364,998	-0,181	-0,257
142,356	249,015	-0,170	-0,202
143,370	-77,899	-0,270	-0,065
144,385	85,574	-0,274	-0,210
145,400	30,312	-0,232	-0,138
146,414	-70,674	-0,299	-0,078
147,429	73,539	-0,287	-0,210
148,443	109,803	-0,119	-0,100
149,458	209,203	-0,173	-0,190
150,473	157,858	-0,215	-0,209
151,487	131,787	-0,211	-0,190
152,502	211,354	-0,105	-0,115
153,516	186,863	-0,258	-0,269
154,531	165,570	-0,201	-0,199
155,546	-13,675	-0,329	-0,148
156,560	-111,142	-0,265	-0,038
157,575	446,245	-0,142	-0,220
158,589	20,802	-0,154	-0,087
159,604	450,265	-0,130	-0,201
160,619	146,639	-0,185	-0,174
161,633	397,868	-0,217	-0,318
162,648	71,339	-0,205	-0,148
163,662	75,424	-0,183	-0,135
164,677	71,444	-0,151	-0,110
165,692	-187,398	-0,217	0,002
166,706	95,148	-0,188	-0,150
167,721	72,426	-0,225	-0,163
168,735	-94,817	-0,293	-0,055
169,750	-30,084	-0,345	-0,136
170,764	59,724	-0,212	-0,146
171,779	800,000	-0,113	-0,275
172,794	64,071	-0,140	-0,098
173,808	-10,894	-0,174	-0,080
174,823	219,707	-0,230	-0,258
175,837	70,969	-0,266	-0,192
176,852	30,131	-0,262	-0,155
177,867	135,863	-0,163	-0,148
178,881	-83,779	-0,215	-0,047
179,896	-62,693	-0,116	-0,033
180,910	0,882	-0,217	-0,108
181,925	63,865	-0,185	-0,130
182,940	211,550	-0,219	-0,241
183,954	76,418	-0,233	-0,172
184,969	60,352	-0,244	-0,168
185,983	705,537	-0,127	-0,235
186,998	42,605	-0,169	-0,107
188,013	100,075	-0,158	-0,128
189,027	71,095	-0,227	-0,164
190,042	55,900	-0,188	-0,127
191,056	-5,864	-0,300	-0,143
192,071	-20,243	-0,235	-0,100
193,086	148,228	-0,106	-0,100
194,100	800,000	-0,067	-0,187
195,115	-44,519	-0,364	-0,126
196,129	-27,520	-0,230	-0,093
197,144	-38,705	-0,229	-0,084
198,159	-2,315	-0,211	-0,103
199,173	-38,283	-0,246	-0,090
200,188	455,183	-0,076	-0,118
201,202	135,880	-0,181	-0,164
202,217	-49,259	-0,195	-0,064
203,232	184,709	-0,170	-0,175
204,246	427,761	-0,190	-0,287
205,261	265,384	-0,220	-0,268
206,275	-14,088	-0,169	-0,076
207,290	-72,120	-0,181	0,046
208,304	-91,012	-0,238	0,047
209,319	53,159	-0,278	-0,185
210,334	162,378	-0,185	-0,180
211,348	-57,218	-0,227	-0,069
212,363	89,189	-0,187	-0,145
213,377	-43,174	-0,247	-0,087
214,392	218,888	-0,160	-0,178
215,407	358,213	-0,144	-0,200
216,421	800,000	-0,072	-0,148
217,436	182,917	-0,186	-0,191
218,450	-191,542	-0,169	-0,001
219,465	6,493	-0,233	-0,120
220,480	283,947	-0,151	-0,190
221,494	-78,379	-0,206	-0,049
222,509	414,520	-0,182	-0,270
223,523	125,010	-0,129	-0,113
224,538	800,000	-0,063	-0,178
225,553	-34,074	-0,116	-0,044
226,567	-79,301	-0,156	-0,036
227,582	800,000	-0,107	-0,211
228,596	-23,080	-0,202	-0,084
229,611	-115,016	-0,166	0,022
230,626	800,000	-0,073	-0,145
231,640	-66,877	-0,196	-0,053
232,655	106,460	-0,172	-0,141
233,669	65,780	-0,235	-0,165
234,684	80,879	-0,115	-0,086
235,699	162,343	-0,172	-0,168
236,713	-31,291	-0,103	-0,040
237,728	-76,727	-0,202	-0,049
238,742	18,760	-0,230	-0,128
239,757	-18,074	-0,299	-0,130
240,772	94,800	-0,227	-0,179
241,786	127,961	-0,155	-0,136
242,801	132,059	-0,181	-0,161
243,815	460,877	-0,149	-0,231
244,830	-26,307	-0,130	-0,053
245,844	-82,283	-0,221	-0,050
246,859	800,000	-0,116	-0,278
247,874	-37,075	-0,164	-0,061
248,888	249,272	-0,129	-0,152
249,903	-169,389	-0,185	-0,005
250,917	-13,482	-0,208	-0,093
251,932	-76,092	-0,123	-0,030
252,947	-52,991	-0,074	0,023
253,961	-99,861	-0,172	-0,029
254,976	-91,944	-0,209	-0,041
255,990	-35,635	-0,262	-0,098
257,005	228,089	-0,105	-0,118
258,020	69,897	-0,132	-0,094
259,034	-43,269	-0,142	-0,050
260,049	137,070	-0,237	-0,215
261,063	26,397	-0,257	-0,148
262,078	478,984	-0,127	-0,200
263,093	102,025	-0,214	-0,173
264,107	378,231	-0,083	-0,119
265,122	87,569	-0,084	-0,064
266,136	-64,738	-0,141	-0,039
267,151	295,737	-0,032	0,041
268,166	1,385	-0,166	-0,082
269,180	-6,024	-0,164	-0,077
270,195	43,472	-0,185	-0,117
271,209	340,464	-0,123	-0,167
272,224	800,000	-0,096	-0,213
273,239	-4,229	-0,149	-0,071
274,253	-200,000	-0,136	0,000
275,268	800,000	-0,094	-0,191
276,282	-27,507	-0,188	-0,075
277,297	54,717	-0,211	-0,141
278,312	800,000	-0,121	-0,272
279,326	-138,097	-0,123	-0,009
280,341	-71,552	-0,178	-0,046
281,355	222,840	-0,146	-0,163
282,370	154,526	-0,202	-0,192
283,384	87,144	-0,241	-0,184
284,399	149,601	-0,119	-0,111
285,414	44,817	-0,145	-0,092
286,428	-72,093	-0,208	-0,053
287,443	54,054	-0,073	-0,048
288,457	379,903	-0,052	-0,074
289,472	-161,988	-0,257	0,009
290,487	-85,213	-0,216	-0,046
291,501	53,025	-0,217	-0,143
292,516	-110,346	-0,135	0,019
293,530	156,954	-0,168	-0,161
294,545	-200,000	0,028	-0,167
295,560	251,941	-0,168	-0,198
296,574	6,356	-0,239	-0,122
297,589	69,260	-0,182	-0,129
298,603	69,002	-0,165	-0,117
299,618	-3,884	-0,165	-0,079
300,633	84,375	-0,159	-0,120
301,647	94,627	-0,129	-0,101
302,662	-1,283	-0,087	-0,042
303,676	800,000	-0,033	0,069
304,691	-124,900	-0,175	0,018
305,706	177,078	-0,160	-0,161
306,720	800,000	-0,135	-0,259
307,735	60,333	-0,225	-0,154
308,749	116,035	-0,143	-0,121
309,764	375,282	-0,142	-0,200
310,779	-88,128	-0,215	-0,044
311,793	393,733	-0,117	-0,169
312,808	204,520	-0,174	-0,186
313,822	445,315	-0,111	-0,169
314,837	585,957	-0,067	-0,113
315,852	800,000	-0,071	-0,177
316,866	-200,000	-0,130	-0,000
317,881	117,370	-0,100	-0,085
318,895	425,540	-0,166	-0,248
319,910	274,635	-0,205	-0,251
320,925	536,384	-0,103	-0,169
321,939	800,000	-0,079	-0,176
322,954	-68,916	-0,063	-0,017
323,968	800,000	-0,073	-0,177
324,983	800,000	-0,036	-0,088
325,997	-16,015	-0,173	-0,076
327,012	120,879	-0,176	-0,151
328,027	-17,449	-0,094	-0,041
329,041	-95,323	-0,223	-0,041
330,056	-190,284	-0,197	0,001
331,070	800,000	-0,012	-0,028
332,085	-200,000	-0,034	-0,141
333,100	150,456	-0,145	-0,136
334,114	-200,000	0,009	-0,192
335,129	-100,336	-0,142	-0,024
336,143	270,012	-0,074	-0,090
337,158	211,585	-0,162	-0,176
338,173	-26,575	-0,153	-0,061
339,187	-77,436	-0,213	-0,051
340,202	-52,712	-0,166	-0,052
341,216	305,794	-0,164	-0,211
342,231	423,491	-0,186	-0,275
343,246	100,090	-0,208	-0,166
344,260	-200,000	-0,022	-0,157
345,275	241,993	-0,072	0,083
346,289	114,917	-0,029	-0,024
347,304	-71,789	-0,131	-0,033
348,319	38,747	-0,279	-0,171
349,333	-10,543	-0,199	-0,090
350,348	281,758	-0,148	-0,183
351,362	577,922	-0,075	-0,127
352,377	-154,810	-0,088	-0,004
353,392	-49,854	-0,122	0,040
354,406	242,476	-0,153	-0,177
355,421	208,329	1316,098	1415,731
356,435	160,292	1477,033	1416,256
