DTS Sentinel unit serial number:	SN410029Multiplexer serial number:	ORYXHardware model number:	OX2-SRSoftware version number:	ORYX F/W v4,00 Oryx Data Collector v3.7.2.0data status	okinstallation	B3 Nyhavnadifferential loss correction	single-endedforward channel	channel 1reverse channel	N/Adate	2023/11/30time	07:37:30forward acquisition time	300,00reverse acquisition time	0,00gamma	499,1914k internal	0,3211k external	0,3211temperature offset calibration	1,0000default loss term (dB/km)	0,3820temperature slope calibration	1,0000multiplexer offset coefficient	1,0000multiplexer slope coefficient	1,0000fibre end	0,00T internal ref (°C)	9,97T ext. ref 1 (°C)	-5,69T ext. ref 2 (°C)	-5,77length (m)	temperature (°C)	Stokes	anti-Stokes-744,400	165,005	-0,246	-0,252
-743,385	-200,000	0,030	0,307
-742,371	800,000	-0,040	-0,116
-741,356	-200,000	-0,048	0,429
-740,342	448,825	-0,151	-0,243
-739,327	-200,000	-0,031	0,197
-738,312	112,167	-0,292	-0,256
-737,298	-200,000	-0,043	0,223
-736,283	800,000	-0,126	-0,338
-735,269	-200,000	0,023	0,288
-734,254	77,022	-0,193	-0,149
-733,239	306,613	-0,161	0,218
-732,225	236,203	-0,182	-0,219
-731,210	-37,735	0,106	0,041
-730,196	-200,000	-0,011	-0,152
-729,181	-32,484	-0,032	-0,013
-728,167	-65,978	-0,046	0,013
-727,152	83,870	0,070	-0,056
-726,137	231,103	-0,081	-0,096
-725,123	800,000	-0,011	-0,034
-724,108	-13,124	0,022	-0,010
-723,094	-21,643	-0,075	-0,033
-722,079	-107,888	0,077	-0,012
-721,064	231,682	0,077	0,092
-720,050	183,584	-0,006	-0,007
-719,035	-200,000	0,000	0,041
-718,021	-124,858	-0,081	-0,009
-717,006	149,146	0,049	-0,048
-715,991	145,174	-0,131	-0,127
-714,977	285,550	0,020	0,026
-713,962	-145,056	-0,212	-0,014
-712,948	-73,254	0,116	0,031
-711,933	-174,626	-0,111	0,002
-710,918	34,190	0,069	-0,043
-709,904	-88,301	-0,152	-0,033
-708,889	732,554	0,050	-0,098
-707,875	800,000	0,025	-0,065
-706,860	371,512	-0,011	-0,016
-705,845	800,000	0,072	-0,152
-704,831	-32,876	0,075	-0,030
-703,816	-89,164	0,006	-0,001
-702,802	-1,088	-0,154	-0,078
-701,787	-59,545	-0,088	0,027
-700,772	702,140	0,031	-0,059
-699,758	-36,437	0,122	0,047
-698,743	-28,610	-0,055	0,023
-697,729	-200,000	0,026	0,094
-696,714	800,000	-0,034	0,070
-695,699	-200,000	-0,034	-0,146
-694,685	-121,472	-0,203	-0,024
-693,670	-200,000	0,024	-0,191
-692,656	652,124	-0,028	-0,053
-691,641	-136,015	0,116	-0,010
-690,627	8,123	-0,054	-0,029
-689,612	800,000	-0,037	0,105
-688,597	-200,000	-0,029	0,173
-687,583	36,939	0,165	-0,105
-686,568	800,000	-0,070	-0,147
-685,554	-61,533	-0,127	0,038
-684,539	-150,930	0,109	0,006
-683,524	800,000	0,031	0,088
-682,510	-200,000	0,002	0,057
-681,495	-200,000	-0,016	-0,053
-680,481	800,000	-0,032	0,087
-679,466	800,000	-0,042	-0,091
-678,451	-171,158	-0,160	0,004
-677,437	202,983	-0,046	0,051
-676,422	-200,000	-0,007	0,049
-675,408	-200,000	0,044	0,166
-674,393	123,855	0,075	0,068
-673,378	-134,791	-0,121	0,010
-672,364	-32,313	-0,135	-0,054
-671,349	14,161	0,084	0,047
-670,335	-56,115	-0,068	-0,022
-669,320	-81,998	-0,069	-0,016
-668,305	27,420	-0,020	0,012
-667,291	413,598	-0,057	-0,088
-666,276	-200,000	0,002	-0,139
-665,262	-26,552	-0,103	0,043
-664,247	67,494	0,027	-0,020
-663,232	344,063	0,064	-0,091
-662,218	-200,000	-0,008	0,257
-661,203	304,716	-0,083	0,111
-660,189	-103,287	-0,035	-0,006
-659,174	-13,956	0,083	-0,038
-658,159	153,708	-0,110	-0,109
-657,145	800,000	-0,044	0,124
-656,130	135,036	-0,048	0,046
-655,116	349,529	0,060	0,086
-654,101	15,473	0,090	0,051
-653,086	-52,487	-0,144	0,048
-652,072	497,123	-0,032	-0,053
-651,057	-35,887	-0,102	-0,040
-650,043	-102,323	-0,073	-0,013
-649,028	106,255	0,071	-0,061
-648,014	800,000	0,046	0,138
-646,999	174,014	0,128	0,134
-645,984	200,820	-0,031	0,035
-644,970	440,034	-0,044	-0,069
-643,955	-48,516	-0,085	-0,029
-642,941	133,853	-0,126	0,118
-641,926	321,160	0,081	0,111
-640,911	800,000	-0,025	0,068
-639,897	-200,000	0,001	-0,120
-638,882	-200,000	0,002	-0,080
-637,868	-200,000	0,024	-0,170
-636,853	394,275	0,044	-0,066
-635,838	186,358	-0,092	0,099
-634,824	-95,123	0,087	-0,017
-633,809	-200,000	0,012	-0,187
-632,795	-123,119	0,159	0,018
-631,780	800,000	-0,021	0,055
-630,765	-200,000	-0,026	0,144
-629,751	656,330	0,013	-0,023
-628,736	176,594	-0,109	0,114
-627,722	18,455	0,042	-0,024
-626,707	-54,353	-0,056	-0,018
-625,692	270,846	-0,052	0,066
-624,678	82,655	-0,053	-0,042
-623,663	32,330	-0,059	0,036
-622,649	428,012	0,054	-0,084
-621,634	129,388	-0,086	-0,079
-620,619	173,081	0,034	0,035
-619,605	800,000	0,017	0,040
-618,590	173,635	0,033	0,034
-617,576	-96,018	0,017	0,003
-616,561	-120,082	-0,137	-0,017
-615,546	-19,864	-0,078	0,035
-614,532	-72,011	0,099	-0,026
-613,517	106,790	0,027	-0,023
-612,503	336,882	-0,051	-0,072
-611,488	-200,000	0,016	-0,088
-610,474	699,161	-0,016	-0,030
-609,459	430,615	0,051	0,080
-608,444	800,000	0,005	-0,012
-607,430	-3,914	-0,030	-0,015
-606,415	-160,481	-0,071	0,003
-605,401	-110,461	-0,094	0,014
-604,386	406,473	0,064	-0,097
-603,371	54,573	-0,051	0,035
-602,357	16,235	-0,036	0,020
-601,342	270,212	-0,069	-0,088
-600,328	-200,000	0,028	-0,198
-599,313	-200,000	0,004	-0,126
-598,298	-45,781	-0,089	-0,031
-597,284	800,000	0,033	0,102
-596,269	420,654	0,065	-0,101
-595,255	308,293	0,038	-0,052
-594,240	-200,000	-0,014	0,141
-593,225	282,965	0,041	0,053
-592,211	800,000	-0,064	-0,184
-591,196	-200,000	0,025	0,104
-590,182	-83,495	0,192	0,044
-589,167	526,928	-0,064	0,109
-588,152	207,189	0,063	-0,071
-587,138	-200,000	0,009	-0,083
-586,123	-60,944	-0,085	-0,026
-585,109	-103,289	-0,076	-0,013
-584,094	-11,503	-0,034	-0,016
-583,079	570,218	0,051	-0,090
-582,065	800,000	-0,038	-0,101
-581,050	-200,000	-0,032	0,000
-580,036	-200,000	-0,017	0,135
-579,021	430,691	-0,083	-0,129
-578,006	-139,641	-0,130	0,010
-576,992	-4,663	-0,106	0,053
-575,977	208,455	0,055	-0,062
-574,963	-49,405	0,057	0,020
-573,948	-200,000	-0,019	0,070
-572,934	-200,000	0,007	-0,031
-571,919	12,224	-0,061	-0,034
-570,904	-144,285	-0,179	0,012
-569,890	-25,322	-0,090	-0,038
-568,875	800,000	0,012	-0,028
-567,861	-77,587	-0,033	0,008
-566,846	64,575	0,122	0,089
-565,831	222,173	0,028	-0,033
-564,817	2,974	-0,046	0,024
-563,802	-149,949	0,104	-0,006
-562,788	800,000	0,064	0,134
-561,773	16,775	-0,125	-0,071
-560,758	115,289	-0,024	-0,021
-559,744	-200,000	0,014	0,237
-558,729	30,625	-0,028	0,017
-557,715	800,000	0,037	-0,089
-556,700	346,039	-0,116	-0,164
-555,685	-200,000	-0,028	-0,145
-554,671	-200,000	-0,004	0,101
-553,656	-200,000	0,004	0,087
-552,642	558,508	0,027	-0,048
-551,627	800,000	0,040	-0,099
-550,612	-25,655	0,014	0,006
-549,598	-58,614	-0,096	0,030
-548,583	49,003	-0,076	0,051
-547,569	-30,307	-0,036	-0,015
-546,554	-200,000	0,007	0,038
-545,539	182,097	0,121	0,129
-544,525	-200,000	-0,034	0,113
-543,510	-116,781	0,049	0,006
-542,496	546,703	-0,093	0,161
-541,481	277,387	-0,063	-0,080
-540,466	-200,000	0,002	0,033
-539,452	-200,000	0,028	-0,167
-538,437	304,504	0,062	-0,083
-537,423	800,000	0,033	0,068
-536,408	800,000	-0,009	0,025
-535,393	115,818	-0,052	0,046
-534,379	96,555	0,138	-0,113
-533,364	800,000	-0,022	0,049
-532,350	86,927	0,084	-0,067
-531,335	-18,189	0,009	0,004
-530,321	229,620	-0,109	0,128
-529,306	332,575	0,049	-0,068
-528,291	736,258	-0,113	-0,219
-527,277	-200,000	-0,007	-0,085
-526,262	-200,000	0,012	-0,084
-525,248	800,000	0,024	0,051
-524,233	-200,000	0,003	0,011
-523,218	-86,585	0,026	-0,006
-522,204	800,000	-0,016	0,037
-521,189	-200,000	-0,002	-0,022
-520,175	47,788	-0,142	-0,095
-519,160	-8,806	0,061	-0,030
-518,145	35,834	0,086	-0,054
-517,131	85,990	-0,106	0,084
-516,116	-200,000	0,012	0,089
-515,102	56,819	-0,076	0,053
-514,087	800,000	-0,009	-0,024
-513,072	75,607	0,036	-0,027
-512,058	-200,000	-0,016	0,059
-511,043	530,534	0,092	0,157
-510,029	405,037	-0,013	0,019
-509,014	535,821	0,067	0,114
-507,999	443,164	-0,042	0,067
-506,985	-200,000	0,001	-0,054
-505,970	-200,000	0,005	-0,147
-504,956	-200,000	-0,006	-0,039
-503,941	92,028	0,058	-0,047
-502,926	-200,000	-0,003	-0,096
-501,912	28,421	0,085	-0,051
-500,897	-200,000	0,013	-0,056
-499,883	72,649	0,072	-0,054
-498,868	155,331	0,032	0,032
-497,853	-200,000	0,004	0,089
-496,839	61,992	-0,018	-0,013
-495,824	82,311	0,132	0,103
-494,810	800,000	0,033	-0,089
-493,795	-200,000	-0,030	-0,101
-492,781	-200,000	0,002	0,006
-491,766	-200,000	-0,032	-0,103
-490,751	-41,872	-0,029	0,011
-489,737	-200,000	0,017	0,063
-488,722	-3,837	-0,120	0,059
-487,708	-200,000	-0,028	0,102
-486,693	-81,537	0,017	-0,004
-485,678	-181,313	0,098	-0,001
-484,664	-146,038	0,088	0,005
-483,649	-152,707	-0,132	-0,007
-482,635	160,753	-0,119	-0,119
-481,620	800,000	0,053	-0,151
-480,605	39,663	0,162	0,104
-479,591	-34,092	-0,017	-0,007
-478,576	-200,000	-0,031	0,185
-477,562	800,000	-0,058	-0,120
-476,547	-155,577	-0,087	0,004
-475,532	-44,263	0,061	-0,022
-474,518	-200,000	-0,002	0,083
-473,503	-179,560	0,067	0,001
-472,489	161,585	0,073	-0,073
-471,474	-17,859	-0,010	0,005
-470,459	-160,222	-0,055	-0,002
-469,445	260,512	0,070	0,087
-468,430	-125,005	0,044	-0,005
-467,416	-200,000	0,019	-0,114
-466,401	428,865	-0,033	-0,051
-465,386	-119,789	0,139	-0,017
-464,372	-11,653	-0,206	0,097
-463,357	-12,654	0,127	0,059
-462,343	-59,795	-0,171	0,052
-461,328	30,196	-0,021	-0,013
-460,313	800,000	-0,031	-0,068
-459,299	571,445	-0,021	0,037
-458,284	-30,054	0,150	0,061
-457,270	800,000	0,017	-0,041
-456,255	800,000	0,077	-0,237
-455,241	88,045	0,105	-0,083
-454,226	800,000	-0,071	-0,203
-453,211	-91,134	0,130	0,026
-452,197	-200,000	-0,001	-0,127
-451,182	800,000	-0,013	-0,035
-450,168	-200,000	-0,041	0,161
-449,153	227,336	0,071	-0,082
-448,138	660,158	-0,041	-0,076
-447,124	10,743	-0,079	-0,043
-446,109	-200,000	0,008	-0,159
-445,095	47,177	0,057	0,038
-444,080	294,610	0,032	0,042
-443,065	169,223	-0,063	-0,064
-442,051	-200,000	-0,037	-0,131
-441,036	-80,881	-0,064	-0,015
-440,022	-41,694	-0,006	0,002
-439,007	-13,395	0,025	-0,012
-437,992	-200,000	0,010	-0,142
-436,978	-176,230	0,144	-0,003
-435,963	-200,000	-0,007	0,145
-434,949	-10,866	-0,140	-0,066
-433,934	111,196	-0,094	-0,081
-432,919	-67,238	-0,163	-0,046
-431,905	100,998	0,079	-0,066
-430,890	-89,234	-0,040	0,008
-429,876	-29,145	0,035	-0,014
-428,861	-112,541	0,068	0,010
-427,846	-200,000	0,025	0,123
-426,832	-200,000	-0,013	0,115
-425,817	125,516	-0,056	0,051
-424,803	800,000	-0,028	0,056
-423,788	800,000	-0,087	0,220
-422,773	411,538	0,089	0,136
-421,759	122,181	-0,071	-0,064
-420,744	800,000	0,014	0,032
-419,730	310,656	0,051	-0,069
-418,715	-200,000	0,002	-0,115
-417,701	751,652	-0,045	0,088
-416,686	340,342	0,064	0,089
-415,671	800,000	0,024	0,052
-414,657	187,858	-0,053	0,057
-413,642	572,651	0,066	0,116
-412,628	-158,381	-0,049	-0,002
-411,613	344,430	-0,064	-0,090
-410,598	-200,000	0,004	-0,125
-409,584	109,628	0,017	-0,015
-408,569	93,697	0,049	0,040
-407,555	800,000	-0,025	-0,054
-406,540	-200,000	0,007	-0,048
-405,525	402,122	0,060	0,090
-404,511	-200,000	0,031	0,099
-403,496	244,686	-0,067	0,081
-402,482	800,000	0,027	0,081
-401,467	-200,000	0,117	-0,000
-400,452	174,769	0,045	0,047
-399,438	400,193	0,091	0,137
-398,423	800,000	0,018	0,039
-397,409	800,000	0,031	-0,065
-396,394	186,858	-0,059	0,063
-395,379	800,000	0,070	-0,153
-394,365	-200,000	0,014	-0,101
-393,350	800,000	0,077	-0,208
-392,336	-200,000	0,010	-0,059
-391,321	18,492	0,108	0,062
-390,306	-200,000	-0,025	0,105
-389,292	-11,598	-0,045	-0,021
-388,277	-61,482	-0,055	-0,016
-387,263	-200,000	0,031	0,103
-386,248	33,450	0,061	-0,038
-385,233	-157,374	0,092	-0,004
-384,219	-178,317	0,089	0,001
-383,204	107,463	-0,115	-0,098
-382,190	800,000	0,032	-0,071
-381,175	166,172	0,010	-0,010
-380,160	-16,211	0,045	-0,021
-379,146	-91,690	0,126	-0,025
-378,131	685,709	0,027	0,050
-377,117	-0,370	-0,108	0,055
-376,102	-141,117	-0,071	0,005
-375,088	213,885	0,068	-0,077
-374,073	-200,000	-0,005	0,022
-373,058	800,000	-0,006	0,013
-372,044	336,527	-0,057	-0,080
-371,029	800,000	-0,045	-0,137
-370,015	-51,216	0,051	0,017
-369,000	229,155	-0,099	-0,116
-367,985	-153,447	-0,107	0,005
-366,971	-200,000	-0,009	-0,070
-365,956	272,395	0,072	-0,091
-364,942	-7,463	0,052	0,025
-363,927	-105,036	-0,060	0,010
-362,912	121,969	-0,019	-0,017
-361,898	-97,471	-0,098	0,018
-360,883	741,124	0,054	0,105
-359,869	-200,000	0,007	0,083
-358,854	-200,000	0,039	0,139
-357,839	-77,154	0,236	0,058
-356,825	-46,949	-0,214	0,074
-355,810	-200,000	-0,001	-0,044
-354,796	423,261	0,055	0,085
-353,781	800,000	0,034	-0,100
-352,766	-124,099	-0,065	0,007
-351,752	800,000	-0,041	0,115
-350,737	265,850	0,024	-0,030
-349,723	96,220	0,120	0,098
-348,708	32,761	-0,053	-0,032
-347,693	800,000	0,013	-0,029
-346,679	-200,000	0,030	-0,139
-345,664	-57,744	0,017	-0,005
-344,650	736,090	-0,063	0,120
-343,635	-200,000	0,031	-0,117
-342,620	89,751	-0,073	0,058
-341,606	-73,849	-0,084	-0,022
-340,591	-200,000	0,006	0,045
-339,577	-135,863	-0,081	-0,007
-338,562	100,610	-0,108	-0,090
-337,548	133,922	-0,063	-0,058
-336,533	468,153	0,074	0,119
-335,518	-28,277	0,113	0,046
-334,504	-200,000	-0,010	0,050
-333,489	60,062	0,024	-0,017
-332,475	102,034	-0,113	-0,095
-331,460	800,000	-0,019	-0,045
-330,445	800,000	-0,044	-0,100
-329,431	217,205	0,041	0,046
-328,416	86,179	0,066	0,052
-327,402	738,726	0,051	-0,097
-326,387	571,635	0,063	-0,110
-325,372	-114,915	-0,132	-0,018
-324,358	283,586	0,074	-0,096
-323,343	-109,415	0,105	0,016
-322,329	5,466	-0,094	0,050
-321,314	723,100	0,045	-0,085
-320,299	800,000	0,031	0,065
-319,285	338,530	-0,036	0,050
-318,270	-200,000	-0,008	-0,025
-317,256	800,000	0,009	-0,020
-316,241	654,998	0,071	0,131
-315,226	-33,464	-0,039	-0,015
-314,212	-83,121	0,180	0,041
-313,197	-156,725	0,084	0,004
-312,183	122,083	-0,057	-0,051
-311,168	800,000	0,076	-0,201
-310,153	-137,104	-0,105	-0,008
-309,139	105,040	-0,048	-0,041
-308,124	-200,000	-0,009	-0,059
-307,110	800,000	0,020	-0,048
-306,095	609,641	-0,036	0,064
-305,080	-200,000	-0,032	0,123
-304,066	-61,443	-0,007	-0,002
-303,051	577,094	0,070	-0,122
-302,037	-200,000	-0,008	0,083
-301,022	800,000	-0,024	0,053
-300,008	-200,000	0,006	0,052
-298,993	-78,750	0,038	-0,009
-297,978	54,955	0,055	0,038
-296,964	-13,555	-0,064	-0,030
-295,949	-200,000	0,001	-0,013
-294,935	800,000	0,029	-0,090
-293,920	-77,009	0,069	-0,017
-292,905	-129,412	0,145	0,014
-291,891	-200,000	0,000	0,037
-290,876	-200,000	-0,005	-0,031
-289,862	350,968	-0,036	-0,051
-288,847	661,596	0,035	0,065
-287,832	-200,000	0,016	-0,060
-286,818	354,220	0,073	-0,104
-285,803	-77,648	0,041	-0,010
-284,789	-109,744	0,094	-0,014
-283,774	80,105	0,093	-0,071
-282,759	205,247	-0,135	0,150
-281,745	800,000	-0,023	0,059
-280,730	111,641	0,023	0,020
-279,716	385,447	-0,031	0,046
-278,701	-44,771	0,123	-0,043
-277,686	-126,114	-0,052	-0,006
-276,672	108,363	0,072	-0,061
-275,657	-32,872	-0,071	-0,028
-274,643	-109,437	-0,138	-0,021
-273,628	-100,839	-0,047	0,008
-272,613	800,000	0,035	-0,087
-271,599	462,523	0,025	0,040
-270,584	343,234	0,066	0,092
-269,570	-200,000	-0,013	0,056
-268,555	288,584	0,105	0,135
-267,540	160,731	-0,073	-0,073
-266,526	-200,000	-0,005	-0,151
-265,511	800,000	0,013	0,039
-264,497	-83,218	-0,064	0,015
-263,482	312,646	-0,042	-0,056
-262,467	-200,000	0,047	0,185
-261,453	60,429	0,016	-0,011
-260,438	-200,000	-0,132	0,000
-259,424	-200,000	-0,001	0,068
-258,409	800,000	0,012	-0,036
-257,395	225,719	0,063	0,073
-256,380	800,000	0,021	0,051
-255,365	800,000	-0,025	-0,060
-254,351	-200,000	0,029	0,156
-253,336	-200,000	0,007	0,138
-252,322	-200,000	0,031	-0,133
-251,307	554,276	0,018	0,030
-250,292	97,274	-0,140	0,115
-249,278	-200,000	0,009	0,058
-248,263	134,465	-0,024	0,022
-247,249	184,689	-0,093	0,098
-246,234	199,014	0,048	0,052
-245,219	110,617	-0,110	-0,094
-244,205	554,699	0,063	0,108
-243,190	800,000	-0,040	0,100
-242,176	-105,755	0,137	0,022
-241,161	-200,000	-0,004	-0,092
-240,146	16,839	0,098	0,055
-239,132	-200,000	-0,014	0,105
-238,117	-70,189	-0,127	-0,034
-237,103	242,906	-0,005	-0,006
-236,088	800,000	-0,009	-0,025
-235,073	-200,000	0,000	0,113
-234,059	9,404	-0,063	0,034
-233,044	304,717	-0,052	-0,069
-232,030	299,882	0,028	0,036
-231,015	800,000	-0,091	-0,194
-230,000	-198,094	0,039	0,000
-228,986	-200,000	0,003	0,020
-227,971	-200,000	-0,015	0,105
-226,957	-94,125	0,168	0,032
-225,942	-116,766	0,076	-0,010
-224,927	800,000	0,033	-0,079
-223,913	-200,000	-0,007	-0,086
-222,898	68,268	-0,175	-0,127
-221,884	463,710	0,090	-0,143
-220,869	-90,376	0,089	0,018
-219,855	21,550	-0,071	-0,041
-218,840	-200,000	0,043	0,148
-217,825	217,132	0,025	-0,029
-216,811	122,454	-0,034	-0,031
-215,796	76,860	-0,176	-0,133
-214,782	-53,502	0,100	-0,032
-213,767	-51,757	0,023	0,008
-212,752	-200,000	-0,020	-0,097
-211,738	-71,450	0,087	-0,023
-210,723	90,741	-0,091	-0,072
-209,709	126,944	-0,123	-0,111
-208,694	11,447	-0,068	0,037
-207,679	-108,447	-0,149	-0,023
-206,665	51,931	0,059	-0,040
-205,650	-200,000	0,017	0,188
-204,636	-200,000	-0,017	0,056
-203,621	441,986	-0,064	-0,100
-202,606	-97,340	0,080	-0,015
-201,592	-32,001	-0,082	0,032
-200,577	41,510	0,035	0,023
-199,563	-41,384	-0,065	0,024
-198,548	-17,588	0,087	0,039
-197,533	492,463	0,075	0,122
-196,519	410,350	-0,065	0,098
-195,504	74,642	0,017	-0,013
-194,490	-200,000	-0,001	-0,009
-193,475	-83,522	0,011	0,003
-192,460	219,865	0,064	0,073
-191,446	-93,132	-0,138	-0,027
-190,431	389,701	0,137	0,202
-189,417	800,000	0,072	0,218
-188,402	-102,081	0,004	0,001
-187,387	56,330	-0,099	-0,068
-186,373	-64,724	0,084	0,024
-185,358	800,000	-0,020	0,055
-184,344	-11,315	0,140	0,065
-183,329	-114,723	0,026	0,004
-182,315	90,669	0,087	0,069
-181,300	203,517	0,056	-0,062
-180,285	100,168	-0,122	-0,100
-179,271	-21,923	-0,040	0,017
-178,256	45,391	0,079	-0,052
-177,242	517,535	0,022	0,036
-176,227	-200,000	-0,014	0,056
-175,212	800,000	-0,030	0,091
-174,198	-200,000	-0,020	0,147
-173,183	18,939	0,041	-0,023
-172,169	35,957	-0,087	0,054
-171,154	403,989	0,018	0,027
-170,139	-117,924	0,134	-0,017
-169,125	100,986	-0,068	0,056
-168,110	-59,072	0,063	-0,019
-167,096	-200,000	-0,019	0,085
-166,081	-38,799	-0,074	0,028
-165,066	165,102	0,016	-0,016
-164,052	-200,000	0,014	-0,069
-163,037	-127,410	-0,070	0,007
-162,023	544,890	0,096	0,164
-161,008	-200,000	0,030	0,117
-159,993	-103,088	0,022	-0,004
-158,979	-116,726	-0,182	-0,023
-157,964	425,949	0,029	-0,045
-156,950	183,323	-0,044	0,046
-155,935	800,000	-0,035	-0,081
-154,920	800,000	-0,032	0,070
-153,906	-200,000	-0,010	0,052
-152,891	11,116	-0,052	0,028
-151,877	255,391	-0,081	-0,099
-150,862	800,000	-0,044	-0,094
-149,847	111,013	0,061	-0,052
-148,833	753,568	-0,075	0,144
-147,818	463,895	0,035	-0,055
-146,804	800,000	0,049	-0,121
-145,789	123,058	0,066	0,059
-144,775	252,727	0,017	-0,021
-143,760	800,000	-0,089	-0,230
-142,745	793,659	-0,031	0,061
-141,731	145,978	0,056	-0,053
-140,716	662,160	0,073	0,133
-139,702	129,349	0,052	-0,047
-138,687	497,548	0,063	-0,103
-137,672	290,719	0,024	-0,030
-136,658	-7,422	0,085	-0,041
-135,643	80,978	-0,124	0,095
-134,629	-200,000	0,021	0,068
-133,614	-200,000	0,003	0,009
-132,599	619,826	0,047	-0,083
-131,585	70,676	0,168	0,123
-130,570	-20,328	-0,032	-0,014
-129,556	-200,000	0,025	-0,104
-128,541	-200,000	0,039	-0,136
-127,526	-108,270	-0,063	-0,010
-126,512	504,053	-0,037	0,061
-125,497	91,748	0,059	-0,047
-124,483	0,536	-0,091	-0,046
-123,468	-200,000	0,010	-0,055
-122,453	-131,172	-0,083	0,008
-121,439	800,000	-0,035	0,083
-120,424	236,988	0,010	0,012
-119,410	85,811	-0,114	0,089
-118,395	328,622	-0,072	0,098
-117,380	800,000	-0,036	0,073
-116,366	-130,442	-0,062	-0,006
-115,351	731,909	0,044	-0,085
-114,337	-14,947	-0,156	-0,070
-113,322	160,314	-0,049	-0,049
-112,307	-46,071	-0,045	0,016
-111,293	-22,357	0,150	0,064
-110,278	18,788	-0,078	0,044
-109,264	-200,000	0,022	0,151
-108,249	800,000	-0,011	0,031
-107,234	-36,545	-0,051	-0,019
-106,220	376,480	0,109	0,158
-105,205	-193,495	-0,114	-0,001
-104,191	-200,000	0,014	0,135
-103,176	-200,000	-0,031	0,114
-102,162	-161,755	0,038	-0,001
-101,147	800,000	0,008	-0,022
-100,132	-200,000	0,004	-0,028
-99,118	-200,000	0,041	-0,145
-98,103	-200,000	0,006	0,092
-97,089	94,253	0,021	-0,017
-96,074	800,000	0,053	-0,115
-95,059	-200,000	-0,008	0,094
-94,045	800,000	0,061	0,131
-93,030	-200,000	0,023	0,087
-92,016	71,332	-0,116	-0,085
-91,001	-200,000	-0,018	-0,123
-89,986	-159,694	0,080	-0,003
-88,972	271,920	-0,044	-0,054
-87,957	-200,000	-0,023	-0,125
-86,943	-105,901	0,056	-0,009
-85,928	413,188	0,009	0,014
-84,913	-44,364	-0,145	0,051
-83,899	-200,000	-0,004	-0,052
-82,884	302,395	-0,015	0,020
-81,870	-172,445	-0,061	0,001
-80,855	-42,430	0,091	0,032
-79,840	-79,582	0,018	-0,004
-78,826	126,875	-0,094	-0,084
-77,811	18,804	-0,107	0,060
-76,797	1,802	-0,068	0,034
-75,782	-200,000	0,010	0,142
-74,767	-47,761	0,072	0,024
-73,753	135,820	0,017	-0,016
-72,738	800,000	-0,040	-0,079
-71,724	161,623	-0,053	-0,052
-70,709	-30,131	0,025	0,010
-69,694	-200,000	-0,032	0,114
-68,680	365,642	0,058	0,082
-67,665	-92,224	0,101	-0,020
-66,651	463,390	-0,098	0,156
-65,636	225,643	-0,017	-0,019
-64,622	800,000	0,032	-0,090
-63,607	-79,776	-0,111	0,026
-62,592	-106,409	-0,090	-0,014
-61,578	800,000	0,054	-0,128
-60,563	-6,136	0,099	0,048
-59,549	800,000	-0,035	0,068
-58,534	36,347	-2,043	-1,269
-57,519	460,631	-1,242	-1,960
-56,505	-200,000	-0,359	-4,369
-55,490	599,163	0,875	1,539
-54,476	800,000	5,040	11,206
-53,461	-200,000	21,443	342,359
-52,446	800,000	762,052	2365,718
-51,432	559,335	1664,483	2847,434
-50,417	73,363	1661,386	1225,740
-49,403	17,852	1534,805	860,230
-48,388	11,817	1458,570	788,303
-47,373	19,511	1449,755	820,436
-46,359	15,313	1439,017	794,361
-45,344	10,082	1435,049	767,222
-44,330	10,004	1432,913	765,676
-43,315	10,031	1431,339	764,938
-42,300	10,022	1429,343	763,796
-41,286	10,035	1428,289	763,267
-40,271	9,997	1427,137	762,436
-39,257	10,040	1425,733	761,860
-38,242	10,033	1424,769	761,285
-37,227	10,074	1423,447	760,742
-36,213	10,044	1422,384	760,001
-35,198	10,086	1420,849	759,348
-34,184	10,121	1420,266	759,170
-33,169	10,007	1418,847	757,848
-32,154	10,028	1417,668	757,287
-31,140	10,062	1416,492	756,785
-30,125	10,118	1415,271	756,367
-29,111	10,079	1414,158	755,558
-28,096	10,031	1413,142	754,762
-27,082	9,997	1411,840	753,879
-26,067	10,013	1410,885	753,414
-25,052	10,029	1409,880	752,921
-24,038	10,013	1408,983	752,335
-23,023	10,048	1407,844	751,863
-22,009	10,008	1407,010	751,200
-20,994	10,023	1405,896	750,646
-19,979	10,017	1404,872	750,042
-18,965	9,971	1404,132	749,402
-17,950	9,922	1403,342	748,721
-16,936	9,931	1402,298	748,176
-15,921	9,902	1401,459	747,565
-14,906	9,947	1400,464	747,213
-13,892	9,942	1399,468	746,630
-12,877	9,922	1398,527	746,006
-11,863	9,913	1397,884	745,591
-10,848	9,903	1396,784	744,925
-9,833	9,842	1396,083	744,239
-8,819	9,839	1395,043	743,643
-7,804	9,808	1394,401	743,130
-6,790	9,788	1393,399	742,470
-5,775	9,788	1392,426	741,923
-4,760	9,818	1391,096	741,323
-3,746	9,800	1390,273	740,774
-2,731	9,761	1389,457	740,128
-1,717	9,770	1388,668	739,722
-0,702	9,786	1386,640	738,684
0,313	13,921	1299,406	711,104
1,327	30,393	689,556	414,668
2,342	47,329	119,216	78,193
3,356	4,017	16,392	8,428
4,371	7,463	3,534	1,857
5,386	-15,900	1,055	0,472
6,400	800,000	0,217	0,625
7,415	-179,110	-0,312	-0,005
8,429	193,284	-0,173	-0,184
9,444	9,337	-0,272	-0,144
10,459	6,429	-0,357	-0,187
11,473	57,793	-0,305	-0,210
12,488	-163,570	-0,245	-0,008
13,502	-63,754	-0,338	-0,097
14,517	183,366	-0,247	-0,258
15,531	100,819	-0,300	-0,245
16,546	192,235	-0,311	-0,331
17,561	233,368	-0,295	-0,342
18,575	-91,087	-0,197	-0,039
19,590	111,660	-0,174	-0,148
20,604	-64,912	-0,281	-0,080
21,619	35,081	-0,431	-0,265
22,634	128,066	-0,429	-0,384
23,648	349,421	-0,252	-0,351
24,663	8,673	-0,384	-0,203
25,677	180,717	-0,338	-0,350
26,692	78,298	-0,212	-0,159
27,707	31,849	-0,290	-0,175
28,721	58,683	-0,334	-0,230
29,736	34,398	-0,391	-0,240
30,750	-1,253	-0,438	-0,217
31,765	178,914	-0,288	-0,297
32,780	-92,581	-0,356	-0,070
33,794	17,585	-0,435	-0,243
34,809	-38,441	-0,458	-0,169
35,823	-53,245	-0,506	-0,162
36,838	52,230	-0,291	-0,195
37,853	-72,840	-0,404	-0,104
38,867	5,292	-0,318	-0,164
39,882	20,285	-0,335	-0,190
40,896	83,162	-0,252	-0,193
41,911	185,571	-0,340	-0,355
42,926	34,231	-0,397	-0,243
43,940	96,695	-0,322	-0,259
44,955	334,889	-0,304	-0,414
45,969	-33,713	-0,389	-0,150
46,984	164,485	-0,185	-0,183
47,999	32,811	-0,361	-0,219
49,013	-18,729	-0,328	-0,143
50,028	-101,489	-0,472	-0,080
51,042	18,735	-0,287	-0,161
52,057	90,157	-0,335	-0,263
53,071	-38,537	-0,446	-0,165
54,086	495,095	-0,213	-0,344
55,101	56,000	-0,274	-0,186
56,115	-1,554	-0,326	-0,161
57,130	-18,167	-0,419	-0,183
58,144	60,871	-0,332	-0,231
59,159	51,957	-0,416	-0,277
60,174	62,256	-0,274	-0,191
61,188	79,704	-0,301	-0,227
62,203	800,000	-0,098	-0,192
63,217	55,436	-0,315	-0,214
64,232	446,777	-0,201	-0,311
65,247	6,348	-0,361	-0,188
66,261	-48,838	-0,403	-0,135
67,276	54,517	-0,262	-0,176
68,290	209,421	-0,276	-0,304
69,305	39,657	-0,281	-0,176
70,320	46,737	-0,228	-0,148
71,334	-57,116	-0,335	-0,103
72,349	49,755	-0,258	-0,170
73,363	18,641	-0,406	-0,227
74,378	32,272	-0,319	-0,192
75,393	-13,828	-0,399	-0,180
76,407	-157,801	-0,329	0,013
77,422	51,537	-0,222	-0,147
78,436	-38,151	-0,382	-0,141
79,451	122,961	-0,221	-0,194
80,466	-37,174	-0,351	-0,131
81,480	382,321	-0,211	-0,305
82,495	-9,215	-0,255	-0,119
83,509	-165,288	-0,301	-0,009
84,524	-26,501	-0,248	-0,101
85,539	12,266	-0,326	-0,175
86,553	539,636	-0,180	-0,301
87,568	475,110	-0,141	-0,223
88,582	55,193	-0,274	-0,185
89,597	26,281	-0,367	-0,214
90,611	74,841	-0,292	-0,215
91,626	5,630	-0,296	-0,152
92,641	123,429	-0,260	-0,228
93,655	-132,608	-0,233	-0,021
94,670	-129,772	-0,262	-0,025
95,684	163,683	-0,302	-0,298
96,699	7,587	-0,295	-0,154
97,714	27,219	-0,403	-0,236
98,728	64,793	-0,259	-0,183
99,743	-93,237	-0,155	-0,030
100,757	-175,185	-0,140	-0,003
101,772	321,777	-0,277	-0,369
102,787	66,887	-0,341	-0,243
103,801	487,044	-0,187	-0,300
104,816	21,854	-0,267	-0,152
105,830	-19,654	-0,206	-0,089
106,845	520,481	-0,157	-0,258
107,860	159,302	-0,255	-0,248
108,874	194,601	-0,280	-0,297
109,889	-23,590	-0,269	-0,112
110,903	50,200	-0,245	-0,161
111,918	133,687	-0,299	-0,270
112,933	37,297	-0,216	-0,133
113,947	74,439	-0,260	-0,191
114,962	-200,000	-0,345	0,001
115,976	30,659	-0,288	-0,172
116,991	-10,210	-0,221	-0,102
118,006	190,414	-0,264	-0,277
119,020	5,722	-0,349	-0,180
120,035	53,784	-0,350	-0,234
121,049	-53,799	-0,214	-0,068
122,064	47,106	-0,251	-0,163
123,079	22,800	-0,200	-0,114
124,093	41,220	-0,306	-0,193
125,108	-94,709	-0,259	-0,049
126,122	-69,288	-0,194	-0,052
127,137	-43,129	-0,243	-0,085
128,151	-55,820	-0,352	-0,109
129,166	-35,383	-0,209	-0,079
130,181	181,160	-0,277	-0,284
131,195	-3,938	-0,307	-0,148
132,210	138,345	-0,296	-0,271
133,224	32,266	-0,262	-0,158
134,239	-140,892	-0,195	-0,014
135,254	7,827	-0,300	-0,156
136,268	46,459	-0,296	-0,191
137,283	87,550	-0,209	-0,161
138,297	176,359	-0,359	-0,364
139,312	45,663	-0,313	-0,201
140,327	195,824	-0,230	-0,245
141,341	237,947	-0,163	-0,189
142,356	247,444	-0,197	-0,232
143,370	-27,634	-0,251	-0,101
144,385	9,800	-0,244	-0,129
145,400	138,067	-0,207	-0,189
146,414	258,958	-0,245	-0,295
147,429	489,458	-0,168	-0,269
148,443	-55,401	-0,225	-0,070
149,458	-108,061	-0,127	0,019
150,473	173,125	-0,179	-0,180
151,487	217,077	-0,216	-0,240
152,502	228,536	-0,195	-0,221
153,516	-35,341	-0,412	-0,155
154,531	-24,031	-0,221	-0,092
155,546	-31,663	-0,324	-0,126
156,560	-48,074	-0,176	-0,059
157,575	112,288	-0,234	-0,197
158,589	117,556	-0,147	-0,126
159,604	-27,500	-0,226	-0,091
160,619	-48,609	-0,221	-0,073
161,633	735,528	-0,142	-0,266
162,648	234,646	-0,218	-0,251
163,662	126,146	-0,193	-0,170
164,677	95,723	-0,134	-0,106
165,692	89,764	-0,281	-0,218
166,706	26,738	-0,220	-0,128
167,721	133,059	-0,210	-0,189
168,735	159,531	-0,240	-0,233
169,750	57,874	-0,227	-0,154
170,764	261,751	-0,133	-0,160
171,779	84,470	-0,281	-0,213
172,794	-90,264	-0,245	-0,049
173,808	50,757	-0,240	-0,158
174,823	755,194	-0,160	-0,302
175,837	-121,589	-0,217	-0,025
176,852	-58,091	-0,267	-0,080
177,867	7,117	-0,232	-0,120
178,881	47,596	-0,152	-0,098
179,896	-47,811	-0,261	-0,087
180,910	20,381	-0,303	-0,170
181,925	12,594	-0,283	-0,151
182,940	367,181	-0,172	-0,241
183,954	12,893	-0,218	-0,117
184,969	170,496	-0,125	-0,125
185,983	-70,781	-0,184	-0,048
186,998	756,189	-0,091	-0,172
188,013	-77,987	-0,261	-0,062
189,027	125,014	-0,232	-0,203
190,042	276,084	-0,166	-0,205
191,056	36,498	-0,196	-0,120
192,071	0,865	-0,225	-0,111
193,086	151,936	-0,317	-0,300
194,100	-32,835	-0,263	-0,101
195,115	800,000	-0,141	-0,289
196,129	109,964	-0,207	-0,173
197,144	800,000	-0,142	-0,283
198,159	180,688	-0,274	-0,279
199,173	-141,303	-0,238	-0,017
200,188	7,803	-0,103	-0,053
201,202	-41,191	-0,197	-0,070
202,217	268,799	-0,174	-0,212
203,232	-27,618	-0,252	-0,101
204,246	-1,473	-0,172	-0,084
205,261	45,560	-0,229	-0,146
206,275	-128,194	-0,244	-0,024
207,290	570,574	-0,097	-0,165
208,304	69,927	-0,100	-0,071
209,319	-8,660	-0,232	-0,107
210,334	161,279	-0,208	-0,202
211,348	28,484	-0,298	-0,174
212,363	55,911	-0,271	-0,182
213,377	34,637	-0,187	-0,113
214,392	429,654	-0,139	-0,209
215,407	144,892	-0,110	-0,102
216,421	-12,624	-0,198	-0,089
217,436	-21,012	-0,205	-0,087
218,450	207,953	-0,159	-0,173
219,465	128,481	-0,155	-0,136
220,480	-23,044	-0,230	-0,096
221,494	-150,753	-0,156	0,008
222,509	-45,940	-0,231	-0,078
223,523	381,215	-0,070	-0,100
224,538	-169,003	-0,173	-0,004
225,553	210,564	-0,154	-0,168
226,567	-47,015	-0,243	-0,081
227,582	-31,213	-0,189	-0,073
228,596	-94,144	-0,093	-0,017
229,611	-10,568	-0,240	-0,110
230,626	149,966	-0,083	-0,078
231,640	67,951	-0,094	-0,067
232,655	320,268	-0,145	-0,191
233,669	103,770	-0,219	-0,178
234,684	208,213	-0,173	-0,188
235,699	800,000	-0,025	-0,071
236,713	30,442	-0,206	-0,121
237,728	583,388	-0,093	-0,159
238,742	598,002	-0,113	-0,194
239,757	233,938	-0,216	-0,246
240,772	439,529	-0,215	-0,325
241,786	28,760	-0,292	-0,171
242,801	160,934	-0,168	-0,162
243,815	-120,690	-0,170	-0,020
244,830	400,427	-0,140	-0,203
245,844	-1,664	-0,213	-0,103
246,859	75,981	-0,186	-0,136
247,874	784,888	-0,077	-0,146
248,888	147,052	-0,219	-0,203
249,903	-48,213	-0,253	-0,084
250,917	134,689	-0,111	-0,100
251,932	-162,981	-0,213	0,007
252,947	186,148	-0,211	-0,216
253,961	135,369	-0,151	-0,135
254,976	-200,000	-0,025	-0,185
255,990	39,107	-0,210	-0,129
257,005	130,309	-0,237	-0,210
258,020	87,431	-0,229	-0,175
259,034	-136,733	-0,218	-0,017
260,049	178,456	-0,190	-0,191
261,063	467,933	-0,139	-0,216
262,078	-33,357	-0,226	-0,086
263,093	377,414	-0,153	-0,216
264,107	677,098	-0,122	-0,220
265,122	-58,892	-0,280	0,083
266,136	40,649	-0,112	-0,070
267,151	-12,395	-0,072	-0,032
268,166	766,037	-0,131	-0,247
269,180	134,788	-0,150	-0,135
270,195	349,088	-0,193	-0,263
271,209	270,991	-0,121	-0,147
272,224	-8,025	-0,194	-0,090
273,239	17,705	-0,080	-0,043
274,253	45,981	-0,201	-0,128
275,268	84,512	-0,096	-0,072
276,282	58,815	-0,169	-0,114
277,297	166,368	-0,190	-0,185
278,312	-200,000	-0,017	-0,230
279,326	-137,167	-0,211	0,016
280,341	800,000	-0,055	-0,129
281,355	137,259	-0,106	-0,095
282,370	800,000	-0,072	-0,157
283,384	800,000	-0,109	-0,221
284,399	39,168	-0,091	-0,056
285,414	19,321	-0,207	-0,114
286,428	155,733	-0,185	-0,175
287,443	18,371	-0,212	-0,116
288,457	255,935	-0,163	-0,193
289,472	-109,719	-0,313	-0,045
290,487	28,907	-0,134	-0,078
291,501	-100,653	-0,273	-0,046
292,516	-22,785	-0,161	-0,067
293,530	118,465	-0,151	-0,128
294,545	9,631	-0,166	-0,086
295,560	20,990	-0,107	-0,059
296,574	297,552	-0,162	-0,205
297,589	151,984	-0,173	-0,162
298,603	-200,000	-0,015	-0,193
299,618	121,187	-0,193	-0,165
300,633	-22,143	-0,094	-0,039
301,647	1,708	-0,063	-0,031
302,662	800,000	-0,114	-0,243
303,676	118,956	-0,069	-0,059
304,691	412,792	-0,090	-0,132
305,706	-102,661	-0,266	0,043
306,720	-30,696	-0,285	-0,110
307,735	4,399	-0,120	-0,060
308,749	-5,037	-0,113	-0,053
309,764	-104,880	-0,175	-0,027
310,779	8,168	-0,133	-0,068
311,793	-18,059	-0,142	-0,061
312,808	182,360	-0,142	-0,144
313,822	-131,664	-0,219	-0,019
314,837	214,308	-0,097	-0,106
315,852	60,176	-0,152	-0,103
316,866	-121,452	-0,074	-0,008
317,881	-200,000	-0,025	-0,114
318,895	156,214	-0,079	-0,074
319,910	-200,000	-0,064	-0,224
320,925	-99,972	-0,154	-0,026
321,939	163,305	-0,127	-0,122
322,954	-200,000	-0,049	-0,163
323,968	-64,918	-0,154	-0,042
324,983	-200,000	-0,049	-0,190
325,997	-129,477	-0,248	0,023
327,012	-35,587	-0,205	0,076
328,027	154,805	-0,193	-0,182
329,041	-46,201	-0,241	-0,081
330,056	800,000	-0,046	-0,105
331,070	430,006	-0,119	-0,177
332,085	800,000	-0,036	-0,071
333,100	104,357	-0,149	-0,120
334,114	-110,265	-0,268	-0,038
335,129	731,300	-0,106	-0,196
336,143	16,168	-0,090	-0,049
337,158	-26,372	-0,145	0,058
338,173	-200,000	0,008	-0,077
339,187	800,000	-0,085	-0,192
340,202	-7,975	-0,187	-0,086
341,216	232,482	-0,173	-0,195
342,231	163,630	0,058	-0,056
343,246	-200,000	-0,019	-0,149
344,260	767,165	-0,081	-0,151
345,275	232,463	-0,046	-0,051
346,289	-21,849	-0,189	-0,078
347,304	30,999	-0,145	0,085
348,319	-84,723	-0,196	0,042
349,333	-7,400	-0,212	-0,098
350,348	73,282	-0,168	-0,120
351,362	-100,873	-0,199	-0,033
352,377	24,478	-0,196	-0,111
353,392	541,977	-0,063	-0,104
354,406	-22,782	-0,044	-0,018
355,421	207,758	1311,020	1401,610
356,435	159,841	1471,246	1402,092
