DTS Sentinel unit serial number:	SN410029Multiplexer serial number:	ORYXHardware model number:	OX2-SRSoftware version number:	ORYX F/W v4,00 Oryx Data Collector v3.7.2.0data status	okinstallation	B3 Nyhavnadifferential loss correction	single-endedforward channel	channel 1reverse channel	N/Adate	2023/11/30time	02:22:30forward acquisition time	300,00reverse acquisition time	0,00gamma	499,1914k internal	0,3210k external	0,3210temperature offset calibration	1,0000default loss term (dB/km)	0,3820temperature slope calibration	1,0000multiplexer offset coefficient	1,0000multiplexer slope coefficient	1,0000fibre end	0,00T internal ref (°C)	10,43T ext. ref 1 (°C)	-5,23T ext. ref 2 (°C)	-5,36length (m)	temperature (°C)	Stokes	anti-Stokes-744,400	335,929	-0,208	-0,294
-743,385	800,000	-0,122	0,295
-742,371	485,088	-0,152	-0,251
-741,356	708,040	0,162	0,313
-740,342	49,551	-0,265	-0,181
-739,327	800,000	-0,107	0,221
-738,312	177,890	-0,246	-0,261
-737,298	-200,000	-0,006	0,206
-736,283	90,417	-0,241	-0,195
-735,269	-200,000	0,080	0,258
-734,254	41,014	-0,188	-0,123
-733,239	-45,794	-0,325	0,116
-732,225	-200,000	-0,017	-0,174
-731,210	-11,330	0,070	0,033
-730,196	112,052	-0,061	-0,054
-729,181	-103,632	-0,025	-0,004
-728,167	-72,041	-0,041	0,011
-727,152	96,453	-0,099	0,082
-726,137	70,721	-0,095	-0,071
-725,123	-200,000	-0,003	-0,111
-724,108	-200,000	-0,025	-0,163
-723,094	473,729	0,038	-0,062
-722,079	638,303	-0,031	0,057
-721,064	-80,918	-0,023	0,006
-720,050	197,562	0,061	0,068
-719,035	-200,000	-0,012	0,075
-718,021	43,139	-0,141	0,093
-717,006	-87,516	-0,171	0,037
-715,991	-59,358	-0,071	-0,022
-714,977	-200,000	0,006	0,031
-713,962	-200,000	0,031	-0,131
-712,948	-99,837	-0,036	-0,006
-711,933	200,713	-0,082	-0,092
-710,918	679,564	0,019	-0,036
-709,904	673,566	-0,056	-0,106
-708,889	769,862	0,045	-0,090
-707,875	-200,000	0,009	-0,063
-706,860	107,531	-0,051	-0,044
-705,845	254,161	-0,083	-0,103
-704,831	-114,035	-0,064	0,009
-703,816	760,024	0,016	-0,032
-702,802	800,000	-0,087	-0,202
-701,787	697,227	-0,044	0,084
-700,772	-164,538	-0,116	0,004
-699,758	-157,225	-0,080	-0,003
-698,743	-8,988	0,177	-0,086
-697,729	575,329	-0,059	0,104
-696,714	117,536	-0,014	0,013
-695,699	-200,000	-0,010	0,038
-694,685	-52,889	-0,130	0,043
-693,670	-55,017	-0,046	-0,015
-692,656	-200,000	-0,042	-0,170
-691,641	-200,000	0,035	0,122
-690,627	-15,179	0,072	0,033
-689,612	210,235	-0,028	0,032
-688,597	800,000	-0,040	-0,089
-687,583	151,431	0,014	0,014
-686,568	800,000	-0,091	-0,202
-685,554	448,893	0,059	-0,094
-684,539	133,086	0,061	-0,057
-683,524	-77,990	0,029	-0,007
-682,510	-47,286	-0,080	0,028
-681,495	272,028	-0,070	-0,090
-680,481	-200,000	0,020	-0,152
-679,466	418,568	0,095	-0,147
-678,451	-105,915	-0,095	-0,015
-677,437	181,127	-0,074	0,079
-676,422	-200,000	0,011	0,110
-675,408	-26,896	-0,126	-0,053
-674,393	-200,000	0,004	-0,048
-673,378	153,336	-0,057	0,057
-672,364	-200,000	0,008	-0,079
-671,349	-1,757	-0,175	0,089
-670,335	800,000	-0,046	0,108
-669,320	21,310	-0,083	0,049
-668,305	800,000	0,033	-0,093
-667,291	42,370	-0,047	0,031
-666,276	-200,000	0,035	0,135
-665,262	-200,000	0,017	-0,154
-664,247	-62,708	-0,128	0,038
-663,232	-183,125	0,016	-0,000
-662,218	-200,000	0,019	-0,086
-661,203	-200,000	0,005	-0,032
-660,189	800,000	-0,048	-0,097
-659,174	408,815	0,104	-0,160
-658,159	0,738	-0,189	-0,098
-657,145	-200,000	-0,030	-0,163
-656,130	-200,000	-0,018	-0,061
-655,116	800,000	-0,061	-0,168
-654,101	-114,429	0,072	-0,010
-653,086	328,953	0,084	0,117
-652,072	-177,268	-0,122	0,002
-651,057	-200,000	-0,004	-0,025
-650,043	-57,570	-0,067	-0,021
-649,028	-36,602	0,075	-0,029
-648,014	-200,000	-0,010	0,060
-646,999	-171,487	-0,083	0,002
-645,984	-110,776	0,085	0,013
-644,970	71,926	-0,048	0,036
-643,955	-132,148	-0,150	-0,014
-642,941	418,444	-0,024	-0,038
-641,926	-200,000	0,009	-0,047
-640,911	42,448	0,011	0,007
-639,897	-200,000	0,011	0,046
-638,882	193,963	0,078	0,086
-637,868	83,284	0,063	-0,049
-636,853	-98,064	-0,124	-0,023
-635,838	-200,000	-0,026	-0,135
-634,824	800,000	0,055	-0,112
-633,809	-200,000	0,006	-0,113
-632,795	82,365	-0,050	0,039
-631,780	-200,000	0,007	0,053
-630,765	288,907	-0,021	0,028
-629,751	-47,266	-0,037	-0,013
-628,736	800,000	0,019	-0,045
-627,722	-200,000	-0,009	0,055
-626,707	-193,107	0,124	0,001
-625,692	-20,968	-0,013	0,006
-624,678	-121,490	-0,108	-0,013
-623,663	297,807	0,110	-0,146
-622,649	800,000	-0,056	-0,136
-621,634	-200,000	-0,003	-0,027
-620,619	-134,118	-0,112	0,010
-619,605	-200,000	-0,024	-0,130
-618,590	-69,635	-0,051	0,014
-617,576	55,387	-0,178	0,124
-616,561	-200,000	0,005	-0,059
-615,546	800,000	-0,024	0,074
-614,532	581,575	-0,034	-0,060
-613,517	160,200	-0,073	0,073
-612,503	66,324	0,074	-0,054
-611,488	800,000	-0,058	-0,135
-610,474	800,000	-0,033	0,078
-609,459	72,437	-0,108	0,081
-608,444	-200,000	-0,002	-0,069
-607,430	-127,012	-0,103	-0,011
-606,415	-200,000	-0,007	-0,105
-605,401	800,000	-0,042	0,095
-604,386	-200,000	0,014	-0,085
-603,371	-200,000	0,003	-0,063
-602,357	800,000	-0,018	0,044
-601,342	-200,000	-0,005	0,047
-600,328	173,667	-0,084	-0,088
-599,313	320,946	0,036	-0,049
-598,298	175,434	0,111	-0,116
-597,284	13,177	-0,087	0,048
-596,269	-33,585	0,140	-0,055
-595,255	65,287	-0,147	0,107
-594,240	-166,011	-0,092	-0,003
-593,225	-200,000	0,002	-0,161
-592,211	-200,000	-0,027	-0,108
-591,196	-129,404	-0,068	0,007
-590,182	388,073	0,081	0,121
-589,167	800,000	0,036	0,111
-588,152	-200,000	-0,027	0,190
-587,138	-200,000	0,008	0,142
-586,123	-60,329	0,064	0,019
-585,109	-105,443	-0,043	-0,007
-584,094	38,002	-0,093	0,060
-583,079	800,000	0,080	0,164
-582,065	-48,446	0,075	0,026
-581,050	19,569	0,083	0,048
-580,036	800,000	0,071	0,166
-579,021	290,854	0,002	-0,002
-578,006	235,392	-0,085	-0,101
-576,992	-130,284	0,143	-0,014
-575,977	713,102	-0,021	0,040
-574,963	23,474	0,137	-0,081
-573,948	70,112	-0,093	-0,069
-572,934	84,710	-0,047	-0,037
-571,919	-158,086	0,080	-0,003
-570,904	628,851	0,029	-0,053
-569,890	-110,053	-0,111	-0,017
-568,875	12,545	0,105	-0,058
-567,861	-109,532	0,063	0,010
-566,846	800,000	0,014	0,043
-565,831	210,101	0,056	-0,063
-564,817	-58,356	-0,107	-0,033
-563,802	263,805	-0,112	0,141
-562,788	451,946	-0,063	-0,100
-561,773	220,678	0,045	0,052
-560,758	-200,000	-0,006	0,114
-559,744	-144,434	-0,084	0,006
-558,729	-22,358	0,096	0,042
-557,715	-200,000	-0,013	-0,121
-556,700	329,712	0,032	-0,045
-555,685	674,326	-0,074	-0,139
-554,671	-52,821	-0,055	-0,018
-553,656	-77,392	-0,110	0,027
-552,642	536,705	0,064	0,110
-551,627	800,000	-0,041	-0,099
-550,612	800,000	-0,093	0,194
-549,598	-45,941	0,052	-0,018
-548,583	41,809	-0,104	0,067
-547,569	-164,459	0,023	-0,001
-546,554	-200,000	0,039	0,210
-545,539	5,995	0,001	-0,001
-544,525	-200,000	-0,003	-0,013
-543,510	-48,558	0,098	0,034
-542,496	535,618	-0,033	0,057
-541,481	-1,331	-0,089	-0,045
-540,466	712,492	-0,066	-0,126
-539,452	-46,162	-0,065	-0,023
-538,437	-24,875	-0,131	0,056
-537,423	-200,000	-0,006	-0,077
-536,408	792,290	-0,083	-0,164
-535,393	-47,291	-0,068	-0,024
-534,379	-200,000	0,042	-0,180
-533,364	41,925	0,077	-0,050
-532,350	49,880	0,064	-0,043
-531,335	-200,000	0,014	0,087
-530,321	13,976	0,025	-0,014
-529,306	-5,264	0,027	0,013
-528,291	75,947	0,052	-0,039
-527,277	800,000	-0,055	0,134
-526,262	181,469	-0,062	0,065
-525,248	800,000	-0,016	-0,038
-524,233	-200,000	-0,006	0,066
-523,218	595,819	0,015	0,027
-522,204	298,789	0,013	0,017
-521,189	-93,970	-0,174	-0,034
-520,175	-103,316	0,147	-0,025
-519,160	340,424	-0,077	-0,109
-518,145	234,724	0,044	-0,052
-517,131	800,000	0,029	0,089
-516,116	302,644	0,030	0,040
-515,102	117,188	-0,072	-0,063
-514,087	-44,392	0,131	-0,047
-513,072	-146,786	-0,053	0,003
-512,058	65,367	-0,103	-0,075
-511,043	-73,663	0,008	0,002
-510,029	199,422	0,031	0,034
-509,014	-43,672	0,097	0,035
-507,999	800,000	-0,042	0,129
-506,985	581,001	-0,045	-0,079
-505,970	-50,041	-0,133	-0,045
-504,956	-43,000	-0,031	-0,011
-503,941	-200,000	0,009	0,064
-502,926	-200,000	0,009	0,080
-501,912	225,245	0,076	0,089
-500,897	-47,405	-0,026	-0,009
-499,883	131,700	0,074	-0,068
-498,868	99,129	-0,197	0,164
-497,853	-94,809	-0,105	-0,020
-496,839	800,000	0,044	-0,093
-495,824	225,588	-0,057	-0,067
-494,810	-103,307	0,049	0,008
-493,795	573,371	-0,084	0,147
-492,781	12,062	0,074	0,041
-491,766	-163,299	-0,004	-0,000
-490,751	-37,877	-0,129	0,049
-489,737	-118,427	0,016	0,002
-488,722	-200,000	0,008	0,057
-487,708	800,000	-0,047	0,104
-486,693	800,000	0,019	0,045
-485,678	-10,810	0,033	-0,015
-484,664	78,631	-0,142	0,109
-483,649	-49,218	0,087	-0,030
-482,635	38,768	0,093	-0,059
-481,620	437,469	0,075	-0,118
-480,605	461,112	0,071	0,115
-479,591	184,138	-0,014	-0,015
-478,576	-10,412	-0,056	0,026
-477,562	51,092	0,061	0,042
-476,547	254,164	-0,044	-0,054
-475,532	-74,947	0,025	-0,007
-474,518	116,348	0,020	-0,017
-473,503	216,095	-0,095	0,108
-472,489	-200,000	0,007	0,064
-471,474	800,000	0,048	0,150
-470,459	-62,451	-0,101	0,030
-469,445	79,403	0,040	-0,031
-468,430	97,972	-0,028	-0,023
-467,416	800,000	-0,024	0,059
-466,401	-59,335	-0,101	0,031
-465,386	-103,618	0,187	-0,031
-464,372	3,770	0,108	0,056
-463,357	63,920	-0,053	0,038
-462,343	752,025	-0,041	-0,080
-461,328	192,389	-0,018	0,019
-460,313	-200,000	-0,024	-0,085
-459,299	237,384	0,071	-0,084
-458,284	123,074	0,069	0,062
-457,270	-176,912	0,072	0,001
-456,255	800,000	0,042	0,090
-455,241	20,374	-0,114	-0,066
-454,226	36,427	0,052	-0,033
-453,211	627,567	-0,064	-0,116
-452,197	-184,764	0,195	0,002
-451,182	120,205	0,056	0,050
-450,168	-200,000	-0,012	0,090
-449,153	212,141	0,025	-0,028
-448,138	3,998	-0,144	-0,075
-447,124	-21,752	-0,081	-0,035
-446,109	53,213	0,095	0,065
-445,095	-200,000	-0,001	-0,049
-444,080	-24,109	0,082	-0,035
-443,065	800,000	-0,066	0,167
-442,051	26,387	-0,114	0,068
-441,036	-70,289	-0,065	0,018
-440,022	-200,000	-0,028	-0,169
-439,007	7,375	0,060	-0,032
-437,992	-69,093	-0,064	-0,018
-436,978	-12,015	0,140	0,066
-435,963	65,991	-0,038	-0,028
-434,949	-35,905	-0,164	-0,063
-433,934	-148,480	0,075	-0,004
-432,919	200,249	-0,072	-0,079
-431,905	-200,000	-0,001	-0,121
-430,890	46,063	-0,142	-0,094
-429,876	-73,324	0,086	-0,022
-428,861	800,000	-0,021	0,046
-427,846	260,520	-0,059	-0,074
-426,832	13,812	-0,054	0,030
-425,817	-67,030	0,045	0,013
-424,803	-153,366	-0,092	0,005
-423,788	-39,210	0,171	0,064
-422,773	421,477	-0,068	-0,105
-421,759	-10,448	0,140	-0,066
-420,744	-78,382	-0,069	-0,017
-419,730	-3,405	-0,060	-0,030
-418,715	-103,214	0,187	-0,031
-417,701	113,975	0,079	-0,069
-416,686	-2,626	0,051	-0,025
-415,671	230,251	0,047	-0,055
-414,657	13,188	0,043	0,024
-413,642	538,591	0,038	0,065
-412,628	67,159	0,079	-0,057
-411,613	274,097	0,034	-0,043
-410,598	-200,000	-0,002	-0,179
-409,584	10,615	0,091	0,049
-408,569	115,676	0,011	0,010
-407,555	-200,000	0,011	0,057
-406,540	-31,404	0,174	0,070
-405,525	14,422	-0,034	-0,019
-404,511	-29,806	-0,176	-0,071
-403,496	-200,000	-0,035	-0,145
-402,482	189,185	-0,040	-0,043
-401,467	800,000	0,051	0,114
-400,452	-159,385	0,101	0,004
-399,438	67,783	0,077	0,057
-398,423	-57,506	-0,157	0,049
-397,409	595,807	-0,041	-0,073
-396,394	-200,000	-0,013	-0,084
-395,379	543,741	0,045	-0,078
-394,365	-2,256	0,086	0,043
-393,350	166,979	-0,018	-0,019
-392,336	597,454	0,067	0,119
-391,321	-49,802	-0,097	-0,033
-390,306	33,208	-0,059	0,037
-389,292	-200,000	-0,045	0,148
-388,277	800,000	0,041	-0,095
-387,263	293,590	0,057	-0,074
-386,248	-27,931	0,088	0,036
-385,233	-200,000	-0,001	0,089
-384,219	21,638	0,078	-0,045
-383,204	-200,000	-0,010	-0,054
-382,190	-56,667	-0,130	-0,041
-381,175	465,634	-0,041	0,066
-380,160	-200,000	0,008	0,103
-379,146	800,000	-0,064	0,131
-378,131	-28,082	0,101	0,041
-377,117	-200,000	0,035	-0,125
-376,102	-200,000	-0,033	-0,142
-375,088	-200,000	0,025	-0,110
-374,073	128,817	0,052	-0,048
-373,058	-200,000	0,004	0,096
-372,044	617,302	0,049	0,089
-371,029	258,996	0,033	0,041
-370,015	12,820	0,078	-0,043
-369,000	156,699	0,137	-0,135
-367,985	364,631	0,080	-0,115
-366,971	800,000	0,026	-0,076
-365,956	800,000	-0,071	-0,169
-364,942	114,380	0,063	0,055
-363,927	800,000	0,057	0,126
-362,912	800,000	-0,034	-0,082
-361,898	-62,028	0,080	0,024
-360,883	-32,301	-0,097	0,039
-359,869	54,412	-0,051	0,035
-358,854	150,201	0,066	-0,064
-357,839	-152,808	0,121	0,006
-356,825	-200,000	-0,006	0,023
-355,810	-91,403	0,026	0,005
-354,796	27,859	-0,023	0,014
-353,781	198,739	0,062	-0,068
-352,766	-144,823	-0,075	-0,005
-351,752	-23,736	-0,071	0,030
-350,737	-200,000	0,002	-0,016
-349,723	800,000	0,010	0,026
-348,708	800,000	0,029	0,083
-347,693	305,499	-0,028	0,038
-346,679	-163,415	-0,103	-0,003
-345,664	233,905	-0,016	-0,019
-344,650	-200,000	-0,001	0,074
-343,635	436,585	0,077	0,121
-342,620	800,000	0,021	0,054
-341,606	-200,000	0,004	0,099
-340,591	-200,000	-0,019	-0,268
-339,577	-200,000	-0,003	-0,078
-338,562	576,681	0,051	-0,089
-337,548	446,007	0,024	0,038
-336,533	-200,000	-0,011	-0,089
-335,518	-200,000	-0,000	-0,051
-334,504	85,605	-0,063	0,050
-333,489	-98,252	-0,085	-0,015
-332,475	-200,000	-0,015	-0,108
-331,460	-200,000	0,021	-0,083
-330,445	-47,300	0,137	-0,047
-329,431	800,000	0,021	-0,049
-328,416	160,332	0,162	0,161
-327,402	290,884	0,037	0,048
-326,387	-200,000	0,007	0,050
-325,372	-28,106	-0,070	-0,029
-324,358	108,378	-0,047	-0,040
-323,343	159,224	0,057	-0,057
-322,329	-28,265	0,129	0,053
-321,314	-33,347	-0,039	-0,015
-320,299	-8,475	0,116	0,055
-319,285	-63,680	-0,156	-0,045
-318,270	-200,000	0,018	-0,113
-317,256	800,000	-0,013	0,038
-316,241	-176,097	-0,146	-0,003
-315,226	-186,848	0,075	0,001
-314,212	308,104	-0,051	-0,068
-313,197	-77,064	0,096	-0,024
-312,183	800,000	-0,026	-0,066
-311,168	568,368	-0,049	-0,086
-310,153	-200,000	0,036	-0,183
-309,139	-9,779	-0,132	0,062
-308,124	-153,567	0,081	0,004
-307,110	99,133	0,028	0,023
-306,095	-25,673	-0,156	-0,065
-305,080	164,153	0,047	-0,047
-304,066	-55,258	-0,079	0,025
-303,051	215,466	-0,020	-0,023
-302,037	-24,701	-0,176	0,074
-301,022	-94,855	0,093	-0,018
-300,008	211,795	0,088	-0,098
-298,993	-200,000	0,001	-0,007
-297,978	-200,000	-0,023	0,106
-296,964	800,000	0,050	-0,155
-295,949	31,555	-0,109	-0,067
-294,935	112,855	0,038	0,033
-293,920	-111,736	0,069	-0,010
-292,905	-79,036	0,051	0,012
-291,891	446,795	-0,081	0,127
-290,876	-200,000	0,009	0,188
-289,862	-200,000	-0,023	0,109
-288,847	800,000	-0,047	0,099
-287,832	-15,941	0,066	0,030
-286,818	304,519	0,069	0,091
-285,803	40,087	0,184	-0,117
-284,789	-200,000	-0,008	-0,045
-283,774	-200,000	-0,034	0,232
-282,759	-72,253	0,033	-0,009
-281,745	-58,584	0,057	-0,017
-280,730	-67,116	-0,050	-0,014
-279,716	235,221	0,072	0,084
-278,701	312,448	-0,050	-0,067
-277,686	-200,000	-0,027	0,133
-276,672	676,924	-0,057	0,106
-275,657	-200,000	-0,018	-0,065
-274,643	243,929	0,085	0,101
-273,628	284,225	-0,091	0,117
-272,613	-200,000	0,018	-0,206
-271,599	800,000	0,029	0,072
-270,584	115,862	0,061	0,053
-269,570	122,597	0,037	0,033
-268,555	-100,644	-0,050	-0,009
-267,540	800,000	-0,041	0,096
-266,526	-170,767	-0,111	0,003
-265,511	25,234	0,109	-0,064
-264,497	-200,000	0,038	0,174
-263,482	-57,236	0,094	0,029
-262,467	72,085	0,063	-0,047
-261,453	-106,579	-0,017	0,003
-260,438	6,731	0,032	0,017
-259,424	29,472	-0,118	0,071
-258,409	194,974	0,031	-0,033
-257,395	-133,177	0,153	-0,014
-256,380	-185,888	0,087	-0,001
-255,365	-200,000	0,001	0,049
-254,351	-200,000	0,042	0,269
-253,336	379,065	0,028	-0,041
-252,322	-192,392	-0,179	0,001
-251,307	10,846	-0,079	0,043
-250,292	-200,000	0,008	0,106
-249,278	-143,615	0,068	-0,005
-248,263	111,628	0,086	0,073
-247,249	11,508	0,102	0,055
-246,234	-200,000	-0,006	0,019
-245,219	-200,000	-0,025	0,168
-244,205	230,333	0,053	0,062
-243,190	-200,000	-0,001	0,133
-242,176	76,037	-0,012	-0,009
-241,161	-35,386	0,116	0,045
-240,146	604,978	-0,083	-0,147
-239,132	800,000	-0,018	-0,051
-238,117	-179,756	-0,258	0,004
-237,103	67,246	0,144	-0,105
-236,088	192,717	-0,063	-0,068
-235,073	0,207	-0,139	0,070
-234,059	-131,229	0,051	-0,005
-233,044	-200,000	-0,002	0,182
-232,030	-200,000	0,003	0,121
-231,015	23,387	0,110	0,064
-230,000	100,870	-0,035	-0,029
-228,986	-200,000	-0,006	-0,044
-227,971	-200,000	-0,029	0,097
-226,957	217,145	0,093	0,105
-225,942	-200,000	0,006	0,123
-224,927	283,605	0,050	-0,065
-223,913	-200,000	0,034	-0,154
-222,898	-200,000	0,012	-0,069
-221,884	800,000	-0,027	0,060
-220,869	800,000	0,039	0,117
-219,855	56,512	-0,048	-0,033
-218,840	97,978	0,032	0,026
-217,825	260,530	-0,023	-0,029
-216,811	800,000	-0,057	0,147
-215,796	-66,146	-0,095	0,027
-214,782	-125,890	-0,187	0,020
-213,767	108,616	0,052	0,044
-212,752	39,115	0,044	0,028
-211,738	-111,762	0,032	-0,005
-210,723	593,899	-0,032	0,057
-209,709	-200,000	0,007	-0,108
-208,694	-200,000	0,007	-0,085
-207,679	800,000	0,037	-0,101
-206,665	-138,958	-0,094	-0,007
-205,650	-52,908	0,189	-0,061
-204,636	-59,980	0,172	-0,052
-203,621	-187,565	0,085	-0,001
-202,606	800,000	-0,061	-0,131
-201,592	378,991	-0,050	0,073
-200,577	131,399	-0,120	0,110
-199,563	-80,817	-0,056	-0,013
-198,548	-3,016	0,095	0,047
-197,533	-200,000	-0,003	0,012
-196,519	89,953	0,089	-0,070
-195,504	-200,000	-0,026	-0,120
-194,490	-200,000	-0,013	-0,154
-193,475	-142,594	-0,088	0,006
-192,460	800,000	0,039	0,100
-191,446	-200,000	0,009	-0,075
-190,431	-107,266	-0,058	0,009
-189,417	182,917	-0,045	-0,047
-188,402	238,050	0,065	-0,077
-187,387	800,000	-0,046	-0,100
-186,373	53,480	0,101	-0,069
-185,358	199,823	-0,040	0,044
-184,344	-200,000	0,019	-0,102
-183,329	-200,000	0,008	-0,115
-182,315	-113,618	-0,033	-0,005
-181,300	-89,210	0,057	-0,012
-180,285	50,277	0,063	0,042
-179,271	-200,000	-0,002	0,176
-178,256	-115,884	-0,124	-0,016
-177,242	-94,291	0,217	0,042
-176,227	-145,911	-0,100	0,006
-175,212	800,000	0,036	-0,113
-174,198	16,982	0,043	-0,024
-173,183	373,603	0,020	-0,029
-172,169	385,999	-0,054	-0,079
-171,154	-128,918	-0,133	0,013
-170,139	111,008	0,040	0,035
-169,125	-32,984	0,167	-0,066
-168,110	-26,921	-0,105	-0,043
-167,096	53,462	0,131	0,089
-166,081	-189,001	-0,080	0,001
-165,066	136,747	-0,066	0,062
-164,052	-94,474	0,028	0,005
-163,037	-102,428	-0,089	-0,015
-162,023	-24,774	0,079	-0,033
-161,008	800,000	0,035	-0,110
-159,993	344,922	0,009	0,013
-158,979	699,700	0,024	0,045
-157,964	49,554	0,062	-0,041
-156,950	18,547	0,091	-0,052
-155,935	426,306	-0,074	0,113
-154,920	178,858	-0,101	0,104
-153,906	-155,162	-0,091	0,004
-152,891	48,955	-0,084	-0,056
-151,877	615,666	0,076	-0,136
-150,862	800,000	-0,044	0,114
-149,847	108,668	-0,097	0,082
-148,833	220,992	0,163	-0,186
-147,818	-165,367	0,018	0,001
-146,804	61,919	-0,050	0,035
-145,789	-200,000	0,020	-0,101
-144,775	-73,928	0,127	0,032
-143,760	-200,000	0,003	0,062
-142,745	65,950	0,009	-0,007
-141,731	184,650	-0,006	-0,006
-140,716	-90,555	-0,042	-0,008
-139,702	800,000	0,002	-0,006
-138,687	178,836	0,130	0,134
-137,672	800,000	0,015	0,044
-136,658	202,061	0,064	-0,070
-135,643	-200,000	0,015	0,094
-134,629	45,213	0,121	0,079
-133,614	139,180	-0,089	0,083
-132,599	716,643	0,030	0,057
-131,585	-103,089	-0,094	-0,016
-130,570	103,166	-0,030	-0,025
-129,556	255,795	0,026	0,032
-128,541	-200,000	0,003	-0,047
-127,526	-85,553	0,101	-0,022
-126,512	-200,000	0,008	-0,093
-125,497	270,452	0,065	0,082
-124,483	-18,522	-0,046	0,020
-123,468	-200,000	-0,008	-0,032
-122,453	70,854	-0,029	-0,022
-121,439	51,940	-0,103	-0,070
-120,424	183,815	0,038	0,039
-119,410	1,791	0,116	0,059
-118,395	151,207	0,080	-0,077
-117,380	474,703	-0,067	-0,107
-116,366	-200,000	-0,003	-0,098
-115,351	-200,000	-0,008	-0,215
-114,337	431,037	-0,097	-0,150
-113,322	-130,163	-0,037	0,003
-112,307	-152,254	0,075	0,004
-111,293	617,153	-0,023	-0,040
-110,278	-31,459	0,064	-0,025
-109,264	88,801	-0,111	-0,088
-108,249	-53,164	0,060	-0,019
-107,234	-200,000	0,010	0,112
-106,220	800,000	0,053	0,105
-105,205	11,231	0,098	-0,053
-104,191	28,704	0,100	0,060
-103,176	-151,918	0,143	0,007
-102,162	-200,000	0,018	-0,080
-101,147	175,067	-0,025	-0,025
-100,132	81,088	-0,004	0,003
-99,118	505,491	0,065	0,106
-98,103	-38,971	-0,042	-0,016
-97,089	-200,000	0,013	0,091
-96,074	-200,000	-0,012	0,088
-95,059	-24,580	-0,081	0,034
-94,045	800,000	-0,013	-0,028
-93,030	119,471	0,020	0,017
-92,016	-50,808	-0,125	-0,041
-91,001	800,000	0,033	0,082
-89,986	-142,433	0,044	0,003
-88,972	-200,000	0,003	-0,073
-87,957	-82,777	0,145	0,033
-86,943	174,028	0,074	0,076
-85,928	800,000	-0,056	-0,125
-84,913	249,762	-0,085	-0,102
-83,899	800,000	0,022	0,065
-82,884	136,854	0,075	-0,069
-81,870	-122,379	-0,042	0,005
-80,855	-101,146	0,074	0,013
-79,840	-55,215	-0,056	-0,018
-78,826	-200,000	0,008	-0,031
-77,811	-155,458	-0,066	-0,003
-76,797	-6,710	-0,095	0,046
-75,782	191,314	-0,104	0,111
-74,767	-51,514	0,085	0,028
-73,753	661,428	0,046	-0,085
-72,738	114,883	-0,026	0,023
-71,724	44,172	0,009	-0,006
-70,709	-200,000	0,031	-0,141
-69,694	800,000	-0,038	0,097
-68,680	800,000	-0,036	0,104
-67,665	429,143	0,087	0,133
-66,651	65,063	-0,107	0,076
-65,636	145,064	-0,069	-0,065
-64,622	800,000	0,049	0,111
-63,607	-200,000	-0,025	-0,103
-62,592	-176,458	0,023	-0,000
-61,578	85,309	-0,095	0,074
-60,563	392,520	-0,080	0,117
-59,549	160,379	0,055	0,054
-58,534	49,354	-1,951	-1,294
-57,519	418,267	-1,379	-2,089
-56,505	-200,000	-0,354	-4,224
-55,490	800,000	0,799	1,644
-54,476	800,000	5,151	11,178
-53,461	-200,000	21,065	335,977
-52,446	800,000	758,626	2343,752
-51,432	555,023	1661,552	2834,522
-50,417	73,571	1662,085	1227,727
-49,403	18,295	1535,771	863,311
-48,388	12,287	1458,922	791,043
-47,373	19,220	1449,664	819,274
-46,359	15,606	1439,116	796,084
-45,344	10,536	1435,136	769,700
-44,330	10,453	1433,265	768,271
-43,315	10,444	1431,395	767,192
-42,300	10,473	1429,514	766,291
-41,286	10,465	1428,449	765,650
-40,271	10,451	1427,028	764,795
-39,257	10,481	1425,798	764,249
-38,242	10,551	1424,711	763,965
-37,227	10,489	1423,668	763,081
-36,213	10,497	1422,337	762,376
-35,198	10,572	1421,149	762,063
-34,184	10,533	1420,384	761,438
-33,169	10,451	1419,028	760,293
-32,154	10,517	1417,835	759,935
-31,140	10,567	1416,629	759,498
-30,125	10,564	1415,743	758,979
-29,111	10,537	1414,430	758,114
-28,096	10,539	1413,323	757,503
-27,082	10,483	1412,235	756,623
-26,067	10,443	1411,181	755,844
-25,052	10,481	1409,975	755,347
-24,038	10,452	1409,016	754,664
-23,023	10,472	1408,237	754,313
-22,009	10,461	1407,205	753,678
-20,994	10,435	1406,057	752,912
-19,979	10,451	1405,044	752,413
-18,965	10,453	1404,066	751,870
-17,950	10,420	1403,375	751,314
-16,936	10,424	1402,676	750,930
-15,921	10,319	1401,547	749,809
-14,906	10,381	1400,511	749,512
-13,892	10,365	1399,694	748,969
-12,877	10,405	1398,674	748,579
-11,863	10,336	1398,060	747,903
-10,848	10,392	1397,007	747,568
-9,833	10,300	1396,230	746,697
-8,819	10,295	1395,358	746,176
-7,804	10,278	1394,528	745,626
-6,790	10,279	1393,528	745,065
-5,775	10,280	1392,434	744,454
-4,760	10,306	1391,245	743,911
-3,746	10,248	1390,496	743,215
-2,731	10,282	1389,732	742,931
-1,717	10,240	1389,079	742,360
-0,702	10,296	1386,968	741,460
0,313	14,301	1299,654	713,119
1,327	30,498	690,718	415,744
2,342	46,771	119,667	78,303
3,356	2,145	16,327	8,295
4,371	12,461	3,526	1,913
5,386	-6,819	0,946	0,452
6,400	-200,000	0,046	0,467
7,415	-21,662	-0,214	-0,092
8,429	376,404	-0,280	-0,404
9,444	-28,884	-0,370	-0,149
10,459	30,850	-0,291	-0,175
11,473	-71,712	-0,276	-0,072
12,488	414,173	-0,184	-0,276
13,502	18,036	-0,404	-0,227
14,517	-28,643	-0,341	-0,138
15,531	134,470	-0,357	-0,326
16,546	101,593	-0,230	-0,189
17,561	189,109	-0,282	-0,298
18,575	-160,427	-0,142	-0,005
19,590	327,350	-0,149	-0,202
20,604	92,187	-0,246	-0,195
21,619	33,897	-0,510	-0,312
22,634	366,371	-0,352	-0,502
23,648	-66,838	-0,570	-0,158
24,663	148,916	-0,275	-0,262
25,677	102,575	-0,410	-0,338
26,692	123,033	-0,312	-0,275
27,707	62,452	-0,422	-0,296
28,721	34,296	-0,339	-0,207
29,736	107,000	-0,395	-0,330
30,750	141,876	-0,403	-0,376
31,765	28,181	-0,374	-0,222
32,780	45,225	-0,429	-0,278
33,794	100,116	-0,462	-0,377
34,809	58,932	-0,270	-0,187
35,823	-4,833	-0,459	-0,222
36,838	-6,930	-0,357	-0,170
37,853	187,258	-0,370	-0,389
38,867	122,217	-0,337	-0,296
39,882	-10,664	-0,239	-0,111
40,896	-28,334	-0,416	-0,168
41,911	117,078	-0,253	-0,218
42,926	29,265	-0,314	-0,187
43,940	127,483	-0,300	-0,268
44,955	219,356	-0,276	-0,311
45,969	307,224	-0,268	-0,352
46,984	205,079	-0,287	-0,313
47,999	58,253	-0,264	-0,182
49,013	-37,754	-0,409	-0,152
50,028	-83,743	-0,355	-0,079
51,042	13,947	-0,407	-0,222
52,057	69,012	-0,440	-0,317
53,071	84,504	-0,352	-0,270
54,086	35,062	-0,346	-0,212
55,101	112,457	-0,206	-0,175
56,115	-17,992	-0,459	-0,201
57,130	47,447	-0,377	-0,246
58,144	89,075	-0,412	-0,322
59,159	144,712	-0,339	-0,318
60,174	-115,422	-0,359	-0,047
61,188	9,569	-0,333	-0,176
62,203	-23,141	-0,250	-0,105
63,217	-0,901	-0,385	-0,191
64,232	10,586	-0,373	-0,199
65,247	-15,230	-0,498	-0,223
66,261	196,742	-0,160	-0,171
67,276	2,390	-0,396	-0,201
68,290	172,435	-0,325	-0,328
69,305	37,902	-0,345	-0,215
70,320	-15,441	-0,425	-0,190
71,334	64,622	-0,301	-0,213
72,349	-27,625	-0,334	-0,136
73,363	20,074	-0,398	-0,224
74,378	34,497	-0,301	-0,184
75,393	176,409	-0,299	-0,305
76,407	116,914	-0,286	-0,246
77,422	75,563	-0,303	-0,224
78,436	-96,843	-0,285	-0,052
79,451	54,081	-0,393	-0,265
80,466	7,950	-0,238	-0,125
81,480	266,717	-0,185	-0,227
82,495	48,082	-0,280	-0,183
83,509	146,413	-0,303	-0,286
84,524	20,097	-0,240	-0,135
85,539	136,047	-0,257	-0,235
86,553	56,986	-0,375	-0,255
87,568	-35,765	-0,341	-0,129
88,582	226,493	-0,300	-0,341
89,597	110,327	-0,318	-0,267
90,611	-129,218	-0,164	-0,016
91,626	-88,251	-0,292	-0,061
92,641	51,886	-0,175	-0,116
93,655	-17,265	-0,265	-0,117
94,670	-51,059	-0,325	-0,106
95,684	29,709	-0,319	-0,190
96,699	-78,133	-0,359	-0,086
97,714	-9,584	-0,194	-0,090
98,728	107,662	-0,240	-0,200
99,743	24,240	-0,276	-0,159
100,757	57,444	-0,248	-0,169
101,772	519,533	-0,237	-0,389
102,787	127,929	-0,254	-0,226
103,801	105,705	-0,304	-0,251
104,816	-27,825	-0,339	-0,137
105,830	-17,370	-0,328	-0,144
106,845	-200,000	-0,029	-0,194
107,860	-70,840	-0,280	-0,073
108,874	350,765	-0,125	-0,174
109,889	360,062	-0,205	-0,288
110,903	57,712	-0,402	-0,274
111,918	372,794	-0,116	-0,165
112,933	468,764	-0,127	-0,200
113,947	77,788	-0,210	-0,156
114,962	325,752	-0,262	-0,351
115,976	60,226	-0,294	-0,203
116,991	-4,661	-0,330	-0,158
118,006	20,162	-0,288	-0,162
119,020	577,500	-0,203	-0,349
120,035	-18,826	-0,217	-0,094
121,049	-155,465	-0,300	-0,013
122,064	135,969	-0,200	-0,182
123,079	63,934	-0,326	-0,229
124,093	16,160	-0,421	-0,231
125,108	-20,443	-0,260	-0,111
126,122	121,296	-0,142	-0,124
127,137	-64,057	-0,278	-0,079
128,151	567,642	-0,106	-0,181
129,166	-61,479	-0,303	-0,088
130,181	364,896	-0,225	-0,317
131,195	191,670	-0,301	-0,317
132,210	108,727	-0,322	-0,268
133,224	-47,943	-0,245	-0,082
134,239	281,065	-0,173	-0,217
135,254	29,389	-0,215	-0,127
136,268	-23,745	-0,168	-0,070
137,283	565,643	-0,158	-0,268
138,297	-59,412	-0,378	-0,113
139,312	3,335	-0,296	-0,150
140,327	569,183	-0,173	-0,295
141,341	-11,880	-0,209	-0,095
142,356	60,279	-0,237	-0,163
143,370	-10,022	-0,383	-0,177
144,385	274,366	-0,176	-0,218
145,400	223,677	-0,265	-0,299
146,414	800,000	-0,121	-0,264
147,429	-42,867	-0,263	-0,093
148,443	505,730	-0,112	-0,181
149,458	265,388	-0,182	-0,221
150,473	222,317	-0,184	-0,206
151,487	106,132	-0,322	-0,266
152,502	-47,471	-0,255	-0,086
153,516	319,063	-0,164	-0,216
154,531	17,101	-0,254	-0,140
155,546	-102,066	-0,285	-0,047
156,560	93,416	-0,215	-0,170
157,575	-31,223	-0,338	-0,132
158,589	255,940	-0,214	-0,255
159,604	88,591	-0,254	-0,197
160,619	18,003	-0,346	-0,191
161,633	154,807	-0,154	-0,147
162,648	-118,165	-0,242	-0,030
163,662	-175,845	-0,117	0,002
164,677	-59,266	-0,212	-0,063
165,692	29,020	-0,167	-0,099
166,706	25,207	-0,326	-0,188
167,721	200,926	-0,225	-0,241
168,735	-22,081	-0,348	-0,146
169,750	53,971	-0,229	-0,153
170,764	79,583	-0,226	-0,168
171,779	104,429	-0,229	-0,187
172,794	-118,049	-0,228	-0,028
173,808	183,046	-0,193	-0,199
174,823	753,086	-0,161	-0,304
175,837	90,477	-0,226	-0,176
176,852	58,182	-0,215	-0,146
177,867	-47,979	-0,161	-0,054
178,881	-118,183	-0,104	-0,013
179,896	-17,318	-0,322	-0,140
180,910	62,782	-0,168	-0,117
181,925	39,751	-0,312	-0,194
182,940	49,837	-0,319	-0,208
183,954	199,938	-0,284	-0,303
184,969	-8,250	-0,180	-0,084
185,983	405,124	-0,159	-0,233
186,998	-78,428	-0,257	-0,061
188,013	800,000	-0,079	-0,170
189,027	-45,116	-0,137	-0,047
190,042	58,588	-0,191	-0,130
191,056	146,235	-0,174	-0,162
192,071	58,892	-0,242	-0,165
193,086	158,273	-0,038	-0,036
194,100	34,682	-0,166	-0,101
195,115	53,855	-0,243	-0,162
196,129	17,097	-0,282	-0,154
197,144	105,981	-0,258	-0,211
198,159	44,229	-0,224	-0,142
199,173	151,037	-0,126	-0,119
200,188	17,768	-0,180	-0,099
201,202	81,420	-0,082	-0,062
202,217	-19,636	-0,215	-0,092
203,232	800,000	-0,107	-0,214
204,246	-26,070	-0,332	-0,135
205,261	462,072	-0,094	-0,145
206,275	364,022	-0,176	-0,246
207,290	175,386	-0,154	-0,155
208,304	-87,654	-0,252	-0,052
209,319	-65,962	-0,289	-0,080
210,334	303,563	-0,158	-0,203
211,348	319,743	-0,199	-0,262
212,363	211,564	-0,175	-0,191
213,377	-50,165	-0,340	-0,111
214,392	-169,881	-0,185	0,005
215,407	-64,848	-0,313	-0,087
216,421	35,727	-0,126	-0,076
217,436	80,514	-0,206	-0,153
218,450	-162,047	-0,235	-0,008
219,465	359,255	-0,141	-0,196
220,480	-24,843	-0,282	-0,116
221,494	800,000	-0,078	-0,199
222,509	162,580	-0,149	-0,145
223,523	10,628	-0,085	-0,045
224,538	-72,910	-0,185	-0,047
225,553	157,527	-0,232	-0,222
226,567	115,446	-0,231	-0,195
227,582	82,475	-0,256	-0,192
228,596	88,061	-0,141	-0,108
229,611	800,000	-0,112	-0,303
230,626	49,683	-0,216	-0,141
231,640	439,997	-0,078	-0,119
232,655	49,548	-0,196	-0,127
233,669	70,691	-0,185	-0,132
234,684	-26,040	-0,193	-0,078
235,699	151,131	-0,194	-0,183
236,713	-125,472	-0,089	-0,009
237,728	-81,391	-0,199	-0,045
238,742	-6,347	-0,283	-0,133
239,757	115,954	-0,151	-0,128
240,772	-184,832	-0,179	0,002
241,786	71,981	-0,136	-0,098
242,801	137,958	-0,104	-0,094
243,815	-157,055	-0,243	0,010
244,830	-17,874	-0,224	-0,097
245,844	211,653	-0,158	-0,172
246,859	800,000	-0,061	-0,180
247,874	42,342	-0,195	-0,122
248,888	127,381	-0,260	-0,227
249,903	7,293	-0,121	-0,062
250,917	57,194	-0,192	-0,129
251,932	197,204	-0,135	-0,142
252,947	800,000	-0,048	-0,099
253,961	212,799	-0,082	-0,090
254,976	390,724	-0,097	-0,140
255,990	-49,641	-0,245	-0,080
257,005	45,222	-0,206	-0,130
258,020	-14,349	-0,124	-0,055
259,034	246,558	-0,125	-0,146
260,049	-69,703	-0,206	0,054
261,063	-39,391	-0,145	0,052
262,078	144,531	-0,171	-0,157
263,093	500,280	-0,143	-0,229
264,107	-68,620	-0,269	-0,071
265,122	53,089	-0,191	-0,126
266,136	89,264	-0,070	-0,054
267,151	-72,675	-0,166	-0,042
268,166	-67,688	-0,150	0,040
269,180	-131,552	-0,173	-0,015
270,195	140,445	-0,227	-0,206
271,209	-131,689	-0,152	-0,014
272,224	626,330	-0,106	-0,186
273,239	-58,413	-0,182	-0,054
274,253	532,244	-0,041	-0,067
275,268	-28,710	-0,194	-0,077
276,282	122,773	-0,210	-0,181
277,297	213,555	-0,145	-0,158
278,312	124,654	-0,219	-0,190
279,326	159,120	-0,092	-0,089
280,341	107,488	-0,121	0,099
281,355	347,225	-0,110	-0,150
282,370	-40,195	-0,233	-0,083
283,384	39,421	-0,183	-0,113
284,399	-17,071	-0,269	-0,116
285,414	522,533	-0,088	-0,142
286,428	178,294	-0,178	-0,179
287,443	219,150	-0,068	0,075
288,457	-50,638	-0,059	0,019
289,472	-53,316	-0,048	-0,015
290,487	225,402	-0,182	-0,203
291,501	-158,740	-0,168	-0,007
292,516	118,816	-0,216	-0,183
293,530	95,277	-0,113	-0,088
294,545	-24,496	-0,264	-0,108
295,560	98,365	-0,163	-0,129
296,574	86,149	-0,172	-0,130
297,589	-118,932	-0,095	0,011
298,603	55,753	-0,192	-0,128
299,618	786,854	-0,084	-0,160
300,633	237,252	-0,062	-0,071
301,647	800,000	0,001	0,003
302,662	174,630	-0,059	-0,058
303,676	-27,758	-0,195	-0,077
304,691	83,036	-0,119	-0,089
305,706	174,286	-0,176	-0,174
306,720	-22,283	-0,097	-0,040
307,735	-46,300	-0,226	-0,076
308,749	-200,000	0,016	0,083
309,764	399,905	-0,070	-0,102
310,779	83,197	-0,079	-0,059
311,793	113,286	-0,110	-0,091
312,808	-200,000	-0,043	-0,234
313,822	800,000	-0,047	-0,126
314,837	24,195	-0,269	-0,152
315,852	-157,125	-0,240	-0,010
316,866	266,232	-0,163	-0,196
317,881	89,214	0,040	-0,031
318,895	-95,019	-0,194	0,036
319,910	83,679	-0,085	-0,063
320,925	119,797	-0,165	-0,141
321,939	107,904	-0,177	-0,145
322,954	-200,000	-0,053	-0,185
323,968	456,461	-0,077	-0,117
324,983	-143,235	-0,129	-0,008
325,997	161,174	-0,147	-0,141
327,012	16,076	-0,294	-0,158
328,027	800,000	-0,054	-0,136
329,041	378,976	-0,056	-0,078
330,056	368,788	-0,033	0,046
331,070	193,518	-0,075	-0,078
332,085	-36,217	-0,048	-0,018
333,100	-158,718	-0,216	0,008
334,114	-125,006	-0,174	0,018
335,129	-97,839	-0,089	-0,016
336,143	93,325	-0,210	-0,163
337,158	-108,225	-0,119	-0,017
338,173	255,118	-0,100	-0,118
339,187	74,949	-0,194	-0,140
340,202	199,438	-0,058	-0,061
341,216	111,680	-0,212	-0,175
342,231	171,521	-0,123	-0,121
343,246	148,862	-0,133	-0,123
344,260	188,505	-0,128	-0,131
345,275	-103,786	-0,096	-0,015
346,289	579,991	-0,014	-0,024
347,304	69,235	-0,051	0,036
348,319	182,882	-0,118	-0,120
349,333	800,000	-0,074	-0,143
350,348	-98,398	-0,053	-0,009
351,362	-200,000	0,027	-0,110
352,377	149,669	-0,110	0,102
353,392	618,042	-0,040	0,069
354,406	250,635	-0,049	-0,057
355,421	206,450	1309,786	1396,804
356,435	158,779	1469,867	1397,283
