DTS Sentinel unit serial number:	SN410029Multiplexer serial number:	ORYXHardware model number:	OX2-SRSoftware version number:	ORYX F/W v4,00 Oryx Data Collector v3.7.2.0data status	okinstallation	B3 Nyhavnadifferential loss correction	single-endedforward channel	channel 1reverse channel	N/Adate	2023/11/30time	03:32:30forward acquisition time	300,00reverse acquisition time	0,00gamma	499,1914k internal	0,3210k external	0,3210temperature offset calibration	1,0000default loss term (dB/km)	0,3820temperature slope calibration	1,0000multiplexer offset coefficient	1,0000multiplexer slope coefficient	1,0000fibre end	0,00T internal ref (°C)	10,19T ext. ref 1 (°C)	-5,38T ext. ref 2 (°C)	-5,48length (m)	temperature (°C)	Stokes	anti-Stokes-744,400	290,544	-0,231	-0,306
-743,385	-200,000	-0,047	0,301
-742,371	-159,597	-0,057	-0,002
-741,356	800,000	-0,100	0,309
-740,342	791,660	-0,181	-0,363
-739,327	-200,000	-0,030	0,127
-738,312	775,145	-0,190	-0,379
-737,298	-200,000	-0,038	0,229
-736,283	70,527	-0,270	-0,203
-735,269	781,519	0,161	0,321
-734,254	29,971	-0,297	-0,183
-733,239	-110,770	-0,247	0,037
-732,225	63,270	-0,163	-0,118
-731,210	447,556	0,122	0,196
-730,196	8,531	-0,069	-0,038
-729,181	0,087	-0,030	-0,015
-728,167	-105,813	-0,070	-0,011
-727,152	132,177	-0,070	-0,065
-726,137	235,628	0,057	0,069
-725,123	-45,721	-0,159	-0,056
-724,108	-200,000	-0,063	-0,227
-723,094	427,365	0,077	-0,121
-722,079	-200,000	-0,025	-0,092
-721,064	-200,000	0,009	-0,076
-720,050	-200,000	-0,018	-0,062
-719,035	-113,280	-0,044	-0,006
-718,021	-200,000	-0,030	-0,127
-717,006	800,000	-0,026	0,080
-715,991	125,546	-0,035	-0,032
-714,977	35,328	-0,064	-0,040
-713,962	631,150	0,008	-0,015
-712,948	-47,328	0,039	0,014
-711,933	44,766	-0,039	-0,026
-710,918	-200,000	0,028	-0,098
-709,904	-9,047	-0,127	-0,061
-708,889	-31,180	-0,166	-0,067
-707,875	800,000	-0,065	-0,155
-706,860	-51,504	-0,114	-0,038
-705,845	-139,989	-0,126	0,010
-704,831	-200,000	-0,001	0,076
-703,816	-127,752	0,136	0,014
-702,802	23,967	-0,084	-0,050
-701,787	-200,000	0,009	-0,065
-700,772	-200,000	-0,004	0,021
-699,758	290,355	0,061	0,080
-698,743	800,000	-0,046	0,108
-697,729	-200,000	-0,001	0,010
-696,714	-51,067	0,083	0,028
-695,699	-90,501	-0,076	0,016
-694,685	-61,860	-0,132	-0,040
-693,670	-200,000	-0,032	-0,127
-692,656	-200,000	-0,006	-0,061
-691,641	-200,000	0,055	0,189
-690,627	-115,823	0,076	0,010
-689,612	-62,346	-0,097	0,029
-688,597	62,677	-0,148	0,107
-687,583	800,000	-0,017	-0,052
-686,568	93,451	0,024	0,020
-685,554	517,700	-0,062	-0,105
-684,539	-200,000	0,002	-0,075
-683,524	800,000	-0,031	-0,078
-682,510	-161,889	-0,054	0,002
-681,495	-129,345	-0,077	-0,008
-680,481	-120,050	0,047	0,006
-679,466	-145,531	-0,127	-0,008
-678,451	-200,000	-0,005	0,027
-677,437	800,000	-0,057	-0,137
-676,422	-200,000	0,028	0,089
-675,408	-123,158	-0,070	-0,008
-674,393	262,184	-0,008	0,010
-673,378	-118,501	-0,126	0,016
-672,364	18,433	-0,181	-0,104
-671,349	559,611	-0,107	-0,188
-670,335	-200,000	-0,011	-0,042
-669,320	170,540	0,044	0,045
-668,305	319,483	0,042	-0,058
-667,291	800,000	-0,025	-0,055
-666,276	157,009	-0,052	-0,052
-665,262	48,934	-0,144	0,098
-664,247	426,438	-0,018	0,028
-663,232	-200,000	0,008	0,041
-662,218	253,688	0,133	-0,164
-661,203	-200,000	-0,003	0,122
-660,189	-55,407	-0,095	0,031
-659,174	-106,882	0,019	-0,003
-658,159	-45,599	-0,178	-0,063
-657,145	-137,494	0,094	0,008
-656,130	-200,000	0,096	0,000
-655,116	79,217	-0,023	0,018
-654,101	-200,000	-0,020	0,127
-653,086	186,459	0,029	0,031
-652,072	109,607	-0,037	0,032
-651,057	-200,000	0,001	-0,234
-650,043	238,128	-0,013	0,015
-649,028	230,882	-0,030	0,036
-648,014	-155,573	-0,026	-0,001
-646,999	373,243	0,071	0,104
-645,984	15,761	-0,147	0,083
-644,970	-200,000	0,011	-0,212
-643,955	35,950	-0,166	-0,105
-642,941	6,634	0,103	-0,055
-641,926	334,305	0,087	0,122
-640,911	43,383	-0,003	-0,002
-639,897	-200,000	-0,018	-0,084
-638,882	-69,563	-0,111	0,031
-637,868	234,921	0,048	-0,057
-636,853	-142,205	-0,052	-0,004
-635,838	219,910	0,033	-0,038
-634,824	-200,000	-0,044	-0,159
-633,809	210,271	0,012	-0,014
-632,795	-200,000	0,030	0,105
-631,780	-32,164	0,041	-0,017
-630,765	169,514	0,043	-0,044
-629,751	-97,846	-0,149	-0,028
-628,736	-52,526	0,123	-0,041
-627,722	209,961	-0,048	-0,055
-626,707	800,000	0,019	0,042
-625,692	-6,553	-0,053	-0,026
-624,678	436,109	0,092	-0,145
-623,663	47,355	0,116	-0,078
-622,649	800,000	-0,016	-0,032
-621,634	246,713	0,020	0,025
-620,619	800,000	-0,041	-0,111
-619,605	800,000	-0,016	-0,044
-618,590	243,080	0,082	0,099
-617,576	800,000	0,037	0,094
-616,561	202,600	-0,077	-0,086
-615,546	-35,523	-0,185	0,072
-614,532	-111,808	-0,108	0,016
-613,517	44,423	-0,056	0,037
-612,503	50,502	-0,082	-0,056
-611,488	-20,111	-0,068	-0,030
-610,474	-91,306	0,038	0,008
-609,459	800,000	0,034	-0,107
-608,444	98,521	0,044	-0,036
-607,430	131,947	0,023	0,021
-606,415	16,619	-0,098	-0,056
-605,401	-4,319	-0,017	-0,008
-604,386	435,949	-0,096	0,151
-603,371	140,645	-0,039	0,037
-602,357	735,065	0,019	0,037
-601,342	800,000	-0,027	-0,076
-600,328	800,000	0,021	0,044
-599,313	257,243	-0,116	-0,145
-598,298	-35,286	-0,088	0,034
-597,284	-200,000	-0,022	-0,102
-596,269	8,021	0,066	0,035
-595,255	-131,374	0,080	0,008
-594,240	-117,524	-0,132	0,017
-593,225	-200,000	0,017	-0,101
-592,211	-200,000	-0,017	-0,076
-591,196	-200,000	0,046	-0,190
-590,182	365,567	0,083	0,121
-589,167	-200,000	-0,021	0,153
-588,152	-169,430	-0,104	-0,003
-587,138	800,000	-0,036	0,079
-586,123	-28,441	-0,050	0,021
-585,109	800,000	-0,038	-0,093
-584,094	52,171	-0,068	-0,047
-583,079	-79,845	0,093	-0,022
-582,065	-158,052	-0,088	0,004
-581,050	800,000	0,071	0,191
-580,036	800,000	0,022	0,059
-579,021	307,382	-0,023	-0,031
-578,006	-200,000	-0,012	-0,117
-576,992	43,310	-0,025	-0,016
-575,977	277,876	0,019	0,024
-574,963	19,604	0,160	-0,093
-573,948	26,726	0,065	-0,039
-572,934	-102,599	-0,028	0,005
-571,919	-100,243	0,080	-0,014
-570,904	-200,000	-0,041	-0,164
-569,890	-21,947	-0,103	0,045
-568,875	16,560	-0,071	0,040
-567,861	93,423	0,022	0,018
-566,846	-109,978	-0,159	-0,024
-565,831	114,833	0,057	-0,050
-564,817	-200,000	0,007	-0,092
-563,802	-64,102	-0,182	-0,053
-562,788	461,570	0,022	-0,036
-561,773	-200,000	0,016	0,058
-560,758	-200,000	-0,006	-0,033
-559,744	800,000	0,042	0,132
-558,729	-114,881	0,059	0,008
-557,715	-200,000	0,003	-0,013
-556,700	-140,755	-0,059	-0,004
-555,685	133,571	-0,028	0,026
-554,671	17,720	-0,023	0,013
-553,656	411,005	0,025	-0,039
-552,642	-200,000	-0,009	-0,053
-551,627	-200,000	-0,002	-0,080
-550,612	191,246	-0,140	-0,152
-549,598	-200,000	0,009	-0,128
-548,583	435,794	-0,033	-0,051
-547,569	-6,812	0,101	0,049
-546,554	685,270	-0,067	0,127
-545,539	-131,543	0,120	0,011
-544,525	-81,369	0,079	-0,018
-543,510	-12,569	0,124	0,058
-542,496	800,000	-0,018	-0,041
-541,481	-102,266	0,105	0,018
-540,466	800,000	-0,076	0,178
-539,452	-14,109	-0,136	-0,063
-538,437	-181,105	0,046	0,001
-537,423	621,634	0,089	-0,161
-536,408	-160,960	0,023	0,001
-535,393	-77,347	0,129	0,032
-534,379	-200,000	-0,018	-0,084
-533,364	93,731	-0,089	-0,072
-532,350	-200,000	-0,039	0,145
-531,335	-59,819	0,084	0,026
-530,321	352,352	-0,052	0,074
-529,306	-200,000	-0,010	-0,041
-528,291	40,798	-0,095	-0,061
-527,277	421,367	0,059	0,091
-526,262	-49,651	0,027	-0,009
-525,248	348,130	-0,121	0,172
-524,233	7,188	0,099	-0,053
-523,218	-200,000	0,022	-0,076
-522,204	-69,135	0,169	0,046
-521,189	-12,625	0,017	-0,008
-520,175	683,407	-0,048	-0,091
-519,160	800,000	-0,022	-0,065
-518,145	-9,059	0,034	-0,016
-517,131	309,420	0,037	0,049
-516,116	-44,245	-0,006	-0,002
-515,102	-200,000	0,005	0,130
-514,087	800,000	-0,026	0,063
-513,072	-82,388	-0,171	-0,040
-512,058	89,505	0,064	-0,051
-511,043	33,236	-0,010	0,006
-510,029	286,974	0,132	0,172
-509,014	337,774	-0,092	-0,128
-507,999	-200,000	-0,012	0,053
-506,985	-200,000	0,006	-0,132
-505,970	97,277	-0,085	-0,070
-504,956	671,207	0,093	-0,175
-503,941	-200,000	0,019	0,077
-502,926	-56,862	0,135	0,043
-501,912	230,441	0,103	0,121
-500,897	-106,883	0,043	0,007
-499,883	37,858	-0,123	0,078
-498,868	-30,973	0,165	-0,067
-497,853	-200,000	-0,006	0,040
-496,839	-200,000	0,003	0,031
-495,824	784,866	-0,044	0,088
-494,810	800,000	0,051	0,110
-493,795	448,944	-0,108	0,172
-492,781	-200,000	0,003	0,046
-491,766	-200,000	-0,010	-0,035
-490,751	800,000	-0,044	-0,125
-489,737	800,000	0,013	-0,038
-488,722	-14,316	-0,049	0,023
-487,708	14,127	0,097	-0,054
-486,693	-200,000	0,019	0,146
-485,678	186,922	-0,064	-0,069
-484,664	308,996	0,096	0,129
-483,649	-200,000	-0,007	-0,040
-482,635	181,141	0,044	-0,046
-481,620	32,132	-0,084	0,052
-480,605	-148,198	0,030	0,002
-479,591	350,257	0,067	-0,096
-478,576	164,104	-0,104	0,105
-477,562	20,160	-0,031	0,018
-476,547	200,717	0,116	0,128
-475,532	491,454	-0,026	-0,043
-474,518	99,614	0,089	0,074
-473,503	28,695	-0,087	0,053
-472,489	-200,000	0,015	0,129
-471,474	800,000	0,063	0,156
-470,459	-55,784	-0,193	0,062
-469,445	-74,395	-0,065	0,017
-468,430	81,491	-0,063	-0,049
-467,416	174,539	0,134	0,139
-466,401	117,022	0,126	0,111
-465,386	-200,000	-0,013	0,058
-464,372	-138,746	-0,075	-0,006
-463,357	800,000	-0,011	0,029
-462,343	315,459	-0,029	0,039
-461,328	-200,000	0,010	0,045
-460,313	38,654	0,109	0,069
-459,299	78,775	0,078	0,060
-458,284	-10,682	0,115	-0,055
-457,270	187,256	-0,061	0,065
-456,255	66,825	0,145	-0,106
-455,241	238,986	0,012	-0,014
-454,226	173,543	-0,040	-0,042
-453,211	199,315	-0,040	0,044
-452,197	800,000	0,071	-0,180
-451,182	391,182	-0,039	0,058
-450,168	176,625	-0,068	0,071
-449,153	6,301	0,030	0,016
-448,138	215,935	-0,049	0,056
-447,124	198,269	-0,014	0,016
-446,109	108,310	-0,089	0,076
-445,095	-16,501	0,142	0,064
-444,080	-62,623	-0,109	0,032
-443,065	306,595	-0,053	-0,071
-442,051	-200,000	0,001	-0,090
-441,036	140,394	-0,022	0,021
-440,022	-200,000	0,022	-0,160
-439,007	-200,000	-0,013	0,049
-437,992	253,353	0,044	-0,054
-436,978	800,000	0,021	0,048
-435,963	568,931	0,057	0,100
-434,949	-200,000	-0,012	0,100
-433,934	633,419	0,043	-0,078
-432,919	86,703	-0,035	0,028
-431,905	-200,000	-0,016	-0,059
-430,890	17,973	-0,041	-0,023
-429,876	57,380	0,117	0,082
-428,861	369,404	-0,062	-0,091
-427,846	726,565	0,022	-0,043
-426,832	800,000	0,046	0,119
-425,817	-200,000	-0,022	-0,112
-424,803	-200,000	-0,011	-0,083
-423,788	-51,197	0,081	-0,027
-422,773	-200,000	-0,009	0,147
-421,759	769,523	0,046	-0,091
-420,744	-200,000	0,011	0,049
-419,730	800,000	0,029	0,074
-418,715	-200,000	0,013	0,083
-417,701	-200,000	-0,024	-0,140
-416,686	-200,000	-0,013	-0,068
-415,671	207,012	-0,065	0,072
-414,657	-151,526	-0,058	-0,003
-413,642	-200,000	-0,007	0,077
-412,628	230,370	-0,041	0,048
-411,613	-143,773	-0,044	0,003
-410,598	153,816	0,053	-0,052
-409,584	-200,000	0,005	0,051
-408,569	-200,000	-0,021	-0,106
-407,555	-59,616	-0,124	0,038
-406,540	-70,332	0,056	0,015
-405,525	115,160	0,045	-0,039
-404,511	135,714	-0,079	0,074
-403,496	442,738	0,075	-0,117
-402,482	800,000	-0,050	-0,141
-401,467	431,716	0,015	-0,023
-400,452	-200,000	0,025	0,188
-399,438	-40,946	0,092	-0,034
-398,423	90,830	0,065	0,052
-397,409	-200,000	0,012	-0,042
-396,394	-25,234	-0,055	-0,023
-395,379	-200,000	-0,000	-0,002
-394,365	-25,604	0,020	-0,009
-393,350	800,000	-0,018	0,042
-392,336	-200,000	-0,026	0,115
-391,321	-200,000	-0,021	0,076
-390,306	440,573	-0,072	-0,113
-389,292	800,000	-0,006	-0,014
-388,277	39,638	0,116	-0,075
-387,263	-200,000	0,011	0,115
-386,248	-200,000	-0,008	0,113
-385,233	-71,848	-0,055	0,015
-384,219	-125,821	0,084	0,009
-383,204	-22,007	-0,067	0,029
-382,190	800,000	0,024	0,060
-381,175	99,661	-0,061	-0,050
-380,160	-36,094	0,177	-0,068
-379,146	800,000	0,020	-0,058
-378,131	64,940	0,087	-0,063
-377,117	91,747	-0,069	0,055
-376,102	-200,000	0,002	-0,172
-375,088	787,132	0,054	-0,107
-374,073	800,000	0,074	-0,177
-373,058	800,000	-0,056	0,118
-372,044	-82,125	0,151	-0,035
-371,029	-200,000	-0,004	-0,017
-370,015	-30,652	0,112	-0,045
-369,000	-95,310	0,056	-0,011
-367,985	288,441	0,075	-0,097
-366,971	31,953	-0,078	-0,048
-365,956	-64,404	-0,045	0,013
-364,942	-200,000	0,001	0,081
-363,927	357,010	-0,029	0,041
-362,912	38,495	0,037	0,023
-361,898	-200,000	-0,033	-0,141
-360,883	-200,000	0,021	-0,099
-359,869	-200,000	-0,014	-0,151
-358,854	800,000	-0,062	0,130
-357,839	-42,010	0,163	0,059
-356,825	144,728	-0,182	0,174
-355,810	-44,677	0,010	0,003
-354,796	-83,903	-0,217	-0,049
-353,781	800,000	-0,057	-0,155
-352,766	122,578	0,066	0,059
-351,752	-157,069	-0,083	-0,004
-350,737	-86,805	0,023	-0,005
-349,723	800,000	-0,044	0,126
-348,708	-153,953	0,034	-0,002
-347,693	468,169	-0,010	-0,016
-346,679	-70,424	0,057	-0,015
-345,664	-200,000	-0,013	0,081
-344,650	-200,000	-0,000	-0,126
-343,635	338,952	-0,067	0,093
-342,620	51,844	0,020	0,014
-341,606	-200,000	0,000	0,091
-340,591	800,000	0,048	0,116
-339,577	-68,623	-0,104	-0,029
-338,562	-23,250	0,127	0,054
-337,548	-33,326	-0,029	0,011
-336,533	-129,581	-0,021	0,002
-335,518	72,897	0,113	0,084
-334,504	145,420	0,060	-0,057
-333,489	202,828	-0,104	-0,115
-332,475	96,337	0,058	-0,047
-331,460	-65,871	-0,036	0,010
-330,445	-86,645	0,086	-0,019
-329,431	249,776	0,068	0,083
-328,416	800,000	-0,027	0,079
-327,402	140,479	0,086	0,081
-326,387	-7,035	-0,049	0,023
-325,372	-47,095	-0,240	-0,083
-324,358	404,512	-0,046	-0,070
-323,343	800,000	0,019	0,055
-322,329	74,582	0,034	0,026
-321,314	-0,724	0,079	0,040
-320,299	295,563	-0,082	0,107
-319,285	709,785	0,077	-0,146
-318,270	-12,353	0,063	-0,029
-317,256	-67,306	-0,167	-0,047
-316,241	92,159	-0,043	-0,035
-315,226	-200,000	0,026	-0,093
-314,212	-100,303	0,121	0,021
-313,197	426,121	-0,071	0,109
-312,183	-200,000	0,012	-0,054
-311,168	11,272	0,088	-0,048
-310,153	201,532	-0,122	0,134
-309,139	-21,226	0,096	0,042
-308,124	-200,000	-0,036	0,131
-307,110	-31,878	-0,029	0,011
-306,095	282,032	0,066	0,084
-305,080	-32,857	-0,114	-0,045
-304,066	800,000	-0,035	-0,094
-303,051	3,493	-0,082	-0,042
-302,037	-5,919	0,082	-0,040
-301,022	-122,791	0,061	0,007
-300,008	-200,000	0,002	0,033
-298,993	-92,037	-0,053	0,011
-297,978	800,000	-0,090	-0,191
-296,964	-200,000	0,007	-0,024
-295,949	129,176	-0,075	-0,068
-294,935	-81,871	0,087	-0,020
-293,920	577,637	0,078	-0,136
-292,905	-71,372	0,150	0,040
-291,891	194,348	0,055	0,060
-290,876	-200,000	0,005	0,047
-289,862	-94,827	-0,069	0,013
-288,847	32,783	-0,093	-0,057
-287,832	-200,000	-0,006	0,086
-286,818	-200,000	0,019	0,086
-285,803	268,790	-0,037	0,046
-284,789	451,461	-0,087	0,137
-283,774	61,349	-0,109	0,077
-282,759	-200,000	0,026	-0,091
-281,745	148,890	-0,121	-0,116
-280,730	-129,000	0,034	0,003
-279,716	-21,552	-0,013	0,006
-278,701	-200,000	-0,011	0,114
-277,686	-52,637	-0,103	0,034
-276,672	-167,209	-0,038	-0,001
-275,657	16,216	0,123	-0,069
-274,643	800,000	-0,019	0,041
-273,628	330,249	-0,100	-0,137
-272,613	-166,538	0,041	0,001
-271,599	800,000	-0,024	0,057
-270,584	281,875	0,083	0,105
-269,570	800,000	0,043	0,116
-268,555	128,849	0,055	-0,050
-267,540	-200,000	0,001	0,024
-266,526	-55,459	-0,044	-0,014
-265,511	-103,371	0,051	-0,008
-264,497	-4,740	-0,041	0,020
-263,482	122,123	0,054	-0,048
-262,467	800,000	0,030	0,083
-261,453	-200,000	0,013	0,224
-260,438	155,984	0,089	-0,087
-259,424	-96,124	-0,034	-0,006
-258,409	-194,373	0,077	0,000
-257,395	-146,895	-0,134	-0,008
-256,380	-6,118	0,150	0,073
-255,365	-134,860	0,184	-0,016
-254,351	279,020	-0,116	-0,148
-253,336	299,498	-0,053	-0,070
-252,322	50,497	-0,099	0,067
-251,307	220,639	-0,093	-0,106
-250,292	90,420	0,054	-0,043
-249,278	-148,237	0,112	-0,006
-248,263	293,105	-0,042	0,054
-247,249	800,000	-0,029	0,059
-246,234	-200,000	-0,007	-0,120
-245,219	-200,000	-0,047	-0,163
-244,205	-77,957	0,094	0,023
-243,190	320,002	-0,045	-0,061
-242,176	-200,000	0,024	0,101
-241,161	62,662	0,047	0,033
-240,146	-24,008	-0,051	-0,022
-239,132	-200,000	-0,010	0,090
-238,117	168,526	-0,048	-0,048
-237,103	-11,864	-0,056	0,026
-236,088	-45,448	-0,103	0,036
-235,073	-45,834	0,025	0,009
-234,059	243,812	0,080	0,096
-233,044	129,241	0,008	0,008
-232,030	-200,000	0,022	-0,085
-231,015	-49,837	-0,085	0,029
-230,000	-200,000	-0,004	-0,127
-228,986	-67,942	-0,127	0,035
-227,971	-25,266	0,093	-0,039
-226,957	-102,843	0,184	0,031
-225,942	-164,441	0,163	0,005
-224,927	800,000	-0,025	-0,057
-223,913	64,134	-0,045	-0,032
-222,898	-73,395	-0,071	0,018
-221,884	348,986	0,045	-0,063
-220,869	-200,000	0,019	-0,112
-219,855	-104,586	-0,022	0,004
-218,840	-132,544	0,011	-0,001
-217,825	502,402	-0,049	-0,081
-216,811	687,668	0,088	-0,164
-215,796	653,528	-0,016	0,029
-214,782	-147,803	0,074	-0,004
-213,767	-144,432	0,068	0,004
-212,752	252,948	0,053	-0,065
-211,738	150,215	0,058	-0,056
-210,723	216,430	-0,053	-0,060
-209,709	-118,921	-0,071	0,009
-208,694	29,168	-0,137	0,082
-207,679	-62,643	-0,066	0,019
-206,665	45,675	-0,035	0,023
-205,650	-200,000	-0,005	-0,046
-204,636	509,686	0,097	0,160
-203,621	-200,000	0,000	0,162
-202,606	-49,993	-0,114	0,038
-201,592	187,671	0,035	0,037
-200,577	-200,000	0,001	-0,039
-199,563	-200,000	0,016	0,093
-198,548	275,568	0,045	0,057
-197,533	-200,000	0,002	-0,039
-196,519	16,622	0,140	0,078
-195,504	119,120	-0,156	-0,137
-194,490	-52,522	-0,020	-0,006
-193,475	15,021	-0,125	-0,069
-192,460	-200,000	0,012	-0,106
-191,446	-200,000	-0,022	0,120
-190,431	-200,000	0,023	-0,076
-189,417	-21,523	-0,174	-0,075
-188,402	51,945	-0,038	-0,025
-187,387	-123,927	0,081	0,009
-186,373	800,000	-0,024	-0,067
-185,358	212,094	0,054	-0,061
-184,344	-200,000	-0,009	0,100
-183,329	-63,944	0,150	0,043
-182,315	717,628	0,039	0,073
-181,300	467,418	-0,099	-0,159
-180,285	800,000	0,042	-0,092
-179,271	30,601	-0,129	-0,078
-178,256	219,409	0,084	-0,096
-177,242	15,200	0,043	0,024
-176,227	186,458	-0,058	0,061
-175,212	-200,000	0,021	0,069
-174,198	275,951	-0,039	0,049
-173,183	108,091	0,128	0,108
-172,169	105,105	-0,028	-0,023
-171,154	-78,197	0,051	0,012
-170,139	-39,125	0,028	0,010
-169,125	48,456	0,078	-0,052
-168,110	532,331	-0,068	0,114
-167,096	622,732	-0,048	-0,086
-166,081	-37,672	0,101	-0,038
-165,066	158,011	0,072	-0,070
-164,052	-144,859	0,069	0,004
-163,037	-200,000	0,033	0,123
-162,023	294,151	-0,079	0,102
-161,008	214,334	0,066	0,074
-159,993	-136,946	-0,108	-0,009
-158,979	-17,706	0,085	0,038
-157,964	-62,106	-0,157	-0,046
-156,950	-124,272	0,178	0,019
-155,935	-200,000	0,031	0,131
-154,920	800,000	-0,032	-0,064
-153,906	800,000	0,005	-0,016
-152,891	63,152	0,017	0,012
-151,877	800,000	-0,040	-0,118
-150,862	-200,000	-0,002	-0,048
-149,847	-200,000	-0,026	0,171
-148,833	-200,000	-0,001	-0,072
-147,818	-200,000	0,140	-0,000
-146,804	331,721	0,096	0,131
-145,789	371,684	-0,021	0,030
-144,775	-50,023	-0,058	0,019
-143,760	-200,000	0,029	-0,163
-142,745	-200,000	-0,034	0,134
-141,731	207,250	0,081	0,090
-140,716	331,681	-0,056	-0,077
-139,702	58,165	-0,090	0,062
-138,687	-136,934	-0,085	0,007
-137,672	467,386	-0,044	0,071
-136,658	140,537	-0,104	-0,097
-135,643	-143,098	-0,050	-0,003
-134,629	-200,000	0,017	-0,198
-133,614	-89,173	-0,044	-0,009
-132,599	-54,782	0,066	0,021
-131,585	-200,000	-0,002	0,043
-130,570	-114,519	0,028	0,004
-129,556	800,000	-0,067	-0,158
-128,541	-3,133	0,069	0,034
-127,526	26,848	-0,125	0,074
-126,512	591,252	0,015	0,027
-125,497	-200,000	-0,019	0,099
-124,483	76,402	0,075	-0,056
-123,468	800,000	0,018	-0,042
-122,453	-119,025	-0,133	0,016
-121,439	-200,000	0,029	-0,119
-120,424	98,761	-0,123	-0,101
-119,410	-155,827	-0,053	-0,002
-118,395	162,687	0,017	-0,017
-117,380	711,066	-0,033	0,062
-116,366	333,201	-0,008	-0,011
-115,351	-200,000	0,011	0,037
-114,337	-101,683	-0,144	-0,025
-113,322	-200,000	0,005	0,125
-112,307	341,350	0,014	-0,020
-111,293	-99,730	-0,030	-0,005
-110,278	-200,000	0,030	0,105
-109,264	-150,982	0,132	-0,007
-108,249	215,278	-0,075	0,084
-107,234	56,269	0,075	0,051
-106,220	-200,000	-0,017	-0,079
-105,205	103,641	0,057	0,048
-104,191	-99,989	0,088	0,015
-103,176	800,000	0,032	-0,078
-102,162	-200,000	-0,006	0,098
-101,147	800,000	0,041	-0,089
-100,132	453,938	-0,073	-0,114
-99,118	800,000	-0,036	-0,102
-98,103	179,525	-0,048	0,049
-97,089	-200,000	-0,074	0,263
-96,074	-100,351	0,158	0,027
-95,059	79,983	0,026	-0,020
-94,045	84,679	0,053	0,041
-93,030	-136,517	-0,052	-0,004
-92,016	-39,231	-0,042	-0,016
-91,001	150,648	-0,021	0,020
-89,986	-4,874	-0,152	-0,074
-88,972	800,000	0,025	-0,067
-87,957	-117,789	0,086	0,011
-86,943	-106,446	0,077	0,012
-85,928	800,000	0,005	0,014
-84,913	-200,000	-0,009	-0,102
-83,899	294,209	-0,044	-0,057
-82,884	800,000	0,038	-0,102
-81,870	-200,000	-0,004	-0,015
-80,855	145,857	0,025	0,024
-79,840	269,345	-0,041	-0,051
-78,826	800,000	-0,037	-0,117
-77,811	-148,845	-0,088	0,005
-76,797	-200,000	0,015	-0,131
-75,782	46,784	0,113	-0,074
-74,767	104,409	-0,075	-0,062
-73,753	-41,917	0,117	0,042
-72,738	-200,000	-0,039	0,154
-71,724	-143,865	-0,054	0,004
-70,709	-139,618	0,063	0,005
-69,694	335,507	-0,063	-0,086
-68,680	-139,545	0,044	0,003
-67,665	327,878	0,040	0,055
-66,651	-200,000	-0,016	0,055
-65,636	800,000	0,060	-0,133
-64,622	574,067	-0,052	-0,090
-63,607	-200,000	0,009	0,129
-62,592	-86,459	-0,040	-0,009
-61,578	-181,466	0,128	0,002
-60,563	-9,188	-0,027	0,013
-59,549	-13,605	0,085	0,039
-58,534	31,659	-2,141	-1,297
-57,519	474,339	-1,211	-1,936
-56,505	-200,000	-0,417	-4,319
-55,490	584,011	0,976	1,699
-54,476	800,000	4,905	11,176
-53,461	-200,000	21,295	339,999
-52,446	800,000	759,869	2358,007
-51,432	559,461	1662,426	2844,411
-50,417	73,609	1661,418	1227,113
-49,403	18,076	1535,081	861,592
-48,388	12,034	1458,525	789,398
-47,373	19,342	1449,515	819,560
-46,359	15,445	1438,893	794,990
-45,344	10,347	1434,394	768,200
-44,330	10,210	1432,763	766,645
-43,315	10,202	1431,081	765,676
-42,300	10,242	1429,224	764,843
-41,286	10,278	1427,848	764,245
-40,271	10,234	1426,646	763,364
-39,257	10,266	1425,493	762,868
-38,242	10,275	1424,413	762,305
-37,227	10,259	1423,290	761,597
-36,213	10,253	1421,958	760,825
-35,198	10,297	1420,727	760,342
-34,184	10,332	1419,870	760,021
-33,169	10,256	1418,440	758,863
-32,154	10,304	1417,579	758,603
-31,140	10,299	1416,377	757,904
-30,125	10,316	1415,187	757,319
-29,111	10,285	1414,060	756,539
-28,096	10,276	1412,924	755,858
-27,082	10,191	1411,868	754,864
-26,067	10,183	1410,833	754,242
-25,052	10,224	1409,667	753,782
-24,038	10,259	1408,676	753,387
-23,023	10,246	1407,681	752,764
-22,009	10,193	1406,747	751,985
-20,994	10,176	1405,901	751,423
-19,979	10,167	1404,817	750,776
-18,965	10,172	1403,903	750,278
-17,950	10,148	1403,010	749,661
-16,936	10,156	1402,332	749,305
-15,921	10,103	1401,226	748,437
-14,906	10,159	1400,333	748,191
-13,892	10,150	1399,075	747,446
-12,877	10,115	1398,399	746,897
-11,863	10,143	1397,697	746,620
-10,848	10,088	1396,782	745,848
-9,833	10,051	1395,903	745,175
-8,819	10,068	1394,896	744,688
-7,804	10,055	1394,073	744,156
-6,790	10,012	1393,191	743,460
-5,775	10,029	1392,036	742,890
-4,760	10,088	1390,933	742,544
-3,746	10,003	1390,142	741,703
-2,731	10,058	1389,275	741,461
-1,717	10,038	1388,279	740,812
-0,702	10,029	1386,734	739,916
0,313	14,057	1299,377	711,732
1,327	30,351	689,661	414,672
2,342	46,946	119,340	78,135
3,356	1,426	16,553	8,368
4,371	-1,892	3,532	1,746
5,386	-26,674	0,989	0,406
6,400	-200,000	0,167	0,772
7,415	-89,810	-0,287	-0,059
8,429	190,366	-0,230	-0,244
9,444	125,306	-0,206	-0,183
10,459	19,013	-0,374	-0,211
11,473	150,111	-0,282	-0,270
12,488	-30,627	-0,256	-0,102
13,502	102,971	-0,316	-0,261
14,517	20,357	-0,266	-0,151
15,531	-37,917	-0,381	-0,142
16,546	5,335	-0,337	-0,174
17,561	16,894	-0,359	-0,200
18,575	31,352	-0,201	-0,121
19,590	176,312	-0,292	-0,299
20,604	170,429	-0,237	-0,239
21,619	108,160	-0,376	-0,316
22,634	94,093	-0,440	-0,351
23,648	92,597	-0,370	-0,294
24,663	147,173	-0,440	-0,417
25,677	217,893	-0,274	-0,308
26,692	50,448	-0,275	-0,183
27,707	216,460	-0,254	-0,285
28,721	131,543	-0,353	-0,319
29,736	151,264	-0,301	-0,288
30,750	154,868	-0,414	-0,401
31,765	2,903	-0,410	-0,209
32,780	67,527	-0,347	-0,249
33,794	254,020	-0,281	-0,339
34,809	-4,472	-0,468	-0,227
35,823	192,969	-0,345	-0,367
36,838	-21,841	-0,486	-0,207
37,853	125,103	-0,429	-0,380
38,867	133,320	-0,309	-0,281
39,882	86,158	-0,349	-0,270
40,896	22,989	-0,418	-0,241
41,911	95,335	-0,307	-0,246
42,926	94,584	-0,207	-0,166
43,940	795,941	-0,203	-0,395
44,955	53,858	-0,450	-0,303
45,969	24,139	-0,354	-0,205
46,984	76,975	-0,357	-0,266
47,999	-49,154	-0,313	-0,104
49,013	-25,433	-0,404	-0,167
50,028	-52,313	-0,334	-0,108
51,042	116,350	-0,264	-0,227
52,057	276,082	-0,298	-0,372
53,071	4,907	-0,377	-0,194
54,086	199,751	-0,258	-0,279
55,101	9,011	-0,294	-0,156
56,115	204,967	-0,235	-0,257
57,130	66,122	-0,369	-0,263
58,144	54,420	-0,314	-0,212
59,159	-22,261	-0,442	-0,187
60,174	-7,176	-0,443	-0,210
61,188	146,439	-0,393	-0,370
62,203	26,501	-0,339	-0,198
63,217	64,889	-0,274	-0,194
64,232	40,797	-0,318	-0,201
65,247	87,727	-0,276	-0,214
66,261	188,710	-0,269	-0,283
67,276	18,917	-0,362	-0,203
68,290	51,360	-0,413	-0,275
69,305	-54,361	-0,262	-0,083
70,320	800,000	-0,092	-0,189
71,334	-84,041	-0,360	-0,080
72,349	51,539	-0,254	-0,169
73,363	-161,574	-0,462	-0,016
74,378	-91,822	-0,146	-0,029
75,393	61,832	-0,275	-0,192
76,407	470,225	-0,200	-0,316
77,422	153,813	-0,195	-0,187
78,436	-76,245	-0,319	-0,078
79,451	-26,932	-0,218	-0,089
80,466	65,100	-0,259	-0,183
81,480	121,362	-0,337	-0,294
82,495	39,345	-0,257	-0,161
83,509	-38,581	-0,357	-0,131
84,524	183,493	-0,292	-0,302
85,539	103,085	-0,250	-0,205
86,553	249,082	-0,171	-0,203
87,568	66,499	-0,294	-0,209
88,582	-6,244	-0,263	-0,125
89,597	36,335	-0,303	-0,187
90,611	210,263	-0,275	-0,302
91,626	-139,993	-0,245	-0,018
92,641	55,056	-0,253	-0,171
93,655	69,618	-0,331	-0,238
94,670	243,245	-0,240	-0,282
95,684	110,811	-0,271	-0,228
96,699	-27,635	-0,223	-0,090
97,714	4,965	-0,162	-0,083
98,728	100,781	-0,276	-0,225
99,743	64,641	-0,242	-0,170
100,757	272,806	-0,193	-0,239
101,772	82,609	-0,264	-0,200
102,787	-53,437	-0,277	-0,088
103,801	15,558	-0,267	-0,146
104,816	-35,817	-0,407	-0,153
105,830	425,725	-0,146	-0,220
106,845	-23,423	-0,205	0,086
107,860	371,959	-0,165	-0,235
108,874	333,033	-0,180	-0,244
109,889	74,448	-0,306	-0,225
110,903	-68,627	-0,256	-0,069
111,918	37,811	-0,213	-0,132
112,933	-175,703	-0,246	0,005
113,947	16,719	-0,189	-0,104
114,962	-13,906	-0,297	-0,134
115,976	-43,354	-0,283	-0,099
116,991	164,381	-0,266	-0,262
118,006	117,112	-0,267	-0,229
119,020	-86,784	-0,251	-0,053
120,035	-50,670	-0,319	-0,104
121,049	56,413	-0,254	-0,172
122,064	-61,980	-0,254	-0,074
123,079	100,303	-0,216	-0,175
124,093	-50,244	-0,277	-0,091
125,108	38,136	-0,285	-0,176
126,122	30,328	-0,229	-0,136
127,137	-161,131	-0,227	-0,008
128,151	22,429	-0,204	0,116
129,166	-67,490	-0,205	-0,056
130,181	-84,924	-0,288	-0,063
131,195	-56,692	-0,316	-0,097
132,210	27,264	-0,243	-0,142
133,224	-76,407	-0,316	-0,077
134,239	300,704	-0,155	-0,201
135,254	-169,839	-0,181	-0,004
136,268	-14,630	-0,347	-0,155
137,283	-64,815	-0,286	-0,080
138,297	-93,637	-0,294	0,056
139,312	78,974	-0,237	-0,177
140,327	356,572	-0,241	-0,336
141,341	-68,864	-0,337	-0,090
142,356	100,104	-0,202	-0,163
143,370	166,541	-0,140	-0,138
144,385	-33,921	-0,360	-0,138
145,400	99,694	-0,309	-0,249
146,414	85,516	-0,215	-0,165
147,429	-52,788	-0,360	-0,115
148,443	367,832	-0,240	-0,339
149,458	9,271	-0,210	-0,110
150,473	5,497	-0,172	-0,088
151,487	20,311	-0,245	-0,137
152,502	118,790	-0,308	-0,265
153,516	219,884	-0,276	-0,308
154,531	14,336	-0,299	-0,162
155,546	104,797	-0,181	-0,148
156,560	376,409	-0,117	-0,167
157,575	101,854	-0,272	-0,221
158,589	657,303	-0,131	-0,235
159,604	-6,828	-0,329	-0,155
160,619	93,521	-0,250	-0,197
161,633	104,804	-0,287	-0,235
162,648	168,003	-0,176	-0,174
163,662	213,333	-0,205	-0,225
164,677	-128,069	-0,411	-0,040
165,692	-7,328	-0,290	-0,136
166,706	109,068	-0,254	-0,211
167,721	317,614	-0,212	-0,280
168,735	392,012	-0,223	-0,323
169,750	-31,224	-0,287	-0,112
170,764	18,887	-0,245	-0,136
171,779	-46,561	-0,213	-0,072
172,794	8,769	-0,331	-0,173
173,808	-116,179	-0,303	-0,039
174,823	30,924	-0,250	-0,148
175,837	19,406	-0,262	-0,146
176,852	74,075	-0,205	-0,149
177,867	216,051	-0,190	-0,210
178,881	-54,169	-0,176	-0,055
179,896	4,109	0,012	0,006
180,910	104,972	-0,195	-0,160
181,925	114,334	-0,216	-0,183
182,940	21,099	-0,205	-0,115
183,954	-3,123	-0,191	-0,092
184,969	-75,574	-0,190	-0,046
185,983	-65,414	-0,263	-0,073
186,998	-44,935	-0,268	-0,092
188,013	-8,249	-0,141	-0,066
189,027	-23,522	-0,336	-0,139
190,042	-15,538	-0,269	-0,119
191,056	60,988	-0,285	-0,196
192,071	-161,514	-0,250	0,009
193,086	72,646	-0,228	-0,165
194,100	-99,113	-0,189	-0,033
195,115	162,626	-0,079	-0,077
196,129	73,876	-0,208	-0,151
197,144	645,235	-0,183	-0,325
198,159	-52,749	-0,319	-0,102
199,173	-200,000	-0,169	0,000
200,188	146,697	-0,156	-0,146
201,202	395,897	-0,145	-0,210
202,217	111,043	-0,204	-0,170
203,232	-75,838	-0,246	-0,060
204,246	8,113	-0,251	-0,130
205,261	60,345	-0,238	-0,163
206,275	89,744	-0,127	-0,098
207,290	-96,335	-0,232	-0,042
208,304	417,493	-0,046	-0,069
209,319	217,200	-0,080	-0,088
210,334	-92,323	-0,246	0,048
211,348	46,034	-0,188	-0,121
212,363	222,715	-0,202	-0,226
213,377	207,690	-0,143	-0,154
214,392	-123,974	-0,165	0,018
215,407	-61,885	-0,234	-0,067
216,421	-175,890	-0,119	0,002
217,436	117,236	-0,108	-0,092
218,450	-200,000	-0,055	-0,211
219,465	76,634	-0,254	-0,186
220,480	-107,087	-0,170	-0,026
221,494	60,295	-0,233	-0,159
222,509	-118,983	-0,358	-0,043
223,523	3,224	-0,278	-0,140
224,538	38,657	-0,174	-0,107
225,553	-200,000	-0,072	-0,307
226,567	44,365	-0,252	-0,160
227,582	214,837	-0,105	-0,116
228,596	102,379	-0,169	-0,137
229,611	800,000	-0,124	-0,243
230,626	-9,021	-0,182	-0,084
231,640	-66,313	-0,330	-0,090
232,655	155,662	-0,185	-0,176
233,669	280,858	-0,109	-0,135
234,684	769,061	-0,143	-0,270
235,699	-30,836	-0,312	-0,121
236,713	488,551	-0,092	-0,146
237,728	345,957	-0,109	-0,149
238,742	-200,000	-0,027	-0,100
239,757	7,931	-0,260	-0,134
240,772	-24,812	-0,289	-0,118
241,786	47,499	-0,167	-0,108
242,801	-24,394	-0,282	-0,115
243,815	-97,995	-0,251	-0,044
244,830	-200,000	0,023	-0,129
245,844	126,363	-0,181	-0,158
246,859	324,310	-0,147	-0,194
247,874	412,844	-0,147	-0,216
248,888	-14,731	-0,254	-0,112
249,903	130,649	-0,123	-0,109
250,917	-75,253	-0,233	-0,057
251,932	-200,000	-0,025	-0,112
252,947	356,174	-0,143	-0,198
253,961	129,308	-0,164	-0,144
254,976	181,134	-0,215	-0,218
255,990	107,762	-0,239	-0,197
257,005	21,265	-0,169	-0,094
258,020	-143,094	-0,123	-0,008
259,034	159,689	-0,218	-0,209
260,049	151,619	-0,194	-0,183
261,063	-107,109	-0,108	-0,016
262,078	-157,857	-0,148	0,006
263,093	-106,886	-0,254	-0,038
264,107	-58,874	-0,132	-0,039
265,122	304,364	-0,149	-0,190
266,136	-103,708	-0,278	0,044
267,151	-90,475	-0,240	0,047
268,166	-41,253	-0,151	-0,053
269,180	85,056	-0,223	-0,168
270,195	36,666	-0,207	-0,126
271,209	153,274	-0,134	-0,127
272,224	-200,000	-0,015	-0,123
273,239	709,753	0,018	-0,032
274,253	-140,953	-0,150	0,010
275,268	-69,381	-0,206	0,054
276,282	98,863	-0,306	-0,243
277,297	76,289	-0,252	-0,183
278,312	800,000	-0,160	-0,367
279,326	59,307	-0,252	-0,171
280,341	366,446	-0,106	-0,147
281,355	-77,764	-0,205	-0,048
282,370	197,939	-0,212	-0,224
283,384	-46,228	-0,171	-0,058
284,399	-56,990	-0,152	-0,046
285,414	211,029	-0,069	-0,075
286,428	24,487	-0,114	-0,064
287,443	800,000	-0,054	-0,117
288,457	-200,000	-0,026	-0,143
289,472	458,929	-0,095	-0,145
290,487	6,202	-0,170	-0,086
291,501	784,513	-0,034	-0,064
292,516	-40,887	-0,319	-0,113
293,530	-200,000	-0,038	-0,163
294,545	52,290	-0,053	-0,035
295,560	-70,368	-0,144	-0,037
296,574	36,222	-0,155	-0,094
297,589	25,144	-0,101	-0,057
298,603	800,000	-0,097	-0,212
299,618	-65,068	-0,134	-0,037
300,633	-200,000	-0,012	-0,216
301,647	96,355	-0,115	-0,090
302,662	-139,803	-0,209	0,015
303,676	307,611	-0,136	-0,175
304,691	800,000	-0,099	-0,254
305,706	159,147	-0,108	-0,103
306,720	800,000	-0,096	-0,226
307,735	-24,969	-0,240	-0,097
308,749	-146,367	-0,119	-0,007
309,764	147,802	-0,146	-0,135
310,779	69,189	-0,136	-0,096
311,793	-200,000	0,022	-0,146
312,808	800,000	-0,122	-0,239
313,822	-148,722	-0,221	-0,012
314,837	224,172	-0,083	-0,093
315,852	-200,000	-0,009	-0,033
316,866	-91,155	-0,178	-0,035
317,881	-52,431	-0,095	-0,030
318,895	78,462	-0,092	-0,067
319,910	-126,942	-0,139	-0,014
320,925	420,052	-0,155	-0,229
321,939	800,000	-0,058	-0,159
322,954	115,986	-0,067	-0,056
323,968	-31,745	-0,090	-0,035
324,983	-64,295	-0,186	0,052
325,997	-30,022	-0,119	-0,046
327,012	153,046	-0,130	-0,122
328,027	165,917	-0,139	-0,135
329,041	208,348	-0,182	-0,196
330,056	108,479	-0,196	-0,160
331,070	-90,158	-0,066	0,013
332,085	563,165	-0,111	-0,185
333,100	-53,652	-0,186	-0,058
334,114	800,000	-0,093	-0,209
335,129	-131,313	-0,193	-0,017
336,143	78,741	-0,203	-0,148
337,158	131,950	-0,118	-0,104
338,173	-159,045	-0,187	-0,007
339,187	153,749	-0,169	-0,159
340,202	-200,000	-0,008	0,034
341,216	99,277	-0,184	-0,146
342,231	800,000	-0,083	-0,246
343,246	47,189	-0,100	-0,064
344,260	383,145	-0,074	-0,105
345,275	-55,039	-0,101	0,031
346,289	522,387	-0,045	-0,073
347,304	481,608	-0,104	-0,162
348,319	212,529	-0,152	-0,165
349,333	-13,113	-0,134	-0,059
350,348	295,460	-0,145	-0,183
351,362	117,910	-0,147	-0,124
352,377	-91,078	-0,118	-0,023
353,392	-200,000	-0,113	0,000
354,406	800,000	-0,030	0,072
355,421	207,601	1310,474	1400,668
356,435	159,710	1470,653	1401,152
