DTS Sentinel unit serial number:	SN410029Multiplexer serial number:	ORYXHardware model number:	OX2-SRSoftware version number:	ORYX F/W v4,00 Oryx Data Collector v3.7.2.0data status	okinstallation	B3 Nyhavnadifferential loss correction	single-endedforward channel	channel 1reverse channel	N/Adate	2023/11/29time	07:12:30forward acquisition time	300,00reverse acquisition time	0,00gamma	499,1914k internal	0,3212k external	0,3212temperature offset calibration	1,0000default loss term (dB/km)	0,3820temperature slope calibration	1,0000multiplexer offset coefficient	1,0000multiplexer slope coefficient	1,0000fibre end	0,00T internal ref (°C)	8,91T ext. ref 1 (°C)	-6,41T ext. ref 2 (°C)	-6,51length (m)	temperature (°C)	Stokes	anti-Stokes-744,400	157,297	-0,209	-0,210
-743,385	800,000	-0,091	0,266
-742,371	800,000	-0,083	-0,234
-741,356	800,000	-0,111	0,265
-740,342	100,046	-0,212	-0,178
-739,327	-200,000	-0,018	0,252
-738,312	338,136	-0,193	-0,273
-737,298	800,000	0,073	0,155
-736,283	254,426	-0,231	-0,288
-735,269	-200,000	0,005	0,277
-734,254	-200,000	0,019	-0,105
-733,239	224,695	-0,207	0,243
-732,225	42,031	-0,169	-0,111
-731,210	-200,000	0,074	0,309
-730,196	-86,944	0,146	-0,032
-729,181	-200,000	-0,003	0,012
-728,167	-82,400	-0,170	-0,040
-727,152	328,026	-0,066	0,091
-726,137	232,394	-0,076	-0,091
-725,123	800,000	0,024	-0,051
-724,108	800,000	0,036	-0,092
-723,094	-100,184	-0,210	-0,038
-722,079	800,000	0,063	-0,134
-721,064	74,411	-0,066	0,050
-720,050	800,000	-0,060	-0,129
-719,035	-200,000	0,015	-0,082
-718,021	-72,471	-0,088	0,023
-717,006	143,113	-0,091	0,088
-715,991	800,000	-0,060	-0,129
-714,977	-200,000	-0,033	-0,135
-713,962	-24,174	-0,089	0,038
-712,948	75,077	0,076	0,058
-711,933	187,392	0,067	-0,072
-710,918	-200,000	-0,007	-0,089
-709,904	-200,000	-0,004	-0,107
-708,889	42,578	-0,096	-0,063
-707,875	-110,984	-0,092	-0,013
-706,860	681,547	-0,060	0,114
-705,845	-143,459	-0,047	-0,003
-704,831	38,359	0,044	0,028
-703,816	78,006	-0,074	0,057
-702,802	800,000	-0,060	-0,126
-701,787	-87,435	-0,053	0,012
-700,772	-52,340	0,118	-0,039
-699,758	244,389	-0,104	-0,127
-698,743	-200,000	0,011	0,062
-697,729	800,000	-0,045	0,142
-696,714	-109,578	0,040	0,006
-695,699	179,072	-0,083	0,088
-694,685	93,612	0,041	-0,033
-693,670	-200,000	-0,031	-0,114
-692,656	24,742	-0,104	-0,062
-691,641	800,000	0,031	-0,090
-690,627	107,808	0,017	0,015
-689,612	357,994	-0,048	0,070
-688,597	-84,852	-0,010	0,002
-687,583	-138,476	-0,039	0,003
-686,568	-11,018	-0,204	-0,097
-685,554	53,093	-0,154	-0,107
-684,539	-108,905	-0,105	-0,016
-683,524	800,000	0,009	0,028
-682,510	-87,576	0,050	-0,011
-681,495	-58,743	0,039	-0,012
-680,481	-100,988	-0,046	0,008
-679,466	-47,250	-0,115	0,040
-678,451	-200,000	0,037	0,120
-677,437	297,524	-0,052	-0,069
-676,422	-146,806	-0,156	0,010
-675,408	134,094	0,023	-0,022
-674,393	142,377	0,109	0,105
-673,378	87,387	0,068	-0,055
-672,364	-139,003	-0,075	0,006
-671,349	236,137	-0,083	0,099
-670,335	436,435	0,043	0,067
-669,320	240,607	0,050	-0,060
-668,305	-151,778	0,044	-0,002
-667,291	-176,151	-0,080	-0,001
-666,276	-200,000	-0,010	0,048
-665,262	-200,000	0,014	0,100
-664,247	-17,862	-0,080	0,036
-663,232	523,925	-0,025	0,042
-662,218	-200,000	0,003	0,052
-661,203	0,746	0,111	0,057
-660,189	800,000	0,023	0,065
-659,174	-14,920	-0,188	0,087
-658,159	800,000	-0,091	-0,212
-657,145	41,763	-0,083	-0,054
-656,130	193,231	-0,147	0,161
-655,116	-99,530	0,020	-0,004
-654,101	800,000	0,034	-0,092
-653,086	24,614	-0,119	-0,071
-652,072	-34,351	-0,133	-0,052
-651,057	-200,000	-0,004	-0,017
-650,043	635,453	0,046	-0,085
-649,028	-200,000	-0,009	-0,100
-648,014	506,695	-0,043	-0,073
-646,999	800,000	-0,014	0,040
-645,984	72,160	-0,106	0,080
-644,970	484,312	-0,102	-0,168
-643,955	-200,000	-0,030	-0,215
-642,941	371,641	-0,101	-0,149
-641,926	598,697	-0,022	0,040
-640,911	800,000	0,037	0,111
-639,897	800,000	0,034	-0,072
-638,882	-64,206	0,087	0,025
-637,868	-130,880	-0,065	0,006
-636,853	407,994	-0,056	-0,086
-635,838	58,673	-0,089	0,063
-634,824	142,898	0,107	-0,103
-633,809	-200,000	-0,020	-0,159
-632,795	-67,670	-0,059	0,017
-631,780	800,000	-0,022	0,046
-630,765	-3,697	-0,029	-0,015
-629,751	488,538	-0,102	-0,170
-628,736	-200,000	-0,007	-0,041
-627,722	12,277	-0,110	-0,061
-626,707	75,012	0,079	0,060
-625,692	-200,000	0,011	-0,078
-624,678	-200,000	0,006	0,028
-623,663	374,323	-0,019	0,028
-622,649	-129,402	-0,079	-0,008
-621,634	-132,202	-0,166	0,015
-620,619	-129,509	0,033	-0,003
-619,605	800,000	-0,029	-0,064
-618,590	-128,833	0,021	0,002
-617,576	-162,463	0,042	0,001
-616,561	43,345	-0,142	-0,093
-615,546	-136,193	0,029	-0,002
-614,532	-104,887	0,083	0,014
-613,517	42,732	-0,082	-0,054
-612,503	-200,000	-0,008	0,034
-611,488	155,837	0,144	0,143
-610,474	-200,000	-0,027	0,150
-609,459	800,000	0,036	-0,075
-608,444	258,048	-0,063	-0,078
-607,430	-72,205	-0,058	0,015
-606,415	-2,960	-0,146	-0,074
-605,401	301,573	-0,063	0,084
-604,386	103,527	-0,035	-0,030
-603,371	800,000	-0,031	-0,064
-602,357	313,876	0,025	0,033
-601,342	800,000	0,063	-0,151
-600,328	-22,036	-0,207	-0,090
-599,313	16,547	-0,021	-0,012
-598,298	-120,020	0,118	-0,014
-597,284	58,168	-0,033	0,023
-596,269	236,279	0,067	0,080
-595,255	299,654	-0,023	-0,030
-594,240	-152,486	0,053	-0,003
-593,225	243,405	-0,071	0,086
-592,211	34,368	0,076	-0,048
-591,196	184,042	0,035	0,037
-590,182	-89,036	0,051	-0,011
-589,167	319,183	-0,092	0,126
-588,152	-200,000	-0,000	-0,092
-587,138	-122,813	0,113	-0,013
-586,123	15,918	0,050	-0,028
-585,109	2,740	-0,152	-0,079
-584,094	800,000	0,036	-0,077
-583,079	7,826	0,077	0,041
-582,065	800,000	-0,020	-0,062
-581,050	33,268	-0,033	-0,021
-580,036	130,758	-0,039	0,036
-579,021	800,000	0,035	-0,098
-578,006	-72,525	-0,004	-0,001
-576,992	-30,309	0,071	0,029
-575,977	34,346	0,046	0,029
-574,963	-28,394	-0,135	-0,056
-573,948	77,593	0,075	-0,058
-572,934	-33,002	-0,110	0,044
-571,919	-116,547	-0,169	0,022
-570,904	-200,000	0,035	-0,143
-569,890	132,452	-0,050	-0,046
-568,875	80,769	0,057	-0,044
-567,861	-200,000	-0,007	-0,034
-566,846	-200,000	-0,032	0,146
-565,831	-113,690	0,192	-0,027
-564,817	-73,142	-0,185	0,048
-563,802	231,008	-0,042	0,049
-562,788	-87,982	0,035	-0,007
-561,773	110,387	-0,025	-0,022
-560,758	-200,000	0,048	0,169
-559,744	800,000	0,055	-0,153
-558,729	-200,000	-0,016	-0,055
-557,715	596,479	0,026	0,046
-556,700	27,900	-0,145	0,088
-555,685	126,975	-0,056	0,051
-554,671	-200,000	-0,007	-0,026
-553,656	18,313	-0,140	0,080
-552,642	-27,809	0,101	0,042
-551,627	-200,000	0,025	0,107
-550,612	-91,085	0,043	-0,009
-549,598	418,269	-0,095	-0,146
-548,583	-200,000	0,019	-0,087
-547,569	-49,666	0,163	0,055
-546,554	-63,107	-0,175	-0,052
-545,539	-200,000	0,004	0,036
-544,525	204,405	-0,047	0,052
-543,510	43,794	-0,137	0,090
-542,496	-75,804	0,017	-0,004
-541,481	55,875	-0,123	0,086
-540,466	800,000	0,007	-0,017
-539,452	158,054	-0,061	0,061
-538,437	-102,633	-0,077	0,013
-537,423	24,746	-0,080	-0,047
-536,408	-57,140	-0,033	-0,010
-535,393	800,000	-0,065	0,159
-534,379	-94,735	-0,067	0,013
-533,364	70,875	0,050	-0,037
-532,350	311,520	0,050	0,068
-531,335	238,245	-0,073	-0,088
-530,321	-62,355	0,063	0,019
-529,306	14,919	-0,064	-0,036
-528,291	800,000	-0,053	-0,127
-527,277	627,500	0,030	0,055
-526,262	-81,332	-0,044	-0,010
-525,248	211,840	0,099	-0,112
-524,233	-59,169	-0,056	-0,017
-523,218	800,000	0,021	0,043
-522,204	-92,783	0,125	0,025
-521,189	22,570	-0,078	0,046
-520,175	166,771	-0,125	-0,128
-519,160	-80,224	-0,111	-0,026
-518,145	531,610	0,011	0,019
-517,131	-16,742	0,039	0,018
-516,116	39,755	0,075	-0,048
-515,102	397,703	0,062	0,093
-514,087	-80,091	-0,106	-0,025
-513,072	-75,849	-0,187	-0,047
-512,058	283,398	0,138	-0,179
-511,043	-200,000	0,010	0,033
-510,029	-141,696	0,195	-0,014
-509,014	55,969	-0,026	-0,018
-507,999	-200,000	-0,034	0,153
-506,985	248,732	0,048	-0,059
-505,970	-200,000	0,024	0,119
-504,956	-200,000	-0,150	0,000
-503,941	80,700	0,053	-0,041
-502,926	73,092	0,039	0,029
-501,912	-40,607	0,197	-0,073
-500,897	90,511	0,054	0,044
-499,883	-34,157	-0,038	-0,015
-498,868	589,004	0,048	-0,086
-497,853	800,000	-0,021	-0,063
-496,839	-200,000	-0,023	0,101
-495,824	-95,864	0,082	0,016
-494,810	-141,036	0,072	0,005
-493,795	800,000	0,015	0,031
-492,781	-136,717	0,074	-0,006
-491,766	36,311	-0,074	-0,047
-490,751	-200,000	0,003	-0,078
-489,737	-92,054	-0,120	-0,024
-488,722	138,882	0,153	0,145
-487,708	225,171	0,063	0,073
-486,693	98,536	0,106	0,088
-485,678	800,000	-0,022	0,068
-484,664	53,643	-0,030	0,021
-483,649	56,924	-0,005	-0,003
-482,635	1,717	-0,098	-0,051
-481,620	177,411	0,039	-0,041
-480,605	800,000	0,029	-0,073
-479,591	-31,114	0,130	-0,053
-478,576	-172,680	0,070	0,002
-477,562	-200,000	0,020	-0,092
-476,547	-29,603	-0,050	-0,021
-475,532	59,896	0,064	0,046
-474,518	532,377	0,032	0,055
-473,503	157,829	0,065	0,064
-472,489	-200,000	-0,007	-0,114
-471,474	225,733	0,098	-0,114
-470,459	-97,341	-0,211	0,039
-469,445	-150,045	0,097	-0,005
-468,430	-50,875	0,015	-0,005
-467,416	-56,103	0,046	0,015
-466,401	-180,627	0,025	0,000
-465,386	-200,000	0,011	0,056
-464,372	-200,000	0,001	0,143
-463,357	800,000	-0,042	-0,088
-462,343	-4,244	0,080	-0,039
-461,328	-200,000	0,025	-0,102
-460,313	42,684	0,127	0,083
-459,299	-200,000	0,017	0,122
-458,284	27,122	0,075	0,045
-457,270	290,549	-0,071	0,093
-456,255	-153,204	0,069	0,003
-455,241	-200,000	0,002	0,027
-454,226	256,048	0,047	-0,058
-453,211	-200,000	-0,018	0,071
-452,197	-200,000	0,007	0,069
-451,182	210,985	0,043	0,049
-450,168	-130,961	-0,145	-0,014
-449,153	-200,000	-0,012	0,066
-448,138	800,000	-0,027	-0,057
-447,124	800,000	0,026	-0,053
-446,109	258,069	-0,045	-0,055
-445,095	2,139	0,058	-0,030
-444,080	61,437	0,079	-0,056
-443,065	196,066	-0,051	0,056
-442,051	-112,865	0,048	0,007
-441,036	-24,603	-0,055	0,023
-440,022	22,060	-0,051	0,030
-439,007	-200,000	0,012	-0,094
-437,992	248,248	-0,066	-0,080
-436,978	121,952	0,062	0,056
-435,963	290,463	-0,035	-0,045
-434,949	-200,000	0,010	-0,085
-433,934	319,602	-0,031	0,042
-432,919	-81,048	0,038	-0,009
-431,905	-86,138	-0,091	0,020
-430,890	-67,928	0,120	0,033
-429,876	-95,925	0,134	0,025
-428,861	-200,000	0,004	-0,122
-427,846	777,980	0,045	-0,089
-426,832	-200,000	-0,010	-0,071
-425,817	-39,258	0,107	-0,040
-424,803	129,864	-0,059	-0,054
-423,788	-44,285	-0,029	0,011
-422,773	184,424	-0,058	0,062
-421,759	568,601	0,104	0,182
-420,744	-200,000	0,002	-0,067
-419,730	111,987	0,059	-0,051
-418,715	-20,803	-0,053	-0,023
-417,701	-184,333	0,191	0,002
-416,686	-79,063	-0,057	-0,014
-415,671	374,008	-0,040	0,059
-414,657	90,677	-0,070	0,056
-413,642	280,576	-0,107	0,137
-412,628	-14,846	0,099	-0,045
-411,613	23,359	-0,036	-0,021
-410,598	657,104	-0,042	-0,078
-409,584	-100,233	0,044	0,008
-408,569	184,386	0,072	0,077
-407,555	46,816	-0,064	0,043
-406,540	-18,562	-0,029	-0,013
-405,525	-85,090	0,090	-0,020
-404,511	-200,000	-0,006	0,065
-403,496	411,229	-0,056	0,085
-402,482	219,175	-0,056	0,064
-401,467	-200,000	0,021	0,125
-400,452	-200,000	0,025	0,102
-399,438	800,000	-0,031	0,080
-398,423	17,453	-0,060	-0,034
-397,409	-24,890	-0,079	0,033
-396,394	25,667	0,110	-0,065
-395,379	-200,000	-0,003	-0,041
-394,365	-5,314	0,140	-0,069
-393,350	-200,000	0,007	0,030
-392,336	-45,699	-0,091	-0,032
-391,321	-200,000	0,011	-0,094
-390,306	800,000	0,035	-0,074
-389,292	-200,000	0,006	-0,097
-388,277	-42,585	-0,058	0,021
-387,263	-137,700	0,110	-0,009
-386,248	-200,000	0,015	0,173
-385,233	267,498	0,038	0,047
-384,219	-57,873	-0,054	0,017
-383,204	85,361	-0,046	-0,036
-382,190	-200,000	0,018	-0,200
-381,175	800,000	-0,024	0,051
-380,160	220,511	0,069	-0,079
-379,146	207,182	-0,086	0,096
-378,131	33,276	-0,031	0,019
-377,117	11,852	0,038	0,021
-376,102	800,000	-0,015	-0,041
-375,088	-148,350	-0,057	-0,003
-374,073	-152,747	-0,090	0,004
-373,058	660,979	-0,065	-0,119
-372,044	11,322	0,121	-0,066
-371,029	-55,071	-0,043	-0,014
-370,015	316,689	0,024	-0,032
-369,000	-200,000	-0,008	0,045
-367,985	-32,480	-0,115	0,046
-366,971	-200,000	0,012	0,062
-365,956	-200,000	-0,007	-0,056
-364,942	-200,000	0,030	-0,159
-363,927	800,000	0,032	-0,083
-362,912	-26,417	-0,105	0,044
-361,898	-21,842	-0,139	0,060
-360,883	800,000	-0,051	-0,123
-359,869	-200,000	-0,020	-0,073
-358,854	-200,000	0,011	0,103
-357,839	-82,605	0,120	0,027
-356,825	-126,675	-0,018	0,002
-355,810	-134,367	0,104	-0,009
-354,796	12,356	0,008	0,004
-353,781	221,250	0,090	-0,103
-352,766	-77,788	0,144	-0,035
-351,752	-95,310	0,139	0,026
-350,737	-200,000	0,029	0,095
-349,723	84,374	0,078	-0,061
-348,708	-200,000	0,005	0,101
-347,693	-200,000	0,046	-0,172
-346,679	800,000	-0,014	-0,035
-345,664	60,013	-0,031	0,022
-344,650	-113,548	0,066	0,009
-343,635	83,899	0,072	-0,056
-342,620	-200,000	0,006	0,118
-341,606	-30,976	0,023	0,009
-340,591	5,462	-0,002	0,001
-339,577	468,406	-0,041	0,066
-338,562	-145,200	-0,149	-0,009
-337,548	-200,000	-0,026	0,103
-336,533	-200,000	0,015	-0,048
-335,518	-200,000	-0,009	0,120
-334,504	98,143	0,099	0,081
-333,489	-200,000	0,007	0,040
-332,475	-7,507	-0,040	0,019
-331,460	14,006	0,103	-0,057
-330,445	800,000	0,048	0,118
-329,431	120,834	0,055	-0,049
-328,416	-180,160	-0,049	-0,001
-327,402	800,000	-0,068	0,137
-326,387	276,063	0,066	-0,083
-325,372	-200,000	0,024	0,116
-324,358	91,119	-0,065	-0,052
-323,343	800,000	0,063	0,129
-322,329	-200,000	0,027	0,179
-321,314	427,426	0,036	0,056
-320,299	-116,738	0,110	0,014
-319,285	-68,730	-0,164	-0,045
-318,270	-200,000	0,021	-0,067
-317,256	-35,077	0,111	-0,043
-316,241	-7,806	-0,064	-0,031
-315,226	-200,000	-0,006	-0,084
-314,212	422,575	0,052	0,080
-313,197	-165,089	0,152	0,005
-312,183	-99,447	0,104	-0,018
-311,168	157,562	-0,101	-0,100
-310,153	-144,352	0,044	-0,003
-309,139	-19,453	-0,234	0,103
-308,124	12,277	0,068	-0,037
-307,110	-200,000	0,006	0,114
-306,095	618,080	0,039	0,069
-305,080	54,133	-0,044	-0,030
-304,066	-113,572	-0,090	-0,012
-303,051	-113,745	0,250	-0,034
-302,037	273,184	-0,038	0,048
-301,022	81,629	-0,123	0,095
-300,008	-73,704	0,176	0,045
-298,993	336,459	0,045	0,062
-297,978	214,265	-0,071	-0,080
-296,964	-115,524	-0,207	-0,027
-295,949	213,637	0,084	-0,095
-294,935	-36,002	-0,030	-0,011
-293,920	769,009	-0,041	0,080
-292,905	-200,000	-0,007	0,137
-291,891	200,857	0,046	0,050
-290,876	48,710	-0,117	0,078
-289,862	-43,383	0,015	0,005
-288,847	329,174	-0,037	-0,051
-287,832	518,333	0,049	-0,082
-286,818	-47,788	-0,166	-0,057
-285,803	-200,000	-0,029	0,127
-284,789	8,873	0,118	0,063
-283,774	750,287	0,052	0,100
-282,759	-200,000	0,041	-0,184
-281,745	-200,000	0,021	-0,155
-280,730	-26,026	0,046	0,019
-279,716	543,316	-0,059	-0,100
-278,701	-106,771	0,120	-0,019
-277,686	93,366	0,029	0,023
-276,672	-200,000	-0,006	0,207
-275,657	-37,168	0,099	0,038
-274,643	199,351	0,060	-0,066
-273,628	64,829	-0,030	-0,021
-272,613	-0,841	0,094	0,047
-271,599	-172,952	-0,134	-0,003
-270,584	-170,864	0,052	-0,001
-269,570	-10,071	-0,140	0,066
-268,555	-144,587	-0,031	-0,002
-267,540	761,111	-0,018	-0,036
-266,526	-18,299	-0,040	-0,018
-265,511	380,064	-0,044	-0,065
-264,497	-170,032	0,055	0,001
-263,482	-122,034	0,130	-0,015
-262,467	-200,000	0,009	0,041
-261,453	-200,000	-0,012	-0,056
-260,438	372,609	-0,026	0,038
-259,424	-200,000	-0,008	-0,129
-258,409	-106,729	0,085	-0,013
-257,395	800,000	0,038	-0,090
-256,380	52,809	-0,144	0,098
-255,365	800,000	0,065	0,187
-254,351	-200,000	-0,022	0,071
-253,336	48,771	0,036	-0,024
-252,322	-200,000	-0,034	-0,163
-251,307	-4,550	0,087	0,042
-250,292	34,836	0,089	0,055
-249,278	389,825	-0,066	0,097
-248,263	-79,227	0,042	0,010
-247,249	-200,000	0,030	-0,105
-246,234	-44,501	0,055	0,019
-245,219	-59,302	-0,078	-0,024
-244,205	251,083	-0,040	0,049
-243,190	-96,217	0,028	-0,005
-242,176	800,000	-0,056	0,113
-241,161	712,995	0,065	0,124
-240,146	-200,000	0,003	0,015
-239,132	180,777	-0,097	-0,101
-238,117	594,028	-0,034	-0,061
-237,103	395,082	-0,042	-0,062
-236,088	800,000	0,032	0,094
-235,073	227,357	0,018	0,021
-234,059	187,437	0,051	0,054
-233,044	-200,000	-0,015	-0,127
-232,030	-97,890	-0,072	0,013
-231,015	552,328	0,043	0,073
-230,000	-200,000	-0,041	0,195
-228,986	-200,000	0,004	0,051
-227,971	648,080	0,032	0,058
-226,957	-200,000	-0,004	0,028
-225,942	800,000	-0,060	-0,121
-224,927	632,318	-0,037	0,067
-223,913	69,044	-0,059	0,043
-222,898	-109,982	0,179	-0,026
-221,884	-200,000	-0,016	-0,091
-220,869	328,526	0,041	-0,056
-219,855	-97,034	0,058	-0,011
-218,840	-200,000	0,048	0,152
-217,825	747,081	0,072	0,139
-216,811	445,081	0,015	-0,024
-215,796	-87,864	-0,060	-0,013
-214,782	45,381	-0,135	-0,088
-213,767	-45,518	0,108	-0,038
-212,752	372,403	0,021	-0,031
-211,738	209,798	-0,122	0,136
-210,723	458,444	-0,066	0,105
-209,709	406,030	0,080	-0,120
-208,694	84,981	-0,054	0,042
-207,679	152,142	-0,037	-0,036
-206,665	-100,654	0,047	-0,008
-205,650	500,015	-0,059	0,096
-204,636	194,582	-0,063	-0,067
-203,621	-200,000	-0,003	0,080
-202,606	22,466	-0,128	0,074
-201,592	800,000	0,011	0,028
-200,577	754,195	0,057	-0,109
-199,563	-7,453	0,030	0,014
-198,548	537,601	0,049	-0,082
-197,533	-180,956	-0,066	0,001
-196,519	-198,074	0,152	-0,001
-195,504	800,000	-0,046	-0,100
-194,490	800,000	-0,027	-0,075
-193,475	800,000	0,037	-0,085
-192,460	-200,000	-0,013	0,110
-191,446	-16,578	0,102	0,046
-190,431	-121,646	-0,072	0,008
-189,417	800,000	0,001	-0,003
-188,402	469,665	-0,035	-0,055
-187,387	-200,000	-0,022	0,109
-186,373	-200,000	0,011	-0,079
-185,358	-52,792	0,028	-0,009
-184,344	-200,000	0,013	0,121
-183,329	-45,037	0,081	0,028
-182,315	515,622	-0,066	0,110
-181,300	-12,156	-0,020	0,009
-180,285	186,250	-0,054	-0,057
-179,271	800,000	-0,078	-0,195
-178,256	424,922	0,021	-0,032
-177,242	800,000	0,063	0,126
-176,227	433,781	0,025	-0,039
-175,212	391,673	-0,068	0,100
-174,198	-200,000	0,008	-0,078
-173,183	-117,278	-0,062	-0,008
-172,169	-200,000	-0,014	0,057
-171,154	100,645	0,067	0,055
-170,139	774,579	-0,020	-0,039
-169,125	104,794	0,156	0,130
-168,110	-200,000	0,012	-0,144
-167,096	-94,721	0,047	0,009
-166,081	-200,000	0,012	-0,166
-165,066	30,151	-0,163	-0,098
-164,052	-63,109	0,128	-0,037
-163,037	-17,419	0,074	-0,033
-162,023	-86,435	-0,083	-0,018
-161,008	-152,694	0,080	0,004
-159,993	-200,000	0,008	0,076
-158,979	800,000	-0,026	-0,062
-157,964	128,708	-0,043	-0,039
-156,950	-38,875	-0,038	0,014
-155,935	-33,261	-0,087	0,034
-154,920	-200,000	0,004	-0,034
-153,906	800,000	0,050	0,138
-152,891	186,121	0,051	0,054
-151,877	-200,000	0,014	0,148
-150,862	-121,708	-0,097	-0,011
-149,847	-146,779	0,138	-0,008
-148,833	800,000	0,055	0,110
-147,818	-200,000	0,032	0,121
-146,804	120,023	-0,025	0,022
-145,789	112,471	0,024	0,021
-144,775	-61,004	-0,043	0,013
-143,760	-200,000	-0,006	-0,104
-142,745	355,419	0,059	-0,084
-141,731	-158,441	-0,053	-0,002
-140,716	-48,784	0,118	0,040
-139,702	69,168	0,064	-0,047
-138,687	24,406	-0,080	0,047
-137,672	-65,093	0,085	0,024
-136,658	52,064	-0,165	-0,111
-135,643	800,000	-0,054	-0,133
-134,629	800,000	-0,007	-0,022
-133,614	800,000	0,073	0,159
-132,599	-6,692	-0,103	0,049
-131,585	242,913	0,083	-0,099
-130,570	275,400	-0,034	-0,043
-129,556	-200,000	-0,026	-0,133
-128,541	800,000	-0,019	0,050
-127,526	614,570	-0,010	-0,017
-126,512	-67,035	-0,046	-0,013
-125,497	104,148	0,115	0,095
-124,483	-24,359	-0,063	0,026
-123,468	-200,000	-0,031	0,184
-122,453	-148,379	-0,133	0,008
-121,439	121,452	-0,045	-0,039
-120,424	9,108	-0,043	0,023
-119,410	564,712	0,087	-0,150
-118,395	800,000	-0,021	-0,044
-117,380	-200,000	-0,027	0,143
-116,366	800,000	0,054	0,135
-115,351	145,397	-0,086	-0,082
-114,337	-67,889	-0,021	0,006
-113,322	-200,000	-0,008	0,030
-112,307	40,632	0,109	-0,069
-111,293	319,634	-0,081	0,109
-110,278	-200,000	-0,008	0,061
-109,264	123,333	0,053	0,047
-108,249	-118,812	-0,078	0,010
-107,234	469,077	0,026	-0,041
-106,220	-22,891	0,122	-0,052
-105,205	673,522	-0,072	-0,132
-104,191	-63,364	0,104	-0,030
-103,176	520,599	0,019	0,031
-102,162	602,805	-0,041	-0,073
-101,147	-200,000	0,021	-0,102
-100,132	800,000	0,057	-0,119
-99,118	-200,000	-0,020	-0,220
-98,103	196,730	0,054	-0,059
-97,089	483,096	0,090	0,145
-96,074	118,752	0,085	-0,074
-95,059	40,160	-0,061	-0,039
-94,045	331,975	-0,113	0,154
-93,030	604,355	0,046	0,081
-92,016	-30,353	-0,119	-0,048
-91,001	-191,923	-0,101	0,001
-89,986	335,521	-0,028	-0,039
-88,972	26,651	-0,089	0,052
-87,957	53,287	-0,017	0,011
-86,943	161,720	0,065	0,064
-85,928	94,201	-0,037	-0,030
-84,913	248,564	-0,067	-0,080
-83,899	-200,000	0,021	-0,160
-82,884	-49,042	-0,090	0,030
-81,870	6,455	0,098	-0,051
-80,855	84,026	0,032	0,025
-79,840	800,000	0,056	-0,139
-78,826	-20,420	-0,119	0,051
-77,811	-44,353	0,102	-0,036
-76,797	395,941	0,042	0,063
-75,782	164,758	-0,143	0,143
-74,767	-40,160	0,157	0,058
-73,753	-75,723	-0,128	0,032
-72,738	800,000	-0,061	0,184
-71,724	88,377	-0,127	0,100
-70,709	800,000	0,027	-0,068
-69,694	181,796	0,053	0,055
-68,680	73,145	-0,070	0,052
-67,665	800,000	0,043	0,095
-66,651	-200,000	0,004	-0,055
-65,636	44,155	0,112	-0,073
-64,622	68,820	-0,076	0,055
-63,607	-38,574	0,027	-0,010
-62,592	-200,000	-0,004	0,022
-61,578	135,672	-0,088	-0,081
-60,563	87,480	-0,085	-0,066
-59,549	426,981	-0,013	-0,019
-58,534	39,895	-2,187	-1,384
-57,519	587,400	-1,161	-2,024
-56,505	-200,000	-0,195	-4,307
-55,490	642,311	0,832	1,503
-54,476	800,000	5,275	11,512
-53,461	-200,000	21,891	336,433
-52,446	800,000	758,232	2293,492
-51,432	533,353	1651,771	2770,841
-50,417	69,131	1650,138	1195,610
-49,403	16,560	1524,930	847,942
-48,388	10,705	1449,481	777,815
-47,373	18,903	1441,696	812,756
-46,359	14,127	1430,131	783,616
-45,344	9,086	1426,191	757,547
-44,330	8,993	1424,237	756,036
-43,315	8,962	1422,474	754,924
-42,300	8,987	1420,783	754,113
-41,286	9,024	1419,627	753,645
-40,271	9,017	1418,260	752,856
-39,257	8,999	1417,085	752,118
-38,242	9,014	1416,067	751,619
-37,227	9,032	1414,904	751,058
-36,213	8,995	1413,720	750,223
-35,198	9,007	1412,300	749,496
-34,184	9,007	1411,277	748,925
-33,169	8,949	1410,141	748,022
-32,154	8,958	1409,372	747,626
-31,140	8,975	1407,816	746,850
-30,125	9,027	1406,700	746,472
-29,111	8,982	1405,639	745,670
-28,096	8,984	1404,308	744,942
-27,082	8,923	1403,375	744,132
-26,067	8,911	1402,287	743,470
-25,052	8,955	1401,045	742,985
-24,038	8,997	1399,963	742,579
-23,023	8,950	1399,398	742,033
-22,009	8,942	1398,042	741,244
-20,994	8,933	1397,057	740,653
-19,979	8,897	1396,404	740,111
-18,965	8,948	1395,103	739,629
-17,950	8,893	1394,303	738,918
-16,936	8,852	1393,493	738,272
-15,921	8,825	1392,448	737,561
-14,906	8,848	1391,601	737,191
-13,892	8,906	1390,576	736,885
-12,877	8,839	1390,017	736,250
-11,863	8,823	1389,272	735,751
-10,848	8,808	1388,125	735,049
-9,833	8,803	1387,137	734,471
-8,819	8,824	1386,183	734,037
-7,804	8,820	1385,237	733,485
-6,790	8,791	1384,200	732,775
-5,775	8,744	1383,406	732,111
-4,760	8,757	1382,381	731,598
-3,746	8,816	1381,338	731,285
-2,731	8,771	1380,564	730,641
-1,717	8,760	1379,759	730,138
-0,702	8,740	1377,854	729,008
0,313	12,777	1289,655	700,677
1,327	28,716	682,217	406,409
2,342	44,579	117,561	76,054
3,356	2,427	16,445	8,365
4,371	-2,047	3,628	1,791
5,386	-5,996	1,212	0,582
6,400	-200,000	0,230	0,718
7,415	264,599	-0,068	-0,084
8,429	48,552	-0,272	-0,179
9,444	36,459	-0,412	-0,255
10,459	-29,410	-0,281	-0,113
11,473	-20,410	-0,454	-0,196
12,488	-30,642	-0,205	-0,081
13,502	73,506	-0,315	-0,232
14,517	-53,436	-0,416	-0,133
15,531	231,577	-0,350	-0,404
16,546	-39,472	-0,398	-0,146
17,561	110,032	-0,299	-0,253
18,575	26,889	-0,242	-0,142
19,590	465,182	-0,128	-0,203
20,604	-107,573	-0,352	-0,054
21,619	25,394	-0,453	-0,265
22,634	118,589	-0,488	-0,424
23,648	250,142	-0,354	-0,424
24,663	-26,398	-0,429	-0,176
25,677	296,590	-0,221	-0,285
26,692	-2,934	-0,332	-0,162
27,707	239,754	-0,308	-0,361
28,721	153,105	-0,330	-0,317
29,736	144,248	-0,349	-0,328
30,750	55,606	-0,483	-0,328
31,765	161,475	-0,377	-0,371
32,780	-14,397	-0,427	-0,193
33,794	-42,306	-0,414	-0,148
34,809	89,855	-0,359	-0,281
35,823	0,525	-0,334	-0,167
36,838	173,393	-0,362	-0,367
37,853	35,564	-0,389	-0,240
38,867	125,549	-0,328	-0,291
39,882	241,536	-0,287	-0,338
40,896	284,707	-0,169	-0,214
41,911	-20,095	-0,352	-0,152
42,926	203,417	-0,361	-0,393
43,940	199,190	-0,257	-0,277
44,955	-16,064	-0,448	-0,199
45,969	255,410	-0,262	-0,316
46,984	391,622	-0,230	-0,337
47,999	85,454	-0,306	-0,236
49,013	-81,196	-0,427	-0,098
50,028	2,180	-0,445	-0,225
51,042	80,372	-0,272	-0,205
52,057	57,985	-0,367	-0,252
53,071	4,437	-0,378	-0,194
54,086	-21,481	-0,274	-0,117
55,101	61,041	-0,248	-0,173
56,115	220,618	-0,211	-0,238
57,130	-83,052	-0,359	-0,081
58,144	30,638	-0,360	-0,216
59,159	39,303	-0,434	-0,272
60,174	20,996	-0,289	-0,164
61,188	32,664	-0,315	-0,191
62,203	59,997	-0,314	-0,217
63,217	2,763	-0,354	-0,180
64,232	-47,296	-0,359	-0,122
65,247	30,563	-0,332	-0,199
66,261	115,612	-0,318	-0,273
67,276	139,492	-0,286	-0,264
68,290	81,476	-0,335	-0,253
69,305	27,531	-0,224	-0,132
70,320	-9,787	-0,272	-0,126
71,334	63,156	-0,191	-0,134
72,349	66,825	-0,354	-0,252
73,363	60,004	-0,373	-0,258
74,378	79,349	-0,258	-0,193
75,393	16,938	-0,424	-0,235
76,407	182,691	-0,269	-0,278
77,422	35,666	-0,257	-0,158
78,436	-55,958	-0,245	-0,076
79,451	-94,552	-0,228	-0,043
80,466	178,956	-0,183	-0,187
81,480	737,219	-0,140	-0,264
82,495	62,306	-0,331	-0,231
83,509	222,279	-0,264	-0,298
84,524	111,491	-0,186	-0,157
85,539	18,653	-0,209	-0,117
86,553	78,522	-0,297	-0,222
87,568	36,690	-0,344	-0,212
88,582	39,603	-0,360	-0,225
89,597	26,306	-0,421	-0,245
90,611	272,136	-0,254	-0,314
91,626	129,474	-0,167	-0,150
92,641	69,734	-0,273	-0,197
93,655	23,088	-0,363	-0,208
94,670	-18,024	-0,279	-0,122
95,684	90,969	-0,324	-0,254
96,699	31,773	-0,365	-0,219
97,714	147,254	-0,279	-0,263
98,728	-160,421	-0,204	-0,007
99,743	-79,107	-0,205	-0,048
100,757	-0,867	-0,285	-0,141
101,772	-61,865	-0,233	-0,068
102,787	56,396	-0,284	-0,192
103,801	67,321	-0,329	-0,235
104,816	339,584	-0,127	-0,174
105,830	68,922	-0,204	-0,147
106,845	-30,971	-0,260	-0,102
107,860	28,566	-0,259	-0,153
108,874	64,333	-0,145	-0,102
109,889	-54,063	-0,323	-0,102
110,903	622,716	-0,198	-0,350
111,918	187,918	-0,289	-0,302
112,933	800,000	-0,094	-0,220
113,947	72,930	-0,231	-0,168
114,962	-29,212	-0,319	-0,127
115,976	47,550	-0,147	-0,096
116,991	176,235	-0,208	-0,211
118,006	117,250	-0,264	-0,226
119,020	180,180	-0,179	-0,183
120,035	374,259	-0,172	-0,245
121,049	-46,964	-0,218	-0,074
122,064	2,992	-0,197	-0,100
123,079	-85,492	-0,219	-0,047
124,093	7,633	-0,334	-0,174
125,108	-27,116	-0,228	-0,092
126,122	315,139	-0,208	-0,274
127,137	-54,658	-0,340	-0,107
128,151	-75,875	-0,127	0,031
129,166	8,072	-0,270	-0,141
130,181	44,776	-0,295	-0,189
131,195	255,352	-0,244	-0,292
132,210	252,751	-0,151	-0,180
133,224	-33,085	-0,263	-0,101
134,239	475,235	-0,211	-0,334
135,254	100,121	-0,199	-0,160
136,268	122,685	-0,257	-0,224
137,283	193,103	-0,236	-0,249
138,297	106,628	-0,274	-0,226
139,312	0,234	-0,340	-0,169
140,327	-28,469	-0,321	-0,128
141,341	-85,788	-0,261	-0,056
142,356	113,725	-0,186	-0,158
143,370	401,131	-0,156	-0,229
144,385	423,426	-0,151	-0,227
145,400	62,955	-0,280	-0,195
146,414	-78,486	-0,329	-0,078
147,429	-4,338	-0,245	-0,118
148,443	-32,641	-0,268	-0,104
149,458	271,207	-0,256	-0,315
150,473	265,516	-0,138	-0,168
151,487	121,773	-0,212	-0,184
152,502	145,359	-0,260	-0,242
153,516	65,336	-0,245	-0,172
154,531	492,991	-0,217	-0,348
155,546	88,875	-0,250	-0,194
156,560	223,069	-0,184	-0,207
157,575	503,052	-0,130	-0,209
158,589	-25,287	-0,151	-0,062
159,604	108,339	-0,295	-0,245
160,619	289,066	-0,207	-0,262
161,633	139,447	-0,257	-0,236
162,648	89,217	-0,215	-0,166
163,662	800,000	-0,130	-0,295
164,677	169,045	-0,127	-0,126
165,692	88,578	-0,205	-0,158
166,706	405,845	-0,279	-0,411
167,721	93,617	-0,293	-0,231
168,735	13,264	-0,265	-0,142
169,750	52,821	-0,138	-0,091
170,764	-17,700	-0,248	-0,108
171,779	185,900	-0,056	-0,058
172,794	73,953	-0,160	-0,117
173,808	114,455	-0,240	-0,203
174,823	127,402	-0,193	-0,170
175,837	574,196	-0,165	-0,280
176,852	177,233	-0,193	-0,196
177,867	36,313	-0,178	-0,109
178,881	245,790	-0,103	-0,120
179,896	-200,000	-0,122	-0,384
180,910	105,058	-0,251	-0,205
181,925	102,149	-0,312	-0,253
182,940	-101,698	-0,123	-0,020
183,954	410,762	-0,137	-0,202
184,969	719,342	-0,117	-0,216
185,983	1,508	-0,170	-0,085
186,998	44,176	-0,120	-0,076
188,013	-51,794	-0,229	-0,074
189,027	318,433	-0,236	-0,311
190,042	-90,277	-0,175	-0,035
191,056	128,906	-0,195	-0,172
192,071	304,389	-0,161	-0,207
193,086	0,953	-0,253	-0,125
194,100	79,395	-0,098	-0,073
195,115	-42,612	-0,204	-0,072
196,129	414,520	-0,101	-0,150
197,144	75,375	-0,223	-0,163
198,159	219,912	-0,145	-0,161
199,173	19,873	-0,186	-0,104
200,188	69,431	-0,242	-0,172
201,202	-12,213	-0,231	-0,104
202,217	102,017	-0,139	-0,112
203,232	169,253	-0,122	-0,121
204,246	513,995	-0,122	-0,198
205,261	415,604	-0,230	-0,340
206,275	-51,564	-0,054	-0,017
207,290	-46,378	-0,186	-0,063
208,304	563,360	-0,069	-0,117
209,319	143,932	-0,193	-0,178
210,334	800,000	-0,031	-0,078
211,348	165,515	-0,190	-0,186
212,363	122,179	-0,182	-0,157
213,377	800,000	-0,088	-0,218
214,392	112,527	-0,162	-0,136
215,407	11,718	-0,204	-0,108
216,421	-200,000	-0,004	-0,192
217,436	284,423	-0,154	-0,192
218,450	708,936	-0,125	-0,229
219,465	-35,404	-0,246	-0,092
220,480	87,159	-0,146	-0,112
221,494	394,507	-0,141	-0,204
222,509	420,920	-0,118	-0,175
223,523	134,505	-0,164	-0,147
224,538	-11,523	-0,232	-0,105
225,553	-105,409	-0,194	-0,030
226,567	800,000	-0,114	-0,256
227,582	167,927	-0,164	-0,162
228,596	-136,237	-0,030	-0,002
229,611	-132,062	-0,168	-0,015
230,626	-66,434	-0,184	-0,050
231,640	134,265	-0,110	-0,099
232,655	28,226	-0,193	-0,112
233,669	162,593	-0,151	-0,147
234,684	-98,003	-0,202	-0,036
235,699	81,219	-0,182	-0,135
236,713	248,447	-0,125	-0,146
237,728	4,348	-0,166	-0,084
238,742	387,751	-0,087	-0,125
239,757	800,000	-0,103	-0,199
240,772	45,848	-0,190	-0,121
241,786	17,341	-0,125	-0,068
242,801	143,958	-0,097	-0,089
243,815	-103,831	-0,210	0,034
244,830	53,028	-0,185	-0,122
245,844	179,592	-0,222	-0,224
246,859	229,388	-0,186	-0,209
247,874	167,184	-0,138	-0,135
248,888	339,154	-0,119	-0,160
249,903	179,529	-0,085	-0,086
250,917	414,450	-0,121	-0,178
251,932	116,309	-0,119	-0,101
252,947	31,032	-0,103	-0,061
253,961	261,993	-0,177	-0,213
254,976	408,641	-0,109	-0,159
255,990	103,566	-0,273	-0,221
257,005	-200,000	-0,040	-0,131
258,020	94,635	-0,162	-0,127
259,034	-80,974	-0,225	-0,051
260,049	52,800	-0,087	-0,057
261,063	11,896	-0,212	-0,112
262,078	66,940	-0,259	-0,182
263,093	228,540	-0,200	-0,225
264,107	561,087	0,042	-0,071
265,122	800,000	-0,070	-0,138
266,136	-71,603	-0,146	0,037
267,151	800,000	-0,062	-0,137
268,166	-200,000	-0,049	-0,177
269,180	197,231	-0,182	-0,192
270,195	37,909	-0,300	-0,183
271,209	165,908	-0,123	-0,119
272,224	-63,088	-0,105	0,030
273,239	-200,000	0,003	-0,076
274,253	800,000	-0,099	-0,219
275,268	231,070	-0,092	-0,104
276,282	541,175	-0,207	-0,341
277,297	-27,056	-0,252	-0,101
278,312	576,939	-0,143	-0,242
279,326	798,019	-0,078	-0,148
280,341	289,641	-0,116	-0,146
281,355	217,288	-0,141	-0,155
282,370	3,410	-0,173	-0,087
283,384	368,710	-0,083	-0,115
284,399	699,096	-0,124	-0,226
285,414	-8,273	-0,100	-0,046
286,428	-200,000	-0,006	-0,087
287,443	344,328	-0,096	-0,130
288,457	25,808	-0,054	-0,031
289,472	-190,899	-0,224	0,002
290,487	44,648	-0,096	-0,060
291,501	461,039	-0,103	-0,158
292,516	474,336	-0,114	-0,178
293,530	667,692	-0,080	0,143
294,545	181,878	-0,129	-0,131
295,560	401,603	-0,095	-0,137
296,574	-105,572	-0,235	0,036
297,589	-70,864	-0,096	-0,025
298,603	205,537	-0,231	-0,247
299,618	336,685	-0,099	-0,132
300,633	-143,852	-0,161	0,010
301,647	-200,000	-0,016	-0,135
302,662	93,887	-0,120	-0,093
303,676	202,743	-0,120	-0,127
304,691	29,940	-0,137	-0,080
305,706	28,457	-0,281	-0,162
306,720	79,559	-0,224	-0,165
307,735	496,423	-0,062	-0,098
308,749	133,578	-0,160	-0,143
309,764	33,916	-0,083	-0,049
310,779	48,627	-0,055	-0,035
311,793	-121,332	-0,133	0,015
312,808	144,540	-0,159	-0,145
313,822	98,912	-0,219	-0,174
314,837	29,864	-0,099	-0,058
315,852	746,343	0,004	0,007
316,866	-114,081	-0,103	-0,014
317,881	-34,719	-0,091	-0,034
318,895	-200,000	-0,036	-0,144
319,910	-9,316	-0,170	-0,078
320,925	49,688	-0,203	-0,131
321,939	800,000	-0,078	-0,173
322,954	0,746	-0,070	-0,034
323,968	800,000	-0,024	-0,068
324,983	-200,000	-0,011	-0,080
325,997	-172,375	-0,165	0,004
327,012	-200,000	-0,042	-0,302
328,027	442,937	-0,144	-0,216
329,041	195,441	-0,155	-0,161
330,056	195,250	-0,122	-0,127
331,070	-2,331	-0,098	-0,047
332,085	576,069	-0,046	-0,078
333,100	-117,056	-0,149	-0,018
334,114	790,612	-0,040	-0,076
335,129	-200,000	-0,026	-0,169
336,143	-27,298	-0,130	-0,051
337,158	-45,727	-0,108	-0,036
338,173	142,746	-0,098	-0,089
339,187	-200,000	0,001	-0,177
340,202	234,074	-0,034	-0,038
341,216	137,241	-0,156	-0,140
342,231	-77,066	-0,135	-0,032
343,246	88,762	-0,243	-0,185
344,260	-134,646	-0,091	-0,007
345,275	316,077	-0,104	-0,135
346,289	800,000	0,020	0,050
347,304	-200,000	0,009	-0,184
348,319	303,693	-0,128	-0,163
349,333	4,154	-0,204	-0,102
350,348	138,707	-0,127	-0,114
351,362	666,584	-0,044	-0,078
352,377	413,481	-0,096	-0,140
353,392	10,617	-0,085	-0,044
354,406	-32,703	-0,115	0,044
355,421	207,628	1307,241	1396,780
356,435	159,733	1467,009	1397,254
