DTS Sentinel unit serial number:	SN410029Multiplexer serial number:	ORYXHardware model number:	OX2-SRSoftware version number:	ORYX F/W v4,00 Oryx Data Collector v3.7.2.0data status	okinstallation	B3 Nyhavnadifferential loss correction	single-endedforward channel	channel 1reverse channel	N/Adate	2023/11/30time	00:37:30forward acquisition time	300,00reverse acquisition time	0,00gamma	499,1914k internal	0,3210k external	0,3210temperature offset calibration	1,0000default loss term (dB/km)	0,3820temperature slope calibration	1,0000multiplexer offset coefficient	1,0000multiplexer slope coefficient	1,0000fibre end	0,00T internal ref (°C)	10,81T ext. ref 1 (°C)	-4,59T ext. ref 2 (°C)	-4,70length (m)	temperature (°C)	Stokes	anti-Stokes-744,400	180,641	-0,271	-0,289
-743,385	-200,000	-0,068	0,319
-742,371	74,697	-0,173	-0,132
-741,356	-200,000	0,065	0,312
-740,342	8,219	-0,203	-0,110
-739,327	-200,000	-0,006	0,194
-738,312	414,220	-0,177	-0,274
-737,298	503,938	0,122	0,205
-736,283	-51,670	-0,226	-0,076
-735,269	739,538	0,164	0,320
-734,254	378,577	-0,087	-0,130
-733,239	93,602	-0,150	0,123
-732,225	92,318	-0,169	-0,138
-731,210	-169,218	0,111	0,003
-730,196	-80,079	-0,206	0,050
-729,181	-200,000	0,044	-0,151
-728,167	151,134	-0,134	0,132
-727,152	41,930	-0,128	-0,084
-726,137	513,687	-0,043	-0,074
-725,123	800,000	-0,022	-0,060
-724,108	276,369	-0,121	-0,156
-723,094	800,000	-0,080	-0,167
-722,079	800,000	-0,027	-0,079
-721,064	-116,368	0,152	0,020
-720,050	-25,678	-0,090	-0,038
-719,035	-200,000	-0,030	-0,098
-718,021	-1,872	-0,039	0,020
-717,006	-179,342	-0,076	0,001
-715,991	-196,148	-0,199	0,001
-714,977	72,029	-0,149	-0,112
-713,962	677,292	0,019	0,037
-712,948	49,714	0,055	-0,038
-711,933	-200,000	-0,017	0,060
-710,918	800,000	-0,022	0,054
-709,904	-200,000	-0,012	-0,040
-708,889	-200,000	0,040	-0,133
-707,875	800,000	-0,061	-0,162
-706,860	-200,000	0,013	-0,097
-705,845	268,341	-0,017	-0,021
-704,831	-150,069	-0,074	0,004
-703,816	94,964	-0,087	-0,072
-702,802	91,320	-0,082	-0,067
-701,787	-200,000	-0,051	-0,176
-700,772	24,833	-0,033	-0,020
-699,758	63,579	-0,089	-0,064
-698,743	587,586	0,015	0,027
-697,729	800,000	0,058	0,124
-696,714	-200,000	-0,018	0,173
-695,699	-200,000	-0,030	-0,123
-694,685	609,729	-0,050	-0,090
-693,670	-123,189	0,107	0,012
-692,656	-175,445	0,034	-0,001
-691,641	110,877	-0,088	-0,077
-690,627	-66,726	0,075	-0,021
-689,612	-200,000	0,007	0,211
-688,597	-200,000	-0,008	0,088
-687,583	-106,182	-0,195	0,031
-686,568	94,482	-0,129	-0,106
-685,554	-51,847	-0,108	-0,036
-684,539	-200,000	-0,023	-0,112
-683,524	800,000	-0,026	0,063
-682,510	-78,525	0,088	0,022
-681,495	341,353	-0,075	0,106
-680,481	532,651	-0,071	-0,122
-679,466	6,362	-0,066	-0,036
-678,451	218,895	0,021	0,024
-677,437	-200,000	-0,029	0,134
-676,422	800,000	0,057	0,146
-675,408	-145,004	-0,058	0,004
-674,393	7,641	-0,141	-0,076
-673,378	53,012	0,084	-0,058
-672,364	175,331	-0,111	0,116
-671,349	-200,000	-0,029	-0,130
-670,335	-70,416	-0,066	0,018
-669,320	86,352	0,106	-0,084
-668,305	561,266	-0,090	-0,159
-667,291	398,080	-0,043	-0,065
-666,276	-12,070	0,076	0,036
-665,262	104,571	-0,116	-0,099
-664,247	-38,362	0,066	0,025
-663,232	-200,000	-0,003	0,060
-662,218	-9,796	-0,052	0,025
-661,203	-161,384	-0,132	-0,005
-660,189	17,761	-0,033	0,019
-659,174	800,000	0,063	0,143
-658,159	-200,000	0,016	-0,146
-657,145	-200,000	0,020	0,079
-656,130	127,499	-0,022	0,020
-655,116	61,501	-0,083	-0,059
-654,101	384,496	0,098	0,146
-653,086	-97,802	-0,082	-0,015
-652,072	94,267	0,078	0,064
-651,057	-200,000	-0,014	0,047
-650,043	5,047	-0,095	-0,051
-649,028	800,000	0,012	-0,032
-648,014	85,525	-0,076	0,061
-646,999	172,530	-0,065	0,068
-645,984	-140,303	-0,013	-0,001
-644,970	55,383	-0,100	-0,070
-643,955	-200,000	-0,013	-0,094
-642,941	-147,663	-0,016	-0,001
-641,926	-39,344	0,083	-0,031
-640,911	171,160	-0,028	-0,029
-639,897	-200,000	0,021	0,160
-638,882	-34,530	0,064	-0,025
-637,868	-104,570	0,118	-0,020
-636,853	-178,168	-0,130	0,002
-635,838	-13,743	-0,082	-0,038
-634,824	-189,886	0,055	0,000
-633,809	-50,147	0,121	-0,041
-632,795	249,469	-0,049	0,061
-631,780	-55,863	0,016	0,005
-630,765	-60,295	-0,061	0,019
-629,751	95,008	0,122	-0,100
-628,736	35,560	-0,019	0,012
-627,722	800,000	0,076	0,173
-626,707	-22,956	-0,154	0,067
-625,692	-47,693	0,157	0,055
-624,678	-200,000	-0,017	0,102
-623,663	-95,837	-0,132	0,025
-622,649	-200,000	0,013	-0,044
-621,634	-200,000	-0,016	-0,124
-620,619	167,074	0,052	-0,053
-619,605	182,638	-0,130	-0,139
-618,590	800,000	0,052	0,136
-617,576	116,743	0,065	-0,057
-616,561	272,238	-0,063	-0,080
-615,546	11,455	-0,107	-0,059
-614,532	-200,000	-0,002	0,055
-613,517	0,398	-0,085	-0,044
-612,503	-93,909	0,051	-0,010
-611,488	6,641	0,167	-0,089
-610,474	724,183	-0,028	-0,053
-609,459	177,752	0,056	0,059
-608,444	-93,568	0,062	0,012
-607,430	-200,000	0,031	-0,132
-606,415	-200,000	-0,007	0,063
-605,401	-200,000	-0,042	0,134
-604,386	-117,487	0,028	-0,004
-603,371	121,945	-0,074	0,067
-602,357	-200,000	-0,010	-0,099
-601,342	-60,050	-0,184	-0,056
-600,328	134,196	0,066	0,062
-599,313	-168,859	0,077	-0,002
-598,298	-163,007	0,082	0,003
-597,284	-200,000	-0,024	0,117
-596,269	145,977	-0,108	0,104
-595,255	327,348	-0,102	-0,142
-594,240	800,000	-0,028	-0,077
-593,225	312,710	-0,040	0,054
-592,211	-23,405	-0,018	0,008
-591,196	-47,890	0,124	-0,043
-590,182	-200,000	-0,004	0,025
-589,167	125,372	0,017	-0,016
-588,152	800,000	0,038	0,098
-587,138	-52,585	-0,104	0,034
-586,123	-200,000	0,010	-0,074
-585,109	-91,551	-0,069	-0,014
-584,094	-172,360	-0,072	0,002
-583,079	-24,231	0,053	-0,023
-582,065	-60,727	0,099	0,030
-581,050	-200,000	0,001	-0,048
-580,036	-200,000	0,005	0,051
-579,021	22,195	-0,155	-0,091
-578,006	5,300	-0,066	-0,035
-576,992	-200,000	-0,016	0,115
-575,977	246,507	0,049	-0,059
-574,963	210,852	-0,041	-0,046
-573,948	165,647	-0,053	-0,054
-572,934	-36,731	-0,075	-0,029
-571,919	-200,000	-0,005	-0,032
-570,904	800,000	-0,050	-0,131
-569,890	-200,000	0,035	-0,163
-568,875	48,306	0,064	0,043
-567,861	800,000	-0,045	0,108
-566,846	432,422	-0,025	0,040
-565,831	8,348	-0,070	0,038
-564,817	-25,265	-0,026	-0,011
-563,802	-200,000	0,008	-0,195
-562,788	-200,000	0,015	-0,074
-561,773	-138,845	0,122	0,009
-560,758	800,000	-0,015	-0,039
-559,744	800,000	-0,020	-0,050
-558,729	-200,000	0,038	0,132
-557,715	75,242	-0,109	0,083
-556,700	-1,799	-0,029	-0,014
-555,685	-200,000	-0,014	-0,046
-554,671	-17,207	0,015	-0,007
-553,656	-200,000	-0,004	0,145
-552,642	800,000	0,018	0,045
-551,627	-16,307	0,010	0,005
-550,612	-29,923	0,122	0,050
-549,598	218,496	0,022	-0,025
-548,583	244,653	-0,060	0,073
-547,569	-122,758	0,172	0,020
-546,554	800,000	0,047	0,146
-545,539	-5,463	0,033	0,016
-544,525	298,557	-0,056	0,074
-543,510	284,702	0,021	-0,027
-542,496	-94,037	0,023	-0,004
-541,481	90,385	-0,026	-0,021
-540,466	-175,542	0,074	-0,001
-539,452	71,413	0,071	0,053
-538,437	-59,861	-0,107	-0,033
-537,423	-200,000	-0,027	-0,096
-536,408	382,987	-0,087	-0,129
-535,393	-54,128	-0,121	-0,039
-534,379	800,000	0,023	0,061
-533,364	800,000	-0,047	0,127
-532,350	-148,455	0,121	-0,007
-531,335	-200,000	-0,004	0,052
-530,321	-123,497	0,011	-0,001
-529,306	-98,714	-0,049	0,009
-528,291	-5,698	-0,063	-0,031
-527,277	-19,198	0,140	-0,062
-526,262	800,000	0,035	-0,109
-525,248	800,000	-0,064	0,143
-524,233	261,334	0,055	0,068
-523,218	-200,000	-0,025	0,129
-522,204	-93,982	0,084	-0,016
-521,189	164,312	0,063	0,064
-520,175	800,000	-0,045	0,110
-519,160	21,268	-0,049	-0,029
-518,145	189,459	0,041	0,045
-517,131	800,000	-0,011	0,023
-516,116	588,097	0,032	0,057
-515,102	-17,620	0,024	0,011
-514,087	-23,450	-0,042	0,018
-513,072	116,461	0,027	-0,024
-512,058	-32,799	0,010	-0,004
-511,043	85,350	0,162	0,128
-510,029	312,672	0,050	0,068
-509,014	-69,687	0,123	0,034
-507,999	317,927	-0,017	0,023
-506,985	800,000	0,055	-0,145
-505,970	-200,000	-0,046	-0,164
-504,956	14,787	0,042	-0,024
-503,941	38,451	0,067	-0,043
-502,926	800,000	0,047	-0,111
-501,912	800,000	-0,020	0,062
-500,897	704,256	0,082	0,157
-499,883	-200,000	-0,016	0,093
-498,868	-200,000	-0,001	0,024
-497,853	-121,271	-0,152	0,018
-496,839	-53,460	-0,035	0,011
-495,824	255,131	-0,018	-0,023
-494,810	-136,679	0,111	-0,009
-493,795	701,044	-0,025	0,047
-492,781	-160,315	0,114	-0,004
-491,766	-200,000	-0,032	0,173
-490,751	-200,000	-0,005	-0,043
-489,737	-98,268	-0,147	0,027
-488,722	369,717	0,050	0,073
-487,708	-176,972	0,055	-0,001
-486,693	800,000	-0,057	0,137
-485,678	157,059	-0,107	0,107
-484,664	-77,589	0,058	0,014
-483,649	-200,000	-0,043	-0,205
-482,635	800,000	0,022	-0,061
-481,620	-70,946	0,068	0,018
-480,605	22,158	0,144	0,084
-479,591	37,576	-0,037	-0,023
-478,576	609,459	-0,070	-0,125
-477,562	-200,000	-0,021	0,077
-476,547	-111,170	-0,125	-0,018
-475,532	133,627	0,106	-0,098
-474,518	3,032	0,069	0,036
-473,503	-200,000	-0,000	0,032
-472,489	214,494	0,108	0,123
-471,474	-2,280	0,043	-0,022
-470,459	800,000	-0,040	-0,081
-469,445	12,594	-0,084	0,047
-468,430	49,173	-0,111	0,075
-467,416	270,476	0,049	0,062
-466,401	388,023	0,079	0,118
-465,386	-200,000	-0,015	-0,063
-464,372	217,780	-0,040	0,046
-463,357	499,709	0,037	0,061
-462,343	-151,669	-0,017	0,001
-461,328	-200,000	-0,002	-0,102
-460,313	26,722	0,048	-0,029
-459,299	245,457	-0,013	0,015
-458,284	-200,000	0,012	0,038
-457,270	3,827	0,035	-0,018
-456,255	-123,603	-0,062	0,007
-455,241	-200,000	0,011	-0,191
-454,226	-25,252	-0,052	0,022
-453,211	53,110	0,070	-0,048
-452,197	-200,000	0,005	0,059
-451,182	-25,487	0,106	0,045
-450,168	-50,823	-0,052	0,017
-449,153	-200,000	-0,016	-0,061
-448,138	58,032	0,092	-0,065
-447,124	211,642	0,016	-0,018
-446,109	90,308	0,040	-0,032
-445,095	46,948	-0,089	0,059
-444,080	526,254	0,039	-0,067
-443,065	89,129	0,089	-0,071
-442,051	574,920	-0,074	-0,130
-441,036	698,105	-0,018	-0,034
-440,022	-111,236	-0,126	-0,018
-439,007	129,311	0,058	-0,053
-437,992	-200,000	-0,004	0,104
-436,978	800,000	-0,022	-0,044
-435,963	-200,000	-0,004	0,125
-434,949	-69,325	-0,061	0,017
-433,934	-9,024	-0,070	-0,033
-432,919	-25,716	-0,096	0,040
-431,905	284,310	-0,018	0,024
-430,890	-200,000	0,006	0,047
-429,876	297,261	0,043	0,057
-428,861	-200,000	-0,010	0,076
-427,846	4,497	-0,076	0,040
-426,832	-200,000	-0,007	0,034
-425,817	-200,000	-0,020	0,063
-424,803	-200,000	-0,001	-0,013
-423,788	-200,000	-0,010	-0,047
-422,773	-200,000	-0,008	-0,027
-421,759	-41,686	0,066	0,024
-420,744	-200,000	-0,011	0,049
-419,730	-163,649	0,121	0,004
-418,715	20,330	-0,164	-0,095
-417,701	-124,237	-0,030	0,003
-416,686	232,898	0,060	0,071
-415,671	426,611	-0,066	0,102
-414,657	237,601	0,019	0,023
-413,642	98,301	0,042	0,035
-412,628	-64,300	-0,067	0,019
-411,613	-200,000	-0,006	-0,055
-410,598	-200,000	-0,018	0,057
-409,584	330,088	0,033	-0,046
-408,569	120,144	0,017	-0,015
-407,555	-135,036	0,098	0,008
-406,540	-73,796	-0,104	0,027
-405,525	-182,146	-0,115	-0,002
-404,511	-87,742	-0,076	0,016
-403,496	-200,000	0,063	-0,218
-402,482	800,000	-0,029	-0,071
-401,467	-152,820	0,108	-0,005
-400,452	-200,000	0,031	-0,109
-399,438	-96,792	-0,108	-0,020
-398,423	553,757	0,054	-0,093
-397,409	783,174	0,062	-0,122
-396,394	-200,000	-0,023	-0,108
-395,379	-200,000	0,003	-0,038
-394,365	157,042	0,029	0,029
-393,350	-200,000	-0,011	0,137
-392,336	222,084	-0,041	0,048
-391,321	-200,000	0,019	-0,060
-390,306	205,071	0,026	0,029
-389,292	-200,000	0,020	-0,161
-388,277	-200,000	-0,026	-0,161
-387,263	95,681	-0,115	0,094
-386,248	428,493	0,112	-0,173
-385,233	-200,000	0,017	0,091
-384,219	323,690	-0,055	-0,076
-383,204	136,743	-0,051	-0,048
-382,190	800,000	0,011	0,031
-381,175	410,759	0,024	0,037
-380,160	97,013	0,024	-0,019
-379,146	-48,969	-0,068	-0,023
-378,131	-42,599	-0,109	0,040
-377,117	-68,836	-0,037	-0,010
-376,102	-200,000	0,003	-0,149
-375,088	280,855	0,105	-0,135
-374,073	-33,894	0,098	-0,038
-373,058	-177,275	0,062	-0,001
-372,044	-53,994	0,146	0,047
-371,029	-90,134	0,127	0,026
-370,015	203,796	-0,059	-0,065
-369,000	800,000	0,049	-0,141
-367,985	-200,000	0,008	0,109
-366,971	-200,000	-0,005	-0,056
-365,956	255,211	0,056	-0,069
-364,942	800,000	0,029	-0,080
-363,927	-200,000	-0,022	-0,116
-362,912	-61,813	0,038	-0,011
-361,898	98,716	0,072	0,059
-360,883	72,033	-0,133	-0,099
-359,869	205,071	0,031	0,034
-358,854	-17,053	0,107	0,048
-357,839	284,126	0,113	0,146
-356,825	800,000	0,044	-0,119
-355,810	-161,864	0,061	-0,002
-354,796	-200,000	-0,022	-0,101
-353,781	399,904	-0,065	0,097
-352,766	81,052	0,051	0,039
-351,752	-84,663	0,088	-0,020
-350,737	59,509	0,066	0,047
-349,723	-183,625	-0,081	0,001
-348,708	183,457	-0,020	-0,021
-347,693	3,722	0,020	-0,011
-346,679	800,000	0,046	-0,098
-345,664	-92,199	-0,195	0,039
-344,650	800,000	-0,046	0,108
-343,635	800,000	0,034	0,068
-342,620	-200,000	-0,011	0,061
-341,606	197,427	-0,047	0,051
-340,591	-11,278	0,137	-0,064
-339,577	800,000	-0,074	-0,149
-338,562	200,020	-0,080	0,088
-337,548	355,503	0,049	-0,070
-336,533	15,193	0,141	-0,079
-335,518	-200,000	-0,003	0,074
-334,504	-200,000	-0,001	0,023
-333,489	-200,000	-0,044	-0,146
-332,475	800,000	-0,068	-0,145
-331,460	-200,000	-0,009	-0,111
-330,445	91,404	-0,013	-0,010
-329,431	-200,000	-0,056	0,191
-328,416	146,328	-0,022	0,021
-327,402	225,536	-0,020	0,023
-326,387	505,729	0,082	0,137
-325,372	-64,281	-0,194	-0,056
-324,358	-200,000	0,002	-0,010
-323,343	422,022	-0,052	-0,080
-322,329	-200,000	0,003	0,099
-321,314	-196,012	0,132	0,001
-320,299	800,000	-0,041	0,093
-319,285	550,493	0,067	0,115
-318,270	355,133	0,057	-0,081
-317,256	-200,000	-0,013	-0,118
-316,241	126,285	0,057	0,052
-315,226	-200,000	0,005	0,021
-314,212	-200,000	0,001	-0,023
-313,197	0,469	0,083	0,042
-312,183	220,616	0,049	0,056
-311,168	800,000	-0,005	-0,011
-310,153	306,576	-0,109	0,145
-309,139	-120,038	-0,072	-0,009
-308,124	479,280	-0,080	0,130
-307,110	-73,756	0,174	-0,045
-306,095	-89,318	-0,126	-0,026
-305,080	-78,189	-0,025	-0,006
-304,066	330,667	-0,025	0,035
-303,051	88,894	-0,022	-0,017
-302,037	-93,034	0,084	-0,017
-301,022	-200,000	0,010	-0,089
-300,008	800,000	-0,028	0,074
-298,993	-200,000	-0,003	0,116
-297,978	-97,720	-0,025	0,005
-296,964	105,301	-0,060	-0,051
-295,949	789,611	-0,022	-0,043
-294,935	119,197	-0,079	0,070
-293,920	-105,507	0,183	-0,029
-292,905	90,266	-0,089	0,071
-291,891	-55,762	0,170	-0,054
-290,876	-200,000	0,033	0,190
-289,862	82,081	-0,138	0,106
-288,847	103,468	0,025	0,021
-287,832	317,915	0,027	-0,037
-286,818	-200,000	-0,002	-0,041
-285,803	-21,329	0,086	-0,037
-284,789	-51,968	0,042	0,014
-283,774	-143,639	0,024	-0,002
-282,759	750,203	-0,034	0,066
-281,745	-200,000	-0,026	-0,182
-280,730	236,946	0,006	-0,007
-279,716	-110,726	-0,096	-0,014
-278,701	225,432	-0,030	-0,034
-277,686	-200,000	0,006	0,036
-276,672	419,956	-0,055	0,084
-275,657	0,926	0,038	-0,019
-274,643	254,067	-0,009	-0,011
-273,628	-200,000	-0,008	-0,076
-272,613	1,653	-0,080	0,041
-271,599	-51,453	0,140	-0,046
-270,584	-76,749	0,158	-0,039
-269,570	800,000	0,055	0,126
-268,555	688,037	0,026	-0,049
-267,540	800,000	0,024	-0,058
-266,526	-17,846	-0,025	-0,011
-265,511	-78,949	0,050	0,012
-264,497	-114,443	0,120	0,016
-263,482	800,000	0,036	-0,091
-262,467	-200,000	-0,016	0,107
-261,453	63,366	-0,073	0,052
-260,438	201,005	-0,099	-0,109
-259,424	245,188	0,023	-0,028
-258,409	800,000	0,019	-0,051
-257,395	-200,000	0,003	0,120
-256,380	203,131	-0,076	0,084
-255,365	239,378	-0,093	-0,110
-254,351	-99,867	-0,039	-0,007
-253,336	95,696	-0,070	-0,056
-252,322	-34,495	-0,112	-0,043
-251,307	-63,661	-0,078	-0,023
-250,292	385,734	0,065	-0,095
-249,278	-149,332	0,124	-0,007
-248,263	40,102	0,088	0,056
-247,249	484,487	-0,029	0,047
-246,234	-63,004	-0,122	0,036
-245,219	216,368	-0,044	-0,049
-244,205	-9,730	-0,117	0,055
-243,190	14,199	0,062	0,034
-242,176	26,135	0,063	0,037
-241,161	-200,000	-0,003	-0,050
-240,146	-12,270	-0,029	0,013
-239,132	-138,480	0,027	0,002
-238,117	174,828	0,019	0,020
-237,103	88,105	0,081	-0,063
-236,088	65,572	0,109	0,078
-235,073	238,132	-0,021	0,024
-234,059	-200,000	-0,005	0,057
-233,044	730,988	-0,063	-0,120
-232,030	-200,000	-0,009	0,061
-231,015	-105,624	-0,064	-0,010
-230,000	-200,000	0,006	-0,055
-228,986	-58,423	0,054	0,017
-227,971	17,514	0,061	-0,034
-226,957	389,560	-0,060	0,089
-225,942	800,000	0,063	-0,128
-224,927	-200,000	0,017	-0,080
-223,913	693,772	-0,065	-0,122
-222,898	-200,000	-0,003	-0,077
-221,884	-85,671	-0,034	-0,007
-220,869	33,089	0,019	0,012
-219,855	-200,000	0,002	0,108
-218,840	273,595	-0,064	-0,080
-217,825	7,494	0,140	0,074
-216,811	111,627	-0,128	-0,110
-215,796	-200,000	0,053	-0,174
-214,782	515,457	-0,012	0,021
-213,767	-200,000	0,002	-0,073
-212,752	-200,000	-0,028	0,099
-211,738	-200,000	0,058	0,207
-210,723	-200,000	-0,004	0,121
-209,709	-200,000	-0,031	-0,138
-208,694	8,512	-0,080	0,043
-207,679	6,551	0,027	-0,014
-206,665	718,148	-0,024	-0,046
-205,650	162,471	0,058	-0,057
-204,636	272,825	0,046	0,057
-203,621	-200,000	0,040	0,152
-202,606	15,668	-0,047	0,026
-201,592	133,229	0,067	-0,061
-200,577	-7,679	-0,088	-0,042
-199,563	-200,000	0,013	-0,076
-198,548	-40,649	0,149	-0,055
-197,533	342,761	0,066	0,092
-196,519	227,751	-0,036	-0,042
-195,504	800,000	-0,036	0,080
-194,490	45,358	-0,112	-0,073
-193,475	-87,517	0,164	-0,035
-192,460	-138,034	-0,176	0,014
-191,446	213,611	0,107	-0,120
-190,431	800,000	-0,006	0,016
-189,417	74,397	-0,018	0,014
-188,402	-77,440	0,033	0,008
-187,387	25,657	-0,082	-0,049
-186,373	36,280	-0,052	-0,032
-185,358	-200,000	-0,009	0,033
-184,344	627,032	0,019	0,034
-183,329	64,360	-0,045	0,032
-182,315	-200,000	0,026	0,084
-181,300	-200,000	0,005	0,148
-180,285	4,038	-0,015	0,008
-179,271	-200,000	0,011	-0,066
-178,256	725,445	-0,026	-0,048
-177,242	-200,000	-0,007	-0,045
-176,227	800,000	-0,017	-0,034
-175,212	-86,715	0,082	0,018
-174,198	-95,399	-0,111	0,021
-173,183	208,431	-0,078	0,086
-172,169	162,978	-0,047	-0,047
-171,154	-57,095	0,105	0,032
-170,139	734,769	-0,044	-0,085
-169,125	-200,000	-0,010	-0,112
-168,110	800,000	-0,018	0,058
-167,096	-200,000	-0,002	0,068
-166,081	62,473	0,038	-0,027
-165,066	-200,000	0,031	0,103
-164,052	-42,767	-0,148	-0,053
-163,037	-134,627	-0,072	0,006
-162,023	-86,453	-0,053	0,011
-161,008	-200,000	-0,035	0,237
-159,993	-200,000	0,016	0,150
-158,979	10,723	0,085	0,046
-157,964	560,185	-0,011	0,020
-156,950	365,660	0,055	-0,079
-155,935	-200,000	-0,033	-0,104
-154,920	-200,000	0,013	0,068
-153,906	-200,000	-0,028	0,096
-152,891	260,973	-0,016	-0,020
-151,877	-200,000	-0,005	-0,028
-150,862	707,962	0,042	-0,079
-149,847	-9,883	0,119	0,056
-148,833	142,211	-0,074	0,069
-147,818	38,522	0,118	0,075
-146,804	232,065	-0,027	0,031
-145,789	492,568	-0,036	0,058
-144,775	-139,961	0,060	0,004
-143,760	144,343	-0,067	-0,063
-142,745	-200,000	0,006	-0,090
-141,731	-200,000	0,018	0,104
-140,716	-145,669	0,040	-0,002
-139,702	-200,000	0,012	0,048
-138,687	-200,000	0,000	0,055
-137,672	-167,055	-0,153	0,004
-136,658	-71,013	-0,086	0,023
-135,643	-200,000	0,013	0,090
-134,629	349,261	0,022	0,031
-133,614	-200,000	0,010	0,157
-132,599	-173,332	0,195	0,004
-131,585	-200,000	-0,001	0,207
-130,570	-15,277	-0,080	0,036
-129,556	-84,595	-0,091	-0,020
-128,541	307,037	0,009	0,012
-127,526	331,290	0,071	-0,097
-126,512	-42,939	-0,098	-0,035
-125,497	-200,000	-0,014	0,206
-124,483	319,823	0,065	-0,087
-123,468	-200,000	-0,006	0,137
-122,453	76,829	-0,099	0,074
-121,439	800,000	0,036	-0,083
-120,424	-200,000	-0,018	0,105
-119,410	-200,000	0,022	0,128
-118,395	-97,848	0,095	-0,017
-117,380	-200,000	0,019	0,186
-116,366	67,222	-0,029	-0,021
-115,351	-59,316	-0,195	0,059
-114,337	175,763	-0,069	-0,071
-113,322	44,052	-0,083	-0,053
-112,307	404,857	0,103	0,153
-111,293	-200,000	0,010	0,115
-110,278	-200,000	0,001	-0,055
-109,264	51,453	-0,068	0,045
-108,249	33,790	-0,082	-0,050
-107,234	85,587	-0,125	-0,097
-106,220	-200,000	-0,006	-0,136
-105,205	-41,762	0,066	0,024
-104,191	-84,696	0,108	0,024
-103,176	-200,000	0,005	-0,115
-102,162	800,000	-0,010	0,024
-101,147	-200,000	0,019	-0,093
-100,132	-170,936	-0,101	-0,002
-99,118	-104,469	-0,095	0,015
-98,103	153,668	-0,037	0,036
-97,089	75,820	-0,085	0,064
-96,074	-200,000	-0,006	-0,086
-95,059	800,000	-0,006	-0,013
-94,045	-200,000	-0,039	0,125
-93,030	800,000	-0,023	0,049
-92,016	-78,108	0,021	-0,005
-91,001	-123,707	-0,024	0,003
-89,986	-92,767	0,077	0,015
-88,972	-200,000	0,017	0,140
-87,957	-200,000	-0,016	0,087
-86,943	126,177	-0,036	0,032
-85,928	-200,000	-0,006	0,146
-84,913	326,933	-0,044	-0,060
-83,899	20,834	0,088	0,050
-82,884	122,219	0,100	0,089
-81,870	710,415	0,015	0,029
-80,855	70,163	-0,011	0,008
-79,840	340,790	0,058	-0,080
-78,826	-40,579	-0,193	-0,070
-77,811	150,134	0,063	0,060
-76,797	-200,000	0,033	0,203
-75,782	33,339	-0,054	-0,033
-74,767	-200,000	-0,003	0,083
-73,753	40,580	0,054	0,034
-72,738	-17,348	-0,037	0,017
-71,724	-36,323	-0,133	0,050
-70,709	-92,189	-0,096	0,019
-69,694	343,616	-0,055	-0,077
-68,680	-200,000	-0,020	0,162
-67,665	-200,000	0,007	0,045
-66,651	-200,000	0,005	0,229
-65,636	-200,000	-0,002	-0,079
-64,622	-45,690	-0,078	-0,027
-63,607	63,522	0,049	-0,034
-62,592	-200,000	0,018	-0,075
-61,578	7,435	0,124	-0,065
-60,563	-200,000	0,021	0,090
-59,549	-200,000	-0,049	0,236
-58,534	14,077	-1,969	-1,080
-57,519	554,711	-1,254	-2,139
-56,505	-200,000	-0,350	-4,353
-55,490	503,539	0,876	1,436
-54,476	800,000	5,009	11,051
-53,461	-200,000	20,831	329,561
-52,446	800,000	757,816	2325,009
-51,432	550,330	1662,420	2826,296
-50,417	73,404	1663,808	1228,158
-49,403	18,652	1536,997	865,822
-48,388	12,622	1460,083	793,302
-47,373	19,013	1450,785	818,917
-46,359	15,776	1440,231	797,515
-45,344	10,908	1435,824	771,847
-44,330	10,899	1433,871	770,728
-43,315	10,821	1432,106	769,377
-42,300	10,849	1430,500	768,613
-41,286	10,892	1429,054	768,010
-40,271	10,812	1428,026	767,047
-39,257	10,786	1426,838	766,254
-38,242	10,843	1425,575	765,820
-37,227	10,868	1424,597	765,383
-36,213	10,906	1423,129	764,741
-35,198	10,912	1421,934	764,097
-34,184	10,926	1421,110	763,690
-33,169	10,879	1419,747	762,708
-32,154	10,903	1418,947	762,361
-31,140	10,926	1417,521	761,669
-30,125	10,958	1416,393	761,185
-29,111	10,948	1415,393	760,571
-28,096	10,957	1414,122	759,901
-27,082	10,823	1413,318	758,807
-26,067	10,822	1412,019	758,075
-25,052	10,820	1411,257	757,630
-24,038	10,851	1409,938	757,032
-23,023	10,851	1408,826	756,409
-22,009	10,889	1407,735	755,969
-20,994	10,817	1406,853	755,128
-19,979	10,811	1406,111	754,672
-18,965	10,784	1405,161	754,008
-17,950	10,769	1404,052	753,310
-16,936	10,800	1403,311	753,028
-15,921	10,720	1402,445	752,162
-14,906	10,730	1401,330	751,582
-13,892	10,732	1400,516	751,121
-12,877	10,732	1399,823	750,723
-11,863	10,710	1398,952	750,124
-10,848	10,749	1397,770	749,640
-9,833	10,712	1397,042	749,047
-8,819	10,651	1396,133	748,246
-7,804	10,649	1395,456	747,846
-6,790	10,654	1394,100	747,113
-5,775	10,660	1393,221	746,639
-4,760	10,644	1392,307	746,047
-3,746	10,681	1391,186	745,586
-2,731	10,660	1390,493	745,092
-1,717	10,615	1389,872	744,522
-0,702	10,629	1387,823	743,457
0,313	14,638	1301,251	715,453
1,327	30,808	692,512	417,526
2,342	48,021	119,971	78,980
3,356	0,912	16,518	8,324
4,371	-3,955	3,550	1,731
5,386	7,207	0,877	0,460
6,400	-200,000	0,100	0,513
7,415	26,993	-0,263	-0,155
8,429	21,862	-0,287	-0,165
9,444	92,704	-0,382	-0,304
10,459	92,297	-0,367	-0,291
11,473	78,068	-0,281	-0,211
12,488	100,010	-0,210	-0,172
13,502	85,850	-0,290	-0,224
14,517	24,613	-0,343	-0,199
15,531	108,239	-0,356	-0,299
16,546	101,727	-0,403	-0,331
17,561	-98,762	-0,416	-0,074
18,575	15,033	-0,148	0,082
19,590	152,486	-0,249	-0,240
20,604	-152,845	-0,209	-0,010
21,619	83,286	-0,350	-0,269
22,634	54,601	-0,395	-0,268
23,648	133,361	-0,311	-0,283
24,663	145,152	-0,393	-0,371
25,677	-20,324	-0,297	-0,128
26,692	157,741	-0,320	-0,312
27,707	-70,107	-0,328	-0,087
28,721	107,099	-0,291	-0,243
29,736	38,453	-0,360	-0,225
30,750	57,496	-0,460	-0,316
31,765	-78,695	-0,387	-0,092
32,780	117,766	-0,319	-0,276
33,794	175,422	-0,301	-0,307
34,809	102,419	-0,440	-0,362
35,823	136,440	-0,352	-0,323
36,838	13,859	-0,493	-0,269
37,853	26,351	-0,544	-0,319
38,867	75,218	-0,417	-0,309
39,882	88,635	-0,260	-0,203
40,896	25,692	-0,347	-0,203
41,911	375,880	-0,160	-0,230
42,926	271,379	-0,217	-0,270
43,940	174,990	-0,297	-0,303
44,955	626,798	-0,227	-0,405
45,969	53,532	-0,294	-0,198
46,984	119,980	-0,350	-0,305
47,999	532,353	-0,188	-0,314
49,013	202,515	-0,278	-0,302
50,028	39,669	-0,302	-0,190
51,042	53,818	-0,348	-0,235
52,057	111,479	-0,378	-0,320
53,071	-59,732	-0,369	-0,110
54,086	79,314	-0,298	-0,224
55,101	193,921	-0,216	-0,230
56,115	-7,299	-0,345	-0,164
57,130	10,338	-0,438	-0,233
58,144	-1,803	-0,440	-0,217
59,159	27,204	-0,343	-0,202
60,174	293,756	-0,258	-0,332
61,188	88,381	-0,334	-0,260
62,203	-85,157	-0,335	-0,073
63,217	-63,555	-0,411	-0,118
64,232	-41,094	-0,285	-0,103
65,247	75,908	-0,301	-0,223
66,261	152,955	-0,286	-0,274
67,276	-36,862	-0,396	-0,148
68,290	2,511	-0,345	-0,175
69,305	0,305	-0,283	-0,141
70,320	84,689	-0,300	-0,231
71,334	800,000	-0,111	-0,244
72,349	0,982	-0,397	-0,199
73,363	105,061	-0,338	-0,279
74,378	280,320	-0,382	-0,479
75,393	54,814	-0,314	-0,212
76,407	117,547	-0,276	-0,238
77,422	43,969	-0,237	-0,152
78,436	242,046	-0,240	-0,282
79,451	11,277	-0,429	-0,229
80,466	128,386	-0,303	-0,271
81,480	-1,862	-0,318	-0,156
82,495	72,320	-0,289	-0,211
83,509	-191,668	-0,367	-0,002
84,524	32,761	-0,248	-0,150
85,539	3,889	-0,258	-0,131
86,553	53,747	-0,202	-0,135
87,568	-34,390	-0,343	-0,131
88,582	181,633	-0,236	-0,244
89,597	233,652	-0,191	-0,220
90,611	9,418	-0,296	-0,157
91,626	283,178	-0,195	-0,246
92,641	122,943	-0,347	-0,305
93,655	-110,682	-0,414	-0,059
94,670	147,298	-0,285	-0,269
95,684	126,411	-0,227	-0,201
96,699	598,513	-0,227	-0,396
97,714	659,463	-0,132	-0,240
98,728	-0,734	-0,319	-0,158
99,743	-65,509	-0,115	-0,032
100,757	-1,154	-0,214	-0,105
101,772	143,645	-0,226	-0,211
102,787	165,552	-0,207	-0,205
103,801	3,625	-0,349	-0,177
104,816	155,089	-0,256	-0,246
105,830	621,969	-0,067	-0,119
106,845	53,276	-0,241	-0,161
107,860	-20,730	-0,223	-0,095
108,874	245,867	-0,106	-0,125
109,889	223,984	-0,267	-0,301
110,903	24,364	-0,393	-0,226
111,918	213,765	-0,202	-0,223
112,933	-2,128	-0,259	-0,127
113,947	-86,300	-0,118	-0,025
114,962	400,905	-0,121	-0,178
115,976	255,747	-0,199	-0,239
116,991	62,507	-0,256	-0,179
118,006	50,683	-0,336	-0,222
119,020	66,168	-0,281	-0,199
120,035	272,646	-0,183	-0,226
121,049	3,407	-0,158	-0,080
122,064	390,215	-0,094	-0,137
123,079	-106,415	-0,244	-0,038
124,093	30,468	-0,310	-0,185
125,108	47,063	-0,358	-0,232
126,122	63,425	-0,234	-0,164
127,137	196,165	-0,200	-0,212
128,151	-172,571	-0,361	-0,008
129,166	-20,604	-0,153	-0,065
130,181	-118,326	-0,305	-0,037
131,195	352,924	-0,187	-0,260
132,210	114,994	-0,297	-0,253
133,224	800,000	-0,080	-0,205
134,239	74,989	-0,187	-0,137
135,254	800,000	-0,084	-0,191
136,268	1,051	-0,146	-0,073
137,283	92,320	-0,268	-0,210
138,297	216,484	-0,199	-0,221
139,312	132,752	-0,263	-0,237
140,327	150,385	-0,204	-0,193
141,341	149,334	-0,141	-0,133
142,356	474,328	-0,111	-0,176
143,370	103,468	-0,233	-0,190
144,385	-46,914	-0,387	-0,131
145,400	179,885	-0,193	-0,197
146,414	57,425	-0,355	-0,241
147,429	404,584	-0,063	-0,093
148,443	285,613	-0,115	-0,145
149,458	207,668	-0,206	-0,224
150,473	72,707	-0,205	-0,149
151,487	175,016	-0,198	-0,199
152,502	-20,770	-0,297	-0,126
153,516	203,703	-0,184	-0,198
154,531	-74,884	-0,226	-0,056
155,546	56,769	-0,179	-0,121
156,560	-53,023	-0,172	-0,055
157,575	-200,000	-0,161	0,001
158,589	8,701	-0,243	-0,127
159,604	130,183	-0,206	-0,184
160,619	-103,144	-0,349	-0,057
161,633	34,925	-0,302	-0,184
162,648	47,257	-0,307	-0,199
163,662	9,620	-0,273	-0,144
164,677	43,921	-0,229	-0,146
165,692	154,654	-0,258	-0,247
166,706	-81,430	-0,363	-0,082
167,721	212,070	-0,156	-0,171
168,735	437,796	-0,113	-0,171
169,750	174,471	-0,204	-0,205
170,764	108,676	-0,200	-0,166
171,779	442,490	-0,084	-0,128
172,794	19,640	-0,272	-0,152
173,808	207,819	-0,235	-0,255
174,823	144,700	-0,224	-0,208
175,837	800,000	-0,092	-0,190
176,852	-62,752	-0,205	-0,059
177,867	299,843	-0,149	-0,191
178,881	-53,186	-0,238	-0,075
179,896	-122,270	-0,242	0,027
180,910	157,180	-0,169	-0,163
181,925	-58,140	-0,225	-0,068
182,940	5,905	-0,263	-0,135
183,954	75,109	-0,263	-0,192
184,969	-55,417	-0,194	-0,060
185,983	76,476	-0,206	-0,152
186,998	-65,478	-0,227	-0,063
188,013	186,387	-0,203	-0,209
189,027	19,450	-0,272	-0,151
190,042	201,148	-0,142	-0,152
191,056	28,312	-0,332	-0,194
192,071	3,096	-0,171	-0,086
193,086	-42,733	-0,225	-0,079
194,100	-7,677	-0,185	-0,086
195,115	-137,596	-0,357	-0,028
196,129	100,130	-0,191	-0,153
197,144	0,385	-0,282	-0,139
198,159	15,912	-0,418	-0,228
199,173	-88,183	-0,224	-0,046
200,188	-52,773	-0,139	-0,044
201,202	-17,664	-0,198	-0,086
202,217	696,579	-0,115	-0,211
203,232	-31,546	-0,236	-0,092
204,246	134,996	-0,256	-0,231
205,261	154,492	-0,189	-0,180
206,275	180,218	-0,131	-0,133
207,290	282,608	-0,146	-0,182
208,304	-66,856	-0,244	-0,066
209,319	-65,653	-0,238	-0,066
210,334	139,139	-0,187	-0,170
211,348	-14,797	-0,175	-0,078
212,363	276,144	-0,167	-0,206
213,377	56,980	-0,231	-0,156
214,392	800,000	-0,126	-0,262
215,407	-153,374	-0,121	0,006
216,421	109,568	-0,307	-0,255
217,436	8,682	-0,170	-0,088
218,450	94,871	-0,156	-0,123
219,465	44,293	-0,199	-0,126
220,480	800,000	-0,099	-0,225
221,494	-85,478	-0,079	-0,017
222,509	60,978	-0,196	0,134
223,523	-136,014	-0,198	0,016
224,538	800,000	-0,113	-0,275
225,553	-39,163	-0,171	-0,062
226,567	127,897	-0,194	-0,171
227,582	147,302	-0,206	-0,192
228,596	50,456	-0,093	-0,061
229,611	-78,001	-0,199	-0,047
230,626	15,392	-0,139	-0,075
231,640	152,495	-0,145	-0,137
232,655	-40,330	-0,138	-0,049
233,669	75,612	-0,181	-0,132
234,684	-73,759	-0,254	-0,063
235,699	319,543	-0,183	-0,240
236,713	-41,491	-0,109	-0,039
237,728	109,225	-0,129	-0,107
238,742	7,543	-0,160	-0,083
239,757	202,944	-0,158	-0,169
240,772	-21,786	-0,176	-0,074
241,786	160,086	-0,149	-0,144
242,801	-137,013	-0,144	-0,011
243,815	800,000	-0,058	-0,120
244,830	115,743	-0,226	-0,191
245,844	491,082	-0,137	-0,218
246,859	47,389	-0,167	-0,107
247,874	-27,865	-0,137	-0,055
248,888	-76,248	-0,215	-0,052
249,903	41,243	-0,129	-0,081
250,917	-98,620	-0,163	-0,029
251,932	-159,244	-0,210	0,008
252,947	-50,213	-0,097	-0,031
253,961	800,000	-0,066	-0,182
254,976	800,000	-0,115	-0,266
255,990	-200,000	-0,029	-0,095
257,005	-7,054	-0,202	-0,094
258,020	62,114	-0,278	-0,191
259,034	219,503	-0,087	-0,096
260,049	-99,129	-0,158	-0,027
261,063	19,724	-0,261	-0,144
262,078	134,594	-0,161	-0,144
263,093	-131,965	-0,263	-0,023
264,107	167,602	-0,115	-0,113
265,122	299,421	-0,102	-0,130
266,136	105,117	-0,225	-0,183
267,151	33,971	-0,106	-0,064
268,166	73,577	-0,182	-0,131
269,180	-4,538	-0,210	-0,100
270,195	37,203	-0,286	-0,174
271,209	456,376	-0,099	-0,152
272,224	-103,255	-0,170	-0,027
273,239	74,441	-0,142	-0,103
274,253	800,000	-0,027	-0,074
275,268	69,627	-0,295	-0,209
276,282	107,387	-0,251	-0,205
277,297	137,712	-0,106	-0,095
278,312	-99,434	-0,229	-0,039
279,326	120,281	-0,168	-0,143
280,341	317,546	-0,156	-0,204
281,355	127,244	-0,220	-0,192
282,370	-75,191	-0,156	-0,038
283,384	-1,630	-0,185	-0,089
284,399	97,415	-0,224	-0,177
285,414	1,845	-0,155	-0,077
286,428	173,174	-0,188	-0,187
287,443	-138,346	-0,188	-0,014
288,457	2,254	-0,280	-0,139
289,472	800,000	-0,096	-0,213
290,487	255,299	-0,195	-0,230
291,501	-0,378	-0,140	-0,068
292,516	19,118	-0,251	-0,138
293,530	456,388	-0,130	-0,199
294,545	17,598	-0,268	-0,146
295,560	178,853	-0,069	-0,070
296,574	384,339	0,013	-0,018
297,589	110,666	-0,094	-0,078
298,603	504,888	-0,138	-0,221
299,618	-106,288	-0,101	0,015
300,633	-59,476	-0,034	-0,010
301,647	612,480	0,034	-0,059
302,662	-134,367	-0,153	0,013
303,676	198,973	-0,125	-0,131
304,691	376,566	-0,169	-0,238
305,706	125,459	-0,213	-0,184
306,720	89,058	-0,185	-0,141
307,735	84,606	-0,120	-0,090
308,749	635,165	-0,049	-0,085
309,764	80,061	-0,125	0,093
310,779	-57,475	-0,204	-0,061
311,793	-12,861	-0,167	-0,074
312,808	-164,468	-0,169	0,005
313,822	-200,000	-0,067	-0,276
314,837	-165,900	-0,180	0,005
315,852	-141,791	-0,078	-0,005
316,866	749,656	-0,064	-0,119
317,881	139,596	-0,106	-0,096
318,895	187,972	-0,153	-0,157
319,910	800,000	-0,041	-0,087
320,925	-200,000	-0,003	-0,224
321,939	123,833	-0,161	-0,139
322,954	-66,892	0,019	-0,005
323,968	-98,200	-0,225	-0,039
324,983	-91,589	-0,249	-0,048
325,997	-48,102	-0,257	-0,085
327,012	800,000	-0,077	-0,182
328,027	800,000	0,058	-0,151
329,041	171,483	-0,174	-0,171
330,056	51,014	-0,138	-0,090
331,070	367,161	-0,118	-0,163
332,085	227,750	-0,187	-0,209
333,100	103,508	-0,118	-0,095
334,114	182,900	-0,118	-0,119
335,129	-200,000	-0,067	-0,264
336,143	-93,792	-0,238	-0,044
337,158	-88,552	-0,078	-0,016
338,173	-11,572	-0,051	-0,023
339,187	-78,552	-0,159	-0,037
340,202	145,161	-0,103	-0,094
341,216	-200,000	-0,038	-0,233
342,231	800,000	-0,124	-0,375
343,246	266,004	-0,028	-0,033
344,260	800,000	-0,125	-0,295
345,275	1,515	-0,155	-0,076
346,289	-82,061	-0,101	-0,022
347,304	-53,086	-0,117	0,037
348,319	-65,915	-0,169	-0,046
349,333	-176,021	-0,207	0,004
350,348	80,993	-0,131	-0,097
351,362	80,529	-0,174	-0,128
352,377	89,782	-0,089	-0,068
353,392	164,224	-0,063	-0,061
354,406	800,000	-0,084	-0,214
355,421	207,141	1311,652	1400,901
356,435	159,331	1471,987	1401,375
