DTS Sentinel unit serial number:	SN410029Multiplexer serial number:	ORYXHardware model number:	OX2-SRSoftware version number:	ORYX F/W v4,00 Oryx Data Collector v3.7.2.0data status	okinstallation	B3 Nyhavnadifferential loss correction	single-endedforward channel	channel 1reverse channel	N/Adate	2023/11/29time	14:12:30forward acquisition time	300,00reverse acquisition time	0,00gamma	499,1914k internal	0,3211k external	0,3211temperature offset calibration	1,0000default loss term (dB/km)	0,3820temperature slope calibration	1,0000multiplexer offset coefficient	1,0000multiplexer slope coefficient	1,0000fibre end	0,00T internal ref (°C)	10,77T ext. ref 1 (°C)	-3,26T ext. ref 2 (°C)	-3,39length (m)	temperature (°C)	Stokes	anti-Stokes-744,400	137,943	-0,185	-0,175
-743,385	-200,000	-0,034	0,396
-742,371	501,007	-0,038	-0,064
-741,356	-200,000	-0,033	0,292
-740,342	508,040	-0,103	-0,174
-739,327	-200,000	0,004	0,329
-738,312	408,801	-0,130	-0,200
-737,298	-200,000	-0,002	0,256
-736,283	800,000	-0,052	-0,116
-735,269	800,000	0,073	0,184
-734,254	326,761	-0,162	-0,225
-733,239	114,342	-0,220	0,194
-732,225	514,554	-0,085	-0,145
-731,210	-38,258	0,212	0,081
-730,196	490,921	-0,058	-0,097
-729,181	-115,157	-0,162	-0,022
-728,167	-30,964	-0,102	0,041
-727,152	303,927	0,065	-0,087
-726,137	240,183	-0,078	0,094
-725,123	35,747	-0,055	0,035
-724,108	-200,000	0,024	-0,084
-723,094	-177,947	-0,318	-0,005
-722,079	-200,000	-0,018	0,112
-721,064	-80,012	0,127	-0,031
-720,050	188,789	0,044	-0,048
-719,035	-200,000	-0,033	0,115
-718,021	363,454	-0,063	0,092
-717,006	-12,777	-0,096	-0,045
-715,991	-79,668	-0,111	-0,027
-714,977	-200,000	-0,076	-0,245
-713,962	800,000	-0,045	-0,090
-712,948	800,000	-0,048	0,125
-711,933	-27,448	-0,114	0,048
-710,918	800,000	0,034	-0,094
-709,904	333,392	0,042	-0,059
-708,889	-200,000	-0,033	-0,220
-707,875	-13,232	-0,131	-0,061
-706,860	613,219	0,093	-0,168
-705,845	-1,936	0,078	-0,039
-704,831	300,486	-0,072	0,096
-703,816	-200,000	-0,013	0,073
-702,802	800,000	0,031	-0,085
-701,787	193,619	-0,048	-0,053
-700,772	800,000	-0,041	-0,096
-699,758	56,990	-0,051	0,036
-698,743	175,163	-0,060	-0,063
-697,729	-94,648	-0,079	0,015
-696,714	-24,668	0,115	-0,049
-695,699	-200,000	0,000	-0,034
-694,685	398,389	0,020	0,030
-693,670	800,000	0,050	-0,149
-692,656	800,000	0,070	-0,169
-691,641	-63,014	0,083	0,025
-690,627	114,670	-0,013	-0,011
-689,612	-73,471	-0,091	-0,024
-688,597	-60,052	0,023	-0,007
-687,583	-125,655	0,016	0,002
-686,568	800,000	0,038	-0,106
-685,554	91,589	-0,032	0,026
-684,539	-200,000	-0,020	-0,125
-683,524	9,487	-0,015	0,008
-682,510	-134,303	0,026	0,002
-681,495	179,538	-0,051	-0,054
-680,481	2,939	-0,041	-0,022
-679,466	-72,139	-0,054	-0,014
-678,451	478,971	-0,061	-0,100
-677,437	-170,041	-0,128	-0,003
-676,422	-200,000	0,014	0,064
-675,408	800,000	-0,082	0,187
-674,393	-62,366	0,059	0,018
-673,378	293,387	-0,089	-0,118
-672,364	-200,000	-0,001	-0,167
-671,349	256,960	-0,069	-0,086
-670,335	109,145	-0,010	-0,009
-669,320	-200,000	-0,019	-0,067
-668,305	303,008	-0,032	0,044
-667,291	280,052	-0,017	-0,022
-666,276	64,983	-0,074	-0,054
-665,262	-55,798	0,129	0,041
-664,247	-188,776	0,028	0,000
-663,232	-32,891	0,048	-0,019
-662,218	375,149	-0,079	-0,116
-661,203	62,453	0,053	0,038
-660,189	258,560	-0,030	0,038
-659,174	-12,780	-0,004	0,002
-658,159	800,000	-0,044	-0,097
-657,145	-137,930	-0,062	-0,005
-656,130	-79,781	0,080	-0,019
-655,116	-200,000	0,006	0,039
-654,101	-97,717	-0,090	-0,017
-653,086	361,009	-0,017	-0,024
-652,072	82,147	-0,048	-0,037
-651,057	56,276	-0,012	-0,009
-650,043	-200,000	-0,005	-0,025
-649,028	-200,000	0,018	-0,102
-648,014	62,895	0,079	0,057
-646,999	238,490	0,089	0,106
-645,984	-29,576	0,067	0,028
-644,970	-151,592	-0,144	0,008
-643,955	20,314	0,089	-0,052
-642,941	800,000	-0,024	-0,059
-641,926	800,000	-0,123	-0,310
-640,911	800,000	-0,047	-0,138
-639,897	188,738	0,093	0,101
-638,882	-200,000	0,010	0,127
-637,868	-122,501	-0,098	0,011
-636,853	36,030	-0,154	-0,098
-635,838	800,000	-0,007	-0,017
-634,824	-61,135	-0,110	-0,033
-633,809	137,578	-0,062	0,058
-632,795	85,529	0,057	0,045
-631,780	-200,000	-0,015	-0,121
-630,765	800,000	-0,045	-0,137
-629,751	16,108	-0,005	0,003
-628,736	87,625	-0,038	0,031
-627,722	-1,410	-0,086	0,043
-626,707	-121,520	-0,054	0,006
-625,692	707,942	0,056	0,107
-624,678	8,577	0,081	0,044
-623,663	-200,000	0,045	-0,208
-622,649	535,636	-0,123	-0,211
-621,634	800,000	0,019	-0,038
-620,619	-72,044	-0,140	0,037
-619,605	800,000	0,025	0,068
-618,590	115,059	0,057	0,050
-617,576	-104,414	-0,159	0,026
-616,561	98,816	0,106	-0,088
-615,546	-108,738	-0,151	0,023
-614,532	-200,000	-0,011	0,078
-613,517	-51,697	0,029	-0,010
-612,503	-200,000	-0,003	0,039
-611,488	23,293	0,102	-0,060
-610,474	-76,636	-0,053	-0,013
-609,459	-77,342	-0,012	-0,003
-608,444	-152,009	-0,063	0,003
-607,430	738,377	-0,047	-0,091
-606,415	800,000	0,027	-0,066
-605,401	172,827	-0,039	-0,040
-604,386	-200,000	0,024	0,083
-603,371	37,570	-0,048	-0,031
-602,357	-20,911	0,029	-0,013
-601,342	355,598	0,069	-0,099
-600,328	-150,590	-0,052	-0,003
-599,313	-82,494	0,131	-0,030
-598,298	22,347	0,041	-0,024
-597,284	-200,000	0,022	0,100
-596,269	54,208	-0,051	0,035
-595,255	282,156	0,018	-0,023
-594,240	800,000	-0,051	-0,131
-593,225	-200,000	0,015	-0,128
-592,211	800,000	0,036	-0,109
-591,196	205,812	-0,116	0,130
-590,182	800,000	-0,018	0,053
-589,167	376,019	-0,002	0,003
-588,152	-200,000	0,019	0,087
-587,138	-78,250	-0,120	0,030
-586,123	-65,815	-0,072	0,021
-585,109	181,647	0,071	-0,075
-584,094	76,917	0,118	-0,090
-583,079	-54,434	0,089	0,029
-582,065	-200,000	-0,030	0,098
-581,050	-200,000	0,010	0,120
-580,036	-63,958	-0,048	-0,014
-579,021	186,713	0,067	-0,072
-578,006	-200,000	0,001	-0,036
-576,992	-55,129	0,063	0,020
-575,977	-68,570	0,056	-0,016
-574,963	-116,838	0,120	0,016
-573,948	236,435	-0,037	0,044
-572,934	-34,388	-0,113	0,044
-571,919	-199,942	-0,091	-0,000
-570,904	-59,381	0,084	0,026
-569,890	90,059	0,076	-0,061
-568,875	4,739	-0,045	0,024
-567,861	800,000	0,008	0,017
-566,846	-122,700	0,075	-0,009
-565,831	400,433	-0,105	-0,159
-564,817	621,027	0,026	-0,047
-563,802	414,247	-0,036	0,056
-562,788	-60,657	0,007	0,002
-561,773	150,604	0,027	-0,027
-560,758	78,537	-0,048	-0,037
-559,744	-89,807	0,189	0,040
-558,729	-6,434	-0,108	0,053
-557,715	493,182	0,064	-0,106
-556,700	82,825	-0,145	-0,113
-555,685	-200,000	-0,014	0,134
-554,671	800,000	0,030	0,065
-553,656	224,681	-0,067	-0,078
-552,642	800,000	-0,031	-0,074
-551,627	2,217	-0,019	0,010
-550,612	-200,000	-0,026	0,209
-549,598	10,251	-0,162	0,089
-548,583	-10,015	-0,071	0,034
-547,569	55,131	0,015	0,010
-546,554	219,849	0,061	-0,070
-545,539	800,000	0,008	0,017
-544,525	9,138	0,203	0,110
-543,510	94,957	-0,041	-0,034
-542,496	-172,841	-0,060	0,001
-541,481	-200,000	0,003	-0,148
-540,466	-200,000	-0,017	-0,069
-539,452	-200,000	-0,033	0,113
-538,437	52,004	-0,061	-0,042
-537,423	-145,414	0,073	0,005
-536,408	388,612	-0,073	-0,109
-535,393	603,770	-0,021	-0,038
-534,379	800,000	0,063	-0,137
-533,364	244,477	0,086	-0,104
-532,350	-200,000	-0,023	-0,103
-531,335	800,000	0,012	-0,029
-530,321	20,418	-0,119	-0,069
-529,306	-200,000	-0,048	-0,157
-528,291	27,721	-0,025	0,015
-527,277	-150,050	0,082	-0,005
-526,262	-76,155	-0,112	0,028
-525,248	76,616	0,034	-0,026
-524,233	-98,588	0,076	0,014
-523,218	800,000	-0,022	-0,049
-522,204	725,396	-0,044	0,085
-521,189	302,173	-0,059	0,079
-520,175	-200,000	0,024	0,103
-519,160	-200,000	0,003	-0,119
-518,145	116,802	0,036	0,032
-517,131	214,003	0,046	0,052
-516,116	173,631	0,066	-0,069
-515,102	-200,000	0,044	0,178
-514,087	142,905	-0,034	-0,032
-513,072	-200,000	-0,001	-0,078
-512,058	-200,000	-0,001	0,053
-511,043	-200,000	-0,020	0,077
-510,029	-200,000	-0,011	0,081
-509,014	-145,696	0,133	-0,008
-507,999	-200,000	-0,024	0,076
-506,985	-200,000	0,012	0,053
-505,970	800,000	0,035	-0,080
-504,956	406,055	-0,008	-0,012
-503,941	750,095	-0,054	0,106
-502,926	-200,000	-0,006	0,127
-501,912	144,219	-0,090	0,086
-500,897	-200,000	0,029	0,140
-499,883	-200,000	-0,010	0,036
-498,868	-156,315	-0,083	-0,004
-497,853	137,039	0,072	-0,067
-496,839	22,990	-0,046	0,027
-495,824	77,438	0,056	-0,043
-494,810	-200,000	-0,000	-0,068
-493,795	586,189	0,031	-0,055
-492,781	-124,857	-0,072	-0,008
-491,766	371,662	-0,013	-0,019
-490,751	-70,553	-0,062	0,017
-489,737	11,697	0,046	-0,025
-488,722	-54,647	0,022	-0,007
-487,708	99,757	-0,082	0,068
-486,693	259,512	0,030	0,037
-485,678	-200,000	0,026	-0,111
-484,664	160,377	0,153	-0,153
-483,649	47,545	-0,044	0,029
-482,635	-200,000	-0,016	0,070
-481,620	143,023	-0,035	-0,034
-480,605	129,507	0,081	-0,075
-479,591	800,000	-0,028	-0,058
-478,576	-135,769	0,084	0,007
-477,562	340,256	-0,062	-0,088
-476,547	323,623	-0,128	-0,175
-475,532	363,486	0,056	-0,081
-474,518	-200,000	-0,004	0,042
-473,503	-79,385	-0,070	0,017
-472,489	-26,711	0,024	0,010
-471,474	608,918	-0,025	-0,045
-470,459	588,911	0,057	-0,101
-469,445	-78,938	-0,107	-0,026
-468,430	-44,763	-0,201	-0,072
-467,416	-108,277	0,092	0,014
-466,401	-166,448	0,103	-0,003
-465,386	-200,000	-0,003	0,026
-464,372	800,000	-0,023	-0,047
-463,357	-106,913	-0,192	-0,030
-462,343	800,000	-0,036	-0,114
-461,328	800,000	-0,039	0,086
-460,313	800,000	0,016	0,051
-459,299	-200,000	0,006	0,090
-458,284	-200,000	0,020	-0,135
-457,270	1,449	0,186	-0,096
-456,255	-126,545	-0,004	0,000
-455,241	-56,604	-0,052	0,017
-454,226	-81,382	-0,030	0,007
-453,211	-128,904	-0,124	0,012
-452,197	207,033	0,024	-0,027
-451,182	-113,040	0,040	-0,006
-450,168	-200,000	0,002	0,025
-449,153	-115,626	-0,221	-0,029
-448,138	800,000	0,035	-0,078
-447,124	800,000	-0,015	-0,040
-446,109	-200,000	-0,020	-0,153
-445,095	800,000	0,041	0,124
-444,080	-200,000	-0,012	-0,057
-443,065	-45,018	0,054	-0,019
-442,051	-40,604	-0,121	0,045
-441,036	46,407	-0,062	-0,041
-440,022	-54,702	0,110	0,036
-439,007	203,407	-0,055	0,061
-437,992	-200,000	-0,024	0,151
-436,978	800,000	-0,058	0,138
-435,963	-200,000	-0,003	0,072
-434,949	-200,000	-0,003	-0,040
-433,934	605,572	-0,034	-0,062
-432,919	-15,290	-0,127	-0,058
-431,905	-200,000	0,010	-0,072
-430,890	426,354	0,060	-0,092
-429,876	381,033	0,065	0,095
-428,861	485,205	0,056	-0,092
-427,846	780,131	-0,028	0,055
-426,832	667,683	-0,044	-0,082
-425,817	-65,079	-0,154	0,044
-424,803	-35,527	-0,148	-0,057
-423,788	411,358	0,062	0,094
-422,773	-26,210	-0,056	0,023
-421,759	-200,000	0,002	0,089
-420,744	-126,830	0,046	0,005
-419,730	11,170	-0,029	0,016
-418,715	-200,000	0,023	-0,080
-417,701	800,000	0,017	-0,040
-416,686	419,623	0,069	0,107
-415,671	-1,313	0,113	0,057
-414,657	79,400	0,116	0,089
-413,642	-46,947	-0,036	0,013
-412,628	-83,247	-0,036	-0,008
-411,613	-85,359	0,091	-0,020
-410,598	800,000	-0,016	-0,048
-409,584	505,456	0,027	-0,044
-408,569	-30,958	0,112	0,045
-407,555	194,589	0,142	0,154
-406,540	-200,000	-0,007	0,047
-405,525	-200,000	0,015	0,058
-404,511	-99,860	0,133	-0,024
-403,496	-140,490	-0,094	0,007
-402,482	-75,553	0,198	0,050
-401,467	288,558	0,073	0,095
-400,452	800,000	0,056	0,117
-399,438	-200,000	0,008	0,104
-398,423	-51,511	-0,050	0,017
-397,409	800,000	-0,061	-0,142
-396,394	273,262	-0,073	-0,092
-395,379	30,822	0,031	0,019
-394,365	3,957	-0,151	0,078
-393,350	-200,000	0,030	0,112
-392,336	-52,706	-0,015	-0,005
-391,321	-6,176	-0,035	-0,017
-390,306	-27,731	0,071	-0,029
-389,292	467,036	-0,045	0,072
-388,277	800,000	-0,021	0,057
-387,263	-18,942	0,065	0,029
-386,248	-65,701	0,159	0,045
-385,233	-53,186	-0,028	0,009
-384,219	-154,939	-0,139	-0,006
-383,204	-107,008	0,003	0,001
-382,190	800,000	0,059	-0,144
-381,175	800,000	0,077	0,191
-380,160	-67,905	-0,034	-0,009
-379,146	-8,329	0,042	0,020
-378,131	-200,000	0,010	0,054
-377,117	-77,496	0,076	0,019
-376,102	16,520	0,072	-0,040
-375,088	-150,290	0,052	0,003
-374,073	-200,000	-0,012	0,097
-373,058	114,918	0,068	0,059
-372,044	800,000	0,038	0,085
-371,029	91,658	-0,038	-0,031
-370,015	-176,152	0,093	-0,002
-369,000	-47,155	0,111	-0,039
-367,985	-50,536	0,072	0,024
-366,971	446,547	0,027	0,042
-365,956	-200,000	0,042	0,237
-364,942	85,614	0,052	-0,041
-363,927	-107,610	-0,115	0,018
-362,912	366,445	0,126	0,183
-361,898	800,000	0,060	0,186
-360,883	800,000	-0,050	-0,147
-359,869	-6,586	0,151	-0,073
-358,854	-53,994	0,052	-0,017
-357,839	14,233	0,074	0,041
-356,825	-44,179	0,125	0,045
-355,810	540,625	0,078	0,133
-354,796	-84,804	-0,093	0,021
-353,781	306,813	-0,093	-0,125
-352,766	-86,721	-0,105	0,023
-351,752	-200,000	0,044	-0,161
-350,737	185,207	0,088	-0,094
-349,723	800,000	0,034	0,095
-348,708	-94,117	0,146	0,028
-347,693	-81,722	-0,094	-0,022
-346,679	408,404	-0,079	-0,119
-345,664	-200,000	0,018	-0,148
-344,650	-200,000	0,025	-0,139
-343,635	-57,694	0,118	-0,037
-342,620	-122,629	0,053	0,006
-341,606	-121,861	-0,098	-0,011
-340,591	91,030	-0,052	-0,041
-339,577	-109,362	0,086	0,013
-338,562	170,703	-0,048	-0,049
-337,548	-200,000	-0,016	0,169
-336,533	-200,000	0,025	0,133
-335,518	-200,000	-0,013	0,071
-334,504	-200,000	0,021	0,122
-333,489	-200,000	-0,011	-0,054
-332,475	-89,766	0,166	-0,034
-331,460	340,312	-0,106	-0,148
-330,445	-200,000	-0,002	-0,048
-329,431	245,410	-0,025	0,031
-328,416	-25,667	0,085	0,036
-327,402	800,000	0,008	0,019
-326,387	-200,000	-0,018	-0,107
-325,372	-146,517	0,099	0,006
-324,358	-102,284	0,070	-0,012
-323,343	235,238	0,023	0,027
-322,329	111,715	0,091	-0,078
-321,314	800,000	-0,048	-0,109
-320,299	800,000	0,039	0,081
-319,285	357,417	-0,021	-0,030
-318,270	187,225	-0,059	-0,063
-317,256	-116,967	0,169	0,022
-316,241	-85,241	-0,064	-0,014
-315,226	-107,040	0,099	0,015
-314,212	-54,720	-0,086	0,028
-313,197	800,000	0,009	0,023
-312,183	52,913	0,094	-0,064
-311,168	286,130	-0,065	0,083
-310,153	-144,308	-0,058	-0,004
-309,139	-200,000	-0,016	-0,086
-308,124	-166,335	0,044	0,001
-307,110	-66,900	0,090	0,025
-306,095	-200,000	-0,004	-0,164
-305,080	102,200	0,046	0,038
-304,066	295,349	-0,134	-0,175
-303,051	193,531	-0,104	-0,112
-302,037	-7,744	-0,134	0,064
-301,022	70,316	0,071	-0,052
-300,008	-200,000	0,015	-0,142
-298,993	800,000	-0,035	-0,076
-297,978	333,840	0,011	-0,015
-296,964	5,651	-0,085	-0,044
-295,949	201,699	-0,054	-0,059
-294,935	579,962	-0,019	0,034
-293,920	-200,000	0,003	0,025
-292,905	800,000	-0,042	0,088
-291,891	-200,000	0,010	0,073
-290,876	-35,849	-0,053	-0,020
-289,862	-126,620	-0,056	0,006
-288,847	800,000	-0,060	-0,174
-287,832	476,307	-0,060	0,096
-286,818	800,000	0,033	0,066
-285,803	-177,759	-0,033	0,001
-284,789	90,720	-0,044	-0,035
-283,774	116,180	0,086	0,075
-282,759	-132,868	-0,091	0,008
-281,745	-113,613	-0,059	0,008
-280,730	123,827	-0,020	0,018
-279,716	800,000	-0,020	0,049
-278,701	80,148	-0,178	0,136
-277,686	-200,000	0,003	0,096
-276,672	-200,000	-0,019	0,138
-275,657	800,000	-0,016	-0,037
-274,643	20,299	-0,126	0,072
-273,628	211,293	-0,087	-0,098
-272,613	484,848	-0,029	-0,047
-271,599	319,068	0,080	0,108
-270,584	-200,000	-0,000	-0,061
-269,570	18,232	0,018	-0,010
-268,555	530,083	0,042	0,070
-267,540	-200,000	-0,004	-0,024
-266,526	-200,000	-0,023	-0,084
-265,511	-0,311	-0,045	0,023
-264,497	-50,303	0,125	-0,042
-263,482	800,000	-0,012	0,032
-262,467	-61,297	-0,066	-0,020
-261,453	-19,700	-0,033	-0,014
-260,438	-58,512	0,038	0,012
-259,424	43,807	-0,093	-0,060
-258,409	538,267	0,053	-0,090
-257,395	227,313	0,073	-0,084
-256,380	44,794	0,073	0,048
-255,365	800,000	0,031	-0,063
-254,351	-200,000	-0,013	0,083
-253,336	-75,489	-0,131	-0,033
-252,322	147,056	-0,069	0,066
-251,307	-200,000	-0,017	0,071
-250,292	177,359	0,030	-0,031
-249,278	-200,000	-0,016	-0,120
-248,263	272,598	0,058	-0,072
-247,249	-200,000	-0,001	0,151
-246,234	208,914	0,054	0,061
-245,219	800,000	-0,068	0,142
-244,205	45,455	0,052	-0,034
-243,190	800,000	0,064	0,191
-242,176	-80,630	0,052	-0,012
-241,161	-200,000	-0,020	0,153
-240,146	202,713	0,046	-0,051
-239,132	800,000	-0,112	0,280
-238,117	-100,755	0,066	-0,012
-237,103	-200,000	0,037	-0,185
-236,088	-200,000	-0,057	-0,215
-235,073	21,998	0,087	-0,050
-234,059	-200,000	0,075	0,290
-233,044	800,000	0,033	0,072
-232,030	-14,369	0,097	-0,044
-231,015	-200,000	0,003	-0,055
-230,000	-200,000	0,009	-0,111
-228,986	-200,000	-0,009	0,115
-227,971	401,595	0,069	0,104
-226,957	309,057	-0,020	0,026
-225,942	800,000	0,045	-0,093
-224,927	117,579	-0,148	-0,130
-223,913	-200,000	0,013	-0,100
-222,898	591,556	-0,024	0,043
-221,884	366,258	0,046	0,066
-220,869	-200,000	0,002	0,151
-219,855	616,827	0,079	0,142
-218,840	145,520	0,066	0,062
-217,825	392,589	0,032	0,047
-216,811	76,659	0,054	0,041
-215,796	-157,738	-0,041	-0,002
-214,782	724,693	-0,040	-0,075
-213,767	-22,816	0,058	0,025
-212,752	-5,837	-0,041	-0,020
-211,738	-107,698	0,171	0,026
-210,723	-120,106	0,047	-0,006
-209,709	626,403	0,003	0,006
-208,694	-123,308	-0,167	-0,019
-207,679	41,748	0,036	-0,023
-206,665	-182,074	0,133	0,002
-205,650	261,343	0,032	0,039
-204,636	-9,953	-0,103	-0,049
-203,621	-200,000	-0,013	-0,071
-202,606	17,089	0,110	0,062
-201,592	-200,000	-0,010	0,114
-200,577	-92,246	-0,124	-0,025
-199,563	159,486	-0,026	-0,025
-198,548	-124,474	0,089	-0,010
-197,533	21,249	-0,054	-0,031
-196,519	404,621	0,057	0,086
-195,504	-200,000	-0,020	-0,126
-194,490	76,722	-0,049	-0,037
-193,475	-200,000	0,001	0,108
-192,460	800,000	-0,031	0,096
-191,446	800,000	-0,028	-0,076
-190,431	39,281	0,104	0,066
-189,417	-200,000	-0,024	0,109
-188,402	-200,000	0,016	0,060
-187,387	800,000	-0,008	-0,017
-186,373	-200,000	-0,132	-0,000
-185,358	-200,000	-0,002	-0,061
-184,344	696,527	0,096	-0,179
-183,329	-170,567	-0,147	-0,004
-182,315	-137,547	0,074	0,006
-181,300	163,456	0,041	-0,041
-180,285	525,705	-0,044	-0,074
-179,271	-200,000	0,002	-0,067
-178,256	-117,013	-0,058	-0,007
-177,242	-9,016	0,062	0,029
-176,227	800,000	0,022	-0,053
-175,212	-200,000	0,002	0,037
-174,198	13,930	0,022	0,012
-173,183	73,890	-0,081	-0,060
-172,169	800,000	-0,043	0,105
-171,154	92,123	-0,031	0,024
-170,139	7,883	0,064	-0,034
-169,125	20,640	-0,060	-0,034
-168,110	-18,363	0,054	0,024
-167,096	105,129	-0,073	0,061
-166,081	-192,074	-0,066	0,000
-165,066	800,000	-0,009	0,018
-164,052	-200,000	0,025	-0,100
-163,037	-103,576	0,115	-0,019
-162,023	220,954	-0,058	0,067
-161,008	-3,973	-0,105	0,052
-159,993	148,646	0,119	0,114
-158,979	800,000	0,047	0,098
-157,964	271,244	-0,085	-0,107
-156,950	-200,000	-0,013	-0,055
-155,935	800,000	0,066	-0,135
-154,920	570,578	-0,034	0,058
-153,906	-200,000	-0,006	0,068
-152,891	-200,000	-0,003	0,155
-151,877	-35,511	0,105	-0,040
-150,862	-57,405	0,078	-0,024
-149,847	183,003	0,066	-0,069
-148,833	800,000	0,035	0,070
-147,818	84,026	0,062	0,048
-146,804	800,000	0,047	0,109
-145,789	-200,000	-0,008	0,165
-144,775	-76,485	-0,095	0,023
-143,760	800,000	-0,047	-0,126
-142,745	-118,212	-0,067	-0,008
-141,731	-105,253	0,071	-0,011
-140,716	343,153	-0,030	-0,042
-139,702	800,000	0,019	0,039
-138,687	-152,495	-0,038	-0,002
-137,672	-200,000	0,015	-0,064
-136,658	-113,432	-0,031	-0,004
-135,643	-166,811	-0,038	-0,001
-134,629	732,373	-0,043	0,082
-133,614	401,691	0,065	-0,098
-132,599	-200,000	-0,009	0,060
-131,585	691,296	0,041	-0,076
-130,570	-80,691	-0,075	-0,017
-129,556	-200,000	-0,003	-0,123
-128,541	179,576	-0,116	-0,121
-127,526	-41,354	-0,181	0,066
-126,512	-200,000	0,049	0,184
-125,497	-99,453	0,017	0,003
-124,483	-200,000	0,001	-0,073
-123,468	233,731	-0,079	0,092
-122,453	800,000	0,027	-0,060
-121,439	-74,388	-0,059	0,015
-120,424	-200,000	-0,013	-0,045
-119,410	58,389	0,057	-0,040
-118,395	-159,951	-0,134	0,005
-117,380	-200,000	-0,002	0,277
-116,366	-200,000	-0,003	0,022
-115,351	27,941	-0,036	-0,021
-114,337	-200,000	0,004	0,141
-113,322	125,728	-0,070	0,063
-112,307	-144,173	0,123	0,008
-111,293	800,000	-0,053	0,153
-110,278	464,157	0,099	0,157
-109,264	800,000	-0,041	0,093
-108,249	-82,090	-0,133	-0,030
-107,234	-200,000	0,005	-0,108
-106,220	-58,479	0,096	-0,029
-105,205	-129,151	-0,060	0,006
-104,191	33,667	0,011	0,007
-103,176	217,315	0,057	0,064
-102,162	-200,000	-0,005	0,065
-101,147	-28,842	-0,119	0,048
-100,132	169,259	0,025	-0,025
-99,118	-30,702	-0,060	0,024
-98,103	323,684	0,067	-0,091
-97,089	-200,000	0,007	-0,045
-96,074	-41,841	-0,065	0,023
-95,059	134,596	0,054	-0,050
-94,045	-200,000	0,018	-0,150
-93,030	252,378	-0,045	0,054
-92,016	426,956	-0,040	-0,062
-91,001	122,056	0,135	0,119
-89,986	368,438	-0,030	0,043
-88,972	800,000	0,005	0,013
-87,957	-64,166	0,152	-0,043
-86,943	800,000	-0,022	-0,053
-85,928	185,012	0,049	-0,051
-84,913	316,672	-0,027	0,036
-83,899	199,767	-0,055	-0,059
-82,884	-200,000	0,000	0,032
-81,870	-200,000	0,001	0,094
-80,855	-200,000	0,002	0,082
-79,840	-200,000	0,005	0,045
-78,826	36,310	0,043	-0,027
-77,811	-77,108	-0,094	0,023
-76,797	800,000	-0,020	-0,050
-75,782	-119,377	0,191	0,023
-74,767	-200,000	-0,013	0,086
-73,753	-34,323	-0,051	-0,020
-72,738	-1,223	-0,075	-0,037
-71,724	-200,000	0,025	-0,098
-70,709	69,775	-0,042	0,031
-69,694	238,903	-0,027	-0,031
-68,680	153,479	-0,052	-0,050
-67,665	61,215	0,046	-0,032
-66,651	-11,415	0,035	0,016
-65,636	-200,000	-0,035	0,125
-64,622	-131,565	-0,092	-0,008
-63,607	250,148	-0,085	-0,102
-62,592	-101,036	-0,042	-0,007
-61,578	-200,000	-0,035	0,171
-60,563	53,527	-0,156	0,105
-59,549	232,786	-0,082	0,095
-58,534	21,558	-1,907	-1,092
-57,519	452,093	-1,309	-2,049
-56,505	-200,000	-0,411	-4,399
-55,490	391,914	0,895	1,317
-54,476	800,000	5,149	11,428
-53,461	-200,000	20,837	329,116
-52,446	800,000	756,953	2322,555
-51,432	550,741	1661,316	2823,699
-50,417	73,390	1663,277	1227,013
-49,403	18,599	1536,265	864,656
-48,388	12,604	1459,304	792,349
-47,373	18,998	1449,929	817,909
-46,359	15,802	1439,312	796,687
-45,344	10,882	1435,172	770,942
-44,330	10,807	1433,179	769,486
-43,315	10,793	1431,316	768,388
-42,300	10,795	1429,709	767,505
-41,286	10,808	1428,454	766,861
-40,271	10,795	1426,967	765,972
-39,257	10,814	1425,838	765,423
-38,242	10,869	1424,741	765,067
-37,227	10,802	1423,944	764,292
-36,213	10,853	1422,271	763,604
-35,198	10,831	1421,296	762,945
-34,184	10,912	1420,318	762,776
-33,169	10,830	1418,947	761,622
-32,154	10,893	1418,087	761,428
-31,140	10,897	1416,753	760,698
-30,125	10,928	1415,650	760,222
-29,111	10,936	1414,351	759,532
-28,096	10,895	1413,398	758,795
-27,082	10,770	1412,331	757,607
-26,067	10,826	1411,154	757,207
-25,052	10,830	1410,133	756,647
-24,038	10,800	1409,252	756,007
-23,023	10,781	1408,355	755,407
-22,009	10,820	1406,931	754,795
-20,994	10,796	1406,040	754,175
-19,979	10,793	1405,199	753,679
-18,965	10,810	1403,964	753,065
-17,950	10,773	1403,432	752,581
-16,936	10,744	1402,548	751,941
-15,921	10,653	1401,542	750,946
-14,906	10,720	1400,600	750,725
-13,892	10,737	1399,588	750,231
-12,877	10,694	1398,959	749,665
-11,863	10,712	1397,966	749,187
-10,848	10,642	1397,144	748,390
-9,833	10,627	1396,189	747,782
-8,819	10,645	1395,471	747,447
-7,804	10,610	1394,644	746,814
-6,790	10,605	1393,429	746,110
-5,775	10,643	1392,335	745,672
-4,760	10,677	1391,346	745,268
-3,746	10,673	1390,240	744,629
-2,731	10,622	1389,845	744,150
-1,717	10,591	1388,974	743,512
-0,702	10,625	1386,989	742,580
0,313	14,652	1300,772	714,852
1,327	30,960	692,270	417,490
2,342	48,291	120,010	79,065
3,356	-0,445	16,367	8,169
4,371	1,729	3,496	1,770
5,386	-26,147	0,929	0,383
6,400	800,000	0,272	0,592
7,415	65,686	-0,209	-0,149
8,429	153,841	-0,261	-0,253
9,444	-41,197	-0,337	-0,122
10,459	221,027	-0,284	-0,322
11,473	-34,037	-0,361	-0,139
12,488	-91,897	-0,151	0,030
13,502	-38,671	-0,452	-0,167
14,517	-8,788	-0,254	-0,119
15,531	4,041	-0,339	-0,174
16,546	131,472	-0,310	-0,280
17,561	40,387	-0,385	-0,243
18,575	-27,747	-0,302	-0,123
19,590	-7,376	-0,230	-0,109
20,604	80,903	-0,223	-0,169
21,619	37,915	-0,515	-0,321
22,634	-36,276	-0,426	-0,161
23,648	157,692	-0,420	-0,410
24,663	205,907	-0,236	-0,258
25,677	-62,030	-0,495	-0,144
26,692	24,234	-0,350	-0,203
27,707	73,084	-0,370	-0,272
28,721	51,083	-0,550	-0,367
29,736	72,278	-0,367	-0,269
30,750	-25,286	-0,453	-0,188
31,765	432,102	-0,274	-0,419
32,780	5,625	-0,387	-0,201
33,794	-82,556	-0,287	-0,065
34,809	-19,805	-0,320	-0,138
35,823	434,431	-0,219	-0,336
36,838	-20,680	-0,487	-0,209
37,853	205,958	-0,367	-0,402
38,867	30,528	-0,404	-0,243
39,882	-4,859	-0,432	-0,208
40,896	25,423	-0,368	-0,214
41,911	9,252	-0,378	-0,200
42,926	15,895	-0,321	-0,177
43,940	197,865	-0,281	-0,302
44,955	311,876	-0,309	-0,408
45,969	-18,582	-0,432	-0,189
46,984	64,176	-0,406	-0,286
47,999	-27,492	-0,501	-0,203
49,013	307,168	-0,182	-0,239
50,028	1,665	-0,348	-0,176
51,042	-21,802	-0,517	-0,220
52,057	191,004	-0,304	-0,321
53,071	313,160	-0,320	-0,423
54,086	150,691	-0,333	-0,317
55,101	-13,465	-0,414	-0,188
56,115	14,932	-0,287	-0,157
57,130	45,895	-0,406	-0,263
58,144	-12,808	-0,415	-0,189
59,159	85,719	-0,422	-0,325
60,174	11,413	-0,424	-0,227
61,188	-75,166	-0,385	-0,096
62,203	52,551	-0,271	-0,181
63,217	33,957	-0,414	-0,252
64,232	7,587	-0,430	-0,225
65,247	800,000	-0,106	-0,278
66,261	10,033	-0,362	-0,192
67,276	55,861	-0,339	-0,230
68,290	46,721	-0,372	-0,242
69,305	8,350	-0,295	-0,155
70,320	51,799	-0,190	-0,127
71,334	54,817	-0,250	-0,169
72,349	137,747	-0,301	-0,276
73,363	158,268	-0,328	-0,319
74,378	6,723	-0,293	-0,152
75,393	89,788	-0,324	-0,253
76,407	49,435	-0,231	-0,152
77,422	-34,907	-0,194	-0,074
78,436	23,659	-0,298	-0,171
79,451	-15,651	-0,276	-0,123
80,466	40,910	-0,349	-0,220
81,480	-5,562	-0,277	-0,132
82,495	-30,810	-0,364	-0,143
83,509	444,447	-0,103	-0,158
84,524	128,088	-0,218	-0,194
85,539	-37,166	-0,306	-0,114
86,553	-100,273	-0,222	-0,038
87,568	66,395	-0,322	-0,229
88,582	-30,312	-0,339	-0,134
89,597	-30,516	-0,347	-0,137
90,611	542,801	-0,126	-0,212
91,626	-31,474	-0,264	-0,103
92,641	354,542	-0,172	-0,240
93,655	87,196	-0,280	-0,216
94,670	-49,565	-0,376	-0,125
95,684	-28,396	-0,195	-0,078
96,699	10,661	-0,372	-0,198
97,714	-7,287	-0,316	-0,149
98,728	-75,972	-0,130	-0,032
99,743	18,847	-0,262	-0,146
100,757	219,874	-0,271	-0,304
101,772	142,824	-0,364	-0,338
102,787	35,827	-0,326	-0,200
103,801	432,601	-0,222	-0,337
104,816	166,588	-0,254	-0,252
105,830	210,282	-0,169	-0,185
106,845	-128,917	-0,282	-0,027
107,860	299,176	-0,171	-0,221
108,874	46,003	-0,264	-0,171
109,889	-73,061	-0,392	-0,100
110,903	71,024	-0,214	-0,155
111,918	341,470	-0,199	-0,273
112,933	-16,266	-0,194	-0,086
113,947	200,146	-0,151	-0,162
114,962	223,684	-0,300	-0,339
115,976	100,218	-0,145	-0,117
116,991	315,210	-0,283	-0,373
118,006	221,116	-0,175	-0,197
119,020	481,067	-0,160	-0,254
120,035	-3,640	-0,109	-0,052
121,049	-13,970	-0,246	-0,110
122,064	-81,293	-0,244	-0,056
123,079	-32,922	-0,277	-0,107
124,093	217,554	-0,240	-0,267
125,108	207,314	-0,318	-0,346
126,122	70,346	-0,314	-0,226
127,137	3,651	-0,299	-0,152
128,151	237,469	-0,231	-0,268
129,166	346,374	-0,243	-0,334
130,181	172,889	-0,200	-0,201
131,195	186,166	-0,327	-0,339
132,210	-32,105	-0,290	-0,112
133,224	129,745	-0,246	-0,219
134,239	216,113	-0,137	-0,152
135,254	-80,074	-0,166	-0,039
136,268	-141,722	-0,301	-0,021
137,283	81,729	-0,306	-0,231
138,297	141,869	-0,193	-0,178
139,312	-35,903	-0,347	-0,130
140,327	-51,440	-0,340	-0,110
141,341	140,095	-0,171	-0,157
142,356	1,779	-0,279	-0,140
143,370	12,179	-0,224	-0,120
144,385	-31,395	-0,229	-0,089
145,400	35,510	-0,247	-0,151
146,414	14,552	-0,264	-0,143
147,429	-12,532	-0,339	-0,153
148,443	800,000	-0,126	-0,245
149,458	-156,866	-0,215	-0,009
150,473	-153,679	-0,225	-0,011
151,487	73,864	-0,249	-0,182
152,502	175,591	-0,145	-0,146
153,516	31,851	-0,217	-0,130
154,531	61,581	-0,367	-0,254
155,546	-59,015	-0,270	-0,081
156,560	208,231	-0,192	-0,209
157,575	108,072	-0,196	-0,163
158,589	8,895	-0,228	-0,119
159,604	-19,512	-0,254	-0,109
160,619	173,619	-0,263	-0,264
161,633	69,778	-0,274	-0,196
162,648	194,930	-0,339	-0,358
163,662	225,504	-0,162	-0,182
164,677	118,189	-0,058	-0,050
165,692	-80,805	-0,179	-0,041
166,706	144,943	-0,212	-0,197
167,721	-62,805	-0,225	-0,064
168,735	204,560	-0,200	-0,215
169,750	-17,107	-0,139	-0,061
170,764	91,356	-0,168	-0,131
171,779	82,826	-0,122	-0,092
172,794	-133,829	-0,125	-0,011
173,808	217,664	-0,242	-0,268
174,823	152,284	-0,199	-0,189
175,837	-134,287	-0,193	0,016
176,852	221,770	-0,153	-0,171
177,867	800,000	-0,115	-0,229
178,881	234,203	-0,175	-0,201
179,896	92,593	-0,190	-0,149
180,910	15,548	-0,229	-0,124
181,925	64,744	-0,238	-0,166
182,940	71,290	-0,235	-0,169
183,954	156,208	-0,219	-0,209
184,969	94,866	-0,279	-0,220
185,983	202,952	-0,157	-0,169
186,998	-35,681	-0,190	-0,071
188,013	76,507	-0,319	-0,234
189,027	205,763	-0,198	-0,214
190,042	118,080	-0,276	-0,236
191,056	20,410	-0,186	-0,104
192,071	269,577	-0,122	-0,149
193,086	249,688	-0,145	-0,171
194,100	128,947	-0,134	-0,118
195,115	108,393	-0,230	-0,190
196,129	321,304	-0,200	-0,264
197,144	24,290	-0,330	-0,189
198,159	-161,703	-0,105	-0,004
199,173	141,700	-0,168	-0,154
200,188	-66,623	-0,165	-0,045
201,202	13,849	-0,253	-0,136
202,217	84,463	-0,121	-0,091
203,232	119,568	-0,198	-0,170
204,246	9,085	-0,419	-0,218
205,261	112,392	-0,190	-0,159
206,275	-183,082	-0,232	-0,003
207,290	205,641	-0,130	-0,141
208,304	-200,000	-0,039	-0,219
209,319	-14,229	-0,272	-0,121
210,334	100,453	-0,159	-0,128
211,348	120,021	-0,204	-0,175
212,363	57,165	-0,193	-0,130
213,377	-45,592	-0,121	-0,041
214,392	88,342	-0,218	-0,167
215,407	7,815	-0,147	-0,076
216,421	52,712	-0,243	-0,160
217,436	155,221	-0,188	-0,179
218,450	299,274	-0,152	-0,195
219,465	800,000	-0,048	-0,095
220,480	106,093	-0,208	-0,170
221,494	120,070	-0,113	-0,097
222,509	-73,322	-0,167	0,042
223,523	772,052	-0,117	-0,222
224,538	174,675	-0,188	-0,188
225,553	389,829	-0,199	-0,285
226,567	56,282	-0,210	-0,141
227,582	181,196	-0,130	-0,132
228,596	536,530	-0,095	-0,157
229,611	-1,718	-0,079	0,038
230,626	-106,038	-0,198	-0,030
231,640	99,587	-0,290	-0,232
232,655	18,187	-0,077	-0,043
233,669	-11,961	-0,289	-0,131
234,684	175,943	-0,211	-0,212
235,699	-103,092	-0,059	0,010
236,713	-141,326	-0,132	0,009
237,728	194,808	-0,221	-0,232
238,742	30,137	-0,131	-0,077
239,757	32,189	-0,223	-0,133
240,772	20,060	-0,288	-0,160
241,786	54,666	-0,193	-0,128
242,801	294,630	-0,126	-0,160
243,815	-48,815	-0,089	-0,029
244,830	438,528	-0,199	-0,301
245,844	36,240	-0,224	-0,136
246,859	16,483	-0,286	-0,156
247,874	257,989	-0,241	-0,287
248,888	-46,276	-0,103	-0,035
249,903	800,000	-0,084	-0,177
250,917	-51,715	-0,187	-0,060
251,932	800,000	-0,091	-0,192
252,947	263,674	-0,176	-0,212
253,961	8,921	-0,269	-0,140
254,976	-64,016	-0,120	0,034
255,990	-94,145	-0,246	-0,046
257,005	151,643	-0,132	-0,124
258,020	-160,321	-0,107	0,004
259,034	96,518	-0,120	-0,095
260,049	-147,219	-0,217	0,013
261,063	93,267	-0,166	-0,130
262,078	111,143	-0,261	-0,216
263,093	69,761	-0,138	-0,098
264,107	-200,000	-0,043	-0,155
265,122	7,062	-0,175	-0,090
266,136	727,059	-0,032	-0,060
267,151	-195,718	-0,129	-0,001
268,166	12,751	-0,204	-0,108
269,180	79,264	-0,114	-0,084
270,195	800,000	-0,067	-0,145
271,209	-130,974	-0,157	-0,014
272,224	432,682	-0,106	-0,159
273,239	59,347	-0,155	-0,105
274,253	231,646	-0,156	-0,177
275,268	-30,884	-0,221	-0,085
276,282	229,224	-0,232	-0,262
277,297	73,601	-0,175	-0,126
278,312	-106,536	-0,132	-0,020
279,326	-109,990	-0,199	-0,028
280,341	-101,783	-0,169	-0,028
281,355	-200,000	-0,023	-0,123
282,370	46,588	-0,209	-0,133
283,384	-77,948	-0,266	-0,063
284,399	-6,657	-0,209	-0,098
285,414	155,480	-0,211	-0,200
286,428	-66,431	-0,168	0,046
287,443	154,817	-0,062	-0,059
288,457	209,722	-0,088	-0,095
289,472	-111,262	-0,131	0,018
290,487	78,808	-0,209	-0,153
291,501	800,000	-0,083	-0,159
292,516	199,637	-0,152	-0,160
293,530	61,751	-0,114	-0,078
294,545	483,443	-0,116	-0,182
295,560	178,107	-0,128	-0,129
296,574	85,777	-0,169	-0,128
297,589	800,000	-0,105	-0,238
298,603	18,930	-0,276	-0,152
299,618	-92,265	-0,177	-0,034
300,633	111,754	-0,144	-0,119
301,647	286,392	-0,086	-0,106
302,662	-25,449	-0,144	0,058
303,676	-19,573	-0,078	-0,033
304,691	-134,087	-0,183	-0,015
305,706	-48,396	-0,243	-0,080
306,720	309,010	-0,125	-0,160
307,735	-159,758	-0,094	0,003
308,749	-36,090	-0,147	-0,054
309,764	-64,601	-0,235	0,065
310,779	210,089	-0,169	-0,182
311,793	134,109	-0,121	-0,108
312,808	-42,785	-0,176	-0,061
313,822	183,910	-0,108	-0,110
314,837	-103,144	-0,192	0,031
315,852	33,741	-0,199	-0,119
316,866	-71,068	-0,204	0,052
317,881	-14,163	-0,127	-0,056
318,895	800,000	-0,065	-0,178
319,910	204,096	-0,078	-0,083
320,925	145,160	-0,129	-0,118
321,939	800,000	-0,055	-0,165
322,954	792,318	-0,124	-0,234
323,968	800,000	0,053	-0,131
324,983	800,000	-0,050	-0,122
325,997	435,821	-0,082	-0,123
327,012	-68,931	-0,176	-0,046
328,027	-6,847	-0,161	-0,075
329,041	212,439	-0,149	-0,161
330,056	-133,542	-0,138	0,012
331,070	-200,000	0,005	-0,161
332,085	399,061	-0,102	-0,146
333,100	-11,709	-0,158	-0,071
334,114	-10,475	-0,052	0,024
335,129	5,673	-0,074	-0,038
336,143	285,923	-0,119	-0,147
337,158	11,492	-0,171	-0,090
338,173	-24,151	-0,159	-0,065
339,187	-58,375	-0,104	-0,031
340,202	29,850	-0,068	0,040
341,216	131,123	-0,164	-0,144
342,231	-150,799	-0,264	-0,013
343,246	-43,591	-0,249	-0,085
344,260	131,014	-0,096	-0,084
345,275	-146,473	-0,083	0,005
346,289	144,657	-0,034	0,031
347,304	-131,410	-0,212	-0,019
348,319	-25,391	-0,217	-0,087
349,333	99,513	-0,122	-0,096
350,348	33,605	-0,216	-0,128
351,362	59,782	-0,063	-0,043
352,377	-14,663	-0,179	-0,078
353,392	-76,873	-0,144	-0,034
354,406	800,000	-0,007	0,020
355,421	210,212	1306,077	1403,407
356,435	161,828	1465,711	1403,894
