DTS Sentinel unit serial number:	SN410029Multiplexer serial number:	ORYXHardware model number:	OX2-SRSoftware version number:	ORYX F/W v4,00 Oryx Data Collector v3.7.2.0data status	okinstallation	B3 Nyhavnadifferential loss correction	single-endedforward channel	channel 1reverse channel	N/Adate	2023/12/04time	16:27:30forward acquisition time	300,00reverse acquisition time	0,00gamma	499,1914k internal	0,3200k external	0,3200temperature offset calibration	1,0000default loss term (dB/km)	0,3820temperature slope calibration	1,0000multiplexer offset coefficient	1,0000multiplexer slope coefficient	1,0000fibre end	0,00T internal ref (°C)	15,20T ext. ref 1 (°C)	0,26T ext. ref 2 (°C)	0,26length (m)	temperature (°C)	Stokes	anti-Stokes-744,400	146,171	-0,175	-0,171
-743,385	-200,000	0,069	0,338
-742,371	-200,000	-0,051	-0,248
-741,356	-200,000	0,012	0,264
-740,342	58,431	-0,201	-0,143
-739,327	800,000	0,171	0,373
-738,312	260,674	-0,190	-0,240
-737,298	-200,000	0,033	0,245
-736,283	179,446	-0,188	-0,200
-735,269	-200,000	0,056	0,328
-734,254	286,282	-0,220	-0,289
-733,239	20,477	-0,339	0,199
-732,225	357,794	-0,109	-0,158
-731,210	299,773	0,095	0,127
-730,196	11,230	0,179	0,099
-729,181	-200,000	-0,018	-0,124
-728,167	183,890	0,026	-0,028
-727,152	-200,000	0,002	0,058
-726,137	-200,000	0,050	-0,190
-725,123	-89,743	-0,093	0,020
-724,108	-165,665	-0,083	0,003
-723,094	-200,000	-0,008	0,065
-722,079	756,350	-0,087	-0,172
-721,064	176,008	-0,044	0,047
-720,050	71,824	0,085	0,064
-719,035	143,895	0,043	-0,041
-718,021	2,706	-0,076	-0,040
-717,006	800,000	-0,045	-0,095
-715,991	-200,000	-0,033	-0,142
-714,977	730,950	-0,062	-0,121
-713,962	-5,035	-0,040	0,020
-712,948	-75,931	-0,060	-0,015
-711,933	-200,000	0,016	-0,172
-710,918	566,638	-0,038	-0,068
-709,904	233,969	-0,104	-0,125
-708,889	-200,000	-0,003	-0,073
-707,875	144,807	-0,043	-0,042
-706,860	-148,743	0,047	0,003
-705,845	-200,000	-0,011	0,080
-704,831	-200,000	-0,003	-0,068
-703,816	-60,001	0,046	0,014
-702,802	23,727	-0,082	-0,049
-701,787	307,819	0,012	-0,016
-700,772	-147,687	0,098	0,006
-699,758	-200,000	0,006	0,086
-698,743	168,545	0,083	0,086
-697,729	-200,000	0,045	0,161
-696,714	-200,000	0,020	-0,065
-695,699	-34,783	0,092	-0,037
-694,685	-150,369	-0,035	-0,002
-693,670	231,787	-0,088	0,106
-692,656	-200,000	0,000	0,038
-691,641	-200,000	0,064	0,000
-690,627	-100,061	-0,049	-0,009
-689,612	134,388	0,056	-0,053
-688,597	-44,932	-0,086	-0,031
-687,583	-200,000	-0,009	-0,125
-686,568	-153,264	-0,088	-0,004
-685,554	800,000	-0,078	-0,177
-684,539	-116,160	-0,050	0,007
-683,524	193,770	-0,043	0,048
-682,510	403,308	-0,033	0,051
-681,495	393,408	-0,041	-0,061
-680,481	-26,793	-0,197	-0,083
-679,466	-200,000	-0,014	0,120
-678,451	191,878	-0,008	0,009
-677,437	-200,000	-0,023	0,094
-676,422	614,506	0,029	0,052
-675,408	40,746	-0,024	0,015
-674,393	111,327	-0,107	-0,094
-673,378	368,616	-0,068	-0,100
-672,364	-200,000	-0,011	0,058
-671,349	42,590	-0,027	-0,018
-670,335	-57,211	-0,062	0,020
-669,320	-98,192	0,115	-0,021
-668,305	800,000	-0,021	0,043
-667,291	-200,000	0,011	-0,061
-666,276	-89,644	-0,055	-0,012
-665,262	489,203	0,082	-0,137
-664,247	30,490	-0,030	-0,019
-663,232	-131,349	0,088	0,008
-662,218	-200,000	-0,003	0,140
-661,203	800,000	0,035	0,091
-660,189	434,993	-0,065	0,104
-659,174	-93,668	-0,074	-0,015
-658,159	-21,722	-0,040	0,018
-657,145	-21,890	-0,079	0,035
-656,130	-200,000	0,003	-0,047
-655,116	800,000	-0,031	0,092
-654,101	282,784	-0,053	-0,069
-653,086	196,782	-0,095	-0,105
-652,072	-200,000	0,001	0,064
-651,057	-11,895	0,047	-0,022
-650,043	117,628	-0,098	-0,087
-649,028	147,609	0,010	-0,010
-648,014	169,040	-0,023	-0,024
-646,999	800,000	0,012	0,035
-645,984	-200,000	-0,006	0,088
-644,970	541,896	0,026	-0,045
-643,955	-74,502	-0,165	-0,043
-642,941	-200,000	0,006	-0,128
-641,926	-1,122	-0,097	0,050
-640,911	-200,000	0,018	0,091
-639,897	-38,937	0,079	0,030
-638,882	-18,906	0,050	-0,022
-637,868	800,000	-0,043	-0,097
-636,853	-200,000	-0,003	0,045
-635,838	-200,000	0,031	-0,116
-634,824	426,783	0,081	-0,127
-633,809	-42,097	0,080	0,030
-632,795	-200,000	-0,030	-0,100
-631,780	-64,067	-0,048	0,014
-630,765	793,103	-0,083	-0,165
-629,751	-9,160	0,063	-0,030
-628,736	-35,778	-0,096	0,037
-627,722	-12,552	0,110	0,052
-626,707	-67,927	0,191	0,054
-625,692	603,451	-0,097	0,175
-624,678	76,068	-0,101	0,077
-623,663	258,001	0,057	-0,071
-622,649	259,782	-0,062	0,078
-621,634	-200,000	-0,034	-0,114
-620,619	-163,925	-0,099	-0,003
-619,605	34,754	0,043	0,027
-618,590	-200,000	0,005	0,155
-617,576	673,711	0,080	0,152
-616,561	90,768	0,114	-0,093
-615,546	800,000	-0,034	-0,100
-614,532	-200,000	-0,001	0,028
-613,517	800,000	0,050	-0,105
-612,503	6,974	0,091	0,049
-611,488	23,129	0,135	-0,080
-610,474	800,000	0,029	0,068
-609,459	-200,000	-0,005	0,087
-608,444	-200,000	0,000	-0,021
-607,430	502,814	0,053	-0,089
-606,415	800,000	-0,034	-0,084
-605,401	77,810	0,070	-0,054
-604,386	45,443	-0,040	0,027
-603,371	111,104	0,081	-0,070
-602,357	301,145	0,098	0,132
-601,342	18,378	-0,084	-0,049
-600,328	-80,969	-0,054	0,013
-599,313	-97,690	-0,068	-0,013
-598,298	718,475	-0,036	-0,069
-597,284	-83,268	0,065	0,015
-596,269	-200,000	0,022	0,094
-595,255	89,679	-0,067	0,054
-594,240	2,760	-0,084	-0,044
-593,225	800,000	-0,044	-0,095
-592,211	29,046	-0,098	-0,060
-591,196	31,836	0,063	-0,039
-590,182	-122,344	-0,113	0,013
-589,167	-75,990	-0,055	-0,014
-588,152	110,109	-0,044	-0,038
-587,138	119,813	-0,074	0,066
-586,123	-142,650	-0,020	0,001
-585,109	-200,000	-0,000	-0,087
-584,094	-200,000	0,009	-0,125
-583,079	150,770	0,058	-0,057
-582,065	420,288	-0,089	0,138
-581,050	172,890	-0,034	-0,036
-580,036	-200,000	-0,203	-0,000
-579,021	128,843	-0,014	-0,013
-578,006	415,805	0,026	-0,040
-576,992	800,000	-0,033	-0,090
-575,977	-4,780	0,184	-0,091
-574,963	-200,000	-0,005	-0,025
-573,948	800,000	0,039	-0,078
-572,934	-48,395	-0,110	0,038
-571,919	186,624	0,086	-0,093
-570,904	800,000	-0,101	-0,205
-569,890	28,080	0,100	-0,061
-568,875	-200,000	0,001	-0,044
-567,861	-177,693	0,172	-0,003
-566,846	412,682	-0,099	0,153
-565,831	-84,458	-0,071	0,016
-564,817	-57,520	-0,033	0,010
-563,802	-120,036	-0,110	-0,013
-562,788	101,460	-0,095	0,080
-561,773	800,000	0,028	-0,058
-560,758	152,915	0,055	-0,055
-559,744	-52,562	0,113	-0,037
-558,729	-200,000	0,022	0,116
-557,715	330,285	0,026	-0,036
-556,700	-88,881	-0,190	0,040
-555,685	-183,579	0,064	-0,001
-554,671	-200,000	0,024	-0,132
-553,656	800,000	0,013	0,034
-552,642	15,744	0,058	-0,033
-551,627	-200,000	0,035	0,134
-550,612	198,610	-0,093	-0,103
-549,598	-200,000	0,002	-0,057
-548,583	98,383	0,051	0,042
-547,569	-200,000	-0,004	0,031
-546,554	-200,000	0,007	0,037
-545,539	48,509	0,020	-0,014
-544,525	-200,000	-0,001	-0,058
-543,510	-200,000	-0,003	-0,029
-542,496	723,949	-0,028	-0,054
-541,481	129,515	-0,091	-0,084
-540,466	-59,936	-0,092	0,028
-539,452	-200,000	0,008	-0,102
-538,437	-200,000	-0,006	-0,051
-537,423	-119,907	-0,068	-0,008
-536,408	-60,139	-0,078	0,024
-535,393	-93,703	0,019	-0,004
-534,379	102,827	0,072	-0,060
-533,364	57,908	0,075	0,053
-532,350	-2,377	0,086	0,044
-531,335	665,768	0,058	0,109
-530,321	163,782	-0,013	0,013
-529,306	-105,731	0,081	-0,013
-528,291	-106,640	-0,094	-0,015
-527,277	-100,147	-0,184	0,033
-526,262	730,674	0,022	-0,042
-525,248	-200,000	-0,027	-0,094
-524,233	201,246	0,072	0,080
-523,218	-93,136	-0,032	-0,006
-522,204	116,010	0,099	-0,087
-521,189	79,280	-0,113	-0,087
-520,175	-56,551	-0,108	0,034
-519,160	96,006	-0,052	-0,043
-518,145	334,258	0,025	0,035
-517,131	-132,585	0,052	0,005
-516,116	800,000	-0,051	-0,117
-515,102	726,965	0,014	-0,027
-514,087	-200,000	-0,011	-0,140
-513,072	-41,827	-0,067	0,025
-512,058	-200,000	0,028	-0,124
-511,043	-200,000	-0,003	0,033
-510,029	125,295	-0,031	0,028
-509,014	800,000	-0,020	-0,050
-507,999	225,439	0,027	-0,032
-506,985	-91,045	0,044	-0,009
-505,970	-31,959	-0,058	0,023
-504,956	8,930	-0,112	-0,061
-503,941	230,710	0,080	-0,094
-502,926	800,000	0,023	0,065
-501,912	-99,823	-0,080	0,014
-500,897	395,770	0,063	-0,096
-499,883	-102,666	-0,053	-0,009
-498,868	-119,919	-0,167	-0,020
-497,853	415,750	-0,019	-0,030
-496,839	-16,488	0,034	-0,015
-495,824	-55,087	0,129	0,042
-494,810	800,000	0,090	0,226
-493,795	-200,000	0,004	-0,024
-492,781	332,905	-0,055	0,076
-491,766	-123,166	0,054	0,006
-490,751	759,007	-0,053	-0,103
-489,737	-152,279	0,050	-0,003
-488,722	-41,105	0,176	0,065
-487,708	35,173	-0,042	0,026
-486,693	408,073	0,088	0,135
-485,678	-6,063	-0,102	-0,050
-484,664	23,183	-0,118	-0,070
-483,649	65,294	0,057	-0,041
-482,635	-200,000	0,000	0,034
-481,620	98,112	0,116	0,096
-480,605	178,402	0,081	0,085
-479,591	739,114	-0,034	0,066
-478,576	615,095	0,056	0,102
-477,562	126,886	-0,101	-0,092
-476,547	50,526	-0,052	-0,036
-475,532	-200,000	-0,002	0,024
-474,518	71,435	-0,070	0,052
-473,503	-126,763	0,029	0,003
-472,489	59,394	0,062	0,044
-471,474	-200,000	-0,010	0,084
-470,459	146,582	0,045	0,044
-469,445	-67,442	0,108	-0,030
-468,430	-42,222	-0,034	-0,013
-467,416	-34,705	-0,033	-0,013
-466,401	128,359	0,089	0,081
-465,386	-200,000	0,040	0,175
-464,372	-200,000	-0,008	0,070
-463,357	-200,000	0,018	-0,065
-462,343	800,000	0,010	0,022
-461,328	192,321	0,061	0,067
-460,313	-79,525	0,087	-0,021
-459,299	-89,600	-0,076	0,016
-458,284	102,609	0,063	-0,053
-457,270	-200,000	0,006	0,194
-456,255	-200,000	0,003	-0,090
-455,241	800,000	-0,039	-0,081
-454,226	-58,857	-0,167	-0,052
-453,211	102,429	-0,146	0,123
-452,197	-200,000	0,005	0,225
-451,182	28,191	0,093	-0,056
-450,168	-168,979	0,151	0,004
-449,153	-200,000	-0,002	0,020
-448,138	-179,117	-0,056	-0,001
-447,124	-89,927	0,055	-0,012
-446,109	-19,693	-0,087	0,039
-445,095	270,918	0,063	0,080
-444,080	187,658	0,100	0,108
-443,065	-91,183	0,085	-0,017
-442,051	22,314	0,045	-0,026
-441,036	323,975	-0,085	-0,118
-440,022	800,000	-0,060	0,122
-439,007	-200,000	0,034	-0,124
-437,992	-200,000	-0,025	0,101
-436,978	-200,000	0,021	-0,080
-435,963	-200,000	0,019	-0,114
-434,949	496,810	-0,034	0,056
-433,934	0,680	0,065	0,033
-432,919	-138,344	-0,036	0,003
-431,905	-31,978	0,092	0,037
-430,890	100,514	0,162	-0,135
-429,876	-161,436	0,107	-0,004
-428,861	-69,452	0,120	0,033
-427,846	161,410	0,080	0,080
-426,832	24,729	-0,108	-0,064
-425,817	-76,721	0,058	0,015
-424,803	113,015	-0,102	-0,089
-423,788	-200,000	0,017	0,117
-422,773	239,920	0,060	-0,072
-421,759	-66,898	0,101	-0,028
-420,744	800,000	-0,050	0,118
-419,730	-177,956	-0,082	0,001
-418,715	-200,000	-0,012	-0,124
-417,701	40,843	0,039	0,025
-416,686	-60,446	0,118	-0,036
-415,671	-9,694	0,093	0,044
-414,657	-200,000	0,006	0,084
-413,642	108,981	-0,045	0,039
-412,628	-57,936	-0,158	0,049
-411,613	104,141	-0,022	0,019
-410,598	-3,893	0,083	-0,041
-409,584	-40,080	0,167	-0,062
-408,569	200,110	-0,042	0,047
-407,555	-200,000	-0,006	0,230
-406,540	159,051	0,050	0,050
-405,525	-200,000	-0,018	-0,094
-404,511	800,000	-0,057	-0,135
-403,496	711,966	-0,063	-0,121
-402,482	-16,228	-0,020	0,009
-401,467	-110,780	0,136	0,020
-400,452	1,609	-0,040	-0,021
-399,438	303,645	0,052	0,069
-398,423	647,396	0,044	0,081
-397,409	800,000	0,015	-0,030
-396,394	5,206	-0,127	0,067
-395,379	17,515	0,161	-0,091
-394,365	-200,000	-0,004	0,022
-393,350	-75,862	0,066	0,017
-392,336	565,126	-0,049	0,086
-391,321	133,288	-0,068	-0,063
-390,306	800,000	-0,055	-0,166
-389,292	800,000	-0,034	-0,098
-388,277	-200,000	0,044	-0,141
-387,263	-49,843	-0,027	-0,009
-386,248	489,896	0,050	-0,082
-385,233	41,816	0,058	-0,038
-384,219	21,114	0,012	0,007
-383,204	-43,797	-0,057	-0,020
-382,190	800,000	0,030	-0,085
-381,175	-44,549	-0,143	0,051
-380,160	549,056	0,091	0,156
-379,146	285,710	-0,035	-0,045
-378,131	-137,431	0,016	0,001
-377,117	-94,257	-0,095	0,019
-376,102	-27,020	0,045	0,019
-375,088	-108,282	-0,127	0,019
-374,073	173,936	-0,088	0,091
-373,058	71,224	0,066	0,049
-372,044	800,000	-0,021	-0,056
-371,029	440,691	-0,006	-0,010
-370,015	-200,000	-0,018	-0,070
-369,000	-200,000	0,018	0,161
-367,985	80,287	-0,054	-0,042
-366,971	-200,000	-0,026	0,090
-365,956	356,778	0,076	-0,108
-364,942	-200,000	0,002	0,073
-363,927	50,474	0,052	-0,035
-362,912	106,570	0,043	0,036
-361,898	-200,000	-0,008	-0,076
-360,883	-200,000	0,015	-0,113
-359,869	170,807	0,060	0,061
-358,854	-200,000	-0,004	-0,021
-357,839	327,349	-0,009	0,013
-356,825	742,854	0,027	0,052
-355,810	137,193	0,097	0,091
-354,796	277,357	0,038	0,049
-353,781	-200,000	0,011	-0,092
-352,766	781,354	0,024	-0,048
-351,752	748,110	0,042	0,082
-350,737	-200,000	-0,002	-0,022
-349,723	291,680	0,101	0,132
-348,708	765,680	-0,048	0,094
-347,693	217,302	-0,034	-0,038
-346,679	-200,000	-0,012	-0,059
-345,664	-92,592	-0,067	-0,013
-344,650	537,085	0,062	-0,105
-343,635	459,441	0,076	-0,122
-342,620	-200,000	-0,007	0,035
-341,606	77,206	0,153	-0,117
-340,591	-200,000	0,018	-0,140
-339,577	205,009	-0,061	-0,067
-338,562	-4,844	-0,028	-0,014
-337,548	800,000	0,058	0,117
-336,533	0,009	-0,095	-0,048
-335,518	-105,165	-0,010	-0,002
-334,504	-200,000	-0,011	0,035
-333,489	-200,000	0,016	0,200
-332,475	-200,000	-0,011	-0,083
-331,460	800,000	-0,028	0,059
-330,445	-18,493	-0,098	0,044
-329,431	-144,174	0,004	0,000
-328,416	-200,000	0,003	0,031
-327,402	800,000	-0,046	0,125
-326,387	190,520	0,123	0,132
-325,372	-104,406	-0,093	-0,015
-324,358	-3,564	-0,057	-0,028
-323,343	107,529	-0,079	0,068
-322,329	467,993	0,027	-0,043
-321,314	101,541	0,139	0,116
-320,299	553,848	0,018	-0,031
-319,285	800,000	-0,023	0,058
-318,270	120,498	-0,047	0,042
-317,256	299,571	-0,031	0,041
-316,241	261,833	0,110	-0,137
-315,226	230,624	0,083	0,097
-314,212	38,696	0,113	-0,072
-313,197	-200,000	-0,017	0,108
-312,183	-155,211	-0,084	0,004
-311,168	286,442	0,058	-0,075
-310,153	24,697	-0,086	-0,051
-309,139	-200,000	-0,018	-0,080
-308,124	-200,000	0,014	-0,080
-307,110	-200,000	-0,030	0,228
-306,095	125,608	0,051	-0,046
-305,080	67,880	-0,111	0,081
-304,066	800,000	-0,059	-0,142
-303,051	800,000	-0,022	-0,054
-302,037	-200,000	-0,054	-0,174
-301,022	-44,234	-0,146	0,052
-300,008	550,710	0,079	0,136
-298,993	-74,868	0,112	0,028
-297,978	-200,000	-0,004	0,023
-296,964	-200,000	0,009	0,133
-295,949	421,037	-0,131	0,201
-294,935	800,000	-0,051	-0,104
-293,920	-200,000	0,018	0,065
-292,905	-70,201	0,045	0,012
-291,891	-152,144	0,102	-0,005
-290,876	-200,000	-0,015	-0,123
-289,862	339,410	-0,096	-0,134
-288,847	-66,757	0,101	0,028
-287,832	-192,453	-0,053	-0,000
-286,818	-66,194	0,112	0,032
-285,803	17,080	-0,099	0,056
-284,789	800,000	0,008	0,024
-283,774	-62,160	-0,095	0,028
-282,759	319,210	-0,090	-0,122
-281,745	121,945	-0,034	0,030
-280,730	800,000	-0,022	0,069
-279,716	-17,909	-0,110	-0,049
-278,701	93,799	0,084	0,068
-277,686	348,689	0,087	0,123
-276,672	800,000	0,038	0,117
-275,657	-200,000	0,017	0,059
-274,643	800,000	0,067	-0,166
-273,628	-171,207	0,088	-0,002
-272,613	-29,212	-0,086	0,035
-271,599	-200,000	-0,010	0,055
-270,584	518,837	0,032	0,053
-269,570	-200,000	0,013	0,181
-268,555	156,769	-0,017	0,017
-267,540	-187,366	-0,164	-0,002
-266,526	-67,667	-0,097	-0,027
-265,511	351,355	0,046	0,065
-264,497	82,491	0,101	-0,078
-263,482	-200,000	0,025	0,152
-262,467	-156,003	-0,071	0,003
-261,453	120,148	-0,007	0,007
-260,438	110,696	0,050	-0,043
-259,424	296,003	0,064	0,084
-258,409	-200,000	-0,000	-0,045
-257,395	412,945	-0,013	-0,020
-256,380	55,652	-0,039	0,027
-255,365	-200,000	-0,029	0,137
-254,351	-200,000	0,006	0,060
-253,336	-10,229	0,052	-0,025
-252,322	93,826	0,095	-0,077
-251,307	8,565	-0,163	-0,087
-250,292	467,614	-0,053	0,086
-249,278	-66,379	0,119	0,034
-248,263	-149,744	-0,034	0,002
-247,249	51,873	-0,088	0,059
-246,234	83,200	-0,139	0,108
-245,219	171,667	-0,019	-0,020
-244,205	-64,330	0,049	-0,014
-243,190	113,659	0,088	-0,076
-242,176	213,720	-0,027	0,030
-241,161	425,743	-0,063	0,097
-240,146	-200,000	0,017	0,070
-239,132	-54,414	-0,064	0,021
-238,117	162,971	-0,022	-0,022
-237,103	415,703	0,061	-0,093
-236,088	-127,528	-0,093	0,010
-235,073	-41,978	0,131	-0,048
-234,059	-200,000	-0,048	0,199
-233,044	124,263	-0,063	-0,057
-232,030	-114,738	-0,055	0,007
-231,015	-118,284	-0,166	0,021
-230,000	466,436	-0,068	-0,109
-228,986	-200,000	0,020	-0,177
-227,971	-0,239	-0,171	-0,086
-226,957	225,588	0,088	0,102
-225,942	-66,859	0,129	-0,036
-224,927	-200,000	-0,017	0,108
-223,913	-69,592	0,101	-0,027
-222,898	-200,000	-0,008	-0,091
-221,884	-125,165	-0,165	-0,018
-220,869	-200,000	-0,002	-0,116
-219,855	-157,526	0,039	0,002
-218,840	37,818	-0,105	-0,066
-217,825	-200,000	-0,006	0,044
-216,811	101,979	-0,085	-0,071
-215,796	481,142	-0,053	-0,086
-214,782	-188,060	-0,051	-0,000
-213,767	571,917	-0,006	-0,011
-212,752	-200,000	0,030	0,101
-211,738	-88,008	0,092	-0,020
-210,723	-107,722	-0,071	-0,011
-209,709	655,497	-0,068	-0,124
-208,694	-69,665	-0,095	-0,026
-207,679	800,000	-0,052	0,126
-206,665	-69,504	-0,051	-0,014
-205,650	183,812	0,072	0,075
-204,636	-200,000	0,008	0,161
-203,621	151,336	-0,047	0,046
-202,606	131,053	0,008	0,008
-201,592	-102,956	0,110	0,018
-200,577	80,398	-0,078	-0,060
-199,563	398,471	-0,014	-0,021
-198,548	152,200	-0,151	-0,147
-197,533	-6,123	-0,074	0,036
-196,519	78,333	0,142	0,108
-195,504	-200,000	-0,045	0,154
-194,490	-127,632	-0,100	-0,010
-193,475	40,031	0,188	-0,120
-192,460	-136,044	0,040	-0,003
-191,446	176,935	0,086	0,089
-190,431	31,716	0,034	-0,021
-189,417	-95,402	-0,141	0,027
-188,402	-200,000	0,046	-0,192
-187,387	-200,000	0,033	-0,134
-186,373	-200,000	0,015	-0,082
-185,358	663,725	0,030	-0,056
-184,344	800,000	-0,021	-0,061
-183,329	-26,158	0,105	-0,044
-182,315	89,443	-0,036	-0,029
-181,300	-131,728	-0,133	0,012
-180,285	173,134	0,060	-0,061
-179,271	298,017	-0,056	0,073
-178,256	335,899	0,032	0,044
-177,242	-147,870	0,115	0,007
-176,227	-200,000	0,014	-0,102
-175,212	-200,000	-0,024	0,138
-174,198	46,080	-0,100	0,066
-173,183	800,000	0,039	0,099
-172,169	800,000	0,026	-0,060
-171,154	419,266	-0,068	0,104
-170,139	74,691	0,042	-0,031
-169,125	-200,000	-0,008	0,037
-168,110	100,199	0,077	0,063
-167,096	199,154	-0,095	-0,104
-166,081	-200,000	0,014	-0,125
-165,066	21,935	-0,123	0,071
-164,052	-200,000	0,055	0,000
-163,037	146,584	0,034	-0,033
-162,023	115,366	0,082	0,071
-161,008	-89,174	0,134	-0,028
-159,993	44,327	-0,042	-0,028
-158,979	104,714	0,078	0,066
-157,964	-25,830	-0,007	0,003
-156,950	337,153	0,087	0,121
-155,935	-200,000	-0,009	-0,091
-154,920	-35,807	0,068	-0,026
-153,906	39,360	0,047	-0,030
-152,891	-133,044	0,140	-0,013
-151,877	-24,415	0,075	0,032
-150,862	-41,511	-0,171	0,062
-149,847	-200,000	0,015	0,101
-148,833	-97,629	0,061	-0,011
-147,818	38,631	0,043	0,027
-146,804	-15,345	-0,009	-0,004
-145,789	-133,106	0,056	0,005
-144,775	800,000	-0,053	-0,165
-143,760	800,000	-0,089	-0,202
-142,745	-80,923	-0,029	-0,007
-141,731	-200,000	-0,005	-0,033
-140,716	-200,000	0,014	0,172
-139,702	174,117	-0,040	0,041
-138,687	407,669	-0,021	0,031
-137,672	-20,338	0,110	-0,048
-136,658	-200,000	0,004	0,063
-135,643	459,633	0,099	0,157
-134,629	152,566	0,077	0,074
-133,614	301,882	-0,090	-0,118
-132,599	-143,462	0,101	-0,007
-131,585	65,170	0,040	0,029
-130,570	370,939	-0,025	0,036
-129,556	800,000	-0,051	-0,159
-128,541	-200,000	0,000	-0,063
-127,526	-200,000	0,006	-0,070
-126,512	189,371	-0,076	0,081
-125,497	34,394	0,073	0,045
-124,483	-138,699	0,079	-0,006
-123,468	23,599	0,075	-0,044
-122,453	-85,452	0,092	0,020
-121,439	-108,372	-0,149	0,023
-120,424	-50,431	0,088	0,029
-119,410	203,459	-0,094	0,104
-118,395	-200,000	-0,003	-0,040
-117,380	-74,298	0,033	0,009
-116,366	-150,336	-0,122	-0,007
-115,351	252,482	-0,047	0,057
-114,337	-169,366	-0,124	0,003
-113,322	-6,351	-0,149	-0,072
-112,307	-200,000	0,001	-0,093
-111,293	-43,962	-0,063	-0,022
-110,278	800,000	-0,030	0,075
-109,264	98,343	-0,113	-0,093
-108,249	-38,618	0,135	0,050
-107,234	800,000	0,029	-0,061
-106,220	589,226	0,038	-0,066
-105,205	16,954	-0,073	-0,041
-104,191	-200,000	0,013	0,069
-103,176	-74,513	0,116	-0,030
-102,162	-200,000	0,004	-0,038
-101,147	800,000	-0,056	0,116
-100,132	-145,193	-0,157	0,010
-99,118	-6,592	-0,053	-0,026
-98,103	-199,809	0,194	0,001
-97,089	-112,753	0,088	-0,012
-96,074	407,004	0,003	0,004
-95,059	-200,000	-0,007	-0,066
-94,045	-60,741	0,099	-0,030
-93,030	-143,880	0,038	-0,003
-92,016	-32,627	0,122	0,048
-91,001	-125,076	-0,086	0,009
-89,986	800,000	0,002	0,005
-88,972	-0,196	0,135	0,068
-87,957	634,416	0,025	0,045
-86,943	-113,862	-0,140	0,019
-85,928	-200,000	0,042	-0,155
-84,913	29,173	-0,049	-0,030
-83,899	-125,941	-0,066	0,007
-82,884	-200,000	0,012	0,039
-81,870	260,601	0,031	0,039
-80,855	117,731	0,046	0,040
-79,840	-25,551	0,138	-0,057
-78,826	-94,369	-0,100	0,019
-77,811	-93,271	-0,041	-0,008
-76,797	800,000	-0,035	-0,079
-75,782	-10,011	-0,040	0,019
-74,767	800,000	0,058	-0,122
-73,753	81,673	0,128	0,098
-72,738	164,889	0,076	-0,076
-71,724	-134,347	-0,038	0,003
-70,709	-21,533	-0,174	-0,075
-69,694	-30,727	-0,136	-0,054
-68,680	-66,393	0,058	0,016
-67,665	-200,000	0,020	0,120
-66,651	-200,000	-0,009	0,157
-65,636	207,982	0,066	-0,073
-64,622	162,413	-0,131	0,131
-63,607	676,293	-0,041	0,076
-62,592	800,000	-0,032	-0,075
-61,578	-3,798	-0,130	-0,064
-60,563	-200,000	0,021	-0,107
-59,549	-200,000	-0,006	0,193
-58,534	-25,784	-1,519	-0,631
-57,519	480,039	-1,400	-2,256
-56,505	-200,000	-0,448	-4,550
-55,490	159,128	0,944	0,930
-54,476	800,000	4,862	11,359
-53,461	-200,000	18,113	286,031
-52,446	800,000	726,636	2222,599
-51,432	553,325	1642,321	2806,820
-50,417	79,495	1664,373	1263,377
-49,403	23,050	1538,192	891,501
-48,388	17,055	1461,477	818,025
-47,373	17,865	1451,391	816,243
-46,359	17,288	1441,906	808,121
-45,344	15,317	1437,335	796,122
-44,330	15,228	1435,332	794,554
-43,315	15,229	1433,743	793,651
-42,300	15,286	1431,983	792,914
-41,286	15,309	1430,701	792,284
-40,271	15,301	1429,638	791,625
-39,257	15,262	1428,323	790,682
-38,242	15,280	1427,078	790,045
-37,227	15,343	1425,864	789,639
-36,213	15,318	1424,537	788,756
-35,198	15,295	1423,322	787,946
-34,184	15,327	1422,329	787,515
-33,169	15,288	1421,239	786,696
-32,154	15,291	1420,433	786,234
-31,140	15,305	1418,853	785,389
-30,125	15,339	1417,751	784,909
-29,111	15,307	1416,723	784,162
-28,096	15,278	1415,456	783,292
-27,082	15,242	1414,518	782,569
-26,067	15,260	1413,074	781,827
-25,052	15,203	1412,427	781,172
-24,038	15,236	1411,398	780,723
-23,023	15,208	1410,243	779,925
-22,009	15,186	1409,250	779,241
-20,994	15,170	1408,363	778,644
-19,979	15,179	1407,406	778,126
-18,965	15,172	1406,455	777,535
-17,950	15,133	1405,653	776,881
-16,936	15,154	1404,546	776,338
-15,921	15,141	1403,388	775,604
-14,906	15,148	1402,346	775,032
-13,892	15,152	1401,374	774,479
-12,877	15,145	1400,683	774,036
-11,863	15,117	1399,912	773,447
-10,848	15,146	1398,928	773,010
-9,833	15,103	1397,746	772,128
-8,819	15,050	1397,127	771,507
-7,804	15,016	1396,253	770,836
-6,790	15,035	1395,155	770,286
-5,775	15,002	1394,100	769,523
-4,760	15,014	1393,488	769,208
-3,746	14,983	1392,553	768,519
-2,731	15,075	1391,570	768,373
-1,717	15,000	1390,893	767,622
-0,702	15,048	1388,616	766,553
0,313	18,820	1308,377	739,720
1,327	35,317	707,197	438,075
2,342	54,301	124,781	84,891
3,356	2,527	16,526	8,443
4,371	3,593	3,089	1,589
5,386	-90,339	0,641	0,131
6,400	-200,000	-0,020	0,152
7,415	-27,801	-0,354	-0,145
8,429	15,001	-0,271	-0,149
9,444	197,279	-0,323	-0,349
10,459	168,215	-0,314	-0,316
11,473	-45,213	-0,199	-0,069
12,488	-18,651	-0,414	-0,182
13,502	-30,292	-0,389	-0,155
14,517	131,826	-0,260	-0,237
15,531	-43,931	-0,470	-0,166
16,546	71,490	-0,346	-0,254
17,561	-7,587	-0,429	-0,204
18,575	-180,943	-0,141	-0,002
19,590	104,501	-0,268	-0,223
20,604	-45,109	-0,338	-0,118
21,619	10,055	-0,496	-0,265
22,634	110,940	-0,543	-0,462
23,648	281,802	-0,395	-0,501
24,663	25,982	-0,409	-0,241
25,677	-15,530	-0,416	-0,187
26,692	800,000	-0,190	-0,385
27,707	-49,493	-0,426	-0,142
28,721	156,318	-0,420	-0,410
29,736	76,071	-0,396	-0,296
30,750	145,234	-0,420	-0,397
31,765	353,774	-0,232	-0,326
32,780	144,744	-0,389	-0,367
33,794	201,120	-0,310	-0,337
34,809	-21,219	-0,365	-0,157
35,823	71,971	-0,243	-0,178
36,838	41,904	-0,347	-0,221
37,853	0,609	-0,445	-0,224
38,867	178,403	-0,324	-0,334
39,882	100,156	-0,273	-0,224
40,896	3,032	-0,393	-0,201
41,911	-85,345	-0,392	-0,085
42,926	-32,057	-0,406	-0,160
43,940	136,848	-0,368	-0,339
44,955	71,819	-0,271	-0,199
45,969	196,267	-0,293	-0,315
46,984	47,918	-0,387	-0,254
47,999	56,234	-0,345	-0,236
49,013	88,293	-0,313	-0,245
50,028	155,224	-0,279	-0,271
51,042	104,944	-0,264	-0,219
52,057	67,618	-0,470	-0,338
53,071	146,694	-0,340	-0,322
54,086	83,980	-0,347	-0,267
55,101	-33,367	-0,368	-0,143
56,115	-30,019	-0,310	-0,124
57,130	20,085	-0,502	-0,284
58,144	329,707	-0,219	-0,298
59,159	92,368	-0,407	-0,323
60,174	135,738	-0,317	-0,291
61,188	333,441	-0,194	-0,265
62,203	-7,520	-0,318	-0,151
63,217	98,859	-0,317	-0,257
64,232	-106,992	-0,301	-0,046
65,247	21,480	-0,349	-0,199
66,261	156,704	-0,368	-0,358
67,276	25,269	-0,423	-0,247
68,290	247,090	-0,173	-0,206
69,305	102,203	-0,247	-0,203
70,320	9,185	-0,435	-0,231
71,334	41,116	-0,199	-0,126
72,349	16,587	-0,245	-0,136
73,363	185,011	-0,248	-0,259
74,378	99,088	-0,311	-0,253
75,393	63,041	-0,320	-0,225
76,407	-63,875	-0,328	-0,094
77,422	-27,790	-0,234	-0,095
78,436	-44,619	-0,283	-0,099
79,451	73,998	-0,311	-0,229
80,466	119,284	-0,435	-0,378
81,480	173,394	-0,245	-0,249
82,495	7,474	-0,273	-0,143
83,509	134,419	-0,217	-0,197
84,524	-39,007	-0,205	-0,075
85,539	3,119	-0,226	-0,115
86,553	144,431	-0,227	-0,213
87,568	-11,568	-0,470	-0,216
88,582	182,702	-0,235	-0,244
89,597	24,071	-0,403	-0,233
90,611	-149,867	-0,295	-0,016
91,626	107,860	-0,305	-0,255
92,641	244,688	-0,230	-0,271
93,655	114,784	-0,298	-0,255
94,670	-5,268	-0,277	-0,133
95,684	52,004	-0,396	-0,264
96,699	63,534	-0,267	-0,188
97,714	48,303	-0,248	-0,163
98,728	191,722	-0,280	-0,297
99,743	-64,659	-0,287	-0,081
100,757	-63,430	-0,153	-0,044
101,772	-43,540	-0,287	-0,101
102,787	121,641	-0,153	-0,134
103,801	-38,259	-0,400	-0,148
104,816	22,058	-0,296	-0,169
105,830	-83,440	-0,285	-0,064
106,845	-146,518	-0,213	-0,013
107,860	-36,062	-0,314	-0,118
108,874	66,266	-0,273	-0,194
109,889	409,284	-0,220	-0,327
110,903	-3,669	-0,300	-0,146
111,918	249,501	-0,214	-0,255
112,933	-56,271	-0,314	-0,097
113,947	-200,000	-0,013	-0,283
114,962	-11,871	-0,188	-0,086
115,976	800,000	-0,133	-0,263
116,991	92,016	-0,178	-0,140
118,006	-60,466	-0,277	-0,082
119,020	14,566	-0,386	-0,210
120,035	208,911	-0,122	-0,134
121,049	-4,563	-0,205	-0,099
122,064	71,397	-0,268	-0,195
123,079	-168,565	-0,317	-0,008
124,093	34,509	-0,304	-0,185
125,108	203,164	-0,210	-0,227
126,122	145,161	-0,231	-0,216
127,137	274,212	-0,195	-0,242
128,151	-39,127	-0,173	-0,063
129,166	185,813	-0,232	-0,242
130,181	-39,174	-0,266	-0,097
131,195	22,547	-0,383	-0,219
132,210	168,000	-0,294	-0,293
133,224	17,245	-0,238	-0,132
134,239	800,000	-0,114	-0,233
135,254	268,332	-0,185	-0,227
136,268	229,741	-0,223	-0,255
137,283	-117,044	-0,276	-0,035
138,297	61,947	-0,275	-0,191
139,312	286,340	-0,173	-0,219
140,327	9,251	-0,241	-0,127
141,341	-9,521	-0,280	-0,130
142,356	238,036	-0,253	-0,294
143,370	125,024	-0,168	-0,148
144,385	-35,283	-0,313	-0,118
145,400	330,877	-0,243	-0,329
146,414	53,045	-0,262	-0,175
147,429	246,940	-0,168	-0,199
148,443	-49,404	-0,313	-0,104
149,458	-85,649	-0,337	-0,073
150,473	139,374	-0,119	-0,109
151,487	800,000	-0,052	-0,154
152,502	113,016	-0,230	-0,194
153,516	502,767	-0,158	-0,256
154,531	310,929	-0,203	-0,266
155,546	83,514	-0,245	-0,186
156,560	448,812	-0,139	-0,215
157,575	144,683	-0,176	-0,164
158,589	-147,610	-0,344	-0,020
159,604	33,803	-0,182	-0,110
160,619	-56,761	-0,245	-0,075
161,633	-69,733	-0,311	-0,082
162,648	184,703	-0,273	-0,283
163,662	800,000	-0,092	-0,224
164,677	-134,348	-0,246	-0,021
165,692	12,696	-0,318	-0,171
166,706	490,946	-0,163	-0,262
167,721	182,917	-0,249	-0,257
168,735	77,549	-0,233	-0,173
169,750	96,081	-0,285	-0,227
170,764	65,556	-0,169	-0,119
171,779	-40,966	-0,241	-0,086
172,794	45,014	-0,235	-0,151
173,808	8,749	-0,182	-0,095
174,823	290,618	-0,199	-0,253
175,837	400,910	-0,195	-0,287
176,852	-4,539	-0,287	-0,138
177,867	98,161	-0,076	-0,061
178,881	800,000	-0,166	-0,329
179,896	29,321	-0,295	-0,174
180,910	87,936	-0,225	-0,174
181,925	49,983	-0,349	-0,229
182,940	148,299	-0,071	-0,067
183,954	-17,966	-0,221	-0,096
184,969	349,863	-0,135	-0,186
185,983	70,662	-0,278	-0,200
186,998	-125,148	-0,296	-0,031
188,013	-81,620	-0,250	-0,057
189,027	-9,103	-0,280	-0,130
190,042	11,234	-0,199	-0,105
191,056	-125,937	-0,299	0,031
192,071	800,000	-0,122	-0,268
193,086	-61,368	-0,178	-0,052
194,100	47,253	-0,190	-0,123
195,115	-89,238	-0,237	-0,048
196,129	163,555	-0,198	-0,194
197,144	437,295	-0,170	-0,259
198,159	-139,938	-0,292	-0,021
199,173	55,679	-0,295	-0,198
200,188	550,265	-0,140	-0,235
201,202	-30,891	-0,248	-0,097
202,217	162,128	-0,138	-0,134
203,232	298,747	-0,155	-0,199
204,246	104,962	-0,227	-0,186
205,261	-92,261	-0,127	-0,025
206,275	181,034	-0,205	-0,210
207,290	619,917	-0,121	-0,213
208,304	52,798	-0,164	-0,109
209,319	800,000	-0,039	-0,097
210,334	206,586	-0,102	-0,111
211,348	359,357	-0,155	-0,216
212,363	40,392	-0,173	-0,108
213,377	800,000	-0,073	-0,207
214,392	33,192	-0,191	-0,115
215,407	-75,464	-0,162	-0,040
216,421	-68,204	-0,243	-0,065
217,436	134,776	-0,120	-0,108
218,450	800,000	-0,066	-0,188
219,465	800,000	-0,078	-0,211
220,480	-38,762	-0,243	-0,088
221,494	-76,500	-0,038	-0,009
222,509	172,440	-0,187	-0,187
223,523	47,082	-0,200	-0,129
224,538	-190,671	-0,206	-0,001
225,553	344,274	-0,231	-0,316
226,567	470,406	-0,159	-0,249
227,582	481,880	-0,090	-0,143
228,596	646,356	-0,099	-0,176
229,611	3,151	-0,152	-0,076
230,626	221,465	-0,138	-0,154
231,640	-91,969	-0,301	-0,059
232,655	276,503	-0,147	-0,181
233,669	120,149	-0,287	-0,247
234,684	61,704	-0,280	-0,193
235,699	278,798	-0,139	-0,172
236,713	-102,136	-0,245	-0,040
237,728	261,784	-0,148	-0,179
238,742	550,313	-0,121	-0,201
239,757	-43,567	-0,253	-0,088
240,772	487,843	-0,192	-0,305
241,786	351,416	-0,209	-0,287
242,801	57,579	-0,229	-0,155
243,815	465,013	-0,141	-0,220
244,830	-96,784	-0,096	-0,017
245,844	380,319	-0,102	-0,145
246,859	437,983	-0,072	-0,110
247,874	-57,570	-0,268	-0,081
248,888	642,503	-0,128	-0,227
249,903	181,917	-0,155	-0,158
250,917	212,191	-0,095	-0,103
251,932	-5,198	-0,194	-0,092
252,947	-154,740	-0,215	-0,010
253,961	13,981	-0,252	-0,135
254,976	800,000	-0,057	-0,131
255,990	85,597	-0,205	-0,156
257,005	76,105	-0,208	-0,152
258,020	250,127	-0,229	-0,269
259,034	-70,897	-0,065	-0,017
260,049	551,602	-0,150	-0,250
261,063	-107,461	-0,124	-0,019
262,078	260,791	-0,109	-0,131
263,093	158,683	-0,214	-0,206
264,107	284,336	-0,128	-0,159
265,122	800,000	-0,026	-0,075
266,136	-87,292	-0,212	-0,044
267,151	-39,085	-0,115	-0,041
268,166	78,462	-0,255	-0,188
269,180	-78,431	-0,201	-0,047
270,195	139,089	-0,264	-0,240
271,209	-200,000	-0,053	-0,175
272,224	167,018	-0,152	-0,150
273,239	250,637	-0,093	-0,110
274,253	57,228	-0,174	-0,117
275,268	-51,472	-0,163	-0,052
276,282	52,093	-0,305	-0,201
277,297	-32,886	-0,186	-0,071
278,312	-61,371	-0,263	-0,076
279,326	63,216	-0,169	-0,117
280,341	24,041	-0,204	-0,116
281,355	27,655	-0,255	-0,148
282,370	518,124	-0,142	-0,230
283,384	325,113	-0,192	-0,254
284,399	111,081	-0,153	-0,127
285,414	149,320	-0,147	-0,138
286,428	-16,303	-0,150	-0,065
287,443	312,273	-0,092	-0,119
288,457	-200,000	-0,030	-0,133
289,472	560,108	-0,126	-0,211
290,487	-34,062	-0,212	-0,080
291,501	800,000	-0,084	-0,214
292,516	129,382	-0,318	-0,280
293,530	-200,000	-0,062	-0,247
294,545	362,519	-0,147	-0,204
295,560	-2,412	-0,092	-0,044
296,574	102,280	-0,217	-0,175
297,589	165,211	-0,203	-0,198
298,603	47,830	-0,218	-0,140
299,618	310,721	-0,117	-0,151
300,633	800,000	-0,012	-0,025
301,647	-161,692	-0,148	0,005
302,662	-159,422	-0,172	-0,007
303,676	-112,246	-0,057	0,008
304,691	-200,000	-0,029	-0,268
305,706	49,541	-0,139	-0,090
306,720	513,092	-0,107	-0,173
307,735	54,086	-0,160	-0,106
308,749	420,578	-0,151	-0,224
309,764	-174,764	-0,024	0,000
310,779	800,000	-0,107	-0,217
311,793	-29,744	-0,139	-0,054
312,808	19,083	-0,167	-0,092
313,822	121,962	-0,247	-0,212
314,837	269,813	-0,148	-0,179
315,852	0,076	-0,122	-0,060
316,866	28,258	-0,186	-0,108
317,881	-63,109	-0,187	-0,053
318,895	-77,600	-0,315	-0,075
319,910	792,679	-0,110	-0,210
320,925	206,767	-0,177	-0,190
321,939	-200,000	-0,026	-0,101
322,954	112,008	-0,066	-0,055
323,968	-33,420	-0,177	0,067
324,983	-14,553	-0,207	-0,091
325,997	42,053	-0,175	-0,109
327,012	200,161	-0,138	-0,146
328,027	800,000	-0,051	-0,138
329,041	241,309	-0,105	-0,121
330,056	207,398	-0,045	-0,049
331,070	43,320	-0,046	0,029
332,085	-15,353	-0,078	0,034
333,100	12,562	-0,097	-0,051
334,114	520,731	-0,123	-0,200
335,129	660,998	-0,106	-0,188
336,143	-109,166	-0,153	0,022
337,158	-12,033	-0,146	-0,066
338,173	-58,483	-0,092	-0,027
339,187	476,174	-0,054	-0,084
340,202	168,205	-0,132	-0,130
341,216	-123,025	-0,134	0,015
342,231	-200,000	-0,058	-0,224
343,246	267,530	-0,153	-0,185
344,260	-200,000	-0,012	-0,105
345,275	98,463	-0,178	-0,141
346,289	181,194	-0,116	-0,117
347,304	-108,365	-0,118	-0,017
348,319	-113,519	-0,214	-0,028
349,333	19,723	-0,220	-0,121
350,348	68,912	-0,104	-0,073
351,362	-200,000	-0,051	-0,205
352,377	-119,581	-0,111	0,013
353,392	-129,171	-0,071	-0,007
354,406	316,978	-0,088	-0,115
355,421	207,212	1320,362	1414,731
356,435	159,388	1481,798	1415,242
