DTS Sentinel unit serial number:	SN410029Multiplexer serial number:	ORYXHardware model number:	OX2-SRSoftware version number:	ORYX F/W v4,00 Oryx Data Collector v3.7.2.0data status	okinstallation	B3 Nyhavnadifferential loss correction	single-endedforward channel	channel 1reverse channel	N/Adate	2023/11/29time	01:57:30forward acquisition time	300,00reverse acquisition time	0,00gamma	499,1914k internal	0,3211k external	0,3211temperature offset calibration	1,0000default loss term (dB/km)	0,3820temperature slope calibration	1,0000multiplexer offset coefficient	1,0000multiplexer slope coefficient	1,0000fibre end	0,00T internal ref (°C)	9,57T ext. ref 1 (°C)	-5,34T ext. ref 2 (°C)	-5,46length (m)	temperature (°C)	Stokes	anti-Stokes-744,400	800,000	-0,119	-0,243
-743,385	800,000	0,083	0,183
-742,371	-200,000	-0,095	-0,332
-741,356	800,000	0,140	0,314
-740,342	262,362	-0,189	-0,238
-739,327	-200,000	0,042	0,139
-738,312	30,042	-0,249	-0,154
-737,298	-200,000	-0,035	0,268
-736,283	800,000	-0,111	-0,256
-735,269	-200,000	0,033	0,323
-734,254	-32,974	-0,219	-0,088
-733,239	102,102	-0,145	0,123
-732,225	164,795	-0,186	-0,190
-731,210	146,313	0,126	0,123
-730,196	58,716	0,091	-0,065
-729,181	-200,000	0,024	-0,117
-728,167	300,696	-0,078	-0,105
-727,152	-32,397	0,049	0,020
-726,137	55,012	-0,112	-0,078
-725,123	-47,449	-0,087	0,031
-724,108	800,000	-0,032	-0,086
-723,094	310,342	-0,088	-0,120
-722,079	-100,584	-0,137	-0,024
-721,064	90,763	-0,119	0,096
-720,050	-24,378	0,084	0,036
-719,035	-200,000	0,033	0,163
-718,021	-158,316	-0,047	-0,002
-717,006	-71,966	-0,111	-0,030
-715,991	67,954	-0,208	-0,154
-714,977	-200,000	0,018	-0,085
-713,962	-200,000	0,008	0,098
-712,948	-200,000	0,034	-0,122
-711,933	-200,000	0,015	-0,117
-710,918	158,805	0,046	-0,046
-709,904	-200,000	0,043	-0,153
-708,889	-200,000	0,000	0,046
-707,875	-60,307	-0,058	-0,018
-706,860	-84,919	0,061	-0,014
-705,845	800,000	-0,042	-0,125
-704,831	-140,655	0,122	0,009
-703,816	364,699	-0,084	0,123
-702,802	192,169	0,048	-0,053
-701,787	133,716	0,100	-0,094
-700,772	648,550	-0,044	-0,082
-699,758	109,746	-0,107	-0,093
-698,743	50,148	-0,184	0,126
-697,729	-200,000	0,000	-0,058
-696,714	-155,580	0,039	0,002
-695,699	800,000	-0,036	0,108
-694,685	435,753	-0,016	0,026
-693,670	800,000	-0,031	-0,077
-692,656	-60,679	0,018	0,005
-691,641	-143,475	-0,065	0,004
-690,627	800,000	0,055	0,138
-689,612	188,602	0,040	0,043
-688,597	800,000	-0,035	0,071
-687,583	188,973	-0,038	-0,041
-686,568	273,232	0,126	0,161
-685,554	-200,000	-0,004	0,086
-684,539	54,891	0,182	0,127
-683,524	800,000	0,031	0,078
-682,510	-120,404	0,039	-0,005
-681,495	-61,621	-0,131	-0,039
-680,481	800,000	-0,058	-0,169
-679,466	-50,736	-0,131	-0,044
-678,451	-131,433	0,139	-0,013
-677,437	-200,000	-0,010	0,034
-676,422	0,589	0,036	0,019
-675,408	362,627	-0,115	-0,168
-674,393	-113,732	-0,093	-0,013
-673,378	-200,000	-0,008	0,035
-672,364	96,497	-0,157	-0,130
-671,349	216,089	0,048	-0,055
-670,335	-6,147	-0,023	-0,011
-669,320	800,000	0,034	0,092
-668,305	123,801	0,021	-0,019
-667,291	-26,556	0,106	0,045
-666,276	-43,280	-0,069	-0,025
-665,262	-51,903	0,057	0,019
-664,247	-133,057	-0,063	-0,006
-663,232	-200,000	0,002	0,025
-662,218	755,810	-0,064	0,126
-661,203	-145,223	-0,158	-0,010
-660,189	-132,575	-0,126	0,012
-659,174	638,783	0,044	-0,082
-658,159	-200,000	-0,057	-0,194
-657,145	-144,541	-0,200	-0,013
-656,130	654,685	-0,028	0,053
-655,116	164,583	0,036	0,037
-654,101	70,257	0,055	-0,041
-653,086	800,000	-0,044	0,137
-652,072	-118,329	-0,091	0,012
-651,057	19,655	0,065	0,037
-650,043	-107,090	0,054	-0,009
-649,028	83,135	0,022	0,017
-648,014	-151,466	-0,062	-0,003
-646,999	-72,071	0,124	-0,033
-645,984	-92,442	0,159	0,032
-644,970	-101,904	-0,064	0,011
-643,955	-99,603	-0,163	-0,029
-642,941	-200,000	-0,037	-0,127
-641,926	800,000	-0,036	-0,095
-640,911	757,652	0,026	-0,051
-639,897	128,717	0,086	-0,079
-638,882	58,403	-0,042	-0,030
-637,868	132,033	-0,078	-0,073
-636,853	131,197	-0,184	-0,171
-635,838	441,111	-0,059	0,094
-634,824	133,925	-0,051	0,048
-633,809	-143,794	-0,067	-0,004
-632,795	-146,428	0,080	0,005
-631,780	257,781	-0,065	-0,080
-630,765	800,000	0,031	-0,073
-629,751	-200,000	-0,005	-0,149
-628,736	800,000	0,012	-0,038
-627,722	61,428	-0,012	0,009
-626,707	-66,561	-0,069	0,020
-625,692	-58,694	0,185	-0,058
-624,678	385,234	-0,062	0,092
-623,663	-200,000	-0,002	-0,099
-622,649	144,651	-0,136	-0,131
-621,634	143,548	-0,042	-0,040
-620,619	-24,839	0,028	0,012
-619,605	-200,000	0,001	0,048
-618,590	-200,000	-0,005	0,071
-617,576	-177,280	0,077	0,001
-616,561	800,000	0,052	-0,107
-615,546	41,867	-0,066	0,043
-614,532	12,710	-0,110	0,061
-613,517	176,458	0,142	-0,149
-612,503	319,692	0,072	-0,099
-611,488	800,000	0,012	-0,034
-610,474	-200,000	-0,000	-0,042
-609,459	-200,000	0,003	-0,029
-608,444	800,000	-0,039	0,096
-607,430	-63,119	-0,057	-0,017
-606,415	-141,188	0,081	-0,006
-605,401	381,439	-0,087	0,129
-604,386	72,692	0,028	0,021
-603,371	-200,000	0,030	-0,100
-602,357	-200,000	0,026	-0,105
-601,342	-200,000	-0,006	0,090
-600,328	-41,925	0,103	-0,038
-599,313	-200,000	-0,002	-0,021
-598,298	-27,829	0,145	-0,060
-597,284	75,009	0,083	0,063
-596,269	-136,061	-0,202	0,017
-595,255	107,571	0,120	0,103
-594,240	62,806	-0,070	-0,051
-593,225	-200,000	-0,041	-0,131
-592,211	-200,000	0,001	-0,086
-591,196	-38,091	0,051	-0,019
-590,182	-70,099	-0,042	0,012
-589,167	266,701	0,053	-0,066
-588,152	-81,784	-0,124	-0,029
-587,138	-146,335	-0,159	-0,010
-586,123	392,068	-0,026	-0,039
-585,109	-200,000	0,001	-0,079
-584,094	-99,005	-0,123	0,022
-583,079	61,606	0,114	-0,081
-582,065	-0,484	-0,055	0,028
-581,050	300,652	0,064	-0,086
-580,036	49,322	-0,055	-0,037
-579,021	-116,461	-0,176	0,023
-578,006	263,427	-0,047	-0,059
-576,992	800,000	0,025	0,053
-575,977	-200,000	0,003	-0,054
-574,963	-3,830	-0,010	0,005
-573,948	38,323	0,150	0,096
-572,934	327,221	-0,099	0,137
-571,919	-200,000	-0,002	-0,015
-570,904	-34,121	-0,036	0,014
-569,890	1,709	-0,011	-0,006
-568,875	414,884	0,032	0,049
-567,861	-72,951	-0,059	-0,015
-566,846	-135,072	0,042	0,004
-565,831	203,369	-0,023	-0,025
-564,817	-35,735	-0,039	0,015
-563,802	320,486	0,026	-0,035
-562,788	311,014	0,094	0,127
-561,773	458,626	-0,009	0,015
-560,758	-153,957	-0,126	-0,006
-559,744	150,378	0,011	-0,011
-558,729	-42,812	-0,131	-0,048
-557,715	-200,000	-0,014	-0,082
-556,700	114,897	-0,055	-0,048
-555,685	800,000	-0,015	0,033
-554,671	164,588	0,074	0,075
-553,656	-200,000	0,001	0,010
-552,642	-45,050	-0,112	-0,040
-551,627	-104,084	-0,027	-0,005
-550,612	361,001	-0,058	-0,084
-549,598	-200,000	0,006	0,073
-548,583	651,020	-0,062	0,114
-547,569	97,160	0,151	-0,125
-546,554	-29,971	-0,094	0,038
-545,539	800,000	-0,038	0,095
-544,525	228,452	-0,045	0,053
-543,510	142,384	-0,062	0,060
-542,496	800,000	-0,059	-0,156
-541,481	-120,264	-0,103	0,013
-540,466	5,943	-0,031	-0,016
-539,452	-59,785	0,100	-0,031
-538,437	72,412	0,025	0,019
-537,423	-67,751	0,064	-0,018
-536,408	12,691	0,032	0,018
-535,393	9,992	0,034	-0,018
-534,379	-200,000	-0,026	-0,091
-533,364	-145,350	-0,152	0,010
-532,350	52,093	0,114	-0,078
-531,335	78,565	0,123	-0,094
-530,321	-65,841	-0,113	0,032
-529,306	800,000	-0,078	-0,162
-528,291	-200,000	-0,011	-0,076
-527,277	-26,484	-0,189	-0,079
-526,262	115,872	-0,112	0,099
-525,248	-12,846	0,071	-0,033
-524,233	544,861	0,040	0,069
-523,218	-39,673	0,034	-0,013
-522,204	-200,000	0,017	-0,105
-521,189	-200,000	-0,003	-0,042
-520,175	441,272	0,083	-0,130
-519,160	800,000	0,025	-0,079
-518,145	800,000	-0,061	0,155
-517,131	217,421	-0,083	0,095
-516,116	-75,057	0,058	-0,015
-515,102	91,479	0,097	-0,078
-514,087	297,969	-0,097	-0,128
-513,072	-131,513	0,068	0,006
-512,058	-200,000	0,010	0,044
-511,043	-200,000	-0,011	0,256
-510,029	156,263	0,149	-0,148
-509,014	80,331	-0,157	0,121
-507,999	263,189	0,090	0,112
-506,985	-15,440	0,082	0,038
-505,970	46,364	0,078	-0,052
-504,956	800,000	0,032	-0,083
-503,941	280,327	0,059	-0,076
-502,926	216,393	0,050	0,057
-501,912	-200,000	-0,009	0,050
-500,897	201,477	-0,037	0,041
-499,883	30,265	0,159	-0,098
-498,868	320,010	-0,047	-0,064
-497,853	152,891	0,050	0,049
-496,839	49,569	0,084	-0,057
-495,824	-200,000	0,013	0,170
-494,810	-200,000	0,005	0,052
-493,795	-200,000	-0,022	0,078
-492,781	800,000	-0,085	0,192
-491,766	220,709	0,049	-0,057
-490,751	755,660	-0,069	-0,135
-489,737	39,741	0,007	0,005
-488,722	800,000	0,016	-0,049
-487,708	-147,810	-0,056	-0,003
-486,693	-196,243	-0,111	0,001
-485,678	269,500	0,068	-0,085
-484,664	128,201	0,102	0,093
-483,649	-115,714	-0,194	0,026
-482,635	-200,000	0,005	0,056
-481,620	104,792	0,093	0,078
-480,605	-200,000	0,030	0,140
-479,591	-200,000	-0,002	0,049
-478,576	-111,208	-0,044	0,006
-477,562	-200,000	0,027	-0,159
-476,547	565,574	0,033	-0,058
-475,532	274,025	-0,099	0,126
-474,518	800,000	0,038	0,083
-473,503	800,000	-0,018	0,056
-472,489	133,473	0,062	0,058
-471,474	-108,838	0,081	-0,012
-470,459	800,000	-0,013	0,036
-469,445	800,000	0,042	-0,086
-468,430	36,907	0,047	-0,030
-467,416	165,088	0,078	0,079
-466,401	101,528	0,106	-0,088
-465,386	676,425	-0,025	0,046
-464,372	-17,703	0,039	-0,018
-463,357	-3,796	-0,076	0,038
-462,343	-164,323	-0,061	-0,002
-461,328	-200,000	0,003	-0,035
-460,313	91,255	0,088	0,070
-459,299	-103,993	-0,068	-0,011
-458,284	-200,000	0,016	-0,110
-457,270	456,230	0,038	-0,061
-456,255	800,000	-0,023	-0,050
-455,241	168,079	-0,057	-0,058
-454,226	-20,441	-0,057	0,025
-453,211	-15,729	-0,075	-0,034
-452,197	757,337	0,033	-0,065
-451,182	-39,256	0,182	0,068
-450,168	219,663	-0,019	0,022
-449,153	170,171	-0,034	0,035
-448,138	171,816	-0,050	0,052
-447,124	-52,994	0,059	-0,019
-446,109	800,000	0,026	0,081
-445,095	-17,349	0,116	-0,052
-444,080	159,332	0,104	0,103
-443,065	-200,000	-0,005	-0,050
-442,051	-108,397	-0,012	0,002
-441,036	-25,456	-0,185	-0,078
-440,022	-39,976	-0,097	-0,036
-439,007	-7,799	0,216	-0,104
-437,992	-20,129	-0,068	-0,030
-436,978	213,653	0,065	0,074
-435,963	-152,336	0,198	-0,010
-434,949	88,935	0,081	-0,064
-433,934	-200,000	0,006	-0,123
-432,919	401,411	0,061	-0,092
-431,905	-200,000	0,031	-0,134
-430,890	59,541	0,037	-0,026
-429,876	800,000	-0,031	0,063
-428,861	-92,188	0,093	-0,019
-427,846	-200,000	0,011	0,059
-426,832	117,266	-0,096	-0,085
-425,817	489,368	-0,040	0,066
-424,803	31,458	0,076	0,047
-423,788	370,697	-0,097	0,141
-422,773	-200,000	0,012	0,230
-421,759	800,000	0,050	0,133
-420,744	-200,000	0,009	-0,091
-419,730	-82,361	-0,198	0,046
-418,715	-200,000	0,030	-0,129
-417,701	532,771	0,038	0,064
-416,686	58,456	-0,074	-0,052
-415,671	-115,174	0,044	-0,006
-414,657	-37,869	0,036	-0,014
-413,642	-15,397	-0,024	0,011
-412,628	-70,497	-0,179	-0,048
-411,613	525,371	0,037	-0,062
-410,598	81,975	0,057	-0,044
-409,584	228,069	0,023	0,027
-408,569	154,073	0,061	-0,060
-407,555	-200,000	-0,012	0,037
-406,540	-122,920	0,150	-0,017
-405,525	800,000	-0,025	0,069
-404,511	800,000	-0,013	-0,038
-403,496	-61,008	-0,022	-0,007
-402,482	306,074	-0,052	0,069
-401,467	-87,880	0,094	0,020
-400,452	102,601	0,087	-0,073
-399,438	800,000	0,025	-0,051
-398,423	-120,184	0,051	0,006
-397,409	-19,746	-0,051	-0,023
-396,394	-200,000	-0,011	0,094
-395,379	134,968	0,043	-0,040
-394,365	16,204	0,071	0,040
-393,350	-83,492	0,057	-0,013
-392,336	52,775	-0,115	-0,078
-391,321	-200,000	-0,029	0,095
-390,306	648,376	-0,050	-0,092
-389,292	800,000	0,022	-0,058
-388,277	509,293	0,031	0,053
-387,263	20,154	-0,047	-0,027
-386,248	165,491	0,158	0,159
-385,233	87,129	-0,097	0,077
-384,219	-200,000	-0,002	-0,079
-383,204	800,000	0,013	0,030
-382,190	-145,136	-0,099	0,006
-381,175	800,000	-0,087	-0,203
-380,160	-200,000	-0,005	0,082
-379,146	-15,019	-0,094	0,043
-378,131	12,659	-0,030	-0,016
-377,117	-200,000	0,004	0,093
-376,102	-33,730	-0,098	-0,038
-375,088	-200,000	0,005	-0,112
-374,073	157,088	-0,066	-0,065
-373,058	800,000	0,023	0,060
-372,044	615,058	-0,118	0,212
-371,029	800,000	0,067	0,146
-370,015	119,721	-0,024	-0,022
-369,000	487,669	-0,055	-0,089
-367,985	-200,000	0,022	0,158
-366,971	-106,272	-0,048	-0,008
-365,956	-200,000	0,017	0,058
-364,942	142,715	0,043	-0,041
-363,927	487,322	0,037	0,061
-362,912	43,485	0,031	0,020
-361,898	112,219	-0,028	0,024
-360,883	525,903	-0,016	-0,027
-359,869	199,070	-0,039	0,042
-358,854	83,938	-0,012	0,009
-357,839	-51,410	0,106	0,035
-356,825	-200,000	-0,006	0,108
-355,810	-200,000	-0,015	-0,120
-354,796	-43,363	-0,085	-0,030
-353,781	87,284	-0,114	-0,090
-352,766	-22,737	0,154	-0,066
-351,752	128,021	-0,098	-0,089
-350,737	298,590	-0,007	0,009
-349,723	-200,000	-0,003	0,015
-348,708	-200,000	0,013	0,128
-347,693	-200,000	-0,001	0,028
-346,679	-60,014	-0,073	0,022
-345,664	800,000	-0,020	-0,049
-344,650	-91,610	0,044	-0,009
-343,635	-200,000	0,020	0,169
-342,620	-200,000	0,031	0,173
-341,606	-3,519	-0,107	0,053
-340,591	-200,000	-0,012	0,122
-339,577	-200,000	-0,052	0,246
-338,562	-200,000	0,000	0,164
-337,548	800,000	0,029	0,068
-336,533	140,987	0,081	0,077
-335,518	800,000	0,032	0,073
-334,504	-200,000	-0,020	0,214
-333,489	145,244	0,054	0,051
-332,475	509,487	0,012	0,020
-331,460	-200,000	-0,019	0,104
-330,445	766,076	-0,049	-0,095
-329,431	248,546	0,016	-0,020
-328,416	-76,551	-0,240	-0,060
-327,402	-200,000	0,011	0,075
-326,387	121,714	-0,030	0,027
-325,372	-200,000	0,027	-0,154
-324,358	-153,604	0,022	-0,001
-323,343	107,505	-0,141	-0,120
-322,329	800,000	0,013	-0,038
-321,314	-200,000	0,021	0,111
-320,299	6,861	0,124	-0,066
-319,285	198,076	-0,077	-0,084
-318,270	800,000	0,026	0,058
-317,256	-200,000	-0,014	0,080
-316,241	73,983	-0,078	-0,059
-315,226	-200,000	-0,028	-0,112
-314,212	800,000	-0,031	-0,086
-313,197	-80,323	0,196	-0,046
-312,183	800,000	0,015	-0,029
-311,168	6,156	-0,140	-0,074
-310,153	793,145	0,068	-0,134
-309,139	491,170	-0,058	-0,094
-308,124	800,000	0,012	0,026
-307,110	-26,804	0,142	-0,059
-306,095	65,273	0,047	-0,034
-305,080	800,000	0,031	0,072
-304,066	-200,000	0,014	-0,060
-303,051	-72,791	0,166	-0,043
-302,037	-97,708	-0,148	-0,027
-301,022	800,000	-0,039	-0,096
-300,008	-200,000	0,007	-0,024
-298,993	-200,000	0,000	-0,102
-297,978	-55,670	-0,055	0,017
-296,964	123,695	0,021	-0,018
-295,949	206,313	-0,150	-0,166
-294,935	-200,000	-0,011	0,044
-293,920	-200,000	0,003	-0,019
-292,905	109,700	-0,030	-0,026
-291,891	800,000	-0,039	0,117
-290,876	800,000	-0,033	-0,087
-289,862	-130,636	-0,200	-0,019
-288,847	-200,000	0,023	0,085
-287,832	151,716	0,084	0,081
-286,818	-200,000	-0,000	0,011
-285,803	-200,000	-0,019	0,085
-284,789	493,177	0,085	0,139
-283,774	-50,883	0,064	-0,021
-282,759	-200,000	0,013	-0,057
-281,745	-15,868	-0,040	-0,018
-280,730	183,319	-0,130	-0,137
-279,716	3,209	0,059	-0,030
-278,701	-98,804	-0,029	0,005
-277,686	143,018	0,064	0,061
-276,672	-200,000	-0,001	-0,053
-275,657	-164,034	0,133	0,004
-274,643	76,106	0,041	0,031
-273,628	15,586	0,034	-0,019
-272,613	483,452	0,032	-0,051
-271,599	-200,000	-0,000	-0,079
-270,584	68,511	0,058	0,042
-269,570	-93,084	0,187	0,037
-268,555	-200,000	0,015	0,066
-267,540	-82,776	0,049	0,011
-266,526	625,403	-0,037	0,067
-265,511	-136,345	0,110	-0,009
-264,497	-151,344	0,123	-0,006
-263,482	-186,241	0,044	-0,000
-262,467	333,529	0,097	-0,134
-261,453	-188,087	0,060	0,001
-260,438	800,000	-0,030	0,064
-259,424	-200,000	0,036	-0,173
-258,409	530,251	0,054	0,091
-257,395	-44,012	0,079	-0,028
-256,380	-200,000	0,005	0,031
-255,365	10,078	-0,185	-0,100
-254,351	-63,571	0,106	-0,031
-253,336	800,000	-0,034	0,081
-252,322	-136,433	-0,056	-0,005
-251,307	165,417	0,014	-0,014
-250,292	0,912	0,056	0,029
-249,278	-200,000	0,004	0,087
-248,263	-200,000	0,020	-0,088
-247,249	-151,481	0,090	-0,005
-246,234	-139,544	-0,067	0,005
-245,219	84,115	0,006	0,005
-244,205	-200,000	-0,035	0,161
-243,190	671,027	0,081	0,150
-242,176	82,707	0,137	0,106
-241,161	40,590	-0,043	0,028
-240,146	239,190	-0,084	-0,099
-239,132	-19,554	-0,142	-0,062
-238,117	-17,483	0,047	-0,021
-237,103	-50,083	-0,037	-0,012
-236,088	800,000	0,027	-0,059
-235,073	-200,000	0,002	0,092
-234,059	800,000	-0,036	-0,093
-233,044	-92,940	0,171	-0,034
-232,030	554,630	0,021	-0,036
-231,015	-103,828	0,057	-0,009
-230,000	800,000	0,041	0,096
-228,986	-200,000	-0,028	-0,151
-227,971	800,000	0,023	0,063
-226,957	-138,579	0,111	0,009
-225,942	-200,000	0,024	0,190
-224,927	-100,456	0,024	-0,004
-223,913	-200,000	-0,020	-0,080
-222,898	91,947	-0,038	-0,030
-221,884	94,954	-0,033	0,026
-220,869	-163,137	0,022	0,001
-219,855	-13,155	0,267	0,123
-218,840	800,000	0,039	0,113
-217,825	-200,000	-0,045	0,183
-216,811	13,278	-0,058	0,032
-215,796	123,024	0,046	-0,041
-214,782	52,146	-0,041	0,027
-213,767	-58,154	-0,165	0,051
-212,752	-70,409	0,091	0,024
-211,738	-41,165	-0,122	-0,045
-210,723	-61,126	0,179	0,053
-209,709	-25,620	-0,101	0,042
-208,694	-200,000	0,006	-0,046
-207,679	781,668	0,045	0,089
-206,665	-90,941	0,053	-0,011
-205,650	-95,862	0,044	-0,008
-204,636	-31,120	0,045	-0,018
-203,621	800,000	-0,041	-0,095
-202,606	-70,666	0,029	0,008
-201,592	800,000	0,033	-0,103
-200,577	-200,000	-0,009	-0,154
-199,563	153,362	-0,054	-0,052
-198,548	-200,000	0,012	0,163
-197,533	-139,305	0,146	0,011
-196,519	-130,702	-0,040	0,004
-195,504	-200,000	-0,038	0,138
-194,490	-52,135	-0,209	-0,068
-193,475	67,373	-0,027	-0,020
-192,460	-47,431	0,064	0,022
-191,446	-121,773	0,030	0,004
-190,431	800,000	0,050	0,100
-189,417	-106,177	-0,100	-0,016
-188,402	-200,000	-0,006	-0,042
-187,387	-200,000	-0,018	-0,121
-186,373	-97,846	-0,060	0,011
-185,358	-124,788	0,060	-0,007
-184,344	-200,000	0,022	-0,098
-183,329	-134,118	0,031	0,003
-182,315	-200,000	-0,007	0,062
-181,300	-94,931	-0,077	0,015
-180,285	-200,000	-0,001	-0,036
-179,271	-78,721	-0,092	-0,022
-178,256	-200,000	-0,011	-0,078
-177,242	-200,000	-0,001	0,044
-176,227	584,637	-0,070	0,122
-175,212	-54,774	-0,055	-0,017
-174,198	329,548	-0,052	-0,071
-173,183	-61,319	-0,095	0,028
-172,169	363,727	0,042	0,060
-171,154	800,000	0,052	0,131
-170,139	278,765	0,096	0,122
-169,125	-32,202	0,078	-0,031
-168,110	-146,047	0,130	0,008
-167,096	128,065	-0,087	0,078
-166,081	733,922	-0,112	-0,214
-165,066	35,808	-0,096	0,060
-164,052	800,000	-0,036	0,076
-163,037	4,524	-0,031	0,016
-162,023	206,809	0,101	0,111
-161,008	800,000	0,047	0,126
-159,993	-200,000	-0,036	-0,141
-158,979	68,868	-0,089	-0,065
-157,964	-200,000	0,005	-0,095
-156,950	-45,091	-0,030	0,010
-155,935	800,000	-0,015	0,032
-154,920	157,292	-0,039	0,038
-153,906	-200,000	0,013	0,140
-152,891	-200,000	0,016	0,198
-151,877	-200,000	0,005	-0,089
-150,862	-118,388	0,088	-0,011
-149,847	-200,000	0,004	-0,084
-148,833	696,297	0,035	-0,066
-147,818	-200,000	-0,013	0,073
-146,804	180,440	-0,025	0,026
-145,789	463,964	0,038	-0,060
-144,775	72,370	0,058	0,042
-143,760	800,000	-0,011	-0,031
-142,745	-43,744	0,157	-0,056
-141,731	-200,000	0,011	-0,111
-140,716	47,142	-0,087	0,057
-139,702	153,392	0,109	0,106
-138,687	96,940	-0,067	0,054
-137,672	-200,000	0,003	0,070
-136,658	-200,000	-0,003	-0,023
-135,643	61,548	0,041	0,029
-134,629	-200,000	-0,019	0,106
-133,614	792,034	-0,058	0,113
-132,599	195,954	0,034	-0,037
-131,585	65,367	0,094	0,067
-130,570	-70,665	-0,084	0,022
-129,556	-200,000	-0,017	-0,160
-128,541	679,247	-0,059	-0,110
-127,526	800,000	0,038	-0,082
-126,512	87,552	-0,067	0,053
-125,497	-29,660	0,119	0,048
-124,483	175,892	0,034	0,035
-123,468	800,000	0,021	-0,051
-122,453	288,721	-0,051	-0,066
-121,439	-41,914	0,062	-0,022
-120,424	-31,892	-0,076	-0,030
-119,410	-40,518	0,082	-0,030
-118,395	-117,549	0,118	0,015
-117,380	800,000	-0,057	0,142
-116,366	369,536	-0,043	0,062
-115,351	-200,000	0,009	-0,147
-114,337	376,714	-0,117	-0,169
-113,322	-200,000	-0,003	0,012
-112,307	37,304	0,093	0,058
-111,293	-76,247	-0,036	-0,009
-110,278	800,000	-0,098	0,196
-109,264	-200,000	0,013	0,061
-108,249	156,063	-0,089	-0,087
-107,234	22,826	0,065	0,038
-106,220	24,533	0,107	0,062
-105,205	-200,000	0,022	0,098
-104,191	71,450	0,088	0,064
-103,176	800,000	-0,051	0,159
-102,162	-200,000	0,004	0,174
-101,147	566,386	-0,013	-0,023
-100,132	230,611	-0,035	0,040
-99,118	-200,000	0,014	0,065
-98,103	268,149	-0,014	0,017
-97,089	-200,000	0,049	0,172
-96,074	-200,000	0,023	0,084
-95,059	181,683	0,059	0,061
-94,045	3,270	-0,062	-0,032
-93,030	-200,000	0,005	0,017
-92,016	800,000	-0,030	0,080
-91,001	-50,833	0,087	-0,029
-89,986	-200,000	0,034	0,183
-88,972	458,700	0,034	-0,054
-87,957	-200,000	0,007	0,189
-86,943	393,659	-0,030	0,044
-85,928	22,129	0,047	0,027
-84,913	41,363	-0,079	-0,051
-83,899	800,000	0,031	-0,082
-82,884	-4,327	0,165	0,080
-81,870	449,452	-0,098	0,154
-80,855	-200,000	-0,006	-0,039
-79,840	-200,000	0,028	-0,101
-78,826	-200,000	0,029	-0,131
-77,811	-200,000	0,001	-0,022
-76,797	800,000	0,054	-0,129
-75,782	55,661	0,089	0,061
-74,767	-8,375	0,120	0,057
-73,753	-168,207	0,062	0,002
-72,738	-200,000	-0,008	0,118
-71,724	-200,000	0,003	0,069
-70,709	-200,000	-0,016	-0,051
-69,694	800,000	-0,028	-0,075
-68,680	344,899	-0,023	-0,032
-67,665	-134,865	0,039	0,003
-66,651	11,163	-0,064	-0,034
-65,636	-129,623	-0,109	0,011
-64,622	203,813	-0,069	-0,075
-63,607	377,288	-0,056	0,081
-62,592	-10,659	-0,088	-0,041
-61,578	-36,767	-0,173	0,065
-60,563	-7,076	0,078	0,037
-59,549	800,000	-0,028	0,069
-58,534	35,871	-2,025	-1,254
-57,519	571,516	-1,241	-2,141
-56,505	-200,000	-0,228	-4,450
-55,490	721,812	0,889	1,678
-54,476	800,000	5,208	11,207
-53,461	-200,000	21,695	344,441
-52,446	800,000	763,093	2354,612
-51,432	551,092	1662,929	2827,376
-50,417	72,047	1659,009	1217,109
-49,403	17,365	1532,441	856,319
-48,388	11,361	1456,509	784,876
-47,373	19,507	1447,840	819,218
-46,359	14,904	1436,981	791,182
-45,344	9,619	1432,728	763,668
-44,330	9,665	1430,663	762,758
-43,315	9,618	1428,965	761,600
-42,300	9,637	1427,258	760,750
-41,286	9,681	1425,965	760,240
-40,271	9,615	1424,728	759,235
-39,257	9,570	1423,772	758,483
-38,242	9,661	1422,403	758,154
-37,227	9,651	1421,500	757,594
-36,213	9,686	1420,034	756,950
-35,198	9,646	1419,084	756,226
-34,184	9,666	1418,093	755,758
-33,169	9,605	1416,631	754,665
-32,154	9,626	1415,832	754,308
-31,140	9,640	1414,294	753,524
-30,125	9,648	1413,097	752,893
-29,111	9,628	1412,129	752,252
-28,096	9,641	1410,862	751,608
-27,082	9,591	1409,589	750,668
-26,067	9,556	1408,795	750,051
-25,052	9,593	1407,719	749,623
-24,038	9,617	1406,700	749,161
-23,023	9,614	1405,718	748,593
-22,009	9,603	1404,833	748,042
-20,994	9,609	1403,619	747,394
-19,979	9,573	1402,861	746,793
-18,965	9,546	1401,890	746,122
-17,950	9,544	1400,982	745,599
-16,936	9,582	1400,125	745,289
-15,921	9,499	1399,157	744,358
-14,906	9,498	1398,372	743,909
-13,892	9,566	1397,092	743,513
-12,877	9,557	1396,415	743,079
-11,863	9,489	1395,611	742,309
-10,848	9,499	1394,539	741,753
-9,833	9,453	1393,798	741,117
-8,819	9,435	1392,948	740,554
-7,804	9,416	1392,017	739,942
-6,790	9,423	1390,943	739,375
-5,775	9,432	1389,909	738,836
-4,760	9,406	1388,920	738,160
-3,746	9,459	1387,910	737,840
-2,731	9,431	1387,133	737,269
-1,717	9,412	1386,288	736,703
-0,702	9,362	1384,666	735,583
0,313	13,439	1296,923	707,575
1,327	29,345	687,830	411,223
2,342	46,160	118,712	77,409
3,356	-2,605	16,641	8,186
4,371	14,070	3,497	1,915
5,386	3,430	1,135	0,581
6,400	-200,000	0,122	0,765
7,415	16,095	-0,292	-0,162
8,429	187,739	-0,177	-0,187
9,444	88,635	-0,244	-0,191
10,459	-39,078	-0,383	-0,141
11,473	9,899	-0,155	-0,083
12,488	-68,808	-0,290	-0,078
13,502	86,865	-0,210	-0,163
14,517	29,863	-0,326	-0,195
15,531	93,406	-0,307	-0,244
16,546	26,689	-0,360	-0,212
17,561	203,583	-0,263	-0,286
18,575	-51,359	-0,225	-0,074
19,590	356,155	-0,237	-0,333
20,604	-136,227	-0,358	-0,029
21,619	142,843	-0,468	-0,438
22,634	57,435	-0,446	-0,306
23,648	108,771	-0,407	-0,342
24,663	57,891	-0,409	-0,281
25,677	58,520	-0,402	-0,277
26,692	69,465	-0,291	-0,210
27,707	74,248	-0,304	-0,224
28,721	39,144	-0,475	-0,299
29,736	43,499	-0,432	-0,277
30,750	411,334	-0,291	-0,436
31,765	178,508	-0,302	-0,311
32,780	68,690	-0,391	-0,282
33,794	284,303	-0,214	-0,271
34,809	186,116	-0,261	-0,274
35,823	46,553	-0,439	-0,286
36,838	-14,181	-0,364	-0,165
37,853	75,993	-0,366	-0,272
38,867	308,489	-0,267	-0,352
39,882	44,666	-0,349	-0,225
40,896	1,177	-0,398	-0,200
41,911	53,379	-0,396	-0,266
42,926	109,670	-0,337	-0,283
43,940	170,096	-0,430	-0,433
44,955	119,961	-0,305	-0,265
45,969	62,651	-0,460	-0,323
46,984	123,681	-0,308	-0,272
47,999	-47,689	-0,245	-0,083
49,013	68,493	-0,257	-0,185
50,028	-7,096	-0,361	-0,172
51,042	601,633	-0,261	-0,458
52,057	22,000	-0,351	-0,201
53,071	32,692	-0,234	-0,142
54,086	71,341	-0,306	-0,223
55,101	53,729	-0,258	-0,173
56,115	-2,414	-0,338	-0,165
57,130	127,992	-0,208	-0,186
58,144	-6,847	-0,313	-0,149
59,159	192,949	-0,292	-0,310
60,174	38,514	-0,411	-0,256
61,188	51,204	-0,314	-0,209
62,203	-87,932	-0,314	-0,066
63,217	202,205	-0,296	-0,321
64,232	21,980	-0,296	-0,169
65,247	21,993	-0,343	-0,196
66,261	37,267	-0,334	-0,207
67,276	-19,612	-0,387	-0,167
68,290	259,450	-0,237	-0,287
69,305	195,046	-0,250	-0,266
70,320	-38,919	-0,371	-0,136
71,334	131,434	-0,223	-0,201
72,349	-127,357	-0,312	-0,031
73,363	79,655	-0,242	-0,182
74,378	18,131	-0,339	-0,189
75,393	92,496	-0,274	-0,217
76,407	1,353	-0,381	-0,191
77,422	-9,691	-0,253	-0,118
78,436	74,863	-0,248	-0,183
79,451	90,641	-0,335	-0,263
80,466	-48,369	-0,230	-0,077
81,480	51,856	-0,360	-0,240
82,495	90,249	-0,275	-0,216
83,509	82,706	-0,256	-0,195
84,524	-85,949	-0,274	-0,059
85,539	125,311	-0,202	-0,178
86,553	-36,674	-0,381	-0,143
87,568	-60,731	-0,338	-0,100
88,582	328,991	-0,271	-0,365
89,597	24,205	-0,250	-0,144
90,611	-108,737	-0,278	-0,041
91,626	-30,562	-0,348	-0,137
92,641	-38,660	-0,219	-0,081
93,655	342,335	-0,134	-0,183
94,670	21,522	-0,286	-0,162
95,684	144,023	-0,324	-0,303
96,699	104,173	-0,371	-0,305
97,714	-96,746	-0,102	-0,019
98,728	133,987	-0,304	-0,275
99,743	399,831	-0,167	-0,246
100,757	83,576	-0,329	-0,251
101,772	40,543	-0,318	-0,200
102,787	100,876	-0,294	-0,239
103,801	59,357	-0,218	-0,150
104,816	107,835	-0,186	-0,155
105,830	-16,826	-0,188	0,083
106,845	-127,942	-0,231	0,023
107,860	109,734	-0,245	-0,205
108,874	68,775	-0,325	-0,233
109,889	-19,941	-0,241	-0,104
110,903	-76,422	-0,270	-0,066
111,918	223,832	-0,239	-0,270
112,933	340,484	-0,208	-0,284
113,947	220,953	-0,161	-0,181
114,962	60,623	-0,109	-0,075
115,976	141,099	-0,151	-0,139
116,991	-6,010	-0,315	-0,150
118,006	-102,370	-0,255	0,042
119,020	118,230	-0,254	-0,218
120,035	800,000	-0,040	-0,092
121,049	31,472	-0,198	-0,118
122,064	140,870	-0,185	-0,171
123,079	189,904	-0,204	-0,214
124,093	22,968	-0,379	-0,216
125,108	65,640	-0,278	-0,196
126,122	-65,585	-0,208	-0,058
127,137	64,901	-0,124	0,087
128,151	-67,613	-0,242	-0,066
129,166	-74,337	-0,225	-0,056
130,181	0,051	-0,343	-0,170
131,195	41,303	-0,250	-0,158
132,210	180,915	-0,241	-0,247
133,224	-80,866	-0,339	-0,078
134,239	50,306	-0,340	-0,224
135,254	24,856	-0,174	-0,100
136,268	135,256	-0,212	-0,192
137,283	14,912	-0,313	-0,170
138,297	216,059	-0,289	-0,321
139,312	-18,083	-0,313	-0,136
140,327	257,640	-0,285	-0,342
141,341	46,578	-0,307	-0,198
142,356	-116,457	-0,185	-0,024
143,370	393,228	-0,137	-0,199
144,385	6,947	-0,202	-0,104
145,400	125,708	-0,217	-0,191
146,414	57,543	-0,262	-0,178
147,429	175,169	-0,196	-0,198
148,443	27,873	-0,279	-0,163
149,458	22,424	-0,109	-0,062
150,473	81,168	-0,173	-0,130
151,487	50,591	-0,310	-0,204
152,502	47,426	-0,241	-0,156
153,516	-5,966	-0,228	-0,108
154,531	53,603	-0,242	-0,161
155,546	168,608	-0,126	-0,125
156,560	71,836	-0,167	-0,121
157,575	161,013	-0,212	-0,206
158,589	-125,424	-0,160	-0,017
159,604	6,819	-0,242	-0,125
160,619	-55,325	-0,342	-0,106
161,633	738,896	-0,092	-0,172
162,648	-78,815	-0,304	-0,072
163,662	-102,894	-0,274	-0,045
164,677	648,489	-0,053	-0,094
165,692	52,666	-0,232	-0,154
166,706	-14,656	-0,212	-0,095
167,721	123,108	-0,237	-0,206
168,735	240,726	-0,165	-0,192
169,750	124,447	-0,160	-0,140
170,764	199,945	-0,201	-0,215
171,779	71,652	-0,234	-0,169
172,794	-1,876	-0,115	-0,056
173,808	-113,149	-0,203	0,027
174,823	-1,888	-0,258	-0,125
175,837	42,084	-0,286	-0,180
176,852	23,401	-0,188	-0,107
177,867	87,801	-0,222	-0,170
178,881	-1,478	-0,398	-0,194
179,896	-2,987	-0,242	-0,117
180,910	177,519	-0,173	-0,175
181,925	208,485	-0,257	-0,280
182,940	146,236	-0,273	-0,254
183,954	96,272	-0,179	-0,142
184,969	-113,025	-0,185	0,025
185,983	800,000	-0,097	-0,274
186,998	132,693	-0,289	-0,259
188,013	-73,228	-0,255	-0,064
189,027	638,632	-0,129	-0,228
190,042	196,894	-0,281	-0,298
191,056	-151,080	-0,240	-0,012
192,071	-7,025	-0,227	-0,107
193,086	27,578	-0,151	-0,088
194,100	-46,358	-0,242	-0,082
195,115	82,745	-0,305	-0,230
196,129	800,000	-0,068	-0,142
197,144	18,743	-0,238	-0,132
198,159	-113,986	-0,207	-0,027
199,173	-151,527	-0,231	0,012
200,188	-82,801	-0,271	0,060
201,202	-10,565	-0,118	-0,054
202,217	174,158	-0,284	-0,284
203,232	75,490	-0,224	-0,164
204,246	384,132	-0,151	-0,216
205,261	79,352	-0,113	-0,084
206,275	-9,859	-0,161	-0,074
207,290	212,312	-0,173	-0,189
208,304	-64,172	-0,288	-0,081
209,319	32,180	-0,164	-0,098
210,334	800,000	-0,154	-0,298
211,348	32,943	-0,223	-0,133
212,363	800,000	-0,095	-0,256
213,377	211,695	-0,094	-0,103
214,392	-180,907	-0,241	-0,003
215,407	-134,032	-0,169	-0,014
216,421	-68,925	-0,244	-0,065
217,436	-200,000	0,007	-0,218
218,450	495,016	-0,223	-0,356
219,465	448,901	-0,187	-0,286
220,480	267,641	-0,143	-0,173
221,494	-125,991	-0,183	0,019
222,509	56,852	-0,228	-0,153
223,523	-200,000	-0,032	-0,230
224,538	165,146	-0,139	-0,136
225,553	48,576	-0,275	-0,178
226,567	9,313	-0,249	-0,130
227,582	559,454	-0,081	-0,136
228,596	106,201	-0,138	-0,113
229,611	-64,348	-0,173	-0,048
230,626	-200,000	-0,047	-0,160
231,640	122,209	-0,136	0,117
232,655	259,971	-0,134	-0,160
233,669	52,462	-0,228	-0,150
234,684	294,523	-0,160	-0,203
235,699	263,287	-0,156	-0,187
236,713	-200,000	-0,035	-0,131
237,728	211,059	-0,194	-0,211
238,742	123,802	-0,077	-0,067
239,757	-87,224	-0,234	-0,049
240,772	119,934	-0,180	-0,154
241,786	165,807	-0,157	-0,154
242,801	-200,000	-0,045	-0,189
243,815	16,843	-0,099	-0,054
244,830	127,121	-0,121	-0,106
245,844	-16,210	-0,136	-0,059
246,859	-48,233	-0,260	-0,086
247,874	2,323	-0,233	-0,116
248,888	459,422	-0,124	-0,190
249,903	213,404	-0,191	-0,209
250,917	104,528	-0,116	-0,094
251,932	-46,608	-0,237	-0,080
252,947	136,853	-0,249	-0,225
253,961	169,668	-0,212	-0,209
254,976	191,780	-0,251	-0,262
255,990	138,392	-0,085	-0,077
257,005	-127,252	-0,217	-0,022
258,020	74,192	-0,107	-0,078
259,034	-109,824	-0,129	-0,018
260,049	54,007	-0,081	0,054
261,063	26,482	-0,063	-0,036
262,078	800,000	-0,077	-0,200
263,093	32,513	-0,138	-0,082
264,107	-39,681	-0,140	-0,050
265,122	326,533	-0,090	-0,119
266,136	-39,132	-0,136	-0,049
267,151	-169,132	-0,192	0,005
268,166	-59,590	-0,253	-0,074
269,180	596,814	-0,124	-0,212
270,195	-13,061	-0,308	-0,137
271,209	-57,994	-0,193	0,058
272,224	228,271	-0,187	-0,211
273,239	132,102	-0,145	-0,129
274,253	35,979	-0,238	-0,144
275,268	-64,355	-0,190	-0,053
276,282	200,055	-0,166	-0,175
277,297	-48,820	-0,158	-0,052
278,312	128,980	-0,226	-0,199
279,326	65,929	-0,152	-0,106
280,341	89,940	-0,094	-0,072
281,355	-22,375	-0,099	-0,041
282,370	-97,247	-0,163	-0,029
283,384	-28,534	-0,263	-0,104
284,399	151,383	-0,165	-0,154
285,414	-72,415	-0,199	-0,050
286,428	-3,995	-0,197	-0,094
287,443	71,519	-0,127	-0,091
288,457	-14,289	-0,076	-0,033
289,472	109,918	-0,072	-0,059
290,487	-164,227	-0,112	-0,003
291,501	-169,766	-0,136	0,003
292,516	-7,071	-0,208	-0,097
293,530	-133,566	-0,143	-0,012
294,545	-20,260	-0,078	-0,033
295,560	37,058	-0,147	-0,089
296,574	31,313	-0,202	-0,119
297,589	-65,085	-0,208	-0,057
298,603	-59,626	-0,210	-0,061
299,618	76,632	-0,233	-0,169
300,633	140,176	-0,256	-0,232
301,647	-20,687	-0,205	-0,086
302,662	121,846	-0,190	-0,163
303,676	-128,136	0,055	-0,005
304,691	800,000	-0,070	-0,159
305,706	343,008	-0,122	-0,164
306,720	-6,552	-0,175	-0,082
307,735	20,339	-0,214	-0,119
308,749	-78,046	-0,077	-0,018
309,764	52,149	-0,085	-0,056
310,779	610,252	-0,050	-0,086
311,793	-112,239	-0,119	-0,016
312,808	172,904	-0,171	-0,169
313,822	595,989	-0,076	-0,130
314,837	416,118	-0,119	-0,175
315,852	800,000	-0,046	-0,108
316,866	157,279	-0,184	-0,174
317,881	81,534	-0,162	-0,120
318,895	96,947	-0,188	-0,148
319,910	753,961	-0,023	-0,043
320,925	-106,010	-0,221	-0,034
321,939	-144,294	-0,166	-0,010
322,954	370,817	-0,057	-0,080
323,968	-200,000	0,009	-0,059
324,983	41,338	-0,106	0,066
325,997	655,517	-0,066	-0,117
327,012	-85,018	-0,201	-0,043
328,027	249,812	-0,128	-0,149
329,041	-96,231	-0,253	-0,045
330,056	68,230	-0,036	-0,025
331,070	27,738	-0,043	-0,025
332,085	32,071	-0,017	0,010
333,100	-109,389	-0,127	-0,018
334,114	-73,513	-0,105	0,026
335,129	168,103	-0,124	-0,121
336,143	594,693	-0,111	-0,189
337,158	-22,585	-0,157	0,065
338,173	-68,832	-0,195	-0,051
339,187	800,000	-0,069	-0,153
340,202	-46,405	-0,167	-0,056
341,216	-62,607	-0,214	0,060
342,231	-94,312	-0,100	0,019
343,246	-59,212	-0,149	-0,044
344,260	399,267	-0,097	-0,140
345,275	-72,783	-0,095	0,024
346,289	-75,306	-0,140	0,034
347,304	-78,663	-0,120	-0,028
348,319	-49,223	-0,216	-0,070
349,333	13,647	-0,137	-0,073
350,348	-26,655	-0,161	-0,064
351,362	72,663	-0,241	-0,172
352,377	267,468	-0,154	-0,185
353,392	197,791	-0,165	-0,172
354,406	-45,880	-0,097	-0,032
355,421	207,167	1305,832	1394,088
356,435	159,358	1465,445	1394,571
