DTS Sentinel unit serial number:	SN410029Multiplexer serial number:	ORYXHardware model number:	OX2-SRSoftware version number:	ORYX F/W v4,00 Oryx Data Collector v3.7.2.0data status	okinstallation	B3 Nyhavnadifferential loss correction	single-endedforward channel	channel 1reverse channel	N/Adate	2023/12/03time	13:27:30forward acquisition time	300,00reverse acquisition time	0,00gamma	499,1914k internal	0,3200k external	0,3200temperature offset calibration	1,0000default loss term (dB/km)	0,3820temperature slope calibration	1,0000multiplexer offset coefficient	1,0000multiplexer slope coefficient	1,0000fibre end	0,00T internal ref (°C)	15,02T ext. ref 1 (°C)	1,25T ext. ref 2 (°C)	1,23length (m)	temperature (°C)	Stokes	anti-Stokes-744,400	396,160	-0,153	-0,233
-743,385	-200,000	0,002	0,290
-742,371	428,733	-0,196	-0,309
-741,356	800,000	0,114	0,347
-740,342	17,747	-0,280	-0,161
-739,327	-200,000	0,072	0,350
-738,312	606,791	-0,178	-0,324
-737,298	-200,000	-0,004	0,292
-736,283	104,728	-0,201	-0,172
-735,269	-200,000	-0,023	0,370
-734,254	47,323	-0,286	-0,194
-733,239	44,539	-0,318	0,212
-732,225	295,447	-0,153	-0,204
-731,210	800,000	0,052	0,166
-730,196	-125,339	-0,039	0,004
-729,181	-122,986	-0,132	-0,015
-728,167	-200,000	-0,023	0,115
-727,152	-200,000	0,017	0,089
-726,137	-200,000	-0,005	0,105
-725,123	-28,043	-0,127	0,053
-724,108	451,593	-0,070	-0,113
-723,094	291,304	-0,093	-0,123
-722,079	-200,000	0,002	-0,073
-721,064	119,853	-0,034	0,031
-720,050	0,742	-0,097	-0,050
-719,035	-200,000	0,015	-0,115
-718,021	0,383	-0,058	-0,030
-717,006	-154,070	-0,153	0,007
-715,991	-104,793	-0,085	-0,014
-714,977	-200,000	-0,012	-0,046
-713,962	-200,000	0,001	-0,032
-712,948	259,814	-0,027	0,034
-711,933	-105,904	0,088	-0,014
-710,918	232,642	-0,140	0,167
-709,904	-54,244	-0,194	-0,063
-708,889	555,302	-0,057	-0,100
-707,875	-69,442	-0,081	0,022
-706,860	-200,000	-0,015	-0,228
-705,845	-200,000	-0,007	-0,122
-704,831	-200,000	-0,023	0,129
-703,816	78,925	-0,089	0,069
-702,802	-103,616	-0,073	0,012
-701,787	-165,308	-0,075	-0,002
-700,772	-98,106	-0,022	-0,004
-699,758	300,860	0,057	0,077
-698,743	-164,607	-0,075	0,002
-697,729	800,000	0,006	-0,012
-696,714	-200,000	0,000	0,024
-695,699	-17,537	-0,121	-0,055
-694,685	-36,819	0,061	-0,024
-693,670	-200,000	0,045	-0,246
-692,656	-120,979	0,202	0,024
-691,641	-108,224	-0,041	0,006
-690,627	800,000	-0,071	0,190
-689,612	-200,000	0,024	0,154
-688,597	105,476	0,118	-0,101
-687,583	126,714	-0,079	0,072
-686,568	27,741	-0,065	-0,040
-685,554	343,062	-0,060	-0,086
-684,539	-102,574	0,052	-0,009
-683,524	162,781	-0,069	0,070
-682,510	-73,894	0,103	0,027
-681,495	162,073	0,034	-0,035
-680,481	493,423	-0,072	-0,120
-679,466	800,000	-0,084	-0,187
-678,451	-200,000	0,019	-0,098
-677,437	-97,961	-0,172	0,032
-676,422	800,000	-0,049	-0,128
-675,408	265,521	-0,042	-0,054
-674,393	253,805	0,059	-0,074
-673,378	520,462	-0,040	0,068
-672,364	478,109	-0,087	-0,144
-671,349	-200,000	-0,005	0,021
-670,335	72,939	0,068	-0,051
-669,320	-2,560	0,040	0,020
-668,305	559,292	0,069	0,122
-667,291	-200,000	0,014	0,056
-666,276	-90,792	-0,021	-0,004
-665,262	62,391	-0,064	-0,046
-664,247	784,486	-0,022	-0,045
-663,232	-200,000	-0,020	0,120
-662,218	-175,751	0,088	0,002
-661,203	14,813	-0,053	0,030
-660,189	-200,000	-0,023	-0,095
-659,174	466,787	-0,043	-0,071
-658,159	-48,963	0,048	-0,017
-657,145	-200,000	-0,005	-0,030
-656,130	-15,824	0,072	0,033
-655,116	553,187	-0,042	0,073
-654,101	63,921	0,063	0,046
-653,086	59,527	-0,032	0,023
-652,072	-52,707	-0,126	-0,042
-651,057	452,983	-0,064	-0,102
-650,043	77,595	0,125	0,097
-649,028	7,778	0,028	0,015
-648,014	267,831	0,047	0,060
-646,999	-109,779	0,062	-0,009
-645,984	222,574	-0,109	0,127
-644,970	327,478	0,034	0,047
-643,955	-47,313	0,031	-0,011
-642,941	47,289	-0,154	0,104
-641,926	158,534	0,084	-0,084
-640,911	-52,899	0,110	0,036
-639,897	-200,000	0,008	-0,032
-638,882	800,000	-0,021	0,048
-637,868	120,779	0,069	0,062
-636,853	-135,822	-0,121	0,010
-635,838	-29,744	-0,022	-0,009
-634,824	-200,000	-0,026	0,105
-633,809	272,571	-0,015	-0,019
-632,795	-200,000	0,006	0,039
-631,780	-169,343	0,068	-0,002
-630,765	-64,283	-0,033	0,010
-629,751	16,356	-0,043	-0,025
-628,736	57,136	0,024	-0,017
-627,722	281,199	0,015	-0,020
-626,707	-52,079	-0,080	-0,027
-625,692	187,368	0,056	-0,060
-624,678	-42,305	0,019	-0,007
-623,663	6,886	0,107	-0,057
-622,649	287,512	-0,095	0,125
-621,634	44,468	-0,177	0,118
-620,619	201,142	-0,065	0,072
-619,605	-200,000	0,005	-0,149
-618,590	20,526	0,085	0,049
-617,576	-101,014	0,103	-0,018
-616,561	-11,488	0,107	-0,051
-615,546	-200,000	-0,007	-0,115
-614,532	-113,021	-0,025	-0,004
-613,517	-39,804	0,039	0,015
-612,503	-87,229	-0,045	-0,010
-611,488	-12,041	-0,067	-0,032
-610,474	141,750	0,089	-0,085
-609,459	63,599	-0,063	-0,045
-608,444	-200,000	0,010	0,043
-607,430	193,012	-0,133	0,146
-606,415	191,164	-0,083	0,091
-605,401	-200,000	0,010	0,046
-604,386	-74,264	0,114	-0,030
-603,371	-200,000	-0,008	0,040
-602,357	-68,224	0,050	0,014
-601,342	284,346	0,107	-0,139
-600,328	85,177	-0,075	-0,060
-599,313	-16,613	-0,022	-0,010
-598,298	800,000	-0,024	0,050
-597,284	372,440	0,050	-0,074
-596,269	-12,162	-0,064	-0,030
-595,255	71,140	-0,108	0,081
-594,240	800,000	-0,014	-0,042
-593,225	398,330	0,020	-0,030
-592,211	30,599	-0,163	0,101
-591,196	457,665	0,036	-0,058
-590,182	-200,000	0,021	-0,120
-589,167	800,000	0,047	0,117
-588,152	153,975	-0,103	0,102
-587,138	-200,000	0,026	0,147
-586,123	253,725	-0,074	-0,092
-585,109	-200,000	-0,010	-0,053
-584,094	-61,063	0,079	0,024
-583,079	-200,000	0,009	0,064
-582,065	388,623	0,066	0,100
-581,050	-125,614	0,080	0,009
-580,036	800,000	-0,024	0,060
-579,021	-200,000	-0,014	-0,086
-578,006	800,000	-0,038	0,086
-576,992	-200,000	0,023	-0,156
-575,977	176,804	0,105	-0,110
-574,963	-72,433	-0,068	0,018
-573,948	-109,856	0,043	0,007
-572,934	-200,000	-0,021	0,151
-571,919	-42,455	0,095	-0,035
-570,904	-13,936	-0,027	0,013
-569,890	140,653	0,082	-0,078
-568,875	-200,000	0,009	-0,115
-567,861	-200,000	0,019	0,102
-566,846	14,546	-0,094	0,053
-565,831	54,235	0,027	0,019
-564,817	-43,491	-0,071	-0,026
-563,802	-39,807	0,037	0,014
-562,788	369,270	-0,043	-0,062
-561,773	-189,630	-0,125	0,001
-560,758	-200,000	0,010	-0,074
-559,744	-50,844	0,041	-0,014
-558,729	29,208	-0,036	-0,022
-557,715	800,000	0,025	0,051
-556,700	-85,386	-0,069	0,015
-555,685	500,915	-0,037	-0,062
-554,671	-37,468	0,047	-0,018
-553,656	-200,000	-0,031	0,126
-552,642	-48,618	0,089	-0,031
-551,627	800,000	-0,039	0,090
-550,612	73,359	0,043	0,033
-549,598	800,000	0,029	-0,092
-548,583	-11,095	-0,029	-0,014
-547,569	-200,000	-0,006	-0,063
-546,554	-41,710	0,065	-0,024
-545,539	-200,000	-0,040	-0,144
-544,525	321,116	0,049	-0,067
-543,510	269,305	-0,048	0,061
-542,496	134,930	0,031	-0,029
-541,481	-118,416	-0,144	-0,018
-540,466	338,320	0,011	-0,015
-539,452	1,164	-0,059	0,030
-538,437	-200,000	-0,006	0,035
-537,423	-200,000	0,012	0,084
-536,408	368,520	-0,041	-0,060
-535,393	-200,000	-0,027	-0,089
-534,379	-35,963	-0,058	0,023
-533,364	-146,268	-0,089	0,006
-532,350	-83,755	0,134	-0,031
-531,335	18,753	0,120	0,069
-530,321	78,218	-0,077	-0,059
-529,306	84,676	-0,057	-0,045
-528,291	800,000	-0,072	-0,150
-527,277	-79,469	-0,035	0,009
-526,262	-200,000	0,015	0,068
-525,248	800,000	0,037	-0,092
-524,233	-68,499	0,164	-0,046
-523,218	-200,000	0,027	0,092
-522,204	-200,000	0,006	0,028
-521,189	-154,810	0,028	0,001
-520,175	110,288	0,019	-0,016
-519,160	-200,000	-0,002	-0,037
-518,145	59,350	-0,058	0,041
-517,131	-200,000	0,018	-0,069
-516,116	-200,000	0,002	-0,055
-515,102	-200,000	-0,001	-0,129
-514,087	517,256	-0,015	-0,025
-513,072	-181,392	0,060	-0,001
-512,058	280,587	-0,052	-0,067
-511,043	102,888	-0,074	0,063
-510,029	-200,000	0,017	0,061
-509,014	-41,295	0,066	0,025
-507,999	-48,911	-0,042	-0,015
-506,985	-200,000	-0,012	-0,098
-505,970	-35,620	0,068	0,026
-504,956	-174,761	0,074	-0,001
-503,941	-53,091	-0,115	-0,038
-502,926	800,000	0,039	0,084
-501,912	800,000	-0,006	-0,019
-500,897	-54,139	-0,084	-0,027
-499,883	99,618	0,076	-0,063
-498,868	-200,000	-0,012	-0,113
-497,853	-19,186	0,028	0,013
-496,839	205,118	-0,057	-0,064
-495,824	-107,480	0,060	0,009
-494,810	206,825	0,027	-0,031
-493,795	-129,024	-0,097	0,010
-492,781	-40,562	0,056	-0,021
-491,766	87,107	0,070	0,056
-490,751	800,000	0,030	-0,075
-489,737	-148,258	0,016	-0,001
-488,722	-58,532	-0,113	-0,035
-487,708	127,571	0,104	0,095
-486,693	64,391	-0,039	0,028
-485,678	294,770	-0,067	0,089
-484,664	-200,000	0,036	0,119
-483,649	-154,552	-0,070	-0,003
-482,635	27,885	0,078	-0,047
-481,620	348,872	0,071	0,101
-480,605	800,000	-0,085	0,187
-479,591	-200,000	0,002	0,015
-478,576	-200,000	0,001	0,080
-477,562	-200,000	0,028	-0,103
-476,547	-200,000	0,013	-0,116
-475,532	-200,000	0,016	0,083
-474,518	99,041	-0,154	-0,128
-473,503	60,728	0,026	-0,018
-472,489	-140,225	0,027	-0,002
-471,474	57,097	0,033	0,023
-470,459	121,776	-0,189	-0,170
-469,445	47,004	-0,101	-0,068
-468,430	128,019	-0,045	0,042
-467,416	-89,552	0,048	-0,010
-466,401	800,000	0,065	0,160
-465,386	110,503	0,034	0,029
-464,372	-200,000	0,017	0,097
-463,357	800,000	-0,049	-0,136
-462,343	-200,000	0,020	-0,199
-461,328	164,551	-0,112	-0,113
-460,313	173,246	-0,038	0,039
-459,299	-200,000	-0,023	-0,085
-458,284	172,748	-0,037	-0,039
-457,270	-6,803	-0,118	0,058
-456,255	-81,162	-0,020	-0,005
-455,241	-48,605	-0,041	0,014
-454,226	-102,792	-0,114	-0,019
-453,211	131,632	0,141	-0,131
-452,197	-1,764	0,096	-0,049
-451,182	-200,000	-0,007	-0,028
-450,168	-73,676	0,052	0,014
-449,153	-200,000	-0,011	-0,203
-448,138	-200,000	-0,009	-0,134
-447,124	-14,014	0,032	-0,015
-446,109	111,288	-0,109	0,094
-445,095	119,166	0,100	0,089
-444,080	-85,486	-0,052	-0,012
-443,065	685,278	-0,046	0,086
-442,051	23,954	-0,168	-0,099
-441,036	205,818	-0,060	0,067
-440,022	17,405	0,070	0,040
-439,007	-200,000	-0,032	-0,177
-437,992	189,808	-0,113	0,122
-436,978	49,219	0,080	-0,054
-435,963	215,956	-0,045	0,052
-434,949	24,655	0,119	0,070
-433,934	800,000	0,071	-0,196
-432,919	-53,043	-0,045	-0,015
-431,905	-102,838	0,062	0,011
-430,890	-200,000	-0,021	0,107
-429,876	-86,994	0,086	0,019
-428,861	-37,109	-0,068	-0,026
-427,846	91,002	0,120	0,096
-426,832	130,504	-0,107	-0,098
-425,817	105,507	0,101	0,085
-424,803	-200,000	-0,015	-0,124
-423,788	-134,147	0,129	-0,011
-422,773	469,976	0,053	-0,086
-421,759	-200,000	0,023	-0,176
-420,744	-38,587	-0,033	-0,013
-419,730	272,964	-0,044	-0,057
-418,715	205,850	-0,070	-0,078
-417,701	-200,000	-0,006	-0,088
-416,686	217,993	0,055	0,063
-415,671	-43,958	0,157	-0,057
-414,657	727,615	0,063	-0,121
-413,642	-178,480	0,102	0,002
-412,628	62,115	-0,119	-0,085
-411,613	800,000	-0,030	-0,070
-410,598	432,259	-0,046	-0,072
-409,584	-200,000	-0,007	0,075
-408,569	93,061	-0,005	0,004
-407,555	252,101	-0,083	0,101
-406,540	-200,000	0,004	-0,044
-405,525	-28,312	0,132	-0,055
-404,511	800,000	0,054	0,147
-403,496	105,923	0,104	-0,089
-402,482	800,000	0,050	-0,100
-401,467	-4,374	-0,053	0,026
-400,452	137,373	0,107	0,100
-399,438	380,229	0,043	-0,063
-398,423	164,943	-0,116	0,117
-397,409	-200,000	0,009	0,077
-396,394	223,867	-0,096	-0,112
-395,379	-200,000	-0,004	0,100
-394,365	-172,572	0,066	-0,001
-393,350	-200,000	-0,018	0,077
-392,336	-100,579	0,058	-0,010
-391,321	613,907	-0,092	-0,166
-390,306	363,108	-0,087	-0,125
-389,292	25,215	0,035	-0,021
-388,277	1,638	-0,070	0,036
-387,263	291,304	0,039	0,051
-386,248	-200,000	0,007	-0,038
-385,233	135,607	0,021	0,019
-384,219	-153,979	-0,152	-0,007
-383,204	-104,857	-0,145	0,024
-382,190	20,368	0,050	0,029
-381,175	332,353	-0,069	0,096
-380,160	-64,644	0,070	0,020
-379,146	141,714	0,040	-0,038
-378,131	-55,337	0,076	-0,024
-377,117	157,621	-0,038	-0,038
-376,102	-131,677	0,103	-0,010
-375,088	80,685	-0,075	-0,058
-374,073	-0,225	-0,172	0,087
-373,058	-82,826	0,164	0,038
-372,044	-200,000	-0,033	0,157
-371,029	-200,000	0,005	0,032
-370,015	-200,000	-0,007	0,060
-369,000	-200,000	0,033	-0,166
-367,985	800,000	-0,014	0,042
-366,971	800,000	0,028	0,061
-365,956	-165,367	-0,124	-0,004
-364,942	525,747	0,014	0,023
-363,927	-130,586	0,105	-0,010
-362,912	-200,000	-0,005	-0,124
-361,898	248,823	-0,118	0,143
-360,883	-200,000	-0,005	-0,084
-359,869	800,000	0,050	-0,137
-358,854	-200,000	-0,033	0,170
-357,839	79,629	0,131	0,100
-356,825	-126,446	-0,159	-0,017
-355,810	376,891	-0,091	0,134
-354,796	800,000	-0,022	-0,064
-353,781	-132,137	-0,079	0,007
-352,766	74,272	-0,090	-0,068
-351,752	-200,000	-0,009	0,112
-350,737	-100,268	0,171	0,030
-349,723	-128,302	-0,132	0,013
-348,708	378,902	-0,139	-0,205
-347,693	86,218	0,034	0,027
-346,679	-83,474	-0,141	-0,032
-345,664	2,391	-0,053	-0,028
-344,650	800,000	0,039	0,091
-343,635	144,291	0,017	-0,016
-342,620	-24,280	0,107	0,046
-341,606	45,352	0,058	0,038
-340,591	-200,000	0,021	-0,143
-339,577	696,831	-0,053	0,101
-338,562	-200,000	0,059	-0,197
-337,548	-53,763	0,034	-0,011
-336,533	18,204	0,144	0,082
-335,518	376,983	-0,069	0,101
-334,504	213,905	-0,015	-0,017
-333,489	-144,254	-0,016	0,001
-332,475	-200,000	-0,009	0,081
-331,460	442,542	0,043	-0,068
-330,445	37,635	-0,099	-0,063
-329,431	98,281	0,133	0,109
-328,416	-69,312	0,158	-0,043
-327,402	64,455	-0,066	-0,048
-326,387	-200,000	0,011	0,078
-325,372	800,000	0,021	0,056
-324,358	368,084	-0,081	-0,118
-323,343	-200,000	0,012	0,080
-322,329	-156,607	0,068	0,003
-321,314	-200,000	-0,017	0,149
-320,299	-132,577	0,102	-0,009
-319,285	229,042	0,028	-0,033
-318,270	-79,507	-0,240	-0,058
-317,256	142,367	-0,056	-0,054
-316,241	90,881	0,045	0,036
-315,226	-117,848	0,032	-0,004
-314,212	800,000	-0,039	0,098
-313,197	800,000	0,006	-0,014
-312,183	800,000	-0,047	-0,107
-311,168	83,211	-0,062	-0,048
-310,153	199,825	0,109	-0,119
-309,139	64,089	-0,010	0,007
-308,124	-200,000	-0,019	-0,060
-307,110	186,951	0,082	0,088
-306,095	70,465	-0,062	0,046
-305,080	-121,469	0,060	-0,007
-304,066	-57,547	0,087	0,027
-303,051	323,294	-0,093	-0,127
-302,037	800,000	0,025	-0,061
-301,022	800,000	0,026	0,066
-300,008	800,000	-0,015	-0,038
-298,993	-40,802	0,087	-0,032
-297,978	213,296	-0,107	0,122
-296,964	65,864	-0,144	0,104
-295,949	-200,000	0,006	0,079
-294,935	272,540	-0,044	0,056
-293,920	-98,237	0,110	-0,020
-292,905	-200,000	-0,009	-0,053
-291,891	-200,000	0,008	0,034
-290,876	800,000	-0,047	0,128
-289,862	-118,709	0,012	0,002
-288,847	77,224	-0,058	-0,044
-287,832	166,795	0,072	-0,073
-286,818	800,000	0,027	0,064
-285,803	800,000	-0,036	-0,084
-284,789	24,951	0,122	-0,072
-283,774	-5,194	0,077	-0,038
-282,759	38,340	0,144	-0,091
-281,745	-200,000	-0,008	-0,057
-280,730	206,822	-0,033	0,037
-279,716	-200,000	-0,004	0,059
-278,701	19,780	-0,061	0,035
-277,686	646,431	0,030	0,055
-276,672	800,000	0,052	0,104
-275,657	14,540	-0,123	-0,069
-274,643	0,139	0,039	-0,020
-273,628	800,000	0,010	-0,027
-272,613	-170,086	-0,028	-0,001
-271,599	-200,000	0,029	0,115
-270,584	800,000	0,003	0,008
-269,570	523,277	-0,029	0,049
-268,555	800,000	0,046	0,101
-267,540	-109,418	-0,055	-0,008
-266,526	-13,903	-0,120	-0,055
-265,511	-200,000	0,003	0,019
-264,497	36,092	-0,035	0,022
-263,482	228,883	0,026	-0,031
-262,467	33,204	0,082	-0,051
-261,453	199,909	0,034	0,037
-260,438	-200,000	0,009	-0,063
-259,424	-200,000	-0,010	0,170
-258,409	-62,920	-0,099	0,029
-257,395	531,536	0,008	-0,014
-256,380	-200,000	0,030	-0,116
-255,365	84,408	-0,030	0,024
-254,351	68,442	-0,093	-0,068
-253,336	200,152	0,044	-0,048
-252,322	800,000	-0,059	-0,119
-251,307	37,270	-0,054	-0,034
-250,292	341,549	0,116	0,162
-249,278	18,058	-0,119	0,068
-248,263	137,008	0,061	0,057
-247,249	-200,000	0,008	-0,031
-246,234	800,000	-0,020	-0,063
-245,219	247,567	-0,144	-0,174
-244,205	164,415	0,034	-0,034
-243,190	238,107	0,055	0,065
-242,176	-85,442	0,090	-0,020
-241,161	60,972	0,075	-0,053
-240,146	-200,000	0,024	0,096
-239,132	289,167	0,114	0,147
-238,117	-52,965	-0,097	-0,032
-237,103	-200,000	-0,005	-0,048
-236,088	-130,891	-0,074	0,007
-235,073	-73,655	0,156	-0,040
-234,059	198,304	-0,018	0,019
-233,044	8,606	-0,093	0,050
-232,030	610,267	0,021	0,038
-231,015	-34,997	-0,013	0,005
-230,000	-200,000	0,008	-0,162
-228,986	-200,000	-0,018	0,073
-227,971	139,940	-0,013	-0,012
-226,957	34,711	-0,057	0,035
-225,942	-134,286	0,022	0,002
-224,927	-0,372	0,036	-0,018
-223,913	159,297	0,069	-0,068
-222,898	264,537	-0,025	-0,031
-221,884	304,127	-0,071	0,094
-220,869	176,743	0,150	0,156
-219,855	-107,729	0,073	0,011
-218,840	621,463	0,063	0,113
-217,825	-74,375	-0,007	0,002
-216,811	-100,746	-0,154	-0,027
-215,796	406,013	0,042	0,063
-214,782	-200,000	0,005	0,033
-213,767	-73,570	-0,094	-0,024
-212,752	778,106	-0,026	0,051
-211,738	800,000	0,053	0,143
-210,723	-139,317	-0,141	0,011
-209,709	683,297	-0,047	-0,088
-208,694	-13,572	-0,099	0,046
-207,679	-188,630	-0,069	0,001
-206,665	-146,489	-0,055	0,003
-205,650	251,424	0,068	0,082
-204,636	-159,341	0,068	-0,003
-203,621	800,000	0,022	0,046
-202,606	35,967	0,022	-0,014
-201,592	-61,763	-0,111	0,033
-200,577	414,098	0,036	-0,055
-199,563	83,217	0,074	0,057
-198,548	29,750	0,114	0,069
-197,533	170,154	-0,044	0,045
-196,519	-16,759	0,131	0,059
-195,504	141,716	-0,100	-0,094
-194,490	800,000	-0,025	0,070
-193,475	-151,385	0,032	0,002
-192,460	800,000	-0,030	0,068
-191,446	323,100	0,096	0,130
-190,431	276,737	0,006	0,007
-189,417	800,000	-0,016	-0,047
-188,402	800,000	0,038	0,109
-187,387	3,890	-0,036	-0,019
-186,373	65,704	0,062	-0,045
-185,358	800,000	0,058	0,143
-184,344	2,182	0,044	-0,022
-183,329	237,250	0,115	-0,136
-182,315	-149,545	0,036	-0,002
-181,300	11,304	-0,035	-0,019
-180,285	356,339	0,050	-0,070
-179,271	393,595	-0,045	-0,066
-178,256	41,073	0,146	-0,094
-177,242	-66,066	0,109	-0,031
-176,227	53,547	-0,015	-0,010
-175,212	-200,000	-0,008	-0,066
-174,198	89,209	0,092	0,073
-173,183	800,000	0,011	-0,031
-172,169	-52,090	-0,115	-0,038
-171,154	-128,895	0,173	-0,017
-170,139	-200,000	-0,009	0,084
-169,125	-200,000	0,013	0,083
-168,110	110,490	0,048	0,041
-167,096	97,273	-0,033	0,027
-166,081	386,266	-0,040	0,059
-165,066	627,697	0,049	0,089
-164,052	-76,819	-0,020	-0,005
-163,037	-200,000	0,005	-0,024
-162,023	-200,000	0,015	0,085
-161,008	96,326	-0,084	0,068
-159,993	800,000	0,031	-0,093
-158,979	-113,382	-0,016	-0,002
-157,964	65,484	-0,114	-0,082
-156,950	242,324	0,035	0,042
-155,935	-9,099	0,075	0,036
-154,920	131,424	0,090	0,082
-153,906	-200,000	0,007	0,054
-152,891	800,000	0,040	0,094
-151,877	-200,000	-0,022	-0,112
-150,862	259,170	-0,027	-0,034
-149,847	-200,000	-0,018	0,066
-148,833	434,789	-0,025	-0,039
-147,818	-7,638	0,131	0,063
-146,804	-38,355	0,049	-0,018
-145,789	122,694	-0,080	0,071
-144,775	-134,664	-0,106	-0,009
-143,760	90,525	-0,036	-0,029
-142,745	-200,000	-0,008	0,036
-141,731	139,142	0,054	-0,050
-140,716	526,990	0,046	0,077
-139,702	-66,236	0,075	0,021
-138,687	280,256	-0,016	-0,020
-137,672	-70,155	-0,105	-0,028
-136,658	297,298	-0,160	-0,209
-135,643	-37,055	-0,115	-0,044
-134,629	-200,000	0,009	-0,111
-133,614	-200,000	0,030	-0,145
-132,599	-42,106	0,109	-0,039
-131,585	61,545	0,018	0,013
-130,570	800,000	0,017	0,047
-129,556	26,729	0,039	-0,023
-128,541	-18,534	-0,054	-0,024
-127,526	800,000	0,023	-0,055
-126,512	800,000	-0,026	0,076
-125,497	-200,000	0,033	0,145
-124,483	-200,000	-0,027	0,160
-123,468	-200,000	-0,015	-0,153
-122,453	233,884	-0,089	-0,104
-121,439	539,417	-0,048	-0,081
-120,424	148,976	0,104	-0,100
-119,410	-200,000	0,030	0,094
-118,395	5,160	-0,130	-0,068
-117,380	433,884	-0,020	-0,031
-116,366	-153,040	-0,208	0,010
-115,351	800,000	-0,030	-0,091
-114,337	187,309	0,065	-0,069
-113,322	115,969	-0,164	-0,142
-112,307	311,240	0,074	0,099
-111,293	323,210	-0,053	0,072
-110,278	87,138	-0,021	-0,016
-109,264	-200,000	0,015	0,084
-108,249	-163,204	-0,053	-0,002
-107,234	155,346	0,075	0,073
-106,220	271,344	-0,015	0,018
-105,205	-114,673	-0,112	0,015
-104,191	-98,390	0,118	-0,021
-103,176	182,444	-0,075	-0,079
-102,162	92,058	-0,117	0,094
-101,147	491,167	-0,030	0,049
-100,132	800,000	-0,026	-0,060
-99,118	-200,000	-0,021	0,071
-98,103	-99,859	0,031	0,005
-97,089	3,254	0,095	0,049
-96,074	120,973	0,061	0,054
-95,059	-15,837	-0,088	0,039
-94,045	-200,000	-0,025	0,091
-93,030	-111,415	0,073	-0,010
-92,016	-200,000	-0,012	0,089
-91,001	800,000	0,012	0,026
-89,986	-63,078	-0,095	0,028
-88,972	-200,000	0,018	0,139
-87,957	677,249	0,039	0,072
-86,943	-200,000	-0,023	-0,119
-85,928	-200,000	-0,028	-0,091
-84,913	46,130	-0,044	-0,029
-83,899	800,000	-0,044	-0,117
-82,884	-96,762	0,093	-0,017
-81,870	538,699	0,089	0,150
-80,855	-81,613	0,084	-0,020
-79,840	800,000	0,011	0,024
-78,826	92,737	0,055	0,044
-77,811	145,722	-0,083	-0,079
-76,797	800,000	-0,053	0,122
-75,782	680,626	0,041	0,076
-74,767	-172,723	0,197	-0,004
-73,753	-200,000	0,033	-0,195
-72,738	179,772	-0,067	0,070
-71,724	49,840	-0,047	-0,032
-70,709	-145,986	-0,118	0,007
-69,694	-83,249	0,070	0,016
-68,680	145,819	-0,031	-0,029
-67,665	-89,342	-0,044	-0,009
-66,651	63,105	0,073	0,052
-65,636	-119,669	-0,066	-0,008
-64,622	800,000	-0,005	0,014
-63,607	104,454	0,067	0,056
-62,592	439,191	-0,059	-0,092
-61,578	-200,000	0,018	0,064
-60,563	-200,000	-0,007	0,067
-59,549	425,685	-0,094	0,144
-58,534	-38,249	-1,527	-0,570
-57,519	337,564	-1,537	-2,122
-56,505	-200,000	-0,496	-4,485
-55,490	219,813	1,007	1,143
-54,476	800,000	4,736	10,901
-53,461	-200,000	18,029	285,817
-52,446	800,000	725,958	2224,402
-51,432	556,328	1641,403	2810,850
-50,417	79,422	1663,515	1262,110
-49,403	22,934	1537,228	890,183
-48,388	16,877	1460,821	816,637
-47,373	17,856	1450,586	815,593
-46,359	17,266	1440,944	807,320
-45,344	15,173	1436,240	794,677
-44,330	15,073	1434,373	793,135
-43,315	15,082	1432,701	792,219
-42,300	15,103	1431,007	791,350
-41,286	15,082	1430,097	790,717
-40,271	15,092	1428,683	789,952
-39,257	15,073	1427,517	789,188
-38,242	15,124	1425,998	788,555
-37,227	15,192	1424,773	788,172
-36,213	15,097	1423,820	787,161
-35,198	15,102	1422,428	786,387
-34,184	15,123	1421,676	786,038
-33,169	15,080	1420,293	785,039
-32,154	15,073	1419,430	784,495
-31,140	15,137	1417,883	783,912
-30,125	15,166	1416,891	783,467
-29,111	15,157	1415,670	782,722
-28,096	15,117	1414,647	781,936
-27,082	15,088	1413,416	781,089
-26,067	15,056	1412,329	780,308
-25,052	15,020	1411,537	779,670
-24,038	15,043	1410,372	779,101
-23,023	15,023	1409,290	778,380
-22,009	15,055	1408,336	777,974
-20,994	15,032	1407,326	777,278
-19,979	14,986	1406,500	776,576
-18,965	15,014	1405,338	776,034
-17,950	14,961	1404,426	775,250
-16,936	14,987	1403,595	774,881
-15,921	15,007	1402,255	774,208
-14,906	14,960	1401,564	773,574
-13,892	14,954	1400,710	773,045
-12,877	14,963	1399,796	772,553
-11,863	14,944	1398,717	771,835
-10,848	14,926	1398,162	771,415
-9,833	14,945	1397,039	770,853
-8,819	14,877	1396,229	770,062
-7,804	14,908	1395,164	769,588
-6,790	14,852	1394,259	768,797
-5,775	14,849	1393,190	768,166
-4,760	14,950	1392,149	768,025
-3,746	14,865	1391,562	767,279
-2,731	14,865	1390,581	766,710
-1,717	14,833	1389,821	766,112
-0,702	14,829	1387,951	765,033
0,313	18,762	1307,217	738,673
1,327	35,073	706,765	437,163
2,342	53,893	124,743	84,688
3,356	3,755	16,551	8,522
4,371	1,680	3,035	1,541
5,386	7,208	0,544	0,286
6,400	-200,000	0,003	0,183
7,415	415,772	-0,150	-0,227
8,429	345,253	-0,203	-0,282
9,444	-49,328	-0,386	-0,130
10,459	519,920	-0,137	-0,227
11,473	800,000	-0,105	-0,328
12,488	190,281	-0,204	-0,217
13,502	74,430	-0,303	-0,225
14,517	18,081	-0,357	-0,200
15,531	142,657	-0,366	-0,344
16,546	-30,548	-0,387	-0,154
17,561	31,864	-0,448	-0,272
18,575	0,334	-0,202	-0,102
19,590	151,861	-0,172	-0,166
20,604	-172,264	-0,311	-0,007
21,619	231,905	-0,375	-0,436
22,634	65,568	-0,526	-0,376
23,648	84,490	-0,371	-0,287
24,663	8,431	-0,475	-0,252
25,677	162,775	-0,291	-0,289
26,692	34,774	-0,348	-0,215
27,707	13,994	-0,389	-0,213
28,721	-11,411	-0,481	-0,222
29,736	36,476	-0,439	-0,273
30,750	8,514	-0,511	-0,271
31,765	202,317	-0,280	-0,305
32,780	2,158	-0,329	-0,167
33,794	319,853	-0,309	-0,415
34,809	191,267	-0,303	-0,322
35,823	49,134	-0,455	-0,301
36,838	123,874	-0,353	-0,313
37,853	7,921	-0,381	-0,201
38,867	46,191	-0,420	-0,274
39,882	145,452	-0,390	-0,369
40,896	-1,173	-0,457	-0,227
41,911	147,337	-0,251	-0,238
42,926	83,508	-0,335	-0,257
43,940	40,890	-0,418	-0,265
44,955	54,284	-0,316	-0,214
45,969	54,061	-0,336	-0,227
46,984	227,968	-0,311	-0,357
47,999	21,602	-0,303	-0,173
49,013	37,815	-0,323	-0,202
50,028	-38,699	-0,268	-0,099
51,042	107,680	-0,377	-0,316
52,057	92,630	-0,438	-0,348
53,071	183,269	-0,269	-0,280
54,086	183,338	-0,209	-0,218
55,101	178,472	-0,363	-0,374
56,115	-38,279	-0,334	-0,124
57,130	123,260	-0,353	-0,312
58,144	6,083	-0,472	-0,246
59,159	209,085	-0,275	-0,303
60,174	33,392	-0,329	-0,201
61,188	46,980	-0,425	-0,278
62,203	211,689	-0,244	-0,271
63,217	29,555	-0,238	-0,142
64,232	-64,172	-0,357	-0,102
65,247	74,955	-0,340	-0,252
66,261	21,933	-0,291	-0,166
67,276	90,606	-0,310	-0,244
68,290	23,741	-0,292	-0,169
69,305	74,680	-0,286	-0,211
70,320	71,708	-0,262	-0,191
71,334	59,541	-0,305	-0,211
72,349	10,507	-0,453	-0,242
73,363	338,308	-0,256	-0,351
74,378	34,054	-0,424	-0,259
75,393	334,563	-0,179	-0,244
76,407	249,347	-0,244	-0,291
77,422	-31,323	-0,303	-0,119
78,436	-10,332	-0,340	-0,158
79,451	203,014	-0,227	-0,247
80,466	800,000	-0,128	-0,292
81,480	26,543	-0,402	-0,236
82,495	-143,541	-0,283	-0,019
83,509	-121,141	-0,266	-0,031
84,524	-38,080	-0,416	-0,154
85,539	89,822	-0,218	-0,171
86,553	-13,115	-0,246	-0,112
87,568	107,306	-0,258	-0,216
88,582	-78,524	-0,363	-0,087
89,597	88,823	-0,322	-0,252
90,611	212,637	-0,193	-0,214
91,626	346,893	-0,223	-0,309
92,641	-26,072	-0,252	-0,104
93,655	169,525	-0,195	-0,196
94,670	145,240	-0,333	-0,313
95,684	209,867	-0,222	-0,244
96,699	158,876	-0,196	-0,191
97,714	70,113	-0,216	-0,156
98,728	186,569	-0,217	-0,227
99,743	-122,545	-0,279	-0,031
100,757	6,395	-0,364	-0,189
101,772	-33,432	-0,366	-0,141
102,787	456,230	-0,189	-0,294
103,801	54,886	-0,288	-0,195
104,816	47,243	-0,226	-0,147
105,830	692,247	-0,176	-0,324
106,845	7,363	-0,325	-0,169
107,860	118,016	-0,241	-0,208
108,874	25,444	-0,297	-0,173
109,889	53,755	-0,231	-0,155
110,903	43,150	-0,291	-0,186
111,918	674,715	-0,137	-0,251
112,933	127,182	-0,263	-0,234
113,947	75,702	-0,162	-0,120
114,962	88,191	-0,289	-0,225
115,976	283,441	-0,228	-0,287
116,991	-5,703	-0,344	-0,165
118,006	28,293	-0,285	-0,168
119,020	130,561	-0,248	-0,223
120,035	288,111	-0,245	-0,312
121,049	76,195	-0,201	-0,149
122,064	217,406	-0,189	-0,211
123,079	-147,905	-0,240	0,014
124,093	157,258	-0,234	-0,227
125,108	-18,354	-0,306	-0,133
126,122	-5,556	-0,350	-0,167
127,137	-106,488	-0,130	-0,020
128,151	25,629	-0,218	-0,127
129,166	52,335	-0,185	-0,123
130,181	7,516	-0,305	-0,159
131,195	19,239	-0,378	-0,212
132,210	138,479	-0,288	-0,264
133,224	-18,507	-0,229	-0,100
134,239	347,811	-0,129	-0,179
135,254	115,490	-0,228	-0,195
136,268	96,097	-0,201	-0,160
137,283	-28,231	-0,358	-0,144
138,297	120,180	-0,318	-0,276
139,312	239,951	-0,191	-0,223
140,327	176,987	-0,248	-0,253
141,341	-50,902	-0,296	-0,096
142,356	27,304	-0,282	-0,165
143,370	-7,795	-0,162	-0,076
144,385	4,737	-0,232	-0,119
145,400	-54,802	-0,254	-0,080
146,414	18,928	-0,175	-0,098
147,429	35,311	-0,275	-0,168
148,443	-25,463	-0,268	-0,110
149,458	-91,500	-0,391	-0,077
150,473	58,943	-0,344	-0,236
151,487	68,927	-0,229	-0,164
152,502	19,199	-0,353	-0,197
153,516	-10,132	-0,166	-0,077
154,531	28,103	-0,394	-0,232
155,546	150,705	-0,238	-0,226
156,560	24,722	-0,255	-0,147
157,575	284,099	-0,157	-0,198
158,589	29,367	-0,293	-0,174
159,604	-44,039	-0,253	-0,088
160,619	40,561	-0,208	-0,131
161,633	11,497	-0,232	-0,124
162,648	-48,181	-0,283	-0,095
163,662	12,273	-0,211	-0,113
164,677	4,545	-0,337	-0,172
165,692	-49,798	-0,205	-0,068
166,706	15,704	-0,305	-0,167
167,721	304,054	-0,239	-0,310
168,735	488,950	-0,199	-0,318
169,750	62,823	-0,241	-0,168
170,764	45,263	-0,225	-0,144
171,779	75,366	-0,193	-0,142
172,794	-93,116	-0,194	-0,037
173,808	87,044	-0,194	-0,149
174,823	121,789	-0,307	-0,266
175,837	46,199	-0,219	-0,141
176,852	315,756	-0,222	-0,292
177,867	146,492	-0,225	-0,211
178,881	121,829	-0,081	-0,070
179,896	407,606	-0,133	-0,196
180,910	84,157	-0,186	-0,142
181,925	40,811	-0,284	-0,178
182,940	79,214	-0,231	-0,173
183,954	90,030	-0,085	-0,066
184,969	400,839	-0,173	-0,253
185,983	3,395	-0,213	-0,108
186,998	-14,067	-0,171	-0,076
188,013	131,495	-0,142	-0,127
189,027	68,947	-0,257	-0,184
190,042	236,551	-0,312	-0,360
191,056	12,029	-0,219	-0,117
192,071	-55,142	-0,213	0,066
193,086	241,627	-0,188	-0,219
194,100	24,169	-0,345	-0,198
195,115	551,975	-0,121	-0,203
196,129	-16,901	-0,285	-0,125
197,144	24,340	-0,253	-0,145
198,159	702,698	-0,154	-0,284
199,173	510,340	-0,124	-0,201
200,188	-5,900	-0,255	-0,121
201,202	-10,503	-0,160	-0,074
202,217	479,663	-0,131	-0,208
203,232	-63,410	-0,291	-0,083
204,246	66,244	-0,135	-0,096
205,261	474,945	-0,161	-0,254
206,275	184,802	-0,253	-0,261
207,290	-43,246	-0,224	-0,078
208,304	-25,266	-0,151	-0,062
209,319	36,441	-0,165	-0,101
210,334	-24,029	-0,214	-0,088
211,348	108,780	-0,290	-0,241
212,363	111,666	-0,115	-0,096
213,377	-197,043	-0,116	-0,001
214,392	727,826	-0,066	-0,122
215,407	10,814	-0,144	-0,076
216,421	173,042	-0,178	-0,178
217,436	36,781	-0,224	-0,137
218,450	143,032	-0,252	-0,232
219,465	-8,729	-0,278	-0,129
220,480	-56,601	-0,143	-0,044
221,494	158,538	-0,128	-0,124
222,509	-107,595	-0,122	-0,018
223,523	285,902	-0,184	-0,231
224,538	-39,046	-0,211	-0,077
225,553	800,000	-0,128	-0,293
226,567	-38,263	-0,210	-0,077
227,582	146,281	-0,205	-0,191
228,596	-65,033	-0,233	0,065
229,611	11,928	-0,101	-0,053
230,626	76,088	-0,182	-0,134
231,640	-200,000	-0,018	-0,199
232,655	467,810	-0,169	-0,264
233,669	7,919	-0,203	-0,105
234,684	69,828	-0,234	-0,167
235,699	-97,931	-0,309	-0,055
236,713	-68,759	-0,131	-0,035
237,728	188,751	-0,202	-0,209
238,742	347,753	-0,156	-0,214
239,757	43,429	-0,173	-0,109
240,772	43,627	-0,256	-0,162
241,786	758,247	-0,140	-0,264
242,801	2,172	-0,140	-0,070
243,815	-129,705	-0,228	-0,021
244,830	-64,672	-0,156	-0,043
245,844	-10,783	-0,149	-0,068
246,859	166,167	-0,103	-0,101
247,874	314,132	-0,220	-0,288
248,888	311,083	-0,106	-0,138
249,903	455,977	-0,163	-0,251
250,917	800,000	-0,023	-0,048
251,932	-162,326	-0,091	0,003
252,947	-90,725	-0,263	-0,052
253,961	160,001	-0,266	-0,257
254,976	-200,000	-0,027	-0,181
255,990	-111,298	-0,068	-0,010
257,005	141,962	-0,099	-0,091
258,020	162,561	-0,134	-0,130
259,034	42,287	-0,173	-0,109
260,049	-60,855	-0,230	-0,067
261,063	-19,425	-0,115	-0,049
262,078	-103,200	-0,331	-0,054
263,093	-31,005	-0,117	-0,045
264,107	-82,218	-0,236	-0,053
265,122	-91,431	-0,110	0,021
266,136	127,075	-0,231	-0,202
267,151	-100,490	-0,268	-0,045
268,166	41,719	-0,110	-0,069
269,180	46,843	-0,167	-0,107
270,195	66,222	-0,253	-0,177
271,209	616,782	-0,137	-0,239
272,224	56,825	-0,177	-0,119
273,239	-130,132	-0,139	-0,013
274,253	336,651	-0,139	-0,187
275,268	-19,443	-0,136	0,058
276,282	110,787	-0,256	-0,213
277,297	68,018	-0,163	-0,115
278,312	229,599	-0,188	-0,213
279,326	-86,967	-0,222	-0,046
280,341	-18,952	-0,113	-0,048
281,355	-144,510	-0,183	-0,012
282,370	213,845	-0,176	-0,192
283,384	53,168	-0,184	-0,122
284,399	-19,735	-0,136	-0,058
285,414	44,109	-0,148	-0,094
286,428	-75,536	-0,163	-0,040
287,443	800,000	-0,038	-0,076
288,457	-200,000	0,015	-0,179
289,472	40,439	-0,174	-0,108
290,487	60,082	-0,198	0,135
291,501	-154,801	-0,175	0,008
292,516	115,512	-0,241	-0,203
293,530	-30,061	-0,142	-0,056
294,545	189,675	-0,124	-0,128
295,560	-91,839	-0,217	0,042
296,574	-175,348	-0,115	-0,002
297,589	-142,745	-0,216	-0,014
298,603	-108,098	-0,193	-0,029
299,618	-65,048	-0,231	-0,064
300,633	508,268	-0,100	-0,160
301,647	118,864	-0,105	-0,089
302,662	-124,233	-0,120	-0,013
303,676	76,253	-0,160	-0,117
304,691	72,596	-0,159	-0,114
305,706	222,537	-0,117	-0,130
306,720	167,658	-0,261	-0,256
307,735	81,300	-0,090	-0,067
308,749	-38,810	-0,107	-0,039
309,764	-185,414	-0,089	0,001
310,779	84,183	-0,084	-0,063
311,793	160,679	-0,179	-0,172
312,808	94,425	-0,172	-0,135
313,822	23,747	-0,237	-0,134
314,837	95,921	-0,185	-0,146
315,852	97,002	-0,127	-0,100
316,866	140,297	-0,089	-0,081
317,881	124,828	-0,186	-0,161
318,895	252,695	-0,103	-0,121
319,910	-200,000	-0,035	-0,228
320,925	-200,000	-0,027	-0,123
321,939	116,431	-0,212	-0,179
322,954	83,311	-0,147	-0,110
323,968	339,081	-0,133	-0,178
324,983	-70,728	-0,196	-0,051
325,997	39,620	-0,111	-0,068
327,012	-200,000	-0,029	-0,122
328,027	-200,000	-0,019	-0,251
329,041	-131,433	-0,186	-0,017
330,056	-117,935	-0,097	0,012
331,070	327,233	-0,065	-0,086
332,085	-20,622	-0,183	-0,077
333,100	-37,357	-0,112	0,041
334,114	-65,386	-0,316	-0,087
335,129	308,348	-0,169	-0,217
336,143	9,920	-0,155	-0,081
337,158	-42,778	-0,128	0,044
338,173	800,000	-0,060	-0,133
339,187	-38,287	-0,177	-0,064
340,202	126,199	-0,056	-0,049
341,216	162,843	-0,084	-0,081
342,231	96,067	-0,195	-0,153
343,246	800,000	-0,072	-0,162
344,260	800,000	0,074	-0,163
345,275	5,649	-0,028	-0,014
346,289	251,535	-0,133	-0,155
347,304	34,264	-0,129	-0,077
348,319	332,949	-0,135	-0,180
349,333	67,620	-0,081	0,056
350,348	68,095	-0,154	-0,108
351,362	120,616	-0,146	-0,125
352,377	-80,280	-0,088	0,020
353,392	800,000	-0,060	0,145
354,406	-19,240	-0,207	0,088
355,421	209,917	1313,891	1415,741
356,435	161,578	1474,551	1416,262
