DTS Sentinel unit serial number:	SN410029Multiplexer serial number:	ORYXHardware model number:	OX2-SRSoftware version number:	ORYX F/W v4,00 Oryx Data Collector v3.7.2.0data status	okinstallation	B3 Nyhavnadifferential loss correction	single-endedforward channel	channel 1reverse channel	N/Adate	2023/12/03time	00:42:30forward acquisition time	300,00reverse acquisition time	0,00gamma	499,1914k internal	0,3201k external	0,3201temperature offset calibration	1,0000default loss term (dB/km)	0,3820temperature slope calibration	1,0000multiplexer offset coefficient	1,0000multiplexer slope coefficient	1,0000fibre end	0,00T internal ref (°C)	13,31T ext. ref 1 (°C)	-1,61T ext. ref 2 (°C)	-1,61length (m)	temperature (°C)	Stokes	anti-Stokes-744,400	162,275	-0,218	-0,222
-743,385	-200,000	0,036	0,224
-742,371	368,656	-0,154	-0,227
-741,356	800,000	-0,093	0,278
-740,342	-200,000	-0,047	-0,225
-739,327	-200,000	0,042	0,326
-738,312	-200,000	-0,044	-0,171
-737,298	-200,000	-0,030	0,404
-736,283	168,562	-0,279	-0,289
-735,269	-200,000	0,014	0,225
-734,254	336,102	-0,199	-0,282
-733,239	-157,018	-0,110	-0,005
-732,225	800,000	-0,098	-0,218
-731,210	-137,261	0,107	-0,009
-730,196	-115,068	0,040	0,005
-729,181	95,337	-0,093	0,077
-728,167	-123,027	-0,109	0,013
-727,152	-78,595	-0,139	-0,034
-726,137	88,287	0,137	-0,110
-725,123	65,517	0,094	0,069
-724,108	-200,000	-0,005	-0,091
-723,094	-200,000	-0,004	-0,037
-722,079	-83,949	-0,097	-0,022
-721,064	333,820	-0,052	0,074
-720,050	483,533	-0,027	-0,046
-719,035	-200,000	0,007	-0,062
-718,021	520,169	-0,036	0,061
-717,006	465,623	0,044	-0,072
-715,991	-200,000	-0,068	-0,225
-714,977	-37,492	-0,083	0,032
-713,962	7,898	-0,020	-0,011
-712,948	88,484	0,045	-0,037
-711,933	-200,000	0,009	0,170
-710,918	94,055	-0,035	-0,029
-709,904	-200,000	0,020	0,133
-708,889	800,000	-0,084	-0,180
-707,875	744,971	-0,065	-0,128
-706,860	-136,398	-0,120	0,010
-705,845	-200,000	-0,005	-0,128
-704,831	219,379	0,045	0,052
-703,816	-200,000	0,013	0,104
-702,802	38,739	0,008	-0,005
-701,787	256,882	-0,085	-0,106
-700,772	-46,189	-0,089	-0,031
-699,758	108,187	-0,116	0,101
-698,743	-110,671	-0,061	0,009
-697,729	-50,043	0,121	0,041
-696,714	-54,615	-0,077	0,025
-695,699	410,336	0,049	-0,076
-694,685	744,630	0,015	0,030
-693,670	124,411	0,058	-0,053
-692,656	800,000	0,034	-0,073
-691,641	-200,000	-0,014	-0,165
-690,627	-97,177	0,102	0,019
-689,612	800,000	0,016	-0,037
-688,597	-172,129	0,045	0,001
-687,583	531,298	-0,063	-0,109
-686,568	133,801	-0,094	0,089
-685,554	-200,000	0,022	0,137
-684,539	610,437	0,097	0,176
-683,524	800,000	0,060	0,126
-682,510	250,260	-0,096	0,119
-681,495	88,936	0,028	-0,022
-680,481	78,952	-0,045	-0,035
-679,466	-79,278	0,071	-0,017
-678,451	-1,802	-0,054	0,027
-677,437	298,787	0,037	-0,049
-676,422	406,226	-0,074	0,114
-675,408	-200,000	0,018	0,065
-674,393	-87,941	-0,104	-0,023
-673,378	781,388	0,069	-0,138
-672,364	800,000	-0,028	-0,079
-671,349	-160,218	-0,217	0,008
-670,335	182,800	-0,019	0,020
-669,320	800,000	0,056	-0,112
-668,305	-200,000	0,017	-0,073
-667,291	-200,000	0,004	-0,125
-666,276	-125,695	-0,074	-0,008
-665,262	242,237	-0,057	-0,070
-664,247	-200,000	0,006	-0,145
-663,232	366,223	-0,110	-0,161
-662,218	117,056	0,057	0,050
-661,203	21,500	0,147	0,086
-660,189	-200,000	-0,034	0,113
-659,174	336,262	-0,031	-0,044
-658,159	-124,751	-0,188	-0,021
-657,145	-90,395	-0,132	-0,027
-656,130	-107,653	0,051	-0,008
-655,116	73,497	0,060	0,046
-654,101	-200,000	0,023	0,113
-653,086	280,060	0,074	0,097
-652,072	800,000	0,031	-0,081
-651,057	131,418	0,100	0,093
-650,043	800,000	-0,071	-0,180
-649,028	15,440	0,038	-0,021
-648,014	746,032	-0,021	-0,042
-646,999	-102,064	0,175	0,030
-645,984	602,381	-0,066	0,119
-644,970	800,000	0,018	-0,036
-643,955	707,194	-0,082	0,157
-642,941	618,164	0,031	0,057
-641,926	-92,998	-0,119	0,024
-640,911	453,184	0,055	0,089
-639,897	-88,718	-0,136	-0,029
-638,882	-32,432	0,123	-0,050
-637,868	800,000	-0,046	-0,098
-636,853	800,000	-0,024	-0,065
-635,838	-5,180	-0,107	-0,053
-634,824	402,198	0,075	-0,114
-633,809	347,165	-0,077	0,110
-632,795	-161,410	-0,107	-0,004
-631,780	800,000	-0,036	-0,085
-630,765	-200,000	-0,003	-0,066
-629,751	-67,342	-0,175	0,049
-628,736	-30,133	-0,185	-0,076
-627,722	-200,000	0,002	0,014
-626,707	-168,267	-0,061	0,002
-625,692	109,212	0,022	0,019
-624,678	-200,000	-0,007	0,148
-623,663	-200,000	-0,021	0,075
-622,649	144,647	-0,129	-0,125
-621,634	-87,417	-0,055	0,012
-620,619	-161,296	-0,192	0,007
-619,605	-183,222	-0,126	0,002
-618,590	-79,420	0,111	0,027
-617,576	574,153	-0,046	0,082
-616,561	40,866	-0,094	0,061
-615,546	-3,781	0,073	-0,036
-614,532	-200,000	-0,009	0,099
-613,517	72,824	-0,065	-0,049
-612,503	800,000	-0,064	-0,142
-611,488	475,303	0,084	0,138
-610,474	258,547	0,060	-0,076
-609,459	-117,007	0,157	0,020
-608,444	800,000	-0,072	-0,151
-607,430	92,335	-0,024	-0,020
-606,415	84,365	-0,055	-0,043
-605,401	363,579	0,040	0,058
-604,386	276,410	0,092	0,118
-603,371	161,977	0,104	0,106
-602,357	89,558	-0,043	0,035
-601,342	109,544	-0,064	0,055
-600,328	73,103	-0,074	-0,056
-599,313	-116,946	-0,068	-0,009
-598,298	-133,738	0,106	-0,009
-597,284	542,694	-0,044	-0,077
-596,269	148,109	0,079	0,077
-595,255	93,805	-0,072	-0,059
-594,240	-178,275	0,068	0,001
-593,225	245,390	-0,085	-0,104
-592,211	-125,458	-0,132	-0,014
-591,196	604,023	0,048	-0,087
-590,182	-70,683	-0,091	0,025
-589,167	-108,991	-0,031	0,005
-588,152	-200,000	0,001	-0,041
-587,138	-200,000	-0,001	0,041
-586,123	-74,037	0,035	-0,009
-585,109	585,569	-0,043	-0,077
-584,094	-63,025	0,090	0,027
-583,079	-134,957	0,110	-0,009
-582,065	306,787	0,029	0,039
-581,050	-11,996	-0,119	0,056
-580,036	-200,000	0,008	0,101
-579,021	245,513	0,004	-0,005
-578,006	33,462	-0,176	-0,110
-576,992	-117,683	0,178	-0,023
-575,977	-5,627	0,153	-0,076
-574,963	-49,472	0,077	0,027
-573,948	800,000	0,055	0,143
-572,934	-200,000	0,001	0,121
-571,919	-71,525	0,067	0,018
-570,904	67,176	-0,060	-0,044
-569,890	-0,513	0,160	0,082
-568,875	239,315	0,027	-0,033
-567,861	800,000	0,045	0,096
-566,846	583,824	-0,023	-0,040
-565,831	800,000	-0,044	-0,099
-564,817	800,000	0,038	0,095
-563,802	-48,409	0,088	-0,030
-562,788	800,000	0,058	-0,152
-561,773	-171,441	-0,144	-0,003
-560,758	91,953	0,050	-0,041
-559,744	800,000	0,023	-0,060
-558,729	721,388	0,048	0,093
-557,715	-3,927	-0,145	0,073
-556,700	364,870	0,016	-0,024
-555,685	47,188	-0,052	-0,035
-554,671	-200,000	-0,012	0,131
-553,656	-24,134	-0,075	0,032
-552,642	79,732	0,090	0,070
-551,627	800,000	0,031	0,088
-550,612	-12,750	-0,081	-0,038
-549,598	-200,000	-0,033	-0,128
-548,583	-123,962	-0,035	0,004
-547,569	125,617	0,067	-0,061
-546,554	45,008	-0,105	-0,069
-545,539	-13,888	0,082	0,038
-544,525	-71,746	0,075	0,020
-543,510	800,000	0,061	-0,140
-542,496	-200,000	-0,011	0,048
-541,481	174,059	-0,068	-0,071
-540,466	76,152	0,104	-0,079
-539,452	-86,011	0,051	0,011
-538,437	112,135	0,096	0,083
-537,423	271,843	-0,054	0,069
-536,408	271,990	0,023	-0,030
-535,393	30,365	-0,134	-0,083
-534,379	-136,079	-0,125	0,010
-533,364	417,283	-0,016	0,025
-532,350	-141,069	0,060	-0,004
-531,335	43,169	0,013	0,008
-530,321	-200,000	-0,031	0,111
-529,306	-200,000	-0,004	-0,136
-528,291	349,898	0,020	0,028
-527,277	30,429	-0,049	-0,030
-526,262	-200,000	-0,037	-0,145
-525,248	-37,906	0,041	-0,016
-524,233	345,762	-0,025	-0,035
-523,218	12,426	0,082	0,046
-522,204	113,245	-0,041	-0,036
-521,189	2,845	-0,127	0,066
-520,175	278,954	0,094	-0,121
-519,160	362,345	0,067	-0,097
-518,145	-77,597	0,024	-0,006
-517,131	31,085	-0,152	-0,094
-516,116	800,000	0,044	0,117
-515,102	84,006	0,101	0,079
-514,087	800,000	0,051	-0,160
-513,072	-200,000	0,003	0,034
-512,058	375,924	-0,057	-0,084
-511,043	483,493	-0,069	0,114
-510,029	181,121	0,112	0,119
-509,014	-74,108	0,101	-0,026
-507,999	398,133	0,019	0,028
-506,985	-45,263	-0,090	-0,032
-505,970	67,989	0,103	-0,076
-504,956	-83,025	0,152	-0,035
-503,941	496,504	-0,033	-0,054
-502,926	243,752	0,022	-0,026
-501,912	-200,000	0,015	-0,063
-500,897	800,000	-0,021	0,057
-499,883	-109,169	0,076	-0,012
-498,868	54,050	0,043	0,029
-497,853	-145,577	-0,031	-0,002
-496,839	800,000	0,028	-0,088
-495,824	-145,270	0,087	-0,006
-494,810	800,000	-0,047	-0,100
-493,795	123,355	-0,046	-0,042
-492,781	-129,753	-0,057	0,006
-491,766	-200,000	0,003	-0,066
-490,751	76,458	-0,068	-0,052
-489,737	238,244	-0,046	0,055
-488,722	-200,000	-0,003	0,021
-487,708	800,000	0,043	-0,119
-486,693	-86,138	0,028	0,006
-485,678	148,914	0,056	-0,055
-484,664	53,997	-0,124	-0,085
-483,649	-200,000	-0,013	-0,184
-482,635	17,742	-0,092	-0,053
-481,620	-200,000	0,012	0,067
-480,605	398,311	0,078	0,117
-479,591	800,000	-0,026	0,076
-478,576	117,870	0,118	0,104
-477,562	-200,000	-0,018	0,128
-476,547	-200,000	-0,009	-0,125
-475,532	-200,000	0,030	-0,097
-474,518	800,000	0,044	-0,098
-473,503	58,520	-0,072	-0,051
-472,489	800,000	0,043	0,133
-471,474	266,674	-0,074	-0,094
-470,459	800,000	0,035	-0,080
-469,445	-200,000	-0,001	0,023
-468,430	-91,956	-0,107	0,022
-467,416	67,902	0,122	0,090
-466,401	-200,000	-0,003	0,092
-465,386	82,727	-0,044	-0,034
-464,372	90,357	0,033	-0,027
-463,357	212,173	0,065	-0,074
-462,343	-200,000	0,008	-0,138
-461,328	196,875	0,091	-0,100
-460,313	800,000	0,046	-0,140
-459,299	769,686	0,081	0,160
-458,284	574,293	0,060	0,105
-457,270	-200,000	-0,016	-0,073
-456,255	92,628	0,087	0,070
-455,241	800,000	0,028	0,085
-454,226	126,876	0,084	-0,076
-453,211	165,351	0,048	0,049
-452,197	-200,000	-0,002	0,072
-451,182	-20,847	0,117	-0,051
-450,168	800,000	-0,005	0,010
-449,153	-90,646	0,067	0,014
-448,138	800,000	-0,040	-0,087
-447,124	182,257	-0,090	0,095
-446,109	-52,208	0,044	-0,015
-445,095	21,472	0,055	-0,032
-444,080	86,333	0,099	0,078
-443,065	87,574	-0,028	0,023
-442,051	-30,183	0,057	0,023
-441,036	283,514	-0,078	-0,101
-440,022	-116,837	-0,085	0,011
-439,007	800,000	0,046	0,097
-437,992	-154,603	-0,065	0,003
-436,978	436,803	-0,023	0,035
-435,963	-78,139	-0,082	0,020
-434,949	800,000	-0,032	-0,099
-433,934	-52,779	0,085	0,028
-432,919	-200,000	0,004	-0,024
-431,905	113,534	-0,051	-0,045
-430,890	800,000	-0,004	-0,012
-429,876	-200,000	0,032	0,154
-428,861	-200,000	0,001	-0,064
-427,846	219,343	0,079	-0,091
-426,832	800,000	0,024	0,049
-425,817	264,180	0,017	-0,021
-424,803	-200,000	0,007	0,069
-423,788	437,033	-0,023	-0,036
-422,773	494,902	0,039	0,065
-421,759	276,147	-0,122	-0,156
-420,744	-200,000	-0,030	-0,146
-419,730	-200,000	0,004	-0,048
-418,715	800,000	-0,044	-0,096
-417,701	671,414	0,037	-0,070
-416,686	361,499	0,089	-0,129
-415,671	800,000	-0,037	-0,095
-414,657	-106,940	0,059	-0,009
-413,642	46,970	0,110	-0,073
-412,628	-200,000	-0,014	0,089
-411,613	113,518	0,063	0,055
-410,598	-127,180	0,056	-0,006
-409,584	293,812	-0,026	0,034
-408,569	539,834	0,030	0,052
-407,555	162,082	0,043	-0,043
-406,540	384,459	0,018	0,027
-405,525	-120,368	-0,188	-0,023
-404,511	-86,649	-0,096	-0,021
-403,496	-200,000	0,010	0,076
-402,482	138,428	0,027	0,025
-401,467	225,466	0,050	0,058
-400,452	40,967	-0,169	0,109
-399,438	289,786	0,019	-0,025
-398,423	158,753	-0,068	0,068
-397,409	-151,327	0,081	-0,004
-396,394	-200,000	0,024	-0,153
-395,379	214,314	-0,032	0,036
-394,365	-177,395	0,003	0,000
-393,350	10,784	0,076	-0,042
-392,336	-142,566	0,121	-0,008
-391,321	86,844	-0,082	-0,065
-390,306	800,000	-0,056	-0,158
-389,292	800,000	-0,033	-0,091
-388,277	-200,000	0,030	0,141
-387,263	-65,326	0,149	-0,043
-386,248	437,570	-0,078	-0,123
-385,233	-114,148	-0,039	-0,005
-384,219	-76,354	0,051	0,013
-383,204	-6,058	-0,099	-0,048
-382,190	-190,766	-0,066	0,000
-381,175	-200,000	0,008	0,037
-380,160	-68,942	0,108	-0,030
-379,146	-54,486	0,091	0,029
-378,131	83,520	-0,088	0,068
-377,117	-200,000	-0,011	-0,061
-376,102	-59,910	-0,076	-0,023
-375,088	-200,000	-0,007	0,136
-374,073	108,213	-0,079	-0,068
-373,058	439,337	0,085	0,133
-372,044	314,276	-0,027	-0,037
-371,029	648,296	-0,022	0,041
-370,015	-200,000	0,021	-0,081
-369,000	-200,000	-0,015	-0,053
-367,985	-200,000	0,033	-0,156
-366,971	79,138	-0,034	-0,026
-365,956	-105,876	0,111	-0,018
-364,942	800,000	-0,025	0,064
-363,927	-21,829	-0,114	0,050
-362,912	-200,000	-0,013	0,058
-361,898	359,778	-0,054	0,078
-360,883	-200,000	-0,025	-0,080
-359,869	-103,902	0,070	0,012
-358,854	800,000	0,037	0,078
-357,839	1,954	-0,059	-0,031
-356,825	58,043	0,015	-0,010
-355,810	-102,535	0,111	-0,019
-354,796	-108,478	-0,073	0,011
-353,781	413,270	-0,081	-0,124
-352,766	1,169	-0,098	-0,050
-351,752	57,269	0,131	0,092
-350,737	-37,952	-0,065	-0,025
-349,723	395,284	0,098	-0,147
-348,708	800,000	-0,003	-0,009
-347,693	299,590	-0,061	-0,080
-346,679	800,000	-0,075	-0,152
-345,664	12,668	-0,055	-0,030
-344,650	-75,463	-0,051	0,013
-343,635	-1,656	0,080	0,040
-342,620	-200,000	0,017	0,074
-341,606	97,165	0,061	0,050
-340,591	-200,000	0,037	-0,134
-339,577	-77,360	-0,132	-0,033
-338,562	-111,308	-0,115	0,017
-337,548	415,356	-0,033	0,050
-336,533	800,000	0,071	0,170
-335,518	341,182	0,085	-0,119
-334,504	-200,000	-0,017	0,079
-333,489	250,917	-0,062	0,075
-332,475	31,277	-0,041	-0,025
-331,460	-200,000	-0,016	-0,176
-330,445	533,471	0,046	0,078
-329,431	634,514	0,038	-0,069
-328,416	-48,093	0,142	0,049
-327,402	-200,000	-0,006	0,061
-326,387	-73,982	-0,084	0,022
-325,372	-162,702	-0,143	0,005
-324,358	696,720	0,059	-0,112
-323,343	-77,523	0,056	-0,014
-322,329	635,983	-0,072	0,131
-321,314	303,452	0,067	-0,089
-320,299	-200,000	-0,018	-0,077
-319,285	-82,232	-0,083	0,019
-318,270	-172,102	-0,208	-0,005
-317,256	-200,000	-0,006	0,041
-316,241	800,000	0,049	-0,118
-315,226	-17,688	0,103	-0,046
-314,212	295,519	0,065	0,085
-313,197	-89,759	-0,072	0,015
-312,183	-200,000	-0,009	0,219
-311,168	800,000	0,016	0,037
-310,153	-200,000	0,002	-0,031
-309,139	-127,399	0,028	-0,003
-308,124	-61,838	-0,098	0,029
-307,110	317,004	-0,087	0,117
-306,095	-200,000	-0,046	0,157
-305,080	537,413	0,009	0,015
-304,066	86,587	0,116	0,092
-303,051	-125,662	-0,150	0,016
-302,037	210,679	0,111	-0,125
-301,022	144,068	-0,034	0,033
-300,008	163,045	0,036	-0,036
-298,993	-11,745	0,088	0,041
-297,978	-200,000	0,001	0,125
-296,964	551,304	0,023	-0,039
-295,949	17,957	0,046	0,026
-294,935	236,783	0,027	-0,031
-293,920	-64,042	-0,063	0,018
-292,905	383,448	0,030	-0,044
-291,891	800,000	-0,040	0,125
-290,876	32,960	-0,016	0,010
-289,862	5,639	-0,090	0,047
-288,847	-40,050	-0,137	0,051
-287,832	-161,628	0,101	-0,004
-286,818	-48,377	-0,058	0,020
-285,803	-200,000	0,008	0,062
-284,789	185,099	0,089	0,095
-283,774	58,706	0,052	-0,037
-282,759	800,000	-0,018	0,042
-281,745	92,680	0,078	-0,063
-280,730	-116,701	-0,034	0,004
-279,716	-31,285	0,047	-0,019
-278,701	-64,379	-0,059	-0,017
-277,686	-40,796	0,045	0,017
-276,672	-122,072	0,070	0,008
-275,657	91,141	-0,133	-0,107
-274,643	-200,000	0,008	-0,044
-273,628	-37,417	-0,068	-0,026
-272,613	151,117	0,129	0,126
-271,599	-57,570	0,087	0,027
-270,584	118,257	0,031	0,027
-269,570	800,000	0,039	0,101
-268,555	-139,578	-0,116	-0,009
-267,540	-153,171	-0,082	-0,004
-266,526	234,713	-0,078	0,092
-265,511	-200,000	-0,012	0,038
-264,497	142,015	0,107	0,101
-263,482	199,899	0,073	-0,080
-262,467	136,297	-0,048	0,045
-261,453	-200,000	0,001	0,056
-260,438	226,626	0,021	-0,025
-259,424	-54,729	0,238	0,076
-258,409	-85,280	-0,110	0,024
-257,395	-66,840	-0,034	0,009
-256,380	-200,000	0,003	-0,023
-255,365	-200,000	-0,002	0,100
-254,351	4,427	0,078	-0,041
-253,336	800,000	0,031	-0,080
-252,322	-200,000	-0,010	0,156
-251,307	800,000	-0,030	0,079
-250,292	800,000	0,023	-0,048
-249,278	-56,658	-0,090	-0,028
-248,263	355,853	0,074	0,105
-247,249	-13,013	-0,212	-0,098
-246,234	-110,516	0,034	-0,005
-245,219	158,413	-0,064	0,064
-244,205	223,493	0,127	-0,146
-243,190	800,000	-0,021	0,063
-242,176	-129,019	-0,056	0,006
-241,161	75,356	0,095	0,071
-240,146	-200,000	-0,042	0,187
-239,132	164,120	0,012	0,012
-238,117	6,285	-0,102	-0,054
-237,103	16,322	0,036	-0,020
-236,088	-129,512	-0,047	0,005
-235,073	765,314	-0,032	0,062
-234,059	-30,638	0,078	0,031
-233,044	164,819	-0,052	0,053
-232,030	-98,533	-0,131	0,024
-231,015	800,000	-0,069	-0,151
-230,000	36,726	-0,100	-0,063
-228,986	17,461	-0,005	0,003
-227,971	-91,925	0,122	0,024
-226,957	-179,940	-0,207	-0,003
-225,942	-200,000	-0,019	0,071
-224,927	800,000	0,036	0,073
-223,913	227,636	-0,084	-0,097
-222,898	243,264	-0,062	-0,074
-221,884	564,599	-0,023	0,041
-220,869	86,801	0,114	0,090
-219,855	-114,076	0,155	0,021
-218,840	159,434	0,089	0,088
-217,825	-200,000	0,001	0,038
-216,811	696,924	0,039	-0,073
-215,796	-185,625	-0,118	0,001
-214,782	-166,854	-0,085	-0,002
-213,767	-25,243	0,084	-0,035
-212,752	366,353	0,089	0,128
-211,738	111,551	-0,050	-0,043
-210,723	-200,000	0,003	-0,026
-209,709	127,588	0,072	-0,065
-208,694	-200,000	-0,003	-0,183
-207,679	370,633	0,023	0,033
-206,665	800,000	-0,001	-0,003
-205,650	236,041	-0,058	0,068
-204,636	239,383	0,066	0,078
-203,621	55,943	-0,094	0,065
-202,606	-47,576	0,139	-0,048
-201,592	143,670	0,060	0,057
-200,577	-20,286	-0,089	-0,039
-199,563	-178,971	0,176	-0,003
-198,548	-176,588	0,112	-0,002
-197,533	0,933	-0,149	0,076
-196,519	-8,620	0,066	-0,031
-195,504	-48,609	-0,090	-0,031
-194,490	-200,000	0,002	-0,128
-193,475	-200,000	0,004	-0,055
-192,460	-183,464	-0,059	-0,001
-191,446	800,000	-0,029	0,059
-190,431	-14,121	0,067	0,031
-189,417	45,510	0,079	0,052
-188,402	-200,000	-0,031	0,124
-187,387	1,446	-0,148	-0,075
-186,373	146,542	-0,118	0,113
-185,358	293,919	0,066	0,086
-184,344	800,000	-0,053	-0,164
-183,329	-122,257	0,178	-0,020
-182,315	800,000	-0,045	0,118
-181,300	2,731	0,042	0,021
-180,285	152,825	-0,018	-0,018
-179,271	91,970	0,093	-0,075
-178,256	599,385	0,079	0,141
-177,242	43,875	0,018	0,012
-176,227	411,876	0,056	0,086
-175,212	-200,000	-0,011	0,036
-174,198	-200,000	-0,010	0,105
-173,183	-85,140	0,067	0,015
-172,169	800,000	-0,072	-0,213
-171,154	-159,919	0,086	0,003
-170,139	-62,328	0,036	-0,011
-169,125	-4,437	0,053	0,026
-168,110	-200,000	0,021	0,084
-167,096	-200,000	0,002	0,015
-166,081	191,642	-0,136	0,146
-165,066	33,351	0,096	0,059
-164,052	-200,000	-0,032	-0,160
-163,037	15,646	-0,151	-0,084
-162,023	-48,248	0,077	-0,026
-161,008	1,777	-0,054	-0,028
-159,993	-101,031	0,127	-0,022
-158,979	-200,000	0,014	0,048
-157,964	-6,583	-0,093	-0,045
-156,950	107,910	-0,026	-0,022
-155,935	116,522	0,122	-0,107
-154,920	800,000	0,035	0,106
-153,906	-200,000	-0,014	0,075
-152,891	17,330	-0,023	-0,013
-151,877	484,647	0,054	-0,087
-150,862	-21,080	-0,065	0,028
-149,847	47,582	-0,048	-0,032
-148,833	2,236	0,121	-0,062
-147,818	-99,314	0,020	0,004
-146,804	800,000	0,057	0,124
-145,789	-36,021	-0,022	0,008
-144,775	27,374	-0,025	-0,015
-143,760	-55,918	-0,140	-0,044
-142,745	-200,000	-0,011	-0,151
-141,731	-200,000	-0,000	-0,070
-140,716	127,038	-0,053	0,048
-139,702	559,671	-0,043	-0,073
-138,687	254,980	-0,020	-0,025
-137,672	474,905	0,046	0,073
-136,658	245,179	-0,069	0,082
-135,643	434,936	-0,012	-0,018
-134,629	-200,000	0,032	-0,149
-133,614	-85,665	-0,097	0,021
-132,599	255,877	0,014	-0,017
-131,585	-3,661	-0,087	0,043
-130,570	-22,551	-0,108	-0,046
-129,556	80,481	-0,146	-0,111
-128,541	176,897	0,062	0,064
-127,526	-200,000	0,010	-0,153
-126,512	-17,696	0,043	0,019
-125,497	246,448	0,067	0,081
-124,483	203,298	-0,043	0,047
-123,468	-17,944	-0,103	0,046
-122,453	-64,084	-0,153	0,044
-121,439	145,924	-0,035	0,034
-120,424	-17,524	0,060	0,027
-119,410	-81,111	0,098	-0,023
-118,395	800,000	0,040	0,092
-117,380	148,488	-0,028	0,027
-116,366	-108,972	-0,070	0,010
-115,351	-200,000	-0,035	-0,139
-114,337	88,676	0,066	0,052
-113,322	-14,567	-0,133	-0,061
-112,307	173,178	-0,083	0,085
-111,293	-200,000	-0,056	0,275
-110,278	97,358	0,039	-0,032
-109,264	22,072	-0,033	-0,019
-108,249	-184,514	0,014	-0,000
-107,234	-146,120	-0,117	0,007
-106,220	-200,000	-0,005	0,084
-105,205	-200,000	0,027	-0,123
-104,191	-200,000	-0,002	0,056
-103,176	800,000	-0,024	0,053
-102,162	-80,385	0,099	0,023
-101,147	-116,254	-0,048	0,006
-100,132	-65,663	0,156	0,044
-99,118	-196,182	-0,102	-0,000
-98,103	-108,589	-0,088	0,013
-97,089	-59,161	-0,084	0,025
-96,074	800,000	-0,048	0,144
-95,059	-121,892	0,052	-0,006
-94,045	-120,707	0,062	0,007
-93,030	-42,879	-0,051	0,018
-92,016	23,914	-0,071	0,041
-91,001	16,645	-0,037	-0,021
-89,986	373,991	0,005	-0,007
-88,972	800,000	0,023	0,050
-87,957	-134,303	-0,145	-0,012
-86,943	283,214	-0,053	-0,068
-85,928	121,963	0,106	0,094
-84,913	353,449	-0,094	-0,133
-83,899	-16,089	0,100	0,045
-82,884	-56,837	-0,063	0,020
-81,870	266,674	-0,073	0,090
-80,855	-200,000	-0,006	0,041
-79,840	-114,980	-0,101	-0,013
-78,826	800,000	-0,025	0,055
-77,811	-200,000	-0,011	-0,069
-76,797	29,760	-0,073	0,044
-75,782	617,577	-0,100	0,179
-74,767	800,000	0,041	0,088
-73,753	22,354	-0,131	0,076
-72,738	736,292	0,075	-0,144
-71,724	-109,244	0,025	-0,004
-70,709	800,000	0,061	-0,184
-69,694	-137,297	0,047	0,004
-68,680	800,000	-0,014	-0,032
-67,665	-200,000	-0,021	0,127
-66,651	36,134	0,226	0,141
-65,636	-177,538	-0,157	0,003
-64,622	27,511	0,024	-0,014
-63,607	-33,026	-0,087	0,034
-62,592	800,000	-0,043	0,088
-61,578	-31,108	-0,033	-0,013
-60,563	800,000	0,013	0,039
-59,549	106,279	0,038	-0,032
-58,534	-9,766	-1,546	-0,726
-57,519	351,989	-1,414	-1,990
-56,505	-200,000	-0,459	-4,543
-55,490	218,984	0,915	1,037
-54,476	800,000	4,894	11,387
-53,461	-200,000	19,226	320,130
-52,446	-200,000	740,776	2334,640
-51,432	573,736	1655,296	2869,591
-50,417	78,275	1670,872	1261,699
-49,403	21,293	1543,809	885,532
-48,388	15,207	1466,225	811,432
-47,373	17,926	1456,614	819,222
-46,359	16,664	1446,590	807,499
-45,344	13,426	1441,798	789,282
-44,330	13,350	1439,811	787,801
-43,315	13,351	1438,177	786,877
-42,300	13,386	1436,472	786,082
-41,286	13,360	1435,240	785,254
-40,271	13,336	1433,847	784,343
-39,257	13,351	1432,742	783,780
-38,242	13,407	1431,372	783,265
-37,227	13,412	1430,025	782,521
-36,213	13,427	1428,712	781,845
-35,198	13,403	1427,711	781,151
-34,184	13,472	1426,638	780,859
-33,169	13,373	1425,298	779,628
-32,154	13,444	1424,209	779,335
-31,140	13,402	1423,039	778,467
-30,125	13,446	1421,966	778,057
-29,111	13,442	1420,926	777,439
-28,096	13,393	1419,602	776,454
-27,082	13,399	1418,509	775,849
-26,067	13,331	1417,529	774,966
-25,052	13,372	1416,315	774,463
-24,038	13,320	1415,487	773,733
-23,023	13,348	1414,433	773,258
-22,009	13,300	1413,403	772,441
-20,994	13,310	1412,449	771,936
-19,979	13,325	1411,689	771,559
-18,965	13,250	1411,022	770,810
-17,950	13,272	1409,865	770,254
-16,936	13,318	1408,736	769,821
-15,921	13,225	1407,654	768,763
-14,906	13,264	1406,850	768,478
-13,892	13,234	1405,890	767,783
-12,877	13,261	1405,095	767,442
-11,863	13,205	1404,068	766,589
-10,848	13,222	1403,447	766,302
-9,833	13,207	1402,359	765,606
-8,819	13,123	1401,678	764,812
-7,804	13,149	1400,696	764,366
-6,790	13,172	1399,506	763,795
-5,775	13,178	1398,456	763,220
-4,760	13,187	1397,509	762,715
-3,746	13,125	1396,725	761,965
-2,731	13,063	1396,004	761,258
-1,717	13,129	1394,955	760,961
-0,702	13,128	1392,920	759,816
0,313	17,025	1309,876	732,551
1,327	33,218	703,729	430,986
2,342	51,246	123,227	82,614
3,356	1,643	16,670	8,464
4,371	-1,930	3,296	1,634
5,386	-62,803	0,602	0,175
6,400	-200,000	0,091	0,372
7,415	-49,541	-0,310	-0,104
8,429	-43,797	-0,287	-0,102
9,444	68,714	-0,377	-0,273
10,459	292,668	-0,262	-0,339
11,473	-85,248	-0,282	-0,062
12,488	-75,715	-0,405	-0,101
13,502	-147,684	-0,371	-0,022
14,517	-20,614	-0,290	-0,125
15,531	87,734	-0,285	-0,223
16,546	68,216	-0,392	-0,283
17,561	45,634	-0,441	-0,287
18,575	-28,402	-0,072	-0,029
19,590	182,256	-0,256	-0,267
20,604	146,164	-0,188	-0,178
21,619	116,074	-0,467	-0,404
22,634	6,786	-0,643	-0,337
23,648	291,080	-0,365	-0,469
24,663	9,744	-0,404	-0,216
25,677	217,734	-0,358	-0,404
26,692	35,297	-0,235	-0,145
27,707	105,478	-0,245	-0,204
28,721	76,539	-0,204	-0,153
29,736	8,888	-0,501	-0,266
30,750	131,638	-0,370	-0,336
31,765	99,193	-0,327	-0,266
32,780	320,673	-0,230	-0,309
33,794	-15,197	-0,464	-0,209
34,809	21,019	-0,371	-0,212
35,823	42,979	-0,441	-0,283
36,838	72,935	-0,407	-0,300
37,853	159,161	-0,285	-0,280
38,867	106,515	-0,318	-0,266
39,882	163,804	-0,257	-0,256
40,896	131,279	-0,254	-0,230
41,911	53,735	-0,383	-0,259
42,926	207,222	-0,293	-0,322
43,940	77,372	-0,457	-0,342
44,955	126,899	-0,372	-0,332
45,969	197,039	-0,320	-0,345
46,984	13,387	-0,316	-0,172
47,999	37,795	-0,319	-0,199
49,013	97,060	-0,407	-0,328
50,028	161,301	-0,279	-0,275
51,042	50,938	-0,319	-0,212
52,057	-37,512	-0,439	-0,164
53,071	69,248	-0,319	-0,231
54,086	173,702	-0,303	-0,308
55,101	-5,328	-0,459	-0,222
56,115	4,178	-0,384	-0,198
57,130	163,358	-0,304	-0,301
58,144	165,446	-0,308	-0,307
59,159	167,213	-0,293	-0,293
60,174	59,458	-0,301	-0,209
61,188	49,685	-0,301	-0,199
62,203	64,506	-0,273	-0,194
63,217	33,556	-0,247	-0,150
64,232	255,141	-0,253	-0,306
65,247	121,192	-0,326	-0,285
66,261	1,945	-0,408	-0,207
67,276	69,637	-0,344	-0,249
68,290	113,953	-0,284	-0,243
69,305	-41,591	-0,404	-0,145
70,320	60,616	-0,366	-0,255
71,334	-28,159	-0,344	-0,139
72,349	-22,743	-0,340	-0,144
73,363	-53,921	-0,445	-0,142
74,378	-51,569	-0,440	-0,144
75,393	94,073	-0,372	-0,297
76,407	107,009	-0,249	-0,208
77,422	100,971	-0,311	-0,254
78,436	232,910	-0,271	-0,314
79,451	36,124	-0,248	-0,153
80,466	64,393	-0,395	-0,279
81,480	76,291	-0,291	-0,216
82,495	4,757	-0,404	-0,208
83,509	-50,372	-0,282	-0,093
84,524	5,630	-0,224	-0,116
85,539	107,469	-0,253	-0,211
86,553	162,196	-0,289	-0,285
87,568	-3,108	-0,324	-0,158
88,582	167,529	-0,196	-0,196
89,597	104,604	-0,323	-0,267
90,611	18,696	-0,342	-0,192
91,626	-44,990	-0,340	-0,118
92,641	20,022	-0,214	-0,121
93,655	-22,597	-0,246	-0,104
94,670	137,648	-0,307	-0,282
95,684	116,916	-0,350	-0,301
96,699	101,167	-0,325	-0,266
97,714	34,875	-0,288	-0,177
98,728	44,149	-0,237	-0,153
99,743	110,552	-0,311	-0,262
100,757	-65,216	-0,323	-0,091
101,772	291,975	-0,261	-0,334
102,787	-53,071	-0,332	-0,106
103,801	20,155	-0,370	-0,209
104,816	115,072	-0,191	-0,164
105,830	-94,955	-0,196	-0,037
106,845	-72,871	-0,332	-0,085
107,860	-50,392	-0,199	-0,065
108,874	-113,945	-0,309	-0,042
109,889	81,635	-0,259	-0,196
110,903	235,886	-0,212	-0,246
111,918	-124,897	-0,339	-0,036
112,933	151,968	-0,209	-0,200
113,947	-63,612	-0,202	-0,058
114,962	71,605	-0,262	-0,191
115,976	110,843	-0,221	-0,186
116,991	60,555	-0,284	-0,197
118,006	75,828	-0,325	-0,241
119,020	-97,860	-0,250	-0,045
120,035	-17,598	-0,302	-0,132
121,049	8,247	-0,361	-0,189
122,064	142,278	-0,195	-0,182
123,079	107,681	-0,322	-0,269
124,093	554,492	-0,167	-0,282
125,108	94,814	-0,234	-0,186
126,122	26,868	-0,303	-0,177
127,137	-9,583	-0,191	-0,089
128,151	61,519	-0,162	-0,113
129,166	-4,252	-0,361	-0,174
130,181	-9,762	-0,354	-0,164
131,195	286,403	-0,204	-0,259
132,210	227,469	-0,285	-0,325
133,224	104,647	-0,274	-0,226
134,239	132,530	-0,200	-0,180
135,254	17,520	-0,184	-0,102
136,268	26,337	-0,221	-0,129
137,283	110,728	-0,182	-0,153
138,297	-5,993	-0,261	-0,124
139,312	74,284	-0,261	-0,192
140,327	122,237	-0,235	-0,205
141,341	-77,473	-0,362	-0,087
142,356	-99,157	-0,297	-0,052
143,370	89,079	-0,151	-0,118
144,385	139,875	-0,233	-0,215
145,400	-145,646	-0,334	-0,021
146,414	177,072	-0,301	-0,307
147,429	81,126	-0,266	-0,200
148,443	31,479	-0,297	-0,178
149,458	-67,957	-0,202	-0,055
150,473	114,561	-0,226	-0,193
151,487	-13,553	-0,330	-0,149
152,502	205,261	-0,202	-0,220
153,516	80,182	-0,249	-0,187
154,531	25,712	-0,243	-0,141
155,546	-74,682	-0,259	-0,064
156,560	-53,349	-0,192	-0,061
157,575	40,553	-0,324	-0,203
158,589	92,765	-0,181	-0,143
159,604	-136,610	-0,249	-0,020
160,619	-10,827	-0,282	-0,130
161,633	445,470	-0,163	-0,251
162,648	275,707	-0,234	-0,290
163,662	158,426	-0,186	-0,180
164,677	313,189	-0,157	-0,207
165,692	53,824	-0,204	-0,137
166,706	89,762	-0,244	-0,190
167,721	-37,312	-0,330	-0,122
168,735	64,076	-0,233	-0,163
169,750	10,728	-0,246	-0,130
170,764	96,934	-0,142	-0,114
171,779	-61,812	-0,319	-0,092
172,794	-53,724	-0,225	-0,071
173,808	23,540	-0,261	-0,149
174,823	328,082	-0,241	-0,323
175,837	-102,789	-0,240	-0,039
176,852	65,627	-0,363	-0,256
177,867	74,828	-0,106	-0,077
178,881	-62,226	-0,128	-0,037
179,896	-1,434	-0,268	-0,131
180,910	41,486	-0,297	-0,187
181,925	253,111	-0,240	-0,286
182,940	796,593	-0,085	-0,165
183,954	3,800	-0,258	-0,131
184,969	327,177	-0,195	-0,262
185,983	70,847	-0,250	-0,180
186,998	-77,288	-0,310	-0,074
188,013	-105,786	-0,292	-0,046
189,027	99,297	-0,253	-0,204
190,042	36,100	-0,279	-0,170
191,056	-137,288	-0,173	-0,013
192,071	215,616	-0,230	-0,255
193,086	266,683	-0,167	-0,203
194,100	110,285	-0,141	-0,118
195,115	55,945	-0,203	-0,137
196,129	-46,818	-0,400	-0,135
197,144	185,015	-0,131	-0,135
198,159	131,568	-0,178	-0,159
199,173	84,685	-0,256	-0,194
200,188	56,025	-0,226	-0,152
201,202	206,829	-0,161	-0,175
202,217	23,412	-0,303	-0,173
203,232	409,688	-0,213	-0,315
204,246	430,794	-0,178	-0,269
205,261	59,160	-0,194	-0,133
206,275	78,572	-0,158	-0,118
207,290	172,964	-0,211	-0,212
208,304	-2,143	-0,170	-0,083
209,319	-20,037	-0,185	-0,079
210,334	9,926	-0,228	-0,120
211,348	62,802	-0,346	-0,240
212,363	81,013	-0,201	-0,151
213,377	800,000	-0,060	-0,121
214,392	740,297	-0,070	-0,131
215,407	-46,581	-0,185	-0,062
216,421	-33,442	-0,090	0,034
217,436	771,878	-0,128	-0,243
218,450	643,548	-0,214	-0,380
219,465	170,452	-0,164	-0,163
220,480	-200,000	-0,034	-0,157
221,494	-97,243	-0,256	-0,046
222,509	134,438	-0,217	-0,196
223,523	387,731	-0,146	-0,210
224,538	63,016	-0,188	-0,131
225,553	93,183	-0,207	-0,162
226,567	208,343	-0,119	-0,129
227,582	317,513	-0,081	-0,106
228,596	28,313	-0,230	-0,134
229,611	0,211	-0,156	-0,077
230,626	117,771	-0,184	-0,157
231,640	-154,730	-0,276	0,012
232,655	76,385	-0,294	-0,216
233,669	376,892	-0,136	-0,193
234,684	453,855	-0,169	-0,260
235,699	-22,999	-0,202	-0,084
236,713	123,848	-0,167	-0,146
237,728	-131,181	-0,107	0,010
238,742	-5,947	-0,367	-0,173
239,757	462,653	-0,165	-0,256
240,772	66,548	-0,180	-0,126
241,786	182,870	-0,218	-0,223
242,801	-127,207	-0,181	0,018
243,815	310,446	-0,153	-0,200
244,830	185,561	-0,120	-0,123
245,844	32,696	-0,301	-0,180
246,859	800,000	-0,103	-0,278
247,874	388,570	-0,150	-0,216
248,888	155,752	-0,181	-0,173
249,903	96,270	-0,197	-0,156
250,917	651,573	-0,105	-0,186
251,932	-79,201	-0,200	0,046
252,947	-68,438	-0,171	-0,046
253,961	35,210	-0,143	-0,087
254,976	-200,000	-0,056	-0,226
255,990	58,458	-0,265	-0,180
257,005	-78,649	-0,368	-0,086
258,020	78,078	-0,050	-0,037
259,034	-40,015	-0,227	-0,081
260,049	-66,035	-0,170	-0,047
261,063	16,709	-0,193	-0,106
262,078	62,730	-0,262	-0,181
263,093	82,815	-0,181	-0,136
264,107	491,530	-0,155	-0,247
265,122	16,607	-0,119	-0,065
266,136	64,884	-0,138	-0,096
267,151	56,483	-0,138	-0,092
268,166	218,316	-0,190	-0,210
269,180	-80,811	-0,301	-0,069
270,195	34,002	-0,330	-0,198
271,209	-200,000	-0,051	-0,246
272,224	104,221	-0,083	-0,068
273,239	-15,017	-0,159	-0,070
274,253	228,287	-0,134	-0,151
275,268	-182,128	-0,132	0,002
276,282	-30,756	-0,177	-0,069
277,297	301,003	-0,186	-0,238
278,312	-29,609	-0,163	-0,064
279,326	92,515	-0,137	-0,106
280,341	216,206	-0,084	0,092
281,355	-13,393	-0,139	-0,062
282,370	-63,821	-0,197	-0,055
283,384	18,697	-0,144	-0,080
284,399	102,360	-0,145	-0,117
285,414	-8,421	-0,194	-0,090
286,428	-63,349	-0,257	-0,073
287,443	102,873	-0,183	-0,148
288,457	-38,877	-0,136	-0,049
289,472	-62,246	-0,223	-0,064
290,487	685,121	-0,144	-0,261
291,501	397,974	-0,122	-0,177
292,516	800,000	-0,096	-0,221
293,530	-200,000	-0,060	-0,183
294,545	-56,079	-0,140	-0,043
295,560	-74,197	-0,186	0,046
296,574	-72,726	-0,231	-0,058
297,589	-82,985	-0,088	-0,019
298,603	141,588	-0,199	-0,182
299,618	140,909	-0,209	-0,191
300,633	-196,186	-0,245	-0,001
301,647	-85,817	-0,159	0,034
302,662	75,878	-0,199	-0,145
303,676	-73,291	-0,212	-0,053
304,691	148,503	-0,169	-0,158
305,706	28,205	-0,110	-0,064
306,720	438,396	-0,142	-0,215
307,735	717,368	-0,079	-0,145
308,749	184,093	-0,057	-0,058
309,764	15,063	-0,188	-0,101
310,779	138,718	-0,094	-0,085
311,793	174,765	-0,207	-0,206
312,808	194,304	-0,150	-0,156
313,822	-43,354	-0,154	0,053
314,837	35,304	-0,050	-0,030
315,852	-153,336	-0,194	-0,009
316,866	-171,520	-0,196	-0,004
317,881	-136,738	-0,209	0,016
318,895	-39,305	-0,206	-0,074
319,910	107,244	-0,162	-0,132
320,925	-111,207	-0,232	-0,032
321,939	800,000	-0,087	-0,175
322,954	357,799	-0,033	-0,045
323,968	-39,143	-0,153	-0,055
324,983	-30,414	-0,156	-0,061
325,997	117,353	-0,094	-0,079
327,012	81,827	-0,162	-0,120
328,027	-14,532	-0,153	0,067
329,041	-98,362	-0,260	0,045
330,056	29,867	-0,180	-0,105
331,070	-174,268	-0,186	0,004
332,085	-25,760	-0,041	0,016
333,100	800,000	-0,082	-0,158
334,114	-133,854	-0,216	0,018
335,129	-92,248	-0,182	-0,035
336,143	-24,419	-0,230	0,094
337,158	-122,534	-0,120	-0,013
338,173	69,457	-0,109	-0,077
339,187	27,836	-0,071	0,041
340,202	-45,798	-0,200	-0,068
341,216	121,877	-0,184	-0,158
342,231	-37,834	-0,260	-0,094
343,246	-158,835	-0,232	-0,009
344,260	1,600	-0,231	-0,114
345,275	520,860	-0,124	-0,200
346,289	-200,000	-0,030	-0,108
347,304	-81,894	-0,114	0,025
348,319	25,873	-0,189	-0,108
349,333	125,317	-0,211	-0,183
350,348	39,737	-0,225	-0,138
351,362	-200,000	-0,023	-0,136
352,377	169,222	-0,185	-0,182
353,392	100,823	-0,146	-0,116
354,406	-194,891	-0,158	-0,001
355,421	210,052	1312,505	1414,491
356,435	161,687	1472,970	1414,984
