DTS Sentinel unit serial number:	SN410029Multiplexer serial number:	ORYXHardware model number:	OX2-SRSoftware version number:	ORYX F/W v4,00 Oryx Data Collector v3.7.2.0data status	okinstallation	B3 Nyhavnadifferential loss correction	single-endedforward channel	channel 1reverse channel	N/Adate	2023/12/02time	11:57:30forward acquisition time	300,00reverse acquisition time	0,00gamma	499,1914k internal	0,3199k external	0,3199temperature offset calibration	1,0000default loss term (dB/km)	0,3820temperature slope calibration	1,0000multiplexer offset coefficient	1,0000multiplexer slope coefficient	1,0000fibre end	0,00T internal ref (°C)	14,00T ext. ref 1 (°C)	-0,97T ext. ref 2 (°C)	-0,99length (m)	temperature (°C)	Stokes	anti-Stokes-744,400	101,750	-0,255	-0,216
-743,385	800,000	0,136	0,335
-742,371	800,000	-0,076	-0,171
-741,356	-200,000	-0,056	0,485
-740,342	430,511	-0,203	-0,321
-739,327	-200,000	-0,051	0,320
-738,312	450,618	-0,154	-0,248
-737,298	-200,000	-0,082	0,275
-736,283	305,210	-0,187	-0,254
-735,269	-200,000	0,074	0,288
-734,254	595,211	-0,165	-0,299
-733,239	162,084	-0,179	0,183
-732,225	197,769	-0,067	-0,075
-731,210	800,000	0,057	0,128
-730,196	-83,090	-0,112	-0,026
-729,181	-200,000	0,017	-0,142
-728,167	525,680	0,084	-0,144
-727,152	20,798	-0,046	-0,027
-726,137	-200,000	-0,005	0,056
-725,123	-200,000	0,027	0,094
-724,108	180,607	-0,121	-0,130
-723,094	301,770	-0,058	-0,078
-722,079	800,000	-0,062	-0,136
-721,064	-200,000	-0,010	0,038
-720,050	800,000	0,010	0,031
-719,035	-2,456	-0,034	0,017
-718,021	11,688	0,156	-0,087
-717,006	40,659	-0,059	0,039
-715,991	800,000	-0,036	0,090
-714,977	-200,000	-0,042	-0,159
-713,962	-90,853	0,094	-0,019
-712,948	-200,000	0,033	-0,112
-711,933	799,033	0,054	0,109
-710,918	-55,349	-0,046	0,015
-709,904	-200,000	-0,039	-0,177
-708,889	-200,000	-0,011	-0,065
-707,875	169,163	-0,114	-0,119
-706,860	-125,310	-0,090	0,010
-705,845	-200,000	0,017	0,061
-704,831	120,373	0,091	0,082
-703,816	-200,000	0,002	0,035
-702,802	-113,725	0,055	0,008
-701,787	712,786	-0,015	-0,029
-700,772	-112,823	-0,119	0,017
-699,758	-20,253	-0,042	-0,019
-698,743	504,994	0,035	0,060
-697,729	-91,240	0,086	0,018
-696,714	-200,000	0,007	-0,093
-695,699	-200,000	0,009	-0,107
-694,685	-142,651	0,100	0,007
-693,670	800,000	-0,031	-0,083
-692,656	-81,720	-0,090	-0,021
-691,641	443,198	-0,070	-0,111
-690,627	-200,000	0,009	-0,102
-689,612	-176,871	0,135	0,002
-688,597	-120,559	-0,101	0,012
-687,583	-100,172	-0,143	0,026
-686,568	393,540	-0,018	-0,027
-685,554	-200,000	0,003	0,052
-684,539	46,879	-0,020	-0,014
-683,524	-39,241	-0,064	0,024
-682,510	800,000	0,045	0,136
-681,495	-8,677	-0,039	0,019
-680,481	57,368	-0,014	-0,010
-679,466	149,965	-0,071	-0,070
-678,451	37,530	-0,068	-0,043
-677,437	-42,611	-0,024	0,009
-676,422	800,000	0,037	0,117
-675,408	25,200	-0,087	-0,052
-674,393	229,979	0,046	-0,055
-673,378	46,544	-0,068	0,046
-672,364	800,000	-0,056	-0,174
-671,349	340,806	0,035	-0,050
-670,335	-200,000	-0,000	-0,006
-669,320	32,091	-0,078	-0,049
-668,305	22,446	-0,122	0,072
-667,291	-32,948	0,100	0,040
-666,276	122,167	-0,100	-0,090
-665,262	-152,387	-0,056	-0,003
-664,247	459,512	-0,013	0,021
-663,232	1,969	-0,039	-0,020
-662,218	-200,000	0,016	0,149
-661,203	800,000	-0,012	0,036
-660,189	-200,000	-0,011	0,039
-659,174	800,000	-0,018	0,047
-658,159	-200,000	-0,015	-0,055
-657,145	-83,677	-0,199	-0,046
-656,130	800,000	0,058	0,161
-655,116	-82,639	0,093	0,022
-654,101	354,516	-0,041	0,059
-653,086	-97,855	0,021	0,004
-652,072	709,850	0,084	-0,162
-651,057	-86,311	-0,043	-0,009
-650,043	243,340	-0,098	-0,120
-649,028	-200,000	-0,008	0,040
-648,014	800,000	0,024	0,055
-646,999	297,111	-0,063	0,084
-645,984	122,074	-0,102	-0,092
-644,970	-200,000	-0,003	0,132
-643,955	328,723	-0,004	0,005
-642,941	-18,447	-0,105	-0,047
-641,926	-83,320	-0,160	0,037
-640,911	800,000	-0,071	0,155
-639,897	-200,000	0,026	0,096
-638,882	-153,922	-0,123	0,006
-637,868	-91,110	0,059	0,012
-636,853	66,142	-0,041	0,030
-635,838	-200,000	-0,030	-0,185
-634,824	-140,396	-0,169	-0,013
-633,809	800,000	0,043	-0,103
-632,795	210,322	0,091	0,104
-631,780	-200,000	0,041	0,156
-630,765	330,396	-0,086	-0,120
-629,751	48,932	-0,112	0,076
-628,736	-23,341	-0,196	-0,085
-627,722	-200,000	-0,031	-0,147
-626,707	226,476	0,050	0,059
-625,692	39,588	-0,114	0,074
-624,678	-65,336	0,103	-0,030
-623,663	402,046	0,036	0,054
-622,649	259,049	-0,079	0,099
-621,634	276,769	0,028	-0,036
-620,619	-105,215	0,164	0,027
-619,605	76,567	0,080	0,061
-618,590	800,000	-0,018	0,044
-617,576	-78,289	0,156	-0,039
-616,561	-83,127	-0,051	0,012
-615,546	-200,000	0,008	-0,056
-614,532	-200,000	-0,048	-0,184
-613,517	87,503	-0,070	0,056
-612,503	-200,000	-0,000	-0,023
-611,488	392,515	0,030	-0,045
-610,474	-69,520	-0,041	0,011
-609,459	-200,000	-0,002	0,111
-608,444	800,000	-0,024	0,054
-607,430	-200,000	0,008	-0,038
-606,415	557,363	-0,043	-0,075
-605,401	-49,703	-0,154	-0,053
-604,386	100,813	0,039	0,033
-603,371	800,000	0,058	0,150
-602,357	-200,000	0,015	-0,169
-601,342	800,000	-0,051	0,125
-600,328	472,342	-0,070	-0,115
-599,313	460,840	-0,029	-0,047
-598,298	-200,000	0,019	-0,112
-597,284	200,970	0,063	0,070
-596,269	2,823	0,042	0,022
-595,255	800,000	-0,026	-0,052
-594,240	-79,112	0,108	0,026
-593,225	37,050	0,035	-0,023
-592,211	-200,000	-0,003	-0,123
-591,196	70,984	-0,031	0,023
-590,182	800,000	0,033	-0,092
-589,167	376,403	0,043	0,064
-588,152	-7,766	-0,104	-0,051
-587,138	-7,000	-0,048	-0,023
-586,123	-200,000	-0,039	-0,211
-585,109	449,374	0,100	-0,160
-584,094	-74,630	0,040	-0,010
-583,079	-17,020	0,157	0,071
-582,065	-68,205	0,046	-0,013
-581,050	-200,000	-0,000	0,042
-580,036	78,631	-0,144	0,111
-579,021	469,679	0,059	-0,096
-578,006	-168,768	-0,143	0,004
-576,992	597,634	0,015	0,027
-575,977	-132,181	-0,155	-0,014
-574,963	-200,000	-0,003	0,132
-573,948	225,991	-0,049	0,058
-572,934	-200,000	-0,008	0,112
-571,919	-200,000	-0,028	0,114
-570,904	-200,000	0,024	-0,131
-569,890	-200,000	-0,025	0,125
-568,875	-101,991	-0,063	0,011
-567,861	-200,000	0,036	0,141
-566,846	-175,175	0,136	0,003
-565,831	523,598	0,020	-0,034
-564,817	74,013	0,084	-0,064
-563,802	800,000	0,048	-0,135
-562,788	-200,000	-0,044	-0,141
-561,773	-13,852	-0,097	0,045
-560,758	-200,000	0,009	-0,108
-559,744	-47,203	0,109	0,038
-558,729	376,597	-0,022	0,033
-557,715	800,000	0,027	-0,071
-556,700	-200,000	-0,024	-0,117
-555,685	-200,000	0,016	-0,124
-554,671	-200,000	0,013	-0,043
-553,656	71,602	0,060	0,045
-552,642	-200,000	0,006	0,134
-551,627	-200,000	0,011	-0,115
-550,612	-88,736	0,030	0,006
-549,598	456,715	-0,046	-0,074
-548,583	575,695	0,036	-0,064
-547,569	-59,159	-0,064	-0,020
-546,554	689,601	-0,002	-0,004
-545,539	-6,504	-0,041	-0,020
-544,525	-200,000	-0,001	0,024
-543,510	241,861	-0,072	-0,087
-542,496	800,000	-0,017	-0,044
-541,481	-133,186	-0,125	-0,011
-540,466	800,000	0,019	0,054
-539,452	231,801	-0,110	-0,130
-538,437	-56,006	0,180	0,058
-537,423	181,966	0,040	0,043
-536,408	290,688	-0,055	0,072
-535,393	299,526	-0,009	0,013
-534,379	347,987	-0,015	-0,022
-533,364	800,000	-0,024	0,066
-532,350	800,000	0,016	0,044
-531,335	137,805	-0,002	-0,002
-530,321	-138,531	-0,107	-0,008
-529,306	-200,000	0,032	0,174
-528,291	-114,101	0,086	-0,012
-527,277	800,000	-0,028	0,059
-526,262	-76,461	0,098	0,025
-525,248	177,534	0,010	-0,011
-524,233	-34,489	-0,054	0,021
-523,218	-136,384	0,128	0,011
-522,204	-47,089	-0,059	0,021
-521,189	800,000	0,075	-0,181
-520,175	-47,916	-0,097	0,034
-519,160	-12,090	-0,080	0,038
-518,145	168,413	-0,100	-0,103
-517,131	-13,500	0,111	0,052
-516,116	-106,939	-0,134	-0,021
-515,102	-53,655	0,070	0,023
-514,087	38,044	-0,100	-0,064
-513,072	-200,000	-0,018	-0,066
-512,058	800,000	0,060	0,135
-511,043	166,199	-0,069	0,070
-510,029	201,147	0,096	-0,106
-509,014	800,000	0,050	0,109
-507,999	800,000	-0,029	0,072
-506,985	131,656	-0,062	0,058
-505,970	-200,000	-0,006	0,070
-504,956	-110,526	0,071	-0,011
-503,941	104,588	-0,073	0,062
-502,926	301,200	0,058	-0,077
-501,912	-200,000	-0,008	0,064
-500,897	743,631	-0,040	-0,078
-499,883	-200,000	0,016	-0,081
-498,868	298,517	-0,017	0,023
-497,853	-105,082	-0,041	0,007
-496,839	-112,778	-0,139	-0,020
-495,824	800,000	-0,020	0,046
-494,810	38,007	0,105	0,067
-493,795	-200,000	-0,017	0,079
-492,781	170,740	0,055	-0,057
-491,766	-131,305	0,160	0,015
-490,751	800,000	-0,026	-0,068
-489,737	-200,000	-0,032	-0,145
-488,722	38,291	-0,062	-0,040
-487,708	800,000	0,011	0,025
-486,693	348,752	0,042	-0,060
-485,678	-147,804	-0,088	-0,005
-484,664	99,739	-0,155	0,129
-483,649	44,703	0,083	-0,055
-482,635	-11,321	0,025	-0,012
-481,620	800,000	-0,008	-0,023
-480,605	-6,470	-0,132	-0,065
-479,591	202,734	0,059	-0,066
-478,576	213,014	-0,022	-0,025
-477,562	-200,000	-0,008	-0,065
-476,547	101,941	-0,039	0,033
-475,532	-200,000	-0,013	-0,058
-474,518	252,024	0,083	0,103
-473,503	-118,574	-0,036	0,004
-472,489	800,000	-0,023	0,069
-471,474	-56,279	-0,051	0,016
-470,459	29,252	-0,063	-0,038
-469,445	-69,451	-0,128	-0,035
-468,430	-200,000	0,036	-0,117
-467,416	-140,638	-0,015	-0,001
-466,401	-200,000	0,019	0,164
-465,386	-200,000	-0,008	0,060
-464,372	27,756	0,034	0,020
-463,357	800,000	0,032	-0,099
-462,343	-164,210	-0,134	0,004
-461,328	240,134	-0,083	-0,100
-460,313	266,606	-0,037	0,047
-459,299	-200,000	0,001	0,035
-458,284	800,000	-0,023	-0,065
-457,270	16,619	0,069	-0,039
-456,255	115,021	-0,085	-0,075
-455,241	-200,000	-0,011	-0,086
-454,226	7,740	-0,085	0,046
-453,211	-77,316	0,063	-0,016
-452,197	800,000	0,027	0,061
-451,182	163,775	-0,034	-0,035
-450,168	71,293	-0,069	0,052
-449,153	131,409	-0,096	-0,089
-448,138	-78,947	0,029	-0,007
-447,124	-200,000	-0,049	-0,208
-446,109	-200,000	0,018	-0,126
-445,095	214,395	0,088	-0,100
-444,080	-82,040	0,054	0,012
-443,065	628,054	-0,060	0,109
-442,051	111,324	-0,083	-0,072
-441,036	-200,000	0,006	-0,049
-440,022	-151,794	-0,118	-0,006
-439,007	-200,000	0,020	0,131
-437,992	-118,305	0,102	0,013
-436,978	-27,058	-0,074	0,031
-435,963	-24,195	0,140	0,060
-434,949	800,000	-0,018	0,042
-433,934	78,910	0,059	-0,045
-432,919	102,863	-0,056	-0,047
-431,905	146,031	-0,043	-0,041
-430,890	-200,000	0,014	-0,061
-429,876	61,886	0,066	0,047
-428,861	1,940	0,115	0,060
-427,846	447,657	0,064	0,102
-426,832	753,403	-0,040	0,077
-425,817	359,426	-0,046	-0,067
-424,803	557,780	0,024	-0,042
-423,788	-200,000	0,026	0,138
-422,773	124,633	-0,068	0,061
-421,759	172,983	0,095	0,098
-420,744	-107,099	-0,044	-0,007
-419,730	-145,860	-0,073	-0,005
-418,715	334,671	0,061	0,085
-417,701	-200,000	-0,015	-0,049
-416,686	281,432	-0,036	0,047
-415,671	-3,715	0,096	0,048
-414,657	-87,703	0,108	-0,023
-413,642	-200,000	-0,009	-0,070
-412,628	800,000	0,043	-0,118
-411,613	-53,150	0,081	-0,027
-410,598	33,254	0,036	-0,023
-409,584	328,310	0,069	-0,096
-408,569	100,960	0,086	0,072
-407,555	764,087	0,064	0,125
-406,540	-13,441	-0,032	0,015
-405,525	113,212	0,124	-0,108
-404,511	-93,868	-0,145	-0,028
-403,496	800,000	0,028	-0,066
-402,482	800,000	-0,018	-0,038
-401,467	-58,703	0,179	0,055
-400,452	96,417	0,035	-0,028
-399,438	800,000	-0,025	-0,053
-398,423	-162,148	-0,075	0,003
-397,409	-127,300	0,064	0,007
-396,394	-8,420	-0,222	-0,107
-395,379	-84,016	0,074	0,017
-394,365	402,770	0,111	0,169
-393,350	2,567	0,072	0,037
-392,336	81,743	0,125	0,097
-391,321	322,854	-0,043	0,059
-390,306	-200,000	-0,011	0,059
-389,292	-126,502	0,015	0,002
-388,277	-52,676	0,090	0,030
-387,263	789,636	0,078	0,154
-386,248	553,531	0,025	-0,044
-385,233	-110,778	0,060	-0,009
-384,219	800,000	0,051	0,119
-383,204	-10,664	0,025	0,012
-382,190	800,000	-0,067	-0,185
-381,175	389,974	-0,022	-0,033
-380,160	222,078	0,077	0,089
-379,146	-89,317	0,117	-0,024
-378,131	124,634	-0,078	-0,070
-377,117	28,586	0,056	0,034
-376,102	17,398	-0,065	-0,037
-375,088	-200,000	-0,013	-0,119
-374,073	-93,488	-0,080	-0,016
-373,058	800,000	0,019	0,043
-372,044	307,667	0,027	0,036
-371,029	217,422	0,059	-0,067
-370,015	-92,677	-0,094	0,019
-369,000	-164,978	0,191	0,006
-367,985	-65,081	-0,068	-0,020
-366,971	800,000	0,038	0,102
-365,956	800,000	0,011	0,034
-364,942	-102,921	0,095	0,016
-363,927	-94,505	0,085	0,016
-362,912	114,502	0,060	0,052
-361,898	-59,944	-0,120	-0,036
-360,883	14,246	-0,038	0,021
-359,869	-200,000	-0,020	-0,075
-358,854	37,046	0,090	0,057
-357,839	-200,000	-0,009	-0,034
-356,825	-135,391	0,099	0,008
-355,810	-200,000	-0,020	-0,153
-354,796	-25,374	-0,077	0,033
-353,781	-30,270	-0,163	0,066
-352,766	193,373	-0,048	0,052
-351,752	-200,000	0,009	-0,096
-350,737	151,031	0,040	-0,039
-349,723	-67,222	0,107	-0,030
-348,708	-200,000	0,008	0,149
-347,693	165,862	0,042	0,043
-346,679	-200,000	-0,015	-0,128
-345,664	508,768	-0,057	-0,095
-344,650	683,335	-0,020	-0,038
-343,635	-200,000	0,019	-0,078
-342,620	571,792	-0,031	0,054
-341,606	800,000	-0,056	0,135
-340,591	44,431	0,035	-0,023
-339,577	10,319	-0,121	-0,066
-338,562	-140,195	-0,114	-0,008
-337,548	595,254	-0,023	-0,041
-336,533	64,185	0,074	-0,054
-335,518	-2,829	0,033	0,017
-334,504	-200,000	0,007	0,063
-333,489	12,248	-0,118	0,065
-332,475	-85,560	-0,141	-0,031
-331,460	367,380	0,137	-0,199
-330,445	105,360	0,041	-0,035
-329,431	800,000	-0,032	0,081
-328,416	-200,000	0,035	-0,155
-327,402	69,221	0,124	0,091
-326,387	800,000	-0,062	0,166
-325,372	-92,906	-0,117	-0,023
-324,358	-200,000	0,026	-0,125
-323,343	-157,532	0,086	-0,004
-322,329	779,848	0,012	0,024
-321,314	-59,337	0,116	0,036
-320,299	97,386	0,061	0,050
-319,285	800,000	-0,019	0,055
-318,270	53,861	0,051	-0,035
-317,256	405,702	0,058	0,088
-316,241	164,678	-0,136	-0,138
-315,226	22,228	-0,077	0,045
-314,212	17,578	0,189	0,107
-313,197	678,042	0,068	0,127
-312,183	-52,325	-0,055	-0,018
-311,168	-200,000	-0,001	0,062
-310,153	-200,000	0,024	-0,112
-309,139	12,110	-0,156	-0,086
-308,124	208,532	0,050	0,056
-307,110	-136,679	-0,047	-0,004
-306,095	-3,821	0,049	-0,024
-305,080	-31,361	0,035	0,014
-304,066	800,000	-0,051	-0,140
-303,051	-120,390	-0,077	0,009
-302,037	167,145	0,026	0,026
-301,022	384,780	-0,062	0,092
-300,008	-114,818	0,055	0,007
-298,993	362,037	0,025	0,036
-297,978	158,644	0,053	0,053
-296,964	10,886	0,021	-0,011
-295,949	-99,033	0,129	0,023
-294,935	-166,419	0,053	-0,002
-293,920	-200,000	0,019	0,080
-292,905	800,000	-0,013	-0,029
-291,891	449,817	-0,068	0,107
-290,876	-200,000	0,010	0,058
-289,862	25,767	-0,167	0,099
-288,847	47,104	-0,029	-0,019
-287,832	-145,099	-0,043	0,003
-286,818	800,000	0,017	0,050
-285,803	-154,400	-0,132	0,006
-284,789	-200,000	0,029	0,101
-283,774	-200,000	0,005	-0,022
-282,759	-132,525	0,148	0,013
-281,745	103,691	-0,143	-0,120
-280,730	-132,039	-0,112	0,010
-279,716	-200,000	0,000	-0,147
-278,701	343,149	0,091	0,128
-277,686	231,807	-0,045	0,053
-276,672	-40,787	0,092	-0,034
-275,657	-112,205	0,098	0,014
-274,643	153,293	-0,064	-0,063
-273,628	-13,134	0,073	0,034
-272,613	-200,000	-0,008	-0,054
-271,599	-83,257	0,054	0,012
-270,584	-10,005	-0,167	0,079
-269,570	800,000	0,017	0,039
-268,555	77,565	-0,031	-0,023
-267,540	-200,000	0,032	-0,130
-266,526	-200,000	0,027	0,146
-265,511	-121,763	-0,094	0,011
-264,497	17,390	-0,097	0,055
-263,482	350,773	-0,034	0,049
-262,467	-200,000	0,009	0,034
-261,453	-96,498	-0,103	-0,019
-260,438	-46,550	-0,104	-0,036
-259,424	-61,386	0,084	-0,025
-258,409	-123,329	-0,014	0,002
-257,395	16,047	0,012	0,007
-256,380	-200,000	0,001	0,067
-255,365	-29,764	0,113	0,046
-254,351	800,000	-0,102	0,211
-253,336	128,376	0,144	0,131
-252,322	510,947	-0,056	-0,093
-251,307	-44,002	0,075	0,027
-250,292	371,680	0,020	0,029
-249,278	432,694	-0,072	0,112
-248,263	-54,046	0,049	0,016
-247,249	-94,059	0,106	0,021
-246,234	346,597	0,031	-0,043
-245,219	-82,406	-0,080	0,019
-244,205	-90,900	-0,015	0,003
-243,190	-78,817	-0,105	-0,025
-242,176	-27,512	-0,138	0,057
-241,161	113,230	0,022	0,019
-240,146	-200,000	0,010	0,143
-239,132	375,248	-0,045	-0,065
-238,117	800,000	-0,033	-0,088
-237,103	-200,000	-0,025	-0,139
-236,088	238,386	0,016	-0,019
-235,073	-200,000	-0,003	0,087
-234,059	51,996	0,160	0,108
-233,044	-3,556	-0,149	0,073
-232,030	-200,000	-0,014	0,049
-231,015	443,448	-0,012	-0,019
-230,000	800,000	0,103	-0,251
-228,986	372,984	-0,026	-0,038
-227,971	160,581	0,063	0,062
-226,957	800,000	0,040	0,109
-225,942	-200,000	0,004	0,072
-224,927	89,813	0,071	-0,057
-223,913	-200,000	-0,005	0,140
-222,898	-1,239	0,193	-0,097
-221,884	88,661	-0,024	-0,019
-220,869	176,117	0,107	-0,111
-219,855	-82,531	0,077	0,018
-218,840	143,797	-0,050	0,048
-217,825	345,819	-0,060	0,084
-216,811	-200,000	-0,004	-0,145
-215,796	-53,409	-0,010	0,003
-214,782	-81,179	-0,110	-0,026
-213,767	142,556	0,084	0,080
-212,752	7,993	-0,040	-0,021
-211,738	-85,814	0,098	-0,021
-210,723	10,124	0,078	0,042
-209,709	-200,000	-0,024	-0,156
-208,694	378,326	-0,073	-0,107
-207,679	-200,000	0,000	0,072
-206,665	13,542	-0,023	0,012
-205,650	-125,528	-0,021	-0,002
-204,636	-35,806	0,089	0,034
-203,621	-200,000	0,009	-0,058
-202,606	-200,000	-0,000	0,074
-201,592	800,000	-0,042	-0,107
-200,577	-200,000	-0,023	0,099
-199,563	63,710	0,136	-0,097
-198,548	264,374	0,018	-0,023
-197,533	800,000	0,024	-0,063
-196,519	-28,805	0,059	0,024
-195,504	288,338	-0,005	0,006
-194,490	-142,062	-0,081	-0,006
-193,475	-200,000	-0,031	-0,124
-192,460	-200,000	-0,013	0,096
-191,446	-192,534	0,041	-0,000
-190,431	-200,000	-0,047	0,158
-189,417	34,905	0,050	-0,031
-188,402	-200,000	-0,017	-0,091
-187,387	-168,660	0,137	0,004
-186,373	35,371	-0,107	-0,067
-185,358	-200,000	0,007	0,063
-184,344	-96,225	0,131	0,024
-183,329	91,627	-0,025	0,020
-182,315	-200,000	0,011	-0,142
-181,300	-106,753	0,177	-0,028
-180,285	-155,659	-0,100	0,004
-179,271	-200,000	-0,021	-0,071
-178,256	800,000	-0,041	0,107
-177,242	45,396	0,089	-0,059
-176,227	-200,000	0,011	0,080
-175,212	-85,750	0,087	-0,019
-174,198	-111,406	-0,167	0,024
-173,183	-3,324	-0,037	0,018
-172,169	800,000	0,025	0,079
-171,154	331,543	0,021	-0,029
-170,139	66,457	0,145	0,105
-169,125	800,000	0,045	0,126
-168,110	-200,000	0,026	-0,117
-167,096	-56,849	-0,077	0,024
-166,081	380,776	0,033	-0,048
-165,066	697,956	0,051	-0,095
-164,052	637,094	0,033	-0,060
-163,037	-177,054	0,096	0,002
-162,023	800,000	0,014	-0,039
-161,008	-127,498	-0,045	0,005
-159,993	46,658	0,018	-0,012
-158,979	221,244	-0,056	-0,064
-157,964	161,176	-0,169	-0,168
-156,950	800,000	0,049	-0,144
-155,935	-132,553	-0,064	0,006
-154,920	657,007	0,049	-0,091
-153,906	302,085	0,108	0,142
-152,891	-200,000	0,011	0,100
-151,877	-125,533	0,099	0,011
-150,862	73,693	-0,239	-0,178
-149,847	-200,000	0,012	-0,083
-148,833	148,861	-0,053	0,051
-147,818	-200,000	-0,004	0,046
-146,804	-49,185	0,149	0,050
-145,789	-93,188	-0,010	0,002
-144,775	-105,271	0,062	0,010
-143,760	-79,940	-0,061	0,014
-142,745	-38,897	-0,135	0,050
-141,731	592,783	0,016	-0,028
-140,716	-51,397	-0,141	0,047
-139,702	-9,342	-0,041	-0,019
-138,687	335,525	-0,010	0,014
-137,672	127,075	-0,042	-0,037
-136,658	-69,265	-0,157	0,042
-135,643	-200,000	-0,000	-0,169
-134,629	800,000	-0,023	-0,062
-133,614	-7,773	-0,058	-0,028
-132,599	317,631	0,069	0,093
-131,585	292,934	0,025	-0,032
-130,570	263,422	-0,101	0,125
-129,556	26,657	-0,065	-0,038
-128,541	-92,594	-0,080	-0,016
-127,526	-200,000	0,001	0,175
-126,512	799,982	0,022	0,042
-125,497	-200,000	-0,006	0,162
-124,483	160,641	-0,093	0,092
-123,468	-200,000	0,004	0,068
-122,453	143,824	0,056	-0,053
-121,439	-58,658	-0,029	0,009
-120,424	800,000	-0,038	0,076
-119,410	-151,093	-0,042	0,002
-118,395	-200,000	0,005	0,066
-117,380	800,000	0,057	0,137
-116,366	114,612	-0,090	0,078
-115,351	800,000	-0,023	0,056
-114,337	-35,293	-0,114	-0,044
-113,322	-200,000	-0,006	-0,063
-112,307	-39,590	0,062	-0,023
-111,293	269,425	0,032	0,039
-110,278	-200,000	0,031	0,099
-109,264	67,500	0,084	-0,061
-108,249	-128,779	0,122	-0,012
-107,234	79,022	0,158	-0,120
-106,220	-79,637	-0,053	-0,013
-105,205	-121,936	0,169	-0,019
-104,191	-200,000	-0,014	0,081
-103,176	380,326	-0,010	0,014
-102,162	-88,186	-0,071	0,015
-101,147	12,283	0,081	-0,044
-100,132	-73,775	0,104	-0,027
-99,118	-200,000	-0,007	-0,040
-98,103	800,000	-0,101	0,221
-97,089	-127,702	-0,092	-0,009
-96,074	-56,929	-0,060	0,019
-95,059	-200,000	-0,005	-0,022
-94,045	-66,506	-0,117	-0,033
-93,030	800,000	-0,023	-0,052
-92,016	-200,000	0,029	0,137
-91,001	-200,000	0,012	0,043
-89,986	-30,061	-0,072	-0,029
-88,972	-188,275	0,068	0,001
-87,957	7,793	-0,129	0,068
-86,943	-20,679	-0,118	0,051
-85,928	-49,407	-0,101	0,034
-84,913	800,000	-0,030	0,063
-83,899	62,232	0,097	0,069
-82,884	240,483	0,040	0,047
-81,870	50,008	-0,077	-0,052
-80,855	30,616	0,056	-0,034
-79,840	800,000	-0,069	0,185
-78,826	-200,000	0,003	-0,014
-77,811	800,000	-0,029	-0,072
-76,797	800,000	-0,043	-0,123
-75,782	-2,402	0,067	-0,033
-74,767	30,279	0,030	0,018
-73,753	52,710	0,059	0,040
-72,738	292,288	0,039	-0,050
-71,724	-123,614	-0,134	-0,015
-70,709	167,139	0,044	0,044
-69,694	481,358	-0,050	-0,081
-68,680	-200,000	-0,005	0,047
-67,665	58,209	-0,032	0,022
-66,651	159,711	-0,069	0,068
-65,636	-21,996	0,069	-0,030
-64,622	-124,561	0,091	-0,010
-63,607	3,195	-0,166	-0,085
-62,592	-200,000	-0,011	0,074
-61,578	212,192	-0,073	-0,082
-60,563	261,073	-0,064	0,078
-59,549	800,000	-0,065	0,151
-58,534	-12,096	-1,491	-0,689
-57,519	413,369	-1,414	-2,138
-56,505	-200,000	-0,592	-4,464
-55,490	193,837	0,915	0,983
-54,476	800,000	4,796	11,533
-53,461	-200,000	18,880	308,482
-52,446	800,000	738,600	2308,494
-51,432	571,235	1654,615	2864,823
-50,417	78,966	1670,151	1265,302
-49,403	21,954	1542,813	888,766
-48,388	15,861	1465,448	814,589
-47,373	17,841	1455,624	818,663
-46,359	16,906	1445,501	808,453
-45,344	14,119	1441,068	792,598
-44,330	14,069	1438,934	791,150
-43,315	14,053	1437,517	790,263
-42,300	14,045	1435,675	789,185
-41,286	14,057	1434,680	788,662
-40,271	14,064	1433,300	787,906
-39,257	14,051	1431,854	787,019
-38,242	14,096	1430,523	786,469
-37,227	14,151	1429,366	786,061
-36,213	14,099	1428,097	785,087
-35,198	14,102	1427,013	784,475
-34,184	14,127	1426,087	784,053
-33,169	14,071	1424,780	783,037
-32,154	14,137	1423,530	782,634
-31,140	14,135	1422,218	781,869
-30,125	14,139	1421,167	781,280
-29,111	14,140	1419,942	780,578
-28,096	14,079	1418,988	779,739
-27,082	14,040	1418,030	778,998
-26,067	14,005	1417,117	778,299
-25,052	14,000	1415,996	777,629
-24,038	14,019	1414,919	777,097
-23,023	13,970	1413,979	776,320
-22,009	13,984	1412,868	775,743
-20,994	13,991	1411,929	775,229
-19,979	13,948	1411,127	774,557
-18,965	13,972	1410,204	774,132
-17,950	13,967	1409,183	773,519
-16,936	14,004	1408,279	773,164
-15,921	13,924	1407,164	772,144
-14,906	13,960	1406,298	771,807
-13,892	13,963	1405,162	771,170
-12,877	13,913	1404,549	770,568
-11,863	13,941	1403,497	770,090
-10,848	13,891	1402,640	769,357
-9,833	13,878	1401,853	768,836
-8,819	13,877	1400,811	768,229
-7,804	13,851	1399,959	767,611
-6,790	13,825	1399,021	766,941
-5,775	13,792	1397,866	766,126
-4,760	13,855	1396,930	765,877
-3,746	13,802	1396,255	765,228
-2,731	13,839	1395,217	764,801
-1,717	13,807	1394,496	764,226
-0,702	13,807	1392,549	763,132
0,313	17,688	1310,395	736,086
1,327	34,107	705,549	434,357
2,342	52,361	123,808	83,483
3,356	3,739	16,608	8,554
4,371	5,377	3,189	1,660
5,386	0,684	0,500	0,252
6,400	457,966	0,168	0,265
7,415	-78,020	-0,244	-0,059
8,429	96,213	-0,250	-0,202
9,444	-117,009	-0,475	-0,061
10,459	40,212	-0,238	-0,151
11,473	100,750	-0,294	-0,241
12,488	-2,087	-0,277	-0,137
13,502	-2,375	-0,349	-0,172
14,517	161,433	-0,342	-0,338
15,531	82,982	-0,399	-0,307
16,546	74,231	-0,298	-0,221
17,561	117,898	-0,409	-0,356
18,575	127,512	-0,158	-0,142
19,590	81,649	-0,285	-0,218
20,604	800,000	-0,126	-0,276
21,619	39,845	-0,437	-0,276
22,634	41,959	-0,503	-0,322
23,648	30,473	-0,467	-0,281
24,663	14,533	-0,430	-0,236
25,677	-12,245	-0,482	-0,222
26,692	24,034	-0,355	-0,206
27,707	-16,390	-0,338	-0,151
28,721	67,764	-0,310	-0,224
29,736	169,330	-0,385	-0,388
30,750	27,948	-0,426	-0,253
31,765	72,675	-0,350	-0,258
32,780	47,383	-0,366	-0,240
33,794	187,316	-0,249	-0,263
34,809	20,922	-0,421	-0,240
35,823	71,616	-0,393	-0,288
36,838	119,889	-0,358	-0,313
37,853	294,253	-0,294	-0,380
38,867	-26,894	-0,316	-0,130
39,882	12,963	-0,445	-0,242
40,896	13,355	-0,263	-0,143
41,911	-44,595	-0,372	-0,130
42,926	288,555	-0,239	-0,306
43,940	77,663	-0,362	-0,272
44,955	0,880	-0,443	-0,223
45,969	631,969	-0,224	-0,402
46,984	57,428	-0,267	-0,184
47,999	-21,146	-0,349	-0,150
49,013	45,016	-0,346	-0,224
50,028	84,378	-0,252	-0,194
51,042	28,964	-0,400	-0,238
52,057	-5,819	-0,359	-0,172
53,071	164,775	-0,325	-0,323
54,086	178,098	-0,308	-0,317
55,101	84,904	-0,263	-0,203
56,115	81,844	-0,294	-0,224
57,130	-51,679	-0,455	-0,148
58,144	-2,241	-0,407	-0,201
59,159	43,780	-0,468	-0,302
60,174	-19,436	-0,394	-0,171
61,188	91,567	-0,320	-0,253
62,203	14,828	-0,436	-0,239
63,217	72,258	-0,327	-0,240
64,232	41,257	-0,276	-0,176
65,247	61,244	-0,324	-0,226
66,261	5,589	-0,374	-0,194
67,276	14,775	-0,331	-0,181
68,290	6,983	-0,294	-0,154
69,305	291,594	-0,235	-0,302
70,320	-15,979	-0,368	-0,164
71,334	102,363	-0,238	-0,195
72,349	-43,521	-0,529	-0,187
73,363	40,968	-0,348	-0,220
74,378	217,110	-0,200	-0,224
75,393	76,510	-0,333	-0,248
76,407	240,604	-0,200	-0,236
77,422	170,022	-0,227	-0,229
78,436	-23,913	-0,330	-0,138
79,451	117,014	-0,341	-0,295
80,466	124,797	-0,146	-0,129
81,480	266,799	-0,290	-0,357
82,495	48,417	-0,313	-0,205
83,509	-61,299	-0,368	-0,108
84,524	22,731	-0,246	-0,141
85,539	89,251	-0,336	-0,263
86,553	18,298	-0,228	-0,127
87,568	53,988	-0,343	-0,231
88,582	88,147	-0,228	-0,178
89,597	94,137	-0,232	-0,185
90,611	-28,632	-0,282	-0,113
91,626	-61,200	-0,178	-0,052
92,641	33,511	-0,229	-0,139
93,655	-96,383	-0,318	-0,059
94,670	239,311	-0,201	-0,236
95,684	-19,122	-0,296	-0,129
96,699	-35,009	-0,293	-0,112
97,714	163,721	-0,256	-0,253
98,728	-9,130	-0,188	-0,088
99,743	-64,379	-0,255	-0,072
100,757	29,735	-0,263	-0,157
101,772	21,133	-0,281	-0,160
102,787	-59,872	-0,282	-0,084
103,801	-14,028	-0,382	-0,172
104,816	230,163	-0,163	-0,188
105,830	70,351	-0,220	-0,159
106,845	-71,100	-0,159	-0,042
107,860	8,705	-0,265	-0,140
108,874	60,307	-0,239	-0,166
109,889	34,613	-0,384	-0,235
110,903	71,803	-0,293	-0,213
111,918	275,373	-0,162	-0,202
112,933	92,509	-0,306	-0,242
113,947	145,301	-0,203	-0,190
114,962	-21,121	-0,337	-0,144
115,976	56,219	-0,265	-0,180
116,991	-25,168	-0,330	-0,136
118,006	-1,133	-0,323	-0,159
119,020	199,738	-0,308	-0,332
120,035	-7,582	-0,239	-0,113
121,049	78,835	-0,272	-0,204
122,064	8,283	-0,282	-0,148
123,079	75,050	-0,145	-0,107
124,093	-77,910	-0,387	-0,093
125,108	275,942	-0,256	-0,318
126,122	151,762	-0,262	-0,250
127,137	34,005	-0,240	-0,146
128,151	69,051	-0,312	-0,224
129,166	-17,492	-0,240	-0,105
130,181	-191,181	-0,255	-0,002
131,195	-2,344	-0,280	-0,137
132,210	97,013	-0,204	-0,163
133,224	-75,657	-0,313	-0,077
134,239	42,151	-0,223	-0,141
135,254	-1,232	-0,243	-0,119
136,268	48,004	-0,338	-0,220
137,283	-60,483	-0,317	-0,094
138,297	253,620	-0,224	-0,268
139,312	523,191	-0,171	-0,283
140,327	295,991	-0,195	-0,250
141,341	58,865	-0,202	-0,139
142,356	172,358	-0,161	-0,162
143,370	114,653	-0,173	-0,147
144,385	713,981	-0,106	-0,197
145,400	132,726	-0,307	-0,277
146,414	184,307	-0,269	-0,279
147,429	237,330	-0,237	-0,275
148,443	78,213	-0,235	-0,175
149,458	100,948	-0,262	-0,213
150,473	320,442	-0,181	-0,240
151,487	28,493	-0,219	-0,129
152,502	79,149	-0,242	-0,181
153,516	4,840	-0,265	-0,136
154,531	194,562	-0,250	-0,265
155,546	285,417	-0,168	-0,212
156,560	-42,805	-0,206	-0,073
157,575	-24,433	-0,312	-0,129
158,589	253,562	-0,223	-0,266
159,604	165,805	-0,215	-0,213
160,619	37,264	-0,239	-0,147
161,633	-32,320	-0,324	-0,126
162,648	38,715	-0,215	-0,134
163,662	-61,227	-0,235	-0,069
164,677	236,621	-0,167	-0,194
165,692	18,898	-0,169	-0,094
166,706	-102,999	-0,207	-0,034
167,721	76,039	-0,260	-0,192
168,735	180,442	-0,255	-0,261
169,750	-27,417	-0,332	-0,134
170,764	-200,000	0,022	-0,128
171,779	-200,000	-0,249	-0,000
172,794	186,109	-0,194	-0,202
173,808	-200,000	-0,370	0,000
174,823	385,675	-0,154	-0,222
175,837	-72,244	-0,257	-0,066
176,852	-12,655	-0,257	-0,116
177,867	94,960	-0,273	-0,217
178,881	-17,946	-0,207	-0,090
179,896	-66,208	-0,324	-0,089
180,910	-83,241	-0,243	-0,054
181,925	-27,014	-0,403	-0,163
182,940	91,555	-0,301	-0,236
183,954	178,319	-0,249	-0,254
184,969	119,284	-0,254	-0,218
185,983	226,214	-0,118	-0,133
186,998	-200,000	-0,037	-0,168
188,013	481,646	-0,156	-0,247
189,027	-95,178	-0,425	-0,079
190,042	800,000	-0,081	-0,230
191,056	30,763	-0,250	-0,149
192,071	800,000	-0,119	-0,285
193,086	144,696	-0,164	-0,153
194,100	21,129	-0,197	-0,111
195,115	195,313	-0,109	-0,116
196,129	-82,237	-0,295	-0,066
197,144	693,901	-0,151	-0,277
198,159	112,736	-0,202	-0,170
199,173	8,029	-0,335	-0,175
200,188	48,160	-0,265	-0,172
201,202	63,273	-0,170	-0,118
202,217	169,312	-0,221	-0,220
203,232	-29,217	-0,237	-0,094
204,246	85,839	-0,338	-0,258
205,261	800,000	-0,044	-0,130
206,275	-26,174	-0,263	-0,107
207,290	-40,554	-0,167	-0,060
208,304	7,393	-0,144	-0,075
209,319	59,127	-0,201	-0,137
210,334	184,760	-0,141	-0,145
211,348	387,764	-0,164	-0,236
212,363	29,659	-0,209	-0,124
213,377	800,000	-0,086	-0,165
214,392	582,239	-0,076	-0,130
215,407	800,000	-0,074	-0,147
216,421	-87,434	-0,175	-0,037
217,436	124,281	-0,221	-0,193
218,450	129,726	-0,286	-0,254
219,465	581,858	-0,195	-0,333
220,480	360,806	-0,060	-0,084
221,494	87,748	-0,179	-0,138
222,509	10,271	-0,187	-0,099
223,523	93,566	-0,237	-0,186
224,538	-63,321	-0,162	-0,046
225,553	75,592	-0,198	-0,145
226,567	135,001	-0,225	-0,203
227,582	272,762	-0,207	-0,254
228,596	-10,550	-0,143	0,065
229,611	209,923	-0,039	-0,042
230,626	149,104	-0,201	-0,189
231,640	-104,625	-0,204	-0,032
232,655	273,198	-0,127	-0,156
233,669	6,752	-0,206	-0,106
234,684	98,069	-0,199	-0,159
235,699	69,760	-0,193	-0,138
236,713	-45,414	-0,087	0,030
237,728	-12,645	-0,154	0,069
238,742	43,931	-0,144	-0,092
239,757	-38,727	-0,181	-0,066
240,772	86,703	-0,212	-0,162
241,786	595,694	-0,132	-0,228
242,801	36,742	-0,232	-0,142
243,815	-66,799	-0,229	-0,062
244,830	102,259	-0,160	-0,130
245,844	-10,098	-0,251	-0,115
246,859	239,054	-0,059	-0,069
247,874	68,491	-0,175	-0,124
248,888	143,966	-0,134	-0,124
249,903	7,042	-0,267	-0,137
250,917	156,737	-0,145	-0,139
251,932	117,760	-0,118	0,100
252,947	-57,335	-0,295	-0,089
253,961	156,355	-0,221	-0,211
254,976	-15,875	-0,234	-0,103
255,990	529,379	-0,111	-0,182
257,005	-65,758	-0,170	-0,047
258,020	175,537	-0,170	-0,171
259,034	-68,309	-0,150	-0,040
260,049	93,108	-0,185	-0,144
261,063	81,692	-0,150	-0,112
262,078	10,906	-0,304	-0,160
263,093	152,732	-0,149	-0,141
264,107	26,201	-0,138	0,079
265,122	246,513	-0,166	-0,194
266,136	179,103	-0,079	-0,080
267,151	-12,945	-0,146	-0,066
268,166	113,061	-0,144	-0,120
269,180	60,469	-0,209	-0,143
270,195	537,975	-0,152	-0,251
271,209	105,018	-0,141	-0,115
272,224	-74,569	-0,182	-0,045
273,239	-50,350	-0,077	0,025
274,253	-28,883	-0,208	-0,082
275,268	71,042	-0,149	-0,107
276,282	-40,748	-0,216	-0,077
277,297	139,446	-0,181	-0,165
278,312	105,990	-0,188	-0,154
279,326	257,371	-0,133	-0,159
280,341	160,260	-0,103	-0,099
281,355	-68,852	-0,199	-0,053
282,370	153,872	-0,119	-0,113
283,384	351,133	-0,150	-0,205
284,399	163,223	-0,202	-0,197
285,414	195,546	-0,156	-0,164
286,428	-132,467	-0,178	-0,016
287,443	-53,689	-0,138	0,043
288,457	-87,989	-0,192	-0,040
289,472	247,957	-0,088	-0,103
290,487	-120,426	-0,264	-0,031
291,501	188,679	-0,244	-0,253
292,516	-13,964	-0,249	-0,111
293,530	87,396	-0,148	-0,113
294,545	139,225	-0,133	-0,120
295,560	-30,383	-0,161	-0,063
296,574	-18,986	-0,091	0,039
297,589	-184,586	-0,223	-0,002
298,603	120,904	-0,184	-0,158
299,618	-30,499	-0,198	-0,077
300,633	222,370	-0,116	-0,128
301,647	409,109	-0,067	-0,098
302,662	-123,720	-0,172	0,019
303,676	23,675	-0,203	-0,115
304,691	37,536	-0,220	-0,134
305,706	-82,870	-0,373	-0,082
306,720	100,222	-0,146	-0,116
307,735	-185,170	-0,211	-0,002
308,749	75,907	-0,142	-0,103
309,764	-51,591	-0,101	0,032
310,779	-73,989	-0,091	-0,023
311,793	-142,949	-0,122	-0,008
312,808	679,996	-0,109	-0,197
313,822	157,810	-0,195	-0,186
314,837	800,000	-0,078	-0,194
315,852	-18,231	-0,133	-0,057
316,866	-200,000	-0,021	-0,095
317,881	-80,255	-0,071	-0,016
318,895	-12,443	-0,093	-0,042
319,910	58,949	-0,165	-0,111
320,925	279,131	-0,084	-0,103
321,939	340,523	-0,088	-0,119
322,954	430,129	-0,111	-0,166
323,968	800,000	-0,035	-0,084
324,983	64,430	-0,162	-0,112
325,997	201,337	-0,188	-0,199
327,012	-200,000	-0,048	-0,196
328,027	-82,618	-0,109	-0,024
329,041	76,613	-0,185	-0,135
330,056	330,037	-0,115	-0,152
331,070	-26,488	-0,211	0,085
332,085	-159,664	-0,117	0,004
333,100	800,000	0,034	-0,091
334,114	-115,116	-0,175	-0,023
335,129	800,000	-0,058	-0,174
336,143	181,055	-0,177	-0,179
337,158	-27,545	-0,086	-0,034
338,173	-95,787	-0,203	-0,037
339,187	-112,242	-0,258	-0,035
340,202	-107,973	-0,288	-0,043
341,216	-32,540	-0,188	-0,072
342,231	800,000	-0,123	-0,241
343,246	64,008	-0,197	-0,136
344,260	-94,395	-0,234	0,043
345,275	749,648	-0,062	-0,116
346,289	3,523	-0,107	0,053
347,304	-200,000	-0,108	-0,000
348,319	-116,636	-0,172	-0,021
349,333	-146,471	-0,179	-0,011
350,348	558,258	-0,088	-0,147
351,362	-200,000	-0,050	-0,170
352,377	62,145	-0,096	-0,066
353,392	-142,440	-0,207	-0,014
354,406	-158,383	-0,178	-0,007
355,421	209,464	1312,522	1413,429
356,435	161,215	1472,991	1413,939
