DTS Sentinel unit serial number:	SN410029Multiplexer serial number:	ORYXHardware model number:	OX2-SRSoftware version number:	ORYX F/W v4,00 Oryx Data Collector v3.7.2.0data status	okinstallation	B3 Nyhavnadifferential loss correction	single-endedforward channel	channel 1reverse channel	N/Adate	2023/12/02time	10:32:30forward acquisition time	300,00reverse acquisition time	0,00gamma	499,1914k internal	0,3196k external	0,3196temperature offset calibration	1,0000default loss term (dB/km)	0,3820temperature slope calibration	1,0000multiplexer offset coefficient	1,0000multiplexer slope coefficient	1,0000fibre end	0,00T internal ref (°C)	14,50T ext. ref 1 (°C)	-1,18T ext. ref 2 (°C)	-1,20length (m)	temperature (°C)	Stokes	anti-Stokes-744,400	256,022	-0,200	-0,250
-743,385	299,080	0,185	0,249
-742,371	800,000	-0,113	-0,320
-741,356	343,527	0,122	0,174
-740,342	800,000	-0,055	-0,126
-739,327	-200,000	0,034	0,222
-738,312	121,981	-0,204	-0,186
-737,298	-200,000	0,004	0,245
-736,283	38,198	-0,226	-0,146
-735,269	800,000	0,087	0,268
-734,254	363,020	-0,215	-0,315
-733,239	194,501	-0,241	0,266
-732,225	222,314	-0,246	-0,289
-731,210	79,685	0,086	0,067
-730,196	-26,703	-0,039	-0,016
-729,181	410,638	-0,059	-0,092
-728,167	767,650	-0,072	-0,144
-727,152	800,000	0,016	0,037
-726,137	-100,529	-0,162	-0,029
-725,123	386,981	-0,155	-0,234
-724,108	-200,000	-0,009	-0,124
-723,094	62,357	-0,155	-0,113
-722,079	57,753	-0,179	-0,128
-721,064	-200,000	-0,013	0,061
-720,050	-200,000	-0,046	-0,215
-719,035	-190,708	-0,156	-0,001
-718,021	-24,313	-0,055	0,024
-717,006	-200,000	-0,045	-0,185
-715,991	-55,034	-0,088	0,029
-714,977	-106,959	-0,090	0,014
-713,962	-200,000	0,004	-0,052
-712,948	-19,453	0,009	-0,004
-711,933	-110,577	0,065	0,010
-710,918	-200,000	-0,008	-0,086
-709,904	68,357	-0,095	-0,071
-708,889	-77,193	-0,064	0,016
-707,875	-131,791	0,095	0,009
-706,860	800,000	0,020	-0,053
-705,845	56,302	0,161	0,114
-704,831	354,434	-0,095	0,138
-703,816	395,193	-0,027	-0,041
-702,802	800,000	-0,030	-0,075
-701,787	326,427	-0,059	-0,082
-700,772	-200,000	0,018	-0,117
-699,758	243,579	-0,136	-0,166
-698,743	-20,511	0,117	0,052
-697,729	-34,568	0,213	0,085
-696,714	-200,000	0,004	0,163
-695,699	-25,404	0,070	-0,030
-694,685	51,428	-0,135	-0,093
-693,670	-200,000	-0,029	0,103
-692,656	800,000	0,012	0,030
-691,641	-200,000	-0,008	0,078
-690,627	-109,975	0,119	0,018
-689,612	-135,587	-0,118	0,010
-688,597	357,490	0,011	0,017
-687,583	-200,000	0,005	-0,018
-686,568	203,882	0,011	-0,012
-685,554	-200,000	-0,009	0,078
-684,539	-200,000	0,008	-0,122
-683,524	519,771	-0,031	-0,053
-682,510	-104,321	-0,064	-0,011
-681,495	-200,000	0,003	-0,066
-680,481	-122,401	-0,082	-0,010
-679,466	81,315	-0,172	-0,135
-678,451	25,319	-0,069	-0,042
-677,437	649,115	-0,057	0,106
-676,422	-200,000	0,029	0,124
-675,408	-200,000	-0,038	-0,189
-674,393	-99,995	0,093	0,017
-673,378	98,784	-0,103	-0,086
-672,364	401,235	-0,050	-0,077
-671,349	-62,527	0,053	0,016
-670,335	-92,944	-0,035	-0,007
-669,320	385,547	-0,071	-0,107
-668,305	23,750	0,117	-0,070
-667,291	104,858	-0,064	0,055
-666,276	-200,000	0,012	-0,152
-665,262	-131,970	0,193	-0,018
-664,247	58,322	-0,009	-0,006
-663,232	1,766	-0,061	-0,032
-662,218	-200,000	0,004	0,036
-661,203	-200,000	-0,005	0,080
-660,189	415,715	-0,006	-0,009
-659,174	-200,000	-0,004	-0,067
-658,159	-200,000	0,007	-0,026
-657,145	-200,000	0,029	-0,203
-656,130	-53,588	0,077	-0,025
-655,116	-67,728	0,079	0,022
-654,101	-52,310	0,089	0,030
-653,086	800,000	-0,040	-0,120
-652,072	-200,000	0,016	-0,108
-651,057	-70,475	-0,085	-0,023
-650,043	68,949	-0,101	0,075
-649,028	40,068	-0,147	0,096
-648,014	-65,189	0,056	-0,016
-646,999	79,547	0,081	0,063
-645,984	800,000	-0,014	0,033
-644,970	84,694	-0,078	0,062
-643,955	-200,000	-0,023	-0,076
-642,941	-86,359	-0,200	-0,044
-641,926	89,738	0,096	0,077
-640,911	-200,000	0,005	-0,104
-639,897	277,773	-0,072	-0,094
-638,882	-149,212	-0,141	-0,008
-637,868	489,952	0,045	-0,076
-636,853	800,000	-0,015	0,038
-635,838	260,171	0,011	0,014
-634,824	41,414	-0,032	0,021
-633,809	169,596	0,056	0,058
-632,795	7,980	0,025	-0,014
-631,780	-18,684	-0,084	0,038
-630,765	-156,924	0,120	-0,005
-629,751	-200,000	-0,044	-0,162
-628,736	-40,061	-0,079	0,030
-627,722	0,719	0,062	-0,032
-626,707	799,769	-0,031	-0,063
-625,692	183,400	-0,025	0,027
-624,678	-200,000	0,051	0,177
-623,663	60,834	0,072	-0,052
-622,649	171,212	-0,078	0,082
-621,634	134,532	-0,028	-0,026
-620,619	-77,039	-0,103	0,026
-619,605	-200,000	-0,016	-0,070
-618,590	800,000	0,020	-0,056
-617,576	199,789	0,033	0,037
-616,561	-71,020	-0,046	-0,012
-615,546	-138,759	-0,069	-0,005
-614,532	-200,000	-0,005	0,069
-613,517	-80,077	-0,063	0,015
-612,503	-100,982	-0,094	-0,017
-611,488	-37,462	0,096	-0,037
-610,474	-200,000	0,006	-0,027
-609,459	194,108	-0,067	0,073
-608,444	-200,000	-0,020	0,095
-607,430	-107,874	-0,121	0,019
-606,415	68,818	-0,109	-0,081
-605,401	246,250	0,047	-0,057
-604,386	417,814	-0,015	0,023
-603,371	-200,000	0,022	-0,105
-602,357	-200,000	-0,019	0,074
-601,342	-200,000	-0,008	0,071
-600,328	7,728	0,057	-0,031
-599,313	377,715	0,043	0,063
-598,298	-31,690	-0,074	0,030
-597,284	-200,000	-0,008	-0,089
-596,269	346,449	-0,016	-0,023
-595,255	-200,000	0,002	0,058
-594,240	-200,000	0,023	-0,092
-593,225	-21,982	-0,112	-0,049
-592,211	152,616	-0,066	-0,065
-591,196	-99,760	-0,121	-0,022
-590,182	-137,168	0,082	0,007
-589,167	-52,754	0,068	0,022
-588,152	25,081	0,051	0,031
-587,138	254,475	0,019	0,024
-586,123	506,405	-0,049	-0,083
-585,109	-200,000	0,013	-0,140
-584,094	139,987	0,054	-0,051
-583,079	246,678	0,063	-0,077
-582,065	69,660	0,007	-0,006
-581,050	272,654	-0,123	0,157
-580,036	-195,377	-0,094	-0,000
-579,021	-115,909	-0,039	0,005
-578,006	-8,079	-0,181	0,088
-576,992	148,804	0,046	-0,045
-575,977	390,141	-0,057	0,085
-574,963	-137,651	0,093	0,007
-573,948	-130,720	0,113	0,011
-572,934	-200,000	0,010	0,058
-571,919	-91,293	-0,121	0,025
-570,904	245,213	0,050	0,061
-569,890	-200,000	-0,020	0,091
-568,875	-200,000	0,001	0,083
-567,861	-130,898	-0,011	0,001
-566,846	-76,289	0,095	0,024
-565,831	82,949	0,018	0,014
-564,817	-7,981	-0,061	0,030
-563,802	46,731	0,074	-0,050
-562,788	800,000	-0,014	-0,038
-561,773	-200,000	-0,012	0,043
-560,758	800,000	0,039	-0,080
-559,744	152,097	0,047	-0,047
-558,729	800,000	-0,051	-0,123
-557,715	-200,000	-0,003	0,058
-556,700	800,000	0,058	-0,175
-555,685	-200,000	-0,029	0,000
-554,671	59,814	-0,103	-0,074
-553,656	311,255	0,099	0,134
-552,642	-141,590	-0,013	-0,001
-551,627	800,000	-0,046	0,106
-550,612	442,301	-0,052	-0,083
-549,598	-17,701	-0,153	-0,069
-548,583	-200,000	-0,030	0,140
-547,569	140,824	-0,115	-0,110
-546,554	800,000	0,027	0,078
-545,539	800,000	0,024	0,064
-544,525	-200,000	-0,004	0,173
-543,510	-200,000	0,051	-0,163
-542,496	-200,000	-0,020	-0,087
-541,481	800,000	-0,041	-0,103
-540,466	180,478	-0,028	-0,030
-539,452	-121,999	-0,047	-0,005
-538,437	486,249	-0,085	0,141
-537,423	-200,000	-0,032	0,104
-536,408	-86,671	-0,084	-0,018
-535,393	800,000	-0,069	-0,160
-534,379	547,465	-0,048	-0,083
-533,364	-200,000	0,002	0,056
-532,350	510,955	-0,023	0,038
-531,335	-64,831	0,107	-0,031
-530,321	800,000	0,080	0,207
-529,306	800,000	-0,025	-0,059
-528,291	-47,897	0,065	-0,022
-527,277	-21,718	0,124	-0,054
-526,262	-23,047	-0,133	0,057
-525,248	142,340	0,110	-0,105
-524,233	-63,860	0,028	-0,008
-523,218	388,088	-0,059	0,088
-522,204	800,000	0,030	0,062
-521,189	-200,000	0,033	0,138
-520,175	385,317	0,049	0,073
-519,160	74,801	-0,082	0,062
-518,145	168,076	0,072	-0,074
-517,131	257,389	0,069	0,085
-516,116	179,961	-0,033	-0,035
-515,102	35,052	0,028	0,018
-514,087	-200,000	-0,004	-0,092
-513,072	-70,823	0,104	-0,028
-512,058	-169,747	-0,101	-0,003
-511,043	742,466	0,011	0,021
-510,029	422,437	0,041	0,063
-509,014	569,560	0,045	0,079
-507,999	-200,000	0,009	0,089
-506,985	52,799	-0,050	0,034
-505,970	194,065	-0,020	-0,022
-504,956	-84,734	-0,146	-0,033
-503,941	-200,000	-0,001	-0,106
-502,926	-67,262	-0,023	0,006
-501,912	-92,455	-0,049	-0,010
-500,897	-200,000	0,000	-0,015
-499,883	-67,187	-0,091	-0,026
-498,868	-43,255	-0,043	-0,016
-497,853	800,000	-0,028	-0,071
-496,839	-200,000	-0,011	-0,050
-495,824	-106,870	-0,029	0,005
-494,810	236,388	0,020	0,024
-493,795	595,508	0,071	0,127
-492,781	800,000	-0,033	-0,093
-491,766	131,241	0,056	-0,052
-490,751	363,981	-0,066	0,096
-489,737	-80,623	0,111	0,026
-488,722	-137,201	0,057	0,005
-487,708	740,849	0,054	-0,105
-486,693	60,631	0,041	0,029
-485,678	425,396	-0,032	0,049
-484,664	-93,333	-0,137	-0,027
-483,649	-66,716	0,062	-0,018
-482,635	-166,467	0,039	-0,001
-481,620	37,351	-0,041	-0,026
-480,605	-0,465	0,056	0,029
-479,591	475,687	-0,048	0,078
-478,576	-200,000	-0,003	0,038
-477,562	-132,014	-0,057	-0,005
-476,547	-40,914	0,092	-0,034
-475,532	699,416	-0,033	0,063
-474,518	-200,000	-0,002	0,039
-473,503	-200,000	0,029	0,137
-472,489	-200,000	0,000	0,031
-471,474	-200,000	-0,007	0,092
-470,459	138,239	-0,070	-0,066
-469,445	800,000	-0,018	0,040
-468,430	-121,020	-0,100	-0,012
-467,416	-200,000	0,017	-0,093
-466,401	191,745	0,081	0,088
-465,386	203,311	-0,043	0,048
-464,372	482,438	-0,038	-0,063
-463,357	19,569	0,067	-0,039
-462,343	158,513	0,038	0,038
-461,328	67,309	-0,081	0,059
-460,313	-125,645	0,089	0,010
-459,299	-200,000	0,005	0,052
-458,284	800,000	0,025	0,056
-457,270	458,924	-0,071	0,113
-456,255	800,000	0,024	-0,065
-455,241	800,000	-0,012	0,036
-454,226	-200,000	0,013	-0,078
-453,211	172,078	0,027	-0,028
-452,197	-128,257	0,093	0,009
-451,182	-200,000	0,036	0,116
-450,168	-71,035	-0,045	-0,012
-449,153	154,961	0,033	0,033
-448,138	67,429	0,121	-0,089
-447,124	-200,000	0,001	0,045
-446,109	30,561	-0,065	-0,040
-445,095	-125,014	0,102	0,011
-444,080	-41,705	0,145	0,053
-443,065	-200,000	-0,015	0,059
-442,051	37,957	-0,047	0,030
-441,036	306,350	-0,046	0,061
-440,022	-54,372	0,039	-0,013
-439,007	348,248	0,051	0,073
-437,992	10,117	-0,095	0,052
-436,978	-200,000	0,035	0,116
-435,963	168,374	0,055	0,057
-434,949	800,000	-0,063	0,157
-433,934	427,218	-0,049	-0,077
-432,919	275,212	0,013	0,016
-431,905	-200,000	-0,028	-0,163
-430,890	-200,000	-0,003	-0,018
-429,876	-200,000	0,027	0,089
-428,861	132,902	0,059	0,055
-427,846	800,000	-0,035	-0,105
-426,832	800,000	0,049	-0,131
-425,817	82,695	0,047	-0,036
-424,803	-200,000	-0,051	-0,168
-423,788	-200,000	-0,012	0,141
-422,773	-54,682	0,088	0,028
-421,759	-53,610	0,108	-0,035
-420,744	281,944	0,059	0,076
-419,730	132,822	-0,013	0,012
-418,715	157,431	0,084	-0,084
-417,701	64,165	0,079	-0,057
-416,686	-200,000	0,013	-0,125
-415,671	-200,000	0,010	0,054
-414,657	-45,273	0,100	0,035
-413,642	-42,956	0,122	0,044
-412,628	211,253	-0,105	-0,119
-411,613	74,107	-0,094	-0,071
-410,598	78,674	-0,099	0,076
-409,584	-86,246	0,160	0,035
-408,569	-200,000	-0,053	0,174
-407,555	773,720	0,014	0,028
-406,540	-158,448	0,095	0,004
-405,525	40,300	0,053	0,034
-404,511	65,690	0,067	0,049
-403,496	-200,000	0,003	0,060
-402,482	124,206	-0,065	-0,059
-401,467	-32,567	0,050	-0,020
-400,452	-115,894	0,060	-0,008
-399,438	-5,210	-0,113	0,056
-398,423	-200,000	0,013	-0,053
-397,409	800,000	0,045	0,112
-396,394	45,968	-0,080	-0,053
-395,379	95,157	0,040	-0,032
-394,365	-14,848	0,086	0,039
-393,350	-200,000	0,014	0,060
-392,336	91,700	-0,059	0,048
-391,321	-200,000	-0,013	0,129
-390,306	800,000	-0,034	-0,104
-389,292	-94,611	-0,132	-0,026
-388,277	87,637	-0,150	0,119
-387,263	0,949	0,076	0,039
-386,248	-172,789	-0,118	-0,003
-385,233	-20,003	0,206	-0,091
-384,219	-192,917	0,101	-0,001
-383,204	800,000	-0,022	0,069
-382,190	-200,000	0,020	0,064
-381,175	-200,000	-0,007	0,075
-380,160	800,000	0,015	0,048
-379,146	56,775	-0,105	0,073
-378,131	54,521	0,066	0,045
-377,117	-200,000	0,034	0,129
-376,102	92,562	0,071	-0,058
-375,088	188,779	-0,062	-0,067
-374,073	53,504	0,056	-0,039
-373,058	91,919	-0,099	-0,080
-372,044	800,000	0,033	0,069
-371,029	800,000	-0,033	0,093
-370,015	-15,867	-0,024	0,011
-369,000	-126,339	0,038	-0,004
-367,985	159,615	0,081	-0,081
-366,971	-143,787	-0,109	-0,007
-365,956	274,028	-0,021	0,026
-364,942	800,000	0,080	0,173
-363,927	368,736	-0,044	0,064
-362,912	-200,000	-0,004	0,082
-361,898	2,943	0,028	0,015
-360,883	459,062	-0,064	-0,102
-359,869	-25,444	-0,024	-0,010
-358,854	800,000	0,045	0,099
-357,839	69,979	0,073	-0,054
-356,825	2,032	-0,034	-0,018
-355,810	44,681	-0,092	0,061
-354,796	800,000	-0,066	0,132
-353,781	118,075	-0,075	0,066
-352,766	-78,829	-0,168	-0,041
-351,752	-92,550	0,083	-0,017
-350,737	38,787	0,044	-0,028
-349,723	-200,000	-0,013	0,060
-348,708	800,000	0,067	0,159
-347,693	-37,974	0,079	0,030
-346,679	-10,488	0,025	0,012
-345,664	-200,000	-0,013	-0,082
-344,650	67,032	0,002	-0,001
-343,635	123,705	0,149	-0,134
-342,620	-131,270	0,079	0,007
-341,606	-118,221	-0,091	-0,011
-340,591	-158,323	-0,059	0,002
-339,577	-200,000	0,024	-0,231
-338,562	-200,000	-0,004	-0,191
-337,548	-200,000	-0,016	-0,153
-336,533	179,049	0,025	0,026
-335,518	327,470	-0,065	-0,090
-334,504	-200,000	-0,007	0,137
-333,489	-200,000	0,011	0,084
-332,475	-37,981	-0,099	0,038
-331,460	164,200	0,072	0,073
-330,445	-200,000	-0,004	0,031
-329,431	-179,541	-0,119	-0,002
-328,416	220,238	-0,028	-0,032
-327,402	484,383	-0,024	-0,039
-326,387	135,777	-0,068	-0,064
-325,372	203,998	0,008	0,009
-324,358	444,211	0,053	-0,083
-323,343	-200,000	-0,005	0,023
-322,329	34,234	0,059	0,037
-321,314	36,406	0,084	0,053
-320,299	-90,950	0,058	-0,012
-319,285	800,000	0,004	-0,008
-318,270	347,126	0,085	-0,120
-317,256	-200,000	0,038	-0,143
-316,241	19,665	-0,074	0,042
-315,226	177,623	0,065	0,068
-314,212	-49,727	0,069	0,023
-313,197	-37,025	-0,077	0,029
-312,183	-200,000	0,001	0,015
-311,168	57,252	-0,068	-0,047
-310,153	-200,000	0,026	-0,113
-309,139	101,814	0,079	0,066
-308,124	-25,798	0,106	0,044
-307,110	35,545	0,041	-0,025
-306,095	800,000	-0,022	0,055
-305,080	14,772	0,039	0,022
-304,066	-136,169	0,063	0,005
-303,051	-103,152	-0,149	0,025
-302,037	277,311	-0,025	-0,032
-301,022	-200,000	-0,002	-0,093
-300,008	39,493	0,090	0,058
-298,993	800,000	0,015	0,046
-297,978	68,547	0,068	0,050
-296,964	-200,000	-0,014	0,066
-295,949	-200,000	0,017	-0,092
-294,935	800,000	-0,048	-0,127
-293,920	192,914	0,095	-0,102
-292,905	-200,000	0,006	0,095
-291,891	-51,622	0,162	-0,054
-290,876	37,059	-0,082	0,052
-289,862	800,000	0,022	-0,051
-288,847	800,000	-0,031	-0,073
-287,832	-200,000	-0,037	0,171
-286,818	127,441	-0,024	-0,022
-285,803	190,828	0,034	0,037
-284,789	-118,456	0,114	0,014
-283,774	-200,000	0,007	0,054
-282,759	11,392	-0,125	-0,068
-281,745	460,644	0,045	-0,072
-280,730	-47,937	0,100	0,035
-279,716	-53,845	0,071	0,023
-278,701	800,000	-0,028	0,072
-277,686	-200,000	-0,000	-0,107
-276,672	205,567	0,073	-0,081
-275,657	800,000	-0,024	-0,051
-274,643	217,301	-0,067	-0,076
-273,628	-200,000	0,009	-0,029
-272,613	500,480	-0,022	-0,036
-271,599	12,770	0,054	0,030
-270,584	185,165	0,087	0,092
-269,570	-8,020	-0,096	0,046
-268,555	-5,856	-0,106	-0,052
-267,540	-117,390	0,081	0,010
-266,526	800,000	-0,054	-0,115
-265,511	-56,208	0,145	-0,046
-264,497	123,497	-0,083	-0,074
-263,482	266,641	0,011	0,014
-262,467	-200,000	-0,007	-0,123
-261,453	-147,809	-0,140	0,008
-260,438	9,481	0,169	-0,091
-259,424	-200,000	-0,000	-0,115
-258,409	74,128	-0,138	-0,103
-257,395	-38,003	0,168	0,064
-256,380	29,945	0,140	0,085
-255,365	-76,124	0,067	-0,017
-254,351	213,076	0,139	-0,158
-253,336	-200,000	-0,043	-0,228
-252,322	13,877	-0,080	0,044
-251,307	637,763	0,070	-0,128
-250,292	57,188	-0,082	0,057
-249,278	-55,891	0,107	-0,034
-248,263	294,620	-0,045	0,059
-247,249	357,273	-0,064	-0,091
-246,234	367,974	0,030	0,043
-245,219	-200,000	-0,024	-0,142
-244,205	14,576	-0,047	-0,026
-243,190	-200,000	-0,020	-0,124
-242,176	-17,816	-0,044	-0,019
-241,161	353,758	0,046	0,065
-240,146	233,235	-0,062	0,073
-239,132	-0,293	0,149	0,075
-238,117	800,000	0,005	0,010
-237,103	-42,556	-0,145	0,052
-236,088	26,090	-0,006	-0,004
-235,073	800,000	0,020	0,052
-234,059	-200,000	0,013	0,055
-233,044	-127,901	-0,129	-0,013
-232,030	-63,016	-0,045	-0,013
-231,015	-64,859	-0,068	-0,020
-230,000	-161,594	0,048	-0,002
-228,986	229,061	0,098	-0,114
-227,971	-99,503	0,067	-0,012
-226,957	96,249	0,050	-0,041
-225,942	-200,000	-0,007	0,083
-224,927	-61,933	-0,115	-0,034
-223,913	-82,091	0,035	0,008
-222,898	800,000	-0,021	-0,059
-221,884	-200,000	0,035	-0,149
-220,869	755,785	-0,113	0,219
-219,855	76,894	-0,075	0,057
-218,840	-46,315	0,163	0,057
-217,825	-200,000	0,023	-0,082
-216,811	-200,000	-0,011	-0,074
-215,796	-200,000	0,009	-0,208
-214,782	101,496	-0,109	-0,090
-213,767	59,898	0,119	0,084
-212,752	43,315	0,017	-0,011
-211,738	524,938	-0,026	0,043
-210,723	108,887	-0,065	-0,055
-209,709	186,515	-0,043	0,046
-208,694	800,000	-0,080	-0,164
-207,679	236,330	-0,049	-0,058
-206,665	-183,649	-0,050	-0,001
-205,650	-0,753	0,045	0,023
-204,636	107,504	0,142	0,120
-203,621	2,411	0,012	0,006
-202,606	-200,000	-0,008	0,102
-201,592	230,884	-0,101	0,118
-200,577	-86,760	-0,041	-0,009
-199,563	-15,874	0,124	0,056
-198,548	84,151	0,040	0,031
-197,533	691,436	0,085	0,160
-196,519	-23,453	0,066	0,028
-195,504	-50,387	0,106	0,036
-194,490	-78,200	0,061	0,015
-193,475	-116,973	-0,042	0,005
-192,460	-200,000	0,003	0,049
-191,446	-136,654	0,102	-0,008
-190,431	10,435	0,092	0,050
-189,417	158,791	-0,046	0,046
-188,402	-89,994	0,053	0,011
-187,387	5,336	-0,059	0,031
-186,373	800,000	0,022	0,062
-185,358	483,709	0,018	-0,030
-184,344	227,798	-0,029	-0,033
-183,329	-200,000	-0,017	0,078
-182,315	341,955	-0,047	-0,066
-181,300	800,000	0,020	-0,055
-180,285	800,000	0,010	-0,031
-179,271	154,999	0,016	0,015
-178,256	330,813	-0,067	-0,092
-177,242	-127,043	-0,133	0,014
-176,227	-200,000	0,009	-0,117
-175,212	-200,000	-0,017	-0,059
-174,198	-50,692	-0,128	0,043
-173,183	-74,999	0,047	-0,012
-172,169	-4,693	0,075	-0,037
-171,154	-200,000	0,007	-0,128
-170,139	639,656	0,023	-0,041
-169,125	78,714	0,109	0,083
-168,110	800,000	0,019	-0,051
-167,096	-63,721	0,034	-0,010
-166,081	-69,923	-0,090	0,024
-165,066	40,612	-0,126	-0,080
-164,052	94,681	-0,077	-0,062
-163,037	-200,000	0,003	0,052
-162,023	800,000	0,066	-0,146
-161,008	-44,319	-0,130	-0,046
-159,993	457,640	0,037	0,059
-158,979	-178,568	-0,122	0,002
-157,964	291,047	-0,164	-0,213
-156,950	20,939	0,101	-0,058
-155,935	-43,378	0,081	0,029
-154,920	166,239	0,035	-0,036
-153,906	25,986	-0,104	0,062
-152,891	-6,454	0,125	-0,060
-151,877	-200,000	-0,010	-0,049
-150,862	28,249	0,096	-0,058
-149,847	-117,840	-0,071	0,009
-148,833	-89,659	-0,099	-0,021
-147,818	-72,798	0,066	0,017
-146,804	800,000	0,073	0,160
-145,789	-139,038	0,151	0,011
-144,775	800,000	-0,017	0,041
-143,760	-200,000	0,006	-0,083
-142,745	135,621	-0,059	-0,054
-141,731	79,298	-0,056	-0,043
-140,716	800,000	0,018	0,054
-139,702	-200,000	0,001	0,131
-138,687	1,586	-0,175	-0,090
-137,672	800,000	0,038	-0,098
-136,658	52,815	0,049	-0,033
-135,643	-64,958	0,040	-0,012
-134,629	-144,150	-0,091	-0,006
-133,614	133,103	0,040	0,036
-132,599	800,000	-0,006	0,013
-131,585	-200,000	0,001	-0,076
-130,570	800,000	-0,030	-0,084
-129,556	800,000	-0,022	0,058
-128,541	358,766	0,039	-0,055
-127,526	-59,593	-0,123	0,037
-126,512	800,000	0,027	-0,067
-125,497	-42,749	-0,024	-0,009
-124,483	-40,504	0,135	0,050
-123,468	-200,000	0,000	0,103
-122,453	179,336	-0,052	-0,054
-121,439	645,261	0,031	0,057
-120,424	41,101	-0,014	-0,009
-119,410	-200,000	0,001	-0,022
-118,395	29,548	0,064	0,039
-117,380	-1,272	-0,053	-0,027
-116,366	-200,000	0,016	0,078
-115,351	-200,000	-0,002	-0,080
-114,337	246,029	-0,088	0,106
-113,322	-133,018	-0,083	0,007
-112,307	-200,000	0,029	-0,099
-111,293	-184,944	0,044	0,000
-110,278	188,685	0,116	0,123
-109,264	76,282	0,123	0,092
-108,249	24,433	-0,122	-0,072
-107,234	-200,000	0,047	-0,236
-106,220	259,899	0,044	0,054
-105,205	-200,000	-0,006	0,081
-104,191	-200,000	0,008	-0,073
-103,176	188,590	-0,066	-0,070
-102,162	61,734	0,094	0,066
-101,147	10,972	-0,027	-0,014
-100,132	258,572	-0,039	0,047
-99,118	379,280	0,061	-0,089
-98,103	-74,284	0,077	-0,020
-97,089	76,959	0,097	-0,073
-96,074	-200,000	-0,001	0,107
-95,059	363,126	0,028	-0,040
-94,045	196,361	-0,076	0,082
-93,030	-200,000	-0,001	-0,122
-92,016	177,608	-0,033	-0,034
-91,001	114,097	0,047	0,040
-89,986	800,000	-0,017	-0,034
-88,972	371,488	-0,038	-0,054
-87,957	-200,000	0,025	0,170
-86,943	800,000	0,036	0,104
-85,928	2,874	-0,153	-0,079
-84,913	287,547	0,086	-0,110
-83,899	81,804	-0,079	-0,061
-82,884	-200,000	-0,005	-0,015
-81,870	462,763	0,071	0,114
-80,855	23,296	-0,078	-0,045
-79,840	429,307	0,041	-0,063
-78,826	-200,000	-0,013	-0,081
-77,811	794,554	-0,036	-0,070
-76,797	744,238	-0,044	0,084
-75,782	800,000	-0,033	0,087
-74,767	-200,000	0,001	0,105
-73,753	243,866	-0,056	-0,067
-72,738	-115,673	0,066	-0,009
-71,724	-7,261	-0,052	-0,025
-70,709	-200,000	-0,027	-0,124
-69,694	127,907	0,027	-0,024
-68,680	-58,412	-0,094	-0,029
-67,665	119,229	0,080	-0,071
-66,651	-33,606	-0,089	0,035
-65,636	-200,000	0,004	0,104
-64,622	-200,000	-0,030	-0,114
-63,607	159,771	-0,112	0,111
-62,592	-67,148	-0,099	-0,028
-61,578	304,792	0,107	0,142
-60,563	251,309	0,079	0,096
-59,549	-200,000	0,000	0,105
-58,534	-46,676	-1,514	-0,523
-57,519	454,175	-1,429	-2,253
-56,505	-200,000	-0,503	-4,500
-55,490	175,366	0,949	0,976
-54,476	800,000	4,969	11,343
-53,461	-200,000	18,608	297,096
-52,446	800,000	732,869	2260,150
-51,432	559,813	1648,827	2834,265
-50,417	78,724	1667,517	1263,196
-49,403	22,362	1540,545	890,325
-48,388	16,385	1463,386	816,716
-47,373	17,859	1453,308	818,169
-46,359	17,078	1443,627	808,945
-45,344	14,629	1438,955	794,580
-44,330	14,541	1437,122	793,115
-43,315	14,582	1435,433	792,350
-42,300	14,563	1433,723	791,283
-41,286	14,585	1432,797	790,845
-40,271	14,515	1431,516	789,773
-39,257	14,581	1430,128	789,288
-38,242	14,625	1428,817	788,743
-37,227	14,630	1427,511	788,014
-36,213	14,620	1426,324	787,279
-35,198	14,541	1425,164	786,233
-34,184	14,662	1424,134	786,209
-33,169	14,553	1422,825	784,940
-32,154	14,628	1421,917	784,761
-31,140	14,658	1420,455	784,066
-30,125	14,601	1419,466	783,221
-29,111	14,617	1418,240	782,588
-28,096	14,609	1417,107	781,894
-27,082	14,533	1416,142	780,971
-26,067	14,466	1415,226	780,119
-25,052	14,544	1413,908	779,729
-24,038	14,502	1413,070	779,040
-23,023	14,525	1412,050	778,555
-22,009	14,523	1410,920	777,891
-20,994	14,478	1410,052	777,168
-19,979	14,495	1409,224	776,762
-18,965	14,474	1408,064	775,992
-17,950	14,417	1407,246	775,245
-16,936	14,408	1406,285	774,643
-15,921	14,435	1404,941	773,997
-14,906	14,441	1404,288	773,637
-13,892	14,448	1403,376	773,136
-12,877	14,397	1402,435	772,351
-11,863	14,405	1401,669	771,934
-10,848	14,428	1400,682	771,466
-9,833	14,412	1399,829	770,893
-8,819	14,344	1399,026	770,103
-7,804	14,392	1397,840	769,643
-6,790	14,355	1396,900	768,920
-5,775	14,297	1396,314	768,300
-4,760	14,349	1395,032	767,805
-3,746	14,316	1394,452	767,301
-2,731	14,307	1393,568	766,745
-1,717	14,309	1392,499	766,134
-0,702	14,356	1390,529	765,239
0,313	18,082	1309,119	737,732
1,327	34,472	705,426	435,507
2,342	53,025	124,030	83,969
3,356	2,505	16,578	8,478
4,371	7,780	3,152	1,667
5,386	-7,923	0,515	0,245
6,400	105,044	0,055	0,046
7,415	3,149	-0,361	-0,186
8,429	111,964	-0,270	-0,231
9,444	112,349	-0,364	-0,312
10,459	3,826	-0,284	-0,146
11,473	60,668	-0,209	-0,147
12,488	48,408	-0,266	-0,176
13,502	135,119	-0,312	-0,287
14,517	-160,451	-0,254	-0,009
15,531	2,009	-0,323	-0,164
16,546	291,888	-0,286	-0,369
17,561	137,559	-0,282	-0,261
18,575	84,486	-0,243	-0,188
19,590	758,128	-0,157	-0,302
20,604	79,337	-0,123	-0,093
21,619	91,315	-0,454	-0,360
22,634	27,187	-0,517	-0,306
23,648	108,189	-0,342	-0,289
24,663	40,272	-0,490	-0,311
25,677	273,793	-0,382	-0,479
26,692	107,054	-0,406	-0,341
27,707	-43,326	-0,393	-0,140
28,721	49,690	-0,473	-0,314
29,736	244,877	-0,362	-0,430
30,750	196,970	-0,496	-0,535
31,765	97,145	-0,413	-0,335
32,780	215,145	-0,337	-0,379
33,794	123,833	-0,358	-0,317
34,809	15,267	-0,372	-0,205
35,823	38,805	-0,399	-0,251
36,838	72,012	-0,337	-0,247
37,853	62,117	-0,382	-0,269
38,867	114,042	-0,311	-0,267
39,882	190,100	-0,163	-0,173
40,896	-30,426	-0,507	-0,202
41,911	138,384	-0,345	-0,320
42,926	-82,396	-0,404	-0,092
43,940	137,318	-0,300	-0,277
44,955	88,242	-0,446	-0,349
45,969	137,877	-0,279	-0,258
46,984	-12,889	-0,495	-0,227
47,999	32,414	-0,353	-0,215
49,013	60,966	-0,292	-0,204
50,028	66,448	-0,360	-0,258
51,042	160,408	-0,308	-0,303
52,057	133,866	-0,286	-0,262
53,071	114,770	-0,260	-0,224
54,086	100,671	-0,332	-0,272
55,101	1,002	-0,352	-0,178
56,115	-40,348	-0,407	-0,148
57,130	-57,840	-0,392	-0,120
58,144	23,285	-0,378	-0,219
59,159	55,150	-0,364	-0,248
60,174	36,542	-0,403	-0,250
61,188	154,068	-0,388	-0,376
62,203	82,246	-0,214	-0,163
63,217	7,833	-0,395	-0,208
64,232	187,661	-0,320	-0,337
65,247	192,262	-0,291	-0,309
66,261	-38,182	-0,366	-0,136
67,276	19,610	-0,412	-0,233
68,290	-13,481	-0,348	-0,158
69,305	52,894	-0,293	-0,197
70,320	16,957	-0,317	-0,176
71,334	43,135	-0,273	-0,175
72,349	341,561	-0,281	-0,387
73,363	-4,497	-0,363	-0,176
74,378	-33,110	-0,384	-0,149
75,393	3,745	-0,335	-0,171
76,407	178,322	-0,228	-0,234
77,422	-151,602	-0,301	0,015
78,436	75,906	-0,212	-0,158
79,451	27,231	-0,304	-0,179
80,466	8,500	-0,422	-0,223
81,480	14,220	-0,321	-0,176
82,495	-63,717	-0,319	-0,091
83,509	1,077	-0,389	-0,195
84,524	20,645	-0,216	-0,123
85,539	27,433	-0,246	-0,145
86,553	-63,024	-0,287	-0,083
87,568	54,611	-0,399	-0,270
88,582	83,128	-0,323	-0,247
89,597	23,152	-0,341	-0,196
90,611	69,820	-0,348	-0,252
91,626	18,273	-0,304	-0,170
92,641	178,339	-0,254	-0,261
93,655	19,109	-0,280	-0,157
94,670	44,902	-0,282	-0,182
95,684	-23,511	-0,307	-0,129
96,699	168,819	-0,221	-0,221
97,714	276,043	-0,207	-0,259
98,728	800,000	-0,145	-0,315
99,743	-64,586	-0,295	-0,083
100,757	99,848	-0,206	-0,167
101,772	178,447	-0,227	-0,233
102,787	31,705	-0,190	-0,114
103,801	169,854	-0,208	-0,209
104,816	11,846	-0,292	-0,157
105,830	228,926	-0,269	-0,309
106,845	-14,551	-0,227	-0,102
107,860	-1,311	-0,350	-0,173
108,874	-42,332	-0,240	-0,085
109,889	143,958	-0,225	-0,211
110,903	31,379	-0,355	-0,213
111,918	396,446	-0,219	-0,322
112,933	-79,674	-0,361	-0,085
113,947	99,873	-0,280	-0,227
114,962	-22,390	-0,244	-0,103
115,976	105,598	-0,285	-0,236
116,991	146,705	-0,200	-0,188
118,006	39,017	-0,300	-0,187
119,020	-5,607	-0,244	-0,117
120,035	-68,964	-0,241	-0,065
121,049	267,849	-0,212	-0,261
122,064	702,759	-0,092	-0,171
123,079	-93,143	-0,281	-0,054
124,093	22,763	-0,310	-0,177
125,108	49,140	-0,405	-0,266
126,122	106,076	-0,191	-0,159
127,137	31,908	-0,295	-0,178
128,151	-81,828	-0,268	-0,061
129,166	-44,610	-0,203	-0,071
130,181	268,952	-0,211	-0,260
131,195	83,479	-0,342	-0,261
132,210	116,675	-0,280	-0,240
133,224	24,949	-0,281	-0,163
134,239	47,840	-0,211	-0,138
135,254	-116,662	-0,282	-0,036
136,268	88,934	-0,235	-0,183
137,283	270,766	-0,153	-0,189
138,297	48,544	-0,226	-0,148
139,312	275,193	-0,221	-0,275
140,327	11,128	-0,321	-0,171
141,341	-0,044	-0,269	-0,134
142,356	30,865	-0,281	-0,168
143,370	33,829	-0,283	-0,172
144,385	528,031	-0,168	-0,278
145,400	-13,029	-0,347	-0,157
146,414	227,059	-0,231	-0,263
147,429	184,207	-0,204	-0,211
148,443	-6,109	-0,292	-0,139
149,458	42,950	-0,282	-0,179
150,473	119,238	-0,268	-0,232
151,487	-112,503	-0,182	-0,025
152,502	-120,603	-0,235	-0,027
153,516	-35,805	-0,318	-0,120
154,531	-9,898	-0,399	-0,185
155,546	113,906	-0,278	-0,236
156,560	345,332	-0,157	-0,217
157,575	115,599	-0,223	-0,190
158,589	35,786	-0,195	-0,120
159,604	48,108	-0,290	-0,189
160,619	48,874	-0,263	-0,172
161,633	122,872	-0,254	-0,222
162,648	800,000	-0,146	-0,299
163,662	400,895	-0,161	-0,237
164,677	161,593	-0,209	-0,205
165,692	519,112	-0,108	-0,177
166,706	177,226	-0,201	-0,204
167,721	38,391	-0,278	-0,172
168,735	272,296	-0,181	-0,224
169,750	23,989	-0,296	-0,170
170,764	-32,301	-0,185	-0,072
171,779	64,849	-0,187	-0,132
172,794	27,154	-0,244	-0,142
173,808	-85,638	-0,221	-0,048
174,823	-37,826	-0,219	-0,081
175,837	104,876	-0,234	-0,193
176,852	174,464	-0,178	-0,180
177,867	58,881	-0,136	-0,093
178,881	135,292	-0,204	-0,185
179,896	529,223	-0,059	-0,098
180,910	197,689	-0,193	-0,206
181,925	800,000	-0,086	-0,190
182,940	355,620	-0,192	-0,267
183,954	504,505	-0,155	-0,252
184,969	21,860	-0,218	-0,123
185,983	-70,833	-0,254	-0,066
186,998	183,535	-0,230	-0,237
188,013	146,762	-0,242	-0,227
189,027	800,000	-0,122	-0,308
190,042	-63,092	-0,340	-0,097
191,056	-51,129	-0,291	-0,094
192,071	32,197	-0,279	-0,167
193,086	349,591	-0,106	-0,146
194,100	-125,900	-0,365	-0,038
195,115	236,026	-0,204	-0,235
196,129	403,714	-0,176	-0,259
197,144	488,027	-0,118	-0,189
198,159	562,935	-0,105	-0,177
199,173	138,827	-0,219	-0,201
200,188	253,806	-0,175	-0,208
201,202	627,159	-0,120	-0,211
202,217	21,119	-0,125	-0,070
203,232	800,000	-0,106	-0,227
204,246	33,582	-0,348	-0,210
205,261	285,743	-0,126	-0,159
206,275	91,432	-0,276	-0,216
207,290	800,000	-0,056	-0,153
208,304	140,256	-0,118	-0,108
209,319	-35,250	-0,221	-0,083
210,334	-101,608	-0,224	0,037
211,348	58,198	-0,311	-0,212
212,363	255,835	-0,222	-0,266
213,377	315,769	-0,171	-0,225
214,392	148,484	-0,113	-0,106
215,407	-36,920	-0,256	-0,095
216,421	-42,525	-0,213	-0,075
217,436	-200,000	-0,045	-0,148
218,450	800,000	-0,096	-0,291
219,465	-77,409	-0,240	-0,058
220,480	-57,393	-0,196	-0,060
221,494	-116,585	-0,106	0,013
222,509	-112,332	-0,188	-0,026
223,523	-200,000	-0,000	-0,121
224,538	78,098	-0,313	-0,232
225,553	8,806	-0,252	-0,132
226,567	215,727	-0,260	-0,287
227,582	32,263	-0,119	-0,071
228,596	-33,598	-0,207	-0,079
229,611	-23,082	-0,249	-0,104
230,626	-101,268	-0,167	-0,028
231,640	174,306	-0,139	-0,140
232,655	178,808	-0,190	-0,193
233,669	-200,000	-0,058	-0,260
234,684	-14,576	-0,211	-0,094
235,699	-200,000	-0,040	-0,151
236,713	21,766	-0,188	-0,106
237,728	-79,013	-0,223	-0,052
238,742	24,026	-0,252	-0,144
239,757	188,644	-0,099	-0,103
240,772	174,007	-0,108	-0,108
241,786	107,958	-0,282	-0,233
242,801	800,000	-0,102	-0,270
243,815	67,727	-0,179	-0,127
244,830	-106,871	-0,287	-0,044
245,844	-26,518	-0,228	-0,092
246,859	98,958	-0,230	-0,184
247,874	86,878	-0,186	-0,142
248,888	-70,009	-0,287	-0,075
249,903	73,002	-0,258	-0,187
250,917	-200,000	-0,055	-0,187
251,932	39,947	-0,164	-0,102
252,947	800,000	-0,037	-0,083
253,961	62,161	-0,199	-0,138
254,976	191,462	-0,162	-0,169
255,990	-139,278	-0,158	-0,012
257,005	-109,935	-0,141	0,020
258,020	75,657	-0,133	-0,097
259,034	-107,070	-0,174	-0,026
260,049	-200,000	-0,064	-0,197
261,063	6,149	-0,202	-0,103
262,078	-46,767	-0,244	-0,082
263,093	-18,518	-0,259	-0,112
264,107	226,918	-0,187	-0,210
265,122	-200,000	-0,016	-0,126
266,136	99,890	-0,192	-0,154
267,151	205,172	-0,209	-0,224
268,166	57,288	-0,170	-0,115
269,180	110,795	-0,218	-0,182
270,195	183,462	-0,263	-0,269
271,209	563,375	-0,127	-0,214
272,224	12,803	-0,222	-0,118
273,239	-200,000	-0,033	-0,106
274,253	277,788	-0,108	-0,133
275,268	273,821	-0,144	-0,176
276,282	16,685	-0,294	-0,160
277,297	80,061	-0,189	-0,140
278,312	240,887	-0,242	-0,280
279,326	-116,001	-0,107	-0,014
280,341	204,436	-0,166	-0,178
281,355	7,466	-0,134	-0,069
282,370	800,000	-0,080	-0,167
283,384	-24,132	-0,247	-0,102
284,399	49,460	-0,247	-0,160
285,414	195,203	-0,201	-0,212
286,428	224,500	-0,158	-0,176
287,443	-109,961	-0,178	-0,025
288,457	127,262	-0,091	-0,080
289,472	2,381	-0,103	-0,051
290,487	212,811	-0,141	-0,154
291,501	-56,853	-0,154	-0,047
292,516	153,402	-0,146	-0,138
293,530	-99,279	-0,236	-0,041
294,545	102,066	-0,138	-0,111
295,560	30,281	-0,183	-0,107
296,574	111,035	-0,107	-0,089
297,589	261,841	-0,208	-0,249
298,603	101,921	-0,164	-0,132
299,618	126,735	-0,170	-0,148
300,633	46,570	-0,230	-0,147
301,647	-48,432	-0,143	0,047
302,662	-132,258	-0,080	0,007
303,676	800,000	-0,039	-0,110
304,691	150,611	-0,156	-0,146
305,706	-43,351	-0,300	-0,104
306,720	107,764	-0,300	-0,246
307,735	-200,000	-0,037	-0,135
308,749	-120,747	-0,208	-0,024
309,764	-200,000	0,000	-0,006
310,779	39,327	-0,195	-0,120
311,793	-36,487	-0,165	-0,061
312,808	800,000	-0,067	-0,200
313,822	-177,381	-0,255	0,004
314,837	219,248	-0,167	-0,184
315,852	31,696	-0,201	-0,119
316,866	-96,574	-0,229	-0,041
317,881	83,283	-0,129	-0,097
318,895	-79,002	-0,191	-0,044
319,910	165,133	-0,198	-0,193
320,925	252,242	-0,229	-0,269
321,939	158,724	-0,067	-0,064
322,954	125,346	-0,092	-0,080
323,968	327,855	-0,065	-0,086
324,983	-200,000	-0,041	-0,180
325,997	-29,670	-0,113	-0,044
327,012	23,771	-0,158	-0,090
328,027	171,313	-0,057	-0,057
329,041	116,107	-0,197	-0,166
330,056	-51,258	-0,115	-0,037
331,070	-156,443	-0,137	-0,006
332,085	-146,642	-0,155	0,009
333,100	24,608	-0,136	-0,077
334,114	-12,515	-0,100	-0,045
335,129	69,749	-0,042	-0,030
336,143	-60,409	-0,144	-0,042
337,158	-200,000	-0,078	-0,279
338,173	617,406	-0,082	0,143
339,187	224,791	-0,035	-0,039
340,202	-97,219	-0,162	-0,029
341,216	235,808	-0,106	-0,121
342,231	676,733	-0,120	-0,215
343,246	28,891	-0,158	-0,092
344,260	517,408	-0,042	-0,067
345,275	-200,000	0,009	-0,136
346,289	-200,000	-0,016	-0,104
347,304	-70,472	-0,103	0,027
348,319	79,341	-0,022	0,016
349,333	57,065	-0,135	-0,090
350,348	535,576	-0,172	-0,282
351,362	-96,786	-0,170	-0,030
352,377	-28,888	-0,243	-0,095
353,392	-200,000	-0,062	-0,210
354,406	-126,225	-0,119	0,012
355,421	208,929	1312,409	1412,939
356,435	160,781	1472,871	1413,453
