DTS Sentinel unit serial number:	SN410029Multiplexer serial number:	ORYXHardware model number:	OX2-SRSoftware version number:	ORYX F/W v4,00 Oryx Data Collector v3.7.2.0data status	okinstallation	B3 Nyhavnadifferential loss correction	single-endedforward channel	channel 1reverse channel	N/Adate	2023/11/29time	15:22:30forward acquisition time	300,00reverse acquisition time	0,00gamma	499,1914k internal	0,3211k external	0,3211temperature offset calibration	1,0000default loss term (dB/km)	0,3820temperature slope calibration	1,0000multiplexer offset coefficient	1,0000multiplexer slope coefficient	1,0000fibre end	0,00T internal ref (°C)	11,25T ext. ref 1 (°C)	-3,15T ext. ref 2 (°C)	-3,30length (m)	temperature (°C)	Stokes	anti-Stokes-744,400	18,345	-0,272	-0,157
-743,385	800,000	0,059	0,160
-742,371	-0,945	-0,219	-0,112
-741,356	-200,000	0,031	0,328
-740,342	800,000	-0,057	-0,151
-739,327	-200,000	-0,062	0,370
-738,312	318,988	-0,172	-0,237
-737,298	-200,000	-0,000	0,228
-736,283	93,787	-0,272	-0,224
-735,269	622,366	0,224	0,410
-734,254	800,000	-0,117	-0,255
-733,239	101,612	-0,113	0,095
-732,225	-200,000	0,018	-0,217
-731,210	800,000	0,092	0,224
-730,196	170,972	-0,052	-0,054
-729,181	-42,731	0,040	-0,015
-728,167	-18,983	0,079	-0,035
-727,152	-200,000	-0,013	0,045
-726,137	-200,000	-0,012	-0,141
-725,123	611,091	-0,060	0,110
-724,108	800,000	0,038	-0,079
-723,094	540,907	0,056	0,097
-722,079	-49,447	-0,099	-0,034
-721,064	-200,000	-0,037	-0,170
-720,050	-78,072	0,076	-0,019
-719,035	-158,318	-0,096	0,004
-718,021	513,149	-0,041	-0,069
-717,006	-13,120	-0,097	-0,045
-715,991	-200,000	-0,021	-0,145
-714,977	-200,000	-0,103	-0,000
-713,962	285,857	0,045	-0,059
-712,948	-200,000	-0,005	-0,075
-711,933	800,000	-0,003	-0,006
-710,918	800,000	0,008	-0,018
-709,904	-40,294	0,004	0,002
-708,889	34,760	-0,292	0,185
-707,875	137,781	-0,012	-0,012
-706,860	-200,000	0,000	-0,099
-705,845	490,310	0,046	-0,077
-704,831	800,000	-0,020	0,064
-703,816	191,290	0,119	0,130
-702,802	-163,268	0,077	-0,003
-701,787	-200,000	-0,011	-0,091
-700,772	-200,000	0,000	-0,072
-699,758	33,459	-0,066	-0,041
-698,743	56,908	0,010	0,007
-697,729	603,242	-0,047	-0,085
-696,714	-104,832	-0,072	-0,012
-695,699	103,793	0,092	0,078
-694,685	-40,708	-0,084	-0,031
-693,670	800,000	-0,061	-0,191
-692,656	800,000	-0,018	0,048
-691,641	471,010	-0,003	-0,005
-690,627	-200,000	0,000	0,100
-689,612	-9,918	0,151	0,072
-688,597	364,587	-0,047	0,068
-687,583	-200,000	-0,010	0,060
-686,568	449,276	-0,038	-0,060
-685,554	235,104	-0,044	-0,052
-684,539	447,414	-0,055	-0,088
-683,524	493,906	0,020	-0,033
-682,510	42,030	0,056	-0,037
-681,495	800,000	-0,022	-0,070
-680,481	-119,811	0,050	-0,006
-679,466	800,000	-0,064	-0,170
-678,451	-200,000	0,024	-0,142
-677,437	-116,704	0,040	0,005
-676,422	-200,000	-0,025	0,097
-675,408	42,551	-0,040	0,026
-674,393	230,288	0,049	-0,058
-673,378	459,086	-0,027	-0,043
-672,364	-200,000	-0,005	-0,067
-671,349	-119,380	-0,209	-0,026
-670,335	-200,000	0,023	0,082
-669,320	379,044	0,016	-0,023
-668,305	-200,000	-0,006	-0,032
-667,291	506,660	-0,016	-0,028
-666,276	-123,128	-0,093	0,011
-665,262	-200,000	-0,015	-0,097
-664,247	6,663	0,093	-0,050
-663,232	-85,739	0,023	0,005
-662,218	48,878	0,150	0,102
-661,203	201,671	0,074	-0,083
-660,189	800,000	-0,028	0,059
-659,174	-200,000	0,015	0,168
-658,159	155,565	-0,056	0,056
-657,145	715,802	-0,012	-0,024
-656,130	165,459	-0,043	0,044
-655,116	281,852	0,071	0,093
-654,101	-200,000	0,058	0,000
-653,086	26,087	-0,127	0,077
-652,072	629,542	0,043	-0,078
-651,057	94,857	-0,151	-0,124
-650,043	41,132	-0,070	0,046
-649,028	-41,914	0,063	0,023
-648,014	223,575	0,101	-0,118
-646,999	98,177	-0,075	0,063
-645,984	-200,000	-0,022	0,103
-644,970	-194,795	-0,037	-0,000
-643,955	291,764	0,077	-0,102
-642,941	39,402	-0,034	-0,022
-641,926	796,664	-0,027	0,053
-640,911	-200,000	-0,002	0,020
-639,897	77,622	0,074	0,057
-638,882	-95,567	0,152	0,029
-637,868	-116,006	-0,063	-0,008
-636,853	376,467	-0,101	-0,150
-635,838	69,005	0,131	-0,097
-634,824	-200,000	-0,002	0,082
-633,809	60,291	0,025	0,018
-632,795	-114,722	-0,040	0,006
-631,780	168,353	-0,018	0,019
-630,765	237,356	-0,050	-0,059
-629,751	-200,000	0,001	-0,090
-628,736	214,407	0,061	-0,070
-627,722	237,808	-0,110	-0,132
-626,707	-75,399	-0,151	-0,039
-625,692	459,599	-0,025	0,041
-624,678	800,000	-0,026	0,075
-623,663	-200,000	-0,000	0,035
-622,649	-200,000	0,018	-0,096
-621,634	-200,000	-0,003	0,015
-620,619	485,708	-0,019	-0,031
-619,605	-8,988	-0,031	-0,015
-618,590	-2,660	-0,027	0,014
-617,576	-33,233	0,105	0,042
-616,561	12,262	-0,175	-0,097
-615,546	800,000	-0,065	-0,134
-614,532	37,881	-0,074	-0,047
-613,517	33,387	-0,106	-0,066
-612,503	789,401	0,057	0,113
-611,488	-140,339	0,056	0,004
-610,474	-200,000	-0,012	0,075
-609,459	94,427	0,115	-0,094
-608,444	-6,799	-0,110	-0,054
-607,430	232,195	-0,049	-0,058
-606,415	532,491	-0,050	0,085
-605,401	-200,000	0,018	0,160
-604,386	571,374	0,114	-0,201
-603,371	41,004	-0,128	0,083
-602,357	-200,000	-0,010	-0,053
-601,342	-200,000	0,036	0,129
-600,328	-140,397	-0,025	-0,002
-599,313	245,991	-0,058	-0,071
-598,298	-34,395	0,034	-0,013
-597,284	-52,489	0,144	0,048
-596,269	800,000	0,034	0,099
-595,255	375,575	0,032	-0,047
-594,240	-200,000	0,009	-0,121
-593,225	81,619	0,060	-0,047
-592,211	-140,034	-0,048	0,004
-591,196	81,924	0,083	-0,064
-590,182	-158,568	-0,129	-0,005
-589,167	0,393	-0,098	0,050
-588,152	206,677	0,029	0,033
-587,138	800,000	-0,026	0,056
-586,123	27,846	-0,043	0,026
-585,109	-47,322	-0,031	-0,011
-584,094	263,565	-0,063	0,079
-583,079	-200,000	-0,009	-0,039
-582,065	-160,504	-0,122	-0,005
-581,050	462,753	0,092	-0,148
-580,036	267,887	-0,068	0,086
-579,021	-42,927	0,050	0,018
-578,006	-200,000	0,021	-0,096
-576,992	-200,000	0,000	0,018
-575,977	-200,000	-0,023	0,150
-574,963	146,243	0,090	0,087
-573,948	373,195	-0,069	-0,101
-572,934	677,120	-0,023	0,043
-571,919	-200,000	-0,002	0,019
-570,904	-200,000	-0,019	-0,090
-569,890	800,000	-0,029	0,078
-568,875	64,744	-0,031	-0,023
-567,861	-149,771	0,025	-0,001
-566,846	590,925	0,061	0,109
-565,831	-200,000	-0,019	0,139
-564,817	31,025	-0,170	0,105
-563,802	240,287	-0,040	-0,048
-562,788	654,241	0,021	-0,039
-561,773	-200,000	-0,006	-0,037
-560,758	86,800	0,159	0,126
-559,744	800,000	-0,021	0,051
-558,729	-200,000	0,047	0,194
-557,715	46,325	-0,053	-0,036
-556,700	22,070	-0,243	-0,142
-555,685	285,494	0,081	-0,105
-554,671	74,528	0,023	0,017
-553,656	-200,000	0,067	0,249
-552,642	-200,000	-0,013	0,160
-551,627	88,367	0,069	0,055
-550,612	800,000	-0,057	-0,157
-549,598	-172,872	0,059	-0,001
-548,583	40,436	-0,091	-0,059
-547,569	446,583	0,061	0,098
-546,554	480,240	-0,043	0,070
-545,539	39,798	-0,079	-0,051
-544,525	340,530	-0,090	-0,127
-543,510	386,030	-0,027	-0,040
-542,496	-200,000	0,002	-0,076
-541,481	-200,000	0,014	0,100
-540,466	82,733	0,088	-0,069
-539,452	-93,196	-0,089	-0,018
-538,437	-105,069	0,136	0,022
-537,423	-200,000	0,008	0,065
-536,408	-162,484	0,173	0,006
-535,393	800,000	-0,018	0,038
-534,379	800,000	-0,039	-0,106
-533,364	-200,000	0,018	-0,076
-532,350	313,077	-0,110	0,150
-531,335	494,908	-0,043	0,072
-530,321	161,059	0,034	0,034
-529,306	-125,489	0,024	0,003
-528,291	-6,806	-0,121	-0,059
-527,277	-87,393	-0,026	0,006
-526,262	70,997	0,032	0,024
-525,248	-79,802	0,144	-0,035
-524,233	-200,000	0,005	0,113
-523,218	403,214	0,090	0,137
-522,204	-43,613	-0,243	-0,088
-521,189	550,042	-0,024	0,041
-520,175	321,047	0,050	-0,069
-519,160	-44,865	-0,053	0,019
-518,145	-200,000	-0,021	0,108
-517,131	-200,000	-0,009	0,062
-516,116	-59,599	0,041	-0,013
-515,102	-94,445	0,074	0,014
-514,087	800,000	0,010	0,025
-513,072	243,500	-0,081	0,098
-512,058	740,272	-0,029	-0,057
-511,043	-13,234	0,111	0,052
-510,029	418,627	0,069	0,107
-509,014	-6,002	0,061	-0,030
-507,999	63,600	-0,073	0,053
-506,985	560,339	0,031	-0,053
-505,970	800,000	0,006	0,013
-504,956	800,000	0,037	-0,098
-503,941	-200,000	0,017	-0,065
-502,926	-26,174	0,135	-0,057
-501,912	-100,884	0,059	-0,010
-500,897	632,526	0,072	-0,132
-499,883	-200,000	0,008	-0,043
-498,868	-41,254	0,171	-0,063
-497,853	155,078	0,018	-0,018
-496,839	203,134	0,077	-0,085
-495,824	263,622	0,007	-0,009
-494,810	800,000	0,032	0,087
-493,795	-200,000	0,004	0,050
-492,781	800,000	-0,021	-0,045
-491,766	600,303	-0,082	0,147
-490,751	-200,000	-0,031	-0,102
-489,737	71,276	-0,115	-0,086
-488,722	-200,000	-0,001	0,096
-487,708	377,369	0,052	0,077
-486,693	-128,185	0,042	0,004
-485,678	-100,096	-0,048	-0,009
-484,664	74,880	-0,055	-0,042
-483,649	-200,000	-0,011	-0,053
-482,635	-13,991	-0,097	-0,045
-481,620	-200,000	-0,010	0,046
-480,605	-200,000	0,007	-0,084
-479,591	-200,000	-0,009	0,053
-478,576	112,255	0,044	-0,038
-477,562	323,983	-0,043	-0,059
-476,547	49,018	0,116	-0,078
-475,532	-150,922	-0,087	-0,005
-474,518	167,622	0,082	0,083
-473,503	463,297	-0,042	-0,067
-472,489	-200,000	0,027	0,111
-471,474	800,000	0,058	0,159
-470,459	-15,697	0,067	-0,030
-469,445	54,586	0,013	-0,009
-468,430	50,310	-0,075	0,051
-467,416	-98,141	-0,090	-0,017
-466,401	525,866	-0,081	0,137
-465,386	75,576	0,037	0,028
-464,372	-200,000	0,017	0,088
-463,357	-200,000	0,001	-0,203
-462,343	331,099	0,083	-0,115
-461,328	35,625	-0,035	-0,022
-460,313	800,000	0,055	-0,160
-459,299	386,802	0,033	0,049
-458,284	102,304	-0,113	0,094
-457,270	317,460	-0,028	-0,038
-456,255	-200,000	0,033	-0,185
-455,241	800,000	-0,027	0,056
-454,226	-128,593	0,020	-0,002
-453,211	-200,000	-0,001	0,198
-452,197	48,829	0,050	-0,034
-451,182	800,000	-0,021	0,063
-450,168	-98,545	0,139	-0,025
-449,153	139,016	-0,055	0,052
-448,138	99,088	-0,059	-0,049
-447,124	21,073	0,085	-0,049
-446,109	125,226	-0,077	-0,070
-445,095	-110,022	0,093	-0,014
-444,080	800,000	0,029	-0,067
-443,065	-60,095	-0,063	0,019
-442,051	-200,000	-0,068	0,000
-441,036	-200,000	0,030	-0,153
-440,022	-25,989	-0,049	-0,021
-439,007	-111,168	-0,217	-0,031
-437,992	-70,704	0,051	0,014
-436,978	-200,000	0,009	0,190
-435,963	-120,251	0,173	0,021
-434,949	-200,000	-0,099	0,000
-433,934	34,580	-0,151	-0,094
-432,919	-102,246	0,071	0,012
-431,905	177,246	0,039	0,040
-430,890	800,000	0,027	-0,063
-429,876	14,421	-0,063	-0,035
-428,861	-83,066	0,108	-0,025
-427,846	800,000	0,020	0,041
-426,832	5,648	-0,179	0,094
-425,817	800,000	-0,014	-0,028
-424,803	475,430	-0,065	-0,105
-423,788	-200,000	0,002	0,007
-422,773	283,032	0,071	-0,091
-421,759	-79,301	-0,059	-0,014
-420,744	-121,091	0,047	0,006
-419,730	-90,824	-0,089	-0,018
-418,715	-63,775	-0,126	-0,037
-417,701	266,121	-0,055	0,069
-416,686	-47,323	0,137	-0,047
-415,671	158,639	0,046	0,046
-414,657	-200,000	-0,019	0,104
-413,642	16,334	0,214	0,121
-412,628	71,747	-0,115	0,085
-411,613	-76,331	-0,132	-0,033
-410,598	58,144	-0,083	0,058
-409,584	770,571	-0,006	0,011
-408,569	800,000	0,076	0,241
-407,555	-125,756	0,006	0,001
-406,540	53,393	-0,058	0,040
-405,525	800,000	-0,021	-0,047
-404,511	-72,061	-0,111	0,029
-403,496	-47,006	-0,111	0,039
-402,482	-200,000	0,009	-0,086
-401,467	800,000	-0,011	-0,032
-400,452	268,178	-0,012	0,015
-399,438	-15,897	-0,153	0,070
-398,423	9,465	0,056	0,030
-397,409	379,707	-0,057	-0,083
-396,394	-200,000	-0,000	-0,039
-395,379	-200,000	-0,023	-0,086
-394,365	-139,758	0,144	-0,011
-393,350	114,098	0,085	0,074
-392,336	299,963	-0,029	0,038
-391,321	-140,567	-0,034	-0,002
-390,306	-200,000	-0,005	-0,073
-389,292	606,600	-0,034	-0,061
-388,277	25,385	0,104	0,061
-387,263	762,773	0,092	0,180
-386,248	460,097	0,046	-0,074
-385,233	-59,268	-0,124	0,038
-384,219	-54,097	-0,077	-0,025
-383,204	-200,000	-0,012	-0,121
-382,190	800,000	-0,062	0,146
-381,175	320,994	0,062	0,084
-380,160	-92,582	0,131	0,026
-379,146	-81,485	0,036	-0,008
-378,131	-200,000	0,028	0,161
-377,117	800,000	0,023	0,061
-376,102	702,530	0,035	-0,066
-375,088	6,933	-0,006	0,003
-374,073	32,988	-0,064	-0,039
-373,058	498,020	0,079	0,130
-372,044	325,610	0,052	0,071
-371,029	-200,000	-0,014	0,086
-370,015	800,000	-0,063	0,132
-369,000	130,843	0,083	-0,076
-367,985	607,769	0,046	-0,082
-366,971	800,000	-0,017	-0,036
-365,956	-200,000	0,001	0,068
-364,942	121,981	-0,110	-0,098
-363,927	179,589	0,087	-0,091
-362,912	65,459	0,051	-0,037
-361,898	-200,000	-0,032	-0,162
-360,883	-87,651	-0,088	-0,019
-359,869	15,605	-0,033	-0,018
-358,854	800,000	0,043	0,125
-357,839	-127,959	0,120	-0,012
-356,825	-120,318	-0,048	0,006
-355,810	94,015	0,057	-0,046
-354,796	284,828	0,099	-0,127
-353,781	-168,470	-0,100	0,003
-352,766	602,624	0,040	-0,071
-351,752	800,000	0,035	0,090
-350,737	-30,305	0,069	-0,028
-349,723	47,893	-0,062	0,041
-348,708	800,000	0,037	-0,087
-347,693	76,733	-0,058	-0,044
-346,679	21,225	-0,077	-0,045
-345,664	236,793	0,135	-0,160
-344,650	-200,000	-0,021	-0,073
-343,635	-0,869	0,105	0,053
-342,620	83,970	0,099	0,077
-341,606	-118,060	0,108	0,014
-340,591	-8,167	-0,113	-0,054
-339,577	17,392	0,021	-0,012
-338,562	331,246	0,054	-0,074
-337,548	800,000	-0,089	-0,185
-336,533	-21,011	0,145	0,063
-335,518	89,322	0,159	0,126
-334,504	-84,245	0,088	-0,020
-333,489	63,127	0,015	-0,010
-332,475	557,451	-0,063	-0,109
-331,460	358,851	-0,134	-0,191
-330,445	-200,000	-0,036	0,118
-329,431	62,083	-0,104	-0,074
-328,416	-141,718	0,124	-0,009
-327,402	-161,478	0,086	0,003
-326,387	145,323	0,083	0,079
-325,372	36,070	0,025	0,016
-324,358	560,547	-0,077	-0,133
-323,343	-200,000	-0,006	0,097
-322,329	361,313	0,099	0,142
-321,314	34,540	0,065	0,040
-320,299	231,259	-0,067	0,078
-319,285	18,325	0,079	0,045
-318,270	-128,540	0,031	-0,003
-317,256	-23,898	0,065	-0,027
-316,241	800,000	-0,072	-0,220
-315,226	-200,000	0,011	0,052
-314,212	800,000	-0,025	-0,059
-313,197	-51,373	-0,069	-0,023
-312,183	-200,000	-0,010	-0,091
-311,168	71,923	-0,033	-0,025
-310,153	151,777	-0,041	0,040
-309,139	330,771	0,113	0,156
-308,124	-47,422	0,088	0,030
-307,110	-200,000	-0,013	0,096
-306,095	800,000	0,022	0,070
-305,080	49,142	0,023	-0,015
-304,066	-200,000	-0,021	-0,097
-303,051	562,660	-0,053	-0,093
-302,037	434,176	0,062	-0,096
-301,022	-117,070	0,067	-0,009
-300,008	-176,445	0,133	0,002
-298,993	-200,000	-0,019	0,077
-297,978	-200,000	0,004	0,027
-296,964	45,271	-0,120	-0,079
-295,949	89,699	-0,109	0,086
-294,935	-1,931	-0,053	-0,027
-293,920	368,592	-0,061	-0,088
-292,905	-120,475	0,131	0,016
-291,891	-45,617	0,079	-0,028
-290,876	253,315	-0,080	0,098
-289,862	4,260	0,117	0,061
-288,847	-33,815	-0,076	0,030
-287,832	800,000	0,011	0,024
-286,818	689,803	0,095	-0,178
-285,803	-200,000	-0,010	-0,054
-284,789	800,000	0,025	0,073
-283,774	794,831	0,072	0,141
-282,759	-200,000	-0,005	0,035
-281,745	-200,000	0,011	-0,129
-280,730	-200,000	-0,013	-0,070
-279,716	800,000	0,029	-0,085
-278,701	648,613	-0,046	0,083
-277,686	475,430	0,085	0,138
-276,672	298,468	-0,051	-0,067
-275,657	124,894	-0,107	-0,096
-274,643	-200,000	-0,035	0,176
-273,628	173,514	0,113	-0,117
-272,613	-34,215	-0,071	-0,028
-271,599	739,823	0,095	-0,182
-270,584	312,819	0,117	-0,156
-269,570	57,517	-0,084	-0,059
-268,555	203,740	0,019	0,021
-267,540	93,954	-0,100	0,080
-266,526	-200,000	0,029	-0,123
-265,511	106,156	-0,057	0,048
-264,497	-117,557	-0,032	0,004
-263,482	-140,018	0,061	-0,005
-262,467	800,000	0,018	-0,042
-261,453	7,962	0,063	-0,033
-260,438	800,000	0,053	-0,156
-259,424	800,000	-0,059	0,158
-258,409	184,408	-0,072	0,076
-257,395	-48,722	0,085	0,029
-256,380	-200,000	-0,034	0,134
-255,365	131,058	0,129	0,118
-254,351	529,702	-0,064	0,109
-253,336	-200,000	-0,017	0,101
-252,322	-63,340	-0,057	-0,017
-251,307	-200,000	-0,021	0,176
-250,292	437,046	-0,056	0,087
-249,278	-200,000	0,038	0,125
-248,263	87,644	0,132	0,104
-247,249	30,928	-0,015	-0,009
-246,234	125,396	0,041	-0,037
-245,219	-97,367	0,069	0,013
-244,205	82,443	-0,111	-0,086
-243,190	800,000	-0,050	0,117
-242,176	30,033	0,131	-0,079
-241,161	151,268	-0,057	-0,055
-240,146	800,000	-0,089	-0,197
-239,132	502,806	-0,029	-0,047
-238,117	-27,093	0,070	-0,029
-237,103	528,766	-0,019	-0,032
-236,088	-200,000	-0,002	-0,041
-235,073	281,536	-0,062	0,080
-234,059	405,238	-0,043	0,064
-233,044	-2,778	0,076	-0,038
-232,030	-153,389	0,049	-0,002
-231,015	260,649	-0,112	0,138
-230,000	482,005	0,056	0,091
-228,986	141,030	0,055	0,051
-227,971	-101,074	0,127	0,022
-226,957	141,659	0,043	0,041
-225,942	214,586	0,092	-0,104
-224,927	-200,000	0,012	0,061
-223,913	800,000	-0,053	-0,106
-222,898	-200,000	-0,036	-0,182
-221,884	629,926	0,080	-0,145
-220,869	554,644	-0,070	0,121
-219,855	-162,424	-0,029	-0,001
-218,840	-118,000	-0,091	-0,011
-217,825	112,803	0,044	0,038
-216,811	-78,501	-0,213	0,051
-215,796	-6,963	0,033	-0,016
-214,782	759,815	-0,083	-0,160
-213,767	800,000	-0,003	-0,007
-212,752	136,221	0,077	0,071
-211,738	-200,000	0,022	0,113
-210,723	-30,778	-0,101	-0,040
-209,709	800,000	-0,011	-0,035
-208,694	337,178	-0,115	-0,159
-207,679	148,235	0,051	0,048
-206,665	800,000	-0,063	0,128
-205,650	308,398	0,014	-0,019
-204,636	-200,000	0,002	0,020
-203,621	-47,000	-0,118	-0,041
-202,606	414,815	-0,084	-0,127
-201,592	-69,775	-0,060	-0,016
-200,577	106,580	0,075	-0,063
-199,563	800,000	0,022	-0,044
-198,548	-200,000	0,006	-0,085
-197,533	-200,000	-0,028	0,141
-196,519	-48,765	0,093	0,031
-195,504	-200,000	0,005	-0,057
-194,490	224,609	-0,033	-0,038
-193,475	276,635	0,012	0,015
-192,460	-86,458	0,087	-0,019
-191,446	765,606	0,046	0,088
-190,431	261,718	-0,075	-0,092
-189,417	133,011	-0,039	0,036
-188,402	308,808	0,055	0,073
-187,387	-14,802	0,065	-0,029
-186,373	-47,975	-0,098	0,034
-185,358	-200,000	-0,022	0,097
-184,344	166,348	0,032	0,032
-183,329	-200,000	0,022	0,118
-182,315	234,475	0,008	0,009
-181,300	-200,000	-0,009	-0,036
-180,285	38,688	-0,071	0,045
-179,271	562,310	-0,042	-0,072
-178,256	-200,000	-0,018	0,084
-177,242	800,000	0,018	-0,039
-176,227	125,333	-0,064	0,057
-175,212	-120,991	-0,034	0,004
-174,198	-5,439	0,141	-0,068
-173,183	800,000	-0,024	0,049
-172,169	241,271	-0,093	-0,110
-171,154	271,690	-0,033	-0,041
-170,139	160,585	-0,028	0,028
-169,125	-200,000	0,014	0,056
-168,110	-153,300	0,077	-0,004
-167,096	564,199	-0,123	-0,212
-166,081	-14,127	-0,078	-0,035
-165,066	800,000	-0,023	-0,049
-164,052	-200,000	-0,009	0,045
-163,037	180,158	0,082	0,085
-162,023	-90,310	0,086	0,018
-161,008	30,647	-0,063	-0,038
-159,993	-51,228	-0,066	-0,022
-158,979	-25,273	-0,100	-0,042
-157,964	351,068	0,044	0,062
-156,950	162,637	0,066	-0,066
-155,935	-176,994	0,125	0,002
-154,920	800,000	0,042	0,124
-153,906	800,000	0,052	0,117
-152,891	-200,000	0,012	-0,098
-151,877	800,000	-0,048	0,107
-150,862	-200,000	-0,034	0,143
-149,847	73,344	-0,041	0,031
-148,833	-200,000	-0,002	-0,075
-147,818	-23,139	0,084	-0,036
-146,804	-200,000	0,009	-0,037
-145,789	-200,000	-0,005	0,056
-144,775	-140,887	0,037	0,003
-143,760	508,537	0,012	-0,020
-142,745	251,080	-0,058	-0,070
-141,731	-72,162	0,074	-0,019
-140,716	78,797	0,044	-0,033
-139,702	-150,170	-0,088	-0,005
-138,687	322,703	0,015	0,021
-137,672	49,783	-0,095	-0,064
-136,658	43,518	-0,066	-0,043
-135,643	-200,000	-0,025	0,155
-134,629	255,391	-0,022	-0,027
-133,614	591,597	-0,085	0,149
-132,599	184,474	-0,043	0,045
-131,585	137,321	0,025	0,023
-130,570	441,946	-0,017	0,027
-129,556	52,366	-0,025	-0,017
-128,541	-50,273	0,042	-0,014
-127,526	-100,145	-0,044	0,008
-126,512	-9,168	-0,052	0,024
-125,497	-200,000	0,053	0,178
-124,483	131,693	0,067	0,061
-123,468	-45,402	0,049	-0,017
-122,453	37,393	-0,035	0,022
-121,439	411,350	-0,085	-0,128
-120,424	-200,000	0,030	0,187
-119,410	-97,325	0,118	0,022
-118,395	-84,410	0,025	-0,006
-117,380	-119,855	0,161	-0,019
-116,366	-94,066	-0,019	0,004
-115,351	271,424	-0,051	-0,063
-114,337	-79,476	-0,103	0,024
-113,322	-5,933	0,091	-0,044
-112,307	-133,272	-0,063	-0,006
-111,293	-163,033	0,090	-0,003
-110,278	800,000	0,021	0,050
-109,264	520,906	0,085	0,142
-108,249	-33,349	-0,084	0,033
-107,234	-200,000	0,000	-0,021
-106,220	-43,586	-0,151	0,054
-105,205	-24,252	-0,089	-0,037
-104,191	56,332	-0,062	-0,042
-103,176	-200,000	0,017	-0,107
-102,162	-200,000	-0,001	0,019
-101,147	-108,624	0,152	0,023
-100,132	264,685	-0,109	0,135
-99,118	-200,000	-0,037	-0,130
-98,103	-200,000	0,009	0,043
-97,089	95,713	0,042	-0,034
-96,074	-117,108	0,113	0,014
-95,059	-200,000	0,050	0,158
-94,045	-121,214	-0,041	0,005
-93,030	256,789	-0,147	-0,179
-92,016	-174,954	-0,111	0,002
-91,001	318,224	0,039	-0,052
-89,986	-155,036	0,090	-0,004
-88,972	137,424	0,068	0,063
-87,957	-200,000	-0,012	0,041
-86,943	-34,485	-0,093	-0,036
-85,928	23,019	0,066	-0,038
-84,913	66,072	0,039	0,028
-83,899	-200,000	0,005	0,067
-82,884	-130,613	0,092	0,009
-81,870	-160,710	0,215	-0,008
-80,855	-200,000	-0,010	-0,094
-79,840	105,123	-0,131	-0,109
-78,826	-79,370	-0,094	0,022
-77,811	-200,000	-0,043	0,167
-76,797	-200,000	0,012	-0,104
-75,782	721,616	-0,012	-0,023
-74,767	-200,000	0,010	0,080
-73,753	-200,000	0,003	0,092
-72,738	162,450	0,066	0,066
-71,724	-162,608	-0,072	0,002
-70,709	248,724	-0,041	-0,049
-69,694	-200,000	0,030	-0,096
-68,680	29,808	-0,044	-0,027
-67,665	367,342	0,058	0,082
-66,651	-200,000	0,020	-0,107
-65,636	-200,000	0,007	-0,043
-64,622	-200,000	-0,012	-0,058
-63,607	-159,541	-0,089	0,003
-62,592	-25,707	-0,043	-0,018
-61,578	-18,588	-0,034	-0,015
-60,563	-89,737	0,224	-0,046
-59,549	18,820	0,056	-0,032
-58,534	41,579	-1,848	-1,179
-57,519	408,119	-1,437	-2,153
-56,505	-200,000	-0,403	-4,346
-55,490	388,500	0,771	1,130
-54,476	800,000	5,207	11,409
-53,461	-200,000	20,532	328,243
-52,446	800,000	753,463	2314,681
-51,432	551,466	1658,945	2821,920
-50,417	73,943	1663,599	1230,395
-49,403	19,095	1536,880	867,750
-48,388	13,095	1459,571	795,081
-47,373	18,900	1450,151	817,780
-46,359	16,092	1439,698	798,492
-45,344	11,353	1435,495	773,569
-44,330	11,287	1433,546	772,176
-43,315	11,232	1431,792	770,938
-42,300	11,303	1429,677	770,105
-41,286	11,327	1428,357	769,480
-40,271	11,247	1427,338	768,519
-39,257	11,278	1426,155	767,997
-38,242	11,319	1424,994	767,537
-37,227	11,302	1423,812	766,790
-36,213	11,320	1422,498	766,138
-35,198	11,354	1421,384	765,668
-34,184	11,416	1420,243	765,314
-33,169	11,329	1419,043	764,225
-32,154	11,365	1418,098	763,856
-31,140	11,371	1417,060	763,298
-30,125	11,363	1415,766	762,530
-29,111	11,400	1414,820	762,163
-28,096	11,345	1413,456	761,142
-27,082	11,269	1412,418	760,198
-26,067	11,232	1411,576	759,541
-25,052	11,339	1410,072	759,201
-24,038	11,284	1409,053	758,364
-23,023	11,243	1408,430	757,806
-22,009	11,276	1407,169	757,255
-20,994	11,234	1406,328	756,576
-19,979	11,261	1405,261	756,099
-18,965	11,281	1404,268	755,624
-17,950	11,238	1403,539	755,003
-16,936	11,204	1402,847	754,441
-15,921	11,213	1401,667	753,821
-14,906	11,176	1400,820	753,162
-13,892	11,194	1399,726	752,626
-12,877	11,231	1399,009	752,383
-11,863	11,201	1398,082	751,719
-10,848	11,174	1397,012	750,985
-9,833	11,119	1396,279	750,306
-8,819	11,084	1395,572	749,733
-7,804	11,052	1394,784	749,134
-6,790	11,084	1393,591	748,613
-5,775	11,100	1392,430	748,033
-4,760	11,137	1391,343	747,588
-3,746	11,121	1390,633	747,104
-2,731	11,099	1389,644	746,442
-1,717	11,050	1389,009	745,844
-0,702	11,093	1387,256	745,075
0,313	15,059	1301,702	717,306
1,327	31,276	694,192	419,475
2,342	48,172	120,754	79,531
3,356	1,383	16,464	8,320
4,371	-16,957	3,452	1,532
5,386	-33,884	0,838	0,324
6,400	800,000	0,232	0,499
7,415	8,468	-0,273	-0,145
8,429	-46,689	-0,213	-0,073
9,444	95,779	-0,284	-0,228
10,459	-60,927	-0,269	-0,080
11,473	7,630	-0,444	-0,233
12,488	117,665	-0,128	-0,111
13,502	-73,254	-0,244	-0,063
14,517	65,956	-0,354	-0,253
15,531	-80,863	-0,431	-0,100
16,546	-9,326	-0,264	-0,124
17,561	248,622	-0,244	-0,291
18,575	82,592	-0,195	-0,149
19,590	18,548	-0,217	-0,122
20,604	-33,892	-0,244	-0,094
21,619	140,334	-0,471	-0,438
22,634	210,666	-0,429	-0,475
23,648	58,151	-0,378	-0,261
24,663	24,746	-0,491	-0,286
25,677	61,999	-0,345	-0,242
26,692	177,798	-0,402	-0,413
27,707	485,077	-0,168	-0,270
28,721	386,195	-0,310	-0,452
29,736	50,390	-0,413	-0,275
30,750	132,146	-0,353	-0,320
31,765	193,623	-0,247	-0,263
32,780	174,188	-0,458	-0,466
33,794	38,241	-0,417	-0,261
34,809	82,307	-0,311	-0,237
35,823	-23,972	-0,510	-0,213
36,838	183,081	-0,271	-0,282
37,853	43,061	-0,339	-0,217
38,867	221,387	-0,361	-0,408
39,882	147,485	-0,400	-0,378
40,896	77,674	-0,295	-0,221
41,911	212,516	-0,251	-0,279
42,926	30,494	-0,408	-0,244
43,940	78,931	-0,438	-0,329
44,955	144,841	-0,287	-0,270
45,969	134,483	-0,407	-0,371
46,984	49,200	-0,359	-0,237
47,999	-49,315	-0,384	-0,128
49,013	75,234	-0,362	-0,268
50,028	39,036	-0,268	-0,168
51,042	252,885	-0,306	-0,367
52,057	119,876	-0,350	-0,305
53,071	715,937	-0,206	-0,386
54,086	198,699	-0,263	-0,283
55,101	-5,988	-0,378	-0,181
56,115	63,780	-0,338	-0,238
57,130	122,195	-0,426	-0,374
58,144	112,811	-0,348	-0,296
59,159	73,053	-0,360	-0,263
60,174	57,983	-0,427	-0,293
61,188	57,311	-0,378	-0,258
62,203	-53,317	-0,322	-0,103
63,217	82,223	-0,360	-0,274
64,232	42,624	-0,328	-0,209
65,247	129,888	-0,338	-0,303
66,261	17,193	-0,448	-0,249
67,276	21,547	-0,404	-0,230
68,290	77,076	-0,333	-0,248
69,305	128,080	-0,283	-0,253
70,320	-36,442	-0,295	-0,111
71,334	84,178	-0,393	-0,301
72,349	47,592	-0,345	-0,225
73,363	-28,363	-0,415	-0,167
74,378	2,903	-0,264	-0,134
75,393	306,157	-0,239	-0,312
76,407	792,946	-0,122	-0,237
77,422	274,614	-0,202	-0,251
78,436	313,577	-0,292	-0,386
79,451	-97,611	-0,384	-0,069
80,466	57,464	-0,322	-0,220
81,480	71,713	-0,307	-0,224
82,495	48,080	-0,344	-0,225
83,509	105,624	-0,185	-0,153
84,524	-45,620	-0,357	-0,123
85,539	-49,919	-0,240	-0,079
86,553	437,390	-0,142	-0,217
87,568	57,469	-0,411	-0,280
88,582	54,696	-0,379	-0,255
89,597	125,973	-0,326	-0,289
90,611	-53,203	-0,394	-0,126
91,626	-8,212	-0,314	-0,147
92,641	168,562	-0,241	-0,241
93,655	55,900	-0,243	-0,165
94,670	-48,287	-0,253	-0,085
95,684	87,651	-0,338	-0,262
96,699	152,160	-0,247	-0,236
97,714	456,824	-0,145	-0,226
98,728	48,490	-0,313	-0,205
99,743	261,923	-0,126	-0,153
100,757	-45,929	-0,276	-0,095
101,772	77,514	-0,290	-0,215
102,787	20,743	-0,340	-0,192
103,801	65,299	-0,240	-0,169
104,816	-78,633	-0,328	-0,078
105,830	107,412	-0,222	-0,184
106,845	190,727	-0,187	-0,197
107,860	77,758	-0,252	-0,187
108,874	-33,869	-0,363	-0,139
109,889	151,037	-0,252	-0,240
110,903	0,340	-0,292	-0,145
111,918	41,287	-0,273	-0,172
112,933	29,539	-0,171	-0,102
113,947	103,802	-0,274	-0,225
114,962	-28,027	-0,327	-0,132
115,976	115,491	-0,142	-0,121
116,991	800,000	-0,047	-0,110
118,006	68,006	-0,344	-0,246
119,020	109,045	-0,192	-0,160
120,035	800,000	-0,087	-0,192
121,049	-13,535	-0,183	-0,082
122,064	-75,222	-0,210	-0,052
123,079	-44,751	-0,327	-0,113
124,093	436,048	-0,185	-0,282
125,108	-5,859	-0,353	-0,168
126,122	30,019	-0,294	-0,175
127,137	94,120	-0,253	-0,201
128,151	-5,912	-0,325	-0,155
129,166	11,660	-0,213	-0,114
130,181	-79,572	-0,333	-0,078
131,195	-55,680	-0,316	-0,098
132,210	147,815	-0,294	-0,276
133,224	-18,813	-0,302	-0,131
134,239	186,766	-0,142	-0,147
135,254	-78,170	-0,283	-0,067
136,268	-58,826	-0,307	-0,092
137,283	-155,398	-0,231	0,010
138,297	-39,010	-0,274	-0,100
139,312	89,772	-0,275	-0,213
140,327	28,627	-0,330	-0,194
141,341	439,124	-0,099	-0,151
142,356	28,121	-0,205	-0,120
143,370	244,606	-0,112	-0,131
144,385	800,000	-0,091	-0,243
145,400	-5,755	-0,208	-0,099
146,414	155,560	-0,263	-0,252
147,429	361,844	-0,192	-0,270
148,443	42,918	-0,177	-0,112
149,458	-37,434	-0,260	-0,096
150,473	6,582	-0,280	-0,144
151,487	92,361	-0,178	-0,140
152,502	43,245	-0,256	-0,162
153,516	332,256	-0,174	-0,234
154,531	56,593	-0,194	-0,131
155,546	-143,180	-0,179	-0,012
156,560	-200,000	-0,023	-0,084
157,575	-11,206	-0,162	-0,074
158,589	-177,323	-0,252	0,004
159,604	-112,453	-0,154	-0,021
160,619	62,567	-0,234	-0,162
161,633	-22,128	-0,284	-0,119
162,648	62,855	-0,272	-0,189
163,662	99,750	-0,301	-0,242
164,677	183,596	-0,074	-0,077
165,692	339,650	-0,094	-0,127
166,706	152,384	-0,317	-0,301
167,721	79,670	-0,287	-0,214
168,735	-12,075	-0,339	-0,154
169,750	-10,205	-0,262	-0,121
170,764	8,738	-0,329	-0,172
171,779	-124,323	-0,024	0,003
172,794	37,528	-0,259	-0,159
173,808	73,856	-0,200	-0,145
174,823	63,554	-0,289	-0,201
175,837	97,101	-0,304	-0,242
176,852	-88,816	-0,342	-0,070
177,867	168,141	-0,192	-0,190
178,881	55,204	-0,236	-0,158
179,896	302,621	-0,153	-0,198
180,910	-63,646	-0,238	-0,067
181,925	312,499	-0,186	-0,244
182,940	241,255	-0,181	-0,210
183,954	70,487	-0,347	-0,249
184,969	13,574	-0,213	-0,114
185,983	-63,045	-0,088	0,025
186,998	322,850	-0,135	-0,179
188,013	615,813	-0,172	-0,300
189,027	-81,812	-0,212	-0,048
190,042	800,000	-0,102	-0,241
191,056	-136,953	-0,171	0,013
192,071	-7,274	-0,204	-0,096
193,086	150,190	-0,203	-0,191
194,100	-98,472	-0,149	-0,026
195,115	253,614	-0,189	-0,224
196,129	96,826	-0,141	-0,112
197,144	142,695	-0,299	-0,276
198,159	-113,439	-0,304	-0,041
199,173	-23,507	-0,194	-0,080
200,188	-174,041	-0,229	-0,005
201,202	-125,774	-0,117	0,012
202,217	-150,386	-0,181	-0,010
203,232	211,711	-0,246	-0,269
204,246	30,417	-0,275	-0,163
205,261	340,730	-0,169	-0,230
206,275	-175,199	-0,143	0,003
207,290	60,905	-0,267	-0,183
208,304	62,662	-0,042	-0,029
209,319	383,854	-0,200	-0,286
210,334	136,196	-0,259	-0,234
211,348	-34,484	-0,169	-0,064
212,363	197,547	-0,191	-0,202
213,377	-103,511	-0,165	-0,027
214,392	31,118	-0,144	0,085
215,407	174,107	-0,150	-0,150
216,421	441,864	-0,077	-0,117
217,436	135,856	-0,131	-0,118
218,450	123,903	-0,238	-0,207
219,465	42,799	-0,332	-0,209
220,480	122,205	-0,206	-0,178
221,494	754,268	-0,080	-0,150
222,509	46,808	-0,138	-0,089
223,523	-71,728	-0,173	-0,044
224,538	64,599	-0,235	-0,163
225,553	-43,555	-0,169	-0,059
226,567	5,956	-0,267	-0,136
227,582	114,057	-0,264	-0,222
228,596	42,767	-0,266	-0,167
229,611	23,409	-0,190	-0,108
230,626	43,922	-0,200	-0,127
231,640	-36,901	-0,248	-0,092
232,655	8,914	-0,352	-0,183
233,669	-83,196	-0,177	-0,039
234,684	800,000	-0,068	-0,193
235,699	618,735	-0,160	-0,279
236,713	121,978	-0,174	-0,150
237,728	42,296	-0,118	-0,074
238,742	93,681	-0,223	-0,175
239,757	-95,857	-0,303	-0,055
240,772	-32,106	-0,183	-0,070
241,786	-48,595	-0,253	-0,084
242,801	-105,582	-0,185	-0,029
243,815	33,314	-0,244	-0,146
244,830	800,000	-0,090	-0,180
245,844	-53,667	-0,187	-0,059
246,859	-184,129	-0,156	-0,002
247,874	241,816	-0,234	-0,270
248,888	158,914	-0,220	-0,211
249,903	58,709	-0,165	-0,112
250,917	-61,029	-0,127	-0,037
251,932	45,310	-0,054	-0,034
252,947	-82,356	-0,085	-0,019
253,961	-135,413	-0,266	-0,022
254,976	22,032	-0,248	-0,139
255,990	324,253	-0,167	-0,221
257,005	-74,425	-0,274	-0,068
258,020	-200,000	-0,050	-0,215
259,034	-16,780	-0,184	-0,080
260,049	96,762	-0,116	-0,092
261,063	-15,601	-0,337	-0,148
262,078	50,411	-0,172	-0,112
263,093	-144,640	-0,095	0,006
264,107	601,860	-0,111	-0,190
265,122	173,713	-0,036	-0,036
266,136	-3,501	-0,266	-0,127
267,151	-15,607	-0,212	0,093
268,166	-20,074	-0,042	0,018
269,180	26,009	-0,224	-0,129
270,195	262,402	-0,172	-0,206
271,209	800,000	-0,062	-0,128
272,224	-200,000	-0,028	-0,149
273,239	244,231	-0,156	-0,181
274,253	43,555	-0,268	-0,168
275,268	58,907	-0,209	-0,141
276,282	68,857	-0,265	-0,187
277,297	305,839	-0,163	-0,209
278,312	-14,279	-0,171	-0,075
279,326	-170,267	-0,083	-0,002
280,341	-68,584	-0,225	-0,060
281,355	56,853	-0,080	0,053
282,370	68,364	-0,261	-0,184
283,384	-49,482	-0,136	-0,044
284,399	131,509	-0,141	-0,125
285,414	800,000	-0,121	-0,248
286,428	328,798	-0,068	-0,091
287,443	-118,819	-0,129	-0,015
288,457	720,370	-0,065	-0,120
289,472	800,000	-0,105	-0,201
290,487	208,902	-0,178	-0,192
291,501	105,768	-0,163	-0,133
292,516	207,875	-0,124	-0,133
293,530	228,443	-0,113	-0,127
294,545	-108,009	-0,117	-0,017
295,560	36,751	-0,022	-0,013
296,574	100,458	-0,237	-0,189
297,589	142,612	-0,263	-0,240
298,603	161,905	-0,163	-0,157
299,618	-46,306	-0,107	-0,036
300,633	427,670	-0,094	-0,140
301,647	-41,552	-0,182	-0,064
302,662	-66,494	-0,122	-0,033
303,676	-73,233	-0,185	-0,046
304,691	-102,583	-0,278	-0,045
305,706	40,323	-0,116	-0,072
306,720	-118,066	-0,285	-0,035
307,735	-200,000	-0,043	-0,144
308,749	-35,682	-0,067	-0,025
309,764	-112,192	-0,084	-0,011
310,779	-123,821	-0,115	-0,012
311,793	450,832	-0,077	-0,118
312,808	800,000	-0,084	-0,197
313,822	764,175	-0,079	-0,148
314,837	-30,744	-0,070	0,027
315,852	-200,000	-0,011	-0,126
316,866	368,852	-0,049	-0,068
317,881	364,299	-0,092	-0,127
318,895	21,867	-0,054	-0,030
319,910	-27,662	-0,198	-0,078
320,925	-40,816	-0,141	-0,050
321,939	239,102	-0,095	-0,108
322,954	68,984	-0,171	-0,120
323,968	8,711	-0,170	-0,088
324,983	327,216	-0,215	-0,284
325,997	563,145	-0,123	-0,204
327,012	-170,633	-0,242	0,006
328,027	310,574	-0,128	-0,165
329,041	-49,689	-0,164	0,053
330,056	-43,610	-0,039	-0,013
331,070	132,572	-0,127	-0,112
332,085	553,785	-0,074	0,122
333,100	364,170	-0,119	-0,165
334,114	72,051	-0,172	-0,123
335,129	34,736	-0,193	-0,115
336,143	15,981	-0,221	-0,119
337,158	30,380	-0,057	-0,033
338,173	154,712	-0,137	-0,129
339,187	436,709	-0,064	-0,096
340,202	227,855	-0,071	-0,079
341,216	339,786	-0,090	-0,121
342,231	93,326	-0,182	-0,141
343,246	10,923	-0,143	-0,075
344,260	-101,817	-0,273	-0,045
345,275	8,307	-0,070	-0,036
346,289	800,000	-0,073	-0,154
347,304	-68,196	-0,115	-0,031
348,319	16,172	-0,136	-0,073
349,333	481,057	-0,114	-0,178
350,348	-68,121	-0,138	-0,037
351,362	-200,000	-0,006	-0,159
352,377	-200,000	0,009	-0,132
353,392	-34,542	-0,105	-0,039
354,406	-21,244	-0,054	-0,022
355,421	206,605	1309,982	1397,087
356,435	158,906	1470,116	1397,596
