DTS Sentinel unit serial number:	SN410029Multiplexer serial number:	ORYXHardware model number:	OX2-SRSoftware version number:	ORYX F/W v4,00 Oryx Data Collector v3.7.2.0data status	okinstallation	B3 Nyhavnadifferential loss correction	single-endedforward channel	channel 1reverse channel	N/Adate	2023/11/28time	23:17:30forward acquisition time	300,00reverse acquisition time	0,00gamma	499,1914k internal	0,3212k external	0,3212temperature offset calibration	1,0000default loss term (dB/km)	0,3820temperature slope calibration	1,0000multiplexer offset coefficient	1,0000multiplexer slope coefficient	1,0000fibre end	0,00T internal ref (°C)	8,75T ext. ref 1 (°C)	-5,74T ext. ref 2 (°C)	-5,90length (m)	temperature (°C)	Stokes	anti-Stokes-744,400	-2,541	-0,130	-0,066
-743,385	-200,000	0,057	0,231
-742,371	424,894	-0,159	-0,249
-741,356	-200,000	-0,041	0,339
-740,342	-22,248	-0,159	-0,070
-739,327	800,000	-0,121	0,302
-738,312	195,051	-0,212	-0,234
-737,298	800,000	-0,100	0,252
-736,283	420,970	-0,137	-0,213
-735,269	-200,000	-0,070	0,267
-734,254	800,000	-0,126	-0,276
-733,239	111,203	-0,173	0,151
-732,225	-200,000	-0,008	-0,186
-731,210	-200,000	0,056	0,241
-730,196	-140,262	0,084	-0,006
-729,181	-3,932	-0,176	0,088
-728,167	-157,170	-0,058	-0,003
-727,152	-200,000	-0,001	0,005
-726,137	396,951	-0,065	-0,099
-725,123	800,000	-0,036	-0,097
-724,108	-200,000	-0,014	-0,096
-723,094	411,424	-0,071	-0,110
-722,079	-200,000	0,004	0,033
-721,064	-200,000	-0,014	-0,119
-720,050	-20,406	-0,104	-0,046
-719,035	679,588	-0,059	-0,112
-718,021	800,000	-0,038	0,079
-717,006	-200,000	-0,022	-0,151
-715,991	53,750	-0,184	-0,128
-714,977	800,000	0,050	-0,157
-713,962	-56,397	-0,056	-0,018
-712,948	-200,000	-0,005	0,025
-711,933	800,000	0,055	0,152
-710,918	-36,237	0,094	-0,036
-709,904	240,553	0,052	-0,062
-708,889	-128,028	-0,022	0,002
-707,875	-200,000	0,012	-0,136
-706,860	-132,365	-0,114	0,011
-705,845	800,000	-0,075	0,192
-704,831	38,128	-0,105	0,067
-703,816	-34,365	-0,051	0,020
-702,802	-118,943	-0,067	-0,008
-701,787	97,809	0,093	-0,077
-700,772	-171,067	-0,042	-0,001
-699,758	271,701	0,036	-0,046
-698,743	143,511	-0,097	0,093
-697,729	800,000	-0,051	0,135
-696,714	351,526	0,017	0,025
-695,699	119,442	-0,059	-0,053
-694,685	-200,000	-0,003	-0,065
-693,670	24,526	-0,097	0,058
-692,656	800,000	0,023	0,064
-691,641	82,274	-0,075	-0,059
-690,627	-200,000	0,007	0,053
-689,612	94,251	0,048	-0,040
-688,597	380,128	-0,052	-0,077
-687,583	111,177	-0,188	-0,164
-686,568	631,240	0,129	-0,238
-685,554	70,890	-0,170	-0,127
-684,539	800,000	0,008	0,020
-683,524	36,152	0,161	0,102
-682,510	166,197	0,073	0,074
-681,495	-200,000	-0,007	-0,115
-680,481	134,506	0,025	0,023
-679,466	301,540	-0,060	-0,080
-678,451	-200,000	-0,002	0,086
-677,437	-200,000	-0,006	-0,098
-676,422	-80,461	-0,073	0,018
-675,408	800,000	0,029	0,065
-674,393	235,729	0,041	-0,049
-673,378	-22,154	-0,078	-0,034
-672,364	376,467	0,049	-0,073
-671,349	4,674	-0,020	0,011
-670,335	800,000	0,054	-0,124
-669,320	97,091	0,053	-0,044
-668,305	-200,000	0,017	0,057
-667,291	-200,000	0,003	-0,109
-666,276	-138,396	0,136	0,011
-665,262	370,708	-0,027	-0,039
-664,247	-11,362	-0,183	-0,087
-663,232	-13,891	-0,122	-0,057
-662,218	-76,096	-0,007	0,002
-661,203	42,968	0,082	0,054
-660,189	800,000	-0,016	0,034
-659,174	343,916	0,040	-0,057
-658,159	-200,000	-0,043	-0,150
-657,145	-38,084	-0,044	-0,017
-656,130	169,217	-0,087	0,090
-655,116	-60,476	-0,163	0,050
-654,101	-200,000	0,000	0,098
-653,086	800,000	-0,027	0,075
-652,072	-120,667	-0,087	0,010
-651,057	348,286	0,040	-0,057
-650,043	-79,196	-0,077	-0,019
-649,028	800,000	0,039	0,121
-648,014	192,387	-0,034	-0,037
-646,999	78,119	-0,015	0,012
-645,984	382,065	-0,070	0,104
-644,970	-69,795	0,079	-0,022
-643,955	-200,000	-0,008	-0,026
-642,941	-69,159	0,058	0,016
-641,926	-200,000	-0,001	0,033
-640,911	129,561	0,060	0,055
-639,897	-11,726	0,077	0,036
-638,882	65,906	-0,049	0,035
-637,868	425,322	0,018	-0,028
-636,853	800,000	-0,021	-0,046
-635,838	-20,237	-0,098	-0,044
-634,824	56,681	0,030	0,021
-633,809	50,926	-0,052	0,035
-632,795	-66,536	0,019	-0,005
-631,780	-34,644	0,062	-0,024
-630,765	-200,000	0,023	0,150
-629,751	-117,089	-0,136	0,018
-628,736	113,622	0,028	0,024
-627,722	-200,000	0,031	-0,129
-626,707	800,000	-0,086	-0,202
-625,692	-78,357	0,087	0,021
-624,678	476,371	-0,083	0,136
-623,663	100,896	-0,045	-0,037
-622,649	-134,245	-0,027	0,002
-621,634	-77,529	-0,123	0,031
-620,619	179,904	-0,063	0,067
-619,605	-200,000	-0,001	-0,064
-618,590	-72,677	0,021	-0,006
-617,576	46,115	-0,067	0,045
-616,561	424,668	-0,046	0,072
-615,546	20,123	0,075	0,044
-614,532	31,398	-0,080	-0,049
-613,517	96,163	-0,062	-0,051
-612,503	-200,000	0,023	0,094
-611,488	62,088	-0,120	0,086
-610,474	-132,239	0,123	0,011
-609,459	-140,108	-0,154	-0,011
-608,444	174,517	-0,125	-0,131
-607,430	-28,885	-0,097	-0,040
-606,415	-50,785	-0,089	0,030
-605,401	-200,000	0,016	0,219
-604,386	-200,000	0,020	-0,068
-603,371	387,327	0,083	-0,124
-602,357	-200,000	0,024	-0,114
-601,342	-131,261	0,075	-0,007
-600,328	-200,000	-0,053	-0,192
-599,313	-200,000	0,000	-0,093
-598,298	-200,000	0,013	-0,071
-597,284	22,497	0,049	0,029
-596,269	-21,696	0,128	0,056
-595,255	207,790	-0,102	-0,115
-594,240	199,012	0,032	0,035
-593,225	106,475	0,045	-0,038
-592,211	-93,588	-0,050	0,010
-591,196	465,253	0,073	-0,118
-590,182	-88,145	0,243	-0,052
-589,167	412,196	-0,070	0,107
-588,152	-81,006	-0,104	-0,025
-587,138	-200,000	-0,017	-0,123
-586,123	800,000	-0,083	-0,222
-585,109	-200,000	-0,028	-0,161
-584,094	-2,602	0,137	-0,069
-583,079	800,000	-0,025	-0,077
-582,065	264,776	-0,045	0,056
-581,050	-91,078	0,085	-0,017
-580,036	-120,376	-0,042	-0,005
-579,021	234,371	0,026	-0,031
-578,006	-180,838	-0,081	0,001
-576,992	-48,256	-0,170	-0,059
-575,977	800,000	-0,049	0,105
-574,963	-60,057	0,058	0,018
-573,948	800,000	-0,030	0,081
-572,934	-200,000	0,000	0,110
-571,919	-11,277	-0,084	-0,040
-570,904	75,264	-0,153	-0,116
-569,890	800,000	-0,042	-0,119
-568,875	800,000	0,096	0,196
-567,861	-99,599	-0,144	-0,026
-566,846	-200,000	0,007	0,033
-565,831	-82,199	-0,093	-0,022
-564,817	-30,684	0,081	0,033
-563,802	85,288	-0,101	-0,079
-562,788	170,722	0,002	0,002
-561,773	-1,290	-0,147	0,075
-560,758	-200,000	0,006	-0,023
-559,744	714,668	-0,026	-0,049
-558,729	-70,625	-0,139	0,038
-557,715	-48,329	-0,082	-0,028
-556,700	-200,000	0,009	-0,071
-555,685	-200,000	0,003	0,117
-554,671	-20,100	0,102	0,045
-553,656	-200,000	0,018	-0,058
-552,642	-77,554	0,062	-0,015
-551,627	800,000	0,075	0,177
-550,612	-65,153	0,084	-0,024
-549,598	8,231	0,044	-0,023
-548,583	-61,267	-0,051	-0,015
-547,569	25,132	-0,066	0,040
-546,554	197,091	0,060	0,066
-545,539	-23,888	-0,131	0,056
-544,525	800,000	-0,033	0,075
-543,510	800,000	-0,033	0,084
-542,496	-100,592	-0,107	0,019
-541,481	517,164	-0,047	-0,079
-540,466	-200,000	0,037	0,122
-539,452	534,815	0,008	-0,014
-538,437	-200,000	0,053	0,185
-537,423	-157,225	-0,062	0,003
-536,408	-200,000	-0,006	-0,042
-535,393	362,991	0,091	-0,132
-534,379	86,413	-0,083	-0,066
-533,364	-200,000	-0,020	-0,092
-532,350	252,016	0,045	-0,055
-531,335	132,818	-0,073	0,068
-530,321	83,704	0,133	-0,105
-529,306	-132,444	-0,108	0,010
-528,291	313,974	-0,069	0,093
-527,277	-19,336	-0,052	0,023
-526,262	25,727	-0,026	-0,016
-525,248	136,753	0,084	0,079
-524,233	421,715	0,021	0,033
-523,218	244,854	-0,076	0,091
-522,204	54,018	0,132	0,091
-521,189	-200,000	-0,006	0,107
-520,175	800,000	0,051	0,106
-519,160	-95,660	-0,116	-0,022
-518,145	-68,521	-0,044	-0,012
-517,131	-64,302	0,038	0,011
-516,116	-55,523	0,051	-0,016
-515,102	-58,716	0,106	0,033
-514,087	800,000	-0,039	-0,104
-513,072	-200,000	0,031	-0,144
-512,058	451,762	-0,075	-0,120
-511,043	-34,280	-0,091	-0,036
-510,029	-200,000	0,014	0,048
-509,014	-200,000	0,004	0,025
-507,999	-200,000	-0,009	0,062
-506,985	234,591	-0,120	-0,142
-505,970	16,570	-0,079	-0,045
-504,956	105,585	0,052	-0,044
-503,941	-200,000	-0,004	-0,028
-502,926	17,889	-0,166	0,095
-501,912	800,000	-0,019	-0,040
-500,897	-200,000	0,009	-0,046
-499,883	111,078	0,061	0,053
-498,868	783,496	0,052	-0,102
-497,853	-200,000	-0,002	-0,101
-496,839	-163,428	0,217	-0,007
-495,824	-24,227	-0,038	-0,016
-494,810	-23,289	0,193	-0,083
-493,795	184,813	-0,085	0,091
-492,781	283,228	-0,061	0,079
-491,766	144,512	-0,054	-0,052
-490,751	800,000	-0,087	-0,222
-489,737	-200,000	0,006	-0,081
-488,722	198,733	0,043	-0,047
-487,708	-48,344	0,013	-0,005
-486,693	-200,000	-0,015	0,111
-485,678	66,004	-0,058	-0,042
-484,664	-49,321	0,058	-0,020
-483,649	97,110	-0,096	-0,079
-482,635	-101,766	0,042	-0,007
-481,620	178,402	0,068	0,072
-480,605	42,279	0,004	0,003
-479,591	-34,695	-0,046	-0,018
-478,576	-200,000	0,001	-0,017
-477,562	800,000	-0,076	-0,153
-476,547	-200,000	0,019	0,140
-475,532	-140,326	0,163	-0,012
-474,518	-103,756	0,020	-0,003
-473,503	-158,055	0,101	0,004
-472,489	-200,000	0,005	0,055
-471,474	800,000	-0,042	0,123
-470,459	-200,000	0,002	-0,064
-469,445	-38,983	-0,084	-0,032
-468,430	-32,034	-0,083	-0,033
-467,416	245,012	0,094	0,113
-466,401	-81,899	0,151	0,035
-465,386	132,131	-0,067	0,062
-464,372	118,039	0,094	-0,083
-463,357	132,406	0,049	0,045
-462,343	800,000	-0,025	-0,074
-461,328	56,870	0,048	-0,034
-460,313	305,278	0,048	-0,064
-459,299	800,000	-0,002	-0,006
-458,284	-186,606	0,025	-0,000
-457,270	-112,719	0,119	0,017
-456,255	-43,523	0,078	-0,028
-455,241	-114,106	-0,035	0,005
-454,226	231,393	0,067	-0,079
-453,211	422,922	0,059	-0,091
-452,197	57,791	-0,061	-0,043
-451,182	-119,804	0,173	0,021
-450,168	-200,000	-0,012	-0,228
-449,153	800,000	0,028	-0,058
-448,138	800,000	-0,037	-0,077
-447,124	342,379	0,044	-0,061
-446,109	-16,007	0,055	-0,025
-445,095	309,784	0,044	0,059
-444,080	-200,000	-0,011	0,110
-443,065	194,976	0,046	0,050
-442,051	40,558	0,108	0,070
-441,036	-6,462	-0,074	-0,036
-440,022	152,759	-0,104	0,102
-439,007	-200,000	0,009	-0,106
-437,992	-94,895	-0,045	0,009
-436,978	29,669	0,057	0,035
-435,963	535,279	0,060	0,102
-434,949	566,116	0,056	0,097
-433,934	-175,374	-0,103	-0,002
-432,919	800,000	-0,036	0,087
-431,905	-200,000	-0,015	0,120
-430,890	79,802	0,071	-0,054
-429,876	331,238	-0,091	0,126
-428,861	-200,000	0,011	0,076
-427,846	496,004	0,055	-0,091
-426,832	245,597	-0,031	-0,037
-425,817	-31,841	-0,152	0,061
-424,803	-200,000	-0,002	-0,128
-423,788	276,603	0,005	0,007
-422,773	-125,633	-0,121	0,013
-421,759	-200,000	0,031	0,128
-420,744	800,000	0,026	0,055
-419,730	70,329	0,107	-0,079
-418,715	800,000	-0,078	-0,194
-417,701	252,895	-0,056	-0,069
-416,686	246,087	0,069	-0,084
-415,671	208,346	0,037	0,042
-414,657	133,345	0,125	0,115
-413,642	-40,740	0,077	0,028
-412,628	140,804	0,052	0,050
-411,613	13,866	-0,063	0,035
-410,598	24,421	-0,058	0,034
-409,584	4,369	0,183	0,096
-408,569	214,490	-0,041	-0,047
-407,555	-13,240	0,091	-0,042
-406,540	195,298	-0,057	0,062
-405,525	800,000	0,026	-0,058
-404,511	800,000	-0,048	0,112
-403,496	-162,551	-0,186	0,006
-402,482	156,984	0,094	0,093
-401,467	-70,105	-0,134	0,036
-400,452	800,000	0,061	-0,130
-399,438	614,586	0,030	0,054
-398,423	-41,001	0,154	0,057
-397,409	800,000	-0,019	-0,055
-396,394	-43,624	-0,077	-0,027
-395,379	-175,820	-0,125	0,002
-394,365	-200,000	-0,015	-0,074
-393,350	800,000	0,021	-0,044
-392,336	373,358	0,043	-0,063
-391,321	325,135	0,073	-0,100
-390,306	-16,666	-0,055	-0,025
-389,292	800,000	-0,013	0,036
-388,277	-49,838	0,156	0,053
-387,263	11,623	0,054	0,030
-386,248	-110,263	0,091	0,013
-385,233	-200,000	-0,044	0,143
-384,219	800,000	-0,037	-0,113
-383,204	-33,693	0,119	-0,047
-382,190	800,000	-0,007	-0,015
-381,175	-200,000	-0,017	-0,148
-380,160	800,000	-0,051	0,120
-379,146	-83,050	0,153	0,035
-378,131	-74,502	-0,153	0,039
-377,117	-200,000	-0,033	0,111
-376,102	800,000	0,014	0,042
-375,088	-46,100	0,081	-0,028
-374,073	800,000	-0,059	0,145
-373,058	800,000	0,044	0,090
-372,044	-200,000	-0,006	0,174
-371,029	-72,922	-0,134	-0,035
-370,015	-200,000	0,012	0,068
-369,000	151,131	0,028	-0,027
-367,985	-112,411	0,059	0,008
-366,971	-200,000	-0,007	-0,027
-365,956	-102,923	-0,017	0,003
-364,942	-58,148	0,111	0,034
-363,927	-20,221	0,057	-0,025
-362,912	-200,000	0,005	0,024
-361,898	-48,138	0,049	0,017
-360,883	79,038	-0,052	0,040
-359,869	117,037	-0,091	-0,080
-358,854	58,678	0,044	0,031
-357,839	204,379	-0,111	0,123
-356,825	374,049	0,052	0,075
-355,810	800,000	0,029	0,059
-354,796	-120,462	-0,087	-0,010
-353,781	684,202	0,055	-0,103
-352,766	249,326	-0,064	0,077
-351,752	422,683	-0,055	-0,085
-350,737	800,000	0,062	-0,187
-349,723	-152,875	-0,109	-0,005
-348,708	-200,000	0,007	-0,024
-347,693	-62,045	-0,083	-0,025
-346,679	477,245	-0,032	-0,052
-345,664	-153,204	0,129	0,006
-344,650	56,963	-0,065	0,045
-343,635	351,723	-0,054	0,076
-342,620	-46,200	0,149	-0,052
-341,606	504,358	0,019	0,032
-340,591	271,827	0,077	-0,097
-339,577	-45,279	0,029	0,010
-338,562	47,048	-0,106	-0,070
-337,548	-191,506	0,119	0,001
-336,533	183,733	0,008	0,009
-335,518	-92,895	0,021	0,004
-334,504	737,217	0,073	0,140
-333,489	-200,000	-0,025	0,222
-332,475	18,767	-0,113	-0,064
-331,460	114,423	0,153	-0,132
-330,445	64,955	0,080	0,057
-329,431	-11,440	-0,052	0,024
-328,416	-200,000	0,010	-0,202
-327,402	-200,000	0,012	-0,064
-326,387	-200,000	-0,021	-0,076
-325,372	-200,000	-0,038	-0,138
-324,358	415,667	0,041	0,063
-323,343	-200,000	-0,037	-0,156
-322,329	-200,000	0,021	0,160
-321,314	-73,817	0,131	-0,034
-320,299	-85,474	0,199	-0,044
-319,285	504,827	0,051	-0,085
-318,270	180,778	-0,092	-0,096
-317,256	-200,000	0,021	-0,204
-316,241	23,523	0,047	0,028
-315,226	-107,805	-0,007	-0,001
-314,212	-150,368	-0,049	-0,003
-313,197	499,758	0,062	0,103
-312,183	20,212	-0,123	0,071
-311,168	-106,616	0,055	-0,009
-310,153	800,000	-0,015	0,032
-309,139	312,465	0,049	-0,065
-308,124	-200,000	0,019	0,144
-307,110	-200,000	0,008	0,099
-306,095	800,000	-0,010	0,031
-305,080	59,726	-0,082	0,058
-304,066	450,430	0,073	-0,114
-303,051	-200,000	0,004	0,106
-302,037	-200,000	-0,008	-0,033
-301,022	-115,887	-0,118	-0,016
-300,008	-153,993	0,108	0,005
-298,993	-136,499	-0,115	0,009
-297,978	121,554	-0,029	0,026
-296,964	295,076	0,010	0,014
-295,949	283,013	-0,059	-0,076
-294,935	-149,437	-0,045	-0,003
-293,920	800,000	0,037	-0,098
-292,905	-200,000	-0,001	-0,033
-291,891	-200,000	-0,044	0,144
-290,876	800,000	-0,031	0,092
-289,862	-37,673	-0,124	0,047
-288,847	-200,000	0,044	-0,172
-287,832	194,864	0,092	-0,100
-286,818	23,852	-0,082	0,048
-285,803	-67,137	-0,048	-0,013
-284,789	-129,459	0,087	0,009
-283,774	667,534	-0,035	0,064
-282,759	-200,000	0,012	0,056
-281,745	-30,663	-0,104	0,042
-280,730	392,262	0,012	0,018
-279,716	800,000	-0,064	0,158
-278,701	-101,258	0,027	0,005
-277,686	-165,968	0,135	-0,004
-276,672	-200,000	-0,004	0,132
-275,657	-37,282	-0,169	0,064
-274,643	-36,987	0,089	-0,034
-273,628	255,920	-0,116	-0,142
-272,613	-200,000	-0,023	0,177
-271,599	72,672	0,092	0,068
-270,584	-83,340	0,055	0,012
-269,570	297,483	-0,049	0,064
-268,555	314,248	-0,053	-0,072
-267,540	110,323	0,122	-0,104
-266,526	-122,950	-0,061	0,007
-265,511	800,000	0,031	-0,068
-264,497	-59,468	0,029	-0,009
-263,482	-155,458	0,042	0,002
-262,467	161,496	0,085	0,084
-261,453	795,167	-0,025	0,050
-260,438	-46,390	-0,092	0,032
-259,424	1,714	-0,131	-0,067
-258,409	-127,726	-0,153	-0,015
-257,395	94,223	0,067	-0,054
-256,380	-62,136	0,070	0,021
-255,365	455,184	0,058	0,092
-254,351	-200,000	-0,039	0,135
-253,336	108,071	-0,162	0,137
-252,322	-200,000	-0,044	-0,167
-251,307	318,821	-0,043	-0,058
-250,292	-200,000	-0,015	-0,123
-249,278	800,000	-0,033	0,084
-248,263	338,748	-0,084	0,117
-247,249	-200,000	0,019	0,082
-246,234	-200,000	-0,016	-0,114
-245,219	-200,000	-0,018	-0,072
-244,205	-200,000	-0,039	0,139
-243,190	-200,000	0,015	-0,138
-242,176	168,408	-0,022	0,023
-241,161	-84,058	0,199	-0,045
-240,146	-200,000	0,006	0,121
-239,132	-79,245	0,057	-0,014
-238,117	-200,000	-0,009	-0,232
-237,103	-9,134	-0,023	0,011
-236,088	-200,000	0,002	0,036
-235,073	-200,000	0,014	0,132
-234,059	405,702	0,021	0,032
-233,044	457,014	0,028	0,044
-232,030	-186,827	0,093	-0,001
-231,015	-47,175	-0,086	0,030
-230,000	-200,000	0,003	-0,142
-228,986	800,000	-0,072	0,188
-227,971	-45,510	0,117	-0,041
-226,957	-10,934	0,143	-0,067
-225,942	-63,607	-0,012	-0,004
-224,927	800,000	-0,009	0,027
-223,913	284,927	0,119	-0,152
-222,898	800,000	0,006	-0,014
-221,884	540,767	0,010	-0,017
-220,869	-9,226	-0,104	0,049
-219,855	10,876	0,064	0,035
-218,840	-200,000	-0,008	-0,080
-217,825	-121,288	-0,025	0,003
-216,811	-200,000	0,025	0,093
-215,796	-200,000	-0,004	-0,111
-214,782	42,344	-0,103	0,066
-213,767	-52,172	0,030	0,010
-212,752	-29,721	0,160	0,064
-211,738	-145,099	0,063	-0,004
-210,723	24,700	0,036	0,021
-209,709	273,216	-0,039	0,049
-208,694	366,357	-0,061	0,087
-207,679	-200,000	0,009	0,061
-206,665	26,210	0,136	0,080
-205,650	139,087	-0,030	-0,028
-204,636	405,423	-0,033	-0,049
-203,621	800,000	0,028	-0,056
-202,606	607,663	0,061	-0,109
-201,592	62,225	-0,056	0,040
-200,577	-200,000	-0,051	-0,204
-199,563	-174,920	-0,082	0,002
-198,548	109,014	0,130	-0,111
-197,533	-56,205	-0,051	0,016
-196,519	-200,000	0,022	0,072
-195,504	129,691	-0,107	-0,097
-194,490	800,000	0,019	-0,039
-193,475	-46,829	0,064	-0,022
-192,460	-25,393	0,131	0,055
-191,446	225,177	0,021	0,025
-190,431	-200,000	-0,012	0,133
-189,417	800,000	0,027	-0,082
-188,402	-200,000	0,003	-0,092
-187,387	800,000	-0,010	-0,019
-186,373	-93,881	0,055	0,011
-185,358	800,000	-0,020	0,049
-184,344	323,300	-0,041	0,056
-183,329	-200,000	-0,008	0,068
-182,315	193,562	0,035	0,038
-181,300	213,920	-0,095	0,107
-180,285	206,994	-0,080	-0,088
-179,271	107,889	-0,045	-0,038
-178,256	110,755	0,025	-0,021
-177,242	-25,743	0,163	0,068
-176,227	304,795	0,079	0,104
-175,212	291,730	0,074	0,095
-174,198	-79,282	-0,121	-0,029
-173,183	-126,379	0,128	-0,013
-172,169	232,183	-0,078	-0,091
-171,154	800,000	-0,028	-0,083
-170,139	138,608	0,103	-0,096
-169,125	510,309	0,033	-0,054
-168,110	82,764	0,107	0,082
-167,096	-117,369	-0,085	-0,011
-166,081	-111,743	-0,151	0,021
-165,066	-200,000	-0,081	-0,260
-164,052	368,540	0,026	0,037
-163,037	-4,758	-0,090	0,044
-162,023	-88,316	0,103	0,022
-161,008	-200,000	-0,015	0,183
-159,993	192,683	0,011	-0,011
-158,979	99,923	0,150	0,123
-157,964	526,664	-0,041	-0,069
-156,950	129,056	-0,049	-0,044
-155,935	-93,406	0,086	-0,017
-154,920	197,913	-0,089	0,096
-153,906	-144,892	0,087	-0,006
-152,891	113,439	-0,049	0,043
-151,877	-200,000	-0,043	-0,192
-150,862	-200,000	-0,025	-0,089
-149,847	-200,000	-0,002	-0,055
-148,833	274,922	0,062	0,077
-147,818	800,000	-0,013	0,036
-146,804	-200,000	-0,042	0,135
-145,789	-200,000	0,026	0,177
-144,775	-77,317	-0,100	0,024
-143,760	466,564	-0,037	-0,059
-142,745	549,639	0,028	-0,048
-141,731	26,017	-0,093	0,055
-140,716	-60,997	0,091	0,027
-139,702	19,744	0,059	-0,033
-138,687	-14,460	-0,100	0,045
-137,672	800,000	0,064	-0,139
-136,658	233,130	-0,074	0,086
-135,643	-200,000	0,013	-0,102
-134,629	34,861	-0,083	0,051
-133,614	200,618	0,052	-0,057
-132,599	-42,934	0,102	-0,036
-131,585	-139,215	0,079	0,006
-130,570	414,152	-0,032	-0,049
-129,556	-26,268	-0,078	0,032
-128,541	-200,000	-0,005	-0,133
-127,526	80,056	-0,072	0,055
-126,512	-200,000	-0,010	0,080
-125,497	519,866	0,046	0,076
-124,483	-105,241	-0,063	-0,010
-123,468	-200,000	-0,008	-0,055
-122,453	-59,392	-0,125	0,038
-121,439	-66,692	-0,056	-0,016
-120,424	-200,000	-0,005	-0,064
-119,410	100,899	-0,090	-0,074
-118,395	125,060	0,172	0,154
-117,380	-200,000	-0,018	0,165
-116,366	238,651	-0,103	-0,121
-115,351	-16,668	-0,021	-0,009
-114,337	-200,000	-0,015	-0,071
-113,322	340,504	-0,103	-0,143
-112,307	16,562	0,108	-0,060
-111,293	-99,246	0,166	0,029
-110,278	800,000	0,052	-0,114
-109,264	-150,664	0,187	0,010
-108,249	-103,354	-0,046	-0,008
-107,234	800,000	0,048	0,123
-106,220	36,317	-0,161	0,100
-105,205	-87,197	0,119	0,025
-104,191	140,694	-0,059	-0,055
-103,176	-59,047	0,115	0,035
-102,162	-71,305	-0,109	0,029
-101,147	-51,962	0,148	-0,048
-100,132	154,293	-0,052	0,051
-99,118	346,452	-0,069	0,096
-98,103	-200,000	-0,024	0,115
-97,089	-200,000	-0,008	-0,034
-96,074	42,178	0,094	0,060
-95,059	-200,000	0,015	-0,098
-94,045	-200,000	0,019	-0,097
-93,030	108,427	0,040	0,034
-92,016	347,938	0,068	-0,096
-91,001	-140,995	-0,023	-0,002
-89,986	-102,494	0,031	0,005
-88,972	53,507	0,081	0,055
-87,957	-200,000	-0,004	-0,027
-86,943	300,009	0,002	-0,003
-85,928	800,000	-0,013	-0,026
-84,913	196,192	-0,069	-0,074
-83,899	800,000	0,022	0,047
-82,884	800,000	0,098	0,205
-81,870	-200,000	0,033	0,105
-80,855	115,872	-0,073	0,063
-79,840	-54,690	0,103	0,033
-78,826	800,000	-0,048	0,102
-77,811	-63,619	0,065	0,019
-76,797	-200,000	0,006	-0,032
-75,782	245,588	-0,088	-0,105
-74,767	-200,000	0,017	-0,058
-73,753	19,152	-0,116	0,065
-72,738	800,000	0,080	0,157
-71,724	0,901	-0,094	0,048
-70,709	-141,297	-0,151	0,011
-69,694	-200,000	0,011	-0,038
-68,680	-24,946	0,117	0,049
-67,665	109,485	0,034	-0,029
-66,651	-200,000	0,001	0,047
-65,636	-200,000	-0,012	0,205
-64,622	-200,000	-0,017	-0,088
-63,607	-200,000	0,002	-0,141
-62,592	-90,415	0,017	-0,003
-61,578	-200,000	-0,015	0,113
-60,563	308,451	0,140	0,185
-59,549	325,575	0,092	0,124
-58,534	47,412	-2,143	-1,407
-57,519	495,531	-1,122	-1,826
-56,505	-200,000	-0,244	-4,266
-55,490	800,000	0,813	1,711
-54,476	800,000	5,149	11,299
-53,461	-200,000	21,855	337,940
-52,446	800,000	757,428	2292,621
-51,432	532,801	1650,108	2766,223
-50,417	68,880	1648,457	1192,827
-49,403	16,448	1523,183	846,205
-48,388	10,604	1448,007	776,352
-47,373	19,075	1439,808	812,316
-46,359	13,998	1428,797	782,089
-45,344	8,901	1424,802	755,750
-44,330	8,873	1422,818	754,535
-43,315	8,807	1421,098	753,280
-42,300	8,843	1419,096	752,363
-41,286	8,917	1417,703	751,939
-40,271	8,793	1416,899	750,902
-39,257	8,831	1415,545	750,331
-38,242	8,848	1414,464	749,810
-37,227	8,851	1413,404	749,231
-36,213	8,818	1412,179	748,399
-35,198	8,840	1410,790	747,736
-34,184	8,896	1409,864	747,479
-33,169	8,766	1408,529	746,132
-32,154	8,841	1407,531	745,924
-31,140	8,822	1406,194	745,098
-30,125	8,822	1405,207	744,544
-29,111	8,847	1403,953	743,965
-28,096	8,861	1402,803	743,393
-27,082	8,769	1401,657	742,328
-26,067	8,781	1400,585	741,788
-25,052	8,781	1399,552	741,210
-24,038	8,794	1398,568	740,722
-23,023	8,791	1397,573	740,148
-22,009	8,748	1396,705	739,459
-20,994	8,780	1395,385	738,882
-19,979	8,802	1394,430	738,447
-18,965	8,741	1393,701	737,750
-17,950	8,693	1392,613	736,921
-16,936	8,661	1392,107	736,477
-15,921	8,646	1391,099	735,844
-14,906	8,706	1390,011	735,517
-13,892	8,770	1388,898	735,196
-12,877	8,750	1388,048	734,623
-11,863	8,722	1387,440	734,142
-10,848	8,652	1386,647	733,373
-9,833	8,605	1385,704	732,626
-8,819	8,623	1384,493	732,043
-7,804	8,586	1383,762	731,455
-6,790	8,609	1382,515	730,873
-5,775	8,594	1381,776	730,384
-4,760	8,652	1380,723	730,064
-3,746	8,616	1379,987	729,484
-2,731	8,699	1378,863	729,240
-1,717	8,625	1378,150	728,493
-0,702	8,652	1376,268	727,593
0,313	12,766	1288,126	699,632
1,327	28,798	681,104	405,831
2,342	44,962	117,102	75,882
3,356	0,889	16,460	8,286
4,371	-13,061	3,848	1,757
5,386	37,511	1,273	0,794
6,400	-200,000	0,180	0,743
7,415	-15,990	-0,172	-0,077
8,429	-18,764	-0,250	-0,109
9,444	-10,600	-0,288	-0,134
10,459	-21,962	-0,115	-0,049
11,473	-60,528	-0,226	-0,067
12,488	-32,828	-0,283	-0,110
13,502	26,014	-0,303	-0,178
14,517	-21,084	-0,320	-0,137
15,531	106,925	-0,309	-0,258
16,546	-53,374	-0,281	-0,090
17,561	129,865	-0,319	-0,287
18,575	434,131	-0,094	-0,145
19,590	16,176	-0,292	-0,162
20,604	-73,542	-0,176	-0,045
21,619	117,236	-0,386	-0,334
22,634	26,390	-0,576	-0,338
23,648	165,245	-0,350	-0,348
24,663	72,182	-0,312	-0,229
25,677	98,700	-0,291	-0,236
26,692	-53,003	-0,335	-0,108
27,707	92,615	-0,325	-0,258
28,721	346,871	-0,230	-0,319
29,736	90,873	-0,452	-0,356
30,750	119,608	-0,413	-0,360
31,765	228,579	-0,340	-0,390
32,780	368,217	-0,259	-0,369
33,794	-29,307	-0,437	-0,175
34,809	32,918	-0,392	-0,238
35,823	-65,168	-0,411	-0,116
36,838	220,635	-0,295	-0,333
37,853	75,691	-0,431	-0,320
38,867	103,341	-0,248	-0,204
39,882	-1,141	-0,240	-0,119
40,896	130,651	-0,284	-0,256
41,911	171,574	-0,309	-0,312
42,926	152,398	-0,344	-0,330
43,940	17,708	-0,342	-0,190
44,955	24,704	-0,508	-0,295
45,969	195,166	-0,339	-0,362
46,984	35,415	-0,298	-0,184
47,999	2,926	-0,373	-0,190
49,013	79,559	-0,284	-0,214
50,028	124,818	-0,278	-0,246
51,042	127,211	-0,263	-0,234
52,057	-85,647	-0,406	-0,088
53,071	-45,322	-0,395	-0,137
54,086	-31,686	-0,395	-0,155
55,101	-46,652	-0,334	-0,114
56,115	25,720	-0,265	-0,154
57,130	103,054	-0,310	-0,254
58,144	84,769	-0,310	-0,238
59,159	192,134	-0,344	-0,364
60,174	9,293	-0,457	-0,242
61,188	64,522	-0,374	-0,264
62,203	46,930	-0,411	-0,267
63,217	86,896	-0,244	-0,189
64,232	-57,454	-0,334	-0,102
65,247	14,254	-0,289	-0,157
66,261	-56,559	-0,357	-0,110
67,276	97,903	-0,299	-0,241
68,290	68,238	-0,287	-0,206
69,305	19,868	-0,210	-0,119
70,320	-80,459	-0,280	-0,065
71,334	90,829	-0,333	-0,261
72,349	35,513	-0,285	-0,175
73,363	-3,302	-0,291	-0,142
74,378	-8,781	-0,325	-0,152
75,393	95,856	-0,273	-0,219
76,407	44,352	-0,293	-0,188
77,422	-68,045	-0,259	-0,070
78,436	-18,894	-0,269	-0,117
79,451	115,827	-0,274	-0,235
80,466	285,510	-0,269	-0,341
81,480	-51,696	-0,391	-0,127
82,495	5,544	-0,379	-0,195
83,509	68,860	-0,301	-0,216
84,524	125,517	-0,219	-0,193
85,539	-42,054	-0,222	-0,079
86,553	135,414	-0,297	-0,270
87,568	70,101	-0,272	-0,196
88,582	83,665	-0,238	-0,181
89,597	18,439	-0,317	-0,177
90,611	-90,668	-0,232	-0,046
91,626	79,872	-0,252	-0,190
92,641	-162,893	-0,173	-0,006
93,655	0,051	-0,241	-0,120
94,670	486,301	-0,178	-0,285
95,684	79,005	-0,282	-0,211
96,699	54,458	-0,198	-0,133
97,714	-168,915	-0,323	0,008
98,728	65,474	-0,205	-0,145
99,743	44,256	-0,255	-0,163
100,757	48,340	-0,287	-0,187
101,772	149,878	-0,248	-0,235
102,787	-51,575	-0,256	-0,083
103,801	272,737	-0,201	-0,248
104,816	4,997	-0,300	-0,154
105,830	315,875	-0,155	-0,204
106,845	76,894	-0,279	-0,207
107,860	-55,040	-0,297	-0,093
108,874	-5,828	-0,216	-0,103
109,889	11,003	-0,238	-0,127
110,903	77,038	-0,280	-0,207
111,918	166,143	-0,185	-0,183
112,933	-5,362	-0,198	-0,095
113,947	110,442	-0,126	-0,106
114,962	-6,242	-0,390	-0,185
115,976	48,422	-0,260	-0,170
116,991	278,482	-0,205	-0,255
118,006	172,069	-0,214	-0,215
119,020	156,498	-0,204	-0,197
120,035	58,546	-0,177	-0,121
121,049	243,611	-0,226	-0,266
122,064	107,292	-0,155	-0,129
123,079	-31,177	-0,343	-0,134
124,093	10,559	-0,336	-0,178
125,108	211,640	-0,154	-0,169
126,122	27,764	-0,348	-0,204
127,137	53,919	-0,210	-0,141
128,151	-61,388	-0,128	-0,037
129,166	-37,877	-0,195	-0,072
130,181	32,759	-0,234	-0,141
131,195	314,362	-0,166	-0,218
132,210	-45,472	-0,418	-0,144
133,224	-200,000	-0,026	-0,154
134,239	7,752	-0,230	-0,120
135,254	-125,567	-0,125	0,013
136,268	-76,499	-0,220	-0,053
137,283	135,764	-0,131	-0,119
138,297	-47,455	-0,152	-0,051
139,312	121,277	-0,240	-0,208
140,327	91,067	-0,366	-0,286
141,341	124,859	-0,194	-0,170
142,356	68,151	-0,176	-0,126
143,370	-104,015	-0,263	-0,042
144,385	-200,000	-0,008	-0,268
145,400	-77,324	-0,350	-0,084
146,414	43,121	-0,233	-0,148
147,429	-23,220	-0,316	-0,132
148,443	-71,283	-0,290	-0,075
149,458	-61,132	-0,148	-0,043
150,473	-167,266	-0,218	0,006
151,487	-23,018	-0,227	-0,095
152,502	82,121	-0,181	-0,136
153,516	613,610	-0,218	-0,381
154,531	-54,856	-0,390	-0,122
155,546	10,024	-0,286	-0,151
156,560	96,473	-0,139	-0,110
157,575	-5,628	-0,161	-0,077
158,589	-193,631	-0,275	0,002
159,604	247,040	-0,197	-0,231
160,619	-50,707	-0,269	-0,088
161,633	-52,181	-0,356	-0,114
162,648	27,594	-0,197	-0,115
163,662	-88,101	-0,291	0,060
164,677	0,023	-0,286	-0,141
165,692	257,336	-0,240	-0,288
166,706	-3,179	-0,215	-0,104
167,721	-33,573	-0,380	-0,145
168,735	97,772	-0,238	-0,190
169,750	61,078	-0,173	-0,119
170,764	-152,329	-0,108	-0,005
171,779	-155,011	-0,273	-0,012
172,794	305,560	-0,180	-0,232
173,808	258,066	-0,200	-0,239
174,823	-40,680	-0,304	-0,109
175,837	68,745	-0,248	-0,176
176,852	300,832	-0,151	-0,194
177,867	-103,698	-0,227	-0,037
178,881	-54,383	-0,218	-0,068
179,896	-179,196	-0,284	0,004
180,910	48,988	-0,171	-0,111
181,925	658,228	-0,169	-0,303
182,940	134,458	-0,280	-0,252
183,954	163,442	-0,199	-0,194
184,969	-0,694	-0,194	-0,095
185,983	-147,560	-0,125	0,007
186,998	25,201	-0,188	-0,108
188,013	-98,740	-0,363	0,063
189,027	344,652	-0,155	-0,212
190,042	26,895	-0,213	-0,124
191,056	118,081	-0,130	-0,111
192,071	201,943	-0,189	-0,202
193,086	39,785	-0,125	0,078
194,100	-36,140	-0,238	-0,089
195,115	-101,609	-0,180	-0,030
196,129	85,467	-0,148	-0,113
197,144	74,527	-0,175	-0,127
198,159	200,311	-0,109	-0,116
199,173	259,736	-0,200	-0,240
200,188	102,226	-0,222	-0,180
201,202	58,919	-0,219	-0,149
202,217	-141,738	-0,320	0,022
203,232	281,796	-0,147	-0,183
204,246	77,075	-0,113	-0,083
205,261	89,811	-0,167	-0,129
206,275	-162,106	-0,224	0,008
207,290	-23,617	-0,110	-0,045
208,304	22,417	-0,212	-0,120
209,319	-10,881	-0,085	-0,039
210,334	-12,067	-0,318	-0,144
211,348	8,824	-0,325	-0,169
212,363	-49,298	-0,224	-0,073
213,377	192,922	-0,183	-0,191
214,392	0,234	-0,287	-0,141
215,407	-26,519	-0,173	-0,070
216,421	396,808	-0,087	-0,127
217,436	-16,141	-0,191	-0,084
218,450	-51,430	-0,345	-0,111
219,465	-11,230	-0,250	-0,113
220,480	-60,539	-0,215	-0,063
221,494	9,261	-0,299	-0,156
222,509	-25,003	-0,305	-0,125
223,523	-200,000	-0,004	-0,264
224,538	-39,722	-0,296	-0,106
225,553	156,835	-0,205	-0,196
226,567	542,208	-0,098	-0,163
227,582	20,480	-0,169	-0,094
228,596	304,790	-0,155	-0,199
229,611	-94,727	-0,284	-0,053
230,626	-101,892	-0,120	0,020
231,640	44,943	-0,196	-0,125
232,655	85,043	-0,196	-0,148
233,669	95,374	-0,275	-0,216
234,684	227,905	-0,161	-0,181
235,699	22,512	-0,229	-0,129
236,713	13,087	-0,200	-0,107
237,728	-200,000	-0,077	-0,263
238,742	-4,436	-0,218	-0,104
239,757	536,942	-0,152	-0,251
240,772	291,818	-0,247	-0,311
241,786	-200,000	-0,158	0,000
242,801	150,469	-0,211	-0,198
243,815	800,000	-0,078	-0,169
244,830	-200,000	-0,047	-0,241
245,844	243,482	-0,174	-0,202
246,859	67,738	-0,134	-0,094
247,874	289,987	-0,170	-0,213
248,888	227,901	-0,171	-0,193
249,903	445,673	-0,100	-0,153
250,917	89,114	-0,176	-0,135
251,932	0,310	-0,140	-0,069
252,947	22,161	-0,119	-0,067
253,961	-33,033	-0,184	-0,070
254,976	112,451	-0,244	-0,204
255,990	800,000	-0,107	-0,240
257,005	-200,000	-0,077	-0,244
258,020	11,420	-0,178	-0,094
259,034	31,734	-0,142	-0,084
260,049	214,326	-0,107	-0,117
261,063	-2,139	-0,197	-0,095
262,078	-73,718	-0,155	-0,039
263,093	768,513	-0,135	-0,254
264,107	-200,000	-0,018	-0,091
265,122	9,136	-0,249	-0,129
266,136	800,000	-0,127	-0,250
267,151	-58,972	-0,151	-0,045
268,166	11,773	-0,082	-0,043
269,180	95,609	-0,159	-0,125
270,195	-32,409	-0,093	-0,036
271,209	94,971	-0,240	-0,188
272,224	-200,000	-0,048	-0,166
273,239	114,201	0,020	-0,016
274,253	-200,000	-0,054	-0,241
275,268	800,000	-0,066	-0,148
276,282	126,788	-0,197	-0,172
277,297	41,952	-0,210	-0,131
278,312	111,102	-0,121	-0,101
279,326	177,351	-0,125	-0,126
280,341	194,194	-0,137	-0,143
281,355	37,409	-0,166	-0,101
282,370	48,583	-0,240	-0,154
283,384	76,951	-0,251	-0,183
284,399	-56,795	-0,093	-0,028
285,414	407,288	-0,141	-0,206
286,428	97,650	-0,103	-0,082
287,443	167,683	-0,164	-0,160
288,457	800,000	-0,089	-0,206
289,472	-153,342	-0,158	0,007
290,487	534,572	-0,111	-0,181
291,501	43,342	-0,216	-0,135
292,516	800,000	-0,040	-0,089
293,530	245,781	-0,043	-0,050
294,545	-200,000	-0,019	-0,066
295,560	262,275	-0,119	-0,142
296,574	-200,000	-0,010	-0,038
297,589	-122,466	-0,177	-0,020
298,603	273,018	-0,152	-0,185
299,618	81,916	-0,189	-0,140
300,633	129,099	-0,180	-0,157
301,647	-109,455	-0,201	-0,029
302,662	309,689	-0,100	0,129
303,676	-67,941	-0,135	-0,036
304,691	62,965	-0,172	-0,118
305,706	51,793	-0,221	-0,144
306,720	158,692	-0,218	-0,208
307,735	171,787	-0,114	-0,112
308,749	-28,581	-0,063	0,025
309,764	-64,488	-0,190	-0,053
310,779	313,322	-0,070	-0,091
311,793	-11,635	-0,202	-0,091
312,808	151,198	-0,098	-0,092
313,822	219,640	-0,125	-0,137
314,837	800,000	0,003	-0,008
315,852	-52,644	-0,129	-0,041
316,866	-200,000	0,007	0,044
317,881	236,205	-0,001	0,001
318,895	148,016	-0,120	-0,111
319,910	223,452	-0,094	-0,104
320,925	22,263	-0,215	-0,120
321,939	800,000	-0,028	-0,078
322,954	130,382	-0,134	-0,117
323,968	-44,527	-0,178	-0,061
324,983	86,739	-0,208	-0,157
325,997	-159,300	-0,088	0,003
327,012	155,696	-0,204	-0,192
328,027	251,276	-0,210	-0,245
329,041	113,743	-0,210	-0,175
330,056	12,741	-0,044	0,023
331,070	59,036	-0,123	-0,083
332,085	82,312	-0,147	-0,109
333,100	34,345	-0,144	-0,086
334,114	-18,869	-0,288	-0,122
335,129	243,725	-0,140	-0,161
336,143	471,403	-0,076	-0,117
337,158	-39,035	-0,177	-0,063
338,173	-76,032	-0,215	-0,052
339,187	142,381	-0,073	-0,067
340,202	-79,263	-0,112	-0,026
341,216	173,698	-0,162	-0,160
342,231	-76,501	-0,199	0,047
343,246	-28,906	-0,105	-0,041
344,260	-109,617	-0,219	-0,031
345,275	-73,271	-0,051	-0,013
346,289	-200,000	-0,052	-0,191
347,304	9,244	-0,095	-0,049
348,319	61,439	-0,152	-0,103
349,333	516,443	-0,110	-0,176
350,348	636,348	-0,086	-0,150
351,362	122,884	-0,152	-0,130
352,377	-13,730	-0,164	-0,072
353,392	800,000	-0,062	-0,168
354,406	-200,000	-0,033	-0,205
355,421	207,367	1305,884	1394,215
356,435	159,526	1465,470	1394,687
