DTS Sentinel unit serial number:	SN410029Multiplexer serial number:	ORYXHardware model number:	OX2-SRSoftware version number:	ORYX F/W v4,00 Oryx Data Collector v3.7.2.0data status	okinstallation	B3 Nyhavnadifferential loss correction	single-endedforward channel	channel 1reverse channel	N/Adate	2023/12/03time	03:57:30forward acquisition time	300,00reverse acquisition time	0,00gamma	499,1914k internal	0,3201k external	0,3201temperature offset calibration	1,0000default loss term (dB/km)	0,3820temperature slope calibration	1,0000multiplexer offset coefficient	1,0000multiplexer slope coefficient	1,0000fibre end	0,00T internal ref (°C)	13,31T ext. ref 1 (°C)	-1,75T ext. ref 2 (°C)	-1,77length (m)	temperature (°C)	Stokes	anti-Stokes-744,400	566,227	-0,241	-0,427
-743,385	800,000	-0,078	0,205
-742,371	-200,000	-0,029	-0,193
-741,356	565,520	0,113	0,201
-740,342	-200,000	0,001	-0,190
-739,327	-200,000	0,024	0,431
-738,312	186,985	-0,168	-0,183
-737,298	-200,000	-0,053	0,300
-736,283	97,871	-0,218	-0,183
-735,269	-200,000	-0,018	0,189
-734,254	88,764	-0,187	-0,151
-733,239	25,588	-0,203	0,123
-732,225	-200,000	-0,010	-0,212
-731,210	52,147	-0,050	0,035
-730,196	-118,609	-0,029	0,004
-729,181	242,170	-0,078	-0,095
-728,167	-52,300	-0,072	-0,024
-727,152	42,665	-0,059	-0,039
-726,137	60,783	-0,131	0,094
-725,123	92,130	-0,103	-0,084
-724,108	800,000	-0,095	-0,231
-723,094	26,886	-0,101	0,062
-722,079	-104,320	-0,183	-0,030
-721,064	-62,355	0,062	0,019
-720,050	744,335	0,057	-0,112
-719,035	800,000	-0,051	-0,130
-718,021	83,162	0,054	-0,042
-717,006	-56,225	-0,124	-0,040
-715,991	800,000	-0,059	-0,171
-714,977	-200,000	-0,011	0,129
-713,962	18,937	0,035	0,020
-712,948	5,708	-0,049	-0,026
-711,933	-68,451	0,010	-0,003
-710,918	239,492	0,099	-0,119
-709,904	80,391	0,043	-0,034
-708,889	382,083	-0,035	-0,052
-707,875	330,845	-0,105	-0,148
-706,860	-15,850	-0,016	0,007
-705,845	-163,330	-0,073	-0,003
-704,831	202,574	-0,109	0,122
-703,816	-27,791	0,049	0,020
-702,802	-200,000	0,007	0,078
-701,787	-30,909	-0,238	-0,097
-700,772	-62,317	-0,071	0,021
-699,758	78,436	-0,115	0,089
-698,743	-200,000	0,023	-0,190
-697,729	4,724	-0,109	0,058
-696,714	636,058	-0,037	0,069
-695,699	-200,000	-0,011	-0,081
-694,685	120,285	0,069	-0,062
-693,670	295,128	0,027	-0,036
-692,656	150,179	-0,083	0,081
-691,641	-44,949	-0,111	0,040
-690,627	-11,171	0,201	0,096
-689,612	-199,504	-0,054	0,000
-688,597	-92,988	-0,050	0,010
-687,583	-200,000	-0,017	-0,067
-686,568	-9,067	0,068	-0,033
-685,554	-64,809	-0,061	-0,018
-684,539	-136,857	-0,032	0,003
-683,524	-200,000	-0,001	0,050
-682,510	245,304	-0,051	0,062
-681,495	-200,000	0,003	-0,093
-680,481	-21,185	0,075	-0,033
-679,466	3,561	-0,077	0,041
-678,451	315,667	0,037	0,050
-677,437	-44,680	-0,119	-0,043
-676,422	655,966	0,053	0,099
-675,408	-200,000	0,010	0,165
-674,393	32,646	-0,029	-0,018
-673,378	-12,242	0,046	-0,022
-672,364	158,293	-0,098	-0,098
-671,349	-200,000	0,010	0,094
-670,335	-200,000	-0,003	-0,171
-669,320	109,795	0,086	0,075
-668,305	-117,970	-0,075	-0,010
-667,291	-200,000	0,032	0,120
-666,276	-53,758	-0,137	-0,045
-665,262	-55,803	0,048	-0,015
-664,247	-200,000	-0,046	-0,167
-663,232	-100,957	0,173	0,030
-662,218	-200,000	0,020	-0,121
-661,203	60,665	0,037	-0,027
-660,189	-164,016	0,054	-0,002
-659,174	7,737	-0,059	0,032
-658,159	-200,000	0,016	-0,056
-657,145	-62,401	0,053	0,016
-656,130	177,276	-0,080	0,085
-655,116	-200,000	-0,012	0,117
-654,101	-200,000	0,012	0,098
-653,086	800,000	-0,043	0,096
-652,072	-200,000	-0,015	-0,075
-651,057	-200,000	0,005	0,067
-650,043	-200,000	0,025	-0,132
-649,028	215,511	-0,052	-0,060
-648,014	29,392	0,108	0,066
-646,999	800,000	0,046	0,148
-645,984	173,492	-0,054	-0,057
-644,970	-200,000	0,020	-0,072
-643,955	800,000	0,050	-0,123
-642,941	146,960	-0,062	-0,060
-641,926	25,346	0,129	-0,077
-640,911	556,298	0,051	0,090
-639,897	783,475	0,089	0,178
-638,882	800,000	0,027	-0,075
-637,868	-43,220	0,092	0,034
-636,853	800,000	-0,010	-0,030
-635,838	-94,734	-0,161	-0,031
-634,824	-111,376	-0,031	-0,005
-633,809	-200,000	-0,003	0,015
-632,795	-75,962	-0,055	0,014
-631,780	28,607	0,067	-0,041
-630,765	-8,871	-0,099	-0,048
-629,751	-114,129	0,028	0,004
-628,736	111,098	0,031	-0,027
-627,722	-59,219	0,241	0,075
-626,707	-97,849	0,075	-0,014
-625,692	-57,120	-0,052	-0,016
-624,678	-40,805	-0,176	-0,065
-623,663	-200,000	0,016	-0,061
-622,649	420,237	-0,072	-0,112
-621,634	-7,305	-0,198	-0,097
-620,619	204,238	-0,073	-0,082
-619,605	800,000	0,019	0,051
-618,590	-200,000	-0,022	0,097
-617,576	537,519	0,027	0,047
-616,561	112,937	0,050	0,044
-615,546	274,103	-0,019	0,024
-614,532	-2,127	-0,073	-0,037
-613,517	603,383	-0,138	-0,249
-612,503	800,000	0,042	-0,108
-611,488	5,597	-0,070	-0,037
-610,474	325,881	0,069	0,096
-609,459	-5,159	-0,089	0,044
-608,444	-200,000	0,036	-0,170
-607,430	98,344	-0,074	-0,061
-606,415	118,738	-0,051	-0,046
-605,401	82,250	0,090	0,071
-604,386	-200,000	-0,020	0,135
-603,371	800,000	0,018	-0,042
-602,357	-171,530	0,059	0,001
-601,342	-53,078	-0,095	-0,031
-600,328	90,787	-0,035	-0,029
-599,313	-200,000	0,019	0,073
-598,298	-119,589	-0,114	0,014
-597,284	-165,668	0,058	-0,002
-596,269	62,256	0,068	0,049
-595,255	16,630	0,074	0,042
-594,240	-129,380	-0,027	0,003
-593,225	-69,684	0,022	-0,006
-592,211	52,963	0,049	-0,034
-591,196	-82,720	-0,074	0,017
-590,182	12,097	0,012	-0,006
-589,167	101,662	0,124	0,104
-588,152	-137,504	-0,043	-0,003
-587,138	223,799	0,039	0,046
-586,123	-94,649	-0,040	-0,008
-585,109	298,575	-0,036	0,048
-584,094	96,146	-0,089	-0,073
-583,079	800,000	0,025	0,081
-582,065	800,000	-0,027	-0,056
-581,050	-75,935	0,096	0,024
-580,036	139,679	-0,063	0,060
-579,021	265,734	-0,057	0,072
-578,006	84,097	0,058	-0,046
-576,992	123,779	0,117	0,106
-575,977	-24,294	0,155	0,067
-574,963	16,415	0,161	-0,092
-573,948	473,849	0,036	0,060
-572,934	-200,000	0,005	0,047
-571,919	-200,000	0,038	0,128
-570,904	65,069	-0,114	-0,083
-569,890	-85,247	-0,143	0,032
-568,875	300,793	-0,040	0,053
-567,861	407,761	0,020	-0,031
-566,846	61,593	0,149	0,107
-565,831	-200,000	0,016	-0,092
-564,817	426,076	0,072	-0,113
-563,802	-37,761	-0,081	-0,031
-562,788	326,961	-0,099	-0,138
-561,773	221,711	-0,013	-0,015
-560,758	531,091	-0,074	-0,126
-559,744	-95,356	0,133	-0,026
-558,729	-144,627	-0,204	-0,013
-557,715	-200,000	-0,021	-0,087
-556,700	-200,000	-0,021	-0,093
-555,685	-200,000	-0,002	0,012
-554,671	800,000	-0,049	0,117
-553,656	800,000	0,100	-0,218
-552,642	-80,319	0,146	0,035
-551,627	-200,000	0,001	-0,044
-550,612	-26,403	-0,128	0,054
-549,598	-103,362	-0,124	0,021
-548,583	-37,148	-0,131	-0,050
-547,569	-67,398	0,049	0,014
-546,554	301,200	0,018	-0,024
-545,539	681,650	0,031	0,059
-544,525	422,875	-0,064	0,099
-543,510	-200,000	-0,004	-0,015
-542,496	-49,044	-0,077	0,026
-541,481	-200,000	0,015	0,099
-540,466	-200,000	0,008	-0,077
-539,452	14,201	-0,143	0,080
-538,437	-200,000	-0,014	-0,054
-537,423	-200,000	0,014	-0,110
-536,408	800,000	-0,028	0,074
-535,393	447,271	-0,022	0,035
-534,379	6,040	-0,087	-0,046
-533,364	-200,000	-0,041	0,000
-532,350	189,680	0,071	-0,077
-531,335	23,494	-0,041	0,024
-530,321	166,855	-0,049	0,050
-529,306	-160,026	-0,036	0,001
-528,291	287,414	-0,080	-0,105
-527,277	800,000	0,045	-0,135
-526,262	20,616	0,051	0,030
-525,248	-200,000	-0,006	-0,045
-524,233	100,384	-0,039	0,033
-523,218	676,185	-0,030	-0,057
-522,204	-200,000	0,003	-0,011
-521,189	-20,495	-0,157	-0,069
-520,175	12,613	-0,049	0,027
-519,160	129,975	-0,035	-0,033
-518,145	75,877	-0,180	0,137
-517,131	-107,808	-0,123	-0,019
-516,116	257,391	-0,022	0,028
-515,102	-84,534	0,044	-0,010
-514,087	800,000	0,032	0,080
-513,072	-58,237	-0,138	0,043
-512,058	-40,051	-0,048	-0,018
-511,043	90,993	-0,015	-0,012
-510,029	-200,000	-0,009	-0,042
-509,014	118,605	-0,054	0,048
-507,999	-3,501	0,149	0,074
-506,985	61,172	-0,097	-0,069
-505,970	653,131	-0,098	-0,183
-504,956	40,734	0,098	0,064
-503,941	-200,000	0,023	0,079
-502,926	-67,774	0,096	0,027
-501,912	-200,000	0,003	0,133
-500,897	148,651	0,030	-0,030
-499,883	53,144	0,066	-0,045
-498,868	-58,838	-0,041	-0,013
-497,853	237,953	-0,057	-0,069
-496,839	135,891	0,113	-0,106
-495,824	-124,683	0,080	-0,009
-494,810	92,311	0,015	-0,012
-493,795	-102,218	0,051	0,009
-492,781	800,000	0,018	0,038
-491,766	-200,000	-0,004	0,028
-490,751	800,000	0,046	-0,120
-489,737	38,267	-0,012	0,007
-488,722	-181,858	-0,039	0,001
-487,708	-126,442	0,098	-0,010
-486,693	-200,000	-0,048	0,000
-485,678	-200,000	0,004	0,055
-484,664	-158,759	0,006	-0,000
-483,649	175,865	-0,057	-0,060
-482,635	394,956	0,055	-0,083
-481,620	54,262	-0,040	0,028
-480,605	27,749	-0,129	0,078
-479,591	418,242	-0,023	0,035
-478,576	800,000	0,009	0,020
-477,562	201,022	0,003	-0,003
-476,547	106,548	0,019	-0,017
-475,532	406,015	-0,027	-0,042
-474,518	-200,000	0,017	0,101
-473,503	49,965	-0,042	-0,029
-472,489	556,272	0,034	0,059
-471,474	800,000	-0,047	-0,113
-470,459	334,947	-0,045	-0,062
-469,445	299,551	0,019	0,025
-468,430	-200,000	0,004	-0,104
-467,416	-200,000	0,005	-0,042
-466,401	800,000	0,052	0,142
-465,386	-169,776	-0,044	0,001
-464,372	-121,412	0,017	-0,002
-463,357	346,585	-0,036	-0,051
-462,343	-109,331	0,082	-0,012
-461,328	-200,000	-0,043	-0,213
-460,313	157,477	0,049	0,049
-459,299	71,013	0,082	-0,061
-458,284	-200,000	0,023	0,088
-457,270	315,565	-0,027	-0,037
-456,255	99,068	-0,043	0,036
-455,241	578,251	0,075	-0,132
-454,226	175,490	0,054	-0,056
-453,211	-200,000	0,093	-0,000
-452,197	284,077	0,027	0,036
-451,182	-200,000	-0,006	0,090
-450,168	46,198	-0,078	0,052
-449,153	800,000	0,009	0,019
-448,138	113,019	-0,075	-0,065
-447,124	306,693	-0,030	-0,041
-446,109	63,648	0,088	0,064
-445,095	-200,000	-0,009	-0,165
-444,080	-200,000	0,043	0,173
-443,065	-67,528	-0,080	-0,022
-442,051	-200,000	0,025	0,099
-441,036	-102,693	0,161	-0,027
-440,022	216,625	-0,149	-0,171
-439,007	694,264	-0,048	-0,091
-437,992	356,433	0,049	-0,070
-436,978	-200,000	-0,017	0,073
-435,963	-134,464	-0,086	0,007
-434,949	345,560	0,087	0,124
-433,934	-39,505	0,066	-0,025
-432,919	-200,000	-0,024	0,090
-431,905	-200,000	0,022	-0,104
-430,890	-4,775	0,077	0,038
-429,876	-200,000	-0,004	0,022
-428,861	234,041	-0,061	-0,073
-427,846	-11,515	-0,083	0,039
-426,832	18,623	-0,097	-0,055
-425,817	8,579	-0,066	0,036
-424,803	66,916	0,150	0,110
-423,788	-74,700	-0,039	-0,010
-422,773	-200,000	-0,033	0,109
-421,759	420,903	0,093	0,144
-420,744	-97,069	-0,115	-0,021
-419,730	-44,895	0,097	-0,035
-418,715	800,000	0,021	-0,045
-417,701	-49,378	0,147	-0,050
-416,686	-129,401	0,100	0,010
-415,671	-200,000	-0,008	0,074
-414,657	-61,587	0,086	0,026
-413,642	-103,385	-0,074	0,012
-412,628	-130,760	-0,045	-0,004
-411,613	256,915	0,060	0,074
-410,598	35,646	0,033	0,021
-409,584	-142,168	-0,017	0,001
-408,569	800,000	0,017	-0,046
-407,555	257,949	-0,032	-0,040
-406,540	263,057	-0,088	0,109
-405,525	347,612	-0,043	0,062
-404,511	-59,955	0,062	0,019
-403,496	-200,000	0,004	-0,019
-402,482	-132,805	0,090	-0,008
-401,467	71,530	0,149	0,111
-400,452	800,000	0,058	-0,139
-399,438	-200,000	0,001	-0,012
-398,423	-200,000	-0,003	0,074
-397,409	-8,791	-0,064	-0,030
-396,394	-200,000	-0,007	-0,089
-395,379	800,000	0,019	-0,054
-394,365	-130,163	0,109	-0,011
-393,350	624,251	-0,057	0,103
-392,336	69,026	0,039	-0,028
-391,321	0,284	0,048	0,025
-390,306	344,043	-0,069	0,098
-389,292	56,732	-0,064	0,044
-388,277	41,628	-0,045	-0,029
-387,263	800,000	0,025	0,070
-386,248	-185,984	0,088	0,001
-385,233	-90,080	0,056	0,012
-384,219	-32,705	0,023	-0,009
-383,204	800,000	-0,028	-0,079
-382,190	70,587	-0,095	-0,071
-381,175	532,913	-0,099	-0,169
-380,160	-68,643	0,047	0,013
-379,146	155,571	0,097	0,096
-378,131	800,000	0,050	0,143
-377,117	-200,000	0,002	-0,057
-376,102	-1,640	-0,076	-0,038
-375,088	181,798	0,031	0,033
-374,073	256,955	-0,080	0,099
-373,058	-13,422	0,107	-0,050
-372,044	-107,019	-0,112	0,018
-371,029	-200,000	0,025	0,080
-370,015	-200,000	0,010	-0,051
-369,000	-200,000	-0,001	-0,043
-367,985	800,000	0,040	-0,113
-366,971	249,597	-0,082	-0,100
-365,956	43,686	-0,026	0,017
-364,942	800,000	0,061	0,122
-363,927	44,245	-0,056	-0,037
-362,912	170,960	0,045	-0,046
-361,898	800,000	0,060	-0,180
-360,883	740,684	0,007	0,013
-359,869	-15,235	-0,033	0,015
-358,854	770,581	0,054	-0,107
-357,839	800,000	0,032	-0,081
-356,825	748,774	-0,024	0,047
-355,810	346,653	0,035	-0,049
-354,796	8,086	0,118	-0,063
-353,781	191,608	-0,094	-0,102
-352,766	-200,000	-0,006	-0,223
-351,752	-200,000	-0,024	0,099
-350,737	20,461	0,077	0,045
-349,723	-101,604	-0,057	0,010
-348,708	119,448	0,066	0,059
-347,693	137,266	-0,073	-0,069
-346,679	-200,000	-0,030	-0,192
-345,664	800,000	0,062	0,190
-344,650	191,059	-0,050	-0,054
-343,635	107,139	0,056	0,048
-342,620	101,484	0,170	0,142
-341,606	25,106	0,093	-0,055
-340,591	-200,000	0,000	0,022
-339,577	-169,212	0,036	-0,001
-338,562	-100,022	-0,096	0,017
-337,548	322,354	-0,049	-0,066
-336,533	-78,669	0,125	-0,030
-335,518	232,596	0,101	0,119
-334,504	800,000	0,044	-0,107
-333,489	-41,117	-0,061	0,022
-332,475	232,381	0,022	-0,026
-331,460	252,377	-0,080	0,098
-330,445	-200,000	0,053	-0,187
-329,431	-200,000	0,001	0,055
-328,416	-0,782	0,151	0,076
-327,402	-200,000	-0,010	0,039
-326,387	34,781	-0,041	-0,025
-325,372	-156,347	-0,161	-0,007
-324,358	800,000	-0,043	0,099
-323,343	-63,270	-0,110	0,032
-322,329	129,219	0,153	0,140
-321,314	-200,000	-0,036	0,157
-320,299	-200,000	0,019	0,197
-319,285	-64,344	-0,047	-0,014
-318,270	-200,000	0,005	-0,021
-317,256	319,959	-0,064	-0,087
-316,241	146,032	-0,117	-0,112
-315,226	-118,657	0,161	0,020
-314,212	-157,391	-0,017	0,001
-313,197	101,742	0,075	0,062
-312,183	-153,944	-0,111	-0,005
-311,168	-75,290	0,040	0,010
-310,153	15,752	-0,104	-0,059
-309,139	205,193	0,036	-0,040
-308,124	65,347	0,022	-0,016
-307,110	-129,128	-0,048	-0,005
-306,095	710,206	0,058	-0,110
-305,080	28,159	0,122	-0,073
-304,066	-200,000	0,004	0,059
-303,051	800,000	-0,032	-0,088
-302,037	-200,000	0,009	0,057
-301,022	-200,000	-0,013	0,056
-300,008	-122,550	-0,030	0,003
-298,993	71,316	-0,032	0,023
-297,978	-166,046	0,160	-0,005
-296,964	-79,444	-0,101	0,024
-295,949	-133,966	-0,083	-0,007
-294,935	6,147	-0,158	-0,084
-293,920	398,023	-0,085	-0,128
-292,905	325,935	0,077	-0,106
-291,891	-165,031	0,104	-0,003
-290,876	-200,000	0,009	0,086
-289,862	-200,000	0,005	-0,106
-288,847	800,000	0,075	-0,196
-287,832	-45,393	-0,124	0,044
-286,818	-24,700	-0,079	0,033
-285,803	89,040	0,080	0,063
-284,789	-200,000	-0,009	0,037
-283,774	205,962	0,142	0,158
-282,759	300,024	-0,062	-0,082
-281,745	-200,000	-0,027	-0,122
-280,730	-35,729	-0,172	-0,066
-279,716	103,888	0,118	0,099
-278,701	-69,184	0,122	0,033
-277,686	800,000	-0,020	0,049
-276,672	86,534	0,019	0,015
-275,657	-149,655	-0,046	0,003
-274,643	546,919	0,043	-0,073
-273,628	95,388	-0,067	-0,055
-272,613	-13,705	-0,031	0,014
-271,599	-122,733	-0,083	-0,010
-270,584	-200,000	-0,003	0,023
-269,570	108,559	0,032	-0,027
-268,555	-200,000	-0,010	0,120
-267,540	542,976	-0,029	-0,050
-266,526	800,000	-0,056	-0,139
-265,511	-85,699	-0,107	0,023
-264,497	717,843	-0,043	-0,082
-263,482	-169,885	0,120	0,003
-262,467	800,000	-0,036	0,087
-261,453	189,937	0,077	-0,083
-260,438	74,373	0,050	-0,038
-259,424	-6,037	-0,161	-0,079
-258,409	-38,172	0,106	-0,040
-257,395	-38,975	0,064	0,024
-256,380	178,584	-0,068	-0,071
-255,365	-51,819	0,106	0,035
-254,351	163,453	-0,058	-0,058
-253,336	-174,427	0,155	0,003
-252,322	-200,000	0,000	0,032
-251,307	762,366	-0,097	0,189
-250,292	-200,000	0,008	0,069
-249,278	503,552	-0,015	-0,024
-248,263	-71,000	0,070	0,019
-247,249	-200,000	0,009	0,184
-246,234	141,812	-0,135	0,128
-245,219	437,549	0,070	0,110
-244,205	-147,584	-0,021	0,001
-243,190	-7,431	-0,072	-0,035
-242,176	-15,670	0,128	0,058
-241,161	-85,140	0,020	-0,004
-240,146	629,285	-0,052	0,095
-239,132	-200,000	0,002	0,086
-238,117	530,138	0,038	0,064
-237,103	6,269	0,016	0,009
-236,088	-80,643	0,076	0,018
-235,073	800,000	0,049	0,119
-234,059	800,000	-0,034	0,081
-233,044	210,767	0,040	-0,045
-232,030	800,000	-0,069	0,163
-231,015	-46,094	-0,063	-0,022
-230,000	-156,930	-0,082	-0,004
-228,986	225,823	0,033	0,038
-227,971	-200,000	-0,021	0,120
-226,957	-200,000	0,010	0,099
-225,942	143,880	0,053	0,050
-224,927	-74,748	0,064	0,016
-223,913	434,247	-0,045	-0,070
-222,898	270,063	-0,071	-0,090
-221,884	-200,000	0,000	-0,015
-220,869	800,000	0,034	0,071
-219,855	240,582	0,039	0,046
-218,840	10,699	-0,052	-0,028
-217,825	-200,000	0,021	0,080
-216,811	-75,196	-0,190	0,048
-215,796	-200,000	-0,007	0,091
-214,782	-200,000	-0,030	-0,107
-213,767	-142,712	0,094	-0,006
-212,752	24,176	0,038	0,022
-211,738	-200,000	-0,019	-0,098
-210,723	172,106	-0,049	0,050
-209,709	313,403	-0,089	-0,119
-208,694	71,744	-0,105	0,078
-207,679	800,000	-0,044	0,094
-206,665	-96,603	0,110	0,020
-205,650	207,602	0,051	0,057
-204,636	-200,000	-0,003	0,158
-203,621	316,719	0,045	0,061
-202,606	-200,000	0,023	-0,213
-201,592	239,917	0,069	-0,082
-200,577	28,765	-0,057	0,035
-199,563	-48,056	0,099	0,034
-198,548	-147,956	-0,053	0,003
-197,533	-200,000	0,011	0,096
-196,519	800,000	-0,017	-0,035
-195,504	28,726	0,063	-0,038
-194,490	-200,000	0,002	0,070
-193,475	264,391	0,093	-0,116
-192,460	48,287	-0,103	0,068
-191,446	88,555	0,035	-0,028
-190,431	-159,841	0,121	0,005
-189,417	332,868	0,077	-0,106
-188,402	-200,000	0,016	0,071
-187,387	-0,232	-0,022	-0,011
-186,373	-13,876	-0,067	-0,031
-185,358	-19,389	0,059	-0,026
-184,344	-55,101	0,005	0,001
-183,329	55,667	-0,131	0,090
-182,315	194,033	-0,035	-0,038
-181,300	279,246	0,036	-0,046
-180,285	-143,245	-0,130	0,009
-179,271	-200,000	-0,002	0,037
-178,256	800,000	-0,034	-0,089
-177,242	487,691	-0,034	-0,056
-176,227	-200,000	0,010	0,090
-175,212	653,968	0,048	0,088
-174,198	-200,000	-0,023	0,075
-173,183	-74,671	0,020	0,005
-172,169	-200,000	0,004	0,059
-171,154	61,973	0,095	0,067
-170,139	23,780	0,146	-0,085
-169,125	-77,269	-0,084	-0,021
-168,110	212,254	0,140	0,157
-167,096	202,290	-0,052	-0,057
-166,081	277,552	-0,074	-0,094
-165,066	408,086	0,021	-0,032
-164,052	800,000	0,038	-0,099
-163,037	-200,000	-0,005	-0,122
-162,023	403,499	-0,035	-0,052
-161,008	264,165	0,051	0,064
-159,993	-106,635	-0,162	0,025
-158,979	-45,212	-0,025	-0,009
-157,964	60,218	0,082	0,057
-156,950	282,466	0,058	-0,074
-155,935	180,909	0,064	-0,067
-154,920	6,869	0,103	0,054
-153,906	-200,000	0,009	0,132
-152,891	800,000	0,041	0,111
-151,877	-200,000	-0,026	-0,107
-150,862	-200,000	-0,021	0,089
-149,847	83,689	-0,135	-0,105
-148,833	-35,169	-0,053	-0,020
-147,818	-85,321	0,013	0,003
-146,804	-83,846	0,083	0,019
-145,789	423,044	-0,027	0,042
-144,775	800,000	0,035	-0,074
-143,760	-101,757	0,046	0,008
-142,745	252,794	-0,080	0,097
-141,731	-62,342	0,071	-0,021
-140,716	-102,860	0,082	0,014
-139,702	-200,000	-0,007	0,050
-138,687	45,498	0,088	0,057
-137,672	800,000	-0,013	0,027
-136,658	-97,407	0,102	-0,019
-135,643	800,000	-0,019	-0,039
-134,629	-200,000	-0,058	-0,185
-133,614	800,000	0,054	-0,128
-132,599	-199,710	-0,135	0,000
-131,585	800,000	-0,036	0,077
-130,570	800,000	-0,011	-0,028
-129,556	527,803	-0,080	-0,134
-128,541	766,415	-0,047	0,091
-127,526	470,067	0,016	-0,026
-126,512	-200,000	-0,007	-0,125
-125,497	251,160	-0,077	0,094
-124,483	9,114	0,108	-0,058
-123,468	-200,000	0,015	0,066
-122,453	800,000	-0,035	-0,092
-121,439	339,334	0,028	-0,039
-120,424	-10,522	-0,016	-0,007
-119,410	-200,000	0,012	0,070
-118,395	287,757	0,089	0,115
-117,380	142,399	0,092	0,086
-116,366	-61,664	-0,095	0,028
-115,351	24,754	0,042	0,025
-114,337	133,119	-0,087	0,080
-113,322	-13,551	0,159	0,073
-112,307	800,000	0,058	0,140
-111,293	-108,240	-0,073	-0,011
-110,278	135,341	-0,047	-0,044
-109,264	-200,000	0,012	0,083
-108,249	-55,663	-0,104	-0,033
-107,234	-18,305	-0,052	0,023
-106,220	800,000	0,039	0,094
-105,205	363,216	-0,032	-0,045
-104,191	571,871	0,035	0,061
-103,176	-53,624	-0,039	-0,013
-102,162	172,796	0,047	0,048
-101,147	392,328	-0,014	-0,020
-100,132	-200,000	-0,023	-0,097
-99,118	-54,289	-0,146	0,047
-98,103	171,125	-0,019	-0,020
-97,089	490,181	0,119	0,194
-96,074	10,087	0,026	0,014
-95,059	800,000	0,056	0,113
-94,045	-24,943	-0,033	-0,014
-93,030	-200,000	0,011	-0,230
-92,016	-79,699	-0,113	-0,027
-91,001	-200,000	0,003	-0,088
-89,986	108,362	0,033	0,028
-88,972	-37,626	0,139	0,052
-87,957	-171,685	-0,046	-0,001
-86,943	-200,000	0,016	0,089
-85,928	-163,303	-0,060	0,002
-84,913	-200,000	-0,002	0,013
-83,899	-73,161	-0,093	0,024
-82,884	-41,448	0,108	-0,039
-81,870	58,520	-0,106	0,073
-80,855	752,696	-0,047	0,090
-79,840	69,439	0,027	0,020
-78,826	-77,187	-0,064	-0,016
-77,811	-55,510	-0,072	-0,023
-76,797	-200,000	-0,004	-0,057
-75,782	23,256	-0,108	-0,063
-74,767	76,196	0,036	-0,027
-73,753	143,563	-0,064	0,060
-72,738	-81,660	0,092	-0,021
-71,724	800,000	0,054	-0,153
-70,709	47,609	0,101	0,067
-69,694	-51,581	0,066	0,022
-68,680	132,448	-0,045	-0,041
-67,665	75,430	0,021	0,015
-66,651	596,399	-0,058	0,102
-65,636	-200,000	0,015	0,109
-64,622	70,427	-0,109	0,080
-63,607	800,000	0,009	-0,023
-62,592	31,807	0,074	0,045
-61,578	-125,479	-0,041	0,004
-60,563	-200,000	0,014	0,065
-59,549	-166,787	0,074	-0,002
-58,534	12,106	-1,527	-0,830
-57,519	385,001	-1,383	-2,026
-56,505	-200,000	-0,433	-4,438
-55,490	176,002	1,136	1,169
-54,476	800,000	4,938	11,502
-53,461	-200,000	19,255	319,606
-52,446	-200,000	740,613	2333,960
-51,432	573,354	1655,439	2869,010
-50,417	78,234	1671,044	1261,593
-49,403	21,326	1543,650	885,587
-48,388	15,164	1466,428	811,317
-47,373	17,955	1456,536	819,303
-46,359	16,611	1446,577	807,223
-45,344	13,412	1441,867	789,236
-44,330	13,299	1439,913	787,593
-43,315	13,347	1438,221	786,868
-42,300	13,376	1436,562	786,069
-41,286	13,398	1435,088	785,332
-40,271	13,364	1433,730	784,398
-39,257	13,331	1432,462	783,515
-38,242	13,396	1431,127	783,065
-37,227	13,407	1430,103	782,523
-36,213	13,405	1428,728	781,729
-35,198	13,367	1427,776	780,999
-34,184	13,459	1426,603	780,764
-33,169	13,378	1425,441	779,713
-32,154	13,426	1424,160	779,206
-31,140	13,450	1422,909	778,606
-30,125	13,474	1421,776	778,066
-29,111	13,442	1420,739	777,321
-28,096	13,378	1419,788	776,463
-27,082	13,376	1418,289	775,606
-26,067	13,377	1417,318	775,050
-25,052	13,339	1416,508	774,397
-24,038	13,357	1415,278	773,778
-23,023	13,325	1414,346	773,087
-22,009	13,317	1413,518	772,565
-20,994	13,298	1412,666	771,981
-19,979	13,313	1411,658	771,469
-18,965	13,286	1410,787	770,836
-17,950	13,270	1409,735	770,156
-16,936	13,287	1408,667	769,623
-15,921	13,242	1407,611	768,805
-14,906	13,242	1406,990	768,434
-13,892	13,275	1405,630	767,815
-12,877	13,212	1405,014	767,151
-11,863	13,275	1404,095	766,915
-10,848	13,210	1403,320	766,160
-9,833	13,212	1402,543	765,711
-8,819	13,179	1401,599	765,015
-7,804	13,163	1400,591	764,360
-6,790	13,164	1399,440	763,704
-5,775	13,124	1398,709	763,089
-4,760	13,199	1397,474	762,732
-3,746	13,133	1396,735	761,993
-2,731	13,167	1395,775	761,598
-1,717	13,110	1394,974	760,866
-0,702	13,098	1393,202	759,815
0,313	16,970	1309,769	732,235
1,327	33,206	703,518	430,821
2,342	50,550	123,346	82,419
3,356	0,243	16,705	8,403
4,371	18,578	3,197	1,804
5,386	-53,157	0,551	0,178
6,400	-200,000	0,039	0,272
7,415	6,076	-0,274	-0,143
8,429	20,451	-0,370	-0,211
9,444	43,456	-0,346	-0,223
10,459	-69,284	-0,357	-0,096
11,473	-62,283	-0,197	-0,058
12,488	-136,319	-0,374	-0,030
13,502	82,658	-0,300	-0,230
14,517	25,406	-0,265	-0,155
15,531	126,398	-0,339	-0,304
16,546	57,525	-0,323	-0,223
17,561	15,394	-0,496	-0,274
18,575	352,662	-0,093	-0,130
19,590	82,506	-0,219	-0,168
20,604	-32,820	-0,250	-0,098
21,619	127,934	-0,412	-0,370
22,634	140,868	-0,333	-0,311
23,648	100,820	-0,328	-0,269
24,663	20,937	-0,378	-0,216
25,677	328,933	-0,288	-0,391
26,692	-51,566	-0,292	-0,096
27,707	222,309	-0,251	-0,286
28,721	113,102	-0,374	-0,320
29,736	657,066	-0,212	-0,386
30,750	123,488	-0,436	-0,386
31,765	65,398	-0,322	-0,230
32,780	-3,471	-0,409	-0,200
33,794	-14,957	-0,399	-0,180
34,809	115,659	-0,275	-0,237
35,823	100,053	-0,424	-0,347
36,838	80,179	-0,398	-0,302
37,853	-80,740	-0,401	-0,093
38,867	210,987	-0,393	-0,437
39,882	55,377	-0,379	-0,258
40,896	221,011	-0,304	-0,344
41,911	174,062	-0,253	-0,258
42,926	147,774	-0,331	-0,315
43,940	137,115	-0,326	-0,301
44,955	92,615	-0,395	-0,314
45,969	19,657	-0,494	-0,280
46,984	299,789	-0,223	-0,291
47,999	30,095	-0,277	-0,166
49,013	-73,249	-0,295	-0,076
50,028	80,374	-0,215	-0,163
51,042	50,334	-0,382	-0,254
52,057	-36,235	-0,331	-0,125
53,071	129,474	-0,313	-0,282
54,086	713,580	-0,197	-0,369
55,101	-5,743	-0,366	-0,176
56,115	2,920	-0,430	-0,219
57,130	148,855	-0,371	-0,353
58,144	90,727	-0,309	-0,243
59,159	113,591	-0,373	-0,318
60,174	73,518	-0,425	-0,313
61,188	33,863	-0,339	-0,207
62,203	84,049	-0,337	-0,258
63,217	-37,827	-0,357	-0,133
64,232	49,827	-0,386	-0,256
65,247	65,379	-0,332	-0,236
66,261	258,153	-0,258	-0,313
67,276	59,258	-0,363	-0,251
68,290	107,058	-0,284	-0,238
69,305	-3,987	-0,378	-0,184
70,320	9,424	-0,307	-0,163
71,334	270,162	-0,323	-0,400
72,349	81,562	-0,444	-0,338
73,363	440,350	-0,245	-0,378
74,378	176,450	-0,311	-0,318
75,393	96,534	-0,326	-0,262
76,407	-30,384	-0,376	-0,149
77,422	82,904	-0,235	-0,179
78,436	-90,965	-0,185	-0,037
79,451	149,372	-0,367	-0,349
80,466	37,946	-0,386	-0,241
81,480	36,767	-0,361	-0,224
82,495	84,122	-0,318	-0,244
83,509	106,944	-0,189	-0,158
84,524	154,844	-0,214	-0,207
85,539	146,510	-0,191	-0,181
86,553	53,430	-0,140	-0,094
87,568	-53,731	-0,358	-0,114
88,582	152,058	-0,196	-0,188
89,597	100,911	-0,273	-0,223
90,611	139,437	-0,258	-0,238
91,626	79,840	-0,268	-0,202
92,641	109,297	-0,214	-0,179
93,655	46,471	-0,328	-0,213
94,670	-42,259	-0,327	-0,117
95,684	166,047	-0,317	-0,315
96,699	250,132	-0,282	-0,337
97,714	-67,110	-0,238	-0,065
98,728	315,105	-0,253	-0,335
99,743	2,134	-0,248	-0,125
100,757	179,907	-0,176	-0,181
101,772	88,752	-0,209	-0,163
102,787	84,359	-0,360	-0,276
103,801	43,482	-0,234	-0,150
104,816	0,203	-0,336	-0,167
105,830	69,459	-0,242	-0,175
106,845	282,306	-0,164	-0,206
107,860	72,674	-0,251	-0,184
108,874	130,362	-0,308	-0,277
109,889	227,342	-0,264	-0,301
110,903	59,954	-0,318	-0,220
111,918	28,665	-0,262	-0,155
112,933	27,721	-0,261	-0,154
113,947	194,579	-0,219	-0,233
114,962	19,803	-0,241	-0,136
115,976	-19,629	-0,288	-0,124
116,991	62,559	-0,361	-0,252
118,006	148,375	-0,193	-0,183
119,020	-122,333	-0,319	-0,036
120,035	63,013	-0,196	-0,137
121,049	-21,888	-0,205	-0,087
122,064	55,653	-0,248	-0,168
123,079	65,919	-0,181	-0,129
124,093	105,313	-0,326	-0,270
125,108	240,011	-0,199	-0,233
126,122	145,050	-0,353	-0,330
127,137	-35,359	-0,152	-0,058
128,151	330,773	-0,193	-0,261
129,166	11,751	-0,290	-0,155
130,181	609,190	-0,132	-0,231
131,195	23,747	-0,278	-0,160
132,210	336,013	-0,208	-0,283
133,224	440,743	-0,191	-0,293
134,239	154,163	-0,253	-0,243
135,254	676,882	-0,145	-0,265
136,268	31,846	-0,237	-0,143
137,283	135,212	-0,257	-0,234
138,297	-170,630	-0,409	0,010
139,312	114,848	-0,353	-0,301
140,327	397,747	-0,190	-0,279
141,341	220,985	-0,168	-0,189
142,356	-26,943	-0,281	-0,114
143,370	219,345	-0,204	-0,228
144,385	800,000	-0,067	-0,172
145,400	-0,699	-0,346	-0,171
146,414	239,833	-0,235	-0,274
147,429	355,964	-0,160	-0,223
148,443	800,000	-0,156	-0,320
149,458	222,247	-0,154	-0,173
150,473	14,764	-0,226	-0,123
151,487	80,139	-0,359	-0,269
152,502	101,046	-0,239	-0,194
153,516	333,990	-0,300	-0,406
154,531	247,750	-0,258	-0,305
155,546	152,284	-0,254	-0,243
156,560	-89,034	-0,180	-0,037
157,575	55,344	-0,320	-0,216
158,589	132,645	-0,221	-0,199
159,604	2,230	-0,185	-0,093
160,619	-56,197	-0,315	-0,097
161,633	343,363	-0,190	-0,260
162,648	52,560	-0,317	-0,211
163,662	-8,582	-0,286	-0,133
164,677	40,391	-0,225	-0,141
165,692	158,000	-0,165	-0,160
166,706	-20,166	-0,303	-0,130
167,721	-13,065	-0,325	-0,147
168,735	403,279	-0,228	-0,335
169,750	245,703	-0,099	-0,117
170,764	83,955	-0,206	-0,157
171,779	52,788	-0,205	-0,136
172,794	38,753	-0,178	-0,110
173,808	131,274	-0,214	-0,192
174,823	-24,535	-0,278	-0,115
175,837	222,812	-0,174	-0,196
176,852	800,000	-0,059	-0,139
177,867	118,430	-0,267	-0,230
178,881	-15,722	-0,283	-0,125
179,896	233,398	-0,132	-0,151
180,910	220,377	-0,225	-0,251
181,925	157,149	-0,177	-0,170
182,940	-17,409	-0,150	-0,066
183,954	50,271	-0,312	-0,205
184,969	7,261	-0,300	-0,155
185,983	452,970	-0,120	-0,185
186,998	-11,084	-0,204	-0,093
188,013	-37,457	-0,279	-0,103
189,027	72,637	-0,166	-0,120
190,042	55,310	-0,248	-0,166
191,056	215,229	-0,262	-0,290
192,071	-2,237	-0,342	-0,166
193,086	605,445	-0,053	-0,093
194,100	-48,542	-0,240	-0,080
195,115	-98,934	-0,248	-0,043
196,129	142,374	-0,262	-0,242
197,144	140,199	-0,137	-0,126
198,159	29,326	-0,225	-0,133
199,173	46,397	-0,234	-0,151
200,188	-195,162	-0,262	0,001
201,202	55,828	-0,180	-0,121
202,217	800,000	-0,121	-0,248
203,232	232,753	-0,173	-0,197
204,246	323,946	-0,124	-0,165
205,261	195,958	-0,180	-0,191
206,275	-10,859	-0,210	-0,096
207,290	-70,469	-0,159	-0,042
208,304	-117,498	-0,202	-0,025
209,319	-67,094	-0,215	-0,059
210,334	509,304	-0,154	-0,249
211,348	-81,657	-0,269	-0,061
212,363	-5,093	-0,296	-0,141
213,377	165,143	-0,148	-0,145
214,392	-14,252	-0,246	-0,110
215,407	247,616	-0,047	-0,055
216,421	206,085	-0,132	-0,143
217,436	-14,349	-0,114	-0,051
218,450	-42,944	-0,275	-0,096
219,465	-99,540	-0,188	-0,032
220,480	327,149	-0,172	-0,229
221,494	17,961	-0,196	-0,108
222,509	241,899	-0,175	-0,203
223,523	60,233	-0,216	-0,148
224,538	394,390	-0,117	-0,170
225,553	72,991	-0,206	-0,149
226,567	104,537	-0,148	-0,121
227,582	161,229	-0,183	-0,178
228,596	89,406	-0,182	-0,140
229,611	38,947	-0,191	-0,118
230,626	122,827	-0,168	-0,145
231,640	800,000	-0,037	-0,095
232,655	167,532	-0,237	-0,234
233,669	102,893	-0,232	-0,188
234,684	372,286	-0,218	-0,308
235,699	15,554	-0,216	-0,118
236,713	-200,000	-0,024	-0,125
237,728	-156,131	-0,166	-0,007
238,742	59,063	-0,287	-0,196
239,757	202,486	-0,162	-0,173
240,772	75,337	-0,115	-0,084
241,786	-24,568	-0,147	-0,060
242,801	279,826	-0,104	-0,129
243,815	271,065	-0,122	-0,149
244,830	-64,917	-0,136	-0,038
245,844	-86,415	-0,254	-0,054
246,859	-200,000	-0,035	-0,297
247,874	669,556	-0,111	-0,199
248,888	8,907	-0,264	-0,138
249,903	800,000	-0,096	-0,266
250,917	305,677	-0,088	-0,114
251,932	-200,000	-0,013	-0,164
252,947	138,279	-0,150	-0,136
253,961	54,486	-0,197	-0,131
254,976	410,093	-0,134	-0,198
255,990	329,971	-0,132	-0,176
257,005	203,331	-0,131	-0,140
258,020	202,146	-0,097	-0,103
259,034	131,209	-0,094	-0,084
260,049	58,761	-0,153	-0,104
261,063	-77,246	-0,158	-0,038
262,078	156,360	-0,133	-0,127
263,093	5,103	-0,193	-0,098
264,107	487,042	-0,114	-0,181
265,122	102,779	-0,148	-0,120
266,136	-200,000	-0,041	-0,154
267,151	434,476	-0,190	-0,287
268,166	153,817	-0,128	-0,121
269,180	216,973	-0,199	-0,220
270,195	78,045	-0,249	-0,183
271,209	800,000	-0,074	-0,221
272,224	647,369	-0,066	-0,117
273,239	800,000	-0,070	-0,154
274,253	42,516	-0,138	-0,087
275,268	36,875	-0,267	-0,163
276,282	280,973	-0,163	-0,202
277,297	463,861	-0,193	-0,299
278,312	20,528	-0,197	-0,110
279,326	64,075	-0,162	-0,112
280,341	-167,378	-0,055	0,001
281,355	142,301	-0,184	-0,169
282,370	12,493	-0,190	-0,101
283,384	12,221	-0,240	-0,127
284,399	386,617	-0,104	-0,149
285,414	141,116	-0,194	-0,177
286,428	257,238	-0,132	-0,157
287,443	-16,328	-0,056	0,024
288,457	15,056	-0,144	-0,078
289,472	-10,261	-0,152	-0,069
290,487	800,000	-0,107	-0,207
291,501	393,844	-0,138	-0,198
292,516	193,315	-0,187	-0,195
293,530	116,161	-0,097	-0,082
294,545	26,505	-0,295	-0,170
295,560	55,769	-0,125	-0,083
296,574	3,806	-0,126	-0,063
297,589	293,573	-0,121	-0,153
298,603	-162,484	-0,139	-0,005
299,618	85,667	-0,217	-0,164
300,633	84,465	-0,204	-0,154
301,647	-200,000	0,020	-0,298
302,662	711,532	-0,035	-0,064
303,676	-117,735	-0,162	-0,020
304,691	-136,589	-0,054	-0,004
305,706	131,968	-0,139	-0,123
306,720	800,000	-0,123	-0,288
307,735	-56,486	-0,226	-0,069
308,749	-26,804	-0,016	-0,007
309,764	-93,885	-0,105	0,020
310,779	440,916	-0,163	-0,247
311,793	592,032	-0,121	-0,206
312,808	7,978	-0,264	-0,136
313,822	26,532	-0,167	-0,096
314,837	-35,726	-0,137	-0,051
315,852	-97,478	-0,108	0,019
316,866	14,142	-0,209	-0,112
317,881	105,914	-0,123	-0,100
318,895	-129,678	-0,219	0,020
319,910	800,000	-0,053	-0,114
320,925	16,496	-0,145	-0,079
321,939	800,000	-0,059	-0,166
322,954	-123,162	-0,187	-0,020
323,968	126,621	-0,139	-0,121
324,983	729,054	-0,086	-0,159
325,997	152,786	-0,172	-0,162
327,012	-4,074	-0,115	-0,055
328,027	-101,100	-0,103	-0,017
329,041	255,275	-0,159	-0,188
330,056	8,789	-0,115	-0,059
331,070	212,757	-0,127	-0,137
332,085	-63,009	-0,200	0,057
333,100	106,668	-0,130	-0,106
334,114	-39,432	-0,113	0,041
335,129	17,340	-0,227	-0,124
336,143	626,690	-0,048	-0,084
337,158	147,302	-0,106	-0,098
338,173	-6,413	-0,118	0,055
339,187	71,773	-0,115	-0,082
340,202	-24,706	-0,172	-0,070
341,216	155,070	-0,138	-0,130
342,231	62,137	-0,193	-0,132
343,246	-160,303	-0,053	0,002
344,260	-200,000	0,022	-0,135
345,275	800,000	-0,078	-0,180
346,289	-42,656	-0,146	0,051
347,304	77,652	-0,133	-0,097
348,319	-2,898	-0,119	-0,057
349,333	800,000	-0,062	-0,178
350,348	222,137	-0,154	-0,170
351,362	-73,723	-0,246	-0,061
352,377	-62,663	-0,097	-0,027
353,392	-142,235	-0,150	-0,010
354,406	-53,485	-0,149	-0,047
355,421	209,485	1312,689	1412,943
356,435	161,229	1473,168	1413,429
