DTS Sentinel unit serial number:	SN410029Multiplexer serial number:	ORYXHardware model number:	OX2-SRSoftware version number:	ORYX F/W v4,00 Oryx Data Collector v3.7.2.0data status	okinstallation	B3 Nyhavnadifferential loss correction	single-endedforward channel	channel 1reverse channel	N/Adate	2023/12/03time	00:22:30forward acquisition time	300,00reverse acquisition time	0,00gamma	499,1914k internal	0,3201k external	0,3201temperature offset calibration	1,0000default loss term (dB/km)	0,3820temperature slope calibration	1,0000multiplexer offset coefficient	1,0000multiplexer slope coefficient	1,0000fibre end	0,00T internal ref (°C)	13,29T ext. ref 1 (°C)	-1,62T ext. ref 2 (°C)	-1,63length (m)	temperature (°C)	Stokes	anti-Stokes-744,400	800,000	-0,130	-0,324
-743,385	-200,000	-0,028	0,283
-742,371	290,743	-0,082	-0,109
-741,356	-200,000	-0,020	0,349
-740,342	163,543	-0,230	-0,236
-739,327	-200,000	-0,014	0,341
-738,312	800,000	-0,150	-0,336
-737,298	-200,000	0,013	0,151
-736,283	290,160	-0,211	-0,279
-735,269	-200,000	-0,024	0,393
-734,254	330,359	-0,064	-0,090
-733,239	68,909	-0,182	0,136
-732,225	230,448	-0,135	-0,161
-731,210	-69,569	0,138	0,038
-730,196	-200,000	-0,034	-0,111
-729,181	-200,000	-0,006	-0,148
-728,167	800,000	0,047	-0,142
-727,152	800,000	0,050	-0,106
-726,137	-127,016	-0,103	0,011
-725,123	-200,000	0,003	-0,137
-724,108	-200,000	-0,016	-0,138
-723,094	197,772	-0,120	-0,134
-722,079	-200,000	0,030	-0,134
-721,064	29,081	0,048	0,029
-720,050	-200,000	-0,006	-0,036
-719,035	-9,982	-0,072	-0,035
-718,021	-118,680	-0,128	-0,016
-717,006	800,000	-0,013	0,028
-715,991	-200,000	-0,006	0,048
-714,977	-200,000	0,025	-0,119
-713,962	-200,000	-0,006	-0,094
-712,948	-200,000	-0,020	0,105
-711,933	104,912	0,127	-0,109
-710,918	800,000	-0,010	0,027
-709,904	-200,000	0,014	-0,075
-708,889	695,756	-0,014	0,026
-707,875	800,000	0,024	-0,055
-706,860	167,754	0,107	-0,110
-705,845	-75,501	0,125	-0,032
-704,831	-98,643	-0,108	0,020
-703,816	17,245	-0,110	-0,063
-702,802	800,000	0,047	-0,149
-701,787	182,641	-0,105	-0,113
-700,772	421,190	-0,074	-0,116
-699,758	-200,000	0,028	-0,165
-698,743	157,463	-0,091	0,092
-697,729	272,767	-0,039	0,050
-696,714	67,249	-0,009	0,007
-695,699	-37,047	-0,105	0,041
-694,685	788,022	0,029	-0,059
-693,670	73,276	0,153	-0,116
-692,656	296,307	-0,035	-0,047
-691,641	-200,000	-0,021	-0,088
-690,627	-200,000	-0,001	0,025
-689,612	-200,000	-0,014	0,054
-688,597	-22,395	0,079	-0,035
-687,583	800,000	-0,048	-0,105
-686,568	-200,000	0,015	-0,107
-685,554	365,232	0,009	-0,014
-684,539	-139,668	-0,037	-0,003
-683,524	-71,862	-0,094	-0,025
-682,510	800,000	-0,043	0,099
-681,495	25,760	0,080	-0,048
-680,481	78,707	-0,121	-0,094
-679,466	334,160	-0,124	-0,175
-678,451	344,244	-0,090	-0,129
-677,437	-200,000	0,006	-0,061
-676,422	512,542	0,017	0,028
-675,408	-37,344	-0,015	-0,006
-674,393	800,000	-0,084	-0,170
-673,378	-50,420	-0,147	-0,050
-672,364	-200,000	-0,011	-0,062
-671,349	-29,942	-0,139	-0,057
-670,335	182,759	-0,120	-0,129
-669,320	800,000	0,046	0,094
-668,305	-106,777	-0,130	0,021
-667,291	-200,000	0,009	-0,092
-666,276	-22,204	-0,030	-0,013
-665,262	-200,000	-0,027	-0,123
-664,247	-51,654	0,091	0,031
-663,232	53,085	-0,017	-0,012
-662,218	-200,000	0,006	-0,036
-661,203	-200,000	-0,015	-0,055
-660,189	-37,498	0,085	0,033
-659,174	155,072	0,039	-0,038
-658,159	133,684	0,079	0,074
-657,145	-125,137	-0,144	0,016
-656,130	155,438	0,058	-0,058
-655,116	168,698	0,020	0,021
-654,101	177,217	-0,088	0,093
-653,086	-65,352	-0,082	0,024
-652,072	-200,000	-0,015	-0,081
-651,057	-200,000	-0,002	-0,058
-650,043	64,867	-0,049	0,036
-649,028	-200,000	-0,005	0,026
-648,014	800,000	0,042	0,092
-646,999	-181,413	0,057	-0,001
-645,984	325,140	0,064	-0,089
-644,970	-131,824	-0,221	-0,021
-643,955	273,780	0,035	-0,045
-642,941	-188,471	-0,103	-0,001
-641,926	-200,000	0,002	0,048
-640,911	272,948	0,093	-0,119
-639,897	-80,660	-0,073	-0,017
-638,882	330,221	-0,043	0,059
-637,868	304,084	0,022	-0,029
-636,853	270,590	-0,080	-0,102
-635,838	474,996	-0,038	0,063
-634,824	-200,000	0,180	-0,000
-633,809	233,406	-0,032	0,038
-632,795	-200,000	0,003	-0,088
-631,780	15,708	-0,070	0,040
-630,765	800,000	0,004	0,009
-629,751	-23,139	-0,167	-0,073
-628,736	-62,243	-0,101	0,030
-627,722	-62,278	-0,209	-0,063
-626,707	-35,546	-0,038	-0,015
-625,692	-25,168	-0,059	-0,025
-624,678	-200,000	-0,001	-0,014
-623,663	-44,652	-0,197	-0,071
-622,649	800,000	0,033	0,073
-621,634	127,414	-0,022	0,020
-620,619	28,243	0,074	-0,045
-619,605	-36,170	-0,071	0,028
-618,590	800,000	-0,014	-0,029
-617,576	81,264	0,146	0,114
-616,561	-200,000	0,012	-0,100
-615,546	44,972	0,048	-0,032
-614,532	201,589	-0,046	-0,051
-613,517	-122,304	-0,077	-0,009
-612,503	-124,079	-0,063	0,007
-611,488	-99,736	0,025	-0,005
-610,474	-100,671	0,050	-0,009
-609,459	-200,000	-0,034	0,229
-608,444	-37,486	-0,085	-0,033
-607,430	96,151	0,017	-0,014
-606,415	57,062	-0,059	0,041
-605,401	-200,000	-0,017	-0,059
-604,386	-200,000	-0,009	0,072
-603,371	800,000	0,050	-0,148
-602,357	52,887	-0,019	-0,013
-601,342	146,220	0,082	-0,079
-600,328	67,617	0,070	-0,052
-599,313	-38,226	0,085	-0,032
-598,298	-23,236	-0,126	0,054
-597,284	-57,910	0,199	0,063
-596,269	-38,769	-0,137	0,052
-595,255	800,000	0,005	0,014
-594,240	-76,302	-0,083	-0,021
-593,225	-93,113	-0,055	0,011
-592,211	234,488	0,093	-0,111
-591,196	-22,346	-0,176	-0,077
-590,182	-200,000	-0,010	-0,123
-589,167	475,394	-0,073	0,120
-588,152	102,895	0,085	-0,072
-587,138	-200,000	-0,004	-0,057
-586,123	-200,000	-0,002	-0,139
-585,109	-200,000	-0,016	-0,188
-584,094	-85,839	-0,087	0,019
-583,079	-200,000	0,010	0,052
-582,065	-93,006	0,087	0,017
-581,050	6,090	-0,064	-0,034
-580,036	789,985	-0,021	0,043
-579,021	-119,256	-0,089	-0,011
-578,006	-200,000	0,009	-0,050
-576,992	86,520	-0,062	0,049
-575,977	27,481	0,077	0,047
-574,963	-141,507	0,093	-0,007
-573,948	-57,618	0,070	0,022
-572,934	800,000	0,050	-0,103
-571,919	-200,000	0,018	-0,095
-570,904	134,097	-0,123	-0,115
-569,890	-200,000	0,026	-0,186
-568,875	-7,531	0,034	0,016
-567,861	-91,117	0,038	-0,008
-566,846	-200,000	-0,007	-0,032
-565,831	0,140	0,006	-0,003
-564,817	-200,000	-0,005	-0,036
-563,802	800,000	-0,031	-0,064
-562,788	800,000	0,039	0,113
-561,773	487,902	-0,048	-0,079
-560,758	-56,596	0,051	0,016
-559,744	-200,000	-0,004	0,080
-558,729	-28,794	0,032	0,013
-557,715	800,000	-0,019	-0,055
-556,700	387,002	-0,124	0,186
-555,685	-200,000	-0,012	0,062
-554,671	-56,194	0,052	-0,017
-553,656	133,922	-0,029	-0,027
-552,642	1,493	0,058	-0,030
-551,627	452,875	0,018	-0,030
-550,612	-49,681	-0,064	0,022
-549,598	285,731	-0,088	-0,115
-548,583	-33,583	-0,156	-0,062
-547,569	98,134	-0,056	0,046
-546,554	-69,462	-0,053	-0,015
-545,539	654,938	0,024	0,044
-544,525	86,032	-0,051	0,040
-543,510	-56,971	0,127	-0,040
-542,496	-61,347	0,083	0,025
-541,481	800,000	0,031	-0,074
-540,466	213,801	-0,023	0,026
-539,452	-200,000	-0,008	0,095
-538,437	53,050	0,061	0,042
-537,423	750,779	-0,005	0,009
-536,408	86,031	0,135	-0,107
-535,393	200,715	-0,087	0,096
-534,379	-200,000	-0,010	0,041
-533,364	-200,000	0,016	-0,083
-532,350	-200,000	0,010	-0,036
-531,335	32,724	0,047	0,029
-530,321	-200,000	0,009	-0,101
-529,306	-200,000	0,023	0,075
-528,291	-4,565	-0,119	-0,059
-527,277	-141,191	-0,023	0,002
-526,262	277,809	-0,078	-0,101
-525,248	-200,000	0,010	0,038
-524,233	-200,000	-0,002	-0,011
-523,218	-194,418	-0,026	-0,000
-522,204	511,702	-0,031	-0,052
-521,189	-11,613	0,038	-0,018
-520,175	-132,348	-0,043	0,004
-519,160	42,139	-0,127	-0,083
-518,145	367,728	0,017	-0,024
-517,131	26,579	0,109	0,065
-516,116	-46,479	0,144	0,051
-515,102	271,628	-0,026	0,034
-514,087	33,029	0,094	-0,058
-513,072	100,863	0,029	-0,024
-512,058	52,454	-0,129	-0,088
-511,043	-200,000	0,005	0,041
-510,029	80,946	0,131	0,102
-509,014	21,285	0,046	0,027
-507,999	800,000	0,036	-0,078
-506,985	-63,592	-0,074	0,022
-505,970	-46,185	-0,080	0,028
-504,956	-132,280	-0,104	-0,010
-503,941	-200,000	-0,057	-0,195
-502,926	144,981	0,113	0,109
-501,912	-200,000	0,005	0,092
-500,897	-123,191	-0,056	-0,006
-499,883	265,595	0,070	-0,089
-498,868	32,863	-0,046	0,029
-497,853	800,000	-0,020	-0,046
-496,839	800,000	0,052	-0,159
-495,824	-64,965	0,120	0,035
-494,810	800,000	0,043	0,091
-493,795	152,445	-0,049	0,048
-492,781	-151,469	-0,065	0,003
-491,766	336,206	0,058	0,082
-490,751	-133,058	-0,148	0,013
-489,737	800,000	0,033	0,073
-488,722	-200,000	0,015	0,084
-487,708	20,870	0,070	-0,041
-486,693	-121,719	0,113	0,013
-485,678	-113,320	-0,106	-0,015
-484,664	72,987	-0,036	-0,027
-483,649	-170,565	-0,089	0,002
-482,635	800,000	-0,055	0,126
-481,620	-35,265	0,145	-0,057
-480,605	-40,009	0,034	-0,013
-479,591	800,000	-0,037	0,080
-478,576	-25,058	-0,127	0,054
-477,562	-200,000	-0,029	0,104
-476,547	-200,000	-0,016	0,103
-475,532	86,101	-0,082	-0,065
-474,518	-200,000	-0,023	0,162
-473,503	-85,330	0,063	-0,014
-472,489	-27,068	0,034	0,014
-471,474	-130,258	0,069	-0,007
-470,459	-127,515	-0,095	0,010
-469,445	372,933	-0,105	-0,154
-468,430	-200,000	0,006	-0,076
-467,416	107,014	-0,106	0,090
-466,401	141,088	0,040	-0,038
-465,386	-200,000	0,007	-0,086
-464,372	-136,096	-0,076	0,006
-463,357	398,845	-0,011	-0,016
-462,343	4,255	-0,185	0,097
-461,328	-200,000	-0,010	0,084
-460,313	-200,000	0,006	0,077
-459,299	-200,000	0,007	0,028
-458,284	-99,698	-0,085	-0,015
-457,270	-53,921	0,054	-0,017
-456,255	-133,049	-0,064	0,006
-455,241	64,887	-0,056	0,041
-454,226	349,166	0,061	-0,086
-453,211	610,631	-0,019	0,034
-452,197	-46,433	0,103	-0,036
-451,182	314,798	0,061	0,083
-450,168	223,426	-0,054	0,063
-449,153	-39,232	-0,126	-0,047
-448,138	-200,000	0,001	-0,092
-447,124	-200,000	0,004	0,169
-446,109	800,000	0,015	-0,038
-445,095	-200,000	0,021	0,133
-444,080	33,375	0,061	-0,038
-443,065	-47,141	0,078	0,027
-442,051	11,968	-0,088	0,049
-441,036	800,000	0,026	0,059
-440,022	4,171	-0,019	0,010
-439,007	-120,855	0,166	0,020
-437,992	-200,000	-0,013	0,094
-436,978	61,214	0,085	0,061
-435,963	-200,000	0,027	0,085
-434,949	109,132	0,068	-0,058
-433,934	-79,292	-0,239	-0,058
-432,919	-76,514	-0,075	0,019
-431,905	332,610	-0,081	-0,113
-430,890	-98,206	0,042	0,008
-429,876	-76,053	-0,010	0,003
-428,861	-18,327	-0,198	0,088
-427,846	800,000	0,024	0,073
-426,832	-200,000	-0,034	-0,199
-425,817	325,187	-0,029	0,039
-424,803	138,861	0,098	-0,093
-423,788	-200,000	-0,015	-0,053
-422,773	800,000	0,036	0,078
-421,759	-107,239	0,100	0,016
-420,744	73,868	-0,075	-0,057
-419,730	157,458	-0,127	0,126
-418,715	-50,773	-0,205	-0,069
-417,701	-97,872	0,114	-0,021
-416,686	76,428	0,040	0,031
-415,671	800,000	-0,053	0,107
-414,657	386,781	0,085	-0,127
-413,642	360,660	-0,078	0,112
-412,628	-55,043	-0,173	-0,055
-411,613	314,492	-0,039	-0,053
-410,598	151,263	-0,030	0,029
-409,584	166,182	-0,042	0,043
-408,569	-200,000	-0,000	0,013
-407,555	120,113	-0,089	-0,080
-406,540	-200,000	0,026	0,125
-405,525	95,853	-0,090	-0,074
-404,511	-86,528	0,117	-0,025
-403,496	-200,000	0,026	-0,187
-402,482	786,613	0,059	0,117
-401,467	158,386	0,026	-0,026
-400,452	-58,259	0,005	-0,002
-399,438	-200,000	-0,003	0,035
-398,423	-200,000	0,004	0,090
-397,409	800,000	0,054	-0,150
-396,394	-168,653	0,106	0,003
-395,379	227,628	0,043	-0,050
-394,365	-200,000	-0,035	-0,151
-393,350	800,000	-0,029	-0,061
-392,336	418,027	0,011	-0,017
-391,321	800,000	0,055	-0,134
-390,306	37,806	-0,112	-0,071
-389,292	800,000	0,033	0,078
-388,277	-47,035	0,108	-0,038
-387,263	452,093	0,050	0,079
-386,248	-95,556	-0,091	0,017
-385,233	-88,081	0,074	0,016
-384,219	800,000	-0,048	-0,146
-383,204	11,341	-0,139	-0,076
-382,190	57,250	0,014	0,010
-381,175	-200,000	0,011	0,039
-380,160	800,000	0,021	0,064
-379,146	187,191	0,111	-0,119
-378,131	428,130	0,004	0,006
-377,117	-200,000	-0,010	0,078
-376,102	-110,747	-0,034	-0,005
-375,088	791,249	-0,033	0,065
-374,073	126,235	-0,087	-0,079
-373,058	0,806	0,145	-0,074
-372,044	194,267	0,025	0,028
-371,029	67,740	-0,047	0,035
-370,015	50,123	0,089	-0,060
-369,000	-200,000	-0,006	-0,097
-367,985	-200,000	-0,012	-0,098
-366,971	800,000	0,027	-0,072
-365,956	-57,492	0,071	0,022
-364,942	-99,818	-0,102	0,018
-363,927	800,000	0,026	0,064
-362,912	298,595	0,057	0,075
-361,898	800,000	-0,019	-0,044
-360,883	-114,795	-0,041	0,006
-359,869	-200,000	-0,026	-0,083
-358,854	79,235	0,147	0,113
-357,839	629,405	-0,047	0,086
-356,825	756,866	0,060	0,117
-355,810	765,311	-0,055	0,108
-354,796	-200,000	0,027	0,117
-353,781	281,262	0,014	0,018
-352,766	-200,000	0,007	0,113
-351,752	467,072	0,017	0,027
-350,737	-10,436	-0,127	0,060
-349,723	-200,000	-0,006	0,170
-348,708	-12,732	0,157	0,073
-347,693	-25,289	-0,068	-0,029
-346,679	122,096	-0,129	-0,115
-345,664	24,567	0,100	-0,059
-344,650	462,996	-0,017	0,028
-343,635	544,639	0,061	0,105
-342,620	800,000	0,044	-0,108
-341,606	-50,966	0,044	0,015
-340,591	7,431	-0,043	0,023
-339,577	89,929	0,074	-0,059
-338,562	800,000	-0,042	-0,096
-337,548	-99,804	0,110	-0,020
-336,533	81,393	0,135	0,104
-335,518	-200,000	0,004	0,014
-334,504	459,719	-0,089	0,142
-333,489	-200,000	-0,029	-0,129
-332,475	-4,616	-0,011	0,005
-331,460	800,000	-0,025	-0,059
-330,445	800,000	0,046	-0,126
-329,431	225,433	0,049	0,057
-328,416	263,387	0,052	0,065
-327,402	-200,000	0,023	0,100
-326,387	-200,000	-0,026	-0,147
-325,372	103,781	-0,094	0,079
-324,358	800,000	-0,018	-0,037
-323,343	728,859	-0,026	-0,049
-322,329	-92,472	-0,066	-0,013
-321,314	800,000	-0,004	-0,010
-320,299	-178,686	0,146	0,002
-319,285	594,545	-0,025	-0,045
-318,270	52,803	0,037	-0,025
-317,256	132,910	-0,089	0,083
-316,241	-200,000	0,028	-0,097
-315,226	-114,422	0,117	0,016
-314,212	189,426	0,054	0,058
-313,197	-104,501	0,035	-0,006
-312,183	800,000	0,026	-0,059
-311,168	-122,390	0,028	0,003
-310,153	-80,138	0,076	-0,018
-309,139	-13,534	-0,084	-0,039
-308,124	558,882	-0,023	0,041
-307,110	403,223	0,087	0,132
-306,095	-99,642	-0,083	0,015
-305,080	-200,000	-0,008	0,133
-304,066	228,585	0,055	0,064
-303,051	800,000	0,023	-0,051
-302,037	-35,672	-0,051	-0,020
-301,022	274,072	-0,070	0,089
-300,008	-68,972	0,062	0,017
-298,993	168,479	0,038	0,038
-297,978	800,000	-0,028	0,081
-296,964	225,926	0,019	0,022
-295,949	-22,522	-0,024	-0,010
-294,935	28,857	-0,130	-0,079
-293,920	99,658	0,068	-0,056
-292,905	-60,900	0,055	0,017
-291,891	140,412	0,127	0,120
-290,876	-200,000	0,052	0,166
-289,862	-49,627	0,201	0,068
-288,847	59,528	-0,112	-0,079
-287,832	-200,000	0,012	-0,073
-286,818	-42,280	0,054	0,019
-285,803	49,992	0,123	0,083
-284,789	-200,000	0,005	0,032
-283,774	800,000	-0,056	0,113
-282,759	71,600	0,108	0,080
-281,745	-200,000	0,007	-0,083
-280,730	182,244	-0,028	0,029
-279,716	-200,000	0,005	0,109
-278,701	51,874	-0,032	0,022
-277,686	-56,683	0,027	-0,008
-276,672	-200,000	0,005	0,052
-275,657	-45,516	0,029	-0,010
-274,643	-200,000	-0,015	-0,104
-273,628	595,993	-0,092	-0,163
-272,613	-200,000	-0,004	-0,144
-271,599	-151,403	0,016	0,001
-270,584	641,149	0,066	0,121
-269,570	619,549	0,021	-0,037
-268,555	24,422	-0,079	-0,047
-267,540	492,699	0,040	0,066
-266,526	-153,878	-0,054	-0,003
-265,511	316,252	-0,034	-0,046
-264,497	103,241	0,042	-0,035
-263,482	800,000	0,028	0,060
-262,467	-200,000	-0,015	0,115
-261,453	92,251	0,084	-0,068
-260,438	800,000	0,060	-0,135
-259,424	-200,000	0,024	-0,144
-258,409	-200,000	-0,002	-0,048
-257,395	6,374	0,059	0,031
-256,380	-40,031	0,150	-0,056
-255,365	250,866	-0,052	0,063
-254,351	-200,000	0,001	0,050
-253,336	-67,523	-0,070	0,020
-252,322	-200,000	-0,016	-0,090
-251,307	273,928	0,064	-0,082
-250,292	-200,000	-0,006	-0,026
-249,278	23,384	-0,158	-0,092
-248,263	220,548	0,052	0,060
-247,249	-200,000	0,010	-0,035
-246,234	96,230	-0,016	-0,013
-245,219	-45,799	-0,055	-0,019
-244,205	-1,229	-0,074	-0,037
-243,190	32,811	0,111	0,069
-242,176	-200,000	-0,012	0,096
-241,161	-200,000	0,001	-0,011
-240,146	800,000	0,017	0,044
-239,132	438,375	0,034	-0,053
-238,117	96,338	-0,095	0,077
-237,103	-66,751	-0,104	0,029
-236,088	259,587	-0,079	0,097
-235,073	-23,082	0,137	0,058
-234,059	-200,000	0,013	0,090
-233,044	444,680	0,122	0,191
-232,030	-200,000	0,028	-0,130
-231,015	800,000	-0,028	-0,072
-230,000	795,056	0,033	-0,064
-228,986	800,000	-0,045	-0,102
-227,971	83,668	0,035	0,028
-226,957	320,640	0,059	0,081
-225,942	138,718	-0,057	-0,054
-224,927	-200,000	0,004	0,068
-223,913	-171,027	0,117	-0,003
-222,898	669,610	0,037	-0,069
-221,884	167,634	0,087	-0,089
-220,869	106,839	0,091	0,077
-219,855	800,000	0,019	-0,052
-218,840	218,559	-0,062	0,070
-217,825	53,749	-0,030	0,021
-216,811	800,000	0,014	-0,034
-215,796	109,610	0,016	0,014
-214,782	135,689	0,089	0,083
-213,767	334,897	0,064	0,089
-212,752	24,101	0,142	0,083
-211,738	288,007	0,071	-0,091
-210,723	372,870	0,116	0,168
-209,709	-200,000	-0,002	-0,064
-208,694	-162,074	-0,060	0,002
-207,679	-200,000	0,001	0,143
-206,665	800,000	0,028	-0,076
-205,650	-200,000	0,011	0,093
-204,636	707,980	-0,053	-0,101
-203,621	-92,661	-0,083	0,016
-202,606	131,090	0,033	-0,030
-201,592	-200,000	-0,007	0,077
-200,577	-200,000	0,001	-0,013
-199,563	-106,355	0,070	0,011
-198,548	-200,000	-0,010	-0,046
-197,533	-200,000	0,000	-0,152
-196,519	267,614	-0,052	0,066
-195,504	-200,000	-0,027	0,110
-194,490	-70,284	0,051	0,014
-193,475	372,575	0,027	0,038
-192,460	-60,247	-0,149	-0,045
-191,446	-84,666	0,158	0,035
-190,431	144,393	-0,071	0,067
-189,417	-200,000	0,013	-0,058
-188,402	-200,000	-0,034	-0,160
-187,387	28,378	-0,090	-0,054
-186,373	800,000	0,060	-0,139
-185,358	578,384	-0,031	-0,055
-184,344	134,658	0,070	0,065
-183,329	-79,666	0,089	-0,021
-182,315	36,105	-0,077	-0,048
-181,300	-200,000	0,009	-0,036
-180,285	12,565	0,064	0,035
-179,271	-84,802	0,063	0,014
-178,256	134,216	-0,020	-0,019
-177,242	106,780	0,051	-0,043
-176,227	-200,000	-0,009	0,174
-175,212	-200,000	0,016	0,066
-174,198	270,484	-0,062	0,077
-173,183	51,874	-0,111	0,075
-172,169	67,338	-0,099	-0,072
-171,154	-200,000	-0,002	0,037
-170,139	-200,000	0,019	-0,089
-169,125	-137,290	0,062	-0,005
-168,110	342,898	0,101	0,141
-167,096	-87,982	-0,096	0,020
-166,081	515,259	-0,028	-0,047
-165,066	76,567	0,037	-0,028
-164,052	-200,000	-0,016	-0,064
-163,037	-200,000	-0,018	-0,194
-162,023	448,387	0,025	0,039
-161,008	39,534	0,083	0,053
-159,993	-119,590	-0,106	0,013
-158,979	-200,000	0,014	-0,105
-157,964	-198,255	0,125	0,001
-156,950	-200,000	-0,007	0,057
-155,935	-200,000	-0,007	0,110
-154,920	183,224	0,020	0,022
-153,906	-95,881	0,142	-0,027
-152,891	-72,303	-0,065	0,017
-151,877	-77,201	0,023	-0,006
-150,862	20,605	0,116	-0,067
-149,847	114,904	-0,184	-0,159
-148,833	-200,000	-0,015	0,073
-147,818	40,423	-0,070	0,045
-146,804	-17,172	0,071	0,032
-145,789	800,000	-0,009	-0,027
-144,775	651,043	-0,030	-0,055
-143,760	-148,323	-0,095	-0,005
-142,745	66,881	-0,049	-0,035
-141,731	-200,000	-0,007	0,082
-140,716	800,000	-0,029	0,074
-139,702	-200,000	-0,014	0,178
-138,687	800,000	0,032	0,093
-137,672	-20,380	0,007	0,003
-136,658	611,724	0,022	-0,039
-135,643	65,456	-0,124	0,089
-134,629	-200,000	0,025	-0,128
-133,614	-84,827	-0,117	-0,026
-132,599	477,167	-0,052	0,083
-131,585	-94,136	0,042	0,008
-130,570	-30,926	-0,077	0,031
-129,556	24,313	0,075	-0,044
-128,541	346,120	-0,031	0,044
-127,526	-40,803	0,148	0,054
-126,512	799,984	0,051	0,101
-125,497	397,711	-0,011	0,016
-124,483	-200,000	-0,011	0,082
-123,468	-200,000	-0,002	0,117
-122,453	-60,794	-0,172	0,051
-121,439	800,000	0,020	-0,045
-120,424	-200,000	-0,029	0,113
-119,410	383,178	0,022	0,032
-118,395	-2,692	0,116	0,057
-117,380	800,000	0,044	-0,115
-116,366	-35,788	0,106	0,041
-115,351	157,686	0,063	0,062
-114,337	-13,737	-0,043	0,020
-113,322	14,591	-0,127	-0,070
-112,307	556,877	0,079	-0,136
-111,293	224,285	0,069	0,079
-110,278	-71,115	0,059	0,016
-109,264	353,060	0,079	-0,112
-108,249	800,000	-0,057	-0,137
-107,234	-64,491	0,103	-0,030
-106,220	358,399	0,064	0,091
-105,205	123,377	-0,152	0,136
-104,191	-200,000	0,010	0,049
-103,176	-40,058	0,035	0,013
-102,162	470,660	0,042	-0,068
-101,147	115,618	0,039	-0,034
-100,132	27,014	-0,042	-0,025
-99,118	-107,290	-0,124	-0,019
-98,103	47,421	0,128	0,085
-97,089	-200,000	0,005	0,063
-96,074	544,214	0,015	0,026
-95,059	24,345	-0,054	0,031
-94,045	-181,254	-0,041	0,001
-93,030	-132,900	-0,053	0,005
-92,016	800,000	-0,082	0,172
-91,001	-197,772	-0,087	-0,000
-89,986	103,701	0,077	0,064
-88,972	800,000	0,061	0,143
-87,957	11,903	0,087	0,047
-86,943	-200,000	0,032	0,161
-85,928	800,000	0,018	0,052
-84,913	68,554	0,032	-0,023
-83,899	-46,191	0,015	-0,005
-82,884	-17,517	0,200	-0,089
-81,870	-159,628	0,156	-0,006
-80,855	115,249	0,066	-0,057
-79,840	800,000	0,013	0,028
-78,826	70,821	-0,028	-0,021
-77,811	-200,000	0,019	0,072
-76,797	-55,299	-0,110	-0,035
-75,782	215,361	-0,106	0,119
-74,767	364,724	-0,057	0,081
-73,753	220,320	0,021	-0,023
-72,738	-162,058	0,063	-0,002
-71,724	105,253	-0,008	-0,007
-70,709	-146,222	-0,022	-0,001
-69,694	-124,060	-0,206	0,023
-68,680	129,773	-0,061	0,055
-67,665	-32,586	0,048	-0,019
-66,651	128,094	0,113	0,102
-65,636	-80,427	-0,032	0,008
-64,622	44,693	-0,049	-0,032
-63,607	-133,197	-0,137	-0,012
-62,592	-14,297	-0,069	-0,031
-61,578	165,340	-0,055	0,055
-60,563	-68,344	-0,071	0,019
-59,549	159,221	-0,106	0,104
-58,534	-6,894	-1,597	-0,766
-57,519	400,679	-1,428	-2,128
-56,505	-200,000	-0,506	-4,608
-55,490	235,132	0,866	1,014
-54,476	800,000	4,923	11,494
-53,461	-200,000	19,133	319,770
-52,446	-200,000	740,603	2334,531
-51,432	573,693	1655,563	2869,828
-50,417	78,194	1671,230	1261,495
-49,403	21,244	1544,179	885,452
-48,388	15,180	1466,372	811,345
-47,373	17,932	1456,722	819,272
-46,359	16,641	1446,521	807,314
-45,344	13,381	1441,904	789,088
-44,330	13,339	1439,974	787,800
-43,315	13,381	1437,983	786,879
-42,300	13,346	1436,601	785,924
-41,286	13,376	1435,257	785,301
-40,271	13,302	1434,000	784,231
-39,257	13,327	1432,720	783,615
-38,242	13,389	1431,299	783,102
-37,227	13,396	1430,145	782,473
-36,213	13,390	1428,878	781,722
-35,198	13,396	1427,608	781,023
-34,184	13,414	1426,787	780,630
-33,169	13,361	1425,533	779,660
-32,154	13,390	1424,453	779,178
-31,140	13,410	1422,989	778,439
-30,125	13,424	1421,972	777,916
-29,111	13,406	1420,904	777,221
-28,096	13,354	1419,790	776,333
-27,082	13,341	1418,546	775,563
-26,067	13,345	1417,493	774,973
-25,052	13,315	1416,550	774,286
-24,038	13,279	1415,602	773,567
-23,023	13,320	1414,276	773,003
-22,009	13,305	1413,440	772,448
-20,994	13,270	1412,505	771,739
-19,979	13,293	1411,738	771,399
-18,965	13,315	1410,763	770,936
-17,950	13,300	1409,666	770,236
-16,936	13,279	1408,812	769,644
-15,921	13,223	1407,912	768,857
-14,906	13,239	1406,718	768,249
-13,892	13,256	1406,031	767,925
-12,877	13,262	1405,124	767,425
-11,863	13,188	1404,172	766,533
-10,848	13,191	1403,410	766,099
-9,833	13,148	1402,446	765,342
-8,819	13,118	1401,703	764,767
-7,804	13,137	1400,660	764,254
-6,790	13,154	1399,825	763,847
-5,775	13,194	1398,413	763,232
-4,760	13,140	1397,435	762,416
-3,746	13,110	1396,725	761,863
-2,731	13,072	1395,895	761,201
-1,717	13,074	1394,974	760,678
-0,702	13,112	1393,192	759,851
0,313	16,988	1310,087	732,473
1,327	33,182	703,960	431,024
2,342	51,341	123,275	82,679
3,356	4,424	16,694	8,632
4,371	11,690	3,292	1,782
5,386	-38,627	0,600	0,223
6,400	800,000	0,070	0,191
7,415	136,728	-0,197	-0,182
8,429	61,763	-0,230	-0,161
9,444	-167,743	-0,308	0,008
10,459	55,711	-0,369	-0,253
11,473	5,930	-0,230	-0,120
12,488	-70,860	-0,339	-0,090
13,502	-65,084	-0,261	-0,074
14,517	101,053	-0,316	-0,260
15,531	65,443	-0,301	-0,215
16,546	104,744	-0,303	-0,252
17,561	152,498	-0,439	-0,424
18,575	27,114	-0,202	-0,120
19,590	176,065	-0,241	-0,248
20,604	57,086	-0,258	-0,178
21,619	38,060	-0,485	-0,304
22,634	62,235	-0,443	-0,312
23,648	77,182	-0,474	-0,355
24,663	268,937	-0,290	-0,359
25,677	20,960	-0,462	-0,264
26,692	65,798	-0,390	-0,278
27,707	84,273	-0,357	-0,275
28,721	36,840	-0,390	-0,243
29,736	82,565	-0,445	-0,341
30,750	56,427	-0,449	-0,308
31,765	81,669	-0,392	-0,299
32,780	-10,134	-0,403	-0,188
33,794	35,416	-0,345	-0,213
34,809	-29,343	-0,361	-0,145
35,823	245,327	-0,297	-0,353
36,838	179,245	-0,325	-0,335
37,853	62,079	-0,388	-0,273
38,867	61,773	-0,366	-0,256
39,882	38,560	-0,347	-0,218
40,896	-70,296	-0,383	-0,102
41,911	80,895	-0,318	-0,242
42,926	304,831	-0,211	-0,277
43,940	12,690	-0,492	-0,267
44,955	154,466	-0,335	-0,324
45,969	389,965	-0,143	-0,210
46,984	67,202	-0,401	-0,288
47,999	253,783	-0,224	-0,271
49,013	-9,273	-0,301	-0,141
50,028	-1,159	-0,243	-0,120
51,042	39,434	-0,339	-0,213
52,057	21,161	-0,356	-0,203
53,071	10,604	-0,293	-0,157
54,086	-52,005	-0,446	-0,145
55,101	331,358	-0,184	-0,250
56,115	337,617	-0,234	-0,321
57,130	67,040	-0,227	-0,163
58,144	9,553	-0,464	-0,246
59,159	495,175	-0,220	-0,357
60,174	22,632	-0,393	-0,226
61,188	27,580	-0,332	-0,196
62,203	60,722	-0,273	-0,190
63,217	109,854	-0,267	-0,226
64,232	-0,645	-0,305	-0,152
65,247	121,677	-0,249	-0,218
66,261	161,641	-0,290	-0,286
67,276	-22,709	-0,330	-0,140
68,290	-60,370	-0,421	-0,125
69,305	67,186	-0,326	-0,233
70,320	-36,782	-0,343	-0,129
71,334	63,909	-0,310	-0,219
72,349	37,976	-0,397	-0,248
73,363	4,871	-0,403	-0,208
74,378	79,873	-0,349	-0,263
75,393	110,900	-0,296	-0,250
76,407	-93,427	-0,267	-0,051
77,422	16,499	-0,188	-0,104
78,436	42,033	-0,220	-0,140
79,451	306,066	-0,181	-0,237
80,466	28,188	-0,301	-0,178
81,480	113,751	-0,256	-0,218
82,495	63,846	-0,356	-0,251
83,509	-32,205	-0,253	-0,099
84,524	159,665	-0,204	-0,199
85,539	-48,265	-0,324	-0,109
86,553	-194,233	-0,394	0,002
87,568	173,058	-0,223	-0,226
88,582	87,186	-0,257	-0,199
89,597	113,231	-0,340	-0,289
90,611	83,151	-0,290	-0,222
91,626	40,796	-0,251	-0,159
92,641	53,738	-0,312	-0,210
93,655	372,408	-0,163	-0,233
94,670	219,086	-0,197	-0,221
95,684	153,395	-0,335	-0,322
96,699	47,952	-0,255	-0,167
97,714	-11,914	-0,334	-0,153
98,728	-40,358	-0,253	-0,092
99,743	199,348	-0,179	-0,192
100,757	202,438	-0,206	-0,224
101,772	445,097	-0,203	-0,314
102,787	160,890	-0,214	-0,210
103,801	72,675	-0,339	-0,248
104,816	132,621	-0,142	-0,129
105,830	87,569	-0,292	-0,227
106,845	-41,236	-0,285	-0,103
107,860	-125,618	-0,249	0,026
108,874	-40,492	-0,331	-0,120
109,889	43,399	-0,311	-0,199
110,903	-29,704	-0,400	-0,159
111,918	198,042	-0,249	-0,267
112,933	52,364	-0,275	-0,183
113,947	-31,522	-0,311	-0,122
114,962	16,969	-0,233	-0,129
115,976	-13,986	-0,268	-0,121
116,991	-40,014	-0,289	-0,105
118,006	-108,821	-0,337	-0,050
119,020	81,071	-0,301	-0,227
120,035	409,166	-0,172	-0,256
121,049	-8,545	-0,295	-0,138
122,064	-14,740	-0,272	-0,122
123,079	-10,146	-0,290	-0,134
124,093	175,578	-0,221	-0,225
125,108	34,455	-0,243	-0,148
126,122	234,671	-0,202	-0,233
127,137	305,566	-0,157	-0,205
128,151	42,214	-0,215	-0,136
129,166	127,795	-0,282	-0,251
130,181	6,946	-0,275	-0,143
131,195	-70,058	-0,260	-0,069
132,210	40,250	-0,310	-0,195
133,224	-59,986	-0,209	-0,062
134,239	-41,240	-0,294	-0,105
135,254	303,113	-0,144	-0,187
136,268	-138,584	-0,178	-0,013
137,283	-109,962	-0,187	-0,027
138,297	-68,012	-0,208	-0,056
139,312	111,006	-0,246	-0,207
140,327	-73,440	-0,260	-0,066
141,341	768,900	-0,127	-0,242
142,356	131,761	-0,230	-0,207
143,370	-135,461	-0,349	0,029
144,385	-159,769	-0,156	0,006
145,400	57,578	-0,261	-0,178
146,414	-69,065	-0,389	-0,104
147,429	-24,529	-0,187	-0,077
148,443	409,276	-0,112	-0,166
149,458	79,651	-0,221	-0,166
150,473	-56,292	-0,299	-0,092
151,487	3,033	-0,346	-0,175
152,502	128,928	-0,206	-0,184
153,516	7,255	-0,266	-0,138
154,531	-77,522	-0,291	-0,070
155,546	177,870	-0,251	-0,256
156,560	171,937	-0,146	-0,146
157,575	75,501	-0,219	-0,161
158,589	-80,578	-0,318	-0,073
159,604	144,983	-0,214	-0,200
160,619	88,029	-0,246	-0,190
161,633	-10,149	-0,217	-0,100
162,648	442,144	-0,124	-0,190
163,662	-48,464	-0,238	-0,079
164,677	68,506	-0,187	-0,134
165,692	-78,950	-0,413	-0,097
166,706	87,300	-0,120	-0,092
167,721	78,031	-0,215	-0,159
168,735	-49,516	-0,326	-0,108
169,750	65,881	-0,176	-0,124
170,764	-25,641	-0,143	-0,058
171,779	-164,668	-0,218	0,007
172,794	-17,445	-0,278	-0,122
173,808	-108,241	-0,172	-0,026
174,823	-17,769	-0,314	-0,137
175,837	87,492	-0,293	-0,225
176,852	-4,624	-0,203	-0,097
177,867	112,858	-0,249	-0,210
178,881	113,322	-0,207	-0,175
179,896	-26,517	-0,237	-0,096
180,910	-60,500	-0,198	-0,058
181,925	-38,384	-0,224	-0,082
182,940	19,503	-0,244	-0,136
183,954	-57,981	-0,239	-0,072
184,969	173,894	-0,204	-0,206
185,983	111,526	-0,150	-0,126
186,998	-94,547	-0,167	-0,031
188,013	-113,420	-0,161	-0,022
189,027	111,622	-0,300	-0,252
190,042	140,937	-0,216	-0,199
191,056	54,925	-0,248	-0,166
192,071	173,270	-0,139	-0,140
193,086	66,362	-0,247	-0,174
194,100	4,801	-0,312	-0,159
195,115	54,291	-0,189	-0,126
196,129	-77,415	-0,204	-0,049
197,144	93,423	-0,235	-0,185
198,159	33,484	-0,273	-0,164
199,173	4,296	-0,127	-0,065
200,188	-59,581	-0,204	-0,060
201,202	-61,540	-0,126	-0,037
202,217	254,838	-0,146	-0,174
203,232	800,000	-0,101	-0,221
204,246	31,737	-0,301	-0,179
205,261	-68,135	-0,152	-0,041
206,275	-62,561	-0,247	-0,071
207,290	583,362	-0,115	-0,198
208,304	151,102	-0,106	-0,100
209,319	64,358	-0,116	-0,081
210,334	-1,660	-0,255	-0,124
211,348	539,353	-0,214	-0,355
212,363	140,601	-0,265	-0,243
213,377	-200,000	0,027	-0,207
214,392	-48,092	-0,298	-0,099
215,407	-95,095	-0,282	-0,052
216,421	-90,451	-0,303	0,061
217,436	-17,894	-0,309	-0,134
218,450	-20,572	-0,299	-0,127
219,465	76,213	-0,214	-0,157
220,480	147,209	-0,193	-0,180
221,494	130,079	-0,119	-0,106
222,509	177,726	-0,126	-0,128
223,523	-186,220	-0,150	0,001
224,538	234,236	-0,215	-0,246
225,553	192,304	-0,181	-0,189
226,567	22,896	-0,238	-0,135
227,582	68,693	-0,238	-0,169
228,596	22,508	-0,210	-0,119
229,611	800,000	-0,041	-0,080
230,626	-115,214	-0,162	0,021
231,640	39,790	-0,221	-0,137
232,655	614,639	-0,107	-0,186
233,669	699,348	-0,187	-0,342
234,684	-84,271	-0,210	-0,046
235,699	104,584	-0,261	-0,213
236,713	82,196	-0,209	-0,157
237,728	93,533	-0,233	-0,182
238,742	-168,941	-0,233	-0,006
239,757	13,909	-0,325	-0,174
240,772	74,639	-0,224	-0,163
241,786	607,369	-0,179	-0,310
242,801	72,406	-0,139	-0,100
243,815	22,622	-0,147	-0,083
244,830	800,000	-0,082	-0,158
245,844	1,213	-0,178	-0,088
246,859	104,347	-0,164	-0,134
247,874	56,901	-0,198	-0,133
248,888	678,966	-0,062	-0,112
249,903	-4,341	-0,231	-0,110
250,917	-21,304	-0,181	-0,076
251,932	82,341	-0,136	-0,102
252,947	-52,706	-0,130	0,041
253,961	219,063	-0,121	-0,134
254,976	154,336	-0,179	-0,170
255,990	64,642	-0,234	-0,163
257,005	-17,137	-0,172	-0,075
258,020	-26,143	-0,239	0,097
259,034	-87,446	-0,102	0,021
260,049	73,509	-0,311	-0,225
261,063	285,527	-0,224	-0,280
262,078	-143,335	-0,173	-0,011
263,093	-43,875	-0,262	-0,091
264,107	89,790	-0,155	-0,120
265,122	131,149	-0,181	0,161
266,136	-43,972	-0,182	-0,063
267,151	-110,391	-0,114	0,016
268,166	758,269	-0,092	-0,172
269,180	30,822	-0,129	-0,076
270,195	-17,727	-0,181	-0,078
271,209	-85,660	-0,086	0,018
272,224	270,180	-0,122	-0,148
273,239	-48,732	-0,198	-0,065
274,253	-12,695	-0,147	0,066
275,268	800,000	-0,074	-0,154
276,282	126,767	-0,169	-0,147
277,297	68,391	-0,205	-0,145
278,312	490,249	-0,112	-0,178
279,326	-86,668	-0,164	-0,034
280,341	375,902	-0,134	-0,189
281,355	-200,000	-0,046	-0,243
282,370	335,395	-0,134	-0,180
283,384	-90,081	-0,243	-0,048
284,399	25,522	-0,175	-0,100
285,414	255,063	-0,116	-0,137
286,428	-200,000	-0,036	-0,115
287,443	-41,941	-0,214	-0,075
288,457	-35,644	-0,194	-0,072
289,472	338,827	-0,076	-0,103
290,487	231,861	-0,249	-0,283
291,501	120,120	-0,155	-0,132
292,516	-153,635	-0,226	0,011
293,530	800,000	-0,125	-0,265
294,545	227,432	-0,054	-0,060
295,560	-129,838	-0,189	-0,018
296,574	249,880	-0,162	-0,190
297,589	519,997	-0,159	-0,258
298,603	-17,615	-0,183	-0,079
299,618	60,569	-0,124	-0,085
300,633	65,018	-0,143	-0,100
301,647	-71,816	-0,207	-0,053
302,662	107,391	-0,155	-0,127
303,676	-136,198	-0,161	-0,013
304,691	-1,301	-0,064	-0,031
305,706	95,742	-0,118	-0,093
306,720	-85,411	-0,144	-0,031
307,735	-7,437	-0,213	-0,099
308,749	58,709	-0,130	-0,088
309,764	-60,280	-0,155	0,045
310,779	-98,710	-0,112	-0,019
311,793	55,805	-0,130	-0,087
312,808	361,212	-0,104	-0,144
313,822	200,388	-0,119	-0,126
314,837	-34,833	-0,079	-0,030
315,852	90,790	-0,058	0,045
316,866	318,297	-0,175	-0,228
317,881	-159,459	-0,131	-0,005
318,895	51,269	-0,215	-0,140
319,910	76,216	-0,242	-0,176
320,925	245,548	-0,088	-0,102
321,939	6,580	-0,043	-0,022
322,954	-158,321	-0,210	-0,008
323,968	-54,163	-0,126	-0,039
324,983	498,934	-0,049	-0,078
325,997	-5,430	-0,266	-0,125
327,012	455,911	-0,199	-0,305
328,027	-17,812	-0,212	-0,091
329,041	96,450	-0,103	-0,081
330,056	662,674	-0,076	-0,135
331,070	98,792	-0,131	-0,104
332,085	157,554	-0,180	-0,171
333,100	-170,701	-0,124	0,003
334,114	-77,120	-0,120	-0,029
335,129	-75,281	-0,244	-0,059
336,143	-149,908	-0,262	0,014
337,158	-140,218	-0,114	0,008
338,173	-1,295	-0,062	0,030
339,187	24,390	-0,056	-0,032
340,202	242,252	-0,074	-0,085
341,216	53,802	-0,127	-0,084
342,231	26,791	-0,202	-0,116
343,246	-13,056	-0,162	-0,072
344,260	-140,630	-0,111	-0,008
345,275	-200,000	-0,067	-0,259
346,289	266,384	-0,163	-0,196
347,304	79,615	-0,121	-0,089
348,319	-35,344	-0,095	-0,035
349,333	-200,000	-0,031	-0,152
350,348	196,223	-0,131	-0,136
351,362	-200,000	-0,038	-0,249
352,377	800,000	-0,043	-0,090
353,392	199,404	-0,111	-0,117
354,406	300,089	-0,138	-0,174
355,421	210,916	1312,327	1416,843
356,435	162,390	1472,759	1417,338
