DTS Sentinel unit serial number:	SN410029Multiplexer serial number:	ORYXHardware model number:	OX2-SRSoftware version number:	ORYX F/W v4,00 Oryx Data Collector v3.7.2.0data status	okinstallation	B3 Nyhavnadifferential loss correction	single-endedforward channel	channel 1reverse channel	N/Adate	2023/11/30time	20:52:30forward acquisition time	300,00reverse acquisition time	0,00gamma	499,1914k internal	0,3209k external	0,3209temperature offset calibration	1,0000default loss term (dB/km)	0,3820temperature slope calibration	1,0000multiplexer offset coefficient	1,0000multiplexer slope coefficient	1,0000fibre end	0,00T internal ref (°C)	10,99T ext. ref 1 (°C)	-4,37T ext. ref 2 (°C)	-4,49length (m)	temperature (°C)	Stokes	anti-Stokes-744,400	676,898	-0,111	-0,210
-743,385	-200,000	0,045	0,293
-742,371	720,674	-0,091	-0,176
-741,356	800,000	0,092	0,265
-740,342	800,000	-0,019	-0,041
-739,327	-200,000	-0,037	0,288
-738,312	510,894	-0,170	-0,288
-737,298	-200,000	-0,025	0,215
-736,283	447,307	-0,080	-0,128
-735,269	-200,000	0,002	0,214
-734,254	536,036	-0,144	-0,250
-733,239	-26,291	-0,360	0,153
-732,225	800,000	-0,116	-0,233
-731,210	247,454	0,103	0,127
-730,196	206,418	-0,123	0,139
-729,181	800,000	0,028	0,081
-728,167	719,632	-0,076	-0,147
-727,152	800,000	0,035	0,090
-726,137	-105,094	-0,203	0,033
-725,123	424,208	-0,092	-0,144
-724,108	-79,453	-0,104	-0,025
-723,094	-140,613	-0,154	0,011
-722,079	-27,971	0,034	0,014
-721,064	-105,396	-0,086	0,014
-720,050	190,874	-0,075	-0,082
-719,035	225,360	-0,132	0,155
-718,021	29,133	-0,013	-0,008
-717,006	-200,000	-0,009	-0,125
-715,991	185,221	-0,046	-0,049
-714,977	800,000	-0,032	0,069
-713,962	-42,797	-0,107	0,039
-712,948	-90,141	-0,026	-0,005
-711,933	-146,999	-0,081	0,005
-710,918	800,000	-0,030	0,077
-709,904	9,919	0,022	0,012
-708,889	0,805	-0,081	0,042
-707,875	155,388	-0,069	-0,069
-706,860	-200,000	-0,017	-0,061
-705,845	304,322	-0,020	-0,027
-704,831	370,857	0,025	0,037
-703,816	255,414	-0,038	-0,047
-702,802	800,000	-0,052	-0,123
-701,787	-200,000	0,046	-0,237
-700,772	105,045	-0,072	0,061
-699,758	169,784	-0,089	-0,092
-698,743	278,200	-0,046	-0,059
-697,729	-21,363	0,058	-0,026
-696,714	276,813	0,030	-0,039
-695,699	-167,965	-0,124	0,003
-694,685	209,678	-0,103	-0,117
-693,670	66,933	-0,067	-0,049
-692,656	-51,479	0,090	0,030
-691,641	54,569	0,254	0,177
-690,627	-158,602	-0,107	0,004
-689,612	-76,313	-0,158	0,040
-688,597	-66,833	-0,092	0,026
-687,583	507,238	-0,049	-0,083
-686,568	-200,000	-0,011	-0,150
-685,554	-200,000	0,019	-0,093
-684,539	-36,778	0,088	-0,034
-683,524	-46,188	0,099	-0,035
-682,510	-53,298	0,070	0,023
-681,495	394,764	-0,067	0,101
-680,481	800,000	-0,041	0,107
-679,466	-200,000	0,002	-0,122
-678,451	800,000	0,086	-0,185
-677,437	389,930	-0,029	0,044
-676,422	-92,399	-0,139	0,028
-675,408	646,677	-0,019	0,036
-674,393	-48,053	0,165	0,058
-673,378	307,062	0,101	-0,136
-672,364	709,659	-0,029	0,057
-671,349	515,785	0,037	-0,063
-670,335	800,000	0,032	-0,097
-669,320	647,048	-0,058	-0,107
-668,305	-27,955	-0,010	0,004
-667,291	-99,931	0,077	0,014
-666,276	-200,000	-0,003	-0,083
-665,262	300,524	-0,095	-0,126
-664,247	-93,160	-0,153	-0,030
-663,232	-200,000	0,016	0,106
-662,218	130,236	0,028	0,026
-661,203	298,357	-0,043	-0,058
-660,189	-62,576	-0,034	-0,010
-659,174	35,018	0,055	-0,035
-658,159	-200,000	0,004	-0,090
-657,145	110,152	0,035	-0,030
-656,130	242,966	-0,016	0,019
-655,116	800,000	0,023	0,055
-654,101	11,495	-0,125	0,069
-653,086	122,871	0,047	-0,043
-652,072	253,923	-0,105	-0,130
-651,057	406,018	-0,076	-0,116
-650,043	800,000	0,031	-0,096
-649,028	800,000	-0,025	-0,067
-648,014	-200,000	-0,016	0,083
-646,999	-167,087	0,101	-0,003
-645,984	800,000	0,046	0,121
-644,970	153,829	-0,116	-0,115
-643,955	-200,000	0,022	-0,178
-642,941	-200,000	0,015	-0,055
-641,926	44,381	-0,051	-0,034
-640,911	423,509	0,069	0,108
-639,897	212,816	0,045	0,051
-638,882	-200,000	0,020	-0,090
-637,868	-200,000	0,021	0,086
-636,853	776,893	-0,081	-0,161
-635,838	800,000	0,040	0,099
-634,824	151,261	0,058	-0,057
-633,809	336,808	0,016	0,023
-632,795	-139,803	-0,091	0,007
-631,780	6,272	-0,102	0,055
-630,765	240,349	0,121	-0,146
-629,751	-200,000	0,015	-0,080
-628,736	445,889	-0,007	-0,011
-627,722	-35,159	-0,082	0,032
-626,707	-80,169	-0,059	-0,014
-625,692	-30,889	0,088	0,036
-624,678	-13,751	0,071	-0,033
-623,663	55,460	0,071	0,050
-622,649	800,000	-0,022	-0,051
-621,634	-200,000	-0,007	-0,105
-620,619	387,441	0,082	-0,123
-619,605	249,038	0,130	-0,159
-618,590	-184,587	-0,153	-0,002
-617,576	18,435	-0,128	-0,074
-616,561	314,464	-0,049	0,066
-615,546	87,513	-0,053	-0,042
-614,532	-200,000	-0,009	-0,088
-613,517	96,788	0,073	0,061
-612,503	47,548	-0,011	-0,007
-611,488	-200,000	-0,008	0,028
-610,474	188,126	0,060	0,065
-609,459	109,968	0,032	-0,028
-608,444	73,484	-0,138	-0,104
-607,430	120,913	-0,073	-0,066
-606,415	-200,000	0,019	-0,156
-605,401	-152,347	0,197	-0,010
-604,386	-1,020	-0,023	-0,012
-603,371	48,648	-0,067	0,045
-602,357	-200,000	0,011	0,053
-601,342	-56,932	-0,154	-0,049
-600,328	800,000	0,066	-0,181
-599,313	116,903	-0,051	-0,045
-598,298	88,668	0,064	0,051
-597,284	-200,000	0,003	0,020
-596,269	32,788	0,120	-0,075
-595,255	-200,000	-0,052	0,203
-594,240	800,000	-0,073	0,159
-593,225	242,399	0,108	-0,130
-592,211	82,836	-0,034	-0,027
-591,196	-174,720	0,099	-0,002
-590,182	122,125	0,159	-0,144
-589,167	114,320	0,096	0,085
-588,152	16,840	0,100	0,057
-587,138	-200,000	0,016	0,117
-586,123	55,053	-0,124	0,086
-585,109	-200,000	0,031	-0,145
-584,094	-77,773	0,092	0,023
-583,079	75,781	-0,106	-0,081
-582,065	86,639	-0,081	0,064
-581,050	-200,000	0,018	0,235
-580,036	27,037	0,084	0,051
-579,021	151,805	-0,111	-0,109
-578,006	30,415	0,109	-0,067
-576,992	-200,000	0,011	-0,099
-575,977	113,413	-0,044	0,039
-574,963	-200,000	0,007	0,049
-573,948	-200,000	0,022	0,115
-572,934	84,410	-0,085	0,067
-571,919	-1,761	0,053	-0,027
-570,904	800,000	-0,008	-0,025
-569,890	-200,000	0,000	0,114
-568,875	391,555	-0,047	-0,071
-567,861	-72,201	-0,016	-0,004
-566,846	800,000	0,068	0,176
-565,831	59,104	-0,066	-0,046
-564,817	800,000	-0,056	-0,138
-563,802	108,045	-0,050	0,043
-562,788	-200,000	-0,004	-0,120
-561,773	-160,006	-0,039	-0,002
-560,758	-27,264	0,085	-0,035
-559,744	-200,000	0,036	-0,143
-558,729	-34,073	-0,027	-0,011
-557,715	-177,474	-0,087	0,002
-556,700	25,282	-0,086	0,051
-555,685	-60,088	-0,091	0,028
-554,671	-200,000	-0,011	0,111
-553,656	-200,000	0,002	0,136
-552,642	-90,355	0,084	-0,017
-551,627	-200,000	0,014	0,114
-550,612	181,667	0,138	-0,146
-549,598	-200,000	-0,128	-0,000
-548,583	68,219	0,046	-0,034
-547,569	517,452	0,020	0,034
-546,554	-85,971	0,083	-0,018
-545,539	800,000	0,067	0,180
-544,525	-161,199	0,077	-0,003
-543,510	-0,447	-0,064	0,033
-542,496	-200,000	0,003	-0,015
-541,481	800,000	0,015	-0,035
-540,466	-200,000	-0,011	-0,082
-539,452	156,435	0,052	0,052
-538,437	800,000	0,047	0,116
-537,423	-200,000	0,036	0,175
-536,408	-18,307	-0,120	-0,054
-535,393	-37,233	-0,187	0,071
-534,379	-31,035	0,088	0,036
-533,364	-75,867	-0,136	0,034
-532,350	76,075	-0,129	0,098
-531,335	-200,000	0,021	0,071
-530,321	-43,750	0,192	0,069
-529,306	72,760	-0,042	0,032
-528,291	-200,000	0,011	-0,061
-527,277	-200,000	-0,049	-0,249
-526,262	-200,000	0,004	-0,120
-525,248	7,870	0,058	0,031
-524,233	-36,639	0,123	0,047
-523,218	-200,000	-0,015	0,074
-522,204	-200,000	-0,009	0,077
-521,189	782,441	-0,056	0,111
-520,175	-91,046	-0,117	0,024
-519,160	-200,000	0,008	-0,068
-518,145	279,453	0,040	0,052
-517,131	46,450	0,084	0,056
-516,116	162,432	-0,118	0,119
-515,102	-101,916	-0,031	-0,005
-514,087	290,080	0,003	0,004
-513,072	354,014	-0,045	-0,065
-512,058	190,922	0,053	-0,057
-511,043	-200,000	-0,013	0,151
-510,029	800,000	0,035	0,074
-509,014	800,000	0,030	-0,072
-507,999	78,361	-0,151	-0,116
-506,985	-13,513	-0,124	0,058
-505,970	33,934	0,096	-0,060
-504,956	-54,840	-0,063	-0,020
-503,941	143,578	-0,066	0,063
-502,926	-182,013	0,195	0,003
-501,912	-200,000	0,047	0,173
-500,897	81,834	-0,044	0,035
-499,883	1,033	-0,051	0,026
-498,868	800,000	-0,030	0,074
-497,853	304,967	0,065	-0,087
-496,839	-149,815	-0,160	-0,009
-495,824	800,000	0,071	0,161
-494,810	-46,582	-0,145	-0,051
-493,795	-145,804	0,147	0,009
-492,781	-200,000	-0,039	0,166
-491,766	-200,000	0,003	0,084
-490,751	-132,575	-0,064	-0,006
-489,737	-91,084	-0,151	-0,031
-488,722	-105,642	0,126	-0,020
-487,708	-23,764	-0,084	-0,036
-486,693	244,639	0,043	-0,051
-485,678	-200,000	-0,002	0,032
-484,664	-200,000	-0,016	-0,100
-483,649	-200,000	-0,000	-0,091
-482,635	-4,575	0,071	-0,035
-481,620	77,863	0,077	0,059
-480,605	-128,560	0,088	0,009
-479,591	-77,145	-0,059	0,015
-478,576	-200,000	-0,045	0,152
-477,562	49,429	-0,056	0,038
-476,547	41,554	-0,113	-0,073
-475,532	33,765	0,086	-0,053
-474,518	-147,048	-0,105	0,006
-473,503	159,943	-0,028	0,028
-472,489	-200,000	0,012	0,088
-471,474	77,153	0,044	0,034
-470,459	120,006	0,031	0,028
-469,445	317,874	0,075	-0,102
-468,430	24,834	-0,068	0,041
-467,416	503,704	0,058	0,097
-466,401	800,000	-0,029	0,070
-465,386	489,480	-0,049	-0,081
-464,372	58,310	-0,033	0,023
-463,357	106,065	-0,076	-0,065
-462,343	-129,013	-0,136	0,013
-461,328	31,555	0,115	-0,071
-460,313	142,543	-0,071	0,067
-459,299	116,000	0,061	0,054
-458,284	454,663	0,053	-0,084
-457,270	-113,296	-0,066	0,009
-456,255	-200,000	0,003	-0,055
-455,241	-121,348	-0,049	0,006
-454,226	-200,000	0,016	0,072
-453,211	350,480	-0,060	0,085
-452,197	2,590	-0,162	0,084
-451,182	-191,828	0,068	-0,000
-450,168	-200,000	-0,025	-0,099
-449,153	436,649	-0,038	-0,059
-448,138	-64,087	-0,054	-0,016
-447,124	-68,762	0,069	-0,019
-446,109	-153,267	-0,114	0,006
-445,095	269,163	0,111	-0,140
-444,080	-139,923	0,195	-0,015
-443,065	800,000	-0,033	0,102
-442,051	375,696	-0,055	-0,081
-441,036	800,000	-0,024	-0,051
-440,022	556,496	-0,087	-0,151
-439,007	101,282	0,091	0,076
-437,992	176,916	0,055	-0,057
-436,978	388,055	0,050	0,075
-435,963	-92,835	-0,046	0,009
-434,949	228,138	-0,030	0,035
-433,934	-200,000	-0,008	-0,082
-432,919	2,550	0,083	-0,043
-431,905	-200,000	0,002	-0,121
-430,890	-47,187	0,042	0,015
-429,876	-200,000	0,022	0,103
-428,861	-126,622	0,179	-0,019
-427,846	-200,000	-0,021	-0,067
-426,832	55,869	-0,052	0,036
-425,817	-4,394	-0,141	-0,070
-424,803	800,000	0,063	-0,162
-423,788	118,469	-0,039	-0,035
-422,773	-66,126	0,114	0,032
-421,759	-200,000	0,003	0,099
-420,744	-200,000	-0,015	-0,055
-419,730	-64,068	-0,196	0,057
-418,715	-200,000	-0,028	-0,092
-417,701	-200,000	0,002	0,053
-416,686	251,109	-0,022	-0,027
-415,671	8,309	0,079	0,043
-414,657	-59,906	-0,089	0,027
-413,642	-200,000	0,000	0,083
-412,628	793,305	0,060	-0,118
-411,613	-131,105	-0,106	-0,010
-410,598	-63,741	-0,074	0,022
-409,584	-44,352	-0,077	-0,027
-408,569	800,000	0,004	-0,013
-407,555	183,363	0,012	-0,012
-406,540	244,193	-0,032	-0,039
-405,525	800,000	-0,078	0,200
-404,511	81,890	-0,137	0,106
-403,496	205,646	0,094	-0,105
-402,482	113,048	0,096	0,084
-401,467	66,729	0,168	-0,122
-400,452	22,679	0,104	-0,061
-399,438	620,670	-0,048	-0,087
-398,423	248,657	-0,055	0,066
-397,409	-54,931	0,069	0,022
-396,394	-10,224	-0,059	0,028
-395,379	-200,000	0,012	0,049
-394,365	800,000	-0,033	-0,069
-393,350	543,020	0,031	-0,053
-392,336	-94,388	-0,091	0,018
-391,321	409,515	0,029	-0,044
-390,306	238,103	-0,024	0,029
-389,292	38,246	0,108	0,069
-388,277	21,296	0,100	-0,058
-387,263	162,866	-0,070	0,070
-386,248	-200,000	0,004	-0,201
-385,233	-64,847	-0,065	-0,019
-384,219	-200,000	-0,032	0,123
-383,204	94,933	0,011	-0,009
-382,190	800,000	0,015	0,031
-381,175	-200,000	0,057	-0,223
-380,160	279,653	0,037	0,048
-379,146	-1,235	0,017	0,009
-378,131	-41,208	-0,110	-0,041
-377,117	-14,728	-0,151	0,069
-376,102	-126,414	-0,097	0,010
-375,088	639,379	-0,010	-0,018
-374,073	-200,000	0,048	-0,171
-373,058	-52,225	-0,055	0,018
-372,044	-193,125	0,100	0,001
-371,029	120,107	-0,064	-0,057
-370,015	-50,205	-0,040	-0,014
-369,000	717,830	-0,066	-0,126
-367,985	28,306	-0,098	0,059
-366,971	-200,000	0,027	-0,142
-365,956	-200,000	0,034	-0,139
-364,942	248,652	-0,050	-0,061
-363,927	394,417	0,031	0,047
-362,912	-109,371	-0,027	-0,004
-361,898	-117,721	0,086	-0,011
-360,883	445,826	-0,045	-0,071
-359,869	800,000	0,008	-0,018
-358,854	747,921	-0,042	0,080
-357,839	800,000	-0,023	-0,049
-356,825	-80,862	0,083	-0,020
-355,810	187,374	0,069	0,074
-354,796	-155,147	-0,195	-0,009
-353,781	-200,000	-0,008	-0,041
-352,766	-200,000	-0,003	0,019
-351,752	-173,294	-0,186	0,004
-350,737	94,827	-0,061	0,049
-349,723	458,471	0,083	0,133
-348,708	-155,452	-0,093	-0,004
-347,693	-200,000	0,001	0,122
-346,679	-18,922	0,024	0,011
-345,664	-99,073	-0,118	-0,021
-344,650	-79,380	0,150	0,036
-343,635	-125,777	0,213	-0,023
-342,620	800,000	0,023	-0,049
-341,606	18,830	0,079	0,045
-340,591	-200,000	-0,005	-0,029
-339,577	-15,121	-0,113	-0,051
-338,562	261,360	0,058	-0,071
-337,548	-194,482	-0,084	-0,000
-336,533	-189,061	0,157	-0,001
-335,518	447,853	0,041	0,064
-334,504	-200,000	0,014	0,057
-333,489	372,644	0,066	0,096
-332,475	-109,355	-0,154	0,023
-331,460	66,433	0,063	0,046
-330,445	-200,000	-0,023	-0,198
-329,431	-200,000	-0,002	-0,018
-328,416	-170,938	0,145	-0,003
-327,402	800,000	-0,035	0,105
-326,387	-27,979	-0,071	-0,029
-325,372	-200,000	-0,017	-0,089
-324,358	800,000	-0,031	0,093
-323,343	618,017	-0,046	-0,082
-322,329	0,475	0,091	0,046
-321,314	-32,158	0,056	0,022
-320,299	211,268	-0,030	-0,034
-319,285	800,000	-0,046	-0,108
-318,270	146,556	0,070	-0,067
-317,256	403,514	-0,026	0,039
-316,241	440,835	-0,032	0,050
-315,226	-168,068	0,096	-0,003
-314,212	496,805	0,074	0,121
-313,197	-200,000	0,023	0,182
-312,183	800,000	0,075	0,168
-311,168	-200,000	-0,001	0,020
-310,153	209,408	-0,045	-0,050
-309,139	-102,449	-0,043	0,007
-308,124	800,000	0,047	0,108
-307,110	800,000	-0,052	0,113
-306,095	13,239	-0,085	-0,047
-305,080	-78,715	-0,088	-0,021
-304,066	-53,994	0,037	0,012
-303,051	-200,000	0,038	-0,231
-302,037	21,909	0,123	-0,071
-301,022	27,861	-0,050	-0,030
-300,008	-200,000	0,013	0,176
-298,993	11,195	-0,069	0,037
-297,978	361,880	0,076	0,109
-296,964	-200,000	-0,017	-0,141
-295,949	800,000	0,041	0,115
-294,935	400,131	0,074	0,111
-293,920	-200,000	-0,003	0,085
-292,905	-64,420	0,108	0,031
-291,891	357,618	-0,043	-0,062
-290,876	81,872	0,126	0,097
-289,862	-101,535	0,155	-0,027
-288,847	259,375	-0,076	0,094
-287,832	800,000	-0,026	-0,076
-286,818	-131,778	-0,006	-0,001
-285,803	32,750	0,099	-0,061
-284,789	122,841	-0,043	-0,038
-283,774	-100,728	0,093	0,016
-282,759	359,201	-0,053	-0,076
-281,745	800,000	-0,004	0,012
-280,730	19,474	-0,154	-0,088
-279,716	-200,000	-0,007	-0,073
-278,701	68,483	-0,058	0,042
-277,686	-158,460	0,042	0,002
-276,672	-172,533	0,121	0,003
-275,657	-49,592	-0,123	0,041
-274,643	50,494	0,094	-0,063
-273,628	-141,854	0,085	-0,006
-272,613	-200,000	-0,014	-0,070
-271,599	800,000	0,038	-0,113
-270,584	106,671	-0,044	0,037
-269,570	800,000	0,062	0,141
-268,555	-102,592	-0,170	0,029
-267,540	-26,094	0,134	0,056
-266,526	-200,000	0,003	-0,166
-265,511	-200,000	0,019	-0,094
-264,497	47,006	-0,031	0,021
-263,482	-133,548	0,009	-0,001
-262,467	-6,925	-0,099	-0,048
-261,453	79,751	0,116	-0,089
-260,438	-37,786	-0,116	-0,044
-259,424	460,160	0,044	-0,071
-258,409	186,920	-0,051	0,054
-257,395	-200,000	0,031	-0,098
-256,380	-30,315	0,040	0,016
-255,365	178,276	0,095	0,099
-254,351	434,332	0,053	-0,082
-253,336	358,521	0,022	-0,032
-252,322	269,999	0,077	-0,097
-251,307	123,899	-0,056	0,050
-250,292	12,891	-0,062	-0,034
-249,278	645,518	0,036	0,066
-248,263	123,405	0,010	-0,009
-247,249	-108,873	-0,077	0,012
-246,234	762,404	0,027	-0,052
-245,219	227,083	-0,074	-0,086
-244,205	-109,494	-0,041	-0,006
-243,190	28,632	0,015	0,009
-242,176	317,716	-0,089	0,121
-241,161	-200,000	0,009	-0,038
-240,146	18,458	-0,084	-0,048
-239,132	658,982	-0,084	-0,155
-238,117	-158,444	-0,069	0,003
-237,103	83,150	-0,131	-0,102
-236,088	-6,274	0,100	-0,048
-235,073	-5,981	0,058	-0,028
-234,059	410,179	-0,031	-0,047
-233,044	800,000	0,030	0,061
-232,030	-131,311	0,090	0,008
-231,015	692,239	-0,079	0,148
-230,000	-200,000	0,016	-0,083
-228,986	62,976	0,027	-0,019
-227,971	-133,042	0,080	-0,007
-226,957	168,028	0,104	0,106
-225,942	577,916	-0,020	-0,035
-224,927	-200,000	0,008	0,051
-223,913	-42,860	-0,091	-0,033
-222,898	-83,585	-0,096	-0,022
-221,884	-102,909	-0,042	-0,007
-220,869	20,973	0,094	0,054
-219,855	119,071	0,139	0,122
-218,840	66,923	0,024	0,018
-217,825	-200,000	0,014	0,060
-216,811	80,211	0,123	0,094
-215,796	-64,751	-0,061	-0,018
-214,782	-1,508	0,053	-0,026
-213,767	-23,106	0,044	0,019
-212,752	-200,000	0,011	-0,054
-211,738	-200,000	-0,026	0,115
-210,723	-162,477	0,091	-0,003
-209,709	97,998	-0,052	0,042
-208,694	-85,158	-0,127	0,028
-207,679	800,000	0,082	-0,169
-206,665	-32,584	0,098	0,038
-205,650	-200,000	0,029	0,157
-204,636	115,897	-0,028	-0,025
-203,621	238,287	0,042	0,049
-202,606	163,651	0,093	0,093
-201,592	-11,371	-0,069	-0,032
-200,577	-200,000	-0,003	0,011
-199,563	420,669	-0,052	-0,079
-198,548	-60,533	0,077	0,023
-197,533	800,000	0,040	0,105
-196,519	672,828	-0,035	0,065
-195,504	307,156	-0,067	0,089
-194,490	-200,000	0,008	-0,114
-193,475	443,182	-0,043	-0,067
-192,460	-23,775	-0,064	0,027
-191,446	-120,980	-0,050	-0,006
-190,431	-20,507	0,043	-0,018
-189,417	114,490	0,105	0,090
-188,402	294,065	-0,026	-0,034
-187,387	-160,009	-0,141	0,005
-186,373	326,185	-0,040	-0,055
-185,358	288,716	0,004	-0,005
-184,344	0,549	0,139	0,070
-183,329	-76,448	0,199	0,049
-182,315	-1,105	-0,094	0,047
-181,300	-200,000	-0,008	-0,171
-180,285	330,764	0,007	0,009
-179,271	-68,740	-0,122	-0,033
-178,256	37,900	-0,032	-0,020
-177,242	239,937	0,068	-0,080
-176,227	47,910	0,064	0,042
-175,212	800,000	-0,029	0,062
-174,198	-200,000	0,009	-0,089
-173,183	-111,188	-0,029	0,004
-172,169	-62,353	0,044	0,013
-171,154	39,395	-0,071	0,045
-170,139	-89,775	-0,056	0,011
-169,125	-200,000	0,011	0,065
-168,110	-87,739	0,165	0,035
-167,096	64,251	-0,117	0,084
-166,081	800,000	0,058	-0,137
-165,066	800,000	0,021	-0,050
-164,052	800,000	0,038	0,089
-163,037	-57,823	-0,049	0,015
-162,023	-7,254	0,144	0,069
-161,008	-34,238	0,079	-0,031
-159,993	-71,885	0,069	0,018
-158,979	-25,125	-0,145	0,061
-157,964	-41,083	-0,094	-0,034
-156,950	8,952	-0,010	0,005
-155,935	-67,396	-0,119	0,033
-154,920	-121,792	0,104	0,012
-153,906	-132,718	0,144	-0,013
-152,891	-73,862	-0,078	0,020
-151,877	-0,748	0,096	-0,048
-150,862	-195,123	-0,027	-0,000
-149,847	687,365	-0,064	0,119
-148,833	-59,495	0,139	-0,042
-147,818	-185,222	0,132	-0,001
-146,804	-76,909	-0,057	0,014
-145,789	328,790	0,121	0,165
-144,775	83,062	-0,056	-0,043
-143,760	800,000	-0,027	-0,074
-142,745	-200,000	-0,018	0,092
-141,731	800,000	-0,022	-0,046
-140,716	800,000	-0,041	-0,101
-139,702	107,875	0,061	-0,051
-138,687	-200,000	-0,002	-0,051
-137,672	-200,000	0,035	-0,151
-136,658	800,000	0,040	-0,111
-135,643	213,304	-0,092	-0,103
-134,629	454,705	0,013	0,021
-133,614	273,303	0,065	0,082
-132,599	-28,204	0,075	0,031
-131,585	-193,561	-0,053	0,000
-130,570	-51,264	0,075	0,025
-129,556	295,669	0,068	-0,089
-128,541	-200,000	0,010	0,082
-127,526	-111,276	0,079	0,011
-126,512	-200,000	-0,020	0,093
-125,497	-200,000	0,004	0,094
-124,483	-200,000	0,003	-0,058
-123,468	-91,357	-0,065	-0,013
-122,453	-127,615	-0,124	-0,013
-121,439	-83,121	0,146	-0,033
-120,424	-200,000	0,010	0,133
-119,410	157,452	0,155	-0,152
-118,395	-200,000	-0,001	-0,064
-117,380	800,000	0,033	0,099
-116,366	65,817	-0,054	0,039
-115,351	348,465	-0,087	-0,121
-114,337	-121,376	-0,103	0,012
-113,322	-200,000	-0,028	-0,089
-112,307	-200,000	0,039	0,122
-111,293	743,586	0,059	0,112
-110,278	51,485	-0,008	-0,005
-109,264	11,786	0,003	0,002
-108,249	206,138	-0,062	0,069
-107,234	-200,000	0,027	0,095
-106,220	-44,605	-0,119	0,042
-105,205	48,169	0,090	0,059
-104,191	-200,000	0,024	-0,085
-103,176	336,634	0,046	0,063
-102,162	800,000	-0,040	-0,100
-101,147	800,000	0,040	-0,096
-100,132	-133,859	-0,050	-0,004
-99,118	383,766	0,019	-0,028
-98,103	-200,000	-0,008	-0,135
-97,089	54,056	-0,062	0,042
-96,074	-200,000	0,022	0,124
-95,059	236,287	0,082	0,096
-94,045	-99,118	-0,132	-0,023
-93,030	800,000	0,073	-0,163
-92,016	-59,396	-0,027	-0,008
-91,001	-200,000	0,002	-0,170
-89,986	-200,000	-0,014	0,082
-88,972	11,003	0,247	0,133
-87,957	-24,112	0,146	0,062
-86,943	75,211	0,035	-0,026
-85,928	-57,884	-0,076	-0,023
-84,913	401,183	0,031	0,046
-83,899	-79,862	0,181	-0,043
-82,884	800,000	-0,039	0,117
-81,870	15,474	0,080	0,044
-80,855	-200,000	0,000	0,112
-79,840	-200,000	0,000	-0,051
-78,826	-26,811	-0,056	0,023
-77,811	77,053	0,081	0,061
-76,797	800,000	-0,038	-0,080
-75,782	189,996	0,120	0,127
-74,767	-169,633	0,052	-0,001
-73,753	229,562	0,053	0,061
-72,738	34,238	-0,098	0,060
-71,724	-181,652	-0,062	0,001
-70,709	-115,541	0,158	-0,021
-69,694	-34,502	-0,040	0,015
-68,680	260,717	-0,087	0,107
-67,665	-121,764	0,054	-0,006
-66,651	-200,000	0,022	0,087
-65,636	800,000	0,021	0,060
-64,622	474,662	0,023	0,037
-63,607	-134,277	-0,084	0,007
-62,592	12,153	0,064	0,035
-61,578	-200,000	0,016	0,089
-60,563	55,786	0,040	-0,027
-59,549	-7,407	-0,062	0,030
-58,534	23,155	-1,877	-1,086
-57,519	417,154	-1,287	-1,948
-56,505	-200,000	-0,472	-4,387
-55,490	457,314	0,825	1,298
-54,476	800,000	5,250	11,520
-53,461	-200,000	20,972	331,326
-52,446	800,000	758,017	2327,637
-51,432	550,576	1664,145	2830,645
-50,417	73,745	1666,298	1232,133
-49,403	18,813	1539,634	868,402
-48,388	12,825	1462,747	795,986
-47,373	19,196	1453,136	821,388
-46,359	15,971	1442,658	800,045
-45,344	11,131	1438,372	774,531
-44,330	11,010	1436,595	772,968
-43,315	11,018	1434,570	771,883
-42,300	11,087	1432,812	771,238
-41,286	11,073	1431,691	770,536
-40,271	11,014	1430,478	769,570
-39,257	10,999	1429,151	768,757
-38,242	11,062	1428,029	768,422
-37,227	11,061	1426,916	767,787
-36,213	11,062	1425,863	767,195
-35,198	11,063	1424,707	766,547
-34,184	11,126	1423,623	766,234
-33,169	11,044	1422,393	765,151
-32,154	11,091	1421,280	764,743
-31,140	11,096	1419,846	763,965
-30,125	11,134	1418,988	763,655
-29,111	11,147	1417,691	762,985
-28,096	11,075	1416,763	762,120
-27,082	11,033	1415,678	761,307
-26,067	11,032	1414,498	760,639
-25,052	11,042	1413,504	760,120
-24,038	11,014	1412,428	759,378
-23,023	11,018	1411,459	758,847
-22,009	11,024	1410,421	758,284
-20,994	11,007	1409,436	757,646
-19,979	11,006	1408,411	757,063
-18,965	10,976	1407,412	756,353
-17,950	10,968	1406,619	755,862
-16,936	10,978	1405,969	755,530
-15,921	10,909	1404,794	754,546
-14,906	10,884	1404,013	753,980
-13,892	10,929	1402,869	753,542
-12,877	10,918	1402,105	753,053
-11,863	10,897	1401,180	752,429
-10,848	10,893	1400,374	751,948
-9,833	10,862	1399,576	751,346
-8,819	10,821	1398,966	750,798
-7,804	10,860	1397,695	750,263
-6,790	10,845	1396,692	749,629
-5,775	10,842	1395,715	749,059
-4,760	10,864	1394,750	748,615
-3,746	10,828	1393,864	747,943
-2,731	10,871	1392,663	747,468
-1,717	10,788	1392,135	746,770
-0,702	10,776	1390,376	745,739
0,313	14,796	1303,586	717,648
1,327	30,909	694,172	418,889
2,342	48,115	120,363	79,300
3,356	0,419	16,511	8,296
4,371	16,946	3,366	1,877
5,386	-7,658	0,903	0,429
6,400	-200,000	0,075	0,474
7,415	105,850	-0,209	-0,174
8,429	77,299	-0,247	-0,185
9,444	54,165	-0,451	-0,305
10,459	16,947	-0,302	-0,168
11,473	-6,582	-0,179	-0,086
12,488	-87,386	-0,204	-0,043
13,502	-143,352	-0,357	0,024
14,517	108,279	-0,219	-0,184
15,531	46,554	-0,342	-0,223
16,546	102,749	-0,388	-0,320
17,561	129,101	-0,436	-0,393
18,575	66,197	-0,137	-0,098
19,590	800,000	-0,177	-0,357
20,604	-95,455	-0,370	-0,069
21,619	15,771	-0,501	-0,277
22,634	16,136	-0,572	-0,317
23,648	82,779	-0,292	-0,224
24,663	-3,549	-0,387	-0,189
25,677	49,014	-0,380	-0,251
26,692	152,947	-0,240	-0,232
27,707	17,960	-0,445	-0,249
28,721	1,320	-0,451	-0,227
29,736	104,426	-0,413	-0,343
30,750	192,203	-0,330	-0,351
31,765	57,483	-0,383	-0,263
32,780	51,737	-0,460	-0,308
33,794	88,696	-0,478	-0,374
34,809	157,172	-0,338	-0,329
35,823	-10,710	-0,281	-0,130
36,838	26,405	-0,352	-0,206
37,853	67,526	-0,433	-0,311
38,867	92,092	-0,243	-0,192
39,882	107,130	-0,266	-0,222
40,896	66,647	-0,337	-0,241
41,911	21,190	-0,456	-0,260
42,926	-40,555	-0,312	-0,113
43,940	-49,969	-0,399	-0,132
44,955	-68,158	-0,475	-0,129
45,969	20,426	-0,300	-0,170
46,984	140,970	-0,294	-0,274
47,999	50,037	-0,347	-0,230
49,013	17,237	-0,239	-0,133
50,028	109,587	-0,314	-0,264
51,042	-57,961	-0,447	-0,136
52,057	111,452	-0,305	-0,259
53,071	63,406	-0,330	-0,232
54,086	1,780	-0,319	-0,161
55,101	-14,392	-0,425	-0,191
56,115	116,754	-0,307	-0,264
57,130	4,860	-0,460	-0,237
58,144	169,979	-0,316	-0,318
59,159	38,855	-0,329	-0,206
60,174	207,992	-0,290	-0,318
61,188	74,866	-0,363	-0,268
62,203	-127,014	-0,314	-0,032
63,217	31,965	-0,405	-0,244
64,232	85,135	-0,288	-0,222
65,247	61,649	-0,379	-0,265
66,261	193,974	-0,250	-0,266
67,276	-17,712	-0,386	-0,169
68,290	75,158	-0,375	-0,277
69,305	159,233	-0,281	-0,274
70,320	20,150	-0,390	-0,220
71,334	-35,164	-0,265	-0,101
72,349	24,796	-0,338	-0,196
73,363	117,919	-0,289	-0,250
74,378	9,849	-0,437	-0,232
75,393	53,820	-0,265	-0,178
76,407	-49,566	-0,313	-0,104
77,422	49,287	-0,209	-0,137
78,436	-48,985	-0,257	-0,086
79,451	-51,813	-0,396	-0,129
80,466	-14,378	-0,331	-0,149
81,480	1,410	-0,365	-0,183
82,495	-141,300	-0,474	-0,033
83,509	-153,404	-0,260	-0,012
84,524	224,427	-0,171	-0,194
85,539	216,456	-0,247	-0,275
86,553	130,890	-0,264	-0,238
87,568	4,272	-0,290	-0,149
88,582	218,967	-0,223	-0,251
89,597	272,848	-0,292	-0,362
90,611	618,157	-0,153	-0,271
91,626	146,668	-0,264	-0,249
92,641	23,839	-0,353	-0,203
93,655	11,965	-0,276	-0,148
94,670	-53,483	-0,282	-0,090
95,684	109,560	-0,275	-0,231
96,699	83,052	-0,313	-0,238
97,714	-75,737	-0,297	-0,073
98,728	-49,203	-0,238	-0,079
99,743	-166,345	-0,277	-0,008
100,757	-1,630	-0,353	-0,174
101,772	146,048	-0,285	-0,268
102,787	60,756	-0,327	-0,226
103,801	-20,801	-0,353	-0,151
104,816	800,000	-0,117	-0,242
105,830	-14,184	-0,169	-0,076
106,845	-17,745	-0,208	-0,091
107,860	-0,225	-0,227	-0,112
108,874	302,342	-0,240	-0,312
109,889	102,947	-0,226	-0,185
110,903	386,230	-0,206	-0,299
111,918	54,610	-0,258	-0,173
112,933	49,572	-0,209	-0,137
113,947	113,375	-0,166	-0,140
114,962	-30,366	-0,275	-0,109
115,976	-46,525	-0,232	-0,079
116,991	70,584	-0,356	-0,257
118,006	197,712	-0,202	-0,216
119,020	-61,926	-0,313	-0,091
120,035	78,656	-0,147	-0,110
121,049	-115,194	-0,256	-0,034
122,064	-37,305	-0,241	-0,089
123,079	-112,728	-0,376	-0,052
124,093	-35,468	-0,268	-0,101
125,108	10,200	-0,301	-0,159
126,122	-10,129	-0,275	-0,127
127,137	130,348	-0,127	-0,113
128,151	-47,179	-0,240	-0,081
129,166	74,358	-0,247	-0,181
130,181	800,000	-0,160	-0,348
131,195	217,164	-0,210	-0,234
132,210	104,381	-0,247	-0,203
133,224	29,292	-0,207	-0,122
134,239	82,470	-0,182	-0,138
135,254	-87,043	-0,270	-0,057
136,268	-67,571	-0,405	-0,110
137,283	151,786	-0,192	-0,182
138,297	224,706	-0,248	-0,280
139,312	800,000	-0,154	-0,311
140,327	15,210	-0,237	-0,129
141,341	38,949	-0,311	-0,194
142,356	-200,000	-0,039	-0,125
143,370	525,363	-0,156	-0,256
144,385	-64,110	-0,329	-0,093
145,400	65,294	-0,255	-0,179
146,414	170,287	-0,192	-0,192
147,429	353,574	-0,190	-0,263
148,443	-46,236	-0,215	-0,073
149,458	-139,974	-0,296	-0,021
150,473	-113,847	-0,299	-0,040
151,487	7,803	-0,224	-0,117
152,502	9,831	-0,218	-0,115
153,516	146,461	-0,239	-0,223
154,531	145,073	-0,244	-0,228
155,546	217,703	-0,189	-0,210
156,560	107,514	-0,228	-0,189
157,575	-124,288	-0,104	0,011
158,589	29,769	-0,225	-0,133
159,604	57,179	-0,373	-0,253
160,619	91,918	-0,282	-0,220
161,633	147,459	-0,267	-0,250
162,648	63,841	-0,270	-0,188
163,662	-13,960	-0,242	-0,108
164,677	64,587	-0,099	-0,069
165,692	100,968	-0,105	-0,085
166,706	32,861	-0,206	-0,124
167,721	14,253	-0,224	-0,121
168,735	89,462	-0,129	-0,100
169,750	-5,773	-0,286	-0,136
170,764	-87,460	-0,262	-0,055
171,779	239,982	-0,083	-0,097
172,794	800,000	-0,109	-0,260
173,808	-132,919	-0,176	-0,015
174,823	31,186	-0,266	-0,158
175,837	-200,000	-0,061	-0,262
176,852	493,504	-0,124	-0,198
177,867	92,464	-0,182	-0,143
178,881	-9,967	-0,270	-0,124
179,896	19,144	-0,222	-0,124
180,910	-128,552	-0,329	0,032
181,925	-156,525	-0,209	-0,009
182,940	141,929	-0,238	-0,219
183,954	38,240	-0,179	-0,111
184,969	51,192	-0,234	-0,154
185,983	-20,097	-0,204	-0,087
186,998	-37,542	-0,248	-0,091
188,013	-129,236	-0,174	-0,017
189,027	19,479	-0,150	-0,084
190,042	42,742	-0,211	-0,133
191,056	85,004	-0,175	-0,133
192,071	-16,130	-0,108	-0,048
193,086	-113,671	-0,161	-0,021
194,100	-151,423	-0,226	-0,011
195,115	171,110	-0,195	-0,195
196,129	800,000	-0,151	-0,346
197,144	94,670	-0,242	-0,191
198,159	-21,776	-0,139	-0,058
199,173	-26,417	-0,175	-0,071
200,188	-115,326	-0,214	-0,028
201,202	38,622	-0,136	-0,084
202,217	-31,848	-0,194	-0,075
203,232	800,000	-0,086	-0,207
204,246	-59,569	-0,206	-0,061
205,261	-84,742	-0,366	-0,079
206,275	200,257	-0,115	-0,122
207,290	160,098	-0,070	-0,068
208,304	-96,337	-0,256	-0,047
209,319	25,014	-0,240	-0,137
210,334	154,359	-0,215	-0,204
211,348	159,694	-0,290	-0,280
212,363	136,227	-0,213	-0,193
213,377	96,641	-0,192	-0,152
214,392	-83,160	-0,128	0,028
215,407	358,848	-0,173	-0,241
216,421	212,714	-0,195	-0,213
217,436	171,862	-0,185	-0,184
218,450	-153,737	-0,170	0,008
219,465	-200,000	-0,032	-0,207
220,480	-155,821	-0,152	-0,007
221,494	-3,909	-0,156	-0,075
222,509	552,979	-0,072	-0,120
223,523	-42,566	-0,198	-0,069
224,538	-67,132	-0,254	-0,069
225,553	9,527	-0,185	-0,097
226,567	-12,080	-0,227	-0,102
227,582	800,000	-0,108	-0,218
228,596	431,640	-0,104	-0,156
229,611	321,743	-0,131	-0,174
230,626	-38,051	-0,197	-0,072
231,640	18,353	-0,213	-0,118
232,655	-15,067	-0,174	-0,077
233,669	-4,803	-0,233	-0,111
234,684	487,194	-0,109	-0,173
235,699	-68,697	-0,220	-0,058
236,713	-62,373	-0,134	-0,038
237,728	56,002	-0,179	-0,120
238,742	-84,826	-0,231	-0,050
239,757	69,657	-0,185	-0,132
240,772	166,354	-0,265	-0,260
241,786	-17,722	-0,212	-0,092
242,801	16,512	-0,101	-0,055
243,815	-200,000	-0,033	-0,187
244,830	107,253	-0,219	-0,180
245,844	60,394	-0,231	-0,157
246,859	153,611	-0,135	-0,128
247,874	105,172	-0,231	-0,188
248,888	184,193	-0,063	-0,065
249,903	-112,163	-0,166	-0,023
250,917	113,113	-0,110	-0,092
251,932	-76,602	-0,162	-0,039
252,947	-200,000	-0,042	-0,196
253,961	178,062	-0,183	-0,184
254,976	126,757	-0,152	-0,133
255,990	-73,618	-0,264	-0,066
257,005	55,803	-0,131	-0,087
258,020	28,023	-0,125	-0,072
259,034	-190,011	-0,191	-0,001
260,049	800,000	-0,122	-0,320
261,063	-128,631	-0,162	-0,016
262,078	250,504	-0,278	-0,326
263,093	166,797	-0,224	-0,220
264,107	151,970	-0,087	-0,082
265,122	800,000	-0,066	-0,179
266,136	-78,367	-0,142	0,033
267,151	-27,334	-0,177	-0,071
268,166	-26,953	-0,206	-0,082
269,180	29,602	-0,246	-0,144
270,195	154,385	-0,240	-0,227
271,209	293,222	-0,146	-0,184
272,224	-13,851	-0,177	-0,079
273,239	161,676	-0,133	-0,129
274,253	180,137	-0,139	-0,141
275,268	-67,619	-0,193	-0,052
276,282	114,493	-0,223	-0,187
277,297	5,193	-0,213	-0,108
278,312	395,704	-0,183	-0,264
279,326	35,395	-0,231	-0,139
280,341	-19,395	-0,147	-0,063
281,355	238,536	-0,054	-0,062
282,370	-61,996	-0,046	0,013
283,384	-126,698	-0,261	-0,026
284,399	149,928	-0,154	-0,144
285,414	72,720	-0,141	-0,102
286,428	-200,000	-0,048	-0,197
287,443	-19,583	-0,242	-0,103
288,457	-95,675	-0,205	-0,037
289,472	-139,284	-0,181	-0,013
290,487	36,873	-0,091	-0,055
291,501	800,000	-0,075	-0,201
292,516	-35,040	-0,175	-0,065
293,530	-34,417	-0,084	-0,031
294,545	-53,692	-0,070	0,022
295,560	67,740	-0,171	-0,120
296,574	800,000	-0,058	-0,124
297,589	-59,568	-0,236	-0,069
298,603	20,353	-0,241	-0,133
299,618	481,629	-0,122	-0,191
300,633	-17,326	-0,206	-0,089
301,647	-138,824	-0,103	0,008
302,662	17,808	-0,124	-0,068
303,676	-23,418	-0,219	-0,090
304,691	110,108	-0,105	-0,087
305,706	-200,000	-0,027	-0,187
306,720	800,000	-0,039	-0,089
307,735	800,000	0,026	-0,060
308,749	75,269	-0,107	-0,078
309,764	206,422	-0,121	-0,130
310,779	185,354	-0,108	-0,110
311,793	-29,361	-0,166	-0,065
312,808	109,613	-0,158	-0,130
313,822	-113,573	-0,151	-0,020
314,837	471,344	-0,061	-0,095
315,852	427,075	-0,067	-0,099
316,866	10,671	-0,150	-0,078
317,881	131,868	-0,161	-0,142
318,895	-166,728	-0,059	-0,002
319,910	100,045	-0,172	-0,137
320,925	38,477	-0,108	-0,066
321,939	19,590	-0,100	-0,055
322,954	-200,000	-0,000	-0,146
323,968	-200,000	0,015	-0,119
324,983	776,190	-0,058	-0,108
325,997	108,614	-0,147	-0,120
327,012	210,981	-0,211	-0,228
328,027	-200,000	-0,046	-0,221
329,041	-156,796	-0,115	-0,005
330,056	197,500	-0,125	0,131
331,070	269,658	-0,062	-0,075
332,085	-77,365	-0,160	-0,038
333,100	55,307	-0,151	-0,100
334,114	800,000	-0,090	-0,251
335,129	-165,986	-0,176	0,005
336,143	407,546	-0,110	-0,160
337,158	468,977	-0,049	-0,075
338,173	-200,000	-0,021	-0,159
339,187	800,000	-0,030	-0,085
340,202	-24,872	-0,089	-0,036
341,216	116,682	-0,183	-0,154
342,231	-9,510	-0,278	-0,126
343,246	274,741	-0,083	-0,101
344,260	50,400	-0,242	-0,157
345,275	173,707	-0,110	-0,109
346,289	45,021	-0,178	-0,112
347,304	498,418	-0,062	-0,099
348,319	292,039	-0,131	-0,163
349,333	33,097	-0,145	-0,086
350,348	99,718	-0,078	-0,062
351,362	235,508	-0,122	-0,138
352,377	442,424	-0,061	-0,091
353,392	-200,000	0,025	-0,134
354,406	800,000	0,039	-0,094
355,421	207,489	1312,478	1403,288
356,435	159,624	1472,881	1403,770
