DTS Sentinel unit serial number:	SN410029Multiplexer serial number:	ORYXHardware model number:	OX2-SRSoftware version number:	ORYX F/W v4,00 Oryx Data Collector v3.7.2.0data status	okinstallation	B3 Nyhavnadifferential loss correction	single-endedforward channel	channel 1reverse channel	N/Adate	2023/11/29time	18:22:30forward acquisition time	300,00reverse acquisition time	0,00gamma	499,1914k internal	0,3209k external	0,3209temperature offset calibration	1,0000default loss term (dB/km)	0,3820temperature slope calibration	1,0000multiplexer offset coefficient	1,0000multiplexer slope coefficient	1,0000fibre end	0,00T internal ref (°C)	11,14T ext. ref 1 (°C)	-4,09T ext. ref 2 (°C)	-4,21length (m)	temperature (°C)	Stokes	anti-Stokes-744,400	-200,000	0,007	-0,316
-743,385	-200,000	0,041	0,300
-742,371	-129,278	-0,130	-0,013
-741,356	-200,000	0,011	0,364
-740,342	45,757	-0,234	-0,157
-739,327	-200,000	0,003	0,189
-738,312	-3,906	-0,313	-0,157
-737,298	-200,000	-0,024	0,212
-736,283	96,392	-0,280	-0,232
-735,269	-200,000	0,020	0,278
-734,254	-156,991	-0,292	-0,013
-733,239	800,000	-0,106	0,236
-732,225	229,999	-0,135	-0,160
-731,210	-48,155	0,234	0,082
-730,196	713,984	-0,097	-0,187
-729,181	241,871	0,025	-0,030
-728,167	279,348	-0,077	0,100
-727,152	182,391	-0,025	0,027
-726,137	-22,203	-0,084	-0,037
-725,123	129,398	0,054	-0,050
-724,108	76,007	0,045	-0,035
-723,094	24,949	-0,115	-0,069
-722,079	800,000	0,033	0,094
-721,064	-200,000	0,027	-0,101
-720,050	-166,708	0,071	0,002
-719,035	15,350	0,075	0,042
-718,021	277,470	-0,090	0,116
-717,006	-194,980	-0,106	-0,001
-715,991	-37,405	-0,199	-0,077
-714,977	-200,000	0,020	0,140
-713,962	-80,107	-0,098	0,024
-712,948	-91,328	0,047	-0,010
-711,933	675,382	0,039	0,074
-710,918	-116,155	-0,126	0,017
-709,904	-200,000	-0,004	-0,052
-708,889	800,000	-0,047	-0,104
-707,875	-200,000	0,005	0,038
-706,860	-20,844	-0,071	0,032
-705,845	-200,000	-0,005	-0,097
-704,831	31,390	-0,029	-0,018
-703,816	-76,528	0,064	0,016
-702,802	470,763	0,048	-0,078
-701,787	-22,934	-0,172	-0,075
-700,772	-77,477	-0,168	0,042
-699,758	800,000	0,069	0,142
-698,743	-113,042	0,175	0,025
-697,729	514,701	0,076	0,129
-696,714	800,000	-0,027	-0,083
-695,699	112,698	-0,056	-0,049
-694,685	800,000	-0,060	-0,176
-693,670	618,481	-0,072	-0,132
-692,656	-200,000	0,019	-0,066
-691,641	-114,919	0,065	-0,009
-690,627	-200,000	-0,009	0,051
-689,612	-200,000	0,032	0,128
-688,597	-99,472	0,150	-0,027
-687,583	136,258	-0,168	-0,159
-686,568	584,560	-0,075	-0,133
-685,554	144,963	-0,098	-0,095
-684,539	800,000	0,057	-0,138
-683,524	-200,000	-0,003	-0,024
-682,510	-136,685	-0,031	-0,003
-681,495	-200,000	-0,019	-0,092
-680,481	-102,287	-0,106	0,018
-679,466	-200,000	0,009	0,035
-678,451	342,691	-0,074	-0,105
-677,437	459,876	-0,006	-0,009
-676,422	-106,842	0,150	-0,024
-675,408	800,000	-0,042	-0,085
-674,393	-200,000	0,021	0,167
-673,378	800,000	0,055	-0,144
-672,364	1,435	-0,119	0,062
-671,349	-8,361	-0,061	-0,030
-670,335	34,656	0,054	-0,034
-669,320	-127,025	0,082	-0,009
-668,305	-200,000	-0,023	0,184
-667,291	673,452	-0,033	0,062
-666,276	162,871	-0,137	-0,139
-665,262	800,000	-0,050	-0,139
-664,247	-4,391	-0,068	-0,034
-663,232	-33,526	-0,077	0,031
-662,218	-200,000	0,008	0,233
-661,203	-43,658	0,122	0,044
-660,189	800,000	0,016	0,035
-659,174	82,244	-0,118	-0,093
-658,159	-200,000	0,030	-0,119
-657,145	590,235	0,026	0,046
-656,130	800,000	-0,033	-0,093
-655,116	98,178	-0,031	0,026
-654,101	-200,000	0,039	0,148
-653,086	57,566	-0,059	0,042
-652,072	272,731	-0,019	-0,024
-651,057	611,875	0,041	0,074
-650,043	22,838	-0,118	-0,069
-649,028	800,000	-0,025	0,062
-648,014	-79,918	0,067	-0,016
-646,999	-200,000	0,024	-0,114
-645,984	800,000	0,046	0,118
-644,970	-200,000	0,001	-0,160
-643,955	-25,685	0,027	0,012
-642,941	-1,586	-0,089	0,045
-641,926	10,439	0,144	-0,079
-640,911	-200,000	0,013	0,100
-639,897	-62,002	0,154	-0,046
-638,882	-0,386	-0,161	-0,082
-637,868	-200,000	-0,003	0,038
-636,853	-7,410	-0,100	-0,049
-635,838	-39,819	0,039	0,015
-634,824	-75,834	-0,066	-0,017
-633,809	130,827	-0,094	-0,087
-632,795	800,000	-0,054	-0,140
-631,780	41,745	-0,011	0,007
-630,765	-200,000	0,020	-0,067
-629,751	81,057	-0,050	-0,039
-628,736	-200,000	-0,005	-0,197
-627,722	731,878	-0,027	-0,052
-626,707	540,965	-0,019	-0,032
-625,692	83,207	-0,100	0,079
-624,678	-200,000	-0,021	0,201
-623,663	-200,000	-0,024	0,093
-622,649	-200,000	-0,011	-0,047
-621,634	-200,000	-0,013	-0,158
-620,619	-200,000	0,004	-0,047
-619,605	-119,396	0,180	-0,022
-618,590	42,329	0,045	-0,030
-617,576	118,574	-0,065	0,058
-616,561	606,869	0,036	-0,066
-615,546	404,061	0,014	-0,021
-614,532	800,000	-0,003	-0,008
-613,517	-41,065	0,056	-0,021
-612,503	-151,191	-0,113	0,006
-611,488	11,968	0,083	-0,046
-610,474	51,437	-0,070	0,048
-609,459	800,000	-0,003	-0,008
-608,444	-200,000	-0,032	-0,125
-607,430	150,231	-0,055	-0,054
-606,415	-200,000	-0,005	-0,127
-605,401	200,340	0,070	0,078
-604,386	800,000	-0,015	0,032
-603,371	-140,469	-0,040	0,003
-602,357	73,452	0,016	0,012
-601,342	295,292	-0,065	-0,086
-600,328	800,000	0,036	-0,106
-599,313	800,000	-0,009	-0,021
-598,298	150,566	0,051	-0,050
-597,284	-122,895	0,153	0,018
-596,269	396,787	-0,046	0,069
-595,255	-200,000	-0,007	-0,099
-594,240	800,000	0,013	0,028
-593,225	800,000	0,051	-0,106
-592,211	41,684	-0,023	0,015
-591,196	800,000	-0,025	0,074
-590,182	-130,508	0,171	0,016
-589,167	-200,000	-0,024	0,106
-588,152	-200,000	-0,004	-0,017
-587,138	-200,000	-0,034	0,129
-586,123	-1,374	-0,133	-0,068
-585,109	800,000	0,030	-0,093
-584,094	166,421	-0,126	-0,129
-583,079	-200,000	0,014	-0,094
-582,065	-7,195	0,121	0,059
-581,050	61,097	-0,114	-0,082
-580,036	-75,648	-0,045	-0,012
-579,021	182,459	-0,057	-0,061
-578,006	-89,832	0,130	-0,027
-576,992	-200,000	-0,031	-0,114
-575,977	800,000	-0,004	-0,013
-574,963	167,487	0,030	-0,030
-573,948	7,160	-0,031	0,016
-572,934	-107,687	0,076	0,012
-571,919	-200,000	-0,012	-0,105
-570,904	-200,000	0,007	-0,192
-569,890	-135,171	-0,151	-0,013
-568,875	800,000	0,022	-0,065
-567,861	800,000	0,036	-0,099
-566,846	-67,945	0,120	0,034
-565,831	-153,541	-0,222	-0,011
-564,817	-200,000	0,011	-0,096
-563,802	-28,718	-0,118	-0,049
-562,788	-200,000	0,001	-0,080
-561,773	133,248	0,088	0,082
-560,758	-134,492	0,025	-0,002
-559,744	129,251	0,066	-0,061
-558,729	379,042	0,004	-0,007
-557,715	-200,000	0,022	0,098
-556,700	145,524	-0,038	-0,037
-555,685	-200,000	-0,004	-0,058
-554,671	-200,000	-0,020	0,095
-553,656	-71,595	0,101	0,027
-552,642	800,000	-0,031	0,077
-551,627	-200,000	-0,011	0,146
-550,612	122,134	-0,097	-0,087
-549,598	-200,000	0,022	-0,144
-548,583	800,000	-0,028	0,081
-547,569	800,000	0,057	-0,117
-546,554	116,727	-0,048	-0,043
-545,539	184,704	0,134	0,143
-544,525	168,256	-0,045	-0,046
-543,510	-102,478	-0,116	0,020
-542,496	-200,000	-0,001	-0,041
-541,481	-108,904	-0,019	0,003
-540,466	800,000	0,028	-0,066
-539,452	614,296	-0,060	0,109
-538,437	23,475	0,077	-0,045
-537,423	800,000	-0,048	-0,098
-536,408	422,855	0,050	0,078
-535,393	-154,022	-0,261	0,013
-534,379	-38,871	-0,104	-0,039
-533,364	-200,000	0,005	0,018
-532,350	-121,300	-0,079	-0,009
-531,335	800,000	0,028	0,063
-530,321	-122,589	-0,147	0,017
-529,306	96,346	0,093	-0,076
-528,291	154,169	-0,142	-0,140
-527,277	7,263	-0,169	-0,090
-526,262	-200,000	0,038	-0,124
-525,248	69,577	-0,069	0,051
-524,233	-173,476	0,093	-0,002
-523,218	-28,039	0,076	-0,031
-522,204	800,000	0,040	-0,113
-521,189	127,670	-0,034	0,031
-520,175	-10,265	-0,026	-0,013
-519,160	-200,000	-0,002	-0,039
-518,145	71,165	-0,051	-0,038
-517,131	800,000	0,024	0,077
-516,116	366,276	-0,063	0,092
-515,102	-123,811	0,068	0,008
-514,087	-200,000	-0,028	0,103
-513,072	-200,000	-0,030	-0,095
-512,058	800,000	-0,025	-0,077
-511,043	-200,000	-0,001	0,041
-510,029	-40,577	0,082	-0,031
-509,014	-200,000	0,014	0,120
-507,999	123,867	0,046	0,042
-506,985	-200,000	-0,007	-0,053
-505,970	208,054	0,061	-0,069
-504,956	137,578	-0,059	0,055
-503,941	-24,617	-0,054	0,023
-502,926	-8,372	0,097	0,046
-501,912	162,679	-0,036	0,037
-500,897	800,000	-0,055	0,161
-499,883	-200,000	0,007	-0,057
-498,868	-200,000	-0,029	0,117
-497,853	-66,371	-0,080	0,023
-496,839	525,112	0,020	0,033
-495,824	-112,419	-0,031	0,004
-494,810	159,859	-0,077	0,078
-493,795	298,117	0,051	0,068
-492,781	50,304	-0,074	0,050
-491,766	800,000	-0,049	0,137
-490,751	293,057	-0,034	0,045
-489,737	23,766	0,074	-0,043
-488,722	-200,000	0,009	-0,095
-487,708	362,449	0,105	0,151
-486,693	-200,000	0,013	0,098
-485,678	800,000	-0,060	0,153
-484,664	489,521	0,009	-0,015
-483,649	183,169	0,029	-0,031
-482,635	-200,000	0,013	-0,101
-481,620	76,211	0,097	0,074
-480,605	-200,000	0,006	0,047
-479,591	539,020	-0,008	0,015
-478,576	800,000	0,057	-0,115
-477,562	-200,000	-0,016	-0,063
-476,547	800,000	-0,048	-0,134
-475,532	-12,339	0,007	0,003
-474,518	157,389	0,095	-0,095
-473,503	-24,951	0,112	0,048
-472,489	-127,919	0,142	-0,014
-471,474	-35,159	-0,068	0,027
-470,459	454,579	-0,073	-0,117
-469,445	-137,565	-0,086	0,007
-468,430	1,424	-0,092	0,047
-467,416	89,777	0,045	-0,036
-466,401	56,180	0,122	0,085
-465,386	800,000	0,046	0,101
-464,372	-200,000	0,004	-0,034
-463,357	-200,000	-0,003	-0,070
-462,343	800,000	-0,026	-0,080
-461,328	469,392	-0,014	0,022
-460,313	800,000	-0,035	0,073
-459,299	-111,005	0,066	0,010
-458,284	-200,000	-0,038	0,191
-457,270	330,628	0,040	-0,055
-456,255	-20,687	-0,020	-0,009
-455,241	-200,000	-0,031	-0,129
-454,226	-170,734	-0,024	0,001
-453,211	-200,000	-0,025	0,110
-452,197	125,705	-0,100	0,090
-451,182	50,736	0,159	0,108
-450,168	116,030	-0,037	-0,032
-449,153	-200,000	-0,001	-0,016
-448,138	-200,000	-0,019	-0,064
-447,124	399,937	0,054	0,081
-446,109	800,000	-0,010	-0,027
-445,095	67,296	0,063	-0,046
-444,080	-103,437	-0,049	0,008
-443,065	-24,842	-0,077	0,033
-442,051	-76,807	0,085	0,021
-441,036	-175,003	0,043	0,001
-440,022	4,487	-0,095	-0,050
-439,007	-98,469	-0,088	0,016
-437,992	140,297	-0,044	0,042
-436,978	60,221	0,062	0,044
-435,963	-200,000	-0,001	0,027
-434,949	-178,152	-0,074	-0,001
-433,934	-200,000	-0,040	0,168
-432,919	620,807	0,036	-0,066
-431,905	472,418	0,063	-0,102
-430,890	339,153	-0,054	0,075
-429,876	-122,805	0,052	0,006
-428,861	-200,000	0,021	0,067
-427,846	114,876	0,072	0,063
-426,832	601,857	0,025	-0,044
-425,817	-26,487	-0,154	-0,065
-424,803	301,522	0,011	-0,014
-423,788	-200,000	0,031	0,177
-422,773	-200,000	0,023	0,104
-421,759	-69,112	0,089	0,024
-420,744	800,000	-0,041	0,083
-419,730	167,888	-0,137	0,140
-418,715	179,194	0,031	0,033
-417,701	-55,822	0,126	0,040
-416,686	800,000	-0,027	-0,080
-415,671	14,214	0,169	0,094
-414,657	361,901	-0,076	0,109
-413,642	-133,710	0,097	-0,009
-412,628	215,594	-0,097	0,110
-411,613	800,000	-0,016	0,036
-410,598	192,223	0,041	0,045
-409,584	-200,000	-0,007	0,049
-408,569	16,275	-0,128	-0,072
-407,555	-200,000	0,018	0,058
-406,540	43,115	0,109	0,071
-405,525	-200,000	0,028	0,093
-404,511	268,952	-0,051	-0,064
-403,496	-158,616	-0,137	0,006
-402,482	800,000	0,011	-0,036
-401,467	12,822	0,039	0,021
-400,452	-24,679	0,168	0,071
-399,438	227,048	-0,018	-0,021
-398,423	505,645	0,055	0,092
-397,409	-95,422	0,061	-0,012
-396,394	-62,351	-0,083	-0,024
-395,379	800,000	-0,006	0,016
-394,365	-200,000	0,017	0,120
-393,350	800,000	0,037	0,090
-392,336	60,383	-0,066	-0,047
-391,321	-163,903	-0,032	-0,001
-390,306	224,227	-0,054	-0,063
-389,292	-200,000	0,008	-0,041
-388,277	285,968	0,081	-0,104
-387,263	800,000	0,028	-0,081
-386,248	-127,608	0,130	0,013
-385,233	-200,000	-0,011	0,160
-384,219	34,196	-0,098	-0,061
-383,204	-200,000	-0,018	-0,140
-382,190	65,900	-0,111	0,080
-381,175	71,483	-0,086	-0,064
-380,160	800,000	-0,041	0,125
-379,146	316,775	-0,009	-0,012
-378,131	-22,671	-0,131	0,056
-377,117	-200,000	0,014	-0,070
-376,102	800,000	0,051	-0,104
-375,088	-200,000	0,028	-0,098
-374,073	112,763	-0,091	-0,079
-373,058	-54,985	0,059	0,019
-372,044	176,636	0,067	0,070
-371,029	374,320	0,067	0,098
-370,015	-200,000	0,013	0,068
-369,000	-200,000	-0,032	-0,122
-367,985	800,000	-0,031	-0,083
-366,971	-200,000	0,106	0,000
-365,956	326,321	0,027	0,037
-364,942	429,132	-0,014	-0,022
-363,927	345,989	-0,048	0,068
-362,912	17,177	0,066	-0,038
-361,898	-87,002	-0,096	-0,021
-360,883	-47,444	-0,135	0,047
-359,869	-62,769	0,013	0,004
-358,854	106,773	0,092	-0,078
-357,839	-200,000	-0,001	-0,044
-356,825	800,000	0,057	0,133
-355,810	-200,000	0,027	-0,160
-354,796	50,565	0,041	-0,027
-353,781	147,516	-0,030	-0,029
-352,766	466,607	0,038	-0,060
-351,752	57,755	-0,056	-0,039
-350,737	-200,000	0,194	-0,000
-349,723	-79,480	0,178	0,043
-348,708	-88,998	-0,042	0,009
-347,693	-200,000	-0,002	-0,023
-346,679	99,791	-0,052	-0,043
-345,664	-47,064	0,142	-0,049
-344,650	151,022	0,040	0,039
-343,635	-200,000	-0,008	-0,053
-342,620	184,063	0,033	-0,035
-341,606	-94,688	-0,101	-0,019
-340,591	307,404	-0,080	-0,107
-339,577	-200,000	0,006	-0,038
-338,562	-200,000	-0,009	-0,050
-337,548	69,425	0,040	0,029
-336,533	-85,883	-0,023	0,005
-335,518	800,000	0,028	0,061
-334,504	28,736	-0,066	-0,040
-333,489	-200,000	-0,033	-0,114
-332,475	800,000	0,019	-0,046
-331,460	-77,344	0,110	-0,027
-330,445	-52,174	0,070	-0,023
-329,431	800,000	0,041	0,099
-328,416	181,066	0,107	0,113
-327,402	193,898	-0,065	0,070
-326,387	98,928	0,044	-0,036
-325,372	102,979	-0,036	-0,030
-324,358	66,771	-0,050	0,036
-323,343	-200,000	0,028	-0,093
-322,329	3,849	0,193	-0,100
-321,314	-48,312	0,175	0,060
-320,299	102,460	-0,047	-0,039
-319,285	-63,775	0,097	-0,028
-318,270	282,361	-0,098	-0,125
-317,256	800,000	0,040	-0,112
-316,241	-200,000	-0,010	-0,043
-315,226	-56,620	-0,053	0,017
-314,212	-200,000	0,029	0,106
-313,197	661,021	-0,117	0,215
-312,183	-1,998	0,102	-0,051
-311,168	213,432	-0,078	-0,089
-310,153	-200,000	0,003	-0,043
-309,139	800,000	0,042	-0,120
-308,124	10,862	-0,050	0,027
-307,110	-167,984	0,076	-0,002
-306,095	-200,000	-0,030	0,149
-305,080	-56,019	0,117	0,037
-304,066	20,322	0,078	0,045
-303,051	-200,000	0,000	0,093
-302,037	-52,416	-0,106	-0,035
-301,022	758,086	0,057	-0,111
-300,008	-47,146	-0,049	0,017
-298,993	800,000	0,077	0,181
-297,978	57,203	-0,049	-0,034
-296,964	-200,000	-0,002	0,012
-295,949	477,771	0,047	-0,076
-294,935	247,523	-0,062	0,075
-293,920	13,558	0,060	0,033
-292,905	-141,977	-0,014	-0,001
-291,891	800,000	-0,043	0,100
-290,876	800,000	0,013	0,031
-289,862	-11,112	-0,164	0,077
-288,847	-200,000	-0,004	-0,016
-287,832	-200,000	0,040	-0,136
-286,818	99,574	0,019	-0,016
-285,803	62,395	0,084	-0,060
-284,789	-150,645	-0,102	0,005
-283,774	-78,571	0,080	0,019
-282,759	-200,000	-0,000	-0,076
-281,745	36,167	-0,049	-0,031
-280,730	800,000	-0,042	-0,084
-279,716	-75,311	0,202	0,051
-278,701	-200,000	0,009	0,229
-277,686	21,355	-0,058	0,034
-276,672	-105,562	0,080	-0,013
-275,657	91,764	0,090	0,072
-274,643	248,720	-0,083	-0,100
-273,628	-200,000	-0,037	-0,133
-272,613	214,157	0,025	-0,028
-271,599	156,717	0,029	-0,028
-270,584	800,000	-0,060	-0,144
-269,570	800,000	0,015	-0,036
-268,555	800,000	0,014	0,033
-267,540	251,904	-0,019	0,023
-266,526	-200,000	-0,020	-0,103
-265,511	-200,000	0,009	-0,073
-264,497	-200,000	0,001	-0,099
-263,482	-128,071	0,039	0,004
-262,467	-115,801	0,093	0,012
-261,453	-92,705	-0,066	0,013
-260,438	602,906	-0,038	0,067
-259,424	79,097	0,037	-0,028
-258,409	800,000	-0,025	0,062
-257,395	-71,797	0,038	0,010
-256,380	301,703	0,057	-0,075
-255,365	-200,000	0,016	0,073
-254,351	436,022	0,037	0,057
-253,336	800,000	-0,030	0,059
-252,322	223,398	0,063	-0,073
-251,307	800,000	-0,022	0,045
-250,292	-200,000	0,014	-0,113
-249,278	627,886	0,095	0,172
-248,263	-200,000	-0,005	-0,067
-247,249	189,797	-0,024	-0,026
-246,234	243,819	0,018	-0,021
-245,219	256,202	-0,112	-0,137
-244,205	28,260	-0,110	-0,066
-243,190	-94,069	-0,063	0,012
-242,176	-147,771	0,106	-0,006
-241,161	800,000	0,084	0,193
-240,146	-43,517	-0,118	-0,042
-239,132	-200,000	0,005	-0,088
-238,117	36,043	-0,018	0,011
-237,103	800,000	0,040	0,107
-236,088	-200,000	-0,066	0,231
-235,073	0,003	-0,107	-0,054
-234,059	800,000	-0,011	0,029
-233,044	-90,059	0,146	-0,030
-232,030	800,000	0,036	0,084
-231,015	16,164	-0,028	0,016
-230,000	800,000	0,017	-0,047
-228,986	-200,000	0,006	0,032
-227,971	54,094	-0,091	0,062
-226,957	21,350	0,083	0,048
-225,942	-14,312	0,063	-0,029
-224,927	-106,945	0,079	-0,012
-223,913	-200,000	-0,031	-0,135
-222,898	-200,000	0,028	-0,201
-221,884	10,172	-0,067	-0,036
-220,869	267,065	0,026	-0,032
-219,855	-92,863	0,068	0,013
-218,840	-72,894	-0,090	0,023
-217,825	-200,000	-0,002	0,012
-216,811	800,000	0,041	-0,088
-215,796	800,000	0,012	0,034
-214,782	97,011	-0,106	-0,087
-213,767	800,000	-0,050	-0,130
-212,752	-200,000	0,021	0,109
-211,738	-100,214	0,044	-0,008
-210,723	-100,994	0,101	-0,017
-209,709	67,996	0,054	-0,040
-208,694	712,750	-0,041	0,077
-207,679	108,139	-0,052	-0,044
-206,665	-200,000	-0,015	0,153
-205,650	800,000	0,062	0,168
-204,636	-200,000	0,013	0,176
-203,621	368,034	0,041	-0,059
-202,606	-200,000	-0,029	-0,099
-201,592	286,695	-0,053	-0,068
-200,577	-131,271	0,094	-0,009
-199,563	-200,000	0,000	0,062
-198,548	800,000	0,030	0,090
-197,533	-200,000	0,004	0,046
-196,519	-200,000	-0,001	0,012
-195,504	-56,409	-0,070	-0,022
-194,490	57,337	0,093	0,064
-193,475	-46,064	-0,126	-0,044
-192,460	-200,000	0,009	-0,112
-191,446	96,010	-0,044	-0,036
-190,431	-11,294	-0,059	-0,027
-189,417	-2,166	0,199	0,099
-188,402	58,440	-0,091	-0,063
-187,387	-70,698	-0,069	-0,018
-186,373	800,000	-0,005	-0,015
-185,358	495,959	0,025	0,041
-184,344	299,930	0,101	-0,132
-183,329	211,209	-0,051	0,057
-182,315	242,649	0,098	0,117
-181,300	-184,615	-0,152	0,002
-180,285	213,173	-0,130	-0,146
-179,271	206,975	-0,087	-0,096
-178,256	297,158	-0,081	0,105
-177,242	-1,725	-0,031	0,015
-176,227	252,320	0,037	0,045
-175,212	170,914	0,056	0,057
-174,198	800,000	-0,025	0,055
-173,183	69,482	-0,126	0,092
-172,169	-31,250	-0,037	-0,015
-171,154	800,000	0,024	0,073
-170,139	-138,065	0,112	-0,009
-169,125	649,505	0,049	0,089
-168,110	-147,540	0,093	0,005
-167,096	100,154	-0,087	0,072
-166,081	-75,223	0,075	0,019
-165,066	210,166	-0,084	-0,094
-164,052	-81,405	-0,070	-0,016
-163,037	-200,000	0,023	0,102
-162,023	-200,000	-0,012	0,125
-161,008	-200,000	0,007	0,078
-159,993	800,000	0,020	0,046
-158,979	-200,000	0,005	0,105
-157,964	800,000	0,026	-0,060
-156,950	-44,320	-0,091	0,032
-155,935	800,000	-0,043	0,087
-154,920	-200,000	0,051	0,187
-153,906	800,000	-0,083	0,181
-152,891	0,637	0,079	0,040
-151,877	-200,000	-0,018	-0,080
-150,862	24,226	-0,064	-0,038
-149,847	800,000	-0,044	0,109
-148,833	-112,669	-0,094	0,013
-147,818	110,978	0,100	0,085
-146,804	516,974	0,059	0,098
-145,789	16,373	0,051	0,029
-144,775	-131,387	-0,083	0,008
-143,760	-152,954	-0,168	-0,008
-142,745	-147,822	-0,056	-0,003
-141,731	148,694	-0,121	-0,116
-140,716	567,983	0,019	0,032
-139,702	18,342	0,024	0,013
-138,687	738,761	-0,028	0,054
-137,672	-29,706	-0,100	0,040
-136,658	-200,000	-0,002	-0,135
-135,643	-200,000	-0,007	-0,034
-134,629	-200,000	-0,020	-0,116
-133,614	151,921	-0,074	0,071
-132,599	-200,000	0,009	0,068
-131,585	365,970	0,035	0,050
-130,570	-11,347	-0,031	-0,014
-129,556	-61,926	-0,030	0,009
-128,541	58,561	0,086	-0,060
-127,526	196,178	0,026	-0,028
-126,512	-200,000	-0,006	-0,041
-125,497	-13,919	0,065	0,029
-124,483	-200,000	0,017	0,077
-123,468	226,171	0,093	-0,106
-122,453	67,387	-0,149	-0,107
-121,439	285,403	0,129	-0,165
-120,424	800,000	-0,063	-0,181
-119,410	-141,525	-0,097	0,007
-118,395	-200,000	-0,004	0,019
-117,380	593,641	0,024	-0,042
-116,366	213,925	-0,039	-0,044
-115,351	800,000	0,066	-0,159
-114,337	-137,181	-0,081	-0,006
-113,322	800,000	-0,026	-0,073
-112,307	-200,000	0,018	-0,256
-111,293	379,799	0,055	0,080
-110,278	-200,000	-0,014	-0,066
-109,264	-120,616	0,146	-0,017
-108,249	-139,303	0,081	-0,006
-107,234	-95,647	-0,165	-0,031
-106,220	152,994	0,040	0,039
-105,205	408,174	0,072	-0,109
-104,191	371,126	-0,041	-0,059
-103,176	56,013	0,099	0,068
-102,162	474,853	0,040	-0,064
-101,147	-67,755	-0,076	0,021
-100,132	-18,433	-0,049	-0,021
-99,118	348,220	-0,033	0,046
-98,103	800,000	-0,001	0,004
-97,089	-200,000	0,017	0,098
-96,074	-200,000	-0,027	0,152
-95,059	5,353	-0,023	0,012
-94,045	134,126	-0,061	0,056
-93,030	713,364	-0,037	0,070
-92,016	188,157	0,141	-0,149
-91,001	228,040	0,055	0,064
-89,986	-22,068	0,099	-0,042
-88,972	-200,000	0,012	0,248
-87,957	-105,644	0,089	0,014
-86,943	-72,367	-0,018	0,005
-85,928	-49,012	-0,126	0,043
-84,913	-172,271	-0,115	-0,003
-83,899	316,047	0,112	-0,150
-82,884	763,607	0,039	-0,075
-81,870	-98,869	0,033	0,006
-80,855	-200,000	0,014	-0,121
-79,840	-159,981	0,089	-0,003
-78,826	559,763	-0,028	-0,049
-77,811	198,078	-0,077	-0,084
-76,797	-200,000	-0,012	0,107
-75,782	-200,000	0,006	0,032
-74,767	-51,963	-0,065	0,021
-73,753	247,756	-0,052	0,063
-72,738	-200,000	-0,006	-0,131
-71,724	-200,000	0,011	-0,069
-70,709	-86,780	0,014	-0,003
-69,694	251,615	-0,052	0,063
-68,680	-18,861	0,139	0,061
-67,665	582,486	0,037	-0,065
-66,651	-34,998	0,125	0,048
-65,636	129,862	0,048	0,043
-64,622	223,990	-0,067	0,076
-63,607	-8,855	-0,038	-0,018
-62,592	57,841	0,065	-0,045
-61,578	423,840	0,041	0,063
-60,563	20,132	0,117	0,066
-59,549	-111,186	0,141	-0,020
-58,534	17,642	-1,919	-1,075
-57,519	488,315	-1,353	-2,190
-56,505	-200,000	-0,393	-4,332
-55,490	522,491	0,786	1,309
-54,476	800,000	5,081	11,296
-53,461	-200,000	20,720	329,305
-52,446	800,000	755,341	2320,472
-51,432	550,803	1661,051	2825,425
-50,417	73,827	1664,357	1230,927
-49,403	18,991	1537,703	868,086
-48,388	13,027	1460,420	795,583
-47,373	19,049	1451,249	819,492
-46,359	16,084	1440,552	799,295
-45,344	11,269	1436,337	773,980
-44,330	11,180	1434,491	772,526
-43,315	11,170	1432,374	771,311
-42,300	11,168	1430,861	770,457
-41,286	11,231	1429,297	769,880
-40,271	11,163	1428,105	768,886
-39,257	11,191	1426,995	768,391
-38,242	11,192	1425,856	767,750
-37,227	11,180	1424,993	767,201
-36,213	11,188	1423,651	766,484
-35,198	11,206	1422,428	765,879
-34,184	11,289	1421,310	765,640
-33,169	11,236	1419,976	764,644
-32,154	11,293	1418,997	764,351
-31,140	11,255	1417,907	763,555
-30,125	11,294	1416,777	763,100
-29,111	11,267	1415,693	762,360
-28,096	11,253	1414,441	761,588
-27,082	11,192	1413,450	760,740
-26,067	11,164	1412,378	760,002
-25,052	11,201	1411,216	759,517
-24,038	11,225	1410,095	758,996
-23,023	11,195	1409,292	758,396
-22,009	11,143	1408,168	757,517
-20,994	11,106	1407,323	756,862
-19,979	11,128	1406,473	756,476
-18,965	11,127	1405,232	755,773
-17,950	11,112	1404,558	755,309
-16,936	11,095	1403,745	754,764
-15,921	11,068	1402,577	753,982
-14,906	11,047	1401,847	753,460
-13,892	11,107	1400,750	753,122
-12,877	11,053	1400,129	752,504
-11,863	11,118	1398,840	752,083
-10,848	11,052	1398,159	751,383
-9,833	11,042	1397,502	750,954
-8,819	10,973	1396,775	750,212
-7,804	10,945	1395,595	749,418
-6,790	10,984	1394,740	749,111
-5,775	11,005	1393,512	748,518
-4,760	11,023	1392,408	747,977
-3,746	10,986	1391,601	747,344
-2,731	10,969	1390,791	746,799
-1,717	10,960	1390,080	746,349
-0,702	10,994	1387,987	745,349
0,313	14,956	1302,184	717,459
1,327	31,142	693,961	419,224
2,342	48,468	120,553	79,549
3,356	-1,179	16,633	8,267
4,371	1,531	3,327	1,684
5,386	-7,149	0,792	0,378
6,400	-200,000	0,161	0,560
7,415	38,213	-0,124	-0,078
8,429	103,652	-0,300	-0,248
9,444	53,458	-0,327	-0,221
10,459	5,787	-0,283	-0,147
11,473	19,732	-0,312	-0,177
12,488	27,183	-0,223	-0,132
13,502	-73,682	-0,381	-0,097
14,517	-133,731	-0,280	-0,024
15,531	-5,433	-0,413	-0,199
16,546	104,855	-0,268	-0,223
17,561	85,906	-0,397	-0,308
18,575	29,314	-0,252	-0,151
19,590	-42,270	-0,260	-0,093
20,604	88,529	-0,166	-0,130
21,619	87,598	-0,416	-0,325
22,634	142,309	-0,469	-0,438
23,648	-13,655	-0,464	-0,211
24,663	66,823	-0,433	-0,310
25,677	-103,910	-0,413	-0,067
26,692	16,607	-0,490	-0,272
27,707	48,772	-0,451	-0,298
28,721	33,140	-0,391	-0,238
29,736	193,884	-0,387	-0,413
30,750	66,956	-0,441	-0,316
31,765	110,023	-0,311	-0,262
32,780	455,337	-0,230	-0,361
33,794	-17,955	-0,430	-0,189
34,809	9,692	-0,335	-0,178
35,823	169,313	-0,399	-0,401
36,838	78,800	-0,334	-0,251
37,853	21,715	-0,436	-0,249
38,867	22,704	-0,431	-0,247
39,882	283,513	-0,242	-0,307
40,896	113,252	-0,292	-0,249
41,911	-9,502	-0,406	-0,190
42,926	166,603	-0,307	-0,306
43,940	115,766	-0,420	-0,362
44,955	188,702	-0,398	-0,419
45,969	133,330	-0,352	-0,320
46,984	44,361	-0,277	-0,179
47,999	81,121	-0,380	-0,288
49,013	118,426	-0,349	-0,302
50,028	278,955	-0,219	-0,275
51,042	-19,045	-0,320	-0,139
52,057	235,284	-0,320	-0,372
53,071	17,915	-0,308	-0,172
54,086	-31,606	-0,447	-0,176
55,101	166,924	-0,229	-0,229
56,115	26,328	-0,357	-0,209
57,130	102,663	-0,409	-0,336
58,144	38,028	-0,360	-0,225
59,159	90,979	-0,368	-0,289
60,174	191,188	-0,346	-0,366
61,188	98,929	-0,384	-0,311
62,203	96,120	-0,341	-0,274
63,217	9,089	-0,392	-0,207
64,232	228,866	-0,205	-0,235
65,247	372,705	-0,231	-0,330
66,261	1,525	-0,496	-0,250
67,276	61,913	-0,268	-0,187
68,290	44,387	-0,330	-0,212
69,305	118,130	-0,301	-0,261
70,320	65,977	-0,243	-0,173
71,334	125,403	-0,257	-0,227
72,349	617,039	-0,222	-0,393
73,363	167,954	-0,327	-0,327
74,378	103,410	-0,279	-0,229
75,393	-13,201	-0,403	-0,183
76,407	58,695	-0,267	-0,184
77,422	22,336	-0,367	-0,210
78,436	313,700	-0,164	-0,217
79,451	168,071	-0,369	-0,368
80,466	125,742	-0,312	-0,276
81,480	141,264	-0,293	-0,272
82,495	70,453	-0,285	-0,206
83,509	-39,460	-0,158	-0,058
84,524	-73,401	-0,283	-0,072
85,539	34,491	-0,235	-0,144
86,553	-57,982	-0,207	-0,063
87,568	-24,707	-0,404	-0,167
88,582	126,490	-0,301	-0,267
89,597	13,142	-0,454	-0,246
90,611	95,490	-0,190	-0,151
91,626	233,056	-0,273	-0,315
92,641	-65,175	-0,379	-0,106
93,655	142,214	-0,269	-0,250
94,670	-58,567	-0,329	-0,099
95,684	143,921	-0,318	-0,297
96,699	317,446	-0,191	-0,253
97,714	21,422	-0,203	-0,115
98,728	27,424	-0,365	-0,214
99,743	89,293	-0,277	-0,216
100,757	218,026	-0,181	-0,202
101,772	-99,160	-0,283	-0,050
102,787	298,112	-0,194	-0,250
103,801	36,094	-0,225	-0,138
104,816	555,558	-0,163	-0,276
105,830	-129,808	-0,317	-0,030
106,845	179,838	-0,232	-0,238
107,860	16,003	-0,232	-0,128
108,874	-121,131	-0,326	0,038
109,889	60,434	-0,344	-0,238
110,903	800,000	-0,130	-0,324
111,918	800,000	-0,113	-0,260
112,933	376,844	-0,134	-0,192
113,947	565,180	-0,128	-0,217
114,962	-76,997	-0,319	-0,077
115,976	8,094	-0,233	-0,122
116,991	-17,258	-0,273	-0,120
118,006	113,236	-0,324	-0,275
119,020	82,023	-0,216	-0,164
120,035	222,369	-0,220	-0,247
121,049	-199,952	-0,137	-0,000
122,064	91,022	-0,187	-0,146
123,079	70,716	-0,249	-0,180
124,093	224,832	-0,306	-0,346
125,108	154,753	-0,222	-0,213
126,122	83,411	-0,298	-0,227
127,137	129,480	-0,258	-0,230
128,151	167,925	-0,293	-0,291
129,166	475,689	-0,129	-0,204
130,181	-25,099	-0,204	-0,084
131,195	55,959	-0,259	-0,175
132,210	57,304	-0,176	-0,120
133,224	-32,036	-0,398	-0,155
134,239	46,703	-0,201	-0,130
135,254	70,738	-0,209	-0,151
136,268	86,824	-0,212	-0,163
137,283	800,000	-0,132	-0,331
138,297	259,447	-0,197	-0,238
139,312	299,770	-0,194	-0,250
140,327	247,385	-0,196	-0,232
141,341	44,979	-0,277	-0,178
142,356	63,180	-0,209	-0,146
143,370	-2,845	-0,116	-0,056
144,385	542,785	-0,110	-0,184
145,400	494,140	-0,125	-0,201
146,414	152,958	-0,288	-0,275
147,429	228,072	-0,312	-0,354
148,443	36,119	-0,221	-0,135
149,458	208,698	-0,210	-0,229
150,473	255,017	-0,109	-0,131
151,487	-44,040	-0,238	-0,083
152,502	54,013	-0,351	-0,235
153,516	12,145	-0,200	-0,107
154,531	-78,332	-0,365	-0,087
155,546	800,000	-0,101	-0,236
156,560	-15,474	-0,211	-0,093
157,575	35,637	-0,196	-0,119
158,589	6,987	-0,327	-0,169
159,604	104,716	-0,276	-0,226
160,619	94,623	-0,275	-0,217
161,633	-1,908	-0,197	-0,096
162,648	-107,090	-0,108	-0,016
163,662	100,496	-0,223	-0,180
164,677	-90,266	-0,209	-0,042
165,692	-63,210	-0,254	-0,072
166,706	58,134	-0,272	-0,185
167,721	39,355	-0,214	-0,133
168,735	-64,004	-0,268	-0,076
169,750	113,356	-0,235	-0,198
170,764	307,209	-0,157	-0,204
171,779	87,065	-0,196	-0,151
172,794	62,328	-0,159	-0,111
173,808	78,098	-0,178	-0,132
174,823	163,902	-0,229	-0,224
175,837	129,742	-0,217	-0,193
176,852	3,118	-0,259	-0,130
177,867	-71,823	-0,292	-0,075
178,881	-11,422	-0,151	-0,069
179,896	92,749	-0,110	-0,086
180,910	140,074	-0,164	-0,151
181,925	-50,075	-0,235	-0,077
182,940	143,631	-0,207	-0,191
183,954	-200,000	-0,040	-0,168
184,969	356,751	-0,144	-0,200
185,983	-200,000	-0,014	-0,215
186,998	-85,938	-0,182	-0,039
188,013	110,061	-0,268	-0,223
189,027	250,600	-0,264	-0,312
190,042	18,738	-0,283	-0,157
191,056	119,632	-0,196	-0,168
192,071	-14,266	-0,106	-0,047
193,086	-55,010	-0,142	-0,044
194,100	-63,104	-0,221	-0,063
195,115	642,013	-0,147	-0,262
196,129	126,828	-0,272	-0,239
197,144	119,684	-0,251	-0,216
198,159	140,730	-0,207	-0,189
199,173	48,543	-0,189	-0,122
200,188	126,626	-0,174	-0,153
201,202	800,000	-0,109	-0,240
202,217	91,432	-0,157	-0,123
203,232	150,666	-0,166	-0,157
204,246	35,739	-0,204	-0,124
205,261	209,143	-0,194	-0,211
206,275	73,327	-0,144	-0,105
207,290	-157,537	-0,134	0,005
208,304	-200,000	-0,013	-0,057
209,319	16,372	-0,233	-0,127
210,334	158,375	-0,118	-0,113
211,348	241,669	-0,233	-0,270
212,363	60,175	-0,256	-0,175
213,377	345,299	-0,142	-0,194
214,392	66,662	-0,158	-0,111
215,407	-25,252	-0,211	-0,086
216,421	137,017	-0,097	-0,088
217,436	-58,562	-0,171	-0,051
218,450	649,236	-0,145	-0,257
219,465	-87,463	-0,181	-0,038
220,480	197,345	-0,161	-0,170
221,494	162,641	-0,090	-0,087
222,509	243,000	-0,146	-0,170
223,523	285,297	-0,140	-0,175
224,538	-200,000	0,006	-0,183
225,553	-90,380	-0,262	-0,052
226,567	-25,401	-0,180	-0,073
227,582	65,712	-0,173	-0,121
228,596	6,175	-0,152	-0,078
229,611	-152,757	-0,202	0,010
230,626	27,801	-0,227	-0,132
231,640	26,209	-0,156	-0,090
232,655	297,119	-0,092	-0,117
233,669	527,053	-0,156	-0,254
234,684	272,107	-0,212	-0,259
235,699	385,352	-0,144	-0,205
236,713	139,785	-0,151	-0,138
237,728	218,367	-0,166	-0,183
238,742	68,968	-0,184	-0,131
239,757	2,601	-0,219	-0,109
240,772	172,798	-0,188	-0,187
241,786	281,720	-0,148	-0,184
242,801	-99,597	-0,183	0,032
243,815	-107,139	-0,091	-0,014
244,830	2,227	-0,198	-0,099
245,844	-81,014	-0,251	-0,057
246,859	100,068	-0,211	-0,169
247,874	45,582	-0,299	-0,191
248,888	-14,507	-0,281	-0,124
249,903	176,569	-0,250	-0,252
250,917	64,322	-0,216	-0,150
251,932	-25,170	-0,148	-0,060
252,947	-60,582	-0,303	0,088
253,961	280,041	-0,232	-0,287
254,976	800,000	-0,098	-0,211
255,990	-34,577	-0,181	-0,068
257,005	166,977	-0,219	-0,214
258,020	-200,000	0,020	-0,079
259,034	-8,033	-0,121	-0,056
260,049	57,665	-0,269	-0,181
261,063	115,704	-0,184	-0,155
262,078	-20,509	-0,259	-0,109
263,093	52,570	-0,191	-0,126
264,107	210,007	-0,109	-0,118
265,122	534,045	-0,103	-0,170
266,136	431,636	-0,069	-0,104
267,151	397,181	-0,136	-0,197
268,166	-146,725	-0,216	0,013
269,180	-100,719	-0,211	-0,036
270,195	-200,000	-0,023	-0,169
271,209	16,720	-0,188	-0,102
272,224	-200,000	-0,077	-0,301
273,239	180,524	-0,120	-0,122
274,253	-9,368	-0,229	-0,105
275,268	164,769	-0,141	-0,137
276,282	-59,688	-0,223	-0,065
277,297	188,775	-0,118	-0,122
278,312	243,822	-0,196	-0,227
279,326	-200,000	-0,017	-0,128
280,341	800,000	-0,103	-0,252
281,355	512,796	-0,162	-0,260
282,370	36,724	-0,391	-0,237
283,384	125,507	-0,080	-0,070
284,399	-168,344	-0,172	0,004
285,414	281,736	-0,144	-0,178
286,428	800,000	-0,095	-0,262
287,443	468,819	-0,096	-0,148
288,457	-60,669	-0,268	-0,078
289,472	800,000	-0,069	-0,170
290,487	81,436	-0,176	-0,131
291,501	56,157	-0,273	-0,182
292,516	-48,250	-0,211	-0,070
293,530	-17,570	-0,089	-0,038
294,545	403,961	-0,149	-0,217
295,560	19,452	-0,160	-0,088
296,574	208,438	-0,145	-0,156
297,589	30,054	-0,355	-0,207
298,603	653,876	-0,093	-0,165
299,618	-200,000	-0,048	-0,174
300,633	-59,060	-0,193	0,057
301,647	-79,099	-0,163	-0,038
302,662	609,148	-0,111	-0,191
303,676	41,741	-0,160	-0,099
304,691	-118,814	-0,244	-0,029
305,706	800,000	-0,074	-0,153
306,720	574,559	-0,148	-0,249
307,735	-35,126	-0,080	-0,030
308,749	-1,091	-0,118	-0,057
309,764	-44,502	-0,112	-0,038
310,779	-200,000	0,004	0,021
311,793	-124,996	-0,034	-0,004
312,808	167,799	-0,115	-0,112
313,822	800,000	-0,085	-0,221
314,837	-200,000	-0,007	-0,068
315,852	93,712	-0,125	-0,097
316,866	-27,920	-0,089	-0,035
317,881	-139,198	-0,199	0,015
318,895	-60,250	-0,170	-0,049
319,910	339,739	-0,179	-0,240
320,925	800,000	-0,110	-0,229
321,939	-85,607	-0,075	-0,016
322,954	31,572	-0,018	0,011
323,968	-200,000	-0,016	-0,056
324,983	7,539	-0,054	-0,028
325,997	-164,030	-0,120	0,004
327,012	140,281	-0,161	-0,146
328,027	126,572	-0,154	-0,134
329,041	-48,621	-0,126	0,041
330,056	-200,000	-0,021	-0,102
331,070	76,217	-0,127	-0,092
332,085	800,000	-0,087	-0,177
333,100	-10,268	-0,090	-0,041
334,114	83,320	-0,132	-0,098
335,129	260,821	-0,139	-0,165
336,143	793,958	-0,057	-0,107
337,158	359,368	-0,024	0,034
338,173	800,000	-0,007	0,013
339,187	74,402	-0,185	-0,133
340,202	800,000	0,028	-0,057
341,216	-200,000	-0,073	-0,233
342,231	-5,933	-0,230	-0,108
343,246	565,938	-0,187	-0,313
344,260	760,034	-0,056	-0,105
345,275	800,000	-0,066	-0,165
346,289	-104,998	-0,141	-0,022
347,304	241,186	-0,102	-0,117
348,319	510,565	-0,133	-0,213
349,333	7,264	-0,173	-0,088
350,348	156,212	-0,138	-0,131
351,362	-28,430	-0,207	-0,081
352,377	-52,419	-0,023	0,007
353,392	158,674	-0,089	-0,085
354,406	-200,000	-0,002	-0,064
355,421	207,166	1309,586	1399,004
356,435	159,356	1469,663	1399,491
