DTS Sentinel unit serial number:	SN410029Multiplexer serial number:	ORYXHardware model number:	OX2-SRSoftware version number:	ORYX F/W v4,00 Oryx Data Collector v3.7.2.0data status	okinstallation	B3 Nyhavnadifferential loss correction	single-endedforward channel	channel 1reverse channel	N/Adate	2023/12/03time	19:47:30forward acquisition time	300,00reverse acquisition time	0,00gamma	499,1914k internal	0,3199k external	0,3199temperature offset calibration	1,0000default loss term (dB/km)	0,3820temperature slope calibration	1,0000multiplexer offset coefficient	1,0000multiplexer slope coefficient	1,0000fibre end	0,00T internal ref (°C)	14,18T ext. ref 1 (°C)	-1,20T ext. ref 2 (°C)	-1,22length (m)	temperature (°C)	Stokes	anti-Stokes-744,400	239,077	-0,104	-0,126
-743,385	800,000	0,121	0,349
-742,371	447,811	-0,136	-0,219
-741,356	800,000	-0,115	0,294
-740,342	800,000	-0,145	-0,331
-739,327	-200,000	-0,031	0,301
-738,312	174,808	-0,283	-0,299
-737,298	-19,756	0,107	0,048
-736,283	121,876	-0,200	-0,182
-735,269	-200,000	-0,024	0,265
-734,254	-16,877	-0,309	-0,142
-733,239	61,889	-0,144	0,104
-732,225	800,000	-0,055	-0,173
-731,210	195,555	0,186	0,206
-730,196	-37,422	0,053	-0,021
-729,181	-200,000	0,008	-0,066
-728,167	221,955	-0,018	0,022
-727,152	-200,000	-0,021	-0,107
-726,137	-200,000	-0,008	0,179
-725,123	-35,012	-0,007	-0,003
-724,108	800,000	0,056	-0,164
-723,094	-115,556	-0,156	-0,021
-722,079	-200,000	-0,022	-0,091
-721,064	-128,703	-0,107	-0,011
-720,050	160,593	-0,044	0,045
-719,035	212,434	-0,042	0,049
-718,021	-200,000	-0,000	-0,009
-717,006	126,735	-0,032	-0,029
-715,991	-200,000	-0,030	-0,219
-714,977	357,328	-0,076	-0,110
-713,962	377,216	-0,104	-0,155
-712,948	-27,721	-0,096	-0,040
-711,933	-172,173	0,092	-0,002
-710,918	-91,891	-0,149	0,030
-709,904	-68,169	-0,106	-0,030
-708,889	-200,000	-0,033	-0,125
-707,875	299,839	0,049	-0,065
-706,860	800,000	-0,061	-0,164
-705,845	37,913	-0,082	-0,053
-704,831	116,218	-0,147	0,131
-703,816	-200,000	0,004	0,073
-702,802	-77,675	-0,175	-0,044
-701,787	231,047	-0,053	-0,063
-700,772	-53,973	-0,045	-0,015
-699,758	406,257	-0,018	-0,027
-698,743	11,578	0,056	-0,031
-697,729	800,000	-0,031	0,064
-696,714	800,000	-0,054	0,123
-695,699	649,976	0,034	0,063
-694,685	635,454	-0,049	-0,092
-693,670	-2,547	0,031	-0,016
-692,656	-49,447	-0,119	-0,041
-691,641	152,655	-0,041	-0,041
-690,627	663,664	0,036	0,068
-689,612	-200,000	0,003	0,071
-688,597	-62,791	-0,052	-0,015
-687,583	-61,804	0,020	-0,006
-686,568	-25,790	-0,103	-0,044
-685,554	151,516	-0,069	0,069
-684,539	-100,886	0,122	-0,022
-683,524	336,478	-0,029	-0,041
-682,510	-200,000	-0,034	-0,130
-681,495	800,000	0,084	-0,176
-680,481	-200,000	-0,016	-0,077
-679,466	-200,000	0,009	-0,092
-678,451	-97,477	-0,073	0,014
-677,437	98,810	0,044	-0,037
-676,422	800,000	0,051	0,130
-675,408	-94,538	-0,092	0,018
-674,393	800,000	-0,052	-0,119
-673,378	393,524	-0,081	-0,123
-672,364	-200,000	-0,014	-0,234
-671,349	-183,321	-0,222	-0,003
-670,335	-99,149	0,105	0,019
-669,320	180,433	0,035	0,038
-668,305	346,801	-0,082	0,118
-667,291	-92,261	-0,192	0,039
-666,276	326,999	-0,080	-0,111
-665,262	800,000	-0,078	-0,180
-664,247	-30,285	-0,166	0,068
-663,232	118,352	0,089	-0,080
-662,218	-115,239	-0,037	-0,005
-661,203	-200,000	0,012	-0,074
-660,189	645,840	-0,005	0,009
-659,174	-153,933	0,070	-0,003
-658,159	77,225	-0,005	0,004
-657,145	-7,130	-0,119	0,058
-656,130	-36,949	0,024	0,009
-655,116	-200,000	-0,016	0,057
-654,101	171,305	0,078	0,081
-653,086	-23,800	0,105	0,046
-652,072	-4,211	-0,099	-0,050
-651,057	-87,043	-0,174	-0,038
-650,043	-56,134	0,028	-0,009
-649,028	800,000	-0,034	-0,106
-648,014	-200,000	0,008	0,119
-646,999	800,000	-0,052	0,123
-645,984	-47,783	-0,075	-0,026
-644,970	291,931	-0,029	0,038
-643,955	-76,184	-0,031	-0,008
-642,941	-47,691	-0,067	-0,023
-641,926	9,751	0,108	0,059
-640,911	-200,000	-0,011	0,227
-639,897	-200,000	0,012	0,129
-638,882	-6,008	-0,063	0,031
-637,868	-20,757	-0,061	-0,027
-636,853	-170,965	-0,083	0,002
-635,838	800,000	-0,022	-0,051
-634,824	-99,769	-0,166	0,030
-633,809	83,954	0,095	0,075
-632,795	-200,000	0,005	0,066
-631,780	167,691	0,173	0,179
-630,765	-134,623	-0,089	0,008
-629,751	-200,000	0,018	-0,096
-628,736	-200,000	0,002	-0,013
-627,722	-200,000	-0,034	-0,187
-626,707	687,780	0,057	-0,108
-625,692	800,000	-0,022	0,065
-624,678	-60,677	0,080	0,024
-623,663	335,946	-0,103	0,145
-622,649	296,892	-0,080	-0,107
-621,634	8,096	-0,024	0,013
-620,619	-123,402	0,087	-0,010
-619,605	430,407	-0,036	0,057
-618,590	-102,564	0,055	0,009
-617,576	-109,876	-0,117	0,018
-616,561	53,791	-0,017	0,012
-615,546	122,986	-0,092	-0,083
-614,532	-85,110	-0,041	-0,009
-613,517	48,107	-0,091	-0,062
-612,503	-200,000	-0,004	-0,049
-611,488	-200,000	0,024	-0,092
-610,474	-105,419	0,122	0,020
-609,459	328,728	-0,046	0,065
-608,444	14,882	-0,143	0,081
-607,430	23,340	-0,106	-0,063
-606,415	237,468	-0,056	-0,068
-605,401	-200,000	-0,005	0,041
-604,386	-200,000	-0,014	-0,064
-603,371	-200,000	0,030	0,127
-602,357	620,322	0,045	0,082
-601,342	6,122	-0,069	-0,037
-600,328	-89,604	-0,062	0,013
-599,313	-200,000	0,005	0,018
-598,298	-200,000	0,008	-0,080
-597,284	410,018	-0,088	-0,135
-596,269	-95,799	-0,101	-0,019
-595,255	-121,492	-0,093	0,011
-594,240	338,317	0,052	-0,073
-593,225	166,310	0,142	0,145
-592,211	-58,791	0,020	-0,006
-591,196	370,261	0,056	-0,083
-590,182	-200,000	-0,029	-0,098
-589,167	320,808	0,071	0,098
-588,152	-200,000	-0,017	0,065
-587,138	800,000	0,080	-0,222
-586,123	277,040	0,093	-0,120
-585,109	-200,000	-0,004	0,084
-584,094	-98,333	-0,082	-0,015
-583,079	-200,000	0,029	0,148
-582,065	513,421	-0,045	-0,076
-581,050	-49,261	0,100	-0,034
-580,036	-125,799	-0,176	0,019
-579,021	-200,000	-0,046	-0,156
-578,006	800,000	-0,139	-0,281
-576,992	-200,000	-0,017	0,130
-575,977	-45,630	-0,153	0,054
-574,963	468,426	-0,017	0,027
-573,948	-113,753	0,059	-0,008
-572,934	20,322	0,053	-0,031
-571,919	-105,173	-0,146	0,024
-570,904	-10,567	-0,074	0,035
-569,890	-194,013	-0,084	0,000
-568,875	217,841	-0,071	-0,082
-567,861	161,728	0,107	0,109
-566,846	-200,000	-0,027	0,111
-565,831	-200,000	0,001	0,019
-564,817	-77,671	-0,196	-0,049
-563,802	-37,915	0,120	-0,046
-562,788	-56,240	-0,027	0,009
-561,773	-200,000	0,011	-0,078
-560,758	-200,000	0,004	0,040
-559,744	-53,169	0,034	0,011
-558,729	-200,000	0,013	0,065
-557,715	-35,196	-0,170	0,066
-556,700	46,025	0,074	-0,050
-555,685	-200,000	-0,047	0,174
-554,671	164,809	-0,081	0,083
-553,656	-200,000	-0,012	0,094
-552,642	800,000	0,024	-0,073
-551,627	386,296	0,052	-0,078
-550,612	-200,000	-0,006	-0,098
-549,598	395,810	-0,016	-0,024
-548,583	235,412	0,043	-0,051
-547,569	-23,921	0,053	0,023
-546,554	-20,685	-0,072	0,032
-545,539	47,060	0,086	0,058
-544,525	130,430	0,022	-0,021
-543,510	305,353	0,048	0,065
-542,496	8,480	-0,136	-0,073
-541,481	530,938	-0,037	-0,063
-540,466	-200,000	-0,029	-0,111
-539,452	-200,000	0,164	0,000
-538,437	20,986	0,016	0,009
-537,423	800,000	-0,010	-0,022
-536,408	-200,000	0,089	0,000
-535,393	-200,000	0,001	-0,006
-534,379	61,210	0,110	-0,079
-533,364	130,842	-0,107	-0,099
-532,350	800,000	0,033	-0,098
-531,335	-30,805	-0,046	0,019
-530,321	800,000	0,038	0,097
-529,306	-200,000	0,015	-0,054
-528,291	-200,000	0,002	0,073
-527,277	147,403	0,052	-0,051
-526,262	64,713	0,022	-0,016
-525,248	-21,541	0,113	0,049
-524,233	800,000	-0,038	-0,082
-523,218	-76,902	0,096	0,024
-522,204	800,000	-0,011	0,029
-521,189	-200,000	-0,021	-0,106
-520,175	-200,000	-0,002	0,044
-519,160	457,152	-0,017	-0,027
-518,145	684,736	-0,026	0,050
-517,131	-112,231	-0,100	-0,014
-516,116	37,309	-0,072	0,046
-515,102	386,266	0,041	0,061
-514,087	598,353	-0,027	0,048
-513,072	75,067	0,038	-0,029
-512,058	262,777	-0,014	0,018
-511,043	-200,000	-0,018	0,165
-510,029	-54,369	0,091	-0,030
-509,014	-200,000	-0,002	0,014
-507,999	-200,000	0,007	0,060
-506,985	-161,033	-0,150	0,006
-505,970	-18,429	-0,040	-0,018
-504,956	-200,000	0,021	0,077
-503,941	-2,503	0,056	-0,028
-502,926	54,295	0,081	-0,056
-501,912	151,938	0,086	0,085
-500,897	749,862	0,099	0,194
-499,883	800,000	-0,034	-0,079
-498,868	800,000	-0,065	-0,131
-497,853	-27,016	0,088	-0,037
-496,839	-148,602	-0,046	-0,003
-495,824	-39,846	0,062	0,023
-494,810	1,316	0,163	0,084
-493,795	-59,315	0,042	0,013
-492,781	22,659	0,036	0,021
-491,766	-200,000	0,010	-0,100
-490,751	-200,000	0,019	-0,067
-489,737	-200,000	-0,021	0,071
-488,722	176,998	-0,053	0,056
-487,708	-200,000	-0,021	0,081
-486,693	800,000	0,035	0,112
-485,678	61,239	-0,046	0,033
-484,664	50,006	-0,104	-0,071
-483,649	374,655	-0,064	0,094
-482,635	694,804	-0,027	-0,050
-481,620	8,180	0,005	-0,003
-480,605	-200,000	-0,036	-0,137
-479,591	59,332	0,050	-0,035
-478,576	-104,950	-0,128	-0,021
-477,562	-108,087	0,061	0,009
-476,547	6,038	-0,094	-0,050
-475,532	-135,214	0,101	-0,009
-474,518	-134,454	0,047	-0,004
-473,503	115,190	-0,020	0,018
-472,489	18,141	-0,058	-0,033
-471,474	414,383	-0,050	0,078
-470,459	-200,000	0,025	-0,096
-469,445	605,324	-0,061	-0,110
-468,430	-200,000	-0,010	-0,122
-467,416	-73,151	0,061	-0,016
-466,401	-200,000	-0,014	-0,068
-465,386	-200,000	-0,053	0,241
-464,372	104,412	-0,109	0,092
-463,357	32,648	-0,126	-0,078
-462,343	-200,000	-0,003	0,098
-461,328	800,000	-0,036	0,085
-460,313	-68,763	0,110	-0,030
-459,299	39,863	0,015	-0,009
-458,284	800,000	0,017	-0,038
-457,270	-52,977	-0,012	-0,004
-456,255	-200,000	-0,004	0,089
-455,241	753,399	0,033	0,065
-454,226	-67,177	-0,022	-0,006
-453,211	-63,913	0,111	0,033
-452,197	512,398	0,067	0,112
-451,182	-130,864	-0,035	-0,003
-450,168	45,391	-0,091	0,061
-449,153	-200,000	-0,026	0,127
-448,138	-50,356	0,091	0,031
-447,124	800,000	0,019	0,042
-446,109	-23,057	-0,139	0,060
-445,095	800,000	0,066	-0,142
-444,080	124,417	-0,085	-0,077
-443,065	145,596	0,052	-0,050
-442,051	-137,158	0,038	0,003
-441,036	202,414	0,119	-0,132
-440,022	249,186	0,064	-0,078
-439,007	49,249	0,060	-0,041
-437,992	134,095	-0,039	-0,037
-436,978	246,534	0,066	0,080
-435,963	62,926	0,051	0,037
-434,949	-63,078	0,110	0,033
-433,934	800,000	-0,041	-0,085
-432,919	-22,258	-0,100	-0,044
-431,905	-99,470	0,067	-0,012
-430,890	245,202	0,066	0,080
-429,876	38,803	-0,021	-0,013
-428,861	-132,667	0,058	-0,005
-427,846	-200,000	0,014	0,212
-426,832	72,339	-0,121	-0,091
-425,817	-68,613	-0,052	-0,014
-424,803	24,831	-0,067	-0,040
-423,788	633,538	0,062	0,114
-422,773	19,623	0,014	0,008
-421,759	63,990	0,154	0,111
-420,744	751,435	-0,055	-0,108
-419,730	-200,000	0,011	-0,039
-418,715	77,806	-0,080	-0,061
-417,701	177,387	-0,076	0,079
-416,686	340,222	-0,089	0,125
-415,671	-200,000	-0,015	0,072
-414,657	-200,000	0,007	0,141
-413,642	-200,000	0,009	0,153
-412,628	651,528	-0,035	0,065
-411,613	153,761	0,061	-0,061
-410,598	-67,298	-0,044	0,012
-409,584	7,809	-0,091	-0,049
-408,569	800,000	0,067	0,135
-407,555	371,218	-0,036	0,052
-406,540	53,819	-0,056	0,039
-405,525	21,387	0,026	0,015
-404,511	380,205	-0,035	-0,052
-403,496	-9,089	0,133	-0,064
-402,482	-121,616	-0,261	0,031
-401,467	-200,000	0,017	0,177
-400,452	25,850	0,080	0,048
-399,438	670,502	0,013	-0,023
-398,423	-200,000	0,020	0,064
-397,409	83,690	0,041	0,032
-396,394	69,045	-0,045	-0,033
-395,379	66,486	0,111	-0,081
-394,365	-200,000	0,022	-0,168
-393,350	389,900	-0,041	0,062
-392,336	13,819	0,100	0,056
-391,321	-200,000	0,013	-0,097
-390,306	411,602	-0,131	-0,200
-389,292	18,411	-0,046	-0,027
-388,277	-200,000	0,015	0,049
-387,263	-200,000	0,005	-0,098
-386,248	-82,541	-0,037	0,009
-385,233	800,000	-0,006	-0,017
-384,219	800,000	0,070	-0,219
-383,204	-129,479	0,270	-0,027
-382,190	-99,089	-0,147	-0,026
-381,175	-41,240	-0,060	-0,022
-380,160	-92,337	0,054	-0,011
-379,146	800,000	0,016	-0,044
-378,131	-200,000	0,010	0,035
-377,117	-16,699	0,106	0,048
-376,102	-127,338	-0,140	-0,014
-375,088	214,423	0,032	0,036
-374,073	-37,888	-0,117	0,044
-373,058	90,844	0,059	0,047
-372,044	232,214	-0,048	-0,056
-371,029	-60,008	0,073	-0,022
-370,015	-85,782	0,022	-0,005
-369,000	42,191	-0,063	0,041
-367,985	800,000	-0,021	-0,054
-366,971	-200,000	-0,018	0,108
-365,956	-44,925	0,069	0,025
-364,942	-200,000	-0,006	-0,037
-363,927	114,695	-0,039	-0,034
-362,912	800,000	0,044	0,089
-361,898	555,461	-0,043	-0,075
-360,883	229,689	0,085	-0,100
-359,869	43,001	-0,040	-0,026
-358,854	672,051	0,026	0,049
-357,839	800,000	0,014	0,039
-356,825	445,089	0,063	-0,099
-355,810	-44,842	0,118	0,042
-354,796	-200,000	0,007	0,191
-353,781	459,289	-0,046	0,073
-352,766	-4,593	0,047	0,023
-351,752	206,113	0,023	-0,025
-350,737	-42,217	0,166	0,060
-349,723	800,000	0,012	0,034
-348,708	37,950	0,046	-0,029
-347,693	-11,478	-0,072	0,034
-346,679	102,255	0,028	0,023
-345,664	-200,000	-0,006	0,129
-344,650	-140,195	0,046	-0,003
-343,635	196,539	0,084	-0,092
-342,620	-200,000	0,000	0,094
-341,606	-200,000	0,021	0,098
-340,591	33,577	-0,072	0,045
-339,577	-118,829	-0,069	0,009
-338,562	800,000	0,005	-0,014
-337,548	-110,816	0,160	-0,023
-336,533	-17,104	0,086	0,039
-335,518	-34,968	0,081	0,031
-334,504	18,130	0,057	0,032
-333,489	800,000	-0,024	0,049
-332,475	68,572	-0,083	-0,061
-331,460	370,796	0,057	0,083
-330,445	34,388	-0,155	-0,097
-329,431	800,000	0,036	-0,103
-328,416	449,094	-0,048	0,076
-327,402	-36,966	-0,046	0,018
-326,387	-69,124	-0,053	0,015
-325,372	800,000	-0,040	-0,086
-324,358	29,506	-0,120	-0,073
-323,343	-52,330	-0,132	-0,044
-322,329	-7,564	0,105	-0,051
-321,314	-82,774	0,073	0,017
-320,299	-200,000	0,034	0,158
-319,285	-30,793	-0,148	0,060
-318,270	400,725	0,051	0,077
-317,256	-200,000	-0,009	-0,037
-316,241	83,886	0,092	-0,072
-315,226	-200,000	0,025	0,127
-314,212	-200,000	0,032	0,225
-313,197	145,814	0,083	0,080
-312,183	-200,000	-0,014	0,054
-311,168	800,000	0,005	0,011
-310,153	371,549	-0,065	-0,095
-309,139	135,592	-0,118	-0,110
-308,124	44,516	0,088	0,058
-307,110	-196,267	-0,063	-0,000
-306,095	-200,000	0,000	0,114
-305,080	-200,000	0,018	0,066
-304,066	-15,113	-0,108	-0,049
-303,051	49,510	-0,075	0,050
-302,037	158,373	0,071	-0,071
-301,022	202,221	0,030	-0,034
-300,008	4,104	0,097	0,051
-298,993	616,975	0,065	0,116
-297,978	-15,934	-0,070	-0,032
-296,964	104,305	0,072	0,060
-295,949	-130,051	0,048	0,005
-294,935	139,619	-0,067	-0,063
-293,920	-84,891	-0,071	-0,016
-292,905	147,127	-0,006	-0,006
-291,891	-25,413	0,154	-0,065
-290,876	81,946	0,017	0,013
-289,862	-14,298	0,052	0,024
-288,847	-116,782	-0,008	0,001
-287,832	409,076	-0,022	0,034
-286,818	159,299	0,053	-0,052
-285,803	-40,783	0,129	-0,048
-284,789	-200,000	-0,038	0,141
-283,774	-63,171	0,075	0,022
-282,759	-28,603	-0,145	-0,059
-281,745	-200,000	0,010	-0,112
-280,730	300,230	-0,060	0,079
-279,716	-200,000	-0,004	-0,152
-278,701	75,381	0,061	-0,046
-277,686	452,116	0,041	0,065
-276,672	479,313	0,060	0,098
-275,657	108,010	-0,091	-0,078
-274,643	-48,512	-0,120	-0,041
-273,628	692,050	-0,113	-0,213
-272,613	163,371	-0,019	-0,019
-271,599	-115,591	-0,077	0,010
-270,584	-131,053	0,150	-0,014
-269,570	49,076	0,049	-0,033
-268,555	-200,000	-0,021	0,125
-267,540	310,356	0,005	0,007
-266,526	-112,886	0,107	0,015
-265,511	133,080	-0,042	-0,038
-264,497	-200,000	0,006	0,039
-263,482	-97,976	0,138	-0,025
-262,467	240,490	-0,103	-0,123
-261,453	800,000	0,007	0,020
-260,438	-200,000	-0,013	-0,057
-259,424	134,915	-0,046	-0,043
-258,409	-136,820	-0,184	0,015
-257,395	73,565	-0,044	-0,033
-256,380	-200,000	0,015	-0,067
-255,365	2,957	-0,076	-0,039
-254,351	330,592	0,079	-0,108
-253,336	118,956	-0,076	-0,067
-252,322	-193,778	0,144	-0,001
-251,307	162,104	-0,035	0,035
-250,292	-200,000	0,011	-0,089
-249,278	397,854	-0,035	0,053
-248,263	-31,981	0,218	0,087
-247,249	-200,000	-0,029	0,157
-246,234	800,000	0,058	-0,140
-245,219	148,330	-0,053	-0,051
-244,205	-96,184	-0,051	-0,009
-243,190	-60,203	-0,105	-0,032
-242,176	-137,349	0,104	0,008
-241,161	-200,000	-0,010	0,192
-240,146	246,702	-0,013	0,016
-239,132	705,894	0,045	0,086
-238,117	-52,138	0,093	0,030
-237,103	395,662	-0,029	-0,044
-236,088	-103,469	0,083	0,014
-235,073	-112,455	0,185	0,026
-234,059	44,717	-0,044	0,029
-233,044	-200,000	-0,004	-0,045
-232,030	-200,000	-0,014	-0,109
-231,015	-115,759	-0,054	0,007
-230,000	36,299	-0,068	-0,043
-228,986	-171,261	-0,154	-0,004
-227,971	88,561	0,057	-0,045
-226,957	-155,685	0,049	0,002
-225,942	-200,000	-0,012	-0,047
-224,927	-44,253	0,078	0,028
-223,913	695,272	0,018	-0,033
-222,898	0,122	0,033	0,017
-221,884	-200,000	-0,015	-0,078
-220,869	800,000	0,031	-0,066
-219,855	-200,000	0,008	0,140
-218,840	632,638	0,022	-0,039
-217,825	12,098	-0,035	-0,019
-216,811	-38,565	-0,064	-0,024
-215,796	-200,000	-0,023	-0,086
-214,782	800,000	-0,036	-0,073
-213,767	-125,066	0,123	0,013
-212,752	-76,749	0,170	0,042
-211,738	-150,107	0,086	0,005
-210,723	330,907	-0,051	0,070
-209,709	-200,000	-0,017	-0,143
-208,694	241,258	-0,018	0,021
-207,679	113,354	-0,121	0,105
-206,665	729,254	0,071	0,135
-205,650	49,261	0,157	0,105
-204,636	-133,722	0,039	-0,003
-203,621	-101,815	0,104	0,018
-202,606	-125,457	-0,099	-0,011
-201,592	-52,262	-0,089	-0,029
-200,577	-200,000	0,004	-0,153
-199,563	800,000	-0,025	0,066
-198,548	-105,362	0,086	-0,014
-197,533	50,753	0,037	-0,025
-196,519	241,621	0,061	0,073
-195,504	-133,257	0,094	0,008
-194,490	546,737	0,043	-0,074
-193,475	-96,162	-0,149	-0,028
-192,460	-58,990	-0,104	0,032
-191,446	-200,000	-0,019	-0,074
-190,431	-13,163	0,116	-0,054
-189,417	-200,000	0,029	0,164
-188,402	357,378	-0,030	0,043
-187,387	-115,542	-0,028	-0,004
-186,373	-200,000	0,016	-0,068
-185,358	369,285	0,086	-0,125
-184,344	93,444	0,042	-0,034
-183,329	38,502	-0,105	-0,067
-182,315	-200,000	0,041	-0,147
-181,300	800,000	0,046	-0,133
-180,285	534,770	-0,113	-0,191
-179,271	-5,280	0,133	-0,065
-178,256	-50,250	-0,061	0,020
-177,242	148,314	-0,059	-0,057
-176,227	-161,940	-0,105	-0,004
-175,212	-104,720	0,139	0,022
-174,198	460,344	0,056	-0,090
-173,183	32,572	-0,027	0,016
-172,169	-54,621	-0,102	0,033
-171,154	800,000	0,024	0,064
-170,139	-200,000	0,009	0,031
-169,125	800,000	0,041	-0,122
-168,110	-1,532	0,102	0,051
-167,096	-200,000	-0,002	-0,044
-166,081	-200,000	-0,005	-0,038
-165,066	57,548	0,113	-0,079
-164,052	95,186	-0,087	-0,070
-163,037	221,067	-0,022	-0,026
-162,023	43,872	0,054	0,035
-161,008	-200,000	-0,022	0,151
-159,993	800,000	0,037	0,079
-158,979	63,006	-0,095	-0,068
-157,964	59,695	-0,185	-0,130
-156,950	110,907	0,079	-0,068
-155,935	-59,280	0,060	-0,018
-154,920	-147,909	0,070	-0,004
-153,906	-31,498	0,043	0,017
-152,891	-152,868	-0,028	-0,001
-151,877	-62,901	-0,144	0,042
-150,862	414,443	0,076	-0,116
-149,847	-31,886	0,051	0,020
-148,833	-200,000	-0,012	-0,100
-147,818	-27,708	0,096	-0,039
-146,804	300,673	-0,012	0,015
-145,789	234,297	-0,016	0,019
-144,775	-200,000	-0,035	-0,119
-143,760	235,253	0,076	0,089
-142,745	-39,552	0,038	0,014
-141,731	-200,000	0,019	0,170
-140,716	-200,000	-0,001	-0,076
-139,702	-20,203	0,161	0,070
-138,687	-200,000	0,006	0,074
-137,672	800,000	-0,038	-0,115
-136,658	-111,539	-0,067	0,010
-135,643	-23,553	-0,076	-0,032
-134,629	-200,000	-0,022	-0,098
-133,614	-200,000	0,016	0,121
-132,599	800,000	0,088	0,230
-131,585	-19,048	-0,073	-0,032
-130,570	75,453	-0,034	0,025
-129,556	345,252	-0,060	0,085
-128,541	800,000	0,043	0,113
-127,526	-200,000	0,020	-0,136
-126,512	494,453	-0,073	0,119
-125,497	12,618	0,061	0,034
-124,483	-31,268	0,078	-0,031
-123,468	208,582	0,073	-0,082
-122,453	800,000	-0,006	-0,017
-121,439	-14,829	-0,034	-0,016
-120,424	456,512	0,039	0,062
-119,410	-10,081	-0,083	0,039
-118,395	-121,947	0,092	0,011
-117,380	-93,682	0,081	-0,016
-116,366	51,069	-0,060	-0,041
-115,351	-1,224	0,033	-0,017
-114,337	-165,134	0,178	-0,005
-113,322	317,019	-0,038	-0,051
-112,307	591,086	-0,081	0,142
-111,293	4,414	-0,070	-0,037
-110,278	776,907	0,062	-0,121
-109,264	-200,000	-0,013	-0,108
-108,249	-141,957	0,162	-0,011
-107,234	-58,233	-0,063	0,019
-106,220	-105,406	-0,118	0,019
-105,205	359,089	0,052	-0,075
-104,191	222,528	0,085	0,097
-103,176	-82,344	-0,050	0,012
-102,162	-200,000	0,004	0,088
-101,147	-43,002	-0,126	-0,045
-100,132	800,000	0,033	0,074
-99,118	-81,323	0,065	0,015
-98,103	-183,942	0,110	-0,001
-97,089	800,000	0,031	-0,063
-96,074	13,287	0,056	-0,031
-95,059	12,997	-0,120	-0,066
-94,045	-182,464	0,142	-0,002
-93,030	-38,949	-0,084	0,031
-92,016	-197,119	-0,044	-0,000
-91,001	-22,783	-0,067	0,029
-89,986	-200,000	0,020	0,077
-88,972	800,000	0,073	0,169
-87,957	175,762	0,054	0,055
-86,943	467,238	0,025	-0,040
-85,928	95,570	-0,085	-0,069
-84,913	-200,000	-0,007	-0,102
-83,899	-200,000	-0,023	0,103
-82,884	219,561	-0,064	0,073
-81,870	-126,924	0,039	-0,004
-80,855	493,840	0,022	0,037
-79,840	-200,000	-0,021	0,079
-78,826	-9,722	-0,068	-0,032
-77,811	173,418	0,064	0,065
-76,797	34,934	0,050	-0,031
-75,782	-200,000	-0,030	0,100
-74,767	142,337	-0,016	-0,015
-73,753	800,000	0,073	0,147
-72,738	552,357	-0,024	0,041
-71,724	-200,000	-0,002	0,009
-70,709	-200,000	-0,005	0,091
-69,694	-88,536	-0,061	0,013
-68,680	-47,252	-0,055	0,019
-67,665	94,113	0,173	0,139
-66,651	793,835	-0,054	0,105
-65,636	-156,771	0,062	-0,003
-64,622	-112,442	-0,279	-0,039
-63,607	53,201	0,046	0,031
-62,592	185,938	0,088	-0,093
-61,578	277,100	0,039	0,050
-60,563	-200,000	0,009	-0,048
-59,549	800,000	-0,034	0,069
-58,534	-44,697	-1,599	-0,562
-57,519	353,970	-1,437	-2,027
-56,505	-200,000	-0,477	-4,535
-55,490	364,434	0,869	1,242
-54,476	800,000	4,785	10,919
-53,461	-200,000	18,700	304,350
-52,446	800,000	736,343	2290,581
-51,432	567,299	1652,390	2853,630
-50,417	78,954	1669,509	1265,006
-49,403	22,088	1542,573	889,486
-48,388	16,073	1465,232	815,665
-47,373	17,818	1455,499	818,645
-46,359	16,912	1445,589	808,691
-45,344	14,303	1440,787	793,483
-44,330	14,256	1439,028	792,257
-43,315	14,251	1437,158	791,171
-42,300	14,199	1435,895	790,197
-41,286	14,319	1434,343	789,886
-40,271	14,240	1433,017	788,747
-39,257	14,223	1431,995	788,072
-38,242	14,282	1430,588	787,548
-37,227	14,298	1429,535	787,011
-36,213	14,301	1428,178	786,245
-35,198	14,332	1426,958	785,691
-34,184	14,317	1426,083	785,108
-33,169	14,219	1424,912	783,967
-32,154	14,308	1423,588	783,629
-31,140	14,301	1422,342	782,880
-30,125	14,322	1421,179	782,306
-29,111	14,296	1420,047	781,532
-28,096	14,255	1418,985	780,724
-27,082	14,255	1417,899	780,091
-26,067	14,211	1416,881	779,295
-25,052	14,201	1415,713	778,574
-24,038	14,152	1414,982	777,913
-23,023	14,197	1413,722	777,399
-22,009	14,203	1412,465	776,707
-20,994	14,142	1412,011	776,140
-19,979	14,157	1411,092	775,672
-18,965	14,152	1409,922	774,977
-17,950	14,136	1409,155	774,448
-16,936	14,101	1408,315	773,790
-15,921	14,119	1406,913	773,077
-14,906	14,149	1406,175	772,781
-13,892	14,133	1405,181	772,126
-12,877	14,109	1404,412	771,563
-11,863	14,102	1403,521	771,008
-10,848	14,094	1402,591	770,432
-9,833	14,067	1401,647	769,758
-8,819	14,049	1400,816	769,184
-7,804	13,997	1399,891	768,403
-6,790	13,986	1398,866	767,760
-5,775	14,027	1397,618	767,234
-4,760	13,975	1397,063	766,657
-3,746	14,002	1396,014	766,179
-2,731	13,990	1395,250	765,671
-1,717	13,985	1394,385	765,146
-0,702	13,994	1392,522	764,134
0,313	17,852	1310,729	737,135
1,327	34,040	706,232	434,711
2,342	51,829	124,328	83,640
3,356	1,870	16,588	8,442
4,371	5,589	3,257	1,698
5,386	-5,927	0,577	0,278
6,400	800,000	0,054	0,113
7,415	110,191	-0,260	-0,221
8,429	176,563	-0,247	-0,255
9,444	-18,235	-0,409	-0,180
10,459	-78,721	-0,321	-0,077
11,473	50,703	-0,325	-0,217
12,488	67,079	-0,284	-0,204
13,502	-39,292	-0,417	-0,154
14,517	118,104	-0,269	-0,235
15,531	75,047	-0,362	-0,269
16,546	-43,661	-0,435	-0,154
17,561	202,455	-0,344	-0,376
18,575	6,705	-0,273	-0,143
19,590	137,283	-0,304	-0,281
20,604	-86,450	-0,319	-0,069
21,619	47,684	-0,417	-0,275
22,634	39,508	-0,400	-0,253
23,648	186,722	-0,322	-0,339
24,663	11,324	-0,470	-0,254
25,677	-15,522	-0,340	-0,153
26,692	137,905	-0,364	-0,337
27,707	-44,162	-0,452	-0,159
28,721	13,872	-0,407	-0,223
29,736	215,828	-0,333	-0,374
30,750	551,577	-0,196	-0,334
31,765	75,024	-0,464	-0,345
32,780	129,668	-0,411	-0,371
33,794	-46,359	-0,258	-0,089
34,809	246,559	-0,283	-0,338
35,823	508,106	-0,253	-0,417
36,838	84,202	-0,450	-0,347
37,853	33,847	-0,469	-0,287
38,867	147,837	-0,296	-0,282
39,882	146,956	-0,368	-0,349
40,896	-19,978	-0,278	-0,121
41,911	20,247	-0,401	-0,228
42,926	139,887	-0,345	-0,320
43,940	142,039	-0,353	-0,330
44,955	188,826	-0,307	-0,325
45,969	184,313	-0,356	-0,372
46,984	340,900	-0,220	-0,304
47,999	-7,775	-0,283	-0,134
49,013	55,889	-0,276	-0,189
50,028	120,110	-0,293	-0,256
51,042	209,173	-0,266	-0,294
52,057	159,712	-0,366	-0,360
53,071	211,770	-0,278	-0,309
54,086	226,243	-0,299	-0,342
55,101	58,409	-0,265	-0,183
56,115	-97,450	-0,298	-0,054
57,130	29,287	-0,258	-0,154
58,144	-59,959	-0,409	-0,122
59,159	186,141	-0,372	-0,390
60,174	112,022	-0,346	-0,294
61,188	-7,548	-0,359	-0,171
62,203	-25,963	-0,413	-0,171
63,217	247,459	-0,139	-0,166
64,232	-75,888	-0,306	-0,076
65,247	25,273	-0,379	-0,221
66,261	5,501	-0,334	-0,173
67,276	138,980	-0,318	-0,295
68,290	68,046	-0,371	-0,267
69,305	-31,228	-0,471	-0,186
70,320	-60,530	-0,249	-0,074
71,334	52,289	-0,245	-0,164
72,349	-71,843	-0,291	-0,076
73,363	141,273	-0,360	-0,335
74,378	82,758	-0,256	-0,196
75,393	141,534	-0,189	-0,176
76,407	-68,721	-0,323	-0,087
77,422	92,866	-0,333	-0,265
78,436	0,369	-0,292	-0,146
79,451	62,495	-0,318	-0,223
80,466	145,764	-0,264	-0,249
81,480	61,985	-0,321	-0,225
82,495	-19,629	-0,250	-0,109
83,509	-29,973	-0,237	-0,094
84,524	167,124	-0,141	-0,140
85,539	-49,095	-0,313	-0,105
86,553	136,096	-0,160	-0,147
87,568	-52,663	-0,456	-0,147
88,582	82,129	-0,297	-0,226
89,597	7,666	-0,233	-0,122
90,611	11,056	-0,304	-0,163
91,626	440,835	-0,162	-0,250
92,641	-43,132	-0,275	-0,097
93,655	27,139	-0,208	-0,122
94,670	398,051	-0,181	-0,266
95,684	-12,527	-0,391	-0,178
96,699	205,068	-0,282	-0,308
97,714	81,225	-0,224	-0,170
98,728	-46,734	-0,270	-0,092
99,743	-193,161	-0,135	0,001
100,757	42,504	-0,273	-0,174
101,772	577,434	-0,166	-0,285
102,787	-55,247	-0,373	-0,117
103,801	1,209	-0,365	-0,183
104,816	231,119	-0,160	-0,185
105,830	60,423	-0,251	-0,174
106,845	-1,704	-0,188	-0,093
107,860	58,850	-0,169	-0,117
108,874	1,025	-0,293	-0,147
109,889	-68,822	-0,446	-0,120
110,903	131,066	-0,232	-0,209
111,918	212,403	-0,247	-0,273
112,933	-95,616	-0,219	-0,041
113,947	8,164	-0,234	-0,123
114,962	56,512	-0,235	-0,160
115,976	83,263	-0,253	-0,193
116,991	25,051	-0,330	-0,191
118,006	44,258	-0,262	-0,168
119,020	239,625	-0,172	-0,201
120,035	-18,564	-0,220	-0,096
121,049	150,218	-0,225	-0,214
122,064	5,717	-0,281	-0,145
123,079	67,290	-0,213	-0,152
124,093	-130,284	-0,226	-0,021
125,108	47,195	-0,233	-0,152
126,122	74,111	-0,265	-0,194
127,137	124,713	-0,201	-0,177
128,151	188,675	-0,146	-0,153
129,166	329,816	-0,182	-0,246
130,181	-14,049	-0,317	-0,142
131,195	53,365	-0,226	-0,151
132,210	25,753	-0,363	-0,211
133,224	318,308	-0,105	-0,140
134,239	125,400	-0,128	-0,113
135,254	339,076	-0,184	-0,251
136,268	51,234	-0,321	-0,213
137,283	377,771	-0,199	-0,286
138,297	50,434	-0,300	-0,198
139,312	11,306	-0,290	-0,155
140,327	128,705	-0,228	-0,204
141,341	100,221	-0,265	-0,215
142,356	130,048	-0,219	-0,196
143,370	65,228	-0,206	-0,145
144,385	-41,999	-0,231	-0,082
145,400	-93,135	-0,192	-0,037
146,414	301,463	-0,115	-0,149
147,429	33,137	-0,312	-0,188
148,443	-16,077	-0,286	-0,127
149,458	201,302	-0,276	-0,297
150,473	181,609	-0,212	-0,218
151,487	-103,188	-0,337	-0,055
152,502	596,567	-0,126	-0,219
153,516	259,641	-0,242	-0,292
154,531	508,681	-0,237	-0,385
155,546	-22,673	-0,259	-0,109
156,560	139,177	-0,236	-0,217
157,575	309,941	-0,142	-0,186
158,589	117,059	-0,245	-0,210
159,604	170,564	-0,144	-0,144
160,619	11,759	-0,248	-0,133
161,633	6,583	-0,274	-0,142
162,648	57,107	-0,143	-0,097
163,662	69,505	-0,191	-0,137
164,677	-38,224	-0,244	-0,090
165,692	13,711	-0,206	-0,111
166,706	59,918	-0,262	-0,180
167,721	-78,154	-0,179	-0,043
168,735	57,067	-0,182	-0,124
169,750	-24,670	-0,157	-0,065
170,764	178,067	-0,123	-0,125
171,779	119,907	-0,175	-0,151
172,794	11,981	-0,262	-0,140
173,808	-11,227	-0,177	-0,081
174,823	-42,818	-0,286	-0,101
175,837	-7,129	-0,217	-0,102
176,852	13,403	-0,311	-0,168
177,867	51,174	-0,265	-0,175
178,881	335,876	-0,146	-0,198
179,896	219,992	-0,143	-0,160
180,910	536,405	-0,137	-0,227
181,925	147,952	-0,249	-0,234
182,940	56,844	-0,348	-0,236
183,954	800,000	-0,068	-0,190
184,969	101,940	-0,131	-0,107
185,983	-164,295	-0,144	-0,005
186,998	-166,523	-0,176	-0,005
188,013	16,186	-0,155	-0,085
189,027	800,000	-0,110	-0,229
190,042	22,434	-0,213	-0,121
191,056	397,957	-0,149	-0,217
192,071	69,630	-0,170	-0,122
193,086	163,948	-0,172	-0,169
194,100	-18,944	-0,253	-0,109
195,115	-64,419	-0,271	-0,076
196,129	37,963	-0,320	-0,198
197,144	-0,630	-0,280	-0,138
198,159	285,338	-0,181	-0,227
199,173	58,123	-0,196	-0,133
200,188	-200,000	-0,043	-0,146
201,202	199,778	-0,088	-0,094
202,217	60,827	-0,292	-0,201
203,232	5,557	-0,276	-0,142
204,246	128,893	-0,270	-0,239
205,261	81,268	-0,155	-0,117
206,275	779,262	-0,132	-0,252
207,290	91,470	-0,179	-0,140
208,304	158,990	-0,106	-0,102
209,319	224,044	-0,117	-0,132
210,334	90,276	-0,475	-0,369
211,348	94,153	-0,203	-0,160
212,363	319,400	-0,223	-0,295
213,377	800,000	-0,109	-0,250
214,392	-119,994	-0,228	0,027
215,407	89,568	-0,125	-0,097
216,421	111,378	-0,159	-0,134
217,436	-107,650	-0,116	-0,017
218,450	120,892	-0,235	-0,203
219,465	262,693	-0,172	-0,207
220,480	-136,950	-0,032	0,003
221,494	-156,286	-0,135	-0,006
222,509	800,000	-0,041	-0,102
223,523	128,663	-0,242	-0,214
224,538	46,515	-0,269	-0,173
225,553	253,127	-0,189	-0,224
226,567	170,338	-0,166	-0,165
227,582	195,488	-0,121	-0,128
228,596	758,939	-0,105	-0,199
229,611	124,674	-0,295	-0,258
230,626	164,945	-0,129	-0,126
231,640	-200,000	0,004	-0,082
232,655	-5,812	-0,320	-0,151
233,669	-62,044	-0,291	-0,084
234,684	268,927	-0,220	-0,269
235,699	-29,424	-0,149	0,059
236,713	-112,884	-0,141	0,019
237,728	43,071	-0,116	-0,073
238,742	-38,646	-0,215	-0,078
239,757	239,120	-0,175	-0,202
240,772	120,879	-0,306	-0,264
241,786	4,086	-0,188	-0,095
242,801	127,904	-0,134	-0,118
243,815	145,797	-0,178	-0,166
244,830	143,902	-0,199	-0,184
245,844	73,232	-0,199	-0,144
246,859	158,755	-0,208	-0,200
247,874	-58,361	-0,177	-0,053
248,888	90,625	-0,210	-0,163
249,903	390,369	-0,133	-0,192
250,917	-140,277	-0,139	-0,010
251,932	22,478	-0,182	-0,103
252,947	800,000	-0,078	-0,158
253,961	589,841	-0,124	-0,212
254,976	-170,413	-0,338	0,008
255,990	656,299	-0,137	-0,244
257,005	129,556	-0,118	-0,104
258,020	137,645	-0,175	-0,159
259,034	193,137	-0,137	-0,143
260,049	24,857	-0,080	0,046
261,063	-14,453	-0,158	-0,070
262,078	88,699	-0,247	-0,190
263,093	-91,697	-0,098	-0,019
264,107	22,806	-0,223	-0,126
265,122	133,304	-0,130	-0,116
266,136	640,839	-0,080	-0,142
267,151	-112,010	-0,231	-0,032
268,166	-199,864	-0,242	0,001
269,180	-17,364	-0,167	-0,072
270,195	395,663	-0,244	-0,353
271,209	-200,000	-0,053	-0,253
272,224	67,504	0,044	-0,031
273,239	-166,539	-0,150	0,004
274,253	161,582	-0,178	-0,172
275,268	21,489	-0,174	-0,097
276,282	41,559	-0,165	-0,103
277,297	72,545	-0,188	-0,135
278,312	309,571	-0,177	-0,230
279,326	332,547	-0,157	-0,210
280,341	-167,331	-0,164	-0,004
281,355	531,539	-0,136	-0,224
282,370	72,895	-0,179	-0,129
283,384	335,572	-0,071	-0,095
284,399	-28,071	-0,241	-0,096
285,414	226,603	-0,147	-0,165
286,428	800,000	-0,027	-0,060
287,443	-192,990	-0,284	-0,002
288,457	-72,926	-0,125	0,031
289,472	110,944	-0,136	-0,113
290,487	277,885	-0,125	-0,154
291,501	-84,148	-0,157	0,034
292,516	47,811	-0,247	-0,159
293,530	-50,590	-0,111	-0,036
294,545	23,125	-0,081	-0,046
295,560	-200,000	0,008	-0,117
296,574	-200,000	-0,037	-0,146
297,589	119,434	-0,131	-0,112
298,603	25,482	-0,158	-0,090
299,618	-101,937	-0,140	0,023
300,633	-182,983	-0,130	-0,002
301,647	195,395	-0,082	-0,086
302,662	-27,078	-0,103	-0,041
303,676	-90,192	-0,138	-0,028
304,691	457,407	-0,122	-0,187
305,706	800,000	-0,138	-0,268
306,720	641,743	-0,139	-0,246
307,735	-2,575	-0,220	-0,106
308,749	769,351	-0,044	-0,082
309,764	70,837	-0,058	-0,041
310,779	-61,763	-0,073	0,021
311,793	-55,824	-0,182	-0,056
312,808	376,812	-0,117	-0,165
313,822	-54,053	-0,155	-0,048
314,837	-200,000	-0,070	-0,219
315,852	-144,959	-0,122	-0,008
316,866	-107,651	-0,082	0,012
317,881	261,839	-0,077	-0,092
318,895	621,617	-0,112	-0,195
319,910	384,641	-0,151	-0,216
320,925	-200,000	-0,028	-0,198
321,939	-200,000	-0,028	-0,173
322,954	38,080	-0,158	-0,097
323,968	-200,000	-0,010	-0,134
324,983	249,891	-0,110	-0,129
325,997	13,778	-0,230	-0,122
327,012	79,399	-0,172	-0,127
328,027	179,946	-0,032	-0,032
329,041	39,405	-0,101	-0,062
330,056	800,000	-0,054	-0,119
331,070	-142,111	-0,234	0,016
332,085	-200,000	-0,001	-0,140
333,100	-200,000	-0,001	-0,048
334,114	214,018	-0,143	-0,156
335,129	-161,408	-0,265	-0,009
336,143	-97,837	-0,235	0,041
337,158	12,577	-0,072	-0,038
338,173	-64,179	-0,153	-0,043
339,187	92,142	-0,171	-0,132
340,202	-55,664	-0,142	-0,043
341,216	-95,539	-0,164	-0,030
342,231	101,030	-0,063	-0,050
343,246	316,700	-0,130	-0,169
344,260	10,565	-0,071	-0,037
345,275	800,000	-0,026	-0,056
346,289	-22,027	-0,013	-0,006
347,304	-200,000	-0,027	-0,230
348,319	622,469	-0,085	-0,147
349,333	39,471	-0,176	-0,108
350,348	98,020	-0,131	-0,103
351,362	231,089	-0,200	-0,225
352,377	800,000	-0,038	-0,111
353,392	41,039	-0,077	0,047
354,406	115,946	-0,163	-0,137
355,421	209,407	1314,059	1415,192
356,435	161,165	1474,716	1415,689
