DTS Sentinel unit serial number:	SN410029Multiplexer serial number:	ORYXHardware model number:	OX2-SRSoftware version number:	ORYX F/W v4,00 Oryx Data Collector v3.7.2.0data status	okinstallation	B3 Nyhavnadifferential loss correction	single-endedforward channel	channel 1reverse channel	N/Adate	2023/11/29time	21:52:30forward acquisition time	300,00reverse acquisition time	0,00gamma	499,1914k internal	0,3210k external	0,3210temperature offset calibration	1,0000default loss term (dB/km)	0,3820temperature slope calibration	1,0000multiplexer offset coefficient	1,0000multiplexer slope coefficient	1,0000fibre end	0,00T internal ref (°C)	10,81T ext. ref 1 (°C)	-4,32T ext. ref 2 (°C)	-4,41length (m)	temperature (°C)	Stokes	anti-Stokes-744,400	763,453	-0,121	-0,239
-743,385	-200,000	0,003	0,319
-742,371	374,160	-0,124	-0,183
-741,356	-200,000	-0,061	0,403
-740,342	101,510	-0,198	-0,167
-739,327	260,468	-0,228	0,286
-738,312	401,468	-0,180	-0,276
-737,298	-200,000	0,033	0,233
-736,283	162,430	-0,246	-0,250
-735,269	-200,000	-0,048	0,400
-734,254	533,335	-0,158	-0,272
-733,239	162,069	-0,203	0,207
-732,225	-200,000	-0,030	-0,208
-731,210	229,168	0,139	0,164
-730,196	87,740	-0,051	-0,041
-729,181	800,000	-0,059	-0,167
-728,167	-66,691	0,090	-0,026
-727,152	553,110	0,011	0,018
-726,137	-164,452	-0,106	-0,003
-725,123	271,378	-0,070	0,090
-724,108	45,407	-0,035	0,023
-723,094	-66,970	-0,080	0,023
-722,079	660,109	-0,061	-0,114
-721,064	-182,339	0,019	-0,000
-720,050	165,194	-0,145	0,149
-719,035	42,667	0,099	-0,065
-718,021	800,000	-0,080	-0,178
-717,006	-106,566	-0,120	-0,019
-715,991	-200,000	-0,017	0,159
-714,977	-116,251	0,118	0,016
-713,962	-143,743	-0,119	-0,008
-712,948	-147,866	-0,128	0,008
-711,933	-91,801	0,067	-0,014
-710,918	-200,000	0,006	-0,126
-709,904	108,542	0,008	0,007
-708,889	-200,000	0,045	-0,172
-707,875	-33,290	-0,056	0,022
-706,860	599,261	0,058	-0,106
-705,845	15,159	0,181	0,102
-704,831	571,272	0,010	0,018
-703,816	-95,455	-0,105	-0,020
-702,802	134,096	-0,127	-0,119
-701,787	388,174	-0,098	-0,148
-700,772	-200,000	-0,008	-0,069
-699,758	-200,000	0,003	0,049
-698,743	451,178	0,035	0,057
-697,729	-200,000	0,015	0,119
-696,714	-29,172	0,116	0,048
-695,699	118,511	0,037	0,033
-694,685	-3,144	0,031	0,016
-693,670	517,147	-0,057	-0,098
-692,656	800,000	-0,036	0,112
-691,641	623,951	-0,037	-0,068
-690,627	-200,000	0,028	-0,099
-689,612	19,707	-0,073	-0,042
-688,597	-38,394	0,073	0,028
-687,583	728,420	-0,024	-0,046
-686,568	-8,021	-0,120	-0,059
-685,554	-22,092	-0,227	-0,099
-684,539	84,977	0,121	0,096
-683,524	-27,143	-0,036	-0,015
-682,510	-74,848	-0,086	-0,022
-681,495	145,262	0,086	-0,084
-680,481	-5,176	-0,052	0,026
-679,466	-83,328	0,108	-0,025
-678,451	-25,030	-0,080	0,034
-677,437	800,000	0,040	0,107
-676,422	256,381	0,039	0,048
-675,408	4,635	-0,084	-0,045
-674,393	123,265	-0,069	-0,063
-673,378	-200,000	-0,007	-0,063
-672,364	-200,000	-0,005	0,061
-671,349	-200,000	0,005	-0,208
-670,335	-200,000	-0,007	0,114
-669,320	7,847	-0,051	0,028
-668,305	76,472	-0,010	-0,008
-667,291	-74,675	-0,168	0,043
-666,276	-116,494	-0,148	-0,020
-665,262	45,946	-0,042	-0,028
-664,247	-144,146	0,137	0,009
-663,232	-34,656	-0,214	-0,084
-662,218	80,031	0,172	-0,134
-661,203	-53,809	0,058	0,019
-660,189	-200,000	0,000	-0,083
-659,174	-200,000	0,052	-0,220
-658,159	447,011	-0,014	0,022
-657,145	95,334	0,140	-0,115
-656,130	207,560	0,121	-0,137
-655,116	-84,168	-0,095	-0,022
-654,101	94,679	0,132	0,109
-653,086	65,589	0,034	0,025
-652,072	-200,000	-0,016	0,061
-651,057	-200,000	0,024	-0,088
-650,043	800,000	-0,002	0,004
-649,028	-87,200	0,150	0,033
-648,014	-116,322	-0,143	0,019
-646,999	-181,660	0,046	-0,001
-645,984	-91,828	-0,092	-0,019
-644,970	-89,432	-0,069	-0,015
-643,955	332,944	-0,038	0,053
-642,941	63,820	0,026	-0,019
-641,926	-200,000	0,024	0,111
-640,911	-62,384	0,167	-0,050
-639,897	800,000	-0,052	0,115
-638,882	800,000	0,047	-0,112
-637,868	506,382	-0,048	0,081
-636,853	-5,278	-0,141	-0,070
-635,838	24,662	0,021	-0,013
-634,824	474,764	-0,057	-0,093
-633,809	-200,000	0,004	0,069
-632,795	800,000	-0,026	-0,060
-631,780	800,000	0,022	-0,045
-630,765	161,746	-0,234	-0,237
-629,751	-16,866	0,045	-0,021
-628,736	239,060	-0,126	-0,151
-627,722	121,479	0,073	-0,065
-626,707	-61,302	-0,126	-0,038
-625,692	385,549	0,138	0,205
-624,678	498,264	0,095	0,158
-623,663	-68,449	-0,061	-0,017
-622,649	-60,713	-0,082	0,025
-621,634	93,877	-0,148	0,121
-620,619	110,465	-0,048	-0,041
-619,605	8,268	-0,103	0,056
-618,590	-32,950	0,091	0,036
-617,576	-200,000	0,004	0,073
-616,561	128,831	0,132	0,122
-615,546	537,132	0,049	-0,084
-614,532	-200,000	0,003	0,059
-613,517	-200,000	0,004	0,065
-612,503	800,000	-0,016	-0,035
-611,488	13,944	0,054	0,030
-610,474	-146,364	-0,131	0,008
-609,459	-200,000	0,008	0,082
-608,444	800,000	0,030	0,093
-607,430	-102,363	0,115	0,020
-606,415	-116,090	-0,117	-0,016
-605,401	-183,936	-0,189	0,002
-604,386	322,617	0,052	-0,072
-603,371	-98,863	0,020	0,004
-602,357	-93,783	0,049	-0,010
-601,342	53,447	0,028	-0,019
-600,328	631,465	0,113	-0,207
-599,313	-88,274	0,043	-0,009
-598,298	786,484	-0,031	0,063
-597,284	131,296	0,049	-0,045
-596,269	-133,630	-0,091	-0,008
-595,255	747,473	0,026	0,051
-594,240	456,666	-0,071	0,114
-593,225	-200,000	-0,014	-0,102
-592,211	240,059	0,083	0,099
-591,196	-200,000	-0,011	0,055
-590,182	83,818	0,075	0,059
-589,167	-200,000	0,013	0,121
-588,152	145,896	-0,079	0,077
-587,138	132,291	-0,037	-0,034
-586,123	314,127	-0,074	0,100
-585,109	1,525	-0,022	0,012
-584,094	-81,514	0,089	0,021
-583,079	278,888	0,033	0,043
-582,065	135,266	0,099	0,093
-581,050	690,056	-0,065	-0,124
-580,036	-200,000	0,044	0,166
-579,021	-115,377	0,054	0,007
-578,006	242,775	-0,042	-0,050
-576,992	16,971	0,055	0,031
-575,977	313,864	-0,055	-0,075
-574,963	-200,000	0,028	0,127
-573,948	69,596	-0,079	0,059
-572,934	-46,198	0,096	-0,034
-571,919	351,128	-0,054	-0,078
-570,904	-24,338	-0,081	0,035
-569,890	-49,379	-0,136	-0,047
-568,875	800,000	0,022	-0,055
-567,861	-200,000	-0,023	0,078
-566,846	116,201	0,023	0,020
-565,831	-36,492	-0,151	-0,058
-564,817	-200,000	0,012	-0,062
-563,802	-157,317	0,011	0,000
-562,788	44,970	-0,084	0,055
-561,773	-200,000	-0,008	0,048
-560,758	298,572	-0,078	-0,103
-559,744	-161,903	0,167	0,006
-558,729	800,000	-0,071	0,146
-557,715	-56,409	0,050	0,016
-556,700	-200,000	0,025	-0,090
-555,685	-30,530	0,103	-0,042
-554,671	573,393	0,034	-0,060
-553,656	152,129	0,103	0,101
-552,642	-200,000	-0,011	0,071
-551,627	36,399	0,087	-0,055
-550,612	-38,787	-0,116	-0,044
-549,598	114,548	-0,084	-0,074
-548,583	-175,743	0,047	-0,001
-547,569	305,565	-0,024	0,032
-546,554	545,467	0,020	0,035
-545,539	-200,000	0,020	0,086
-544,525	-141,744	0,019	0,001
-543,510	-170,955	-0,100	0,002
-542,496	-200,000	-0,000	-0,018
-541,481	-100,293	-0,097	0,017
-540,466	53,075	0,093	-0,064
-539,452	800,000	-0,015	0,034
-538,437	675,505	-0,019	0,035
-537,423	283,419	-0,054	0,070
-536,408	102,079	-0,081	0,068
-535,393	-200,000	0,043	0,140
-534,379	246,480	0,063	0,077
-533,364	800,000	-0,034	0,087
-532,350	800,000	0,064	0,157
-531,335	-120,896	0,169	-0,020
-530,321	-200,000	-0,007	0,201
-529,306	800,000	-0,061	0,128
-528,291	-200,000	0,055	0,000
-527,277	-73,361	-0,114	0,030
-526,262	49,163	-0,014	-0,009
-525,248	-82,312	0,125	0,029
-524,233	-9,620	0,082	0,039
-523,218	800,000	0,065	0,146
-522,204	-10,830	-0,024	-0,011
-521,189	602,135	0,026	0,046
-520,175	321,354	-0,053	-0,073
-519,160	5,559	0,081	-0,043
-518,145	-171,531	0,108	-0,003
-517,131	-200,000	-0,014	-0,078
-516,116	436,262	-0,006	0,010
-515,102	-114,009	-0,224	-0,031
-514,087	800,000	-0,082	-0,184
-513,072	-153,430	-0,140	-0,007
-512,058	67,000	0,099	0,072
-511,043	511,129	-0,080	0,135
-510,029	156,133	-0,036	0,036
-509,014	99,304	0,097	-0,081
-507,999	558,805	-0,021	-0,036
-506,985	12,806	-0,156	0,086
-505,970	745,724	-0,026	-0,050
-504,956	-17,943	0,100	-0,045
-503,941	60,757	0,038	-0,027
-502,926	128,816	0,068	0,062
-501,912	6,721	0,114	0,061
-500,897	-123,507	-0,036	-0,004
-499,883	-82,814	-0,062	-0,014
-498,868	-200,000	0,002	-0,233
-497,853	-200,000	0,014	-0,057
-496,839	75,227	0,025	0,019
-495,824	147,166	0,144	0,139
-494,810	800,000	-0,025	0,067
-493,795	800,000	-0,006	0,017
-492,781	206,529	0,018	-0,020
-491,766	331,160	-0,081	-0,112
-490,751	-34,413	-0,182	-0,071
-489,737	-53,446	0,110	-0,036
-488,722	-146,559	-0,157	0,010
-487,708	105,501	0,127	0,108
-486,693	-200,000	0,035	0,118
-485,678	234,811	-0,108	-0,128
-484,664	478,357	0,017	0,027
-483,649	411,113	-0,098	-0,150
-482,635	-124,173	0,076	-0,008
-481,620	-109,668	0,060	0,009
-480,605	665,807	0,016	0,031
-479,591	123,208	0,098	0,088
-478,576	469,632	-0,031	0,050
-477,562	397,633	-0,041	-0,062
-476,547	40,537	0,128	-0,083
-475,532	167,465	-0,036	-0,037
-474,518	227,137	-0,075	-0,087
-473,503	92,630	-0,107	-0,087
-472,489	-18,058	0,074	-0,033
-471,474	-200,000	0,011	0,062
-470,459	229,272	-0,087	0,102
-469,445	19,700	0,018	0,011
-468,430	269,035	-0,065	0,082
-467,416	-200,000	0,007	-0,062
-466,401	-200,000	0,007	0,078
-465,386	-200,000	-0,011	0,046
-464,372	-116,776	0,117	0,015
-463,357	-112,591	-0,100	0,014
-462,343	-0,489	-0,085	-0,043
-461,328	144,425	0,076	-0,073
-460,313	22,880	-0,042	-0,025
-459,299	-74,093	0,196	-0,050
-458,284	789,441	0,040	-0,079
-457,270	-5,642	0,070	-0,034
-456,255	497,977	-0,026	-0,043
-455,241	800,000	0,066	-0,133
-454,226	-35,935	-0,074	-0,029
-453,211	800,000	0,046	0,109
-452,197	-157,624	-0,084	-0,004
-451,182	-137,792	-0,039	0,003
-450,168	800,000	-0,034	0,103
-449,153	800,000	-0,021	-0,046
-448,138	-200,000	-0,025	-0,156
-447,124	800,000	0,043	-0,114
-446,109	-200,000	-0,009	-0,080
-445,095	-67,485	0,072	0,020
-444,080	15,843	0,153	-0,086
-443,065	-200,000	-0,024	-0,159
-442,051	-200,000	0,011	-0,062
-441,036	-22,403	-0,041	-0,018
-440,022	293,658	-0,081	0,106
-439,007	352,430	-0,081	-0,115
-437,992	448,283	-0,033	-0,052
-436,978	-95,936	0,106	0,020
-435,963	-200,000	-0,005	0,024
-434,949	-200,000	-0,112	0,000
-433,934	-200,000	-0,047	-0,176
-432,919	280,376	-0,106	-0,136
-431,905	90,387	0,052	-0,042
-430,890	800,000	0,015	0,047
-429,876	151,551	0,050	-0,049
-428,861	93,098	-0,053	0,043
-427,846	800,000	0,014	-0,028
-426,832	-101,466	0,020	0,003
-425,817	49,766	-0,100	-0,067
-424,803	-14,892	0,121	-0,056
-423,788	-121,167	-0,036	0,004
-422,773	-89,253	0,139	0,029
-421,759	65,284	0,041	-0,029
-420,744	-102,847	-0,121	-0,020
-419,730	800,000	0,037	-0,096
-418,715	-200,000	0,023	-0,078
-417,701	-200,000	-0,008	-0,138
-416,686	-200,000	0,033	0,110
-415,671	45,868	-0,079	0,052
-414,657	800,000	-0,006	0,013
-413,642	149,060	0,059	-0,057
-412,628	-200,000	0,018	-0,098
-411,613	152,345	-0,069	0,068
-410,598	23,867	0,150	0,088
-409,584	286,361	0,044	-0,056
-408,569	596,214	0,028	-0,050
-407,555	800,000	0,070	0,209
-406,540	-160,714	0,089	0,003
-405,525	-79,355	0,056	-0,013
-404,511	100,012	-0,116	0,096
-403,496	-81,681	0,255	0,060
-402,482	-156,235	0,040	-0,002
-401,467	-39,637	-0,103	-0,038
-400,452	-200,000	-0,006	0,088
-399,438	-200,000	0,023	-0,118
-398,423	7,397	0,054	-0,029
-397,409	197,830	-0,091	-0,099
-396,394	-200,000	-0,006	-0,186
-395,379	800,000	0,086	0,175
-394,365	-15,831	-0,020	0,009
-393,350	-129,232	-0,103	-0,010
-392,336	16,663	-0,046	0,026
-391,321	-132,151	0,121	-0,011
-390,306	57,676	-0,049	-0,034
-389,292	387,123	0,033	-0,048
-388,277	-126,790	-0,082	-0,009
-387,263	52,211	0,014	0,010
-386,248	-190,670	0,010	0,000
-385,233	584,281	-0,022	-0,038
-384,219	-200,000	-0,016	-0,133
-383,204	47,381	0,037	0,025
-382,190	-161,267	-0,177	0,006
-381,175	800,000	0,037	0,105
-380,160	474,772	-0,053	-0,086
-379,146	76,810	0,099	-0,075
-378,131	800,000	-0,033	0,095
-377,117	-71,082	0,042	0,011
-376,102	326,589	0,045	0,062
-375,088	-200,000	-0,001	0,049
-374,073	120,578	0,050	0,045
-373,058	800,000	-0,044	0,124
-372,044	141,976	0,090	-0,086
-371,029	-87,812	0,143	-0,030
-370,015	-37,716	0,115	-0,044
-369,000	-200,000	-0,033	-0,109
-367,985	-136,866	0,118	0,010
-366,971	222,251	-0,108	-0,125
-365,956	272,794	-0,115	-0,145
-364,942	-62,265	0,016	0,005
-363,927	19,155	0,111	0,063
-362,912	-200,000	0,027	0,105
-361,898	533,464	-0,066	0,112
-360,883	564,654	0,058	-0,100
-359,869	237,270	0,051	-0,060
-358,854	800,000	0,061	0,126
-357,839	19,737	0,064	-0,037
-356,825	800,000	0,015	0,042
-355,810	214,859	0,065	0,073
-354,796	276,185	-0,033	-0,042
-353,781	66,526	-0,166	-0,120
-352,766	-200,000	-0,017	-0,081
-351,752	408,854	0,076	-0,116
-350,737	-200,000	-0,001	-0,014
-349,723	777,988	0,054	0,106
-348,708	-116,569	0,089	-0,012
-347,693	-36,024	-0,089	-0,034
-346,679	667,740	0,015	0,028
-345,664	162,273	-0,018	0,018
-344,650	172,352	-0,021	-0,021
-343,635	-0,958	-0,029	0,015
-342,620	-200,000	-0,007	0,043
-341,606	23,851	-0,033	-0,019
-340,591	-42,451	0,074	-0,027
-339,577	-144,696	-0,062	-0,004
-338,562	-200,000	-0,053	-0,183
-337,548	800,000	0,023	0,068
-336,533	258,870	0,026	-0,032
-335,518	96,467	-0,090	0,073
-334,504	-27,485	0,150	0,062
-333,489	11,956	-0,225	0,123
-332,475	800,000	-0,037	-0,090
-331,460	497,127	-0,054	0,090
-330,445	49,235	0,051	0,034
-329,431	800,000	0,028	0,084
-328,416	-108,004	0,146	0,022
-327,402	43,665	0,027	-0,018
-326,387	-200,000	-0,028	-0,110
-325,372	800,000	-0,023	-0,065
-324,358	-148,546	-0,097	-0,006
-323,343	180,569	-0,099	0,104
-322,329	-200,000	-0,017	0,128
-321,314	352,651	-0,031	-0,044
-320,299	19,030	0,039	-0,022
-319,285	-97,397	0,014	-0,003
-318,270	306,914	-0,035	-0,046
-317,256	349,477	-0,105	-0,149
-316,241	-200,000	-0,009	-0,045
-315,226	-70,303	0,055	0,015
-314,212	-200,000	0,003	0,042
-313,197	-15,618	-0,054	0,025
-312,183	800,000	-0,053	-0,138
-311,168	213,289	-0,146	0,165
-310,153	-42,635	0,044	-0,016
-309,139	310,087	-0,067	-0,090
-308,124	405,323	0,074	0,112
-307,110	-79,812	0,027	0,006
-306,095	-200,000	0,004	0,027
-305,080	355,961	0,079	0,112
-304,066	800,000	-0,037	-0,111
-303,051	-200,000	-0,003	-0,039
-302,037	239,311	0,063	-0,074
-301,022	175,794	-0,046	-0,047
-300,008	653,594	-0,053	0,096
-298,993	-79,600	-0,063	-0,015
-297,978	-8,048	-0,056	-0,027
-296,964	800,000	-0,043	0,086
-295,949	800,000	-0,021	-0,059
-294,935	-24,375	0,150	-0,064
-293,920	-39,269	0,029	0,011
-292,905	27,027	0,056	0,034
-291,891	180,266	-0,116	0,122
-290,876	800,000	-0,020	0,042
-289,862	-142,917	-0,226	-0,015
-288,847	-200,000	-0,000	-0,076
-287,832	800,000	0,044	-0,129
-286,818	132,951	0,085	0,078
-285,803	451,367	0,044	-0,070
-284,789	-115,484	0,057	0,008
-283,774	-200,000	0,007	0,116
-282,759	-200,000	-0,010	0,092
-281,745	-200,000	0,024	0,077
-280,730	-35,450	-0,122	-0,047
-279,716	-200,000	0,002	0,018
-278,701	88,762	0,225	0,178
-277,686	-200,000	-0,006	0,072
-276,672	-41,523	0,045	0,016
-275,657	-200,000	0,021	0,100
-274,643	90,283	-0,051	-0,041
-273,628	800,000	0,036	-0,101
-272,613	-120,923	0,058	-0,007
-271,599	275,549	0,045	0,056
-270,584	454,303	-0,032	-0,051
-269,570	107,927	-0,114	-0,097
-268,555	22,536	0,155	0,090
-267,540	-157,404	-0,035	-0,001
-266,526	14,206	0,054	-0,030
-265,511	-200,000	0,007	0,106
-264,497	-106,169	0,091	0,014
-263,482	-200,000	-0,012	0,081
-262,467	45,952	0,174	-0,114
-261,453	-200,000	-0,001	-0,027
-260,438	-200,000	-0,021	-0,115
-259,424	-10,038	0,062	-0,029
-258,409	114,534	-0,032	0,028
-257,395	546,112	-0,011	-0,020
-256,380	-200,000	-0,018	-0,111
-255,365	214,982	0,070	0,080
-254,351	-200,000	-0,014	-0,065
-253,336	22,573	-0,045	0,026
-252,322	62,160	-0,094	-0,067
-251,307	-92,945	-0,072	-0,014
-250,292	-200,000	0,008	-0,081
-249,278	-21,402	0,078	-0,034
-248,263	-128,301	0,174	-0,017
-247,249	-200,000	0,000	-0,037
-246,234	800,000	-0,005	-0,013
-245,219	287,607	-0,073	0,094
-244,205	800,000	0,023	0,045
-243,190	205,329	-0,049	0,054
-242,176	-200,000	-0,007	0,185
-241,161	136,638	0,081	0,075
-240,146	48,488	-0,089	-0,059
-239,132	-104,833	0,140	0,023
-238,117	-200,000	0,003	-0,077
-237,103	42,878	-0,130	-0,084
-236,088	800,000	-0,032	-0,064
-235,073	-119,122	0,073	-0,009
-234,059	-5,875	0,079	0,039
-233,044	30,475	0,151	-0,092
-232,030	16,731	-0,086	0,048
-231,015	-25,189	-0,077	-0,032
-230,000	81,423	0,083	-0,064
-228,986	800,000	0,028	-0,059
-227,971	-74,164	0,048	-0,012
-226,957	381,274	0,118	0,172
-225,942	344,186	-0,024	0,033
-224,927	-167,465	0,164	0,005
-223,913	651,812	-0,029	-0,053
-222,898	800,000	-0,032	0,073
-221,884	58,327	-0,015	0,011
-220,869	712,053	-0,032	0,060
-219,855	-160,000	-0,115	0,004
-218,840	32,412	-0,075	0,046
-217,825	800,000	-0,010	-0,028
-216,811	800,000	-0,034	0,070
-215,796	-129,769	-0,087	0,008
-214,782	-69,189	-0,031	0,008
-213,767	47,305	0,024	0,016
-212,752	8,630	0,081	0,043
-211,738	-90,210	0,040	-0,008
-210,723	-106,247	-0,089	-0,014
-209,709	86,905	-0,114	0,090
-208,694	-23,450	-0,107	0,045
-207,679	156,374	-0,074	-0,073
-206,665	44,160	0,093	0,061
-205,650	100,088	-0,011	-0,009
-204,636	52,550	0,074	0,050
-203,621	95,889	0,022	-0,018
-202,606	-121,221	-0,044	0,005
-201,592	-40,801	-0,086	-0,031
-200,577	9,330	0,083	-0,045
-199,563	-200,000	-0,006	-0,196
-198,548	313,526	0,046	-0,061
-197,533	-31,841	0,026	0,010
-196,519	113,075	0,013	0,012
-195,504	-200,000	-0,005	-0,043
-194,490	185,592	-0,039	-0,042
-193,475	-82,645	-0,104	-0,024
-192,460	-55,548	0,084	-0,027
-191,446	-77,018	-0,063	0,015
-190,431	-123,946	0,155	-0,017
-189,417	81,676	0,081	-0,062
-188,402	-200,000	0,011	-0,094
-187,387	-174,556	0,111	-0,002
-186,373	214,041	0,057	-0,064
-185,358	2,732	0,066	-0,034
-184,344	634,120	-0,020	0,037
-183,329	343,426	-0,080	0,111
-182,315	-84,109	-0,157	0,035
-181,300	37,287	-0,093	0,058
-180,285	-20,047	-0,101	0,044
-179,271	41,979	-0,017	0,011
-178,256	54,637	0,039	-0,027
-177,242	-84,162	-0,251	0,056
-176,227	-200,000	-0,011	-0,059
-175,212	329,479	0,068	0,094
-174,198	-110,558	-0,154	-0,022
-173,183	19,197	0,061	-0,035
-172,169	-200,000	0,034	-0,114
-171,154	619,119	-0,061	0,108
-170,139	800,000	0,092	0,230
-169,125	649,634	0,027	0,048
-168,110	-68,549	-0,074	0,020
-167,096	-200,000	-0,013	-0,053
-166,081	-200,000	-0,021	0,121
-165,066	-44,197	0,101	-0,036
-164,052	314,709	-0,103	-0,138
-163,037	800,000	0,060	-0,145
-162,023	21,359	0,121	-0,069
-161,008	-107,462	0,040	0,006
-159,993	-137,787	-0,076	0,006
-158,979	-143,887	-0,094	-0,006
-157,964	800,000	0,056	-0,112
-156,950	68,538	0,005	-0,004
-155,935	113,811	0,095	-0,082
-154,920	316,358	-0,028	0,037
-153,906	-200,000	-0,043	0,154
-152,891	-200,000	0,007	0,048
-151,877	-7,192	-0,128	-0,061
-150,862	-34,514	-0,138	-0,053
-149,847	47,972	-0,023	-0,015
-148,833	443,428	-0,085	0,133
-147,818	139,710	0,004	0,004
-146,804	-100,968	0,063	0,011
-145,789	800,000	0,013	0,026
-144,775	61,152	0,125	-0,088
-143,760	3,873	-0,085	0,044
-142,745	-200,000	-0,033	-0,138
-141,731	-200,000	-0,027	0,129
-140,716	800,000	0,052	-0,131
-139,702	-200,000	0,020	0,070
-138,687	186,660	0,032	-0,034
-137,672	9,847	-0,095	-0,051
-136,658	34,706	-0,162	-0,100
-135,643	90,437	-0,050	-0,039
-134,629	-200,000	-0,014	-0,095
-133,614	459,762	0,035	-0,055
-132,599	-53,143	0,063	0,020
-131,585	800,000	0,022	0,043
-130,570	-45,716	-0,057	-0,020
-129,556	88,946	-0,029	-0,023
-128,541	-200,000	0,015	-0,049
-127,526	-87,308	-0,176	-0,038
-126,512	74,601	0,067	0,050
-125,497	-200,000	-0,015	0,145
-124,483	-200,000	-0,000	-0,005
-123,468	222,488	0,089	0,102
-122,453	497,870	-0,024	0,040
-121,439	48,238	-0,148	-0,098
-120,424	-72,176	0,122	0,032
-119,410	347,190	0,050	-0,070
-118,395	-145,787	0,149	0,009
-117,380	800,000	0,017	0,051
-116,366	800,000	-0,066	-0,138
-115,351	659,864	-0,093	0,170
-114,337	150,604	0,052	-0,050
-113,322	-200,000	-0,006	0,043
-112,307	265,699	0,030	0,037
-111,293	-49,701	0,134	-0,045
-110,278	358,056	0,072	0,102
-109,264	-200,000	-0,016	0,071
-108,249	800,000	-0,045	0,103
-107,234	-91,562	-0,117	-0,023
-106,220	173,885	0,068	0,069
-105,205	-64,543	-0,188	-0,054
-104,191	-144,732	0,124	-0,008
-103,176	148,179	0,137	-0,131
-102,162	-46,823	-0,033	0,011
-101,147	-138,659	-0,104	-0,008
-100,132	-200,000	0,034	-0,151
-99,118	271,461	-0,058	0,072
-98,103	-149,538	0,125	0,007
-97,089	220,462	-0,070	0,079
-96,074	-200,000	-0,004	0,164
-95,059	-200,000	0,002	0,012
-94,045	800,000	-0,057	-0,141
-93,030	-97,761	-0,154	-0,028
-92,016	800,000	-0,006	-0,012
-91,001	335,493	-0,076	0,105
-89,986	60,164	0,075	0,053
-88,972	-141,499	0,068	0,005
-87,957	-66,628	0,013	-0,004
-86,943	-130,226	0,045	-0,004
-85,928	-200,000	-0,021	-0,202
-84,913	66,839	-0,126	0,090
-83,899	-200,000	-0,006	0,099
-82,884	216,451	0,117	-0,132
-81,870	-43,943	0,076	0,027
-80,855	321,971	0,069	0,093
-79,840	-142,976	-0,128	0,009
-78,826	800,000	0,020	-0,052
-77,811	-140,081	-0,145	-0,011
-76,797	-90,690	-0,155	-0,031
-75,782	4,776	-0,062	-0,032
-74,767	-69,852	0,058	-0,016
-73,753	-200,000	0,006	-0,083
-72,738	15,102	0,081	0,045
-71,724	-24,951	-0,078	0,032
-70,709	91,280	0,051	0,041
-69,694	588,353	0,034	0,059
-68,680	-200,000	0,042	0,133
-67,665	198,929	0,055	0,059
-66,651	219,909	-0,051	0,058
-65,636	-200,000	-0,017	-0,100
-64,622	251,075	-0,049	-0,058
-63,607	-200,000	-0,016	-0,149
-62,592	-99,329	0,193	-0,034
-61,578	-185,535	-0,148	-0,002
-60,563	-71,773	0,093	-0,024
-59,549	541,447	0,008	0,014
-58,534	24,673	-1,830	-1,067
-57,519	365,713	-1,288	-1,838
-56,505	-200,000	-0,349	-4,268
-55,490	536,463	0,912	1,534
-54,476	800,000	5,001	11,182
-53,461	-200,000	20,861	329,409
-52,446	800,000	757,527	2324,211
-51,432	550,127	1662,234	2825,295
-50,417	73,380	1663,995	1228,059
-49,403	18,649	1537,119	865,792
-48,388	12,632	1459,945	793,201
-47,373	19,013	1450,619	818,749
-46,359	15,823	1439,967	797,521
-45,344	10,912	1435,860	771,817
-44,330	10,854	1434,045	770,532
-43,315	10,830	1432,099	769,343
-42,300	10,844	1430,201	768,358
-41,286	10,857	1428,981	767,735
-40,271	10,847	1427,814	767,031
-39,257	10,848	1426,752	766,433
-38,242	10,851	1425,559	765,776
-37,227	10,847	1424,452	765,133
-36,213	10,860	1423,155	764,466
-35,198	10,870	1422,001	763,864
-34,184	10,940	1420,932	763,588
-33,169	10,935	1419,496	762,764
-32,154	10,911	1418,713	762,198
-31,140	10,927	1417,266	761,468
-30,125	10,976	1416,298	761,150
-29,111	10,925	1415,334	760,358
-28,096	10,896	1414,112	759,537
-27,082	10,797	1413,051	758,472
-26,067	10,870	1411,953	758,193
-25,052	10,862	1410,902	757,563
-24,038	10,825	1409,838	756,787
-23,023	10,839	1408,903	756,322
-22,009	10,827	1407,740	755,610
-20,994	10,846	1406,778	755,153
-19,979	10,846	1405,813	754,605
-18,965	10,793	1404,973	753,879
-17,950	10,784	1404,097	753,337
-16,936	10,784	1403,500	752,987
-15,921	10,730	1402,042	751,922
-14,906	10,735	1401,455	751,599
-13,892	10,810	1400,157	751,222
-12,877	10,739	1399,634	750,585
-11,863	10,752	1398,653	750,089
-10,848	10,716	1397,898	749,488
-9,833	10,697	1396,977	748,872
-8,819	10,665	1396,092	748,219
-7,804	10,695	1395,159	747,829
-6,790	10,652	1394,258	747,122
-5,775	10,711	1392,985	746,679
-4,760	10,679	1392,277	746,125
-3,746	10,700	1391,119	745,571
-2,731	10,613	1390,460	744,784
-1,717	10,619	1389,629	744,338
-0,702	10,617	1387,873	743,359
0,313	14,652	1301,443	715,555
1,327	30,931	692,630	417,836
2,342	47,637	120,148	78,942
3,356	-0,217	16,518	8,261
4,371	0,087	3,463	1,735
5,386	0,864	0,963	0,485
6,400	-200,000	0,039	0,559
7,415	120,307	-0,161	-0,141
8,429	-15,957	-0,298	-0,133
9,444	45,773	-0,159	-0,104
10,459	163,828	-0,169	-0,167
11,473	158,779	-0,254	-0,249
12,488	-27,945	-0,286	-0,116
13,502	-33,901	-0,253	-0,098
14,517	-99,710	-0,384	-0,067
15,531	175,412	-0,273	-0,280
16,546	35,741	-0,309	-0,191
17,561	104,906	-0,264	-0,219
18,575	-82,970	-0,201	0,045
19,590	-22,900	-0,238	-0,101
20,604	800,000	0,045	0,127
21,619	95,010	-0,411	-0,330
22,634	158,024	-0,363	-0,354
23,648	197,962	-0,353	-0,380
24,663	162,171	-0,385	-0,380
25,677	27,046	-0,301	-0,177
26,692	30,905	-0,390	-0,235
27,707	-34,070	-0,281	-0,108
28,721	36,943	-0,327	-0,203
29,736	-36,831	-0,554	-0,208
30,750	142,587	-0,345	-0,323
31,765	96,994	-0,366	-0,295
32,780	66,589	-0,321	-0,230
33,794	-16,258	-0,358	-0,159
34,809	56,525	-0,327	-0,223
35,823	-28,298	-0,207	-0,084
36,838	-55,802	-0,356	-0,111
37,853	65,686	-0,468	-0,333
38,867	5,701	-0,412	-0,214
39,882	71,189	-0,365	-0,266
40,896	28,745	-0,320	-0,190
41,911	18,040	-0,314	-0,176
42,926	178,951	-0,417	-0,429
43,940	400,881	-0,311	-0,460
44,955	85,804	-0,385	-0,297
45,969	52,480	-0,346	-0,232
46,984	198,376	-0,359	-0,387
47,999	40,310	-0,406	-0,256
49,013	-36,698	-0,295	-0,111
50,028	-7,949	-0,347	-0,164
51,042	46,671	-0,318	-0,207
52,057	33,131	-0,379	-0,231
53,071	298,912	-0,226	-0,293
54,086	172,882	-0,246	-0,249
55,101	55,924	-0,327	-0,223
56,115	-4,544	-0,296	-0,143
57,130	144,736	-0,295	-0,277
58,144	150,486	-0,277	-0,264
59,159	213,318	-0,278	-0,308
60,174	-6,808	-0,394	-0,188
61,188	-33,906	-0,373	-0,144
62,203	9,517	-0,338	-0,179
63,217	69,095	-0,361	-0,260
64,232	97,479	-0,307	-0,248
65,247	-44,397	-0,365	-0,128
66,261	279,272	-0,222	-0,279
67,276	105,863	-0,346	-0,287
68,290	174,611	-0,330	-0,335
69,305	63,977	-0,378	-0,266
70,320	-153,124	-0,271	-0,013
71,334	-9,200	-0,397	-0,185
72,349	-73,564	-0,244	-0,062
73,363	4,032	-0,345	-0,176
74,378	-51,491	-0,319	-0,104
75,393	7,979	-0,291	-0,152
76,407	185,780	-0,215	-0,224
77,422	-98,648	-0,249	-0,044
78,436	-21,418	-0,308	-0,131
79,451	29,532	-0,317	-0,189
80,466	216,453	-0,259	-0,289
81,480	162,221	-0,290	-0,285
82,495	-47,527	-0,231	-0,078
83,509	10,476	-0,368	-0,196
84,524	-54,678	-0,382	-0,120
85,539	165,901	-0,289	-0,287
86,553	73,225	-0,238	-0,174
87,568	-25,243	-0,274	-0,113
88,582	153,062	-0,303	-0,290
89,597	38,063	-0,175	-0,108
90,611	-96,315	-0,241	-0,044
91,626	0,286	-0,421	-0,209
92,641	51,308	-0,196	-0,130
93,655	7,250	-0,248	-0,129
94,670	106,799	-0,284	-0,236
95,684	33,788	-0,346	-0,210
96,699	-8,399	-0,174	-0,082
97,714	85,058	-0,243	-0,186
98,728	57,884	-0,295	-0,202
99,743	-168,988	-0,349	-0,009
100,757	179,667	-0,230	-0,236
101,772	52,876	-0,226	-0,151
102,787	250,699	-0,283	-0,337
103,801	191,639	-0,247	-0,261
104,816	-35,784	-0,314	-0,118
105,830	99,749	-0,187	-0,151
106,845	170,161	-0,220	-0,220
107,860	0,787	-0,275	-0,137
108,874	-107,477	-0,291	-0,044
109,889	49,358	-0,317	-0,208
110,903	536,703	-0,124	-0,206
111,918	-33,276	-0,396	-0,152
112,933	-11,353	-0,241	-0,111
113,947	-19,657	-0,157	-0,067
114,962	63,292	-0,259	-0,181
115,976	-31,417	-0,313	-0,122
116,991	-113,467	-0,216	-0,029
118,006	149,224	-0,329	-0,311
119,020	353,979	-0,176	-0,245
120,035	206,413	-0,188	-0,205
121,049	-71,103	-0,242	-0,063
122,064	-11,727	-0,181	-0,083
123,079	42,436	-0,318	-0,201
124,093	484,744	-0,152	-0,243
125,108	113,197	-0,183	-0,155
126,122	62,584	-0,185	-0,129
127,137	-32,325	-0,247	-0,096
128,151	25,126	-0,123	-0,071
129,166	-6,439	-0,205	-0,097
130,181	85,261	-0,268	-0,205
131,195	2,746	-0,381	-0,192
132,210	63,767	-0,249	-0,175
133,224	178,054	-0,218	-0,222
134,239	-175,491	-0,179	-0,003
135,254	22,829	-0,162	-0,092
136,268	163,744	-0,092	-0,091
137,283	78,326	-0,219	-0,163
138,297	156,231	-0,306	-0,294
139,312	-63,971	-0,329	-0,093
140,327	192,079	-0,249	-0,262
141,341	14,314	-0,260	-0,141
142,356	-44,248	-0,366	-0,127
143,370	38,007	-0,264	-0,163
144,385	-0,515	-0,342	-0,169
145,400	339,279	-0,194	-0,264
146,414	-66,019	-0,421	-0,116
147,429	69,096	-0,232	-0,166
148,443	62,461	-0,204	-0,142
149,458	-21,190	-0,094	-0,040
150,473	37,059	-0,379	-0,233
151,487	8,563	-0,269	-0,141
152,502	97,523	-0,241	-0,192
153,516	191,708	-0,273	-0,286
154,531	800,000	-0,119	-0,246
155,546	-109,842	-0,371	-0,054
156,560	55,910	-0,311	-0,210
157,575	-122,195	-0,227	-0,026
158,589	131,725	-0,176	-0,158
159,604	22,724	-0,247	-0,140
160,619	168,150	-0,240	-0,238
161,633	54,351	-0,305	-0,204
162,648	94,850	-0,280	-0,222
163,662	78,082	-0,172	-0,127
164,677	33,656	-0,242	-0,146
165,692	-69,937	-0,221	-0,058
166,706	32,312	-0,246	-0,147
167,721	-4,126	-0,307	-0,147
168,735	-31,268	-0,262	-0,102
169,750	-21,130	-0,313	-0,133
170,764	772,918	-0,143	-0,272
171,779	-94,770	-0,241	-0,045
172,794	41,695	-0,165	-0,104
173,808	475,414	-0,149	-0,234
174,823	26,281	-0,398	-0,230
175,837	74,294	-0,222	-0,162
176,852	113,108	-0,245	-0,206
177,867	7,880	-0,181	-0,094
178,881	74,640	-0,218	-0,159
179,896	46,233	-0,249	-0,160
180,910	98,885	-0,271	-0,217
181,925	592,015	-0,112	-0,194
182,940	-65,223	-0,234	-0,065
183,954	62,255	-0,161	-0,112
184,969	469,336	-0,165	-0,259
185,983	71,254	-0,132	-0,095
186,998	-96,911	-0,275	-0,050
188,013	63,598	-0,175	-0,122
189,027	212,843	-0,248	-0,272
190,042	608,968	-0,135	-0,235
191,056	82,675	-0,170	-0,128
192,071	105,691	-0,250	-0,205
193,086	42,944	-0,208	-0,131
194,100	-21,605	-0,263	-0,111
195,115	61,478	-0,184	-0,127
196,129	381,177	-0,084	-0,120
197,144	48,698	-0,344	-0,223
198,159	261,611	-0,145	-0,174
199,173	77,131	-0,208	-0,153
200,188	133,153	-0,149	-0,134
201,202	-131,457	-0,136	-0,012
202,217	177,733	-0,275	-0,278
203,232	-42,489	-0,312	-0,110
204,246	127,173	-0,236	-0,208
205,261	800,000	-0,139	-0,279
206,275	-6,664	-0,225	-0,106
207,290	307,230	-0,130	-0,168
208,304	5,441	-0,206	-0,105
209,319	40,560	-0,208	-0,129
210,334	-66,270	-0,318	-0,087
211,348	-161,690	-0,158	-0,005
212,363	151,801	-0,187	-0,176
213,377	125,704	-0,155	-0,136
214,392	-78,527	-0,167	0,039
215,407	13,113	-0,150	-0,080
216,421	74,049	-0,165	-0,120
217,436	45,600	-0,193	-0,123
218,450	-12,022	-0,303	-0,137
219,465	-35,275	-0,193	-0,072
220,480	-101,708	-0,217	-0,036
221,494	242,956	-0,172	-0,200
222,509	458,095	-0,183	-0,282
223,523	284,058	-0,158	-0,197
224,538	-100,296	-0,088	0,015
225,553	44,569	-0,221	-0,140
226,567	155,868	-0,286	-0,273
227,582	-86,471	-0,304	-0,064
228,596	-131,226	-0,137	-0,012
229,611	27,772	-0,134	-0,078
230,626	499,615	-0,139	-0,223
231,640	159,711	-0,240	-0,231
232,655	-2,063	-0,253	-0,123
233,669	114,095	-0,241	-0,202
234,684	-179,982	-0,220	-0,003
235,699	85,999	-0,136	-0,104
236,713	-13,623	-0,258	-0,115
237,728	-18,316	-0,278	-0,120
238,742	54,971	-0,223	-0,149
239,757	186,133	-0,189	-0,194
240,772	55,990	-0,197	-0,132
241,786	124,631	-0,153	-0,133
242,801	-125,696	-0,166	0,017
243,815	171,043	-0,124	-0,123
244,830	327,795	-0,187	-0,249
245,844	86,340	-0,190	-0,145
246,859	119,663	-0,241	-0,206
247,874	800,000	-0,123	-0,256
248,888	374,319	-0,183	-0,259
249,903	87,522	-0,256	-0,195
250,917	202,024	-0,133	-0,142
251,932	-89,902	-0,190	-0,038
252,947	-124,789	-0,200	-0,021
253,961	-14,591	-0,231	-0,102
254,976	-49,630	-0,210	-0,068
255,990	-126,089	-0,271	-0,028
257,005	800,000	-0,076	-0,189
258,020	491,406	-0,082	-0,131
259,034	352,022	-0,144	-0,197
260,049	800,000	-0,033	-0,080
261,063	89,678	-0,184	-0,141
262,078	19,994	-0,288	-0,160
263,093	-65,989	-0,235	-0,064
264,107	-12,374	-0,221	-0,099
265,122	-70,566	-0,232	-0,060
266,136	29,007	-0,238	-0,139
267,151	10,513	-0,182	-0,095
268,166	43,983	-0,214	-0,135
269,180	482,653	-0,099	-0,155
270,195	207,731	-0,149	-0,160
271,209	150,974	-0,209	-0,195
272,224	-14,729	-0,148	0,065
273,239	187,466	-0,095	-0,098
274,253	-141,945	-0,228	-0,015
275,268	20,199	-0,248	-0,137
276,282	-66,374	-0,293	-0,080
277,297	-144,678	-0,153	0,010
278,312	-81,130	-0,199	0,045
279,326	54,999	-0,174	-0,115
280,341	9,897	-0,185	-0,097
281,355	800,000	-0,041	-0,091
282,370	-54,924	-0,071	0,022
283,384	-41,099	-0,249	-0,088
284,399	22,861	-0,160	-0,090
285,414	-200,000	-0,014	-0,264
286,428	83,137	-0,071	-0,053
287,443	-11,590	-0,154	0,069
288,457	60,534	-0,191	-0,130
289,472	467,760	-0,109	-0,168
290,487	35,228	-0,132	-0,079
291,501	147,167	-0,225	-0,208
292,516	-91,218	-0,301	-0,059
293,530	-48,343	-0,186	0,061
294,545	-54,797	-0,155	-0,048
295,560	-124,300	-0,197	0,021
296,574	-159,413	-0,188	-0,007
297,589	-146,561	-0,226	-0,013
298,603	-161,456	-0,130	-0,005
299,618	-140,442	-0,172	-0,012
300,633	78,962	0,014	-0,010
301,647	301,616	-0,112	-0,142
302,662	-2,489	-0,087	-0,042
303,676	-98,564	-0,270	-0,047
304,691	-2,565	-0,013	0,006
305,706	-97,495	-0,218	-0,039
306,720	800,000	-0,077	-0,178
307,735	96,096	-0,156	-0,122
308,749	80,744	-0,154	-0,114
309,764	-3,550	-0,145	-0,069
310,779	-200,000	-0,043	-0,130
311,793	55,506	-0,184	-0,122
312,808	-64,317	-0,213	-0,059
313,822	53,053	-0,271	-0,178
314,837	101,247	-0,199	-0,159
315,852	-200,000	-0,050	-0,169
316,866	17,927	-0,126	-0,069
317,881	619,718	-0,063	-0,110
318,895	-159,354	-0,148	-0,006
319,910	207,126	-0,097	-0,104
320,925	-16,653	-0,229	-0,099
321,939	462,706	-0,073	-0,113
322,954	800,000	-0,053	-0,117
323,968	173,688	-0,073	-0,072
324,983	-200,000	0,001	-0,106
325,997	22,182	-0,103	-0,057
327,012	-131,230	-0,180	-0,016
328,027	97,183	-0,157	-0,123
329,041	-50,985	-0,083	-0,026
330,056	89,079	-0,101	-0,077
331,070	35,826	-0,116	-0,070
332,085	-79,949	-0,115	0,026
333,100	-5,869	-0,264	-0,123
334,114	-200,000	-0,013	-0,102
335,129	307,371	-0,104	-0,134
336,143	-180,006	-0,215	-0,003
337,158	80,679	-0,053	0,039
338,173	383,042	-0,060	-0,085
339,187	-118,126	-0,119	-0,014
340,202	65,750	-0,049	0,034
341,216	-50,994	-0,306	-0,098
342,231	264,713	-0,132	-0,157
343,246	-61,665	-0,145	-0,041
344,260	486,666	-0,054	-0,084
345,275	-57,663	-0,108	0,032
346,289	-143,013	-0,343	-0,022
347,304	290,537	-0,081	-0,101
348,319	130,799	-0,151	-0,132
349,333	778,034	-0,068	-0,127
350,348	800,000	-0,109	-0,246
351,362	7,847	-0,101	-0,051
352,377	-59,324	-0,178	-0,052
353,392	274,196	-0,046	-0,056
354,406	111,532	-0,136	-0,112
355,421	206,883	1308,128	1396,226
356,435	159,125	1468,038	1396,715
