DTS Sentinel unit serial number:	SN410029Multiplexer serial number:	ORYXHardware model number:	OX2-SRSoftware version number:	ORYX F/W v4,00 Oryx Data Collector v3.7.2.0data status	okinstallation	B3 Nyhavnadifferential loss correction	single-endedforward channel	channel 1reverse channel	N/Adate	2023/11/29time	17:27:30forward acquisition time	300,00reverse acquisition time	0,00gamma	499,1914k internal	0,3209k external	0,3209temperature offset calibration	1,0000default loss term (dB/km)	0,3820temperature slope calibration	1,0000multiplexer offset coefficient	1,0000multiplexer slope coefficient	1,0000fibre end	0,00T internal ref (°C)	11,32T ext. ref 1 (°C)	-3,86T ext. ref 2 (°C)	-3,95length (m)	temperature (°C)	Stokes	anti-Stokes-744,400	124,119	-0,183	-0,166
-743,385	800,000	-0,059	0,142
-742,371	273,922	-0,136	-0,175
-741,356	-200,000	-0,008	0,260
-740,342	334,509	-0,156	-0,220
-739,327	391,163	-0,153	0,231
-738,312	68,855	-0,211	-0,157
-737,298	800,000	-0,060	0,137
-736,283	440,648	-0,161	-0,257
-735,269	-200,000	0,006	0,240
-734,254	141,048	-0,173	-0,166
-733,239	37,285	-0,114	0,073
-732,225	-200,000	-0,005	-0,169
-731,210	167,264	0,148	0,153
-730,196	84,862	-0,067	0,054
-729,181	-200,000	0,013	-0,124
-728,167	270,276	-0,097	-0,124
-727,152	800,000	-0,027	0,081
-726,137	-108,161	-0,146	-0,023
-725,123	475,652	-0,035	-0,058
-724,108	-200,000	-0,006	-0,111
-723,094	-91,406	-0,188	0,039
-722,079	17,894	-0,054	0,031
-721,064	800,000	0,023	-0,072
-720,050	-200,000	0,002	-0,063
-719,035	28,211	-0,083	-0,051
-718,021	-200,000	0,001	-0,004
-717,006	-89,308	-0,066	-0,014
-715,991	-200,000	0,021	-0,178
-714,977	766,061	0,048	-0,096
-713,962	800,000	-0,039	0,106
-712,948	133,176	0,063	0,059
-711,933	-155,500	0,078	0,004
-710,918	800,000	-0,039	0,103
-709,904	800,000	-0,081	-0,163
-708,889	-118,490	-0,160	0,020
-707,875	-200,000	0,007	0,049
-706,860	101,196	-0,035	-0,029
-705,845	290,157	-0,066	0,087
-704,831	-200,000	-0,005	0,058
-703,816	-200,000	0,018	0,093
-702,802	-200,000	-0,023	-0,077
-701,787	-200,000	-0,013	0,065
-700,772	-0,834	-0,111	-0,057
-699,758	800,000	0,039	-0,105
-698,743	-200,000	0,002	0,021
-697,729	-200,000	0,037	0,172
-696,714	-200,000	-0,011	0,052
-695,699	-92,686	-0,085	-0,017
-694,685	206,977	-0,053	-0,060
-693,670	29,633	0,122	-0,075
-692,656	-149,988	0,170	0,009
-691,641	800,000	-0,034	-0,075
-690,627	800,000	-0,042	0,093
-689,612	48,892	-0,030	0,020
-688,597	493,922	-0,081	0,135
-687,583	-57,739	-0,106	-0,033
-686,568	-145,824	-0,113	0,007
-685,554	594,081	0,109	-0,196
-684,539	-5,117	0,052	0,026
-683,524	744,307	0,095	0,186
-682,510	122,366	-0,099	-0,089
-681,495	-200,000	-0,021	0,083
-680,481	-182,978	-0,036	0,000
-679,466	800,000	-0,059	-0,162
-678,451	117,722	0,045	-0,040
-677,437	-200,000	-0,012	-0,107
-676,422	32,152	0,145	0,090
-675,408	296,913	0,138	0,184
-674,393	-45,643	0,020	0,007
-673,378	231,219	-0,128	-0,152
-672,364	322,242	-0,024	-0,034
-671,349	649,270	-0,042	-0,078
-670,335	54,622	0,055	-0,038
-669,320	-200,000	0,003	-0,016
-668,305	230,637	0,075	-0,089
-667,291	166,250	-0,042	-0,044
-666,276	-93,068	-0,142	0,028
-665,262	199,598	0,068	-0,075
-664,247	-156,670	-0,111	0,005
-663,232	791,822	0,031	-0,061
-662,218	-200,000	-0,013	0,070
-661,203	176,607	-0,085	0,090
-660,189	-200,000	-0,008	0,033
-659,174	166,366	-0,102	-0,104
-658,159	194,304	0,029	0,032
-657,145	28,039	-0,072	-0,044
-656,130	390,106	-0,088	-0,132
-655,116	-47,723	0,161	-0,056
-654,101	-116,259	-0,048	0,006
-653,086	-51,256	0,116	-0,039
-652,072	-200,000	0,042	-0,168
-651,057	187,393	-0,079	-0,085
-650,043	206,462	-0,098	0,110
-649,028	-200,000	0,002	-0,051
-648,014	-184,486	-0,064	-0,001
-646,999	456,836	-0,047	0,075
-645,984	-26,512	-0,043	0,018
-644,970	-200,000	-0,018	0,071
-643,955	454,820	-0,021	0,034
-642,941	-200,000	0,015	0,115
-641,926	-200,000	-0,001	0,023
-640,911	-83,449	0,063	0,014
-639,897	68,742	-0,074	0,055
-638,882	1,119	-0,070	-0,036
-637,868	156,394	0,094	0,094
-636,853	-36,817	-0,155	-0,060
-635,838	2,601	-0,144	-0,075
-634,824	800,000	0,033	-0,079
-633,809	800,000	0,041	0,125
-632,795	-120,562	-0,071	0,009
-631,780	61,090	-0,065	-0,046
-630,765	59,675	-0,056	-0,040
-629,751	-200,000	-0,012	-0,065
-628,736	-200,000	0,010	-0,158
-627,722	-12,817	0,044	0,021
-626,707	-167,761	0,127	-0,004
-625,692	-133,196	-0,064	-0,006
-624,678	800,000	-0,044	0,125
-623,663	418,554	0,033	0,052
-622,649	-200,000	-0,013	0,057
-621,634	-200,000	0,002	0,051
-620,619	-200,000	-0,002	-0,068
-619,605	300,875	0,139	0,186
-618,590	-86,864	-0,095	0,021
-617,576	162,754	-0,044	-0,045
-616,561	-200,000	-0,012	-0,054
-615,546	-200,000	-0,014	-0,169
-614,532	60,961	0,155	-0,111
-613,517	185,513	0,028	0,030
-612,503	344,451	0,090	-0,128
-611,488	800,000	0,051	0,104
-610,474	75,548	0,069	0,052
-609,459	213,142	-0,081	-0,093
-608,444	-120,628	-0,120	0,014
-607,430	532,208	-0,079	-0,135
-606,415	35,898	-0,050	0,032
-605,401	-200,000	-0,006	0,080
-604,386	-62,712	0,096	0,029
-603,371	-200,000	0,005	-0,029
-602,357	-200,000	-0,002	-0,140
-601,342	-47,947	0,053	-0,018
-600,328	800,000	-0,044	-0,135
-599,313	441,732	-0,034	-0,053
-598,298	473,232	-0,021	-0,035
-597,284	156,840	-0,010	-0,010
-596,269	-28,860	0,267	0,110
-595,255	-106,051	-0,082	0,013
-594,240	97,547	0,029	0,024
-593,225	800,000	0,028	-0,087
-592,211	-200,000	-0,014	-0,058
-591,196	-200,000	0,002	0,077
-590,182	788,345	-0,061	-0,121
-589,167	-200,000	0,015	0,091
-588,152	-54,223	-0,067	-0,022
-587,138	-200,000	0,007	-0,061
-586,123	81,426	0,178	-0,139
-585,109	162,982	0,054	-0,055
-584,094	-134,368	-0,127	-0,011
-583,079	227,977	0,079	0,093
-582,065	-72,050	-0,074	0,020
-581,050	800,000	-0,084	0,175
-580,036	249,177	-0,061	0,075
-579,021	-41,314	0,017	-0,006
-578,006	653,995	0,085	-0,159
-576,992	-200,000	-0,021	-0,084
-575,977	-95,741	-0,123	0,024
-574,963	-200,000	-0,003	0,103
-573,948	99,975	0,054	0,045
-572,934	-53,035	0,068	0,022
-571,919	800,000	0,038	-0,108
-570,904	443,506	-0,060	-0,095
-569,890	-34,043	-0,078	0,031
-568,875	-35,782	0,083	-0,032
-567,861	231,318	-0,050	0,060
-566,846	-150,368	-0,025	-0,001
-565,831	398,995	-0,050	0,076
-564,817	-200,000	0,015	0,116
-563,802	155,241	-0,067	-0,066
-562,788	-22,080	0,045	-0,020
-561,773	-151,963	-0,038	0,002
-560,758	482,839	-0,075	-0,124
-559,744	800,000	0,096	0,215
-558,729	-200,000	0,039	0,189
-557,715	187,219	-0,036	0,039
-556,700	29,051	-0,020	-0,012
-555,685	-109,686	-0,069	0,010
-554,671	-122,205	-0,016	-0,002
-553,656	645,761	-0,029	-0,053
-552,642	43,979	-0,111	0,073
-551,627	-200,000	0,008	0,035
-550,612	800,000	0,071	0,160
-549,598	-134,049	-0,079	-0,007
-548,583	130,470	-0,112	-0,104
-547,569	245,486	0,037	-0,045
-546,554	723,917	0,053	0,102
-545,539	152,477	-0,118	0,116
-544,525	428,611	-0,050	0,079
-543,510	-200,000	0,017	-0,122
-542,496	131,214	-0,077	0,071
-541,481	142,771	0,064	-0,061
-540,466	-119,970	0,075	-0,009
-539,452	12,331	0,125	0,069
-538,437	279,595	-0,039	0,050
-537,423	-114,370	-0,110	-0,015
-536,408	-112,533	-0,176	-0,025
-535,393	300,678	0,089	-0,118
-534,379	-85,673	0,024	-0,005
-533,364	24,651	0,053	0,031
-532,350	413,096	0,078	0,119
-531,335	86,356	-0,043	-0,034
-530,321	-200,000	0,010	0,045
-529,306	94,346	-0,065	0,053
-528,291	-15,222	0,110	0,051
-527,277	-200,000	-0,010	-0,108
-526,262	-200,000	-0,001	-0,141
-525,248	338,199	0,134	-0,188
-524,233	-74,419	0,114	-0,029
-523,218	-102,654	-0,073	-0,012
-522,204	-16,549	-0,054	-0,025
-521,189	-200,000	0,008	-0,117
-520,175	800,000	-0,015	0,042
-519,160	-200,000	-0,008	0,058
-518,145	-63,648	-0,012	0,003
-517,131	-200,000	0,030	0,144
-516,116	225,860	-0,033	-0,038
-515,102	-200,000	-0,029	0,165
-514,087	-165,610	0,149	0,005
-513,072	800,000	0,025	0,079
-512,058	800,000	-0,088	0,182
-511,043	333,087	0,008	0,011
-510,029	10,400	0,062	0,034
-509,014	-200,000	-0,011	0,104
-507,999	-129,698	-0,106	0,010
-506,985	46,633	0,067	-0,044
-505,970	172,023	-0,116	-0,120
-504,956	800,000	-0,018	-0,047
-503,941	-116,940	0,124	-0,016
-502,926	800,000	0,024	-0,068
-501,912	-58,810	0,006	-0,002
-500,897	-161,783	-0,217	0,008
-499,883	14,238	0,003	-0,002
-498,868	-8,155	-0,095	-0,046
-497,853	-200,000	-0,011	-0,124
-496,839	0,204	0,033	-0,017
-495,824	263,249	-0,058	0,072
-494,810	-200,000	-0,006	0,056
-493,795	66,008	0,083	0,060
-492,781	338,613	-0,070	0,098
-491,766	-200,000	0,006	-0,152
-490,751	-29,345	0,102	-0,042
-489,737	-200,000	0,000	-0,070
-488,722	-12,427	-0,099	0,046
-487,708	184,124	0,087	0,093
-486,693	-74,207	-0,060	-0,015
-485,678	733,995	0,049	0,094
-484,664	134,596	0,065	0,061
-483,649	800,000	-0,036	-0,104
-482,635	155,170	-0,054	0,053
-481,620	-128,265	0,109	0,011
-480,605	-200,000	-0,000	0,005
-479,591	-200,000	-0,002	0,024
-478,576	79,688	-0,126	-0,097
-477,562	800,000	-0,036	-0,074
-476,547	727,010	0,025	-0,048
-475,532	47,738	0,056	0,037
-474,518	2,966	0,101	0,053
-473,503	-200,000	0,002	-0,074
-472,489	703,634	-0,028	-0,054
-471,474	-60,047	-0,103	0,031
-470,459	-200,000	-0,002	-0,089
-469,445	88,039	-0,075	-0,060
-468,430	-200,000	0,006	0,081
-467,416	-83,395	0,129	-0,029
-466,401	61,867	-0,025	0,018
-465,386	800,000	-0,056	0,133
-464,372	-55,591	-0,017	0,005
-463,357	311,220	0,058	0,079
-462,343	-200,000	0,004	0,021
-461,328	800,000	0,003	-0,009
-460,313	-6,744	0,079	0,038
-459,299	38,300	0,103	-0,066
-458,284	200,230	-0,110	0,121
-457,270	-200,000	-0,014	-0,075
-456,255	800,000	-0,018	-0,043
-455,241	126,372	-0,039	-0,035
-454,226	-200,000	0,007	0,086
-453,211	-76,712	-0,048	-0,012
-452,197	-170,616	0,101	-0,002
-451,182	72,438	-0,027	0,020
-450,168	-200,000	0,030	0,114
-449,153	800,000	-0,033	0,093
-448,138	-200,000	-0,024	0,130
-447,124	82,070	-0,124	-0,097
-446,109	102,245	-0,033	-0,028
-445,095	-200,000	-0,035	-0,131
-444,080	-200,000	-0,010	-0,083
-443,065	800,000	-0,014	0,041
-442,051	-200,000	0,018	0,060
-441,036	60,943	-0,091	0,065
-440,022	729,287	0,058	0,112
-439,007	800,000	0,053	-0,124
-437,992	378,652	0,056	0,082
-436,978	800,000	-0,024	0,057
-435,963	-19,845	-0,120	-0,053
-434,949	116,686	0,066	-0,058
-433,934	800,000	-0,049	-0,097
-432,919	800,000	0,043	-0,095
-431,905	800,000	-0,029	0,081
-430,890	-19,660	-0,029	0,013
-429,876	800,000	-0,038	0,077
-428,861	186,903	0,115	-0,123
-427,846	411,561	0,019	-0,029
-426,832	-112,163	-0,057	-0,008
-425,817	800,000	-0,024	0,063
-424,803	-200,000	0,005	-0,091
-423,788	21,968	0,125	0,073
-422,773	-56,394	0,085	0,027
-421,759	-114,067	0,150	0,021
-420,744	-173,750	-0,027	0,001
-419,730	364,560	-0,022	-0,032
-418,715	-89,865	-0,178	-0,037
-417,701	-7,489	-0,098	0,047
-416,686	207,959	0,079	-0,089
-415,671	-200,000	-0,016	0,192
-414,657	-35,519	0,014	-0,005
-413,642	-200,000	-0,013	0,130
-412,628	297,008	0,070	-0,092
-411,613	268,574	-0,008	0,010
-410,598	-49,730	-0,092	-0,031
-409,584	-200,000	0,023	-0,074
-408,569	-44,540	0,052	0,018
-407,555	-29,141	0,110	0,045
-406,540	-37,115	0,120	0,046
-405,525	498,925	0,065	-0,108
-404,511	277,235	0,039	-0,050
-403,496	-200,000	-0,024	-0,146
-402,482	-22,400	0,152	-0,066
-401,467	-200,000	0,023	-0,080
-400,452	-200,000	-0,054	0,175
-399,438	-143,620	0,146	-0,010
-398,423	-200,000	-0,031	0,152
-397,409	800,000	-0,087	-0,179
-396,394	81,797	-0,052	-0,040
-395,379	800,000	0,035	0,090
-394,365	-49,601	0,111	0,038
-393,350	329,554	0,055	0,076
-392,336	-12,582	-0,109	0,051
-391,321	477,090	-0,072	0,117
-390,306	59,755	-0,123	0,087
-389,292	21,328	-0,028	-0,016
-388,277	800,000	0,076	0,206
-387,263	-157,635	0,114	0,005
-386,248	-79,046	0,150	0,036
-385,233	134,615	0,085	-0,079
-384,219	-200,000	-0,009	-0,094
-383,204	-200,000	0,058	-0,198
-382,190	161,699	-0,091	-0,091
-381,175	351,795	-0,077	-0,109
-380,160	-95,478	-0,059	0,011
-379,146	-139,251	0,101	0,008
-378,131	-175,515	-0,092	0,002
-377,117	-66,605	-0,117	0,033
-376,102	788,436	-0,033	-0,065
-375,088	-200,000	0,012	0,163
-374,073	440,537	0,056	0,088
-373,058	579,535	0,051	0,090
-372,044	-0,424	0,065	-0,033
-371,029	-14,139	0,125	-0,057
-370,015	-96,893	0,052	0,010
-369,000	62,509	-0,116	0,083
-367,985	-71,191	-0,085	0,023
-366,971	138,378	-0,072	-0,067
-365,956	800,000	0,017	0,038
-364,942	-200,000	-0,003	-0,123
-363,927	92,319	-0,048	-0,039
-362,912	-175,742	0,012	0,000
-361,898	800,000	-0,057	0,129
-360,883	77,333	-0,034	-0,026
-359,869	118,533	-0,049	-0,043
-358,854	-37,256	-0,069	0,026
-357,839	34,646	0,146	0,091
-356,825	-200,000	0,012	0,146
-355,810	800,000	0,020	0,060
-354,796	-109,356	-0,079	-0,012
-353,781	-86,684	0,118	-0,026
-352,766	-80,265	-0,066	-0,016
-351,752	428,444	0,041	-0,063
-350,737	51,659	0,087	-0,059
-349,723	728,692	0,016	-0,030
-348,708	-5,572	0,041	0,020
-347,693	-77,723	-0,158	0,039
-346,679	-137,873	0,086	-0,007
-345,664	-200,000	0,030	-0,163
-344,650	-11,155	-0,075	0,035
-343,635	-38,426	0,198	0,074
-342,620	-200,000	0,028	0,160
-341,606	800,000	0,030	0,065
-340,591	-200,000	-0,013	-0,171
-339,577	800,000	-0,072	-0,170
-338,562	-65,161	-0,169	0,048
-337,548	800,000	-0,040	0,107
-336,533	-200,000	0,015	0,051
-335,518	800,000	0,034	-0,102
-334,504	22,533	-0,076	0,044
-333,489	-123,339	0,161	-0,018
-332,475	474,647	-0,073	-0,118
-331,460	122,009	-0,068	0,061
-330,445	800,000	-0,006	0,019
-329,431	-141,971	-0,028	0,002
-328,416	20,979	-0,048	-0,028
-327,402	-5,691	0,041	-0,020
-326,387	-200,000	-0,019	-0,070
-325,372	215,447	-0,017	-0,020
-324,358	-200,000	-0,036	-0,172
-323,343	800,000	-0,045	-0,110
-322,329	0,001	0,073	0,037
-321,314	355,987	-0,032	0,046
-320,299	-200,000	0,022	0,092
-319,285	-200,000	-0,007	-0,079
-318,270	-79,717	0,101	-0,024
-317,256	172,391	-0,064	0,066
-316,241	103,074	0,073	0,061
-315,226	462,274	0,064	-0,103
-314,212	-200,000	-0,017	-0,174
-313,197	-30,096	0,048	-0,019
-312,183	130,346	0,063	0,057
-311,168	496,177	-0,059	-0,097
-310,153	186,267	-0,036	-0,039
-309,139	800,000	0,034	-0,086
-308,124	61,820	-0,119	0,084
-307,110	-200,000	-0,005	0,018
-306,095	-197,962	0,127	-0,001
-305,080	-200,000	0,029	0,097
-304,066	-200,000	-0,009	-0,049
-303,051	229,168	-0,087	-0,101
-302,037	800,000	0,051	0,104
-301,022	-48,454	0,028	-0,010
-300,008	278,860	0,051	-0,066
-298,993	-125,713	0,158	0,017
-297,978	56,681	-0,087	-0,060
-296,964	62,040	0,088	-0,063
-295,949	94,942	-0,125	-0,102
-294,935	116,055	-0,044	-0,038
-293,920	800,000	0,005	-0,011
-292,905	-200,000	-0,003	0,020
-291,891	800,000	0,050	0,152
-290,876	-50,967	-0,019	0,006
-289,862	549,973	0,046	0,078
-288,847	-200,000	0,026	0,084
-287,832	-200,000	0,020	-0,072
-286,818	-200,000	-0,004	0,021
-285,803	500,553	0,066	0,108
-284,789	167,692	0,033	0,033
-283,774	-44,137	0,121	0,043
-282,759	-200,000	0,003	0,061
-281,745	497,780	-0,044	-0,072
-280,730	149,856	-0,022	0,021
-279,716	41,333	-0,051	-0,033
-278,701	-184,323	0,135	0,002
-277,686	503,991	-0,041	-0,068
-276,672	-83,732	-0,205	-0,046
-275,657	-200,000	0,006	-0,042
-274,643	800,000	-0,023	0,056
-273,628	10,024	-0,131	-0,071
-272,613	392,715	0,052	0,078
-271,599	-200,000	0,026	-0,121
-270,584	-200,000	0,002	-0,080
-269,570	-186,553	0,078	0,001
-268,555	-200,000	-0,000	-0,022
-267,540	221,292	-0,100	-0,115
-266,526	673,655	0,064	0,119
-265,511	265,131	0,161	0,200
-264,497	-200,000	0,025	-0,112
-263,482	-41,137	-0,045	0,017
-262,467	-200,000	0,008	-0,040
-261,453	479,845	-0,035	0,056
-260,438	-200,000	0,003	-0,130
-259,424	-200,000	0,005	0,034
-258,409	204,401	-0,039	0,043
-257,395	463,875	0,029	0,046
-256,380	-10,433	-0,068	0,032
-255,365	800,000	-0,052	0,163
-254,351	800,000	0,016	0,036
-253,336	-65,493	-0,130	-0,037
-252,322	0,067	-0,064	-0,032
-251,307	26,300	0,076	0,045
-250,292	-200,000	-0,006	0,035
-249,278	-119,147	-0,025	-0,003
-248,263	800,000	-0,052	0,108
-247,249	33,427	0,085	-0,053
-246,234	69,726	-0,044	0,032
-245,219	-200,000	0,019	0,083
-244,205	-101,245	-0,083	0,014
-243,190	138,051	-0,059	0,055
-242,176	-200,000	0,003	-0,090
-241,161	800,000	-0,047	0,105
-240,146	248,554	-0,055	0,066
-239,132	800,000	-0,002	-0,005
-238,117	-150,803	-0,056	-0,003
-237,103	54,956	-0,133	-0,091
-236,088	126,252	0,080	0,072
-235,073	150,202	0,025	0,024
-234,059	-200,000	-0,004	-0,019
-233,044	175,957	0,081	0,084
-232,030	15,127	0,061	0,034
-231,015	800,000	-0,007	-0,021
-230,000	148,947	-0,071	0,068
-228,986	-8,351	0,044	0,021
-227,971	-124,655	0,091	0,010
-226,957	-200,000	-0,031	0,143
-225,942	-200,000	0,006	0,056
-224,927	800,000	0,025	-0,051
-223,913	-84,156	0,137	-0,031
-222,898	86,887	-0,055	-0,043
-221,884	30,863	0,042	-0,025
-220,869	-200,000	0,014	-0,140
-219,855	-200,000	0,008	-0,141
-218,840	-200,000	0,005	-0,040
-217,825	-200,000	-0,016	-0,073
-216,811	245,152	-0,013	0,016
-215,796	167,844	-0,044	-0,045
-214,782	248,430	-0,075	-0,090
-213,767	28,896	-0,027	0,016
-212,752	7,251	0,028	0,015
-211,738	248,541	-0,056	0,068
-210,723	47,350	0,123	-0,081
-209,709	800,000	-0,078	0,163
-208,694	46,534	0,085	0,056
-207,679	-200,000	-0,012	-0,131
-206,665	-200,000	-0,001	0,082
-205,650	-62,063	0,122	0,036
-204,636	192,683	0,141	0,152
-203,621	800,000	0,055	0,113
-202,606	168,108	-0,067	0,067
-201,592	800,000	0,020	-0,054
-200,577	77,400	0,054	-0,041
-199,563	266,518	0,029	-0,036
-198,548	43,813	-0,126	-0,082
-197,533	-103,373	-0,069	0,011
-196,519	15,153	0,051	-0,028
-195,504	-7,390	-0,056	0,027
-194,490	-1,664	-0,043	-0,021
-193,475	-200,000	0,035	-0,141
-192,460	-131,777	-0,031	0,003
-191,446	36,021	0,194	-0,121
-190,431	800,000	-0,023	0,065
-189,417	89,596	0,128	-0,101
-188,402	324,617	-0,045	0,061
-187,387	282,497	-0,052	-0,067
-186,373	-119,772	-0,076	0,009
-185,358	82,726	-0,070	0,054
-184,344	-57,640	-0,131	-0,041
-183,329	-52,304	-0,147	0,048
-182,315	-186,030	0,126	-0,001
-181,300	800,000	-0,033	-0,069
-180,285	351,579	-0,070	-0,099
-179,271	-200,000	-0,009	-0,066
-178,256	-43,227	0,189	-0,068
-177,242	-113,560	0,043	-0,006
-176,227	-93,548	0,154	0,030
-175,212	-58,960	-0,103	0,031
-174,198	-28,160	0,049	-0,020
-173,183	-90,699	-0,169	0,034
-172,169	241,843	-0,022	-0,026
-171,154	122,263	-0,056	0,049
-170,139	-90,439	0,141	-0,029
-169,125	16,068	0,054	-0,030
-168,110	-200,000	-0,003	0,137
-167,096	-113,157	0,143	0,020
-166,081	439,552	0,091	-0,142
-165,066	-23,842	-0,128	-0,054
-164,052	-200,000	-0,008	0,055
-163,037	-167,452	0,067	0,002
-162,023	93,372	-0,024	0,019
-161,008	-200,000	0,007	0,035
-159,993	-200,000	-0,009	-0,041
-158,979	20,428	0,060	-0,034
-157,964	174,728	0,079	-0,081
-156,950	-200,000	-0,007	-0,072
-155,935	381,984	0,027	0,039
-154,920	-200,000	-0,027	-0,151
-153,906	-200,000	-0,001	-0,098
-152,891	-200,000	-0,030	0,167
-151,877	-200,000	-0,015	-0,113
-150,862	55,860	-0,132	-0,090
-149,847	-200,000	0,013	0,059
-148,833	-111,083	0,054	-0,008
-147,818	-200,000	0,019	0,063
-146,804	-102,962	0,121	0,020
-145,789	-26,577	-0,071	-0,029
-144,775	800,000	-0,023	0,055
-143,760	-26,182	0,092	-0,038
-142,745	51,559	0,056	-0,038
-141,731	19,692	0,035	-0,020
-140,716	-200,000	0,011	-0,057
-139,702	800,000	0,008	-0,023
-138,687	-54,835	0,122	0,039
-137,672	-5,316	-0,067	0,033
-136,658	3,404	-0,106	-0,055
-135,643	800,000	0,028	-0,063
-134,629	460,666	-0,020	0,032
-133,614	316,253	0,065	0,087
-132,599	-200,000	-0,006	-0,055
-131,585	-109,334	-0,093	-0,014
-130,570	611,583	0,070	-0,125
-129,556	-200,000	-0,018	-0,066
-128,541	-200,000	-0,001	0,048
-127,526	800,000	0,027	-0,070
-126,512	85,614	0,100	-0,078
-125,497	-51,557	-0,041	-0,013
-124,483	-200,000	0,013	-0,045
-123,468	546,361	-0,101	0,171
-122,453	-200,000	0,006	-0,175
-121,439	69,700	0,048	-0,035
-120,424	-99,484	0,109	-0,019
-119,410	445,633	0,011	0,018
-118,395	-200,000	0,003	-0,118
-117,380	-66,443	-0,070	0,019
-116,366	800,000	0,012	-0,031
-115,351	800,000	0,042	-0,099
-114,337	-200,000	0,023	-0,091
-113,322	562,804	0,058	0,100
-112,307	149,846	-0,048	0,046
-111,293	-111,186	0,126	-0,018
-110,278	484,389	0,015	-0,024
-109,264	158,963	-0,027	-0,027
-108,249	-56,089	-0,026	-0,008
-107,234	444,070	-0,078	-0,121
-106,220	800,000	-0,020	-0,047
-105,205	-166,716	0,045	-0,001
-104,191	-109,671	0,126	-0,019
-103,176	149,351	-0,023	0,022
-102,162	-200,000	-0,002	0,101
-101,147	-75,199	-0,108	-0,027
-100,132	276,508	-0,056	0,070
-99,118	-200,000	-0,055	-0,208
-98,103	-200,000	-0,009	0,050
-97,089	26,213	-0,027	-0,016
-96,074	46,952	0,059	0,039
-95,059	800,000	-0,064	0,135
-94,045	800,000	-0,021	-0,063
-93,030	220,015	-0,034	-0,039
-92,016	59,827	-0,068	0,047
-91,001	-200,000	0,020	0,189
-89,986	16,064	-0,063	0,035
-88,972	-200,000	-0,007	0,106
-87,957	-53,822	-0,060	0,019
-86,943	-200,000	0,007	-0,050
-85,928	-108,343	0,143	0,022
-84,913	349,057	-0,031	-0,043
-83,899	-200,000	0,004	0,101
-82,884	-200,000	-0,036	0,125
-81,870	800,000	-0,038	0,099
-80,855	89,677	0,090	0,071
-79,840	65,638	0,009	0,007
-78,826	166,303	-0,096	-0,096
-77,811	702,847	-0,059	-0,110
-76,797	800,000	-0,022	-0,044
-75,782	8,642	-0,075	0,040
-74,767	331,434	0,049	0,068
-73,753	27,796	0,023	-0,013
-72,738	29,968	0,071	-0,043
-71,724	296,222	-0,008	-0,010
-70,709	-200,000	-0,026	-0,186
-69,694	-200,000	-0,001	0,018
-68,680	195,117	0,100	0,108
-67,665	-200,000	-0,007	0,037
-66,651	281,314	0,051	0,064
-65,636	-104,936	0,062	-0,010
-64,622	-200,000	-0,003	-0,023
-63,607	-200,000	0,018	-0,124
-62,592	-6,576	-0,048	-0,023
-61,578	-174,122	0,042	-0,001
-60,563	-200,000	-0,008	0,081
-59,549	-200,000	-0,003	0,127
-58,534	12,895	-1,940	-1,057
-57,519	437,221	-1,323	-2,043
-56,505	-200,000	-0,196	-4,265
-55,490	379,702	0,821	1,191
-54,476	800,000	5,129	11,285
-53,461	-200,000	20,581	328,580
-52,446	800,000	753,708	2315,900
-51,432	550,568	1658,776	2821,288
-50,417	73,894	1663,676	1230,862
-49,403	19,160	1537,114	868,676
-48,388	13,145	1459,974	795,970
-47,373	18,877	1450,262	818,175
-46,359	16,072	1439,644	798,798
-45,344	11,401	1435,372	774,148
-44,330	11,331	1433,592	772,826
-43,315	11,359	1431,863	771,993
-42,300	11,406	1429,728	771,036
-41,286	11,376	1428,526	770,215
-40,271	11,317	1427,639	769,427
-39,257	11,344	1426,339	768,822
-38,242	11,359	1425,199	768,251
-37,227	11,391	1423,864	767,651
-36,213	11,386	1422,565	766,897
-35,198	11,370	1421,750	766,353
-34,184	11,402	1420,714	765,912
-33,169	11,360	1419,110	764,819
-32,154	11,409	1418,284	764,573
-31,140	11,443	1416,838	763,927
-30,125	11,496	1415,650	763,502
-29,111	11,453	1414,779	762,801
-28,096	11,414	1413,789	762,056
-27,082	11,379	1412,345	761,081
-26,067	11,343	1411,445	760,399
-25,052	11,354	1410,445	759,880
-24,038	11,353	1409,301	759,230
-23,023	11,339	1408,286	758,588
-22,009	11,316	1407,493	758,024
-20,994	11,352	1406,185	757,457
-19,979	11,320	1405,659	756,994
-18,965	11,327	1404,632	756,444
-17,950	11,325	1403,590	755,842
-16,936	11,297	1402,828	755,272
-15,921	11,245	1401,931	754,516
-14,906	11,241	1400,804	753,863
-13,892	11,290	1399,726	753,477
-12,877	11,267	1399,150	753,031
-11,863	11,291	1398,027	752,509
-10,848	11,245	1397,390	751,924
-9,833	11,188	1396,629	751,221
-8,819	11,132	1395,815	750,493
-7,804	11,154	1394,673	749,949
-6,790	11,223	1393,607	749,667
-5,775	11,161	1392,819	748,923
-4,760	11,176	1391,642	748,332
-3,746	11,162	1390,825	747,799
-2,731	11,182	1389,971	747,405
-1,717	11,180	1389,050	746,868
-0,702	11,153	1387,253	745,748
0,313	15,159	1301,898	718,233
1,327	31,437	693,767	419,807
2,342	48,765	120,430	79,588
3,356	0,649	16,547	8,326
4,371	6,008	3,313	1,726
5,386	-2,909	0,754	0,370
6,400	-200,000	0,126	0,449
7,415	8,041	-0,265	-0,140
8,429	356,707	-0,150	-0,211
9,444	42,585	-0,257	-0,165
10,459	454,856	-0,148	-0,232
11,473	154,066	-0,306	-0,296
12,488	55,664	-0,244	-0,167
13,502	-45,624	-0,357	-0,124
14,517	368,643	-0,217	-0,310
15,531	-10,077	-0,360	-0,168
16,546	217,503	-0,372	-0,418
17,561	127,299	-0,304	-0,272
18,575	-35,632	-0,031	-0,012
19,590	-57,285	-0,225	-0,069
20,604	-45,595	-0,290	-0,101
21,619	197,498	-0,343	-0,370
22,634	-29,707	-0,558	-0,223
23,648	151,659	-0,292	-0,280
24,663	136,023	-0,372	-0,342
25,677	89,181	-0,302	-0,237
26,692	200,945	-0,222	-0,241
27,707	-1,149	-0,393	-0,195
28,721	114,170	-0,334	-0,286
29,736	268,899	-0,367	-0,454
30,750	137,261	-0,419	-0,385
31,765	133,781	-0,405	-0,369
32,780	64,471	-0,393	-0,279
33,794	-28,350	-0,391	-0,158
34,809	273,039	-0,196	-0,244
35,823	-75,189	-0,369	-0,092
36,838	54,773	-0,430	-0,292
37,853	277,324	-0,276	-0,346
38,867	138,078	-0,415	-0,383
39,882	170,906	-0,328	-0,331
40,896	89,910	-0,423	-0,332
41,911	-51,945	-0,240	-0,078
42,926	105,214	-0,274	-0,227
43,940	146,291	-0,404	-0,382
44,955	80,305	-0,290	-0,219
45,969	171,950	-0,347	-0,351
46,984	100,266	-0,360	-0,293
47,999	11,803	-0,297	-0,160
49,013	36,151	-0,223	-0,138
50,028	60,430	-0,321	-0,223
51,042	594,911	-0,184	-0,322
52,057	122,012	-0,322	-0,283
53,071	8,450	-0,422	-0,223
54,086	165,858	-0,218	-0,217
55,101	52,532	-0,322	-0,216
56,115	83,636	-0,334	-0,255
57,130	-55,651	-0,362	-0,113
58,144	-33,473	-0,357	-0,138
59,159	210,170	-0,296	-0,326
60,174	153,628	-0,276	-0,266
61,188	61,438	-0,267	-0,186
62,203	-18,546	-0,441	-0,192
63,217	109,768	-0,218	-0,183
64,232	224,235	-0,292	-0,331
65,247	38,669	-0,413	-0,258
66,261	14,634	-0,331	-0,181
67,276	232,221	-0,315	-0,363
68,290	103,373	-0,359	-0,295
69,305	8,835	-0,379	-0,200
70,320	-56,947	-0,233	-0,072
71,334	62,364	-0,346	-0,242
72,349	74,356	-0,362	-0,267
73,363	75,713	-0,351	-0,260
74,378	1,204	-0,207	-0,104
75,393	-49,952	-0,281	-0,093
76,407	152,244	-0,246	-0,235
77,422	247,956	-0,259	-0,308
78,436	-103,033	-0,299	-0,049
79,451	51,038	-0,291	-0,193
80,466	86,469	-0,301	-0,233
81,480	150,852	-0,262	-0,250
82,495	85,563	-0,249	-0,191
83,509	30,285	-0,397	-0,237
84,524	72,909	-0,286	-0,209
85,539	165,725	-0,241	-0,239
86,553	65,206	-0,259	-0,183
87,568	38,873	-0,306	-0,191
88,582	-26,321	-0,262	-0,107
89,597	69,627	-0,287	-0,207
90,611	122,849	-0,293	-0,257
91,626	53,771	-0,299	-0,200
92,641	69,005	-0,203	-0,146
93,655	-4,032	-0,253	-0,122
94,670	191,193	-0,227	-0,239
95,684	39,861	-0,401	-0,252
96,699	185,166	-0,254	-0,264
97,714	147,588	-0,287	-0,271
98,728	164,195	-0,255	-0,252
99,743	-11,150	-0,351	-0,161
100,757	-29,302	-0,244	-0,098
101,772	207,376	-0,220	-0,240
102,787	-64,821	-0,322	-0,090
103,801	380,547	-0,165	-0,237
104,816	0,727	-0,274	-0,137
105,830	-47,122	-0,209	-0,071
106,845	-28,787	-0,358	-0,143
107,860	-51,482	-0,248	-0,081
108,874	351,909	-0,160	-0,222
109,889	-81,119	-0,311	-0,071
110,903	150,108	-0,276	-0,262
111,918	285,524	-0,232	-0,293
112,933	-59,148	-0,340	-0,102
113,947	16,258	-0,096	-0,053
114,962	-34,969	-0,243	-0,092
115,976	-44,213	-0,345	-0,120
116,991	3,669	-0,302	-0,153
118,006	433,277	-0,160	-0,243
119,020	60,993	-0,272	-0,188
120,035	102,018	-0,238	-0,194
121,049	127,332	-0,124	-0,110
122,064	-162,292	-0,287	-0,010
123,079	-59,993	-0,297	-0,088
124,093	-56,400	-0,302	-0,093
125,108	171,240	-0,252	-0,253
126,122	89,615	-0,235	-0,183
127,137	54,117	-0,249	-0,167
128,151	504,875	-0,106	-0,173
129,166	-146,954	-0,357	-0,021
130,181	124,944	-0,192	-0,169
131,195	101,024	-0,259	-0,210
132,210	153,782	-0,253	-0,242
133,224	360,213	-0,156	-0,218
134,239	228,636	-0,200	-0,227
135,254	713,995	-0,084	-0,156
136,268	102,944	-0,145	-0,118
137,283	129,301	-0,300	-0,267
138,297	80,447	-0,382	-0,286
139,312	800,000	-0,169	-0,363
140,327	66,194	-0,365	-0,258
141,341	82,142	-0,195	-0,147
142,356	60,380	-0,187	-0,129
143,370	-4,426	-0,176	-0,084
144,385	158,301	-0,257	-0,248
145,400	45,929	-0,342	-0,220
146,414	388,410	-0,183	-0,265
147,429	141,974	-0,255	-0,236
148,443	23,444	-0,203	-0,116
149,458	-35,717	-0,270	-0,102
150,473	2,243	-0,273	-0,137
151,487	54,894	-0,368	-0,247
152,502	103,158	-0,154	-0,126
153,516	41,754	-0,223	-0,140
154,531	17,552	-0,278	-0,154
155,546	80,773	-0,157	-0,118
156,560	-100,162	-0,326	-0,056
157,575	-113,555	-0,175	0,024
158,589	110,944	-0,141	-0,118
159,604	120,827	-0,251	-0,217
160,619	55,208	-0,248	-0,166
161,633	133,867	-0,321	-0,289
162,648	34,012	-0,242	-0,146
163,662	-200,000	-0,044	-0,152
164,677	-93,230	-0,186	-0,036
165,692	168,291	-0,153	-0,152
166,706	-15,057	-0,374	-0,166
167,721	95,049	-0,308	-0,244
168,735	-135,715	-0,223	-0,018
169,750	470,682	-0,168	-0,263
170,764	356,489	-0,101	-0,141
171,779	57,328	-0,178	-0,121
172,794	171,139	-0,179	-0,179
173,808	-93,936	-0,266	-0,050
174,823	326,605	-0,220	-0,294
175,837	116,369	-0,352	-0,300
176,852	224,704	-0,165	-0,186
177,867	800,000	-0,100	-0,208
178,881	18,267	-0,239	-0,132
179,896	30,405	-0,317	-0,188
180,910	61,407	-0,280	-0,193
181,925	290,766	-0,161	-0,204
182,940	742,688	-0,171	-0,322
183,954	103,715	-0,129	-0,105
184,969	20,632	-0,151	-0,084
185,983	380,055	-0,189	-0,270
186,998	100,250	-0,248	-0,200
188,013	-72,738	-0,315	-0,080
189,027	33,851	-0,224	-0,135
190,042	-25,132	-0,323	-0,132
191,056	195,970	-0,208	-0,220
192,071	123,694	-0,251	-0,219
193,086	285,799	-0,104	-0,131
194,100	24,264	-0,220	-0,126
195,115	-70,893	-0,205	-0,053
196,129	28,471	-0,301	-0,176
197,144	-82,430	-0,119	-0,027
198,159	40,326	-0,326	-0,203
199,173	59,070	-0,214	-0,146
200,188	68,882	-0,180	-0,128
201,202	119,403	-0,176	-0,151
202,217	194,184	-0,154	-0,162
203,232	800,000	-0,072	-0,211
204,246	18,172	-0,223	-0,123
205,261	-200,000	-0,074	-0,399
206,275	-85,030	-0,143	-0,031
207,290	61,239	-0,200	-0,138
208,304	-10,199	-0,274	-0,126
209,319	71,941	-0,216	-0,156
210,334	-19,996	-0,093	-0,040
211,348	76,737	-0,272	-0,199
212,363	5,393	-0,201	-0,102
213,377	479,683	-0,081	-0,127
214,392	307,195	-0,120	-0,155
215,407	-148,391	-0,079	0,004
216,421	800,000	-0,084	-0,163
217,436	188,589	-0,211	-0,218
218,450	161,505	-0,225	-0,218
219,465	606,823	-0,084	-0,146
220,480	170,656	-0,111	-0,110
221,494	503,448	-0,180	-0,289
222,509	-146,301	-0,150	-0,009
223,523	236,449	-0,132	-0,151
224,538	493,873	-0,236	-0,376
225,553	534,315	-0,164	-0,270
226,567	593,948	-0,092	-0,157
227,582	-8,514	-0,158	-0,073
228,596	300,345	-0,129	-0,165
229,611	231,128	-0,167	-0,189
230,626	268,745	-0,267	-0,325
231,640	55,941	-0,273	-0,183
232,655	109,616	-0,196	-0,163
233,669	7,147	-0,246	-0,126
234,684	103,989	-0,122	-0,099
235,699	25,692	-0,161	-0,092
236,713	-83,712	-0,104	-0,023
237,728	177,033	-0,275	-0,277
238,742	66,646	-0,079	-0,056
239,757	30,442	-0,303	-0,179
240,772	281,500	-0,189	-0,235
241,786	162,210	-0,174	-0,169
242,801	-5,097	-0,070	-0,033
243,815	129,876	-0,164	-0,145
244,830	-97,614	-0,172	0,030
245,844	-96,470	-0,138	-0,025
246,859	98,949	-0,117	-0,093
247,874	154,236	-0,109	-0,103
248,888	3,784	-0,170	-0,086
249,903	54,495	-0,169	-0,112
250,917	268,047	-0,166	-0,201
251,932	28,319	-0,172	-0,100
252,947	-176,285	-0,097	-0,002
253,961	54,715	-0,174	-0,116
254,976	-29,915	-0,165	-0,065
255,990	139,689	-0,181	-0,164
257,005	-75,634	-0,117	-0,028
258,020	107,457	-0,192	-0,157
259,034	221,163	-0,175	-0,194
260,049	203,846	-0,128	-0,137
261,063	24,324	-0,177	-0,101
262,078	147,215	-0,175	-0,163
263,093	-85,991	-0,200	-0,042
264,107	-200,000	-0,025	-0,233
265,122	-37,777	-0,222	-0,081
266,136	362,661	-0,117	-0,162
267,151	66,464	-0,197	-0,138
268,166	-18,920	-0,129	-0,055
269,180	-200,000	-0,059	-0,207
270,195	368,568	-0,172	-0,241
271,209	-140,649	-0,030	-0,002
272,224	-75,574	-0,115	-0,028
273,239	91,197	-0,136	-0,105
274,253	-200,000	-0,011	0,035
275,268	800,000	-0,109	-0,227
276,282	395,013	-0,140	-0,201
277,297	138,876	-0,149	-0,135
278,312	-173,735	-0,166	-0,003
279,326	9,887	-0,076	-0,039
280,341	-19,682	-0,274	-0,116
281,355	-101,861	-0,266	-0,044
282,370	118,526	-0,216	-0,183
283,384	58,821	-0,194	-0,131
284,399	81,198	-0,160	-0,119
285,414	43,294	-0,145	-0,091
286,428	-70,451	-0,121	-0,031
287,443	-52,838	-0,154	-0,048
288,457	800,000	-0,051	-0,130
289,472	384,028	-0,083	-0,118
290,487	61,984	-0,110	-0,075
291,501	800,000	-0,094	-0,196
292,516	174,194	-0,182	-0,181
293,530	221,463	-0,154	-0,170
294,545	17,433	-0,096	-0,052
295,560	156,054	-0,137	-0,130
296,574	-93,534	-0,121	-0,023
297,589	22,671	-0,175	-0,098
298,603	99,103	-0,099	-0,079
299,618	47,101	-0,318	-0,203
300,633	800,000	-0,092	-0,190
301,647	72,778	-0,125	-0,090
302,662	350,689	-0,122	-0,167
303,676	304,009	-0,139	-0,177
304,691	-18,967	-0,156	-0,066
305,706	145,749	-0,169	-0,156
306,720	-200,000	0,000	-0,244
307,735	-33,854	-0,174	-0,066
308,749	13,812	-0,116	-0,062
309,764	-27,331	-0,108	-0,043
310,779	56,118	-0,132	-0,088
311,793	286,936	-0,116	-0,144
312,808	-134,701	-0,223	-0,018
313,822	-191,656	-0,224	-0,001
314,837	28,309	-0,089	-0,052
315,852	108,082	-0,096	-0,079
316,866	243,357	-0,070	-0,081
317,881	-47,299	-0,145	-0,048
318,895	800,000	-0,070	-0,179
319,910	-200,000	-0,051	-0,201
320,925	-59,275	-0,161	-0,047
321,939	176,808	-0,036	-0,036
322,954	-0,382	-0,217	-0,106
323,968	65,521	-0,085	-0,059
324,983	78,351	-0,109	-0,079
325,997	108,211	-0,154	-0,126
327,012	62,774	-0,138	-0,095
328,027	108,433	-0,279	-0,229
329,041	196,753	-0,099	-0,104
330,056	-181,637	-0,123	-0,002
331,070	328,634	-0,066	-0,087
332,085	800,000	-0,066	-0,132
333,100	295,403	-0,157	-0,198
334,114	-1,295	-0,141	-0,068
335,129	-200,000	-0,111	-0,367
336,143	301,406	-0,040	-0,051
337,158	-200,000	-0,076	-0,248
338,173	57,898	-0,084	-0,056
339,187	36,944	-0,161	-0,097
340,202	-65,153	-0,244	-0,067
341,216	800,000	-0,100	-0,191
342,231	759,724	-0,153	-0,286
343,246	768,787	-0,115	-0,216
344,260	800,000	-0,086	-0,181
345,275	-71,506	-0,207	-0,053
346,289	-200,000	-0,010	-0,033
347,304	-200,000	-0,009	-0,141
348,319	158,375	-0,150	-0,143
349,333	93,930	-0,116	-0,090
350,348	328,637	-0,120	-0,158
351,362	44,338	-0,081	-0,051
352,377	-23,578	-0,126	-0,051
353,392	-35,038	-0,159	-0,059
354,406	-95,446	-0,117	0,021
355,421	207,601	1308,511	1399,279
356,435	159,709	1468,464	1399,773
