DTS Sentinel unit serial number:	SN410029Multiplexer serial number:	ORYXHardware model number:	OX2-SRSoftware version number:	ORYX F/W v4,00 Oryx Data Collector v3.7.2.0data status	okinstallation	B3 Nyhavnadifferential loss correction	single-endedforward channel	channel 1reverse channel	N/Adate	2023/11/28time	22:47:30forward acquisition time	300,00reverse acquisition time	0,00gamma	499,1914k internal	0,3211k external	0,3211temperature offset calibration	1,0000default loss term (dB/km)	0,3820temperature slope calibration	1,0000multiplexer offset coefficient	1,0000multiplexer slope coefficient	1,0000fibre end	0,00T internal ref (°C)	8,63T ext. ref 1 (°C)	-5,94T ext. ref 2 (°C)	-6,09length (m)	temperature (°C)	Stokes	anti-Stokes-744,400	594,650	-0,059	-0,106
-743,385	-200,000	-0,024	0,306
-742,371	252,547	-0,172	-0,213
-741,356	800,000	0,092	0,239
-740,342	800,000	-0,085	-0,183
-739,327	-200,000	0,010	0,260
-738,312	800,000	-0,094	-0,224
-737,298	-200,000	-0,003	0,211
-736,283	114,396	-0,188	-0,166
-735,269	-200,000	0,053	0,249
-734,254	232,764	-0,155	-0,184
-733,239	230,991	-0,204	0,243
-732,225	800,000	-0,075	-0,184
-731,210	-39,576	0,172	0,065
-730,196	-125,023	-0,034	-0,004
-729,181	336,920	-0,043	-0,060
-728,167	75,198	0,034	0,026
-727,152	-67,624	0,029	0,008
-726,137	800,000	-0,025	-0,072
-725,123	-91,010	0,067	0,014
-724,108	403,844	-0,091	-0,140
-723,094	-200,000	-0,015	-0,099
-722,079	416,091	-0,150	-0,232
-721,064	96,881	-0,072	-0,059
-720,050	-98,705	0,036	0,007
-719,035	61,393	-0,069	0,050
-718,021	-200,000	-0,008	0,055
-717,006	44,232	-0,127	-0,084
-715,991	7,841	-0,078	-0,042
-714,977	-200,000	0,013	-0,123
-713,962	327,710	-0,066	-0,092
-712,948	7,663	-0,065	-0,035
-711,933	65,898	-0,077	-0,057
-710,918	70,631	-0,115	0,086
-709,904	-200,000	0,029	-0,149
-708,889	-200,000	0,000	-0,002
-707,875	-101,260	-0,181	-0,032
-706,860	467,946	0,049	0,079
-705,845	-200,000	-0,011	0,052
-704,831	-200,000	-0,007	0,028
-703,816	304,957	0,061	0,082
-702,802	280,674	-0,091	0,119
-701,787	-86,306	-0,099	0,022
-700,772	241,925	0,054	-0,066
-699,758	657,277	-0,018	0,033
-698,743	-200,000	-0,025	0,153
-697,729	800,000	0,002	0,005
-696,714	-69,844	0,186	0,051
-695,699	-46,093	-0,143	0,051
-694,685	248,324	-0,019	0,023
-693,670	-200,000	0,000	-0,031
-692,656	-200,000	0,012	0,089
-691,641	-186,943	0,158	-0,002
-690,627	235,143	0,053	0,063
-689,612	-200,000	-0,000	-0,062
-688,597	800,000	0,012	-0,032
-687,583	-83,636	-0,060	0,014
-686,568	95,859	0,043	-0,036
-685,554	212,343	0,054	-0,062
-684,539	337,040	0,119	-0,168
-683,524	-200,000	-0,013	-0,089
-682,510	800,000	0,008	0,020
-681,495	741,639	-0,046	-0,090
-680,481	-100,312	0,066	-0,012
-679,466	311,286	-0,062	0,084
-678,451	-199,899	-0,053	-0,000
-677,437	9,838	-0,044	-0,024
-676,422	606,509	-0,006	-0,010
-675,408	800,000	-0,087	-0,178
-674,393	-134,472	-0,058	-0,005
-673,378	392,073	-0,073	-0,110
-672,364	800,000	-0,048	-0,127
-671,349	189,779	-0,063	-0,068
-670,335	800,000	0,008	-0,020
-669,320	-107,714	-0,066	0,010
-668,305	-200,000	0,020	0,087
-667,291	147,534	-0,075	-0,073
-666,276	59,504	-0,110	-0,078
-665,262	800,000	0,038	-0,114
-664,247	-65,882	-0,152	0,044
-663,232	-15,853	-0,088	0,040
-662,218	34,928	-0,040	-0,025
-661,203	448,784	0,052	-0,083
-660,189	-200,000	0,000	-0,047
-659,174	42,222	-0,029	0,019
-658,159	87,631	-0,073	-0,058
-657,145	423,223	-0,054	0,084
-656,130	205,637	0,039	-0,044
-655,116	207,413	0,095	-0,107
-654,101	86,172	-0,023	-0,018
-653,086	43,226	0,047	-0,031
-652,072	-180,155	-0,042	-0,001
-651,057	137,863	-0,174	-0,165
-650,043	-200,000	-0,020	-0,092
-649,028	91,638	0,062	-0,050
-648,014	800,000	-0,029	-0,092
-646,999	800,000	0,028	0,088
-645,984	-64,128	-0,045	-0,013
-644,970	800,000	0,006	-0,017
-643,955	800,000	-0,043	-0,104
-642,941	-200,000	0,015	-0,105
-641,926	800,000	-0,055	-0,140
-640,911	61,514	-0,028	-0,020
-639,897	149,548	0,062	0,061
-638,882	52,370	-0,051	0,035
-637,868	108,029	0,073	-0,063
-636,853	137,804	0,039	-0,037
-635,838	799,886	-0,119	-0,238
-634,824	632,459	0,044	-0,080
-633,809	88,152	-0,073	0,058
-632,795	-1,905	0,197	-0,099
-631,780	45,106	0,071	0,047
-630,765	-5,575	-0,119	0,059
-629,751	-8,788	-0,009	-0,004
-628,736	132,903	-0,014	-0,013
-627,722	198,636	-0,061	-0,068
-626,707	0,935	0,030	-0,016
-625,692	-52,980	0,125	-0,041
-624,678	714,908	-0,064	-0,124
-623,663	297,891	-0,137	0,182
-622,649	8,393	-0,061	-0,033
-621,634	-200,000	-0,003	-0,035
-620,619	-200,000	-0,003	-0,100
-619,605	800,000	-0,050	-0,107
-618,590	-4,447	0,058	0,029
-617,576	800,000	-0,023	0,059
-616,561	-8,912	0,083	0,040
-615,546	162,311	-0,079	0,080
-614,532	800,000	-0,106	-0,260
-613,517	589,330	-0,044	-0,079
-612,503	800,000	-0,039	-0,087
-611,488	-58,063	0,029	0,009
-610,474	800,000	0,042	0,106
-609,459	-200,000	-0,020	0,066
-608,444	800,000	-0,060	-0,143
-607,430	12,972	-0,041	-0,023
-606,415	-200,000	-0,015	-0,089
-605,401	-200,000	-0,002	-0,054
-604,386	-200,000	-0,005	0,036
-603,371	21,782	0,020	-0,012
-602,357	105,500	-0,039	-0,034
-601,342	221,980	-0,040	-0,047
-600,328	51,085	0,085	0,058
-599,313	15,876	-0,113	-0,064
-598,298	192,383	-0,037	0,040
-597,284	-41,273	-0,033	0,012
-596,269	82,634	-0,014	-0,011
-595,255	56,015	0,067	-0,047
-594,240	-110,732	0,130	0,019
-593,225	38,604	-0,115	-0,074
-592,211	255,171	-0,036	-0,044
-591,196	307,943	0,105	-0,142
-590,182	-20,087	0,107	-0,048
-589,167	-136,534	0,104	0,009
-588,152	-200,000	-0,002	-0,063
-587,138	800,000	-0,019	0,047
-586,123	148,156	-0,107	-0,104
-585,109	369,827	0,100	-0,146
-584,094	-200,000	-0,021	-0,140
-583,079	337,789	0,020	-0,028
-582,065	-0,878	0,145	-0,074
-581,050	-67,641	0,080	-0,022
-580,036	400,047	-0,071	0,107
-579,021	187,861	-0,085	0,092
-578,006	210,266	0,158	-0,179
-576,992	145,997	-0,089	-0,086
-575,977	345,584	0,087	0,124
-574,963	-200,000	-0,006	0,034
-573,948	-64,736	0,098	-0,028
-572,934	30,125	0,011	-0,007
-571,919	-200,000	-0,018	-0,143
-570,904	162,209	0,040	0,040
-569,890	5,471	-0,087	-0,046
-568,875	-3,411	-0,102	0,051
-567,861	429,617	0,056	0,088
-566,846	-19,108	-0,075	0,034
-565,831	-200,000	-0,014	-0,093
-564,817	398,975	0,064	-0,097
-563,802	-200,000	0,002	-0,192
-562,788	-120,873	0,085	-0,010
-561,773	99,821	0,067	-0,056
-560,758	684,598	0,074	0,141
-559,744	-0,265	-0,092	-0,047
-558,729	-89,643	0,016	-0,003
-557,715	476,308	-0,081	-0,133
-556,700	-112,241	-0,146	-0,021
-555,685	490,222	-0,039	-0,064
-554,671	-200,000	-0,014	-0,044
-553,656	-136,917	0,167	0,014
-552,642	-138,805	0,107	0,008
-551,627	-200,000	-0,011	-0,042
-550,612	-200,000	-0,007	-0,028
-549,598	39,648	-0,078	0,050
-548,583	98,944	-0,053	0,044
-547,569	59,073	-0,025	0,018
-546,554	122,011	0,034	0,031
-545,539	-140,452	-0,030	0,002
-544,525	-155,741	0,102	-0,005
-543,510	395,804	-0,035	-0,052
-542,496	-200,000	-0,015	-0,084
-541,481	-40,680	-0,085	-0,031
-540,466	800,000	0,027	-0,076
-539,452	-56,891	0,090	-0,028
-538,437	-102,662	0,051	0,009
-537,423	-200,000	0,035	0,135
-536,408	-16,556	-0,052	0,024
-535,393	-118,189	-0,039	0,005
-534,379	-50,027	-0,089	-0,030
-533,364	800,000	-0,024	-0,053
-532,350	49,807	0,110	0,075
-531,335	33,398	-0,066	0,041
-530,321	-200,000	0,010	0,053
-529,306	-14,305	-0,074	-0,034
-528,291	27,245	-0,045	0,027
-527,277	116,575	-0,154	-0,136
-526,262	-94,944	0,087	0,017
-525,248	800,000	-0,010	0,030
-524,233	186,515	0,119	0,128
-523,218	6,140	0,098	0,052
-522,204	56,380	0,095	0,066
-521,189	800,000	0,008	0,018
-520,175	232,999	0,090	0,106
-519,160	-200,000	-0,008	-0,112
-518,145	-200,000	0,006	-0,023
-517,131	83,814	-0,054	0,042
-516,116	99,442	-0,040	0,034
-515,102	268,939	-0,055	-0,069
-514,087	25,471	0,019	0,011
-513,072	130,281	-0,144	-0,132
-512,058	647,865	0,049	-0,090
-511,043	38,981	-0,022	-0,014
-510,029	87,745	-0,100	0,079
-509,014	-164,780	-0,016	0,001
-507,999	-79,372	0,033	-0,008
-506,985	239,789	-0,140	0,168
-505,970	246,713	-0,054	-0,066
-504,956	-133,182	-0,057	-0,005
-503,941	484,554	-0,031	-0,050
-502,926	525,218	-0,055	0,093
-501,912	-200,000	0,002	0,058
-500,897	411,984	0,049	0,075
-499,883	52,216	0,038	0,026
-498,868	60,664	-0,152	0,108
-497,853	-71,909	-0,089	0,024
-496,839	-200,000	-0,031	-0,098
-495,824	800,000	0,061	0,132
-494,810	110,693	0,095	0,082
-493,795	800,000	-0,007	-0,013
-492,781	-174,740	-0,159	-0,003
-491,766	-200,000	0,039	-0,217
-490,751	-53,465	0,054	-0,018
-489,737	-120,094	-0,049	-0,006
-488,722	-23,502	-0,030	-0,013
-487,708	800,000	0,043	0,098
-486,693	245,419	0,072	-0,087
-485,678	800,000	-0,066	0,165
-484,664	-200,000	-0,017	-0,133
-483,649	-200,000	-0,018	-0,092
-482,635	44,836	0,035	0,023
-481,620	137,601	0,096	-0,091
-480,605	-200,000	-0,006	0,025
-479,591	177,544	0,120	0,126
-478,576	-200,000	-0,001	-0,095
-477,562	-200,000	-0,011	0,067
-476,547	-200,000	-0,065	-0,210
-475,532	-200,000	0,023	-0,136
-474,518	-200,000	0,015	0,108
-473,503	-59,906	0,171	0,052
-472,489	-95,309	-0,106	-0,020
-471,474	-200,000	0,021	0,104
-470,459	432,858	-0,095	0,149
-469,445	219,592	0,017	-0,019
-468,430	-192,939	-0,107	-0,001
-467,416	-200,000	-0,032	0,135
-466,401	800,000	0,062	0,136
-465,386	-85,187	0,089	-0,020
-464,372	213,372	-0,125	0,142
-463,357	-200,000	-0,006	-0,024
-462,343	-133,546	0,138	-0,012
-461,328	-134,406	0,061	0,005
-460,313	-71,009	0,073	0,020
-459,299	800,000	0,048	0,119
-458,284	-50,945	0,187	0,063
-457,270	800,000	-0,027	-0,079
-456,255	389,982	-0,078	0,117
-455,241	-200,000	-0,022	-0,114
-454,226	-65,032	-0,068	0,019
-453,211	-200,000	-0,017	-0,058
-452,197	800,000	-0,044	0,099
-451,182	768,686	0,010	0,020
-450,168	271,580	0,052	-0,066
-449,153	48,334	-0,074	-0,049
-448,138	-90,256	-0,165	0,034
-447,124	-120,081	-0,032	-0,004
-446,109	800,000	0,024	0,072
-445,095	6,682	0,096	0,051
-444,080	406,602	0,037	-0,056
-443,065	-106,651	-0,103	0,016
-442,051	369,510	0,101	-0,147
-441,036	800,000	-0,037	-0,101
-440,022	-70,383	-0,060	0,016
-439,007	443,796	-0,116	-0,183
-437,992	-200,000	-0,031	0,141
-436,978	800,000	0,082	0,188
-435,963	-200,000	-0,006	0,068
-434,949	-200,000	-0,011	-0,181
-433,934	373,155	0,056	0,082
-432,919	540,659	0,029	-0,050
-431,905	505,022	-0,116	0,193
-430,890	-200,000	0,007	-0,089
-429,876	240,270	-0,123	0,147
-428,861	-135,932	-0,059	0,005
-427,846	231,287	0,043	0,050
-426,832	-200,000	0,005	0,087
-425,817	736,777	0,011	-0,021
-424,803	-68,483	-0,124	0,034
-423,788	50,596	0,140	0,095
-422,773	-66,341	-0,069	-0,019
-421,759	-142,646	0,206	0,014
-420,744	-200,000	-0,005	0,035
-419,730	-200,000	-0,002	0,099
-418,715	800,000	0,009	-0,029
-417,701	325,902	-0,024	-0,033
-416,686	42,168	0,090	0,058
-415,671	-12,655	0,111	0,052
-414,657	-8,384	0,048	0,023
-413,642	-52,660	-0,095	0,031
-412,628	-68,951	-0,074	-0,020
-411,613	-93,295	-0,128	0,025
-410,598	-119,882	0,090	0,011
-409,584	-144,571	0,043	0,003
-408,569	-200,000	0,007	0,063
-407,555	397,890	-0,033	0,049
-406,540	533,200	0,027	0,047
-405,525	-62,884	0,111	-0,033
-404,511	351,578	0,059	-0,084
-403,496	565,900	-0,034	-0,059
-402,482	-156,434	-0,039	-0,002
-401,467	-2,807	0,170	0,085
-400,452	-130,885	0,080	-0,008
-399,438	-41,614	-0,023	-0,008
-398,423	3,863	-0,062	-0,032
-397,409	-200,000	0,039	0,144
-396,394	-200,000	-0,010	0,132
-395,379	-200,000	-0,030	-0,120
-394,365	-200,000	-0,010	-0,123
-393,350	84,604	0,107	0,084
-392,336	-200,000	0,021	0,137
-391,321	-71,836	0,107	0,028
-390,306	88,202	-0,088	-0,069
-389,292	558,886	0,022	0,038
-388,277	-200,000	-0,002	0,107
-387,263	72,705	0,147	-0,110
-386,248	259,888	0,087	-0,108
-385,233	-89,527	0,100	0,021
-384,219	-115,936	-0,154	-0,020
-383,204	88,961	0,061	-0,049
-382,190	-26,566	-0,083	0,035
-381,175	17,172	0,139	-0,079
-380,160	-200,000	0,008	0,111
-379,146	229,011	-0,015	0,018
-378,131	106,936	-0,084	0,071
-377,117	800,000	-0,049	-0,121
-376,102	232,026	0,069	-0,082
-375,088	-200,000	0,007	-0,046
-374,073	-200,000	-0,003	-0,123
-373,058	-200,000	-0,030	0,188
-372,044	192,479	0,030	-0,032
-371,029	432,326	0,046	-0,071
-370,015	-200,000	0,007	-0,108
-369,000	7,850	-0,072	-0,039
-367,985	-55,642	-0,119	-0,038
-366,971	-200,000	-0,003	-0,054
-365,956	2,447	0,028	0,014
-364,942	-200,000	0,024	-0,080
-363,927	624,252	0,046	0,083
-362,912	396,396	0,068	0,102
-361,898	-145,042	0,043	-0,003
-360,883	331,773	-0,101	-0,140
-359,869	20,258	0,092	0,053
-358,854	800,000	0,029	-0,085
-357,839	201,504	0,094	0,104
-356,825	-80,745	-0,043	-0,010
-355,810	198,105	-0,086	-0,094
-354,796	-56,698	-0,034	0,011
-353,781	-200,000	0,009	-0,128
-352,766	-200,000	0,009	-0,052
-351,752	-200,000	0,018	0,120
-350,737	-200,000	-0,032	0,104
-349,723	-200,000	0,014	-0,098
-348,708	800,000	-0,022	-0,062
-347,693	282,047	-0,104	-0,134
-346,679	-200,000	-0,011	-0,051
-345,664	-200,000	-0,004	0,099
-344,650	-75,419	-0,179	0,045
-343,635	-200,000	0,010	0,039
-342,620	-87,924	-0,100	0,021
-341,606	-3,988	0,064	-0,032
-340,591	771,835	-0,022	-0,042
-339,577	108,601	-0,069	0,059
-338,562	115,879	-0,043	-0,037
-337,548	43,441	0,135	-0,088
-336,533	96,079	0,112	0,091
-335,518	800,000	-0,046	0,138
-334,504	469,884	0,062	0,100
-333,489	-200,000	-0,018	0,101
-332,475	-23,324	-0,137	0,058
-331,460	93,285	0,027	0,022
-330,445	106,944	-0,036	-0,030
-329,431	115,407	0,099	0,087
-328,416	-108,559	-0,080	0,012
-327,402	10,156	0,040	0,022
-326,387	800,000	0,044	0,098
-325,372	-40,742	0,017	0,006
-324,358	-200,000	-0,018	-0,083
-323,343	292,061	0,029	-0,037
-322,329	-200,000	0,032	0,135
-321,314	-200,000	0,021	0,149
-320,299	200,964	0,144	0,158
-319,285	-200,000	-0,040	0,146
-318,270	121,396	0,098	-0,087
-317,256	356,957	-0,081	-0,116
-316,241	-49,535	0,096	0,032
-315,226	259,358	0,100	-0,123
-314,212	-40,606	-0,013	0,005
-313,197	33,571	0,135	-0,084
-312,183	4,826	-0,073	0,038
-311,168	-200,000	0,013	-0,112
-310,153	327,432	-0,057	0,078
-309,139	69,372	0,064	-0,047
-308,124	0,151	0,114	0,058
-307,110	10,589	0,035	0,019
-306,095	-118,460	0,069	-0,009
-305,080	39,435	0,098	-0,062
-304,066	738,997	-0,038	0,073
-303,051	340,689	-0,082	0,114
-302,037	299,619	-0,046	-0,061
-301,022	61,501	-0,091	0,064
-300,008	-76,690	-0,091	0,023
-298,993	-200,000	-0,010	0,047
-297,978	-3,681	0,059	-0,029
-296,964	211,604	-0,064	0,072
-295,949	-42,984	-0,113	-0,041
-294,935	778,718	0,025	0,048
-293,920	-200,000	-0,002	-0,023
-292,905	162,317	0,054	0,054
-291,891	27,705	0,128	0,076
-290,876	-200,000	-0,006	-0,061
-289,862	-200,000	-0,007	0,029
-288,847	80,916	-0,044	0,034
-287,832	97,190	-0,075	-0,061
-286,818	-200,000	-0,005	-0,052
-285,803	105,116	0,121	0,102
-284,789	86,467	0,093	0,073
-283,774	616,550	-0,078	0,140
-282,759	-29,333	-0,058	0,024
-281,745	800,000	0,042	-0,117
-280,730	-200,000	0,005	-0,027
-279,716	800,000	-0,021	0,051
-278,701	291,707	-0,092	0,119
-277,686	800,000	-0,029	0,081
-276,672	-166,961	0,093	-0,003
-275,657	-22,993	-0,074	0,032
-274,643	114,226	0,060	-0,052
-273,628	-77,054	-0,131	-0,032
-272,613	19,889	0,068	-0,039
-271,599	1,401	-0,023	0,012
-270,584	-200,000	0,014	0,147
-269,570	-200,000	0,016	0,133
-268,555	-15,583	-0,050	0,022
-267,540	-200,000	-0,001	-0,038
-266,526	-200,000	0,007	-0,103
-265,511	193,522	-0,098	0,105
-264,497	-200,000	-0,001	0,075
-263,482	379,244	0,061	-0,090
-262,467	-200,000	0,002	0,033
-261,453	800,000	0,043	0,134
-260,438	126,240	-0,068	0,061
-259,424	-200,000	0,008	0,039
-258,409	4,600	-0,079	-0,041
-257,395	-200,000	-0,037	0,171
-256,380	743,195	0,031	0,061
-255,365	563,979	-0,048	-0,082
-254,351	800,000	-0,011	0,026
-253,336	-8,685	-0,057	-0,027
-252,322	47,872	0,084	0,056
-251,307	-41,273	0,033	-0,012
-250,292	132,379	-0,100	0,092
-249,278	-81,940	-0,104	0,024
-248,263	800,000	-0,044	0,112
-247,249	487,340	0,032	-0,052
-246,234	800,000	-0,078	-0,226
-245,219	188,372	-0,046	0,049
-244,205	-200,000	-0,003	0,059
-243,190	-50,013	0,214	0,072
-242,176	62,649	0,123	-0,087
-241,161	800,000	0,057	-0,168
-240,146	539,782	0,022	-0,037
-239,132	-200,000	-0,004	0,045
-238,117	572,110	0,073	-0,127
-237,103	-200,000	-0,015	0,060
-236,088	-200,000	-0,004	0,057
-235,073	-104,086	0,114	0,019
-234,059	-134,270	-0,053	0,005
-233,044	-116,176	0,028	0,004
-232,030	103,556	-0,081	-0,068
-231,015	-200,000	-0,001	0,039
-230,000	-200,000	-0,017	-0,150
-228,986	512,573	0,049	0,082
-227,971	180,590	-0,054	0,056
-226,957	47,990	0,096	0,064
-225,942	-200,000	0,023	0,124
-224,927	62,665	-0,074	-0,052
-223,913	-200,000	-0,019	0,111
-222,898	800,000	-0,038	0,084
-221,884	-200,000	-0,009	0,115
-220,869	416,115	0,006	-0,009
-219,855	290,341	0,144	0,187
-218,840	222,877	0,051	0,058
-217,825	800,000	-0,040	-0,095
-216,811	-66,250	0,044	-0,012
-215,796	217,519	0,147	-0,167
-214,782	109,778	-0,101	-0,086
-213,767	650,301	-0,030	-0,056
-212,752	83,623	-0,016	-0,013
-211,738	-200,000	-0,030	0,102
-210,723	167,199	-0,048	-0,049
-209,709	116,081	0,066	0,058
-208,694	33,573	-0,083	0,051
-207,679	-200,000	0,048	0,174
-206,665	-46,693	0,068	0,024
-205,650	-200,000	-0,020	0,089
-204,636	-71,550	0,051	-0,013
-203,621	800,000	-0,051	-0,130
-202,606	229,794	-0,105	-0,122
-201,592	800,000	-0,056	-0,121
-200,577	-200,000	-0,009	0,077
-199,563	101,533	-0,021	0,017
-198,548	707,162	-0,045	-0,084
-197,533	109,863	0,117	-0,100
-196,519	43,111	0,164	-0,106
-195,504	15,847	0,121	-0,068
-194,490	178,152	-0,098	-0,101
-193,475	179,045	-0,110	-0,114
-192,460	-170,640	0,089	0,002
-191,446	800,000	0,040	0,113
-190,431	-200,000	0,022	0,118
-189,417	661,647	-0,068	0,124
-188,402	156,218	0,089	0,087
-187,387	402,811	-0,029	-0,044
-186,373	477,021	-0,062	-0,099
-185,358	212,294	-0,107	-0,119
-184,344	-113,658	0,115	-0,016
-183,329	610,168	0,038	0,067
-182,315	-200,000	-0,002	-0,040
-181,300	-124,571	0,109	-0,012
-180,285	-133,883	-0,151	0,013
-179,271	214,832	-0,038	-0,043
-178,256	800,000	-0,031	0,063
-177,242	-200,000	-0,040	-0,133
-176,227	-58,653	0,114	0,035
-175,212	132,452	-0,075	0,068
-174,198	800,000	0,021	0,054
-173,183	-200,000	-0,015	0,167
-172,169	-57,177	0,045	-0,014
-171,154	384,949	-0,055	-0,081
-170,139	-153,365	0,114	-0,006
-169,125	-95,586	-0,082	0,015
-168,110	-138,200	0,097	0,008
-167,096	800,000	-0,028	-0,082
-166,081	13,476	-0,124	0,068
-165,066	154,986	-0,038	-0,037
-164,052	350,784	-0,072	-0,101
-163,037	125,604	-0,145	0,130
-162,023	-55,577	0,052	-0,017
-161,008	103,807	-0,073	0,061
-159,993	190,800	-0,074	-0,079
-158,979	407,497	-0,046	-0,069
-157,964	800,000	0,037	-0,086
-156,950	314,602	-0,042	-0,057
-155,935	-26,535	-0,005	0,002
-154,920	253,746	0,077	0,094
-153,906	-149,844	0,025	0,001
-152,891	-200,000	-0,033	-0,110
-151,877	53,861	0,062	-0,042
-150,862	95,323	-0,056	-0,045
-149,847	225,012	-0,070	-0,080
-148,833	689,264	0,030	-0,056
-147,818	800,000	0,071	0,160
-146,804	800,000	-0,057	0,160
-145,789	800,000	-0,037	0,085
-144,775	351,221	-0,129	0,181
-143,760	800,000	-0,023	0,053
-142,745	-200,000	0,008	-0,032
-141,731	38,182	0,017	-0,011
-140,716	121,655	-0,090	0,079
-139,702	-147,716	0,175	0,010
-138,687	-87,759	-0,019	0,004
-137,672	-18,507	-0,105	-0,046
-136,658	-69,415	-0,059	0,016
-135,643	-200,000	0,004	0,120
-134,629	563,442	-0,046	-0,079
-133,614	-200,000	0,016	0,114
-132,599	208,772	0,186	0,206
-131,585	-111,779	0,167	0,024
-130,570	118,378	-0,113	0,098
-129,556	-200,000	-0,028	-0,175
-128,541	128,922	0,083	0,075
-127,526	617,862	0,019	0,035
-126,512	43,798	-0,038	-0,024
-125,497	-200,000	0,008	0,090
-124,483	199,641	-0,050	0,054
-123,468	800,000	-0,005	0,017
-122,453	-86,278	-0,077	0,017
-121,439	-19,857	-0,084	0,037
-120,424	-80,766	0,017	0,004
-119,410	82,330	0,151	0,116
-118,395	-37,825	0,082	0,031
-117,380	14,847	0,065	0,036
-116,366	0,646	-0,087	0,044
-115,351	-113,257	-0,171	0,024
-114,337	141,784	-0,137	-0,128
-113,322	-108,787	-0,083	-0,012
-112,307	-166,099	-0,118	0,003
-111,293	-56,411	-0,080	0,025
-110,278	-99,463	0,080	0,014
-109,264	800,000	-0,020	-0,040
-108,249	-47,473	-0,031	0,011
-107,234	82,163	-0,017	0,013
-106,220	-200,000	-0,010	0,045
-105,205	195,509	0,052	-0,056
-104,191	-200,000	-0,016	-0,169
-103,176	-132,826	-0,039	-0,003
-102,162	172,559	0,045	0,046
-101,147	33,151	0,130	0,079
-100,132	-82,476	-0,120	0,027
-99,118	-79,613	0,186	-0,044
-98,103	-160,437	0,080	-0,003
-97,089	243,378	0,053	-0,063
-96,074	-141,317	0,087	-0,006
-95,059	41,331	0,197	0,125
-94,045	-48,151	-0,223	0,076
-93,030	-75,073	-0,074	0,019
-92,016	-200,000	0,005	-0,047
-91,001	-82,155	0,131	-0,030
-89,986	205,937	-0,059	-0,065
-88,972	442,555	0,060	0,093
-87,957	-146,287	0,045	0,003
-86,943	3,690	0,076	0,039
-85,928	-73,456	-0,108	-0,028
-84,913	-133,265	-0,085	-0,007
-83,899	800,000	0,055	0,134
-82,884	-145,746	0,062	0,004
-81,870	-60,902	0,055	0,016
-80,855	151,676	0,091	0,087
-79,840	-26,158	-0,110	-0,046
-78,826	-200,000	0,006	-0,201
-77,811	219,925	0,070	0,080
-76,797	126,991	0,117	0,105
-75,782	35,259	0,096	-0,059
-74,767	283,588	0,111	-0,141
-73,753	-91,771	0,038	-0,008
-72,738	221,181	-0,022	-0,025
-71,724	335,620	-0,052	-0,071
-70,709	326,504	0,045	-0,061
-69,694	236,299	-0,037	-0,043
-68,680	-53,537	0,147	-0,047
-67,665	437,086	0,044	0,069
-66,651	800,000	0,059	0,132
-65,636	-200,000	0,029	0,102
-64,622	-45,038	-0,017	-0,006
-63,607	-67,525	0,052	-0,014
-62,592	4,868	-0,038	0,020
-61,578	-200,000	-0,007	-0,028
-60,563	-56,545	0,012	0,004
-59,549	-21,781	-0,099	0,042
-58,534	45,574	-2,217	-1,443
-57,519	575,733	-1,102	-1,907
-56,505	-200,000	-0,254	-4,285
-55,490	747,024	0,886	1,693
-54,476	800,000	5,165	11,212
-53,461	-200,000	21,997	339,918
-52,446	800,000	757,144	2296,061
-51,432	533,534	1649,166	2767,028
-50,417	68,845	1647,451	1192,280
-49,403	16,313	1522,741	845,534
-48,388	10,523	1447,067	775,692
-47,373	19,157	1439,257	812,638
-46,359	14,006	1428,143	782,000
-45,344	8,801	1424,084	755,120
-44,330	8,749	1422,107	753,798
-43,315	8,711	1420,388	752,677
-42,300	8,719	1418,545	751,708
-41,286	8,740	1417,419	751,178
-40,271	8,722	1416,165	750,402
-39,257	8,722	1415,035	749,771
-38,242	8,718	1413,912	749,127
-37,227	8,729	1412,736	748,529
-36,213	8,724	1411,330	747,729
-35,198	8,739	1410,167	747,153
-34,184	8,772	1409,246	746,793
-33,169	8,644	1408,008	745,505
-32,154	8,691	1407,109	745,220
-31,140	8,679	1405,965	744,527
-30,125	8,743	1404,673	744,112
-29,111	8,699	1403,328	743,169
-28,096	8,687	1402,319	742,547
-27,082	8,665	1400,912	741,669
-26,067	8,650	1399,986	741,080
-25,052	8,657	1398,845	740,479
-24,038	8,670	1398,010	740,067
-23,023	8,657	1397,181	739,539
-22,009	8,684	1395,739	738,872
-20,994	8,637	1394,978	738,221
-19,979	8,640	1393,913	737,643
-18,965	8,617	1393,066	737,057
-17,950	8,623	1391,981	736,486
-16,936	8,537	1391,518	735,813
-15,921	8,532	1390,419	735,176
-14,906	8,565	1389,263	734,692
-13,892	8,622	1388,325	734,427
-12,877	8,627	1387,666	734,072
-11,863	8,585	1386,756	733,368
-10,848	8,569	1385,772	732,747
-9,833	8,567	1384,783	732,183
-8,819	8,494	1383,993	731,404
-7,804	8,501	1383,022	730,890
-6,790	8,478	1382,183	730,312
-5,775	8,488	1381,114	729,765
-4,760	8,534	1380,074	729,398
-3,746	8,501	1379,265	728,789
-2,731	8,553	1378,161	728,415
-1,717	8,505	1377,528	727,832
-0,702	8,540	1375,686	726,993
0,313	12,457	1287,486	698,172
1,327	28,143	680,773	404,299
2,342	44,055	117,231	75,649
3,356	0,518	16,425	8,251
4,371	11,161	3,713	1,997
5,386	2,952	1,322	0,675
6,400	800,000	0,269	0,589
7,415	-7,631	-0,136	-0,065
8,429	-140,618	-0,249	0,018
9,444	36,116	-0,406	-0,251
10,459	31,867	-0,308	-0,187
11,473	15,935	-0,249	-0,138
12,488	16,603	-0,317	-0,176
13,502	-51,507	-0,339	-0,111
14,517	188,176	-0,311	-0,328
15,531	230,958	-0,251	-0,290
16,546	183,615	-0,317	-0,331
17,561	681,298	-0,149	-0,274
18,575	-139,517	-0,171	0,013
19,590	-3,925	-0,239	-0,116
20,604	65,101	-0,241	-0,171
21,619	106,211	-0,369	-0,308
22,634	34,512	-0,514	-0,315
23,648	131,166	-0,294	-0,266
24,663	133,248	-0,382	-0,347
25,677	22,313	-0,366	-0,210
26,692	17,442	-0,332	-0,185
27,707	100,487	-0,207	-0,169
28,721	60,165	-0,398	-0,277
29,736	334,843	-0,292	-0,398
30,750	310,461	-0,311	-0,410
31,765	272,968	-0,325	-0,404
32,780	116,785	-0,353	-0,305
33,794	94,999	-0,361	-0,289
34,809	50,594	-0,411	-0,273
35,823	122,454	-0,389	-0,342
36,838	30,667	-0,341	-0,204
37,853	103,907	-0,286	-0,236
38,867	107,629	-0,297	-0,248
39,882	10,070	-0,368	-0,196
40,896	18,144	-0,282	-0,157
41,911	4,422	-0,458	-0,235
42,926	36,639	-0,351	-0,217
43,940	29,880	-0,362	-0,216
44,955	207,786	-0,240	-0,263
45,969	90,332	-0,324	-0,254
46,984	17,212	-0,463	-0,257
47,999	-69,824	-0,195	-0,052
49,013	-2,406	-0,333	-0,164
50,028	24,330	-0,302	-0,175
51,042	18,367	-0,349	-0,195
52,057	2,809	-0,423	-0,215
53,071	60,994	-0,342	-0,238
54,086	-37,113	-0,371	-0,139
55,101	62,119	-0,416	-0,291
56,115	3,721	-0,232	-0,119
57,130	63,909	-0,383	-0,270
58,144	108,205	-0,311	-0,260
59,159	170,514	-0,244	-0,245
60,174	111,474	-0,466	-0,394
61,188	112,890	-0,403	-0,343
62,203	79,051	-0,304	-0,228
63,217	-96,125	-0,290	-0,054
64,232	13,111	-0,389	-0,211
65,247	16,465	-0,280	-0,154
66,261	197,829	-0,305	-0,327
67,276	204,140	-0,242	-0,263
68,290	72,920	-0,282	-0,206
69,305	-39,870	-0,228	-0,083
70,320	147,231	-0,195	-0,184
71,334	-28,978	-0,352	-0,141
72,349	103,000	-0,356	-0,292
73,363	150,080	-0,154	-0,147
74,378	121,011	-0,280	-0,244
75,393	-118,281	-0,273	0,034
76,407	90,002	-0,199	-0,156
77,422	13,924	-0,263	-0,143
78,436	19,247	-0,278	-0,156
79,451	-23,655	-0,350	-0,146
80,466	297,020	-0,195	-0,251
81,480	-17,485	-0,266	-0,117
82,495	101,360	-0,288	-0,235
83,509	353,287	-0,162	-0,226
84,524	45,160	-0,326	-0,210
85,539	13,305	-0,267	-0,145
86,553	106,118	-0,302	-0,250
87,568	411,581	-0,156	-0,233
88,582	174,889	-0,247	-0,250
89,597	116,541	-0,278	-0,239
90,611	285,353	-0,145	-0,184
91,626	-88,397	-0,210	-0,044
92,641	19,242	-0,237	-0,133
93,655	-87,858	-0,405	-0,085
94,670	-64,647	-0,254	-0,071
95,684	389,059	-0,247	-0,358
96,699	268,356	-0,139	-0,171
97,714	183,177	-0,235	-0,243
98,728	51,691	-0,430	-0,286
99,743	8,876	-0,288	-0,151
100,757	143,928	-0,269	-0,251
101,772	196,497	-0,179	-0,191
102,787	-115,999	-0,356	-0,046
103,801	97,313	-0,212	-0,170
104,816	-16,507	-0,354	-0,156
105,830	613,396	-0,075	-0,132
106,845	241,403	-0,231	-0,270
107,860	122,868	-0,215	-0,188
108,874	64,849	-0,228	-0,161
109,889	124,918	-0,199	-0,175
110,903	36,455	-0,344	-0,211
111,918	800,000	-0,153	-0,308
112,933	-141,127	-0,342	-0,024
113,947	33,168	-0,316	-0,191
114,962	38,582	-0,149	-0,093
115,976	-41,213	-0,215	-0,077
116,991	800,000	-0,193	-0,377
118,006	40,669	-0,223	-0,140
119,020	-30,717	-0,256	-0,101
120,035	-80,764	-0,291	-0,067
121,049	97,703	-0,214	-0,172
122,064	274,948	-0,190	-0,236
123,079	117,470	-0,325	-0,279
124,093	-10,573	-0,175	-0,081
125,108	197,306	-0,168	-0,179
126,122	-43,114	-0,175	-0,062
127,137	-65,040	-0,310	-0,087
128,151	-7,027	-0,245	-0,116
129,166	126,663	-0,147	-0,130
130,181	90,097	-0,252	-0,197
131,195	118,808	-0,247	-0,213
132,210	-35,713	-0,267	-0,100
133,224	-3,793	-0,228	-0,110
134,239	56,064	-0,205	-0,139
135,254	-27,502	-0,221	-0,089
136,268	11,114	-0,287	-0,152
137,283	177,186	-0,234	-0,237
138,297	89,539	-0,257	-0,200
139,312	89,442	-0,288	-0,224
140,327	44,446	-0,290	-0,185
141,341	11,536	-0,188	-0,100
142,356	800,000	-0,111	-0,221
143,370	16,826	-0,307	-0,169
144,385	43,684	-0,216	-0,137
145,400	650,629	-0,154	-0,275
146,414	96,134	-0,279	-0,222
147,429	37,501	-0,248	-0,153
148,443	226,977	-0,169	-0,191
149,458	-199,325	-0,234	-0,001
150,473	42,937	-0,220	-0,139
151,487	97,850	-0,204	-0,163
152,502	176,998	-0,260	-0,264
153,516	-45,355	-0,292	-0,100
154,531	152,160	-0,199	-0,189
155,546	4,472	-0,246	-0,125
156,560	103,488	-0,170	-0,139
157,575	800,000	-0,069	-0,166
158,589	-52,328	-0,327	-0,105
159,604	152,559	-0,239	-0,227
160,619	17,815	-0,246	-0,136
161,633	194,123	-0,287	-0,302
162,648	-51,424	-0,123	-0,040
163,662	-62,390	-0,269	-0,077
164,677	-88,057	-0,373	-0,077
165,692	-74,606	-0,349	-0,087
166,706	113,316	-0,281	-0,237
167,721	-42,700	-0,240	-0,084
168,735	-83,942	-0,255	-0,056
169,750	558,397	-0,116	-0,195
170,764	23,397	-0,299	-0,171
171,779	59,846	-0,145	-0,099
172,794	267,765	-0,236	-0,287
173,808	332,881	-0,158	-0,212
174,823	319,707	-0,172	-0,227
175,837	19,731	-0,251	-0,140
176,852	190,559	-0,203	-0,212
177,867	-23,667	-0,148	-0,062
178,881	-28,657	-0,158	-0,063
179,896	-23,723	-0,152	-0,063
180,910	279,996	-0,234	-0,290
181,925	181,780	-0,269	-0,275
182,940	60,405	-0,164	-0,113
183,954	-200,000	-0,026	-0,195
184,969	81,629	-0,175	-0,131
185,983	112,908	-0,049	-0,041
186,998	-76,012	-0,196	-0,048
188,013	176,163	-0,106	-0,107
189,027	-131,775	-0,253	-0,023
190,042	85,847	-0,276	-0,211
191,056	44,230	-0,191	-0,122
192,071	-41,421	-0,299	-0,106
193,086	69,598	-0,180	-0,128
194,100	-200,000	-0,013	-0,147
195,115	-88,552	-0,258	-0,053
196,129	-200,000	-0,008	-0,106
197,144	83,049	-0,167	-0,126
198,159	35,167	-0,272	-0,165
199,173	421,973	-0,191	-0,285
200,188	-15,993	-0,186	-0,082
201,202	800,000	-0,084	-0,226
202,217	130,144	-0,216	-0,192
203,232	-38,052	-0,177	-0,065
204,246	-19,197	-0,202	-0,087
205,261	124,159	-0,210	-0,183
206,275	172,312	-0,171	-0,170
207,290	58,541	-0,161	-0,109
208,304	9,982	-0,117	-0,061
209,319	-21,428	-0,226	-0,095
210,334	65,209	-0,203	-0,142
211,348	55,770	-0,269	-0,180
212,363	800,000	-0,098	-0,202
213,377	83,055	-0,315	-0,237
214,392	-3,143	-0,171	-0,082
215,407	-92,984	-0,246	-0,047
216,421	-112,441	-0,240	0,033
217,436	-185,652	-0,125	0,001
218,450	32,892	-0,251	-0,150
219,465	-1,620	-0,185	-0,090
220,480	141,389	-0,148	-0,135
221,494	380,223	-0,095	-0,135
222,509	-2,841	-0,145	-0,070
223,523	91,188	-0,211	-0,164
224,538	190,577	-0,125	-0,130
225,553	74,465	-0,244	-0,177
226,567	59,689	-0,262	-0,178
227,582	326,689	-0,183	-0,243
228,596	361,462	-0,104	-0,144
229,611	342,711	-0,106	-0,144
230,626	-147,067	-0,116	-0,007
231,640	62,717	-0,200	-0,138
232,655	384,323	-0,119	-0,170
233,669	-105,040	-0,268	-0,042
234,684	322,464	-0,112	-0,147
235,699	469,644	-0,128	-0,199
236,713	46,248	-0,123	-0,079
237,728	800,000	-0,099	-0,204
238,742	-137,777	-0,249	0,019
239,757	-67,683	-0,224	-0,060
240,772	800,000	-0,031	-0,092
241,786	55,591	-0,129	-0,086
242,801	-4,058	-0,196	-0,093
243,815	192,056	-0,110	-0,115
244,830	-200,000	-0,042	-0,159
245,844	-137,683	-0,127	0,010
246,859	150,908	-0,190	-0,178
247,874	30,967	-0,154	-0,091
248,888	4,989	-0,267	-0,135
249,903	800,000	-0,075	-0,219
250,917	371,599	-0,124	-0,175
251,932	5,513	-0,287	-0,146
252,947	34,914	-0,045	-0,027
253,961	651,167	-0,069	-0,122
254,976	-200,000	-0,082	-0,364
255,990	26,173	-0,174	-0,100
257,005	233,412	-0,122	-0,139
258,020	5,346	-0,189	-0,096
259,034	757,418	-0,086	-0,162
260,049	141,163	-0,145	-0,132
261,063	96,407	-0,164	-0,129
262,078	93,023	-0,195	-0,152
263,093	-194,785	-0,222	-0,001
264,107	-60,932	-0,131	-0,038
265,122	48,777	-0,123	-0,079
266,136	-35,861	-0,140	-0,052
267,151	-74,486	-0,163	-0,040
268,166	800,000	-0,083	-0,172
269,180	9,550	-0,299	-0,156
270,195	-54,755	-0,108	0,033
271,209	800,000	-0,065	-0,162
272,224	270,576	-0,141	-0,171
273,239	64,404	-0,136	-0,095
274,253	327,032	-0,145	-0,192
275,268	251,090	-0,093	-0,109
276,282	800,000	-0,098	-0,223
277,297	278,867	-0,163	-0,200
278,312	8,736	-0,133	-0,069
279,326	-74,502	-0,150	-0,037
280,341	114,815	-0,181	-0,152
281,355	259,868	-0,086	-0,102
282,370	155,511	-0,132	-0,125
283,384	314,584	-0,169	-0,219
284,399	-200,000	-0,045	-0,210
285,414	28,295	-0,099	-0,058
286,428	-200,000	-0,005	-0,150
287,443	-200,000	-0,028	-0,115
288,457	225,487	-0,187	-0,208
289,472	-40,025	-0,104	-0,037
290,487	-67,129	-0,226	-0,061
291,501	623,554	-0,066	-0,115
292,516	382,330	-0,132	-0,187
293,530	140,595	-0,117	-0,106
294,545	-37,187	-0,152	-0,056
295,560	-37,715	-0,185	-0,067
296,574	-66,799	-0,044	0,012
297,589	1,114	-0,265	-0,130
298,603	40,923	-0,182	-0,113
299,618	478,692	-0,102	-0,160
300,633	297,293	-0,123	-0,155
301,647	14,875	-0,097	0,052
302,662	800,000	-0,035	-0,084
303,676	-131,043	-0,126	-0,011
304,691	16,569	-0,169	-0,092
305,706	765,064	-0,086	-0,161
306,720	41,217	-0,143	-0,089
307,735	206,503	-0,110	-0,117
308,749	262,571	-0,058	0,069
309,764	157,133	-0,147	-0,140
310,779	148,112	-0,073	-0,068
311,793	-4,555	-0,222	0,105
312,808	430,923	-0,143	-0,213
313,822	800,000	-0,146	-0,310
314,837	-57,914	-0,134	0,040
315,852	-63,252	-0,132	0,037
316,866	98,123	-0,095	-0,075
317,881	-124,249	-0,219	-0,023
318,895	-18,135	-0,170	-0,073
319,910	8,967	-0,244	-0,126
320,925	-200,000	-0,066	-0,337
321,939	-200,000	-0,021	-0,120
322,954	161,907	-0,116	-0,112
323,968	36,059	-0,095	-0,057
324,983	27,011	-0,048	0,028
325,997	-14,756	-0,140	0,061
327,012	34,922	-0,144	-0,086
328,027	138,056	-0,146	-0,131
329,041	464,567	-0,069	-0,106
330,056	-90,862	-0,174	-0,034
331,070	63,110	-0,014	0,010
332,085	-131,727	-0,085	-0,008
333,100	95,948	-0,182	-0,142
334,114	177,565	-0,183	-0,182
335,129	391,089	-0,081	-0,115
336,143	171,815	-0,112	-0,110
337,158	800,000	-0,083	-0,177
338,173	-194,482	-0,096	-0,001
339,187	187,205	-0,181	-0,185
340,202	456,869	-0,136	-0,208
341,216	-200,000	-0,039	-0,208
342,231	-200,000	0,010	-0,244
343,246	-17,118	-0,128	-0,055
344,260	168,848	-0,076	0,074
345,275	-39,157	-0,114	0,041
346,289	2,905	-0,063	0,031
347,304	53,293	-0,103	-0,067
348,319	26,230	-0,212	-0,121
349,333	164,643	-0,166	-0,160
350,348	-20,465	-0,230	-0,096
351,362	800,000	-0,044	-0,116
352,377	201,834	-0,067	-0,071
353,392	67,601	-0,143	0,100
354,406	-11,803	-0,088	-0,039
355,421	206,971	1306,490	1394,083
356,435	159,202	1466,162	1394,559
