DTS Sentinel unit serial number:	SN410029Multiplexer serial number:	ORYXHardware model number:	OX2-SRSoftware version number:	ORYX F/W v4,00 Oryx Data Collector v3.7.2.0data status	okinstallation	B3 Nyhavnadifferential loss correction	single-endedforward channel	channel 1reverse channel	N/Adate	2023/11/30time	19:27:30forward acquisition time	300,00reverse acquisition time	0,00gamma	499,1914k internal	0,3206k external	0,3206temperature offset calibration	1,0000default loss term (dB/km)	0,3820temperature slope calibration	1,0000multiplexer offset coefficient	1,0000multiplexer slope coefficient	1,0000fibre end	0,00T internal ref (°C)	11,99T ext. ref 1 (°C)	-3,29T ext. ref 2 (°C)	-3,41length (m)	temperature (°C)	Stokes	anti-Stokes-744,400	73,221	-0,326	-0,247
-743,385	-200,000	0,020	0,380
-742,371	492,410	-0,081	-0,135
-741,356	-200,000	0,046	0,368
-740,342	790,755	-0,166	-0,333
-739,327	800,000	-0,092	0,220
-738,312	420,588	-0,175	-0,273
-737,298	-200,000	-0,015	0,103
-736,283	274,353	-0,113	-0,145
-735,269	-200,000	-0,022	0,264
-734,254	159,515	-0,242	-0,245
-733,239	104,403	-0,216	0,184
-732,225	525,733	-0,157	-0,270
-731,210	-200,000	-0,005	0,185
-730,196	327,069	0,059	-0,082
-729,181	-134,647	-0,089	0,008
-728,167	108,450	-0,039	-0,034
-727,152	-146,724	-0,099	0,006
-726,137	54,485	-0,088	-0,061
-725,123	-44,247	-0,048	-0,018
-724,108	-200,000	-0,010	-0,140
-723,094	800,000	-0,026	-0,074
-722,079	773,308	-0,053	-0,106
-721,064	800,000	0,067	0,174
-720,050	-200,000	-0,019	0,108
-719,035	33,541	0,221	-0,139
-718,021	-107,650	-0,107	0,017
-717,006	730,254	0,061	-0,118
-715,991	-37,786	-0,113	-0,044
-714,977	-200,000	-0,005	-0,101
-713,962	-200,000	-0,008	-0,030
-712,948	800,000	-0,032	0,096
-711,933	-145,703	0,172	-0,011
-710,918	33,189	-0,148	-0,093
-709,904	-18,260	-0,074	-0,034
-708,889	800,000	-0,025	-0,053
-707,875	-101,790	-0,134	-0,023
-706,860	-200,000	-0,008	0,120
-705,845	259,719	0,003	-0,004
-704,831	50,406	0,035	0,024
-703,816	-109,329	0,037	0,006
-702,802	604,521	-0,082	-0,149
-701,787	-200,000	-0,000	-0,165
-700,772	-159,018	-0,105	-0,004
-699,758	-200,000	-0,009	0,143
-698,743	96,969	0,056	-0,046
-697,729	800,000	0,065	0,157
-696,714	-53,837	0,034	0,011
-695,699	-38,866	-0,047	0,018
-694,685	586,525	0,059	-0,106
-693,670	-97,799	-0,068	-0,013
-692,656	710,535	0,049	0,094
-691,641	63,929	0,075	-0,054
-690,627	115,469	0,053	0,047
-689,612	-15,223	0,081	0,038
-688,597	10,160	0,087	0,048
-687,583	-69,129	-0,153	-0,042
-686,568	800,000	-0,038	-0,113
-685,554	-58,329	-0,034	-0,011
-684,539	41,880	0,072	-0,048
-683,524	122,629	-0,034	0,030
-682,510	-153,119	0,061	-0,003
-681,495	-172,325	-0,236	-0,005
-680,481	157,271	-0,102	-0,102
-679,466	343,163	-0,129	-0,184
-678,451	800,000	0,040	-0,100
-677,437	94,845	0,036	-0,030
-676,422	18,952	0,096	0,055
-675,408	-131,351	0,074	-0,007
-674,393	128,952	-0,043	0,039
-673,378	163,878	0,049	-0,050
-672,364	226,226	-0,043	-0,050
-671,349	800,000	-0,062	-0,165
-670,335	-129,508	-0,126	-0,012
-669,320	-200,000	0,019	0,069
-668,305	-36,542	0,080	0,031
-667,291	396,185	0,049	0,074
-666,276	77,865	0,045	-0,035
-665,262	510,441	-0,053	-0,090
-664,247	800,000	-0,044	0,138
-663,232	389,475	0,067	0,100
-662,218	3,630	0,016	0,008
-661,203	-104,010	0,061	0,010
-660,189	-50,509	-0,130	0,044
-659,174	-92,053	-0,018	0,004
-658,159	-177,788	-0,199	-0,003
-657,145	119,079	-0,113	-0,101
-656,130	-200,000	0,003	0,113
-655,116	-71,696	-0,111	-0,030
-654,101	136,942	0,037	0,035
-653,086	-35,807	0,075	-0,029
-652,072	-21,556	-0,087	-0,038
-651,057	-191,175	-0,202	-0,001
-650,043	-200,000	0,025	-0,117
-649,028	-200,000	-0,001	-0,006
-648,014	464,341	0,043	-0,070
-646,999	25,532	-0,072	-0,043
-645,984	197,552	0,027	-0,030
-644,970	-200,000	0,012	-0,048
-643,955	611,266	-0,050	0,090
-642,941	-50,226	-0,187	-0,064
-641,926	57,846	-0,065	-0,046
-640,911	-200,000	-0,001	-0,045
-639,897	65,851	0,058	0,042
-638,882	-135,883	-0,065	0,005
-637,868	-200,000	-0,008	0,071
-636,853	-93,955	-0,120	-0,024
-635,838	-200,000	-0,032	-0,114
-634,824	35,145	-0,055	-0,035
-633,809	-76,086	-0,106	-0,027
-632,795	-200,000	-0,013	0,083
-631,780	800,000	-0,046	-0,114
-630,765	220,513	-0,055	-0,064
-629,751	259,722	0,072	-0,090
-628,736	74,684	-0,091	0,069
-627,722	189,526	-0,069	0,074
-626,707	81,802	0,052	0,041
-625,692	800,000	-0,038	0,085
-624,678	-200,000	-0,015	-0,049
-623,663	-80,810	0,075	-0,018
-622,649	-200,000	-0,035	-0,157
-621,634	-91,790	-0,214	0,043
-620,619	258,599	0,067	0,083
-619,605	-123,731	-0,033	0,004
-618,590	44,724	-0,008	-0,005
-617,576	51,003	0,123	-0,084
-616,561	213,009	-0,040	-0,046
-615,546	-200,000	0,005	-0,023
-614,532	104,041	-0,128	0,108
-613,517	114,521	-0,051	0,045
-612,503	19,214	-0,091	0,053
-611,488	-29,609	0,087	0,036
-610,474	-186,244	-0,143	-0,001
-609,459	59,229	-0,073	-0,052
-608,444	-54,431	-0,055	-0,018
-607,430	105,948	-0,027	-0,023
-606,415	-104,355	0,105	0,017
-605,401	-200,000	0,023	0,087
-604,386	67,657	0,149	0,110
-603,371	-101,260	-0,061	-0,011
-602,357	-160,410	0,030	-0,001
-601,342	-200,000	-0,008	0,031
-600,328	730,962	-0,028	-0,055
-599,313	-154,909	-0,050	0,002
-598,298	-98,880	-0,040	-0,007
-597,284	757,369	0,051	0,101
-596,269	168,586	0,080	0,083
-595,255	800,000	0,041	0,089
-594,240	-200,000	-0,040	-0,165
-593,225	77,460	-0,018	-0,014
-592,211	322,331	-0,040	-0,055
-591,196	-200,000	0,011	-0,130
-590,182	-92,566	-0,079	-0,016
-589,167	353,143	0,057	0,083
-588,152	59,571	-0,037	0,027
-587,138	-200,000	-0,012	-0,043
-586,123	0,866	-0,061	-0,031
-585,109	202,976	0,032	-0,036
-584,094	205,011	0,065	0,073
-583,079	-26,414	0,153	-0,064
-582,065	-5,339	0,149	0,074
-581,050	154,412	-0,124	0,123
-580,036	-200,000	-0,026	-0,127
-579,021	124,047	0,097	-0,088
-578,006	60,653	0,048	-0,034
-576,992	296,093	0,133	-0,176
-575,977	-200,000	-0,011	-0,084
-574,963	107,443	0,119	0,102
-573,948	115,531	0,116	0,102
-572,934	-200,000	-0,004	-0,110
-571,919	800,000	-0,096	-0,249
-570,904	744,616	-0,032	-0,063
-569,890	89,118	-0,088	0,070
-568,875	-96,213	0,069	0,013
-567,861	46,650	-0,135	0,090
-566,846	-100,221	0,068	0,012
-565,831	800,000	-0,030	0,089
-564,817	-200,000	0,023	-0,079
-563,802	-159,183	-0,196	-0,008
-562,788	220,682	0,062	0,072
-561,773	110,419	0,133	-0,115
-560,758	53,715	-0,145	-0,100
-559,744	565,263	0,023	0,041
-558,729	-68,920	0,049	0,014
-557,715	173,850	-0,082	-0,085
-556,700	259,815	0,037	0,046
-555,685	-6,889	-0,016	-0,008
-554,671	240,380	0,083	-0,100
-553,656	-109,564	-0,118	0,018
-552,642	340,782	0,037	0,052
-551,627	28,280	0,160	0,097
-550,612	-161,814	-0,112	-0,004
-549,598	-88,933	-0,068	-0,014
-548,583	-109,058	0,091	0,014
-547,569	-200,000	0,013	0,125
-546,554	371,234	-0,022	0,032
-545,539	103,504	0,066	0,055
-544,525	7,933	0,024	0,013
-543,510	81,349	0,087	0,068
-542,496	117,882	-0,042	-0,037
-541,481	-169,948	-0,070	0,002
-540,466	-200,000	-0,024	-0,104
-539,452	33,101	0,146	-0,091
-538,437	-98,076	-0,024	0,004
-537,423	-200,000	-0,053	0,196
-536,408	18,127	-0,057	0,032
-535,393	-200,000	0,005	-0,094
-534,379	800,000	0,049	-0,125
-533,364	-200,000	0,000	-0,149
-532,350	-200,000	-0,013	-0,074
-531,335	159,024	0,129	0,129
-530,321	37,795	0,056	-0,036
-529,306	800,000	-0,027	-0,080
-528,291	-112,068	-0,085	-0,012
-527,277	-200,000	0,000	0,028
-526,262	-73,427	-0,075	0,020
-525,248	-6,961	0,070	0,034
-524,233	42,463	0,086	0,056
-523,218	-172,377	0,166	-0,004
-522,204	691,340	0,064	0,120
-521,189	558,317	-0,030	0,053
-520,175	33,485	-0,045	-0,028
-519,160	800,000	-0,032	-0,079
-518,145	215,993	0,068	0,078
-517,131	585,788	0,059	-0,105
-516,116	-31,164	0,092	0,037
-515,102	-200,000	-0,006	-0,035
-514,087	-45,690	-0,044	-0,016
-513,072	-117,378	0,021	0,003
-512,058	34,162	-0,063	0,040
-511,043	-9,178	0,178	0,085
-510,029	-200,000	0,017	0,075
-509,014	-101,544	-0,149	-0,026
-507,999	38,740	0,249	0,159
-506,985	756,877	-0,074	-0,145
-505,970	122,335	-0,014	0,012
-504,956	800,000	-0,050	-0,101
-503,941	-200,000	0,044	0,146
-502,926	-39,323	0,054	0,020
-501,912	163,808	-0,057	0,058
-500,897	-131,768	-0,085	0,008
-499,883	162,195	-0,096	0,097
-498,868	32,414	-0,101	-0,063
-497,853	298,871	-0,019	-0,025
-496,839	265,642	-0,046	0,057
-495,824	-200,000	0,001	0,019
-494,810	195,551	0,048	0,053
-493,795	-24,075	0,087	0,037
-492,781	-200,000	-0,049	-0,256
-491,766	-58,141	-0,108	-0,034
-490,751	381,425	-0,020	0,030
-489,737	588,857	0,029	-0,051
-488,722	-74,069	-0,038	0,010
-487,708	800,000	0,032	-0,066
-486,693	425,739	0,051	0,079
-485,678	-50,611	0,077	0,026
-484,664	330,695	-0,071	0,099
-483,649	-123,143	-0,145	0,016
-482,635	120,092	0,088	-0,078
-481,620	-200,000	-0,036	-0,139
-480,605	-132,418	0,125	0,011
-479,591	800,000	0,053	0,132
-478,576	-16,691	-0,043	0,020
-477,562	479,350	-0,065	0,107
-476,547	-181,350	-0,192	-0,003
-475,532	-100,715	-0,081	-0,014
-474,518	24,817	-0,003	0,002
-473,503	36,444	-0,189	0,119
-472,489	-40,828	0,096	-0,036
-471,474	-200,000	-0,168	0,000
-470,459	800,000	0,033	-0,100
-469,445	-24,406	-0,059	0,025
-468,430	26,171	-0,046	-0,027
-467,416	-148,836	0,092	0,005
-466,401	125,570	0,111	0,101
-465,386	-100,122	-0,087	-0,015
-464,372	62,574	0,036	-0,026
-463,357	191,648	0,022	-0,024
-462,343	75,071	-0,079	-0,060
-461,328	-14,235	0,049	0,023
-460,313	800,000	0,053	0,145
-459,299	-154,186	0,098	-0,005
-458,284	-4,654	-0,059	-0,029
-457,270	800,000	-0,025	-0,066
-456,255	145,474	-0,140	-0,135
-455,241	-200,000	-0,008	-0,059
-454,226	-125,409	-0,073	-0,008
-453,211	-133,116	0,277	-0,025
-452,197	-200,000	-0,007	-0,111
-451,182	210,639	-0,019	0,022
-450,168	-200,000	0,023	-0,075
-449,153	-106,486	0,068	0,011
-448,138	-158,027	0,046	-0,002
-447,124	11,316	-0,083	0,045
-446,109	-200,000	-0,004	0,023
-445,095	-5,219	-0,085	-0,042
-444,080	-200,000	0,011	0,121
-443,065	-142,269	-0,089	0,006
-442,051	-200,000	0,040	0,147
-441,036	-47,517	-0,248	-0,086
-440,022	-200,000	-0,018	-0,080
-439,007	-200,000	0,004	-0,030
-437,992	-109,220	-0,012	0,002
-436,978	401,984	-0,030	-0,045
-435,963	184,962	-0,019	0,021
-434,949	-20,788	0,135	0,059
-433,934	-13,323	0,042	0,020
-432,919	-200,000	0,017	-0,064
-431,905	375,146	-0,021	0,031
-430,890	800,000	0,044	-0,089
-429,876	-154,501	-0,081	0,004
-428,861	-200,000	-0,063	0,213
-427,846	-57,364	-0,047	-0,015
-426,832	167,050	-0,021	-0,022
-425,817	-200,000	-0,010	0,095
-424,803	-84,642	0,037	0,008
-423,788	-200,000	0,013	-0,161
-422,773	800,000	0,024	0,060
-421,759	39,574	0,062	0,040
-420,744	-200,000	-0,011	0,048
-419,730	83,517	0,017	0,013
-418,715	-200,000	-0,040	-0,159
-417,701	800,000	-0,021	-0,043
-416,686	-111,394	0,027	0,004
-415,671	591,625	-0,063	0,113
-414,657	-13,148	0,115	-0,053
-413,642	343,640	-0,043	-0,061
-412,628	-200,000	-0,014	0,120
-411,613	-200,000	0,016	0,128
-410,598	-200,000	-0,014	0,071
-409,584	57,881	0,067	-0,047
-408,569	-200,000	-0,008	0,143
-407,555	466,776	-0,100	0,162
-406,540	800,000	0,061	0,159
-405,525	646,953	0,024	0,045
-404,511	245,311	-0,083	-0,100
-403,496	-200,000	0,004	-0,079
-402,482	-79,113	0,085	0,021
-401,467	-80,004	0,038	-0,009
-400,452	4,880	0,055	0,029
-399,438	-133,957	-0,089	0,008
-398,423	-200,000	0,005	-0,111
-397,409	-200,000	0,008	-0,112
-396,394	-170,700	-0,137	0,003
-395,379	153,964	0,107	0,105
-394,365	-164,876	0,129	0,004
-393,350	761,399	0,075	-0,146
-392,336	-101,611	-0,124	-0,021
-391,321	171,585	0,060	-0,061
-390,306	-78,080	-0,102	0,025
-389,292	-60,010	0,053	0,016
-388,277	3,965	-0,026	0,014
-387,263	464,082	-0,019	0,031
-386,248	800,000	-0,053	0,108
-385,233	-25,140	0,108	0,046
-384,219	128,644	0,084	-0,077
-383,204	-200,000	0,039	0,161
-382,190	-200,000	-0,032	-0,148
-381,175	241,223	0,080	-0,096
-380,160	-200,000	0,041	0,133
-379,146	-200,000	0,018	0,155
-378,131	227,189	-0,023	0,027
-377,117	800,000	0,043	0,096
-376,102	-126,047	0,084	0,009
-375,088	-200,000	0,002	-0,024
-374,073	-35,288	0,102	-0,040
-373,058	-200,000	0,001	-0,114
-372,044	598,516	-0,029	0,051
-371,029	800,000	0,072	0,172
-370,015	-38,336	0,090	-0,034
-369,000	-98,295	-0,124	-0,023
-367,985	-200,000	-0,016	-0,099
-366,971	-127,869	-0,112	0,011
-365,956	138,280	0,038	0,036
-364,942	800,000	0,032	0,072
-363,927	355,761	0,027	0,039
-362,912	534,317	0,054	-0,093
-361,898	368,838	-0,053	-0,076
-360,883	-200,000	0,015	0,076
-359,869	-56,023	-0,098	0,031
-358,854	-30,274	-0,048	0,019
-357,839	2,963	0,099	0,051
-356,825	800,000	0,079	0,184
-355,810	64,207	-0,040	-0,029
-354,796	45,734	0,038	-0,025
-353,781	800,000	0,027	-0,055
-352,766	275,619	-0,026	-0,033
-351,752	-128,923	0,022	-0,002
-350,737	-200,000	0,036	0,145
-349,723	-22,269	0,105	0,045
-348,708	800,000	-0,007	0,022
-347,693	188,092	0,110	-0,118
-346,679	27,908	-0,105	-0,063
-345,664	-0,424	-0,157	-0,080
-344,650	-200,000	0,009	-0,081
-343,635	800,000	0,082	-0,198
-342,620	408,431	0,099	0,149
-341,606	267,384	0,028	-0,035
-340,591	194,299	0,096	-0,104
-339,577	438,451	0,006	-0,010
-338,562	408,517	0,022	-0,034
-337,548	-135,953	-0,082	-0,007
-336,533	-2,539	0,056	-0,028
-335,518	800,000	0,017	-0,042
-334,504	24,741	0,025	0,015
-333,489	22,176	-0,042	-0,025
-332,475	-50,148	-0,094	-0,032
-331,460	-53,869	0,168	-0,054
-330,445	-46,639	0,059	-0,020
-329,431	800,000	-0,023	0,050
-328,416	-5,957	0,118	-0,057
-327,402	110,659	-0,028	0,024
-326,387	-4,334	-0,105	-0,052
-325,372	-51,260	0,114	0,038
-324,358	219,235	-0,025	-0,028
-323,343	289,744	-0,025	-0,032
-322,329	-77,428	0,074	0,018
-321,314	-200,000	-0,014	0,138
-320,299	30,243	0,146	0,089
-319,285	70,376	-0,100	-0,073
-318,270	-142,480	-0,177	-0,012
-317,256	148,827	0,026	-0,025
-316,241	800,000	-0,084	0,183
-315,226	134,062	0,145	-0,134
-314,212	337,195	-0,055	0,077
-313,197	36,369	0,176	-0,110
-312,183	-200,000	-0,017	0,060
-311,168	145,012	-0,100	-0,096
-310,153	101,429	-0,160	-0,133
-309,139	-22,847	-0,086	0,037
-308,124	-111,505	0,103	-0,015
-307,110	-200,000	-0,013	0,082
-306,095	-8,425	0,187	0,089
-305,080	289,218	0,076	0,098
-304,066	-200,000	0,003	0,063
-303,051	-180,567	-0,193	0,003
-302,037	800,000	0,049	-0,144
-301,022	-200,000	0,019	0,064
-300,008	-45,316	-0,046	-0,016
-298,993	800,000	0,015	-0,034
-297,978	-176,213	0,138	0,003
-296,964	800,000	0,014	-0,040
-295,949	-138,084	-0,100	-0,008
-294,935	-44,400	-0,099	-0,035
-293,920	330,664	-0,096	0,132
-292,905	-127,020	0,134	0,014
-291,891	60,856	0,071	0,050
-290,876	504,749	0,122	-0,202
-289,862	-200,000	-0,018	0,076
-288,847	7,118	0,040	0,021
-287,832	752,426	-0,025	-0,048
-286,818	800,000	-0,053	-0,110
-285,803	-78,593	-0,017	0,004
-284,789	-200,000	0,020	-0,067
-283,774	479,040	0,065	0,106
-282,759	800,000	-0,020	0,044
-281,745	12,459	-0,046	0,025
-280,730	-112,469	-0,088	0,012
-279,716	-166,178	-0,100	-0,003
-278,701	800,000	0,042	-0,084
-277,686	-200,000	-0,002	-0,042
-276,672	78,106	-0,047	0,036
-275,657	376,197	0,012	-0,017
-274,643	-29,844	0,120	0,049
-273,628	-9,265	0,099	-0,047
-272,613	-147,580	-0,178	-0,011
-271,599	196,419	0,097	-0,105
-270,584	181,641	0,020	0,021
-269,570	127,791	0,108	0,098
-268,555	9,444	-0,054	0,029
-267,540	476,935	-0,060	0,096
-266,526	548,085	0,049	-0,084
-265,511	-63,391	-0,115	-0,033
-264,497	355,418	-0,050	0,072
-263,482	-64,066	0,113	0,033
-262,467	-200,000	-0,007	0,058
-261,453	-200,000	0,029	-0,126
-260,438	800,000	0,062	-0,154
-259,424	-200,000	0,023	-0,079
-258,409	59,178	0,083	-0,058
-257,395	75,390	-0,063	0,047
-256,380	39,116	0,074	0,047
-255,365	20,703	0,057	-0,033
-254,351	-6,363	0,074	-0,036
-253,336	229,100	-0,076	-0,089
-252,322	-81,385	-0,073	0,017
-251,307	247,644	-0,060	-0,072
-250,292	515,169	0,037	0,061
-249,278	800,000	-0,009	0,024
-248,263	182,942	-0,043	0,045
-247,249	-200,000	0,027	0,149
-246,234	800,000	0,066	0,153
-245,219	-49,749	0,110	0,037
-244,205	-17,028	-0,019	0,008
-243,190	-200,000	0,014	-0,062
-242,176	800,000	0,028	-0,074
-241,161	800,000	0,039	0,118
-240,146	-93,176	0,038	-0,007
-239,132	89,237	0,073	0,058
-238,117	-200,000	0,006	0,032
-237,103	42,635	0,072	0,046
-236,088	416,748	-0,058	0,089
-235,073	88,124	0,092	0,072
-234,059	-200,000	-0,008	0,044
-233,044	-200,000	0,003	0,019
-232,030	480,295	-0,083	-0,134
-231,015	-11,065	-0,060	0,028
-230,000	789,865	0,031	0,061
-228,986	-58,784	-0,038	0,011
-227,971	97,009	-0,096	-0,079
-226,957	-200,000	0,006	0,063
-225,942	-114,647	-0,038	0,005
-224,927	352,876	-0,080	-0,113
-223,913	252,663	-0,057	0,069
-222,898	-200,000	0,010	0,031
-221,884	75,965	0,061	-0,046
-220,869	-200,000	0,046	-0,161
-219,855	800,000	-0,070	0,195
-218,840	65,290	-0,052	0,037
-217,825	-200,000	0,015	0,133
-216,811	130,126	0,127	0,116
-215,796	-76,639	-0,104	0,026
-214,782	-43,521	-0,060	-0,022
-213,767	61,987	0,069	-0,049
-212,752	20,203	0,079	0,045
-211,738	234,061	0,060	-0,071
-210,723	800,000	0,023	-0,054
-209,709	-200,000	0,017	0,151
-208,694	-36,099	-0,029	-0,011
-207,679	800,000	-0,011	-0,027
-206,665	202,128	0,080	0,088
-205,650	-200,000	-0,004	-0,019
-204,636	732,121	-0,072	-0,138
-203,621	-200,000	0,008	0,136
-202,606	-49,015	0,056	0,019
-201,592	164,415	-0,061	-0,061
-200,577	241,269	-0,066	-0,079
-199,563	-200,000	-0,017	-0,098
-198,548	291,832	-0,076	-0,098
-197,533	-200,000	0,016	-0,067
-196,519	800,000	0,035	-0,106
-195,504	-93,496	-0,096	0,019
-194,490	-92,324	-0,151	0,030
-193,475	9,392	0,112	-0,060
-192,460	-200,000	0,031	-0,231
-191,446	135,748	-0,105	-0,097
-190,431	800,000	-0,053	0,106
-189,417	316,422	-0,019	0,026
-188,402	-68,853	-0,151	0,041
-187,387	32,814	0,039	0,024
-186,373	-89,174	-0,108	-0,022
-185,358	463,768	0,009	0,015
-184,344	55,040	0,094	-0,065
-183,329	-200,000	0,012	0,040
-182,315	-36,739	-0,145	0,055
-181,300	155,814	-0,079	0,078
-180,285	-32,713	0,134	0,053
-179,271	-127,568	-0,090	-0,009
-178,256	-200,000	-0,017	-0,119
-177,242	-36,060	-0,029	-0,011
-176,227	-39,447	0,037	0,014
-175,212	64,765	0,098	0,070
-174,198	278,482	0,009	0,011
-173,183	85,860	-0,155	-0,121
-172,169	471,013	0,070	-0,112
-171,154	24,975	-0,215	-0,126
-170,139	249,890	0,079	0,095
-169,125	-52,024	0,184	0,060
-168,110	800,000	0,073	0,175
-167,096	-58,703	-0,054	0,017
-166,081	184,462	0,053	0,056
-165,066	505,075	0,027	0,044
-164,052	-102,977	0,141	-0,024
-163,037	-65,394	0,187	-0,053
-162,023	-200,000	0,023	-0,091
-161,008	-200,000	-0,004	0,148
-159,993	-200,000	-0,030	-0,101
-158,979	800,000	-0,021	-0,044
-157,964	800,000	-0,058	-0,117
-156,950	42,440	-0,082	-0,053
-155,935	428,009	0,058	-0,089
-154,920	790,434	-0,052	0,103
-153,906	-200,000	-0,020	0,095
-152,891	-200,000	-0,006	0,084
-151,877	-200,000	0,016	-0,141
-150,862	-85,830	-0,088	0,019
-149,847	800,000	-0,014	-0,036
-148,833	-200,000	0,011	0,041
-147,818	235,099	-0,070	0,082
-146,804	-55,653	-0,023	-0,007
-145,789	-103,243	0,047	-0,008
-144,775	74,068	0,077	-0,057
-143,760	-200,000	0,002	0,006
-142,745	-200,000	0,014	-0,147
-141,731	-48,048	0,161	0,055
-140,716	-200,000	0,003	0,051
-139,702	343,413	0,078	0,108
-138,687	800,000	-0,058	0,159
-137,672	-6,127	-0,143	-0,069
-136,658	-25,986	-0,175	-0,073
-135,643	-200,000	0,033	-0,120
-134,629	192,178	-0,100	-0,107
-133,614	-200,000	-0,012	-0,106
-132,599	800,000	-0,052	0,131
-131,585	-80,447	0,124	-0,029
-130,570	375,258	-0,016	0,023
-129,556	-126,558	0,034	-0,004
-128,541	151,667	-0,068	0,066
-127,526	25,789	-0,089	-0,053
-126,512	198,222	0,053	-0,058
-125,497	231,845	-0,067	-0,078
-124,483	-25,531	0,093	0,039
-123,468	-200,000	-0,014	0,055
-122,453	86,825	0,032	0,025
-121,439	-200,000	0,005	-0,107
-120,424	-200,000	0,016	-0,102
-119,410	194,451	0,056	0,060
-118,395	-187,739	0,091	0,001
-117,380	47,286	0,071	0,047
-116,366	800,000	0,012	0,037
-115,351	-170,275	0,046	0,001
-114,337	-200,000	0,027	-0,105
-113,322	-16,320	-0,085	-0,038
-112,307	800,000	-0,031	-0,067
-111,293	-200,000	-0,026	-0,106
-110,278	-88,245	-0,059	-0,012
-109,264	-200,000	-0,002	-0,079
-108,249	-141,810	-0,029	0,002
-107,234	-200,000	0,002	0,061
-106,220	81,290	0,134	-0,103
-105,205	-200,000	-0,006	0,049
-104,191	81,958	0,088	0,067
-103,176	800,000	-0,051	0,154
-102,162	385,029	-0,075	-0,110
-101,147	-200,000	-0,008	0,070
-100,132	-200,000	0,009	-0,167
-99,118	21,613	0,039	0,023
-98,103	-200,000	-0,010	0,171
-97,089	58,383	0,021	-0,015
-96,074	800,000	0,042	-0,114
-95,059	800,000	-0,041	-0,104
-94,045	-200,000	0,005	0,039
-93,030	-200,000	0,041	-0,217
-92,016	303,710	0,019	-0,025
-91,001	-200,000	0,009	-0,043
-89,986	-200,000	-0,002	0,052
-88,972	-81,814	-0,009	-0,002
-87,957	157,057	-0,068	0,066
-86,943	270,563	0,017	-0,021
-85,928	266,821	-0,081	0,100
-84,913	106,327	-0,003	-0,003
-83,899	388,088	-0,084	0,123
-82,884	170,893	0,058	-0,059
-81,870	800,000	0,043	0,090
-80,855	-44,773	0,103	0,036
-79,840	-138,582	-0,019	-0,001
-78,826	-200,000	0,014	-0,080
-77,811	800,000	-0,038	0,085
-76,797	800,000	0,017	-0,052
-75,782	-200,000	0,022	-0,076
-74,767	-200,000	0,009	0,085
-73,753	-66,348	-0,066	-0,018
-72,738	28,015	0,126	-0,075
-71,724	-58,817	-0,066	0,020
-70,709	-122,566	-0,144	-0,016
-69,694	-200,000	-0,008	-0,086
-68,680	259,581	0,072	-0,088
-67,665	-49,256	0,049	0,017
-66,651	-155,251	-0,099	0,004
-65,636	476,358	-0,046	-0,074
-64,622	269,752	-0,070	-0,087
-63,607	-200,000	-0,006	-0,143
-62,592	6,492	0,120	-0,063
-61,578	-200,000	-0,004	0,014
-60,563	-19,550	0,178	0,077
-59,549	-200,000	-0,008	0,119
-58,534	7,747	-1,878	-0,991
-57,519	455,113	-1,303	-2,049
-56,505	-200,000	-0,410	-4,380
-55,490	518,972	0,879	1,461
-54,476	800,000	5,172	11,345
-53,461	-200,000	20,276	328,374
-52,446	800,000	752,275	2314,296
-51,432	548,506	1660,482	2822,500
-50,417	74,686	1667,703	1239,035
-49,403	19,774	1540,733	874,649
-48,388	13,803	1463,216	801,675
-47,373	18,836	1453,606	820,621
-46,359	16,576	1442,779	803,686
-45,344	12,106	1438,469	779,911
-44,330	12,048	1436,722	778,654
-43,315	12,034	1434,785	777,505
-42,300	12,031	1432,983	776,485
-41,286	12,078	1431,972	776,131
-40,271	12,089	1430,537	775,376
-39,257	12,015	1429,350	774,350
-38,242	12,082	1428,063	773,938
-37,227	12,053	1427,110	773,255
-36,213	12,089	1425,524	772,532
-35,198	12,048	1424,679	771,851
-34,184	12,140	1423,458	771,595
-33,169	12,049	1422,024	770,354
-32,154	12,136	1421,070	770,220
-31,140	12,095	1419,861	769,342
-30,125	12,105	1418,791	768,779
-29,111	12,133	1417,268	768,052
-28,096	12,100	1416,490	767,448
-27,082	12,024	1415,447	766,493
-26,067	12,023	1414,333	765,856
-25,052	12,049	1413,241	765,354
-24,038	12,047	1412,262	764,784
-23,023	12,026	1411,213	764,089
-22,009	11,991	1410,153	763,318
-20,994	11,965	1409,338	762,725
-19,979	12,003	1408,503	762,423
-18,965	11,984	1407,631	761,829
-17,950	11,984	1406,566	761,225
-16,936	12,011	1405,743	760,877
-15,921	11,941	1404,679	759,942
-14,906	11,909	1403,912	759,346
-13,892	11,939	1403,028	758,978
-12,877	11,930	1402,065	758,386
-11,863	11,969	1401,084	758,007
-10,848	11,926	1400,100	757,243
-9,833	11,832	1399,281	756,335
-8,819	11,851	1398,385	755,908
-7,804	11,794	1397,714	755,250
-6,790	11,841	1396,504	754,787
-5,775	11,850	1395,591	754,304
-4,760	11,820	1394,766	753,690
-3,746	11,854	1393,517	753,143
-2,731	11,787	1393,077	752,563
-1,717	11,795	1392,138	752,065
-0,702	11,779	1390,345	750,991
0,313	15,819	1305,000	723,463
1,327	32,229	697,146	424,040
2,342	49,979	121,539	80,865
3,356	0,396	16,653	8,373
4,371	6,561	3,271	1,712
5,386	-29,437	0,770	0,310
6,400	-200,000	0,040	0,346
7,415	307,163	-0,095	-0,125
8,429	157,993	-0,240	-0,235
9,444	30,181	-0,334	-0,201
10,459	262,803	-0,132	-0,162
11,473	-29,725	-0,412	-0,165
12,488	195,043	-0,156	-0,167
13,502	51,481	-0,245	-0,164
14,517	233,835	-0,159	-0,185
15,531	229,034	-0,319	-0,368
16,546	34,879	-0,239	-0,147
17,561	305,581	-0,197	-0,259
18,575	27,464	-0,237	-0,141
19,590	211,044	-0,266	-0,296
20,604	106,614	-0,208	-0,174
21,619	26,864	-0,305	-0,180
22,634	85,601	-0,519	-0,402
23,648	345,178	-0,310	-0,430
24,663	184,739	-0,357	-0,373
25,677	349,821	-0,209	-0,292
26,692	102,178	-0,350	-0,288
27,707	-25,187	-0,373	-0,155
28,721	51,792	-0,384	-0,257
29,736	36,454	-0,420	-0,261
30,750	800,000	-0,223	-0,460
31,765	7,411	-0,467	-0,245
32,780	122,067	-0,336	-0,295
33,794	18,585	-0,469	-0,264
34,809	59,353	-0,389	-0,270
35,823	66,848	-0,372	-0,266
36,838	244,120	-0,324	-0,384
37,853	243,880	-0,254	-0,300
38,867	13,479	-0,439	-0,239
39,882	509,033	-0,214	-0,351
40,896	106,549	-0,361	-0,301
41,911	60,752	-0,329	-0,230
42,926	23,902	-0,421	-0,244
43,940	82,473	-0,387	-0,296
44,955	23,365	-0,385	-0,222
45,969	138,267	-0,408	-0,376
46,984	114,588	-0,325	-0,279
47,999	143,561	-0,220	-0,206
49,013	90,462	-0,332	-0,261
50,028	60,385	-0,399	-0,277
51,042	165,955	-0,354	-0,353
52,057	241,055	-0,253	-0,297
53,071	290,487	-0,262	-0,336
54,086	121,128	-0,403	-0,353
55,101	98,277	-0,274	-0,222
56,115	71,739	-0,290	-0,212
57,130	46,769	-0,460	-0,300
58,144	428,467	-0,178	-0,272
59,159	308,405	-0,290	-0,381
60,174	43,791	-0,406	-0,261
61,188	121,917	-0,238	-0,208
62,203	-65,546	-0,364	-0,102
63,217	28,142	-0,228	-0,135
64,232	21,793	-0,352	-0,201
65,247	30,266	-0,350	-0,210
66,261	109,493	-0,312	-0,262
67,276	-5,563	-0,364	-0,175
68,290	78,966	-0,349	-0,262
69,305	-30,214	-0,353	-0,140
70,320	100,214	-0,254	-0,206
71,334	-16,800	-0,334	-0,148
72,349	113,891	-0,233	-0,199
73,363	109,808	-0,245	-0,207
74,378	62,650	-0,331	-0,232
75,393	134,769	-0,366	-0,334
76,407	-63,339	-0,497	-0,143
77,422	154,774	-0,261	-0,252
78,436	63,588	-0,228	-0,161
79,451	16,216	-0,280	-0,155
80,466	102,549	-0,377	-0,309
81,480	59,489	-0,484	-0,334
82,495	17,444	-0,349	-0,194
83,509	142,073	-0,374	-0,348
84,524	81,559	-0,285	-0,216
85,539	256,178	-0,203	-0,244
86,553	178,530	-0,140	-0,144
87,568	128,731	-0,301	-0,269
88,582	15,803	-0,354	-0,195
89,597	133,854	-0,356	-0,323
90,611	89,392	-0,468	-0,366
91,626	30,142	-0,231	-0,138
92,641	-83,064	-0,388	-0,087
93,655	-10,928	-0,275	-0,127
94,670	39,030	-0,279	-0,175
95,684	-48,430	-0,319	-0,107
96,699	98,187	-0,264	-0,213
97,714	52,325	-0,296	-0,198
98,728	-28,034	-0,331	-0,133
99,743	-96,959	-0,175	-0,032
100,757	251,203	-0,206	-0,246
101,772	-34,403	-0,181	-0,069
102,787	105,746	-0,254	-0,211
103,801	165,715	-0,150	-0,149
104,816	42,591	-0,373	-0,237
105,830	127,779	-0,186	-0,166
106,845	185,353	-0,217	-0,226
107,860	-113,766	-0,256	-0,035
108,874	-97,543	-0,409	-0,074
109,889	117,419	-0,245	-0,211
110,903	-24,494	-0,285	-0,118
111,918	211,630	-0,229	-0,252
112,933	20,959	-0,237	-0,134
113,947	27,350	-0,251	-0,147
114,962	-73,814	-0,105	-0,026
115,976	377,644	-0,190	-0,272
116,991	56,453	-0,364	-0,247
118,006	48,640	-0,194	-0,127
119,020	123,722	-0,185	-0,162
120,035	59,087	-0,166	-0,114
121,049	85,173	-0,168	-0,129
122,064	-30,056	-0,357	-0,141
123,079	-30,372	-0,189	-0,075
124,093	203,541	-0,260	-0,282
125,108	157,688	-0,263	-0,255
126,122	66,124	-0,236	-0,167
127,137	17,015	-0,223	-0,123
128,151	-6,507	-0,126	-0,060
129,166	73,330	-0,160	-0,117
130,181	800,000	-0,104	-0,301
131,195	94,541	-0,246	-0,195
132,210	39,200	-0,335	-0,209
133,224	252,834	-0,219	-0,262
134,239	8,329	-0,146	-0,077
135,254	76,058	-0,237	-0,175
136,268	158,897	-0,207	-0,201
137,283	382,977	-0,139	-0,201
138,297	-68,653	-0,270	-0,073
139,312	30,186	-0,297	-0,176
140,327	223,919	-0,204	-0,230
141,341	219,551	-0,163	-0,182
142,356	86,482	-0,243	-0,187
143,370	240,617	-0,217	-0,253
144,385	-10,666	-0,273	-0,126
145,400	157,904	-0,167	-0,162
146,414	2,196	-0,330	-0,166
147,429	346,086	-0,134	-0,184
148,443	317,541	-0,177	-0,234
149,458	148,610	-0,138	-0,130
150,473	206,876	-0,235	-0,255
151,487	236,472	-0,158	-0,183
152,502	320,086	-0,203	-0,269
153,516	114,795	-0,273	-0,232
154,531	-1,816	-0,210	-0,103
155,546	285,261	-0,332	-0,418
156,560	157,725	-0,196	-0,189
157,575	250,714	-0,156	-0,186
158,589	289,004	-0,176	-0,223
159,604	-33,970	-0,320	-0,122
160,619	162,538	-0,200	-0,196
161,633	-19,358	-0,329	-0,142
162,648	-16,752	-0,244	-0,107
163,662	341,827	-0,096	-0,132
164,677	-90,741	-0,265	-0,053
165,692	487,755	-0,139	-0,222
166,706	120,762	-0,273	-0,237
167,721	88,217	-0,303	-0,234
168,735	379,818	-0,231	-0,330
169,750	-39,148	-0,367	-0,133
170,764	73,066	-0,266	-0,194
171,779	-200,000	-0,040	-0,181
172,794	-185,544	-0,235	0,002
173,808	11,500	-0,372	-0,198
174,823	66,955	-0,280	-0,198
175,837	-62,812	-0,344	-0,098
176,852	800,000	-0,078	-0,179
177,867	62,795	-0,267	-0,185
178,881	33,668	-0,227	-0,137
179,896	-5,531	-0,200	-0,095
180,910	800,000	-0,090	-0,239
181,925	219,962	-0,285	-0,318
182,940	-31,513	-0,246	-0,096
183,954	405,343	-0,189	-0,278
184,969	174,188	-0,197	-0,198
185,983	163,059	-0,177	-0,173
186,998	175,296	-0,181	-0,182
188,013	360,269	-0,125	-0,175
189,027	149,474	-0,192	-0,181
190,042	50,887	-0,260	-0,171
191,056	245,134	-0,195	-0,228
192,071	45,974	-0,164	-0,105
193,086	-127,044	-0,160	-0,016
194,100	-141,512	-0,204	-0,014
195,115	-116,415	-0,302	0,038
196,129	8,592	-0,257	-0,134
197,144	800,000	-0,134	-0,286
198,159	-45,182	-0,266	-0,091
199,173	384,771	-0,108	-0,154
200,188	89,297	-0,221	-0,171
201,202	148,733	-0,134	-0,126
202,217	-2,109	-0,187	-0,091
203,232	106,898	-0,179	-0,148
204,246	562,983	-0,105	-0,177
205,261	48,763	-0,130	-0,084
206,275	250,116	-0,143	-0,169
207,290	369,282	-0,176	-0,248
208,304	377,593	-0,157	-0,223
209,319	73,797	-0,129	-0,094
210,334	227,695	-0,166	-0,187
211,348	141,574	-0,183	-0,168
212,363	174,216	-0,213	-0,213
213,377	78,806	-0,188	-0,139
214,392	-57,040	-0,107	-0,033
215,407	91,104	-0,164	-0,127
216,421	-174,039	-0,192	-0,004
217,436	-200,000	-0,038	-0,213
218,450	243,892	-0,228	-0,266
219,465	73,919	-0,100	-0,072
220,480	324,985	-0,116	-0,154
221,494	-198,109	-0,207	-0,001
222,509	-167,066	-0,143	0,004
223,523	-91,130	-0,209	-0,041
224,538	534,429	-0,046	-0,076
225,553	149,633	-0,203	-0,191
226,567	555,932	-0,180	-0,302
227,582	-3,980	-0,250	-0,120
228,596	205,728	-0,085	-0,092
229,611	800,000	-0,101	-0,218
230,626	361,907	-0,141	-0,196
231,640	173,440	-0,182	-0,182
232,655	273,960	-0,171	-0,210
233,669	252,647	-0,117	-0,138
234,684	114,469	-0,176	-0,148
235,699	421,407	-0,156	-0,232
236,713	94,980	-0,123	-0,097
237,728	-28,543	-0,202	-0,080
238,742	213,012	-0,211	-0,231
239,757	24,976	-0,220	-0,126
240,772	800,000	-0,114	-0,323
241,786	76,821	-0,164	-0,120
242,801	103,524	-0,124	-0,100
243,815	-111,339	-0,158	0,022
244,830	-41,868	-0,239	0,084
245,844	-159,089	-0,125	0,005
246,859	-7,460	-0,214	-0,100
247,874	303,839	-0,161	-0,206
248,888	101,538	-0,263	-0,212
249,903	-49,293	-0,099	0,032
250,917	334,322	-0,178	-0,239
251,932	767,894	-0,090	-0,170
252,947	-105,987	-0,131	-0,020
253,961	32,926	-0,144	-0,086
254,976	128,140	-0,167	-0,147
255,990	3,628	-0,114	-0,057
257,005	800,000	-0,053	-0,134
258,020	-86,958	-0,153	0,032
259,034	-37,094	-0,224	-0,083
260,049	3,319	-0,266	-0,133
261,063	-200,000	-0,048	-0,211
262,078	44,034	-0,203	-0,128
263,093	800,000	-0,119	-0,251
264,107	81,437	-0,163	-0,121
265,122	305,803	-0,084	-0,108
266,136	-200,000	-0,033	-0,128
267,151	431,342	-0,155	-0,232
268,166	99,616	-0,166	-0,133
269,180	-61,725	-0,168	-0,048
270,195	-154,082	-0,137	0,006
271,209	-7,686	-0,203	-0,094
272,224	-105,969	-0,181	0,028
273,239	-200,000	0,045	-0,186
274,253	491,923	-0,103	-0,164
275,268	123,927	-0,247	-0,214
276,282	623,114	-0,172	-0,300
277,297	145,897	-0,148	-0,137
278,312	-108,295	-0,175	-0,026
279,326	-70,408	-0,115	-0,030
280,341	12,287	-0,125	-0,066
281,355	-88,335	-0,216	0,044
282,370	99,380	-0,193	-0,153
283,384	250,279	-0,244	-0,286
284,399	157,896	-0,104	-0,099
285,414	-28,735	-0,145	0,057
286,428	782,327	-0,070	-0,133
287,443	-49,843	-0,039	0,013
288,457	-69,076	-0,225	0,059
289,472	46,444	-0,200	-0,128
290,487	335,273	-0,122	-0,163
291,501	43,058	-0,124	-0,077
292,516	-61,615	-0,149	-0,043
293,530	-10,006	-0,154	-0,070
294,545	135,306	-0,106	-0,095
295,560	800,000	0,038	-0,096
296,574	143,347	-0,155	-0,142
297,589	423,513	-0,117	-0,174
298,603	-43,656	-0,112	-0,039
299,618	117,296	-0,073	-0,062
300,633	140,226	-0,103	-0,093
301,647	122,866	-0,093	-0,080
302,662	-121,791	-0,103	-0,012
303,676	201,687	-0,144	-0,153
304,691	-73,765	-0,210	0,052
305,706	94,075	-0,060	0,047
306,720	75,779	-0,092	-0,066
307,735	-97,264	-0,285	-0,051
308,749	800,000	-0,064	-0,176
309,764	800,000	-0,063	-0,138
310,779	245,880	-0,118	-0,137
311,793	52,746	-0,058	-0,038
312,808	30,317	-0,182	-0,107
313,822	485,937	-0,122	-0,191
314,837	800,000	-0,077	-0,204
315,852	605,533	-0,066	-0,114
316,866	-144,164	-0,231	-0,015
317,881	374,298	-0,126	-0,177
318,895	20,896	-0,123	-0,069
319,910	151,164	-0,134	-0,125
320,925	-28,832	-0,249	-0,098
321,939	-54,618	-0,137	0,042
322,954	-172,040	-0,062	0,001
323,968	-61,384	-0,148	0,043
324,983	0,361	-0,127	0,062
325,997	-145,829	-0,211	-0,013
327,012	184,007	-0,128	-0,130
328,027	207,213	-0,109	-0,117
329,041	235,872	-0,106	-0,120
330,056	800,000	-0,049	-0,124
331,070	-21,989	-0,115	-0,048
332,085	591,221	-0,041	-0,070
333,100	57,975	-0,129	-0,087
334,114	344,526	-0,112	-0,151
335,129	227,566	-0,122	-0,137
336,143	800,000	-0,048	-0,130
337,158	-4,087	-0,100	-0,047
338,173	-79,731	-0,152	0,035
339,187	143,734	-0,052	0,047
340,202	800,000	-0,045	-0,091
341,216	238,436	-0,090	-0,103
342,231	-69,622	-0,140	-0,036
343,246	244,470	-0,104	-0,120
344,260	18,171	-0,138	-0,075
345,275	-200,000	0,029	-0,155
346,289	20,528	-0,239	-0,132
347,304	-47,213	-0,151	-0,050
348,319	-200,000	-0,039	-0,218
349,333	48,577	-0,159	-0,102
350,348	38,259	-0,070	-0,042
351,362	-83,105	-0,173	-0,038
352,377	455,678	-0,083	-0,126
353,392	597,081	-0,124	-0,211
354,406	61,987	-0,263	-0,179
355,421	207,746	1313,361	1406,201
356,435	159,818	1473,934	1406,694
