DTS Sentinel unit serial number:	SN410029Multiplexer serial number:	ORYXHardware model number:	OX2-SRSoftware version number:	ORYX F/W v4,00 Oryx Data Collector v3.7.2.0data status	okinstallation	B3 Nyhavnadifferential loss correction	single-endedforward channel	channel 1reverse channel	N/Adate	2023/12/01time	08:57:30forward acquisition time	300,00reverse acquisition time	0,00gamma	499,1914k internal	0,3213k external	0,3213temperature offset calibration	1,0000default loss term (dB/km)	0,3820temperature slope calibration	1,0000multiplexer offset coefficient	1,0000multiplexer slope coefficient	1,0000fibre end	0,00T internal ref (°C)	7,97T ext. ref 1 (°C)	-6,38T ext. ref 2 (°C)	-6,53length (m)	temperature (°C)	Stokes	anti-Stokes-744,400	90,885	-0,244	-0,198
-743,385	800,000	-0,096	0,247
-742,371	443,731	-0,168	-0,268
-741,356	-200,000	0,021	0,322
-740,342	224,538	-0,120	-0,141
-739,327	-200,000	0,033	0,139
-738,312	660,501	-0,101	-0,190
-737,298	-200,000	-0,034	0,266
-736,283	800,000	-0,107	-0,323
-735,269	-200,000	-0,026	0,215
-734,254	-64,687	-0,328	-0,096
-733,239	-185,681	-0,323	0,003
-732,225	-200,000	-0,015	-0,168
-731,210	-77,249	0,164	-0,041
-730,196	-0,515	0,058	0,030
-729,181	800,000	-0,021	0,057
-728,167	448,836	-0,042	-0,068
-727,152	-54,142	-0,074	0,024
-726,137	-51,214	-0,044	0,015
-725,123	-63,812	0,053	-0,016
-724,108	800,000	0,023	-0,060
-723,094	-110,912	-0,053	0,008
-722,079	-200,000	0,017	-0,083
-721,064	-22,476	0,060	-0,026
-720,050	545,086	0,020	-0,035
-719,035	-200,000	0,007	0,035
-718,021	182,448	0,118	0,126
-717,006	-23,981	-0,135	-0,058
-715,991	-200,000	-0,010	-0,039
-714,977	-176,584	-0,129	0,002
-713,962	-200,000	0,009	-0,135
-712,948	-200,000	0,011	0,066
-711,933	284,227	-0,093	0,122
-710,918	445,753	-0,023	-0,037
-709,904	51,299	-0,154	0,105
-708,889	106,229	0,049	0,042
-707,875	-200,000	0,006	-0,194
-706,860	-40,224	-0,179	-0,067
-705,845	-200,000	0,001	0,093
-704,831	133,746	-0,033	-0,031
-703,816	-161,149	0,104	-0,004
-702,802	-61,890	-0,021	-0,006
-701,787	526,219	-0,058	-0,099
-700,772	-122,935	-0,120	0,014
-699,758	-15,233	-0,142	0,066
-698,743	-200,000	-0,040	0,134
-697,729	-200,000	0,020	0,162
-696,714	92,115	-0,135	-0,110
-695,699	-68,524	-0,079	-0,022
-694,685	324,312	0,025	0,035
-693,670	-200,000	0,017	-0,069
-692,656	-16,696	0,022	0,010
-691,641	342,238	-0,051	-0,073
-690,627	13,562	0,035	0,020
-689,612	-124,179	0,081	0,009
-688,597	109,513	-0,049	-0,042
-687,583	800,000	-0,058	-0,149
-686,568	800,000	0,036	-0,080
-685,554	115,463	-0,064	-0,056
-684,539	-23,324	-0,018	0,008
-683,524	701,927	0,019	0,037
-682,510	-42,347	-0,087	-0,032
-681,495	83,851	0,052	-0,041
-680,481	100,794	-0,082	-0,069
-679,466	-200,000	0,001	-0,075
-678,451	240,508	0,081	-0,097
-677,437	-23,124	0,083	-0,036
-676,422	-200,000	0,008	0,034
-675,408	-165,238	-0,050	-0,002
-674,393	184,440	-0,106	-0,114
-673,378	800,000	-0,015	0,040
-672,364	800,000	-0,038	-0,086
-671,349	197,931	0,060	-0,067
-670,335	720,610	0,063	0,122
-669,320	-191,601	0,101	-0,001
-668,305	800,000	-0,042	-0,132
-667,291	-113,096	-0,145	-0,020
-666,276	-200,000	-0,014	-0,082
-665,262	270,773	0,049	0,062
-664,247	332,429	-0,072	0,101
-663,232	-10,264	-0,064	0,031
-662,218	408,039	0,099	0,152
-661,203	209,805	-0,067	0,077
-660,189	72,612	-0,067	0,050
-659,174	111,218	0,017	0,015
-658,159	-200,000	-0,028	0,201
-657,145	-200,000	0,021	0,113
-656,130	-57,223	0,034	-0,011
-655,116	-56,332	0,009	-0,003
-654,101	800,000	0,025	0,060
-653,086	113,749	-0,085	0,075
-652,072	-200,000	0,002	0,033
-651,057	-200,000	-0,008	0,078
-650,043	-165,541	-0,096	-0,003
-649,028	353,951	-0,102	0,147
-648,014	195,895	0,118	-0,130
-646,999	-116,263	-0,141	-0,019
-645,984	-110,526	-0,108	-0,016
-644,970	57,966	0,143	-0,101
-643,955	-200,000	-0,043	-0,153
-642,941	-118,497	-0,133	-0,017
-641,926	438,977	0,009	-0,014
-640,911	51,597	-0,105	-0,072
-639,897	200,774	0,075	0,084
-638,882	506,666	-0,043	0,072
-637,868	-146,225	-0,067	0,004
-636,853	800,000	-0,069	-0,173
-635,838	-200,000	-0,018	-0,072
-634,824	276,484	-0,048	-0,062
-633,809	-137,117	-0,015	-0,001
-632,795	19,322	-0,155	0,090
-631,780	-66,956	-0,082	-0,023
-630,765	237,359	0,022	-0,026
-629,751	758,714	0,038	0,074
-628,736	33,077	-0,053	0,033
-627,722	-200,000	0,014	-0,043
-626,707	-125,991	-0,043	-0,005
-625,692	-140,158	0,118	0,009
-624,678	75,631	-0,007	-0,005
-623,663	457,316	0,043	-0,069
-622,649	306,446	0,008	-0,011
-621,634	-200,000	0,013	-0,044
-620,619	311,033	0,114	-0,155
-619,605	-72,236	0,073	0,019
-618,590	-135,206	0,078	0,007
-617,576	349,494	-0,037	0,052
-616,561	-200,000	-0,018	-0,139
-615,546	-200,000	0,011	0,090
-614,532	-200,000	-0,020	-0,130
-613,517	293,842	-0,061	-0,081
-612,503	-200,000	-0,002	0,056
-611,488	-59,195	0,072	0,022
-610,474	-128,932	0,069	-0,007
-609,459	34,329	-0,085	-0,053
-608,444	-111,811	0,039	0,006
-607,430	800,000	-0,063	0,166
-606,415	-200,000	-0,008	-0,112
-605,401	113,798	-0,025	0,022
-604,386	-114,538	-0,105	0,014
-603,371	270,835	-0,058	0,074
-602,357	-158,785	0,114	-0,005
-601,342	-112,242	-0,045	0,006
-600,328	-200,000	0,003	-0,026
-599,313	484,640	-0,014	-0,023
-598,298	576,404	-0,120	0,212
-597,284	-200,000	-0,013	0,118
-596,269	21,717	-0,026	-0,015
-595,255	733,241	0,095	0,185
-594,240	56,291	-0,099	-0,069
-593,225	-152,124	-0,074	-0,004
-592,211	-143,468	-0,149	0,010
-591,196	800,000	0,006	-0,014
-590,182	197,440	0,022	0,025
-589,167	-200,000	-0,000	0,027
-588,152	43,345	-0,017	0,011
-587,138	59,876	-0,061	-0,043
-586,123	-200,000	-0,009	0,037
-585,109	800,000	0,031	0,073
-584,094	-91,973	0,095	0,019
-583,079	16,170	0,097	0,055
-582,065	56,553	0,081	0,056
-581,050	50,411	0,090	-0,061
-580,036	-50,145	-0,137	-0,046
-579,021	36,244	-0,113	-0,071
-578,006	-146,223	0,062	-0,004
-576,992	251,500	0,080	-0,099
-575,977	630,091	-0,033	0,060
-574,963	-33,437	-0,082	0,032
-573,948	-61,746	-0,112	0,033
-572,934	77,941	-0,117	-0,090
-571,919	-140,160	-0,075	0,006
-570,904	-179,734	-0,144	-0,002
-569,890	494,282	-0,012	-0,020
-568,875	-200,000	-0,004	0,154
-567,861	284,280	0,144	0,186
-566,846	318,702	-0,134	0,183
-565,831	-150,189	0,243	-0,013
-564,817	-14,875	-0,084	-0,038
-563,802	65,917	-0,112	-0,082
-562,788	-133,829	0,151	-0,013
-561,773	129,038	0,023	0,021
-560,758	192,957	-0,012	0,013
-559,744	-46,206	0,167	0,059
-558,729	28,898	-0,047	-0,028
-557,715	-173,793	-0,069	0,001
-556,700	70,820	-0,060	0,045
-555,685	-200,000	-0,041	-0,148
-554,671	73,046	0,092	0,069
-553,656	31,609	0,057	-0,035
-552,642	35,817	0,099	-0,062
-551,627	24,852	-0,039	-0,023
-550,612	-200,000	-0,003	-0,084
-549,598	153,910	-0,049	0,048
-548,583	800,000	-0,032	-0,084
-547,569	584,942	-0,050	-0,090
-546,554	203,568	-0,136	0,152
-545,539	-21,318	0,026	0,011
-544,525	-83,494	0,116	0,027
-543,510	39,636	0,094	0,061
-542,496	800,000	-0,066	0,163
-541,481	-81,696	-0,069	0,016
-540,466	-49,751	0,065	-0,022
-539,452	76,398	0,070	0,053
-538,437	449,059	0,045	0,072
-537,423	-60,334	0,097	0,030
-536,408	675,305	0,027	-0,050
-535,393	791,827	-0,019	-0,037
-534,379	-16,241	-0,024	-0,011
-533,364	93,922	-0,061	-0,050
-532,350	-200,000	0,013	-0,059
-531,335	-124,941	-0,072	0,008
-530,321	800,000	0,064	0,170
-529,306	69,175	0,070	-0,052
-528,291	282,141	-0,024	0,031
-527,277	-25,574	-0,086	-0,036
-526,262	-200,000	0,004	0,018
-525,248	234,420	0,038	0,045
-524,233	-11,921	-0,041	-0,019
-523,218	-200,000	-0,029	0,145
-522,204	800,000	0,047	0,125
-521,189	-200,000	0,001	-0,025
-520,175	-200,000	-0,035	-0,119
-519,160	-200,000	-0,020	-0,065
-518,145	-174,051	-0,041	0,001
-517,131	-15,389	0,066	-0,030
-516,116	-200,000	0,049	0,162
-515,102	800,000	-0,010	0,024
-514,087	-200,000	0,000	-0,056
-513,072	16,163	-0,077	-0,044
-512,058	365,501	-0,082	-0,119
-511,043	11,127	-0,034	0,019
-510,029	0,952	0,192	-0,098
-509,014	185,718	0,092	-0,098
-507,999	-200,000	-0,010	-0,060
-506,985	800,000	-0,073	-0,183
-505,970	369,152	-0,117	-0,170
-504,956	605,192	-0,007	0,013
-503,941	569,435	0,034	0,060
-502,926	679,253	-0,035	0,067
-501,912	-200,000	0,019	-0,085
-500,897	-200,000	-0,035	0,123
-499,883	-73,363	-0,029	-0,008
-498,868	139,490	0,027	-0,026
-497,853	-138,728	-0,111	0,009
-496,839	521,387	0,106	0,179
-495,824	-99,464	0,062	0,011
-494,810	-200,000	0,037	0,225
-493,795	-200,000	0,001	0,025
-492,781	152,594	-0,033	-0,033
-491,766	91,463	0,075	0,060
-490,751	-200,000	-0,021	-0,066
-489,737	36,909	0,079	-0,050
-488,722	383,305	0,048	-0,072
-487,708	-200,000	0,010	-0,115
-486,693	31,032	0,126	0,077
-485,678	-200,000	0,015	-0,141
-484,664	302,508	-0,056	-0,075
-483,649	-200,000	0,019	-0,182
-482,635	-200,000	-0,008	-0,128
-481,620	-50,282	0,169	0,057
-480,605	-4,682	0,125	0,061
-479,591	107,716	-0,008	-0,007
-478,576	-76,398	0,054	-0,013
-477,562	-200,000	0,006	-0,030
-476,547	-99,939	-0,123	-0,022
-475,532	-200,000	0,022	-0,107
-474,518	103,079	0,137	0,115
-473,503	101,687	-0,043	-0,036
-472,489	128,218	0,119	0,108
-471,474	-187,421	0,107	-0,001
-470,459	312,859	-0,039	0,052
-469,445	9,138	-0,066	-0,036
-468,430	70,716	-0,091	0,067
-467,416	318,604	0,038	-0,052
-466,401	-37,902	-0,160	0,061
-465,386	-200,000	0,027	-0,126
-464,372	126,284	0,124	0,113
-463,357	-200,000	-0,010	-0,038
-462,343	-200,000	0,002	-0,081
-461,328	-131,691	-0,124	-0,011
-460,313	426,896	-0,076	0,118
-459,299	49,363	0,027	0,018
-458,284	800,000	-0,043	0,120
-457,270	-18,089	0,012	-0,005
-456,255	16,544	0,135	0,076
-455,241	-169,601	0,050	0,001
-454,226	96,613	0,070	-0,058
-453,211	153,740	0,070	0,069
-452,197	-200,000	-0,010	0,163
-451,182	800,000	0,025	0,075
-450,168	-200,000	0,013	-0,082
-449,153	800,000	-0,038	0,082
-448,138	-168,556	-0,062	0,002
-447,124	-100,265	0,076	-0,013
-446,109	-62,994	-0,104	0,031
-445,095	-58,251	0,041	-0,013
-444,080	-200,000	0,024	0,099
-443,065	319,327	-0,024	0,033
-442,051	-118,005	0,065	0,008
-441,036	-14,542	-0,150	-0,069
-440,022	-69,139	-0,074	0,020
-439,007	4,266	-0,054	0,028
-437,992	-200,000	-0,008	-0,038
-436,978	163,278	0,038	0,038
-435,963	-200,000	-0,012	0,079
-434,949	99,850	-0,031	0,026
-433,934	-23,779	-0,082	-0,035
-432,919	800,000	-0,044	0,103
-431,905	55,050	-0,034	0,023
-430,890	-188,059	-0,124	-0,001
-429,876	-154,077	0,026	-0,001
-428,861	-127,309	0,051	-0,005
-427,846	-200,000	-0,004	0,040
-426,832	-200,000	0,013	-0,045
-425,817	423,869	0,104	-0,161
-424,803	-111,344	-0,167	0,024
-423,788	11,983	0,114	0,062
-422,773	123,086	0,131	0,117
-421,759	-200,000	0,034	0,000
-420,744	-152,815	0,071	0,004
-419,730	92,614	-0,072	-0,058
-418,715	-83,931	0,080	-0,018
-417,701	-70,153	-0,097	0,026
-416,686	-200,000	-0,001	0,070
-415,671	800,000	-0,046	0,117
-414,657	800,000	-0,044	0,109
-413,642	12,053	0,118	-0,065
-412,628	-200,000	-0,009	-0,055
-411,613	-200,000	-0,006	-0,043
-410,598	175,433	0,102	0,105
-409,584	-200,000	-0,015	0,075
-408,569	130,396	-0,072	0,066
-407,555	-7,740	0,086	0,041
-406,540	-96,461	-0,116	-0,022
-405,525	-77,911	-0,069	-0,017
-404,511	-200,000	-0,032	0,110
-403,496	10,760	-0,055	-0,030
-402,482	321,867	-0,057	-0,077
-401,467	-49,374	-0,057	-0,019
-400,452	800,000	0,078	0,192
-399,438	-200,000	-0,075	-0,271
-398,423	102,178	-0,046	0,038
-397,409	-114,880	-0,109	-0,015
-396,394	285,444	0,065	-0,084
-395,379	-134,300	-0,148	-0,013
-394,365	-200,000	0,008	0,127
-393,350	-200,000	-0,020	0,105
-392,336	-80,404	0,072	0,017
-391,321	-200,000	0,003	0,011
-390,306	-30,055	-0,114	0,046
-389,292	800,000	0,027	-0,064
-388,277	800,000	-0,044	-0,129
-387,263	800,000	0,026	0,056
-386,248	222,231	0,077	0,089
-385,233	178,232	0,101	0,105
-384,219	-86,737	0,270	-0,058
-383,204	144,317	-0,094	-0,090
-382,190	374,541	-0,054	0,079
-381,175	800,000	-0,032	-0,093
-380,160	-200,000	-0,021	-0,126
-379,146	14,853	0,101	-0,057
-378,131	-75,046	-0,130	-0,033
-377,117	-48,520	-0,097	0,033
-376,102	126,595	-0,063	-0,057
-375,088	-200,000	-0,008	-0,031
-374,073	116,277	-0,077	0,067
-373,058	-200,000	-0,035	-0,137
-372,044	-91,259	0,124	0,025
-371,029	800,000	0,025	0,056
-370,015	-200,000	0,012	0,069
-369,000	-200,000	-0,001	-0,021
-367,985	8,023	0,105	0,056
-366,971	262,630	0,061	0,075
-365,956	197,305	0,052	0,056
-364,942	-12,807	0,026	0,012
-363,927	-200,000	-0,005	0,073
-362,912	2,081	0,061	-0,031
-361,898	338,516	0,102	-0,142
-360,883	55,011	-0,066	-0,045
-359,869	329,663	-0,048	0,066
-358,854	107,478	-0,063	-0,053
-357,839	-112,254	0,038	0,005
-356,825	-66,280	0,135	0,038
-355,810	-118,955	0,025	0,003
-354,796	719,611	0,045	0,086
-353,781	-200,000	-0,002	0,022
-352,766	-61,672	-0,127	0,038
-351,752	-200,000	0,015	-0,131
-350,737	-200,000	-0,008	0,034
-349,723	59,373	-0,126	0,088
-348,708	-80,506	-0,044	0,010
-347,693	98,976	0,079	0,065
-346,679	-104,442	0,027	0,004
-345,664	800,000	-0,029	-0,071
-344,650	-199,656	0,104	0,000
-343,635	800,000	-0,026	-0,059
-342,620	421,159	0,060	0,092
-341,606	189,014	0,027	0,029
-340,591	185,669	-0,112	0,118
-339,577	800,000	-0,039	-0,080
-338,562	-1,801	-0,066	0,033
-337,548	509,652	0,034	-0,057
-336,533	92,386	0,206	0,165
-335,518	800,000	-0,015	0,039
-334,504	223,935	0,094	0,109
-333,489	800,000	-0,031	0,071
-332,475	-200,000	-0,001	-0,124
-331,460	-77,355	0,042	0,010
-330,445	564,848	0,013	-0,022
-329,431	-200,000	0,016	0,097
-328,416	-57,739	0,046	-0,014
-327,402	800,000	0,018	0,054
-326,387	254,101	0,107	0,131
-325,372	217,551	-0,089	-0,101
-324,358	-46,681	0,052	-0,018
-323,343	49,648	-0,042	-0,028
-322,329	800,000	-0,052	-0,110
-321,314	-200,000	-0,001	-0,034
-320,299	-54,286	-0,039	-0,013
-319,285	671,212	-0,110	0,204
-318,270	800,000	0,046	-0,144
-317,256	-174,215	-0,111	0,002
-316,241	623,144	0,021	-0,038
-315,226	-68,623	0,123	-0,034
-314,212	-200,000	-0,001	0,016
-313,197	-200,000	0,027	0,103
-312,183	-79,448	-0,084	-0,020
-311,168	-200,000	-0,040	-0,204
-310,153	132,928	0,061	-0,056
-309,139	18,263	0,050	0,028
-308,124	800,000	-0,019	-0,042
-307,110	51,845	0,132	0,090
-306,095	298,834	0,053	0,070
-305,080	-110,942	0,058	-0,008
-304,066	-170,064	0,132	0,003
-303,051	-157,226	-0,047	-0,002
-302,037	83,921	-0,020	-0,015
-301,022	-200,000	-0,005	-0,035
-300,008	142,010	-0,018	0,017
-298,993	-22,270	-0,010	0,004
-297,978	81,202	-0,079	0,061
-296,964	-50,595	-0,047	0,016
-295,949	-35,737	0,086	-0,033
-294,935	800,000	0,084	0,172
-293,920	147,805	-0,052	0,050
-292,905	-200,000	-0,008	0,071
-291,891	-46,821	0,085	0,030
-290,876	-200,000	-0,007	0,100
-289,862	-166,784	-0,070	-0,002
-288,847	-158,833	-0,163	-0,007
-287,832	372,043	-0,024	-0,035
-286,818	415,878	-0,019	0,030
-285,803	147,697	0,054	0,052
-284,789	82,057	0,028	-0,021
-283,774	544,975	-0,028	-0,047
-282,759	800,000	0,030	0,078
-281,745	-9,487	-0,121	-0,057
-280,730	688,772	-0,043	0,080
-279,716	72,298	0,037	0,027
-278,701	-200,000	-0,008	-0,068
-277,686	200,428	0,037	-0,040
-276,672	149,537	-0,100	0,096
-275,657	-149,883	0,214	0,012
-274,643	30,629	-0,083	-0,050
-273,628	-68,133	-0,056	-0,015
-272,613	135,716	0,076	-0,071
-271,599	435,634	0,062	-0,096
-270,584	-11,262	0,013	0,006
-269,570	-200,000	-0,000	0,059
-268,555	-200,000	-0,010	-0,106
-267,540	139,566	-0,145	-0,136
-266,526	591,893	0,113	-0,199
-265,511	400,224	0,087	-0,131
-264,497	187,362	0,032	0,034
-263,482	9,977	0,131	-0,071
-262,467	-200,000	0,023	-0,133
-261,453	800,000	0,115	-0,287
-260,438	-200,000	0,008	-0,053
-259,424	170,753	-0,049	0,050
-258,409	-200,000	-0,030	-0,103
-257,395	-200,000	-0,009	0,046
-256,380	800,000	-0,024	-0,074
-255,365	800,000	0,031	0,076
-254,351	-200,000	0,014	0,075
-253,336	276,439	0,038	-0,048
-252,322	-116,498	-0,126	-0,016
-251,307	81,942	-0,074	0,057
-250,292	435,112	0,015	0,023
-249,278	211,825	0,054	0,061
-248,263	109,684	-0,099	0,084
-247,249	184,637	-0,018	0,019
-246,234	142,647	-0,062	0,059
-245,219	-188,318	-0,032	-0,000
-244,205	-52,625	-0,199	0,065
-243,190	800,000	-0,021	0,048
-242,176	800,000	-0,033	0,072
-241,161	-104,963	-0,116	0,019
-240,146	612,476	-0,020	-0,035
-239,132	800,000	-0,038	0,108
-238,117	-200,000	-0,010	-0,136
-237,103	-195,457	-0,030	0,000
-236,088	-148,799	0,129	0,007
-235,073	-200,000	-0,020	0,128
-234,059	-51,118	0,065	0,022
-233,044	424,127	0,081	-0,123
-232,030	-77,390	-0,046	-0,011
-231,015	-75,032	-0,123	-0,031
-230,000	65,197	-0,050	-0,036
-228,986	383,950	0,059	-0,087
-227,971	-200,000	-0,006	0,034
-226,957	13,570	0,112	0,062
-225,942	26,094	0,045	0,026
-224,927	800,000	0,039	-0,076
-223,913	482,100	-0,125	-0,203
-222,898	104,136	-0,024	0,020
-221,884	-200,000	0,022	0,085
-220,869	-59,795	-0,087	-0,026
-219,855	68,440	0,127	0,092
-218,840	57,229	-0,070	-0,048
-217,825	473,451	0,081	-0,131
-216,811	-144,342	-0,105	0,007
-215,796	-99,603	-0,098	0,017
-214,782	127,427	0,050	0,045
-213,767	-200,000	0,002	0,051
-212,752	126,432	0,115	0,103
-211,738	23,469	0,116	0,067
-210,723	47,687	0,153	0,101
-209,709	-58,749	-0,229	-0,070
-208,694	800,000	-0,055	-0,139
-207,679	800,000	-0,047	-0,106
-206,665	800,000	0,063	-0,126
-205,650	90,983	0,075	0,059
-204,636	-33,638	0,128	0,050
-203,621	75,099	-0,074	-0,056
-202,606	357,130	0,012	-0,017
-201,592	-129,010	-0,070	-0,007
-200,577	385,818	0,057	-0,083
-199,563	49,016	0,060	-0,040
-198,548	70,533	0,171	0,125
-197,533	800,000	0,025	0,070
-196,519	-11,682	-0,112	0,052
-195,504	400,395	0,065	0,097
-194,490	-57,014	0,073	-0,023
-193,475	-181,223	-0,112	-0,002
-192,460	117,729	-0,069	-0,060
-191,446	168,057	0,066	-0,066
-190,431	16,507	-0,056	-0,031
-189,417	-200,000	0,007	0,069
-188,402	84,544	-0,052	-0,040
-187,387	800,000	0,041	-0,126
-186,373	478,871	-0,075	-0,121
-185,358	136,792	0,158	-0,146
-184,344	45,518	0,078	0,051
-183,329	170,892	0,067	0,068
-182,315	-79,285	-0,085	0,020
-181,300	150,489	0,022	0,021
-180,285	489,871	0,039	-0,064
-179,271	-200,000	-0,018	-0,176
-178,256	315,001	-0,029	-0,039
-177,242	20,539	0,168	-0,096
-176,227	800,000	0,035	-0,080
-175,212	-200,000	-0,005	-0,016
-174,198	138,821	-0,113	0,106
-173,183	-200,000	0,019	-0,078
-172,169	-107,093	-0,082	0,013
-171,154	403,326	-0,060	0,090
-170,139	-71,712	0,165	0,043
-169,125	-200,000	0,024	0,189
-168,110	-72,131	0,171	0,045
-167,096	800,000	-0,064	-0,132
-166,081	-130,294	-0,058	-0,005
-165,066	800,000	-0,060	-0,144
-164,052	598,417	-0,095	-0,168
-163,037	-200,000	0,020	-0,107
-162,023	-200,000	-0,031	0,196
-161,008	-64,884	0,139	0,039
-159,993	382,385	0,066	-0,096
-158,979	800,000	-0,035	0,104
-157,964	14,881	-0,131	-0,072
-156,950	-200,000	-0,018	-0,123
-155,935	437,426	-0,030	0,047
-154,920	-72,962	0,048	0,012
-153,906	800,000	0,026	0,061
-152,891	-25,407	0,071	-0,029
-151,877	-200,000	0,004	0,110
-150,862	160,087	-0,104	0,103
-149,847	800,000	0,032	0,079
-148,833	-200,000	0,002	-0,142
-147,818	37,103	0,104	0,065
-146,804	-66,218	0,151	0,042
-145,789	800,000	0,029	0,089
-144,775	63,818	-0,067	-0,048
-143,760	-2,858	-0,026	-0,013
-142,745	800,000	0,017	-0,049
-141,731	-127,739	-0,027	-0,003
-140,716	800,000	0,021	0,044
-139,702	18,620	-0,041	-0,023
-138,687	-200,000	0,011	-0,134
-137,672	-184,004	-0,041	0,000
-136,658	74,683	-0,171	-0,127
-135,643	46,330	-0,083	-0,054
-134,629	186,485	0,026	-0,027
-133,614	239,996	0,039	-0,047
-132,599	-108,104	-0,071	-0,011
-131,585	-70,707	-0,083	0,022
-130,570	85,867	0,077	0,060
-129,556	800,000	-0,015	-0,038
-128,541	646,296	-0,067	0,122
-127,526	-200,000	-0,001	-0,011
-126,512	-200,000	0,008	0,084
-125,497	-200,000	-0,004	0,025
-124,483	800,000	0,021	0,053
-123,468	20,990	0,099	-0,056
-122,453	-113,282	-0,173	0,024
-121,439	194,675	0,099	0,106
-120,424	-200,000	0,006	-0,098
-119,410	166,101	0,059	-0,059
-118,395	92,168	0,113	0,090
-117,380	35,569	0,032	-0,020
-116,366	-200,000	0,004	-0,045
-115,351	-200,000	0,001	-0,062
-114,337	-100,211	-0,053	0,009
-113,322	192,284	0,049	0,053
-112,307	11,579	-0,085	-0,046
-111,293	337,072	-0,071	-0,098
-110,278	-7,905	0,161	0,077
-109,264	780,390	0,045	0,087
-108,249	-27,629	-0,144	-0,059
-107,234	102,255	-0,136	-0,112
-106,220	800,000	0,010	0,032
-105,205	-62,260	0,029	0,009
-104,191	-42,664	0,097	-0,035
-103,176	-142,415	-0,169	0,012
-102,162	-200,000	-0,003	0,131
-101,147	146,401	0,087	0,083
-100,132	-15,256	-0,121	0,054
-99,118	-200,000	-0,003	0,066
-98,103	37,509	0,026	-0,016
-97,089	427,756	0,026	-0,040
-96,074	245,223	-0,091	0,108
-95,059	-101,884	-0,103	0,017
-94,045	800,000	0,029	0,073
-93,030	543,854	-0,088	-0,149
-92,016	-22,824	-0,108	0,046
-91,001	-107,622	-0,078	-0,012
-89,986	-18,132	0,127	0,056
-88,972	-200,000	0,015	0,141
-87,957	-63,928	-0,101	0,029
-86,943	-86,972	0,093	-0,020
-85,928	-15,089	-0,173	-0,078
-84,913	-200,000	0,012	0,085
-83,899	-200,000	0,018	-0,079
-82,884	-113,510	-0,097	0,013
-81,870	800,000	0,019	0,037
-80,855	-66,306	-0,104	-0,029
-79,840	146,385	-0,034	0,032
-78,826	800,000	0,037	-0,083
-77,811	-200,000	-0,003	-0,011
-76,797	-200,000	-0,008	-0,041
-75,782	-200,000	0,005	0,088
-74,767	233,185	-0,056	0,065
-73,753	-129,953	-0,055	-0,005
-72,738	644,747	0,113	-0,205
-71,724	-200,000	-0,019	-0,197
-70,709	-101,298	0,018	-0,003
-69,694	48,670	0,043	0,028
-68,680	106,224	-0,050	-0,042
-67,665	-89,764	0,202	-0,041
-66,651	62,024	-0,171	0,120
-65,636	517,753	-0,039	-0,064
-64,622	361,269	-0,104	0,148
-63,607	-23,606	-0,076	0,032
-62,592	138,231	0,068	0,063
-61,578	322,213	0,053	-0,071
-60,563	-17,608	-0,018	0,008
-59,549	-200,000	-0,021	0,067
-58,534	92,873	-2,119	-1,687
-57,519	703,998	-1,014	-1,896
-56,505	-200,000	-0,361	-4,586
-55,490	800,000	0,918	1,803
-54,476	800,000	5,219	11,307
-53,461	-200,000	22,642	347,427
-52,446	800,000	757,592	2292,093
-51,432	533,025	1643,323	2754,745
-50,417	67,895	1642,059	1182,953
-49,403	15,597	1519,656	839,790
-48,388	9,825	1445,600	771,155
-47,373	19,340	1438,436	812,627
-46,359	13,358	1426,829	777,820
-45,344	8,143	1422,755	750,915
-44,330	8,069	1420,960	749,589
-43,315	8,040	1419,236	748,511
-42,300	8,058	1417,301	747,547
-41,286	8,086	1415,987	746,957
-40,271	8,074	1414,926	746,309
-39,257	8,069	1413,686	745,603
-38,242	8,091	1412,595	745,105
-37,227	8,090	1411,579	744,531
-36,213	8,088	1410,083	743,705
-35,198	8,052	1408,847	742,853
-34,184	8,066	1408,126	742,508
-33,169	8,026	1406,769	741,576
-32,154	8,058	1405,863	741,222
-31,140	8,040	1404,571	740,426
-30,125	8,058	1403,330	739,825
-29,111	8,078	1402,115	739,249
-28,096	8,100	1400,831	738,644
-27,082	8,011	1399,845	737,680
-26,067	7,996	1398,647	736,953
-25,052	8,020	1397,588	736,474
-24,038	8,005	1396,820	735,971
-23,023	8,022	1395,862	735,517
-22,009	8,041	1394,741	734,987
-20,994	7,990	1393,777	734,211
-19,979	8,013	1392,713	733,728
-18,965	7,929	1391,832	732,845
-17,950	7,954	1390,743	732,362
-16,936	7,927	1390,166	731,904
-15,921	7,880	1389,042	731,064
-14,906	7,928	1388,165	730,794
-13,892	7,945	1387,043	730,255
-12,877	7,912	1386,390	729,729
-11,863	7,940	1385,526	729,376
-10,848	7,851	1384,862	728,588
-9,833	7,860	1383,712	727,994
-8,819	7,847	1382,849	727,452
-7,804	7,793	1382,255	726,863
-6,790	7,780	1380,929	726,074
-5,775	7,829	1379,914	725,737
-4,760	7,860	1378,985	725,365
-3,746	7,883	1378,007	724,922
-2,731	7,893	1377,014	724,418
-1,717	7,811	1376,492	723,739
-0,702	7,786	1374,631	722,620
0,313	11,755	1284,847	693,396
1,327	27,477	676,587	400,137
2,342	42,668	116,335	74,515
3,356	0,697	16,594	8,341
4,371	-4,471	3,854	1,870
5,386	-11,415	1,390	0,642
6,400	800,000	0,298	0,810
7,415	144,243	-0,119	-0,112
8,429	-66,545	-0,192	-0,053
9,444	-79,417	-0,306	-0,072
10,459	-89,081	-0,293	-0,061
11,473	-84,478	-0,237	-0,052
12,488	-10,713	-0,296	-0,137
13,502	-106,925	-0,401	-0,062
14,517	83,905	-0,162	-0,125
15,531	67,526	-0,359	-0,258
16,546	280,725	-0,219	-0,276
17,561	137,659	-0,308	-0,284
18,575	412,560	-0,148	-0,222
19,590	800,000	-0,192	-0,418
20,604	28,929	-0,254	-0,151
21,619	143,678	-0,351	-0,329
22,634	95,893	-0,409	-0,328
23,648	-47,592	-0,461	-0,157
24,663	-66,563	-0,496	-0,137
25,677	10,924	-0,342	-0,183
26,692	1,833	-0,384	-0,194
27,707	66,935	-0,379	-0,271
28,721	152,879	-0,275	-0,265
29,736	11,738	-0,396	-0,213
30,750	104,035	-0,426	-0,352
31,765	89,739	-0,418	-0,328
32,780	151,968	-0,257	-0,247
33,794	-36,734	-0,375	-0,141
34,809	440,075	-0,204	-0,315
35,823	-31,186	-0,472	-0,186
36,838	152,803	-0,436	-0,419
37,853	53,925	-0,282	-0,190
38,867	38,260	-0,334	-0,208
39,882	33,716	-0,330	-0,201
40,896	33,441	-0,331	-0,201
41,911	21,997	-0,350	-0,200
42,926	152,511	-0,348	-0,334
43,940	-58,732	-0,383	-0,116
44,955	122,405	-0,300	-0,264
45,969	401,795	-0,302	-0,447
46,984	202,344	-0,257	-0,278
47,999	42,080	-0,243	-0,154
49,013	-28,485	-0,310	-0,125
50,028	342,779	-0,203	-0,280
51,042	82,640	-0,384	-0,293
52,057	10,440	-0,491	-0,261
53,071	104,866	-0,252	-0,208
54,086	246,625	-0,210	-0,248
55,101	71,095	-0,307	-0,223
56,115	165,079	-0,152	-0,150
57,130	33,955	-0,271	-0,165
58,144	158,518	-0,332	-0,323
59,159	0,514	-0,512	-0,256
60,174	30,318	-0,548	-0,327
61,188	44,344	-0,381	-0,245
62,203	195,993	-0,227	-0,242
63,217	320,658	-0,200	-0,267
64,232	69,198	-0,254	-0,183
65,247	60,657	-0,318	-0,220
66,261	5,831	-0,445	-0,230
67,276	285,838	-0,228	-0,289
68,290	22,839	-0,334	-0,191
69,305	103,332	-0,406	-0,333
70,320	148,218	-0,288	-0,273
71,334	-20,373	-0,233	-0,100
72,349	82,919	-0,317	-0,241
73,363	-38,054	-0,363	-0,134
74,378	31,676	-0,469	-0,282
75,393	28,077	-0,359	-0,212
76,407	-63,120	-0,326	-0,094
77,422	71,462	-0,185	-0,134
78,436	55,048	-0,138	-0,093
79,451	-128,738	-0,395	0,038
80,466	85,701	-0,287	-0,221
81,480	-18,745	-0,331	-0,144
82,495	-78,891	-0,439	-0,104
83,509	129,877	-0,245	-0,220
84,524	188,083	-0,110	-0,115
85,539	12,756	-0,323	-0,174
86,553	39,582	-0,289	-0,181
87,568	-69,742	-0,291	-0,077
88,582	-52,555	-0,312	-0,100
89,597	220,224	-0,174	-0,195
90,611	-121,204	-0,235	-0,027
91,626	-32,877	-0,255	-0,099
92,641	51,751	-0,183	-0,122
93,655	-43,733	-0,312	-0,109
94,670	209,298	-0,155	-0,170
95,684	77,440	-0,271	-0,201
96,699	-8,484	-0,283	-0,132
97,714	105,266	-0,372	-0,307
98,728	59,401	-0,139	-0,096
99,743	-32,750	-0,247	-0,095
100,757	219,044	-0,206	-0,230
101,772	159,730	-0,218	-0,212
102,787	58,498	-0,231	-0,158
103,801	261,357	-0,230	-0,279
104,816	10,559	-0,220	-0,117
105,830	-69,476	-0,331	-0,088
106,845	223,011	-0,090	-0,102
107,860	280,192	-0,246	-0,308
108,874	-9,951	-0,335	-0,155
109,889	109,812	-0,326	-0,273
110,903	32,147	-0,305	-0,183
111,918	551,147	-0,215	-0,362
112,933	21,519	-0,169	-0,096
113,947	21,525	-0,192	-0,108
114,962	86,592	-0,166	-0,128
115,976	-34,575	-0,177	-0,067
116,991	246,133	-0,256	-0,301
118,006	219,626	-0,277	-0,310
119,020	20,029	-0,216	-0,121
120,035	-63,015	-0,186	-0,053
121,049	-94,545	-0,235	-0,044
122,064	-165,641	-0,272	-0,008
123,079	477,977	-0,126	-0,200
124,093	103,169	-0,214	-0,175
125,108	201,762	-0,278	-0,299
126,122	-124,398	-0,140	0,015
127,137	438,615	-0,145	-0,221
128,151	214,304	-0,162	-0,179
129,166	10,731	-0,158	-0,084
130,181	-63,548	-0,324	-0,092
131,195	14,913	-0,308	-0,168
132,210	-79,841	-0,320	-0,074
133,224	69,954	-0,199	-0,143
134,239	2,685	-0,244	-0,123
135,254	-200,000	-0,060	-0,215
136,268	187,226	-0,129	-0,134
137,283	159,568	-0,208	-0,202
138,297	109,910	-0,188	-0,157
139,312	94,112	-0,252	-0,199
140,327	-33,837	-0,250	-0,096
141,341	69,140	-0,303	-0,216
142,356	55,292	-0,248	-0,166
143,370	191,567	-0,147	-0,154
144,385	321,023	-0,150	-0,200
145,400	276,503	-0,243	-0,301
146,414	-34,046	-0,366	-0,139
147,429	214,854	-0,325	-0,359
148,443	141,974	-0,240	-0,221
149,458	-27,940	-0,204	-0,082
150,473	188,150	-0,206	-0,214
151,487	21,881	-0,343	-0,194
152,502	-98,161	-0,252	-0,045
153,516	13,085	-0,332	-0,178
154,531	134,861	-0,325	-0,294
155,546	-33,166	-0,145	-0,056
156,560	-92,051	-0,280	0,055
157,575	-27,661	-0,302	-0,121
158,589	-102,965	-0,431	-0,070
159,604	214,559	-0,233	-0,256
160,619	151,179	-0,187	-0,177
161,633	208,637	-0,186	-0,202
162,648	156,078	-0,236	-0,226
163,662	179,156	-0,185	-0,188
164,677	-113,366	-0,192	0,026
165,692	-30,675	-0,212	-0,083
166,706	-110,245	-0,292	-0,042
167,721	17,207	-0,270	-0,149
168,735	21,654	-0,220	-0,124
169,750	-99,428	-0,337	-0,058
170,764	0,673	-0,181	-0,090
171,779	-51,874	-0,159	-0,051
172,794	-200,000	-0,028	-0,093
173,808	83,663	-0,140	-0,106
174,823	5,851	-0,261	-0,133
175,837	164,531	-0,188	-0,184
176,852	132,858	-0,214	-0,192
177,867	198,302	-0,182	-0,193
178,881	-22,038	-0,138	0,058
179,896	72,270	-0,214	-0,154
180,910	-20,142	-0,264	-0,112
181,925	-35,964	-0,301	-0,112
182,940	65,103	-0,209	-0,146
183,954	-40,582	-0,288	-0,103
184,969	-93,941	-0,119	0,022
185,983	668,783	-0,086	-0,154
186,998	51,852	-0,246	-0,162
188,013	142,847	-0,099	-0,091
189,027	-4,270	-0,314	-0,150
190,042	204,826	-0,264	-0,284
191,056	-15,606	-0,212	-0,093
192,071	50,538	-0,236	-0,154
193,086	507,123	-0,039	-0,064
194,100	140,826	-0,216	-0,198
195,115	-44,584	-0,183	-0,063
196,129	193,537	-0,089	-0,094
197,144	79,046	-0,282	-0,209
198,159	-33,591	-0,355	-0,135
199,173	-94,326	-0,234	-0,044
200,188	800,000	-0,092	-0,222
201,202	78,068	-0,198	-0,146
202,217	10,560	-0,262	-0,138
203,232	800,000	-0,087	-0,175
204,246	100,425	-0,130	-0,104
205,261	117,794	-0,318	-0,271
206,275	136,875	-0,184	-0,166
207,290	218,086	-0,147	-0,162
208,304	-9,624	-0,261	-0,120
209,319	114,972	-0,079	-0,067
210,334	487,043	-0,128	-0,202
211,348	-116,454	-0,231	-0,029
212,363	40,250	-0,248	-0,154
213,377	-200,000	-0,011	-0,204
214,392	36,335	-0,123	-0,075
215,407	19,088	-0,120	-0,067
216,421	-180,051	-0,202	0,003
217,436	29,214	-0,216	-0,127
218,450	299,607	-0,125	-0,159
219,465	214,422	-0,205	-0,225
220,480	35,151	-0,192	-0,116
221,494	57,773	-0,121	-0,081
222,509	-126,598	-0,230	-0,023
223,523	398,388	-0,170	-0,246
224,538	136,931	-0,107	-0,097
225,553	800,000	-0,099	-0,246
226,567	93,760	-0,198	-0,155
227,582	152,810	-0,054	-0,051
228,596	229,062	-0,075	-0,085
229,611	22,116	-0,122	-0,069
230,626	-131,716	-0,098	0,009
231,640	-76,059	-0,278	-0,067
232,655	30,291	-0,260	-0,153
233,669	23,883	-0,190	-0,108
234,684	668,821	-0,141	-0,252
235,699	123,194	-0,124	-0,107
236,713	117,067	-0,157	-0,133
237,728	-200,000	-0,034	-0,160
238,742	66,974	-0,164	-0,115
239,757	-88,179	-0,257	-0,053
240,772	306,393	-0,169	-0,218
241,786	71,680	-0,176	-0,126
242,801	-25,737	-0,234	-0,095
243,815	51,480	-0,197	-0,129
244,830	89,407	-0,246	-0,189
245,844	123,613	-0,226	-0,196
246,859	82,378	-0,152	-0,114
247,874	436,725	-0,203	-0,305
248,888	251,767	-0,248	-0,292
249,903	56,943	-0,159	-0,107
250,917	356,324	-0,161	-0,222
251,932	-135,148	-0,244	0,020
252,947	171,293	-0,119	-0,118
253,961	22,366	-0,276	-0,155
254,976	668,963	-0,150	-0,269
255,990	80,185	-0,199	-0,148
257,005	-18,125	-0,155	0,066
258,020	0,476	-0,128	-0,063
259,034	-11,596	-0,146	-0,066
260,049	-8,163	-0,104	-0,048
261,063	-21,734	-0,219	-0,091
262,078	800,000	-0,128	-0,276
263,093	108,770	-0,173	-0,143
264,107	-28,790	-0,306	-0,121
265,122	-123,620	-0,128	-0,014
266,136	359,992	-0,091	-0,125
267,151	-72,712	-0,089	-0,022
268,166	-15,657	-0,154	-0,067
269,180	150,403	-0,240	-0,224
270,195	265,024	-0,169	-0,203
271,209	42,529	-0,154	-0,096
272,224	-24,324	-0,157	-0,064
273,239	118,514	-0,140	-0,119
274,253	-98,170	-0,141	-0,025
275,268	20,296	-0,134	-0,075
276,282	576,159	-0,070	-0,118
277,297	41,272	-0,123	0,076
278,312	-200,000	-0,030	-0,170
279,326	-4,446	-0,231	-0,109
280,341	-45,641	-0,119	-0,040
281,355	62,402	-0,061	-0,042
282,370	24,468	-0,159	-0,090
283,384	233,941	-0,208	-0,236
284,399	637,794	-0,113	-0,197
285,414	800,000	-0,123	-0,249
286,428	-17,766	-0,250	-0,108
287,443	-90,995	-0,138	-0,027
288,457	132,735	-0,070	-0,062
289,472	273,808	-0,122	-0,149
290,487	-23,089	-0,244	-0,101
291,501	93,784	-0,201	-0,157
292,516	800,000	-0,056	-0,130
293,530	-200,000	-0,047	-0,206
294,545	165,138	-0,156	-0,151
295,560	-16,119	-0,214	-0,093
296,574	-200,000	-0,018	-0,123
297,589	152,187	-0,127	-0,119
298,603	2,784	-0,196	-0,097
299,618	-200,000	-0,049	-0,206
300,633	54,607	-0,164	-0,108
301,647	-20,511	-0,064	-0,027
302,662	-200,000	0,000	-0,097
303,676	229,464	-0,166	-0,187
304,691	-2,044	-0,229	-0,110
305,706	-72,705	-0,134	-0,034
306,720	-57,277	-0,033	0,010
307,735	-200,000	-0,014	-0,140
308,749	-200,000	-0,028	-0,129
309,764	-200,000	-0,010	-0,058
310,779	83,229	-0,150	-0,112
311,793	-121,370	-0,155	0,017
312,808	-167,537	-0,308	-0,008
313,822	-182,521	-0,138	0,002
314,837	-144,086	-0,124	-0,008
315,852	117,840	-0,169	-0,142
316,866	-20,219	-0,087	-0,037
317,881	-200,000	-0,000	-0,015
318,895	-74,363	-0,156	0,038
319,910	-50,288	-0,182	-0,059
320,925	-5,641	-0,199	-0,093
321,939	279,820	-0,095	-0,116
322,954	-60,333	-0,107	0,031
323,968	24,839	-0,118	-0,067
324,983	251,094	-0,078	-0,091
325,997	7,151	-0,224	-0,114
327,012	132,620	-0,118	-0,104
328,027	12,300	-0,177	-0,093
329,041	-22,656	-0,172	-0,071
330,056	-100,805	-0,075	-0,012
331,070	313,394	-0,062	-0,080
332,085	-6,175	-0,122	-0,057
333,100	-17,964	-0,188	-0,080
334,114	-36,350	-0,229	-0,084
335,129	20,804	-0,192	-0,106
336,143	557,097	-0,125	-0,207
337,158	0,640	-0,086	-0,042
338,173	500,355	-0,051	-0,081
339,187	800,000	-0,068	-0,167
340,202	164,875	-0,055	-0,053
341,216	-200,000	-0,033	-0,128
342,231	-86,572	-0,185	-0,038
343,246	614,490	-0,046	-0,080
344,260	-121,908	-0,040	0,005
345,275	-22,330	-0,316	-0,130
346,289	36,504	-0,117	0,070
347,304	401,653	-0,126	-0,182
348,319	147,253	-0,146	-0,134
349,333	355,181	-0,170	-0,231
350,348	282,867	-0,101	-0,124
351,362	26,364	-0,113	-0,065
352,377	162,181	-0,071	0,068
353,392	32,154	-0,106	-0,062
354,406	89,837	-0,070	-0,053
355,421	207,334	1311,666	1399,994
356,435	159,492	1471,947	1400,432
