DTS Sentinel unit serial number:	SN410029Multiplexer serial number:	ORYXHardware model number:	OX2-SRSoftware version number:	ORYX F/W v4,00 Oryx Data Collector v3.7.2.0data status	okinstallation	B3 Nyhavnadifferential loss correction	single-endedforward channel	channel 1reverse channel	N/Adate	2023/12/02time	05:27:30forward acquisition time	300,00reverse acquisition time	0,00gamma	499,1914k internal	0,3194k external	0,3194temperature offset calibration	1,0000default loss term (dB/km)	0,3820temperature slope calibration	1,0000multiplexer offset coefficient	1,0000multiplexer slope coefficient	1,0000fibre end	0,00T internal ref (°C)	16,25T ext. ref 1 (°C)	1,00T ext. ref 2 (°C)	0,99length (m)	temperature (°C)	Stokes	anti-Stokes-744,400	800,000	-0,165	-0,408
-743,385	-200,000	-0,012	0,202
-742,371	800,000	-0,185	-0,382
-741,356	-200,000	-0,007	0,456
-740,342	205,606	-0,183	-0,208
-739,327	-200,000	-0,112	0,365
-738,312	202,136	-0,223	-0,251
-737,298	-200,000	-0,009	0,252
-736,283	260,918	-0,238	-0,300
-735,269	-200,000	0,074	0,277
-734,254	42,645	-0,240	-0,159
-733,239	282,167	-0,097	0,127
-732,225	417,770	-0,066	-0,104
-731,210	70,235	0,202	0,152
-730,196	800,000	0,067	-0,207
-729,181	44,718	-0,066	-0,044
-728,167	29,416	0,074	0,046
-727,152	-106,220	-0,134	-0,022
-726,137	800,000	0,079	-0,193
-725,123	800,000	-0,039	0,099
-724,108	432,884	-0,100	-0,159
-723,094	-35,778	-0,065	-0,026
-722,079	-42,781	-0,068	-0,025
-721,064	398,024	0,044	-0,067
-720,050	800,000	-0,051	0,128
-719,035	800,000	-0,013	0,039
-718,021	567,557	0,008	0,015
-717,006	132,699	-0,175	-0,164
-715,991	155,277	-0,165	-0,165
-714,977	-200,000	-0,004	-0,080
-713,962	-85,696	-0,079	0,018
-712,948	-134,427	-0,110	-0,010
-711,933	-135,662	-0,043	0,004
-710,918	-200,000	-0,038	-0,191
-709,904	-63,442	-0,211	-0,063
-708,889	341,952	-0,096	-0,137
-707,875	136,770	-0,066	-0,063
-706,860	-200,000	-0,036	-0,149
-705,845	-200,000	0,025	0,084
-704,831	21,304	0,039	0,023
-703,816	-200,000	-0,023	-0,074
-702,802	190,086	-0,059	0,064
-701,787	-200,000	-0,000	-0,057
-700,772	221,049	0,085	-0,100
-699,758	-190,797	-0,087	-0,001
-698,743	800,000	-0,030	0,070
-697,729	-35,253	0,091	-0,036
-696,714	491,764	-0,068	0,114
-695,699	-138,917	0,035	-0,003
-694,685	800,000	0,073	-0,206
-693,670	-200,000	-0,015	-0,065
-692,656	-85,749	0,074	-0,017
-691,641	800,000	0,046	0,106
-690,627	359,705	0,059	0,086
-689,612	-11,054	0,116	0,056
-688,597	-200,000	-0,025	0,083
-687,583	-200,000	0,008	-0,174
-686,568	-86,141	-0,119	-0,026
-685,554	-200,000	0,024	0,120
-684,539	-142,159	-0,101	0,007
-683,524	-147,346	0,075	-0,005
-682,510	126,566	-0,094	0,087
-681,495	-200,000	-0,025	-0,127
-680,481	743,856	-0,036	-0,070
-679,466	799,297	-0,083	-0,168
-678,451	99,188	0,013	-0,011
-677,437	440,632	-0,017	-0,026
-676,422	165,952	-0,069	0,071
-675,408	-37,866	-0,097	-0,037
-674,393	90,200	0,021	-0,017
-673,378	81,281	-0,036	0,028
-672,364	-113,183	-0,140	0,020
-671,349	-53,538	-0,130	0,043
-670,335	107,672	0,098	-0,085
-669,320	15,817	0,056	-0,032
-668,305	800,000	-0,079	0,164
-667,291	121,981	0,101	-0,092
-666,276	228,612	0,077	0,091
-665,262	800,000	-0,012	0,036
-664,247	-160,629	-0,103	0,004
-663,232	193,822	-0,044	-0,048
-662,218	800,000	0,020	0,051
-661,203	800,000	-0,041	0,099
-660,189	-35,840	0,088	0,034
-659,174	-29,156	-0,099	0,041
-658,159	-200,000	0,018	-0,086
-657,145	49,990	-0,039	0,026
-656,130	40,432	-0,041	0,027
-655,116	267,864	0,081	0,103
-654,101	-200,000	0,042	-0,139
-653,086	800,000	-0,058	-0,123
-652,072	-47,138	0,009	0,003
-651,057	-200,000	-0,016	-0,066
-650,043	80,408	-0,106	-0,083
-649,028	687,163	-0,057	0,108
-648,014	374,361	0,052	0,077
-646,999	34,496	-0,100	-0,063
-645,984	-41,542	0,081	0,030
-644,970	762,083	-0,021	-0,041
-643,955	41,042	-0,006	0,004
-642,941	-200,000	0,003	-0,016
-641,926	49,434	-0,154	-0,105
-640,911	-86,622	0,140	-0,031
-639,897	-102,438	-0,104	0,018
-638,882	392,597	0,038	-0,057
-637,868	-25,514	-0,109	0,047
-636,853	-87,767	-0,080	0,017
-635,838	-16,825	0,077	-0,035
-634,824	-122,638	-0,079	0,009
-633,809	-52,407	0,102	0,034
-632,795	-58,532	0,076	-0,024
-631,780	32,419	-0,164	-0,102
-630,765	248,942	0,052	0,064
-629,751	-190,457	-0,068	-0,001
-628,736	196,974	0,118	0,131
-627,722	-200,000	0,005	-0,113
-626,707	-122,050	-0,113	-0,013
-625,692	-200,000	-0,020	0,086
-624,678	-56,721	0,162	0,052
-623,663	56,279	0,047	0,033
-622,649	-200,000	-0,011	-0,054
-621,634	273,668	0,048	-0,062
-620,619	-200,000	-0,019	-0,107
-619,605	-200,000	0,005	0,022
-618,590	4,726	-0,083	-0,044
-617,576	-200,000	-0,003	0,075
-616,561	344,278	0,063	0,091
-615,546	75,094	0,016	0,012
-614,532	167,023	-0,097	-0,100
-613,517	-200,000	-0,021	-0,119
-612,503	41,075	0,093	0,061
-611,488	243,997	0,072	0,088
-610,474	-200,000	0,032	0,142
-609,459	34,177	0,135	-0,085
-608,444	-96,778	-0,180	-0,034
-607,430	800,000	0,005	-0,011
-606,415	-200,000	-0,026	-0,094
-605,401	-200,000	-0,015	0,098
-604,386	433,816	0,080	0,126
-603,371	800,000	-0,029	-0,081
-602,357	-99,744	0,086	-0,015
-601,342	-114,087	-0,166	0,023
-600,328	-200,000	0,003	-0,042
-599,313	56,251	0,033	-0,024
-598,298	800,000	0,035	0,111
-597,284	-114,057	-0,089	-0,012
-596,269	192,102	-0,072	-0,079
-595,255	143,961	0,067	0,065
-594,240	156,688	0,063	-0,063
-593,225	152,747	0,043	0,043
-592,211	477,304	-0,055	-0,090
-591,196	-45,368	-0,014	-0,005
-590,182	132,937	0,116	0,109
-589,167	364,741	0,111	-0,162
-588,152	73,060	0,070	0,053
-587,138	66,769	0,020	0,014
-586,123	800,000	-0,057	0,124
-585,109	-200,000	-0,005	-0,037
-584,094	-66,412	0,074	-0,021
-583,079	-200,000	0,016	0,070
-582,065	23,934	-0,084	0,050
-581,050	-200,000	0,003	-0,014
-580,036	-68,468	0,130	0,036
-579,021	447,144	-0,056	-0,090
-578,006	-85,257	-0,084	-0,019
-576,992	-200,000	-0,003	0,011
-575,977	800,000	-0,049	-0,115
-574,963	-200,000	0,002	-0,037
-573,948	157,018	0,057	0,058
-572,934	-58,622	-0,079	-0,025
-571,919	235,676	-0,041	-0,050
-570,904	-181,561	-0,143	0,002
-569,890	6,003	-0,092	0,049
-568,875	35,636	-0,021	0,014
-567,861	800,000	-0,028	-0,072
-566,846	-113,972	-0,082	0,011
-565,831	-200,000	0,004	-0,073
-564,817	-6,575	-0,140	-0,069
-563,802	-73,603	-0,093	-0,024
-562,788	-138,618	0,073	-0,006
-561,773	-12,078	-0,126	-0,060
-560,758	424,374	0,035	-0,055
-559,744	18,806	-0,070	0,040
-558,729	358,870	-0,068	-0,099
-557,715	-6,452	-0,057	-0,028
-556,700	10,385	-0,063	-0,035
-555,685	-70,523	-0,145	0,039
-554,671	-13,212	-0,144	0,067
-553,656	404,135	0,079	0,121
-552,642	-120,193	0,132	0,016
-551,627	-104,748	-0,135	-0,022
-550,612	800,000	0,041	-0,099
-549,598	-200,000	0,022	-0,194
-548,583	-133,745	-0,097	0,009
-547,569	-114,087	-0,108	-0,015
-546,554	-22,904	0,109	0,047
-545,539	-157,789	0,174	-0,007
-544,525	166,106	-0,039	0,040
-543,510	800,000	-0,040	0,125
-542,496	146,769	-0,096	-0,093
-541,481	204,765	0,037	-0,041
-540,466	-200,000	-0,002	-0,044
-539,452	-200,000	-0,003	-0,052
-538,437	172,757	-0,087	0,091
-537,423	18,280	0,074	0,043
-536,408	-57,767	-0,053	-0,017
-535,393	-200,000	-0,003	-0,017
-534,379	200,257	0,055	-0,061
-533,364	386,264	0,099	-0,149
-532,350	-21,485	0,060	-0,027
-531,335	480,008	-0,106	-0,175
-530,321	800,000	-0,048	-0,099
-529,306	286,576	0,079	-0,103
-528,291	800,000	-0,044	-0,095
-527,277	205,816	-0,124	-0,140
-526,262	70,691	-0,009	0,007
-525,248	800,000	-0,016	-0,039
-524,233	-45,554	0,043	0,015
-523,218	-200,000	0,017	-0,097
-522,204	800,000	-0,029	0,068
-521,189	800,000	0,053	0,118
-520,175	-200,000	0,005	-0,053
-519,160	-26,403	-0,104	-0,044
-518,145	106,689	0,073	-0,062
-517,131	604,575	0,054	0,097
-516,116	-200,000	-0,014	0,168
-515,102	-200,000	-0,006	-0,065
-514,087	-200,000	0,004	0,045
-513,072	114,367	-0,063	-0,055
-512,058	-200,000	0,013	0,082
-511,043	6,130	0,062	0,033
-510,029	53,134	0,128	0,088
-509,014	545,057	-0,074	0,129
-507,999	-98,977	-0,074	-0,013
-506,985	757,405	0,091	-0,179
-505,970	55,828	0,099	-0,070
-504,956	719,921	-0,071	-0,137
-503,941	458,202	-0,024	0,038
-502,926	-119,853	0,062	-0,008
-501,912	-16,397	-0,094	0,043
-500,897	-200,000	-0,006	0,167
-499,883	530,993	-0,005	0,009
-498,868	393,831	-0,034	-0,051
-497,853	-200,000	0,023	0,114
-496,839	89,585	-0,195	0,157
-495,824	423,294	0,069	0,107
-494,810	-86,159	0,044	0,010
-493,795	-200,000	0,018	0,070
-492,781	21,364	0,020	-0,012
-491,766	-46,971	0,058	0,020
-490,751	239,150	0,119	-0,143
-489,737	-168,138	0,086	-0,002
-488,722	-58,495	0,092	-0,029
-487,708	137,656	-0,018	-0,017
-486,693	-200,000	0,008	0,047
-485,678	165,669	-0,030	0,031
-484,664	72,848	0,096	0,072
-483,649	800,000	-0,037	-0,103
-482,635	-154,908	-0,021	-0,001
-481,620	2,267	0,193	0,100
-480,605	800,000	-0,048	0,120
-479,591	800,000	0,021	0,055
-478,576	-142,627	0,096	-0,007
-477,562	-200,000	0,017	-0,090
-476,547	800,000	0,002	-0,003
-475,532	131,170	0,104	-0,097
-474,518	-79,289	0,036	0,009
-473,503	-136,608	0,058	0,005
-472,489	-41,357	-0,017	-0,006
-471,474	-200,000	-0,010	0,061
-470,459	127,259	0,040	-0,036
-469,445	-20,386	0,059	0,026
-468,430	800,000	-0,031	0,083
-467,416	345,928	0,003	-0,004
-466,401	800,000	0,027	-0,056
-465,386	-200,000	0,010	-0,109
-464,372	331,602	-0,101	-0,140
-463,357	800,000	-0,063	-0,135
-462,343	20,357	0,035	-0,021
-461,328	-200,000	-0,038	-0,134
-460,313	800,000	0,029	-0,086
-459,299	152,271	0,090	-0,089
-458,284	-200,000	-0,002	0,008
-457,270	484,713	-0,058	0,095
-456,255	73,434	-0,080	-0,060
-455,241	248,478	0,065	-0,079
-454,226	800,000	-0,023	-0,071
-453,211	-200,000	-0,000	-0,018
-452,197	107,495	-0,085	0,073
-451,182	800,000	0,020	0,057
-450,168	-46,511	-0,088	0,031
-449,153	41,584	-0,068	-0,044
-448,138	65,386	-0,059	-0,043
-447,124	-200,000	-0,001	-0,025
-446,109	257,327	-0,059	0,074
-445,095	-145,504	0,100	0,006
-444,080	-108,302	0,015	-0,002
-443,065	241,385	-0,026	0,031
-442,051	-200,000	-0,000	0,122
-441,036	-67,884	-0,110	-0,031
-440,022	-163,198	-0,092	-0,003
-439,007	401,464	0,041	-0,062
-437,992	800,000	-0,037	-0,098
-436,978	-65,894	0,028	0,008
-435,963	-200,000	-0,004	0,037
-434,949	-102,227	-0,037	0,006
-433,934	-200,000	0,001	-0,071
-432,919	35,764	0,093	-0,059
-431,905	253,367	0,091	-0,112
-430,890	118,943	-0,051	0,045
-429,876	48,582	0,086	0,058
-428,861	604,317	0,040	0,072
-427,846	-200,000	-0,034	-0,146
-426,832	-200,000	-0,013	-0,053
-425,817	800,000	0,025	-0,051
-424,803	-141,885	-0,080	-0,006
-423,788	163,908	0,052	0,053
-422,773	-16,112	0,137	-0,062
-421,759	337,938	0,056	0,079
-420,744	391,413	-0,026	0,040
-419,730	67,442	-0,136	0,099
-418,715	-98,724	0,096	0,018
-417,701	-200,000	0,005	0,064
-416,686	243,510	0,038	0,046
-415,671	-152,392	0,146	0,007
-414,657	-7,260	0,188	0,091
-413,642	800,000	-0,019	0,046
-412,628	-200,000	0,012	-0,096
-411,613	-200,000	0,010	0,044
-410,598	122,781	-0,072	-0,065
-409,584	800,000	-0,012	0,037
-408,569	-93,716	0,013	0,003
-407,555	-200,000	0,046	-0,170
-406,540	-51,391	0,089	0,030
-405,525	90,186	0,054	0,043
-404,511	-200,000	-0,020	-0,164
-403,496	689,695	0,025	0,047
-402,482	-200,000	0,035	0,232
-401,467	-200,000	0,017	0,083
-400,452	-200,000	0,013	0,063
-399,438	-107,936	0,091	0,014
-398,423	621,007	-0,090	0,163
-397,409	-49,503	-0,136	0,046
-396,394	75,931	0,008	-0,006
-395,379	-133,108	0,150	-0,013
-394,365	35,968	-0,015	0,010
-393,350	800,000	0,052	0,114
-392,336	-14,264	0,062	0,029
-391,321	-200,000	0,008	-0,118
-390,306	-24,072	-0,096	-0,041
-389,292	71,978	-0,059	0,044
-388,277	-58,826	-0,032	0,010
-387,263	-165,750	0,082	-0,002
-386,248	424,078	0,018	0,028
-385,233	-200,000	-0,027	0,089
-384,219	64,906	0,045	-0,033
-383,204	-5,739	0,116	0,057
-382,190	-200,000	0,008	-0,069
-381,175	619,292	0,016	-0,028
-380,160	-200,000	-0,013	0,187
-379,146	800,000	0,033	0,093
-378,131	520,743	-0,021	0,035
-377,117	-200,000	0,013	0,042
-376,102	-200,000	-0,002	-0,015
-375,088	-7,685	-0,013	-0,006
-374,073	-2,495	-0,151	-0,076
-373,058	541,693	-0,039	0,067
-372,044	98,015	0,095	-0,078
-371,029	800,000	0,059	0,130
-370,015	800,000	-0,039	-0,085
-369,000	800,000	0,071	-0,175
-367,985	-158,809	-0,217	-0,009
-366,971	800,000	-0,010	-0,022
-365,956	83,566	-0,062	0,048
-364,942	706,116	0,082	0,155
-363,927	47,214	-0,128	-0,086
-362,912	147,829	-0,062	-0,060
-361,898	50,840	-0,118	0,080
-360,883	-200,000	0,011	-0,054
-359,869	-81,021	0,041	-0,010
-358,854	725,219	0,035	0,067
-357,839	-111,652	0,062	-0,009
-356,825	-105,168	0,112	-0,018
-355,810	-112,497	0,099	-0,014
-354,796	-5,002	-0,014	-0,007
-353,781	-107,853	0,061	-0,009
-352,766	-72,974	-0,023	-0,006
-351,752	54,178	0,137	0,095
-350,737	-200,000	-0,003	0,089
-349,723	-200,000	0,014	0,059
-348,708	161,982	0,051	0,052
-347,693	800,000	0,021	-0,055
-346,679	-200,000	-0,014	-0,047
-345,664	-79,402	-0,091	0,022
-344,650	-116,459	-0,013	0,002
-343,635	-67,631	0,033	-0,009
-342,620	-53,667	0,111	-0,036
-341,606	-200,000	0,005	0,138
-340,591	214,245	0,048	0,054
-339,577	46,764	-0,114	-0,076
-338,562	25,383	0,078	-0,047
-337,548	800,000	0,030	0,075
-336,533	-37,281	-0,022	0,009
-335,518	-200,000	0,031	0,107
-334,504	188,237	0,037	-0,039
-333,489	-102,895	-0,152	0,026
-332,475	165,027	-0,064	-0,064
-331,460	-83,388	-0,094	-0,021
-330,445	376,199	-0,054	-0,079
-329,431	685,272	0,019	0,035
-328,416	-117,319	0,030	-0,004
-327,402	-183,641	0,053	-0,001
-326,387	-200,000	0,026	0,113
-325,372	660,447	0,018	-0,033
-324,358	-62,441	-0,023	0,007
-323,343	568,086	0,061	-0,107
-322,329	-70,282	0,088	-0,024
-321,314	224,487	0,059	0,068
-320,299	-200,000	0,004	0,017
-319,285	-119,115	-0,094	0,012
-318,270	-200,000	-0,009	0,098
-317,256	-65,184	0,158	0,045
-316,241	79,038	-0,130	-0,100
-315,226	-200,000	0,001	-0,228
-314,212	800,000	0,037	-0,085
-313,197	800,000	0,024	0,068
-312,183	-155,389	-0,147	-0,007
-311,168	-44,926	0,089	-0,032
-310,153	-200,000	0,023	-0,073
-309,139	-200,000	0,004	-0,043
-308,124	-200,000	0,002	-0,092
-307,110	191,007	0,035	0,037
-306,095	155,518	0,060	0,059
-305,080	89,955	-0,107	-0,086
-304,066	800,000	-0,033	-0,071
-303,051	-182,465	0,150	-0,002
-302,037	-200,000	-0,031	-0,114
-301,022	-77,549	-0,103	0,026
-300,008	109,538	0,111	0,095
-298,993	314,613	0,078	0,106
-297,978	-200,000	-0,012	-0,073
-296,964	-200,000	-0,002	-0,073
-295,949	-25,528	0,069	-0,029
-294,935	562,356	0,072	0,126
-293,920	104,509	-0,125	0,106
-292,905	-200,000	0,075	0,000
-291,891	-35,498	0,078	0,030
-290,876	-200,000	-0,015	0,122
-289,862	233,230	-0,109	-0,128
-288,847	800,000	0,008	-0,023
-287,832	292,590	-0,076	0,099
-286,818	-200,000	0,024	0,118
-285,803	800,000	0,078	0,161
-284,789	-42,105	0,091	0,033
-283,774	-200,000	0,026	0,145
-282,759	161,924	-0,081	-0,082
-281,745	365,492	-0,066	-0,095
-280,730	66,244	-0,082	0,060
-279,716	-200,000	-0,035	-0,159
-278,701	-112,100	0,071	-0,010
-277,686	-200,000	-0,001	-0,291
-276,672	-116,234	0,170	0,022
-275,657	-101,274	-0,162	0,028
-274,643	61,962	-0,084	-0,060
-273,628	46,634	-0,010	-0,006
-272,613	-200,000	0,013	-0,142
-271,599	800,000	0,058	0,124
-270,584	-127,917	0,142	0,014
-269,570	229,303	0,067	0,079
-268,555	195,153	0,045	-0,049
-267,540	67,508	0,043	0,031
-266,526	144,862	-0,098	0,094
-265,511	800,000	0,066	0,147
-264,497	-200,000	0,020	-0,069
-263,482	-21,878	0,079	0,034
-262,467	-123,311	-0,138	0,016
-261,453	-200,000	0,044	0,176
-260,438	800,000	0,036	0,096
-259,424	-200,000	0,009	-0,091
-258,409	800,000	-0,041	0,108
-257,395	283,609	0,047	0,061
-256,380	-200,000	-0,033	0,136
-255,365	-200,000	-0,008	0,048
-254,351	328,883	0,104	0,144
-253,336	-42,642	0,109	0,039
-252,322	800,000	-0,041	0,109
-251,307	-200,000	-0,001	-0,007
-250,292	-200,000	-0,008	-0,031
-249,278	-31,682	0,071	-0,028
-248,263	-200,000	0,014	0,131
-247,249	-53,874	-0,250	0,081
-246,234	800,000	0,022	0,054
-245,219	-10,002	0,024	-0,012
-244,205	-115,460	-0,111	0,015
-243,190	-200,000	0,015	0,055
-242,176	-200,000	-0,044	-0,323
-241,161	-200,000	-0,007	0,022
-240,146	-91,635	-0,050	-0,010
-239,132	-62,026	-0,009	-0,003
-238,117	206,872	-0,027	-0,030
-237,103	222,263	0,061	-0,070
-236,088	266,944	-0,071	-0,089
-235,073	-200,000	0,033	0,113
-234,059	-55,792	-0,110	-0,035
-233,044	38,790	-0,098	0,062
-232,030	437,701	-0,072	0,112
-231,015	2,496	-0,161	-0,083
-230,000	-200,000	0,013	-0,043
-228,986	-200,000	0,000	-0,012
-227,971	-200,000	0,009	0,052
-226,957	-83,660	-0,075	0,017
-225,942	-101,244	0,064	0,011
-224,927	43,594	0,037	-0,024
-223,913	800,000	-0,062	-0,144
-222,898	-0,877	-0,131	-0,066
-221,884	-200,000	0,015	-0,069
-220,869	197,154	-0,071	0,078
-219,855	-90,168	0,165	0,034
-218,840	800,000	0,051	0,103
-217,825	-117,907	-0,215	-0,027
-216,811	-200,000	-0,031	0,100
-215,796	-34,504	-0,043	-0,017
-214,782	-89,775	0,234	-0,048
-213,767	102,220	0,140	0,117
-212,752	123,483	0,027	0,024
-211,738	394,658	0,059	0,089
-210,723	-200,000	0,012	-0,102
-209,709	66,785	0,083	0,060
-208,694	-49,537	-0,091	-0,031
-207,679	684,219	0,033	0,062
-206,665	162,135	0,101	-0,101
-205,650	-175,167	-0,223	-0,004
-204,636	418,081	0,017	0,027
-203,621	-200,000	-0,030	0,119
-202,606	-200,000	0,010	-0,037
-201,592	-30,725	-0,143	-0,057
-200,577	-200,000	0,034	-0,130
-199,563	-200,000	0,003	0,032
-198,548	-94,989	0,094	0,018
-197,533	-2,683	-0,077	-0,038
-196,519	-63,409	-0,013	0,004
-195,504	-200,000	0,003	-0,206
-194,490	800,000	-0,074	-0,153
-193,475	800,000	0,075	-0,154
-192,460	-85,682	-0,042	-0,009
-191,446	-200,000	-0,002	-0,037
-190,431	800,000	0,027	0,064
-189,417	23,357	0,108	0,063
-188,402	-81,896	-0,125	0,029
-187,387	800,000	-0,023	-0,056
-186,373	-158,590	-0,121	-0,005
-185,358	-200,000	0,005	0,081
-184,344	-200,000	-0,015	-0,060
-183,329	124,152	0,086	0,077
-182,315	418,893	-0,030	0,046
-181,300	51,146	-0,025	-0,017
-180,285	-200,000	0,001	0,008
-179,271	-200,000	-0,011	0,050
-178,256	311,456	-0,058	-0,077
-177,242	483,530	0,078	-0,128
-176,227	-200,000	-0,014	0,112
-175,212	122,336	0,086	-0,077
-174,198	-190,903	-0,029	0,000
-173,183	-69,941	-0,127	-0,034
-172,169	-68,395	0,070	-0,019
-171,154	-129,143	-0,137	-0,013
-170,139	450,507	0,029	0,045
-169,125	798,943	0,059	0,117
-168,110	800,000	0,014	-0,036
-167,096	800,000	0,007	-0,015
-166,081	333,760	0,077	-0,107
-165,066	-8,234	0,099	0,048
-164,052	-87,825	0,046	-0,010
-163,037	27,882	0,044	0,027
-162,023	-42,091	-0,047	-0,017
-161,008	-200,000	-0,003	0,056
-159,993	610,733	0,015	0,027
-158,979	22,699	-0,009	0,005
-157,964	558,325	0,028	0,048
-156,950	130,969	-0,150	-0,137
-155,935	147,165	-0,077	0,073
-154,920	800,000	0,038	-0,075
-153,906	74,916	-0,158	0,118
-152,891	-106,044	0,040	0,006
-151,877	-200,000	-0,009	-0,050
-150,862	-50,545	0,042	-0,014
-149,847	728,887	-0,013	0,025
-148,833	20,125	-0,148	-0,085
-147,818	392,373	0,065	-0,097
-146,804	65,956	0,010	-0,008
-145,789	-200,000	-0,021	0,090
-144,775	-115,543	-0,108	-0,014
-143,760	-200,000	0,022	0,100
-142,745	-200,000	-0,013	0,070
-141,731	-148,234	-0,021	0,001
-140,716	-97,976	0,083	-0,015
-139,702	106,586	0,163	0,138
-138,687	-200,000	0,028	-0,169
-137,672	-200,000	0,007	0,031
-136,658	-121,365	-0,128	0,015
-135,643	800,000	-0,026	-0,065
-134,629	800,000	0,016	-0,039
-133,614	92,965	0,062	0,050
-132,599	789,725	0,024	-0,047
-131,585	44,782	-0,047	0,031
-130,570	-35,626	-0,032	0,012
-129,556	800,000	0,057	0,134
-128,541	663,682	-0,020	-0,036
-127,526	-4,341	-0,085	-0,042
-126,512	-64,998	-0,121	-0,035
-125,497	-200,000	-0,004	0,076
-124,483	223,668	0,112	0,129
-123,468	-200,000	0,000	0,006
-122,453	-200,000	-0,009	-0,127
-121,439	134,398	-0,145	-0,134
-120,424	157,070	0,046	0,045
-119,410	230,619	-0,096	-0,112
-118,395	-200,000	0,011	-0,101
-117,380	-187,935	0,205	-0,002
-116,366	-200,000	-0,006	0,035
-115,351	-101,751	-0,001	-0,000
-114,337	-136,857	-0,115	0,009
-113,322	90,595	0,120	0,096
-112,307	-200,000	-0,013	-0,074
-111,293	-200,000	0,001	0,030
-110,278	169,136	0,093	0,094
-109,264	152,201	-0,044	-0,043
-108,249	564,815	0,034	0,059
-107,234	-200,000	0,005	-0,198
-106,220	546,664	0,037	0,064
-105,205	27,227	-0,051	0,030
-104,191	800,000	0,049	0,120
-103,176	-200,000	0,024	0,163
-102,162	225,669	0,022	-0,025
-101,147	-39,928	-0,153	-0,056
-100,132	-49,171	-0,066	0,022
-99,118	-200,000	0,045	-0,173
-98,103	7,034	-0,033	-0,018
-97,089	-200,000	0,002	-0,013
-96,074	-200,000	0,019	-0,085
-95,059	-104,233	-0,152	-0,025
-94,045	227,632	0,024	-0,028
-93,030	-86,180	0,241	-0,052
-92,016	203,800	0,040	0,044
-91,001	-101,886	-0,115	0,020
-89,986	800,000	-0,032	-0,075
-88,972	-52,715	0,145	0,047
-87,957	109,780	0,130	-0,111
-86,943	168,712	-0,056	-0,057
-85,928	69,940	0,072	0,053
-84,913	-185,985	0,095	0,001
-83,899	9,685	-0,074	-0,040
-82,884	-154,416	-0,009	0,000
-81,870	800,000	-0,034	0,106
-80,855	-174,003	0,021	-0,000
-79,840	800,000	-0,047	-0,112
-78,826	327,313	0,057	-0,078
-77,811	-200,000	0,016	-0,074
-76,797	800,000	-0,023	-0,064
-75,782	244,361	0,104	0,124
-74,767	88,017	0,037	0,029
-73,753	395,440	-0,020	0,030
-72,738	-11,163	-0,127	0,059
-71,724	-2,669	0,082	0,041
-70,709	-57,088	0,131	0,041
-69,694	593,042	0,082	0,144
-68,680	209,284	-0,041	0,045
-67,665	104,208	-0,068	0,057
-66,651	-184,825	0,059	-0,001
-65,636	800,000	0,046	-0,102
-64,622	152,976	-0,094	-0,091
-63,607	-200,000	0,013	-0,047
-62,592	121,756	-0,049	-0,043
-61,578	800,000	-0,009	0,025
-60,563	-200,000	-0,015	-0,048
-59,549	800,000	-0,052	0,119
-58,534	-101,874	-1,342	-0,228
-57,519	299,993	-1,531	-2,008
-56,505	-200,000	-0,524	-4,279
-55,490	60,158	0,977	0,685
-54,476	800,000	4,745	11,281
-53,461	-200,000	17,541	277,526
-52,446	800,000	718,816	2211,627
-51,432	560,301	1633,057	2810,361
-50,417	81,320	1657,357	1269,615
-49,403	24,103	1531,657	894,693
-48,388	18,086	1454,725	820,747
-47,373	18,448	1444,192	816,506
-46,359	18,046	1435,117	809,427
-45,344	16,371	1430,325	798,731
-44,330	16,322	1428,365	797,371
-43,315	16,344	1426,539	796,426
-42,300	16,339	1425,169	795,606
-41,286	16,437	1423,765	795,255
-40,271	16,374	1422,434	794,183
-39,257	16,340	1421,361	793,388
-38,242	16,369	1419,940	792,702
-37,227	16,418	1418,513	792,105
-36,213	16,364	1417,571	791,294
-35,198	16,338	1416,345	790,455
-34,184	16,394	1415,245	790,073
-33,169	16,313	1414,174	789,063
-32,154	16,339	1413,096	788,555
-31,140	16,394	1411,687	787,994
-30,125	16,416	1410,597	787,456
-29,111	16,347	1409,499	786,492
-28,096	16,341	1408,303	785,764
-27,082	16,307	1407,283	785,005
-26,067	16,252	1406,304	784,171
-25,052	16,279	1405,145	783,616
-24,038	16,279	1404,083	782,996
-23,023	16,269	1403,172	782,410
-22,009	16,212	1402,181	781,559
-20,994	16,234	1401,220	781,096
-19,979	16,246	1400,102	780,498
-18,965	16,205	1399,301	779,828
-17,950	16,204	1398,125	779,139
-16,936	16,213	1397,342	778,714
-15,921	16,195	1396,097	777,906
-14,906	16,173	1395,128	777,230
-13,892	16,202	1394,223	776,831
-12,877	16,208	1393,482	776,414
-11,863	16,200	1392,580	775,846
-10,848	16,209	1391,411	775,206
-9,833	16,134	1390,742	774,454
-8,819	16,106	1389,750	773,744
-7,804	16,090	1388,709	773,056
-6,790	16,084	1387,628	772,398
-5,775	16,083	1386,686	771,838
-4,760	16,074	1386,102	771,442
-3,746	16,032	1385,264	770,749
-2,731	16,068	1384,183	770,284
-1,717	16,053	1383,202	769,637
-0,702	16,064	1381,353	768,628
0,313	19,937	1302,738	742,731
1,327	36,430	707,514	441,651
2,342	55,879	125,619	86,249
3,356	5,208	16,544	8,617
4,371	8,032	3,076	1,631
5,386	-69,445	0,502	0,135
6,400	-72,031	-0,066	0,017
7,415	-72,490	-0,226	-0,059
8,429	71,223	-0,255	-0,187
9,444	154,594	-0,279	-0,272
10,459	-27,563	-0,405	-0,166
11,473	-2,957	-0,369	-0,182
12,488	-22,107	-0,295	-0,126
13,502	42,508	-0,259	-0,166
14,517	68,202	-0,314	-0,228
15,531	31,598	-0,361	-0,219
16,546	217,741	-0,258	-0,292
17,561	198,433	-0,354	-0,385
18,575	22,781	-0,203	-0,117
19,590	49,330	-0,220	-0,146
20,604	96,522	-0,213	-0,173
21,619	52,617	-0,412	-0,278
22,634	187,639	-0,390	-0,412
23,648	44,116	-0,420	-0,272
24,663	119,878	-0,348	-0,305
25,677	451,779	-0,200	-0,313
26,692	40,618	-0,341	-0,217
27,707	99,081	-0,309	-0,252
28,721	60,199	-0,471	-0,329
29,736	119,699	-0,291	-0,255
30,750	12,554	-0,331	-0,180
31,765	97,634	-0,325	-0,264
32,780	142,444	-0,297	-0,279
33,794	83,615	-0,353	-0,272
34,809	91,499	-0,355	-0,282
35,823	235,466	-0,310	-0,363
36,838	33,491	-0,437	-0,268
37,853	50,348	-0,414	-0,276
38,867	64,425	-0,389	-0,276
39,882	32,776	-0,360	-0,220
40,896	75,483	-0,341	-0,254
41,911	187,401	-0,250	-0,264
42,926	292,646	-0,259	-0,334
43,940	-7,954	-0,437	-0,208
44,955	-25,722	-0,473	-0,196
45,969	80,020	-0,351	-0,266
46,984	-27,244	-0,413	-0,169
47,999	2,203	-0,315	-0,160
49,013	-3,498	-0,323	-0,158
50,028	42,648	-0,335	-0,215
51,042	99,234	-0,313	-0,255
52,057	245,694	-0,311	-0,371
53,071	-21,423	-0,498	-0,214
54,086	429,479	-0,247	-0,378
55,101	26,243	-0,315	-0,185
56,115	182,071	-0,381	-0,396
57,130	105,270	-0,256	-0,213
58,144	25,945	-0,368	-0,216
59,159	4,001	-0,484	-0,249
60,174	100,457	-0,436	-0,357
61,188	113,871	-0,359	-0,308
62,203	130,421	-0,297	-0,269
63,217	-111,148	-0,445	-0,064
64,232	172,159	-0,245	-0,248
65,247	39,681	-0,295	-0,186
66,261	223,724	-0,345	-0,394
67,276	92,140	-0,326	-0,259
68,290	13,545	-0,274	-0,150
69,305	36,355	-0,306	-0,190
70,320	3,385	-0,352	-0,180
71,334	-101,409	-0,302	-0,051
72,349	139,042	-0,285	-0,264
73,363	-98,909	-0,383	-0,068
74,378	17,758	-0,365	-0,204
75,393	-53,012	-0,310	-0,100
76,407	-112,325	-0,430	-0,060
77,422	14,589	-0,320	-0,175
78,436	77,882	-0,240	-0,180
79,451	0,992	-0,365	-0,184
80,466	107,288	-0,296	-0,248
81,480	97,015	-0,323	-0,261
82,495	73,395	-0,267	-0,197
83,509	60,148	-0,393	-0,273
84,524	-167,491	-0,134	0,004
85,539	300,518	-0,153	-0,199
86,553	-7,907	-0,272	-0,129
87,568	-17,839	-0,368	-0,162
88,582	96,426	-0,446	-0,359
89,597	272,522	-0,208	-0,259
90,611	93,626	-0,195	-0,156
91,626	410,221	-0,167	-0,250
92,641	-0,335	-0,214	-0,106
93,655	-49,272	-0,327	-0,109
94,670	-67,945	-0,275	-0,075
95,684	229,312	-0,253	-0,291
96,699	-54,334	-0,439	-0,139
97,714	68,206	-0,337	-0,243
98,728	14,937	-0,241	-0,132
99,743	-14,077	-0,285	-0,129
100,757	246,265	-0,188	-0,223
101,772	76,699	-0,270	-0,201
102,787	44,527	-0,328	-0,212
103,801	180,218	-0,202	-0,208
104,816	219,386	-0,225	-0,253
105,830	-21,549	-0,248	-0,106
106,845	33,279	-0,172	-0,105
107,860	81,974	-0,293	-0,223
108,874	158,729	-0,232	-0,226
109,889	74,778	-0,333	-0,246
110,903	198,616	-0,232	-0,250
111,918	73,043	-0,371	-0,272
112,933	-38,230	-0,229	-0,085
113,947	-39,310	-0,280	-0,103
114,962	-17,775	-0,183	-0,081
115,976	58,203	-0,343	-0,236
116,991	158,415	-0,236	-0,230
118,006	-38,215	-0,253	-0,094
119,020	102,960	-0,212	-0,175
120,035	10,471	-0,293	-0,156
121,049	-69,234	-0,136	-0,036
122,064	34,361	-0,118	-0,072
123,079	167,022	-0,215	-0,214
124,093	108,418	-0,271	-0,227
125,108	113,043	-0,240	-0,204
126,122	-26,976	-0,269	-0,110
127,137	102,977	-0,186	-0,152
128,151	29,277	-0,280	-0,166
129,166	304,170	-0,147	-0,192
130,181	-2,776	-0,382	-0,186
131,195	127,130	-0,197	-0,175
132,210	-200,000	-0,094	-0,363
133,224	94,179	-0,217	-0,173
134,239	35,082	-0,259	-0,159
135,254	167,619	-0,290	-0,289
136,268	-50,040	-0,282	-0,093
137,283	199,133	-0,267	-0,287
138,297	115,409	-0,154	-0,131
139,312	-17,800	-0,337	-0,148
140,327	-46,801	-0,246	-0,084
141,341	-21,661	-0,313	-0,133
142,356	227,741	-0,196	-0,224
143,370	252,879	-0,202	-0,241
144,385	-175,582	-0,169	-0,003
145,400	148,711	-0,242	-0,229
146,414	178,462	-0,172	-0,176
147,429	141,774	-0,299	-0,278
148,443	50,357	-0,229	-0,151
149,458	47,565	-0,241	-0,157
150,473	12,952	-0,261	-0,141
151,487	481,714	-0,144	-0,230
152,502	480,028	-0,172	-0,273
153,516	384,487	-0,244	-0,352
154,531	0,704	-0,315	-0,157
155,546	-26,406	-0,264	-0,108
156,560	378,512	-0,130	-0,187
157,575	15,694	-0,225	-0,123
158,589	32,681	-0,221	-0,134
159,604	-25,704	-0,157	-0,065
160,619	-24,868	-0,406	-0,168
161,633	179,595	-0,226	-0,231
162,648	23,654	-0,372	-0,214
163,662	186,085	-0,200	-0,208
164,677	208,831	-0,192	-0,210
165,692	-89,368	-0,211	-0,043
166,706	301,391	-0,179	-0,232
167,721	-16,929	-0,255	-0,112
168,735	318,357	-0,235	-0,312
169,750	138,954	-0,278	-0,255
170,764	237,976	-0,135	-0,156
171,779	-55,559	-0,138	-0,043
172,794	27,358	-0,302	-0,177
173,808	-39,838	-0,319	-0,116
174,823	-0,638	-0,312	-0,154
175,837	-28,184	-0,252	-0,101
176,852	-46,065	-0,332	-0,114
177,867	323,418	-0,156	-0,208
178,881	28,701	-0,181	-0,107
179,896	66,537	-0,244	-0,173
180,910	235,292	-0,280	-0,323
181,925	-117,086	-0,283	-0,036
182,940	467,102	-0,169	-0,265
183,954	-41,456	-0,241	-0,086
184,969	59,386	-0,165	-0,113
185,983	356,201	-0,150	-0,209
186,998	34,059	-0,153	-0,093
188,013	49,268	-0,151	-0,099
189,027	611,090	-0,172	-0,301
190,042	0,688	-0,372	-0,185
191,056	235,520	-0,244	-0,282
192,071	145,667	-0,208	-0,194
193,086	70,233	-0,190	-0,137
194,100	-25,558	-0,317	-0,130
195,115	-110,935	-0,202	-0,029
196,129	110,728	-0,308	-0,258
197,144	182,226	-0,270	-0,278
198,159	-196,771	-0,165	-0,001
199,173	85,279	-0,236	-0,180
200,188	77,459	-0,179	-0,133
201,202	65,025	-0,196	-0,138
202,217	396,211	-0,097	-0,142
203,232	-121,263	-0,327	-0,038
204,246	82,937	-0,208	-0,157
205,261	82,165	-0,184	-0,139
206,275	-9,345	-0,119	-0,055
207,290	385,923	-0,119	-0,172
208,304	-126,712	-0,104	-0,011
209,319	4,155	-0,220	-0,112
210,334	104,662	-0,186	-0,153
211,348	800,000	-0,147	-0,293
212,363	24,889	-0,182	-0,105
213,377	117,609	-0,217	-0,186
214,392	800,000	-0,042	-0,090
215,407	78,060	-0,203	-0,151
216,421	235,707	-0,066	-0,076
217,436	55,576	-0,226	-0,152
218,450	2,367	-0,340	-0,171
219,465	53,100	-0,280	-0,186
220,480	335,754	-0,153	-0,207
221,494	66,003	-0,183	-0,129
222,509	174,143	-0,079	-0,079
223,523	800,000	-0,078	-0,201
224,538	626,448	-0,126	-0,223
225,553	212,389	-0,185	-0,203
226,567	156,498	-0,149	-0,143
227,582	-200,000	-0,050	-0,211
228,596	-46,246	-0,205	-0,070
229,611	800,000	-0,069	-0,165
230,626	129,670	-0,129	-0,115
231,640	81,974	-0,185	-0,139
232,655	27,810	-0,079	-0,046
233,669	446,358	-0,208	-0,318
234,684	-85,807	-0,195	-0,042
235,699	-47,906	-0,184	-0,062
236,713	73,064	-0,144	-0,105
237,728	195,985	-0,182	-0,192
238,742	304,026	-0,061	-0,079
239,757	210,922	-0,269	-0,295
240,772	-76,612	-0,180	-0,043
241,786	593,932	-0,126	-0,217
242,801	81,360	-0,108	-0,081
243,815	83,141	-0,048	-0,036
244,830	19,161	-0,180	-0,100
245,844	-9,222	-0,235	-0,109
246,859	47,660	-0,188	-0,121
247,874	412,793	-0,180	-0,267
248,888	621,908	-0,155	-0,273
249,903	100,921	-0,097	-0,078
250,917	541,268	-0,044	-0,073
251,932	240,980	-0,073	-0,085
252,947	-25,149	-0,264	-0,108
253,961	343,119	-0,082	-0,112
254,976	128,521	-0,141	-0,125
255,990	645,553	-0,109	-0,194
257,005	271,721	-0,060	-0,073
258,020	-85,814	-0,146	-0,031
259,034	62,118	-0,189	-0,131
260,049	-98,365	-0,191	0,034
261,063	165,457	-0,237	-0,233
262,078	-200,000	-0,042	-0,224
263,093	310,250	-0,145	-0,189
264,107	-31,293	-0,151	-0,059
265,122	-84,724	-0,171	-0,037
266,136	85,883	-0,195	-0,148
267,151	77,424	-0,183	-0,135
268,166	618,336	-0,145	-0,253
269,180	174,868	-0,183	-0,183
270,195	119,993	-0,082	-0,070
271,209	121,833	-0,117	-0,101
272,224	175,218	-0,129	-0,130
273,239	-200,000	-0,017	0,107
274,253	246,877	-0,086	-0,100
275,268	-57,751	-0,215	-0,065
276,282	512,955	-0,200	-0,323
277,297	165,232	-0,078	-0,076
278,312	-93,391	-0,186	-0,035
279,326	-0,402	-0,225	-0,110
280,341	-94,237	-0,041	0,008
281,355	155,063	-0,169	-0,161
282,370	-78,283	-0,100	-0,024
283,384	57,280	-0,079	-0,053
284,399	246,191	-0,207	-0,242
285,414	17,271	-0,142	-0,078
286,428	800,000	-0,045	-0,124
287,443	178,629	-0,089	-0,090
288,457	-200,000	-0,143	0,000
289,472	206,367	-0,124	-0,134
290,487	338,352	-0,145	-0,196
291,501	277,770	-0,102	-0,125
292,516	357,073	-0,094	-0,130
293,530	64,088	-0,204	-0,142
294,545	24,229	-0,111	-0,063
295,560	-79,294	-0,037	-0,009
296,574	333,231	-0,182	-0,244
297,589	1,472	-0,264	-0,131
298,603	-114,555	-0,061	-0,008
299,618	15,391	-0,189	-0,102
300,633	155,434	-0,181	-0,172
301,647	51,227	-0,179	-0,117
302,662	41,141	-0,093	-0,058
303,676	-174,283	-0,143	-0,003
304,691	274,907	-0,067	-0,082
305,706	220,414	-0,166	-0,184
306,720	150,249	-0,161	-0,151
307,735	323,905	-0,058	-0,076
308,749	156,525	-0,100	-0,095
309,764	81,688	-0,154	-0,115
310,779	24,917	-0,309	-0,176
311,793	98,808	-0,107	-0,085
312,808	82,166	-0,092	-0,069
313,822	354,359	-0,080	-0,111
314,837	100,091	-0,164	-0,131
315,852	800,000	-0,078	-0,154
316,866	-46,887	-0,198	-0,067
317,881	769,258	-0,111	-0,210
318,895	367,872	-0,177	-0,248
319,910	-200,000	0,011	-0,134
320,925	241,632	-0,116	-0,134
321,939	361,029	-0,133	-0,184
322,954	42,145	-0,110	-0,069
323,968	58,901	-0,024	-0,016
324,983	-200,000	-0,051	-0,215
325,997	-200,000	-0,038	-0,202
327,012	-83,896	-0,175	-0,038
328,027	123,801	-0,182	-0,157
329,041	-30,747	-0,109	-0,042
330,056	-115,264	-0,148	-0,019
331,070	-200,000	-0,051	-0,198
332,085	26,637	-0,109	-0,063
333,100	-200,000	-0,082	-0,289
334,114	-16,018	-0,156	-0,068
335,129	656,869	-0,143	-0,254
336,143	800,000	-0,096	-0,224
337,158	800,000	-0,088	-0,212
338,173	-50,007	-0,103	-0,033
339,187	351,258	-0,119	-0,162
340,202	793,638	-0,080	-0,151
341,216	181,097	-0,145	-0,147
342,231	44,353	-0,142	-0,090
343,246	-104,035	-0,272	-0,043
344,260	51,963	-0,151	-0,099
345,275	317,482	-0,020	0,026
346,289	154,580	-0,149	-0,141
347,304	-128,042	-0,098	-0,010
348,319	16,240	-0,174	-0,094
349,333	154,002	-0,149	-0,140
350,348	370,770	-0,101	-0,141
351,362	-200,000	0,013	-0,107
352,377	-200,000	-0,010	-0,086
353,392	-141,448	-0,071	-0,005
354,406	-99,104	-0,131	-0,023
355,421	209,004	1313,892	1415,881
356,435	160,842	1474,554	1416,416
