DTS Sentinel unit serial number:	SN410029Multiplexer serial number:	ORYXHardware model number:	OX2-SRSoftware version number:	ORYX F/W v4,00 Oryx Data Collector v3.7.2.0data status	okinstallation	B3 Nyhavnadifferential loss correction	single-endedforward channel	channel 1reverse channel	N/Adate	2023/12/02time	16:17:30forward acquisition time	300,00reverse acquisition time	0,00gamma	499,1914k internal	0,3197k external	0,3197temperature offset calibration	1,0000default loss term (dB/km)	0,3820temperature slope calibration	1,0000multiplexer offset coefficient	1,0000multiplexer slope coefficient	1,0000fibre end	0,00T internal ref (°C)	14,32T ext. ref 1 (°C)	-1,25T ext. ref 2 (°C)	-1,27length (m)	temperature (°C)	Stokes	anti-Stokes-744,400	390,627	-0,175	-0,265
-743,385	768,478	0,095	0,188
-742,371	-39,438	-0,212	-0,080
-741,356	-200,000	0,048	0,288
-740,342	3,829	-0,210	-0,111
-739,327	-200,000	0,037	0,365
-738,312	160,362	-0,254	-0,258
-737,298	-200,000	0,068	0,240
-736,283	648,318	-0,180	-0,336
-735,269	588,190	0,112	0,202
-734,254	790,805	-0,193	-0,389
-733,239	-100,961	-0,195	0,035
-732,225	756,900	-0,107	-0,212
-731,210	-200,000	-0,012	0,144
-730,196	-0,028	0,016	0,008
-729,181	97,771	-0,016	0,013
-728,167	-81,024	-0,055	0,013
-727,152	-21,084	0,013	-0,006
-726,137	-93,909	-0,183	0,036
-725,123	691,477	0,030	-0,058
-724,108	800,000	-0,053	-0,152
-723,094	-119,967	-0,176	-0,022
-722,079	-33,767	-0,025	0,010
-721,064	111,860	0,049	-0,043
-720,050	225,065	-0,069	-0,081
-719,035	-120,311	-0,121	-0,015
-718,021	-142,956	-0,129	0,009
-717,006	174,616	-0,060	-0,063
-715,991	-164,613	-0,174	-0,006
-714,977	47,300	-0,101	-0,068
-713,962	-200,000	-0,007	0,048
-712,948	-200,000	-0,018	0,233
-711,933	-200,000	0,013	-0,081
-710,918	121,316	-0,082	0,074
-709,904	195,511	-0,039	0,043
-708,889	-123,531	0,032	-0,004
-707,875	800,000	0,048	-0,101
-706,860	-151,241	-0,073	-0,004
-705,845	-143,175	0,105	-0,007
-704,831	62,865	-0,133	0,097
-703,816	429,428	0,007	0,010
-702,802	266,183	0,005	-0,006
-701,787	800,000	-0,025	0,056
-700,772	40,851	-0,097	0,064
-699,758	612,252	0,038	0,069
-698,743	153,697	0,048	0,048
-697,729	220,393	-0,015	-0,017
-696,714	-84,289	-0,056	0,013
-695,699	-200,000	0,020	0,130
-694,685	800,000	-0,020	0,044
-693,670	112,794	0,057	-0,050
-692,656	120,408	-0,035	0,032
-691,641	800,000	-0,013	0,028
-690,627	350,561	0,055	0,080
-689,612	800,000	0,026	0,070
-688,597	219,096	-0,056	0,066
-687,583	-200,000	-0,016	-0,082
-686,568	800,000	0,018	0,043
-685,554	800,000	-0,039	-0,088
-684,539	-200,000	-0,032	-0,110
-683,524	200,226	0,038	0,043
-682,510	43,540	0,067	-0,045
-681,495	-156,923	-0,099	0,004
-680,481	17,575	-0,059	-0,034
-679,466	372,239	-0,059	-0,088
-678,451	301,068	-0,018	0,024
-677,437	81,024	-0,104	-0,082
-676,422	-51,073	0,036	0,012
-675,408	267,134	-0,113	-0,143
-674,393	-125,408	0,025	-0,003
-673,378	-95,825	-0,112	0,022
-672,364	-200,000	0,018	-0,087
-671,349	-109,282	0,025	0,004
-670,335	-52,014	-0,238	-0,080
-669,320	800,000	-0,046	0,114
-668,305	800,000	0,012	0,030
-667,291	186,229	-0,117	0,127
-666,276	49,977	-0,069	0,047
-665,262	-200,000	-0,013	-0,092
-664,247	564,834	-0,062	0,109
-663,232	-106,825	-0,109	-0,017
-662,218	-4,579	0,035	-0,017
-661,203	-57,451	0,108	0,034
-660,189	800,000	-0,029	-0,088
-659,174	-107,710	-0,170	-0,027
-658,159	-200,000	0,047	-0,183
-657,145	120,547	-0,049	-0,044
-656,130	-53,680	0,049	-0,016
-655,116	194,166	0,056	-0,062
-654,101	258,812	-0,019	-0,024
-653,086	800,000	-0,029	-0,070
-652,072	110,165	0,094	-0,082
-651,057	-115,791	-0,112	-0,015
-650,043	-200,000	0,002	-0,222
-649,028	-200,000	0,007	0,228
-648,014	-89,684	-0,086	0,018
-646,999	-18,437	-0,064	-0,029
-645,984	-200,000	-0,005	0,128
-644,970	-200,000	-0,028	0,176
-643,955	800,000	0,070	-0,170
-642,941	-200,000	-0,000	-0,044
-641,926	81,034	-0,074	-0,058
-640,911	9,842	-0,071	-0,039
-639,897	-80,788	-0,175	-0,042
-638,882	298,745	0,120	0,160
-637,868	-76,715	-0,034	-0,009
-636,853	-149,381	-0,170	0,010
-635,838	89,261	-0,064	-0,051
-634,824	564,446	-0,047	-0,084
-633,809	356,466	0,010	0,014
-632,795	605,736	-0,026	-0,048
-631,780	542,557	0,113	0,197
-630,765	800,000	-0,025	-0,079
-629,751	150,421	-0,062	0,061
-628,736	-200,000	-0,050	-0,178
-627,722	3,665	-0,065	-0,034
-626,707	-200,000	-0,001	0,055
-625,692	553,096	0,021	-0,037
-624,678	-200,000	-0,002	-0,039
-623,663	289,570	0,079	0,105
-622,649	-158,386	-0,076	-0,003
-621,634	402,638	0,065	0,099
-620,619	51,737	0,068	0,047
-619,605	-200,000	-0,009	-0,033
-618,590	307,946	0,037	-0,051
-617,576	70,891	-0,094	0,071
-616,561	769,810	-0,040	-0,079
-615,546	-200,000	-0,005	-0,073
-614,532	-150,361	0,106	-0,006
-613,517	-92,879	0,068	-0,014
-612,503	57,214	-0,081	-0,057
-611,488	519,907	0,026	0,045
-610,474	-200,000	0,016	0,060
-609,459	-200,000	0,031	0,146
-608,444	800,000	0,014	-0,032
-607,430	-200,000	0,000	-0,019
-606,415	691,039	-0,109	-0,208
-605,401	-200,000	0,001	-0,051
-604,386	-13,312	0,061	0,029
-603,371	66,083	0,050	0,037
-602,357	-156,979	0,077	-0,003
-601,342	800,000	-0,002	-0,005
-600,328	-143,517	-0,087	-0,006
-599,313	39,696	0,097	-0,063
-598,298	190,254	-0,145	-0,158
-597,284	-200,000	-0,004	0,036
-596,269	482,697	0,066	0,110
-595,255	-13,117	0,103	0,048
-594,240	-54,117	-0,191	0,063
-593,225	-51,354	0,112	0,038
-592,211	-15,733	-0,155	-0,071
-591,196	-200,000	-0,012	-0,140
-590,182	-200,000	0,003	0,106
-589,167	-200,000	0,037	0,143
-588,152	800,000	-0,025	0,063
-587,138	115,652	-0,120	0,106
-586,123	-200,000	-0,012	-0,043
-585,109	-200,000	-0,004	-0,027
-584,094	800,000	-0,049	0,141
-583,079	-59,133	0,143	0,044
-582,065	-200,000	0,008	0,070
-581,050	800,000	0,051	0,108
-580,036	89,386	0,057	0,046
-579,021	800,000	0,033	0,070
-578,006	-200,000	-0,013	0,082
-576,992	74,829	-0,091	-0,069
-575,977	-108,374	-0,057	0,009
-574,963	800,000	0,017	-0,041
-573,948	75,618	0,123	0,094
-572,934	-96,730	-0,168	0,032
-571,919	155,800	0,098	-0,098
-570,904	-18,296	0,079	-0,035
-569,890	280,837	-0,094	-0,122
-568,875	-129,848	0,058	-0,006
-567,861	-200,000	-0,021	0,075
-566,846	-85,025	-0,066	0,015
-565,831	347,466	-0,061	-0,088
-564,817	-200,000	-0,013	-0,120
-563,802	-200,000	-0,050	-0,162
-562,788	564,921	0,082	-0,144
-561,773	298,189	-0,085	-0,113
-560,758	288,962	0,082	-0,108
-559,744	800,000	0,059	0,138
-558,729	363,425	0,082	0,120
-557,715	800,000	-0,021	-0,056
-556,700	75,274	-0,061	-0,047
-555,685	-19,058	-0,087	0,039
-554,671	-20,850	0,066	0,029
-553,656	800,000	0,089	0,217
-552,642	-53,779	-0,048	-0,016
-551,627	280,990	-0,059	0,076
-550,612	194,693	0,076	0,083
-549,598	-137,358	-0,116	-0,009
-548,583	362,457	-0,045	-0,065
-547,569	-90,127	0,088	-0,018
-546,554	597,083	-0,041	0,074
-545,539	175,963	-0,053	0,056
-544,525	-95,602	-0,029	0,005
-543,510	240,777	0,070	-0,085
-542,496	25,934	-0,040	0,024
-541,481	-29,436	0,110	0,045
-540,466	-200,000	0,001	0,070
-539,452	-107,614	0,144	-0,023
-538,437	-200,000	-0,046	0,186
-537,423	617,461	-0,041	0,074
-536,408	-162,801	0,060	-0,002
-535,393	800,000	-0,024	0,048
-534,379	800,000	-0,031	-0,083
-533,364	134,389	0,134	-0,125
-532,350	-66,898	0,050	-0,014
-531,335	-3,552	0,091	0,046
-530,321	442,693	0,010	0,016
-529,306	-67,773	-0,057	-0,016
-528,291	-24,738	-0,078	-0,033
-527,277	-74,747	0,097	0,025
-526,262	-66,178	-0,107	-0,031
-525,248	800,000	-0,024	0,066
-524,233	800,000	0,021	-0,054
-523,218	26,567	-0,066	0,040
-522,204	-24,630	0,029	-0,013
-521,189	220,243	0,081	-0,094
-520,175	-103,785	-0,154	-0,026
-519,160	-200,000	0,011	-0,077
-518,145	434,911	-0,084	0,132
-517,131	-13,939	0,117	0,054
-516,116	-28,006	0,103	0,043
-515,102	-200,000	-0,004	0,119
-514,087	-200,000	0,004	-0,042
-513,072	47,412	0,059	0,040
-512,058	75,341	-0,127	-0,096
-511,043	-54,193	-0,068	-0,022
-510,029	800,000	0,050	-0,152
-509,014	-96,864	-0,053	-0,010
-507,999	-200,000	0,015	0,054
-506,985	35,283	-0,020	0,012
-505,970	-27,044	-0,115	-0,048
-504,956	474,218	-0,072	-0,118
-503,941	-123,540	0,069	-0,008
-502,926	-110,806	0,084	0,012
-501,912	-200,000	-0,023	0,078
-500,897	64,545	0,049	0,036
-499,883	-200,000	0,007	-0,067
-498,868	800,000	-0,060	-0,147
-497,853	-63,452	-0,081	-0,024
-496,839	-3,997	0,145	-0,072
-495,824	-77,675	-0,115	0,029
-494,810	-200,000	-0,005	-0,102
-493,795	-37,359	0,124	0,048
-492,781	60,617	-0,157	-0,112
-491,766	260,454	-0,100	0,125
-490,751	-200,000	-0,011	-0,104
-489,737	-147,670	0,091	-0,005
-488,722	-200,000	-0,047	0,171
-487,708	-200,000	-0,017	-0,116
-486,693	38,530	0,041	-0,027
-485,678	-58,821	-0,121	-0,037
-484,664	4,643	0,029	0,015
-483,649	-120,857	-0,103	-0,012
-482,635	57,119	0,098	0,068
-481,620	58,077	0,089	-0,063
-480,605	0,686	0,075	-0,039
-479,591	-200,000	0,004	0,033
-478,576	-200,000	0,009	-0,108
-477,562	367,670	-0,041	-0,060
-476,547	557,265	-0,066	-0,115
-475,532	-56,740	-0,092	-0,029
-474,518	284,166	0,030	0,039
-473,503	15,738	0,077	0,043
-472,489	45,286	0,097	-0,064
-471,474	-14,017	0,047	0,022
-470,459	-200,000	0,032	-0,151
-469,445	-52,216	-0,110	0,036
-468,430	-175,527	-0,017	0,000
-467,416	178,389	0,071	-0,075
-466,401	-200,000	0,009	-0,052
-465,386	-200,000	-0,003	-0,010
-464,372	-200,000	-0,012	-0,083
-463,357	507,915	0,031	-0,052
-462,343	156,678	0,104	-0,104
-461,328	-78,308	-0,065	-0,016
-460,313	-200,000	-0,012	0,074
-459,299	606,564	0,078	0,141
-458,284	122,220	-0,053	0,048
-457,270	231,594	-0,037	-0,044
-456,255	-200,000	0,013	-0,200
-455,241	133,126	-0,066	0,062
-454,226	800,000	-0,039	-0,091
-453,211	-200,000	-0,008	0,135
-452,197	73,627	-0,025	0,019
-451,182	-71,199	0,128	0,034
-450,168	-38,266	-0,119	0,045
-449,153	-200,000	0,026	-0,088
-448,138	-200,000	0,009	-0,177
-447,124	-27,015	-0,014	0,006
-446,109	-200,000	0,018	-0,058
-445,095	-20,232	0,124	0,055
-444,080	-200,000	0,017	0,058
-443,065	-200,000	0,035	0,116
-442,051	117,732	-0,070	0,062
-441,036	214,615	-0,055	-0,063
-440,022	395,393	-0,082	-0,123
-439,007	67,819	0,038	0,028
-437,992	196,627	0,068	0,075
-436,978	800,000	0,031	0,071
-435,963	800,000	-0,020	0,054
-434,949	-132,124	-0,181	0,017
-433,934	-200,000	0,012	0,104
-432,919	-200,000	-0,003	-0,136
-431,905	457,106	-0,091	-0,146
-430,890	-29,412	0,104	-0,043
-429,876	-38,301	0,086	0,033
-428,861	215,293	0,056	0,063
-427,846	187,834	-0,032	-0,034
-426,832	74,832	0,046	-0,035
-425,817	-105,313	-0,134	-0,022
-424,803	276,563	0,081	-0,104
-423,788	290,093	-0,013	-0,017
-422,773	187,106	0,086	0,093
-421,759	798,012	0,089	0,178
-420,744	-45,432	-0,123	-0,044
-419,730	35,762	0,037	-0,023
-418,715	237,375	-0,072	-0,086
-417,701	-9,334	-0,060	-0,029
-416,686	-200,000	-0,003	0,067
-415,671	-128,556	0,158	0,016
-414,657	-111,493	0,059	-0,009
-413,642	464,942	-0,020	0,032
-412,628	-22,475	-0,182	0,079
-411,613	-200,000	-0,041	-0,148
-410,598	127,685	-0,078	-0,071
-409,584	-114,224	0,100	0,014
-408,569	-103,619	-0,054	0,009
-407,555	800,000	-0,022	-0,052
-406,540	60,929	0,054	0,038
-405,525	327,141	0,025	0,034
-404,511	-200,000	-0,013	-0,068
-403,496	115,994	-0,072	0,064
-402,482	-11,213	-0,070	-0,033
-401,467	-41,771	-0,066	0,024
-400,452	69,302	0,071	0,053
-399,438	503,275	0,066	0,110
-398,423	231,134	-0,010	0,012
-397,409	-84,636	-0,030	-0,007
-396,394	800,000	-0,015	0,043
-395,379	800,000	-0,022	0,053
-394,365	304,457	0,078	-0,104
-393,350	-11,833	0,079	-0,037
-392,336	800,000	-0,043	0,109
-391,321	-200,000	-0,006	0,067
-390,306	-59,544	-0,209	-0,064
-389,292	-27,681	-0,070	0,029
-388,277	-132,735	-0,056	-0,005
-387,263	96,200	-0,085	-0,070
-386,248	-17,705	-0,056	0,025
-385,233	28,481	-0,101	0,061
-384,219	60,340	0,101	0,071
-383,204	800,000	0,043	-0,135
-382,190	-147,510	0,049	0,003
-381,175	-65,207	-0,064	-0,018
-380,160	-28,008	-0,053	0,022
-379,146	-6,376	0,139	0,068
-378,131	-132,406	0,079	-0,007
-377,117	-200,000	0,008	0,073
-376,102	-54,925	0,119	-0,038
-375,088	665,519	-0,032	-0,060
-374,073	-200,000	-0,010	-0,067
-373,058	-200,000	0,044	0,174
-372,044	12,142	0,119	-0,065
-371,029	-53,301	-0,026	0,008
-370,015	35,498	0,100	0,063
-369,000	800,000	-0,036	-0,078
-367,985	-67,684	-0,027	-0,007
-366,971	-78,813	0,070	-0,017
-365,956	-200,000	-0,000	0,045
-364,942	765,186	0,053	0,105
-363,927	14,717	-0,105	0,059
-362,912	388,187	-0,098	0,146
-361,898	-69,091	-0,033	0,009
-360,883	800,000	-0,054	-0,124
-359,869	800,000	-0,023	0,049
-358,854	-22,359	0,051	0,022
-357,839	43,315	0,125	0,082
-356,825	-3,322	-0,065	0,033
-355,810	2,415	0,049	-0,025
-354,796	79,299	0,148	0,114
-353,781	-200,000	-0,041	-0,218
-352,766	317,829	-0,071	-0,097
-351,752	361,252	0,010	0,014
-350,737	-92,691	0,044	-0,009
-349,723	190,683	0,088	-0,095
-348,708	-200,000	-0,009	0,044
-347,693	-154,715	-0,169	-0,008
-346,679	330,095	-0,048	-0,067
-345,664	800,000	-0,032	-0,070
-344,650	-147,229	-0,140	-0,008
-343,635	-126,713	0,232	0,024
-342,620	470,333	0,059	0,096
-341,606	-1,908	0,104	-0,052
-340,591	-87,767	0,078	0,017
-339,577	33,862	-0,118	0,073
-338,562	-90,888	-0,103	0,021
-337,548	374,043	0,033	0,048
-336,533	106,582	0,076	0,065
-335,518	-43,793	-0,125	0,045
-334,504	709,449	-0,065	0,125
-333,489	800,000	0,032	0,077
-332,475	705,280	-0,066	-0,125
-331,460	-200,000	0,012	-0,101
-330,445	-200,000	0,002	0,030
-329,431	-200,000	-0,040	0,135
-328,416	800,000	0,054	0,121
-327,402	800,000	-0,026	-0,062
-326,387	-200,000	0,007	-0,134
-325,372	144,923	-0,095	-0,091
-324,358	-131,987	-0,150	-0,014
-323,343	0,417	-0,106	-0,054
-322,329	-200,000	0,018	0,140
-321,314	-78,844	0,114	0,028
-320,299	-149,358	-0,235	0,013
-319,285	-31,513	-0,115	0,046
-318,270	-200,000	0,014	-0,061
-317,256	3,309	0,067	0,035
-316,241	-200,000	0,038	-0,145
-315,226	19,322	-0,112	0,064
-314,212	800,000	-0,011	0,031
-313,197	-74,657	0,068	0,017
-312,183	-200,000	0,020	-0,078
-311,168	346,041	-0,075	-0,106
-310,153	27,802	-0,029	-0,017
-309,139	-109,777	-0,187	0,028
-308,124	-153,860	0,119	-0,006
-307,110	-200,000	-0,004	0,155
-306,095	386,646	-0,022	0,033
-305,080	800,000	0,025	0,076
-304,066	8,773	-0,059	0,032
-303,051	-200,000	-0,037	-0,223
-302,037	-47,638	0,106	-0,036
-301,022	120,151	-0,054	-0,048
-300,008	-134,584	0,142	0,012
-298,993	696,699	-0,029	0,055
-297,978	800,000	-0,066	-0,162
-296,964	-200,000	0,020	-0,076
-295,949	-200,000	0,006	-0,069
-294,935	160,170	0,023	-0,023
-293,920	-136,260	0,051	-0,004
-292,905	-110,039	0,033	0,005
-291,891	-26,799	0,009	0,004
-290,876	139,165	0,106	0,099
-289,862	267,772	-0,031	0,038
-288,847	800,000	-0,043	-0,114
-287,832	-200,000	0,026	0,090
-286,818	800,000	0,038	0,094
-285,803	47,108	-0,084	0,056
-284,789	-200,000	-0,018	0,097
-283,774	207,306	0,027	0,031
-282,759	-124,022	-0,074	0,008
-281,745	-200,000	0,016	-0,056
-280,730	-7,318	0,070	-0,034
-279,716	150,736	0,056	-0,055
-278,701	-11,680	0,012	-0,006
-277,686	57,373	0,023	0,016
-276,672	-167,269	0,080	0,002
-275,657	-35,362	0,080	-0,031
-274,643	58,508	-0,065	0,046
-273,628	-200,000	0,000	0,023
-272,613	253,770	0,050	-0,061
-271,599	-27,321	0,076	0,031
-270,584	800,000	0,064	0,154
-269,570	-24,885	-0,099	0,042
-268,555	705,003	-0,011	-0,021
-267,540	-200,000	0,000	0,003
-266,526	169,312	0,080	-0,081
-265,511	-71,635	-0,083	-0,022
-264,497	-200,000	-0,015	-0,079
-263,482	-200,000	-0,004	0,066
-262,467	800,000	-0,010	-0,026
-261,453	800,000	-0,028	0,086
-260,438	-107,554	-0,190	-0,029
-259,424	-98,497	0,019	-0,003
-258,409	129,327	0,038	-0,034
-257,395	583,867	0,028	0,050
-256,380	-16,439	0,148	0,067
-255,365	-138,260	0,182	0,014
-254,351	243,716	0,063	0,075
-253,336	800,000	-0,069	-0,139
-252,322	800,000	-0,063	-0,172
-251,307	-93,950	-0,072	0,014
-250,292	-58,940	0,023	-0,007
-249,278	-185,717	-0,040	-0,000
-248,263	800,000	0,051	0,130
-247,249	-45,431	-0,101	0,035
-246,234	-98,303	0,086	-0,016
-245,219	800,000	0,037	-0,083
-244,205	-200,000	-0,006	-0,105
-243,190	-187,168	0,103	0,001
-242,176	-32,860	0,060	0,024
-241,161	132,343	-0,067	0,062
-240,146	196,004	-0,061	0,066
-239,132	-120,407	0,102	0,012
-238,117	-78,604	-0,100	0,024
-237,103	800,000	0,009	0,022
-236,088	800,000	0,053	-0,155
-235,073	800,000	-0,041	0,082
-234,059	-43,450	0,104	0,037
-233,044	-151,296	0,013	0,001
-232,030	-200,000	-0,017	-0,062
-231,015	800,000	0,006	-0,018
-230,000	-200,000	-0,020	-0,077
-228,986	707,038	-0,036	0,068
-227,971	-92,102	0,041	-0,008
-226,957	-30,796	0,065	-0,026
-225,942	42,933	-0,042	0,028
-224,927	470,712	-0,016	0,026
-223,913	-200,000	-0,012	-0,090
-222,898	329,380	-0,046	-0,063
-221,884	-200,000	-0,003	-0,021
-220,869	-200,000	0,021	0,069
-219,855	800,000	0,025	-0,061
-218,840	-200,000	0,001	-0,142
-217,825	326,326	-0,103	0,141
-216,811	-37,922	-0,159	-0,060
-215,796	206,344	0,033	-0,037
-214,782	-94,909	0,102	-0,020
-213,767	120,490	0,018	0,016
-212,752	390,164	0,075	0,111
-211,738	-14,965	0,053	0,024
-210,723	-200,000	0,012	0,117
-209,709	-101,393	-0,069	0,012
-208,694	328,254	0,042	-0,058
-207,679	-65,029	-0,073	-0,021
-206,665	11,341	0,216	0,118
-205,650	-200,000	-0,013	-0,061
-204,636	292,209	0,031	-0,041
-203,621	148,013	0,013	0,012
-202,606	-200,000	0,034	0,111
-201,592	-58,513	-0,129	-0,040
-200,577	-74,070	0,081	-0,021
-199,563	-95,063	0,188	-0,036
-198,548	-180,542	-0,114	0,002
-197,533	165,672	0,103	0,103
-196,519	467,225	-0,042	0,067
-195,504	2,349	-0,028	0,014
-194,490	-78,315	0,093	0,022
-193,475	-31,000	-0,024	0,010
-192,460	-200,000	-0,001	0,148
-191,446	526,839	0,077	-0,130
-190,431	-200,000	0,010	0,051
-189,417	145,824	0,128	0,122
-188,402	576,619	-0,071	-0,124
-187,387	62,471	0,106	-0,075
-186,373	260,815	-0,052	-0,065
-185,358	328,215	0,089	-0,122
-184,344	257,873	0,026	-0,032
-183,329	-200,000	-0,001	0,037
-182,315	-159,431	0,130	-0,005
-181,300	-200,000	-0,041	0,141
-180,285	-107,076	-0,061	-0,009
-179,271	-58,743	0,041	-0,012
-178,256	52,786	-0,050	-0,034
-177,242	-200,000	0,032	0,116
-176,227	-16,858	0,055	-0,025
-175,212	-200,000	-0,007	0,026
-174,198	-97,829	0,133	-0,024
-173,183	-200,000	-0,032	-0,139
-172,169	193,856	-0,065	-0,071
-171,154	800,000	-0,058	-0,141
-170,139	164,656	0,096	-0,097
-169,125	-200,000	0,024	0,150
-168,110	-36,535	-0,125	0,048
-167,096	-83,432	0,054	0,012
-166,081	-200,000	0,007	-0,032
-165,066	56,605	-0,186	-0,129
-164,052	800,000	-0,018	-0,038
-163,037	-200,000	0,023	0,110
-162,023	-108,656	0,163	0,025
-161,008	-200,000	0,008	0,176
-159,993	800,000	-0,046	0,124
-158,979	607,493	-0,076	-0,135
-157,964	-200,000	0,021	-0,105
-156,950	-200,000	-0,006	-0,144
-155,935	719,232	0,070	0,132
-154,920	371,631	0,020	-0,029
-153,906	800,000	0,054	0,119
-152,891	-74,645	0,081	0,021
-151,877	220,607	0,102	-0,116
-150,862	162,101	-0,071	-0,071
-149,847	46,382	-0,204	-0,134
-148,833	205,871	0,029	-0,032
-147,818	-107,445	0,088	-0,014
-146,804	417,913	0,027	0,041
-145,789	800,000	-0,035	0,079
-144,775	126,441	0,054	0,048
-143,760	149,227	-0,085	-0,081
-142,745	97,807	-0,107	-0,087
-141,731	-200,000	-0,011	0,084
-140,716	204,943	0,039	-0,043
-139,702	29,259	0,097	0,058
-138,687	131,038	0,058	0,053
-137,672	-200,000	-0,007	0,077
-136,658	-128,363	0,065	-0,006
-135,643	-33,806	-0,056	-0,022
-134,629	210,961	0,019	0,021
-133,614	170,242	-0,061	0,062
-132,599	800,000	0,040	0,111
-131,585	-200,000	0,009	-0,048
-130,570	-200,000	-0,032	0,125
-129,556	-138,318	-0,135	-0,010
-128,541	76,049	-0,075	0,057
-127,526	452,033	-0,039	-0,062
-126,512	800,000	0,018	-0,054
-125,497	-200,000	-0,005	0,062
-124,483	-200,000	0,023	0,073
-123,468	757,050	-0,052	0,101
-122,453	-101,531	0,105	0,018
-121,439	63,995	-0,029	0,021
-120,424	-121,303	-0,088	0,010
-119,410	800,000	-0,035	-0,089
-118,395	6,731	0,073	-0,038
-117,380	-9,568	0,039	0,018
-116,366	-63,729	0,068	0,020
-115,351	-2,417	0,103	0,051
-114,337	-101,741	0,042	-0,007
-113,322	147,337	-0,082	0,078
-112,307	-0,674	0,120	-0,060
-111,293	370,528	0,095	0,137
-110,278	466,735	-0,040	0,064
-109,264	-200,000	0,047	0,174
-108,249	-69,006	-0,212	-0,058
-107,234	63,513	0,174	-0,124
-106,220	119,594	-0,036	0,031
-105,205	87,676	-0,105	-0,082
-104,191	-37,345	0,081	0,031
-103,176	-20,919	0,051	-0,022
-102,162	-200,000	0,026	-0,099
-101,147	-198,741	0,054	-0,000
-100,132	800,000	-0,011	0,029
-99,118	800,000	-0,033	0,095
-98,103	-101,140	0,122	0,021
-97,089	-200,000	0,038	0,194
-96,074	291,559	-0,089	0,115
-95,059	-200,000	0,012	-0,040
-94,045	800,000	-0,028	-0,061
-93,030	800,000	-0,049	-0,128
-92,016	86,891	-0,066	-0,052
-91,001	144,053	0,090	0,086
-89,986	99,197	-0,011	0,009
-88,972	112,873	0,073	0,062
-87,957	800,000	-0,024	-0,053
-86,943	26,005	0,031	0,018
-85,928	-65,115	0,039	0,011
-84,913	-200,000	0,014	-0,048
-83,899	-107,642	-0,074	0,011
-82,884	24,478	-0,029	0,017
-81,870	-200,000	0,021	0,078
-80,855	-200,000	0,030	0,101
-79,840	-200,000	-0,016	-0,219
-78,826	-200,000	-0,023	-0,102
-77,811	-200,000	0,012	-0,056
-76,797	-78,236	-0,051	0,012
-75,782	17,526	0,031	-0,017
-74,767	-109,553	0,112	0,017
-73,753	800,000	0,062	-0,130
-72,738	294,501	0,122	-0,158
-71,724	-108,498	-0,083	-0,013
-70,709	-17,317	-0,074	-0,033
-69,694	-200,000	0,020	-0,206
-68,680	-200,000	-0,002	-0,042
-67,665	124,522	0,107	0,095
-66,651	355,777	0,063	0,089
-65,636	359,924	-0,053	0,076
-64,622	-200,000	0,027	0,098
-63,607	92,159	-0,135	0,108
-62,592	124,044	0,092	-0,082
-61,578	107,144	0,066	-0,056
-60,563	128,921	-0,087	-0,079
-59,549	28,048	-0,020	0,012
-58,534	-52,908	-1,618	-0,525
-57,519	384,966	-1,439	-2,109
-56,505	-200,000	-0,632	-4,491
-55,490	189,328	0,966	1,027
-54,476	800,000	4,749	11,343
-53,461	-200,000	18,614	299,983
-52,446	800,000	734,498	2271,931
-51,432	562,193	1650,309	2840,900
-50,417	78,652	1668,206	1263,012
-49,403	22,198	1541,071	889,554
-48,388	16,208	1463,943	815,944
-47,373	17,821	1453,987	818,149
-46,359	16,984	1444,266	808,637
-45,344	14,495	1439,355	793,946
-44,330	14,338	1437,518	792,152
-43,315	14,401	1435,775	791,459
-42,300	14,403	1434,129	790,530
-41,286	14,409	1433,038	789,928
-40,271	14,409	1431,587	789,094
-39,257	14,325	1430,568	788,105
-38,242	14,405	1429,293	787,751
-37,227	14,456	1428,072	787,286
-36,213	14,434	1426,783	786,440
-35,198	14,395	1425,775	785,670
-34,184	14,456	1424,623	785,291
-33,169	14,353	1423,371	784,084
-32,154	14,427	1422,137	783,720
-31,140	14,448	1420,905	783,110
-30,125	14,448	1419,726	782,431
-29,111	14,416	1418,711	781,691
-28,096	14,419	1417,563	781,041
-27,082	14,336	1416,623	780,098
-26,067	14,340	1415,566	779,508
-25,052	14,385	1414,302	778,991
-24,038	14,330	1413,422	778,217
-23,023	14,281	1412,521	777,458
-22,009	14,371	1411,399	777,234
-20,994	14,344	1410,532	776,600
-19,979	14,318	1409,546	775,904
-18,965	14,280	1408,513	775,127
-17,950	14,248	1407,536	774,406
-16,936	14,255	1406,867	774,044
-15,921	14,253	1405,531	773,267
-14,906	14,231	1404,904	772,790
-13,892	14,274	1403,817	772,360
-12,877	14,228	1403,094	771,715
-11,863	14,287	1401,862	771,285
-10,848	14,224	1401,028	770,502
-9,833	14,219	1400,371	770,084
-8,819	14,206	1399,377	769,449
-7,804	14,161	1398,514	768,732
-6,790	14,158	1397,393	768,074
-5,775	14,156	1396,282	767,424
-4,760	14,192	1395,425	767,088
-3,746	14,084	1394,730	766,175
-2,731	14,135	1394,004	765,980
-1,717	14,164	1392,865	765,461
-0,702	14,135	1391,306	764,439
0,313	17,960	1309,480	737,209
1,327	34,396	705,293	435,133
2,342	52,375	124,006	83,674
3,356	5,699	16,669	8,700
4,371	4,782	3,152	1,636
5,386	2,095	0,470	0,239
6,400	-200,000	-0,037	0,213
7,415	18,369	-0,333	-0,188
8,429	28,470	-0,292	-0,175
9,444	27,918	-0,201	-0,120
10,459	-76,203	-0,447	-0,111
11,473	64,512	-0,283	-0,202
12,488	-63,509	-0,204	-0,059
13,502	-20,484	-0,318	-0,138
14,517	-23,405	-0,283	-0,120
15,531	66,008	-0,363	-0,260
16,546	497,278	-0,208	-0,341
17,561	-24,533	-0,407	-0,171
18,575	-24,219	-0,187	-0,078
19,590	40,741	-0,172	-0,110
20,604	-24,117	-0,281	-0,118
21,619	54,081	-0,515	-0,350
22,634	8,845	-0,548	-0,291
23,648	14,441	-0,474	-0,261
24,663	138,059	-0,415	-0,385
25,677	37,729	-0,344	-0,216
26,692	172,247	-0,311	-0,317
27,707	-2,134	-0,354	-0,175
28,721	7,364	-0,383	-0,202
29,736	89,480	-0,347	-0,273
30,750	151,790	-0,262	-0,253
31,765	101,880	-0,313	-0,258
32,780	119,062	-0,379	-0,331
33,794	180,526	-0,370	-0,384
34,809	125,701	-0,321	-0,287
35,823	81,988	-0,441	-0,337
36,838	19,790	-0,421	-0,239
37,853	196,736	-0,224	-0,241
38,867	-15,157	-0,395	-0,178
39,882	-105,322	-0,415	-0,066
40,896	85,018	-0,481	-0,372
41,911	44,247	-0,291	-0,188
42,926	120,561	-0,311	-0,273
43,940	120,907	-0,364	-0,319
44,955	25,888	-0,398	-0,234
45,969	384,341	-0,174	-0,253
46,984	270,280	-0,356	-0,442
47,999	-105,057	-0,309	-0,049
49,013	-95,740	-0,202	-0,038
50,028	-118,923	-0,343	-0,042
51,042	-10,583	-0,331	-0,154
52,057	107,888	-0,292	-0,245
53,071	94,209	-0,285	-0,228
54,086	-163,969	-0,286	-0,009
55,101	201,675	-0,199	-0,216
56,115	23,568	-0,301	-0,174
57,130	-44,681	-0,373	-0,130
58,144	176,515	-0,385	-0,395
59,159	177,585	-0,370	-0,380
60,174	43,271	-0,371	-0,238
61,188	383,708	-0,224	-0,326
62,203	157,080	-0,285	-0,278
63,217	162,790	-0,262	-0,260
64,232	-41,521	-0,277	-0,100
65,247	-76,947	-0,455	-0,111
66,261	218,442	-0,291	-0,328
67,276	0,954	-0,403	-0,203
68,290	148,689	-0,397	-0,378
69,305	27,832	-0,331	-0,196
70,320	50,940	-0,322	-0,214
71,334	-92,118	-0,316	-0,062
72,349	44,261	-0,363	-0,234
73,363	-8,547	-0,460	-0,217
74,378	131,430	-0,223	-0,202
75,393	-31,551	-0,348	-0,137
76,407	163,917	-0,156	-0,154
77,422	80,357	-0,201	-0,152
78,436	176,748	-0,202	-0,207
79,451	12,913	-0,279	-0,151
80,466	113,887	-0,332	-0,284
81,480	-98,406	-0,249	-0,044
82,495	251,203	-0,214	-0,256
83,509	182,353	-0,191	-0,199
84,524	169,247	-0,257	-0,258
85,539	6,363	-0,351	-0,183
86,553	97,901	-0,197	-0,159
87,568	-30,915	-0,396	-0,156
88,582	195,214	-0,139	-0,149
89,597	180,492	-0,294	-0,304
90,611	-0,541	-0,278	-0,138
91,626	209,130	-0,175	-0,193
92,641	384,576	-0,160	-0,233
93,655	6,446	-0,293	-0,152
94,670	86,483	-0,317	-0,245
95,684	359,318	-0,133	-0,187
96,699	1,363	-0,273	-0,138
97,714	62,708	-0,255	-0,179
98,728	80,681	-0,322	-0,243
99,743	194,702	-0,230	-0,246
100,757	266,903	-0,133	-0,163
101,772	58,480	-0,218	-0,150
102,787	230,073	-0,156	-0,180
103,801	111,417	-0,296	-0,251
104,816	13,225	-0,319	-0,173
105,830	45,804	-0,285	-0,185
106,845	-9,738	-0,263	-0,122
107,860	-127,329	-0,287	-0,029
108,874	81,356	-0,251	-0,191
109,889	-28,254	-0,348	-0,140
110,903	-33,603	-0,394	-0,152
111,918	18,064	-0,237	-0,132
112,933	-32,656	-0,371	-0,144
113,947	-71,878	-0,282	-0,073
114,962	55,912	-0,263	-0,179
115,976	-17,006	-0,290	-0,128
116,991	108,287	-0,292	-0,244
118,006	86,521	-0,248	-0,192
119,020	-56,219	-0,346	-0,107
120,035	30,094	-0,269	-0,160
121,049	13,326	-0,239	-0,129
122,064	44,556	-0,296	-0,190
123,079	82,707	-0,169	-0,129
124,093	212,017	-0,283	-0,313
125,108	166,704	-0,202	-0,201
126,122	-15,132	-0,347	-0,155
127,137	11,217	-0,159	-0,085
128,151	118,881	-0,134	-0,116
129,166	352,387	-0,106	-0,148
130,181	-112,009	-0,371	-0,052
131,195	223,004	-0,281	-0,317
132,210	42,706	-0,247	-0,157
133,224	45,098	-0,318	-0,205
134,239	24,979	-0,301	-0,174
135,254	-54,135	-0,256	-0,081
136,268	1,520	-0,222	-0,111
137,283	30,554	-0,171	-0,102
138,297	-2,340	-0,267	-0,131
139,312	-92,754	-0,212	-0,041
140,327	800,000	-0,095	-0,246
141,341	188,050	-0,150	-0,157
142,356	106,687	-0,208	-0,172
143,370	-89,519	-0,306	-0,062
144,385	63,205	-0,185	-0,129
145,400	-84,268	-0,294	-0,065
146,414	800,000	-0,092	-0,262
147,429	47,829	-0,229	-0,149
148,443	159,657	-0,264	-0,257
149,458	338,973	-0,090	-0,124
150,473	221,552	-0,141	-0,158
151,487	577,987	-0,123	-0,211
152,502	-27,144	-0,223	-0,090
153,516	-24,605	-0,268	-0,111
154,531	-45,537	-0,361	-0,124
155,546	46,996	-0,144	-0,093
156,560	241,924	-0,104	-0,122
157,575	187,324	-0,087	-0,091
158,589	-15,656	-0,250	-0,111
159,604	303,869	-0,169	-0,219
160,619	-108,740	-0,265	-0,039
161,633	201,569	-0,216	-0,233
162,648	83,878	-0,224	-0,171
163,662	312,312	-0,179	-0,236
164,677	-9,929	-0,214	-0,099
165,692	111,487	-0,276	-0,232
166,706	349,066	-0,225	-0,311
167,721	82,606	-0,237	-0,179
168,735	45,941	-0,263	-0,170
169,750	40,320	-0,231	-0,145
170,764	-119,763	-0,341	-0,041
171,779	138,264	-0,190	-0,174
172,794	-129,788	-0,210	-0,020
173,808	-122,597	-0,134	-0,015
174,823	60,443	-0,283	-0,195
175,837	-95,498	-0,409	-0,076
176,852	344,604	-0,117	-0,160
177,867	-163,424	-0,205	0,007
178,881	43,924	-0,225	-0,144
179,896	133,349	-0,074	-0,067
180,910	18,441	-0,264	-0,146
181,925	164,675	-0,256	-0,252
182,940	76,183	-0,250	-0,184
183,954	51,833	-0,261	-0,173
184,969	132,260	-0,176	-0,158
185,983	10,231	-0,262	-0,139
186,998	-47,266	-0,337	-0,114
188,013	16,538	-0,151	-0,083
189,027	52,231	-0,183	-0,121
190,042	-19,986	-0,273	-0,117
191,056	362,677	-0,182	-0,255
192,071	18,089	-0,035	-0,019
193,086	800,000	-0,086	-0,229
194,100	482,313	-0,130	-0,206
195,115	27,661	-0,294	-0,172
196,129	250,888	-0,165	-0,196
197,144	46,974	-0,323	-0,209
198,159	40,872	-0,258	-0,162
199,173	-12,936	-0,187	-0,084
200,188	38,529	-0,170	-0,105
201,202	110,633	-0,278	-0,233
202,217	85,371	-0,234	-0,179
203,232	-72,214	-0,205	-0,053
204,246	63,910	-0,246	-0,172
205,261	51,746	-0,218	-0,144
206,275	190,794	-0,198	-0,207
207,290	82,477	-0,040	-0,030
208,304	38,247	-0,203	-0,125
209,319	80,251	-0,262	-0,196
210,334	-64,544	-0,298	-0,084
211,348	426,606	-0,144	-0,217
212,363	113,612	-0,198	-0,167
213,377	-27,250	-0,174	-0,070
214,392	85,245	-0,163	-0,125
215,407	372,213	-0,150	-0,212
216,421	387,352	-0,164	-0,237
217,436	339,980	-0,155	-0,211
218,450	-5,642	-0,253	-0,120
219,465	90,416	-0,256	-0,199
220,480	262,842	-0,132	-0,159
221,494	131,315	-0,230	-0,206
222,509	-38,376	-0,109	-0,040
223,523	-135,111	-0,222	0,018
224,538	204,817	-0,220	-0,237
225,553	-20,547	-0,280	-0,119
226,567	74,360	-0,232	-0,169
227,582	84,535	-0,280	-0,213
228,596	800,000	-0,101	-0,248
229,611	108,208	-0,157	-0,130
230,626	25,699	-0,134	-0,077
231,640	64,311	-0,237	-0,166
232,655	159,832	-0,127	-0,123
233,669	208,905	-0,199	-0,216
234,684	-45,203	-0,225	-0,077
235,699	49,852	-0,192	-0,126
236,713	-51,971	-0,258	0,083
237,728	136,711	-0,136	-0,123
238,742	800,000	-0,054	-0,127
239,757	143,869	-0,226	-0,209
240,772	143,778	-0,123	-0,114
241,786	800,000	-0,095	-0,221
242,801	56,158	-0,215	-0,145
243,815	-115,742	-0,170	0,022
244,830	176,884	-0,134	-0,136
245,844	190,961	-0,151	-0,157
246,859	678,811	-0,109	-0,197
247,874	70,020	-0,234	-0,167
248,888	221,794	-0,198	-0,221
249,903	-6,352	-0,140	-0,066
250,917	800,000	-0,094	-0,186
251,932	-161,016	-0,212	-0,008
252,947	85,491	-0,119	-0,091
253,961	534,991	-0,120	-0,198
254,976	46,543	-0,247	-0,158
255,990	97,533	-0,182	-0,145
257,005	140,890	-0,040	-0,037
258,020	100,222	-0,167	-0,134
259,034	173,164	-0,152	-0,152
260,049	39,193	-0,196	-0,121
261,063	135,340	-0,072	-0,065
262,078	633,461	-0,132	-0,233
263,093	548,515	-0,122	-0,204
264,107	800,000	-0,067	-0,151
265,122	-120,586	-0,063	-0,007
266,136	-117,127	-0,149	0,019
267,151	93,522	-0,149	-0,117
268,166	491,011	-0,147	-0,234
269,180	118,231	-0,128	-0,109
270,195	283,998	-0,176	-0,220
271,209	35,199	-0,206	-0,125
272,224	-162,354	-0,202	0,007
273,239	-200,000	-0,033	-0,106
274,253	137,307	-0,178	-0,161
275,268	26,002	-0,114	-0,066
276,282	176,975	-0,254	-0,256
277,297	7,976	-0,233	-0,121
278,312	-23,389	-0,172	-0,071
279,326	170,376	-0,158	-0,156
280,341	-200,000	0,013	-0,077
281,355	1,112	-0,213	-0,105
282,370	-0,139	-0,255	-0,125
283,384	-72,355	-0,204	0,052
284,399	45,089	-0,138	-0,088
285,414	-89,861	-0,204	0,041
286,428	-36,992	-0,082	-0,030
287,443	-65,535	-0,152	-0,042
288,457	-160,575	-0,099	0,004
289,472	-111,088	-0,163	0,023
290,487	-200,000	-0,030	-0,097
291,501	-25,570	-0,214	-0,087
292,516	737,875	-0,058	-0,108
293,530	800,000	-0,045	-0,129
294,545	68,031	-0,131	-0,092
295,560	-200,000	-0,014	-0,200
296,574	221,382	-0,131	-0,145
297,589	-69,644	-0,110	-0,029
298,603	-109,556	-0,135	-0,019
299,618	774,060	-0,091	-0,172
300,633	-16,728	-0,133	-0,058
301,647	800,000	-0,056	-0,109
302,662	179,669	-0,105	-0,106
303,676	145,788	-0,169	-0,157
304,691	209,363	-0,177	-0,192
305,706	800,000	-0,105	-0,205
306,720	166,952	-0,153	-0,149
307,735	-123,545	-0,186	0,020
308,749	11,679	-0,080	-0,042
309,764	-200,000	-0,024	-0,186
310,779	-75,490	-0,078	-0,019
311,793	674,585	-0,100	-0,180
312,808	800,000	-0,047	-0,110
313,822	334,354	-0,127	-0,170
314,837	800,000	-0,069	-0,195
315,852	800,000	-0,092	-0,207
316,866	27,098	-0,122	-0,070
317,881	-54,213	-0,100	0,031
318,895	-92,768	-0,146	-0,028
319,910	104,966	-0,246	-0,200
320,925	54,217	-0,164	-0,108
321,939	-50,958	-0,142	-0,046
322,954	199,936	-0,146	-0,154
323,968	17,246	-0,125	-0,068
324,983	94,183	-0,087	-0,068
325,997	-118,292	-0,156	-0,019
327,012	-17,695	-0,212	-0,091
328,027	8,864	-0,167	-0,087
329,041	473,393	-0,103	-0,160
330,056	54,323	-0,154	-0,102
331,070	-104,570	-0,189	0,030
332,085	-118,797	-0,111	-0,013
333,100	-136,425	-0,270	0,021
334,114	105,066	-0,128	-0,103
335,129	146,471	-0,092	-0,085
336,143	-47,332	-0,193	-0,064
337,158	153,567	-0,072	-0,068
338,173	-88,730	-0,171	-0,035
339,187	365,503	-0,080	-0,111
340,202	171,561	-0,098	-0,097
341,216	17,340	-0,225	-0,122
342,231	233,687	-0,218	-0,247
343,246	183,462	-0,165	-0,168
344,260	-200,000	0,007	-0,142
345,275	384,950	-0,081	-0,115
346,289	-100,304	-0,093	-0,016
347,304	105,886	-0,102	0,083
348,319	-21,318	-0,116	-0,048
349,333	64,736	-0,282	-0,195
350,348	-1,837	-0,213	-0,103
351,362	87,653	-0,206	-0,157
352,377	-88,474	-0,098	0,020
353,392	-139,099	-0,088	-0,006
354,406	800,000	-0,089	-0,202
355,421	208,491	1313,847	1412,777
356,435	160,425	1474,476	1413,280
