DTS Sentinel unit serial number:	SN410029Multiplexer serial number:	ORYXHardware model number:	OX2-SRSoftware version number:	ORYX F/W v4,00 Oryx Data Collector v3.7.2.0data status	okinstallation	B3 Nyhavnadifferential loss correction	single-endedforward channel	channel 1reverse channel	N/Adate	2023/12/04time	19:02:30forward acquisition time	300,00reverse acquisition time	0,00gamma	499,1914k internal	0,3200k external	0,3200temperature offset calibration	1,0000default loss term (dB/km)	0,3820temperature slope calibration	1,0000multiplexer offset coefficient	1,0000multiplexer slope coefficient	1,0000fibre end	0,00T internal ref (°C)	14,80T ext. ref 1 (°C)	-0,57T ext. ref 2 (°C)	-0,58length (m)	temperature (°C)	Stokes	anti-Stokes-744,400	29,654	-0,192	-0,118
-743,385	-200,000	0,080	0,380
-742,371	268,076	-0,090	-0,114
-741,356	-200,000	0,061	0,322
-740,342	545,900	-0,128	-0,224
-739,327	-200,000	0,090	0,395
-738,312	156,576	-0,298	-0,300
-737,298	-200,000	0,042	0,144
-736,283	64,346	-0,206	-0,151
-735,269	-200,000	0,049	0,257
-734,254	136,434	-0,193	-0,183
-733,239	64,059	-0,178	0,130
-732,225	-21,123	-0,144	-0,064
-731,210	-78,117	0,084	0,021
-730,196	800,000	-0,012	-0,035
-729,181	-200,000	0,039	-0,174
-728,167	-55,060	0,124	-0,040
-727,152	65,394	0,039	-0,029
-726,137	-62,804	-0,165	-0,049
-725,123	800,000	-0,012	0,033
-724,108	-200,000	-0,035	-0,171
-723,094	800,000	-0,035	-0,099
-722,079	-200,000	-0,047	-0,175
-721,064	-200,000	-0,021	-0,099
-720,050	-108,243	-0,146	-0,023
-719,035	800,000	0,050	0,130
-718,021	-124,360	-0,202	-0,023
-717,006	-200,000	-0,022	-0,072
-715,991	38,343	-0,165	-0,107
-714,977	-132,690	-0,096	-0,009
-713,962	42,080	0,084	-0,055
-712,948	-65,035	0,125	-0,037
-711,933	-200,000	-0,014	0,049
-710,918	-200,000	0,023	-0,092
-709,904	-108,300	-0,029	0,005
-708,889	708,670	-0,053	-0,102
-707,875	800,000	-0,070	-0,190
-706,860	22,838	0,141	-0,084
-705,845	-200,000	-0,051	-0,218
-704,831	-58,706	0,080	-0,025
-703,816	800,000	0,036	-0,090
-702,802	-122,622	-0,070	-0,008
-701,787	605,170	-0,014	-0,025
-700,772	665,937	0,029	-0,055
-699,758	-86,839	-0,052	-0,012
-698,743	177,251	-0,055	-0,058
-697,729	-119,241	0,036	-0,005
-696,714	16,239	0,082	0,047
-695,699	-93,503	-0,041	0,008
-694,685	800,000	0,045	0,092
-693,670	-39,125	-0,097	-0,037
-692,656	-115,329	-0,153	0,021
-691,641	-106,122	0,050	0,008
-690,627	-32,105	0,061	-0,025
-689,612	-181,733	0,039	-0,001
-688,597	-47,137	-0,132	-0,047
-687,583	-26,106	-0,065	0,027
-686,568	800,000	-0,086	-0,240
-685,554	95,205	0,153	-0,127
-684,539	800,000	0,046	0,104
-683,524	-200,000	-0,002	-0,020
-682,510	-200,000	0,023	0,131
-681,495	302,264	-0,088	0,118
-680,481	-70,570	-0,115	-0,031
-679,466	680,414	-0,093	-0,177
-678,451	39,369	0,057	-0,037
-677,437	-30,850	-0,053	0,022
-676,422	49,068	-0,095	-0,064
-675,408	800,000	0,040	0,088
-674,393	-200,000	0,018	-0,242
-673,378	-200,000	-0,042	-0,241
-672,364	596,080	-0,126	-0,228
-671,349	-32,371	-0,133	-0,054
-670,335	18,128	-0,056	0,032
-669,320	160,938	-0,016	0,016
-668,305	-200,000	0,025	0,146
-667,291	-159,774	0,146	-0,006
-666,276	21,571	-0,065	-0,038
-665,262	-173,277	-0,015	-0,000
-664,247	-200,000	0,001	0,058
-663,232	67,093	-0,123	-0,091
-662,218	-68,586	0,140	0,039
-661,203	800,000	0,011	0,026
-660,189	800,000	0,036	0,087
-659,174	138,778	-0,117	0,111
-658,159	-200,000	-0,009	-0,056
-657,145	800,000	-0,035	-0,076
-656,130	-40,495	-0,121	0,045
-655,116	143,159	-0,015	0,015
-654,101	100,986	0,078	-0,066
-653,086	-200,000	-0,060	0,000
-652,072	-51,146	0,025	0,009
-651,057	-115,313	-0,030	-0,004
-650,043	800,000	0,024	-0,056
-649,028	-107,467	-0,162	-0,025
-648,014	435,952	-0,065	-0,104
-646,999	640,080	0,094	0,175
-645,984	50,586	0,066	0,045
-644,970	393,360	-0,067	0,102
-643,955	-110,128	-0,076	-0,011
-642,941	-200,000	-0,016	-0,179
-641,926	-200,000	-0,015	-0,054
-640,911	532,096	0,029	0,051
-639,897	40,110	0,139	-0,091
-638,882	494,244	-0,032	0,053
-637,868	-200,000	0,001	-0,066
-636,853	394,055	-0,015	-0,023
-635,838	-109,833	-0,065	0,010
-634,824	-200,000	0,009	-0,046
-633,809	-95,656	0,068	-0,013
-632,795	140,967	-0,090	-0,087
-631,780	-200,000	-0,003	-0,070
-630,765	456,418	-0,025	-0,041
-629,751	-14,065	-0,070	-0,033
-628,736	182,970	0,026	-0,028
-627,722	96,593	-0,036	-0,030
-626,707	193,617	-0,053	0,059
-625,692	-200,000	-0,001	0,083
-624,678	-30,414	-0,011	0,004
-623,663	490,726	0,027	-0,045
-622,649	327,500	-0,039	-0,054
-621,634	48,959	-0,067	-0,045
-620,619	151,093	-0,014	0,014
-619,605	2,551	0,063	-0,033
-618,590	-23,778	0,012	-0,005
-617,576	800,000	-0,038	0,116
-616,561	64,918	0,091	-0,066
-615,546	74,462	-0,051	0,039
-614,532	24,362	0,016	-0,010
-613,517	11,730	-0,132	-0,073
-612,503	40,064	-0,067	-0,043
-611,488	800,000	0,045	0,096
-610,474	-65,809	0,131	0,038
-609,459	-54,779	0,008	0,003
-608,444	800,000	0,030	-0,075
-607,430	151,787	-0,108	-0,107
-606,415	-190,686	-0,128	-0,001
-605,401	800,000	-0,051	-0,115
-604,386	-200,000	0,013	0,173
-603,371	-122,829	0,064	-0,007
-602,357	-20,268	-0,068	0,030
-601,342	800,000	-0,019	-0,051
-600,328	146,826	-0,076	0,074
-599,313	-200,000	-0,022	0,128
-598,298	-84,781	0,026	-0,006
-597,284	-26,583	0,125	0,053
-596,269	-97,542	-0,080	0,015
-595,255	750,442	0,053	0,104
-594,240	-116,610	-0,144	-0,019
-593,225	-77,457	-0,021	-0,005
-592,211	-200,000	0,025	-0,116
-591,196	49,894	-0,122	-0,083
-590,182	-29,045	0,047	-0,020
-589,167	153,655	0,086	-0,085
-588,152	449,134	0,055	0,088
-587,138	-19,435	0,072	0,032
-586,123	107,720	-0,032	0,027
-585,109	-25,772	0,020	0,009
-584,094	125,023	0,055	-0,050
-583,079	515,523	-0,016	0,027
-582,065	-75,515	-0,044	-0,011
-581,050	128,826	-0,064	0,059
-580,036	37,731	-0,063	0,041
-579,021	114,521	-0,044	0,039
-578,006	383,560	-0,048	0,071
-576,992	23,531	-0,023	-0,014
-575,977	-177,478	-0,081	-0,001
-574,963	-200,000	-0,011	-0,048
-573,948	557,725	0,013	-0,023
-572,934	-110,227	-0,039	-0,006
-571,919	800,000	-0,028	-0,072
-570,904	128,753	-0,084	-0,077
-569,890	-200,000	0,009	-0,046
-568,875	-144,416	-0,107	-0,007
-567,861	-78,382	0,102	0,025
-566,846	699,748	-0,068	-0,129
-565,831	160,636	-0,093	-0,094
-564,817	-51,071	-0,119	-0,040
-563,802	59,007	-0,055	-0,039
-562,788	-200,000	0,015	-0,054
-561,773	-92,833	0,084	-0,017
-560,758	800,000	0,018	0,054
-559,744	-200,000	-0,009	0,081
-558,729	-96,829	0,061	0,011
-557,715	-200,000	0,012	0,108
-556,700	-200,000	-0,009	-0,104
-555,685	-47,607	-0,022	0,008
-554,671	-41,128	0,134	-0,050
-553,656	-200,000	0,060	0,215
-552,642	228,383	0,030	0,035
-551,627	114,827	0,014	0,013
-550,612	200,724	0,031	0,035
-549,598	800,000	0,042	-0,121
-548,583	-5,837	0,111	0,055
-547,569	-97,953	0,099	-0,018
-546,554	224,523	-0,038	-0,044
-545,539	422,689	-0,044	0,068
-544,525	-93,320	-0,043	0,009
-543,510	800,000	0,046	-0,119
-542,496	800,000	-0,028	-0,073
-541,481	604,492	0,039	-0,071
-540,466	-200,000	-0,011	0,040
-539,452	-66,757	-0,151	0,043
-538,437	224,645	0,056	-0,066
-537,423	800,000	-0,035	0,079
-536,408	48,441	-0,086	-0,058
-535,393	33,624	-0,065	0,041
-534,379	-155,530	-0,150	-0,007
-533,364	394,116	0,063	-0,095
-532,350	-31,490	-0,026	0,011
-531,335	800,000	0,031	-0,073
-530,321	-200,000	0,001	0,095
-529,306	-46,232	-0,070	0,025
-528,291	-200,000	-0,038	-0,148
-527,277	-200,000	-0,020	-0,116
-526,262	-73,182	0,124	0,032
-525,248	-110,347	0,055	0,008
-524,233	-117,256	0,049	-0,006
-523,218	147,435	-0,038	0,037
-522,204	-13,384	0,090	-0,042
-521,189	570,645	-0,041	-0,072
-520,175	350,477	-0,038	-0,055
-519,160	-200,000	-0,012	-0,105
-518,145	-104,726	0,105	-0,017
-517,131	59,667	0,042	-0,030
-516,116	800,000	-0,071	0,198
-515,102	170,793	0,016	0,017
-514,087	-200,000	0,029	-0,103
-513,072	-33,675	-0,092	0,037
-512,058	-120,096	-0,146	0,018
-511,043	-47,716	0,099	0,034
-510,029	269,936	0,086	0,109
-509,014	-200,000	0,073	0,238
-507,999	373,966	-0,018	0,027
-506,985	-184,455	-0,114	0,001
-505,970	41,535	-0,065	-0,042
-504,956	532,439	-0,047	-0,080
-503,941	-81,931	-0,019	0,004
-502,926	464,255	0,047	-0,076
-501,912	273,276	-0,085	0,108
-500,897	-79,955	0,061	-0,015
-499,883	-114,118	-0,072	-0,010
-498,868	800,000	-0,049	-0,134
-497,853	-200,000	-0,013	0,058
-496,839	-170,497	0,118	-0,003
-495,824	-200,000	-0,019	0,123
-494,810	-200,000	0,001	0,017
-493,795	-1,828	0,036	-0,018
-492,781	-52,889	-0,089	0,029
-491,766	-112,656	0,128	0,018
-490,751	117,232	0,075	0,067
-489,737	-108,262	-0,253	-0,039
-488,722	129,402	0,100	-0,092
-487,708	-200,000	-0,020	0,133
-486,693	33,139	0,103	0,064
-485,678	-200,000	-0,004	0,071
-484,664	-122,549	0,051	0,006
-483,649	-29,464	-0,120	-0,049
-482,635	-200,000	0,021	-0,083
-481,620	-200,000	-0,011	0,066
-480,605	-200,000	0,006	0,088
-479,591	-200,000	0,008	-0,026
-478,576	308,361	0,033	-0,045
-477,562	92,908	-0,062	-0,051
-476,547	-200,000	-0,017	-0,130
-475,532	4,808	-0,024	-0,013
-474,518	-200,000	-0,004	0,062
-473,503	742,329	0,062	-0,121
-472,489	143,901	0,019	-0,018
-471,474	-83,992	-0,063	-0,014
-470,459	127,980	-0,079	-0,073
-469,445	-200,000	-0,001	-0,016
-468,430	800,000	-0,034	0,087
-467,416	-200,000	-0,007	-0,041
-466,401	512,515	-0,064	0,107
-465,386	92,306	-0,029	-0,023
-464,372	628,081	-0,062	0,113
-463,357	-200,000	0,015	-0,070
-462,343	-200,000	-0,002	0,039
-461,328	40,943	-0,089	-0,058
-460,313	-200,000	0,003	0,033
-459,299	-200,000	-0,020	0,081
-458,284	-163,226	0,099	0,003
-457,270	373,819	0,048	0,070
-456,255	102,960	0,088	0,074
-455,241	-200,000	0,013	0,073
-454,226	142,675	-0,027	0,026
-453,211	-200,000	0,018	-0,180
-452,197	-200,000	0,001	-0,163
-451,182	-50,874	0,094	0,031
-450,168	391,719	0,071	0,107
-449,153	-96,694	0,141	-0,026
-448,138	-200,000	-0,000	-0,124
-447,124	178,065	-0,112	-0,117
-446,109	800,000	-0,023	-0,061
-445,095	596,117	0,007	0,013
-444,080	205,014	0,103	-0,115
-443,065	-102,220	-0,082	-0,014
-442,051	800,000	0,049	0,111
-441,036	-104,700	-0,083	-0,014
-440,022	39,916	-0,076	-0,049
-439,007	-115,220	0,175	-0,023
-437,992	-200,000	0,005	0,057
-436,978	-127,773	-0,080	0,008
-435,963	36,459	-0,023	0,015
-434,949	-200,000	-0,008	0,102
-433,934	362,332	0,048	-0,069
-432,919	-200,000	-0,001	0,130
-431,905	356,499	-0,090	-0,129
-430,890	58,824	0,070	-0,050
-429,876	119,961	-0,054	-0,048
-428,861	-97,986	0,136	0,025
-427,846	22,868	-0,088	0,052
-426,832	800,000	-0,038	0,081
-425,817	-200,000	0,097	-0,000
-424,803	-200,000	-0,025	-0,143
-423,788	-200,000	-0,001	0,015
-422,773	-200,000	0,041	0,143
-421,759	107,966	-0,046	0,040
-420,744	119,482	0,019	-0,017
-419,730	-187,331	-0,081	0,001
-418,715	800,000	0,006	0,016
-417,701	-111,811	-0,082	0,012
-416,686	-7,445	0,085	0,041
-415,671	-161,756	0,060	-0,002
-414,657	-179,044	-0,079	0,001
-413,642	-200,000	0,028	-0,124
-412,628	424,956	-0,044	-0,068
-411,613	-200,000	0,011	-0,082
-410,598	126,449	0,129	-0,118
-409,584	-200,000	-0,007	0,051
-408,569	256,358	0,101	-0,124
-407,555	800,000	-0,022	0,058
-406,540	-200,000	0,016	-0,077
-405,525	235,943	-0,082	0,097
-404,511	-200,000	0,010	0,064
-403,496	-70,817	0,137	0,037
-402,482	225,993	-0,040	0,047
-401,467	-125,687	-0,108	-0,012
-400,452	-200,000	0,002	0,133
-399,438	74,058	-0,131	0,099
-398,423	21,143	0,180	-0,105
-397,409	90,561	-0,003	-0,003
-396,394	-200,000	0,009	-0,096
-395,379	98,338	-0,070	-0,058
-394,365	37,040	0,037	-0,023
-393,350	334,291	0,053	0,074
-392,336	800,000	0,019	0,056
-391,321	16,481	-0,054	0,030
-390,306	374,361	-0,021	0,031
-389,292	-200,000	-0,002	-0,017
-388,277	-127,258	-0,063	-0,007
-387,263	60,984	0,039	0,028
-386,248	-200,000	0,007	0,083
-385,233	399,978	0,057	0,087
-384,219	20,683	0,030	0,017
-383,204	-200,000	0,003	-0,040
-382,190	345,368	0,044	-0,062
-381,175	-200,000	0,004	-0,135
-380,160	176,449	0,025	-0,026
-379,146	450,670	-0,024	-0,038
-378,131	-38,579	0,024	-0,009
-377,117	-200,000	-0,001	-0,291
-376,102	182,749	0,040	-0,043
-375,088	161,141	0,034	-0,034
-374,073	69,040	-0,054	0,039
-373,058	-200,000	0,007	0,078
-372,044	69,328	-0,055	0,041
-371,029	-66,355	-0,016	-0,005
-370,015	7,665	-0,098	0,052
-369,000	-75,634	0,064	-0,016
-367,985	-122,969	-0,089	0,010
-366,971	-14,250	0,076	0,035
-365,956	-93,695	0,123	0,024
-364,942	-38,932	0,269	0,101
-363,927	800,000	0,028	0,088
-362,912	-102,950	-0,115	-0,019
-361,898	532,259	0,083	-0,141
-360,883	-200,000	0,003	-0,011
-359,869	364,040	0,015	0,022
-358,854	-68,193	-0,096	0,027
-357,839	278,866	0,082	0,104
-356,825	-64,700	0,102	-0,029
-355,810	800,000	-0,044	0,108
-354,796	300,560	0,032	-0,042
-353,781	3,840	0,116	0,060
-352,766	277,577	-0,150	-0,192
-351,752	800,000	-0,062	0,134
-350,737	-100,815	0,139	0,024
-349,723	-200,000	-0,005	0,109
-348,708	-37,676	0,155	-0,059
-347,693	-55,562	-0,097	0,031
-346,679	-200,000	-0,005	0,022
-345,664	800,000	0,024	-0,071
-344,650	-88,184	-0,077	-0,016
-343,635	-196,926	0,059	-0,000
-342,620	635,295	0,016	0,029
-341,606	588,285	0,006	-0,011
-340,591	237,909	-0,042	-0,050
-339,577	529,874	-0,040	0,068
-338,562	-200,000	-0,005	0,048
-337,548	145,410	-0,117	0,112
-336,533	-92,946	0,084	0,017
-335,518	140,585	0,048	-0,045
-334,504	-98,000	0,038	0,007
-333,489	152,587	-0,056	0,054
-332,475	-39,507	-0,107	-0,040
-331,460	-46,681	-0,166	0,058
-330,445	24,058	-0,070	0,041
-329,431	-200,000	-0,008	0,119
-328,416	-200,000	-0,027	0,089
-327,402	37,746	0,131	0,083
-326,387	-200,000	0,021	-0,116
-325,372	4,006	0,046	-0,024
-324,358	-200,000	0,002	0,028
-323,343	-57,854	-0,109	0,034
-322,329	-109,236	0,078	-0,012
-321,314	-200,000	0,010	-0,085
-320,299	505,344	0,020	0,034
-319,285	-83,201	0,086	-0,020
-318,270	-99,420	-0,048	0,009
-317,256	-49,014	-0,083	-0,028
-316,241	-200,000	0,048	-0,156
-315,226	-200,000	0,049	0,000
-314,212	34,613	0,140	-0,088
-313,197	122,446	0,114	0,102
-312,183	12,610	0,028	-0,015
-311,168	152,971	0,101	-0,099
-310,153	-200,000	0,014	-0,056
-309,139	83,469	-0,052	0,040
-308,124	199,447	0,100	0,110
-307,110	-58,206	0,141	-0,044
-306,095	-54,599	-0,029	-0,009
-305,080	-51,418	0,138	0,046
-304,066	253,516	0,059	0,072
-303,051	-200,000	-0,022	0,092
-302,037	-23,147	-0,126	0,054
-301,022	170,430	0,124	0,127
-300,008	22,638	-0,089	-0,052
-298,993	-200,000	0,000	0,121
-297,978	425,694	0,086	0,133
-296,964	-200,000	-0,002	-0,038
-295,949	-30,390	0,015	-0,006
-294,935	-36,420	-0,105	-0,040
-293,920	-112,926	0,072	-0,010
-292,905	159,581	-0,026	0,026
-291,891	-30,482	-0,054	0,022
-290,876	-200,000	0,057	0,182
-289,862	-200,000	0,002	-0,018
-288,847	-112,147	0,054	0,008
-287,832	118,704	-0,079	0,070
-286,818	95,172	-0,145	-0,118
-285,803	64,213	0,171	0,123
-284,789	-116,402	-0,077	0,010
-283,774	-78,597	0,113	0,027
-282,759	85,133	0,030	-0,023
-281,745	800,000	-0,034	-0,088
-280,730	800,000	-0,017	-0,050
-279,716	-73,551	-0,020	0,005
-278,701	-69,622	0,023	-0,006
-277,686	-43,172	0,181	0,065
-276,672	132,660	0,005	-0,005
-275,657	-200,000	-0,013	-0,087
-274,643	36,993	-0,060	-0,038
-273,628	800,000	-0,052	-0,106
-272,613	625,685	0,051	-0,093
-271,599	-135,700	0,073	0,006
-270,584	-91,114	0,098	0,020
-269,570	-200,000	-0,033	0,135
-268,555	244,789	-0,110	0,132
-267,540	57,011	0,111	-0,077
-266,526	145,224	-0,084	-0,080
-265,511	34,036	0,011	-0,007
-264,497	102,035	0,071	-0,059
-263,482	800,000	0,082	0,165
-262,467	-200,000	0,011	-0,102
-261,453	-50,693	-0,009	0,003
-260,438	800,000	-0,032	-0,065
-259,424	-200,000	0,011	0,035
-258,409	412,677	-0,035	0,054
-257,395	800,000	-0,067	0,200
-256,380	-200,000	-0,037	0,130
-255,365	-200,000	0,000	-0,097
-254,351	800,000	-0,015	0,044
-253,336	73,514	-0,084	0,063
-252,322	657,712	0,042	-0,077
-251,307	102,429	-0,064	-0,054
-250,292	92,302	-0,093	0,074
-249,278	800,000	-0,023	0,063
-248,263	193,352	0,075	-0,081
-247,249	324,759	-0,053	-0,073
-246,234	222,245	0,048	-0,055
-245,219	-36,346	-0,122	-0,047
-244,205	-200,000	-0,026	-0,155
-243,190	-200,000	-0,011	-0,078
-242,176	-47,986	-0,125	0,043
-241,161	800,000	0,023	-0,049
-240,146	26,323	-0,025	0,015
-239,132	216,583	-0,094	-0,107
-238,117	-200,000	-0,012	0,077
-237,103	-200,000	-0,021	-0,123
-236,088	-200,000	-0,006	0,055
-235,073	19,650	0,106	0,061
-234,059	-27,300	0,041	-0,017
-233,044	-127,112	-0,078	0,008
-232,030	800,000	-0,039	-0,077
-231,015	-45,428	-0,082	-0,029
-230,000	800,000	0,013	0,028
-228,986	-182,810	-0,051	-0,001
-227,971	-119,274	0,104	0,013
-226,957	389,987	0,056	0,082
-225,942	-50,079	-0,044	0,015
-224,927	-32,938	0,052	0,020
-223,913	-200,000	-0,007	-0,037
-222,898	269,970	-0,033	-0,042
-221,884	22,965	0,055	-0,032
-220,869	266,601	0,071	-0,089
-219,855	-66,425	-0,061	0,017
-218,840	-183,746	0,019	0,000
-217,825	37,696	0,111	-0,070
-216,811	41,743	-0,021	0,014
-215,796	114,385	0,039	-0,034
-214,782	-200,000	-0,008	-0,209
-213,767	-200,000	0,008	0,062
-212,752	-200,000	0,038	0,133
-211,738	-200,000	0,017	0,182
-210,723	-80,320	-0,086	0,020
-209,709	195,466	0,087	-0,095
-208,694	617,267	-0,013	-0,023
-207,679	800,000	-0,018	0,045
-206,665	88,054	-0,034	-0,027
-205,650	203,241	-0,131	-0,145
-204,636	800,000	-0,075	0,149
-203,621	30,997	0,026	-0,016
-202,606	314,714	-0,025	0,033
-201,592	-200,000	0,011	-0,077
-200,577	540,685	-0,039	-0,066
-199,563	800,000	0,048	0,117
-198,548	179,998	0,087	0,091
-197,533	36,780	0,103	0,065
-196,519	97,608	-0,100	0,082
-195,504	258,052	0,036	-0,045
-194,490	-126,277	-0,038	0,004
-193,475	103,517	0,025	-0,021
-192,460	-200,000	0,011	0,132
-191,446	-200,000	0,010	0,085
-190,431	-200,000	0,028	0,134
-189,417	-21,773	-0,014	-0,006
-188,402	71,368	0,122	-0,090
-187,387	129,802	-0,092	-0,084
-186,373	-31,464	-0,019	-0,008
-185,358	796,092	0,038	-0,074
-184,344	-143,145	0,099	0,007
-183,329	293,323	0,097	0,126
-182,315	58,079	0,087	0,061
-181,300	-156,189	-0,072	-0,003
-180,285	-200,000	-0,063	-0,235
-179,271	-35,874	0,093	0,036
-178,256	800,000	-0,032	-0,064
-177,242	-200,000	-0,020	0,084
-176,227	-200,000	0,024	0,112
-175,212	-91,880	-0,027	0,005
-174,198	35,992	0,066	-0,041
-173,183	-163,854	-0,065	0,002
-172,169	-24,745	-0,105	0,044
-171,154	-138,639	0,036	0,003
-170,139	-125,527	-0,024	-0,003
-169,125	800,000	0,034	-0,075
-168,110	26,708	0,077	0,046
-167,096	-200,000	0,020	-0,127
-166,081	27,221	-0,067	0,040
-165,066	-14,215	-0,144	-0,066
-164,052	46,128	0,032	-0,021
-163,037	-0,327	0,079	-0,040
-162,023	-50,526	0,071	0,024
-161,008	800,000	-0,043	0,092
-159,993	-54,865	0,094	0,030
-158,979	-200,000	-0,006	-0,067
-157,964	34,372	-0,113	0,070
-156,950	-200,000	0,024	-0,099
-155,935	59,449	-0,109	0,076
-154,920	-88,493	0,093	-0,019
-153,906	-2,812	0,066	0,033
-152,891	800,000	-0,027	0,057
-151,877	212,833	-0,111	0,125
-150,862	-177,423	-0,073	-0,001
-149,847	-200,000	-0,005	0,056
-148,833	68,923	0,037	0,027
-147,818	-112,212	0,092	0,013
-146,804	101,845	-0,157	0,130
-145,789	-168,993	0,029	-0,001
-144,775	495,856	-0,111	-0,182
-143,760	-200,000	0,019	-0,154
-142,745	-200,000	-0,002	-0,079
-141,731	510,200	0,041	-0,069
-140,716	41,176	0,049	0,032
-139,702	-200,000	0,026	0,120
-138,687	-7,457	-0,093	-0,044
-137,672	800,000	0,010	0,021
-136,658	-200,000	-0,038	-0,153
-135,643	597,633	-0,081	-0,142
-134,629	800,000	0,003	-0,005
-133,614	800,000	-0,037	0,099
-132,599	-200,000	0,009	0,050
-131,585	251,994	0,103	0,125
-130,570	-93,248	0,038	0,007
-129,556	137,356	-0,078	-0,073
-128,541	-16,285	-0,084	0,038
-127,526	125,303	-0,044	0,040
-126,512	68,956	-0,062	0,045
-125,497	56,530	0,063	0,043
-124,483	-200,000	-0,014	0,043
-123,468	15,156	-0,037	-0,021
-122,453	160,777	0,012	0,012
-121,439	800,000	-0,096	-0,245
-120,424	695,730	0,032	0,061
-119,410	637,303	0,067	0,121
-118,395	800,000	0,039	-0,079
-117,380	-127,994	0,178	0,018
-116,366	-200,000	0,006	0,094
-115,351	77,078	0,037	-0,028
-114,337	-22,863	-0,120	-0,051
-113,322	-200,000	-0,002	-0,038
-112,307	434,026	0,071	0,110
-111,293	-200,000	-0,002	0,024
-110,278	349,371	0,119	0,167
-109,264	-32,385	0,035	0,014
-108,249	125,306	-0,033	0,030
-107,234	-200,000	0,030	-0,113
-106,220	167,556	-0,022	-0,022
-105,205	115,563	0,077	-0,066
-104,191	-95,342	0,160	0,030
-103,176	-78,144	0,087	-0,021
-102,162	800,000	-0,061	0,148
-101,147	800,000	0,044	-0,096
-100,132	-200,000	-0,010	-0,075
-99,118	-58,723	-0,095	0,029
-98,103	800,000	-0,046	-0,106
-97,089	-128,364	0,154	0,015
-96,074	-200,000	-0,002	0,184
-95,059	-200,000	0,002	0,090
-94,045	-37,198	-0,035	0,013
-93,030	98,925	-0,052	-0,042
-92,016	800,000	0,021	0,059
-91,001	800,000	-0,049	0,098
-89,986	38,496	0,038	-0,024
-88,972	-169,759	0,155	-0,004
-87,957	190,678	-0,029	-0,031
-86,943	70,534	-0,184	-0,135
-85,928	140,037	0,052	-0,048
-84,913	187,231	-0,033	0,035
-83,899	-200,000	-0,001	0,038
-82,884	780,166	0,084	0,163
-81,870	800,000	0,021	0,046
-80,855	800,000	-0,016	0,048
-79,840	-200,000	0,008	-0,060
-78,826	-33,423	0,045	0,017
-77,811	-23,453	-0,037	-0,016
-76,797	-200,000	0,009	-0,105
-75,782	800,000	0,057	-0,138
-74,767	-200,000	0,017	0,260
-73,753	-200,000	-0,008	-0,055
-72,738	125,320	0,103	0,092
-71,724	-200,000	0,020	-0,084
-70,709	-72,767	0,120	0,031
-69,694	-200,000	0,013	-0,061
-68,680	-200,000	0,005	0,105
-67,665	800,000	0,016	-0,043
-66,651	-118,900	0,031	-0,004
-65,636	67,098	0,048	0,035
-64,622	96,968	0,114	-0,093
-63,607	-200,000	-0,047	-0,161
-62,592	-200,000	-0,018	0,091
-61,578	-31,608	0,061	-0,024
-60,563	16,660	0,079	0,044
-59,549	800,000	0,037	0,099
-58,534	-23,977	-1,497	-0,631
-57,519	374,266	-1,456	-2,106
-56,505	-200,000	-0,671	-4,727
-55,490	131,663	0,996	0,908
-54,476	800,000	5,076	11,434
-53,461	-200,000	18,300	292,541
-52,446	800,000	729,117	2243,197
-51,432	556,607	1645,522	2818,560
-50,417	79,068	1666,967	1262,970
-49,403	22,659	1540,589	890,758
-48,388	16,642	1463,713	817,138
-47,373	17,845	1453,462	817,183
-46,359	17,171	1443,937	808,569
-45,344	14,980	1439,176	795,402
-44,330	14,878	1437,432	793,919
-43,315	14,880	1435,674	792,928
-42,300	14,833	1434,239	791,879
-41,286	14,953	1432,788	791,616
-40,271	14,898	1431,521	790,625
-39,257	14,910	1430,026	789,821
-38,242	14,949	1428,806	789,302
-37,227	14,931	1427,670	788,556
-36,213	14,950	1426,298	787,860
-35,198	14,898	1425,435	787,107
-34,184	14,929	1424,474	786,690
-33,169	14,899	1423,161	785,791
-32,154	14,879	1422,166	785,118
-31,140	14,888	1420,939	784,449
-30,125	14,944	1419,671	783,984
-29,111	14,871	1418,692	783,070
-28,096	14,918	1417,383	782,534
-27,082	14,879	1416,237	781,687
-26,067	14,824	1415,125	780,786
-25,052	14,832	1414,185	780,273
-24,038	14,815	1413,231	779,637
-23,023	14,785	1412,382	778,997
-22,009	14,835	1411,166	778,527
-20,994	14,784	1410,482	777,883
-19,979	14,760	1409,516	777,204
-18,965	14,752	1408,361	776,501
-17,950	14,748	1407,508	775,982
-16,936	14,810	1406,394	775,625
-15,921	14,734	1405,487	774,739
-14,906	14,721	1404,474	774,089
-13,892	14,729	1403,787	773,718
-12,877	14,710	1402,663	772,979
-11,863	14,708	1401,837	772,485
-10,848	14,722	1400,992	772,052
-9,833	14,708	1400,119	771,475
-8,819	14,650	1399,251	770,698
-7,804	14,655	1398,390	770,217
-6,790	14,666	1397,158	769,557
-5,775	14,651	1396,077	768,864
-4,760	14,655	1395,306	768,426
-3,746	14,616	1394,421	767,729
-2,731	14,638	1393,744	767,425
-1,717	14,614	1392,745	766,733
-0,702	14,634	1390,873	765,767
0,313	18,346	1309,442	738,149
1,327	34,624	706,281	435,846
2,342	52,728	124,414	84,007
3,356	2,728	16,719	8,552
4,371	10,244	3,194	1,714
5,386	-9,966	0,627	0,294
6,400	-200,000	-0,006	0,256
7,415	120,483	-0,312	-0,274
8,429	92,209	-0,350	-0,279
9,444	-22,645	-0,200	-0,085
10,459	70,857	-0,281	-0,206
11,473	-32,733	-0,333	-0,130
12,488	165,017	-0,275	-0,275
13,502	40,399	-0,401	-0,254
14,517	-35,267	-0,337	-0,129
15,531	309,851	-0,202	-0,268
16,546	41,503	-0,255	-0,163
17,561	115,723	-0,356	-0,308
18,575	-131,867	-0,235	-0,021
19,590	109,318	-0,313	-0,265
20,604	24,548	-0,240	-0,140
21,619	10,287	-0,415	-0,223
22,634	67,810	-0,467	-0,337
23,648	15,222	-0,449	-0,248
24,663	90,560	-0,466	-0,369
25,677	71,815	-0,357	-0,262
26,692	109,618	-0,375	-0,318
27,707	48,270	-0,440	-0,290
28,721	195,446	-0,298	-0,320
29,736	263,218	-0,271	-0,333
30,750	288,509	-0,312	-0,400
31,765	365,014	-0,321	-0,458
32,780	106,970	-0,366	-0,306
33,794	62,425	-0,309	-0,218
34,809	102,445	-0,262	-0,216
35,823	102,762	-0,312	-0,257
36,838	41,420	-0,449	-0,286
37,853	85,122	-0,381	-0,294
38,867	278,376	-0,364	-0,459
39,882	356,206	-0,237	-0,334
40,896	61,384	-0,306	-0,214
41,911	-6,328	-0,292	-0,140
42,926	35,340	-0,404	-0,249
43,940	48,860	-0,301	-0,199
44,955	122,727	-0,369	-0,326
45,969	170,559	-0,290	-0,293
46,984	7,255	-0,310	-0,163
47,999	-40,934	-0,321	-0,116
49,013	192,827	-0,233	-0,249
50,028	-45,148	-0,303	-0,106
51,042	11,465	-0,282	-0,152
52,057	185,100	-0,323	-0,338
53,071	127,433	-0,251	-0,224
54,086	63,299	-0,331	-0,233
55,101	89,564	-0,346	-0,272
56,115	122,986	-0,311	-0,275
57,130	-7,326	-0,346	-0,164
58,144	1,694	-0,405	-0,205
59,159	63,331	-0,366	-0,258
60,174	12,527	-0,346	-0,187
61,188	-71,971	-0,317	-0,082
62,203	189,609	-0,226	-0,239
63,217	227,934	-0,199	-0,228
64,232	-6,900	-0,344	-0,164
65,247	120,598	-0,254	-0,222
66,261	38,713	-0,319	-0,200
67,276	126,923	-0,339	-0,302
68,290	95,828	-0,247	-0,199
69,305	67,540	-0,306	-0,220
70,320	115,774	-0,252	-0,217
71,334	15,883	-0,280	-0,155
72,349	-84,852	-0,235	-0,051
73,363	-27,808	-0,412	-0,167
74,378	-62,887	-0,298	-0,086
75,393	34,862	-0,365	-0,224
76,407	277,406	-0,224	-0,281
77,422	33,727	-0,444	-0,271
78,436	-47,338	-0,308	-0,105
79,451	54,339	-0,295	-0,200
80,466	57,510	-0,296	-0,203
81,480	136,372	-0,256	-0,234
82,495	-24,361	-0,412	-0,172
83,509	-26,408	-0,389	-0,159
84,524	-47,838	-0,247	-0,084
85,539	79,222	-0,300	-0,226
86,553	-10,389	-0,368	-0,171
87,568	82,718	-0,324	-0,247
88,582	-66,602	-0,332	-0,092
89,597	3,006	-0,249	-0,127
90,611	-41,774	-0,318	-0,114
91,626	6,117	-0,313	-0,162
92,641	44,947	-0,273	-0,176
93,655	30,468	-0,289	-0,173
94,670	49,518	-0,191	-0,126
95,684	0,909	-0,362	-0,182
96,699	-27,651	-0,349	-0,142
97,714	96,893	-0,185	-0,149
98,728	51,889	-0,201	-0,134
99,743	-72,206	-0,385	-0,099
100,757	102,077	-0,276	-0,226
101,772	60,841	-0,239	-0,166
102,787	-20,863	-0,297	-0,127
103,801	51,881	-0,263	-0,175
104,816	21,966	-0,340	-0,194
105,830	-104,982	-0,349	-0,056
106,845	27,058	-0,220	-0,129
107,860	-28,798	-0,305	-0,122
108,874	-23,865	-0,223	-0,093
109,889	322,300	-0,284	-0,380
110,903	224,437	-0,266	-0,302
111,918	-116,847	-0,302	-0,038
112,933	-27,545	-0,331	-0,134
113,947	33,718	-0,189	-0,115
114,962	-127,944	-0,249	-0,025
115,976	25,575	-0,281	-0,164
116,991	118,512	-0,323	-0,279
118,006	341,413	-0,142	-0,196
119,020	-19,864	-0,299	-0,129
120,035	139,588	-0,125	-0,115
121,049	316,003	-0,107	-0,142
122,064	-11,684	-0,349	-0,160
123,079	134,674	-0,365	-0,331
124,093	800,000	-0,082	-0,171
125,108	121,258	-0,308	-0,269
126,122	-17,451	-0,334	-0,147
127,137	-31,991	-0,189	-0,074
128,151	676,438	-0,122	-0,222
129,166	-38,852	-0,290	-0,107
130,181	-89,432	-0,229	-0,047
131,195	107,659	-0,242	-0,201
132,210	43,308	-0,408	-0,260
133,224	593,481	-0,205	-0,356
134,239	83,420	-0,241	-0,184
135,254	278,937	-0,216	-0,270
136,268	196,017	-0,197	-0,210
137,283	-1,480	-0,340	-0,167
138,297	26,753	-0,363	-0,212
139,312	286,157	-0,173	-0,218
140,327	140,021	-0,261	-0,241
141,341	32,896	-0,241	-0,146
142,356	281,354	-0,145	-0,182
143,370	441,250	-0,151	-0,232
144,385	-52,782	-0,363	-0,116
145,400	31,755	-0,276	-0,166
146,414	126,651	-0,264	-0,234
147,429	141,805	-0,289	-0,267
148,443	167,419	-0,212	-0,210
149,458	21,335	-0,225	-0,128
150,473	28,828	-0,341	-0,201
151,487	28,978	-0,259	-0,153
152,502	21,433	-0,311	-0,176
153,516	51,676	-0,378	-0,251
154,531	106,572	-0,263	-0,218
155,546	153,628	-0,201	-0,192
156,560	-59,745	-0,205	-0,061
157,575	-21,750	-0,184	-0,078
158,589	-28,905	-0,245	-0,098
159,604	64,544	-0,171	-0,120
160,619	-35,163	-0,324	-0,123
161,633	217,041	-0,327	-0,364
162,648	301,975	-0,241	-0,311
163,662	146,640	-0,137	-0,129
164,677	84,745	-0,155	-0,118
165,692	38,904	-0,243	-0,151
166,706	165,435	-0,263	-0,259
167,721	170,701	-0,277	-0,277
168,735	-78,908	-0,224	-0,053
169,750	91,302	-0,183	-0,143
170,764	154,631	-0,262	-0,251
171,779	562,908	-0,125	-0,212
172,794	214,912	-0,178	-0,196
173,808	66,901	-0,178	-0,126
174,823	191,473	-0,189	-0,199
175,837	161,609	-0,327	-0,319
176,852	-5,927	-0,373	-0,177
177,867	52,642	-0,163	-0,108
178,881	123,068	-0,116	-0,101
179,896	800,000	-0,046	-0,116
180,910	56,928	-0,251	-0,170
181,925	357,645	-0,203	-0,284
182,940	370,874	-0,213	-0,301
183,954	344,402	-0,173	-0,236
184,969	4,299	-0,194	-0,098
185,983	34,145	-0,174	-0,106
186,998	134,960	-0,194	-0,175
188,013	167,732	-0,203	-0,202
189,027	83,015	-0,242	-0,183
190,042	-153,650	-0,235	-0,011
191,056	-86,026	-0,245	-0,052
192,071	-105,853	-0,109	0,017
193,086	245,725	-0,105	-0,123
194,100	125,817	-0,267	-0,235
195,115	113,630	-0,191	-0,162
196,129	294,787	-0,283	-0,361
197,144	-200,000	-0,053	-0,236
198,159	269,056	-0,258	-0,316
199,173	149,284	-0,136	-0,128
200,188	167,252	-0,239	-0,236
201,202	-200,000	-0,065	-0,207
202,217	54,469	-0,217	-0,145
203,232	800,000	-0,123	-0,240
204,246	-81,074	-0,335	-0,077
205,261	-25,730	-0,222	-0,090
206,275	-8,522	-0,234	-0,109
207,290	3,695	-0,207	-0,105
208,304	-50,674	-0,304	-0,099
209,319	291,032	-0,144	-0,182
210,334	-72,003	-0,129	-0,033
211,348	154,427	-0,109	-0,104
212,363	106,806	-0,245	-0,202
213,377	88,424	-0,131	-0,101
214,392	42,934	-0,171	-0,108
215,407	43,395	-0,116	0,073
216,421	181,210	-0,080	-0,081
217,436	180,219	-0,175	-0,179
218,450	-4,291	-0,283	-0,135
219,465	261,106	-0,232	-0,279
220,480	300,797	-0,146	-0,188
221,494	-83,785	-0,147	-0,032
222,509	10,361	-0,154	-0,081
223,523	-16,249	-0,281	-0,123
224,538	387,697	-0,113	-0,162
225,553	140,401	-0,158	-0,144
226,567	11,731	-0,274	-0,146
227,582	157,332	-0,179	-0,172
228,596	800,000	-0,075	-0,220
229,611	279,625	-0,184	-0,229
230,626	167,804	-0,130	-0,128
231,640	-112,601	-0,232	0,032
232,655	-138,804	-0,218	-0,016
233,669	96,642	-0,184	-0,146
234,684	529,491	-0,143	-0,235
235,699	7,649	-0,241	-0,125
236,713	748,392	-0,131	-0,245
237,728	800,000	-0,109	-0,228
238,742	119,271	-0,108	-0,093
239,757	18,294	-0,245	-0,135
240,772	350,752	-0,164	-0,225
241,786	117,073	-0,250	-0,213
242,801	390,119	-0,164	-0,236
243,815	276,276	-0,090	-0,111
244,830	800,000	-0,064	-0,160
245,844	590,285	-0,132	-0,226
246,859	-155,991	-0,244	-0,011
247,874	224,818	-0,169	-0,190
248,888	64,065	-0,251	-0,175
249,903	169,113	-0,132	-0,131
250,917	110,921	-0,132	-0,110
251,932	77,014	-0,138	-0,101
252,947	-68,852	-0,210	-0,056
253,961	278,755	-0,112	-0,138
254,976	162,508	-0,174	-0,169
255,990	351,300	-0,167	-0,229
257,005	800,000	-0,127	-0,246
258,020	-86,524	-0,223	0,047
259,034	-145,393	-0,254	-0,016
260,049	-57,483	-0,183	0,055
261,063	551,947	-0,145	-0,242
262,078	304,742	-0,181	-0,233
263,093	116,185	-0,177	-0,150
264,107	164,195	-0,230	-0,225
265,122	-143,989	-0,170	-0,011
266,136	-99,146	-0,207	-0,036
267,151	30,233	-0,113	-0,066
268,166	108,604	-0,149	-0,123
269,180	216,081	-0,218	-0,239
270,195	352,987	-0,202	-0,278
271,209	47,201	-0,201	-0,129
272,224	208,231	-0,118	-0,128
273,239	-29,126	-0,158	-0,062
274,253	140,136	-0,091	-0,083
275,268	13,003	-0,215	-0,114
276,282	-0,168	-0,157	-0,077
277,297	559,663	-0,139	-0,234
278,312	71,729	-0,144	-0,103
279,326	157,557	-0,111	-0,107
280,341	-43,272	-0,132	-0,046
281,355	5,510	-0,194	-0,099
282,370	-105,232	-0,116	-0,018
283,384	314,598	-0,178	-0,232
284,399	509,664	-0,169	-0,273
285,414	-44,653	-0,159	0,055
286,428	501,528	-0,045	-0,073
287,443	73,276	-0,095	-0,069
288,457	70,090	-0,115	-0,082
289,472	463,087	-0,052	-0,080
290,487	45,489	-0,141	-0,090
291,501	-3,768	-0,102	-0,049
292,516	197,278	-0,179	-0,189
293,530	-182,305	-0,195	0,002
294,545	-200,000	-0,026	-0,175
295,560	371,268	-0,120	-0,169
296,574	37,347	-0,109	-0,066
297,589	800,000	-0,100	-0,193
298,603	175,685	-0,170	-0,170
299,618	19,855	-0,236	-0,131
300,633	190,413	-0,207	-0,214
301,647	67,802	-0,138	-0,097
302,662	-37,148	-0,142	-0,052
303,676	581,001	-0,065	-0,110
304,691	254,709	-0,166	-0,197
305,706	16,398	-0,129	-0,070
306,720	-200,000	-0,059	-0,253
307,735	800,000	-0,069	-0,174
308,749	268,095	-0,165	-0,199
309,764	139,336	-0,049	-0,045
310,779	73,754	-0,131	-0,095
311,793	-52,835	-0,155	0,049
312,808	93,835	-0,243	-0,190
313,822	-34,563	-0,234	-0,088
314,837	190,876	-0,174	-0,181
315,852	-3,776	-0,118	0,056
316,866	169,683	-0,127	-0,125
317,881	-6,321	-0,113	-0,053
318,895	-200,000	-0,011	-0,039
319,910	260,712	-0,163	-0,195
320,925	800,000	-0,089	-0,231
321,939	31,133	-0,122	-0,072
322,954	120,739	-0,085	0,073
323,968	-159,559	-0,160	-0,006
324,983	-13,861	-0,227	-0,100
325,997	196,529	-0,100	-0,105
327,012	350,477	-0,150	-0,205
328,027	348,885	-0,126	-0,171
329,041	110,681	-0,140	-0,116
330,056	-200,000	-0,012	-0,087
331,070	24,220	-0,140	-0,079
332,085	-111,779	-0,035	-0,005
333,100	150,081	-0,107	-0,099
334,114	-200,000	-0,081	-0,260
335,129	800,000	-0,123	-0,281
336,143	2,992	-0,122	-0,061
337,158	-105,282	0,111	-0,017
338,173	260,488	-0,048	0,057
339,187	-131,656	-0,096	-0,009
340,202	-33,375	-0,074	-0,028
341,216	105,807	-0,167	-0,136
342,231	60,919	-0,148	-0,101
343,246	19,134	-0,127	-0,070
344,260	-200,000	-0,010	-0,038
345,275	-50,901	-0,136	0,044
346,289	-35,854	-0,027	-0,010
347,304	-60,580	-0,103	-0,030
348,319	800,000	-0,075	-0,193
349,333	-28,571	-0,128	-0,050
350,348	-200,000	-0,036	-0,233
351,362	353,073	-0,154	-0,210
352,377	-179,082	-0,183	-0,003
353,392	-200,000	-0,065	-0,200
354,406	-64,750	-0,104	-0,029
355,421	207,431	1317,263	1411,851
356,435	159,563	1478,311	1412,343
