DTS Sentinel unit serial number:	SN410029Multiplexer serial number:	ORYXHardware model number:	OX2-SRSoftware version number:	ORYX F/W v4,00 Oryx Data Collector v3.7.2.0data status	okinstallation	B3 Nyhavnadifferential loss correction	single-endedforward channel	channel 1reverse channel	N/Adate	2023/12/04time	01:52:30forward acquisition time	300,00reverse acquisition time	0,00gamma	499,1914k internal	0,3204k external	0,3204temperature offset calibration	1,0000default loss term (dB/km)	0,3820temperature slope calibration	1,0000multiplexer offset coefficient	1,0000multiplexer slope coefficient	1,0000fibre end	0,00T internal ref (°C)	12,37T ext. ref 1 (°C)	-2,91T ext. ref 2 (°C)	-2,95length (m)	temperature (°C)	Stokes	anti-Stokes-744,400	-200,000	-0,038	-0,214
-743,385	-200,000	0,001	0,213
-742,371	800,000	-0,113	-0,283
-741,356	-200,000	0,092	0,353
-740,342	177,810	-0,214	-0,227
-739,327	-200,000	0,050	0,340
-738,312	800,000	-0,142	-0,290
-737,298	-200,000	-0,049	0,270
-736,283	128,931	-0,280	-0,260
-735,269	-200,000	-0,009	0,362
-734,254	-56,415	-0,331	-0,106
-733,239	163,580	-0,158	0,161
-732,225	800,000	-0,119	-0,306
-731,210	-128,915	0,097	0,010
-730,196	-145,004	-0,116	-0,008
-729,181	-29,149	-0,173	0,072
-728,167	179,056	0,047	-0,050
-727,152	-200,000	0,002	0,072
-726,137	800,000	0,044	-0,094
-725,123	-76,942	-0,153	-0,039
-724,108	800,000	-0,038	-0,097
-723,094	40,703	0,122	-0,080
-722,079	581,927	0,020	0,036
-721,064	280,531	-0,136	-0,177
-720,050	-58,154	0,150	0,047
-719,035	248,628	0,072	0,088
-718,021	117,684	-0,137	-0,123
-717,006	-200,000	-0,034	-0,223
-715,991	379,238	-0,041	-0,061
-714,977	-200,000	-0,018	0,079
-713,962	-200,000	0,011	0,042
-712,948	-175,258	0,068	0,001
-711,933	-200,000	0,006	-0,052
-710,918	252,482	-0,039	0,048
-709,904	105,278	0,104	0,090
-708,889	-65,281	-0,101	0,029
-707,875	-200,000	-0,029	-0,120
-706,860	512,771	-0,049	0,083
-705,845	-21,761	0,083	0,037
-704,831	7,535	-0,108	0,059
-703,816	-200,000	0,021	0,121
-702,802	169,281	-0,092	-0,096
-701,787	-200,000	-0,015	-0,061
-700,772	-200,000	0,012	-0,206
-699,758	800,000	0,018	-0,055
-698,743	-142,545	0,123	-0,009
-697,729	735,335	0,068	0,134
-696,714	-92,435	-0,023	0,005
-695,699	800,000	-0,015	-0,033
-694,685	-150,427	-0,041	-0,002
-693,670	-52,157	0,084	-0,028
-692,656	-129,206	-0,056	0,006
-691,641	103,728	0,021	-0,018
-690,627	-59,394	0,057	0,018
-689,612	-200,000	-0,031	0,110
-688,597	-200,000	0,015	-0,053
-687,583	-200,000	-0,039	-0,127
-686,568	-200,000	-0,019	-0,108
-685,554	800,000	-0,007	-0,020
-684,539	117,197	0,119	0,106
-683,524	95,240	-0,095	-0,078
-682,510	-79,640	0,080	0,019
-681,495	283,873	-0,104	0,136
-680,481	-156,151	0,180	-0,008
-679,466	75,087	-0,056	-0,043
-678,451	800,000	-0,039	-0,087
-677,437	27,442	0,042	0,026
-676,422	-41,243	0,064	-0,024
-675,408	75,222	0,056	0,042
-674,393	-200,000	-0,003	0,093
-673,378	41,135	-0,195	-0,128
-672,364	-200,000	0,048	-0,161
-671,349	-200,000	0,020	-0,065
-670,335	662,062	0,094	0,176
-669,320	130,520	0,080	-0,074
-668,305	-200,000	-0,005	0,032
-667,291	104,353	0,072	-0,061
-666,276	-200,000	-0,011	-0,126
-665,262	22,072	0,026	-0,015
-664,247	158,246	-0,042	-0,043
-663,232	-200,000	0,002	0,013
-662,218	800,000	-0,083	0,171
-661,203	4,759	0,051	0,027
-660,189	-200,000	0,009	0,084
-659,174	192,320	0,053	0,058
-658,159	-94,263	-0,257	-0,050
-657,145	-50,508	-0,017	-0,006
-656,130	-46,234	-0,037	-0,013
-655,116	-60,708	0,146	0,044
-654,101	-108,670	-0,040	-0,006
-653,086	-53,739	0,151	0,050
-652,072	180,468	-0,080	-0,085
-651,057	-200,000	0,001	0,173
-650,043	67,612	-0,109	-0,081
-649,028	42,237	0,042	-0,028
-648,014	-200,000	-0,020	0,085
-646,999	800,000	-0,059	0,131
-645,984	800,000	-0,040	0,117
-644,970	-200,000	-0,024	-0,128
-643,955	-200,000	-0,016	-0,060
-642,941	-189,390	-0,130	0,001
-641,926	-125,818	0,078	-0,008
-640,911	-9,868	0,063	-0,030
-639,897	142,395	0,036	-0,034
-638,882	800,000	-0,039	0,120
-637,868	-95,144	0,052	0,010
-636,853	-196,497	-0,094	-0,000
-635,838	800,000	-0,052	-0,161
-634,824	-93,015	0,024	-0,005
-633,809	800,000	-0,046	0,092
-632,795	640,530	0,017	-0,032
-631,780	-200,000	-0,021	-0,135
-630,765	-200,000	-0,004	0,039
-629,751	-45,834	-0,124	-0,044
-628,736	-75,343	0,066	-0,017
-627,722	-45,675	-0,137	-0,049
-626,707	-99,901	0,135	0,024
-625,692	291,986	0,052	0,068
-624,678	152,998	-0,047	0,046
-623,663	-73,345	-0,024	0,006
-622,649	-102,613	0,163	-0,028
-621,634	-200,000	0,006	-0,035
-620,619	-200,000	-0,006	-0,082
-619,605	800,000	0,036	0,077
-618,590	651,287	0,060	-0,111
-617,576	175,916	0,077	0,081
-616,561	11,111	0,100	0,055
-615,546	0,861	-0,092	-0,048
-614,532	215,618	0,044	-0,050
-613,517	-200,000	-0,025	-0,138
-612,503	66,680	0,071	-0,052
-611,488	-10,228	-0,078	0,037
-610,474	-83,456	-0,110	0,025
-609,459	-81,869	-0,048	-0,011
-608,444	22,886	0,013	0,008
-607,430	485,229	-0,074	-0,122
-606,415	129,416	-0,057	-0,052
-605,401	457,821	0,063	-0,101
-604,386	127,937	-0,079	-0,073
-603,371	800,000	-0,038	-0,087
-602,357	800,000	-0,045	0,124
-601,342	800,000	-0,015	-0,047
-600,328	800,000	-0,030	-0,081
-599,313	-200,000	-0,008	-0,086
-598,298	-200,000	0,027	-0,099
-597,284	-66,974	0,118	-0,034
-596,269	-49,938	-0,088	0,030
-595,255	-41,618	-0,200	-0,074
-594,240	655,828	0,023	-0,043
-593,225	791,246	0,077	-0,154
-592,211	-85,008	-0,057	-0,013
-591,196	117,877	0,043	-0,038
-590,182	182,595	-0,051	0,055
-589,167	800,000	-0,024	0,054
-588,152	-200,000	-0,011	0,109
-587,138	89,728	0,047	-0,038
-586,123	-200,000	-0,013	0,051
-585,109	-200,000	-0,005	-0,060
-584,094	34,305	0,084	-0,053
-583,079	-200,000	-0,001	0,069
-582,065	-122,659	-0,042	0,005
-581,050	125,249	0,007	-0,006
-580,036	-71,195	-0,020	0,005
-579,021	773,116	-0,031	-0,062
-578,006	258,586	-0,113	-0,141
-576,992	-53,798	-0,100	-0,033
-575,977	-84,425	0,117	0,027
-574,963	-61,151	-0,089	-0,027
-573,948	-200,000	-0,011	0,090
-572,934	800,000	0,009	0,027
-571,919	-69,344	-0,073	-0,020
-570,904	-200,000	0,004	0,026
-569,890	-67,930	0,041	-0,011
-568,875	24,243	-0,076	0,045
-567,861	-17,205	0,172	-0,078
-566,846	-200,000	0,000	-0,026
-565,831	-200,000	0,003	0,095
-564,817	-113,280	-0,183	-0,026
-563,802	291,475	-0,095	-0,125
-562,788	-86,912	0,118	-0,026
-561,773	113,124	-0,110	-0,096
-560,758	-200,000	0,019	0,113
-559,744	-200,000	-0,004	-0,031
-558,729	800,000	0,081	0,166
-557,715	-185,034	-0,070	-0,001
-556,700	-200,000	-0,019	-0,087
-555,685	800,000	-0,035	-0,071
-554,671	-200,000	0,001	-0,099
-553,656	-140,991	0,148	0,011
-552,642	97,966	-0,091	0,076
-551,627	145,052	-0,014	0,013
-550,612	-200,000	-0,031	-0,116
-549,598	-200,000	0,004	-0,032
-548,583	574,989	-0,061	0,107
-547,569	56,104	0,091	0,063
-546,554	691,690	0,012	0,023
-545,539	-70,079	0,040	0,011
-544,525	800,000	0,047	0,102
-543,510	-157,824	-0,165	-0,007
-542,496	-165,062	0,081	-0,003
-541,481	800,000	-0,020	-0,060
-540,466	37,627	0,074	0,047
-539,452	-11,021	0,009	-0,004
-538,437	174,652	-0,059	0,061
-537,423	73,245	0,082	-0,062
-536,408	800,000	-0,047	-0,119
-535,393	41,633	0,042	0,027
-534,379	328,720	-0,063	-0,088
-533,364	226,834	-0,059	0,069
-532,350	-157,365	0,213	0,009
-531,335	247,910	-0,059	0,072
-530,321	16,682	0,127	0,072
-529,306	184,802	-0,086	0,092
-528,291	482,831	0,063	-0,104
-527,277	186,699	-0,065	-0,070
-526,262	-18,089	-0,108	0,049
-525,248	-46,351	0,071	0,025
-524,233	365,973	-0,045	-0,066
-523,218	7,319	-0,066	0,035
-522,204	-62,953	0,130	0,038
-521,189	-31,048	-0,117	0,047
-520,175	-200,000	-0,008	-0,047
-519,160	-28,443	0,090	0,037
-518,145	-200,000	-0,008	0,035
-517,131	-0,707	-0,193	-0,098
-516,116	-144,764	0,056	-0,004
-515,102	-200,000	0,002	0,018
-514,087	-200,000	-0,006	0,121
-513,072	800,000	-0,019	0,045
-512,058	-101,136	0,069	-0,012
-511,043	683,643	0,054	0,101
-510,029	67,290	0,056	-0,041
-509,014	-200,000	0,022	0,070
-507,999	-28,433	-0,049	-0,020
-506,985	236,394	-0,118	-0,141
-505,970	-107,398	0,085	-0,013
-504,956	800,000	-0,029	0,081
-503,941	-94,886	0,129	0,025
-502,926	-200,000	0,003	0,014
-501,912	331,368	-0,024	-0,033
-500,897	269,443	0,085	-0,107
-499,883	-78,795	0,114	0,028
-498,868	-74,464	-0,086	-0,022
-497,853	-20,534	0,038	0,017
-496,839	644,389	-0,044	0,082
-495,824	-200,000	0,018	0,087
-494,810	108,768	-0,060	0,051
-493,795	138,761	-0,016	-0,015
-492,781	-15,555	0,007	-0,003
-491,766	71,017	0,047	0,035
-490,751	291,141	-0,181	-0,238
-489,737	-200,000	-0,006	-0,067
-488,722	-75,130	0,096	0,024
-487,708	150,738	0,090	0,088
-486,693	462,509	-0,011	0,017
-485,678	-129,850	-0,124	0,012
-484,664	-158,747	0,040	-0,002
-483,649	183,360	-0,095	-0,101
-482,635	800,000	-0,035	-0,088
-481,620	-200,000	-0,029	-0,125
-480,605	108,758	0,033	0,028
-479,591	-200,000	0,004	0,067
-478,576	628,162	-0,039	-0,070
-477,562	-200,000	0,061	-0,230
-476,547	145,537	-0,064	0,061
-475,532	-135,293	-0,147	-0,012
-474,518	771,582	-0,037	0,073
-473,503	303,918	0,047	0,063
-472,489	-200,000	0,010	0,108
-471,474	-33,971	-0,073	0,029
-470,459	800,000	0,020	0,051
-469,445	-2,702	-0,036	-0,018
-468,430	-200,000	0,029	-0,151
-467,416	116,611	-0,043	0,038
-466,401	238,150	0,124	0,149
-465,386	-200,000	0,009	-0,058
-464,372	-100,657	0,100	0,017
-463,357	-45,541	0,050	0,018
-462,343	239,408	0,004	0,005
-461,328	-200,000	0,003	-0,022
-460,313	-200,000	0,001	0,034
-459,299	-105,251	-0,052	-0,008
-458,284	-62,101	0,149	0,044
-457,270	-60,633	-0,135	-0,041
-456,255	487,866	0,051	-0,083
-455,241	-200,000	-0,004	-0,063
-454,226	-200,000	0,041	-0,190
-453,211	-27,898	0,138	0,057
-452,197	175,622	0,089	0,093
-451,182	800,000	-0,080	0,161
-450,168	63,651	-0,074	0,054
-449,153	-0,392	-0,014	0,007
-448,138	-200,000	0,003	-0,144
-447,124	391,692	0,077	0,114
-446,109	-46,787	-0,080	-0,028
-445,095	27,113	0,105	-0,063
-444,080	-65,762	-0,082	0,023
-443,065	-160,321	0,018	0,001
-442,051	800,000	-0,053	0,123
-441,036	-3,919	-0,072	0,036
-440,022	-200,000	0,022	-0,097
-439,007	46,009	-0,066	0,044
-437,992	44,504	0,051	0,034
-436,978	-90,922	0,100	0,021
-435,963	-52,607	0,042	-0,014
-434,949	28,338	-0,113	0,068
-433,934	-16,951	-0,066	-0,030
-432,919	-200,000	0,016	-0,134
-431,905	331,968	0,039	-0,054
-430,890	-200,000	0,011	0,115
-429,876	54,601	0,044	0,030
-428,861	-200,000	0,005	0,056
-427,846	283,125	-0,041	0,053
-426,832	-200,000	0,005	-0,050
-425,817	171,109	-0,093	-0,095
-424,803	-200,000	0,003	-0,081
-423,788	26,741	0,021	-0,013
-422,773	372,015	0,053	-0,078
-421,759	759,186	-0,088	0,171
-420,744	-200,000	0,047	0,165
-419,730	-200,000	0,002	-0,113
-418,715	-172,453	-0,041	0,001
-417,701	-23,602	-0,070	-0,030
-416,686	-86,409	-0,038	-0,008
-415,671	194,906	0,044	-0,048
-414,657	-200,000	0,005	0,020
-413,642	747,156	-0,044	-0,085
-412,628	4,672	-0,092	-0,048
-411,613	10,221	0,074	-0,041
-410,598	800,000	0,019	-0,043
-409,584	-140,319	0,044	-0,003
-408,569	-94,279	0,111	-0,022
-407,555	156,652	-0,042	0,042
-406,540	-0,202	-0,040	0,020
-405,525	663,635	0,040	-0,075
-404,511	-69,134	-0,077	0,021
-403,496	4,032	-0,127	0,066
-402,482	800,000	0,008	0,022
-401,467	-25,612	-0,145	0,061
-400,452	-70,787	0,013	0,003
-399,438	800,000	-0,012	0,035
-398,423	651,499	-0,066	-0,121
-397,409	-127,021	0,086	-0,009
-396,394	388,557	-0,075	-0,112
-395,379	529,878	0,047	-0,080
-394,365	189,647	0,054	0,058
-393,350	-200,000	0,015	-0,119
-392,336	-200,000	-0,010	-0,062
-391,321	338,013	0,045	0,062
-390,306	-200,000	0,010	-0,084
-389,292	-79,656	-0,018	0,004
-388,277	-126,535	-0,098	0,010
-387,263	39,213	0,059	0,038
-386,248	-134,871	0,084	0,007
-385,233	-200,000	0,020	0,102
-384,219	-200,000	-0,003	-0,044
-383,204	176,625	-0,017	-0,018
-382,190	237,557	0,042	0,050
-381,175	42,089	0,132	-0,085
-380,160	-99,196	-0,036	0,007
-379,146	-128,925	0,116	0,012
-378,131	-106,116	0,065	-0,010
-377,117	-95,020	-0,042	0,008
-376,102	247,749	-0,036	-0,043
-375,088	-92,841	-0,068	0,013
-374,073	-200,000	0,004	0,034
-373,058	800,000	0,038	0,086
-372,044	208,875	0,028	-0,032
-371,029	36,079	0,040	-0,025
-370,015	311,894	-0,067	0,090
-369,000	61,391	-0,040	0,028
-367,985	95,652	-0,142	-0,116
-366,971	311,314	-0,073	-0,098
-365,956	506,448	-0,037	0,062
-364,942	-160,770	0,078	0,003
-363,927	-127,473	-0,100	0,010
-362,912	211,524	-0,058	0,066
-361,898	61,601	-0,043	-0,031
-360,883	-115,864	-0,146	-0,019
-359,869	-129,560	0,056	0,005
-358,854	800,000	0,022	0,059
-357,839	-6,031	0,125	0,061
-356,825	105,139	-0,036	0,031
-355,810	111,411	-0,119	0,103
-354,796	117,700	0,067	-0,059
-353,781	800,000	-0,017	-0,037
-352,766	800,000	0,020	0,047
-351,752	-78,844	0,047	0,011
-350,737	-200,000	-0,012	0,063
-349,723	43,729	0,059	-0,038
-348,708	199,364	0,069	-0,075
-347,693	136,960	0,065	0,061
-346,679	76,361	-0,122	0,092
-345,664	800,000	-0,014	0,034
-344,650	-163,466	0,090	0,003
-343,635	-0,264	0,095	0,048
-342,620	219,915	0,044	0,051
-341,606	478,538	0,062	0,100
-340,591	-200,000	0,025	0,107
-339,577	294,032	-0,055	-0,072
-338,562	76,428	-0,069	-0,052
-337,548	800,000	0,021	0,042
-336,533	196,641	-0,049	-0,054
-335,518	371,844	0,058	-0,085
-334,504	800,000	0,050	0,128
-333,489	740,887	0,033	-0,063
-332,475	264,221	-0,081	-0,101
-331,460	-44,365	0,066	0,023
-330,445	-19,015	0,109	0,048
-329,431	-200,000	0,027	0,098
-328,416	-189,592	0,096	-0,001
-327,402	800,000	0,028	-0,058
-326,387	496,142	-0,039	-0,064
-325,372	800,000	0,046	-0,100
-324,358	-0,018	0,045	0,023
-323,343	-129,552	0,166	-0,016
-322,329	-51,586	-0,180	0,060
-321,314	402,933	-0,022	0,033
-320,299	-200,000	-0,027	0,120
-319,285	-150,419	-0,145	-0,008
-318,270	510,616	0,020	-0,033
-317,256	-98,612	-0,154	0,028
-316,241	800,000	-0,043	-0,088
-315,226	-83,499	0,046	-0,010
-314,212	800,000	-0,039	0,119
-313,197	-200,000	0,000	0,080
-312,183	4,035	0,110	-0,057
-311,168	51,697	0,006	0,004
-310,153	-139,765	-0,026	0,002
-309,139	-200,000	-0,017	-0,076
-308,124	204,770	0,081	-0,090
-307,110	171,731	-0,068	0,070
-306,095	800,000	0,021	0,059
-305,080	-109,543	-0,054	0,008
-304,066	-138,085	0,152	-0,012
-303,051	-57,687	0,022	-0,007
-302,037	153,037	-0,074	0,072
-301,022	-200,000	-0,043	0,196
-300,008	194,214	0,073	0,079
-298,993	-155,508	0,149	0,007
-297,978	-200,000	0,027	0,098
-296,964	-12,283	0,118	-0,055
-295,949	-57,500	0,018	0,006
-294,935	-93,776	-0,154	0,030
-293,920	-200,000	0,001	-0,054
-292,905	-41,905	0,030	0,011
-291,891	-35,185	0,106	0,041
-290,876	-200,000	-0,052	0,216
-289,862	-200,000	-0,016	0,100
-288,847	-98,331	-0,076	0,014
-287,832	-8,628	-0,089	-0,042
-286,818	-73,738	-0,100	-0,026
-285,803	-200,000	0,114	-0,000
-284,789	265,596	-0,033	0,041
-283,774	-162,831	0,146	-0,005
-282,759	362,358	-0,072	0,103
-281,745	-142,211	-0,046	0,003
-280,730	800,000	-0,019	0,051
-279,716	-200,000	-0,053	-0,186
-278,701	134,196	0,061	0,056
-277,686	-200,000	0,013	-0,063
-276,672	800,000	0,058	0,122
-275,657	-90,819	0,050	0,010
-274,643	-200,000	0,002	0,065
-273,628	800,000	-0,029	-0,070
-272,613	-140,111	-0,052	0,004
-271,599	-65,524	0,056	-0,016
-270,584	198,222	0,017	-0,018
-269,570	-200,000	0,009	-0,045
-268,555	-195,507	0,008	0,000
-267,540	-200,000	0,012	0,080
-266,526	800,000	0,053	-0,129
-265,511	-32,864	-0,104	-0,041
-264,497	138,062	-0,065	-0,061
-263,482	299,288	0,068	-0,090
-262,467	365,855	-0,035	-0,051
-261,453	285,536	-0,009	-0,011
-260,438	-83,725	-0,077	0,017
-259,424	-20,346	-0,131	0,057
-258,409	80,041	-0,059	-0,046
-257,395	-200,000	-0,011	0,069
-256,380	212,762	-0,077	-0,087
-255,365	-34,967	0,143	0,055
-254,351	236,626	0,057	0,067
-253,336	800,000	0,010	-0,025
-252,322	9,145	0,031	0,017
-251,307	92,196	0,101	-0,081
-250,292	-200,000	-0,002	-0,097
-249,278	145,911	0,082	-0,079
-248,263	158,749	0,104	0,103
-247,249	163,140	0,129	-0,129
-246,234	34,102	-0,029	-0,018
-245,219	240,933	-0,047	0,056
-244,205	-200,000	-0,008	-0,115
-243,190	218,055	-0,059	-0,067
-242,176	-91,512	0,085	-0,017
-241,161	74,016	0,055	-0,041
-240,146	-65,956	-0,131	-0,037
-239,132	327,272	-0,050	-0,069
-238,117	-200,000	0,004	-0,085
-237,103	238,044	-0,022	0,026
-236,088	-88,839	0,037	0,008
-235,073	424,359	-0,030	-0,047
-234,059	-200,000	-0,021	0,125
-233,044	-150,967	-0,108	0,006
-232,030	631,432	0,029	-0,053
-231,015	-200,000	0,023	-0,079
-230,000	75,151	0,073	-0,054
-228,986	800,000	0,016	0,044
-227,971	-200,000	0,005	-0,081
-226,957	69,741	0,069	0,051
-225,942	-48,860	0,178	0,061
-224,927	36,169	-0,060	0,038
-223,913	-141,827	0,075	-0,005
-222,898	800,000	0,034	0,095
-221,884	-14,350	-0,042	0,019
-220,869	243,257	0,026	0,031
-219,855	800,000	0,064	0,143
-218,840	-36,352	-0,091	-0,035
-217,825	-23,938	0,027	-0,012
-216,811	-91,235	-0,104	0,021
-215,796	-200,000	-0,008	-0,081
-214,782	166,712	0,069	-0,070
-213,767	-200,000	0,027	-0,096
-212,752	-200,000	0,036	0,166
-211,738	-200,000	0,003	0,022
-210,723	85,017	0,049	0,038
-209,709	754,154	-0,059	0,113
-208,694	99,906	0,080	-0,066
-207,679	-200,000	-0,043	0,186
-206,665	33,053	0,084	-0,052
-205,650	118,313	-0,065	0,057
-204,636	767,659	0,020	0,039
-203,621	278,324	0,046	0,059
-202,606	33,266	-0,056	0,035
-201,592	-200,000	0,013	-0,068
-200,577	-30,856	0,145	0,058
-199,563	-40,548	0,055	-0,020
-198,548	102,676	0,052	0,043
-197,533	59,800	0,140	0,098
-196,519	103,445	-0,197	0,164
-195,504	-66,011	0,052	0,015
-194,490	347,394	-0,071	-0,099
-193,475	-6,578	0,102	0,049
-192,460	-60,243	0,073	0,022
-191,446	-9,615	0,072	0,034
-190,431	-123,266	0,074	0,008
-189,417	800,000	-0,066	0,146
-188,402	-53,672	0,027	0,009
-187,387	600,113	-0,040	-0,071
-186,373	-2,870	0,070	-0,035
-185,358	-138,051	-0,041	0,003
-184,344	-139,180	0,176	0,013
-183,329	700,131	-0,052	0,099
-182,315	-200,000	-0,022	0,079
-181,300	515,071	0,025	-0,042
-180,285	720,616	-0,030	-0,056
-179,271	-200,000	-0,023	-0,084
-178,256	441,922	-0,089	-0,139
-177,242	47,261	0,055	-0,036
-176,227	386,903	-0,074	0,109
-175,212	-72,457	0,135	-0,035
-174,198	-37,601	-0,131	0,049
-173,183	-200,000	-0,013	-0,069
-172,169	800,000	-0,027	0,074
-171,154	-103,788	0,038	0,006
-170,139	791,876	-0,055	0,108
-169,125	-132,508	0,020	0,002
-168,110	-200,000	-0,004	-0,045
-167,096	-200,000	0,014	-0,113
-166,081	800,000	-0,015	-0,035
-165,066	-200,000	0,039	-0,124
-164,052	400,903	-0,034	-0,051
-163,037	125,857	-0,099	0,089
-162,023	-184,201	0,067	-0,001
-161,008	800,000	-0,011	0,028
-159,993	-200,000	0,001	0,070
-158,979	44,167	-0,044	-0,029
-157,964	121,433	-0,106	-0,094
-156,950	-66,486	-0,029	-0,008
-155,935	-200,000	-0,007	-0,064
-154,920	325,832	0,042	-0,057
-153,906	-200,000	0,009	0,110
-152,891	-200,000	-0,042	0,243
-151,877	-200,000	0,009	-0,099
-150,862	-0,237	-0,046	-0,023
-149,847	121,874	0,020	0,017
-148,833	-164,308	0,019	-0,001
-147,818	-200,000	0,023	0,102
-146,804	306,203	-0,042	0,056
-145,789	105,383	-0,035	0,029
-144,775	-49,832	-0,125	-0,042
-143,760	-157,234	-0,041	-0,002
-142,745	-100,431	0,085	-0,015
-141,731	-1,231	0,081	-0,041
-140,716	296,057	-0,119	-0,154
-139,702	356,461	-0,047	0,067
-138,687	135,083	0,049	0,045
-137,672	119,411	-0,129	-0,113
-136,658	800,000	-0,059	-0,168
-135,643	800,000	0,037	-0,079
-134,629	-49,770	0,027	-0,009
-133,614	127,819	-0,063	0,057
-132,599	-200,000	-0,001	0,108
-131,585	-140,826	0,155	-0,011
-130,570	-76,221	-0,079	0,020
-129,556	800,000	0,037	-0,105
-128,541	-200,000	-0,028	-0,161
-127,526	800,000	-0,040	-0,083
-126,512	-200,000	-0,038	-0,138
-125,497	16,881	0,143	0,080
-124,483	-43,267	-0,167	0,060
-123,468	-122,187	0,248	-0,028
-122,453	-121,909	-0,188	-0,022
-121,439	152,884	-0,044	-0,043
-120,424	425,722	0,052	0,079
-119,410	-75,172	-0,090	-0,023
-118,395	179,253	0,120	0,125
-117,380	-12,943	0,138	0,063
-116,366	72,780	-0,142	-0,105
-115,351	-200,000	-0,024	-0,091
-114,337	-48,457	0,199	-0,067
-113,322	-39,804	-0,092	-0,034
-112,307	211,266	0,145	-0,162
-111,293	359,570	0,127	0,180
-110,278	-200,000	0,039	0,143
-109,264	23,984	0,064	0,037
-108,249	800,000	-0,061	0,123
-107,234	-200,000	-0,007	-0,045
-106,220	-171,219	-0,091	-0,002
-105,205	211,391	0,065	0,073
-104,191	9,594	0,085	-0,046
-103,176	800,000	0,014	-0,043
-102,162	-41,163	-0,074	0,027
-101,147	-0,765	-0,092	-0,046
-100,132	-19,763	0,113	-0,049
-99,118	800,000	-0,030	-0,075
-98,103	-200,000	-0,012	-0,045
-97,089	268,915	0,092	0,114
-96,074	-16,275	-0,052	0,023
-95,059	564,505	-0,060	0,104
-94,045	800,000	0,034	0,075
-93,030	344,976	0,040	0,056
-92,016	800,000	0,010	-0,028
-91,001	-200,000	0,009	0,049
-89,986	676,526	-0,025	0,047
-88,972	3,533	-0,185	0,095
-87,957	-174,845	0,053	-0,001
-86,943	800,000	-0,024	0,058
-85,928	287,476	-0,080	0,103
-84,913	-11,165	-0,054	-0,025
-83,899	-2,002	0,016	-0,008
-82,884	800,000	-0,049	0,138
-81,870	800,000	0,023	0,052
-80,855	800,000	0,026	0,053
-79,840	380,883	-0,061	0,089
-78,826	-200,000	-0,011	0,090
-77,811	266,392	-0,023	0,028
-76,797	-110,537	-0,092	-0,013
-75,782	-200,000	0,035	0,128
-74,767	800,000	0,066	0,130
-73,753	-200,000	-0,013	0,128
-72,738	0,119	-0,164	-0,082
-71,724	-130,975	0,116	0,011
-70,709	-29,679	0,033	-0,013
-69,694	-171,697	0,088	-0,002
-68,680	-200,000	-0,011	-0,106
-67,665	132,257	0,129	-0,117
-66,651	145,664	-0,038	-0,036
-65,636	15,546	-0,096	-0,053
-64,622	-200,000	-0,008	-0,078
-63,607	-200,000	-0,009	-0,146
-62,592	-87,319	0,097	-0,021
-61,578	-103,523	-0,024	-0,004
-60,563	143,522	0,058	0,055
-59,549	777,819	0,057	0,111
-58,534	-14,697	-1,898	-0,859
-57,519	494,690	-1,256	-2,048
-56,505	-200,000	-0,491	-4,607
-55,490	337,455	1,047	1,444
-54,476	800,000	5,046	11,291
-53,461	-200,000	19,998	324,295
-52,446	800,000	750,900	2316,337
-51,432	552,450	1662,403	2835,454
-50,417	75,549	1672,088	1247,360
-49,403	20,203	1545,055	879,751
-48,388	14,203	1467,504	806,393
-47,373	18,270	1457,426	820,475
-46,359	16,404	1447,014	805,640
-45,344	12,466	1442,451	784,204
-44,330	12,419	1440,562	782,918
-43,315	12,428	1438,680	781,909
-42,300	12,424	1437,042	780,970
-41,286	12,428	1435,973	780,378
-40,271	12,429	1434,434	779,514
-39,257	12,448	1433,151	778,875
-38,242	12,463	1432,120	778,357
-37,227	12,438	1430,937	777,562
-36,213	12,418	1429,542	776,680
-35,198	12,492	1428,112	776,223
-34,184	12,483	1427,349	775,733
-33,169	12,449	1426,022	774,821
-32,154	12,475	1425,044	774,385
-31,140	12,496	1423,546	773,637
-30,125	12,521	1422,569	773,195
-29,111	12,484	1421,293	772,294
-28,096	12,483	1420,306	771,721
-27,082	12,410	1419,250	770,776
-26,067	12,401	1418,213	770,137
-25,052	12,391	1416,965	769,384
-24,038	12,375	1416,100	768,809
-23,023	12,404	1415,018	768,324
-22,009	12,373	1414,067	767,633
-20,994	12,368	1413,050	767,027
-19,979	12,435	1412,179	766,839
-18,965	12,400	1411,111	766,066
-17,950	12,348	1410,278	765,339
-16,936	12,376	1409,284	764,897
-15,921	12,296	1408,507	764,073
-14,906	12,332	1407,495	763,663
-13,892	12,345	1406,538	763,174
-12,877	12,285	1405,608	762,358
-11,863	12,304	1404,783	761,966
-10,848	12,322	1403,829	761,507
-9,833	12,250	1403,277	760,837
-8,819	12,210	1402,294	760,089
-7,804	12,200	1401,458	759,562
-6,790	12,192	1400,370	758,904
-5,775	12,231	1399,137	758,386
-4,760	12,220	1398,313	757,859
-3,746	12,197	1397,505	757,284
-2,731	12,206	1396,649	756,830
-1,717	12,153	1395,853	756,122
-0,702	12,172	1394,024	755,191
0,313	16,011	1309,280	727,047
1,327	32,285	700,574	426,475
2,342	49,508	122,275	81,213
3,356	-0,423	16,722	8,366
4,371	-1,207	3,220	1,602
5,386	37,872	0,597	0,374
6,400	-200,000	-0,058	0,235
7,415	-19,193	-0,249	-0,109
8,429	68,327	-0,261	-0,188
9,444	178,241	-0,218	-0,225
10,459	-24,856	-0,375	-0,157
11,473	32,246	-0,284	-0,173
12,488	15,081	-0,344	-0,190
13,502	130,975	-0,182	-0,165
14,517	6,117	-0,217	-0,113
15,531	-1,958	-0,519	-0,257
16,546	85,428	-0,332	-0,257
17,561	259,941	-0,290	-0,354
18,575	-39,785	-0,192	-0,071
19,590	-40,364	-0,293	-0,107
20,604	-112,356	-0,316	-0,044
21,619	177,804	-0,397	-0,408
22,634	207,594	-0,319	-0,352
23,648	-92,916	-0,364	-0,071
24,663	32,057	-0,523	-0,317
25,677	24,656	-0,430	-0,250
26,692	33,568	-0,231	-0,141
27,707	55,122	-0,374	-0,255
28,721	-0,827	-0,471	-0,235
29,736	113,442	-0,415	-0,356
30,750	-2,142	-0,462	-0,228
31,765	65,860	-0,328	-0,234
32,780	-59,408	-0,444	-0,134
33,794	82,017	-0,316	-0,241
34,809	14,693	-0,407	-0,224
35,823	66,358	-0,309	-0,221
36,838	261,049	-0,363	-0,444
37,853	62,166	-0,328	-0,230
38,867	16,872	-0,389	-0,216
39,882	133,802	-0,363	-0,331
40,896	174,658	-0,309	-0,315
41,911	0,713	-0,374	-0,188
42,926	-25,510	-0,381	-0,158
43,940	169,161	-0,287	-0,289
44,955	165,766	-0,277	-0,276
45,969	16,594	-0,404	-0,224
46,984	662,501	-0,183	-0,333
47,999	120,982	-0,255	-0,223
49,013	-10,099	-0,473	-0,220
50,028	-55,415	-0,396	-0,124
51,042	-66,406	-0,330	-0,092
52,057	25,999	-0,303	-0,177
53,071	97,468	-0,317	-0,256
54,086	77,862	-0,246	-0,184
55,101	-18,229	-0,325	-0,142
56,115	34,750	-0,323	-0,198
57,130	34,285	-0,336	-0,206
58,144	-191,275	-0,288	-0,002
59,159	-13,752	-0,503	-0,228
60,174	56,483	-0,301	-0,205
61,188	50,118	-0,319	-0,211
62,203	163,872	-0,392	-0,388
63,217	84,361	-0,319	-0,245
64,232	-5,632	-0,481	-0,231
65,247	-52,620	-0,419	-0,135
66,261	-10,736	-0,381	-0,176
67,276	198,645	-0,242	-0,261
68,290	-45,860	-0,371	-0,128
69,305	-18,180	-0,281	-0,123
70,320	83,077	-0,228	-0,174
71,334	3,227	-0,333	-0,169
72,349	64,495	-0,233	-0,164
73,363	40,967	-0,251	-0,159
74,378	112,042	-0,213	-0,180
75,393	124,453	-0,256	-0,226
76,407	70,365	-0,339	-0,246
77,422	-27,480	-0,171	-0,070
78,436	-69,339	-0,322	-0,086
79,451	-1,397	-0,229	-0,113
80,466	25,730	-0,401	-0,234
81,480	-19,593	-0,448	-0,194
82,495	15,913	-0,328	-0,181
83,509	88,058	-0,296	-0,230
84,524	184,767	-0,208	-0,217
85,539	178,710	-0,142	-0,145
86,553	-81,436	-0,258	-0,059
87,568	85,968	-0,244	-0,189
88,582	12,209	-0,364	-0,196
89,597	67,503	-0,335	-0,240
90,611	-71,655	-0,282	-0,073
91,626	131,195	-0,135	-0,122
92,641	36,485	-0,243	-0,150
93,655	139,961	-0,243	-0,225
94,670	-4,372	-0,303	-0,146
95,684	501,595	-0,173	-0,281
96,699	28,654	-0,313	-0,185
97,714	-174,573	-0,221	-0,004
98,728	-141,709	-0,314	-0,022
99,743	-153,075	-0,310	-0,015
100,757	-78,244	-0,290	-0,069
101,772	24,903	-0,274	-0,159
102,787	67,906	-0,410	-0,293
103,801	8,279	-0,309	-0,162
104,816	226,810	-0,184	-0,210
105,830	-180,540	-0,223	-0,003
106,845	-44,060	-0,189	-0,066
107,860	-176,480	-0,404	-0,007
108,874	102,089	-0,204	-0,167
109,889	-50,152	-0,333	-0,110
110,903	94,535	-0,304	-0,242
111,918	-22,874	-0,259	-0,109
112,933	-133,693	-0,285	-0,025
113,947	-161,804	-0,269	-0,009
114,962	-17,054	-0,335	-0,147
115,976	216,684	-0,235	-0,262
116,991	80,609	-0,332	-0,250
118,006	-19,634	-0,308	-0,133
119,020	-93,136	-0,330	-0,064
120,035	70,758	-0,272	-0,197
121,049	243,159	-0,176	-0,207
122,064	98,676	-0,223	-0,180
123,079	219,148	-0,185	-0,208
124,093	-27,729	-0,248	-0,100
125,108	-48,903	-0,244	-0,081
126,122	-51,797	-0,273	-0,088
127,137	20,356	-0,270	-0,152
128,151	-164,508	-0,295	-0,009
129,166	11,182	-0,155	-0,083
130,181	118,011	-0,277	-0,238
131,195	-121,706	-0,363	-0,041
132,210	4,821	-0,277	-0,142
133,224	71,579	-0,246	-0,178
134,239	800,000	-0,121	-0,281
135,254	35,207	-0,321	-0,196
136,268	-66,304	-0,307	-0,085
137,283	221,070	-0,204	-0,229
138,297	142,490	-0,217	-0,201
139,312	242,573	-0,181	-0,212
140,327	72,789	-0,259	-0,189
141,341	35,067	-0,393	-0,240
142,356	-71,711	-0,168	-0,044
143,370	-25,397	-0,260	-0,107
144,385	13,736	-0,278	-0,150
145,400	241,509	-0,236	-0,275
146,414	291,272	-0,194	-0,246
147,429	98,869	-0,254	-0,204
148,443	75,377	-0,240	-0,176
149,458	191,335	-0,156	-0,164
150,473	-69,566	-0,172	-0,046
151,487	15,595	-0,189	-0,104
152,502	434,496	-0,157	-0,239
153,516	28,158	-0,280	-0,164
154,531	70,424	-0,181	-0,130
155,546	82,889	-0,300	-0,227
156,560	-16,262	-0,193	-0,085
157,575	109,629	-0,205	-0,171
158,589	790,633	-0,097	-0,188
159,604	124,283	-0,243	-0,213
160,619	-196,454	-0,398	0,002
161,633	-1,192	-0,210	-0,103
162,648	-11,524	-0,203	-0,093
163,662	-15,768	-0,234	-0,104
164,677	12,560	-0,301	-0,161
165,692	-68,710	-0,241	-0,065
166,706	-2,759	-0,293	-0,142
167,721	274,355	-0,190	-0,235
168,735	329,717	-0,162	-0,217
169,750	-67,362	-0,131	-0,036
170,764	107,708	-0,159	-0,132
171,779	195,120	-0,187	-0,198
172,794	137,552	-0,230	-0,210
173,808	198,978	-0,170	-0,182
174,823	115,617	-0,252	-0,215
175,837	127,946	-0,323	-0,286
176,852	48,363	-0,180	-0,117
177,867	51,917	-0,234	-0,155
178,881	140,523	-0,114	-0,105
179,896	-80,840	-0,054	0,012
180,910	53,298	-0,251	-0,167
181,925	800,000	-0,078	-0,155
182,940	88,176	-0,220	-0,170
183,954	-120,275	-0,278	0,033
184,969	601,339	-0,076	-0,132
185,983	-16,294	-0,219	-0,096
186,998	-200,000	-0,014	-0,170
188,013	-30,623	-0,233	-0,091
189,027	26,707	-0,203	-0,118
190,042	67,614	-0,243	-0,172
191,056	421,323	-0,182	-0,273
192,071	48,572	-0,301	-0,196
193,086	800,000	-0,093	-0,282
194,100	42,866	-0,241	-0,152
195,115	71,264	-0,207	-0,149
196,129	78,791	-0,209	-0,155
197,144	14,209	-0,225	-0,122
198,159	389,583	-0,140	-0,202
199,173	-99,460	-0,242	-0,042
200,188	-52,297	-0,065	-0,021
201,202	161,267	-0,128	-0,125
202,217	496,348	-0,142	-0,227
203,232	98,627	-0,253	-0,202
204,246	24,746	-0,346	-0,199
205,261	85,147	-0,296	-0,225
206,275	55,301	-0,174	-0,116
207,290	-89,202	-0,049	0,010
208,304	529,765	-0,070	-0,115
209,319	25,195	-0,086	-0,050
210,334	-13,206	-0,211	-0,095
211,348	54,121	-0,172	-0,114
212,363	590,802	-0,112	-0,192
213,377	-200,000	-0,045	-0,173
214,392	624,236	-0,094	-0,165
215,407	-73,324	-0,223	-0,056
216,421	42,182	-0,159	-0,100
217,436	304,193	-0,162	-0,208
218,450	76,695	-0,211	-0,155
219,465	579,910	-0,130	-0,222
220,480	186,112	-0,158	-0,163
221,494	356,836	-0,133	-0,184
222,509	-200,000	0,003	-0,187
223,523	215,473	-0,112	-0,124
224,538	144,923	-0,118	-0,110
225,553	486,839	-0,167	-0,265
226,567	129,902	-0,185	-0,164
227,582	-1,635	-0,128	-0,062
228,596	800,000	-0,075	-0,212
229,611	211,084	-0,151	-0,165
230,626	-5,384	-0,191	-0,091
231,640	40,275	-0,170	-0,106
232,655	116,191	-0,207	-0,175
233,669	-101,027	-0,277	-0,047
234,684	-200,000	0,019	-0,252
235,699	361,555	-0,139	-0,194
236,713	-9,565	-0,071	-0,033
237,728	0,334	-0,008	0,004
238,742	675,906	-0,101	-0,182
239,757	141,287	-0,244	-0,223
240,772	205,082	-0,231	-0,249
241,786	107,084	-0,179	-0,147
242,801	-57,345	-0,234	-0,071
243,815	-200,000	-0,043	-0,135
244,830	800,000	-0,079	-0,212
245,844	-29,616	-0,161	-0,063
246,859	115,563	-0,252	-0,213
247,874	243,313	-0,165	-0,192
248,888	75,828	-0,286	-0,209
249,903	-200,000	0,019	-0,119
250,917	800,000	-0,073	-0,157
251,932	-75,740	-0,130	-0,032
252,947	-200,000	-0,009	-0,120
253,961	-149,843	-0,087	0,005
254,976	297,413	-0,172	-0,219
255,990	52,874	-0,134	-0,088
257,005	-151,591	-0,067	0,003
258,020	-59,709	-0,205	-0,060
259,034	-91,439	-0,196	-0,038
260,049	-15,535	-0,104	-0,046
261,063	3,789	-0,193	-0,097
262,078	-37,572	-0,212	-0,078
263,093	320,172	-0,119	-0,157
264,107	284,183	-0,141	-0,175
265,122	-127,156	-0,171	0,017
266,136	-128,192	-0,252	0,024
267,151	252,699	-0,184	-0,217
268,166	171,260	-0,188	-0,186
269,180	33,104	-0,182	-0,109
270,195	-31,331	-0,271	-0,105
271,209	130,472	-0,182	-0,161
272,224	-98,666	-0,138	-0,024
273,239	272,555	-0,104	-0,127
274,253	800,000	-0,086	-0,216
275,268	260,286	-0,129	-0,155
276,282	58,754	-0,201	-0,136
277,297	76,711	-0,213	-0,156
278,312	4,498	-0,094	-0,048
279,326	-49,857	-0,073	-0,024
280,341	-89,743	-0,224	-0,045
281,355	800,000	-0,147	-0,297
282,370	11,680	-0,194	-0,102
283,384	132,228	-0,223	-0,198
284,399	-52,953	-0,322	-0,102
285,414	-151,109	-0,294	-0,015
286,428	-61,582	-0,111	-0,032
287,443	137,608	-0,094	-0,085
288,457	-40,141	-0,204	0,073
289,472	-14,944	-0,215	-0,095
290,487	800,000	-0,052	-0,125
291,501	52,130	-0,216	-0,141
292,516	-165,943	-0,067	0,002
293,530	-167,622	-0,099	-0,003
294,545	-135,926	-0,075	0,006
295,560	43,041	-0,173	-0,108
296,574	72,896	-0,116	-0,084
297,589	-15,468	-0,133	-0,058
298,603	59,314	-0,264	-0,179
299,618	-35,991	-0,137	-0,051
300,633	0,013	-0,138	0,068
301,647	-44,904	-0,092	0,031
302,662	-200,000	-0,009	0,065
303,676	9,339	-0,107	-0,055
304,691	263,558	-0,210	-0,252
305,706	120,301	-0,187	-0,159
306,720	-50,783	-0,251	-0,081
307,735	-96,058	-0,184	-0,033
308,749	488,657	-0,081	-0,128
309,764	800,000	-0,090	-0,174
310,779	-200,000	-0,020	-0,122
311,793	-88,833	-0,144	-0,029
312,808	124,659	-0,231	-0,200
313,822	187,371	-0,050	0,051
314,837	-39,768	-0,208	-0,074
315,852	128,828	-0,167	-0,147
316,866	303,071	-0,038	-0,049
317,881	-40,668	-0,170	-0,060
318,895	105,035	-0,115	-0,094
319,910	99,489	-0,244	-0,194
320,925	221,709	-0,208	-0,230
321,939	144,716	-0,215	-0,197
322,954	-29,455	-0,069	0,027
323,968	117,583	-0,016	0,013
324,983	58,749	-0,145	-0,098
325,997	565,213	-0,045	-0,075
327,012	-87,028	-0,254	-0,053
328,027	800,000	-0,044	-0,094
329,041	800,000	-0,039	-0,088
330,056	-176,941	-0,208	-0,004
331,070	-148,644	-0,143	0,008
332,085	-200,000	0,031	-0,101
333,100	131,907	-0,112	-0,099
334,114	-114,491	-0,200	-0,026
335,129	-43,262	-0,217	-0,075
336,143	174,690	-0,130	-0,129
337,158	2,366	-0,159	-0,079
338,173	662,314	-0,054	-0,095
339,187	-86,271	-0,098	-0,021
340,202	800,000	-0,053	-0,146
341,216	-46,094	-0,234	-0,079
342,231	98,979	-0,144	-0,114
343,246	-200,000	-0,030	-0,156
344,260	-200,000	-0,036	-0,167
345,275	-200,000	-0,013	-0,067
346,289	569,303	-0,036	-0,060
347,304	-15,608	-0,180	-0,078
348,319	10,645	-0,253	-0,132
349,333	629,751	-0,157	-0,274
350,348	-200,000	-0,031	-0,296
351,362	195,272	-0,071	-0,074
352,377	-124,583	-0,174	-0,018
353,392	99,755	-0,109	-0,087
354,406	744,733	0,034	-0,064
355,421	209,096	1314,989	1412,779
356,435	160,923	1475,707	1413,260
