DTS Sentinel unit serial number:	SN410029Multiplexer serial number:	ORYXHardware model number:	OX2-SRSoftware version number:	ORYX F/W v4,00 Oryx Data Collector v3.7.2.0data status	okinstallation	B3 Nyhavnadifferential loss correction	single-endedforward channel	channel 1reverse channel	N/Adate	2023/12/03time	21:47:30forward acquisition time	300,00reverse acquisition time	0,00gamma	499,1914k internal	0,3199k external	0,3199temperature offset calibration	1,0000default loss term (dB/km)	0,3820temperature slope calibration	1,0000multiplexer offset coefficient	1,0000multiplexer slope coefficient	1,0000fibre end	0,00T internal ref (°C)	13,44T ext. ref 1 (°C)	-1,99T ext. ref 2 (°C)	-2,01length (m)	temperature (°C)	Stokes	anti-Stokes-744,400	710,606	-0,224	-0,433
-743,385	-200,000	-0,062	0,224
-742,371	800,000	-0,064	-0,159
-741,356	800,000	0,095	0,271
-740,342	251,730	-0,190	-0,235
-739,327	-200,000	-0,027	0,356
-738,312	83,681	-0,313	-0,248
-737,298	-200,000	-0,020	0,338
-736,283	398,442	-0,219	-0,335
-735,269	-200,000	0,043	0,268
-734,254	173,259	-0,211	-0,222
-733,239	332,871	-0,155	0,218
-732,225	-99,487	-0,207	-0,038
-731,210	5,346	0,088	0,047
-730,196	-200,000	0,034	-0,129
-729,181	81,144	0,041	-0,033
-728,167	594,950	-0,070	-0,127
-727,152	664,045	-0,076	-0,143
-726,137	800,000	0,030	-0,076
-725,123	32,255	-0,100	-0,062
-724,108	-103,102	-0,119	-0,020
-723,094	211,189	-0,093	-0,107
-722,079	-200,000	0,003	-0,034
-721,064	-115,805	-0,073	-0,010
-720,050	-61,064	-0,104	-0,032
-719,035	800,000	-0,026	-0,074
-718,021	-200,000	-0,006	-0,108
-717,006	475,002	0,055	-0,091
-715,991	800,000	0,045	-0,093
-714,977	-54,481	-0,092	-0,030
-713,962	-37,811	0,028	0,011
-712,948	-32,510	-0,117	0,047
-711,933	84,749	0,085	-0,068
-710,918	-85,120	0,039	-0,009
-709,904	800,000	-0,062	-0,169
-708,889	-200,000	-0,003	-0,106
-707,875	-200,000	-0,018	0,127
-706,860	-200,000	-0,050	-0,210
-705,845	-57,133	0,051	-0,016
-704,831	800,000	0,039	0,092
-703,816	-200,000	0,010	0,069
-702,802	471,366	-0,048	-0,078
-701,787	49,707	-0,212	-0,145
-700,772	176,606	-0,134	0,141
-699,758	-200,000	-0,003	0,027
-698,743	-142,931	0,130	-0,009
-697,729	-115,394	-0,098	-0,013
-696,714	-200,000	-0,003	-0,027
-695,699	1,045	-0,041	0,021
-694,685	30,818	0,130	-0,080
-693,670	109,804	-0,110	-0,096
-692,656	-182,101	0,142	-0,002
-691,641	-200,000	0,010	-0,052
-690,627	-51,662	0,211	0,071
-689,612	132,965	-0,095	-0,089
-688,597	-122,825	0,057	0,007
-687,583	-14,316	-0,107	-0,050
-686,568	800,000	0,044	0,110
-685,554	-90,892	-0,076	-0,016
-684,539	40,062	0,065	-0,042
-683,524	-200,000	-0,031	-0,110
-682,510	624,739	0,008	0,015
-681,495	371,633	-0,047	0,070
-680,481	-159,131	-0,044	-0,002
-679,466	800,000	-0,077	-0,233
-678,451	660,789	0,001	-0,001
-677,437	82,503	-0,036	0,028
-676,422	138,255	0,108	0,103
-675,408	7,262	-0,068	-0,036
-674,393	24,682	0,179	-0,107
-673,378	49,782	-0,151	0,103
-672,364	800,000	0,029	-0,071
-671,349	-58,610	-0,047	-0,015
-670,335	800,000	-0,036	0,073
-669,320	-102,429	-0,104	-0,018
-668,305	-4,326	-0,040	-0,020
-667,291	-22,104	-0,097	0,043
-666,276	-200,000	0,000	0,118
-665,262	99,184	-0,120	0,100
-664,247	800,000	0,022	-0,055
-663,232	-71,409	-0,075	0,020
-662,218	-87,979	0,175	0,038
-661,203	166,249	0,075	0,077
-660,189	691,533	-0,082	0,156
-659,174	431,980	0,007	-0,010
-658,159	-170,706	-0,082	0,002
-657,145	800,000	0,016	-0,039
-656,130	17,718	0,056	0,032
-655,116	435,853	-0,107	0,170
-654,101	-51,881	-0,030	0,010
-653,086	1,319	0,058	0,030
-652,072	-200,000	0,015	0,065
-651,057	-42,153	-0,048	-0,018
-650,043	477,085	-0,042	-0,069
-649,028	74,657	0,098	-0,074
-648,014	448,395	0,019	0,030
-646,999	21,261	0,121	0,071
-645,984	-200,000	0,018	0,079
-644,970	-200,000	-0,004	-0,038
-643,955	87,718	-0,063	-0,050
-642,941	10,560	-0,026	0,014
-641,926	-111,577	-0,091	-0,013
-640,911	-79,325	-0,100	-0,024
-639,897	-177,229	0,077	0,001
-638,882	199,180	-0,134	-0,149
-637,868	-200,000	-0,003	-0,054
-636,853	-200,000	0,011	0,138
-635,838	-165,574	-0,058	0,002
-634,824	-200,000	0,050	0,162
-633,809	800,000	-0,040	0,110
-632,795	800,000	-0,028	-0,067
-631,780	-200,000	-0,018	0,248
-630,765	-169,188	0,037	-0,001
-629,751	-37,933	0,104	-0,040
-628,736	-50,246	-0,036	-0,012
-627,722	-200,000	0,006	-0,023
-626,707	-200,000	0,029	0,132
-625,692	-101,290	0,055	-0,010
-624,678	-200,000	0,018	-0,092
-623,663	102,805	-0,019	-0,016
-622,649	132,720	0,057	-0,053
-621,634	289,556	-0,063	-0,083
-620,619	800,000	0,061	-0,141
-619,605	-194,251	0,122	-0,001
-618,590	-142,451	-0,077	0,005
-617,576	800,000	-0,004	-0,011
-616,561	100,215	-0,033	0,028
-615,546	257,630	-0,074	-0,093
-614,532	145,698	-0,032	-0,031
-613,517	-128,642	-0,105	-0,011
-612,503	509,993	-0,061	-0,103
-611,488	-200,000	-0,018	0,140
-610,474	67,020	-0,030	-0,022
-609,459	199,678	0,054	0,060
-608,444	-200,000	-0,007	-0,090
-607,430	-64,424	-0,163	0,048
-606,415	-24,026	-0,100	0,043
-605,401	-59,842	0,098	-0,030
-604,386	-200,000	-0,023	0,186
-603,371	19,636	0,116	-0,067
-602,357	31,501	-0,048	0,030
-601,342	-101,264	0,047	-0,008
-600,328	-200,000	0,005	-0,101
-599,313	800,000	0,068	-0,143
-598,298	360,329	-0,034	-0,049
-597,284	-200,000	0,021	-0,135
-596,269	128,307	-0,017	0,016
-595,255	792,799	-0,053	0,106
-594,240	-200,000	-0,007	0,047
-593,225	49,687	-0,099	-0,067
-592,211	587,136	-0,012	0,021
-591,196	25,719	0,043	0,026
-590,182	-200,000	-0,002	0,074
-589,167	-200,000	-0,010	-0,068
-588,152	800,000	-0,039	-0,119
-587,138	-128,107	0,132	0,013
-586,123	86,944	-0,081	-0,064
-585,109	-200,000	0,004	-0,016
-584,094	800,000	0,037	0,100
-583,079	-200,000	0,029	0,108
-582,065	-200,000	0,002	0,104
-581,050	800,000	0,037	-0,091
-580,036	84,852	-0,020	0,016
-579,021	-200,000	-0,000	-0,235
-578,006	153,600	-0,113	0,112
-576,992	800,000	-0,036	0,108
-575,977	248,698	-0,028	0,034
-574,963	-18,187	0,094	-0,042
-573,948	618,689	0,047	0,086
-572,934	-124,689	0,057	0,006
-571,919	-75,066	-0,223	0,057
-570,904	800,000	-0,059	-0,151
-569,890	-106,171	-0,033	0,005
-568,875	586,110	-0,034	-0,061
-567,861	17,463	0,035	-0,020
-566,846	-51,799	0,041	0,014
-565,831	-73,083	-0,103	-0,027
-564,817	163,527	-0,055	-0,056
-563,802	217,124	0,051	-0,059
-562,788	-25,397	0,110	0,047
-561,773	800,000	0,063	-0,190
-560,758	-200,000	0,088	0,000
-559,744	294,150	-0,051	-0,067
-558,729	-33,724	0,048	0,019
-557,715	-77,253	0,087	-0,022
-556,700	-200,000	-0,018	-0,077
-555,685	34,991	0,045	-0,028
-554,671	34,194	0,024	0,015
-553,656	334,765	-0,018	0,025
-552,642	800,000	-0,033	0,104
-551,627	-200,000	-0,008	-0,045
-550,612	58,222	-0,045	-0,032
-549,598	122,731	-0,078	0,070
-548,583	-200,000	-0,023	0,113
-547,569	201,119	-0,028	-0,031
-546,554	254,085	0,055	0,068
-545,539	36,692	-0,036	-0,023
-544,525	800,000	-0,026	0,056
-543,510	-200,000	-0,014	-0,074
-542,496	185,505	-0,024	-0,026
-541,481	316,313	0,054	-0,074
-540,466	-200,000	-0,011	-0,102
-539,452	-200,000	-0,007	-0,024
-538,437	195,409	0,136	0,149
-537,423	1,801	0,196	0,102
-536,408	100,924	-0,175	0,147
-535,393	-23,049	-0,031	-0,013
-534,379	-67,191	-0,087	-0,025
-533,364	-98,250	-0,042	0,008
-532,350	546,420	0,100	-0,173
-531,335	178,807	-0,038	-0,040
-530,321	383,512	0,055	0,082
-529,306	-48,854	-0,081	-0,028
-528,291	800,000	-0,050	-0,121
-527,277	181,079	0,080	0,085
-526,262	128,596	-0,017	0,015
-525,248	-200,000	0,011	0,038
-524,233	-162,802	-0,008	-0,000
-523,218	46,802	0,056	-0,038
-522,204	-44,683	-0,091	0,032
-521,189	311,032	0,036	-0,049
-520,175	-200,000	0,003	-0,199
-519,160	122,972	-0,060	-0,054
-518,145	-117,769	-0,026	-0,003
-517,131	102,519	0,050	-0,042
-516,116	-200,000	-0,023	0,183
-515,102	321,783	-0,082	-0,112
-514,087	236,095	0,035	0,041
-513,072	189,158	-0,038	-0,041
-512,058	60,442	0,165	0,118
-511,043	-200,000	-0,004	-0,021
-510,029	162,263	0,115	-0,116
-509,014	800,000	0,054	-0,123
-507,999	-200,000	-0,012	0,045
-506,985	-195,049	-0,060	-0,000
-505,970	567,724	-0,035	0,061
-504,956	800,000	0,019	-0,046
-503,941	-200,000	-0,025	0,095
-502,926	447,075	0,044	0,069
-501,912	115,733	0,087	0,077
-500,897	432,476	-0,068	-0,106
-499,883	-200,000	-0,006	0,096
-498,868	666,155	0,064	-0,120
-497,853	-77,928	0,084	-0,021
-496,839	-200,000	-0,003	0,091
-495,824	227,747	0,050	-0,058
-494,810	800,000	0,027	0,068
-493,795	800,000	-0,052	-0,114
-492,781	800,000	-0,041	0,119
-491,766	-200,000	-0,021	-0,110
-490,751	-200,000	-0,032	0,145
-489,737	-200,000	-0,003	0,079
-488,722	-200,000	-0,005	0,037
-487,708	46,666	0,066	-0,044
-486,693	-14,795	0,069	-0,032
-485,678	-14,381	0,019	-0,009
-484,664	-117,222	-0,103	0,013
-483,649	345,330	0,026	0,036
-482,635	100,459	0,077	0,064
-481,620	-58,617	-0,104	0,032
-480,605	-200,000	-0,004	-0,072
-479,591	63,273	-0,033	0,024
-478,576	102,653	-0,054	-0,045
-477,562	-106,298	0,029	-0,005
-476,547	-200,000	-0,008	-0,035
-475,532	88,707	0,071	-0,057
-474,518	108,552	0,059	0,051
-473,503	-92,596	0,036	0,007
-472,489	646,079	0,042	-0,078
-471,474	241,830	-0,087	-0,105
-470,459	3,056	0,021	-0,011
-469,445	-200,000	0,012	-0,082
-468,430	62,324	-0,058	-0,041
-467,416	38,085	-0,089	-0,057
-466,401	69,961	0,030	0,022
-465,386	96,456	0,027	0,022
-464,372	-200,000	0,004	0,138
-463,357	-200,000	0,005	-0,123
-462,343	-35,854	0,036	0,014
-461,328	-93,679	-0,023	-0,005
-460,313	-200,000	0,000	-0,162
-459,299	-79,900	0,087	-0,021
-458,284	785,054	0,030	0,059
-457,270	800,000	0,013	-0,026
-456,255	121,723	-0,079	0,071
-455,241	4,311	-0,123	0,065
-454,226	-200,000	-0,005	0,018
-453,211	488,339	-0,038	-0,063
-452,197	8,440	0,108	-0,059
-451,182	357,253	0,113	0,162
-450,168	84,018	-0,039	0,031
-449,153	-16,339	-0,017	-0,008
-448,138	43,661	-0,120	-0,079
-447,124	717,757	-0,037	0,072
-446,109	49,796	-0,073	-0,049
-445,095	756,986	0,049	0,095
-444,080	-64,320	0,029	-0,009
-443,065	108,717	-0,037	0,032
-442,051	1,815	-0,030	-0,016
-441,036	-61,664	-0,104	0,031
-440,022	800,000	0,038	-0,090
-439,007	-76,016	-0,189	0,048
-437,992	22,874	0,179	0,105
-436,978	-200,000	0,001	-0,040
-435,963	-95,094	0,042	-0,008
-434,949	-111,159	-0,060	0,009
-433,934	-30,517	0,092	-0,037
-432,919	4,358	-0,114	-0,060
-431,905	800,000	-0,016	-0,048
-430,890	-61,120	0,121	-0,037
-429,876	8,564	0,025	-0,014
-428,861	800,000	0,015	-0,031
-427,846	-130,802	-0,096	-0,009
-426,832	-104,579	-0,115	0,019
-425,817	800,000	0,074	-0,186
-424,803	77,911	0,073	0,056
-423,788	65,885	0,118	0,086
-422,773	800,000	0,034	0,095
-421,759	27,371	-0,089	0,054
-420,744	-200,000	-0,002	0,050
-419,730	-200,000	-0,010	0,045
-418,715	43,211	0,048	0,031
-417,701	704,205	0,041	-0,079
-416,686	-200,000	0,022	-0,078
-415,671	2,532	0,123	-0,064
-414,657	-200,000	-0,003	0,011
-413,642	132,371	-0,017	0,016
-412,628	-110,752	-0,092	-0,013
-411,613	800,000	-0,050	-0,125
-410,598	-105,961	-0,112	0,018
-409,584	-101,179	0,109	-0,019
-408,569	-195,286	0,072	-0,000
-407,555	59,281	-0,035	-0,025
-406,540	800,000	-0,004	0,010
-405,525	-53,395	0,110	0,036
-404,511	30,884	0,140	-0,086
-403,496	-94,257	-0,142	0,028
-402,482	30,345	-0,099	-0,061
-401,467	393,422	0,015	0,022
-400,452	-200,000	0,019	0,072
-399,438	258,882	-0,029	0,037
-398,423	-200,000	-0,010	0,089
-397,409	198,773	-0,010	0,011
-396,394	-152,976	0,042	0,002
-395,379	-117,650	0,127	-0,016
-394,365	326,671	-0,067	0,093
-393,350	800,000	0,043	0,135
-392,336	-200,000	-0,028	0,211
-391,321	-200,000	-0,009	0,067
-390,306	-140,721	-0,123	0,009
-389,292	-101,884	-0,074	-0,013
-388,277	203,660	-0,013	-0,015
-387,263	-45,271	-0,003	0,001
-386,248	52,360	0,109	-0,074
-385,233	-200,000	0,009	0,098
-384,219	363,768	-0,066	-0,096
-383,204	-140,013	0,013	0,001
-382,190	217,164	-0,128	-0,146
-381,175	-32,075	0,061	0,025
-380,160	262,896	-0,073	0,092
-379,146	141,304	0,108	0,103
-378,131	28,637	0,143	0,087
-377,117	105,354	-0,115	0,098
-376,102	86,619	-0,044	-0,035
-375,088	165,141	-0,034	-0,035
-374,073	800,000	-0,043	-0,107
-373,058	-13,941	0,114	0,053
-372,044	174,769	0,048	0,050
-371,029	111,413	0,045	0,039
-370,015	-51,295	0,027	-0,009
-369,000	105,784	-0,074	-0,062
-367,985	-200,000	-0,025	-0,120
-366,971	437,114	0,075	-0,117
-365,956	199,651	-0,057	0,063
-364,942	-72,289	-0,065	-0,017
-363,927	-152,158	0,113	-0,006
-362,912	-70,786	-0,081	0,022
-361,898	-77,051	-0,151	-0,037
-360,883	-200,000	0,004	-0,012
-359,869	-200,000	-0,001	0,012
-358,854	800,000	0,015	0,040
-357,839	800,000	0,077	0,237
-356,825	800,000	0,032	0,075
-355,810	85,674	-0,027	0,021
-354,796	252,163	-0,015	0,018
-353,781	-126,455	0,104	0,011
-352,766	-45,316	-0,172	0,061
-351,752	-112,668	0,140	0,020
-350,737	-79,858	0,075	0,018
-349,723	148,327	0,049	0,048
-348,708	101,813	0,099	-0,083
-347,693	451,976	0,056	-0,089
-346,679	800,000	-0,083	-0,194
-345,664	-69,367	-0,066	0,018
-344,650	11,402	0,036	-0,020
-343,635	556,761	0,057	0,098
-342,620	-22,095	0,042	-0,018
-341,606	-132,884	-0,074	-0,007
-340,591	403,529	0,021	0,031
-339,577	-165,140	0,064	-0,002
-338,562	208,593	-0,103	-0,116
-337,548	75,065	-0,104	-0,078
-336,533	232,507	0,036	0,043
-335,518	0,211	0,058	0,030
-334,504	204,460	0,074	0,082
-333,489	-200,000	0,038	0,157
-332,475	384,659	-0,054	-0,080
-331,460	-200,000	-0,026	-0,108
-330,445	-34,692	0,099	-0,038
-329,431	356,028	-0,082	0,117
-328,416	3,336	0,089	-0,046
-327,402	-200,000	-0,013	0,069
-326,387	-9,416	0,116	0,055
-325,372	102,066	-0,143	-0,120
-324,358	48,698	0,114	-0,076
-323,343	-118,344	-0,020	-0,003
-322,329	280,541	0,019	-0,024
-321,314	650,945	0,032	-0,059
-320,299	-59,573	0,135	0,041
-319,285	166,175	0,093	0,094
-318,270	408,661	-0,049	0,074
-317,256	-135,847	-0,014	-0,001
-316,241	-129,115	0,076	-0,008
-315,226	-200,000	-0,013	-0,045
-314,212	-40,876	0,010	-0,004
-313,197	124,302	-0,080	0,072
-312,183	-200,000	0,009	0,045
-311,168	119,792	-0,120	-0,106
-310,153	611,685	-0,011	0,020
-309,139	-110,870	0,071	-0,010
-308,124	-200,000	-0,003	-0,025
-307,110	110,989	0,081	-0,070
-306,095	486,218	-0,028	0,046
-305,080	-200,000	-0,004	0,062
-304,066	-200,000	-0,000	0,005
-303,051	-136,010	-0,054	0,004
-302,037	364,746	0,046	-0,066
-301,022	-200,000	0,012	0,093
-300,008	-13,309	-0,034	0,016
-298,993	800,000	-0,018	0,054
-297,978	-42,158	-0,048	0,017
-296,964	800,000	-0,042	-0,121
-295,949	3,363	-0,084	0,043
-294,935	21,917	-0,070	0,041
-293,920	-200,000	-0,000	-0,014
-292,905	134,040	0,013	-0,012
-291,891	-200,000	-0,011	-0,043
-290,876	800,000	-0,035	0,071
-289,862	800,000	0,018	0,041
-288,847	-26,289	0,108	0,045
-287,832	697,693	0,016	0,030
-286,818	522,108	0,055	0,093
-285,803	-115,347	-0,008	-0,001
-284,789	800,000	-0,010	0,023
-283,774	14,473	-0,061	-0,034
-282,759	6,206	-0,023	0,012
-281,745	800,000	-0,036	0,081
-280,730	-162,493	0,079	-0,003
-279,716	144,833	0,018	-0,017
-278,701	-65,980	0,143	0,040
-277,686	-200,000	-0,016	-0,083
-276,672	-91,811	0,044	-0,009
-275,657	231,649	0,033	-0,039
-274,643	-200,000	-0,020	-0,080
-273,628	-60,874	-0,060	-0,018
-272,613	125,917	-0,047	-0,042
-271,599	421,721	-0,101	-0,155
-270,584	-200,000	-0,025	-0,101
-269,570	-40,744	-0,073	-0,027
-268,555	-70,370	-0,019	-0,005
-267,540	19,965	-0,119	-0,069
-266,526	-93,535	-0,083	0,016
-265,511	-38,387	0,053	-0,020
-264,497	-58,283	0,182	-0,056
-263,482	-147,900	0,037	-0,002
-262,467	129,699	-0,078	-0,071
-261,453	-200,000	-0,001	-0,010
-260,438	381,417	0,019	-0,028
-259,424	696,376	-0,049	0,093
-258,409	201,829	-0,038	0,042
-257,395	-62,753	0,064	-0,019
-256,380	659,666	-0,048	0,088
-255,365	352,797	0,033	-0,047
-254,351	225,415	0,047	-0,054
-253,336	-76,902	0,083	0,021
-252,322	-77,298	-0,245	-0,060
-251,307	111,500	0,083	0,072
-250,292	800,000	0,033	0,072
-249,278	-200,000	0,035	0,145
-248,263	283,348	0,142	0,183
-247,249	-13,100	-0,116	0,054
-246,234	-165,212	-0,061	-0,002
-245,219	800,000	0,016	-0,034
-244,205	800,000	0,007	-0,020
-243,190	-77,932	-0,055	-0,013
-242,176	-59,950	0,104	-0,032
-241,161	-200,000	-0,005	0,035
-240,146	-200,000	-0,002	-0,029
-239,132	-200,000	-0,001	0,157
-238,117	610,687	0,039	0,070
-237,103	-6,512	-0,043	0,021
-236,088	-112,659	0,060	0,008
-235,073	-200,000	-0,045	0,175
-234,059	-41,674	0,096	0,035
-233,044	10,455	-0,057	-0,031
-232,030	122,243	0,035	0,031
-231,015	147,438	-0,029	-0,028
-230,000	297,822	0,157	-0,206
-228,986	-120,720	0,062	0,007
-227,971	-200,000	0,008	-0,111
-226,957	69,157	0,135	0,099
-225,942	-137,057	-0,134	-0,011
-224,927	-71,644	0,065	0,017
-223,913	-83,287	-0,044	0,010
-222,898	-7,251	-0,101	0,049
-221,884	-37,759	-0,112	-0,042
-220,869	328,504	-0,037	0,051
-219,855	-118,377	-0,046	0,006
-218,840	-130,641	0,097	0,009
-217,825	800,000	0,049	-0,097
-216,811	-200,000	-0,021	-0,146
-215,796	-200,000	-0,011	-0,089
-214,782	-24,877	-0,063	0,026
-213,767	586,408	-0,059	-0,104
-212,752	204,324	0,075	0,083
-211,738	319,974	0,083	0,113
-210,723	152,825	-0,024	-0,023
-209,709	90,973	-0,084	-0,067
-208,694	-136,322	-0,096	-0,008
-207,679	800,000	-0,039	-0,093
-206,665	562,243	-0,084	-0,146
-205,650	198,956	0,160	-0,175
-204,636	-200,000	-0,017	0,137
-203,621	800,000	0,051	0,134
-202,606	-100,169	-0,079	-0,014
-201,592	448,639	-0,043	-0,069
-200,577	74,671	-0,054	0,040
-199,563	108,710	-0,060	0,051
-198,548	-35,187	0,110	-0,042
-197,533	-200,000	0,016	0,121
-196,519	800,000	0,041	0,113
-195,504	800,000	-0,007	0,016
-194,490	23,020	0,028	0,016
-193,475	-200,000	0,005	-0,050
-192,460	111,880	-0,091	-0,079
-191,446	78,168	0,063	0,048
-190,431	-26,668	0,149	0,062
-189,417	74,175	-0,162	-0,121
-188,402	26,529	0,082	-0,049
-187,387	-200,000	-0,013	-0,169
-186,373	6,147	-0,036	0,019
-185,358	-134,233	-0,053	0,005
-184,344	-75,332	-0,102	0,026
-183,329	55,811	0,149	-0,103
-182,315	-200,000	-0,044	0,163
-181,300	332,578	0,043	0,059
-180,285	800,000	-0,005	0,012
-179,271	-89,664	0,045	0,009
-178,256	720,059	-0,073	-0,139
-177,242	-163,320	-0,076	0,003
-176,227	-200,000	0,002	0,014
-175,212	9,850	-0,118	0,064
-174,198	171,368	0,027	0,028
-173,183	-41,737	-0,073	-0,026
-172,169	-32,153	0,098	0,039
-171,154	-135,323	-0,124	-0,010
-170,139	146,304	-0,040	0,038
-169,125	-126,399	0,081	0,008
-168,110	576,577	0,068	0,119
-167,096	199,342	0,073	0,080
-166,081	800,000	-0,021	-0,063
-165,066	-19,738	-0,167	-0,073
-164,052	531,206	0,067	-0,113
-163,037	734,399	-0,008	0,015
-162,023	800,000	0,030	0,071
-161,008	-144,714	0,051	-0,003
-159,993	-80,187	-0,108	-0,025
-158,979	-15,113	-0,067	-0,031
-157,964	493,453	0,026	0,042
-156,950	195,520	0,060	0,064
-155,935	138,539	0,065	-0,060
-154,920	174,043	0,112	0,115
-153,906	443,685	-0,008	-0,012
-152,891	36,210	0,068	0,043
-151,877	-200,000	0,010	0,040
-150,862	-22,371	-0,117	0,050
-149,847	-200,000	0,023	-0,098
-148,833	-95,268	-0,105	0,020
-147,818	-107,804	0,097	0,015
-146,804	237,870	0,066	-0,077
-145,789	800,000	0,024	-0,065
-144,775	101,798	0,045	-0,037
-143,760	800,000	0,012	0,034
-142,745	79,993	0,027	0,021
-141,731	685,060	0,080	0,149
-140,716	-200,000	-0,001	0,119
-139,702	-200,000	-0,033	0,154
-138,687	239,887	-0,042	0,049
-137,672	161,837	0,036	0,036
-136,658	111,703	-0,060	-0,052
-135,643	646,184	0,042	0,076
-134,629	45,048	-0,055	-0,036
-133,614	-71,665	0,054	0,014
-132,599	800,000	0,054	0,119
-131,585	451,415	0,085	0,134
-130,570	800,000	0,018	-0,051
-129,556	49,655	-0,077	0,051
-128,541	143,885	0,090	-0,085
-127,526	-157,449	-0,077	0,003
-126,512	-45,922	0,091	0,032
-125,497	106,746	0,015	0,013
-124,483	-200,000	0,040	0,153
-123,468	800,000	0,009	0,022
-122,453	643,037	-0,080	-0,145
-121,439	-200,000	0,006	-0,025
-120,424	77,570	0,093	-0,070
-119,410	800,000	0,009	-0,024
-118,395	-73,374	0,021	0,005
-117,380	-200,000	0,042	0,173
-116,366	800,000	0,018	0,057
-115,351	376,855	0,035	0,050
-114,337	183,678	-0,075	-0,079
-113,322	105,657	0,131	-0,110
-112,307	-92,095	0,139	-0,028
-111,293	-200,000	0,035	0,136
-110,278	-200,000	-0,028	-0,134
-109,264	590,600	0,075	0,131
-108,249	-200,000	0,022	-0,087
-107,234	201,635	-0,084	-0,093
-106,220	-200,000	0,031	-0,110
-105,205	651,002	0,058	-0,105
-104,191	-162,296	0,082	-0,003
-103,176	-200,000	-0,012	0,146
-102,162	-200,000	-0,015	-0,083
-101,147	-71,980	0,084	-0,022
-100,132	-13,458	-0,115	0,053
-99,118	-200,000	-0,010	-0,065
-98,103	338,115	-0,131	-0,182
-97,089	-45,064	0,080	-0,028
-96,074	34,066	0,013	0,008
-95,059	192,264	-0,100	0,107
-94,045	-98,502	0,127	0,023
-93,030	-162,829	-0,083	-0,003
-92,016	-48,085	-0,037	-0,012
-91,001	-200,000	0,009	0,054
-89,986	-181,762	0,101	-0,001
-88,972	-75,392	0,132	-0,033
-87,957	-200,000	0,015	-0,090
-86,943	485,394	0,024	-0,039
-85,928	-144,460	-0,074	0,005
-84,913	-185,342	-0,142	-0,002
-83,899	800,000	0,050	0,112
-82,884	-88,705	0,157	0,033
-81,870	489,119	-0,051	-0,082
-80,855	800,000	-0,025	-0,057
-79,840	-54,569	0,032	0,010
-78,826	326,739	-0,053	0,072
-77,811	53,340	-0,097	-0,066
-76,797	-104,942	0,172	-0,028
-75,782	145,771	0,058	0,055
-74,767	54,621	0,130	0,089
-73,753	535,378	-0,033	0,056
-72,738	710,745	0,101	-0,190
-71,724	186,855	-0,126	-0,133
-70,709	-200,000	-0,012	-0,083
-69,694	57,470	0,012	-0,008
-68,680	800,000	-0,039	0,077
-67,665	102,659	0,086	-0,071
-66,651	13,062	0,052	-0,029
-65,636	-11,544	-0,055	-0,026
-64,622	295,732	0,054	-0,071
-63,607	-200,000	0,009	-0,036
-62,592	800,000	-0,032	-0,072
-61,578	-200,000	0,004	-0,087
-60,563	199,380	-0,047	0,052
-59,549	62,140	-0,109	0,077
-58,534	-33,528	-1,593	-0,620
-57,519	378,056	-1,360	-1,976
-56,505	-200,000	-0,609	-4,563
-55,490	240,097	1,034	1,223
-54,476	800,000	4,916	11,262
-53,461	-200,000	19,182	319,804
-52,446	-200,000	740,878	2335,627
-51,432	573,463	1656,078	2871,576
-50,417	78,400	1671,585	1263,393
-49,403	21,423	1544,631	887,027
-48,388	15,321	1467,001	812,749
-47,373	17,925	1457,381	819,986
-46,359	16,686	1447,258	808,312
-45,344	13,623	1442,350	790,852
-44,330	13,483	1440,724	789,262
-43,315	13,503	1438,891	788,319
-42,300	13,508	1437,146	787,355
-41,286	13,516	1436,001	786,738
-40,271	13,464	1434,773	785,782
-39,257	13,484	1433,423	785,111
-38,242	13,506	1432,247	784,538
-37,227	13,510	1431,017	783,853
-36,213	13,527	1429,662	783,161
-35,198	13,549	1428,420	782,556
-34,184	13,557	1427,505	782,058
-33,169	13,513	1426,100	781,050
-32,154	13,550	1425,117	780,657
-31,140	13,567	1423,800	779,984
-30,125	13,558	1422,746	779,334
-29,111	13,579	1421,491	778,712
-28,096	13,528	1420,459	777,879
-27,082	13,491	1419,175	776,966
-26,067	13,490	1418,106	776,349
-25,052	13,464	1417,142	775,666
-24,038	13,461	1416,068	775,034
-23,023	13,464	1415,112	774,495
-22,009	13,402	1414,259	773,704
-20,994	13,409	1413,356	773,211
-19,979	13,417	1412,475	772,737
-18,965	13,434	1411,419	772,208
-17,950	13,435	1410,462	771,660
-16,936	13,447	1409,391	771,098
-15,921	13,404	1408,257	770,247
-14,906	13,375	1407,607	769,723
-13,892	13,425	1406,625	769,389
-12,877	13,385	1405,858	768,752
-11,863	13,409	1404,742	768,227
-10,848	13,334	1404,024	767,450
-9,833	13,313	1403,156	766,848
-8,819	13,303	1402,292	766,299
-7,804	13,273	1401,437	765,661
-6,790	13,273	1400,258	764,987
-5,775	13,281	1399,296	764,470
-4,760	13,264	1398,383	763,863
-3,746	13,269	1397,400	763,315
-2,731	13,294	1396,505	762,916
-1,717	13,218	1395,628	762,052
-0,702	13,201	1394,089	761,105
0,313	16,994	1310,550	733,095
1,327	33,254	703,694	431,225
2,342	50,892	123,265	82,534
3,356	1,385	16,766	8,502
4,371	10,781	3,177	1,711
5,386	-62,844	0,593	0,172
6,400	-200,000	0,068	0,229
7,415	-184,199	-0,128	0,001
8,429	17,773	-0,293	-0,165
9,444	-22,164	-0,398	-0,170
10,459	-17,229	-0,288	-0,128
11,473	84,992	-0,329	-0,255
12,488	88,595	-0,208	-0,163
13,502	-44,072	-0,185	-0,065
14,517	86,962	-0,377	-0,294
15,531	164,189	-0,331	-0,330
16,546	296,121	-0,188	-0,245
17,561	31,264	-0,308	-0,187
18,575	116,741	-0,195	-0,169
19,590	51,023	-0,221	-0,148
20,604	-21,455	-0,211	-0,091
21,619	-8,040	-0,414	-0,197
22,634	31,100	-0,475	-0,287
23,648	-53,928	-0,540	-0,173
24,663	160,995	-0,311	-0,307
25,677	-59,889	-0,442	-0,133
26,692	29,545	-0,293	-0,176
27,707	37,057	-0,450	-0,280
28,721	118,771	-0,246	-0,215
29,736	34,632	-0,475	-0,293
30,750	262,372	-0,243	-0,298
31,765	57,540	-0,383	-0,264
32,780	-16,167	-0,476	-0,212
33,794	70,192	-0,308	-0,224
34,809	113,988	-0,350	-0,300
35,823	43,738	-0,295	-0,190
36,838	-73,830	-0,554	-0,141
37,853	208,474	-0,349	-0,386
38,867	0,484	-0,467	-0,235
39,882	128,827	-0,302	-0,272
40,896	170,860	-0,338	-0,342
41,911	-21,718	-0,373	-0,159
42,926	112,966	-0,339	-0,290
43,940	17,795	-0,555	-0,310
44,955	94,444	-0,352	-0,281
45,969	157,730	-0,323	-0,316
46,984	4,244	-0,436	-0,224
47,999	2,015	-0,371	-0,188
49,013	-5,801	-0,318	-0,153
50,028	-57,853	-0,346	-0,106
51,042	197,450	-0,341	-0,368
52,057	201,297	-0,298	-0,323
53,071	151,668	-0,266	-0,255
54,086	116,568	-0,310	-0,268
55,101	39,985	-0,305	-0,193
56,115	18,108	-0,243	-0,136
57,130	18,198	-0,258	-0,144
58,144	57,793	-0,306	-0,211
59,159	103,889	-0,336	-0,278
60,174	210,620	-0,302	-0,335
61,188	116,897	-0,405	-0,350
62,203	127,450	-0,323	-0,288
63,217	63,197	-0,310	-0,219
64,232	26,155	-0,330	-0,193
65,247	18,050	-0,342	-0,191
66,261	293,710	-0,378	-0,487
67,276	38,306	-0,408	-0,255
68,290	10,009	-0,295	-0,157
69,305	-10,830	-0,349	-0,162
70,320	138,304	-0,299	-0,276
71,334	6,888	-0,265	-0,138
72,349	85,240	-0,269	-0,207
73,363	218,713	-0,250	-0,281
74,378	56,052	-0,392	-0,267
75,393	57,586	-0,365	-0,251
76,407	151,595	-0,244	-0,234
77,422	360,340	-0,191	-0,270
78,436	218,317	-0,286	-0,322
79,451	121,573	-0,290	-0,254
80,466	-40,790	-0,445	-0,161
81,480	-92,037	-0,430	-0,085
82,495	29,238	-0,357	-0,213
83,509	109,055	-0,266	-0,224
84,524	-195,558	-0,379	-0,002
85,539	-79,890	-0,314	-0,074
86,553	369,322	-0,210	-0,299
87,568	44,322	-0,287	-0,185
88,582	85,091	-0,279	-0,215
89,597	83,100	-0,313	-0,239
90,611	60,023	-0,252	-0,174
91,626	6,121	-0,203	-0,106
92,641	-71,414	-0,380	-0,099
93,655	-32,656	-0,252	-0,098
94,670	-6,321	-0,363	-0,173
95,684	11,618	-0,273	-0,147
96,699	-6,716	-0,346	-0,165
97,714	63,635	-0,219	-0,154
98,728	132,548	-0,180	-0,163
99,743	369,118	-0,214	-0,304
100,757	86,336	-0,218	-0,169
101,772	109,391	-0,226	-0,190
102,787	-82,517	-0,391	-0,088
103,801	16,678	-0,315	-0,174
104,816	-19,868	-0,135	-0,058
105,830	-69,547	-0,217	0,058
106,845	-103,365	-0,206	-0,034
107,860	162,782	-0,184	-0,181
108,874	-38,797	-0,340	-0,125
109,889	85,168	-0,301	-0,231
110,903	22,083	-0,260	-0,148
111,918	-25,149	-0,233	-0,096
112,933	-7,496	-0,272	-0,128
113,947	724,315	-0,131	-0,246
114,962	-37,700	-0,178	-0,066
115,976	89,779	-0,289	-0,226
116,991	46,186	-0,292	-0,189
118,006	5,180	-0,356	-0,183
119,020	6,275	-0,312	-0,162
120,035	129,002	-0,328	-0,293
121,049	-90,497	-0,308	0,062
122,064	2,343	-0,180	-0,091
123,079	264,572	-0,244	-0,298
124,093	-75,257	-0,279	-0,069
125,108	220,155	-0,199	-0,224
126,122	272,225	-0,220	-0,273
127,137	41,463	-0,257	-0,162
128,151	149,651	-0,154	-0,146
129,166	84,533	-0,261	-0,200
130,181	120,348	-0,232	-0,201
131,195	291,898	-0,216	-0,276
132,210	130,576	-0,192	-0,172
133,224	150,596	-0,229	-0,218
134,239	508,224	-0,133	-0,216
135,254	28,777	-0,177	-0,104
136,268	82,744	-0,263	-0,200
137,283	70,203	-0,237	-0,171
138,297	-76,684	-0,243	-0,059
139,312	-17,635	-0,361	-0,158
140,327	32,911	-0,474	-0,286
141,341	118,462	-0,272	-0,234
142,356	-22,893	-0,259	-0,109
143,370	112,706	-0,215	-0,182
144,385	800,000	-0,149	-0,299
145,400	-8,794	-0,446	-0,208
146,414	216,693	-0,147	-0,163
147,429	79,341	-0,358	-0,268
148,443	62,641	-0,207	-0,144
149,458	-51,364	-0,264	-0,086
150,473	19,285	-0,185	-0,104
151,487	285,961	-0,224	-0,282
152,502	83,923	-0,279	-0,212
153,516	155,683	-0,222	-0,214
154,531	14,114	-0,295	-0,160
155,546	800,000	-0,107	-0,211
156,560	370,048	-0,210	-0,298
157,575	315,112	-0,091	-0,120
158,589	24,848	-0,196	-0,113
159,604	-36,122	-0,178	-0,067
160,619	121,256	-0,270	-0,234
161,633	224,136	-0,265	-0,299
162,648	56,002	-0,250	-0,169
163,662	165,581	-0,153	-0,151
164,677	92,636	-0,163	-0,128
165,692	7,180	-0,226	-0,117
166,706	71,272	-0,304	-0,220
167,721	104,668	-0,209	-0,172
168,735	72,969	-0,274	-0,199
169,750	51,522	-0,178	-0,118
170,764	348,213	-0,150	-0,207
171,779	-84,817	-0,186	-0,040
172,794	28,802	-0,061	-0,036
173,808	800,000	-0,103	-0,222
174,823	251,967	-0,178	-0,211
175,837	94,367	-0,259	-0,205
176,852	-44,002	-0,336	-0,117
177,867	624,525	-0,135	-0,238
178,881	684,161	-0,110	-0,201
179,896	381,131	-0,194	-0,278
180,910	108,199	-0,242	-0,201
181,925	800,000	-0,088	-0,194
182,940	-23,919	-0,282	-0,117
183,954	-27,166	-0,320	-0,129
184,969	114,396	-0,137	-0,116
185,983	49,653	-0,180	-0,118
186,998	165,168	-0,200	-0,196
188,013	79,141	-0,164	-0,122
189,027	800,000	-0,080	-0,222
190,042	676,617	-0,172	-0,313
191,056	-17,400	-0,220	-0,096
192,071	-111,710	-0,279	0,039
193,086	800,000	-0,048	-0,118
194,100	-125,862	-0,135	-0,014
195,115	800,000	-0,067	-0,197
196,129	19,643	-0,252	-0,141
197,144	57,899	-0,262	-0,178
198,159	407,039	-0,162	-0,238
199,173	507,147	-0,091	-0,148
200,188	119,592	-0,139	-0,120
201,202	-78,952	-0,300	-0,071
202,217	732,267	-0,192	-0,359
203,232	216,822	-0,157	-0,174
204,246	800,000	-0,024	-0,068
205,261	25,520	-0,298	-0,172
206,275	115,084	-0,199	-0,168
207,290	-156,015	-0,207	0,009
208,304	11,451	-0,210	-0,111
209,319	81,625	-0,246	-0,185
210,334	118,434	-0,206	-0,176
211,348	210,527	-0,190	-0,208
212,363	71,327	-0,243	-0,175
213,377	98,345	-0,139	-0,112
214,392	216,706	-0,194	-0,215
215,407	295,287	-0,192	-0,244
216,421	536,586	-0,088	-0,146
217,436	57,830	-0,145	-0,098
218,450	-163,810	-0,174	0,006
219,465	163,083	-0,234	-0,229
220,480	123,663	-0,230	-0,201
221,494	-55,933	-0,213	-0,066
222,509	-21,441	-0,127	-0,054
223,523	715,969	-0,047	-0,086
224,538	-95,596	-0,224	-0,041
225,553	119,483	-0,199	-0,171
226,567	-200,000	-0,039	-0,196
227,582	126,577	-0,274	-0,241
228,596	-7,702	-0,160	-0,075
229,611	669,902	-0,137	-0,248
230,626	-27,721	-0,212	-0,085
231,640	800,000	-0,139	-0,275
232,655	247,144	-0,161	-0,189
233,669	131,195	-0,228	-0,203
234,684	338,140	-0,117	-0,159
235,699	-136,677	-0,194	-0,015
236,713	256,122	-0,137	-0,164
237,728	-85,239	-0,165	0,035
238,742	-42,306	-0,109	-0,038
239,757	67,892	-0,194	-0,137
240,772	237,790	-0,271	-0,312
241,786	62,500	-0,225	-0,155
242,801	-200,000	-0,027	-0,130
243,815	-200,000	-0,016	-0,071
244,830	-93,794	-0,228	-0,043
245,844	366,548	-0,159	-0,223
246,859	800,000	-0,152	-0,340
247,874	201,203	-0,252	-0,269
248,888	-37,541	-0,211	-0,078
249,903	206,777	-0,178	-0,193
250,917	151,313	-0,138	-0,130
251,932	213,285	-0,204	-0,224
252,947	423,319	-0,119	-0,178
253,961	64,659	-0,259	-0,181
254,976	-4,964	-0,251	-0,119
255,990	-1,649	-0,171	-0,083
257,005	177,520	-0,103	-0,104
258,020	-79,543	-0,147	-0,034
259,034	95,835	-0,102	-0,081
260,049	-200,000	-0,069	-0,219
261,063	800,000	-0,055	-0,120
262,078	211,707	-0,163	-0,178
263,093	800,000	-0,066	-0,159
264,107	-100,695	-0,212	-0,036
265,122	53,137	-0,148	-0,098
266,136	124,539	-0,113	-0,099
267,151	-103,560	-0,149	-0,024
268,166	125,792	-0,126	-0,110
269,180	-9,138	-0,087	-0,040
270,195	73,195	-0,226	-0,163
271,209	-12,180	-0,150	-0,068
272,224	-124,591	-0,147	0,016
273,239	-29,971	-0,063	-0,025
274,253	-126,837	-0,265	-0,027
275,268	-57,831	-0,179	-0,054
276,282	-18,207	-0,259	-0,111
277,297	298,718	-0,124	-0,158
278,312	467,703	-0,070	-0,109
279,326	800,000	-0,123	-0,241
280,341	5,307	-0,227	-0,115
281,355	-103,451	-0,110	-0,018
282,370	-200,000	-0,018	-0,111
283,384	139,644	-0,165	-0,150
284,399	269,962	-0,164	-0,199
285,414	187,228	-0,140	-0,145
286,428	-136,973	-0,155	0,012
287,443	14,347	-0,210	-0,113
288,457	46,020	-0,149	-0,095
289,472	-23,197	-0,212	-0,088
290,487	-70,838	-0,138	-0,036
291,501	0,557	-0,190	-0,094
292,516	800,000	-0,109	-0,224
293,530	351,971	-0,119	-0,163
294,545	15,437	-0,181	-0,098
295,560	-10,502	-0,143	0,065
296,574	168,918	-0,079	-0,078
297,589	77,091	-0,172	-0,126
298,603	23,791	-0,110	-0,063
299,618	-4,853	-0,251	-0,119
300,633	167,598	-0,164	-0,161
301,647	-75,137	-0,264	-0,065
302,662	-89,217	-0,185	0,037
303,676	-165,409	-0,148	-0,004
304,691	800,000	-0,060	-0,164
305,706	50,091	-0,153	-0,099
306,720	-76,610	-0,200	-0,048
307,735	251,685	-0,192	-0,226
308,749	-200,000	-0,005	-0,129
309,764	32,203	-0,127	0,076
310,779	187,646	-0,139	-0,143
311,793	47,645	-0,127	-0,081
312,808	47,796	-0,197	-0,126
313,822	402,940	-0,115	-0,167
314,837	302,751	-0,109	-0,140
315,852	-75,809	-0,134	0,032
316,866	206,981	-0,118	-0,127
317,881	-167,571	-0,110	-0,003
318,895	334,739	-0,155	-0,208
319,910	134,817	-0,182	-0,162
320,925	41,463	-0,123	-0,076
321,939	800,000	-0,123	-0,265
322,954	188,760	-0,168	-0,173
323,968	-105,889	-0,118	0,018
324,983	800,000	-0,045	-0,113
325,997	105,088	-0,264	-0,214
327,012	44,955	-0,116	-0,073
328,027	800,000	-0,031	-0,062
329,041	-30,090	-0,125	-0,049
330,056	-13,182	-0,154	0,069
331,070	-8,985	-0,103	0,047
332,085	-200,000	0,005	-0,082
333,100	-90,276	-0,074	-0,015
334,114	79,672	-0,163	-0,121
335,129	62,555	-0,145	-0,100
336,143	77,108	-0,036	-0,027
337,158	-18,784	-0,165	-0,070
338,173	635,547	-0,099	-0,174
339,187	177,136	-0,104	-0,104
340,202	113,686	-0,080	-0,067
341,216	673,486	-0,087	-0,155
342,231	174,870	-0,126	-0,126
343,246	33,900	-0,240	-0,143
344,260	155,521	0,025	-0,024
345,275	704,975	-0,104	-0,190
346,289	-103,291	-0,066	0,011
347,304	180,685	-0,036	0,037
348,319	461,202	-0,126	-0,193
349,333	176,844	-0,102	-0,102
350,348	327,188	-0,110	-0,146
351,362	-31,579	-0,152	-0,059
352,377	-138,840	-0,159	0,012
353,392	588,353	-0,078	-0,132
354,406	144,737	-0,063	-0,058
355,421	207,417	1316,464	1411,321
356,435	159,556	1477,399	1411,816
