DTS Sentinel unit serial number:	SN410029Multiplexer serial number:	ORYXHardware model number:	OX2-SRSoftware version number:	ORYX F/W v4,00 Oryx Data Collector v3.7.2.0data status	okinstallation	B3 Nyhavnadifferential loss correction	single-endedforward channel	channel 1reverse channel	N/Adate	2023/11/29time	13:57:30forward acquisition time	300,00reverse acquisition time	0,00gamma	499,1914k internal	0,3212k external	0,3212temperature offset calibration	1,0000default loss term (dB/km)	0,3820temperature slope calibration	1,0000multiplexer offset coefficient	1,0000multiplexer slope coefficient	1,0000fibre end	0,00T internal ref (°C)	10,64T ext. ref 1 (°C)	-3,35T ext. ref 2 (°C)	-3,48length (m)	temperature (°C)	Stokes	anti-Stokes-744,400	220,329	-0,216	-0,251
-743,385	-200,000	-0,080	0,314
-742,371	8,489	-0,134	-0,073
-741,356	-200,000	0,064	0,366
-740,342	800,000	-0,050	-0,158
-739,327	-200,000	0,105	0,371
-738,312	78,234	-0,208	-0,161
-737,298	-200,000	0,024	0,292
-736,283	346,822	-0,138	-0,198
-735,269	-200,000	-0,012	0,201
-734,254	63,092	-0,270	-0,196
-733,239	800,000	-0,067	0,148
-732,225	800,000	-0,067	-0,176
-731,210	18,639	0,149	0,086
-730,196	800,000	-0,070	-0,146
-729,181	-200,000	-0,008	0,070
-728,167	-200,000	0,000	-0,009
-727,152	134,451	0,033	-0,031
-726,137	-200,000	-0,025	-0,100
-725,123	-200,000	0,009	-0,082
-724,108	310,077	-0,065	-0,088
-723,094	-8,726	-0,053	-0,025
-722,079	-145,134	-0,090	0,006
-721,064	800,000	-0,023	-0,063
-720,050	-118,189	-0,039	0,005
-719,035	322,872	0,053	0,074
-718,021	-22,440	-0,073	-0,032
-717,006	-104,483	-0,164	-0,027
-715,991	107,978	-0,089	-0,077
-714,977	-67,694	-0,138	-0,039
-713,962	200,308	0,050	0,056
-712,948	276,699	-0,044	-0,057
-711,933	1,418	-0,115	0,060
-710,918	-91,400	0,128	-0,026
-709,904	-195,120	-0,084	-0,000
-708,889	800,000	-0,027	0,071
-707,875	-1,150	0,046	-0,024
-706,860	-105,180	0,081	-0,013
-705,845	-10,462	-0,083	-0,040
-704,831	322,578	0,063	0,087
-703,816	-7,015	-0,045	0,022
-702,802	270,684	-0,040	0,051
-701,787	800,000	0,024	0,054
-700,772	-200,000	0,016	-0,190
-699,758	-200,000	-0,030	-0,177
-698,743	-147,832	0,073	0,004
-697,729	27,669	0,098	-0,060
-696,714	271,670	0,070	-0,090
-695,699	-36,178	-0,011	-0,004
-694,685	-200,000	-0,002	0,044
-693,670	232,264	0,091	-0,109
-692,656	-200,000	0,021	-0,153
-691,641	-182,908	-0,129	-0,002
-690,627	-104,374	-0,055	-0,009
-689,612	800,000	-0,025	-0,059
-688,597	37,074	-0,011	0,007
-687,583	-60,171	-0,063	0,019
-686,568	-200,000	-0,010	-0,112
-685,554	59,117	-0,061	-0,043
-684,539	800,000	0,038	-0,081
-683,524	273,689	0,039	-0,049
-682,510	89,865	-0,101	0,082
-681,495	-63,888	-0,056	-0,016
-680,481	-200,000	-0,001	0,047
-679,466	67,946	-0,091	-0,067
-678,451	-200,000	-0,007	-0,132
-677,437	146,864	-0,077	0,075
-676,422	314,339	-0,071	0,097
-675,408	-7,421	0,022	0,011
-674,393	-17,318	-0,096	-0,043
-673,378	-97,088	-0,126	-0,024
-672,364	-198,036	-0,117	-0,000
-671,349	151,673	-0,084	-0,083
-670,335	800,000	0,031	0,063
-669,320	239,756	0,057	-0,069
-668,305	84,829	-0,179	0,142
-667,291	-106,742	0,027	-0,004
-666,276	-200,000	-0,009	-0,106
-665,262	800,000	-0,007	-0,014
-664,247	330,607	0,061	-0,085
-663,232	-106,874	0,055	-0,009
-662,218	-142,878	0,093	0,006
-661,203	67,631	-0,039	-0,029
-660,189	-23,323	-0,079	-0,034
-659,174	425,047	0,047	-0,073
-658,159	103,620	-0,087	0,074
-657,145	-50,106	-0,043	0,015
-656,130	134,714	0,082	-0,077
-655,116	-145,295	-0,088	-0,006
-654,101	-200,000	0,057	-0,203
-653,086	800,000	-0,032	0,076
-652,072	-200,000	0,031	-0,118
-651,057	-25,323	0,025	-0,011
-650,043	67,981	-0,023	-0,017
-649,028	800,000	0,056	0,131
-648,014	216,259	0,063	0,072
-646,999	-65,365	0,095	0,027
-645,984	272,778	-0,035	-0,045
-644,970	-200,000	-0,049	-0,173
-643,955	148,670	-0,077	-0,075
-642,941	800,000	-0,038	-0,104
-641,926	-114,650	-0,165	0,023
-640,911	673,664	0,005	0,009
-639,897	179,262	-0,118	0,125
-638,882	-200,000	-0,002	0,049
-637,868	1,538	0,086	-0,044
-636,853	-21,801	-0,066	0,029
-635,838	741,798	0,046	-0,090
-634,824	-200,000	-0,053	-0,180
-633,809	-78,277	-0,049	-0,012
-632,795	800,000	0,069	0,153
-631,780	-200,000	-0,004	-0,072
-630,765	11,829	0,127	0,070
-629,751	-200,000	-0,027	0,089
-628,736	446,000	0,079	-0,126
-627,722	-200,000	0,007	0,034
-626,707	267,697	-0,013	0,017
-625,692	-115,556	-0,016	-0,002
-624,678	256,104	0,079	-0,098
-623,663	-151,568	0,044	-0,002
-622,649	-105,878	-0,027	0,004
-621,634	166,645	-0,182	-0,186
-620,619	206,656	-0,044	-0,049
-619,605	-129,244	0,036	-0,004
-618,590	-96,302	0,068	0,013
-617,576	52,717	0,055	0,038
-616,561	-200,000	-0,004	-0,072
-615,546	-200,000	0,012	0,072
-614,532	-200,000	-0,015	-0,211
-613,517	-200,000	-0,001	-0,135
-612,503	71,017	0,094	0,070
-611,488	800,000	0,031	0,075
-610,474	-24,239	-0,041	0,017
-609,459	-53,759	-0,152	0,050
-608,444	-173,859	-0,077	0,002
-607,430	-133,986	-0,119	0,011
-606,415	-200,000	0,026	-0,147
-605,401	800,000	-0,033	-0,080
-604,386	13,344	-0,071	-0,039
-603,371	18,701	0,065	-0,037
-602,357	5,230	-0,089	-0,047
-601,342	102,907	-0,056	-0,047
-600,328	-65,848	-0,179	0,051
-599,313	327,104	-0,033	-0,046
-598,298	-87,453	0,101	-0,022
-597,284	-128,241	-0,046	-0,005
-596,269	-200,000	0,002	-0,040
-595,255	800,000	-0,025	-0,065
-594,240	39,534	0,044	0,028
-593,225	-200,000	-0,003	-0,108
-592,211	127,121	-0,035	-0,032
-591,196	171,638	-0,037	-0,038
-590,182	-200,000	-0,012	0,071
-589,167	158,430	-0,020	-0,020
-588,152	-200,000	-0,018	-0,093
-587,138	718,807	-0,048	0,093
-586,123	643,765	0,065	-0,120
-585,109	-200,000	0,001	0,047
-584,094	469,607	0,031	-0,051
-583,079	-200,000	-0,005	0,034
-582,065	800,000	0,056	0,114
-581,050	-200,000	0,011	-0,040
-580,036	305,358	-0,030	-0,041
-579,021	-101,284	-0,119	-0,021
-578,006	800,000	-0,082	-0,189
-576,992	62,392	-0,098	0,070
-575,977	800,000	0,060	0,130
-574,963	-49,849	0,096	0,033
-573,948	247,653	0,048	0,059
-572,934	1,115	-0,056	0,029
-571,919	49,879	-0,054	-0,036
-570,904	-114,749	-0,108	0,015
-569,890	-78,378	-0,080	-0,020
-568,875	-103,406	0,049	0,008
-567,861	-82,477	0,089	-0,021
-566,846	-200,000	0,016	0,140
-565,831	800,000	-0,026	-0,060
-564,817	-63,390	-0,041	-0,012
-563,802	442,052	0,070	-0,110
-562,788	-200,000	0,020	-0,114
-561,773	-138,312	-0,105	-0,008
-560,758	-200,000	-0,028	-0,166
-559,744	-147,316	-0,040	-0,002
-558,729	-55,141	0,038	0,012
-557,715	424,648	0,057	-0,089
-556,700	-63,010	-0,122	0,036
-555,685	-45,181	0,145	-0,051
-554,671	204,380	0,023	0,026
-553,656	-200,000	-0,012	-0,049
-552,642	236,541	-0,052	0,062
-551,627	209,064	-0,008	0,009
-550,612	204,171	-0,106	-0,118
-549,598	14,321	-0,055	0,031
-548,583	-69,587	-0,096	-0,026
-547,569	-47,005	0,049	0,017
-546,554	-200,000	0,015	0,058
-545,539	474,770	0,021	0,034
-544,525	104,980	0,089	0,076
-543,510	6,239	0,006	-0,003
-542,496	-93,451	-0,033	0,006
-541,481	800,000	-0,016	-0,044
-540,466	-200,000	-0,024	0,080
-539,452	-200,000	0,030	0,166
-538,437	800,000	0,059	0,130
-537,423	-200,000	0,024	-0,117
-536,408	-200,000	0,006	-0,109
-535,393	-110,118	0,038	0,006
-534,379	800,000	-0,072	0,154
-533,364	435,101	-0,038	-0,060
-532,350	201,847	0,126	-0,140
-531,335	115,012	-0,045	0,040
-530,321	108,258	-0,059	0,051
-529,306	-106,046	-0,088	0,014
-528,291	7,939	-0,129	-0,069
-527,277	-200,000	0,013	-0,192
-526,262	-200,000	0,005	-0,095
-525,248	800,000	-0,048	-0,099
-524,233	-200,000	-0,026	-0,095
-523,218	-55,425	-0,025	0,008
-522,204	-200,000	-0,023	0,219
-521,189	785,015	-0,061	-0,121
-520,175	800,000	0,045	0,114
-519,160	-200,000	0,014	-0,111
-518,145	364,763	-0,042	-0,061
-517,131	800,000	-0,029	0,058
-516,116	260,395	-0,080	-0,100
-515,102	-200,000	-0,003	-0,021
-514,087	718,691	-0,049	-0,094
-513,072	800,000	0,048	-0,128
-512,058	-178,956	-0,051	0,001
-511,043	-95,242	0,047	-0,009
-510,029	119,621	-0,068	0,061
-509,014	800,000	0,039	0,103
-507,999	-118,009	0,110	-0,014
-506,985	-138,390	-0,078	-0,006
-505,970	-200,000	0,028	0,106
-504,956	-19,435	0,057	-0,025
-503,941	-200,000	-0,021	0,115
-502,926	224,491	0,078	0,091
-501,912	800,000	0,022	0,066
-500,897	303,427	0,046	-0,062
-499,883	215,706	-0,074	0,084
-498,868	368,556	-0,071	-0,104
-497,853	-200,000	0,000	0,011
-496,839	-47,348	0,099	0,034
-495,824	-73,904	0,069	0,018
-494,810	-62,947	0,098	0,029
-493,795	-17,586	0,026	-0,012
-492,781	106,340	-0,073	0,062
-491,766	26,250	0,139	-0,083
-490,751	-2,997	0,092	0,046
-489,737	104,777	-0,072	0,061
-488,722	477,524	0,133	0,217
-487,708	-69,676	0,071	-0,019
-486,693	-200,000	0,041	0,202
-485,678	217,422	0,059	-0,067
-484,664	404,503	0,065	-0,099
-483,649	71,807	0,057	-0,043
-482,635	-132,065	-0,028	-0,003
-481,620	357,296	-0,023	-0,032
-480,605	-112,614	-0,085	-0,012
-479,591	427,135	0,077	0,120
-478,576	-37,808	-0,061	0,023
-477,562	103,262	-0,057	-0,048
-476,547	-73,701	0,057	0,015
-475,532	-200,000	0,007	0,073
-474,518	-14,621	-0,059	0,027
-473,503	-200,000	-0,035	0,169
-472,489	-200,000	0,033	0,227
-471,474	146,994	0,097	-0,093
-470,459	237,769	-0,111	-0,133
-469,445	554,439	-0,038	-0,065
-468,430	-32,123	0,089	-0,035
-467,416	121,254	0,085	0,076
-466,401	40,449	0,130	0,084
-465,386	-200,000	-0,003	-0,078
-464,372	424,234	-0,024	0,036
-463,357	-200,000	0,016	0,059
-462,343	507,312	0,023	0,039
-461,328	-144,089	-0,086	0,006
-460,313	37,896	-0,065	-0,041
-459,299	310,272	-0,075	-0,101
-458,284	-92,773	0,128	-0,025
-457,270	381,669	-0,026	0,038
-456,255	145,048	0,023	-0,022
-455,241	-200,000	-0,001	0,043
-454,226	262,834	-0,026	-0,033
-453,211	-3,210	0,096	-0,048
-452,197	64,954	0,094	-0,068
-451,182	-29,925	0,068	0,028
-450,168	109,572	0,052	-0,044
-449,153	800,000	-0,018	-0,046
-448,138	-127,911	0,023	0,002
-447,124	69,436	-0,058	-0,043
-446,109	280,975	-0,075	-0,097
-445,095	-185,483	0,076	-0,001
-444,080	-200,000	0,014	0,058
-443,065	369,133	0,082	-0,120
-442,051	170,975	0,048	-0,049
-441,036	-9,353	-0,036	-0,017
-440,022	-33,002	-0,089	-0,035
-439,007	-63,735	0,050	0,015
-437,992	-106,986	-0,088	-0,014
-436,978	-79,703	0,182	0,044
-435,963	800,000	0,028	-0,081
-434,949	56,408	0,161	-0,112
-433,934	-180,676	-0,107	-0,002
-432,919	-200,000	-0,024	-0,161
-431,905	-74,023	-0,078	-0,020
-430,890	129,952	0,040	0,037
-429,876	793,657	0,039	-0,078
-428,861	-155,056	0,081	0,004
-427,846	-93,310	-0,129	0,025
-426,832	800,000	0,037	-0,110
-425,817	681,491	-0,025	0,046
-424,803	193,560	0,065	-0,070
-423,788	-200,000	-0,004	0,039
-422,773	-52,636	0,107	0,035
-421,759	800,000	0,022	0,047
-420,744	-200,000	-0,038	-0,185
-419,730	21,736	-0,114	0,066
-418,715	-47,556	0,026	0,009
-417,701	-117,864	-0,069	-0,009
-416,686	44,890	0,023	-0,015
-415,671	-200,000	0,029	0,177
-414,657	58,340	0,043	0,030
-413,642	-200,000	0,006	-0,218
-412,628	-200,000	0,002	-0,045
-411,613	7,850	0,026	-0,014
-410,598	-200,000	-0,002	0,043
-409,584	-115,682	0,089	-0,012
-408,569	176,450	-0,048	0,050
-407,555	800,000	0,077	0,187
-406,540	-200,000	0,012	0,113
-405,525	502,980	0,061	0,102
-404,511	201,234	-0,117	-0,129
-403,496	-68,411	0,158	0,043
-402,482	310,578	-0,038	-0,050
-401,467	9,872	0,068	0,037
-400,452	-190,208	0,134	-0,001
-399,438	-200,000	-0,010	-0,056
-398,423	-112,957	-0,122	-0,017
-397,409	0,436	-0,099	-0,050
-396,394	-103,139	-0,094	-0,016
-395,379	-200,000	-0,015	-0,058
-394,365	-62,458	0,100	-0,029
-393,350	-87,241	0,030	-0,006
-392,336	63,179	-0,065	0,046
-391,321	800,000	0,042	0,093
-390,306	-13,030	0,033	-0,015
-389,292	508,471	0,026	-0,043
-388,277	580,394	0,033	0,057
-387,263	-200,000	0,007	0,121
-386,248	800,000	0,018	-0,051
-385,233	149,449	-0,122	0,118
-384,219	800,000	0,076	0,176
-383,204	24,909	-0,095	0,056
-382,190	106,351	0,094	-0,080
-381,175	-81,364	-0,096	0,022
-380,160	234,552	0,005	0,006
-379,146	85,439	0,126	-0,099
-378,131	328,514	0,064	0,088
-377,117	-43,961	0,052	0,019
-376,102	375,882	-0,036	-0,052
-375,088	-200,000	-0,006	-0,113
-374,073	-162,399	-0,194	0,007
-373,058	800,000	0,015	0,048
-372,044	216,201	0,083	0,095
-371,029	-200,000	-0,029	0,183
-370,015	-49,247	0,095	0,032
-369,000	78,796	0,134	-0,102
-367,985	800,000	0,050	-0,156
-366,971	98,961	-0,067	-0,055
-365,956	113,365	-0,029	-0,025
-364,942	-76,480	0,163	-0,041
-363,927	164,755	0,061	-0,062
-362,912	-94,327	-0,213	0,041
-361,898	7,975	0,064	0,034
-360,883	402,295	-0,031	-0,047
-359,869	-13,748	-0,049	0,023
-358,854	-200,000	0,013	0,091
-357,839	76,956	-0,155	-0,117
-356,825	-159,793	0,134	0,005
-355,810	183,641	0,087	-0,092
-354,796	257,386	-0,018	0,022
-353,781	-200,000	-0,020	0,089
-352,766	800,000	0,021	-0,063
-351,752	-137,546	0,107	-0,008
-350,737	-124,904	0,061	-0,007
-349,723	-200,000	0,057	0,263
-348,708	-200,000	0,020	-0,070
-347,693	800,000	-0,054	-0,124
-346,679	268,004	-0,037	0,046
-345,664	800,000	0,013	-0,038
-344,650	800,000	0,025	0,059
-343,635	-0,741	-0,072	-0,036
-342,620	-200,000	-0,034	0,132
-341,606	-200,000	-0,018	0,123
-340,591	-134,352	-0,232	0,020
-339,577	167,470	0,028	0,029
-338,562	-169,251	0,070	0,002
-337,548	800,000	0,024	-0,064
-336,533	-200,000	-0,010	0,142
-335,518	665,585	-0,045	0,083
-334,504	-200,000	-0,011	-0,060
-333,489	106,136	0,081	-0,068
-332,475	1,898	-0,021	-0,011
-331,460	-27,970	-0,044	0,018
-330,445	-159,140	0,049	0,002
-329,431	-200,000	-0,006	-0,081
-328,416	451,214	0,045	-0,071
-327,402	-5,089	0,078	0,038
-326,387	-122,604	-0,147	0,017
-325,372	-45,358	0,147	-0,052
-324,358	-200,000	-0,019	-0,075
-323,343	50,102	-0,065	0,043
-322,329	323,236	0,025	0,034
-321,314	800,000	0,049	0,118
-320,299	-88,125	-0,092	0,019
-319,285	-177,052	-0,108	-0,002
-318,270	160,359	-0,026	-0,026
-317,256	-41,241	-0,093	-0,034
-316,241	-200,000	-0,011	-0,077
-315,226	800,000	-0,029	-0,089
-314,212	52,404	-0,037	-0,025
-313,197	617,260	0,026	0,047
-312,183	-160,389	-0,055	-0,002
-311,168	-200,000	-0,004	0,110
-310,153	28,058	-0,121	-0,073
-309,139	-34,261	-0,055	0,022
-308,124	210,154	-0,064	0,072
-307,110	800,000	-0,041	0,087
-306,095	390,001	-0,019	0,028
-305,080	-200,000	-0,060	0,000
-304,066	-93,323	-0,126	-0,025
-303,051	388,463	-0,082	-0,121
-302,037	-163,239	-0,046	-0,002
-301,022	34,885	-0,009	0,006
-300,008	-175,189	0,094	0,002
-298,993	800,000	-0,052	0,135
-297,978	-107,102	0,087	0,014
-296,964	709,155	-0,055	0,105
-295,949	-200,000	-0,007	0,051
-294,935	215,273	0,019	-0,021
-293,920	-54,442	-0,060	-0,019
-292,905	-79,053	0,049	0,012
-291,891	-91,366	0,089	0,018
-290,876	-89,562	-0,062	-0,013
-289,862	602,166	0,068	0,120
-288,847	-125,467	-0,156	0,017
-287,832	-200,000	0,006	-0,037
-286,818	-200,000	0,022	0,088
-285,803	135,861	0,101	0,094
-284,789	-24,676	0,005	-0,002
-283,774	-200,000	-0,014	-0,059
-282,759	-200,000	0,006	0,041
-281,745	-200,000	0,032	-0,127
-280,730	-200,000	0,002	0,037
-279,716	-200,000	0,008	-0,094
-278,701	347,405	-0,114	-0,161
-277,686	-200,000	-0,002	0,092
-276,672	-32,295	-0,074	0,029
-275,657	209,446	-0,035	-0,039
-274,643	-103,712	-0,039	-0,006
-273,628	185,251	-0,052	-0,055
-272,613	-200,000	-0,041	-0,161
-271,599	-103,938	-0,172	0,028
-270,584	-200,000	0,006	0,026
-269,570	515,720	0,055	0,092
-268,555	100,875	0,084	-0,069
-267,540	800,000	-0,038	0,114
-266,526	-13,366	0,036	0,016
-265,511	36,458	0,026	-0,016
-264,497	402,441	0,017	-0,026
-263,482	-63,121	0,196	0,057
-262,467	-38,504	-0,091	0,034
-261,453	51,716	-0,096	-0,065
-260,438	800,000	0,035	-0,110
-259,424	-82,196	-0,094	-0,022
-258,409	-200,000	0,007	-0,167
-257,395	748,305	-0,055	0,107
-256,380	534,457	0,033	0,055
-255,365	718,714	0,070	0,132
-254,351	12,904	0,081	-0,044
-253,336	428,992	-0,109	-0,168
-252,322	800,000	-0,042	0,101
-251,307	-97,862	-0,088	0,016
-250,292	-100,058	-0,086	0,015
-249,278	-80,812	0,198	0,046
-248,263	138,111	0,050	0,046
-247,249	-200,000	-0,034	0,146
-246,234	215,860	0,077	0,088
-245,219	274,774	0,054	-0,068
-244,205	-97,853	0,134	0,024
-243,190	-200,000	0,022	-0,072
-242,176	-200,000	-0,016	0,166
-241,161	147,973	-0,126	0,120
-240,146	213,994	0,045	-0,051
-239,132	-200,000	0,004	0,053
-238,117	100,281	-0,072	0,059
-237,103	319,595	-0,045	-0,061
-236,088	5,570	0,038	-0,020
-235,073	-200,000	-0,009	0,128
-234,059	800,000	0,049	0,106
-233,044	5,001	0,022	-0,011
-232,030	-10,885	0,059	-0,028
-231,015	-194,716	-0,083	-0,000
-230,000	-200,000	-0,028	-0,154
-228,986	45,362	0,061	-0,040
-227,971	-56,233	-0,039	-0,012
-226,957	-200,000	0,009	0,047
-225,942	-29,191	-0,040	0,016
-224,927	63,057	0,039	0,028
-223,913	-75,298	-0,028	0,007
-222,898	-26,393	-0,131	0,054
-221,884	-94,791	0,112	0,021
-220,869	-200,000	-0,012	0,063
-219,855	491,750	0,035	0,057
-218,840	213,338	-0,018	-0,020
-217,825	59,193	0,027	0,019
-216,811	156,528	-0,053	-0,052
-215,796	-200,000	0,010	-0,065
-214,782	800,000	0,059	-0,170
-213,767	-200,000	0,019	-0,072
-212,752	118,578	0,128	0,112
-211,738	-200,000	0,012	0,078
-210,723	223,832	0,126	0,144
-209,709	-200,000	-0,026	-0,115
-208,694	-2,275	-0,074	-0,037
-207,679	-4,732	0,098	0,048
-206,665	312,900	-0,077	0,103
-205,650	-86,770	0,147	-0,032
-204,636	800,000	-0,035	0,082
-203,621	142,152	0,058	-0,055
-202,606	51,413	0,101	-0,068
-201,592	109,902	-0,118	-0,100
-200,577	-200,000	0,032	-0,100
-199,563	-200,000	0,022	-0,081
-198,548	-144,864	-0,174	-0,011
-197,533	-200,000	-0,014	0,064
-196,519	291,832	0,094	0,121
-195,504	-6,297	0,147	0,071
-194,490	20,080	-0,072	0,041
-193,475	800,000	-0,036	-0,095
-192,460	361,399	-0,028	-0,040
-191,446	174,272	0,106	0,109
-190,431	386,939	0,068	0,100
-189,417	532,435	-0,089	0,151
-188,402	21,651	0,068	0,039
-187,387	322,961	-0,053	-0,073
-186,373	372,656	-0,050	-0,073
-185,358	118,680	-0,063	-0,056
-184,344	-92,830	-0,053	-0,010
-183,329	-139,525	-0,171	0,013
-182,315	168,382	0,071	0,072
-181,300	-6,812	0,143	0,069
-180,285	101,973	-0,085	-0,070
-179,271	-200,000	-0,013	0,052
-178,256	672,367	0,035	0,064
-177,242	-134,921	-0,113	0,010
-176,227	266,114	0,033	-0,041
-175,212	52,528	0,094	0,064
-174,198	-200,000	-0,006	0,045
-173,183	-200,000	0,008	-0,040
-172,169	-32,555	-0,023	0,009
-171,154	-124,408	0,074	-0,008
-170,139	800,000	0,019	-0,041
-169,125	-200,000	-0,049	0,169
-168,110	38,946	0,056	-0,036
-167,096	-58,955	0,093	-0,028
-166,081	38,422	0,064	-0,041
-165,066	-108,099	0,054	0,008
-164,052	179,964	0,014	0,015
-163,037	41,138	0,179	-0,114
-162,023	-42,880	0,022	0,008
-161,008	-200,000	0,011	0,063
-159,993	-200,000	0,032	0,200
-158,979	-139,729	-0,116	0,009
-157,964	-44,455	0,113	-0,040
-156,950	191,318	0,033	-0,035
-155,935	287,819	-0,086	-0,110
-154,920	-200,000	0,023	0,103
-153,906	-74,095	-0,120	0,031
-152,891	-123,884	0,049	-0,005
-151,877	151,759	-0,036	0,035
-150,862	-200,000	0,008	-0,137
-149,847	-88,988	-0,115	-0,024
-148,833	399,502	-0,025	0,037
-147,818	-200,000	-0,013	0,047
-146,804	-107,607	0,071	0,011
-145,789	-1,312	-0,055	0,027
-144,775	-70,691	0,186	0,049
-143,760	800,000	0,009	0,026
-142,745	-58,229	-0,052	-0,016
-141,731	-128,523	-0,116	-0,011
-140,716	128,072	0,141	-0,127
-139,702	91,269	0,092	0,073
-138,687	159,419	-0,113	0,111
-137,672	617,571	-0,045	0,079
-136,658	485,064	0,069	-0,111
-135,643	-44,061	-0,192	0,068
-134,629	800,000	0,022	0,055
-133,614	6,759	0,121	-0,064
-132,599	-200,000	0,032	0,168
-131,585	-44,557	0,042	0,015
-130,570	304,814	0,027	0,036
-129,556	-200,000	-0,059	-0,242
-128,541	34,478	-0,105	0,065
-127,526	-200,000	0,003	0,059
-126,512	471,579	0,145	0,232
-125,497	451,339	0,030	0,048
-124,483	-98,431	0,048	0,009
-123,468	800,000	0,028	-0,082
-122,453	669,902	-0,068	0,124
-121,439	2,896	-0,091	0,047
-120,424	800,000	0,011	0,033
-119,410	-15,048	-0,022	-0,010
-118,395	800,000	0,034	-0,093
-117,380	-105,322	0,062	-0,010
-116,366	-200,000	-0,001	0,067
-115,351	132,532	-0,091	-0,083
-114,337	239,289	0,016	-0,018
-113,322	335,652	-0,057	-0,079
-112,307	800,000	0,046	0,135
-111,293	8,820	0,116	0,062
-110,278	800,000	0,016	0,045
-109,264	127,383	-0,102	0,092
-108,249	186,476	-0,080	-0,085
-107,234	-200,000	-0,041	-0,155
-106,220	-200,000	-0,030	-0,095
-105,205	-200,000	0,025	0,120
-104,191	-200,000	-0,014	0,058
-103,176	734,784	-0,049	0,094
-102,162	-145,822	0,064	0,004
-101,147	308,398	-0,107	-0,141
-100,132	59,283	-0,134	-0,093
-99,118	311,317	-0,096	-0,127
-98,103	-175,679	0,252	0,005
-97,089	481,164	0,064	0,102
-96,074	800,000	-0,023	0,070
-95,059	-200,000	-0,013	0,131
-94,045	-74,182	-0,144	-0,037
-93,030	346,623	-0,025	-0,035
-92,016	-90,330	-0,090	-0,018
-91,001	279,717	0,064	0,081
-89,986	-135,840	0,107	-0,009
-88,972	-130,391	0,044	-0,004
-87,957	773,402	0,028	0,055
-86,943	102,574	-0,027	-0,022
-85,928	135,572	-0,118	-0,109
-84,913	5,704	-0,065	-0,034
-83,899	-40,183	0,113	-0,042
-82,884	88,111	0,015	0,012
-81,870	21,336	-0,068	0,039
-80,855	247,840	-0,022	0,026
-79,840	346,504	0,023	-0,032
-78,826	-200,000	-0,005	-0,082
-77,811	-200,000	0,016	-0,098
-76,797	-200,000	0,002	0,124
-75,782	72,057	0,122	0,090
-74,767	124,271	0,076	-0,067
-73,753	-200,000	0,002	0,070
-72,738	-200,000	-0,025	-0,079
-71,724	43,985	0,026	-0,017
-70,709	800,000	0,046	-0,097
-69,694	178,895	0,058	-0,060
-68,680	-27,704	0,051	-0,021
-67,665	-122,630	0,205	-0,023
-66,651	64,209	-0,088	0,062
-65,636	649,384	-0,026	-0,047
-64,622	44,965	-0,037	0,024
-63,607	684,070	0,030	0,056
-62,592	-200,000	-0,027	0,229
-61,578	800,000	-0,043	0,116
-60,563	323,128	-0,042	0,056
-59,549	800,000	-0,048	0,131
-58,534	44,146	-1,877	-1,213
-57,519	604,712	-1,251	-2,207
-56,505	-200,000	-0,410	-4,488
-55,490	557,308	0,721	1,232
-54,476	800,000	5,211	11,510
-53,461	-200,000	20,839	330,228
-52,446	800,000	756,756	2325,581
-51,432	551,191	1661,348	2824,576
-50,417	73,317	1663,139	1226,487
-49,403	18,484	1536,009	863,894
-48,388	12,454	1459,078	791,466
-47,373	19,046	1449,533	817,880
-46,359	15,674	1439,011	795,879
-45,344	10,754	1434,858	770,135
-44,330	10,710	1432,962	768,876
-43,315	10,704	1430,993	767,763
-42,300	10,708	1429,293	766,837
-41,286	10,697	1428,226	766,184
-40,271	10,659	1426,735	765,173
-39,257	10,647	1425,831	764,601
-38,242	10,691	1424,400	764,008
-37,227	10,683	1423,428	763,421
-36,213	10,715	1422,043	762,801
-35,198	10,690	1421,114	762,150
-34,184	10,758	1420,090	761,894
-33,169	10,693	1418,829	760,880
-32,154	10,749	1417,779	760,552
-31,140	10,760	1416,370	759,820
-30,125	10,809	1415,282	759,431
-29,111	10,767	1414,242	758,649
-28,096	10,742	1413,311	758,003
-27,082	10,654	1412,050	756,883
-26,067	10,641	1411,115	756,289
-25,052	10,707	1409,876	755,904
-24,038	10,663	1408,792	755,090
-23,023	10,699	1407,838	754,714
-22,009	10,694	1406,795	754,103
-20,994	10,640	1405,901	753,340
-19,979	10,669	1404,957	752,942
-18,965	10,581	1404,088	752,035
-17,950	10,639	1402,976	751,682
-16,936	10,601	1402,270	751,097
-15,921	10,605	1401,222	750,523
-14,906	10,578	1400,396	749,924
-13,892	10,610	1399,428	749,524
-12,877	10,536	1398,817	748,825
-11,863	10,585	1397,773	748,461
-10,848	10,522	1397,114	747,789
-9,833	10,555	1395,839	747,227
-8,819	10,514	1395,129	746,630
-7,804	10,521	1394,154	746,111
-6,790	10,498	1393,239	745,484
-5,775	10,510	1392,294	745,007
-4,760	10,426	1391,425	744,124
-3,746	10,500	1390,140	743,748
-2,731	10,441	1389,765	743,244
-1,717	10,456	1388,746	742,738
-0,702	10,453	1386,968	741,743
0,313	14,511	1300,779	714,217
1,327	30,694	692,578	417,060
2,342	47,638	120,174	78,920
3,356	-0,048	16,434	8,224
4,371	-2,080	3,497	1,726
5,386	21,569	0,936	0,535
6,400	800,000	0,206	0,504
7,415	-120,270	-0,189	-0,023
8,429	324,036	-0,205	-0,277
9,444	65,685	-0,389	-0,277
10,459	86,032	-0,298	-0,231
11,473	-87,636	-0,370	-0,078
12,488	-28,818	-0,196	-0,079
13,502	-41,832	-0,280	-0,101
14,517	265,337	-0,182	-0,224
15,531	-2,469	-0,270	-0,133
16,546	19,208	-0,378	-0,213
17,561	30,426	-0,330	-0,198
18,575	776,850	-0,108	-0,209
19,590	509,454	-0,139	-0,228
20,604	62,418	-0,287	-0,202
21,619	35,520	-0,450	-0,277
22,634	18,436	-0,496	-0,278
23,648	149,919	-0,343	-0,328
24,663	549,240	-0,244	-0,414
25,677	72,918	-0,338	-0,249
26,692	297,684	-0,218	-0,283
27,707	31,539	-0,389	-0,235
28,721	118,794	-0,441	-0,383
29,736	41,934	-0,426	-0,271
30,750	76,262	-0,283	-0,210
31,765	-11,349	-0,406	-0,187
32,780	2,674	-0,430	-0,218
33,794	-82,466	-0,424	-0,096
34,809	1,951	-0,422	-0,213
35,823	367,159	-0,277	-0,394
36,838	203,824	-0,393	-0,428
37,853	-0,511	-0,396	-0,197
38,867	169,534	-0,325	-0,326
39,882	71,992	-0,403	-0,295
40,896	27,320	-0,366	-0,215
41,911	106,517	-0,248	-0,206
42,926	99,145	-0,336	-0,273
43,940	-18,919	-0,482	-0,210
44,955	116,024	-0,351	-0,302
45,969	-5,757	-0,367	-0,176
46,984	-0,546	-0,469	-0,233
47,999	-36,716	-0,321	-0,121
49,013	-14,462	-0,351	-0,158
50,028	106,463	-0,342	-0,284
51,042	114,252	-0,310	-0,265
52,057	-60,073	-0,384	-0,114
53,071	-39,095	-0,404	-0,148
54,086	800,000	-0,140	-0,377
55,101	224,388	-0,272	-0,309
56,115	98,373	-0,421	-0,341
57,130	231,999	-0,179	-0,206
58,144	147,871	-0,420	-0,398
59,159	56,978	-0,465	-0,317
60,174	255,953	-0,249	-0,300
61,188	-53,102	-0,345	-0,111
62,203	-9,351	-0,377	-0,176
63,217	21,297	-0,300	-0,171
64,232	98,254	-0,252	-0,203
65,247	153,354	-0,311	-0,299
66,261	212,358	-0,286	-0,317
67,276	-47,894	-0,295	-0,100
68,290	175,794	-0,262	-0,267
69,305	203,961	-0,213	-0,232
70,320	20,445	-0,225	-0,127
71,334	69,647	-0,256	-0,185
72,349	-94,094	-0,398	-0,076
73,363	159,994	-0,249	-0,243
74,378	27,638	-0,281	-0,165
75,393	-14,576	-0,226	-0,101
76,407	-187,295	-0,333	0,003
77,422	-150,383	-0,232	-0,012
78,436	19,234	-0,401	-0,225
79,451	53,325	-0,282	-0,189
80,466	660,967	-0,161	-0,292
81,480	59,533	-0,338	-0,233
82,495	-116,167	-0,203	-0,026
83,509	-26,675	-0,308	-0,126
84,524	30,117	-0,379	-0,226
85,539	27,031	-0,311	-0,182
86,553	-42,354	-0,291	-0,103
87,568	102,494	-0,247	-0,202
88,582	-19,512	-0,301	-0,130
89,597	66,004	-0,296	-0,210
90,611	-36,388	-0,316	-0,119
91,626	44,207	-0,257	-0,165
92,641	204,654	-0,185	-0,201
93,655	-74,807	-0,269	-0,067
94,670	-73,201	-0,277	-0,071
95,684	3,574	-0,358	-0,182
96,699	-38,990	-0,308	-0,113
97,714	418,337	-0,153	-0,229
98,728	99,673	-0,167	-0,135
99,743	89,635	-0,257	-0,201
100,757	800,000	-0,093	-0,183
101,772	45,964	-0,226	-0,146
102,787	276,666	-0,261	-0,325
103,801	749,776	-0,161	-0,305
104,816	-69,830	-0,422	-0,112
105,830	182,038	-0,222	-0,228
106,845	51,682	-0,162	-0,108
107,860	43,706	-0,163	-0,104
108,874	-64,747	-0,305	-0,086
109,889	13,547	-0,316	-0,171
110,903	251,924	-0,215	-0,256
111,918	-1,017	-0,181	-0,089
112,933	18,093	-0,254	-0,141
113,947	0,854	-0,352	-0,175
114,962	-52,313	-0,213	-0,068
115,976	-3,115	-0,305	-0,148
116,991	-72,493	-0,324	-0,083
118,006	61,352	-0,215	-0,149
119,020	-6,927	-0,266	-0,126
120,035	28,774	-0,329	-0,194
121,049	165,387	-0,167	-0,165
122,064	447,155	-0,142	-0,218
123,079	-151,224	-0,279	-0,014
124,093	55,259	-0,239	-0,161
125,108	-25,607	-0,278	-0,114
126,122	17,641	-0,169	-0,093
127,137	44,933	-0,268	-0,172
128,151	270,864	-0,123	-0,151
129,166	-40,630	-0,263	-0,095
130,181	-63,189	-0,206	-0,059
131,195	294,599	-0,186	-0,237
132,210	132,498	-0,202	-0,182
133,224	-30,759	-0,337	-0,132
134,239	-72,511	-0,256	-0,065
135,254	-39,039	-0,304	-0,111
136,268	49,960	-0,240	-0,158
137,283	58,692	-0,258	-0,176
138,297	61,424	-0,250	-0,173
139,312	-51,262	-0,261	-0,084
140,327	-155,243	-0,301	-0,013
141,341	-9,820	-0,257	-0,119
142,356	136,468	-0,302	-0,275
143,370	110,188	-0,216	-0,180
144,385	800,000	-0,038	-0,080
145,400	-35,384	-0,297	-0,112
146,414	93,877	-0,264	-0,209
147,429	40,071	-0,251	-0,157
148,443	179,585	-0,206	-0,211
149,458	29,575	-0,303	-0,179
150,473	65,178	-0,130	-0,091
151,487	-41,749	-0,186	-0,066
152,502	8,570	-0,215	-0,113
153,516	151,663	-0,241	-0,229
154,531	44,839	-0,262	-0,167
155,546	-53,562	-0,269	-0,085
156,560	36,885	-0,294	-0,181
157,575	55,021	-0,174	-0,116
158,589	-59,282	-0,178	-0,053
159,604	140,126	-0,189	-0,173
160,619	56,661	-0,288	-0,195
161,633	800,000	-0,141	-0,304
162,648	-17,844	-0,290	-0,126
163,662	-50,445	-0,221	-0,072
164,677	61,217	-0,146	-0,101
165,692	100,482	-0,213	-0,172
166,706	130,311	-0,228	-0,203
167,721	98,799	-0,335	-0,268
168,735	8,998	-0,278	-0,145
169,750	234,145	-0,167	-0,191
170,764	388,200	-0,130	-0,187
171,779	23,805	-0,209	-0,120
172,794	58,210	-0,303	-0,206
173,808	13,788	-0,131	-0,071
174,823	32,840	-0,195	-0,117
175,837	-1,470	-0,197	-0,096
176,852	68,267	-0,232	-0,165
177,867	-90,923	-0,211	-0,042
178,881	-98,309	-0,098	0,017
179,896	122,629	-0,212	-0,184
180,910	339,494	-0,136	-0,185
181,925	31,249	-0,273	-0,162
182,940	132,377	-0,314	-0,281
183,954	-20,919	-0,141	-0,060
184,969	246,769	-0,181	-0,212
185,983	302,435	-0,132	-0,170
186,998	267,259	-0,194	-0,236
188,013	27,977	-0,168	-0,098
189,027	-33,202	-0,212	-0,081
190,042	87,997	-0,203	-0,156
191,056	100,043	-0,231	-0,186
192,071	-200,000	-0,037	-0,187
193,086	-154,186	-0,277	-0,013
194,100	-110,339	-0,278	-0,040
195,115	73,141	-0,203	-0,147
196,129	161,575	-0,316	-0,306
197,144	63,798	-0,163	-0,113
198,159	800,000	-0,086	-0,243
199,173	161,599	-0,230	-0,224
200,188	-151,264	-0,126	-0,006
201,202	197,868	-0,159	-0,168
202,217	-26,143	-0,101	-0,041
203,232	-5,588	-0,142	-0,067
204,246	-200,000	-0,065	-0,237
205,261	115,163	-0,209	-0,177
206,275	800,000	-0,119	-0,258
207,290	-122,341	-0,176	-0,020
208,304	-84,571	-0,192	-0,042
209,319	462,621	-0,151	-0,234
210,334	78,891	-0,272	-0,202
211,348	59,822	-0,285	-0,195
212,363	275,331	-0,177	-0,218
213,377	138,235	-0,139	-0,126
214,392	92,755	-0,079	-0,062
215,407	53,576	-0,231	-0,153
216,421	413,233	-0,143	-0,211
217,436	800,000	-0,097	-0,203
218,450	414,496	-0,178	-0,263
219,465	-200,000	-0,012	-0,176
220,480	129,389	-0,190	-0,168
221,494	437,629	-0,136	-0,205
222,509	53,802	-0,160	-0,106
223,523	-133,146	-0,179	-0,015
224,538	800,000	-0,106	-0,309
225,553	42,570	-0,180	-0,113
226,567	800,000	-0,120	-0,238
227,582	510,866	-0,129	-0,209
228,596	215,712	-0,138	-0,151
229,611	86,750	-0,162	-0,123
230,626	95,291	-0,078	-0,062
231,640	-14,257	-0,200	-0,089
232,655	800,000	-0,136	-0,269
233,669	701,067	-0,117	-0,214
234,684	-11,523	-0,295	-0,134
235,699	50,150	-0,275	-0,179
236,713	-97,658	-0,138	0,025
237,728	-138,245	-0,267	-0,020
238,742	162,134	-0,181	-0,175
239,757	219,100	-0,098	-0,109
240,772	117,462	-0,261	-0,222
241,786	-200,000	0,007	-0,186
242,801	100,164	-0,194	-0,155
243,815	-200,000	-0,048	-0,159
244,830	359,247	-0,151	-0,209
245,844	-103,577	-0,219	-0,035
246,859	638,982	-0,089	-0,157
247,874	386,862	-0,180	-0,258
248,888	71,947	-0,151	-0,108
249,903	66,785	-0,110	-0,077
250,917	81,436	-0,158	-0,117
251,932	351,497	-0,124	-0,170
252,947	-12,615	-0,072	0,032
253,961	539,545	-0,096	-0,158
254,976	309,790	-0,124	-0,161
255,990	49,155	-0,140	-0,090
257,005	186,920	-0,139	-0,143
258,020	-200,000	-0,068	-0,241
259,034	-163,709	-0,124	0,004
260,049	-43,286	-0,069	-0,024
261,063	21,368	-0,326	-0,182
262,078	638,994	-0,120	-0,211
263,093	313,792	-0,222	-0,288
264,107	336,326	-0,217	-0,291
265,122	111,419	-0,229	-0,190
266,136	148,692	-0,199	-0,186
267,151	-168,255	-0,155	-0,004
268,166	62,508	-0,177	-0,122
269,180	50,600	-0,174	-0,114
270,195	656,688	-0,175	-0,311
271,209	212,020	-0,122	-0,133
272,224	800,000	-0,092	-0,224
273,239	291,014	-0,132	-0,166
274,253	261,296	-0,074	-0,089
275,268	178,442	-0,141	-0,142
276,282	-4,996	-0,132	-0,062
277,297	28,416	-0,209	-0,121
278,312	85,347	-0,146	-0,110
279,326	-178,422	-0,148	0,002
280,341	-131,198	-0,242	0,022
281,355	-105,688	-0,143	-0,022
282,370	-46,953	-0,110	-0,037
283,384	-200,000	-0,020	-0,093
284,399	-200,000	-0,019	-0,081
285,414	70,067	-0,112	-0,080
286,428	-133,844	-0,197	-0,017
287,443	-116,239	-0,225	-0,028
288,457	55,637	-0,095	-0,063
289,472	170,771	-0,065	-0,064
290,487	800,000	-0,037	-0,097
291,501	68,931	-0,093	-0,066
292,516	-154,216	-0,179	0,008
293,530	43,690	-0,158	-0,099
294,545	-200,000	0,007	0,026
295,560	6,801	-0,138	-0,070
296,574	83,754	-0,092	-0,069
297,589	-77,266	-0,170	-0,040
298,603	161,573	-0,154	-0,148
299,618	82,286	-0,129	-0,096
300,633	86,997	-0,153	-0,116
301,647	596,480	-0,130	-0,222
302,662	-62,582	-0,126	-0,036
303,676	388,932	-0,089	-0,127
304,691	163,309	-0,121	-0,117
305,706	172,080	-0,103	-0,101
306,720	504,155	-0,045	-0,072
307,735	-151,896	-0,316	0,016
308,749	0,651	-0,171	-0,084
309,764	-127,256	-0,139	0,014
310,779	-147,911	-0,106	-0,006
311,793	-37,647	-0,244	-0,089
312,808	131,248	-0,290	-0,255
313,822	-33,680	-0,121	-0,046
314,837	0,415	-0,139	-0,068
315,852	-69,793	-0,119	-0,031
316,866	69,279	-0,150	-0,106
317,881	744,562	-0,096	-0,178
318,895	62,851	-0,148	-0,102
319,910	266,418	-0,043	0,052
320,925	-162,864	-0,158	0,005
321,939	64,777	-0,116	0,080
322,954	-200,000	-0,007	-0,047
323,968	114,392	-0,055	-0,046
324,983	800,000	-0,068	-0,133
325,997	22,354	-0,149	-0,083
327,012	-1,236	-0,191	-0,092
328,027	-129,812	-0,138	0,013
329,041	-138,129	-0,242	-0,018
330,056	-200,000	-0,017	0,051
331,070	800,000	-0,075	-0,185
332,085	2,791	-0,122	-0,061
333,100	189,442	-0,114	-0,117
334,114	90,262	-0,104	-0,079
335,129	211,374	-0,125	-0,135
336,143	-178,223	-0,113	-0,002
337,158	-31,272	-0,107	-0,041
338,173	0,479	-0,090	-0,044
339,187	-200,000	-0,027	-0,125
340,202	-79,851	-0,176	-0,040
341,216	446,597	-0,106	-0,161
342,231	54,343	-0,164	-0,108
343,246	-57,104	-0,157	-0,047
344,260	190,192	-0,084	-0,086
345,275	222,020	-0,058	-0,064
346,289	-15,387	-0,154	0,067
347,304	383,453	-0,130	-0,183
348,319	-200,000	0,010	-0,038
349,333	-41,831	-0,108	0,038
350,348	98,055	-0,131	-0,103
351,362	516,935	-0,120	-0,193
352,377	423,592	-0,063	-0,093
353,392	720,234	-0,107	-0,196
354,406	-88,625	-0,128	-0,026
355,421	208,011	1307,231	1397,969
356,435	160,041	1467,028	1398,464
