DTS Sentinel unit serial number:	SN410029Multiplexer serial number:	ORYXHardware model number:	OX2-SRSoftware version number:	ORYX F/W v4,00 Oryx Data Collector v3.7.2.0data status	okinstallation	B3 Nyhavnadifferential loss correction	single-endedforward channel	channel 1reverse channel	N/Adate	2023/12/05time	06:12:30forward acquisition time	300,00reverse acquisition time	0,00gamma	499,1914k internal	0,3200k external	0,3200temperature offset calibration	1,0000default loss term (dB/km)	0,3820temperature slope calibration	1,0000multiplexer offset coefficient	1,0000multiplexer slope coefficient	1,0000fibre end	0,00T internal ref (°C)	13,95T ext. ref 1 (°C)	-1,07T ext. ref 2 (°C)	-1,11length (m)	temperature (°C)	Stokes	anti-Stokes-744,400	227,895	-0,196	-0,233
-743,385	-200,000	0,019	0,259
-742,371	36,233	-0,259	-0,165
-741,356	-200,000	0,063	0,350
-740,342	-50,696	-0,086	-0,029
-739,327	-200,000	0,024	0,230
-738,312	131,897	-0,240	-0,224
-737,298	747,429	-0,164	0,322
-736,283	305,477	-0,138	-0,187
-735,269	-200,000	0,057	0,303
-734,254	68,779	-0,268	-0,200
-733,239	800,000	-0,085	0,184
-732,225	-200,000	0,022	-0,230
-731,210	-107,462	0,120	-0,019
-730,196	-200,000	0,008	0,063
-729,181	-159,472	0,105	-0,004
-728,167	99,279	0,006	-0,005
-727,152	-200,000	-0,022	0,101
-726,137	-43,966	-0,063	-0,023
-725,123	490,565	-0,096	-0,160
-724,108	-200,000	0,008	0,054
-723,094	-54,329	-0,140	-0,046
-722,079	208,405	-0,097	-0,111
-721,064	-65,743	0,086	-0,025
-720,050	51,858	0,088	0,060
-719,035	-200,000	0,002	-0,068
-718,021	-11,735	-0,210	-0,100
-717,006	-42,832	-0,073	-0,027
-715,991	388,156	-0,045	-0,067
-714,977	800,000	-0,078	-0,159
-713,962	-200,000	-0,005	-0,081
-712,948	104,813	-0,064	0,055
-711,933	145,065	0,032	-0,031
-710,918	-200,000	0,035	0,140
-709,904	277,999	-0,068	-0,089
-708,889	88,199	0,138	-0,111
-707,875	-14,682	-0,146	-0,068
-706,860	-59,865	-0,033	0,010
-705,845	-200,000	-0,014	0,079
-704,831	237,091	0,141	0,170
-703,816	800,000	0,032	0,081
-702,802	-45,089	-0,133	0,048
-701,787	118,192	0,072	0,064
-700,772	-200,000	0,044	0,147
-699,758	-200,000	-0,041	0,146
-698,743	-200,000	-0,007	-0,027
-697,729	-200,000	-0,020	0,207
-696,714	-155,442	-0,170	-0,008
-695,699	115,856	0,119	0,105
-694,685	-85,970	-0,076	0,017
-693,670	-155,268	-0,056	-0,003
-692,656	190,812	-0,060	0,066
-691,641	286,560	-0,061	0,080
-690,627	800,000	0,021	0,055
-689,612	-200,000	0,021	0,101
-688,597	622,550	0,033	0,061
-687,583	159,663	-0,063	-0,064
-686,568	-18,834	0,065	-0,029
-685,554	28,559	-0,144	-0,088
-684,539	-157,253	0,044	-0,002
-683,524	155,990	0,116	0,117
-682,510	-110,423	0,103	0,015
-681,495	1,671	-0,175	-0,091
-680,481	140,926	0,047	-0,045
-679,466	800,000	-0,064	-0,130
-678,451	6,613	0,135	-0,073
-677,437	-61,515	-0,047	-0,014
-676,422	90,164	0,066	0,054
-675,408	234,418	0,017	-0,020
-674,393	92,932	-0,022	0,018
-673,378	-200,000	-0,010	-0,127
-672,364	-200,000	-0,038	-0,122
-671,349	124,150	-0,093	-0,085
-670,335	800,000	0,031	0,096
-669,320	-54,034	-0,078	0,026
-668,305	13,575	0,098	0,055
-667,291	-200,000	0,013	-0,072
-666,276	266,537	-0,041	-0,052
-665,262	59,368	0,014	-0,010
-664,247	-124,946	-0,154	-0,017
-663,232	-35,688	0,100	-0,039
-662,218	800,000	-0,024	0,062
-661,203	35,289	0,089	0,057
-660,189	800,000	-0,055	0,151
-659,174	145,322	0,019	-0,019
-658,159	471,172	-0,064	0,104
-657,145	-13,247	0,040	0,019
-656,130	193,393	-0,089	0,098
-655,116	-200,000	-0,028	0,210
-654,101	-200,000	0,023	0,152
-653,086	355,910	-0,069	0,100
-652,072	-200,000	0,021	0,106
-651,057	290,296	-0,113	-0,150
-650,043	69,203	-0,062	-0,046
-649,028	211,571	-0,108	0,124
-648,014	66,673	0,011	0,008
-646,999	-200,000	0,005	0,083
-645,984	800,000	0,024	-0,070
-644,970	40,654	-0,029	0,019
-643,955	29,521	-0,068	-0,042
-642,941	-23,195	-0,021	0,009
-641,926	221,110	-0,094	0,109
-640,911	-98,159	0,077	-0,014
-639,897	-200,000	-0,023	0,130
-638,882	-200,000	0,004	-0,071
-637,868	-103,192	-0,100	-0,017
-636,853	126,592	-0,049	-0,045
-635,838	63,802	0,057	0,041
-634,824	-37,248	-0,123	0,047
-633,809	60,895	0,021	-0,015
-632,795	97,233	-0,055	-0,046
-631,780	153,630	0,040	-0,040
-630,765	28,341	0,104	-0,063
-629,751	-36,847	-0,213	-0,082
-628,736	136,612	-0,052	-0,049
-627,722	-34,412	-0,049	0,019
-626,707	-200,000	-0,026	0,114
-625,692	-57,146	0,052	-0,017
-624,678	-85,324	-0,119	-0,027
-623,663	42,256	0,133	-0,087
-622,649	-200,000	-0,010	-0,147
-621,634	47,223	-0,039	-0,026
-620,619	-148,535	-0,135	0,008
-619,605	229,582	-0,041	0,049
-618,590	-200,000	0,015	-0,166
-617,576	-33,157	0,026	-0,011
-616,561	661,782	0,045	0,085
-615,546	236,772	-0,115	-0,138
-614,532	191,107	-0,045	-0,049
-613,517	-80,065	0,045	0,011
-612,503	-200,000	0,008	-0,058
-611,488	26,217	-0,079	-0,047
-610,474	-76,167	0,105	-0,027
-609,459	-48,696	0,086	0,030
-608,444	-158,807	-0,123	-0,005
-607,430	26,052	-0,045	-0,027
-606,415	-200,000	0,036	-0,191
-605,401	468,909	0,015	0,025
-604,386	494,432	0,017	0,028
-603,371	-200,000	0,011	0,040
-602,357	-78,683	-0,178	-0,044
-601,342	-200,000	-0,013	-0,083
-600,328	-97,539	0,029	-0,005
-599,313	397,831	-0,090	-0,136
-598,298	1,794	0,066	-0,034
-597,284	59,645	0,031	-0,022
-596,269	-121,154	0,123	-0,015
-595,255	-200,000	-0,002	0,045
-594,240	195,733	-0,066	-0,072
-593,225	217,496	-0,066	-0,076
-592,211	-43,132	-0,096	-0,035
-591,196	800,000	-0,009	0,021
-590,182	419,954	-0,049	0,076
-589,167	-60,188	0,047	0,015
-588,152	-200,000	-0,006	-0,021
-587,138	-200,000	-0,001	0,071
-586,123	800,000	-0,020	0,062
-585,109	447,988	0,007	0,011
-584,094	800,000	-0,065	-0,136
-583,079	144,661	0,037	-0,036
-582,065	800,000	0,048	0,106
-581,050	437,831	-0,024	-0,037
-580,036	366,236	-0,085	-0,125
-579,021	-22,461	0,045	-0,020
-578,006	5,340	-0,089	-0,047
-576,992	62,731	0,042	-0,030
-575,977	-200,000	-0,011	-0,095
-574,963	-60,865	-0,137	0,042
-573,948	20,159	-0,053	-0,031
-572,934	-33,106	0,033	-0,013
-571,919	-200,000	0,030	-0,126
-570,904	492,723	-0,040	-0,066
-569,890	19,040	-0,085	-0,049
-568,875	416,593	0,064	-0,099
-567,861	73,424	-0,104	-0,079
-566,846	85,491	0,135	0,107
-565,831	-200,000	0,037	0,147
-564,817	-200,000	0,005	-0,028
-563,802	-4,335	-0,217	-0,108
-562,788	-76,293	-0,106	-0,027
-561,773	-200,000	-0,010	-0,035
-560,758	-200,000	-0,035	0,128
-559,744	800,000	0,025	0,073
-558,729	106,427	0,084	0,072
-557,715	800,000	0,018	-0,041
-556,700	800,000	-0,008	-0,021
-555,685	11,129	-0,201	-0,111
-554,671	188,673	0,035	-0,038
-553,656	37,259	0,055	0,035
-552,642	-44,375	0,081	0,029
-551,627	112,214	0,088	-0,076
-550,612	361,163	0,031	0,046
-549,598	800,000	-0,038	-0,119
-548,583	192,105	-0,091	-0,099
-547,569	-200,000	-0,006	-0,099
-546,554	189,631	0,039	0,042
-545,539	179,359	0,061	0,064
-544,525	-78,041	0,092	0,023
-543,510	312,141	-0,057	-0,078
-542,496	-40,054	-0,110	0,041
-541,481	-109,294	0,083	-0,013
-540,466	52,577	-0,105	0,072
-539,452	265,519	0,071	-0,090
-538,437	-200,000	0,002	-0,031
-537,423	-200,000	-0,001	-0,027
-536,408	-1,236	-0,088	-0,045
-535,393	-142,532	-0,148	0,010
-534,379	604,441	0,024	0,043
-533,364	219,325	-0,038	0,043
-532,350	-200,000	0,008	-0,142
-531,335	-141,192	0,158	-0,011
-530,321	-200,000	-0,006	0,055
-529,306	217,301	-0,047	0,055
-528,291	-25,909	-0,087	0,037
-527,277	579,757	0,048	-0,084
-526,262	81,868	-0,077	0,060
-525,248	800,000	-0,043	-0,121
-524,233	-200,000	-0,003	-0,067
-523,218	580,858	0,068	-0,121
-522,204	227,804	0,161	0,189
-521,189	504,453	0,038	-0,064
-520,175	-200,000	0,014	-0,060
-519,160	45,872	0,110	0,073
-518,145	72,667	0,057	-0,043
-517,131	-200,000	-0,020	0,139
-516,116	-63,720	0,095	0,028
-515,102	-126,588	0,068	0,007
-514,087	22,793	-0,066	0,039
-513,072	57,282	-0,075	-0,052
-512,058	-152,341	0,073	-0,004
-511,043	-37,201	-0,062	-0,024
-510,029	196,415	0,069	-0,076
-509,014	-200,000	-0,004	-0,037
-507,999	800,000	-0,023	0,065
-506,985	-144,452	0,059	-0,004
-505,970	-200,000	0,001	-0,079
-504,956	250,545	-0,043	-0,052
-503,941	450,300	-0,027	0,043
-502,926	-200,000	-0,038	0,171
-501,912	-200,000	0,016	-0,099
-500,897	290,597	-0,017	0,022
-499,883	800,000	0,043	-0,117
-498,868	-200,000	-0,028	-0,147
-497,853	697,597	-0,042	0,080
-496,839	-90,602	-0,098	-0,020
-495,824	-72,336	0,142	-0,038
-494,810	800,000	0,070	0,175
-493,795	37,785	-0,124	0,079
-492,781	-185,919	-0,112	0,001
-491,766	-200,000	-0,008	-0,034
-490,751	-200,000	-0,010	-0,062
-489,737	-82,847	-0,059	0,014
-488,722	-160,402	0,137	-0,005
-487,708	141,029	-0,033	0,031
-486,693	191,976	0,083	-0,090
-485,678	-200,000	-0,015	-0,095
-484,664	-32,276	-0,090	-0,036
-483,649	-200,000	0,003	0,016
-482,635	420,301	-0,021	-0,033
-481,620	79,256	0,088	-0,068
-480,605	450,414	0,030	-0,047
-479,591	111,767	0,041	0,036
-478,576	283,157	-0,094	0,122
-477,562	340,386	-0,102	0,143
-476,547	800,000	0,033	0,084
-475,532	-67,603	0,100	0,028
-474,518	19,123	0,040	-0,023
-473,503	20,940	0,072	0,042
-472,489	432,152	0,093	-0,145
-471,474	601,536	0,032	-0,057
-470,459	-120,553	-0,132	-0,016
-469,445	800,000	-0,068	0,173
-468,430	2,230	0,122	-0,063
-467,416	800,000	-0,013	0,031
-466,401	-200,000	0,017	0,071
-465,386	-23,673	-0,062	-0,027
-464,372	-78,371	-0,035	-0,009
-463,357	58,932	-0,195	0,138
-462,343	-113,590	-0,102	0,014
-461,328	284,658	0,069	-0,089
-460,313	209,145	0,065	-0,073
-459,299	785,165	0,053	0,104
-458,284	27,768	0,088	0,053
-457,270	-78,356	0,159	0,039
-456,255	663,373	-0,055	-0,102
-455,241	476,489	-0,039	0,063
-454,226	-124,095	0,076	0,009
-453,211	-6,600	0,118	0,058
-452,197	-63,661	0,050	-0,015
-451,182	-200,000	-0,008	0,119
-450,168	800,000	0,039	0,101
-449,153	65,717	-0,146	0,106
-448,138	-200,000	-0,034	0,112
-447,124	11,612	-0,016	0,009
-446,109	34,592	0,179	-0,112
-445,095	-200,000	-0,035	0,121
-444,080	763,619	0,013	-0,026
-443,065	-200,000	0,018	0,078
-442,051	800,000	-0,017	-0,049
-441,036	-83,830	-0,120	0,027
-440,022	-33,413	0,039	0,016
-439,007	63,521	0,088	-0,064
-437,992	797,302	0,043	-0,085
-436,978	-41,648	0,191	0,070
-435,963	125,995	0,039	-0,036
-434,949	-102,531	-0,073	0,012
-433,934	-53,145	-0,138	-0,045
-432,919	-200,000	-0,004	-0,144
-431,905	116,239	-0,072	-0,063
-430,890	-200,000	-0,009	-0,087
-429,876	65,126	0,130	0,095
-428,861	3,507	-0,096	0,050
-427,846	-200,000	0,033	-0,189
-426,832	-92,893	-0,107	-0,021
-425,817	-200,000	0,007	-0,054
-424,803	51,599	-0,108	0,074
-423,788	-149,927	-0,058	0,003
-422,773	800,000	0,031	0,099
-421,759	-200,000	0,022	-0,089
-420,744	170,485	0,056	-0,058
-419,730	-200,000	0,002	0,105
-418,715	16,237	-0,062	-0,035
-417,701	-200,000	0,000	0,038
-416,686	800,000	-0,010	0,020
-415,671	661,952	0,080	0,148
-414,657	800,000	-0,054	-0,151
-413,642	428,090	0,069	0,107
-412,628	-200,000	-0,003	-0,074
-411,613	-200,000	-0,042	-0,159
-410,598	679,904	0,028	0,053
-409,584	84,038	-0,049	-0,038
-408,569	-166,263	0,060	-0,002
-407,555	15,088	-0,045	-0,025
-406,540	-200,000	0,020	0,158
-405,525	453,073	-0,038	0,060
-404,511	183,215	0,036	-0,038
-403,496	-56,311	0,177	0,056
-402,482	689,438	-0,010	-0,018
-401,467	800,000	0,035	-0,088
-400,452	98,786	0,060	0,050
-399,438	-160,487	0,057	0,002
-398,423	23,709	-0,150	-0,089
-397,409	800,000	0,010	0,030
-396,394	-200,000	0,026	-0,086
-395,379	-8,267	0,032	-0,015
-394,365	-142,834	0,084	-0,006
-393,350	-200,000	-0,004	0,045
-392,336	-200,000	-0,016	-0,081
-391,321	-200,000	0,023	0,123
-390,306	-200,000	-0,011	-0,068
-389,292	-4,183	-0,099	0,049
-388,277	504,132	0,056	0,094
-387,263	-200,000	-0,036	0,116
-386,248	-200,000	-0,017	0,177
-385,233	-169,673	-0,042	0,001
-384,219	-200,000	0,008	0,029
-383,204	-117,110	-0,022	0,003
-382,190	286,408	-0,143	-0,186
-381,175	13,414	0,044	0,024
-380,160	-200,000	-0,033	0,137
-379,146	-139,042	0,127	-0,010
-378,131	403,422	-0,018	0,027
-377,117	-68,447	0,139	-0,038
-376,102	-34,972	-0,119	-0,046
-375,088	-200,000	-0,041	0,157
-374,073	1,255	0,125	-0,064
-373,058	-100,815	0,112	0,020
-372,044	0,253	0,059	-0,030
-371,029	-200,000	-0,004	0,098
-370,015	-200,000	-0,010	0,056
-369,000	-200,000	-0,075	-0,000
-367,985	656,734	-0,054	-0,100
-366,971	133,401	-0,101	-0,094
-365,956	29,484	0,101	-0,062
-364,942	-85,024	0,108	0,024
-363,927	-200,000	0,017	0,098
-362,912	217,709	-0,066	0,075
-361,898	-200,000	0,009	-0,107
-360,883	213,453	-0,032	0,037
-359,869	800,000	-0,053	-0,153
-358,854	107,905	-0,096	-0,082
-357,839	800,000	-0,017	0,054
-356,825	-200,000	-0,012	0,125
-355,810	-118,005	-0,058	0,007
-354,796	174,452	0,033	0,034
-353,781	-107,026	0,145	-0,023
-352,766	-200,000	0,009	-0,066
-351,752	92,927	0,036	-0,029
-350,737	215,578	0,070	-0,080
-349,723	64,452	0,122	-0,088
-348,708	420,643	0,042	0,065
-347,693	-60,420	-0,170	-0,052
-346,679	217,354	-0,002	-0,002
-345,664	-99,355	-0,077	0,014
-344,650	16,143	0,135	0,076
-343,635	67,144	0,085	-0,062
-342,620	143,137	-0,078	0,074
-341,606	-200,000	-0,006	0,065
-340,591	-200,000	-0,021	0,163
-339,577	-102,475	-0,091	0,015
-338,562	205,960	0,057	-0,064
-337,548	-200,000	0,024	-0,186
-336,533	14,519	-0,046	0,026
-335,518	-31,929	0,140	-0,056
-334,504	800,000	-0,021	-0,048
-333,489	516,607	0,026	-0,044
-332,475	6,682	-0,087	-0,046
-331,460	800,000	-0,033	-0,102
-330,445	138,090	0,043	-0,040
-329,431	-200,000	-0,018	0,174
-328,416	-200,000	-0,003	0,108
-327,402	800,000	-0,076	0,151
-326,387	164,024	-0,033	-0,033
-325,372	-16,857	0,080	-0,036
-324,358	85,890	0,034	-0,026
-323,343	173,263	-0,039	-0,040
-322,329	61,741	0,027	0,019
-321,314	800,000	-0,041	0,123
-320,299	-50,612	-0,034	0,011
-319,285	129,572	-0,038	0,035
-318,270	-200,000	-0,042	0,136
-317,256	362,528	-0,041	0,059
-316,241	-200,000	-0,013	0,072
-315,226	-200,000	-0,014	0,058
-314,212	-72,336	0,114	0,030
-313,197	74,320	0,054	0,040
-312,183	-30,181	-0,073	0,029
-311,168	-59,768	-0,110	-0,033
-310,153	267,011	0,042	0,052
-309,139	-200,000	0,024	0,140
-308,124	-200,000	0,025	0,120
-307,110	-200,000	-0,013	0,125
-306,095	800,000	0,070	0,143
-305,080	-200,000	-0,007	0,098
-304,066	800,000	-0,021	-0,051
-303,051	-200,000	-0,011	-0,060
-302,037	-200,000	-0,007	-0,085
-301,022	672,927	0,033	-0,061
-300,008	-9,800	0,044	-0,021
-298,993	-17,057	-0,061	-0,027
-297,978	-84,640	0,081	-0,018
-296,964	-200,000	0,015	0,060
-295,949	33,995	-0,062	-0,039
-294,935	-47,928	-0,066	-0,023
-293,920	-200,000	0,011	-0,129
-292,905	-91,483	0,073	0,015
-291,891	-200,000	-0,006	0,066
-290,876	-200,000	0,035	0,116
-289,862	800,000	0,035	-0,088
-288,847	331,069	0,076	0,105
-287,832	-200,000	0,010	0,036
-286,818	45,458	-0,054	-0,035
-285,803	-16,662	0,028	0,013
-284,789	-200,000	-0,025	-0,157
-283,774	348,480	0,051	0,072
-282,759	205,594	0,043	0,048
-281,745	260,775	-0,032	0,039
-280,730	-200,000	0,026	-0,094
-279,716	668,837	-0,051	0,096
-278,701	800,000	-0,003	-0,008
-277,686	-200,000	-0,016	0,052
-276,672	-200,000	0,006	-0,127
-275,657	800,000	-0,073	-0,228
-274,643	338,966	-0,046	-0,064
-273,628	141,809	0,111	0,105
-272,613	-200,000	0,041	-0,168
-271,599	148,269	-0,039	0,037
-270,584	800,000	-0,024	0,069
-269,570	37,217	0,209	0,132
-268,555	435,186	0,075	0,116
-267,540	-56,432	0,090	0,028
-266,526	-72,791	-0,077	0,020
-265,511	206,126	-0,013	0,014
-264,497	-65,676	-0,053	0,015
-263,482	800,000	0,054	0,122
-262,467	-200,000	-0,022	0,114
-261,453	800,000	0,027	0,065
-260,438	-41,416	-0,127	0,046
-259,424	-107,696	-0,148	0,023
-258,409	-140,152	0,021	-0,002
-257,395	210,034	0,055	-0,062
-256,380	141,857	0,038	0,036
-255,365	-200,000	0,006	-0,026
-254,351	608,130	0,057	0,102
-253,336	737,155	-0,060	-0,115
-252,322	800,000	0,037	-0,079
-251,307	-200,000	-0,009	0,056
-250,292	-90,778	0,088	-0,018
-249,278	168,997	-0,044	-0,045
-248,263	321,775	-0,027	0,037
-247,249	249,051	0,044	0,053
-246,234	-76,210	-0,079	0,020
-245,219	-187,888	0,134	-0,001
-244,205	-114,399	-0,111	-0,015
-243,190	5,801	0,108	-0,057
-242,176	64,623	0,092	0,066
-241,161	15,308	-0,128	0,072
-240,146	-91,163	-0,044	-0,009
-239,132	789,468	0,069	0,136
-238,117	14,909	-0,060	-0,034
-237,103	-195,040	-0,189	-0,001
-236,088	217,699	0,022	0,025
-235,073	733,020	0,052	0,100
-234,059	61,946	-0,091	0,065
-233,044	117,018	0,059	-0,052
-232,030	-124,907	-0,072	-0,008
-231,015	800,000	-0,048	-0,147
-230,000	-200,000	-0,019	-0,131
-228,986	-90,563	-0,021	0,004
-227,971	-140,828	0,071	-0,005
-226,957	-95,018	0,149	0,028
-225,942	-41,568	0,038	-0,014
-224,927	-55,795	0,157	0,050
-223,913	800,000	0,039	-0,076
-222,898	465,721	0,026	-0,041
-221,884	506,230	0,046	-0,076
-220,869	-89,633	0,118	-0,024
-219,855	67,396	0,136	0,099
-218,840	54,718	-0,030	0,020
-217,825	-9,329	-0,048	0,023
-216,811	-53,674	-0,067	0,022
-215,796	-200,000	0,011	-0,046
-214,782	-11,952	-0,170	-0,079
-213,767	79,447	-0,098	-0,075
-212,752	42,725	-0,033	-0,022
-211,738	-200,000	0,011	0,086
-210,723	204,687	-0,060	0,066
-209,709	-200,000	-0,003	-0,094
-208,694	70,816	0,038	-0,028
-207,679	20,000	-0,053	-0,030
-206,665	-108,104	0,185	0,028
-205,650	-68,352	0,034	0,009
-204,636	343,940	-0,047	0,065
-203,621	-158,197	0,110	0,004
-202,606	48,071	0,171	-0,114
-201,592	-200,000	-0,012	-0,089
-200,577	41,584	-0,080	0,051
-199,563	-134,452	0,087	-0,008
-198,548	458,364	-0,027	0,042
-197,533	78,804	0,124	-0,095
-196,519	-11,766	-0,146	0,068
-195,504	-111,081	-0,142	0,020
-194,490	37,341	0,157	-0,099
-193,475	-61,164	-0,041	0,012
-192,460	66,644	-0,083	0,060
-191,446	-200,000	0,008	0,057
-190,431	-53,888	0,211	0,068
-189,417	-64,700	0,073	0,021
-188,402	98,243	-0,105	0,086
-187,387	334,865	-0,024	-0,033
-186,373	54,530	0,017	0,011
-185,358	147,722	0,141	-0,136
-184,344	800,000	-0,079	0,160
-183,329	-67,156	0,025	-0,007
-182,315	67,624	-0,199	0,144
-181,300	54,733	0,029	0,020
-180,285	-58,061	-0,048	-0,015
-179,271	-25,024	0,152	0,064
-178,256	615,980	0,021	0,038
-177,242	800,000	0,038	0,118
-176,227	-69,056	0,126	-0,034
-175,212	-200,000	0,025	0,096
-174,198	-16,986	-0,103	0,046
-173,183	-175,177	0,059	-0,001
-172,169	56,671	-0,089	0,062
-171,154	800,000	0,047	-0,101
-170,139	-86,383	0,130	-0,028
-169,125	-200,000	0,005	-0,042
-168,110	-105,132	-0,070	-0,011
-167,096	-118,519	0,053	-0,007
-166,081	-200,000	0,026	0,091
-165,066	180,439	-0,043	-0,045
-164,052	800,000	0,079	-0,193
-163,037	800,000	-0,019	-0,058
-162,023	800,000	0,043	0,108
-161,008	20,120	0,052	0,030
-159,993	347,220	0,053	0,075
-158,979	800,000	-0,053	-0,135
-157,964	190,657	-0,123	-0,132
-156,950	800,000	0,023	-0,069
-155,935	124,326	-0,079	-0,070
-154,920	735,166	-0,030	0,057
-153,906	-200,000	-0,019	0,113
-152,891	527,257	0,016	0,026
-151,877	-200,000	-0,126	0,000
-150,862	-200,000	-0,038	0,120
-149,847	-32,504	-0,128	-0,050
-148,833	52,376	0,069	-0,047
-147,818	-56,418	0,078	-0,024
-146,804	-51,070	0,089	-0,030
-145,789	-96,993	-0,120	-0,022
-144,775	-200,000	0,013	0,119
-143,760	264,434	-0,104	-0,128
-142,745	-125,033	-0,061	-0,007
-141,731	-33,668	0,094	0,037
-140,716	-200,000	-0,033	-0,111
-139,702	-97,532	-0,101	-0,018
-138,687	496,316	0,039	0,064
-137,672	201,629	0,054	0,060
-136,658	131,363	-0,102	-0,093
-135,643	-200,000	-0,000	-0,043
-134,629	-200,000	0,030	-0,172
-133,614	800,000	0,059	-0,129
-132,599	800,000	0,031	0,088
-131,585	-200,000	0,005	0,085
-130,570	-12,661	0,021	0,010
-129,556	59,523	0,099	-0,069
-128,541	13,957	-0,052	0,029
-127,526	-200,000	0,012	-0,060
-126,512	-3,224	0,042	-0,021
-125,497	-6,818	0,194	0,093
-124,483	800,000	0,046	0,098
-123,468	-99,518	-0,033	-0,006
-122,453	64,185	-0,072	-0,051
-121,439	-200,000	0,003	-0,033
-120,424	800,000	0,049	-0,111
-119,410	214,223	-0,039	0,044
-118,395	-33,397	0,051	-0,020
-117,380	-200,000	0,021	0,073
-116,366	102,981	0,183	0,152
-115,351	560,473	0,084	-0,144
-114,337	242,953	-0,053	-0,063
-113,322	-107,892	-0,088	0,013
-112,307	76,478	-0,008	-0,006
-111,293	-63,170	0,146	0,042
-110,278	-69,060	-0,069	0,019
-109,264	202,565	0,021	-0,023
-108,249	-200,000	-0,002	-0,055
-107,234	11,223	0,055	-0,030
-106,220	-200,000	0,144	0,000
-105,205	800,000	-0,013	0,033
-104,191	-200,000	0,029	0,269
-103,176	-200,000	0,025	0,136
-102,162	174,054	0,052	0,053
-101,147	331,340	0,036	0,050
-100,132	300,779	-0,044	-0,058
-99,118	-21,882	0,068	-0,029
-98,103	-200,000	-0,007	-0,049
-97,089	-200,000	0,014	-0,099
-96,074	800,000	0,011	0,025
-95,059	-113,110	0,193	-0,027
-94,045	-200,000	0,007	-0,050
-93,030	-200,000	-0,004	0,193
-92,016	-29,975	-0,098	-0,040
-91,001	303,182	0,062	0,081
-89,986	-200,000	0,063	0,205
-88,972	-200,000	-0,022	0,082
-87,957	-200,000	0,018	0,086
-86,943	451,707	-0,048	0,075
-85,928	-200,000	-0,002	-0,088
-84,913	-116,534	0,108	0,014
-83,899	-27,135	0,095	-0,039
-82,884	-180,324	0,061	-0,001
-81,870	-62,998	0,100	0,029
-80,855	652,681	-0,048	0,087
-79,840	-46,089	0,138	-0,048
-78,826	800,000	0,009	0,019
-77,811	252,752	-0,030	-0,036
-76,797	235,400	0,082	0,096
-75,782	-61,328	0,120	-0,035
-74,767	-200,000	-0,036	-0,124
-73,753	14,599	-0,013	-0,007
-72,738	800,000	0,048	0,151
-71,724	-200,000	-0,016	0,089
-70,709	635,405	0,033	0,059
-69,694	84,169	-0,042	0,032
-68,680	800,000	0,049	0,137
-67,665	38,271	-0,017	-0,011
-66,651	-200,000	0,030	0,133
-65,636	800,000	-0,054	0,130
-64,622	-52,057	-0,059	0,019
-63,607	-200,000	0,074	-0,241
-62,592	-19,479	-0,098	0,043
-61,578	-200,000	-0,018	0,063
-60,563	489,306	0,027	0,044
-59,549	-200,000	-0,023	0,093
-58,534	-28,498	-1,624	-0,660
-57,519	407,869	-1,372	-2,061
-56,505	-200,000	-0,586	-4,639
-55,490	144,405	0,978	0,925
-54,476	800,000	4,919	11,346
-53,461	-200,000	18,885	309,320
-52,446	-200,000	737,972	2311,606
-51,432	572,702	1654,430	2866,334
-50,417	79,103	1671,115	1266,245
-49,403	21,948	1543,841	888,984
-48,388	15,817	1466,579	814,688
-47,373	17,741	1456,623	818,425
-46,359	16,791	1446,921	808,383
-45,344	14,068	1442,261	792,704
-44,330	14,019	1440,140	791,271
-43,315	14,039	1438,422	790,393
-42,300	14,034	1436,873	789,485
-41,286	14,050	1435,446	788,747
-40,271	14,041	1434,110	787,938
-39,257	13,985	1432,986	787,019
-38,242	14,019	1431,888	786,549
-37,227	14,068	1430,654	786,073
-36,213	14,050	1429,154	785,132
-35,198	14,074	1428,159	784,669
-34,184	14,077	1427,229	784,139
-33,169	14,029	1425,969	783,191
-32,154	14,117	1424,606	782,825
-31,140	14,060	1423,391	781,860
-30,125	14,095	1422,391	781,445
-29,111	14,077	1421,280	780,717
-28,096	14,042	1420,008	779,822
-27,082	13,981	1419,064	778,984
-26,067	13,994	1417,912	778,383
-25,052	13,969	1416,926	777,691
-24,038	13,973	1416,006	777,176
-23,023	14,008	1414,804	776,651
-22,009	13,971	1413,978	775,992
-20,994	13,945	1413,028	775,319
-19,979	13,941	1412,338	774,890
-18,965	13,871	1411,266	773,943
-17,950	13,873	1410,351	773,421
-16,936	13,906	1409,277	772,955
-15,921	13,842	1408,297	772,085
-14,906	13,892	1407,324	771,754
-13,892	13,910	1406,440	771,323
-12,877	13,910	1405,480	770,769
-11,863	13,916	1404,688	770,328
-10,848	13,855	1403,856	769,560
-9,833	13,846	1403,021	769,031
-8,819	13,845	1401,952	768,407
-7,804	13,804	1401,063	767,698
-6,790	13,784	1400,060	767,025
-5,775	13,816	1399,090	766,615
-4,760	13,789	1398,141	765,937
-3,746	13,806	1397,414	765,589
-2,731	13,774	1396,373	764,836
-1,717	13,776	1395,541	764,362
-0,702	13,772	1393,709	763,309
0,313	17,601	1311,481	736,032
1,327	33,878	706,007	433,945
2,342	51,959	124,129	83,509
3,356	2,151	16,710	8,514
4,371	11,646	3,150	1,705
5,386	12,685	0,534	0,291
6,400	-200,000	-0,002	0,176
7,415	-34,351	-0,298	-0,115
8,429	36,775	-0,267	-0,167
9,444	754,997	-0,191	-0,368
10,459	-25,671	-0,254	-0,106
11,473	-47,509	-0,325	-0,111
12,488	367,986	-0,153	-0,219
13,502	-71,248	-0,471	-0,124
14,517	83,055	-0,279	-0,214
15,531	13,333	-0,449	-0,245
16,546	211,469	-0,264	-0,294
17,561	112,637	-0,269	-0,230
18,575	-74,682	-0,192	-0,049
19,590	46,334	-0,242	-0,158
20,604	-98,607	-0,292	-0,052
21,619	0,991	-0,467	-0,236
22,634	26,460	-0,421	-0,248
23,648	290,378	-0,286	-0,367
24,663	86,294	-0,444	-0,345
25,677	158,296	-0,343	-0,336
26,692	373,817	-0,191	-0,275
27,707	-43,169	-0,320	-0,114
28,721	69,140	-0,309	-0,224
29,736	30,637	-0,494	-0,297
30,750	83,891	-0,451	-0,347
31,765	8,108	-0,361	-0,191
32,780	97,329	-0,323	-0,262
33,794	2,538	-0,354	-0,180
34,809	102,541	-0,371	-0,306
35,823	121,244	-0,395	-0,347
36,838	50,598	-0,460	-0,306
37,853	-9,507	-0,446	-0,209
38,867	-8,151	-0,405	-0,192
39,882	61,995	-0,294	-0,207
40,896	-67,422	-0,310	-0,085
41,911	143,064	-0,319	-0,299
42,926	66,691	-0,411	-0,295
43,940	-56,941	-0,367	-0,113
44,955	111,069	-0,404	-0,343
45,969	142,348	-0,336	-0,315
46,984	169,751	-0,264	-0,266
47,999	11,425	-0,369	-0,199
49,013	113,611	-0,310	-0,266
50,028	23,304	-0,299	-0,173
51,042	800,000	-0,182	-0,402
52,057	-56,129	-0,400	-0,125
53,071	148,531	-0,283	-0,269
54,086	-28,075	-0,420	-0,170
55,101	89,353	-0,377	-0,296
56,115	4,569	-0,227	-0,117
57,130	259,806	-0,366	-0,445
58,144	134,421	-0,284	-0,259
59,159	106,567	-0,325	-0,271
60,174	71,207	-0,280	-0,204
61,188	64,242	-0,228	-0,161
62,203	-42,363	-0,349	-0,125
63,217	-28,630	-0,300	-0,121
64,232	-5,004	-0,380	-0,183
65,247	-12,193	-0,425	-0,195
66,261	147,941	-0,308	-0,292
67,276	51,672	-0,415	-0,277
68,290	7,814	-0,446	-0,234
69,305	167,683	-0,377	-0,377
70,320	21,737	-0,383	-0,219
71,334	-3,871	-0,428	-0,208
72,349	28,886	-0,257	-0,153
73,363	2,622	-0,430	-0,219
74,378	74,701	-0,353	-0,261
75,393	-21,990	-0,369	-0,157
76,407	221,749	-0,256	-0,289
77,422	121,372	-0,311	-0,272
78,436	-30,470	-0,373	-0,148
79,451	14,626	-0,427	-0,234
80,466	-137,588	-0,396	-0,031
81,480	108,138	-0,304	-0,255
82,495	10,358	-0,355	-0,189
83,509	30,408	-0,204	-0,122
84,524	309,230	-0,195	-0,256
85,539	25,652	-0,281	-0,164
86,553	235,755	-0,249	-0,290
87,568	30,342	-0,237	-0,142
88,582	96,358	-0,258	-0,208
89,597	137,946	-0,293	-0,270
90,611	-41,094	-0,285	-0,103
91,626	67,812	-0,301	-0,216
92,641	178,675	-0,229	-0,235
93,655	-32,799	-0,314	-0,122
94,670	339,468	-0,198	-0,271
95,684	264,685	-0,296	-0,363
96,699	175,824	-0,250	-0,254
97,714	127,284	-0,244	-0,217
98,728	64,753	-0,308	-0,218
99,743	77,612	-0,279	-0,209
100,757	318,424	-0,136	-0,181
101,772	33,722	-0,378	-0,230
102,787	43,794	-0,281	-0,180
103,801	28,220	-0,365	-0,216
104,816	276,331	-0,174	-0,217
105,830	-29,431	-0,235	-0,094
106,845	277,381	-0,157	-0,196
107,860	151,701	-0,263	-0,252
108,874	214,004	-0,184	-0,204
109,889	174,445	-0,217	-0,220
110,903	-21,921	-0,318	-0,135
111,918	119,700	-0,143	-0,124
112,933	243,765	-0,230	-0,271
113,947	-5,792	-0,238	-0,114
114,962	-28,479	-0,257	-0,103
115,976	273,952	-0,234	-0,290
116,991	71,391	-0,321	-0,233
118,006	-28,765	-0,317	-0,127
119,020	58,801	-0,295	-0,203
120,035	224,060	-0,188	-0,213
121,049	231,344	-0,196	-0,225
122,064	11,566	-0,257	-0,137
123,079	-36,211	-0,302	-0,113
124,093	255,071	-0,186	-0,223
125,108	-22,029	-0,390	-0,165
126,122	64,082	-0,311	-0,219
127,137	117,486	-0,242	-0,208
128,151	-52,382	-0,292	-0,094
129,166	-8,420	-0,275	-0,129
130,181	152,985	-0,218	-0,208
131,195	134,457	-0,309	-0,281
132,210	236,628	-0,237	-0,274
133,224	148,291	-0,163	-0,154
134,239	41,210	-0,154	-0,097
135,254	-72,285	-0,216	-0,056
136,268	136,970	-0,194	-0,177
137,283	127,742	-0,247	-0,219
138,297	-34,814	-0,315	-0,120
139,312	179,951	-0,197	-0,202
140,327	271,774	-0,160	-0,197
141,341	316,127	-0,227	-0,300
142,356	50,016	-0,250	-0,165
143,370	-14,612	-0,228	-0,102
144,385	546,672	-0,103	-0,172
145,400	238,259	-0,149	-0,173
146,414	-18,643	-0,264	-0,115
147,429	125,577	-0,284	-0,251
148,443	72,368	-0,208	-0,151
149,458	31,942	-0,287	-0,173
150,473	272,422	-0,180	-0,223
151,487	99,948	-0,189	-0,153
152,502	-17,591	-0,328	-0,143
153,516	45,169	-0,202	-0,130
154,531	198,164	-0,193	-0,207
155,546	464,463	-0,190	-0,298
156,560	200,645	-0,312	-0,335
157,575	119,954	-0,168	-0,145
158,589	800,000	-0,083	-0,192
159,604	-5,114	-0,299	-0,143
160,619	-78,997	-0,328	-0,077
161,633	211,320	-0,302	-0,332
162,648	26,999	-0,184	-0,107
163,662	2,734	-0,216	-0,109
164,677	-19,010	-0,077	0,033
165,692	52,703	-0,197	-0,131
166,706	75,596	-0,307	-0,226
167,721	26,738	-0,254	-0,148
168,735	14,481	-0,287	-0,156
169,750	3,502	-0,309	-0,157
170,764	81,285	-0,148	-0,111
171,779	47,039	-0,194	-0,126
172,794	-46,191	-0,174	-0,059
173,808	-41,252	-0,293	-0,105
174,823	200,759	-0,153	-0,164
175,837	229,012	-0,272	-0,309
176,852	122,371	-0,257	-0,224
177,867	-72,097	-0,221	-0,057
178,881	50,032	-0,251	-0,165
179,896	71,240	-0,275	-0,198
180,910	38,761	-0,187	-0,116
181,925	35,970	-0,219	-0,134
182,940	83,406	-0,228	-0,173
183,954	68,902	-0,158	-0,113
184,969	-67,680	-0,340	-0,092
185,983	109,984	-0,142	-0,118
186,998	-175,163	-0,217	0,004
188,013	245,100	-0,216	-0,253
189,027	285,265	-0,162	-0,203
190,042	-36,571	-0,224	-0,084
191,056	171,668	-0,196	-0,196
192,071	201,387	-0,154	-0,165
193,086	704,434	-0,111	-0,205
194,100	79,986	-0,158	-0,118
195,115	-68,593	-0,189	-0,051
196,129	314,156	-0,205	-0,269
197,144	-14,378	-0,271	-0,121
198,159	85,935	-0,225	-0,172
199,173	252,534	-0,192	-0,228
200,188	248,841	-0,143	-0,169
201,202	-10,171	-0,148	-0,068
202,217	-31,439	-0,132	-0,051
203,232	-128,920	-0,215	0,021
204,246	-21,050	-0,253	-0,107
205,261	128,126	-0,104	-0,092
206,275	214,778	-0,133	-0,147
207,290	202,520	-0,111	-0,119
208,304	354,440	-0,081	-0,112
209,319	-60,292	-0,245	-0,072
210,334	-7,283	-0,204	-0,096
211,348	551,522	-0,144	-0,241
212,363	-57,089	-0,192	-0,058
213,377	42,837	-0,132	-0,083
214,392	180,977	-0,163	-0,167
215,407	160,397	-0,271	-0,262
216,421	273,049	-0,184	-0,227
217,436	-200,000	-0,057	-0,191
218,450	-36,345	-0,326	-0,121
219,465	35,325	-0,174	-0,106
220,480	31,777	-0,255	-0,152
221,494	-2,350	-0,301	-0,146
222,509	800,000	-0,088	-0,188
223,523	411,745	-0,146	-0,215
224,538	277,098	-0,107	-0,133
225,553	-72,610	-0,202	-0,051
226,567	21,058	-0,286	-0,160
227,582	-147,080	-0,259	0,015
228,596	-152,041	-0,219	-0,011
229,611	-200,000	-0,036	-0,207
230,626	143,097	-0,070	-0,064
231,640	800,000	-0,093	-0,252
232,655	207,266	-0,197	-0,214
233,669	217,036	-0,208	-0,230
234,684	136,381	-0,184	-0,167
235,699	126,173	-0,115	-0,101
236,713	92,428	-0,206	-0,161
237,728	152,991	-0,254	-0,241
238,742	128,321	-0,234	-0,207
239,757	183,565	-0,165	-0,169
240,772	744,921	-0,166	-0,310
241,786	94,841	-0,249	-0,196
242,801	95,953	-0,098	-0,078
243,815	380,436	-0,111	-0,158
244,830	84,861	-0,233	-0,177
245,844	211,239	-0,232	-0,253
246,859	-57,964	-0,220	-0,066
247,874	220,203	-0,169	-0,188
248,888	22,679	-0,098	-0,055
249,903	31,933	-0,164	-0,097
250,917	27,757	-0,184	-0,107
251,932	613,424	-0,082	-0,143
252,947	352,453	-0,148	-0,204
253,961	143,969	-0,135	-0,124
254,976	47,208	-0,193	-0,124
255,990	800,000	-0,165	-0,324
257,005	48,789	-0,168	-0,109
258,020	198,739	-0,163	-0,173
259,034	-52,796	-0,217	-0,069
260,049	-38,643	-0,140	-0,051
261,063	82,137	-0,118	-0,088
262,078	49,560	-0,264	-0,171
263,093	51,141	-0,144	-0,095
264,107	133,802	-0,169	-0,151
265,122	74,788	-0,158	-0,115
266,136	-76,342	-0,270	-0,065
267,151	-108,203	-0,143	-0,021
268,166	181,248	-0,172	-0,175
269,180	121,790	-0,220	-0,190
270,195	-53,991	-0,284	-0,089
271,209	530,559	-0,104	-0,171
272,224	-25,175	-0,210	-0,085
273,239	540,011	-0,107	-0,177
274,253	106,389	-0,103	-0,084
275,268	7,955	-0,077	-0,040
276,282	-100,658	-0,280	-0,047
277,297	118,520	-0,235	-0,200
278,312	800,000	-0,074	-0,165
279,326	-156,427	-0,124	-0,005
280,341	-124,783	-0,196	-0,021
281,355	693,141	-0,075	-0,137
282,370	21,866	-0,171	-0,096
283,384	473,843	-0,161	-0,252
284,399	100,107	-0,231	-0,185
285,414	800,000	-0,071	-0,180
286,428	18,991	-0,262	-0,144
287,443	203,967	-0,116	-0,124
288,457	-91,793	-0,138	0,027
289,472	-114,506	-0,234	0,031
290,487	800,000	-0,118	-0,250
291,501	47,853	-0,265	-0,171
292,516	213,756	-0,091	-0,099
293,530	670,517	-0,105	-0,188
294,545	50,787	-0,199	-0,130
295,560	32,124	-0,181	-0,107
296,574	41,302	-0,155	-0,096
297,589	40,235	-0,186	-0,115
298,603	800,000	-0,091	-0,192
299,618	-200,000	-0,006	-0,132
300,633	317,241	-0,101	-0,132
301,647	27,320	-0,164	-0,095
302,662	-116,923	0,047	0,006
303,676	664,422	-0,058	-0,104
304,691	200,254	-0,167	-0,177
305,706	800,000	-0,046	-0,125
306,720	283,791	-0,178	-0,221
307,735	521,562	-0,106	-0,172
308,749	-141,662	-0,193	-0,013
309,764	-200,000	-0,001	-0,036
310,779	75,289	-0,167	-0,122
311,793	-13,192	-0,153	-0,068
312,808	13,884	-0,162	-0,086
313,822	-106,654	-0,133	0,020
314,837	-66,788	-0,147	-0,040
315,852	-4,593	-0,137	-0,065
316,866	406,684	-0,077	-0,112
317,881	-180,021	-0,238	0,003
318,895	261,500	-0,186	-0,222
319,910	689,713	-0,082	-0,149
320,925	115,435	-0,134	-0,113
321,939	16,207	-0,094	-0,051
322,954	-200,000	-0,020	-0,085
323,968	-200,000	-0,004	-0,105
324,983	-74,468	-0,223	0,055
325,997	97,299	-0,204	-0,161
327,012	-200,000	-0,143	-0,000
328,027	-121,013	-0,171	-0,019
329,041	232,191	-0,097	-0,110
330,056	471,615	-0,113	-0,176
331,070	-90,384	-0,170	-0,034
332,085	-200,000	0,004	0,120
333,100	553,444	-0,109	-0,181
334,114	634,652	-0,096	-0,167
335,129	570,542	-0,128	-0,215
336,143	215,213	-0,164	-0,179
337,158	567,314	-0,094	-0,157
338,173	-200,000	0,000	-0,108
339,187	-143,576	-0,104	0,007
340,202	-125,256	-0,099	0,010
341,216	800,000	-0,091	-0,175
342,231	-200,000	-0,027	-0,160
343,246	371,494	-0,126	-0,176
344,260	-144,528	-0,144	0,009
345,275	-144,303	-0,210	-0,013
346,289	333,052	-0,166	-0,221
347,304	444,464	-0,110	-0,167
348,319	163,471	-0,098	-0,094
349,333	187,436	-0,167	-0,171
350,348	-139,670	-0,194	-0,014
351,362	75,347	-0,093	-0,067
352,377	65,167	-0,089	-0,062
353,392	-36,466	-0,115	-0,042
354,406	-0,567	-0,128	-0,062
355,421	210,149	1313,844	1416,381
356,435	161,767	1474,467	1416,875
