DTS Sentinel unit serial number:	SN410029Multiplexer serial number:	ORYXHardware model number:	OX2-SRSoftware version number:	ORYX F/W v4,00 Oryx Data Collector v3.7.2.0data status	okinstallation	B3 Nyhavnadifferential loss correction	single-endedforward channel	channel 1reverse channel	N/Adate	2023/12/01time	20:02:30forward acquisition time	300,00reverse acquisition time	0,00gamma	499,1914k internal	0,3198k external	0,3198temperature offset calibration	1,0000default loss term (dB/km)	0,3820temperature slope calibration	1,0000multiplexer offset coefficient	1,0000multiplexer slope coefficient	1,0000fibre end	0,00T internal ref (°C)	15,72T ext. ref 1 (°C)	1,44T ext. ref 2 (°C)	1,45length (m)	temperature (°C)	Stokes	anti-Stokes-744,400	97,409	-0,262	-0,219
-743,385	-200,000	0,009	0,236
-742,371	161,956	-0,272	-0,278
-741,356	276,403	0,150	0,195
-740,342	221,443	-0,222	-0,260
-739,327	-200,000	0,098	0,350
-738,312	359,721	-0,172	-0,251
-737,298	-200,000	-0,018	0,445
-736,283	171,707	-0,244	-0,256
-735,269	636,744	0,182	0,338
-734,254	102,036	-0,263	-0,224
-733,239	595,609	-0,121	0,218
-732,225	800,000	-0,066	-0,208
-731,210	-200,000	-0,010	0,048
-730,196	23,543	-0,081	-0,048
-729,181	-8,380	-0,103	-0,050
-728,167	-200,000	0,016	-0,071
-727,152	-133,863	-0,152	0,014
-726,137	800,000	-0,046	-0,107
-725,123	-16,189	-0,158	-0,073
-724,108	-200,000	-0,002	-0,053
-723,094	-200,000	-0,007	0,074
-722,079	495,567	-0,071	-0,119
-721,064	-200,000	0,020	-0,087
-720,050	86,927	0,039	0,031
-719,035	-118,889	0,218	0,028
-718,021	763,390	-0,060	-0,120
-717,006	-200,000	0,017	-0,058
-715,991	351,794	-0,030	-0,043
-714,977	-62,146	-0,085	-0,026
-713,962	800,000	0,040	0,084
-712,948	1,197	0,079	0,041
-711,933	-200,000	0,000	0,023
-710,918	-130,163	-0,147	0,014
-709,904	-90,266	0,072	-0,015
-708,889	-200,000	0,020	-0,195
-707,875	494,825	-0,022	-0,037
-706,860	136,419	-0,083	-0,078
-705,845	238,826	0,049	-0,059
-704,831	-200,000	0,021	0,152
-703,816	335,397	0,086	0,122
-702,802	-174,754	-0,126	-0,003
-701,787	-28,617	0,111	0,046
-700,772	-100,476	0,117	0,021
-699,758	86,931	0,134	-0,108
-698,743	-87,716	0,090	0,019
-697,729	-104,179	0,085	0,014
-696,714	800,000	-0,035	-0,103
-695,699	-85,638	-0,038	0,009
-694,685	437,056	0,018	-0,028
-693,670	800,000	0,018	0,039
-692,656	54,956	-0,117	0,082
-691,641	478,167	0,057	0,095
-690,627	-200,000	0,015	-0,120
-689,612	43,164	0,072	-0,048
-688,597	-200,000	0,000	0,002
-687,583	133,109	-0,060	-0,057
-686,568	-152,034	-0,072	0,004
-685,554	382,962	0,084	-0,126
-684,539	-200,000	0,013	0,061
-683,524	800,000	0,057	0,146
-682,510	-200,000	-0,000	-0,013
-681,495	-53,926	0,044	0,014
-680,481	-200,000	0,016	-0,054
-679,466	-125,793	-0,041	-0,004
-678,451	26,356	-0,021	-0,013
-677,437	705,174	-0,062	-0,119
-676,422	-111,773	-0,061	-0,009
-675,408	14,305	-0,123	0,069
-674,393	-200,000	-0,009	0,075
-673,378	-200,000	0,031	-0,125
-672,364	240,374	-0,064	-0,077
-671,349	-200,000	0,011	-0,087
-670,335	-200,000	0,027	0,111
-669,320	150,817	-0,120	0,119
-668,305	-200,000	-0,012	0,056
-667,291	-126,037	-0,107	-0,011
-666,276	122,719	-0,035	-0,032
-665,262	-200,000	0,011	-0,081
-664,247	-200,000	-0,011	-0,062
-663,232	-8,704	0,082	-0,040
-662,218	198,410	-0,065	0,072
-661,203	-86,281	0,103	-0,023
-660,189	-41,195	0,097	-0,036
-659,174	800,000	0,034	-0,106
-658,159	754,057	-0,040	-0,079
-657,145	-200,000	-0,037	-0,139
-656,130	-200,000	-0,006	0,112
-655,116	-49,802	0,110	-0,038
-654,101	-200,000	0,006	-0,053
-653,086	-68,829	0,060	0,017
-652,072	-9,131	0,043	-0,021
-651,057	-21,231	-0,043	-0,019
-650,043	28,914	0,017	0,010
-649,028	-200,000	0,019	-0,112
-648,014	-179,127	-0,044	0,001
-646,999	-2,901	-0,109	-0,055
-645,984	45,329	0,026	0,018
-644,970	154,482	-0,153	0,152
-643,955	162,629	0,054	-0,055
-642,941	-200,000	0,022	-0,135
-641,926	265,327	0,052	-0,066
-640,911	-20,550	-0,112	0,050
-639,897	-85,352	0,171	-0,038
-638,882	-200,000	0,005	0,084
-637,868	800,000	0,014	-0,033
-636,853	-86,144	0,042	-0,009
-635,838	53,108	-0,036	-0,025
-634,824	12,519	0,073	-0,041
-633,809	136,843	0,061	-0,058
-632,795	175,837	0,038	0,039
-631,780	-26,968	-0,081	-0,034
-630,765	800,000	0,077	0,198
-629,751	10,043	0,093	-0,051
-628,736	-117,816	-0,188	-0,024
-627,722	5,228	-0,080	-0,043
-626,707	-200,000	0,017	0,091
-625,692	-200,000	0,008	0,092
-624,678	-78,717	-0,128	-0,031
-623,663	382,405	0,034	-0,050
-622,649	72,792	0,093	0,070
-621,634	-200,000	-0,009	0,150
-620,619	28,838	0,075	0,046
-619,605	303,533	0,013	-0,017
-618,590	-118,456	-0,067	0,008
-617,576	35,697	0,044	0,028
-616,561	-63,035	-0,050	-0,015
-615,546	800,000	-0,030	-0,072
-614,532	-200,000	0,022	-0,119
-613,517	-200,000	0,028	-0,144
-612,503	800,000	0,058	-0,125
-611,488	44,696	0,060	-0,040
-610,474	551,949	-0,044	0,076
-609,459	-200,000	0,005	0,023
-608,444	-200,000	-0,021	-0,144
-607,430	745,136	-0,028	0,056
-606,415	80,819	-0,034	-0,027
-605,401	-200,000	0,037	-0,167
-604,386	264,959	0,133	0,168
-603,371	43,014	0,134	-0,088
-602,357	800,000	0,009	0,022
-601,342	-151,044	-0,136	-0,007
-600,328	-200,000	0,037	-0,168
-599,313	-61,230	0,131	0,040
-598,298	-200,000	-0,022	-0,169
-597,284	115,185	0,095	0,084
-596,269	800,000	0,038	0,092
-595,255	-200,000	0,009	-0,118
-594,240	404,072	-0,094	-0,144
-593,225	1,853	-0,086	-0,045
-592,211	317,868	0,025	-0,035
-591,196	5,878	-0,077	-0,041
-590,182	-98,622	0,084	0,015
-589,167	-200,000	-0,008	0,082
-588,152	10,805	-0,038	-0,021
-587,138	-200,000	-0,001	0,046
-586,123	-20,215	-0,148	-0,066
-585,109	-200,000	-0,009	-0,171
-584,094	-138,103	0,107	0,008
-583,079	800,000	0,050	0,101
-582,065	431,831	-0,072	0,113
-581,050	-200,000	0,014	0,128
-580,036	1,497	-0,086	-0,045
-579,021	-108,449	-0,069	0,011
-578,006	56,402	0,062	-0,044
-576,992	116,964	-0,135	-0,119
-575,977	-53,233	0,131	0,043
-574,963	-200,000	-0,010	-0,052
-573,948	75,755	0,117	0,089
-572,934	11,074	0,039	-0,021
-571,919	266,025	-0,081	-0,102
-570,904	800,000	0,032	-0,075
-569,890	33,004	-0,096	-0,060
-568,875	90,703	0,072	0,059
-567,861	234,696	0,084	-0,100
-566,846	-200,000	-0,009	0,137
-565,831	-34,200	0,046	0,018
-564,817	199,814	-0,037	-0,041
-563,802	-200,000	0,007	-0,122
-562,788	800,000	0,095	-0,234
-561,773	-44,446	0,088	-0,032
-560,758	47,533	0,029	-0,020
-559,744	-84,968	-0,025	0,006
-558,729	-21,503	-0,048	0,021
-557,715	125,515	-0,034	-0,031
-556,700	120,886	-0,029	0,026
-555,685	-6,828	-0,111	0,054
-554,671	158,588	0,033	0,033
-553,656	-111,890	-0,038	-0,006
-552,642	681,916	-0,046	0,087
-551,627	-6,718	0,043	0,021
-550,612	-131,625	-0,085	0,008
-549,598	800,000	-0,054	-0,141
-548,583	9,202	-0,133	-0,072
-547,569	-183,522	0,077	0,001
-546,554	12,169	0,069	0,038
-545,539	-200,000	-0,024	0,090
-544,525	22,009	-0,099	0,058
-543,510	-46,837	0,091	-0,032
-542,496	-154,446	-0,069	-0,003
-541,481	800,000	-0,039	-0,106
-540,466	800,000	-0,043	-0,100
-539,452	105,506	0,152	0,130
-538,437	650,123	-0,062	-0,115
-537,423	-200,000	0,002	-0,083
-536,408	81,111	-0,135	0,105
-535,393	-199,036	-0,067	-0,000
-534,379	-200,000	0,037	-0,182
-533,364	-200,000	0,007	-0,098
-532,350	338,130	0,086	-0,121
-531,335	-200,000	-0,002	-0,043
-530,321	-151,914	-0,124	-0,006
-529,306	665,816	0,041	-0,077
-528,291	-200,000	-0,022	-0,083
-527,277	-200,000	-0,007	-0,060
-526,262	-158,305	-0,185	-0,008
-525,248	48,726	0,080	0,054
-524,233	158,561	-0,069	0,069
-523,218	-24,491	0,098	0,042
-522,204	81,638	0,118	-0,092
-521,189	446,036	-0,052	-0,082
-520,175	-31,129	-0,013	-0,005
-519,160	-200,000	0,020	-0,125
-518,145	35,924	-0,028	0,018
-517,131	151,755	0,120	0,118
-516,116	-200,000	-0,005	-0,044
-515,102	40,880	0,096	-0,062
-514,087	53,297	0,091	0,063
-513,072	-13,946	-0,125	-0,058
-512,058	150,228	-0,076	0,074
-511,043	-84,440	0,138	-0,031
-510,029	-200,000	0,042	-0,142
-509,014	187,348	-0,119	0,128
-507,999	167,459	-0,020	0,020
-506,985	365,441	-0,071	-0,104
-505,970	-77,010	-0,148	-0,037
-504,956	208,322	-0,100	0,113
-503,941	167,003	0,098	0,101
-502,926	-98,123	0,041	-0,007
-501,912	800,000	0,054	0,158
-500,897	257,151	-0,010	0,012
-499,883	-200,000	-0,001	-0,042
-498,868	-200,000	-0,011	-0,056
-497,853	573,647	0,030	0,052
-496,839	82,751	-0,058	-0,046
-495,824	-200,000	0,038	0,185
-494,810	289,827	0,040	-0,052
-493,795	51,158	0,093	0,063
-492,781	315,167	-0,069	0,095
-491,766	800,000	0,024	-0,062
-490,751	-200,000	-0,021	-0,088
-489,737	124,714	-0,132	-0,120
-488,722	-200,000	-0,035	0,127
-487,708	-200,000	-0,021	0,137
-486,693	-52,268	0,039	0,013
-485,678	-200,000	-0,000	-0,029
-484,664	-123,083	-0,156	-0,018
-483,649	800,000	-0,047	-0,133
-482,635	-73,826	0,071	0,018
-481,620	-69,620	0,054	-0,015
-480,605	114,040	0,065	-0,057
-479,591	117,987	0,009	0,008
-478,576	800,000	-0,061	-0,180
-477,562	115,470	0,077	0,067
-476,547	-200,000	0,000	0,022
-475,532	186,488	0,085	0,092
-474,518	267,702	0,018	0,022
-473,503	583,125	-0,032	-0,056
-472,489	-54,263	0,120	0,039
-471,474	-142,646	-0,043	-0,003
-470,459	-51,412	-0,059	-0,020
-469,445	7,519	-0,019	-0,010
-468,430	-95,310	0,025	0,005
-467,416	-112,533	0,082	0,012
-466,401	110,201	0,102	0,088
-465,386	800,000	0,033	0,092
-464,372	-168,214	-0,013	-0,000
-463,357	-48,598	0,041	-0,014
-462,343	98,535	-0,008	0,007
-461,328	800,000	-0,048	0,133
-460,313	-200,000	-0,018	0,111
-459,299	-200,000	-0,006	0,060
-458,284	407,549	0,068	0,103
-457,270	-57,855	-0,111	-0,035
-456,255	243,875	0,043	0,052
-455,241	-153,850	-0,164	-0,008
-454,226	-62,162	0,072	0,022
-453,211	-200,000	0,016	-0,093
-452,197	800,000	0,024	-0,071
-451,182	-200,000	0,040	-0,127
-450,168	-34,013	-0,051	0,020
-449,153	800,000	-0,030	-0,061
-448,138	-194,632	-0,144	-0,001
-447,124	-141,470	0,088	0,006
-446,109	106,043	-0,051	-0,043
-445,095	-200,000	-0,017	-0,120
-444,080	49,164	0,091	-0,062
-443,065	-200,000	0,065	0,226
-442,051	-39,220	-0,068	0,025
-441,036	-23,745	0,137	-0,059
-440,022	543,040	-0,028	0,049
-439,007	-200,000	0,008	-0,044
-437,992	-139,868	0,074	-0,006
-436,978	44,615	-0,022	0,015
-435,963	428,292	0,021	0,032
-434,949	27,331	0,054	0,032
-433,934	-200,000	-0,002	0,065
-432,919	396,901	-0,064	-0,096
-431,905	568,354	-0,104	-0,183
-430,890	421,354	-0,047	0,073
-429,876	189,242	-0,078	0,084
-428,861	-24,317	0,107	0,046
-427,846	535,169	0,070	0,120
-426,832	-46,484	0,044	-0,015
-425,817	800,000	-0,025	0,060
-424,803	311,971	-0,016	0,021
-423,788	361,736	0,104	0,150
-422,773	-200,000	-0,007	0,134
-421,759	153,372	-0,038	-0,037
-420,744	-8,572	-0,070	-0,034
-419,730	-111,245	0,177	-0,026
-418,715	12,213	-0,173	-0,096
-417,701	714,930	-0,109	-0,209
-416,686	12,299	0,014	0,008
-415,671	327,345	0,034	-0,047
-414,657	800,000	-0,036	0,074
-413,642	334,428	0,018	0,025
-412,628	-31,413	-0,035	0,014
-411,613	800,000	0,020	0,054
-410,598	-200,000	-0,003	0,035
-409,584	-31,879	-0,040	-0,016
-408,569	433,042	0,126	0,196
-407,555	-111,179	0,141	-0,020
-406,540	-200,000	0,044	0,151
-405,525	98,848	-0,101	-0,084
-404,511	206,130	-0,050	0,056
-403,496	443,117	0,048	0,075
-402,482	-200,000	-0,011	0,043
-401,467	582,411	-0,053	0,094
-400,452	-200,000	0,021	0,072
-399,438	-200,000	0,007	0,157
-398,423	-200,000	0,008	-0,043
-397,409	145,655	0,078	-0,075
-396,394	-200,000	0,027	-0,106
-395,379	253,890	0,036	-0,045
-394,365	166,453	0,118	0,120
-393,350	-104,538	0,010	0,002
-392,336	-154,132	-0,109	0,005
-391,321	-105,938	-0,104	-0,017
-390,306	-40,630	-0,025	0,009
-389,292	251,764	-0,035	-0,043
-388,277	-39,410	-0,077	0,029
-387,263	192,676	0,103	0,112
-386,248	-50,307	0,100	-0,034
-385,233	-146,497	0,092	0,006
-384,219	506,439	0,046	0,077
-383,204	-200,000	0,026	-0,169
-382,190	800,000	-0,046	0,122
-381,175	610,169	-0,023	0,042
-380,160	48,732	0,100	0,067
-379,146	404,656	0,037	-0,056
-378,131	-113,781	0,076	0,011
-377,117	-200,000	-0,022	0,156
-376,102	-119,620	-0,151	0,019
-375,088	-55,237	0,137	0,044
-374,073	18,434	-0,117	0,067
-373,058	18,999	-0,052	0,030
-372,044	147,825	0,043	0,042
-371,029	32,155	0,039	0,024
-370,015	-200,000	-0,000	-0,094
-369,000	91,333	-0,041	-0,033
-367,985	-200,000	-0,010	-0,123
-366,971	-200,000	-0,027	0,122
-365,956	16,022	-0,073	-0,041
-364,942	268,398	-0,058	0,073
-363,927	-25,587	-0,082	0,034
-362,912	624,474	-0,031	-0,055
-361,898	-128,819	-0,096	0,010
-360,883	30,289	-0,090	0,055
-359,869	-200,000	-0,033	-0,146
-358,854	289,207	0,058	-0,075
-357,839	-66,615	0,152	-0,043
-356,825	-200,000	-0,016	0,076
-355,810	-200,000	0,004	-0,059
-354,796	-15,811	-0,181	0,082
-353,781	525,415	0,034	-0,058
-352,766	135,136	-0,055	-0,051
-351,752	32,947	-0,091	0,057
-350,737	-200,000	0,009	0,079
-349,723	-200,000	0,015	0,150
-348,708	436,380	0,040	0,063
-347,693	-200,000	-0,003	-0,033
-346,679	-200,000	-0,034	-0,146
-345,664	73,778	-0,038	-0,029
-344,650	-200,000	0,010	-0,145
-343,635	711,136	0,022	-0,041
-342,620	-5,389	0,071	-0,035
-341,606	89,698	-0,049	-0,039
-340,591	-30,569	-0,075	-0,030
-339,577	177,962	0,022	-0,023
-338,562	-12,482	-0,096	0,045
-337,548	-47,957	-0,078	-0,027
-336,533	-38,834	-0,064	-0,024
-335,518	645,605	-0,062	0,113
-334,504	-200,000	0,022	0,071
-333,489	-88,792	-0,055	-0,012
-332,475	42,594	-0,012	0,008
-331,460	-121,235	-0,092	-0,011
-330,445	-200,000	-0,001	-0,071
-329,431	135,088	0,089	0,083
-328,416	333,000	0,057	0,079
-327,402	-23,720	0,033	0,014
-326,387	661,573	0,021	-0,039
-325,372	449,308	-0,017	-0,027
-324,358	60,440	-0,109	-0,077
-323,343	-151,831	0,133	-0,007
-322,329	-200,000	-0,010	-0,061
-321,314	27,199	0,046	-0,028
-320,299	-200,000	-0,014	0,083
-319,285	-28,317	-0,111	-0,046
-318,270	146,282	0,059	-0,057
-317,256	-57,692	-0,048	-0,015
-316,241	-200,000	0,005	0,110
-315,226	800,000	-0,038	-0,101
-314,212	-2,228	0,154	0,077
-313,197	95,471	0,020	-0,016
-312,183	48,138	0,072	0,048
-311,168	90,867	-0,018	-0,015
-310,153	-82,365	-0,177	0,041
-309,139	106,279	0,101	-0,086
-308,124	9,253	-0,028	0,015
-307,110	183,531	0,046	-0,049
-306,095	-61,230	-0,052	0,016
-305,080	-112,581	0,031	-0,004
-304,066	145,327	0,018	-0,017
-303,051	-200,000	0,000	0,018
-302,037	-106,095	0,051	0,008
-301,022	-0,100	0,103	0,052
-300,008	-200,000	-0,009	0,037
-298,993	613,137	0,030	0,053
-297,978	18,575	-0,103	0,059
-296,964	423,745	-0,078	0,121
-295,949	800,000	0,045	-0,127
-294,935	24,799	-0,091	-0,054
-293,920	-23,927	-0,010	0,004
-292,905	-200,000	0,004	0,182
-291,891	22,213	0,092	-0,054
-290,876	800,000	0,019	0,042
-289,862	415,711	-0,013	0,020
-288,847	-85,760	-0,074	-0,016
-287,832	-47,660	-0,093	0,032
-286,818	-200,000	0,015	0,077
-285,803	-200,000	-0,001	-0,059
-284,789	30,216	0,097	-0,059
-283,774	-178,987	-0,073	0,001
-282,759	29,937	0,044	0,027
-281,745	770,143	0,040	-0,079
-280,730	-8,934	0,053	0,025
-279,716	-109,541	-0,160	0,024
-278,701	-200,000	-0,045	0,153
-277,686	-86,772	0,166	0,036
-276,672	-196,395	0,148	0,001
-275,657	-55,282	-0,106	-0,034
-274,643	116,491	-0,100	0,088
-273,628	-47,101	-0,113	0,039
-272,613	350,380	0,063	-0,089
-271,599	-116,230	0,023	-0,003
-270,584	-84,275	0,143	-0,032
-269,570	-117,114	0,158	-0,020
-268,555	-200,000	-0,001	0,011
-267,540	800,000	-0,072	0,147
-266,526	-200,000	0,006	0,055
-265,511	226,435	-0,021	0,024
-264,497	-200,000	0,022	-0,079
-263,482	-172,580	-0,086	0,002
-262,467	762,740	-0,019	0,037
-261,453	66,681	0,080	0,058
-260,438	-105,939	-0,132	0,021
-259,424	-60,424	0,057	-0,017
-258,409	-200,000	-0,013	-0,045
-257,395	472,285	0,024	0,038
-256,380	-200,000	0,009	0,085
-255,365	192,201	0,084	-0,090
-254,351	206,178	0,088	0,098
-253,336	-100,201	-0,132	-0,023
-252,322	-200,000	-0,051	-0,193
-251,307	-107,601	-0,091	0,014
-250,292	325,673	0,089	0,122
-249,278	106,534	0,156	0,132
-248,263	800,000	-0,036	0,081
-247,249	-15,219	0,022	-0,010
-246,234	-116,936	-0,066	0,009
-245,219	800,000	0,030	-0,065
-244,205	-56,406	-0,071	-0,022
-243,190	133,323	0,078	0,072
-242,176	-41,440	0,063	0,023
-241,161	625,856	0,024	-0,044
-240,146	-200,000	0,023	-0,118
-239,132	800,000	-0,012	0,031
-238,117	-113,159	0,033	0,005
-237,103	725,893	-0,033	0,063
-236,088	-8,156	-0,069	-0,033
-235,073	102,530	0,074	0,062
-234,059	800,000	-0,022	0,065
-233,044	-139,511	0,172	0,013
-232,030	799,346	-0,059	0,117
-231,015	-200,000	-0,012	0,134
-230,000	-200,000	0,004	0,067
-228,986	-68,161	-0,067	-0,019
-227,971	266,694	0,076	0,095
-226,957	-200,000	0,016	0,095
-225,942	367,886	0,054	0,077
-224,927	17,161	-0,050	-0,028
-223,913	102,426	-0,146	0,122
-222,898	201,445	-0,083	-0,091
-221,884	800,000	0,052	-0,134
-220,869	800,000	0,027	-0,073
-219,855	554,485	0,034	-0,058
-218,840	120,391	0,134	0,119
-217,825	588,917	-0,066	0,116
-216,811	-1,101	-0,103	-0,052
-215,796	-145,416	-0,045	0,003
-214,782	358,379	-0,026	-0,037
-213,767	148,102	-0,053	-0,051
-212,752	63,975	0,125	0,090
-211,738	-47,639	-0,016	-0,006
-210,723	-17,100	0,125	0,056
-209,709	0,253	-0,002	0,001
-208,694	276,013	-0,080	-0,101
-207,679	-200,000	0,011	-0,065
-206,665	-37,086	-0,083	-0,032
-205,650	-200,000	0,020	-0,121
-204,636	-177,540	0,036	0,001
-203,621	-200,000	-0,003	-0,064
-202,606	151,562	-0,032	-0,031
-201,592	221,343	-0,081	0,093
-200,577	-200,000	-0,023	0,100
-199,563	-200,000	-0,045	-0,142
-198,548	-92,065	0,121	0,024
-197,533	25,253	0,031	0,018
-196,519	82,607	-0,063	0,049
-195,504	107,541	-0,054	-0,046
-194,490	-12,632	0,067	-0,031
-193,475	800,000	0,042	-0,093
-192,460	-46,478	0,129	0,045
-191,446	-200,000	0,003	0,016
-190,431	119,542	-0,141	0,125
-189,417	110,724	0,049	-0,042
-188,402	800,000	-0,002	0,005
-187,387	-40,589	-0,067	0,025
-186,373	-200,000	0,004	0,025
-185,358	800,000	-0,009	0,029
-184,344	-200,000	-0,018	0,075
-183,329	-200,000	-0,003	-0,095
-182,315	800,000	0,048	-0,136
-181,300	397,051	-0,078	-0,117
-180,285	-99,810	-0,104	0,018
-179,271	800,000	0,059	0,118
-178,256	-169,148	-0,065	0,002
-177,242	-141,574	0,088	0,006
-176,227	67,115	-0,061	0,044
-175,212	652,571	0,038	0,069
-174,198	141,662	0,059	0,055
-173,183	-200,000	0,043	-0,160
-172,169	8,905	-0,088	0,047
-171,154	157,692	-0,075	0,074
-170,139	-200,000	-0,003	0,050
-169,125	800,000	0,029	-0,064
-168,110	800,000	-0,058	-0,154
-167,096	-200,000	-0,013	-0,073
-166,081	-200,000	0,020	-0,085
-165,066	-58,264	-0,088	-0,027
-164,052	441,196	-0,101	-0,158
-163,037	310,741	0,099	0,133
-162,023	713,753	0,027	-0,051
-161,008	-37,780	0,158	0,060
-159,993	-8,316	0,009	0,004
-158,979	19,414	0,081	0,046
-157,964	800,000	0,023	-0,069
-156,950	211,920	-0,126	-0,141
-155,935	15,403	0,041	-0,023
-154,920	-61,514	0,142	0,042
-153,906	-135,691	0,077	0,006
-152,891	-68,823	0,159	-0,043
-151,877	-200,000	0,011	-0,063
-150,862	12,254	-0,089	-0,049
-149,847	89,603	0,084	-0,066
-148,833	-2,588	-0,111	-0,055
-147,818	-152,490	0,102	-0,005
-146,804	-200,000	0,021	-0,071
-145,789	20,789	0,035	0,020
-144,775	-94,961	0,083	0,016
-143,760	164,869	-0,088	-0,088
-142,745	-200,000	-0,002	-0,037
-141,731	188,557	-0,103	0,110
-140,716	800,000	0,032	0,078
-139,702	26,021	0,107	0,063
-138,687	-28,719	-0,140	0,057
-137,672	-200,000	-0,017	0,062
-136,658	546,905	-0,027	0,046
-135,643	-200,000	0,038	-0,122
-134,629	-57,263	-0,058	-0,018
-133,614	293,270	-0,055	0,072
-132,599	60,782	0,101	0,071
-131,585	612,651	0,047	-0,084
-130,570	110,989	0,086	0,073
-129,556	-200,000	0,029	-0,144
-128,541	19,355	-0,068	0,039
-127,526	-200,000	0,001	-0,097
-126,512	5,475	0,051	0,027
-125,497	205,531	0,154	0,171
-124,483	366,932	0,035	-0,050
-123,468	-140,956	-0,042	0,003
-122,453	245,102	0,082	0,098
-121,439	-96,939	0,146	-0,027
-120,424	71,760	0,044	-0,032
-119,410	-53,107	0,050	0,016
-118,395	-22,646	0,064	-0,027
-117,380	1,046	0,098	-0,050
-116,366	-200,000	-0,041	0,130
-115,351	-31,873	0,123	-0,049
-114,337	76,198	-0,076	0,057
-113,322	12,063	0,073	0,040
-112,307	295,519	0,109	-0,142
-111,293	-50,620	0,022	0,007
-110,278	573,172	0,051	-0,088
-109,264	-200,000	-0,011	-0,150
-108,249	-200,000	-0,010	-0,038
-107,234	800,000	-0,033	-0,100
-106,220	800,000	0,024	-0,061
-105,205	-39,200	-0,043	-0,016
-104,191	-17,753	0,085	-0,038
-103,176	-4,575	0,095	0,047
-102,162	371,055	0,011	0,015
-101,147	386,321	-0,041	-0,060
-100,132	-131,185	0,137	0,013
-99,118	-200,000	-0,013	-0,143
-98,103	-75,093	0,090	-0,023
-97,089	-47,091	-0,034	-0,012
-96,074	250,640	-0,052	0,062
-95,059	102,453	-0,084	-0,070
-94,045	800,000	-0,041	-0,104
-93,030	485,853	-0,015	0,024
-92,016	141,052	-0,149	-0,140
-91,001	-59,210	-0,063	-0,019
-89,986	-200,000	-0,014	-0,095
-88,972	-33,936	0,156	0,061
-87,957	451,361	0,065	0,103
-86,943	-86,140	-0,025	0,005
-85,928	136,976	-0,051	-0,047
-84,913	207,276	-0,074	-0,083
-83,899	216,806	0,073	0,082
-82,884	-200,000	0,064	0,243
-81,870	-37,965	0,121	0,045
-80,855	-200,000	0,005	0,081
-79,840	-3,076	-0,078	0,039
-78,826	-49,679	0,028	0,009
-77,811	-15,753	0,037	0,017
-76,797	800,000	-0,014	-0,031
-75,782	-90,997	-0,089	0,018
-74,767	-45,951	-0,136	0,047
-73,753	-72,388	0,089	0,023
-72,738	73,953	0,108	0,081
-71,724	-74,154	0,156	-0,040
-70,709	-124,897	-0,147	-0,016
-69,694	-200,000	-0,002	-0,127
-68,680	378,246	0,038	-0,056
-67,665	-160,834	0,101	-0,004
-66,651	-200,000	0,010	-0,061
-65,636	-200,000	0,029	0,118
-64,622	345,027	-0,035	0,048
-63,607	-100,301	-0,024	0,004
-62,592	-200,000	-0,009	0,051
-61,578	-200,000	-0,011	-0,045
-60,563	-200,000	-0,000	0,006
-59,549	175,130	-0,030	0,031
-58,534	-42,699	-1,424	-0,511
-57,519	329,125	-1,568	-2,143
-56,505	-200,000	-0,442	-4,277
-55,490	91,131	0,954	0,759
-54,476	800,000	4,740	11,298
-53,461	-200,000	17,768	283,610
-52,446	800,000	721,387	2228,152
-51,432	562,608	1635,279	2815,246
-50,417	80,794	1658,584	1266,282
-49,403	23,605	1532,683	891,634
-48,388	17,567	1456,231	818,038
-47,373	18,139	1445,834	814,910
-46,359	17,735	1436,357	807,614
-45,344	15,832	1431,794	795,970
-44,330	15,760	1429,846	794,514
-43,315	15,777	1427,945	793,506
-42,300	15,799	1426,320	792,674
-41,286	15,822	1425,357	792,219
-40,271	15,793	1424,129	791,365
-39,257	15,795	1422,824	790,619
-38,242	15,834	1421,514	790,045
-37,227	15,824	1420,197	789,234
-36,213	15,822	1418,936	788,490
-35,198	15,827	1417,610	787,748
-34,184	15,818	1416,873	787,263
-33,169	15,780	1415,412	786,241
-32,154	15,823	1414,566	785,942
-31,140	15,822	1413,203	785,149
-30,125	15,856	1411,878	784,544
-29,111	15,846	1410,979	783,965
-28,096	15,802	1409,895	783,127
-27,082	15,713	1408,763	782,048
-26,067	15,775	1407,496	781,605
-25,052	15,798	1406,394	781,070
-24,038	15,739	1405,539	780,288
-23,023	15,749	1404,448	779,696
-22,009	15,758	1403,338	779,092
-20,994	15,714	1402,686	778,493
-19,979	15,709	1401,626	777,850
-18,965	15,665	1400,651	777,077
-17,950	15,684	1399,619	776,559
-16,936	15,677	1398,658	775,965
-15,921	15,683	1397,532	775,335
-14,906	15,693	1396,428	774,739
-13,892	15,668	1395,669	774,171
-12,877	15,650	1394,860	773,608
-11,863	15,662	1393,931	773,119
-10,848	15,686	1392,868	772,610
-9,833	15,646	1391,940	771,879
-8,819	15,567	1391,056	770,995
-7,804	15,567	1389,898	770,321
-6,790	15,522	1389,097	769,640
-5,775	15,515	1388,021	768,978
-4,760	15,567	1387,133	768,695
-3,746	15,590	1386,331	768,330
-2,731	15,542	1385,600	767,673
-1,717	15,544	1384,713	767,157
-0,702	15,525	1382,845	766,004
0,313	19,412	1303,605	740,014
1,327	35,845	706,410	439,057
2,342	55,195	125,035	85,468
3,356	2,753	16,615	8,506
4,371	17,197	2,909	1,629
5,386	-29,742	0,632	0,254
6,400	83,342	-0,019	0,015
7,415	326,245	-0,180	-0,245
8,429	47,171	-0,400	-0,263
9,444	-25,363	-0,321	-0,134
10,459	2,437	-0,250	-0,128
11,473	-60,338	-0,326	-0,097
12,488	51,763	-0,205	-0,137
13,502	10,814	-0,408	-0,219
14,517	-8,298	-0,408	-0,194
15,531	155,929	-0,340	-0,332
16,546	197,784	-0,277	-0,300
17,561	158,344	-0,301	-0,296
18,575	146,875	-0,272	-0,258
19,590	365,187	-0,236	-0,338
20,604	3,426	-0,210	-0,108
21,619	164,057	-0,402	-0,400
22,634	57,026	-0,562	-0,387
23,648	292,393	-0,381	-0,492
24,663	9,860	-0,433	-0,232
25,677	179,481	-0,334	-0,346
26,692	410,213	-0,173	-0,260
27,707	7,284	-0,411	-0,216
28,721	202,708	-0,256	-0,280
29,736	32,407	-0,317	-0,193
30,750	194,097	-0,338	-0,363
31,765	-41,114	-0,455	-0,165
32,780	136,681	-0,273	-0,252
33,794	-23,333	-0,404	-0,171
34,809	19,018	-0,360	-0,203
35,823	-7,310	-0,412	-0,196
36,838	53,918	-0,375	-0,254
37,853	-7,212	-0,502	-0,239
38,867	113,796	-0,399	-0,342
39,882	-70,409	-0,396	-0,105
40,896	108,294	-0,289	-0,243
41,911	414,269	-0,263	-0,397
42,926	70,666	-0,334	-0,244
43,940	86,273	-0,235	-0,182
44,955	182,933	-0,392	-0,409
45,969	88,086	-0,339	-0,265
46,984	43,387	-0,384	-0,247
47,999	-152,595	-0,337	-0,017
49,013	-9,016	-0,214	-0,101
50,028	70,671	-0,368	-0,268
51,042	43,409	-0,411	-0,264
52,057	29,253	-0,460	-0,275
53,071	160,994	-0,342	-0,337
54,086	800,000	-0,184	-0,368
55,101	90,631	-0,300	-0,237
56,115	13,018	-0,437	-0,238
57,130	47,257	-0,420	-0,275
58,144	47,509	-0,364	-0,239
59,159	109,279	-0,339	-0,286
60,174	350,562	-0,199	-0,278
61,188	193,044	-0,274	-0,293
62,203	35,064	-0,322	-0,198
63,217	-7,302	-0,362	-0,172
64,232	46,437	-0,401	-0,261
65,247	175,761	-0,265	-0,271
66,261	9,499	-0,278	-0,148
67,276	-13,676	-0,389	-0,176
68,290	69,046	-0,297	-0,214
69,305	69,195	-0,349	-0,252
70,320	23,539	-0,247	-0,143
71,334	124,844	-0,307	-0,273
72,349	123,908	-0,251	-0,222
73,363	114,848	-0,410	-0,352
74,378	257,503	-0,222	-0,269
75,393	0,739	-0,246	-0,123
76,407	68,737	-0,233	-0,168
77,422	301,087	-0,257	-0,335
78,436	44,848	-0,203	-0,131
79,451	-22,895	-0,401	-0,169
80,466	145,766	-0,283	-0,266
81,480	163,824	-0,248	-0,246
82,495	113,151	-0,188	-0,160
83,509	-17,791	-0,394	-0,173
84,524	-1,589	-0,294	-0,145
85,539	778,873	-0,109	-0,210
86,553	196,041	-0,188	-0,202
87,568	139,085	-0,343	-0,317
88,582	26,382	-0,393	-0,230
89,597	198,389	-0,318	-0,342
90,611	384,412	-0,163	-0,237
91,626	205,473	-0,283	-0,310
92,641	104,229	-0,251	-0,207
93,655	90,340	-0,159	-0,125
94,670	52,058	-0,320	-0,214
95,684	94,494	-0,286	-0,228
96,699	239,117	-0,272	-0,318
97,714	-2,816	-0,352	-0,172
98,728	800,000	-0,099	-0,204
99,743	140,191	-0,197	-0,183
100,757	100,443	-0,251	-0,204
101,772	114,548	-0,245	-0,209
102,787	334,362	-0,225	-0,307
103,801	18,565	-0,318	-0,178
104,816	747,852	-0,122	-0,231
105,830	81,132	-0,313	-0,237
106,845	-200,000	-0,048	-0,259
107,860	800,000	-0,115	-0,229
108,874	15,651	-0,327	-0,180
109,889	65,058	-0,278	-0,197
110,903	26,676	-0,331	-0,194
111,918	-56,876	-0,199	-0,061
112,933	41,518	-0,242	-0,153
113,947	-88,186	-0,196	-0,041
114,962	92,483	-0,185	-0,146
115,976	-8,137	-0,323	-0,152
116,991	48,308	-0,284	-0,186
118,006	-10,397	-0,401	-0,186
119,020	-65,423	-0,391	-0,109
120,035	178,508	-0,236	-0,242
121,049	249,628	-0,197	-0,234
122,064	81,368	-0,225	-0,171
123,079	243,985	-0,226	-0,266
124,093	90,639	-0,243	-0,190
125,108	800,000	-0,135	-0,274
126,122	24,949	-0,276	-0,160
127,137	94,167	-0,167	-0,133
128,151	24,074	-0,245	-0,141
129,166	19,216	-0,229	-0,128
130,181	269,089	-0,276	-0,340
131,195	124,571	-0,273	-0,240
132,210	28,450	-0,263	-0,156
133,224	225,783	-0,305	-0,346
134,239	14,756	-0,307	-0,167
135,254	193,561	-0,200	-0,212
136,268	43,511	-0,288	-0,184
137,283	-71,242	-0,232	-0,060
138,297	190,280	-0,262	-0,276
139,312	263,011	-0,153	-0,187
140,327	54,938	-0,374	-0,252
141,341	187,594	-0,327	-0,342
142,356	8,534	-0,330	-0,173
143,370	-50,323	-0,351	-0,115
144,385	387,688	-0,197	-0,286
145,400	83,870	-0,289	-0,221
146,414	73,057	-0,190	-0,139
147,429	168,354	-0,219	-0,218
148,443	128,781	-0,222	-0,198
149,458	171,866	-0,170	-0,171
150,473	10,999	-0,303	-0,161
151,487	32,880	-0,173	-0,105
152,502	173,496	-0,199	-0,201
153,516	16,094	-0,295	-0,162
154,531	70,335	-0,227	-0,164
155,546	55,175	-0,242	-0,163
156,560	-14,044	-0,264	-0,118
157,575	-26,260	-0,090	-0,037
158,589	53,880	-0,212	-0,142
159,604	622,395	-0,195	-0,345
160,619	201,195	-0,192	-0,206
161,633	77,865	-0,161	-0,119
162,648	78,808	-0,332	-0,248
163,662	-110,373	-0,221	-0,032
164,677	249,342	-0,186	-0,220
165,692	41,501	-0,193	-0,122
166,706	800,000	-0,121	-0,241
167,721	800,000	-0,166	-0,350
168,735	227,391	-0,274	-0,312
169,750	-200,000	-0,082	-0,264
170,764	70,604	-0,264	-0,190
171,779	348,023	-0,132	-0,182
172,794	7,276	-0,166	-0,086
173,808	156,531	-0,168	-0,162
174,823	108,817	-0,182	-0,152
175,837	137,022	-0,157	-0,143
176,852	161,404	-0,241	-0,235
177,867	-87,713	-0,217	-0,045
178,881	723,076	-0,124	-0,231
179,896	-200,000	-0,041	-0,169
180,910	-93,178	-0,113	-0,022
181,925	-127,808	-0,278	-0,028
182,940	-6,482	-0,141	-0,067
183,954	35,764	-0,248	-0,151
184,969	84,076	-0,137	-0,104
185,983	136,025	-0,170	-0,155
186,998	-163,311	-0,174	0,006
188,013	-59,229	-0,275	-0,082
189,027	673,236	-0,184	-0,333
190,042	128,501	-0,250	-0,222
191,056	472,107	-0,208	-0,327
192,071	209,205	-0,128	-0,140
193,086	-17,889	-0,244	-0,106
194,100	44,223	-0,194	-0,124
195,115	-11,464	-0,214	-0,098
196,129	9,610	-0,230	-0,121
197,144	32,971	-0,283	-0,170
198,159	-54,812	-0,323	-0,101
199,173	-28,562	-0,188	-0,075
200,188	-96,611	-0,091	0,016
201,202	-69,270	-0,133	-0,035
202,217	46,862	-0,208	-0,134
203,232	-20,558	-0,129	-0,055
204,246	244,133	-0,243	-0,284
205,261	-12,228	-0,310	-0,140
206,275	19,842	-0,215	-0,120
207,290	554,526	-0,178	-0,299
208,304	67,397	-0,137	-0,097
209,319	-158,082	-0,196	0,008
210,334	-11,820	-0,188	-0,085
211,348	171,769	-0,249	-0,248
212,363	511,388	-0,084	-0,136
213,377	216,998	-0,200	-0,222
214,392	29,061	-0,108	-0,064
215,407	-200,000	-0,051	-0,216
216,421	224,832	-0,181	-0,203
217,436	118,119	-0,221	-0,189
218,450	-5,306	-0,275	-0,131
219,465	800,000	-0,095	-0,242
220,480	171,253	-0,159	-0,159
221,494	-87,381	-0,101	-0,021
222,509	24,092	-0,286	-0,164
223,523	284,346	-0,107	-0,134
224,538	139,105	-0,188	-0,172
225,553	2,137	-0,193	-0,097
226,567	335,352	-0,228	-0,307
227,582	127,944	-0,173	-0,153
228,596	-60,860	-0,143	-0,042
229,611	-134,423	-0,246	-0,021
230,626	-115,102	-0,276	-0,036
231,640	-200,000	-0,027	-0,099
232,655	104,871	-0,161	-0,132
233,669	28,368	-0,185	-0,108
234,684	800,000	-0,110	-0,226
235,699	176,205	-0,140	-0,142
236,713	-65,568	-0,242	-0,067
237,728	-109,762	-0,271	-0,039
238,742	81,590	-0,244	-0,183
239,757	-44,974	-0,281	-0,096
240,772	76,271	-0,209	-0,153
241,786	-64,740	-0,031	-0,009
242,801	122,818	-0,159	-0,138
243,815	26,229	-0,286	-0,165
244,830	122,906	-0,069	0,059
245,844	-91,643	-0,159	-0,031
246,859	89,547	-0,186	-0,144
247,874	-44,573	-0,125	-0,043
248,888	91,111	-0,204	-0,158
249,903	-200,000	-0,049	-0,155
250,917	-200,000	-0,025	-0,078
251,932	41,315	-0,230	-0,144
252,947	207,959	-0,182	-0,197
253,961	15,238	-0,133	-0,072
254,976	92,877	-0,223	-0,174
255,990	800,000	-0,143	-0,284
257,005	333,958	-0,126	-0,169
258,020	174,901	-0,136	-0,137
259,034	-7,242	-0,053	0,025
260,049	-104,957	-0,172	-0,027
261,063	250,941	-0,141	-0,166
262,078	149,163	-0,136	-0,128
263,093	9,678	-0,204	-0,107
264,107	11,561	-0,151	-0,080
265,122	388,076	-0,112	-0,161
266,136	191,586	-0,111	-0,116
267,151	154,098	-0,139	-0,132
268,166	623,741	-0,135	-0,236
269,180	-38,269	-0,211	-0,077
270,195	-74,491	-0,087	-0,021
271,209	0,161	-0,211	-0,104
272,224	61,315	-0,208	-0,143
273,239	68,445	-0,183	-0,130
274,253	36,294	-0,227	-0,138
275,268	-200,000	-0,221	-0,000
276,282	184,740	-0,181	-0,186
277,297	198,502	-0,195	-0,206
278,312	247,303	-0,163	-0,190
279,326	-54,432	-0,218	-0,068
280,341	563,697	-0,110	-0,184
281,355	-148,937	-0,143	-0,008
282,370	311,341	-0,124	-0,161
283,384	637,940	-0,122	-0,216
284,399	325,554	-0,152	-0,201
285,414	1,222	-0,219	-0,108
286,428	-31,213	-0,243	-0,094
287,443	-200,000	0,047	-0,183
288,457	473,892	-0,097	-0,152
289,472	-39,942	-0,063	-0,023
290,487	203,666	-0,151	-0,162
291,501	388,003	-0,148	-0,213
292,516	174,994	-0,202	-0,202
293,530	-156,766	-0,174	-0,007
294,545	-71,462	-0,158	-0,041
295,560	67,991	-0,156	-0,110
296,574	800,000	-0,045	-0,109
297,589	-10,350	-0,170	-0,078
298,603	121,304	-0,218	-0,187
299,618	-21,051	-0,204	-0,086
300,633	800,000	-0,071	-0,147
301,647	-200,000	-0,001	-0,008
302,662	262,065	-0,079	-0,094
303,676	800,000	-0,044	0,117
304,691	-113,917	-0,209	0,028
305,706	-62,777	-0,133	-0,038
306,720	150,330	-0,198	-0,186
307,735	-200,000	-0,197	-0,000
308,749	19,530	-0,151	-0,083
309,764	-105,186	-0,171	0,027
310,779	168,690	-0,119	-0,117
311,793	40,656	-0,153	-0,095
312,808	800,000	-0,084	-0,202
313,822	-64,855	-0,254	-0,070
314,837	-76,574	-0,131	-0,031
315,852	-200,000	-0,022	-0,072
316,866	29,342	-0,141	-0,082
317,881	-200,000	-0,070	-0,240
318,895	213,744	-0,132	-0,144
319,910	174,199	-0,130	-0,129
320,925	-172,396	-0,203	-0,004
321,939	-96,592	-0,166	-0,030
322,954	800,000	-0,049	-0,122
323,968	-77,204	-0,098	-0,023
324,983	-155,396	-0,117	-0,005
325,997	35,837	-0,148	-0,090
327,012	92,706	-0,211	-0,164
328,027	159,438	-0,168	-0,161
329,041	219,369	-0,167	-0,184
330,056	50,367	-0,152	-0,099
331,070	428,530	-0,054	-0,081
332,085	-51,426	-0,138	-0,044
333,100	-200,000	-0,008	-0,099
334,114	-36,552	-0,193	-0,071
335,129	-26,893	-0,170	-0,068
336,143	609,545	-0,140	-0,241
337,158	3,947	-0,115	-0,057
338,173	17,880	-0,234	-0,128
339,187	668,192	-0,044	-0,078
340,202	91,066	-0,062	-0,048
341,216	0,020	-0,118	-0,058
342,231	105,327	-0,154	-0,125
343,246	-36,243	-0,155	-0,057
344,260	159,822	-0,029	0,028
345,275	718,028	-0,066	-0,122
346,289	-35,664	-0,066	-0,024
347,304	-200,000	-0,017	-0,098
348,319	455,471	-0,159	-0,243
349,333	-112,553	-0,177	0,024
350,348	-179,104	-0,183	0,003
351,362	2,836	-0,101	-0,050
352,377	40,260	-0,118	-0,073
353,392	-138,898	-0,160	-0,012
354,406	-53,710	-0,089	-0,028
355,421	209,718	1312,696	1414,954
356,435	161,420	1473,211	1415,485
