DTS Sentinel unit serial number:	SN410029Multiplexer serial number:	ORYXHardware model number:	OX2-SRSoftware version number:	ORYX F/W v4,00 Oryx Data Collector v3.7.2.0data status	okinstallation	B3 Nyhavnadifferential loss correction	single-endedforward channel	channel 1reverse channel	N/Adate	2023/12/02time	23:07:30forward acquisition time	300,00reverse acquisition time	0,00gamma	499,1914k internal	0,3201k external	0,3201temperature offset calibration	1,0000default loss term (dB/km)	0,3820temperature slope calibration	1,0000multiplexer offset coefficient	1,0000multiplexer slope coefficient	1,0000fibre end	0,00T internal ref (°C)	13,24T ext. ref 1 (°C)	-1,74T ext. ref 2 (°C)	-1,75length (m)	temperature (°C)	Stokes	anti-Stokes-744,400	4,660	-0,185	-0,098
-743,385	-200,000	0,079	0,367
-742,371	215,949	-0,164	-0,189
-741,356	-200,000	0,012	0,410
-740,342	67,295	-0,295	-0,219
-739,327	-200,000	0,038	0,323
-738,312	338,482	-0,234	-0,332
-737,298	-200,000	-0,019	0,268
-736,283	111,359	-0,230	-0,201
-735,269	800,000	0,135	0,407
-734,254	107,899	-0,218	-0,189
-733,239	-200,000	-0,037	0,144
-732,225	800,000	-0,083	-0,219
-731,210	-12,778	0,089	0,042
-730,196	-83,243	-0,070	-0,016
-729,181	75,443	-0,130	-0,100
-728,167	28,328	0,036	-0,022
-727,152	-105,279	-0,111	0,018
-726,137	-50,497	-0,172	-0,059
-725,123	800,000	-0,055	0,111
-724,108	800,000	0,020	-0,052
-723,094	-57,475	-0,150	-0,047
-722,079	-45,964	-0,058	-0,021
-721,064	135,655	-0,058	0,055
-720,050	-53,667	0,130	0,043
-719,035	800,000	-0,008	0,020
-718,021	-200,000	-0,009	0,047
-717,006	-90,509	-0,131	-0,027
-715,991	-5,063	0,071	-0,035
-714,977	393,392	-0,037	-0,057
-713,962	-20,082	-0,173	-0,077
-712,948	186,504	0,026	-0,029
-711,933	-139,849	-0,081	-0,006
-710,918	-75,036	-0,095	0,024
-709,904	28,877	-0,232	-0,143
-708,889	-114,733	-0,021	-0,003
-707,875	800,000	0,030	0,062
-706,860	-84,658	0,121	-0,027
-705,845	-157,630	0,063	0,003
-704,831	-145,892	0,031	0,002
-703,816	-3,066	-0,068	0,034
-702,802	436,359	-0,017	-0,027
-701,787	85,502	-0,075	-0,060
-700,772	703,763	0,082	-0,158
-699,758	114,865	0,132	-0,117
-698,743	-64,285	-0,104	-0,031
-697,729	215,299	-0,046	-0,053
-696,714	300,970	0,029	0,039
-695,699	-200,000	0,011	-0,081
-694,685	-41,546	0,012	-0,005
-693,670	151,871	-0,017	0,017
-692,656	-8,796	-0,107	0,052
-691,641	120,510	0,057	0,051
-690,627	-200,000	-0,028	0,119
-689,612	-200,000	-0,008	0,025
-688,597	800,000	-0,038	-0,107
-687,583	199,807	-0,165	-0,184
-686,568	800,000	0,017	-0,049
-685,554	2,969	-0,032	-0,017
-684,539	306,863	-0,030	0,041
-683,524	-200,000	0,017	0,109
-682,510	800,000	-0,033	0,072
-681,495	-172,525	-0,208	-0,005
-680,481	-200,000	-0,005	0,086
-679,466	56,681	-0,090	-0,063
-678,451	-120,176	0,028	0,003
-677,437	-172,752	-0,130	0,003
-676,422	-193,720	0,076	0,000
-675,408	83,907	0,023	0,018
-674,393	145,470	0,022	-0,022
-673,378	33,118	0,141	-0,088
-672,364	-156,341	-0,095	0,004
-671,349	-93,094	-0,083	-0,017
-670,335	99,823	0,076	-0,064
-669,320	63,880	0,028	0,020
-668,305	-200,000	-0,018	-0,091
-667,291	142,263	0,134	-0,129
-666,276	290,507	-0,011	-0,015
-665,262	-5,546	-0,099	-0,049
-664,247	27,966	0,157	-0,096
-663,232	-73,714	-0,063	0,017
-662,218	-68,253	0,066	-0,019
-661,203	-200,000	0,014	0,052
-660,189	143,985	0,100	0,097
-659,174	-200,000	-0,005	-0,035
-658,159	-200,000	0,001	-0,106
-657,145	800,000	-0,029	-0,069
-656,130	125,247	0,041	-0,038
-655,116	57,427	0,036	0,025
-654,101	-37,480	-0,144	0,056
-653,086	-19,968	0,069	0,031
-652,072	738,702	-0,034	0,066
-651,057	-200,000	-0,026	-0,120
-650,043	198,200	-0,024	-0,027
-649,028	187,121	-0,126	-0,136
-648,014	-200,000	0,004	-0,055
-646,999	-19,562	0,053	-0,024
-645,984	152,406	-0,080	-0,079
-644,970	219,882	-0,033	-0,039
-643,955	-147,483	0,061	0,004
-642,941	800,000	-0,081	-0,170
-641,926	106,165	0,041	0,035
-640,911	79,211	0,128	-0,099
-639,897	800,000	0,059	0,167
-638,882	28,846	-0,037	-0,022
-637,868	410,473	0,028	-0,043
-636,853	-200,000	-0,037	-0,131
-635,838	-200,000	0,008	-0,048
-634,824	-55,899	0,069	0,022
-633,809	-200,000	0,059	-0,189
-632,795	88,875	-0,136	0,109
-631,780	-200,000	0,015	0,052
-630,765	-200,000	0,008	-0,051
-629,751	165,194	0,039	0,040
-628,736	800,000	-0,042	-0,106
-627,722	-200,000	0,060	-0,202
-626,707	-141,643	0,127	-0,009
-625,692	-53,277	-0,143	-0,047
-624,678	368,080	0,037	-0,054
-623,663	-53,608	-0,024	-0,008
-622,649	295,107	-0,082	0,108
-621,634	52,653	0,227	-0,157
-620,619	497,018	-0,084	-0,140
-619,605	-200,000	0,017	0,192
-618,590	-147,995	0,130	-0,008
-617,576	-200,000	0,008	0,078
-616,561	445,107	-0,039	0,062
-615,546	286,086	-0,081	-0,106
-614,532	-45,507	-0,101	-0,036
-613,517	-137,152	-0,170	-0,014
-612,503	447,509	0,085	-0,136
-611,488	-61,509	0,097	0,029
-610,474	178,680	-0,052	-0,055
-609,459	86,389	0,043	-0,035
-608,444	324,736	-0,058	-0,080
-607,430	-200,000	-0,012	-0,080
-606,415	140,766	0,068	-0,065
-605,401	-3,932	0,025	-0,013
-604,386	-19,845	0,120	0,053
-603,371	-23,667	0,041	0,018
-602,357	113,721	-0,098	-0,086
-601,342	0,110	0,069	0,036
-600,328	259,608	0,017	-0,021
-599,313	57,363	-0,076	-0,053
-598,298	-200,000	0,023	-0,096
-597,284	-113,702	0,059	-0,008
-596,269	433,223	-0,021	0,034
-595,255	210,920	0,048	-0,054
-594,240	632,637	0,026	-0,048
-593,225	800,000	-0,021	0,051
-592,211	-200,000	-0,006	-0,031
-591,196	16,983	0,057	-0,032
-590,182	277,211	0,060	0,078
-589,167	743,674	-0,078	0,152
-588,152	-200,000	0,038	0,210
-587,138	-103,061	0,059	0,010
-586,123	-61,013	-0,118	-0,036
-585,109	103,934	-0,091	0,077
-584,094	-50,744	-0,046	-0,016
-583,079	716,372	0,037	0,071
-582,065	800,000	-0,052	0,128
-581,050	272,045	0,042	0,053
-580,036	8,501	-0,102	0,055
-579,021	119,384	-0,081	-0,073
-578,006	800,000	-0,060	-0,171
-576,992	148,000	0,112	-0,109
-575,977	800,000	-0,020	0,050
-574,963	800,000	0,012	0,027
-573,948	-200,000	-0,007	-0,098
-572,934	-14,478	-0,046	-0,021
-571,919	147,137	-0,056	-0,054
-570,904	-124,757	-0,078	-0,009
-569,890	-70,178	-0,112	0,031
-568,875	-200,000	-0,008	-0,125
-567,861	657,391	-0,010	0,018
-566,846	800,000	0,022	0,059
-565,831	800,000	0,016	-0,048
-564,817	-200,000	-0,023	-0,089
-563,802	54,865	0,069	0,048
-562,788	800,000	-0,030	-0,079
-561,773	-200,000	0,011	-0,163
-560,758	-200,000	0,006	-0,041
-559,744	383,627	-0,045	-0,068
-558,729	-200,000	0,024	0,156
-557,715	-105,879	0,097	-0,016
-556,700	-40,723	-0,055	0,020
-555,685	-64,381	-0,063	-0,018
-554,671	249,240	0,019	-0,023
-553,656	317,407	0,031	0,042
-552,642	-135,151	0,150	0,013
-551,627	456,100	-0,045	0,072
-550,612	593,076	-0,067	-0,120
-549,598	60,070	0,080	-0,057
-548,583	-89,986	-0,107	-0,022
-547,569	329,246	0,092	0,128
-546,554	-114,496	0,120	0,016
-545,539	-10,406	-0,057	0,027
-544,525	-76,885	0,112	-0,028
-543,510	800,000	0,046	-0,124
-542,496	66,191	0,022	0,016
-541,481	800,000	-0,050	-0,114
-540,466	-41,690	0,154	0,057
-539,452	800,000	-0,081	0,180
-538,437	727,585	-0,052	-0,101
-537,423	-77,155	0,068	0,017
-536,408	-200,000	-0,003	0,064
-535,393	-146,631	-0,100	0,006
-534,379	-35,214	-0,088	0,035
-533,364	790,260	-0,045	-0,090
-532,350	-57,036	-0,086	-0,027
-531,335	-200,000	0,008	0,139
-530,321	-158,589	-0,175	0,007
-529,306	39,213	-0,117	-0,075
-528,291	77,641	0,074	-0,057
-527,277	107,583	0,042	-0,036
-526,262	-51,672	0,072	-0,024
-525,248	37,683	0,149	-0,095
-524,233	800,000	0,052	0,131
-523,218	-115,767	0,105	0,014
-522,204	800,000	0,034	-0,076
-521,189	-58,374	-0,066	-0,020
-520,175	-200,000	0,018	0,104
-519,160	-72,112	0,078	0,021
-518,145	1,293	0,062	0,032
-517,131	-135,130	0,065	-0,006
-516,116	62,265	0,063	0,046
-515,102	-100,378	-0,170	0,030
-514,087	51,766	-0,056	0,038
-513,072	-200,000	0,016	0,071
-512,058	311,804	-0,052	-0,071
-511,043	204,886	0,032	0,036
-510,029	44,111	0,183	0,121
-509,014	141,411	-0,117	0,112
-507,999	-200,000	-0,018	0,064
-506,985	-200,000	-0,042	-0,138
-505,970	508,137	-0,050	-0,085
-504,956	-200,000	0,021	-0,184
-503,941	59,080	-0,094	0,067
-502,926	-44,301	0,144	0,052
-501,912	-12,061	0,135	-0,064
-500,897	-129,985	-0,030	-0,003
-499,883	-200,000	0,030	-0,135
-498,868	-122,016	-0,087	-0,010
-497,853	331,520	-0,020	-0,028
-496,839	-200,000	-0,009	-0,030
-495,824	134,664	0,066	0,061
-494,810	-200,000	-0,032	0,105
-493,795	800,000	-0,012	-0,026
-492,781	-65,951	0,096	0,027
-491,766	176,673	-0,068	-0,072
-490,751	270,703	-0,053	0,067
-489,737	-121,140	-0,187	0,022
-488,722	-200,000	0,026	-0,162
-487,708	-200,000	-0,006	-0,172
-486,693	8,407	0,194	0,105
-485,678	800,000	-0,043	0,100
-484,664	-15,804	-0,119	0,054
-483,649	-85,549	-0,047	-0,010
-482,635	-93,329	-0,056	0,011
-481,620	54,899	0,057	-0,040
-480,605	289,008	0,065	0,085
-479,591	204,932	0,030	0,033
-478,576	124,090	0,040	0,037
-477,562	119,505	-0,043	-0,039
-476,547	42,861	-0,052	0,034
-475,532	-200,000	-0,024	-0,115
-474,518	-69,515	0,139	0,038
-473,503	330,114	0,053	0,074
-472,489	99,271	0,020	-0,017
-471,474	-141,598	-0,016	-0,001
-470,459	-200,000	-0,001	0,080
-469,445	793,182	-0,059	-0,117
-468,430	17,573	-0,035	-0,020
-467,416	-27,411	0,217	0,090
-466,401	-124,042	0,142	0,016
-465,386	800,000	0,054	0,147
-464,372	-67,669	0,109	-0,030
-463,357	800,000	0,010	-0,022
-462,343	636,705	-0,023	0,042
-461,328	446,775	-0,057	-0,090
-460,313	-50,239	0,036	-0,012
-459,299	-200,000	0,019	-0,111
-458,284	-200,000	-0,021	0,091
-457,270	313,685	0,043	0,058
-456,255	-132,148	0,087	-0,008
-455,241	54,160	-0,099	-0,069
-454,226	200,343	0,063	-0,069
-453,211	320,812	0,017	0,023
-452,197	-200,000	0,001	0,029
-451,182	149,779	-0,044	0,043
-450,168	777,723	-0,044	-0,086
-449,153	-200,000	-0,004	-0,036
-448,138	-112,713	0,082	0,012
-447,124	93,846	-0,035	0,029
-446,109	-69,142	-0,063	0,017
-445,095	-200,000	-0,001	0,086
-444,080	-68,976	-0,105	0,029
-443,065	107,839	0,047	0,040
-442,051	-111,555	-0,078	0,011
-441,036	-40,663	-0,045	-0,017
-440,022	-200,000	0,019	-0,152
-439,007	-26,674	-0,189	-0,079
-437,992	229,712	0,057	0,067
-436,978	-200,000	0,009	-0,036
-435,963	-32,416	-0,090	0,036
-434,949	-75,282	0,052	-0,013
-433,934	-73,655	-0,048	-0,012
-432,919	52,142	-0,040	0,027
-431,905	39,184	-0,081	0,052
-430,890	-61,259	0,150	0,045
-429,876	800,000	-0,024	-0,050
-428,861	752,441	-0,042	0,081
-427,846	-68,239	0,095	0,026
-426,832	-200,000	0,006	-0,045
-425,817	-200,000	-0,000	0,039
-424,803	-200,000	0,010	-0,136
-423,788	27,727	0,069	-0,042
-422,773	-124,372	-0,126	0,014
-421,759	204,464	0,095	0,106
-420,744	108,296	0,058	-0,050
-419,730	800,000	-0,034	-0,099
-418,715	-160,173	-0,101	-0,004
-417,701	-28,917	-0,123	-0,050
-416,686	178,550	0,020	-0,021
-415,671	387,986	0,102	0,152
-414,657	-98,545	-0,075	-0,014
-413,642	-81,863	-0,105	-0,025
-412,628	800,000	-0,047	0,103
-411,613	-200,000	0,000	-0,070
-410,598	-200,000	-0,015	-0,094
-409,584	-48,604	-0,148	-0,051
-408,569	194,294	-0,076	-0,082
-407,555	-200,000	0,028	-0,117
-406,540	-200,000	0,004	0,024
-405,525	121,331	0,071	-0,063
-404,511	-200,000	-0,006	0,102
-403,496	-19,850	-0,135	-0,060
-402,482	34,251	-0,041	-0,026
-401,467	-67,962	0,091	-0,025
-400,452	279,248	-0,058	0,075
-399,438	-200,000	-0,022	-0,074
-398,423	800,000	-0,061	0,167
-397,409	272,947	-0,045	-0,057
-396,394	-176,867	0,074	0,001
-395,379	-200,000	-0,017	-0,082
-394,365	-200,000	0,001	-0,077
-393,350	800,000	-0,064	0,191
-392,336	-187,479	0,114	-0,001
-391,321	-55,981	0,026	-0,008
-390,306	-200,000	-0,007	-0,063
-389,292	28,175	0,105	-0,064
-388,277	800,000	-0,039	-0,083
-387,263	-200,000	0,005	0,125
-386,248	584,309	-0,067	0,119
-385,233	22,790	0,096	0,056
-384,219	170,360	0,028	-0,029
-383,204	-200,000	-0,013	-0,074
-382,190	330,787	-0,069	-0,096
-381,175	501,642	-0,089	-0,147
-380,160	15,772	0,072	-0,040
-379,146	250,392	0,071	0,086
-378,131	-11,507	0,163	0,076
-377,117	202,327	0,028	0,031
-376,102	703,640	0,076	0,144
-375,088	279,469	-0,048	-0,062
-374,073	-200,000	-0,010	-0,220
-373,058	-200,000	0,015	0,135
-372,044	611,297	0,040	0,073
-371,029	-97,206	0,112	-0,021
-370,015	160,404	0,040	-0,040
-369,000	-164,610	0,031	-0,001
-367,985	-200,000	-0,005	-0,031
-366,971	12,581	0,019	-0,010
-365,956	162,869	0,009	0,009
-364,942	236,706	-0,064	0,076
-363,927	42,660	0,234	0,152
-362,912	-200,000	-0,025	0,198
-361,898	22,794	-0,202	-0,118
-360,883	-93,992	0,115	-0,022
-359,869	-68,785	-0,061	0,017
-358,854	800,000	-0,041	0,129
-357,839	-18,614	0,117	0,052
-356,825	-108,475	0,158	-0,024
-355,810	-200,000	0,030	0,125
-354,796	-200,000	-0,005	0,031
-353,781	800,000	0,055	0,113
-352,766	-200,000	-0,021	0,143
-351,752	-155,960	0,048	-0,002
-350,737	-102,781	-0,106	-0,018
-349,723	22,395	0,027	0,016
-348,708	177,497	0,054	0,056
-347,693	800,000	-0,005	0,013
-346,679	-30,834	-0,046	-0,019
-345,664	535,866	-0,047	0,080
-344,650	81,684	0,027	0,021
-343,635	24,643	0,171	0,101
-342,620	-27,925	0,079	-0,033
-341,606	14,023	-0,032	-0,018
-340,591	103,856	-0,089	-0,075
-339,577	221,433	-0,064	-0,074
-338,562	154,976	-0,094	-0,092
-337,548	57,678	-0,024	-0,017
-336,533	-200,000	0,001	0,025
-335,518	185,452	-0,042	0,045
-334,504	-110,891	-0,059	-0,009
-333,489	-47,867	0,083	0,029
-332,475	163,858	0,121	0,122
-331,460	-142,591	-0,080	0,006
-330,445	-154,756	0,100	-0,005
-329,431	34,571	0,075	-0,047
-328,416	278,506	0,073	0,093
-327,402	-116,247	0,022	0,003
-326,387	-96,879	-0,061	-0,011
-325,372	508,195	0,063	-0,105
-324,358	-27,001	-0,159	-0,066
-323,343	-90,040	-0,117	-0,024
-322,329	800,000	0,022	-0,052
-321,314	-200,000	-0,010	0,095
-320,299	800,000	-0,018	0,053
-319,285	800,000	0,035	0,075
-318,270	-113,855	-0,179	0,025
-317,256	-200,000	-0,015	-0,073
-316,241	602,176	-0,044	0,079
-315,226	-46,141	0,025	-0,009
-314,212	-158,757	0,083	0,003
-313,197	-100,933	0,070	0,012
-312,183	46,568	0,093	-0,062
-311,168	69,785	-0,022	-0,016
-310,153	558,715	0,093	-0,161
-309,139	-200,000	0,021	0,148
-308,124	49,050	-0,132	-0,088
-307,110	-109,760	0,111	-0,017
-306,095	-200,000	-0,001	0,012
-305,080	163,861	-0,067	-0,068
-304,066	-200,000	0,007	0,201
-303,051	-80,519	-0,171	-0,040
-302,037	-200,000	0,029	0,129
-301,022	410,470	0,049	0,074
-300,008	-200,000	0,043	0,184
-298,993	355,515	0,115	0,165
-297,978	800,000	0,016	0,045
-296,964	-75,506	0,079	0,020
-295,949	800,000	-0,065	-0,148
-294,935	-37,926	-0,049	0,018
-293,920	-120,049	0,072	0,009
-292,905	189,861	-0,048	0,052
-291,891	800,000	0,022	-0,049
-290,876	800,000	-0,009	-0,019
-289,862	-200,000	-0,016	-0,113
-288,847	-9,811	-0,147	0,069
-287,832	-49,444	-0,156	0,053
-286,818	-175,527	-0,136	-0,003
-285,803	800,000	0,055	0,121
-284,789	196,669	-0,025	-0,027
-283,774	-101,647	0,084	-0,014
-282,759	69,304	-0,026	0,019
-281,745	60,612	-0,038	-0,027
-280,730	-97,452	0,147	0,027
-279,716	-99,419	-0,075	-0,013
-278,701	318,534	0,027	-0,036
-277,686	800,000	-0,043	-0,114
-276,672	-77,153	-0,054	-0,013
-275,657	-80,416	0,097	0,023
-274,643	146,485	-0,068	-0,065
-273,628	248,417	-0,042	-0,051
-272,613	-122,514	-0,123	0,014
-271,599	184,595	0,016	-0,017
-270,584	-98,433	0,127	-0,023
-269,570	-64,612	-0,089	-0,026
-268,555	800,000	0,066	-0,142
-267,540	48,904	-0,043	0,029
-266,526	800,000	-0,066	-0,152
-265,511	800,000	-0,013	-0,032
-264,497	8,325	-0,073	0,039
-263,482	-200,000	-0,012	0,093
-262,467	-53,277	-0,113	0,037
-261,453	335,005	0,052	0,072
-260,438	-200,000	-0,004	-0,124
-259,424	383,697	-0,048	-0,071
-258,409	-166,889	-0,067	-0,002
-257,395	329,093	0,094	-0,129
-256,380	-200,000	-0,022	0,080
-255,365	458,059	0,064	0,102
-254,351	-7,067	0,053	-0,025
-253,336	119,699	0,149	-0,132
-252,322	705,018	0,033	0,062
-251,307	-200,000	-0,000	-0,089
-250,292	550,555	0,036	0,062
-249,278	358,683	0,154	0,220
-248,263	-36,321	-0,103	0,039
-247,249	216,237	-0,049	0,056
-246,234	-3,032	-0,038	-0,019
-245,219	-200,000	0,017	-0,176
-244,205	292,759	0,079	-0,103
-243,190	-76,948	0,082	0,020
-242,176	-200,000	0,108	0,000
-241,161	-200,000	-0,004	0,033
-240,146	132,686	0,135	0,124
-239,132	53,888	0,040	-0,027
-238,117	-200,000	-0,023	0,082
-237,103	-200,000	0,002	-0,075
-236,088	-62,555	-0,069	0,020
-235,073	8,932	0,073	0,039
-234,059	800,000	-0,014	0,043
-233,044	15,271	0,088	-0,049
-232,030	388,148	0,085	0,126
-231,015	-83,482	0,096	-0,022
-230,000	258,909	-0,065	-0,080
-228,986	-33,311	-0,119	-0,047
-227,971	-175,605	-0,076	0,001
-226,957	193,413	0,043	-0,046
-225,942	74,548	0,065	0,048
-224,927	194,018	-0,050	0,054
-223,913	257,345	-0,007	-0,008
-222,898	271,736	-0,106	-0,133
-221,884	-150,350	0,112	0,006
-220,869	-179,778	0,023	-0,000
-219,855	-103,203	-0,122	-0,020
-218,840	-200,000	-0,002	-0,013
-217,825	264,984	0,110	0,136
-216,811	-105,105	-0,135	0,022
-215,796	800,000	-0,018	0,046
-214,782	-5,853	-0,060	0,029
-213,767	800,000	0,028	-0,060
-212,752	685,618	0,068	0,126
-211,738	5,046	-0,055	0,029
-210,723	-5,284	-0,155	-0,075
-209,709	-123,239	-0,052	0,006
-208,694	173,928	-0,086	0,088
-207,679	800,000	-0,063	-0,141
-206,665	304,385	0,075	-0,099
-205,650	-5,799	-0,145	-0,070
-204,636	142,383	-0,071	0,067
-203,621	97,527	-0,065	0,053
-202,606	87,632	-0,089	0,070
-201,592	800,000	-0,033	-0,097
-200,577	363,689	-0,047	-0,067
-199,563	-30,582	0,133	-0,053
-198,548	189,722	0,073	-0,078
-197,533	708,023	-0,029	-0,055
-196,519	-41,505	0,130	0,047
-195,504	-200,000	-0,010	-0,113
-194,490	354,947	-0,102	-0,145
-193,475	-91,161	-0,108	0,022
-192,460	-200,000	0,030	0,187
-191,446	80,024	0,073	-0,056
-190,431	414,299	0,053	0,081
-189,417	-200,000	-0,006	0,175
-188,402	-47,521	-0,041	0,014
-187,387	11,275	0,102	0,056
-186,373	-200,000	-0,018	0,066
-185,358	-43,945	0,075	0,027
-184,344	-52,583	0,104	-0,034
-183,329	116,322	-0,070	0,061
-182,315	-200,000	-0,025	0,187
-181,300	-200,000	0,001	0,084
-180,285	247,376	0,093	0,112
-179,271	-200,000	0,018	-0,071
-178,256	401,500	-0,065	-0,097
-177,242	-12,255	-0,103	0,048
-176,227	-200,000	0,035	0,198
-175,212	800,000	-0,031	0,083
-174,198	125,924	-0,107	0,097
-173,183	143,376	0,055	-0,052
-172,169	800,000	-0,034	-0,075
-171,154	117,248	-0,140	-0,123
-170,139	372,097	-0,026	0,037
-169,125	-200,000	-0,005	0,166
-168,110	535,176	0,106	0,179
-167,096	-200,000	0,003	-0,015
-166,081	119,049	0,086	-0,076
-165,066	10,084	-0,091	0,049
-164,052	-104,644	0,105	0,017
-163,037	-120,170	-0,085	-0,010
-162,023	-200,000	-0,030	0,172
-161,008	87,471	0,131	-0,103
-159,993	515,364	-0,033	-0,055
-158,979	-200,000	0,003	0,082
-157,964	-200,000	-0,017	-0,070
-156,950	199,093	0,099	-0,108
-155,935	800,000	-0,019	-0,051
-154,920	800,000	-0,014	-0,031
-153,906	-200,000	-0,014	0,109
-152,891	38,789	-0,091	0,057
-151,877	-28,029	-0,030	-0,012
-150,862	196,395	0,007	0,008
-149,847	800,000	0,063	-0,151
-148,833	-200,000	0,024	0,083
-147,818	-200,000	-0,004	-0,051
-146,804	800,000	0,064	-0,156
-145,789	-94,349	-0,191	0,037
-144,775	-91,024	0,060	-0,012
-143,760	800,000	0,044	0,108
-142,745	213,467	-0,038	-0,042
-141,731	-200,000	0,021	0,111
-140,716	-115,988	0,176	0,023
-139,702	800,000	-0,014	-0,030
-138,687	800,000	0,008	0,022
-137,672	183,321	-0,050	0,053
-136,658	324,424	-0,026	-0,035
-135,643	-200,000	0,023	0,162
-134,629	275,717	-0,018	-0,023
-133,614	101,346	0,172	0,142
-132,599	-200,000	0,010	0,132
-131,585	-5,554	-0,076	0,037
-130,570	-92,958	0,092	-0,018
-129,556	800,000	-0,098	-0,209
-128,541	134,844	-0,044	-0,040
-127,526	-200,000	-0,003	-0,067
-126,512	-40,813	0,052	0,019
-125,497	-14,989	0,100	0,046
-124,483	-200,000	0,004	0,018
-123,468	746,961	0,009	0,017
-122,453	-200,000	-0,084	-0,285
-121,439	-200,000	0,007	0,057
-120,424	290,292	-0,067	-0,087
-119,410	233,873	0,040	-0,046
-118,395	-200,000	0,002	-0,074
-117,380	135,536	-0,043	-0,039
-116,366	-200,000	-0,029	0,156
-115,351	66,332	0,050	0,036
-114,337	-31,038	-0,072	0,029
-113,322	-200,000	0,010	-0,130
-112,307	-200,000	-0,016	0,054
-111,293	-136,764	0,083	-0,007
-110,278	800,000	-0,034	-0,068
-109,264	800,000	-0,038	0,091
-108,249	-107,675	-0,040	0,006
-107,234	800,000	0,021	-0,063
-106,220	-124,079	0,091	-0,010
-105,205	-200,000	-0,033	-0,181
-104,191	-200,000	-0,007	0,054
-103,176	-51,993	-0,057	0,019
-102,162	800,000	0,060	-0,126
-101,147	-85,624	-0,053	-0,012
-100,132	-63,593	-0,056	0,016
-99,118	390,901	0,021	0,031
-98,103	-200,000	-0,001	0,129
-97,089	-200,000	-0,032	0,189
-96,074	800,000	-0,018	-0,051
-95,059	800,000	-0,024	-0,052
-94,045	800,000	-0,070	0,164
-93,030	235,910	-0,072	-0,084
-92,016	-200,000	0,008	-0,129
-91,001	800,000	-0,029	-0,062
-89,986	516,942	0,007	0,012
-88,972	68,724	-0,087	0,063
-87,957	43,745	0,011	-0,007
-86,943	778,693	-0,045	0,087
-85,928	-200,000	0,005	-0,107
-84,913	136,180	0,070	-0,065
-83,899	-200,000	0,011	-0,045
-82,884	-27,903	0,022	0,009
-81,870	-47,771	0,082	-0,028
-80,855	-200,000	0,004	0,097
-79,840	-200,000	-0,006	0,128
-78,826	25,089	0,047	0,027
-77,811	162,906	-0,030	0,030
-76,797	800,000	-0,053	0,108
-75,782	123,830	0,070	0,062
-74,767	-82,125	0,135	0,031
-73,753	14,409	-0,112	-0,062
-72,738	-108,815	-0,056	-0,008
-71,724	-17,619	-0,070	-0,031
-70,709	-200,000	-0,019	-0,143
-69,694	-200,000	0,015	-0,073
-68,680	-124,574	0,063	-0,007
-67,665	-200,000	0,008	0,058
-66,651	137,696	0,014	-0,013
-65,636	-85,387	-0,095	-0,021
-64,622	331,285	-0,076	-0,104
-63,607	10,600	-0,065	0,035
-62,592	800,000	-0,021	-0,061
-61,578	-49,251	-0,086	0,029
-60,563	-82,700	-0,142	0,032
-59,549	-200,000	-0,025	0,248
-58,534	-16,482	-1,700	-0,760
-57,519	381,292	-1,363	-1,986
-56,505	-200,000	-0,512	-4,624
-55,490	292,083	0,880	1,138
-54,476	800,000	4,934	11,580
-53,461	-200,000	19,260	320,457
-52,446	-200,000	741,543	2334,210
-51,432	572,772	1655,886	2868,161
-50,417	78,097	1671,188	1260,802
-49,403	21,238	1544,189	885,305
-48,388	15,139	1466,408	811,056
-47,373	17,964	1456,804	819,364
-46,359	16,651	1446,595	807,292
-45,344	13,379	1441,849	788,939
-44,330	13,264	1440,138	787,422
-43,315	13,292	1438,307	786,522
-42,300	13,315	1436,649	785,694
-41,286	13,329	1435,488	785,096
-40,271	13,252	1434,171	783,978
-39,257	13,240	1432,941	783,219
-38,242	13,355	1431,386	782,884
-37,227	13,333	1430,239	782,123
-36,213	13,308	1428,958	781,273
-35,198	13,364	1427,621	780,773
-34,184	13,386	1426,851	780,425
-33,169	13,286	1425,628	779,252
-32,154	13,412	1424,278	779,081
-31,140	13,354	1423,101	778,130
-30,125	13,366	1422,014	777,564
-29,111	13,304	1420,909	776,636
-28,096	13,365	1419,702	776,233
-27,082	13,285	1418,719	775,288
-26,067	13,283	1417,711	774,697
-25,052	13,283	1416,494	773,998
-24,038	13,283	1415,528	773,444
-23,023	13,243	1414,622	772,730
-22,009	13,219	1413,621	772,035
-20,994	13,208	1412,588	771,390
-19,979	13,192	1411,850	770,883
-18,965	13,204	1410,833	770,352
-17,950	13,232	1409,801	769,891
-16,936	13,188	1408,981	769,206
-15,921	13,196	1407,771	768,553
-14,906	13,214	1406,811	768,080
-13,892	13,207	1406,009	767,581
-12,877	13,172	1405,217	766,956
-11,863	13,198	1404,237	766,510
-10,848	13,158	1403,339	765,804
-9,833	13,126	1402,569	765,202
-8,819	13,111	1401,736	764,646
-7,804	13,063	1400,811	763,890
-6,790	13,100	1399,704	763,428
-5,775	13,089	1398,717	762,807
-4,760	13,126	1397,578	762,328
-3,746	13,057	1396,784	761,543
-2,731	13,051	1396,090	761,111
-1,717	13,076	1395,038	760,622
-0,702	12,992	1393,591	759,411
0,313	16,997	1310,024	732,380
1,327	33,585	703,506	431,611
2,342	52,147	123,138	82,891
3,356	4,758	16,611	8,607
4,371	10,798	3,317	1,785
5,386	48,276	0,491	0,325
6,400	-200,000	0,006	0,316
7,415	52,882	-0,214	-0,145
8,429	23,313	-0,256	-0,148
9,444	112,666	-0,323	-0,276
10,459	579,961	-0,128	-0,222
11,473	36,903	-0,301	-0,188
12,488	-22,374	-0,350	-0,149
13,502	206,149	-0,217	-0,239
14,517	229,368	-0,339	-0,392
15,531	33,241	-0,383	-0,234
16,546	-22,828	-0,392	-0,166
17,561	228,666	-0,311	-0,358
18,575	317,168	-0,161	-0,216
19,590	141,480	-0,202	-0,189
20,604	-74,762	-0,317	-0,080
21,619	207,965	-0,326	-0,360
22,634	19,373	-0,542	-0,307
23,648	232,952	-0,327	-0,380
24,663	39,415	-0,399	-0,252
25,677	92,286	-0,314	-0,250
26,692	118,407	-0,355	-0,309
27,707	4,882	-0,375	-0,194
28,721	88,946	-0,394	-0,309
29,736	97,300	-0,402	-0,325
30,750	9,535	-0,429	-0,229
31,765	161,525	-0,378	-0,374
32,780	223,536	-0,356	-0,405
33,794	68,327	-0,396	-0,286
34,809	161,434	-0,346	-0,341
35,823	79,227	-0,313	-0,236
36,838	0,774	-0,512	-0,258
37,853	84,292	-0,347	-0,267
38,867	187,750	-0,349	-0,368
39,882	14,525	-0,448	-0,246
40,896	13,928	-0,426	-0,233
41,911	-35,285	-0,440	-0,168
42,926	34,851	-0,285	-0,175
43,940	85,822	-0,347	-0,268
44,955	74,333	-0,437	-0,323
45,969	239,244	-0,221	-0,260
46,984	102,456	-0,340	-0,280
47,999	152,791	-0,334	-0,322
49,013	172,501	-0,305	-0,310
50,028	-2,952	-0,360	-0,177
51,042	-4,531	-0,439	-0,213
52,057	-12,780	-0,389	-0,178
53,071	55,414	-0,290	-0,197
54,086	56,693	-0,346	-0,237
55,101	44,111	-0,258	-0,167
56,115	36,609	-0,362	-0,224
57,130	34,681	-0,337	-0,207
58,144	44,102	-0,423	-0,272
59,159	11,733	-0,519	-0,280
60,174	24,837	-0,327	-0,190
61,188	-16,623	-0,416	-0,184
62,203	116,831	-0,301	-0,260
63,217	186,831	-0,229	-0,240
64,232	46,848	-0,336	-0,219
65,247	64,691	-0,425	-0,301
66,261	53,492	-0,287	-0,193
67,276	66,702	-0,396	-0,283
68,290	-28,096	-0,396	-0,160
69,305	-28,135	-0,318	-0,129
70,320	-55,617	-0,351	-0,110
71,334	-159,133	-0,347	-0,014
72,349	9,228	-0,336	-0,178
73,363	153,479	-0,242	-0,233
74,378	91,518	-0,426	-0,337
75,393	346,210	-0,205	-0,284
76,407	109,393	-0,301	-0,253
77,422	101,374	-0,182	-0,149
78,436	-47,892	-0,390	-0,132
79,451	149,666	-0,321	-0,306
80,466	112,588	-0,254	-0,216
81,480	256,465	-0,201	-0,243
82,495	187,488	-0,351	-0,369
83,509	208,656	-0,268	-0,295
84,524	-18,464	-0,373	-0,163
85,539	29,842	-0,319	-0,190
86,553	173,154	-0,222	-0,225
87,568	-16,645	-0,343	-0,152
88,582	17,683	-0,395	-0,220
89,597	422,634	-0,191	-0,289
90,611	235,925	-0,244	-0,284
91,626	-30,837	-0,311	-0,123
92,641	18,172	-0,391	-0,218
93,655	55,751	-0,260	-0,176
94,670	233,681	-0,351	-0,406
95,684	143,328	-0,337	-0,315
96,699	62,772	-0,242	-0,170
97,714	74,864	-0,240	-0,177
98,728	-16,197	-0,277	-0,123
99,743	50,349	-0,313	-0,207
100,757	18,098	-0,218	-0,121
101,772	-35,485	-0,339	-0,129
102,787	231,625	-0,243	-0,280
103,801	134,821	-0,286	-0,260
104,816	156,402	-0,296	-0,287
105,830	85,199	-0,268	-0,206
106,845	13,817	-0,196	-0,106
107,860	135,770	-0,180	-0,164
108,874	-37,970	-0,333	-0,123
109,889	4,159	-0,284	-0,145
110,903	80,212	-0,316	-0,238
111,918	68,687	-0,209	-0,150
112,933	37,563	-0,223	-0,138
113,947	19,427	-0,251	-0,141
114,962	8,073	-0,245	-0,128
115,976	-66,273	-0,275	-0,076
116,991	300,330	-0,145	-0,187
118,006	215,791	-0,307	-0,342
119,020	30,024	-0,304	-0,181
120,035	102,392	-0,353	-0,288
121,049	-99,901	-0,324	-0,056
122,064	-15,606	-0,117	-0,052
123,079	-83,591	-0,249	-0,055
124,093	138,352	-0,196	-0,180
125,108	52,025	-0,188	-0,125
126,122	-56,603	-0,250	0,077
127,137	-116,391	-0,217	-0,028
128,151	34,270	-0,246	-0,150
129,166	78,129	-0,259	-0,193
130,181	136,850	-0,213	-0,194
131,195	17,105	-0,285	-0,158
132,210	-39,320	-0,368	-0,134
133,224	419,739	-0,204	-0,306
134,239	108,736	-0,306	-0,255
135,254	-126,235	-0,150	-0,016
136,268	-63,787	-0,202	-0,058
137,283	-96,644	-0,227	0,041
138,297	206,925	-0,273	-0,298
139,312	2,767	-0,423	-0,214
140,327	127,742	-0,282	-0,251
141,341	-4,824	-0,239	-0,115
142,356	147,466	-0,189	-0,178
143,370	75,733	-0,138	-0,102
144,385	4,305	-0,265	-0,135
145,400	-110,058	-0,321	-0,046
146,414	143,261	-0,237	-0,220
147,429	-31,265	-0,235	-0,092
148,443	125,012	-0,266	-0,234
149,458	21,672	-0,256	-0,145
150,473	244,884	-0,146	-0,171
151,487	67,083	-0,273	-0,194
152,502	89,771	-0,188	-0,146
153,516	33,416	-0,271	-0,164
154,531	31,824	-0,338	-0,203
155,546	53,036	-0,167	-0,112
156,560	104,400	-0,249	-0,205
157,575	-48,178	-0,269	-0,090
158,589	27,398	-0,223	-0,131
159,604	-7,006	-0,258	-0,122
160,619	-18,432	-0,270	-0,117
161,633	310,553	-0,177	-0,232
162,648	76,214	-0,266	-0,196
163,662	-99,845	-0,146	-0,025
164,677	-200,000	-0,011	-0,052
165,692	800,000	-0,077	-0,180
166,706	103,989	-0,210	-0,172
167,721	-17,776	-0,261	-0,114
168,735	43,637	-0,276	-0,176
169,750	468,152	-0,118	-0,186
170,764	-37,077	-0,118	-0,044
171,779	175,605	-0,147	-0,148
172,794	40,566	-0,285	-0,178
173,808	-34,743	-0,265	-0,100
174,823	-84,745	-0,352	-0,077
175,837	126,916	-0,347	-0,306
176,852	52,105	-0,287	-0,190
177,867	272,009	-0,125	-0,154
178,881	79,228	-0,237	-0,177
179,896	8,821	-0,340	-0,178
180,910	-28,295	-0,227	-0,091
181,925	407,870	-0,191	-0,282
182,940	230,715	-0,172	-0,196
183,954	60,214	-0,266	-0,183
184,969	290,515	-0,152	-0,193
185,983	-97,505	-0,232	0,042
186,998	-51,227	-0,296	-0,096
188,013	22,642	-0,303	-0,172
189,027	422,615	-0,161	-0,242
190,042	-13,882	-0,265	-0,119
191,056	-76,389	-0,478	-0,116
192,071	34,508	-0,248	-0,150
193,086	56,092	-0,246	-0,166
194,100	-48,014	-0,223	-0,075
195,115	297,869	-0,175	-0,224
196,129	9,873	-0,351	-0,185
197,144	268,649	-0,250	-0,306
198,159	115,076	-0,276	-0,234
199,173	-68,447	-0,366	-0,098
200,188	-125,454	-0,211	0,022
201,202	113,135	-0,176	-0,149
202,217	26,510	-0,269	-0,156
203,232	0,260	-0,288	-0,143
204,246	22,913	-0,271	-0,154
205,261	439,029	-0,150	-0,228
206,275	451,477	-0,195	-0,300
207,290	437,551	-0,162	-0,245
208,304	-11,341	-0,259	-0,118
209,319	257,652	-0,130	-0,155
210,334	47,174	-0,157	-0,101
211,348	138,554	-0,203	-0,185
212,363	124,721	-0,259	-0,227
213,377	800,000	-0,093	-0,227
214,392	-38,799	-0,284	-0,104
215,407	211,125	-0,125	-0,137
216,421	-141,062	-0,183	-0,013
217,436	-49,596	-0,254	-0,083
218,450	95,410	-0,207	-0,164
219,465	118,545	-0,236	-0,202
220,480	800,000	-0,149	-0,318
221,494	76,323	-0,227	-0,167
222,509	1,849	-0,066	-0,033
223,523	-27,709	-0,116	-0,046
224,538	735,405	-0,122	-0,227
225,553	137,209	-0,220	-0,200
226,567	105,922	-0,286	-0,235
227,582	67,700	-0,182	-0,129
228,596	193,100	-0,148	-0,155
229,611	-200,000	-0,041	-0,162
230,626	-200,000	-0,049	-0,168
231,640	212,034	-0,178	-0,194
232,655	86,539	-0,156	-0,119
233,669	166,071	-0,192	-0,189
234,684	119,234	-0,174	-0,149
235,699	421,834	-0,198	-0,296
236,713	250,506	-0,169	-0,200
237,728	800,000	-0,111	-0,225
238,742	391,364	-0,194	-0,280
239,757	800,000	-0,102	-0,207
240,772	9,787	-0,286	-0,150
241,786	312,348	-0,192	-0,250
242,801	-200,000	-0,090	-0,348
243,815	-129,745	-0,121	-0,011
244,830	800,000	-0,032	0,064
245,844	24,524	-0,218	-0,125
246,859	266,179	-0,196	-0,238
247,874	800,000	-0,107	-0,263
248,888	183,473	-0,133	-0,137
249,903	197,914	-0,270	-0,286
250,917	103,605	-0,143	-0,116
251,932	389,995	-0,067	-0,096
252,947	578,029	-0,053	-0,090
253,961	2,583	-0,153	-0,076
254,976	263,912	-0,183	-0,221
255,990	-34,032	-0,202	-0,076
257,005	-67,593	-0,102	0,027
258,020	-200,000	-0,009	-0,146
259,034	566,933	-0,121	-0,204
260,049	62,797	-0,208	-0,144
261,063	141,003	-0,127	-0,116
262,078	143,818	-0,203	-0,187
263,093	800,000	-0,107	-0,281
264,107	300,731	-0,171	-0,218
265,122	40,978	-0,160	-0,100
266,136	333,196	-0,134	-0,180
267,151	65,729	-0,113	-0,079
268,166	332,996	-0,109	-0,145
269,180	-128,525	-0,205	-0,020
270,195	118,159	-0,118	-0,100
271,209	14,018	-0,170	-0,091
272,224	800,000	-0,092	-0,277
273,239	140,299	-0,147	-0,134
274,253	-200,000	-0,050	-0,215
275,268	72,889	-0,220	-0,158
276,282	-200,000	-0,045	-0,166
277,297	8,380	-0,204	-0,106
278,312	84,143	-0,115	-0,087
279,326	132,136	-0,177	-0,158
280,341	-200,000	-0,051	-0,170
281,355	-71,084	-0,277	-0,071
282,370	61,814	-0,154	-0,106
283,384	167,269	-0,089	-0,087
284,399	190,509	-0,171	-0,177
285,414	-62,075	-0,192	-0,055
286,428	-33,460	-0,215	-0,082
287,443	272,972	-0,133	-0,162
288,457	103,635	-0,204	-0,165
289,472	-29,179	-0,227	-0,089
290,487	92,746	-0,118	-0,092
291,501	223,706	-0,129	-0,144
292,516	-52,991	-0,316	-0,100
293,530	36,952	-0,113	-0,069
294,545	89,247	-0,172	-0,132
295,560	289,844	-0,059	-0,074
296,574	800,000	-0,125	-0,287
297,589	179,497	-0,162	-0,164
298,603	458,464	-0,176	-0,271
299,618	298,705	-0,220	-0,279
300,633	186,013	-0,129	-0,133
301,647	17,822	-0,120	-0,066
302,662	158,364	-0,134	-0,128
303,676	-38,965	-0,286	-0,103
304,691	-36,127	-0,207	-0,077
305,706	180,451	-0,134	-0,136
306,720	113,757	-0,270	-0,226
307,735	22,089	-0,201	-0,113
308,749	-58,740	-0,217	-0,064
309,764	18,917	-0,154	-0,085
310,779	430,137	-0,066	-0,099
311,793	800,000	-0,044	-0,109
312,808	-74,160	-0,187	-0,046
313,822	409,546	-0,141	-0,207
314,837	102,971	-0,130	-0,105
315,852	-51,877	-0,059	-0,019
316,866	28,662	-0,128	-0,074
317,881	-101,066	-0,215	-0,036
318,895	102,489	-0,177	-0,143
319,910	800,000	-0,093	-0,183
320,925	118,588	-0,198	-0,168
321,939	800,000	-0,130	-0,295
322,954	-109,918	-0,173	-0,025
323,968	800,000	-0,065	-0,130
324,983	-24,619	-0,123	-0,050
325,997	69,660	-0,192	-0,136
327,012	-126,031	-0,161	-0,016
328,027	-125,584	-0,162	0,017
329,041	159,230	-0,126	-0,120
330,056	176,989	-0,154	-0,154
331,070	-7,342	-0,230	-0,107
332,085	216,308	-0,118	-0,129
333,100	37,973	-0,172	-0,105
334,114	19,812	-0,103	-0,057
335,129	166,800	-0,125	-0,122
336,143	218,652	-0,172	-0,189
337,158	-106,913	-0,182	-0,027
338,173	800,000	-0,087	-0,179
339,187	127,492	-0,110	-0,096
340,202	-55,816	-0,184	-0,056
341,216	-68,411	-0,164	-0,043
342,231	64,929	-0,170	-0,118
343,246	0,075	-0,161	-0,078
344,260	21,888	-0,069	-0,038
345,275	-60,418	-0,159	-0,046
346,289	-122,292	-0,176	-0,020
347,304	333,514	-0,153	-0,204
348,319	224,379	-0,084	-0,094
349,333	526,018	-0,119	-0,193
350,348	110,773	-0,151	-0,125
351,362	-200,000	-0,056	-0,191
352,377	226,581	-0,155	-0,173
353,392	-200,000	-0,193	0,000
354,406	-100,413	-0,093	0,016
355,421	211,613	1311,686	1418,060
356,435	162,953	1472,044	1418,556
