DTS Sentinel unit serial number:	SN410029Multiplexer serial number:	ORYXHardware model number:	OX2-SRSoftware version number:	ORYX F/W v4,00 Oryx Data Collector v3.7.2.0data status	okinstallation	B3 Nyhavnadifferential loss correction	single-endedforward channel	channel 1reverse channel	N/Adate	2023/12/04time	03:57:30forward acquisition time	300,00reverse acquisition time	0,00gamma	499,1914k internal	0,3205k external	0,3205temperature offset calibration	1,0000default loss term (dB/km)	0,3820temperature slope calibration	1,0000multiplexer offset coefficient	1,0000multiplexer slope coefficient	1,0000fibre end	0,00T internal ref (°C)	12,03T ext. ref 1 (°C)	-3,09T ext. ref 2 (°C)	-3,12length (m)	temperature (°C)	Stokes	anti-Stokes-744,400	-11,704	-0,200	-0,095
-743,385	544,033	0,102	0,178
-742,371	404,212	-0,123	-0,189
-741,356	-200,000	0,049	0,271
-740,342	277,342	-0,132	-0,171
-739,327	-200,000	0,021	0,178
-738,312	114,483	-0,209	-0,185
-737,298	-200,000	-0,061	0,203
-736,283	-39,603	-0,282	-0,107
-735,269	-200,000	0,064	0,294
-734,254	-75,912	-0,173	-0,044
-733,239	-139,463	-0,271	-0,021
-732,225	800,000	-0,059	-0,159
-731,210	-23,382	0,126	-0,055
-730,196	107,626	-0,066	-0,057
-729,181	-122,445	-0,102	0,012
-728,167	184,262	0,086	-0,092
-727,152	-197,610	0,078	-0,000
-726,137	203,901	-0,067	-0,075
-725,123	-200,000	-0,007	0,146
-724,108	589,933	-0,108	-0,193
-723,094	800,000	-0,023	-0,047
-722,079	14,718	0,059	-0,034
-721,064	800,000	0,028	0,085
-720,050	242,737	0,038	0,046
-719,035	-200,000	-0,001	0,009
-718,021	800,000	-0,020	0,061
-717,006	108,958	-0,103	0,089
-715,991	800,000	-0,035	-0,108
-714,977	-200,000	0,004	-0,110
-713,962	800,000	-0,070	-0,182
-712,948	-8,811	0,049	-0,024
-711,933	-56,584	-0,023	-0,007
-710,918	-16,491	-0,118	-0,054
-709,904	-73,063	-0,085	-0,023
-708,889	-116,844	-0,114	-0,015
-707,875	-2,542	0,023	0,012
-706,860	-200,000	0,008	0,090
-705,845	-103,821	0,143	0,024
-704,831	94,212	-0,124	0,102
-703,816	60,270	0,081	-0,058
-702,802	-8,480	0,123	-0,060
-701,787	26,265	-0,103	0,062
-700,772	116,657	0,120	-0,107
-699,758	121,785	-0,058	-0,053
-698,743	361,774	-0,018	-0,026
-697,729	-29,301	0,079	0,033
-696,714	94,878	-0,105	-0,087
-695,699	170,643	0,067	-0,069
-694,685	-46,222	-0,193	0,068
-693,670	22,486	0,056	0,033
-692,656	-115,338	-0,025	-0,003
-691,641	64,597	0,085	0,062
-690,627	-200,000	-0,019	0,082
-689,612	397,339	-0,065	-0,100
-688,597	-120,329	-0,165	-0,020
-687,583	-184,230	0,038	0,000
-686,568	143,596	0,058	0,056
-685,554	118,721	0,033	-0,029
-684,539	40,674	0,034	-0,022
-683,524	-85,458	0,042	0,010
-682,510	-56,532	0,017	0,005
-681,495	-35,533	-0,059	0,023
-680,481	242,762	-0,071	0,086
-679,466	189,778	-0,069	-0,075
-678,451	-118,981	-0,051	0,006
-677,437	-200,000	-0,021	-0,140
-676,422	-200,000	-0,035	0,153
-675,408	303,780	-0,023	0,031
-674,393	106,035	-0,062	-0,053
-673,378	-81,177	-0,080	-0,019
-672,364	441,915	0,039	-0,061
-671,349	800,000	-0,052	-0,127
-670,335	800,000	-0,036	-0,077
-669,320	-75,004	-0,058	0,015
-668,305	-62,277	-0,025	-0,008
-667,291	713,170	-0,069	-0,132
-666,276	-96,315	-0,075	0,014
-665,262	-39,226	0,046	-0,017
-664,247	800,000	-0,011	-0,029
-663,232	800,000	-0,041	0,091
-662,218	800,000	0,062	0,127
-661,203	99,299	0,077	-0,064
-660,189	27,290	0,077	-0,047
-659,174	-147,340	-0,172	0,010
-658,159	800,000	-0,058	-0,129
-657,145	-200,000	-0,001	-0,027
-656,130	800,000	-0,069	-0,170
-655,116	128,804	0,041	0,038
-654,101	-54,805	-0,007	-0,002
-653,086	800,000	0,019	-0,053
-652,072	-132,755	0,094	0,009
-651,057	-183,128	0,051	-0,001
-650,043	-57,465	-0,050	0,016
-649,028	132,732	0,014	0,013
-648,014	68,078	0,047	0,035
-646,999	-68,321	0,073	0,020
-645,984	-200,000	0,015	0,086
-644,970	-63,556	-0,077	-0,023
-643,955	-174,381	-0,096	-0,002
-642,941	-200,000	-0,006	-0,150
-641,926	800,000	-0,073	-0,164
-640,911	-95,769	0,056	0,011
-639,897	284,181	0,078	-0,101
-638,882	34,694	-0,092	-0,058
-637,868	-200,000	0,003	-0,127
-636,853	-27,913	0,090	0,038
-635,838	312,386	0,044	-0,059
-634,824	40,777	-0,036	0,024
-633,809	152,293	-0,054	0,053
-632,795	-104,086	0,095	0,016
-631,780	-159,899	0,064	0,002
-630,765	-84,150	-0,110	0,025
-629,751	-200,000	0,015	-0,066
-628,736	-173,003	-0,084	-0,002
-627,722	-200,000	-0,013	0,114
-626,707	-200,000	-0,026	-0,116
-625,692	-200,000	0,019	0,097
-624,678	-200,000	-0,017	0,079
-623,663	182,051	-0,115	-0,122
-622,649	99,298	-0,161	-0,135
-621,634	-200,000	-0,046	-0,196
-620,619	72,121	-0,031	-0,023
-619,605	-23,948	0,123	0,053
-618,590	800,000	-0,078	0,162
-617,576	370,223	-0,035	0,051
-616,561	-200,000	-0,009	-0,033
-615,546	-54,137	-0,191	-0,062
-614,532	107,041	0,076	-0,065
-613,517	-200,000	-0,020	-0,069
-612,503	-28,217	-0,085	0,035
-611,488	112,628	-0,043	0,038
-610,474	310,746	-0,029	-0,039
-609,459	-16,973	-0,099	0,045
-608,444	63,641	0,033	0,024
-607,430	-80,304	-0,064	0,015
-606,415	529,185	-0,074	-0,127
-605,401	28,664	0,153	0,094
-604,386	772,536	0,102	0,202
-603,371	-147,444	-0,063	0,004
-602,357	281,808	-0,071	-0,093
-601,342	-200,000	-0,007	-0,025
-600,328	800,000	0,038	-0,078
-599,313	27,294	0,057	-0,035
-598,298	-200,000	0,039	-0,191
-597,284	800,000	0,076	0,160
-596,269	-200,000	0,010	-0,117
-595,255	-200,000	0,029	-0,191
-594,240	800,000	-0,041	-0,103
-593,225	-63,480	-0,161	0,048
-592,211	-67,252	0,126	0,035
-591,196	-35,063	-0,063	-0,025
-590,182	-200,000	0,052	-0,186
-589,167	-58,576	0,056	0,017
-588,152	-135,683	-0,090	0,008
-587,138	150,921	-0,023	-0,023
-586,123	-200,000	0,017	-0,227
-585,109	83,656	-0,109	-0,086
-584,094	46,034	0,024	0,016
-583,079	-200,000	0,014	-0,080
-582,065	36,931	-0,072	-0,046
-581,050	800,000	-0,031	0,077
-580,036	-200,000	-0,008	0,039
-579,021	-45,722	-0,048	-0,017
-578,006	80,714	0,048	-0,038
-576,992	-186,158	0,086	-0,001
-575,977	-62,708	0,103	0,031
-574,963	800,000	0,029	0,064
-573,948	-12,083	-0,063	0,030
-572,934	800,000	0,024	-0,062
-571,919	800,000	0,027	-0,061
-570,904	-5,695	-0,027	-0,014
-569,890	-80,612	-0,009	-0,002
-568,875	-200,000	-0,001	-0,071
-567,861	88,890	0,052	-0,042
-566,846	297,129	0,027	0,036
-565,831	1,779	-0,039	-0,020
-564,817	552,656	-0,063	-0,109
-563,802	147,387	-0,117	-0,113
-562,788	67,402	0,080	-0,059
-561,773	389,136	0,066	-0,099
-560,758	-200,000	0,004	0,019
-559,744	59,672	-0,138	-0,098
-558,729	-44,506	0,144	0,052
-557,715	36,445	-0,129	0,082
-556,700	244,602	-0,089	-0,109
-555,685	-54,008	-0,107	-0,035
-554,671	800,000	-0,015	0,044
-553,656	-200,000	0,024	0,085
-552,642	266,174	-0,046	0,058
-551,627	-200,000	0,019	0,121
-550,612	-55,590	-0,071	-0,023
-549,598	-200,000	-0,005	0,038
-548,583	696,967	-0,011	0,021
-547,569	761,071	0,018	-0,036
-546,554	-72,245	0,063	-0,017
-545,539	-22,263	-0,123	0,053
-544,525	800,000	-0,044	0,138
-543,510	53,488	-0,020	0,014
-542,496	-10,354	-0,139	0,066
-541,481	-200,000	0,029	-0,115
-540,466	756,560	-0,077	-0,150
-539,452	-200,000	0,015	0,146
-538,437	800,000	0,065	0,157
-537,423	-200,000	0,007	-0,026
-536,408	-200,000	0,011	0,074
-535,393	-200,000	-0,033	-0,160
-534,379	-200,000	0,034	-0,221
-533,364	-131,464	-0,078	-0,007
-532,350	35,398	0,102	0,064
-531,335	-200,000	0,012	0,042
-530,321	555,199	0,008	-0,014
-529,306	-200,000	-0,008	0,057
-528,291	58,809	0,089	-0,063
-527,277	275,359	-0,110	-0,141
-526,262	800,000	-0,046	0,129
-525,248	266,418	0,118	0,149
-524,233	800,000	0,047	0,099
-523,218	-6,279	0,062	-0,030
-522,204	90,324	-0,099	-0,080
-521,189	-117,917	-0,081	0,010
-520,175	-200,000	0,006	0,084
-519,160	800,000	0,024	-0,067
-518,145	-200,000	0,012	-0,048
-517,131	299,841	-0,060	-0,080
-516,116	44,895	0,033	-0,022
-515,102	35,807	-0,084	-0,053
-514,087	-200,000	-0,017	-0,076
-513,072	-179,467	0,090	-0,001
-512,058	-148,799	0,058	0,003
-511,043	800,000	0,028	-0,066
-510,029	-200,000	-0,014	0,074
-509,014	478,507	0,046	0,075
-507,999	333,517	-0,109	0,152
-506,985	223,203	0,050	-0,058
-505,970	-33,127	-0,053	-0,021
-504,956	205,232	-0,050	0,055
-503,941	22,744	0,057	-0,033
-502,926	796,649	0,041	0,083
-501,912	336,603	-0,114	0,160
-500,897	-77,916	-0,067	0,017
-499,883	-32,434	0,056	0,023
-498,868	59,523	-0,078	0,055
-497,853	-32,824	-0,024	-0,010
-496,839	455,838	-0,023	-0,036
-495,824	-42,344	-0,029	0,011
-494,810	151,649	-0,053	0,052
-493,795	433,364	0,051	0,081
-492,781	-200,000	0,003	-0,008
-491,766	-4,317	-0,187	0,093
-490,751	-200,000	0,005	-0,033
-489,737	-200,000	0,005	0,017
-488,722	49,625	0,051	-0,035
-487,708	726,644	0,045	0,086
-486,693	-200,000	0,019	0,086
-485,678	800,000	0,037	-0,078
-484,664	-21,721	0,050	-0,022
-483,649	209,568	-0,049	-0,055
-482,635	22,591	-0,134	-0,079
-481,620	-200,000	0,015	-0,102
-480,605	-115,562	-0,036	0,005
-479,591	184,129	0,127	0,135
-478,576	-38,823	0,154	-0,058
-477,562	97,804	0,089	-0,073
-476,547	800,000	-0,052	-0,141
-475,532	161,470	-0,020	-0,020
-474,518	-85,530	0,159	0,035
-473,503	800,000	-0,107	0,227
-472,489	800,000	0,050	0,154
-471,474	-47,503	0,068	-0,024
-470,459	-200,000	-0,007	-0,102
-469,445	698,835	0,040	-0,077
-468,430	-87,975	-0,142	-0,030
-467,416	298,534	-0,079	-0,105
-466,401	316,826	0,035	0,048
-465,386	59,174	-0,117	-0,082
-464,372	-200,000	0,004	0,032
-463,357	-200,000	0,019	-0,121
-462,343	800,000	-0,057	-0,121
-461,328	32,127	-0,049	-0,031
-460,313	362,885	-0,018	-0,026
-459,299	53,734	0,126	0,087
-458,284	125,971	-0,043	0,039
-457,270	-200,000	0,030	-0,102
-456,255	-200,000	-0,007	0,082
-455,241	280,113	-0,054	-0,069
-454,226	410,400	-0,044	0,068
-453,211	252,185	0,102	0,125
-452,197	800,000	-0,020	-0,046
-451,182	-120,254	0,143	-0,017
-450,168	613,882	-0,018	0,033
-449,153	-16,870	0,077	0,035
-448,138	77,569	0,167	-0,128
-447,124	0,024	-0,185	0,094
-446,109	-200,000	-0,001	0,040
-445,095	-200,000	0,029	0,095
-444,080	-200,000	-0,011	0,177
-443,065	800,000	0,028	0,077
-442,051	-117,129	-0,080	0,010
-441,036	-73,736	0,025	0,006
-440,022	18,300	-0,063	0,036
-439,007	-200,000	-0,012	0,073
-437,992	800,000	-0,031	-0,081
-436,978	-168,361	0,136	-0,004
-435,963	-151,606	0,170	0,009
-434,949	800,000	-0,026	-0,052
-433,934	-99,538	0,041	0,007
-432,919	180,840	-0,047	0,049
-431,905	153,855	-0,073	-0,071
-430,890	-200,000	0,014	-0,086
-429,876	159,894	0,184	0,184
-428,861	783,543	0,075	0,148
-427,846	-138,026	0,068	-0,005
-426,832	-200,000	0,006	0,026
-425,817	-200,000	0,014	-0,252
-424,803	-117,398	-0,090	0,012
-423,788	33,381	0,079	0,049
-422,773	800,000	-0,031	0,090
-421,759	-21,297	0,159	0,069
-420,744	68,255	0,113	-0,083
-419,730	438,120	-0,054	-0,084
-418,715	200,229	0,030	-0,034
-417,701	5,434	0,042	-0,022
-416,686	148,885	0,015	0,015
-415,671	-87,838	0,089	-0,019
-414,657	338,524	-0,011	-0,015
-413,642	-200,000	0,005	0,082
-412,628	709,682	0,045	0,085
-411,613	622,112	0,037	0,068
-410,598	-68,048	0,055	0,015
-409,584	520,877	-0,088	-0,148
-408,569	800,000	0,017	-0,050
-407,555	331,417	-0,059	-0,082
-406,540	-52,190	-0,095	0,031
-405,525	759,249	0,049	-0,096
-404,511	109,032	-0,029	-0,025
-403,496	-36,507	0,056	-0,021
-402,482	-3,779	-0,057	0,028
-401,467	609,143	0,031	0,055
-400,452	-138,881	0,159	-0,012
-399,438	800,000	0,011	0,026
-398,423	85,986	-0,070	0,055
-397,409	-104,304	-0,066	0,011
-396,394	424,286	-0,046	-0,071
-395,379	56,710	0,083	0,058
-394,365	-71,476	-0,029	-0,008
-393,350	74,367	0,048	0,036
-392,336	164,244	-0,103	0,104
-391,321	-20,888	-0,080	-0,035
-390,306	-175,021	0,017	-0,000
-389,292	-200,000	0,052	0,000
-388,277	-23,738	-0,120	-0,051
-387,263	766,219	-0,077	0,150
-386,248	800,000	0,055	0,134
-385,233	-43,081	0,132	-0,048
-384,219	101,800	-0,085	-0,071
-383,204	-200,000	0,012	-0,059
-382,190	-97,080	-0,166	0,031
-381,175	-200,000	-0,010	-0,155
-380,160	800,000	-0,046	0,100
-379,146	6,007	0,079	-0,042
-378,131	-93,667	0,113	-0,022
-377,117	-67,744	0,084	-0,023
-376,102	747,264	0,023	0,045
-375,088	437,905	0,059	-0,092
-374,073	57,055	-0,137	0,095
-373,058	-6,070	0,167	0,082
-372,044	800,000	0,029	0,061
-371,029	800,000	0,025	-0,075
-370,015	69,956	0,120	0,089
-369,000	190,562	0,015	0,016
-367,985	-200,000	-0,032	-0,107
-366,971	-25,656	-0,038	-0,016
-365,956	67,032	-0,064	-0,047
-364,942	-31,804	0,090	-0,036
-363,927	78,474	0,118	0,090
-362,912	-136,992	0,024	-0,002
-361,898	47,597	0,058	0,039
-360,883	-200,000	-0,005	0,076
-359,869	-101,739	-0,083	0,014
-358,854	-200,000	-0,008	0,131
-357,839	-80,060	0,033	0,008
-356,825	187,451	0,072	0,077
-355,810	-200,000	0,024	0,108
-354,796	203,549	-0,104	0,115
-353,781	460,063	0,090	-0,143
-352,766	31,862	-0,094	-0,058
-351,752	-58,433	0,166	-0,051
-350,737	-200,000	-0,007	0,042
-349,723	42,074	0,119	0,077
-348,708	453,941	-0,011	-0,018
-347,693	-200,000	0,011	-0,171
-346,679	255,960	-0,044	-0,054
-345,664	-32,943	-0,061	0,024
-344,650	46,661	-0,045	0,030
-343,635	360,648	0,064	-0,092
-342,620	132,824	-0,037	0,034
-341,606	-200,000	0,011	0,061
-340,591	-200,000	0,000	0,024
-339,577	-200,000	-0,004	-0,094
-338,562	-200,000	0,005	-0,069
-337,548	47,157	0,099	0,066
-336,533	-35,953	-0,046	0,018
-335,518	37,877	0,184	0,117
-334,504	-5,785	-0,059	0,029
-333,489	-200,000	0,015	0,098
-332,475	685,901	-0,020	0,037
-331,460	-200,000	-0,021	0,101
-330,445	191,701	-0,024	-0,026
-329,431	257,712	0,045	-0,056
-328,416	32,784	-0,048	0,029
-327,402	106,437	0,039	-0,033
-326,387	151,750	0,074	0,072
-325,372	-120,176	-0,101	0,012
-324,358	-175,726	0,114	-0,002
-323,343	335,162	-0,048	0,067
-322,329	181,029	-0,082	0,086
-321,314	-200,000	0,006	-0,066
-320,299	-200,000	-0,001	-0,044
-319,285	334,005	-0,088	0,122
-318,270	-200,000	0,009	0,199
-317,256	353,622	0,035	0,050
-316,241	182,540	-0,029	0,030
-315,226	-200,000	-0,054	0,191
-314,212	-200,000	0,001	-0,040
-313,197	46,190	0,057	-0,038
-312,183	800,000	-0,018	0,037
-311,168	135,016	0,107	-0,099
-310,153	-200,000	-0,060	0,000
-309,139	-200,000	0,002	-0,064
-308,124	58,687	0,009	-0,006
-307,110	800,000	0,014	-0,030
-306,095	-200,000	0,031	0,243
-305,080	-121,048	0,108	0,013
-304,066	800,000	0,052	-0,137
-303,051	396,988	-0,106	-0,159
-302,037	-200,000	0,025	-0,081
-301,022	-27,162	-0,090	-0,037
-300,008	289,195	-0,046	-0,060
-298,993	-115,200	-0,048	0,006
-297,978	25,781	0,078	0,046
-296,964	37,451	-0,035	-0,022
-295,949	-200,000	0,019	-0,074
-294,935	313,313	0,115	-0,154
-293,920	-111,916	0,127	0,018
-292,905	-200,000	-0,054	0,214
-291,891	-60,051	0,017	-0,005
-290,876	54,593	0,109	0,075
-289,862	-200,000	0,006	0,034
-288,847	16,628	0,071	-0,040
-287,832	159,130	-0,066	0,065
-286,818	-200,000	-0,003	-0,040
-285,803	-61,604	0,081	0,024
-284,789	-110,412	0,087	0,013
-283,774	216,389	0,038	0,043
-282,759	-200,000	-0,017	-0,100
-281,745	28,729	-0,056	-0,034
-280,730	215,427	0,019	-0,022
-279,716	800,000	-0,012	0,038
-278,701	581,108	-0,009	-0,015
-277,686	-67,912	0,059	-0,016
-276,672	182,314	-0,019	-0,020
-275,657	-77,309	0,105	0,026
-274,643	-9,210	-0,069	-0,033
-273,628	52,135	-0,086	-0,059
-272,613	262,760	-0,046	-0,057
-271,599	-33,659	-0,045	0,018
-270,584	-200,000	0,035	0,129
-269,570	606,937	0,071	0,127
-268,555	-99,406	-0,080	-0,014
-267,540	-93,138	-0,071	-0,014
-266,526	800,000	0,013	-0,035
-265,511	36,950	-0,118	-0,074
-264,497	37,629	0,012	-0,008
-263,482	98,419	0,024	0,020
-262,467	-200,000	0,017	0,107
-261,453	-49,671	-0,074	0,025
-260,438	63,651	0,073	-0,052
-259,424	-62,679	-0,030	-0,009
-258,409	473,873	-0,023	-0,037
-257,395	800,000	0,031	0,063
-256,380	800,000	-0,009	-0,019
-255,365	800,000	0,024	0,060
-254,351	800,000	0,012	-0,034
-253,336	83,335	0,097	0,075
-252,322	-200,000	0,007	-0,060
-251,307	694,205	0,081	-0,153
-250,292	-200,000	-0,004	-0,039
-249,278	404,279	0,091	-0,136
-248,263	30,251	0,079	-0,048
-247,249	35,433	-0,108	0,067
-246,234	-200,000	-0,004	0,015
-245,219	-60,085	-0,209	-0,063
-244,205	265,043	0,075	0,093
-243,190	197,765	0,073	-0,079
-242,176	-97,571	0,031	-0,006
-241,161	-52,111	0,149	0,049
-240,146	563,281	-0,055	0,095
-239,132	-200,000	0,018	0,095
-238,117	526,995	-0,065	0,109
-237,103	-61,342	-0,077	-0,023
-236,088	648,128	-0,043	-0,078
-235,073	97,166	0,112	0,092
-234,059	-200,000	0,017	0,085
-233,044	-200,000	0,100	0,000
-232,030	-12,409	-0,074	0,034
-231,015	183,145	-0,081	0,086
-230,000	-26,552	-0,062	-0,026
-228,986	-74,630	0,107	0,027
-227,971	-200,000	-0,007	-0,097
-226,957	273,535	-0,068	0,085
-225,942	-200,000	0,158	0,000
-224,927	239,971	0,030	0,035
-223,913	10,762	-0,097	0,053
-222,898	800,000	-0,027	-0,076
-221,884	266,430	0,031	0,038
-220,869	45,174	0,077	-0,051
-219,855	125,516	0,057	-0,051
-218,840	-28,404	0,078	0,032
-217,825	66,974	0,030	0,022
-216,811	25,020	-0,084	-0,049
-215,796	-156,920	-0,095	0,004
-214,782	-200,000	-0,021	-0,113
-213,767	-153,952	-0,208	0,010
-212,752	-22,113	0,093	-0,040
-211,738	-110,101	0,089	0,013
-210,723	28,705	-0,046	0,028
-209,709	-77,129	-0,106	0,026
-208,694	800,000	0,035	0,076
-207,679	679,987	0,068	-0,126
-206,665	-60,566	0,134	-0,040
-205,650	398,984	-0,086	0,128
-204,636	-25,129	-0,118	0,050
-203,621	44,292	0,023	-0,015
-202,606	97,528	-0,094	0,077
-201,592	-170,054	-0,083	-0,002
-200,577	157,603	-0,062	0,061
-199,563	-200,000	-0,014	0,069
-198,548	-200,000	0,020	0,100
-197,533	-37,348	0,054	-0,021
-196,519	-200,000	0,015	0,192
-195,504	-200,000	0,018	-0,131
-194,490	-200,000	-0,003	-0,038
-193,475	-200,000	-0,002	-0,067
-192,460	-200,000	0,002	-0,081
-191,446	214,529	-0,048	-0,054
-190,431	-53,034	0,154	-0,050
-189,417	217,363	-0,060	0,068
-188,402	-200,000	0,033	0,169
-187,387	-25,665	0,035	-0,015
-186,373	800,000	-0,073	0,160
-185,358	-133,829	0,057	0,005
-184,344	-84,963	-0,139	0,031
-183,329	-116,326	0,080	-0,010
-182,315	-78,755	-0,100	-0,024
-181,300	127,449	-0,131	-0,119
-180,285	313,562	0,060	-0,080
-179,271	-200,000	-0,007	-0,147
-178,256	-200,000	-0,005	0,050
-177,242	-200,000	0,008	-0,043
-176,227	-14,645	-0,065	0,029
-175,212	180,009	-0,119	0,125
-174,198	-94,948	-0,098	0,019
-173,183	800,000	-0,010	-0,031
-172,169	-155,988	-0,083	0,004
-171,154	215,259	0,129	-0,146
-170,139	479,162	-0,027	0,043
-169,125	800,000	-0,026	-0,056
-168,110	37,252	-0,104	0,065
-167,096	800,000	0,056	0,169
-166,081	-13,871	-0,136	-0,062
-165,066	495,589	0,085	-0,139
-164,052	514,158	0,058	-0,097
-163,037	-200,000	0,034	-0,139
-162,023	-46,534	0,119	-0,041
-161,008	49,720	-0,069	-0,046
-159,993	341,550	-0,061	0,085
-158,979	6,411	0,034	-0,018
-157,964	800,000	0,050	0,125
-156,950	-200,000	0,017	-0,113
-155,935	201,576	0,056	0,062
-154,920	-200,000	0,005	0,118
-153,906	-93,385	-0,030	-0,006
-152,891	47,211	-0,023	-0,015
-151,877	221,185	0,033	-0,038
-150,862	106,302	0,054	-0,046
-149,847	-73,940	0,024	-0,006
-148,833	-200,000	0,023	0,106
-147,818	-200,000	-0,002	0,019
-146,804	264,955	0,034	0,042
-145,789	-200,000	0,009	0,040
-144,775	800,000	-0,022	0,054
-143,760	32,213	-0,085	-0,052
-142,745	-79,378	-0,137	-0,033
-141,731	-25,576	-0,098	-0,041
-140,716	-200,000	-0,004	-0,049
-139,702	-200,000	0,008	0,121
-138,687	-200,000	-0,017	0,057
-137,672	-200,000	0,011	0,092
-136,658	-71,779	-0,057	0,015
-135,643	353,945	0,061	0,086
-134,629	-116,065	-0,128	-0,017
-133,614	-35,587	-0,006	0,002
-132,599	391,736	0,023	0,034
-131,585	412,863	-0,072	0,110
-130,570	-200,000	-0,023	-0,084
-129,556	-42,691	0,039	0,014
-128,541	316,825	-0,106	-0,142
-127,526	58,263	0,126	0,087
-126,512	800,000	-0,054	0,156
-125,497	-46,970	0,150	-0,052
-124,483	64,694	-0,068	-0,049
-123,468	-72,893	-0,046	-0,012
-122,453	107,625	-0,113	-0,095
-121,439	-200,000	-0,004	-0,110
-120,424	212,632	-0,032	-0,035
-119,410	-140,556	-0,070	0,005
-118,395	183,238	-0,060	0,063
-117,380	164,950	0,045	0,045
-116,366	-200,000	-0,010	-0,115
-115,351	207,071	0,069	0,077
-114,337	-200,000	0,011	-0,062
-113,322	-200,000	0,014	-0,129
-112,307	-26,151	-0,076	-0,032
-111,293	17,053	0,189	-0,106
-110,278	15,876	-0,055	0,030
-109,264	-34,329	-0,085	0,033
-108,249	-200,000	0,008	0,062
-107,234	-200,000	0,021	-0,166
-106,220	21,728	-0,005	0,003
-105,205	800,000	0,035	-0,093
-104,191	-178,541	-0,136	-0,002
-103,176	-200,000	0,009	0,060
-102,162	-14,605	0,041	-0,018
-101,147	30,483	0,015	-0,009
-100,132	800,000	0,031	-0,081
-99,118	255,827	-0,036	0,044
-98,103	-149,923	0,135	0,007
-97,089	-95,880	0,109	0,020
-96,074	-138,629	-0,061	-0,005
-95,059	75,998	-0,088	0,066
-94,045	-200,000	0,009	-0,054
-93,030	800,000	0,010	0,021
-92,016	-200,000	-0,001	-0,050
-91,001	-200,000	-0,017	-0,059
-89,986	-2,798	0,107	0,053
-88,972	51,065	0,159	0,106
-87,957	12,409	-0,049	0,026
-86,943	125,171	-0,080	0,071
-85,928	135,337	-0,098	-0,090
-84,913	129,459	-0,065	-0,059
-83,899	615,846	0,043	0,077
-82,884	75,321	0,082	0,061
-81,870	-57,796	-0,113	0,035
-80,855	-200,000	0,042	0,189
-79,840	260,053	0,081	-0,099
-78,826	800,000	0,051	0,108
-77,811	800,000	-0,029	0,064
-76,797	468,102	-0,060	-0,095
-75,782	-33,287	0,196	0,076
-74,767	155,352	0,079	-0,077
-73,753	68,299	0,067	0,049
-72,738	800,000	-0,018	0,038
-71,724	800,000	0,001	-0,004
-70,709	-35,825	0,020	0,008
-69,694	-21,206	0,107	-0,046
-68,680	-95,269	0,104	0,020
-67,665	-72,780	0,067	-0,017
-66,651	111,486	0,054	0,046
-65,636	-200,000	0,021	-0,078
-64,622	800,000	-0,089	0,186
-63,607	-51,651	0,098	-0,032
-62,592	725,916	0,052	-0,099
-61,578	209,891	-0,039	-0,043
-60,563	505,583	-0,029	-0,048
-59,549	-200,000	0,005	0,136
-58,534	12,537	-1,784	-0,971
-57,519	305,488	-1,411	-1,860
-56,505	-200,000	-0,516	-4,667
-55,490	285,979	1,038	1,327
-54,476	800,000	5,053	11,133
-53,461	-200,000	20,273	323,505
-52,446	800,000	752,121	2310,430
-51,432	548,901	1662,847	2827,983
-50,417	74,791	1671,579	1242,732
-49,403	19,872	1544,627	877,557
-48,388	13,884	1466,991	804,320
-47,373	18,381	1457,208	820,647
-46,359	16,279	1446,713	804,635
-45,344	12,198	1442,227	782,566
-44,330	12,108	1440,444	781,136
-43,315	12,091	1438,537	779,990
-42,300	12,017	1437,026	778,782
-41,286	12,109	1435,849	778,555
-40,271	12,065	1434,360	777,507
-39,257	12,036	1433,232	776,724
-38,242	12,154	1431,978	776,576
-37,227	12,089	1430,812	775,605
-36,213	12,113	1429,504	774,979
-35,198	12,097	1428,448	774,303
-34,184	12,168	1427,272	773,970
-33,169	12,134	1425,823	772,990
-32,154	12,163	1424,783	772,533
-31,140	12,116	1423,718	771,702
-30,125	12,187	1422,580	771,390
-29,111	12,185	1421,218	770,613
-28,096	12,161	1420,034	769,826
-27,082	12,094	1418,994	768,917
-26,067	12,050	1418,224	768,260
-25,052	12,066	1417,000	767,643
-24,038	12,082	1415,921	767,103
-23,023	12,053	1415,003	766,440
-22,009	12,040	1413,956	765,780
-20,994	12,034	1413,039	765,225
-19,979	12,037	1412,185	764,749
-18,965	11,989	1411,338	764,031
-17,950	12,062	1410,181	763,717
-16,936	12,044	1409,449	763,206
-15,921	11,967	1408,420	762,258
-14,906	11,989	1407,414	761,790
-13,892	12,015	1406,401	761,331
-12,877	11,962	1405,664	760,654
-11,863	11,927	1404,832	760,009
-10,848	11,921	1403,993	759,500
-9,833	11,919	1403,006	758,926
-8,819	11,843	1402,362	758,192
-7,804	11,823	1401,386	757,540
-6,790	11,861	1400,301	757,102
-5,775	11,933	1399,222	756,823
-4,760	11,949	1398,007	756,209
-3,746	11,877	1397,422	755,527
-2,731	11,882	1396,610	755,085
-1,717	11,832	1395,847	754,409
-0,702	11,832	1393,842	753,297
0,313	15,786	1308,807	725,596
1,327	32,161	699,509	425,419
2,342	49,753	121,885	81,025
3,356	2,450	16,417	8,369
4,371	0,075	3,365	1,688
5,386	-11,081	0,623	0,289
6,400	800,000	0,162	0,345
7,415	86,156	-0,214	-0,166
8,429	81,834	-0,315	-0,241
9,444	23,250	-0,276	-0,160
10,459	107,674	-0,190	-0,160
11,473	-33,385	-0,384	-0,149
12,488	-146,758	-0,307	-0,018
13,502	84,656	-0,250	-0,193
14,517	73,366	-0,235	-0,174
15,531	194,053	-0,298	-0,318
16,546	-29,992	-0,389	-0,156
17,561	283,535	-0,305	-0,388
18,575	101,154	-0,158	-0,130
19,590	276,034	-0,204	-0,256
20,604	43,771	-0,276	-0,178
21,619	127,703	-0,342	-0,306
22,634	25,213	-0,469	-0,274
23,648	-28,874	-0,390	-0,157
24,663	162,642	-0,306	-0,303
25,677	76,806	-0,371	-0,278
26,692	-31,641	-0,298	-0,117
27,707	45,671	-0,365	-0,237
28,721	37,195	-0,453	-0,282
29,736	119,291	-0,388	-0,339
30,750	349,972	-0,244	-0,341
31,765	132,574	-0,322	-0,293
32,780	79,364	-0,309	-0,233
33,794	23,846	-0,457	-0,264
34,809	53,882	-0,345	-0,233
35,823	-73,497	-0,329	-0,084
36,838	182,593	-0,264	-0,274
37,853	4,479	-0,371	-0,191
38,867	656,539	-0,233	-0,424
39,882	135,276	-0,244	-0,224
40,896	82,810	-0,183	-0,140
41,911	119,809	-0,420	-0,367
42,926	285,138	-0,255	-0,324
43,940	42,217	-0,407	-0,260
44,955	281,497	-0,292	-0,369
45,969	51,976	-0,407	-0,272
46,984	135,896	-0,246	-0,225
47,999	-38,296	-0,449	-0,167
49,013	-27,805	-0,370	-0,150
50,028	624,020	-0,191	-0,339
51,042	331,027	-0,306	-0,416
52,057	102,400	-0,429	-0,353
53,071	176,787	-0,251	-0,257
54,086	-93,393	-0,328	-0,063
55,101	37,137	-0,324	-0,201
56,115	10,833	-0,323	-0,173
57,130	18,695	-0,213	-0,120
58,144	32,913	-0,463	-0,281
59,159	105,271	-0,322	-0,267
60,174	-64,435	-0,327	-0,093
61,188	75,206	-0,448	-0,332
62,203	65,844	-0,354	-0,252
63,217	30,168	-0,258	-0,155
64,232	128,635	-0,219	-0,196
65,247	58,145	-0,419	-0,288
66,261	330,670	-0,281	-0,382
67,276	148,615	-0,355	-0,337
68,290	81,771	-0,345	-0,262
69,305	66,886	-0,190	-0,136
70,320	162,726	-0,218	-0,215
71,334	-2,976	-0,344	-0,168
72,349	-12,749	-0,315	-0,144
73,363	73,215	-0,289	-0,212
74,378	133,437	-0,319	-0,290
75,393	-114,165	-0,349	-0,047
76,407	6,586	-0,345	-0,180
77,422	-12,067	-0,205	-0,094
78,436	134,032	-0,217	-0,197
79,451	86,803	-0,180	-0,139
80,466	-79,221	-0,267	-0,063
81,480	229,375	-0,227	-0,261
82,495	111,020	-0,345	-0,291
83,509	188,547	-0,292	-0,306
84,524	321,546	-0,205	-0,274
85,539	48,683	-0,274	-0,180
86,553	8,785	-0,224	-0,118
87,568	25,287	-0,330	-0,192
88,582	316,563	-0,269	-0,357
89,597	132,386	-0,205	-0,185
90,611	115,002	-0,331	-0,283
91,626	3,750	-0,287	-0,146
92,641	24,104	-0,263	-0,152
93,655	113,806	-0,286	-0,243
94,670	143,585	-0,280	-0,261
95,684	189,212	-0,239	-0,251
96,699	-18,388	-0,287	-0,125
97,714	85,224	-0,271	-0,208
98,728	-37,519	-0,325	-0,121
99,743	-100,712	-0,333	-0,057
100,757	-5,541	-0,253	-0,121
101,772	100,538	-0,210	-0,171
102,787	84,631	-0,227	-0,174
103,801	73,388	-0,268	-0,196
104,816	205,734	-0,256	-0,279
105,830	210,113	-0,202	-0,222
106,845	320,829	-0,133	-0,178
107,860	-125,865	-0,173	-0,018
108,874	-80,529	-0,294	-0,068
109,889	136,012	-0,253	-0,231
110,903	124,105	-0,274	-0,241
111,918	81,291	-0,228	-0,173
112,933	-7,357	-0,277	-0,131
113,947	427,918	-0,085	-0,128
114,962	28,312	-0,154	-0,091
115,976	-6,786	-0,332	-0,158
116,991	151,576	-0,249	-0,238
118,006	68,123	-0,335	-0,239
119,020	96,151	-0,267	-0,213
120,035	80,573	-0,188	-0,141
121,049	98,107	-0,178	-0,143
122,064	43,819	-0,183	-0,117
123,079	15,218	-0,341	-0,186
124,093	418,892	-0,181	-0,272
125,108	-11,332	-0,300	-0,137
126,122	70,680	-0,220	-0,159
127,137	7,681	-0,277	-0,144
128,151	16,407	-0,202	-0,111
129,166	37,738	-0,307	-0,190
130,181	137,865	-0,152	-0,139
131,195	3,945	-0,434	-0,221
132,210	-34,729	-0,268	-0,102
133,224	10,355	-0,326	-0,173
134,239	96,721	-0,298	-0,238
135,254	-15,701	-0,156	-0,069
136,268	42,966	-0,321	-0,204
137,283	139,714	-0,262	-0,241
138,297	-118,021	-0,192	0,024
139,312	-130,775	-0,315	-0,029
140,327	179,896	-0,176	-0,180
141,341	123,624	-0,196	-0,172
142,356	31,996	-0,259	-0,155
143,370	-14,348	-0,322	-0,144
144,385	68,331	-0,221	-0,158
145,400	10,330	-0,345	-0,183
146,414	159,243	-0,261	-0,253
147,429	-12,315	-0,367	-0,167
148,443	8,533	-0,313	-0,164
149,458	-40,352	-0,270	-0,097
150,473	247,038	-0,221	-0,260
151,487	-131,145	-0,308	-0,028
152,502	95,607	-0,234	-0,186
153,516	229,425	-0,209	-0,238
154,531	160,117	-0,279	-0,271
155,546	88,017	-0,224	-0,173
156,560	88,035	-0,112	-0,086
157,575	-7,363	-0,332	-0,156
158,589	52,904	-0,142	-0,094
159,604	344,548	-0,228	-0,313
160,619	-64,825	-0,388	-0,109
161,633	125,572	-0,263	-0,232
162,648	140,448	-0,243	-0,224
163,662	204,365	-0,204	-0,220
164,677	-70,134	-0,225	-0,059
165,692	-77,473	-0,216	-0,052
166,706	-16,074	-0,216	-0,095
167,721	306,480	-0,184	-0,239
168,735	209,895	-0,243	-0,266
169,750	568,599	-0,110	-0,186
170,764	-19,858	-0,207	-0,089
171,779	51,463	-0,214	-0,142
172,794	-36,120	-0,158	-0,059
173,808	98,134	-0,261	-0,209
174,823	199,458	-0,234	-0,250
175,837	267,398	-0,184	-0,225
176,852	143,737	-0,221	-0,205
177,867	688,020	-0,178	-0,326
178,881	-23,583	-0,121	-0,050
179,896	-23,328	-0,156	-0,065
180,910	198,638	-0,271	-0,289
181,925	314,886	-0,154	-0,203
182,940	64,056	-0,265	-0,185
183,954	61,667	-0,244	-0,168
184,969	29,524	-0,176	-0,104
185,983	246,152	-0,204	-0,240
186,998	-49,870	-0,131	-0,043
188,013	800,000	-0,068	-0,184
189,027	150,399	-0,372	-0,351
190,042	82,901	-0,179	-0,135
191,056	88,669	-0,278	-0,215
192,071	625,949	-0,121	-0,213
193,086	-119,068	-0,165	-0,020
194,100	-185,908	-0,173	-0,002
195,115	-200,000	-0,085	-0,263
196,129	800,000	-0,075	-0,172
197,144	310,368	-0,101	-0,132
198,159	800,000	-0,126	-0,272
199,173	222,757	-0,126	-0,141
200,188	-26,307	-0,175	-0,071
201,202	-142,136	-0,347	-0,024
202,217	190,956	-0,209	-0,218
203,232	150,016	-0,162	-0,153
204,246	108,806	-0,225	-0,187
205,261	72,197	-0,291	-0,210
206,275	131,914	-0,184	-0,164
207,290	307,856	-0,199	-0,258
208,304	-65,527	-0,222	-0,061
209,319	102,313	-0,215	-0,174
210,334	629,595	-0,091	-0,160
211,348	63,783	-0,296	-0,206
212,363	-64,628	-0,295	-0,082
213,377	658,081	-0,090	-0,162
214,392	51,540	-0,223	-0,147
215,407	116,647	-0,161	-0,137
216,421	-57,110	-0,208	-0,063
217,436	-28,513	-0,293	-0,116
218,450	22,942	-0,215	-0,122
219,465	99,537	-0,118	-0,095
220,480	-46,159	-0,238	-0,081
221,494	800,000	-0,054	-0,141
222,509	92,802	-0,209	-0,164
223,523	-15,812	-0,211	-0,093
224,538	70,603	-0,147	-0,105
225,553	800,000	-0,054	-0,134
226,567	5,437	-0,258	-0,131
227,582	-91,456	-0,260	-0,051
228,596	-24,308	-0,117	-0,048
229,611	94,945	-0,106	-0,084
230,626	235,449	-0,143	-0,164
231,640	-129,075	-0,180	0,017
232,655	-40,203	-0,225	-0,081
233,669	-14,642	-0,175	-0,078
234,684	269,354	-0,146	-0,177
235,699	178,206	-0,186	-0,188
236,713	-50,333	-0,185	-0,060
237,728	211,957	-0,158	-0,173
238,742	212,513	-0,140	-0,153
239,757	-126,237	-0,223	-0,023
240,772	22,282	-0,251	-0,142
241,786	55,789	-0,169	-0,113
242,801	-45,817	-0,133	0,045
243,815	167,089	-0,152	-0,150
244,830	110,388	-0,162	-0,135
245,844	680,589	-0,054	-0,098
246,859	28,609	-0,147	-0,086
247,874	800,000	-0,129	-0,253
248,888	438,359	-0,158	-0,240
249,903	-154,474	-0,064	-0,003
250,917	228,453	-0,162	-0,183
251,932	2,915	-0,122	-0,061
252,947	-76,054	-0,167	0,041
253,961	67,471	-0,224	-0,158
254,976	25,173	-0,262	-0,150
255,990	176,865	-0,215	-0,216
257,005	21,510	-0,132	-0,074
258,020	249,330	-0,148	-0,174
259,034	-69,272	-0,145	-0,038
260,049	144,654	-0,144	-0,133
261,063	167,181	-0,156	-0,153
262,078	178,434	-0,164	-0,165
263,093	46,219	-0,170	-0,108
264,107	72,718	-0,365	-0,263
265,122	59,361	-0,145	-0,099
266,136	81,370	-0,118	-0,088
267,151	-137,564	-0,158	-0,012
268,166	513,814	-0,150	-0,242
269,180	800,000	-0,028	-0,063
270,195	36,948	-0,209	-0,127
271,209	202,251	-0,143	-0,153
272,224	-104,640	-0,132	-0,021
273,239	-70,950	-0,114	0,029
274,253	800,000	-0,066	-0,136
275,268	-49,140	-0,109	-0,036
276,282	800,000	-0,090	-0,181
277,297	606,296	0,055	-0,096
278,312	800,000	-0,102	-0,221
279,326	311,622	-0,163	-0,212
280,341	3,231	-0,141	-0,070
281,355	59,912	-0,060	0,041
282,370	114,246	-0,148	-0,124
283,384	333,343	-0,128	-0,171
284,399	71,952	-0,222	-0,159
285,414	-122,808	-0,086	0,009
286,428	1,396	-0,195	-0,096
287,443	-44,981	-0,162	-0,055
288,457	48,014	-0,155	-0,099
289,472	130,297	-0,137	-0,121
290,487	145,555	-0,096	-0,089
291,501	322,822	-0,161	-0,212
292,516	129,990	-0,190	-0,168
293,530	-103,905	-0,089	-0,014
294,545	-52,228	-0,234	-0,074
295,560	-13,930	-0,148	-0,065
296,574	254,780	-0,136	0,160
297,589	137,809	-0,270	-0,243
298,603	-6,354	-0,235	-0,110
299,618	133,761	-0,172	-0,153
300,633	479,528	-0,071	-0,112
301,647	-45,754	-0,147	-0,050
302,662	69,989	-0,067	-0,048
303,676	-79,573	-0,235	-0,054
304,691	-107,263	-0,208	-0,031
305,706	569,452	-0,101	-0,170
306,720	-17,563	-0,244	-0,105
307,735	-50,158	-0,167	-0,054
308,749	162,964	-0,118	-0,114
309,764	-49,869	-0,151	0,049
310,779	282,706	-0,057	-0,070
311,793	800,000	-0,078	-0,165
312,808	304,337	-0,146	-0,187
313,822	650,726	-0,127	-0,225
314,837	233,283	-0,183	-0,207
315,852	525,547	-0,120	-0,195
316,866	4,020	-0,080	-0,040
317,881	-44,319	-0,070	-0,024
318,895	-46,434	-0,199	-0,067
319,910	166,186	-0,180	-0,175
320,925	246,416	-0,201	-0,233
321,939	-200,000	-0,062	-0,269
322,954	76,003	-0,129	-0,094
323,968	178,288	0,012	-0,012
324,983	93,371	-0,041	0,032
325,997	-121,128	-0,214	-0,024
327,012	-71,472	-0,156	0,040
328,027	-81,706	-0,148	0,033
329,041	-134,785	-0,096	-0,008
330,056	800,000	-0,025	-0,069
331,070	-108,215	-0,132	-0,019
332,085	99,664	-0,127	-0,101
333,100	294,210	-0,031	-0,038
334,114	800,000	-0,058	-0,146
335,129	581,227	-0,163	-0,275
336,143	81,404	-0,126	-0,093
337,158	-200,000	0,009	-0,215
338,173	38,375	-0,150	-0,092
339,187	-38,964	-0,162	0,058
340,202	503,164	-0,105	-0,167
341,216	115,889	-0,103	-0,086
342,231	-36,320	-0,112	0,041
343,246	8,709	0,031	0,016
344,260	-200,000	-0,008	-0,107
345,275	127,512	-0,112	-0,097
346,289	28,140	-0,173	-0,100
347,304	472,792	-0,096	-0,149
348,319	-200,000	-0,002	-0,059
349,333	302,489	-0,136	-0,173
350,348	-14,720	-0,227	-0,100
351,362	271,440	-0,057	0,069
352,377	-200,000	-0,161	0,000
353,392	-19,865	-0,186	-0,078
354,406	800,000	-0,035	-0,097
355,421	207,902	1314,697	1408,424
356,435	159,951	1475,378	1408,888
