DTS Sentinel unit serial number:	SN410029Multiplexer serial number:	ORYXHardware model number:	OX2-SRSoftware version number:	ORYX F/W v4,00 Oryx Data Collector v3.7.2.0data status	okinstallation	B3 Nyhavnadifferential loss correction	single-endedforward channel	channel 1reverse channel	N/Adate	2023/12/04time	09:57:30forward acquisition time	300,00reverse acquisition time	0,00gamma	499,1914k internal	0,3203k external	0,3203temperature offset calibration	1,0000default loss term (dB/km)	0,3820temperature slope calibration	1,0000multiplexer offset coefficient	1,0000multiplexer slope coefficient	1,0000fibre end	0,00T internal ref (°C)	13,37T ext. ref 1 (°C)	-1,06T ext. ref 2 (°C)	-1,10length (m)	temperature (°C)	Stokes	anti-Stokes-744,400	289,554	-0,160	-0,211
-743,385	-200,000	-0,017	0,262
-742,371	-7,453	-0,276	-0,136
-741,356	-200,000	-0,075	0,360
-740,342	21,591	-0,225	-0,133
-739,327	-200,000	0,017	0,422
-738,312	-65,141	-0,223	-0,065
-737,298	-200,000	-0,044	0,261
-736,283	175,015	-0,182	-0,192
-735,269	-200,000	-0,078	0,436
-734,254	800,000	-0,111	-0,244
-733,239	-19,528	-0,203	-0,091
-732,225	800,000	-0,131	-0,286
-731,210	92,627	0,128	0,105
-730,196	-200,000	-0,016	-0,076
-729,181	800,000	0,048	-0,136
-728,167	-94,900	0,146	0,028
-727,152	-92,069	-0,071	0,014
-726,137	-34,327	0,158	0,063
-725,123	-200,000	0,002	0,032
-724,108	70,353	-0,110	-0,083
-723,094	302,886	-0,078	-0,105
-722,079	-62,150	0,014	-0,004
-721,064	201,891	-0,021	-0,023
-720,050	-200,000	-0,004	-0,090
-719,035	-73,083	-0,062	0,016
-718,021	40,524	-0,126	0,082
-717,006	-200,000	0,002	0,038
-715,991	-200,000	-0,026	-0,099
-714,977	-200,000	0,053	-0,195
-713,962	-19,656	-0,096	0,043
-712,948	402,233	0,090	-0,138
-711,933	307,391	0,093	-0,126
-710,918	42,333	-0,064	-0,042
-709,904	107,578	-0,077	-0,066
-708,889	-12,531	0,061	-0,029
-707,875	-91,427	0,120	-0,025
-706,860	800,000	0,030	-0,087
-705,845	-150,896	-0,073	0,004
-704,831	-200,000	-0,038	0,206
-703,816	170,106	0,104	-0,108
-702,802	-200,000	0,031	-0,102
-701,787	-57,878	-0,118	-0,037
-700,772	182,189	0,070	0,075
-699,758	287,199	0,102	-0,134
-698,743	-20,075	0,153	-0,068
-697,729	125,797	-0,123	-0,113
-696,714	-3,717	0,036	0,018
-695,699	648,031	0,048	-0,090
-694,685	277,672	-0,167	-0,216
-693,670	585,931	0,057	-0,102
-692,656	33,120	0,011	0,007
-691,641	273,228	0,053	-0,068
-690,627	132,148	-0,061	0,057
-689,612	-95,080	0,060	-0,012
-688,597	20,754	-0,041	0,024
-687,583	94,521	-0,045	-0,037
-686,568	-138,534	0,033	0,003
-685,554	-67,965	-0,126	-0,035
-684,539	20,366	-0,051	-0,030
-683,524	-200,000	-0,002	0,041
-682,510	800,000	-0,016	-0,038
-681,495	228,674	-0,142	-0,168
-680,481	12,661	-0,060	0,033
-679,466	800,000	-0,058	-0,141
-678,451	-97,464	-0,113	0,021
-677,437	800,000	0,021	0,053
-676,422	-62,402	0,094	0,028
-675,408	-101,679	-0,077	0,013
-674,393	-200,000	-0,013	0,095
-673,378	-200,000	0,003	-0,015
-672,364	268,618	0,069	-0,088
-671,349	-200,000	0,021	-0,250
-670,335	-114,882	0,100	-0,014
-669,320	112,261	-0,065	-0,057
-668,305	548,005	0,030	-0,053
-667,291	-200,000	-0,013	-0,088
-666,276	158,147	-0,043	-0,043
-665,262	116,626	-0,053	-0,048
-664,247	-200,000	-0,030	-0,096
-663,232	-27,620	0,071	-0,030
-662,218	39,321	-0,046	-0,030
-661,203	-102,268	-0,026	-0,005
-660,189	-200,000	-0,016	-0,067
-659,174	-71,935	-0,162	-0,043
-658,159	-30,385	-0,082	-0,034
-657,145	800,000	-0,073	-0,177
-656,130	800,000	0,010	-0,032
-655,116	-200,000	-0,017	0,098
-654,101	63,020	-0,098	-0,071
-653,086	623,530	0,027	0,049
-652,072	-117,627	-0,154	-0,020
-651,057	461,733	0,035	0,057
-650,043	111,515	-0,122	-0,106
-649,028	458,845	0,065	0,106
-648,014	88,521	-0,011	-0,009
-646,999	69,812	0,164	-0,122
-645,984	538,001	0,014	0,024
-644,970	-200,000	0,006	-0,040
-643,955	-17,172	0,041	-0,019
-642,941	-10,904	-0,096	-0,046
-641,926	29,439	-0,101	-0,062
-640,911	-76,307	0,063	-0,016
-639,897	-200,000	0,006	-0,052
-638,882	-137,260	0,004	0,000
-637,868	-200,000	-0,021	-0,092
-636,853	-200,000	0,019	-0,085
-635,838	800,000	0,035	-0,088
-634,824	-122,893	-0,153	-0,018
-633,809	474,329	0,082	-0,135
-632,795	-17,644	0,122	-0,055
-631,780	-200,000	0,006	-0,128
-630,765	289,469	-0,028	0,037
-629,751	-167,253	-0,139	0,004
-628,736	-70,718	0,114	0,031
-627,722	-200,000	-0,010	-0,041
-626,707	-66,883	0,022	0,006
-625,692	71,324	0,066	0,050
-624,678	-79,255	0,060	-0,015
-623,663	206,069	0,063	-0,071
-622,649	-97,159	-0,081	-0,015
-621,634	312,564	0,074	-0,101
-620,619	120,261	-0,026	0,023
-619,605	-200,000	0,013	-0,055
-618,590	114,253	0,104	0,091
-617,576	-200,000	-0,022	0,186
-616,561	-66,596	0,025	0,007
-615,546	-95,994	0,063	0,012
-614,532	141,652	-0,112	-0,107
-613,517	-136,476	-0,090	0,007
-612,503	279,281	0,068	0,089
-611,488	800,000	0,065	0,172
-610,474	-66,993	-0,086	0,024
-609,459	-99,597	-0,024	-0,004
-608,444	800,000	-0,077	-0,200
-607,430	-200,000	0,021	-0,160
-606,415	-200,000	-0,010	-0,045
-605,401	800,000	-0,063	-0,154
-604,386	-200,000	0,001	0,008
-603,371	97,807	0,113	0,094
-602,357	-150,138	-0,069	-0,004
-601,342	15,428	-0,054	0,030
-600,328	-200,000	0,018	-0,158
-599,313	221,724	0,105	0,123
-598,298	800,000	-0,040	0,108
-597,284	800,000	0,026	-0,080
-596,269	-200,000	0,001	-0,040
-595,255	-96,787	-0,075	0,014
-594,240	800,000	0,038	-0,087
-593,225	40,524	0,067	-0,043
-592,211	800,000	0,052	-0,163
-591,196	-21,041	-0,089	0,039
-590,182	-200,000	0,008	0,027
-589,167	-200,000	-0,005	0,130
-588,152	-9,464	-0,038	-0,018
-587,138	-130,704	-0,084	0,008
-586,123	-31,212	-0,034	0,014
-585,109	800,000	0,016	-0,038
-584,094	800,000	-0,040	-0,116
-583,079	787,551	0,045	0,090
-582,065	800,000	0,050	0,101
-581,050	213,834	-0,060	0,068
-580,036	-200,000	-0,006	-0,030
-579,021	-41,145	0,086	-0,032
-578,006	286,655	-0,031	-0,040
-576,992	-50,507	-0,144	-0,049
-575,977	-200,000	0,039	-0,124
-574,963	8,627	0,133	-0,072
-573,948	800,000	0,041	0,113
-572,934	331,134	-0,081	-0,114
-571,919	101,164	-0,065	-0,054
-570,904	800,000	0,010	0,028
-569,890	-200,000	-0,060	-0,197
-568,875	-120,205	-0,050	0,006
-567,861	-4,617	0,136	0,067
-566,846	-14,443	-0,056	0,026
-565,831	-92,168	-0,094	-0,019
-564,817	-200,000	-0,003	0,022
-563,802	-200,000	0,008	-0,102
-562,788	-200,000	0,023	-0,155
-561,773	110,549	-0,014	0,012
-560,758	-200,000	0,033	0,117
-559,744	800,000	0,059	0,137
-558,729	361,476	-0,025	-0,036
-557,715	-23,295	-0,149	-0,064
-556,700	-26,601	0,037	-0,015
-555,685	28,424	0,100	-0,061
-554,671	162,384	-0,079	-0,080
-553,656	243,974	-0,122	0,148
-552,642	800,000	-0,019	-0,040
-551,627	-200,000	0,004	0,047
-550,612	155,074	0,028	-0,028
-549,598	-200,000	0,018	-0,143
-548,583	23,546	0,011	0,007
-547,569	-200,000	0,005	-0,043
-546,554	122,550	0,019	0,017
-545,539	142,011	0,006	-0,006
-544,525	-200,000	0,018	0,154
-543,510	22,966	0,032	0,019
-542,496	-129,205	-0,045	0,005
-541,481	800,000	0,006	-0,012
-540,466	59,919	0,103	0,073
-539,452	800,000	0,037	0,097
-538,437	800,000	0,023	0,069
-537,423	-130,410	-0,084	0,008
-536,408	-200,000	0,004	-0,049
-535,393	97,070	-0,048	0,039
-534,379	-124,418	0,020	-0,002
-533,364	136,589	0,063	0,059
-532,350	264,673	-0,028	0,035
-531,335	167,484	0,051	0,053
-530,321	-200,000	-0,006	0,032
-529,306	467,725	-0,064	0,104
-528,291	800,000	0,028	-0,063
-527,277	-69,353	-0,222	-0,061
-526,262	190,108	0,066	-0,072
-525,248	-200,000	-0,034	0,111
-524,233	800,000	-0,017	-0,045
-523,218	5,983	-0,041	0,022
-522,204	140,419	0,058	-0,055
-521,189	-200,000	-0,003	-0,035
-520,175	-75,273	-0,045	-0,012
-519,160	180,740	-0,106	-0,112
-518,145	-200,000	0,052	-0,223
-517,131	-200,000	0,028	0,131
-516,116	-21,166	0,114	-0,050
-515,102	-200,000	0,003	-0,134
-514,087	-33,154	-0,065	0,026
-513,072	682,003	-0,073	-0,138
-512,058	-200,000	0,026	-0,116
-511,043	-66,521	0,047	0,013
-510,029	-200,000	0,015	0,087
-509,014	800,000	0,043	0,121
-507,999	-86,040	0,194	0,043
-506,985	-79,453	-0,072	-0,017
-505,970	800,000	-0,013	-0,035
-504,956	220,028	0,061	0,071
-503,941	184,044	0,067	0,072
-502,926	653,757	-0,018	0,034
-501,912	-6,127	-0,069	-0,034
-500,897	800,000	-0,017	0,035
-499,883	-200,000	0,013	0,063
-498,868	-200,000	0,008	-0,059
-497,853	-200,000	-0,016	-0,061
-496,839	800,000	0,040	-0,120
-495,824	-200,000	0,024	-0,087
-494,810	515,903	0,017	-0,028
-493,795	60,016	0,144	-0,102
-492,781	-200,000	0,007	-0,106
-491,766	800,000	-0,031	0,092
-490,751	-18,716	0,035	0,016
-489,737	800,000	-0,048	-0,107
-488,722	-51,466	0,091	0,031
-487,708	-200,000	0,005	-0,060
-486,693	-55,812	0,123	-0,039
-485,678	4,150	-0,104	-0,055
-484,664	-14,725	-0,193	-0,089
-483,649	-132,002	0,113	-0,010
-482,635	-200,000	-0,018	0,065
-481,620	13,531	0,042	-0,023
-480,605	800,000	0,058	0,136
-479,591	-20,228	0,160	-0,071
-478,576	800,000	-0,051	-0,147
-477,562	-89,746	0,032	-0,007
-476,547	57,117	0,058	0,041
-475,532	-200,000	-0,014	0,059
-474,518	221,758	0,091	0,106
-473,503	537,655	0,084	0,145
-472,489	82,880	0,054	0,042
-471,474	-141,466	0,053	-0,004
-470,459	233,271	-0,060	0,071
-469,445	-200,000	0,002	-0,073
-468,430	-200,000	0,007	0,047
-467,416	613,873	0,055	-0,099
-466,401	-97,776	0,184	-0,034
-465,386	-200,000	0,010	0,081
-464,372	167,640	0,021	-0,022
-463,357	11,465	-0,126	-0,069
-462,343	259,834	-0,080	0,100
-461,328	130,533	-0,129	-0,119
-460,313	551,615	-0,022	-0,037
-459,299	-56,871	-0,180	0,057
-458,284	-200,000	0,000	0,007
-457,270	-200,000	-0,015	-0,079
-456,255	94,871	0,048	0,039
-455,241	169,499	-0,076	-0,078
-454,226	733,907	-0,024	0,046
-453,211	205,843	-0,002	-0,002
-452,197	35,240	-0,092	0,058
-451,182	-35,689	-0,061	0,024
-450,168	598,130	-0,054	0,097
-449,153	477,833	0,064	0,105
-448,138	-200,000	-0,030	0,136
-447,124	800,000	0,031	-0,099
-446,109	-200,000	0,009	-0,031
-445,095	800,000	-0,047	0,095
-444,080	61,448	-0,069	-0,049
-443,065	-93,936	-0,085	0,017
-442,051	-200,000	0,006	-0,163
-441,036	-85,256	-0,044	0,010
-440,022	-200,000	-0,031	-0,118
-439,007	181,486	0,099	-0,105
-437,992	800,000	0,116	0,287
-436,978	325,155	-0,078	-0,107
-435,963	131,260	0,109	0,101
-434,949	800,000	-0,010	0,021
-433,934	74,840	-0,107	-0,081
-432,919	800,000	0,028	-0,059
-431,905	43,015	-0,101	0,066
-430,890	-106,279	-0,106	0,017
-429,876	-126,500	0,118	-0,012
-428,861	800,000	0,028	-0,059
-427,846	800,000	0,035	-0,069
-426,832	-200,000	0,028	0,106
-425,817	-164,550	-0,038	-0,001
-424,803	-200,000	0,051	0,190
-423,788	-200,000	-0,015	-0,051
-422,773	800,000	0,047	0,093
-421,759	-200,000	-0,001	-0,095
-420,744	-66,096	-0,084	0,024
-419,730	800,000	0,034	0,072
-418,715	208,922	-0,017	-0,020
-417,701	13,468	-0,035	-0,020
-416,686	800,000	0,041	0,122
-415,671	800,000	-0,028	0,072
-414,657	419,773	-0,041	0,064
-413,642	662,053	-0,045	0,084
-412,628	-42,503	0,097	0,035
-411,613	-200,000	0,015	-0,107
-410,598	209,657	-0,037	-0,042
-409,584	-200,000	0,018	0,059
-408,569	800,000	-0,026	-0,074
-407,555	27,861	0,056	0,034
-406,540	800,000	0,057	-0,150
-405,525	303,039	0,073	-0,097
-404,511	-200,000	-0,002	-0,102
-403,496	227,163	-0,104	-0,121
-402,482	324,981	0,072	0,099
-401,467	-41,516	-0,055	-0,020
-400,452	31,174	0,080	-0,049
-399,438	29,575	0,062	-0,038
-398,423	-91,996	-0,186	-0,037
-397,409	-200,000	0,010	0,076
-396,394	-156,509	0,160	0,007
-395,379	141,657	0,088	-0,084
-394,365	-200,000	0,015	-0,102
-393,350	-87,212	0,089	0,019
-392,336	-136,876	0,103	0,008
-391,321	91,605	-0,136	0,109
-390,306	59,598	0,073	0,052
-389,292	20,044	-0,107	-0,062
-388,277	800,000	0,022	-0,068
-387,263	118,398	0,082	0,073
-386,248	800,000	0,030	-0,065
-385,233	237,589	0,037	0,044
-384,219	-74,477	-0,105	0,027
-383,204	-200,000	-0,013	0,099
-382,190	-72,413	-0,203	0,053
-381,175	142,014	-0,075	-0,071
-380,160	800,000	-0,057	0,119
-379,146	-134,468	0,146	-0,013
-378,131	246,937	-0,069	0,084
-377,117	76,571	-0,132	0,100
-376,102	800,000	0,012	0,030
-375,088	-200,000	-0,007	0,073
-374,073	-65,292	-0,146	-0,042
-373,058	460,132	-0,038	-0,061
-372,044	-165,715	0,149	0,005
-371,029	-85,903	0,130	0,029
-370,015	800,000	-0,032	0,081
-369,000	800,000	-0,019	-0,053
-367,985	-61,208	-0,172	-0,052
-366,971	800,000	-0,010	-0,025
-365,956	-200,000	0,005	-0,038
-364,942	-200,000	0,021	0,127
-363,927	-94,778	0,084	-0,016
-362,912	94,552	0,050	-0,041
-361,898	157,097	-0,038	0,037
-360,883	-47,049	0,082	0,028
-359,869	-101,270	-0,044	0,008
-358,854	-17,793	0,173	0,078
-357,839	-200,000	0,006	-0,041
-356,825	-200,000	-0,032	-0,126
-355,810	-104,640	-0,156	0,025
-354,796	43,792	0,047	0,031
-353,781	719,429	0,021	-0,039
-352,766	19,213	-0,098	-0,056
-351,752	-29,078	0,086	-0,035
-350,737	-48,863	0,149	-0,051
-349,723	-200,000	0,025	0,110
-348,708	-107,413	0,082	0,013
-347,693	-116,217	-0,059	-0,008
-346,679	74,764	-0,076	0,057
-345,664	54,202	-0,068	-0,047
-344,650	67,813	0,044	-0,032
-343,635	287,946	0,061	0,079
-342,620	442,634	-0,004	0,007
-341,606	-82,368	0,128	-0,030
-340,591	-200,000	0,006	-0,077
-339,577	-200,000	-0,002	-0,111
-338,562	-104,862	0,100	-0,016
-337,548	-51,836	0,091	0,030
-336,533	-35,089	0,108	0,042
-335,518	-145,182	0,070	-0,004
-334,504	34,472	0,039	0,024
-333,489	148,318	-0,018	-0,018
-332,475	-43,031	-0,103	-0,037
-331,460	234,720	-0,053	-0,063
-330,445	318,573	-0,056	-0,076
-329,431	-200,000	-0,012	0,130
-328,416	800,000	-0,020	0,047
-327,402	68,745	0,132	0,097
-326,387	61,456	-0,050	0,036
-325,372	-200,000	0,013	0,064
-324,358	59,822	-0,086	-0,060
-323,343	800,000	-0,034	0,084
-322,329	179,245	-0,040	0,042
-321,314	-104,921	0,144	0,023
-320,299	-99,025	-0,101	0,018
-319,285	800,000	0,029	0,078
-318,270	52,353	-0,154	-0,105
-317,256	-200,000	0,004	-0,071
-316,241	-3,996	-0,060	0,030
-315,226	-200,000	-0,005	0,084
-314,212	-15,431	-0,052	0,024
-313,197	-200,000	0,169	0,000
-312,183	368,005	0,020	0,029
-311,168	13,885	-0,118	-0,065
-310,153	138,670	0,072	-0,067
-309,139	-25,648	-0,140	0,059
-308,124	-200,000	0,010	0,075
-307,110	271,542	0,077	-0,097
-306,095	-81,817	-0,051	0,012
-305,080	800,000	-0,021	0,062
-304,066	326,950	-0,067	-0,092
-303,051	463,880	0,049	0,078
-302,037	3,050	0,076	-0,039
-301,022	-200,000	0,036	-0,185
-300,008	-137,334	0,152	-0,012
-298,993	77,373	0,085	0,064
-297,978	800,000	0,017	-0,050
-296,964	53,841	-0,055	0,038
-295,949	800,000	-0,050	-0,111
-294,935	74,805	-0,045	-0,034
-293,920	214,961	0,064	0,073
-292,905	800,000	0,060	0,177
-291,891	422,815	0,024	0,037
-290,876	-200,000	0,028	0,190
-289,862	-200,000	-0,024	-0,095
-288,847	587,750	0,015	0,027
-287,832	-5,065	-0,067	0,033
-286,818	357,586	-0,012	0,018
-285,803	-130,092	-0,170	-0,016
-284,789	471,279	0,063	0,102
-283,774	-200,000	0,017	-0,085
-282,759	58,753	0,059	-0,041
-281,745	50,587	-0,101	0,068
-280,730	-200,000	0,032	0,114
-279,716	-200,000	0,005	0,048
-278,701	800,000	-0,022	0,053
-277,686	-200,000	-0,012	0,039
-276,672	-200,000	0,070	0,237
-275,657	800,000	0,018	-0,038
-274,643	-200,000	-0,024	-0,157
-273,628	720,216	-0,029	0,054
-272,613	114,010	-0,088	0,076
-271,599	131,230	0,036	0,033
-270,584	-49,370	0,156	-0,053
-269,570	204,717	-0,036	-0,040
-268,555	0,986	0,052	0,026
-267,540	-200,000	0,002	0,054
-266,526	250,805	-0,119	-0,145
-265,511	800,000	0,018	-0,037
-264,497	-57,906	0,084	0,026
-263,482	112,523	0,097	-0,083
-262,467	67,724	0,030	-0,022
-261,453	800,000	-0,047	0,120
-260,438	800,000	-0,033	0,100
-259,424	800,000	-0,074	-0,197
-258,409	-200,000	-0,001	-0,102
-257,395	-200,000	-0,003	0,101
-256,380	800,000	0,052	0,160
-255,365	35,946	0,144	0,090
-254,351	385,232	0,019	0,027
-253,336	-107,815	-0,083	0,013
-252,322	662,330	-0,021	0,039
-251,307	-12,430	0,128	0,059
-250,292	-40,639	-0,033	0,012
-249,278	-41,145	0,117	0,043
-248,263	263,701	-0,067	0,084
-247,249	127,398	0,027	-0,024
-246,234	-124,633	0,043	0,005
-245,219	-167,537	-0,135	0,004
-244,205	-52,332	-0,023	-0,008
-243,190	126,457	-0,029	-0,026
-242,176	87,358	0,031	-0,024
-241,161	-7,028	0,122	0,059
-240,146	145,706	0,048	-0,046
-239,132	-145,245	0,036	-0,002
-238,117	800,000	0,034	-0,086
-237,103	104,745	-0,137	-0,115
-236,088	800,000	-0,048	-0,102
-235,073	61,802	0,120	0,085
-234,059	800,000	0,044	0,137
-233,044	323,280	-0,054	0,073
-232,030	-200,000	0,003	0,165
-231,015	762,975	-0,025	-0,049
-230,000	-164,881	-0,163	-0,005
-228,986	-145,842	0,164	0,010
-227,971	-97,198	-0,051	0,009
-226,957	356,054	0,032	0,045
-225,942	54,783	0,079	0,054
-224,927	142,553	-0,039	0,037
-223,913	-87,840	0,024	0,005
-222,898	239,433	0,028	-0,033
-221,884	144,153	-0,046	0,044
-220,869	86,817	0,041	0,032
-219,855	-200,000	-0,006	0,031
-218,840	-2,357	0,097	0,048
-217,825	-200,000	-0,000	0,071
-216,811	64,078	-0,072	-0,052
-215,796	168,611	-0,055	0,055
-214,782	-200,000	0,009	0,034
-213,767	-128,889	0,158	-0,016
-212,752	-8,454	-0,153	-0,073
-211,738	26,871	-0,078	0,047
-210,723	800,000	-0,040	0,120
-209,709	-152,707	-0,055	-0,003
-208,694	-200,000	0,031	-0,102
-207,679	-200,000	0,017	-0,096
-206,665	-152,744	0,096	-0,005
-205,650	-200,000	-0,006	0,021
-204,636	202,556	-0,052	0,057
-203,621	-24,504	-0,027	0,011
-202,606	67,624	-0,099	-0,072
-201,592	304,745	-0,099	-0,131
-200,577	383,333	0,046	0,068
-199,563	-200,000	0,016	0,116
-198,548	738,125	0,057	0,110
-197,533	95,617	0,037	0,030
-196,519	-103,419	0,077	0,013
-195,504	-111,263	-0,116	-0,017
-194,490	-200,000	0,015	0,056
-193,475	-200,000	0,001	0,047
-192,460	287,471	-0,017	0,022
-191,446	131,661	-0,154	-0,141
-190,431	-200,000	-0,001	-0,050
-189,417	-200,000	0,019	0,063
-188,402	-70,429	-0,073	-0,020
-187,387	-200,000	0,025	-0,129
-186,373	43,354	-0,093	-0,060
-185,358	-60,838	0,014	0,004
-184,344	583,011	0,037	0,066
-183,329	84,096	0,121	-0,094
-182,315	-200,000	0,005	-0,026
-181,300	-23,230	-0,091	0,039
-180,285	-157,732	-0,163	0,007
-179,271	-200,000	-0,014	-0,130
-178,256	125,413	-0,079	0,071
-177,242	-200,000	-0,000	0,001
-176,227	800,000	-0,019	-0,055
-175,212	-56,185	-0,151	-0,048
-174,198	-105,014	0,063	0,010
-173,183	633,064	-0,067	-0,121
-172,169	375,325	0,052	0,075
-171,154	-200,000	-0,014	-0,140
-170,139	-64,679	0,096	-0,028
-169,125	-200,000	0,020	0,170
-168,110	-200,000	0,024	0,128
-167,096	172,801	0,010	-0,010
-166,081	-200,000	0,009	0,120
-165,066	-110,350	-0,211	0,031
-164,052	45,185	-0,083	0,054
-163,037	473,056	0,039	0,062
-162,023	112,102	0,035	-0,030
-161,008	9,050	0,044	-0,023
-159,993	-200,000	0,025	-0,087
-158,979	99,824	-0,123	0,101
-157,964	208,176	-0,061	-0,068
-156,950	10,568	-0,063	-0,034
-155,935	70,385	0,048	-0,035
-154,920	223,380	-0,029	-0,033
-153,906	-200,000	-0,005	-0,020
-152,891	800,000	-0,047	0,106
-151,877	326,793	-0,096	0,131
-150,862	381,153	0,070	-0,102
-149,847	-200,000	0,035	-0,173
-148,833	123,392	-0,051	0,046
-147,818	-200,000	-0,015	-0,069
-146,804	504,514	-0,055	0,091
-145,789	493,901	-0,035	0,057
-144,775	-200,000	0,021	0,148
-143,760	-200,000	0,033	-0,106
-142,745	-200,000	-0,009	-0,143
-141,731	264,905	0,066	-0,082
-140,716	-200,000	0,000	-0,018
-139,702	-200,000	0,029	0,140
-138,687	800,000	-0,012	0,025
-137,672	-17,056	0,058	0,026
-136,658	54,087	-0,128	0,087
-135,643	-37,834	0,140	-0,053
-134,629	-43,802	-0,055	-0,019
-133,614	185,121	0,223	0,235
-132,599	-200,000	-0,012	0,146
-131,585	800,000	-0,023	0,068
-130,570	508,374	0,071	-0,118
-129,556	-95,814	-0,081	-0,015
-128,541	304,876	-0,068	-0,089
-127,526	175,519	-0,091	-0,093
-126,512	-132,237	0,171	0,016
-125,497	169,224	-0,044	0,044
-124,483	-200,000	-0,009	-0,115
-123,468	-200,000	-0,005	0,069
-122,453	455,502	-0,063	0,099
-121,439	800,000	0,036	-0,103
-120,424	252,081	-0,089	-0,107
-119,410	-200,000	-0,011	0,071
-118,395	-148,951	-0,048	-0,003
-117,380	365,780	0,071	0,101
-116,366	-200,000	-0,041	0,130
-115,351	-99,532	-0,111	-0,020
-114,337	-35,480	0,044	0,017
-113,322	166,526	-0,107	-0,108
-112,307	-10,803	0,076	0,036
-111,293	122,234	0,061	0,054
-110,278	800,000	0,023	0,051
-109,264	119,934	-0,064	0,056
-108,249	-55,383	-0,127	-0,040
-107,234	-47,986	-0,065	0,022
-106,220	-161,182	-0,145	0,005
-105,205	106,579	0,131	-0,110
-104,191	-200,000	-0,014	-0,097
-103,176	548,798	0,012	0,020
-102,162	-200,000	0,006	0,070
-101,147	-200,000	0,027	-0,122
-100,132	-200,000	0,010	-0,063
-99,118	-59,756	-0,038	-0,011
-98,103	21,340	0,026	-0,015
-97,089	-200,000	-0,023	0,156
-96,074	257,075	-0,051	0,062
-95,059	132,132	0,102	0,093
-94,045	196,399	0,054	-0,058
-93,030	87,936	-0,158	-0,124
-92,016	-180,690	0,037	0,001
-91,001	-74,245	-0,211	-0,054
-89,986	-72,986	0,177	-0,046
-88,972	-34,038	-0,112	-0,043
-87,957	800,000	0,052	0,148
-86,943	305,895	-0,031	0,041
-85,928	24,751	-0,131	0,076
-84,913	121,102	-0,032	0,029
-83,899	-187,804	-0,057	0,001
-82,884	107,994	0,063	0,053
-81,870	-200,000	-0,003	-0,011
-80,855	-200,000	0,005	0,024
-79,840	-8,729	-0,145	-0,069
-78,826	800,000	0,015	-0,037
-77,811	744,986	0,015	-0,029
-76,797	19,292	-0,074	-0,042
-75,782	-27,832	0,097	0,040
-74,767	69,119	-0,014	-0,010
-73,753	-200,000	-0,000	0,059
-72,738	360,485	0,038	0,054
-71,724	800,000	0,080	0,186
-70,709	-24,860	-0,073	-0,030
-69,694	800,000	0,039	-0,120
-68,680	-40,787	-0,084	0,031
-67,665	-50,265	0,050	0,017
-66,651	-71,974	-0,087	0,023
-65,636	800,000	0,017	0,051
-64,622	800,000	0,066	0,193
-63,607	-44,220	-0,086	0,031
-62,592	472,880	0,014	-0,022
-61,578	-200,000	0,000	0,097
-60,563	-200,000	0,019	0,073
-59,549	387,555	-0,089	0,131
-58,534	-28,966	-1,537	-0,622
-57,519	397,930	-1,388	-2,061
-56,505	-200,000	-0,426	-4,619
-55,490	283,514	1,049	1,336
-54,476	800,000	4,705	10,917
-53,461	-200,000	19,033	318,005
-52,446	-200,000	739,799	2333,200
-51,432	575,573	1654,812	2870,577
-50,417	78,504	1670,946	1262,117
-49,403	21,405	1543,713	885,477
-48,388	15,249	1466,457	811,249
-47,373	17,821	1456,660	818,219
-46,359	16,611	1446,563	806,717
-45,344	13,510	1441,817	789,189
-44,330	13,424	1439,865	787,682
-43,315	13,446	1438,312	786,905
-42,300	13,430	1436,680	785,903
-41,286	13,452	1435,231	785,187
-40,271	13,410	1433,928	784,239
-39,257	13,441	1432,481	783,566
-38,242	13,486	1431,372	783,141
-37,227	13,479	1430,259	782,470
-36,213	13,454	1429,040	781,650
-35,198	13,440	1427,842	780,898
-34,184	13,527	1426,571	780,585
-33,169	13,425	1425,533	779,503
-32,154	13,519	1424,483	779,343
-31,140	13,506	1423,046	778,465
-30,125	13,526	1421,872	777,888
-29,111	13,497	1420,874	777,173
-28,096	13,455	1419,805	776,358
-27,082	13,370	1418,845	775,403
-26,067	13,381	1417,765	774,831
-25,052	13,414	1416,566	774,303
-24,038	13,375	1415,647	773,585
-23,023	13,391	1414,636	773,079
-22,009	13,360	1413,549	772,307
-20,994	13,359	1412,703	771,810
-19,979	13,394	1411,745	771,419
-18,965	13,352	1410,882	770,722
-17,950	13,343	1409,924	770,123
-16,936	13,350	1408,838	769,534
-15,921	13,309	1407,660	768,668
-14,906	13,325	1406,976	768,341
-13,892	13,364	1406,049	767,983
-12,877	13,289	1405,225	767,152
-11,863	13,312	1404,227	766,686
-10,848	13,295	1403,376	766,112
-9,833	13,261	1402,733	765,572
-8,819	13,227	1401,739	764,841
-7,804	13,220	1400,687	764,204
-6,790	13,232	1399,593	763,632
-5,775	13,224	1398,675	763,064
-4,760	13,212	1397,439	762,304
-3,746	13,237	1396,745	762,012
-2,731	13,199	1395,927	761,358
-1,717	13,204	1395,095	760,897
-0,702	13,157	1393,249	759,642
0,313	17,069	1310,194	732,451
1,327	33,416	703,922	431,283
2,342	51,614	123,265	82,730
3,356	1,392	16,683	8,452
4,371	7,633	3,317	1,750
5,386	42,128	0,561	0,360
6,400	280,894	0,199	0,253
7,415	13,907	-0,234	-0,128
8,429	-4,165	-0,348	-0,170
9,444	92,492	-0,337	-0,269
10,459	-15,916	-0,231	-0,103
11,473	205,655	-0,249	-0,273
12,488	-49,478	-0,381	-0,127
13,502	314,930	-0,279	-0,372
14,517	-67,269	-0,374	-0,103
15,531	52,360	-0,311	-0,209
16,546	505,868	-0,202	-0,331
17,561	326,669	-0,237	-0,321
18,575	-70,910	-0,298	-0,079
19,590	191,968	-0,221	-0,235
20,604	-52,094	-0,268	0,087
21,619	17,877	-0,551	-0,309
22,634	125,392	-0,491	-0,438
23,648	63,513	-0,508	-0,359
24,663	184,420	-0,403	-0,422
25,677	-76,107	-0,405	-0,100
26,692	-59,061	-0,297	-0,090
27,707	68,065	-0,367	-0,265
28,721	31,204	-0,451	-0,272
29,736	84,211	-0,526	-0,405
30,750	82,044	-0,370	-0,282
31,765	64,116	-0,504	-0,357
32,780	17,642	-0,439	-0,246
33,794	49,934	-0,339	-0,225
34,809	178,477	-0,282	-0,291
35,823	-115,485	-0,373	-0,049
36,838	99,081	-0,423	-0,344
37,853	5,226	-0,346	-0,179
38,867	89,056	-0,347	-0,272
39,882	69,342	-0,450	-0,326
40,896	94,422	-0,308	-0,247
41,911	34,587	-0,403	-0,248
42,926	203,914	-0,348	-0,380
43,940	739,813	-0,221	-0,421
44,955	121,780	-0,365	-0,320
45,969	90,504	-0,257	-0,203
46,984	-15,177	-0,234	-0,105
47,999	737,162	-0,118	-0,224
49,013	70,638	-0,350	-0,254
50,028	82,362	-0,298	-0,228
51,042	136,858	-0,284	-0,261
52,057	286,876	-0,237	-0,302
53,071	43,788	-0,336	-0,216
54,086	42,223	-0,272	-0,173
55,101	-76,322	-0,386	-0,095
56,115	-44,956	-0,349	-0,122
57,130	58,395	-0,322	-0,222
58,144	6,647	-0,333	-0,174
59,159	110,058	-0,349	-0,294
60,174	145,008	-0,351	-0,331
61,188	177,175	-0,389	-0,399
62,203	175,189	-0,302	-0,308
63,217	-46,310	-0,479	-0,165
64,232	46,935	-0,327	-0,213
65,247	23,993	-0,389	-0,225
66,261	298,571	-0,183	-0,238
67,276	12,750	-0,493	-0,267
68,290	67,588	-0,412	-0,295
69,305	116,666	-0,255	-0,220
70,320	60,200	-0,198	-0,138
71,334	140,564	-0,192	-0,178
72,349	182,802	-0,330	-0,343
73,363	250,886	-0,237	-0,284
74,378	-89,069	-0,343	-0,071
75,393	-33,592	-0,235	-0,091
76,407	124,214	-0,279	-0,247
77,422	209,943	-0,209	-0,230
78,436	58,243	-0,289	-0,199
79,451	-93,251	-0,397	-0,077
80,466	-80,565	-0,392	-0,091
81,480	-11,231	-0,292	-0,134
82,495	284,876	-0,283	-0,358
83,509	134,042	-0,256	-0,233
84,524	92,328	-0,277	-0,219
85,539	-131,661	-0,282	-0,026
86,553	56,517	-0,286	-0,195
87,568	110,619	-0,274	-0,231
88,582	23,517	-0,352	-0,203
89,597	204,418	-0,124	-0,136
90,611	-56,373	-0,374	-0,116
91,626	-99,314	-0,237	-0,042
92,641	-21,305	-0,214	-0,091
93,655	-134,096	-0,348	-0,030
94,670	-102,464	-0,254	-0,042
95,684	-30,341	-0,369	-0,146
96,699	140,704	-0,218	-0,202
97,714	224,368	-0,186	-0,211
98,728	57,965	-0,346	-0,237
99,743	82,366	-0,199	-0,152
100,757	-125,353	-0,246	-0,026
101,772	-200,000	-0,066	-0,304
102,787	255,127	-0,247	-0,297
103,801	-71,283	-0,399	-0,104
104,816	-60,028	-0,242	-0,072
105,830	-98,842	-0,327	-0,058
106,845	-67,891	-0,326	-0,089
107,860	172,870	-0,251	-0,254
108,874	-19,948	-0,254	-0,110
109,889	80,343	-0,291	-0,219
110,903	614,526	-0,181	-0,319
111,918	152,605	-0,180	-0,172
112,933	-155,045	-0,218	-0,010
113,947	-60,810	-0,231	-0,068
114,962	22,184	-0,324	-0,185
115,976	142,867	-0,174	-0,162
116,991	56,470	-0,303	-0,206
118,006	18,381	-0,319	-0,178
119,020	337,611	-0,211	-0,288
120,035	-28,380	-0,266	-0,107
121,049	58,145	-0,191	-0,131
122,064	-20,712	-0,277	-0,118
123,079	269,165	-0,225	-0,277
124,093	216,016	-0,277	-0,308
125,108	56,727	-0,326	-0,222
126,122	138,610	-0,224	-0,206
127,137	187,515	-0,229	-0,239
128,151	-68,734	-0,075	-0,020
129,166	90,605	-0,149	-0,117
130,181	-30,684	-0,272	-0,107
131,195	305,694	-0,320	-0,417
132,210	50,076	-0,252	-0,166
133,224	-90,424	-0,203	0,041
134,239	105,446	-0,174	-0,143
135,254	253,756	-0,219	-0,262
136,268	-58,322	-0,141	-0,042
137,283	-3,214	-0,344	-0,167
138,297	104,581	-0,210	-0,173
139,312	-46,648	-0,292	-0,099
140,327	183,292	-0,163	-0,168
141,341	-14,066	-0,286	-0,128
142,356	343,755	-0,154	-0,211
143,370	-134,551	-0,200	0,017
144,385	222,721	-0,190	-0,214
145,400	10,253	-0,221	-0,117
146,414	123,950	-0,268	-0,235
147,429	102,405	-0,227	-0,185
148,443	96,790	-0,171	-0,137
149,458	480,016	-0,069	-0,109
150,473	-74,548	-0,293	-0,073
151,487	27,451	-0,234	-0,137
152,502	-47,384	-0,339	-0,114
153,516	145,729	-0,257	-0,241
154,531	232,179	-0,256	-0,293
155,546	59,089	-0,263	-0,180
156,560	72,111	-0,213	-0,155
157,575	-64,783	-0,272	-0,076
158,589	148,515	-0,175	-0,164
159,604	166,254	-0,254	-0,251
160,619	18,408	-0,268	-0,149
161,633	96,742	-0,266	-0,213
162,648	-36,623	-0,301	-0,112
163,662	78,746	-0,176	-0,131
164,677	-128,131	-0,230	-0,023
165,692	28,241	-0,201	-0,118
166,706	220,285	-0,268	-0,299
167,721	-59,154	-0,245	-0,073
168,735	348,103	-0,165	-0,227
169,750	73,056	-0,257	-0,187
170,764	-97,908	-0,203	0,036
171,779	-110,151	-0,155	0,022
172,794	116,175	-0,210	-0,179
173,808	116,521	-0,167	-0,143
174,823	-12,237	-0,285	-0,129
175,837	54,225	-0,336	-0,225
176,852	156,288	-0,263	-0,253
177,867	268,700	-0,152	-0,187
178,881	357,383	-0,161	-0,225
179,896	-141,705	-0,317	-0,022
180,910	-69,842	-0,241	-0,064
181,925	151,879	-0,184	-0,175
182,940	320,829	-0,159	-0,211
183,954	105,698	-0,181	-0,149
184,969	36,025	-0,103	-0,063
185,983	115,371	-0,152	-0,129
186,998	-181,493	-0,169	0,002
188,013	116,804	-0,245	-0,209
189,027	72,467	-0,162	-0,117
190,042	109,821	-0,242	-0,202
191,056	152,982	-0,148	-0,141
192,071	304,495	-0,167	-0,217
193,086	71,791	-0,126	-0,091
194,100	234,591	-0,170	-0,196
195,115	335,146	-0,102	-0,138
196,129	228,894	-0,227	-0,258
197,144	302,879	-0,186	-0,240
198,159	-49,920	-0,292	-0,096
199,173	-49,589	-0,264	-0,087
200,188	238,734	-0,142	-0,164
201,202	167,757	-0,096	-0,095
202,217	15,781	-0,357	-0,195
203,232	138,679	-0,193	-0,176
204,246	800,000	-0,110	-0,238
205,261	70,538	-0,217	-0,155
206,275	133,016	-0,218	-0,196
207,290	-200,000	0,005	-0,154
208,304	800,000	-0,079	-0,175
209,319	199,430	-0,087	-0,093
210,334	53,465	-0,193	-0,128
211,348	-68,413	-0,262	-0,070
212,363	-36,343	-0,201	-0,075
213,377	11,292	-0,183	-0,097
214,392	-135,202	-0,231	0,019
215,407	11,373	-0,109	0,058
216,421	-107,034	-0,138	0,021
217,436	218,916	-0,185	-0,206
218,450	56,055	-0,133	-0,089
219,465	156,910	-0,204	-0,196
220,480	203,612	-0,136	-0,147
221,494	214,725	-0,088	-0,097
222,509	-83,218	-0,216	-0,048
223,523	-64,466	-0,267	-0,075
224,538	-177,028	-0,069	0,001
225,553	-46,629	-0,402	-0,136
226,567	276,860	-0,184	-0,227
227,582	-11,865	-0,209	-0,095
228,596	69,324	-0,105	-0,075
229,611	-8,404	-0,194	-0,090
230,626	-53,244	-0,136	-0,043
231,640	76,860	-0,154	-0,113
232,655	126,830	-0,260	-0,228
233,669	149,781	-0,312	-0,293
234,684	-56,156	-0,213	-0,065
235,699	-116,707	-0,200	0,025
236,713	-13,253	-0,200	-0,089
237,728	678,740	-0,129	-0,234
238,742	-14,590	-0,196	-0,087
239,757	-83,244	-0,288	-0,064
240,772	19,893	-0,208	-0,116
241,786	559,837	-0,111	-0,187
242,801	-43,895	-0,138	-0,048
243,815	-42,810	-0,131	-0,046
244,830	-98,157	-0,090	-0,016
245,844	-17,558	-0,303	-0,131
246,859	14,690	-0,257	-0,139
247,874	-58,073	-0,245	-0,073
248,888	419,520	-0,116	-0,172
249,903	-18,902	-0,162	-0,069
250,917	435,575	-0,112	-0,169
251,932	132,801	-0,090	-0,081
252,947	56,651	-0,227	-0,152
253,961	282,411	-0,198	-0,246
254,976	358,373	-0,095	-0,132
255,990	47,542	-0,245	-0,158
257,005	168,570	-0,190	-0,187
258,020	800,000	-0,092	-0,269
259,034	-142,840	-0,170	-0,011
260,049	-0,105	-0,084	-0,041
261,063	102,829	-0,275	-0,222
262,078	284,435	-0,188	-0,234
263,093	98,934	-0,151	-0,121
264,107	383,063	-0,227	-0,324
265,122	523,604	-0,129	-0,210
266,136	-14,004	-0,170	-0,076
267,151	54,835	-0,141	-0,094
268,166	800,000	-0,066	-0,144
269,180	70,117	-0,247	-0,176
270,195	192,273	-0,099	-0,103
271,209	-125,227	-0,137	-0,014
272,224	162,777	-0,102	-0,099
273,239	26,759	-0,190	-0,109
274,253	317,263	-0,099	-0,130
275,268	709,464	-0,080	-0,146
276,282	27,661	-0,216	-0,125
277,297	45,968	-0,221	-0,141
278,312	-32,728	-0,172	-0,066
279,326	-82,924	-0,119	-0,026
280,341	51,843	-0,159	-0,104
281,355	190,385	-0,129	-0,134
282,370	406,516	-0,131	-0,192
283,384	196,582	-0,168	-0,177
284,399	226,495	-0,183	-0,206
285,414	-72,423	-0,189	-0,048
286,428	-200,000	-0,007	-0,030
287,443	-42,274	-0,116	0,041
288,457	-36,451	-0,124	-0,046
289,472	-87,139	0,087	-0,018
290,487	230,026	-0,154	-0,174
291,501	800,000	-0,053	-0,134
292,516	55,465	-0,275	-0,183
293,530	128,341	-0,157	-0,138
294,545	142,322	-0,184	-0,168
295,560	800,000	-0,095	-0,204
296,574	17,309	-0,049	-0,027
297,589	307,746	-0,119	-0,153
298,603	81,275	-0,172	-0,128
299,618	248,746	-0,154	-0,180
300,633	486,707	-0,124	-0,196
301,647	-121,381	-0,253	-0,029
302,662	237,966	-0,137	-0,157
303,676	-55,497	-0,223	-0,068
304,691	-23,901	-0,261	-0,107
305,706	330,014	-0,121	-0,160
306,720	196,847	-0,140	-0,147
307,735	800,000	-0,085	-0,183
308,749	308,301	-0,051	0,065
309,764	469,267	-0,134	-0,207
310,779	-115,957	-0,107	-0,014
311,793	22,807	-0,146	-0,082
312,808	-72,020	-0,156	-0,040
313,822	-91,898	-0,149	-0,029
314,837	-123,968	-0,051	-0,005
315,852	-1,774	-0,072	-0,035
316,866	53,104	-0,101	-0,066
317,881	92,204	-0,220	-0,171
318,895	800,000	-0,017	-0,037
319,910	-129,236	-0,165	-0,016
320,925	-109,378	-0,223	-0,032
321,939	-99,305	-0,077	0,013
322,954	87,869	-0,231	-0,176
323,968	-173,995	-0,089	-0,002
324,983	54,924	-0,294	-0,195
325,997	-90,266	-0,052	0,010
327,012	-4,573	-0,265	-0,125
328,027	634,547	-0,066	-0,116
329,041	546,867	-0,112	-0,184
330,056	800,000	-0,081	-0,157
331,070	800,000	-0,059	-0,121
332,085	-67,170	-0,167	0,045
333,100	-161,828	-0,152	-0,005
334,114	121,887	-0,179	-0,153
335,129	773,255	-0,074	-0,139
336,143	119,880	-0,096	-0,081
337,158	-48,780	-0,071	-0,023
338,173	70,068	-0,167	0,118
339,187	800,000	-0,040	-0,109
340,202	148,039	-0,096	-0,089
341,216	33,327	-0,248	-0,148
342,231	-37,407	-0,214	-0,078
343,246	-200,000	0,022	-0,217
344,260	459,519	-0,149	-0,229
345,275	-200,000	-0,021	-0,094
346,289	-124,799	-0,125	-0,013
347,304	-170,462	-0,146	0,003
348,319	125,543	-0,192	-0,167
349,333	53,847	-0,156	-0,103
350,348	51,803	-0,215	-0,140
351,362	558,943	-0,103	-0,171
352,377	-54,434	-0,106	0,033
353,392	-118,412	-0,178	-0,021
354,406	-52,925	-0,103	-0,032
355,421	208,116	1315,927	1411,395
356,435	160,122	1476,785	1411,876
