DTS Sentinel unit serial number:	SN410029Multiplexer serial number:	ORYXHardware model number:	OX2-SRSoftware version number:	ORYX F/W v4,00 Oryx Data Collector v3.7.2.0data status	okinstallation	B3 Nyhavnadifferential loss correction	single-endedforward channel	channel 1reverse channel	N/Adate	2023/11/30time	10:42:30forward acquisition time	300,00reverse acquisition time	0,00gamma	499,1914k internal	0,3211k external	0,3211temperature offset calibration	1,0000default loss term (dB/km)	0,3820temperature slope calibration	1,0000multiplexer offset coefficient	1,0000multiplexer slope coefficient	1,0000fibre end	0,00T internal ref (°C)	9,56T ext. ref 1 (°C)	-5,46T ext. ref 2 (°C)	-5,58length (m)	temperature (°C)	Stokes	anti-Stokes-744,400	88,795	-0,198	-0,160
-743,385	800,000	-0,101	0,312
-742,371	204,659	-0,133	-0,150
-741,356	-200,000	-0,005	0,371
-740,342	357,523	-0,161	-0,234
-739,327	-200,000	0,013	0,256
-738,312	93,449	-0,255	-0,209
-737,298	-200,000	0,019	0,207
-736,283	110,070	-0,180	-0,157
-735,269	-200,000	-0,008	0,290
-734,254	-179,505	-0,246	0,004
-733,239	409,481	-0,138	0,212
-732,225	292,610	-0,128	-0,169
-731,210	71,193	0,170	0,127
-730,196	25,114	-0,189	-0,114
-729,181	-5,188	-0,244	-0,121
-728,167	773,099	-0,017	0,034
-727,152	-158,191	-0,125	0,005
-726,137	18,455	-0,112	-0,065
-725,123	399,442	0,073	-0,110
-724,108	107,930	-0,119	-0,103
-723,094	-138,185	-0,182	0,014
-722,079	-200,000	-0,018	-0,229
-721,064	800,000	-0,026	-0,066
-720,050	-51,387	-0,061	-0,020
-719,035	-136,357	0,096	0,008
-718,021	800,000	0,022	-0,053
-717,006	-200,000	-0,009	-0,127
-715,991	-115,694	0,099	-0,013
-714,977	22,864	-0,131	-0,077
-713,962	30,590	-0,124	-0,077
-712,948	-40,812	0,065	-0,024
-711,933	-69,305	0,130	-0,036
-710,918	264,283	0,053	0,067
-709,904	800,000	-0,017	0,046
-708,889	-100,526	-0,089	0,016
-707,875	-48,292	0,047	0,016
-706,860	-200,000	-0,023	-0,073
-705,845	-200,000	-0,017	0,113
-704,831	-200,000	-0,002	0,008
-703,816	-47,161	-0,046	0,016
-702,802	26,194	-0,100	0,060
-701,787	-200,000	-0,006	0,045
-700,772	23,524	-0,104	0,062
-699,758	116,933	-0,038	-0,033
-698,743	-65,261	0,035	0,010
-697,729	-7,492	-0,136	-0,066
-696,714	245,285	0,121	0,147
-695,699	799,242	-0,037	-0,074
-694,685	-94,056	-0,140	-0,028
-693,670	-200,000	-0,001	-0,009
-692,656	183,849	-0,033	-0,036
-691,641	155,139	0,028	-0,028
-690,627	-200,000	-0,018	0,166
-689,612	-200,000	0,009	-0,032
-688,597	-89,684	-0,019	-0,004
-687,583	-200,000	0,002	-0,188
-686,568	146,264	-0,022	-0,021
-685,554	-61,494	0,103	0,031
-684,539	800,000	-0,056	0,113
-683,524	-56,380	0,079	0,025
-682,510	-82,392	-0,102	0,024
-681,495	17,139	-0,154	0,088
-680,481	-200,000	-0,026	-0,252
-679,466	325,653	-0,115	-0,159
-678,451	800,000	0,024	-0,049
-677,437	88,862	0,023	0,019
-676,422	-127,566	0,052	-0,005
-675,408	-200,000	0,017	0,068
-674,393	259,923	-0,022	0,028
-673,378	325,626	-0,076	-0,106
-672,364	-200,000	-0,010	-0,161
-671,349	23,563	0,093	-0,055
-670,335	-31,478	-0,092	-0,037
-669,320	-35,291	0,091	-0,036
-668,305	-10,309	0,112	-0,054
-667,291	363,393	-0,117	0,171
-666,276	44,412	0,118	-0,078
-665,262	175,336	0,121	0,127
-664,247	-126,429	-0,077	0,008
-663,232	800,000	-0,031	0,081
-662,218	-45,490	0,174	0,062
-661,203	-103,365	-0,115	-0,019
-660,189	4,372	-0,077	-0,040
-659,174	532,338	0,045	-0,078
-658,159	26,795	-0,100	-0,060
-657,145	221,093	0,029	0,034
-656,130	155,840	0,007	0,007
-655,116	-200,000	-0,018	0,089
-654,101	-26,783	-0,108	0,045
-653,086	371,592	-0,062	0,091
-652,072	-43,164	0,007	-0,002
-651,057	-200,000	0,045	-0,192
-650,043	-200,000	-0,018	-0,124
-649,028	-200,000	-0,007	0,022
-648,014	-32,339	0,203	0,081
-646,999	329,050	0,080	0,111
-645,984	-200,000	-0,005	0,031
-644,970	-21,204	0,098	0,043
-643,955	-200,000	0,011	-0,232
-642,941	-200,000	-0,016	-0,163
-641,926	61,689	-0,083	-0,060
-640,911	674,231	0,031	0,057
-639,897	199,580	0,116	0,129
-638,882	-200,000	-0,025	0,093
-637,868	-200,000	-0,043	-0,144
-636,853	-200,000	0,045	-0,158
-635,838	26,452	-0,094	0,057
-634,824	230,530	0,035	-0,041
-633,809	40,288	0,128	0,083
-632,795	126,402	0,037	0,034
-631,780	753,240	-0,051	0,099
-630,765	-190,169	-0,204	-0,002
-629,751	138,602	0,053	0,050
-628,736	-61,596	-0,063	0,019
-627,722	-200,000	0,020	0,086
-626,707	286,135	-0,036	0,048
-625,692	442,850	0,039	-0,061
-624,678	-120,123	-0,049	-0,006
-623,663	-200,000	-0,025	0,104
-622,649	114,665	-0,101	-0,089
-621,634	-200,000	0,023	-0,090
-620,619	-83,056	-0,074	-0,017
-619,605	495,055	-0,046	0,076
-618,590	86,759	0,082	0,065
-617,576	-200,000	-0,042	0,257
-616,561	404,119	-0,079	-0,120
-615,546	800,000	-0,044	-0,098
-614,532	800,000	0,076	-0,160
-613,517	186,299	0,059	0,063
-612,503	800,000	-0,070	-0,152
-611,488	-200,000	-0,013	0,134
-610,474	-10,949	0,047	0,022
-609,459	-200,000	-0,004	0,028
-608,444	800,000	-0,072	-0,172
-607,430	402,962	-0,019	-0,030
-606,415	-4,579	0,020	-0,010
-605,401	-200,000	-0,036	0,133
-604,386	-200,000	-0,008	0,136
-603,371	-61,579	0,027	-0,008
-602,357	-25,046	-0,065	-0,028
-601,342	547,403	-0,059	-0,102
-600,328	31,311	-0,104	0,064
-599,313	-123,325	-0,058	0,007
-598,298	-17,418	0,074	-0,033
-597,284	-26,076	-0,053	-0,023
-596,269	10,775	0,113	0,062
-595,255	-110,382	-0,005	-0,001
-594,240	334,138	-0,082	-0,115
-593,225	167,272	-0,080	-0,082
-592,211	800,000	0,039	-0,079
-591,196	425,882	-0,072	-0,113
-590,182	-60,209	0,047	-0,014
-589,167	800,000	0,050	0,133
-588,152	800,000	0,040	0,112
-587,138	-117,352	-0,073	-0,009
-586,123	-200,000	0,008	0,060
-585,109	96,590	-0,036	0,030
-584,094	-87,440	0,094	0,020
-583,079	800,000	0,051	-0,123
-582,065	-49,119	0,047	0,016
-581,050	215,150	-0,010	-0,011
-580,036	128,221	-0,058	-0,053
-579,021	800,000	-0,007	-0,022
-578,006	-200,000	0,026	-0,087
-576,992	800,000	-0,070	0,161
-575,977	-200,000	0,027	-0,159
-574,963	110,234	0,075	-0,065
-573,948	-157,939	-0,042	0,002
-572,934	-200,000	-0,004	0,046
-571,919	-164,667	-0,077	-0,002
-570,904	158,797	-0,107	-0,107
-569,890	-200,000	-0,009	-0,079
-568,875	297,776	-0,041	-0,054
-567,861	800,000	0,045	0,133
-566,846	-200,000	0,014	0,047
-565,831	-80,811	0,029	-0,007
-564,817	34,729	-0,079	0,050
-563,802	234,798	0,025	0,030
-562,788	-86,949	-0,057	-0,013
-561,773	660,095	-0,024	0,044
-560,758	73,982	0,207	0,157
-559,744	-54,038	0,144	-0,047
-558,729	240,285	-0,079	0,095
-557,715	-122,343	-0,149	0,017
-556,700	156,648	-0,101	-0,101
-555,685	353,522	-0,068	0,097
-554,671	130,998	-0,063	0,058
-553,656	197,798	-0,030	-0,033
-552,642	-142,468	0,076	-0,005
-551,627	183,651	0,064	0,068
-550,612	-200,000	0,013	0,049
-549,598	800,000	-0,065	-0,170
-548,583	800,000	0,021	-0,057
-547,569	47,961	0,029	-0,019
-546,554	-33,928	0,099	-0,039
-545,539	564,053	0,046	0,080
-544,525	-152,819	-0,049	-0,002
-543,510	800,000	0,044	-0,120
-542,496	-87,762	0,051	-0,011
-541,481	172,448	-0,043	-0,045
-540,466	38,454	-0,057	0,037
-539,452	365,951	-0,051	-0,075
-538,437	380,988	0,089	0,132
-537,423	-200,000	0,008	0,085
-536,408	800,000	-0,059	-0,154
-535,393	-58,222	0,079	-0,025
-534,379	-22,773	-0,124	0,054
-533,364	355,475	-0,079	-0,113
-532,350	-64,653	0,049	0,014
-531,335	-200,000	-0,025	0,087
-530,321	800,000	-0,033	0,099
-529,306	-98,885	-0,087	0,016
-528,291	-200,000	-0,040	-0,133
-527,277	-44,450	0,057	0,021
-526,262	186,311	-0,103	0,110
-525,248	-200,000	0,003	-0,068
-524,233	800,000	0,037	0,088
-523,218	439,697	-0,025	0,039
-522,204	139,581	0,145	0,137
-521,189	800,000	-0,023	-0,053
-520,175	260,718	-0,130	-0,162
-519,160	225,013	0,068	-0,079
-518,145	-113,491	0,107	-0,015
-517,131	-39,855	0,112	0,042
-516,116	-200,000	-0,005	-0,050
-515,102	64,240	0,032	-0,023
-514,087	502,917	-0,090	-0,151
-513,072	-78,169	-0,093	-0,023
-512,058	-200,000	0,003	-0,026
-511,043	247,652	-0,041	0,050
-510,029	-151,056	0,142	-0,008
-509,014	71,075	-0,030	0,022
-507,999	800,000	0,015	0,040
-506,985	431,495	0,033	0,051
-505,970	800,000	0,062	-0,153
-504,956	-120,559	0,083	0,010
-503,941	-49,229	-0,028	0,010
-502,926	612,784	-0,028	0,050
-501,912	-193,900	0,079	0,000
-500,897	779,239	-0,024	-0,047
-499,883	-200,000	-0,002	0,029
-498,868	800,000	-0,018	0,055
-497,853	800,000	-0,034	-0,082
-496,839	635,406	-0,033	0,061
-495,824	-71,163	0,061	0,016
-494,810	29,611	0,101	0,062
-493,795	-200,000	0,014	0,159
-492,781	800,000	0,034	-0,105
-491,766	158,142	-0,038	0,038
-490,751	112,256	0,036	-0,031
-489,737	305,627	0,055	-0,074
-488,722	34,503	0,111	0,070
-487,708	-147,701	-0,110	0,007
-486,693	-200,000	-0,021	-0,079
-485,678	294,403	-0,054	0,072
-484,664	122,206	0,076	0,068
-483,649	-200,000	0,018	0,102
-482,635	-200,000	0,022	-0,140
-481,620	343,259	-0,079	0,112
-480,605	-142,790	0,062	-0,004
-479,591	389,714	-0,063	-0,094
-478,576	-92,997	0,188	-0,037
-477,562	130,090	-0,048	-0,044
-476,547	-200,000	0,002	-0,074
-475,532	-200,000	0,061	-0,209
-474,518	127,569	0,086	-0,078
-473,503	111,960	0,017	-0,015
-472,489	-103,296	-0,182	-0,031
-471,474	119,174	-0,033	0,029
-470,459	-79,853	0,111	0,027
-469,445	-84,213	-0,049	-0,011
-468,430	-107,395	-0,035	-0,005
-467,416	-200,000	-0,006	0,054
-466,401	800,000	-0,013	0,028
-465,386	62,465	0,137	-0,098
-464,372	-86,933	0,032	0,007
-463,357	237,655	-0,090	-0,108
-462,343	-143,468	-0,078	-0,005
-461,328	-200,000	0,006	-0,109
-460,313	-163,778	0,038	-0,001
-459,299	-200,000	0,006	0,052
-458,284	-200,000	0,006	0,167
-457,270	800,000	0,080	0,174
-456,255	308,465	0,047	-0,063
-455,241	497,198	0,088	-0,146
-454,226	151,663	0,050	0,049
-453,211	-38,471	-0,062	0,024
-452,197	668,356	0,057	0,106
-451,182	800,000	-0,030	-0,094
-450,168	195,157	0,104	-0,114
-449,153	-3,712	-0,088	-0,044
-448,138	-200,000	-0,018	-0,070
-447,124	58,092	-0,124	-0,087
-446,109	-200,000	-0,006	-0,055
-445,095	-200,000	0,023	-0,078
-444,080	108,975	0,088	0,075
-443,065	-57,161	-0,058	0,018
-442,051	331,009	-0,028	0,038
-441,036	128,348	-0,057	-0,052
-440,022	800,000	-0,022	-0,070
-439,007	94,250	-0,090	0,073
-437,992	-200,000	-0,006	0,067
-436,978	-135,278	0,125	-0,011
-435,963	-64,675	-0,116	-0,033
-434,949	113,987	-0,092	0,080
-433,934	-10,994	-0,103	-0,048
-432,919	-200,000	-0,041	-0,168
-431,905	-200,000	-0,038	-0,130
-430,890	-136,579	0,037	0,003
-429,876	169,557	0,040	-0,041
-428,861	690,402	0,090	-0,170
-427,846	1,673	0,129	0,066
-426,832	239,425	0,064	0,077
-425,817	-107,918	-0,102	-0,016
-424,803	103,723	0,091	-0,077
-423,788	-99,354	0,119	-0,021
-422,773	800,000	-0,024	-0,066
-421,759	383,087	0,045	0,066
-420,744	800,000	-0,050	0,126
-419,730	800,000	0,026	0,058
-418,715	71,727	0,018	0,014
-417,701	800,000	-0,032	-0,069
-416,686	698,409	-0,011	-0,021
-415,671	-95,516	0,238	-0,045
-414,657	-114,429	0,153	0,021
-413,642	-200,000	-0,002	-0,195
-412,628	-53,881	-0,033	-0,011
-411,613	800,000	-0,044	0,090
-410,598	-77,180	-0,058	0,014
-409,584	-200,000	0,028	-0,120
-408,569	-128,842	-0,126	-0,013
-407,555	800,000	0,058	0,147
-406,540	247,639	0,051	0,062
-405,525	-200,000	0,003	-0,025
-404,511	-200,000	0,019	0,093
-403,496	493,797	0,045	-0,074
-402,482	176,816	0,043	0,045
-401,467	41,934	-0,091	0,059
-400,452	79,308	0,133	0,102
-399,438	165,163	-0,057	0,058
-398,423	-200,000	-0,011	-0,112
-397,409	-200,000	0,018	0,083
-396,394	-108,348	-0,081	0,012
-395,379	328,753	0,037	0,051
-394,365	76,505	0,052	-0,039
-393,350	-94,614	-0,153	0,029
-392,336	-55,281	0,073	-0,023
-391,321	-95,556	-0,126	0,024
-390,306	157,842	0,061	-0,061
-389,292	-92,021	-0,107	-0,022
-388,277	-106,371	-0,120	0,019
-387,263	77,899	0,036	-0,028
-386,248	30,382	0,051	0,031
-385,233	43,480	0,042	0,027
-384,219	-200,000	0,001	-0,138
-383,204	-0,889	0,045	0,023
-382,190	216,800	-0,073	0,083
-381,175	78,302	-0,028	-0,021
-380,160	-14,177	0,057	0,026
-379,146	34,263	0,073	-0,046
-378,131	-120,644	0,130	0,016
-377,117	705,373	-0,020	0,038
-376,102	218,143	-0,039	-0,044
-375,088	-180,404	-0,136	0,002
-374,073	115,768	-0,070	0,061
-373,058	746,788	0,080	-0,155
-372,044	-200,000	0,017	0,135
-371,029	75,286	0,026	0,020
-370,015	6,134	0,031	0,016
-369,000	-180,202	-0,027	-0,000
-367,985	800,000	0,035	0,084
-366,971	104,562	0,112	0,094
-365,956	-109,405	0,103	0,015
-364,942	-200,000	0,015	0,174
-363,927	-200,000	0,014	0,100
-362,912	800,000	-0,055	0,130
-361,898	20,340	-0,035	0,020
-360,883	-200,000	-0,027	0,093
-359,869	43,616	0,034	-0,022
-358,854	-126,582	-0,011	-0,001
-357,839	800,000	0,080	0,167
-356,825	-200,000	-0,016	0,104
-355,810	-9,349	-0,136	-0,064
-354,796	215,747	-0,065	-0,074
-353,781	-46,258	0,043	0,015
-352,766	14,764	-0,113	0,063
-351,752	-4,109	-0,055	-0,027
-350,737	76,914	0,053	-0,040
-349,723	395,585	-0,040	0,059
-348,708	67,248	-0,038	-0,028
-347,693	518,327	-0,031	-0,052
-346,679	-200,000	0,013	-0,072
-345,664	361,850	0,096	0,137
-344,650	312,844	0,054	0,072
-343,635	-200,000	-0,002	-0,031
-342,620	-200,000	-0,009	0,072
-341,606	-200,000	-0,003	0,112
-340,591	274,432	0,012	0,016
-339,577	-200,000	-0,005	0,120
-338,562	263,079	-0,109	-0,136
-337,548	412,635	0,070	-0,106
-336,533	800,000	-0,052	-0,112
-335,518	-200,000	0,012	0,125
-334,504	-200,000	-0,006	-0,064
-333,489	163,929	0,083	-0,084
-332,475	96,841	0,079	0,065
-331,460	12,931	0,127	0,070
-330,445	-200,000	0,011	-0,091
-329,431	-200,000	0,001	-0,101
-328,416	-200,000	-0,001	0,035
-327,402	800,000	-0,001	-0,003
-326,387	138,442	-0,098	-0,092
-325,372	-26,930	-0,170	0,071
-324,358	-32,468	-0,129	0,051
-323,343	4,722	0,075	0,039
-322,329	77,813	0,112	0,085
-321,314	-115,527	0,096	-0,013
-320,299	29,518	-0,032	-0,019
-319,285	138,722	-0,068	-0,064
-318,270	176,118	-0,098	0,101
-317,256	344,564	-0,091	-0,128
-316,241	7,384	0,043	0,023
-315,226	-79,488	0,116	-0,028
-314,212	12,763	0,149	-0,082
-313,197	800,000	0,074	0,160
-312,183	-200,000	-0,004	-0,026
-311,168	10,269	-0,026	0,014
-310,153	52,070	0,029	0,020
-309,139	-200,000	0,006	-0,033
-308,124	35,635	-0,060	0,038
-307,110	-84,291	0,207	-0,046
-306,095	797,374	0,030	0,059
-305,080	576,539	-0,041	0,072
-304,066	-200,000	0,025	-0,151
-303,051	-200,000	0,011	-0,073
-302,037	-200,000	-0,034	-0,115
-301,022	-93,069	-0,106	-0,021
-300,008	356,523	0,045	0,064
-298,993	-71,878	0,128	0,034
-297,978	-200,000	0,010	-0,073
-296,964	118,395	-0,146	-0,128
-295,949	228,638	-0,056	0,065
-294,935	-71,884	-0,142	-0,037
-293,920	-200,000	-0,018	0,087
-292,905	29,569	-0,024	-0,014
-291,891	-200,000	-0,008	0,071
-290,876	-200,000	0,004	0,035
-289,862	-200,000	-0,005	-0,017
-288,847	800,000	-0,008	-0,019
-287,832	800,000	-0,034	-0,074
-286,818	163,812	0,104	-0,105
-285,803	97,831	0,105	-0,086
-284,789	511,174	-0,066	0,111
-283,774	46,104	-0,025	0,016
-282,759	-200,000	0,027	0,130
-281,745	31,489	-0,100	0,061
-280,730	104,977	-0,083	-0,070
-279,716	-11,315	-0,089	-0,041
-278,701	-31,803	-0,097	0,038
-277,686	356,747	0,050	0,071
-276,672	-69,354	-0,066	0,018
-275,657	-200,000	0,001	-0,051
-274,643	-25,046	0,021	-0,009
-273,628	-18,200	0,054	-0,024
-272,613	40,339	-0,116	-0,074
-271,599	-200,000	0,003	0,155
-270,584	282,016	0,084	-0,107
-269,570	-57,528	0,025	0,008
-268,555	-200,000	-0,010	0,048
-267,540	800,000	0,033	-0,095
-266,526	380,709	-0,012	0,018
-265,511	97,020	0,073	-0,060
-264,497	-66,463	0,071	-0,020
-263,482	-47,684	0,048	0,016
-262,467	162,607	0,034	0,034
-261,453	-48,012	0,014	-0,005
-260,438	800,000	-0,060	-0,135
-259,424	-59,748	-0,069	-0,021
-258,409	-200,000	0,049	-0,202
-257,395	676,223	0,052	0,097
-256,380	-129,578	0,040	0,004
-255,365	85,945	0,028	0,022
-254,351	242,101	-0,079	0,094
-253,336	-97,245	-0,069	0,013
-252,322	-200,000	0,022	-0,116
-251,307	1,686	-0,163	0,083
-250,292	800,000	0,036	0,101
-249,278	-69,742	0,031	0,008
-248,263	-200,000	0,011	-0,067
-247,249	-200,000	0,014	0,091
-246,234	-200,000	0,026	-0,160
-245,219	103,939	-0,127	-0,106
-244,205	-200,000	0,010	0,076
-243,190	-45,431	-0,026	0,009
-242,176	-44,144	0,077	0,027
-241,161	20,565	0,033	-0,019
-240,146	579,492	-0,078	0,136
-239,132	-200,000	0,003	0,039
-238,117	-180,417	0,107	0,002
-237,103	-200,000	-0,006	-0,093
-236,088	800,000	0,029	-0,077
-235,073	-200,000	0,064	0,216
-234,059	-157,385	0,129	0,005
-233,044	-200,000	0,009	0,104
-232,030	546,092	0,043	-0,074
-231,015	106,206	0,051	-0,043
-230,000	-45,100	-0,123	0,043
-228,986	-28,678	0,042	0,017
-227,971	449,006	-0,041	0,065
-226,957	523,403	0,045	-0,076
-225,942	-200,000	0,002	-0,098
-224,927	20,016	0,023	0,013
-223,913	-86,953	-0,103	0,022
-222,898	494,273	-0,084	-0,137
-221,884	-200,000	0,003	-0,062
-220,869	143,189	0,144	0,136
-219,855	193,897	-0,046	-0,050
-218,840	-47,655	0,154	-0,053
-217,825	-8,747	-0,120	0,057
-216,811	-43,460	-0,117	-0,042
-215,796	-200,000	0,014	-0,067
-214,782	72,423	-0,065	-0,048
-213,767	-34,769	0,046	-0,018
-212,752	284,522	0,072	0,093
-211,738	-166,632	0,152	-0,004
-210,723	594,155	-0,031	0,054
-209,709	498,806	-0,095	-0,156
-208,694	-81,852	-0,081	0,019
-207,679	123,083	0,009	0,008
-206,665	54,862	-0,062	0,042
-205,650	800,000	-0,030	0,089
-204,636	800,000	0,047	0,094
-203,621	-200,000	-0,010	-0,032
-202,606	800,000	0,017	-0,034
-201,592	-200,000	-0,002	-0,149
-200,577	128,382	0,020	0,018
-199,563	109,003	0,136	0,115
-198,548	-200,000	0,003	0,054
-197,533	-6,090	0,023	-0,011
-196,519	-200,000	0,010	0,032
-195,504	-200,000	-0,006	0,128
-194,490	-200,000	0,025	-0,120
-193,475	42,942	-0,137	-0,088
-192,460	800,000	-0,029	0,071
-191,446	621,795	-0,073	0,131
-190,431	-200,000	-0,026	0,104
-189,417	-39,659	-0,049	0,018
-188,402	11,125	-0,075	-0,041
-187,387	-200,000	-0,009	0,034
-186,373	800,000	0,051	0,100
-185,358	-130,862	-0,031	0,003
-184,344	11,796	-0,029	0,016
-183,329	800,000	0,099	0,258
-182,315	-200,000	0,042	-0,168
-181,300	-59,430	-0,065	0,020
-180,285	800,000	-0,040	-0,102
-179,271	-200,000	-0,011	-0,037
-178,256	-56,334	0,071	-0,022
-177,242	800,000	-0,012	0,027
-176,227	283,321	-0,110	0,141
-175,212	12,119	-0,049	0,027
-174,198	-200,000	-0,007	0,063
-173,183	800,000	0,053	-0,108
-172,169	-200,000	-0,001	0,090
-171,154	718,054	-0,053	-0,101
-170,139	180,278	0,018	-0,019
-169,125	212,110	-0,040	-0,045
-168,110	211,781	-0,095	-0,107
-167,096	86,917	0,098	-0,076
-166,081	43,418	-0,039	0,025
-165,066	136,501	-0,146	-0,135
-164,052	-200,000	0,009	0,030
-163,037	-200,000	-0,002	0,067
-162,023	52,750	0,028	-0,019
-161,008	-114,918	0,157	0,021
-159,993	-200,000	-0,005	0,096
-158,979	104,307	0,111	-0,093
-157,964	-161,301	-0,121	0,004
-156,950	-200,000	-0,004	-0,028
-155,935	20,893	-0,103	0,059
-154,920	176,238	0,142	0,146
-153,906	76,102	0,034	0,025
-152,891	533,935	-0,030	-0,051
-151,877	-175,562	-0,050	-0,001
-150,862	-47,420	0,011	-0,004
-149,847	91,255	-0,157	-0,125
-148,833	400,741	0,024	-0,036
-147,818	-120,038	0,044	-0,005
-146,804	-200,000	0,004	0,086
-145,789	59,726	-0,103	0,072
-144,775	26,922	-0,159	-0,094
-143,760	-200,000	0,014	-0,099
-142,745	77,958	0,163	-0,123
-141,731	399,860	-0,063	-0,094
-140,716	482,871	0,038	-0,062
-139,702	8,051	0,038	0,020
-138,687	-200,000	0,008	-0,062
-137,672	-200,000	-0,027	-0,143
-136,658	372,637	-0,072	-0,105
-135,643	-96,898	0,038	0,007
-134,629	126,335	0,052	-0,046
-133,614	368,301	0,037	-0,053
-132,599	114,121	0,062	0,053
-131,585	-38,132	0,047	-0,017
-130,570	59,278	0,090	-0,063
-129,556	800,000	-0,042	0,092
-128,541	105,855	0,032	-0,027
-127,526	-178,727	0,094	-0,001
-126,512	-80,158	-0,138	0,033
-125,497	558,559	-0,056	0,096
-124,483	36,292	0,083	-0,052
-123,468	-23,452	-0,040	0,017
-122,453	631,355	-0,015	0,027
-121,439	800,000	-0,033	-0,066
-120,424	58,557	-0,144	-0,100
-119,410	-200,000	0,020	0,110
-118,395	800,000	0,058	0,132
-117,380	7,472	0,108	0,057
-116,366	-200,000	-0,001	0,098
-115,351	201,392	-0,028	-0,030
-114,337	800,000	-0,027	-0,059
-113,322	-200,000	-0,002	0,134
-112,307	-51,166	-0,090	-0,030
-111,293	800,000	-0,073	0,149
-110,278	-116,127	-0,220	-0,029
-109,264	-0,253	0,034	0,017
-108,249	-200,000	0,010	0,057
-107,234	-170,124	-0,038	-0,001
-106,220	-148,452	0,090	-0,005
-105,205	-200,000	-0,016	0,149
-104,191	216,953	0,128	0,144
-103,176	394,693	0,027	0,040
-102,162	-87,715	0,053	-0,011
-101,147	-4,824	-0,182	0,088
-100,132	800,000	-0,049	-0,104
-99,118	-142,986	-0,068	0,005
-98,103	-139,836	-0,142	-0,010
-97,089	-200,000	0,001	0,110
-96,074	-119,363	0,068	0,008
-95,059	-87,409	-0,187	0,040
-94,045	-200,000	-0,000	0,010
-93,030	-138,759	0,104	0,008
-92,016	9,239	0,043	0,023
-91,001	-200,000	0,020	0,170
-89,986	-200,000	-0,004	-0,020
-88,972	82,259	0,098	0,075
-87,957	-103,595	0,068	-0,011
-86,943	127,131	-0,072	-0,064
-85,928	-0,044	-0,033	0,016
-84,913	91,424	-0,147	-0,117
-83,899	-56,260	-0,060	-0,019
-82,884	72,540	0,031	0,023
-81,870	460,086	0,076	0,119
-80,855	159,741	-0,056	0,055
-79,840	-200,000	-0,002	0,130
-78,826	301,285	-0,053	0,070
-77,811	-200,000	-0,040	0,151
-76,797	159,585	-0,038	-0,037
-75,782	-130,931	-0,045	-0,004
-74,767	-200,000	0,021	0,101
-73,753	206,823	-0,027	0,030
-72,738	-110,891	-0,168	-0,024
-71,724	267,338	-0,057	0,071
-70,709	-28,015	-0,230	-0,094
-69,694	800,000	-0,016	-0,032
-68,680	800,000	0,022	0,064
-67,665	142,781	-0,061	0,057
-66,651	-121,484	-0,129	0,015
-65,636	218,793	0,056	0,064
-64,622	800,000	-0,022	-0,068
-63,607	800,000	-0,026	0,065
-62,592	800,000	-0,035	-0,082
-61,578	8,031	0,071	0,038
-60,563	252,215	-0,048	0,058
-59,549	169,620	-0,042	0,043
-58,534	40,068	-2,082	-1,318
-57,519	451,205	-1,249	-1,955
-56,505	-200,000	-0,320	-4,450
-55,490	635,215	0,967	1,740
-54,476	800,000	5,051	11,298
-53,461	-200,000	21,774	344,996
-52,446	800,000	763,710	2348,551
-51,432	548,150	1663,458	2822,641
-50,417	71,718	1659,529	1216,030
-49,403	17,371	1532,616	856,599
-48,388	11,398	1456,556	785,219
-47,373	19,366	1448,489	819,060
-46,359	14,896	1437,320	791,468
-45,344	9,667	1433,231	764,301
-44,330	9,622	1431,291	763,019
-43,315	9,583	1429,537	761,871
-42,300	9,613	1427,673	760,987
-41,286	9,650	1426,510	760,514
-40,271	9,626	1425,222	759,684
-39,257	9,600	1424,193	758,983
-38,242	9,680	1422,968	758,678
-37,227	9,611	1421,894	757,750
-36,213	9,618	1420,648	757,087
-35,198	9,610	1419,404	756,358
-34,184	9,656	1418,608	756,118
-33,169	9,597	1417,024	754,969
-32,154	9,645	1416,073	754,659
-31,140	9,640	1414,893	753,976
-30,125	9,694	1413,524	753,469
-29,111	9,635	1412,572	752,654
-28,096	9,657	1411,153	751,973
-27,082	9,551	1410,199	750,935
-26,067	9,588	1409,188	750,542
-25,052	9,585	1408,276	750,013
-24,038	9,589	1407,045	749,343
-23,023	9,551	1406,332	748,757
-22,009	9,559	1405,403	748,273
-20,994	9,547	1404,195	747,543
-19,979	9,606	1403,069	747,187
-18,965	9,604	1402,047	746,604
-17,950	9,539	1401,416	745,937
-16,936	9,516	1400,699	745,417
-15,921	9,529	1399,571	744,848
-14,906	9,526	1398,614	744,294
-13,892	9,591	1397,441	743,944
-12,877	9,511	1396,792	743,197
-11,863	9,518	1396,181	742,877
-10,848	9,506	1395,076	742,205
-9,833	9,447	1394,266	741,470
-8,819	9,400	1393,401	740,762
-7,804	9,378	1392,468	740,135
-6,790	9,427	1391,496	739,814
-5,775	9,439	1390,136	739,117
-4,760	9,425	1389,382	738,621
-3,746	9,452	1388,459	738,227
-2,731	9,427	1387,555	737,601
-1,717	9,414	1386,796	737,108
-0,702	9,403	1385,099	736,127
0,313	13,369	1297,357	707,632
1,327	29,374	687,605	411,225
2,342	45,661	118,860	77,330
3,356	0,938	16,523	8,325
4,371	19,164	3,630	2,049
5,386	4,093	1,139	0,586
6,400	800,000	0,258	0,598
7,415	-26,825	-0,257	-0,105
8,429	62,732	-0,275	-0,193
9,444	32,972	-0,318	-0,194
10,459	-89,479	-0,373	-0,077
11,473	-1,878	-0,278	-0,137
12,488	107,228	-0,312	-0,261
13,502	42,263	-0,280	-0,179
14,517	-45,281	-0,266	-0,092
15,531	182,499	-0,240	-0,250
16,546	236,083	-0,311	-0,363
17,561	46,520	-0,481	-0,314
18,575	58,930	-0,136	-0,094
19,590	236,486	-0,173	-0,202
20,604	-160,133	-0,218	-0,008
21,619	-6,366	-0,500	-0,240
22,634	69,606	-0,474	-0,343
23,648	6,358	-0,430	-0,224
24,663	92,493	-0,331	-0,263
25,677	54,353	-0,298	-0,202
26,692	-43,281	-0,396	-0,140
27,707	26,264	-0,444	-0,260
28,721	14,796	-0,363	-0,199
29,736	126,148	-0,432	-0,384
30,750	53,148	-0,351	-0,236
31,765	185,489	-0,343	-0,359
32,780	153,107	-0,408	-0,393
33,794	439,661	-0,203	-0,314
34,809	-34,979	-0,395	-0,151
35,823	-41,955	-0,448	-0,160
36,838	55,685	-0,309	-0,210
37,853	147,675	-0,395	-0,375
38,867	41,117	-0,464	-0,294
39,882	36,743	-0,346	-0,214
40,896	2,121	-0,318	-0,161
41,911	133,788	-0,312	-0,284
42,926	4,795	-0,302	-0,155
43,940	112,121	-0,359	-0,305
44,955	26,077	-0,433	-0,253
45,969	163,139	-0,264	-0,261
46,984	100,394	-0,435	-0,355
47,999	-18,754	-0,380	-0,165
49,013	136,915	-0,153	-0,141
50,028	-32,218	-0,330	-0,129
51,042	-17,848	-0,355	-0,156
52,057	46,534	-0,479	-0,311
53,071	110,079	-0,260	-0,219
54,086	-16,868	-0,395	-0,175
55,101	-21,165	-0,453	-0,194
56,115	423,980	-0,164	-0,249
57,130	154,075	-0,238	-0,229
58,144	137,278	-0,317	-0,291
59,159	211,286	-0,247	-0,273
60,174	152,531	-0,302	-0,289
61,188	10,132	-0,398	-0,211
62,203	88,682	-0,288	-0,225
63,217	-63,611	-0,347	-0,099
64,232	-26,657	-0,426	-0,174
65,247	152,872	-0,378	-0,362
66,261	273,434	-0,405	-0,503
67,276	104,116	-0,311	-0,256
68,290	74,548	-0,329	-0,242
69,305	-135,022	-0,233	-0,019
70,320	68,582	-0,349	-0,251
71,334	-10,417	-0,271	-0,125
72,349	-21,872	-0,420	-0,178
73,363	-39,467	-0,462	-0,169
74,378	-71,602	-0,363	-0,094
75,393	132,380	-0,262	-0,236
76,407	-73,476	-0,243	-0,062
77,422	-36,256	-0,281	-0,106
78,436	-40,699	-0,192	-0,069
79,451	164,128	-0,244	-0,241
80,466	4,047	-0,232	-0,119
81,480	36,149	-0,307	-0,189
82,495	-1,859	-0,307	-0,151
83,509	19,773	-0,268	-0,151
84,524	172,990	-0,240	-0,243
85,539	-17,134	-0,317	-0,139
86,553	-24,785	-0,149	-0,062
87,568	-13,235	-0,242	-0,109
88,582	51,045	-0,408	-0,271
89,597	-18,866	-0,286	-0,124
90,611	44,498	-0,285	-0,183
91,626	-29,140	-0,263	-0,105
92,641	-72,994	-0,394	-0,100
93,655	-58,253	-0,357	-0,108
94,670	-14,865	-0,359	-0,161
95,684	-44,444	-0,403	-0,140
96,699	26,880	-0,236	-0,138
97,714	516,538	-0,145	-0,237
98,728	171,780	-0,126	-0,127
99,743	-102,071	-0,258	-0,043
100,757	-37,438	-0,246	-0,091
101,772	38,552	-0,366	-0,228
102,787	-29,291	-0,452	-0,180
103,801	18,611	-0,254	-0,141
104,816	-81,949	-0,286	-0,065
105,830	202,642	-0,153	-0,166
106,845	92,537	-0,143	-0,112
107,860	51,228	-0,242	-0,160
108,874	-99,587	-0,253	-0,044
109,889	78,975	-0,265	-0,198
110,903	239,909	-0,214	-0,249
111,918	73,456	-0,315	-0,230
112,933	97,252	-0,197	-0,158
113,947	277,777	-0,092	-0,115
114,962	88,898	-0,247	-0,191
115,976	29,763	-0,286	-0,170
116,991	74,848	-0,212	-0,156
118,006	551,311	-0,166	-0,280
119,020	3,069	-0,265	-0,134
120,035	133,682	-0,184	-0,166
121,049	12,814	-0,172	-0,093
122,064	-78,794	-0,335	-0,079
123,079	118,381	-0,189	-0,162
124,093	176,579	-0,211	-0,214
125,108	-25,799	-0,234	-0,096
126,122	180,474	-0,290	-0,298
127,137	19,373	-0,222	-0,124
128,151	84,241	-0,244	-0,186
129,166	73,560	-0,206	-0,150
130,181	320,201	-0,182	-0,242
131,195	222,739	-0,174	-0,196
132,210	57,551	-0,273	-0,186
133,224	-47,281	-0,327	-0,111
134,239	-23,256	-0,365	-0,153
135,254	91,662	-0,208	-0,163
136,268	-53,452	-0,279	-0,088
137,283	11,821	-0,153	-0,082
138,297	173,035	-0,352	-0,354
139,312	77,496	-0,281	-0,208
140,327	49,475	-0,327	-0,214
141,341	151,159	-0,234	-0,222
142,356	8,826	-0,147	-0,077
143,370	-157,472	-0,294	-0,012
144,385	48,126	-0,145	-0,095
145,400	25,899	-0,249	-0,144
146,414	55,736	-0,282	-0,190
147,429	103,833	-0,246	-0,201
148,443	441,200	-0,120	-0,184
149,458	325,339	-0,146	-0,195
150,473	123,565	-0,187	-0,163
151,487	64,659	-0,334	-0,234
152,502	203,100	-0,245	-0,264
153,516	122,711	-0,241	-0,210
154,531	74,069	-0,336	-0,245
155,546	800,000	-0,098	-0,281
156,560	12,494	-0,195	-0,105
157,575	-51,522	-0,192	-0,062
158,589	157,653	-0,158	-0,153
159,604	-4,722	-0,228	-0,109
160,619	38,926	-0,282	-0,175
161,633	201,665	-0,169	-0,181
162,648	204,296	-0,190	-0,205
163,662	26,650	-0,227	-0,132
164,677	145,614	-0,179	-0,167
165,692	70,691	-0,061	-0,044
166,706	26,834	-0,316	-0,183
167,721	210,596	-0,185	-0,202
168,735	-8,662	-0,304	-0,141
169,750	53,885	-0,255	-0,170
170,764	-110,305	-0,276	-0,039
171,779	157,905	-0,227	-0,219
172,794	-3,702	-0,220	-0,106
173,808	88,046	-0,252	-0,194
174,823	-73,461	-0,346	-0,087
175,837	32,012	-0,228	-0,136
176,852	213,403	-0,220	-0,242
177,867	-84,586	-0,261	-0,057
178,881	187,353	-0,203	-0,211
179,896	102,568	-0,245	-0,199
180,910	-32,321	-0,219	-0,085
181,925	306,154	-0,184	-0,238
182,940	800,000	-0,131	-0,385
183,954	100,974	-0,198	-0,160
184,969	-18,887	-0,346	-0,149
185,983	-19,431	-0,046	0,020
186,998	199,448	-0,181	-0,193
188,013	-107,738	-0,157	-0,024
189,027	-107,228	-0,280	-0,042
190,042	297,404	-0,192	-0,245
191,056	-45,279	-0,223	-0,076
192,071	127,691	-0,165	-0,145
193,086	34,081	-0,141	-0,085
194,100	-200,000	-0,071	-0,232
195,115	-42,875	-0,371	-0,130
196,129	107,694	-0,281	-0,232
197,144	73,737	-0,231	-0,168
198,159	29,039	-0,195	-0,114
199,173	-69,437	-0,229	-0,060
200,188	24,610	-0,212	-0,121
201,202	20,171	-0,079	-0,044
202,217	-124,350	-0,182	-0,019
203,232	115,315	-0,256	-0,217
204,246	200,591	-0,257	-0,274
205,261	394,575	-0,173	-0,251
206,275	-105,715	-0,245	-0,038
207,290	135,900	-0,152	-0,137
208,304	473,080	-0,107	-0,168
209,319	139,255	-0,171	-0,156
210,334	237,852	-0,273	-0,314
211,348	492,130	-0,195	-0,310
212,363	248,544	-0,208	-0,244
213,377	95,605	-0,208	-0,164
214,392	349,626	-0,166	-0,227
215,407	182,313	-0,152	-0,156
216,421	-156,879	-0,155	-0,006
217,436	-52,972	-0,286	-0,090
218,450	141,377	-0,198	-0,182
219,465	-39,764	-0,154	-0,056
220,480	-141,289	-0,152	-0,011
221,494	800,000	-0,072	-0,174
222,509	-11,447	-0,216	-0,098
223,523	800,000	-0,073	-0,197
224,538	171,339	-0,213	-0,211
225,553	74,086	-0,175	-0,127
226,567	13,341	-0,226	-0,121
227,582	800,000	-0,122	-0,312
228,596	800,000	-0,130	-0,344
229,611	521,259	-0,087	-0,142
230,626	-87,383	-0,151	-0,031
231,640	205,530	-0,171	-0,184
232,655	-50,707	-0,358	-0,116
233,669	92,329	-0,139	-0,108
234,684	192,571	-0,146	-0,152
235,699	-59,015	-0,154	-0,046
236,713	119,517	-0,147	-0,126
237,728	99,072	-0,217	-0,173
238,742	-53,176	-0,076	0,024
239,757	267,836	-0,112	-0,136
240,772	119,450	-0,238	-0,203
241,786	136,855	-0,117	-0,105
242,801	-57,361	-0,146	-0,044
243,815	22,313	-0,217	-0,122
244,830	99,899	-0,162	-0,130
245,844	-108,435	-0,180	-0,027
246,859	-82,021	-0,254	-0,057
247,874	67,454	-0,278	-0,196
248,888	63,016	-0,166	-0,114
249,903	-6,042	-0,201	-0,094
250,917	800,000	-0,132	-0,287
251,932	-100,378	-0,175	-0,030
252,947	141,835	-0,159	-0,145
253,961	400,933	-0,129	-0,187
254,976	152,338	-0,217	-0,204
255,990	448,156	-0,054	-0,082
257,005	-38,129	-0,275	-0,100
258,020	-156,946	-0,162	0,007
259,034	-52,529	-0,245	-0,078
260,049	-98,738	-0,149	-0,026
261,063	800,000	-0,039	-0,086
262,078	800,000	-0,074	-0,162
263,093	202,985	-0,175	-0,187
264,107	-41,081	-0,221	-0,078
265,122	291,870	-0,095	-0,119
266,136	265,855	-0,087	-0,105
267,151	-137,810	-0,142	-0,011
268,166	206,029	-0,142	-0,152
269,180	-67,757	-0,166	-0,044
270,195	463,392	-0,140	-0,217
271,209	0,670	-0,205	-0,101
272,224	64,374	-0,062	-0,043
273,239	-74,359	-0,139	-0,034
274,253	-152,691	-0,281	0,014
275,268	73,004	-0,145	-0,104
276,282	137,275	-0,234	-0,211
277,297	266,881	-0,128	-0,154
278,312	118,337	-0,263	-0,223
279,326	114,819	-0,179	-0,151
280,341	-38,035	-0,202	-0,073
281,355	110,863	-0,254	-0,211
282,370	578,633	-0,145	-0,245
283,384	-99,554	-0,157	-0,027
284,399	200,263	-0,219	-0,232
285,414	800,000	-0,098	-0,284
286,428	41,358	-0,114	-0,070
287,443	-200,000	0,006	-0,109
288,457	-18,477	-0,098	-0,042
289,472	34,486	-0,288	-0,173
290,487	-23,553	-0,303	-0,124
291,501	-119,163	-0,161	-0,019
292,516	-19,668	-0,190	-0,081
293,530	-158,190	-0,157	0,006
294,545	16,336	-0,164	-0,089
295,560	244,852	-0,124	-0,143
296,574	-46,022	-0,242	-0,082
297,589	38,977	-0,152	-0,093
298,603	800,000	-0,088	-0,187
299,618	-41,661	-0,132	-0,046
300,633	58,044	-0,235	-0,158
301,647	-122,852	-0,067	0,007
302,662	800,000	-0,074	-0,155
303,676	-107,064	-0,193	0,029
304,691	-85,687	-0,216	-0,046
305,706	1,937	-0,218	-0,108
306,720	-27,980	-0,210	-0,083
307,735	94,231	-0,144	-0,112
308,749	-200,000	-0,058	-0,177
309,764	-54,978	-0,163	0,050
310,779	-16,620	-0,234	-0,101
311,793	-28,796	-0,120	0,047
312,808	92,601	-0,110	-0,085
313,822	105,776	-0,141	-0,115
314,837	556,401	-0,096	-0,160
315,852	-200,000	0,029	-0,101
316,866	100,955	-0,098	0,078
317,881	46,146	-0,125	-0,079
318,895	71,369	-0,142	-0,101
319,910	-23,199	-0,225	-0,093
320,925	35,374	-0,219	-0,132
321,939	-140,497	-0,119	0,008
322,954	-135,802	-0,151	-0,012
323,968	-200,000	-0,007	-0,180
324,983	63,059	-0,057	-0,039
325,997	0,583	-0,139	-0,068
327,012	-90,226	-0,293	-0,058
328,027	-132,144	-0,047	0,004
329,041	-65,417	-0,201	-0,055
330,056	43,626	-0,095	-0,059
331,070	106,190	-0,106	-0,086
332,085	23,143	-0,066	-0,037
333,100	29,370	-0,124	-0,072
334,114	521,513	-0,149	-0,240
335,129	164,532	-0,114	-0,111
336,143	-96,172	-0,220	-0,040
337,158	249,664	-0,083	-0,096
338,173	33,470	-0,141	-0,084
339,187	-200,000	-0,009	-0,037
340,202	262,147	-0,136	-0,162
341,216	11,282	-0,168	-0,088
342,231	-104,882	-0,161	-0,025
343,246	-168,278	-0,191	-0,005
344,260	-119,633	-0,292	-0,034
345,275	300,448	-0,178	-0,225
346,289	436,438	-0,089	-0,134
347,304	-152,984	-0,273	-0,013
348,319	87,695	-0,096	-0,073
349,333	12,996	-0,149	-0,078
350,348	-63,946	-0,192	-0,053
351,362	-13,932	-0,204	-0,090
352,377	264,419	-0,098	0,117
353,392	-17,686	-0,119	-0,051
354,406	-15,957	-0,149	-0,065
355,421	207,190	1308,984	1397,765
356,435	159,372	1468,982	1398,233
