DTS Sentinel unit serial number:	SN410029Multiplexer serial number:	ORYXHardware model number:	OX2-SRSoftware version number:	ORYX F/W v4,00 Oryx Data Collector v3.7.2.0data status	okinstallation	B3 Nyhavnadifferential loss correction	single-endedforward channel	channel 1reverse channel	N/Adate	2023/12/04time	08:02:30forward acquisition time	300,00reverse acquisition time	0,00gamma	499,1914k internal	0,3205k external	0,3205temperature offset calibration	1,0000default loss term (dB/km)	0,3820temperature slope calibration	1,0000multiplexer offset coefficient	1,0000multiplexer slope coefficient	1,0000fibre end	0,00T internal ref (°C)	12,51T ext. ref 1 (°C)	-1,82T ext. ref 2 (°C)	-1,84length (m)	temperature (°C)	Stokes	anti-Stokes-744,400	353,411	-0,174	-0,252
-743,385	800,000	0,135	0,361
-742,371	122,481	-0,193	-0,175
-741,356	-200,000	-0,056	0,233
-740,342	427,245	-0,139	-0,219
-739,327	-200,000	0,102	0,413
-738,312	278,089	-0,199	-0,258
-737,298	-200,000	0,022	0,236
-736,283	266,352	-0,186	-0,236
-735,269	-200,000	-0,003	0,235
-734,254	247,954	-0,143	-0,175
-733,239	647,135	-0,084	0,157
-732,225	800,000	-0,078	-0,182
-731,210	-54,148	0,184	0,060
-730,196	-24,476	0,067	0,029
-729,181	-71,932	-0,079	-0,021
-728,167	-45,221	-0,076	0,027
-727,152	800,000	-0,004	0,009
-726,137	-200,000	-0,006	0,050
-725,123	-148,456	-0,063	-0,004
-724,108	201,948	-0,096	-0,107
-723,094	-152,831	-0,100	-0,005
-722,079	800,000	0,018	-0,040
-721,064	-94,713	-0,046	0,009
-720,050	-200,000	0,003	-0,099
-719,035	800,000	-0,057	0,117
-718,021	116,204	-0,129	-0,114
-717,006	-200,000	-0,020	-0,096
-715,991	114,511	0,072	-0,064
-714,977	-200,000	0,022	-0,112
-713,962	240,618	-0,058	-0,070
-712,948	230,519	-0,057	-0,068
-711,933	800,000	0,035	-0,111
-710,918	-163,480	-0,166	0,006
-709,904	-200,000	-0,004	-0,248
-708,889	131,108	-0,126	-0,117
-707,875	-54,777	-0,082	-0,027
-706,860	-82,088	-0,076	-0,018
-705,845	-137,229	0,035	0,003
-704,831	-138,801	0,047	0,004
-703,816	298,634	-0,026	0,035
-702,802	-45,676	-0,065	-0,023
-701,787	-1,170	-0,142	-0,072
-700,772	-163,813	-0,133	-0,004
-699,758	124,454	0,087	-0,079
-698,743	-79,533	0,187	-0,045
-697,729	800,000	-0,095	0,191
-696,714	59,169	-0,193	-0,137
-695,699	207,300	-0,037	-0,042
-694,685	800,000	-0,068	0,142
-693,670	800,000	0,018	0,037
-692,656	610,512	-0,020	0,036
-691,641	-200,000	-0,029	-0,107
-690,627	-18,309	0,130	-0,059
-689,612	800,000	-0,047	0,109
-688,597	48,083	-0,111	0,075
-687,583	-103,941	-0,040	-0,007
-686,568	-200,000	-0,004	-0,012
-685,554	-74,888	-0,121	0,031
-684,539	-25,902	0,071	-0,030
-683,524	-11,448	0,105	-0,050
-682,510	-200,000	-0,015	-0,076
-681,495	53,710	0,123	-0,085
-680,481	-58,025	-0,127	-0,040
-679,466	-200,000	-0,004	-0,101
-678,451	77,245	0,025	-0,019
-677,437	190,323	-0,126	-0,138
-676,422	612,133	-0,040	-0,073
-675,408	260,425	-0,030	-0,038
-674,393	10,529	0,056	0,031
-673,378	392,466	-0,049	-0,073
-672,364	181,174	0,058	0,061
-671,349	-200,000	-0,003	-0,163
-670,335	766,625	0,023	0,046
-669,320	212,503	0,015	-0,018
-668,305	-200,000	-0,009	0,137
-667,291	94,353	-0,071	-0,058
-666,276	313,638	-0,118	-0,162
-665,262	-200,000	-0,038	-0,175
-664,247	-120,432	-0,113	-0,014
-663,232	-200,000	0,001	0,026
-662,218	800,000	0,016	0,040
-661,203	734,774	0,056	-0,108
-660,189	-148,913	0,043	0,002
-659,174	485,130	0,042	-0,069
-658,159	22,410	-0,136	-0,081
-657,145	243,172	-0,023	0,028
-656,130	-49,479	0,048	-0,017
-655,116	-29,009	-0,130	0,054
-654,101	-200,000	0,011	0,071
-653,086	167,095	-0,073	0,075
-652,072	-127,014	0,090	-0,009
-651,057	431,458	-0,133	-0,210
-650,043	800,000	0,057	0,143
-649,028	150,232	-0,076	-0,075
-648,014	-83,976	-0,088	0,020
-646,999	0,891	0,058	0,030
-645,984	17,698	0,087	0,050
-644,970	-41,563	-0,033	0,012
-643,955	-167,755	-0,061	-0,002
-642,941	106,799	0,044	-0,038
-641,926	-9,704	-0,053	-0,025
-640,911	-1,723	0,168	0,085
-639,897	-200,000	-0,022	0,156
-638,882	16,296	0,076	-0,043
-637,868	-143,687	-0,032	-0,002
-636,853	290,050	-0,069	-0,091
-635,838	109,906	-0,082	-0,071
-634,824	475,102	-0,061	-0,101
-633,809	-153,639	-0,018	-0,001
-632,795	59,700	0,044	-0,031
-631,780	298,959	-0,035	0,047
-630,765	145,558	-0,006	0,006
-629,751	-200,000	0,005	-0,072
-628,736	-200,000	-0,034	-0,189
-627,722	86,680	0,037	-0,030
-626,707	609,068	0,058	-0,105
-625,692	-200,000	-0,001	-0,041
-624,678	-200,000	0,009	0,051
-623,663	242,272	-0,043	0,052
-622,649	-15,216	-0,099	0,045
-621,634	732,644	-0,053	-0,102
-620,619	-189,351	-0,160	0,001
-619,605	71,853	-0,037	0,028
-618,590	295,061	0,082	0,109
-617,576	-200,000	0,007	-0,037
-616,561	-200,000	-0,006	0,028
-615,546	6,444	-0,159	0,085
-614,532	14,813	-0,091	0,051
-613,517	-200,000	-0,010	-0,075
-612,503	-99,375	-0,081	-0,015
-611,488	212,160	-0,009	-0,010
-610,474	259,137	-0,118	0,147
-609,459	-200,000	0,035	0,161
-608,444	22,665	0,043	0,025
-607,430	114,426	-0,090	0,079
-606,415	-200,000	-0,023	-0,129
-605,401	-200,000	-0,005	-0,045
-604,386	-200,000	0,022	-0,099
-603,371	-119,875	0,059	0,007
-602,357	-85,522	-0,185	0,041
-601,342	-200,000	0,014	0,106
-600,328	159,204	-0,119	-0,120
-599,313	77,509	0,027	-0,021
-598,298	140,804	-0,062	0,059
-597,284	83,291	-0,083	0,066
-596,269	-173,891	0,149	-0,003
-595,255	35,837	-0,068	0,043
-594,240	95,375	-0,102	0,084
-593,225	-200,000	0,014	-0,061
-592,211	800,000	-0,041	-0,127
-591,196	-200,000	-0,007	0,085
-590,182	-164,027	-0,129	0,004
-589,167	176,282	0,111	-0,116
-588,152	373,297	0,022	-0,032
-587,138	800,000	-0,035	-0,077
-586,123	-200,000	0,021	-0,080
-585,109	690,780	0,032	-0,060
-584,094	201,914	-0,053	-0,059
-583,079	182,180	-0,071	0,076
-582,065	124,961	0,086	0,078
-581,050	57,122	-0,063	-0,044
-580,036	-110,690	-0,130	-0,019
-579,021	-200,000	0,003	0,021
-578,006	800,000	-0,047	-0,130
-576,992	-93,256	0,067	-0,013
-575,977	-200,000	-0,017	-0,154
-574,963	800,000	-0,019	0,058
-573,948	-200,000	-0,005	0,131
-572,934	-200,000	-0,031	-0,106
-571,919	-123,369	-0,088	-0,010
-570,904	-86,049	0,052	-0,012
-569,890	-200,000	-0,010	0,050
-568,875	682,057	0,073	0,137
-567,861	800,000	0,060	-0,121
-566,846	164,204	-0,048	-0,049
-565,831	800,000	-0,069	0,173
-564,817	-200,000	-0,015	0,048
-563,802	400,242	-0,046	-0,069
-562,788	370,092	-0,023	-0,034
-561,773	-43,106	-0,092	-0,033
-560,758	314,809	-0,072	0,098
-559,744	-107,923	0,156	-0,024
-558,729	123,749	-0,031	-0,028
-557,715	167,140	-0,076	0,077
-556,700	353,627	0,065	-0,094
-555,685	800,000	-0,038	-0,114
-554,671	800,000	0,034	-0,079
-553,656	89,456	0,055	-0,044
-552,642	-57,976	0,100	0,031
-551,627	337,994	-0,075	0,105
-550,612	-85,879	-0,092	0,020
-549,598	695,748	-0,022	-0,042
-548,583	-200,000	-0,004	-0,056
-547,569	90,873	0,104	-0,084
-546,554	800,000	-0,037	0,079
-545,539	15,838	0,011	-0,006
-544,525	-42,973	0,063	0,023
-543,510	-73,380	-0,040	0,010
-542,496	-27,961	-0,052	-0,022
-541,481	-200,000	0,004	-0,152
-540,466	800,000	0,044	-0,117
-539,452	-83,308	0,094	0,022
-538,437	-188,467	0,135	-0,001
-537,423	800,000	-0,014	0,045
-536,408	-200,000	-0,016	0,095
-535,393	121,275	0,048	-0,043
-534,379	-200,000	0,046	-0,205
-533,364	60,388	0,054	0,038
-532,350	-200,000	-0,003	-0,100
-531,335	-65,946	0,145	-0,041
-530,321	565,498	-0,076	0,134
-529,306	800,000	0,009	-0,028
-528,291	205,821	-0,049	0,055
-527,277	-148,651	-0,232	0,013
-526,262	82,707	0,036	0,028
-525,248	-200,000	0,003	-0,053
-524,233	-129,445	0,110	0,011
-523,218	-200,000	0,002	0,024
-522,204	800,000	-0,003	0,008
-521,189	-100,395	-0,033	-0,006
-520,175	800,000	0,028	-0,079
-519,160	-23,035	-0,061	0,026
-518,145	800,000	0,035	-0,074
-517,131	0,818	-0,071	0,037
-516,116	-74,430	0,138	-0,036
-515,102	-200,000	-0,028	0,101
-514,087	228,736	0,076	-0,089
-513,072	-12,674	-0,208	-0,097
-512,058	-57,110	-0,113	-0,036
-511,043	800,000	0,019	0,044
-510,029	444,606	0,049	0,078
-509,014	191,983	0,095	-0,104
-507,999	-200,000	0,007	0,145
-506,985	-178,348	-0,094	0,002
-505,970	12,210	-0,096	-0,053
-504,956	121,885	0,065	-0,058
-503,941	174,183	0,038	0,039
-502,926	-37,622	0,057	-0,022
-501,912	-28,212	0,109	-0,045
-500,897	-117,453	-0,147	-0,019
-499,883	691,790	0,043	0,082
-498,868	-4,740	-0,064	-0,032
-497,853	-200,000	0,001	0,057
-496,839	-200,000	0,012	-0,042
-495,824	165,946	-0,021	-0,021
-494,810	-200,000	0,006	0,110
-493,795	800,000	-0,035	0,070
-492,781	547,243	0,065	-0,112
-491,766	-200,000	0,001	0,022
-490,751	-82,311	-0,078	-0,018
-489,737	800,000	-0,033	-0,072
-488,722	-63,216	0,140	-0,041
-487,708	-200,000	-0,005	-0,052
-486,693	800,000	0,020	0,051
-485,678	93,526	-0,029	0,023
-484,664	199,857	-0,046	-0,051
-483,649	295,876	-0,023	-0,030
-482,635	800,000	-0,039	-0,111
-481,620	724,817	0,005	0,010
-480,605	27,373	-0,067	-0,040
-479,591	800,000	-0,040	0,087
-478,576	120,029	-0,037	0,033
-477,562	65,275	0,061	0,045
-476,547	-15,222	-0,048	-0,022
-475,532	-68,222	0,010	0,003
-474,518	-49,647	-0,066	-0,023
-473,503	800,000	0,029	-0,091
-472,489	800,000	-0,032	0,075
-471,474	800,000	-0,030	-0,061
-470,459	-200,000	0,004	-0,114
-469,445	-10,258	0,060	0,029
-468,430	-200,000	-0,014	-0,069
-467,416	-95,264	0,164	0,031
-466,401	-95,687	0,186	-0,036
-465,386	-119,578	0,107	-0,013
-464,372	800,000	-0,026	-0,077
-463,357	-200,000	-0,007	-0,057
-462,343	-59,213	0,120	0,037
-461,328	800,000	0,008	-0,023
-460,313	214,091	-0,069	-0,079
-459,299	97,840	0,154	0,127
-458,284	481,168	0,097	0,159
-457,270	800,000	-0,025	0,061
-456,255	295,329	0,033	-0,044
-455,241	-88,513	0,101	-0,021
-454,226	178,306	0,041	0,044
-453,211	-191,466	-0,108	0,001
-452,197	553,391	-0,038	-0,065
-451,182	68,506	-0,035	0,026
-450,168	24,422	0,121	0,072
-449,153	800,000	0,046	-0,101
-448,138	-47,209	-0,192	-0,067
-447,124	5,875	-0,043	-0,023
-446,109	-200,000	0,001	0,098
-445,095	-200,000	0,019	-0,120
-444,080	-83,240	0,076	0,017
-443,065	364,963	-0,078	-0,114
-442,051	-163,073	0,050	-0,002
-441,036	-70,654	-0,069	-0,019
-440,022	-200,000	-0,002	-0,150
-439,007	-130,291	-0,103	0,010
-437,992	340,486	0,069	0,097
-436,978	338,168	0,027	0,037
-435,963	-10,895	0,119	0,056
-434,949	318,399	0,128	0,175
-433,934	-200,000	-0,020	-0,135
-432,919	96,872	-0,095	-0,078
-431,905	-125,422	-0,011	-0,001
-430,890	56,264	0,031	0,022
-429,876	51,543	0,119	0,081
-428,861	165,869	-0,092	0,093
-427,846	260,402	-0,013	0,017
-426,832	-200,000	-0,021	0,106
-425,817	-200,000	0,019	0,079
-424,803	193,152	0,048	-0,052
-423,788	-36,279	0,050	-0,019
-422,773	781,342	-0,034	0,067
-421,759	-45,970	0,064	-0,023
-420,744	-200,000	-0,035	0,115
-419,730	531,740	-0,051	0,087
-418,715	62,683	0,056	0,040
-417,701	-200,000	0,016	-0,125
-416,686	-200,000	-0,016	-0,123
-415,671	-96,055	0,173	-0,033
-414,657	73,714	0,057	0,043
-413,642	-81,015	-0,118	0,028
-412,628	-200,000	-0,020	-0,088
-411,613	-19,366	-0,057	-0,025
-410,598	-131,890	-0,118	-0,011
-409,584	313,933	-0,056	0,076
-408,569	800,000	-0,008	-0,025
-407,555	-134,942	0,039	-0,003
-406,540	224,286	-0,024	0,028
-405,525	-200,000	-0,008	0,064
-404,511	224,854	-0,087	-0,101
-403,496	319,030	0,053	0,073
-402,482	92,690	0,121	-0,098
-401,467	-103,900	0,264	-0,044
-400,452	86,009	-0,023	-0,018
-399,438	136,906	-0,051	-0,048
-398,423	55,985	0,079	-0,055
-397,409	34,919	0,075	-0,047
-396,394	394,508	0,037	0,055
-395,379	800,000	0,031	0,072
-394,365	-108,994	-0,059	0,009
-393,350	-54,967	0,035	-0,011
-392,336	391,014	-0,019	-0,028
-391,321	87,905	-0,048	-0,038
-390,306	-172,574	-0,141	-0,003
-389,292	85,757	-0,087	0,069
-388,277	43,830	0,053	0,035
-387,263	-200,000	-0,015	0,071
-386,248	-100,939	0,053	0,009
-385,233	-81,362	0,087	-0,020
-384,219	-200,000	0,012	-0,085
-383,204	-45,507	-0,120	-0,042
-382,190	-200,000	0,005	0,025
-381,175	-200,000	0,002	0,020
-380,160	144,435	0,027	-0,026
-379,146	800,000	-0,021	0,061
-378,131	-38,041	-0,117	-0,044
-377,117	479,943	0,023	0,038
-376,102	-130,106	-0,091	0,009
-375,088	-35,291	-0,026	0,010
-374,073	-15,059	-0,090	-0,041
-373,058	99,652	0,093	0,077
-372,044	40,754	0,016	-0,010
-371,029	-200,000	-0,005	-0,038
-370,015	206,587	0,030	-0,033
-369,000	255,125	0,079	-0,097
-367,985	-200,000	0,004	0,049
-366,971	-67,758	0,040	-0,011
-365,956	285,316	0,047	-0,060
-364,942	-200,000	0,010	-0,105
-363,927	140,491	0,179	0,170
-362,912	610,573	-0,046	0,082
-361,898	-9,093	0,189	-0,090
-360,883	450,515	-0,010	0,016
-359,869	239,857	-0,067	0,080
-358,854	-66,869	0,113	-0,032
-357,839	-65,738	-0,047	0,014
-356,825	-200,000	-0,013	-0,148
-355,810	800,000	-0,032	0,077
-354,796	10,809	-0,045	0,025
-353,781	800,000	0,038	-0,099
-352,766	138,216	0,059	-0,055
-351,752	-101,346	0,093	-0,016
-350,737	-200,000	0,008	0,119
-349,723	-171,947	0,147	0,003
-348,708	-200,000	0,005	0,184
-347,693	-17,401	-0,105	0,047
-346,679	-200,000	-0,007	-0,088
-345,664	9,762	0,011	0,006
-344,650	800,000	0,070	-0,141
-343,635	31,215	0,171	0,105
-342,620	564,436	0,026	-0,046
-341,606	51,710	-0,099	-0,067
-340,591	-75,582	-0,026	-0,007
-339,577	-54,401	-0,034	-0,011
-338,562	-145,657	-0,073	-0,005
-337,548	-200,000	-0,018	-0,207
-336,533	31,766	0,195	0,120
-335,518	256,460	-0,022	0,026
-334,504	-41,630	0,080	0,029
-333,489	-156,231	0,147	-0,006
-332,475	512,218	-0,050	-0,084
-331,460	-59,287	-0,037	0,011
-330,445	270,414	0,074	0,094
-329,431	257,878	0,034	0,042
-328,416	800,000	-0,028	0,077
-327,402	239,794	0,067	0,080
-326,387	-130,591	-0,064	-0,006
-325,372	312,015	-0,070	-0,094
-324,358	-157,412	-0,022	-0,001
-323,343	-200,000	-0,006	-0,102
-322,329	-76,772	-0,175	-0,043
-321,314	-136,274	0,102	-0,008
-320,299	38,825	0,116	0,074
-319,285	-156,536	-0,084	0,004
-318,270	162,218	0,030	-0,031
-317,256	-97,546	0,039	0,007
-316,241	149,792	0,036	-0,035
-315,226	-84,833	-0,157	0,035
-314,212	252,134	0,098	0,119
-313,197	332,312	0,032	-0,045
-312,183	102,168	-0,023	0,019
-311,168	800,000	-0,063	-0,138
-310,153	-140,278	-0,143	0,010
-309,139	-48,389	-0,126	0,043
-308,124	97,716	0,111	0,091
-307,110	-200,000	-0,004	0,080
-306,095	672,468	0,055	0,102
-305,080	145,723	-0,105	0,100
-304,066	-200,000	0,010	0,201
-303,051	-200,000	0,006	-0,062
-302,037	247,792	0,087	-0,105
-301,022	-48,467	0,136	-0,047
-300,008	800,000	-0,036	0,091
-298,993	800,000	0,072	0,158
-297,978	-55,244	0,031	0,010
-296,964	-200,000	-0,000	0,008
-295,949	-200,000	0,012	-0,071
-294,935	800,000	-0,058	-0,133
-293,920	128,149	-0,004	0,004
-292,905	329,683	-0,013	0,018
-291,891	-14,614	-0,102	0,047
-290,876	607,024	-0,050	0,090
-289,862	248,559	-0,043	-0,052
-288,847	-200,000	-0,005	-0,152
-287,832	120,756	-0,052	0,046
-286,818	-200,000	-0,032	0,136
-285,803	326,395	0,085	0,116
-284,789	-56,722	-0,082	-0,026
-283,774	642,948	-0,043	0,078
-282,759	44,794	-0,058	0,038
-281,745	-144,553	-0,071	-0,005
-280,730	-200,000	0,007	-0,165
-279,716	28,072	-0,199	0,119
-278,701	153,433	0,080	0,078
-277,686	187,968	-0,013	0,014
-276,672	-200,000	0,016	-0,064
-275,657	102,727	0,030	-0,025
-274,643	-65,499	0,003	0,001
-273,628	106,799	-0,072	-0,061
-272,613	-200,000	0,025	0,130
-271,599	-150,293	0,089	-0,005
-270,584	800,000	0,030	-0,074
-269,570	-200,000	-0,012	-0,082
-268,555	244,626	-0,048	-0,057
-267,540	-150,271	0,066	0,004
-266,526	-162,453	-0,125	-0,004
-265,511	573,374	0,030	-0,052
-264,497	-17,627	-0,070	-0,031
-263,482	6,868	0,050	-0,027
-262,467	316,734	0,093	0,125
-261,453	-30,146	-0,101	0,041
-260,438	-200,000	-0,005	0,094
-259,424	-200,000	-0,015	-0,115
-258,409	43,310	0,100	0,065
-257,395	-200,000	-0,010	0,099
-256,380	240,943	0,062	0,073
-255,365	800,000	0,042	0,101
-254,351	-200,000	-0,019	0,099
-253,336	55,071	0,139	-0,096
-252,322	-78,500	-0,108	-0,026
-251,307	-200,000	-0,009	-0,109
-250,292	-43,417	-0,019	0,007
-249,278	-122,533	0,084	-0,010
-248,263	-15,336	0,151	-0,068
-247,249	9,625	0,067	-0,036
-246,234	-200,000	-0,001	0,046
-245,219	800,000	-0,058	-0,135
-244,205	-200,000	-0,003	-0,094
-243,190	250,019	-0,013	-0,015
-242,176	-140,279	0,116	-0,009
-241,161	42,966	0,240	0,155
-240,146	-200,000	-0,001	0,008
-239,132	83,515	-0,111	-0,086
-238,117	-200,000	0,002	-0,119
-237,103	128,623	-0,113	-0,102
-236,088	-114,537	0,204	-0,028
-235,073	-75,345	0,126	0,032
-234,059	-191,448	-0,092	-0,001
-233,044	-31,138	-0,108	0,043
-232,030	-53,405	0,082	0,027
-231,015	-83,404	-0,064	-0,014
-230,000	100,120	-0,116	-0,096
-228,986	31,315	0,072	-0,044
-227,971	-51,056	0,027	-0,009
-226,957	-200,000	0,022	0,143
-225,942	46,174	-0,049	0,032
-224,927	62,704	-0,009	-0,006
-223,913	800,000	0,037	0,079
-222,898	-200,000	-0,014	-0,081
-221,884	800,000	0,021	0,050
-220,869	32,656	-0,046	0,028
-219,855	57,113	-0,081	0,056
-218,840	140,396	0,057	0,054
-217,825	-93,008	0,065	-0,013
-216,811	173,642	0,104	0,107
-215,796	1,058	-0,157	-0,080
-214,782	-113,788	0,129	0,018
-213,767	101,720	-0,036	-0,030
-212,752	158,078	0,033	0,033
-211,738	167,735	-0,059	0,059
-210,723	125,707	0,096	0,086
-209,709	112,732	0,073	-0,063
-208,694	-76,583	-0,022	-0,005
-207,679	47,194	0,009	0,006
-206,665	217,096	-0,040	-0,045
-205,650	-139,815	0,084	-0,006
-204,636	-101,034	0,148	0,026
-203,621	800,000	-0,078	0,202
-202,606	-200,000	-0,002	0,043
-201,592	-200,000	-0,001	-0,165
-200,577	453,324	-0,064	-0,102
-199,563	391,857	0,053	-0,079
-198,548	573,411	0,086	0,149
-197,533	-200,000	0,006	0,111
-196,519	-43,941	0,056	0,020
-195,504	112,815	0,044	-0,038
-194,490	21,486	-0,100	0,058
-193,475	279,892	-0,079	-0,101
-192,460	-142,406	0,010	0,001
-191,446	128,299	0,067	0,061
-190,431	196,503	-0,047	0,050
-189,417	-200,000	0,015	0,110
-188,402	-109,270	0,054	-0,008
-187,387	-78,948	-0,195	-0,047
-186,373	82,200	-0,103	-0,080
-185,358	-137,243	-0,094	0,007
-184,344	-77,093	0,040	-0,010
-183,329	-200,000	0,008	0,107
-182,315	221,234	-0,066	-0,076
-181,300	-200,000	0,048	0,245
-180,285	800,000	-0,062	-0,170
-179,271	800,000	-0,042	-0,114
-178,256	-25,041	-0,125	-0,052
-177,242	0,252	-0,027	-0,014
-176,227	42,082	-0,122	0,078
-175,212	-72,384	0,007	-0,002
-174,198	383,685	-0,013	-0,019
-173,183	-35,646	0,099	0,038
-172,169	158,289	-0,024	-0,024
-171,154	-200,000	0,001	-0,028
-170,139	519,846	-0,057	0,095
-169,125	-51,285	-0,079	0,026
-168,110	-200,000	0,029	0,137
-167,096	-27,130	-0,067	0,027
-166,081	398,888	0,095	0,141
-165,066	201,009	-0,034	-0,037
-164,052	-200,000	0,005	0,207
-163,037	49,854	-0,032	0,022
-162,023	-19,544	-0,021	-0,009
-161,008	-9,569	0,144	-0,068
-159,993	9,087	0,094	0,050
-158,979	88,649	0,067	-0,053
-157,964	-87,578	-0,034	0,007
-156,950	1,270	-0,017	-0,009
-155,935	-174,423	-0,066	0,001
-154,920	-30,055	0,027	0,011
-153,906	800,000	0,041	0,106
-152,891	-4,598	0,070	-0,034
-151,877	-108,798	0,104	-0,016
-150,862	800,000	-0,022	-0,068
-149,847	-200,000	-0,013	-0,153
-148,833	800,000	-0,035	-0,097
-147,818	-116,196	0,140	0,018
-146,804	-151,101	-0,134	0,007
-145,789	35,616	0,134	-0,083
-144,775	-200,000	0,008	0,054
-143,760	-109,946	-0,097	-0,014
-142,745	-200,000	0,016	-0,127
-141,731	217,912	-0,073	-0,082
-140,716	-66,089	-0,050	-0,014
-139,702	-200,000	-0,034	-0,120
-138,687	-68,991	-0,093	-0,025
-137,672	-200,000	0,055	-0,225
-136,658	800,000	-0,053	-0,148
-135,643	-142,708	-0,086	0,006
-134,629	-200,000	0,005	0,115
-133,614	-200,000	0,010	-0,040
-132,599	98,068	0,052	-0,042
-131,585	-200,000	-0,027	0,112
-130,570	-41,536	0,058	0,021
-129,556	309,058	-0,114	-0,151
-128,541	59,066	-0,031	-0,022
-127,526	-200,000	0,006	-0,059
-126,512	335,818	0,021	0,029
-125,497	-200,000	-0,015	0,122
-124,483	222,509	0,024	0,028
-123,468	-50,246	-0,134	-0,045
-122,453	702,900	-0,062	-0,116
-121,439	101,818	-0,063	-0,052
-120,424	14,335	0,070	-0,039
-119,410	100,422	0,051	-0,042
-118,395	-200,000	0,034	0,159
-117,380	-200,000	-0,032	0,128
-116,366	793,201	-0,079	0,155
-115,351	18,898	-0,078	0,044
-114,337	-12,085	-0,110	-0,051
-113,322	800,000	0,027	-0,067
-112,307	-26,327	0,085	0,035
-111,293	-200,000	0,000	0,030
-110,278	289,285	0,098	0,126
-109,264	-127,842	0,159	-0,016
-108,249	-76,665	-0,168	0,041
-107,234	-200,000	0,008	-0,037
-106,220	-21,281	0,038	-0,017
-105,205	71,684	-0,091	0,067
-104,191	-188,817	0,115	-0,001
-103,176	-109,853	0,142	-0,021
-102,162	34,069	0,065	-0,040
-101,147	590,203	0,031	-0,054
-100,132	107,983	-0,130	-0,110
-99,118	162,232	-0,071	-0,070
-98,103	140,262	0,056	0,052
-97,089	17,148	0,090	0,050
-96,074	330,759	0,077	0,106
-95,059	-200,000	-0,022	0,100
-94,045	797,336	0,030	0,058
-93,030	-55,350	-0,067	0,021
-92,016	277,671	-0,046	-0,058
-91,001	800,000	0,005	0,017
-89,986	-200,000	0,013	0,046
-88,972	230,807	0,030	-0,035
-87,957	314,779	-0,045	0,060
-86,943	-35,393	0,074	-0,028
-85,928	458,905	-0,045	-0,071
-84,913	533,690	0,020	-0,034
-83,899	-115,684	-0,057	-0,007
-82,884	-0,103	0,030	0,015
-81,870	197,914	0,046	-0,049
-80,855	-52,350	0,046	0,015
-79,840	-24,187	0,032	0,013
-78,826	134,244	-0,049	0,045
-77,811	22,192	-0,102	-0,059
-76,797	498,137	-0,070	-0,115
-75,782	-200,000	-0,017	0,131
-74,767	800,000	0,019	0,038
-73,753	-43,037	-0,158	-0,056
-72,738	-200,000	0,032	0,190
-71,724	30,964	-0,079	-0,048
-70,709	293,952	-0,084	-0,109
-69,694	-200,000	-0,029	-0,119
-68,680	783,667	0,081	0,158
-67,665	800,000	0,029	-0,066
-66,651	437,552	0,043	0,067
-65,636	-200,000	0,002	0,053
-64,622	209,576	-0,101	0,112
-63,607	-62,099	-0,059	-0,017
-62,592	50,975	-0,050	0,033
-61,578	800,000	0,041	-0,112
-60,563	16,591	0,101	0,056
-59,549	800,000	-0,049	0,149
-58,534	-17,752	-1,664	-0,736
-57,519	355,706	-1,356	-1,915
-56,505	-200,000	-0,512	-4,576
-55,490	308,750	1,097	1,453
-54,476	800,000	4,896	11,094
-53,461	-200,000	19,617	325,572
-52,446	800,000	747,885	2324,985
-51,432	560,389	1658,767	2845,226
-50,417	76,257	1670,247	1249,445
-49,403	20,421	1543,668	879,960
-48,388	14,335	1466,278	806,260
-47,373	18,261	1456,220	819,648
-46,359	16,440	1445,840	805,054
-45,344	12,565	1441,559	784,093
-44,330	12,543	1439,377	782,769
-43,315	12,571	1437,850	782,044
-42,300	12,590	1436,046	781,121
-41,286	12,535	1434,968	780,239
-40,271	12,533	1433,418	779,359
-39,257	12,569	1432,118	778,789
-38,242	12,578	1430,986	778,186
-37,227	12,546	1429,837	777,381
-36,213	12,583	1428,394	776,739
-35,198	12,590	1427,203	776,092
-34,184	12,649	1426,121	775,753
-33,169	12,569	1424,851	774,652
-32,154	12,609	1424,151	774,432
-31,140	12,646	1422,485	773,671
-30,125	12,644	1421,477	773,082
-29,111	12,645	1420,164	772,342
-28,096	12,618	1419,324	771,725
-27,082	12,538	1418,212	770,713
-26,067	12,556	1417,153	770,194
-25,052	12,519	1416,093	769,413
-24,038	12,521	1415,065	768,835
-23,023	12,526	1413,964	768,230
-22,009	12,508	1412,806	767,484
-20,994	12,560	1412,041	767,281
-19,979	12,521	1411,175	766,597
-18,965	12,489	1410,290	765,935
-17,950	12,509	1409,363	765,496
-16,936	12,499	1408,389	764,889
-15,921	12,433	1407,510	764,073
-14,906	12,478	1406,486	763,699
-13,892	12,461	1405,574	763,094
-12,877	12,461	1404,582	762,526
-11,863	12,431	1403,867	761,966
-10,848	12,435	1402,728	761,337
-9,833	12,382	1402,095	760,715
-8,819	12,347	1401,467	760,183
-7,804	12,334	1400,526	759,582
-6,790	12,350	1399,241	758,926
-5,775	12,364	1398,121	758,356
-4,760	12,377	1397,166	757,868
-3,746	12,341	1396,191	757,142
-2,731	12,305	1395,351	756,490
-1,717	12,287	1394,679	756,009
-0,702	12,327	1392,771	755,134
0,313	16,300	1308,602	727,832
1,327	32,757	700,396	427,388
2,342	50,613	122,237	81,607
3,356	2,344	16,444	8,379
4,371	6,512	3,187	1,668
5,386	-28,361	0,669	0,272
6,400	-200,000	0,026	0,359
7,415	-4,160	-0,343	-0,167
8,429	143,017	-0,266	-0,250
9,444	3,777	-0,234	-0,120
10,459	3,539	-0,252	-0,129
11,473	87,825	-0,344	-0,269
12,488	88,507	-0,318	-0,249
13,502	-10,660	-0,264	-0,123
14,517	81,229	-0,193	-0,147
15,531	0,428	-0,381	-0,192
16,546	-39,769	-0,432	-0,158
17,561	73,919	-0,361	-0,267
18,575	-115,844	-0,232	0,030
19,590	39,356	-0,249	-0,157
20,604	79,148	-0,295	-0,223
21,619	-22,424	-0,497	-0,212
22,634	88,127	-0,411	-0,321
23,648	145,628	-0,311	-0,294
24,663	0,874	-0,523	-0,263
25,677	157,949	-0,340	-0,333
26,692	64,862	-0,270	-0,192
27,707	-35,800	-0,262	-0,099
28,721	66,139	-0,345	-0,247
29,736	88,148	-0,339	-0,265
30,750	74,536	-0,442	-0,327
31,765	304,008	-0,358	-0,469
32,780	160,814	-0,388	-0,382
33,794	154,288	-0,315	-0,305
34,809	409,409	-0,235	-0,351
35,823	16,662	-0,371	-0,206
36,838	101,166	-0,410	-0,336
37,853	271,328	-0,375	-0,467
38,867	114,468	-0,390	-0,335
39,882	12,532	-0,225	-0,122
40,896	198,305	-0,169	-0,182
41,911	17,097	-0,386	-0,215
42,926	-3,212	-0,314	-0,154
43,940	8,556	-0,353	-0,187
44,955	279,178	-0,298	-0,375
45,969	-1,791	-0,453	-0,224
46,984	14,450	-0,320	-0,175
47,999	60,484	-0,287	-0,200
49,013	70,827	-0,401	-0,292
50,028	85,470	-0,252	-0,194
51,042	260,226	-0,238	-0,290
52,057	-52,000	-0,519	-0,169
53,071	3,417	-0,429	-0,219
54,086	125,299	-0,238	-0,211
55,101	45,421	-0,313	-0,203
56,115	29,418	-0,273	-0,163
57,130	-15,960	-0,398	-0,177
58,144	15,542	-0,233	-0,128
59,159	236,620	-0,219	-0,255
60,174	-19,930	-0,291	-0,126
61,188	323,248	-0,222	-0,298
62,203	-51,733	-0,370	-0,121
63,217	4,432	-0,304	-0,156
64,232	27,805	-0,345	-0,204
65,247	114,730	-0,401	-0,344
66,261	23,573	-0,416	-0,240
67,276	341,787	-0,232	-0,319
68,290	103,164	-0,244	-0,201
69,305	88,994	-0,257	-0,201
70,320	-25,263	-0,297	-0,123
71,334	-38,179	-0,407	-0,151
72,349	-75,632	-0,307	-0,076
73,363	258,571	-0,257	-0,312
74,378	-9,589	-0,329	-0,154
75,393	123,550	-0,309	-0,272
76,407	243,050	-0,240	-0,282
77,422	56,509	-0,318	-0,217
78,436	61,796	-0,327	-0,229
79,451	0,192	-0,176	-0,088
80,466	-94,382	-0,229	-0,044
81,480	-28,198	-0,409	-0,165
82,495	38,382	-0,328	-0,205
83,509	142,862	-0,278	-0,259
84,524	27,478	-0,279	-0,164
85,539	-2,848	-0,237	-0,116
86,553	138,954	-0,276	-0,255
87,568	28,882	-0,194	-0,115
88,582	-49,111	-0,375	-0,125
89,597	67,704	-0,287	-0,205
90,611	15,446	-0,238	-0,131
91,626	-106,146	-0,407	-0,063
92,641	203,597	-0,235	-0,256
93,655	-115,569	-0,440	-0,057
94,670	52,008	-0,298	-0,199
95,684	40,468	-0,303	-0,191
96,699	17,100	-0,388	-0,215
97,714	55,655	-0,421	-0,285
98,728	56,620	-0,250	-0,170
99,743	545,314	-0,119	-0,200
100,757	183,860	-0,172	-0,178
101,772	281,992	-0,147	-0,185
102,787	503,511	-0,207	-0,337
103,801	-17,766	-0,314	-0,138
104,816	-89,789	-0,247	-0,050
105,830	70,664	-0,314	-0,227
106,845	23,098	-0,287	-0,165
107,860	152,560	-0,222	-0,212
108,874	-137,656	-0,266	-0,021
109,889	164,372	-0,120	-0,119
110,903	60,676	-0,312	-0,216
111,918	-23,639	-0,395	-0,165
112,933	118,945	-0,200	-0,173
113,947	416,298	-0,208	-0,311
114,962	-62,626	-0,378	-0,109
115,976	-21,285	-0,194	-0,082
116,991	181,584	-0,378	-0,389
118,006	205,776	-0,230	-0,251
119,020	68,132	-0,279	-0,200
120,035	537,798	-0,203	-0,339
121,049	30,840	-0,247	-0,147
122,064	-13,651	-0,151	-0,068
123,079	101,083	-0,339	-0,275
124,093	-60,616	-0,269	-0,079
125,108	112,234	-0,289	-0,245
126,122	-84,919	-0,283	-0,062
127,137	10,880	-0,184	-0,098
128,151	87,966	-0,231	-0,179
129,166	213,864	-0,149	-0,165
130,181	23,709	-0,251	-0,144
131,195	166,417	-0,193	-0,191
132,210	24,705	-0,293	-0,169
133,224	-57,788	-0,316	-0,096
134,239	-14,482	-0,243	-0,109
135,254	515,265	-0,110	-0,180
136,268	200,227	-0,119	-0,128
137,283	-56,207	-0,285	-0,088
138,297	250,884	-0,156	-0,185
139,312	253,875	-0,197	-0,236
140,327	40,303	-0,247	-0,155
141,341	144,974	-0,140	-0,131
142,356	290,492	-0,182	-0,231
143,370	-18,644	-0,332	-0,144
144,385	-63,154	-0,228	-0,065
145,400	67,655	-0,308	-0,219
146,414	325,207	-0,222	-0,296
147,429	-8,616	-0,265	-0,124
148,443	211,201	-0,209	-0,229
149,458	114,132	-0,241	-0,205
150,473	725,882	-0,177	-0,331
151,487	-98,891	-0,294	-0,052
152,502	239,133	-0,240	-0,279
153,516	-18,026	-0,345	-0,150
154,531	240,911	-0,253	-0,295
155,546	-9,226	-0,285	-0,132
156,560	244,775	-0,107	-0,126
157,575	26,148	-0,283	-0,164
158,589	-200,000	-0,062	-0,191
159,604	22,107	-0,312	-0,177
160,619	290,370	-0,211	-0,267
161,633	-168,525	-0,411	0,011
162,648	-101,449	-0,305	-0,051
163,662	-200,000	-0,054	-0,202
164,677	36,008	-0,305	-0,187
165,692	29,284	-0,249	-0,147
166,706	32,612	-0,259	-0,156
167,721	143,803	-0,264	-0,245
168,735	369,678	-0,267	-0,378
169,750	221,727	-0,151	-0,170
170,764	-108,327	-0,290	-0,043
171,779	27,515	-0,244	-0,143
172,794	1,805	-0,275	-0,138
173,808	740,401	-0,130	-0,244
174,823	-5,505	-0,278	-0,132
175,837	122,202	-0,198	-0,172
176,852	257,062	-0,157	-0,188
177,867	443,196	-0,087	-0,133
178,881	87,197	-0,080	-0,062
179,896	-49,291	-0,160	-0,053
180,910	-60,610	-0,284	-0,083
181,925	151,709	-0,275	-0,261
182,940	46,761	-0,311	-0,200
183,954	-200,000	-0,037	-0,158
184,969	-11,989	-0,308	-0,140
185,983	160,072	-0,205	-0,199
186,998	-200,000	-0,036	-0,142
188,013	87,195	-0,188	-0,144
189,027	44,525	-0,244	-0,156
190,042	232,421	-0,117	-0,134
191,056	-39,142	-0,145	-0,053
192,071	-57,926	-0,205	-0,062
193,086	90,302	-0,167	-0,130
194,100	181,806	-0,175	-0,179
195,115	-200,000	-0,078	-0,279
196,129	-35,995	-0,232	-0,087
197,144	268,044	-0,164	-0,199
198,159	582,927	-0,145	-0,248
199,173	16,462	-0,136	-0,074
200,188	41,614	-0,103	-0,065
201,202	105,921	-0,165	-0,136
202,217	27,844	-0,266	-0,155
203,232	91,748	-0,250	-0,195
204,246	51,883	-0,236	-0,156
205,261	503,487	-0,147	-0,238
206,275	513,610	-0,154	-0,251
207,290	410,403	-0,084	-0,124
208,304	86,432	-0,121	-0,092
209,319	-146,738	-0,212	-0,013
210,334	16,612	-0,268	-0,146
211,348	10,399	-0,148	-0,078
212,363	-123,398	-0,266	-0,029
213,377	56,138	-0,125	-0,084
214,392	-65,463	-0,232	-0,064
215,407	173,060	-0,200	-0,200
216,421	800,000	-0,062	-0,123
217,436	58,202	-0,220	-0,149
218,450	52,727	-0,288	-0,191
219,465	-7,499	-0,125	-0,059
220,480	213,747	-0,169	-0,185
221,494	150,059	-0,223	-0,210
222,509	164,383	-0,158	-0,154
223,523	56,705	-0,103	-0,069
224,538	-181,030	-0,215	-0,003
225,553	800,000	-0,104	-0,215
226,567	-35,639	-0,288	-0,108
227,582	-19,607	-0,192	-0,082
228,596	61,022	-0,179	-0,123
229,611	-200,000	-0,095	-0,337
230,626	13,930	-0,167	-0,090
231,640	113,020	-0,197	-0,166
232,655	109,000	-0,235	-0,195
233,669	74,026	-0,211	-0,153
234,684	800,000	-0,093	-0,261
235,699	10,440	-0,184	-0,097
236,713	71,900	-0,220	-0,158
237,728	106,267	-0,136	-0,112
238,742	-94,121	-0,152	-0,029
239,757	1,187	-0,300	-0,148
240,772	-89,256	-0,298	-0,060
241,786	161,847	-0,197	-0,191
242,801	-137,792	-0,192	-0,015
243,815	110,460	-0,127	-0,106
244,830	130,768	-0,195	-0,173
245,844	-60,580	-0,234	-0,068
246,859	-83,329	-0,114	-0,025
247,874	676,354	-0,138	-0,250
248,888	-84,152	-0,206	-0,045
249,903	162,006	-0,182	-0,176
250,917	-88,183	-0,123	-0,025
251,932	570,852	-0,086	-0,145
252,947	206,042	-0,202	-0,217
253,961	-16,074	-0,141	-0,062
254,976	172,392	-0,240	-0,238
255,990	355,614	-0,165	-0,228
257,005	28,539	-0,263	-0,154
258,020	-200,000	0,026	-0,146
259,034	44,867	-0,078	-0,050
260,049	-23,828	0,012	0,005
261,063	125,125	-0,191	-0,166
262,078	39,473	-0,191	-0,118
263,093	265,200	-0,183	-0,220
264,107	97,378	-0,141	-0,112
265,122	132,065	-0,173	-0,154
266,136	-144,016	-0,184	-0,012
267,151	-160,001	-0,172	-0,006
268,166	-76,230	-0,225	-0,054
269,180	214,281	-0,203	-0,222
270,195	619,236	-0,123	-0,213
271,209	-30,974	-0,101	-0,039
272,224	118,115	-0,143	-0,121
273,239	136,343	-0,165	-0,148
274,253	171,150	-0,165	-0,163
275,268	140,450	-0,152	-0,139
276,282	98,701	-0,163	-0,130
277,297	49,255	-0,123	-0,080
278,312	83,992	-0,196	-0,147
279,326	-90,454	-0,205	-0,041
280,341	-200,000	-0,020	-0,113
281,355	-2,187	-0,262	-0,127
282,370	141,621	-0,180	-0,164
283,384	287,758	-0,059	-0,073
284,399	203,503	-0,108	-0,115
285,414	-7,461	-0,085	-0,039
286,428	164,179	-0,160	-0,156
287,443	328,024	-0,151	-0,200
288,457	15,620	-0,247	-0,134
289,472	-62,356	-0,073	-0,021
290,487	800,000	-0,040	-0,095
291,501	745,404	-0,077	-0,144
292,516	134,629	-0,210	-0,188
293,530	-41,456	-0,188	-0,066
294,545	305,738	-0,093	-0,120
295,560	-153,011	-0,077	-0,004
296,574	-133,679	-0,169	-0,014
297,589	-151,925	-0,125	0,006
298,603	-153,536	-0,201	0,009
299,618	119,770	-0,165	-0,141
300,633	87,224	-0,148	-0,112
301,647	145,079	-0,157	-0,145
302,662	59,061	-0,214	-0,145
303,676	-200,000	-0,001	-0,104
304,691	104,517	-0,130	-0,106
305,706	53,814	-0,185	-0,122
306,720	785,779	-0,092	-0,175
307,735	137,340	-0,084	0,075
308,749	800,000	-0,090	-0,183
309,764	800,000	-0,044	-0,087
310,779	-38,926	-0,128	-0,046
311,793	457,559	-0,176	-0,271
312,808	137,507	-0,156	-0,141
313,822	22,913	-0,182	-0,103
314,837	-5,167	-0,181	-0,085
315,852	341,843	-0,139	-0,187
316,866	-21,216	-0,211	-0,088
317,881	138,495	-0,164	-0,148
318,895	800,000	-0,045	-0,101
319,910	445,557	-0,153	-0,232
320,925	-29,144	-0,306	-0,120
321,939	-87,288	-0,189	-0,039
322,954	-200,000	0,002	-0,126
323,968	30,241	-0,066	-0,039
324,983	-132,508	-0,130	0,011
325,997	-128,988	-0,223	-0,021
327,012	350,008	-0,103	-0,140
328,027	234,704	-0,127	-0,144
329,041	-200,000	-0,057	-0,181
330,056	368,626	-0,007	0,010
331,070	134,411	-0,233	-0,208
332,085	-7,368	-0,118	-0,055
333,100	112,771	-0,157	-0,131
334,114	-179,156	-0,238	-0,004
335,129	301,125	-0,083	-0,105
336,143	116,719	-0,163	-0,137
337,158	-200,000	-0,019	-0,168
338,173	-22,632	-0,163	-0,067
339,187	-157,510	-0,168	-0,007
340,202	81,624	-0,095	0,071
341,216	504,388	-0,117	-0,186
342,231	800,000	-0,089	-0,229
343,246	-104,055	-0,188	-0,030
344,260	-52,496	-0,304	-0,096
345,275	-200,000	-0,009	-0,095
346,289	800,000	-0,107	-0,206
347,304	-117,186	-0,140	-0,017
348,319	25,060	-0,165	-0,094
349,333	264,865	-0,041	-0,049
350,348	18,898	-0,146	-0,080
351,362	-200,000	-0,036	-0,127
352,377	-89,812	-0,106	0,021
353,392	-44,603	-0,077	-0,026
354,406	-5,824	-0,111	0,052
355,421	208,503	1316,398	1412,309
356,435	160,437	1477,307	1412,789
