DTS Sentinel unit serial number:	SN410029Multiplexer serial number:	ORYXHardware model number:	OX2-SRSoftware version number:	ORYX F/W v4,00 Oryx Data Collector v3.7.2.0data status	okinstallation	B3 Nyhavnadifferential loss correction	single-endedforward channel	channel 1reverse channel	N/Adate	2023/12/04time	20:47:30forward acquisition time	300,00reverse acquisition time	0,00gamma	499,1914k internal	0,3200k external	0,3200temperature offset calibration	1,0000default loss term (dB/km)	0,3820temperature slope calibration	1,0000multiplexer offset coefficient	1,0000multiplexer slope coefficient	1,0000fibre end	0,00T internal ref (°C)	14,46T ext. ref 1 (°C)	-0,34T ext. ref 2 (°C)	-0,36length (m)	temperature (°C)	Stokes	anti-Stokes-744,400	54,839	-0,342	-0,240
-743,385	-200,000	-0,050	0,351
-742,371	569,887	-0,124	-0,220
-741,356	-200,000	0,035	0,172
-740,342	198,538	-0,219	-0,245
-739,327	748,409	-0,120	0,236
-738,312	573,530	-0,148	-0,263
-737,298	-200,000	-0,016	0,311
-736,283	169,273	-0,146	-0,152
-735,269	-200,000	0,082	0,356
-734,254	203,824	-0,140	-0,158
-733,239	104,385	-0,196	0,168
-732,225	-200,000	0,046	-0,169
-731,210	-200,000	0,008	0,356
-730,196	186,367	0,055	-0,060
-729,181	-16,715	-0,067	-0,031
-728,167	95,674	-0,107	0,089
-727,152	800,000	0,035	-0,091
-726,137	128,736	-0,127	-0,118
-725,123	-200,000	-0,010	0,064
-724,108	-45,375	-0,141	-0,050
-723,094	800,000	-0,083	-0,191
-722,079	800,000	-0,045	-0,104
-721,064	-200,000	0,018	-0,064
-720,050	-19,907	-0,067	0,030
-719,035	-168,756	-0,150	0,004
-718,021	100,836	-0,075	-0,063
-717,006	-200,000	-0,006	-0,157
-715,991	-200,000	-0,040	-0,149
-714,977	126,805	-0,065	-0,060
-713,962	800,000	-0,007	-0,020
-712,948	-27,536	-0,084	0,035
-711,933	133,040	0,080	-0,075
-710,918	-200,000	-0,018	0,091
-709,904	334,333	-0,027	-0,038
-708,889	-200,000	-0,005	-0,129
-707,875	-139,230	-0,071	0,006
-706,860	89,514	0,136	-0,110
-705,845	171,372	0,028	-0,030
-704,831	-94,895	0,165	0,032
-703,816	-200,000	0,013	-0,085
-702,802	800,000	-0,058	-0,119
-701,787	-132,318	-0,121	0,011
-700,772	-200,000	0,004	-0,038
-699,758	259,109	-0,044	-0,056
-698,743	-112,338	-0,126	-0,018
-697,729	65,981	0,127	0,094
-696,714	207,454	-0,024	0,027
-695,699	-29,135	-0,132	-0,055
-694,685	684,675	0,055	-0,104
-693,670	-23,918	-0,109	-0,047
-692,656	66,032	-0,094	0,069
-691,641	-29,686	0,063	0,026
-690,627	103,351	0,112	-0,095
-689,612	-50,890	-0,042	-0,014
-688,597	-200,000	-0,013	0,051
-687,583	-127,271	0,011	-0,001
-686,568	-200,000	0,011	-0,083
-685,554	-8,929	-0,047	0,023
-684,539	-36,745	-0,029	0,011
-683,524	-200,000	0,034	-0,128
-682,510	-3,250	0,049	0,025
-681,495	61,129	-0,042	-0,030
-680,481	800,000	0,034	0,091
-679,466	347,883	-0,088	-0,127
-678,451	800,000	0,056	-0,128
-677,437	-143,970	0,069	-0,005
-676,422	2,433	0,045	-0,024
-675,408	-91,732	-0,103	0,021
-674,393	-95,808	-0,124	-0,024
-673,378	-175,235	-0,060	0,001
-672,364	800,000	0,031	-0,071
-671,349	-114,613	-0,020	-0,003
-670,335	-43,471	0,080	0,029
-669,320	357,729	0,087	0,127
-668,305	109,836	0,051	-0,045
-667,291	-106,042	0,095	-0,015
-666,276	553,552	-0,025	-0,044
-665,262	-136,372	0,043	0,004
-664,247	-200,000	-0,003	-0,090
-663,232	305,877	0,046	0,063
-662,218	101,912	0,120	-0,101
-661,203	800,000	0,030	0,094
-660,189	800,000	-0,027	-0,075
-659,174	56,934	0,044	0,031
-658,159	-200,000	-0,036	-0,136
-657,145	-16,071	-0,040	-0,018
-656,130	-126,615	-0,062	0,007
-655,116	-147,393	-0,136	-0,008
-654,101	487,544	-0,072	0,119
-653,086	306,070	0,065	-0,088
-652,072	271,434	-0,046	0,059
-651,057	-29,609	-0,030	-0,012
-650,043	-140,998	-0,126	0,009
-649,028	-109,249	-0,081	-0,012
-648,014	-200,000	-0,015	0,124
-646,999	-73,393	-0,093	0,024
-645,984	-200,000	0,001	-0,020
-644,970	-200,000	-0,005	-0,052
-643,955	800,000	-0,050	0,126
-642,941	800,000	-0,061	0,136
-641,926	-200,000	0,007	-0,081
-640,911	800,000	-0,037	0,079
-639,897	594,410	-0,049	0,088
-638,882	-172,058	-0,038	-0,001
-637,868	-119,130	-0,081	0,010
-636,853	800,000	-0,050	-0,105
-635,838	-98,437	0,045	-0,008
-634,824	35,728	-0,050	0,032
-633,809	90,412	0,040	0,033
-632,795	-200,000	-0,021	-0,165
-631,780	48,622	-0,045	-0,030
-630,765	9,126	-0,041	0,022
-629,751	182,641	-0,091	-0,097
-628,736	194,146	-0,036	0,039
-627,722	-138,550	0,040	-0,003
-626,707	177,476	-0,055	-0,058
-625,692	-200,000	0,026	0,153
-624,678	-200,000	-0,007	0,079
-623,663	-200,000	0,008	-0,070
-622,649	-34,834	-0,048	-0,019
-621,634	65,029	0,105	-0,076
-620,619	385,361	-0,072	-0,108
-619,605	79,527	-0,045	0,035
-618,590	-200,000	-0,012	0,065
-617,576	-107,494	-0,067	-0,010
-616,561	-158,735	-0,056	0,002
-615,546	-20,519	-0,077	-0,034
-614,532	-30,188	0,070	-0,029
-613,517	294,318	-0,010	0,013
-612,503	800,000	-0,006	-0,018
-611,488	-200,000	0,031	0,158
-610,474	800,000	-0,027	0,076
-609,459	82,589	-0,033	0,026
-608,444	-200,000	-0,011	0,143
-607,430	-200,000	0,005	-0,036
-606,415	118,375	0,103	-0,092
-605,401	69,216	0,010	0,007
-604,386	-28,657	0,088	-0,037
-603,371	-39,982	0,096	0,036
-602,357	238,305	-0,052	0,062
-601,342	-48,608	-0,039	0,014
-600,328	-165,954	-0,061	-0,002
-599,313	-15,087	0,102	0,047
-598,298	-200,000	-0,003	-0,099
-597,284	-200,000	0,009	0,102
-596,269	72,051	0,050	0,037
-595,255	-18,776	-0,147	0,066
-594,240	-50,543	-0,028	0,009
-593,225	-85,100	-0,119	-0,027
-592,211	3,400	-0,122	-0,064
-591,196	15,014	-0,112	-0,063
-590,182	-200,000	-0,026	0,100
-589,167	-200,000	-0,011	0,043
-588,152	499,087	-0,045	-0,076
-587,138	-113,172	-0,047	-0,007
-586,123	520,298	-0,032	-0,055
-585,109	-28,339	-0,089	-0,037
-584,094	252,931	0,133	0,164
-583,079	-86,061	0,052	0,011
-582,065	47,906	0,103	0,069
-581,050	-200,000	-0,031	0,142
-580,036	-200,000	-0,008	-0,042
-579,021	786,716	0,057	-0,114
-578,006	130,013	0,098	-0,090
-576,992	175,703	-0,036	-0,038
-575,977	-200,000	-0,003	0,128
-574,963	-200,000	-0,013	0,075
-573,948	49,528	-0,042	-0,028
-572,934	43,342	-0,113	-0,075
-571,919	-200,000	0,001	-0,006
-570,904	-200,000	0,023	-0,110
-569,890	800,000	-0,011	-0,034
-568,875	-80,047	0,082	0,020
-567,861	-200,000	-0,025	0,122
-566,846	171,942	0,082	-0,086
-565,831	76,511	-0,127	-0,097
-564,817	-200,000	-0,006	-0,196
-563,802	800,000	0,036	0,096
-562,788	20,403	-0,093	0,054
-561,773	800,000	0,027	-0,082
-560,758	3,697	0,205	-0,108
-559,744	-27,355	-0,145	0,061
-558,729	708,629	0,062	-0,118
-557,715	-155,751	-0,045	0,002
-556,700	165,933	-0,116	-0,118
-555,685	800,000	-0,045	-0,116
-554,671	99,002	0,067	0,056
-553,656	449,513	0,017	0,027
-552,642	-200,000	0,003	-0,039
-551,627	188,069	0,056	-0,060
-550,612	-103,026	-0,072	0,012
-549,598	-186,850	-0,154	0,002
-548,583	-73,571	0,084	-0,022
-547,569	33,466	-0,035	0,022
-546,554	114,097	-0,109	-0,095
-545,539	800,000	0,046	-0,096
-544,525	97,906	0,164	0,136
-543,510	-143,991	-0,040	0,003
-542,496	325,804	0,056	0,078
-541,481	75,506	-0,028	0,021
-540,466	196,578	0,080	-0,088
-539,452	-200,000	-0,008	0,056
-538,437	-28,646	0,143	-0,059
-537,423	714,754	-0,022	0,042
-536,408	800,000	-0,055	-0,167
-535,393	-200,000	-0,002	0,157
-534,379	-134,745	-0,129	0,011
-533,364	-200,000	-0,003	0,079
-532,350	43,451	0,028	-0,018
-531,335	-61,062	0,078	0,024
-530,321	57,216	0,124	-0,087
-529,306	-200,000	-0,008	-0,095
-528,291	447,109	-0,079	-0,125
-527,277	405,238	-0,048	-0,074
-526,262	-200,000	-0,004	0,015
-525,248	800,000	0,043	-0,091
-524,233	600,162	0,023	0,042
-523,218	-34,083	-0,112	0,044
-522,204	664,669	0,101	0,189
-521,189	-94,380	-0,089	-0,017
-520,175	800,000	0,016	-0,051
-519,160	-200,000	-0,006	0,038
-518,145	337,696	-0,045	0,064
-517,131	-200,000	-0,012	0,122
-516,116	-200,000	0,086	0,000
-515,102	162,604	-0,040	0,040
-514,087	-61,905	-0,093	-0,028
-513,072	-200,000	0,010	-0,063
-512,058	754,832	0,057	-0,112
-511,043	165,379	0,046	-0,047
-510,029	168,794	-0,085	-0,088
-509,014	329,679	-0,030	-0,041
-507,999	155,493	0,032	-0,032
-506,985	83,376	-0,018	0,014
-505,970	225,344	-0,054	-0,063
-504,956	-129,073	-0,068	0,007
-503,941	544,432	0,038	-0,065
-502,926	-174,063	0,199	-0,004
-501,912	-200,000	-0,007	0,023
-500,897	385,754	-0,109	0,162
-499,883	800,000	0,018	0,050
-498,868	-200,000	-0,005	0,027
-497,853	800,000	0,035	-0,093
-496,839	800,000	-0,037	-0,096
-495,824	72,479	0,034	0,026
-494,810	-200,000	0,008	-0,032
-493,795	800,000	-0,050	0,142
-492,781	800,000	-0,018	0,053
-491,766	-26,988	-0,113	0,047
-490,751	-139,293	-0,142	-0,011
-489,737	243,946	-0,014	0,017
-488,722	800,000	-0,066	0,160
-487,708	-146,761	0,091	-0,006
-486,693	80,338	0,031	0,024
-485,678	103,564	-0,080	-0,068
-484,664	-200,000	0,016	-0,115
-483,649	-200,000	0,001	-0,060
-482,635	545,372	-0,022	0,039
-481,620	-200,000	-0,019	0,073
-480,605	72,687	0,051	-0,038
-479,591	-200,000	0,018	0,144
-478,576	-200,000	0,029	-0,097
-477,562	66,194	-0,051	-0,037
-476,547	-81,816	-0,228	-0,053
-475,532	364,110	0,045	-0,066
-474,518	-200,000	0,027	0,161
-473,503	-108,070	-0,025	0,004
-472,489	29,451	0,091	0,056
-471,474	-200,000	-0,043	0,186
-470,459	-200,000	0,011	0,066
-469,445	-143,794	-0,137	0,009
-468,430	800,000	-0,067	-0,205
-467,416	295,505	0,052	-0,068
-466,401	411,407	-0,050	0,076
-465,386	800,000	0,029	0,083
-464,372	-65,875	0,037	0,011
-463,357	-50,037	-0,131	-0,045
-462,343	800,000	-0,054	-0,136
-461,328	-49,761	-0,043	-0,015
-460,313	424,854	-0,020	-0,031
-459,299	-126,019	-0,090	-0,010
-458,284	-138,135	0,016	0,001
-457,270	-9,968	0,063	0,030
-456,255	-200,000	0,001	-0,068
-455,241	-200,000	0,012	-0,119
-454,226	-128,621	0,096	0,010
-453,211	312,200	-0,043	0,058
-452,197	800,000	0,014	-0,039
-451,182	199,395	0,035	-0,039
-450,168	24,202	-0,099	0,059
-449,153	-26,844	0,104	0,044
-448,138	800,000	0,028	-0,062
-447,124	296,770	0,110	0,145
-446,109	-121,136	-0,015	-0,002
-445,095	513,938	0,021	-0,036
-444,080	144,441	0,048	-0,046
-443,065	-200,000	-0,006	-0,115
-442,051	318,480	-0,105	0,144
-441,036	420,242	0,023	-0,035
-440,022	-114,002	0,102	0,014
-439,007	42,873	-0,084	0,055
-437,992	252,249	0,095	0,116
-436,978	-130,572	-0,052	0,005
-435,963	-20,888	0,013	-0,006
-434,949	535,399	-0,080	-0,138
-433,934	39,590	0,022	-0,014
-432,919	-31,230	-0,056	0,023
-431,905	-200,000	0,026	-0,092
-430,890	-200,000	0,036	0,120
-429,876	-200,000	0,017	0,062
-428,861	58,657	-0,102	0,072
-427,846	-95,423	0,077	-0,015
-426,832	-37,069	0,103	-0,040
-425,817	339,605	0,023	0,033
-424,803	192,460	-0,083	0,090
-423,788	800,000	0,023	-0,064
-422,773	800,000	-0,060	0,144
-421,759	-200,000	-0,001	-0,049
-420,744	-46,719	-0,070	-0,024
-419,730	367,040	-0,089	0,129
-418,715	800,000	-0,030	-0,095
-417,701	-200,000	-0,029	-0,095
-416,686	-8,323	0,071	0,034
-415,671	217,503	-0,020	-0,023
-414,657	-114,259	0,077	0,011
-413,642	55,059	0,170	-0,118
-412,628	106,595	-0,075	-0,064
-411,613	-28,296	0,120	-0,049
-410,598	16,400	-0,116	0,065
-409,584	-200,000	0,004	-0,132
-408,569	244,829	0,052	0,063
-407,555	800,000	0,065	0,145
-406,540	-200,000	-0,031	-0,111
-405,525	800,000	-0,026	-0,071
-404,511	-115,776	-0,080	-0,011
-403,496	136,134	0,023	0,022
-402,482	125,531	0,056	-0,051
-401,467	800,000	-0,048	0,099
-400,452	474,989	0,051	0,083
-399,438	-144,096	-0,019	0,001
-398,423	-98,237	-0,172	0,031
-397,409	508,234	-0,021	-0,035
-396,394	800,000	0,061	0,121
-395,379	-200,000	-0,007	0,078
-394,365	50,127	0,093	0,063
-393,350	800,000	0,049	0,114
-392,336	-175,908	-0,106	0,002
-391,321	11,232	0,057	0,031
-390,306	-85,039	-0,021	-0,005
-389,292	-124,892	-0,044	0,005
-388,277	293,851	-0,024	-0,032
-387,263	-200,000	0,002	0,130
-386,248	86,803	0,144	0,114
-385,233	-22,090	0,074	-0,032
-384,219	300,905	-0,091	0,121
-383,204	554,047	0,084	-0,145
-382,190	274,181	-0,109	-0,138
-381,175	58,363	0,085	-0,060
-380,160	147,150	0,086	0,084
-379,146	-200,000	-0,033	0,131
-378,131	32,211	0,120	0,074
-377,117	194,588	0,039	-0,043
-376,102	-50,881	0,081	0,027
-375,088	-200,000	-0,020	-0,152
-374,073	1,824	-0,142	0,073
-373,058	-95,610	-0,088	0,017
-372,044	-68,278	0,109	-0,030
-371,029	568,560	0,081	0,142
-370,015	-200,000	-0,028	-0,105
-369,000	800,000	-0,022	0,057
-367,985	-200,000	0,013	-0,069
-366,971	526,379	0,036	0,061
-365,956	386,548	-0,072	-0,107
-364,942	-56,442	0,216	0,068
-363,927	644,189	-0,031	0,057
-362,912	-125,894	0,136	-0,014
-361,898	44,199	-0,123	-0,081
-360,883	-200,000	0,002	0,032
-359,869	-200,000	-0,012	0,118
-358,854	-200,000	0,005	-0,051
-357,839	107,079	0,084	0,071
-356,825	403,860	-0,045	-0,067
-355,810	503,491	-0,118	0,197
-354,796	107,298	0,050	0,043
-353,781	800,000	0,031	-0,069
-352,766	359,543	-0,024	0,035
-351,752	4,035	-0,064	0,033
-350,737	-200,000	-0,010	0,127
-349,723	800,000	0,039	0,111
-348,708	655,434	-0,049	0,091
-347,693	647,415	-0,034	0,063
-346,679	18,835	-0,066	0,038
-345,664	800,000	-0,045	-0,090
-344,650	-125,983	0,094	0,010
-343,635	149,735	0,117	-0,113
-342,620	58,215	0,053	-0,037
-341,606	800,000	0,043	0,116
-340,591	-200,000	0,015	-0,172
-339,577	-200,000	0,017	0,062
-338,562	-88,439	-0,161	-0,034
-337,548	800,000	-0,023	-0,069
-336,533	310,516	0,022	-0,029
-335,518	98,616	0,145	0,120
-334,504	-200,000	-0,005	-0,032
-333,489	387,900	-0,100	-0,149
-332,475	260,728	-0,042	-0,053
-331,460	-41,229	-0,146	0,054
-330,445	-200,000	-0,011	-0,113
-329,431	800,000	-0,034	-0,088
-328,416	-58,053	0,079	-0,025
-327,402	100,584	0,075	0,062
-326,387	-40,227	-0,100	0,037
-325,372	-200,000	-0,051	-0,211
-324,358	307,672	0,060	-0,081
-323,343	-73,272	0,119	-0,031
-322,329	9,796	0,104	-0,056
-321,314	574,283	0,039	-0,068
-320,299	-200,000	-0,030	-0,133
-319,285	-200,000	-0,015	-0,053
-318,270	231,254	-0,077	0,091
-317,256	-149,155	0,027	0,002
-316,241	-62,066	0,042	-0,012
-315,226	24,052	0,068	0,040
-314,212	15,770	0,088	0,049
-313,197	154,275	0,095	0,093
-312,183	800,000	-0,036	0,075
-311,168	47,449	0,047	-0,031
-310,153	800,000	-0,022	-0,064
-309,139	64,722	0,055	0,039
-308,124	420,373	0,076	0,117
-307,110	679,371	0,071	-0,133
-306,095	-35,239	0,131	0,051
-305,080	-39,345	0,067	0,025
-304,066	-8,522	-0,087	0,042
-303,051	-200,000	0,014	-0,095
-302,037	333,431	0,025	0,035
-301,022	74,246	0,178	-0,134
-300,008	69,214	-0,001	-0,001
-298,993	-200,000	0,005	0,021
-297,978	-74,713	0,085	0,022
-296,964	-200,000	0,018	0,106
-295,949	-200,000	-0,003	-0,156
-294,935	-95,737	-0,158	-0,030
-293,920	800,000	0,011	-0,030
-292,905	689,807	0,034	0,065
-291,891	-95,182	-0,074	-0,014
-290,876	513,236	-0,072	0,120
-289,862	-70,780	0,184	0,049
-288,847	-82,614	-0,055	-0,013
-287,832	-200,000	-0,002	-0,102
-286,818	-200,000	-0,012	-0,137
-285,803	334,769	0,115	0,159
-284,789	800,000	0,068	0,147
-283,774	351,835	0,072	-0,102
-282,759	7,228	0,113	0,060
-281,745	-200,000	0,002	-0,068
-280,730	-99,152	-0,099	-0,018
-279,716	800,000	0,068	-0,136
-278,701	-128,045	-0,022	-0,002
-277,686	-200,000	0,016	0,069
-276,672	566,405	0,071	0,124
-275,657	540,718	0,090	0,153
-274,643	727,023	0,036	0,069
-273,628	79,802	-0,074	-0,056
-272,613	33,660	-0,066	0,041
-271,599	-111,872	0,033	-0,005
-270,584	-200,000	0,003	0,145
-269,570	-200,000	-0,009	0,059
-268,555	-58,576	0,052	0,016
-267,540	-107,292	-0,040	0,006
-266,526	-61,182	-0,116	-0,035
-265,511	-59,554	0,067	0,021
-264,497	173,209	0,053	-0,055
-263,482	381,308	0,094	0,139
-262,467	341,638	0,060	0,083
-261,453	-200,000	-0,019	-0,078
-260,438	3,773	-0,078	-0,040
-259,424	-200,000	0,005	-0,038
-258,409	800,000	-0,047	-0,102
-257,395	800,000	-0,037	0,101
-256,380	313,228	-0,046	0,061
-255,365	-111,887	0,064	0,009
-254,351	283,193	0,088	-0,113
-253,336	-152,461	-0,116	-0,006
-252,322	800,000	-0,011	0,033
-251,307	-179,378	-0,120	-0,002
-250,292	-200,000	-0,007	-0,038
-249,278	800,000	0,021	-0,061
-248,263	-26,109	0,112	0,047
-247,249	48,918	0,069	-0,046
-246,234	-200,000	0,037	-0,159
-245,219	424,431	-0,060	-0,092
-244,205	800,000	-0,034	0,087
-243,190	-200,000	-0,021	-0,075
-242,176	-44,318	0,079	-0,028
-241,161	800,000	-0,040	0,115
-240,146	-86,154	-0,069	0,015
-239,132	-109,348	-0,009	-0,001
-238,117	166,345	-0,062	-0,063
-237,103	-200,000	-0,003	0,125
-236,088	-98,318	0,075	0,014
-235,073	501,973	0,109	0,181
-234,059	278,611	-0,055	-0,070
-233,044	38,086	-0,092	-0,058
-232,030	-181,065	0,083	-0,001
-231,015	789,040	-0,059	-0,116
-230,000	66,110	-0,031	-0,023
-228,986	-191,104	0,061	-0,000
-227,971	19,341	0,003	-0,002
-226,957	-99,242	0,043	0,008
-225,942	-57,603	-0,056	0,017
-224,927	49,839	0,037	0,025
-223,913	33,242	0,058	-0,036
-222,898	-200,000	-0,033	-0,116
-221,884	-200,000	-0,003	-0,106
-220,869	-71,803	-0,042	0,011
-219,855	-45,522	-0,052	0,018
-218,840	394,528	0,070	0,105
-217,825	731,602	-0,082	0,158
-216,811	139,776	0,083	0,078
-215,796	-95,942	-0,105	0,020
-214,782	209,720	-0,090	0,101
-213,767	-200,000	0,027	0,126
-212,752	625,501	0,060	-0,108
-211,738	326,529	0,029	-0,039
-210,723	-119,163	-0,159	0,020
-209,709	-200,000	-0,011	0,116
-208,694	105,172	0,015	-0,012
-207,679	352,380	-0,080	-0,113
-206,665	-5,583	0,085	0,042
-205,650	354,638	0,035	0,050
-204,636	-8,790	0,048	-0,023
-203,621	800,000	-0,018	-0,054
-202,606	800,000	0,024	-0,048
-201,592	-128,541	0,155	-0,015
-200,577	-64,828	-0,123	0,035
-199,563	-11,908	0,132	-0,062
-198,548	800,000	0,010	0,021
-197,533	-0,724	0,166	0,084
-196,519	-200,000	0,010	-0,103
-195,504	28,702	-0,074	-0,045
-194,490	432,553	-0,133	-0,206
-193,475	-200,000	0,004	-0,023
-192,460	-20,287	0,070	-0,031
-191,446	-200,000	-0,018	-0,116
-190,431	800,000	0,016	-0,037
-189,417	-200,000	0,017	-0,062
-188,402	-200,000	-0,020	-0,064
-187,387	-46,141	0,072	-0,025
-186,373	-200,000	0,019	0,084
-185,358	273,526	-0,096	-0,121
-184,344	-132,497	-0,069	0,006
-183,329	175,465	-0,069	0,072
-182,315	88,933	-0,078	0,062
-181,300	654,188	0,033	0,061
-180,285	248,838	0,047	-0,057
-179,271	256,206	-0,081	0,099
-178,256	434,374	0,065	0,101
-177,242	138,221	-0,070	0,065
-176,227	141,357	0,081	-0,077
-175,212	800,000	0,018	0,046
-174,198	-200,000	0,002	0,012
-173,183	-200,000	0,031	-0,104
-172,169	800,000	-0,065	-0,130
-171,154	-200,000	0,041	-0,137
-170,139	193,701	0,060	-0,065
-169,125	273,393	-0,027	0,035
-168,110	64,033	0,073	0,052
-167,096	-103,143	0,158	0,026
-166,081	21,561	-0,064	-0,037
-165,066	-35,223	0,080	0,031
-164,052	61,922	-0,139	-0,098
-163,037	-32,535	0,184	-0,072
-162,023	800,000	0,050	0,117
-161,008	361,558	-0,034	0,049
-159,993	238,851	0,078	-0,092
-158,979	59,400	-0,068	-0,048
-157,964	77,427	-0,096	0,073
-156,950	4,613	-0,088	-0,046
-155,935	-17,957	0,107	-0,048
-154,920	-31,915	0,189	-0,075
-153,906	-200,000	-0,003	0,087
-152,891	-33,100	-0,115	0,045
-151,877	261,556	-0,053	0,066
-150,862	800,000	0,036	-0,077
-149,847	301,467	-0,050	0,066
-148,833	237,981	0,045	-0,053
-147,818	421,776	-0,027	-0,042
-146,804	-161,148	0,093	0,003
-145,789	62,251	-0,099	0,070
-144,775	-200,000	0,006	0,054
-143,760	-200,000	0,006	-0,120
-142,745	-33,528	-0,064	-0,025
-141,731	11,156	0,133	0,072
-140,716	-59,513	-0,087	-0,026
-139,702	-200,000	0,016	0,104
-138,687	-51,812	0,182	-0,060
-137,672	-200,000	-0,013	0,051
-136,658	296,934	-0,053	-0,070
-135,643	800,000	0,021	0,047
-134,629	-147,193	0,097	-0,006
-133,614	-78,107	0,144	-0,035
-132,599	-200,000	0,012	-0,042
-131,585	-52,069	0,045	0,015
-130,570	305,300	-0,087	0,115
-129,556	119,172	-0,089	-0,078
-128,541	474,812	-0,037	0,059
-127,526	396,790	0,027	-0,041
-126,512	-200,000	-0,010	0,055
-125,497	-200,000	0,002	-0,012
-124,483	13,009	0,092	-0,051
-123,468	-106,275	0,084	-0,013
-122,453	-68,317	0,025	0,007
-121,439	127,753	0,046	-0,042
-120,424	-200,000	-0,014	-0,125
-119,410	-200,000	-0,003	-0,118
-118,395	-10,132	-0,087	0,041
-117,380	74,780	-0,094	0,070
-116,366	-200,000	-0,007	0,064
-115,351	83,781	0,082	0,063
-114,337	-162,834	0,010	0,000
-113,322	-200,000	-0,004	-0,035
-112,307	-200,000	0,186	0,000
-111,293	164,431	0,022	0,022
-110,278	-140,674	-0,085	0,006
-109,264	800,000	0,033	-0,100
-108,249	-131,868	0,055	-0,005
-107,234	-197,532	-0,103	-0,000
-106,220	-200,000	0,012	0,069
-105,205	-200,000	0,010	-0,033
-104,191	-200,000	0,034	0,141
-103,176	-112,073	0,070	-0,010
-102,162	194,586	-0,013	0,014
-101,147	800,000	0,035	-0,089
-100,132	-144,617	-0,055	-0,004
-99,118	28,949	-0,116	-0,070
-98,103	24,781	0,082	0,048
-97,089	34,909	0,115	0,071
-96,074	86,583	-0,003	0,002
-95,059	-102,965	-0,032	-0,005
-94,045	800,000	0,045	0,097
-93,030	65,846	0,089	-0,064
-92,016	219,798	-0,105	-0,119
-91,001	-133,774	-0,078	0,007
-89,986	-200,000	0,030	-0,164
-88,972	36,316	0,046	0,029
-87,957	-200,000	0,023	0,149
-86,943	-105,925	-0,098	-0,015
-85,928	-200,000	0,017	-0,224
-84,913	-200,000	-0,016	-0,077
-83,899	-200,000	-0,007	0,088
-82,884	-65,343	-0,026	0,007
-81,870	243,920	0,053	0,063
-80,855	422,295	0,008	-0,013
-79,840	-83,758	0,103	0,023
-78,826	625,566	-0,019	-0,034
-77,811	19,127	-0,024	-0,013
-76,797	-147,357	-0,031	-0,002
-75,782	-66,337	0,071	-0,020
-74,767	-200,000	-0,009	0,122
-73,753	-110,737	0,107	0,015
-72,738	37,828	-0,075	-0,047
-71,724	800,000	-0,031	0,088
-70,709	-200,000	-0,007	-0,149
-69,694	92,915	0,012	0,009
-68,680	48,473	0,054	-0,036
-67,665	115,218	-0,047	-0,040
-66,651	-94,361	0,150	-0,029
-65,636	-200,000	-0,011	0,040
-64,622	-68,712	-0,106	-0,029
-63,607	518,602	0,039	-0,064
-62,592	597,903	-0,065	-0,115
-61,578	-200,000	0,011	0,110
-60,563	287,495	0,013	-0,016
-59,549	475,370	-0,070	0,113
-58,534	-45,059	-1,451	-0,509
-57,519	394,990	-1,408	-2,086
-56,505	-200,000	-0,643	-4,744
-55,490	89,578	1,089	0,860
-54,476	800,000	4,912	11,510
-53,461	-200,000	18,328	297,968
-52,446	800,000	731,877	2260,177
-51,432	559,599	1647,955	2828,919
-50,417	78,904	1668,179	1263,090
-49,403	22,387	1541,680	890,034
-48,388	16,360	1464,255	816,093
-47,373	17,776	1454,261	817,324
-46,359	17,048	1444,523	808,331
-45,344	14,599	1440,033	794,074
-44,330	14,502	1438,160	792,546
-43,315	14,563	1436,413	791,841
-42,300	14,559	1434,882	790,950
-41,286	14,579	1433,587	790,297
-40,271	14,506	1432,259	789,189
-39,257	14,519	1431,029	788,542
-38,242	14,595	1429,680	788,128
-37,227	14,621	1428,414	787,519
-36,213	14,577	1427,322	786,677
-35,198	14,549	1426,105	785,843
-34,184	14,593	1425,213	785,529
-33,169	14,536	1423,902	784,506
-32,154	14,560	1422,781	783,974
-31,140	14,586	1421,467	783,337
-30,125	14,591	1420,332	782,708
-29,111	14,584	1419,160	781,994
-28,096	14,540	1418,184	781,220
-27,082	14,495	1416,972	780,310
-26,067	14,505	1415,846	779,706
-25,052	14,546	1414,697	779,234
-24,038	14,461	1414,004	778,423
-23,023	14,438	1412,917	777,684
-22,009	14,485	1411,793	777,257
-20,994	14,422	1411,063	776,527
-19,979	14,458	1410,180	776,181
-18,965	14,368	1409,178	775,175
-17,950	14,401	1408,191	774,758
-16,936	14,415	1407,399	774,356
-15,921	14,382	1406,338	773,589
-14,906	14,421	1405,174	773,101
-13,892	14,367	1404,574	772,484
-12,877	14,431	1403,393	772,102
-11,863	14,392	1402,585	771,447
-10,848	14,395	1401,628	770,904
-9,833	14,347	1400,890	770,243
-8,819	14,313	1399,945	769,534
-7,804	14,303	1399,020	768,950
-6,790	14,310	1397,828	768,297
-5,775	14,256	1396,989	767,556
-4,760	14,318	1396,072	767,306
-3,746	14,316	1395,219	766,800
-2,731	14,252	1394,565	766,114
-1,717	14,306	1393,410	765,697
-0,702	14,264	1391,761	764,567
0,313	18,163	1309,974	737,678
1,327	34,544	706,322	435,700
2,342	52,789	124,375	84,007
3,356	5,575	16,638	8,669
4,371	7,233	3,161	1,664
5,386	-39,278	0,372	0,138
6,400	800,000	0,063	0,194
7,415	-64,960	-0,270	-0,077
8,429	117,710	-0,257	-0,224
9,444	213,024	-0,321	-0,359
10,459	-77,518	-0,418	-0,102
11,473	59,126	-0,240	-0,167
12,488	13,753	-0,286	-0,157
13,502	-56,302	-0,372	-0,116
14,517	46,902	-0,255	-0,167
15,531	37,972	-0,498	-0,312
16,546	172,197	-0,306	-0,312
17,561	50,824	-0,322	-0,215
18,575	-21,775	-0,221	-0,095
19,590	209,497	-0,322	-0,357
20,604	29,264	-0,343	-0,205
21,619	21,796	-0,387	-0,222
22,634	52,976	-0,456	-0,308
23,648	300,178	-0,362	-0,473
24,663	149,479	-0,323	-0,309
25,677	174,280	-0,323	-0,330
26,692	145,225	-0,411	-0,388
27,707	-79,007	-0,400	-0,095
28,721	101,463	-0,391	-0,322
29,736	243,534	-0,352	-0,418
30,750	231,228	-0,378	-0,438
31,765	88,321	-0,491	-0,385
32,780	130,190	-0,310	-0,280
33,794	153,709	-0,235	-0,227
34,809	113,318	-0,361	-0,309
35,823	74,468	-0,335	-0,248
36,838	91,268	-0,360	-0,285
37,853	84,207	-0,389	-0,299
38,867	120,420	-0,387	-0,339
39,882	147,246	-0,346	-0,328
40,896	30,829	-0,338	-0,204
41,911	140,382	-0,249	-0,231
42,926	-20,400	-0,328	-0,142
43,940	75,283	-0,361	-0,268
44,955	235,612	-0,231	-0,269
45,969	181,920	-0,301	-0,313
46,984	8,369	-0,361	-0,191
47,999	239,102	-0,218	-0,256
49,013	-13,541	-0,338	-0,154
50,028	24,527	-0,485	-0,282
51,042	-10,494	-0,431	-0,201
52,057	126,397	-0,206	-0,184
53,071	-13,573	-0,315	-0,143
54,086	140,607	-0,348	-0,324
55,101	321,761	-0,274	-0,368
56,115	34,566	-0,411	-0,252
57,130	8,579	-0,308	-0,163
58,144	-25,986	-0,399	-0,165
59,159	-18,820	-0,399	-0,174
60,174	155,382	-0,334	-0,324
61,188	-35,005	-0,304	-0,116
62,203	39,901	-0,295	-0,186
63,217	142,479	-0,333	-0,312
64,232	-74,828	-0,251	-0,063
65,247	-11,155	-0,352	-0,163
66,261	55,814	-0,396	-0,270
67,276	94,395	-0,287	-0,230
68,290	-46,291	-0,292	-0,101
69,305	7,532	-0,312	-0,164
70,320	-59,013	-0,476	-0,144
71,334	114,714	-0,324	-0,278
72,349	107,321	-0,321	-0,268
73,363	13,758	-0,322	-0,175
74,378	56,015	-0,310	-0,211
75,393	321,744	-0,112	-0,151
76,407	-128,522	-0,274	-0,027
77,422	-97,418	-0,169	0,031
78,436	-7,829	-0,322	-0,152
79,451	50,867	-0,335	-0,223
80,466	70,561	-0,284	-0,206
81,480	59,411	-0,234	-0,162
82,495	-83,447	-0,282	-0,063
83,509	136,288	-0,304	-0,279
84,524	14,542	-0,220	-0,120
85,539	99,618	-0,258	-0,209
86,553	-22,682	-0,340	-0,144
87,568	36,001	-0,278	-0,172
88,582	91,257	-0,206	-0,162
89,597	-36,889	-0,408	-0,153
90,611	318,177	-0,178	-0,237
91,626	87,755	-0,296	-0,230
92,641	13,278	-0,244	-0,132
93,655	-162,234	-0,185	-0,006
94,670	107,212	-0,224	-0,187
95,684	475,607	-0,205	-0,326
96,699	66,965	-0,241	-0,172
97,714	-53,126	-0,247	-0,079
98,728	205,687	-0,214	-0,234
99,743	155,427	-0,254	-0,245
100,757	11,006	-0,241	-0,129
101,772	50,876	-0,231	-0,153
102,787	709,056	-0,101	-0,187
103,801	9,773	-0,229	-0,121
104,816	-5,449	-0,205	-0,098
105,830	7,741	-0,315	-0,165
106,845	-79,971	-0,215	-0,050
107,860	50,580	-0,201	-0,133
108,874	25,320	-0,197	-0,114
109,889	7,378	-0,288	-0,150
110,903	97,665	-0,303	-0,244
111,918	223,753	-0,194	-0,220
112,933	-60,524	-0,359	-0,106
113,947	52,756	-0,210	-0,141
114,962	181,444	-0,223	-0,230
115,976	-30,289	-0,354	-0,140
116,991	59,452	-0,284	-0,196
118,006	207,403	-0,315	-0,344
119,020	3,423	-0,201	-0,102
120,035	180,787	-0,176	-0,181
121,049	-6,835	-0,183	-0,087
122,064	99,914	-0,232	-0,188
123,079	-27,102	-0,244	-0,099
124,093	-33,267	-0,255	-0,099
125,108	-85,889	-0,306	-0,066
126,122	32,666	-0,345	-0,208
127,137	97,628	-0,227	-0,183
128,151	-47,494	-0,272	-0,092
129,166	-55,936	-0,288	-0,089
130,181	101,246	-0,175	-0,143
131,195	125,616	-0,205	-0,181
132,210	36,128	-0,202	-0,124
133,224	9,465	-0,310	-0,164
134,239	540,566	-0,098	-0,164
135,254	145,956	-0,160	-0,150
136,268	170,163	-0,154	-0,155
137,283	43,515	-0,231	-0,147
138,297	193,614	-0,241	-0,255
139,312	-57,256	-0,390	-0,119
140,327	50,330	-0,177	-0,117
141,341	-87,919	-0,235	-0,049
142,356	-26,242	-0,268	-0,110
143,370	327,675	-0,115	-0,154
144,385	85,546	-0,261	-0,201
145,400	405,488	-0,154	-0,227
146,414	477,934	-0,185	-0,293
147,429	491,182	-0,143	-0,229
148,443	-110,900	-0,238	-0,034
149,458	-138,995	-0,258	0,019
150,473	-120,155	-0,294	-0,035
151,487	231,482	-0,162	-0,186
152,502	-13,858	-0,222	-0,100
153,516	171,839	-0,230	-0,231
154,531	208,207	-0,155	-0,169
155,546	103,337	-0,165	-0,135
156,560	-75,317	-0,217	-0,054
157,575	5,446	-0,254	-0,131
158,589	80,650	-0,232	-0,174
159,604	235,087	-0,174	-0,201
160,619	121,070	-0,168	-0,146
161,633	22,880	-0,240	-0,137
162,648	303,348	-0,201	-0,261
163,662	136,478	-0,154	-0,140
164,677	18,243	-0,135	-0,075
165,692	340,698	-0,174	-0,237
166,706	800,000	-0,142	-0,314
167,721	99,199	-0,209	-0,168
168,735	296,017	-0,242	-0,309
169,750	15,700	-0,239	-0,130
170,764	271,968	-0,261	-0,322
171,779	20,176	-0,267	-0,150
172,794	46,042	-0,192	-0,124
173,808	89,291	-0,344	-0,267
174,823	246,864	-0,240	-0,283
175,837	103,404	-0,294	-0,240
176,852	-29,786	-0,308	-0,122
177,867	-52,275	-0,257	-0,083
178,881	34,959	-0,259	-0,158
179,896	-12,882	-0,165	-0,075
180,910	144,755	-0,181	-0,168
181,925	34,435	-0,351	-0,213
182,940	-200,000	-0,050	-0,217
183,954	297,088	-0,159	-0,204
184,969	154,468	-0,264	-0,253
185,983	800,000	-0,103	-0,219
186,998	129,675	-0,219	-0,195
188,013	39,445	-0,278	-0,173
189,027	99,874	-0,268	-0,216
190,042	170,064	-0,232	-0,231
191,056	-200,000	-0,094	-0,337
192,071	317,926	-0,148	-0,195
193,086	177,653	-0,236	-0,240
194,100	-28,457	-0,220	-0,088
195,115	216,587	-0,154	-0,171
196,129	163,503	-0,199	-0,195
197,144	148,389	-0,191	-0,179
198,159	60,305	-0,190	-0,131
199,173	44,532	-0,215	-0,137
200,188	211,749	-0,179	-0,197
201,202	97,543	-0,222	-0,177
202,217	-101,017	-0,214	-0,036
203,232	105,684	-0,199	-0,163
204,246	43,551	-0,185	-0,117
205,261	281,462	-0,224	-0,280
206,275	547,629	-0,094	-0,157
207,290	68,121	-0,121	-0,086
208,304	-13,614	-0,165	-0,074
209,319	311,065	-0,104	-0,135
210,334	44,591	-0,323	-0,206
211,348	1,447	-0,301	-0,150
212,363	43,517	-0,206	-0,131
213,377	182,884	-0,108	-0,111
214,392	141,639	-0,019	0,018
215,407	-104,113	-0,252	0,040
216,421	128,096	-0,063	-0,056
217,436	-39,287	-0,229	-0,083
218,450	1,228	-0,196	-0,097
219,465	800,000	-0,067	-0,162
220,480	-112,279	-0,343	-0,047
221,494	166,851	-0,242	-0,239
222,509	-40,325	-0,127	-0,045
223,523	-57,349	-0,117	0,036
224,538	5,596	-0,212	-0,108
225,553	139,963	-0,115	-0,105
226,567	77,355	-0,205	-0,151
227,582	-93,589	-0,221	0,042
228,596	147,700	-0,168	-0,157
229,611	43,401	-0,269	-0,170
230,626	-133,521	-0,265	-0,023
231,640	131,332	-0,140	-0,125
232,655	53,034	-0,216	-0,143
233,669	800,000	-0,105	-0,206
234,684	-200,000	-0,055	-0,186
235,699	229,779	-0,117	-0,132
236,713	335,131	-0,110	-0,147
237,728	26,540	-0,191	-0,111
238,742	328,621	-0,211	-0,281
239,757	155,134	-0,160	-0,153
240,772	48,846	-0,308	-0,200
241,786	-3,900	-0,236	-0,113
242,801	-10,133	-0,169	-0,077
243,815	386,807	-0,084	-0,121
244,830	3,211	-0,274	-0,137
245,844	-14,738	-0,296	-0,131
246,859	129,907	-0,242	-0,215
247,874	217,262	-0,184	-0,203
248,888	194,907	-0,196	-0,206
249,903	713,482	-0,144	-0,266
250,917	-200,000	0,012	-0,039
251,932	-26,193	-0,186	-0,075
252,947	156,851	-0,097	-0,093
253,961	154,233	-0,167	-0,159
254,976	323,100	-0,076	-0,101
255,990	440,104	-0,134	-0,203
257,005	2,614	-0,199	-0,099
258,020	9,034	-0,206	-0,107
259,034	326,418	-0,086	-0,115
260,049	62,186	-0,173	-0,119
261,063	-47,127	-0,287	-0,096
262,078	251,749	-0,194	-0,229
263,093	382,882	-0,128	-0,182
264,107	154,382	-0,136	-0,129
265,122	800,000	-0,039	-0,101
266,136	66,990	-0,157	-0,110
267,151	55,077	-0,274	-0,182
268,166	-11,395	-0,063	0,029
269,180	15,748	-0,196	-0,106
270,195	-66,170	-0,233	-0,064
271,209	49,161	-0,249	-0,161
272,224	284,830	-0,170	-0,212
273,239	51,124	-0,133	-0,087
274,253	457,216	-0,097	-0,149
275,268	32,248	-0,187	-0,111
276,282	102,079	-0,125	-0,101
277,297	-82,966	-0,128	0,028
278,312	358,023	-0,065	-0,090
279,326	4,553	-0,229	-0,116
280,341	800,000	-0,041	-0,096
281,355	155,019	-0,135	-0,128
282,370	121,941	-0,174	-0,150
283,384	200,482	-0,064	-0,068
284,399	-41,173	-0,198	-0,070
285,414	-47,822	-0,258	-0,086
286,428	80,200	-0,139	-0,103
287,443	184,730	-0,144	-0,147
288,457	42,726	-0,201	-0,126
289,472	-119,132	-0,203	0,024
290,487	-76,795	-0,296	-0,071
291,501	113,236	-0,185	-0,155
292,516	79,039	-0,157	-0,116
293,530	672,623	-0,089	-0,159
294,545	-46,241	-0,125	-0,042
295,560	173,557	-0,193	-0,193
296,574	-100,986	-0,173	-0,029
297,589	33,095	-0,155	-0,092
298,603	126,279	-0,165	-0,144
299,618	99,815	-0,101	-0,081
300,633	-59,064	-0,099	-0,029
301,647	-66,573	-0,117	0,032
302,662	800,000	-0,138	-0,270
303,676	-6,855	-0,181	-0,085
304,691	440,926	-0,091	-0,137
305,706	368,246	-0,118	-0,165
306,720	-59,101	-0,167	-0,049
307,735	173,198	-0,128	-0,127
308,749	181,682	-0,177	-0,180
309,764	466,001	-0,102	-0,158
310,779	32,938	-0,108	-0,064
311,793	-14,940	-0,138	-0,061
312,808	147,245	-0,206	-0,191
313,822	217,477	-0,078	-0,086
314,837	232,625	-0,158	-0,179
315,852	462,903	-0,081	-0,125
316,866	-78,108	-0,034	-0,008
317,881	-200,000	-0,028	0,092
318,895	178,341	-0,185	-0,186
319,910	227,396	-0,109	-0,122
320,925	77,573	-0,138	-0,101
321,939	-42,167	-0,227	-0,079
322,954	-93,951	-0,098	-0,018
323,968	-33,233	-0,208	-0,079
324,983	-50,448	-0,204	-0,066
325,997	231,921	-0,145	-0,164
327,012	50,847	-0,207	-0,135
328,027	-52,895	-0,219	-0,069
329,041	292,914	-0,178	-0,224
330,056	633,684	-0,067	-0,118
331,070	-48,877	-0,065	-0,021
332,085	306,652	-0,044	0,057
333,100	-43,276	-0,181	0,063
334,114	61,155	-0,109	-0,074
335,129	202,572	-0,118	-0,125
336,143	209,194	-0,066	-0,071
337,158	800,000	-0,045	-0,097
338,173	-126,635	-0,244	-0,024
339,187	-85,161	-0,098	-0,021
340,202	36,878	-0,076	0,046
341,216	-71,197	-0,157	-0,040
342,231	31,453	-0,155	-0,091
343,246	95,079	-0,125	-0,098
344,260	800,000	-0,063	-0,169
345,275	-106,892	-0,091	-0,014
346,289	-44,406	-0,046	0,016
347,304	363,138	-0,138	-0,190
348,319	-6,948	-0,199	0,092
349,333	580,129	-0,116	-0,196
350,348	239,291	-0,116	-0,133
351,362	551,431	-0,127	-0,210
352,377	345,633	-0,040	-0,054
353,392	-93,196	-0,095	0,018
354,406	-98,429	-0,077	0,013
355,421	206,946	1318,678	1411,928
356,435	159,173	1479,891	1412,423
