DTS Sentinel unit serial number:	SN410029Multiplexer serial number:	ORYXHardware model number:	OX2-SRSoftware version number:	ORYX F/W v4,00 Oryx Data Collector v3.7.2.0data status	okinstallation	B3 Nyhavnadifferential loss correction	single-endedforward channel	channel 1reverse channel	N/Adate	2023/12/02time	04:17:30forward acquisition time	300,00reverse acquisition time	0,00gamma	499,1914k internal	0,3194k external	0,3194temperature offset calibration	1,0000default loss term (dB/km)	0,3820temperature slope calibration	1,0000multiplexer offset coefficient	1,0000multiplexer slope coefficient	1,0000fibre end	0,00T internal ref (°C)	16,55T ext. ref 1 (°C)	1,38T ext. ref 2 (°C)	1,37length (m)	temperature (°C)	Stokes	anti-Stokes-744,400	41,889	-0,319	-0,210
-743,385	800,000	0,183	0,408
-742,371	234,876	-0,222	-0,267
-741,356	-200,000	-0,045	0,483
-740,342	150,435	-0,189	-0,187
-739,327	-200,000	-0,095	0,372
-738,312	42,483	-0,254	-0,168
-737,298	421,800	-0,137	0,215
-736,283	345,258	-0,128	-0,183
-735,269	-200,000	0,071	0,258
-734,254	283,862	-0,158	-0,207
-733,239	153,651	-0,160	0,160
-732,225	237,369	-0,203	-0,246
-731,210	-47,473	-0,003	-0,001
-730,196	116,316	-0,049	-0,044
-729,181	-120,907	-0,064	0,008
-728,167	190,785	-0,027	-0,029
-727,152	157,937	-0,084	-0,085
-726,137	219,835	-0,095	0,111
-725,123	-158,500	-0,152	-0,006
-724,108	-102,856	-0,134	0,023
-723,094	349,639	-0,081	-0,116
-722,079	-200,000	-0,031	-0,119
-721,064	-87,901	-0,093	-0,020
-720,050	-200,000	0,002	0,086
-719,035	800,000	-0,008	0,018
-718,021	50,330	0,055	0,037
-717,006	108,641	-0,108	-0,094
-715,991	116,789	-0,155	-0,139
-714,977	127,477	-0,149	-0,138
-713,962	-200,000	-0,003	-0,083
-712,948	-200,000	0,009	-0,115
-711,933	244,958	-0,079	0,096
-710,918	60,613	-0,063	0,046
-709,904	442,461	-0,057	0,091
-708,889	-35,936	-0,066	-0,026
-707,875	-200,000	-0,035	-0,153
-706,860	-200,000	0,045	-0,154
-705,845	-33,942	-0,019	0,008
-704,831	800,000	0,069	0,159
-703,816	39,460	0,089	0,058
-702,802	-142,439	-0,156	0,011
-701,787	38,647	-0,102	-0,066
-700,772	11,022	0,028	0,016
-699,758	587,156	0,088	-0,158
-698,743	-22,259	-0,052	-0,023
-697,729	-196,708	0,050	-0,000
-696,714	-19,613	0,126	0,057
-695,699	-86,289	-0,121	-0,027
-694,685	101,855	0,054	-0,046
-693,670	-72,345	-0,129	0,035
-692,656	-200,000	-0,050	-0,204
-691,641	229,202	0,062	0,074
-690,627	17,752	0,104	0,060
-689,612	69,430	-0,094	0,071
-688,597	-200,000	0,004	0,043
-687,583	427,901	0,120	0,188
-686,568	-131,520	-0,156	0,015
-685,554	-200,000	0,020	-0,069
-684,539	-137,196	-0,046	0,004
-683,524	148,637	0,166	0,163
-682,510	77,213	0,041	0,031
-681,495	238,274	0,078	-0,094
-680,481	-178,608	-0,161	-0,003
-679,466	-200,000	-0,017	-0,073
-678,451	-200,000	-0,008	-0,040
-677,437	800,000	0,043	-0,122
-676,422	-136,902	0,032	0,003
-675,408	380,251	-0,013	-0,020
-674,393	309,063	-0,055	-0,075
-673,378	45,122	0,066	-0,044
-672,364	-153,418	-0,079	-0,004
-671,349	547,282	-0,042	-0,074
-670,335	339,844	-0,037	0,053
-669,320	-200,000	-0,037	0,125
-668,305	76,924	-0,069	0,053
-667,291	25,418	0,097	0,058
-666,276	536,844	-0,062	-0,107
-665,262	-200,000	0,002	-0,141
-664,247	134,319	-0,048	0,045
-663,232	-186,181	0,127	-0,001
-662,218	24,300	0,074	0,044
-661,203	-200,000	-0,017	0,078
-660,189	-114,231	0,052	0,007
-659,174	-27,153	0,057	0,024
-658,159	200,286	0,041	-0,046
-657,145	377,027	0,033	-0,049
-656,130	800,000	0,023	-0,056
-655,116	-200,000	0,017	0,128
-654,101	52,558	0,052	0,036
-653,086	-55,318	0,057	-0,018
-652,072	-151,997	-0,080	-0,004
-651,057	574,205	-0,069	-0,123
-650,043	-91,125	-0,140	-0,029
-649,028	-200,000	-0,018	-0,083
-648,014	-200,000	-0,024	-0,079
-646,999	23,454	-0,118	0,070
-645,984	-170,804	-0,081	-0,002
-644,970	322,953	0,126	0,175
-643,955	-70,632	-0,155	0,042
-642,941	-66,989	-0,051	0,014
-641,926	-30,780	-0,087	-0,035
-640,911	288,838	0,078	-0,103
-639,897	-200,000	-0,003	-0,065
-638,882	800,000	-0,052	-0,111
-637,868	75,561	0,041	0,031
-636,853	714,668	-0,025	0,049
-635,838	-140,838	-0,099	0,007
-634,824	76,252	0,039	0,030
-633,809	-79,542	0,073	-0,018
-632,795	-200,000	-0,000	0,024
-631,780	543,834	-0,033	0,057
-630,765	-11,335	-0,015	-0,007
-629,751	800,000	-0,032	-0,067
-628,736	-200,000	-0,017	-0,194
-627,722	800,000	0,014	-0,043
-626,707	-200,000	0,024	0,127
-625,692	4,984	0,140	0,074
-624,678	800,000	0,076	0,217
-623,663	-95,053	0,104	-0,020
-622,649	800,000	-0,026	0,057
-621,634	800,000	0,017	-0,034
-620,619	33,202	-0,032	0,020
-619,605	6,416	-0,073	-0,039
-618,590	-125,530	0,076	0,008
-617,576	-34,936	0,142	0,056
-616,561	-120,498	-0,045	-0,005
-615,546	329,430	-0,057	-0,080
-614,532	82,587	-0,100	-0,079
-613,517	152,403	0,070	0,069
-612,503	-200,000	0,010	-0,054
-611,488	-200,000	-0,025	0,094
-610,474	-200,000	-0,018	-0,115
-609,459	-200,000	-0,018	-0,060
-608,444	61,377	0,101	0,073
-607,430	-77,483	-0,075	-0,019
-606,415	48,048	-0,062	0,042
-605,401	522,770	0,043	-0,073
-604,386	800,000	0,018	-0,042
-603,371	-200,000	0,010	0,077
-602,357	-200,000	-0,001	-0,106
-601,342	-200,000	0,004	-0,082
-600,328	692,026	-0,052	-0,099
-599,313	-200,000	-0,015	-0,149
-598,298	-36,341	-0,129	0,050
-597,284	800,000	0,018	0,039
-596,269	-200,000	0,008	0,147
-595,255	316,058	0,041	-0,057
-594,240	-200,000	0,000	-0,074
-593,225	-200,000	0,016	-0,216
-592,211	-200,000	-0,033	-0,186
-591,196	269,971	-0,061	-0,077
-590,182	-34,088	0,192	-0,076
-589,167	29,223	0,106	-0,065
-588,152	-200,000	-0,003	0,050
-587,138	788,526	-0,036	-0,072
-586,123	754,853	0,066	-0,130
-585,109	-200,000	0,015	-0,068
-584,094	-87,799	-0,086	-0,019
-583,079	767,586	0,040	0,080
-582,065	-80,966	0,035	-0,008
-581,050	18,142	-0,089	-0,052
-580,036	157,312	0,039	0,040
-579,021	-40,131	-0,041	0,015
-578,006	800,000	-0,047	-0,121
-576,992	-200,000	0,012	-0,144
-575,977	116,820	0,060	0,054
-574,963	-200,000	0,009	0,137
-573,948	800,000	0,052	-0,114
-572,934	428,132	-0,022	-0,035
-571,919	-147,907	-0,069	0,004
-570,904	-200,000	0,003	-0,011
-569,890	24,526	-0,100	0,060
-568,875	-200,000	0,002	0,069
-567,861	51,091	-0,056	0,038
-566,846	-200,000	-0,015	0,071
-565,831	800,000	-0,022	-0,064
-564,817	-200,000	0,020	-0,095
-563,802	-52,627	0,110	0,037
-562,788	40,690	0,038	0,025
-561,773	-200,000	-0,005	-0,041
-560,758	-52,962	-0,134	0,044
-559,744	-200,000	-0,009	-0,077
-558,729	-121,300	-0,084	0,010
-557,715	14,779	0,042	-0,023
-556,700	-200,000	0,021	-0,089
-555,685	-157,655	-0,158	-0,007
-554,671	164,941	0,042	-0,043
-553,656	793,477	0,040	0,081
-552,642	800,000	0,022	0,057
-551,627	800,000	0,046	-0,122
-550,612	800,000	0,014	0,037
-549,598	161,425	-0,051	-0,052
-548,583	-52,589	-0,073	-0,024
-547,569	-15,484	-0,066	-0,030
-546,554	172,049	-0,107	0,111
-545,539	800,000	0,052	0,113
-544,525	-169,106	0,079	-0,002
-543,510	-105,438	-0,093	0,015
-542,496	91,122	-0,111	0,090
-541,481	228,894	-0,029	-0,034
-540,466	-117,278	0,021	0,003
-539,452	14,593	-0,060	0,034
-538,437	800,000	-0,025	0,052
-537,423	-72,901	0,066	-0,017
-536,408	159,611	-0,019	0,019
-535,393	87,966	0,009	-0,007
-534,379	-190,252	0,075	-0,001
-533,364	-200,000	-0,000	0,018
-532,350	110,846	0,056	0,048
-531,335	-200,000	0,005	0,076
-530,321	-118,189	-0,043	-0,005
-529,306	800,000	-0,050	0,136
-528,291	800,000	-0,029	-0,088
-527,277	106,354	-0,046	0,040
-526,262	-200,000	0,015	-0,083
-525,248	-6,973	-0,138	-0,068
-524,233	73,566	0,069	0,052
-523,218	-200,000	0,003	0,028
-522,204	60,169	0,037	-0,026
-521,189	-200,000	0,017	-0,123
-520,175	-200,000	-0,011	-0,110
-519,160	800,000	-0,051	-0,152
-518,145	21,508	-0,098	0,058
-517,131	207,052	0,019	0,022
-516,116	-32,566	-0,081	-0,032
-515,102	160,326	-0,099	0,100
-514,087	157,889	0,002	0,002
-513,072	800,000	0,011	-0,032
-512,058	-200,000	-0,017	0,063
-511,043	-200,000	0,040	0,144
-510,029	-140,245	-0,014	-0,001
-509,014	-200,000	-0,004	0,022
-507,999	-173,511	-0,032	-0,001
-506,985	-200,000	0,006	0,071
-505,970	800,000	-0,048	0,141
-504,956	-191,882	-0,108	0,001
-503,941	777,728	0,010	0,020
-502,926	800,000	-0,024	0,071
-501,912	86,675	-0,010	-0,008
-500,897	-200,000	0,014	0,069
-499,883	15,415	0,012	-0,007
-498,868	-200,000	-0,035	-0,123
-497,853	-200,000	0,020	-0,085
-496,839	-64,857	0,085	-0,025
-495,824	-200,000	0,004	-0,039
-494,810	-200,000	0,011	-0,055
-493,795	71,812	-0,056	0,042
-492,781	-200,000	-0,009	-0,112
-491,766	-200,000	0,021	-0,081
-490,751	-200,000	-0,010	-0,129
-489,737	-62,230	-0,034	0,010
-488,722	309,656	-0,053	-0,071
-487,708	176,542	0,015	-0,015
-486,693	41,323	-0,087	-0,057
-485,678	7,292	-0,064	0,034
-484,664	-62,274	0,086	-0,026
-483,649	-200,000	-0,001	0,071
-482,635	-29,151	-0,116	-0,048
-481,620	89,063	0,074	0,059
-480,605	-200,000	0,023	0,076
-479,591	800,000	0,036	0,095
-478,576	-82,958	-0,101	0,023
-477,562	186,374	-0,026	0,028
-476,547	156,268	-0,027	-0,027
-475,532	-169,763	-0,014	-0,000
-474,518	-200,000	0,003	0,071
-473,503	-200,000	0,003	-0,148
-472,489	-88,002	0,047	0,010
-471,474	-200,000	0,047	0,151
-470,459	511,210	-0,035	-0,058
-469,445	411,166	-0,068	-0,105
-468,430	91,373	-0,042	0,034
-467,416	-150,474	0,089	0,005
-466,401	-175,829	0,131	0,002
-465,386	376,224	0,053	0,078
-464,372	-73,726	-0,135	-0,035
-463,357	88,398	0,107	-0,086
-462,343	800,000	-0,048	-0,121
-461,328	41,029	-0,053	0,034
-460,313	128,953	0,044	0,041
-459,299	-200,000	-0,009	0,068
-458,284	-164,214	-0,020	-0,001
-457,270	337,679	0,068	-0,096
-456,255	-93,345	0,019	0,004
-455,241	-200,000	0,002	-0,015
-454,226	-68,839	0,076	0,021
-453,211	93,712	0,046	-0,038
-452,197	256,452	-0,035	-0,043
-451,182	-149,917	-0,077	-0,004
-450,168	800,000	0,101	-0,216
-449,153	-5,583	-0,026	-0,013
-448,138	-57,386	-0,065	0,020
-447,124	422,259	-0,061	-0,095
-446,109	132,141	0,121	-0,113
-445,095	800,000	-0,016	-0,040
-444,080	800,000	-0,008	0,017
-443,065	-200,000	0,028	0,155
-442,051	-114,499	0,060	-0,008
-441,036	554,510	0,051	-0,089
-440,022	-200,000	-0,028	-0,128
-439,007	-103,197	0,097	0,016
-437,992	-4,776	-0,020	-0,010
-436,978	297,399	0,021	0,028
-435,963	567,985	-0,031	-0,054
-434,949	159,338	-0,097	0,097
-433,934	504,130	-0,097	-0,163
-432,919	-86,320	-0,068	0,015
-431,905	104,114	-0,041	-0,035
-430,890	-154,538	0,173	0,008
-429,876	-200,000	0,012	-0,042
-428,861	800,000	-0,035	0,096
-427,846	-108,944	0,105	-0,016
-426,832	-200,000	-0,025	0,101
-425,817	260,004	0,077	0,096
-424,803	800,000	0,040	0,119
-423,788	185,429	0,136	-0,146
-422,773	-200,000	0,018	-0,087
-421,759	-200,000	0,029	0,139
-420,744	800,000	-0,053	0,106
-419,730	124,363	0,057	-0,051
-418,715	800,000	-0,004	0,010
-417,701	296,711	-0,040	0,053
-416,686	60,620	-0,038	-0,027
-415,671	290,151	0,029	-0,038
-414,657	211,202	-0,102	-0,115
-413,642	78,388	-0,054	-0,042
-412,628	106,510	0,088	-0,075
-411,613	61,323	0,035	0,025
-410,598	-141,540	0,030	0,002
-409,584	-37,103	0,069	0,026
-408,569	-116,166	0,071	-0,009
-407,555	491,231	-0,046	0,076
-406,540	13,087	-0,072	-0,040
-405,525	-109,058	0,106	0,016
-404,511	148,786	0,037	-0,036
-403,496	364,711	-0,065	-0,095
-402,482	800,000	0,020	-0,050
-401,467	28,724	0,067	0,041
-400,452	146,353	-0,072	0,070
-399,438	-20,749	-0,069	0,030
-398,423	9,150	0,094	0,051
-397,409	-18,311	-0,101	-0,045
-396,394	800,000	-0,012	-0,035
-395,379	-200,000	0,001	0,072
-394,365	-200,000	0,007	-0,043
-393,350	800,000	-0,034	0,093
-392,336	274,390	0,119	0,151
-391,321	192,247	0,015	0,016
-390,306	800,000	0,025	0,074
-389,292	461,451	0,030	-0,049
-388,277	53,507	-0,050	-0,034
-387,263	1,922	0,035	0,018
-386,248	800,000	0,034	0,079
-385,233	-200,000	-0,020	0,181
-384,219	-32,596	-0,159	-0,063
-383,204	-200,000	0,017	0,107
-382,190	-7,448	-0,025	0,012
-381,175	-200,000	-0,042	-0,147
-380,160	468,739	0,032	-0,051
-379,146	-60,012	0,071	0,022
-378,131	570,531	0,025	0,044
-377,117	-107,358	0,145	-0,023
-376,102	345,984	-0,016	-0,022
-375,088	81,500	-0,024	-0,018
-374,073	-153,182	-0,043	0,002
-373,058	242,588	-0,079	0,096
-372,044	101,909	0,126	-0,105
-371,029	20,718	-0,061	-0,035
-370,015	212,339	-0,059	-0,067
-369,000	437,468	0,034	-0,054
-367,985	377,118	0,023	-0,034
-366,971	21,047	-0,038	0,022
-365,956	-132,089	0,078	0,007
-364,942	216,914	-0,070	-0,080
-363,927	-200,000	-0,005	0,054
-362,912	247,004	0,015	-0,018
-361,898	-171,915	0,093	0,002
-360,883	-46,770	0,028	-0,010
-359,869	-179,194	0,148	-0,002
-358,854	800,000	-0,032	0,094
-357,839	205,323	0,122	0,136
-356,825	788,795	-0,060	0,119
-355,810	163,460	0,094	0,095
-354,796	186,557	-0,166	0,178
-353,781	239,647	0,024	-0,029
-352,766	791,918	0,051	0,101
-351,752	78,605	-0,130	0,100
-350,737	-115,338	-0,065	0,009
-349,723	-200,000	0,012	0,176
-348,708	-200,000	0,010	-0,062
-347,693	-43,359	-0,045	0,016
-346,679	64,390	0,075	0,054
-345,664	16,297	-0,090	-0,051
-344,650	229,265	-0,052	-0,061
-343,635	800,000	-0,075	-0,217
-342,620	361,218	0,057	0,082
-341,606	800,000	-0,028	-0,062
-340,591	-20,864	0,038	0,017
-339,577	800,000	-0,038	-0,081
-338,562	195,826	-0,038	-0,042
-337,548	800,000	-0,031	0,093
-336,533	603,860	-0,041	-0,073
-335,518	-200,000	-0,015	0,049
-334,504	365,618	-0,056	0,081
-333,489	-127,225	0,012	-0,001
-332,475	-85,853	-0,083	-0,018
-331,460	463,263	-0,041	-0,066
-330,445	8,127	0,148	0,079
-329,431	423,167	0,056	0,086
-328,416	-200,000	0,043	0,148
-327,402	53,942	0,121	0,083
-326,387	14,533	-0,049	0,028
-325,372	-126,996	-0,038	-0,004
-324,358	-200,000	-0,016	-0,117
-323,343	4,427	-0,100	0,053
-322,329	270,915	0,034	-0,043
-321,314	-200,000	0,022	-0,085
-320,299	-200,000	-0,004	-0,030
-319,285	189,276	0,057	0,062
-318,270	253,036	-0,047	0,058
-317,256	-200,000	-0,001	-0,049
-316,241	-200,000	0,025	-0,141
-315,226	773,717	-0,079	0,156
-314,212	-200,000	-0,038	0,200
-313,197	-200,000	0,014	0,109
-312,183	-200,000	-0,027	0,114
-311,168	800,000	0,009	0,024
-310,153	110,850	-0,137	-0,118
-309,139	195,072	0,046	-0,050
-308,124	-200,000	-0,002	-0,063
-307,110	-74,599	0,111	-0,028
-306,095	-200,000	-0,002	-0,035
-305,080	800,000	-0,018	-0,046
-304,066	194,688	0,038	-0,042
-303,051	358,189	-0,052	-0,075
-302,037	-200,000	-0,021	-0,094
-301,022	10,358	0,086	-0,047
-300,008	-185,205	-0,068	0,001
-298,993	279,245	0,088	0,113
-297,978	-46,970	0,058	0,020
-296,964	-122,206	-0,124	-0,014
-295,949	243,120	-0,058	-0,070
-294,935	-200,000	-0,039	-0,138
-293,920	-47,434	-0,150	-0,052
-292,905	181,729	0,063	0,066
-291,891	800,000	-0,020	0,048
-290,876	-200,000	0,024	0,076
-289,862	54,717	-0,105	-0,072
-288,847	-108,438	-0,182	0,028
-287,832	230,087	0,076	-0,089
-286,818	800,000	0,034	-0,108
-285,803	503,161	-0,017	0,029
-284,789	-46,162	0,118	-0,041
-283,774	416,747	0,066	0,101
-282,759	-117,616	0,055	0,007
-281,745	800,000	-0,028	-0,061
-280,730	399,499	-0,075	-0,113
-279,716	-200,000	-0,031	0,098
-278,701	20,697	0,075	0,043
-277,686	-69,469	-0,086	0,023
-276,672	90,612	0,043	-0,034
-275,657	800,000	0,005	-0,013
-274,643	800,000	0,010	-0,024
-273,628	0,354	0,073	-0,037
-272,613	-149,461	0,090	0,005
-271,599	18,837	0,045	0,026
-270,584	-180,708	-0,058	0,001
-269,570	787,814	0,036	0,071
-268,555	-113,387	0,055	-0,008
-267,540	-150,984	0,206	-0,011
-266,526	117,061	-0,096	0,084
-265,511	-97,782	0,094	0,017
-264,497	-50,830	0,111	-0,037
-263,482	-64,637	0,046	-0,013
-262,467	-200,000	0,009	-0,044
-261,453	3,065	0,096	-0,050
-260,438	270,287	0,058	-0,074
-259,424	329,386	-0,026	0,036
-258,409	391,745	-0,127	-0,189
-257,395	-200,000	0,035	-0,128
-256,380	-41,469	0,065	-0,024
-255,365	-15,048	0,045	-0,021
-254,351	800,000	-0,014	-0,030
-253,336	51,552	-0,031	0,021
-252,322	-114,974	-0,075	0,010
-251,307	70,614	-0,015	0,011
-250,292	-100,395	-0,139	0,024
-249,278	306,390	0,131	0,175
-248,263	-36,492	0,028	0,011
-247,249	-151,285	-0,188	-0,010
-246,234	-200,000	-0,026	-0,093
-245,219	-8,717	-0,026	-0,013
-244,205	166,158	-0,077	0,078
-243,190	145,775	0,026	0,025
-242,176	141,233	0,082	0,078
-241,161	749,179	0,049	0,095
-240,146	-110,717	0,151	0,022
-239,132	800,000	0,028	0,060
-238,117	42,971	-0,159	-0,104
-237,103	-200,000	-0,021	-0,134
-236,088	-52,806	-0,069	0,023
-235,073	800,000	0,058	0,169
-234,059	154,178	0,158	0,155
-233,044	155,813	0,044	0,043
-232,030	800,000	0,013	0,031
-231,015	90,230	0,106	0,084
-230,000	9,734	-0,063	0,034
-228,986	-200,000	0,027	0,090
-227,971	279,834	-0,020	-0,026
-226,957	-153,451	0,088	0,004
-225,942	577,518	0,045	0,079
-224,927	208,498	0,055	0,061
-223,913	475,419	-0,086	0,139
-222,898	800,000	0,014	-0,041
-221,884	136,132	0,063	-0,059
-220,869	187,604	-0,105	-0,112
-219,855	-200,000	0,004	0,036
-218,840	800,000	-0,079	0,208
-217,825	-200,000	0,005	0,104
-216,811	72,664	-0,147	-0,109
-215,796	497,968	-0,026	-0,042
-214,782	-40,288	-0,119	-0,044
-213,767	302,301	-0,071	-0,094
-212,752	800,000	0,067	0,140
-211,738	733,334	0,037	0,071
-210,723	-200,000	0,036	0,189
-209,709	-200,000	0,004	-0,024
-208,694	-124,939	-0,141	-0,015
-207,679	-44,508	-0,059	0,021
-206,665	359,812	0,069	-0,098
-205,650	-12,278	0,009	-0,004
-204,636	183,681	0,096	-0,102
-203,621	-78,208	-0,025	-0,006
-202,606	-142,075	-0,032	0,002
-201,592	-69,164	0,089	0,024
-200,577	-65,714	-0,064	-0,018
-199,563	800,000	0,043	0,119
-198,548	120,058	-0,079	0,070
-197,533	-200,000	0,019	-0,066
-196,519	208,583	0,067	0,075
-195,504	439,452	0,030	-0,046
-194,490	-200,000	0,001	0,122
-193,475	-16,877	0,032	0,014
-192,460	800,000	0,011	0,024
-191,446	-200,000	-0,003	0,032
-190,431	-94,596	0,208	-0,040
-189,417	156,323	-0,027	0,026
-188,402	23,076	0,104	0,060
-187,387	241,614	-0,034	-0,041
-186,373	-119,468	0,083	-0,010
-185,358	-71,297	-0,021	-0,006
-184,344	90,765	0,058	-0,047
-183,329	-112,534	-0,057	-0,008
-182,315	-200,000	0,010	0,062
-181,300	86,907	0,052	0,041
-180,285	800,000	0,045	0,134
-179,271	-200,000	-0,022	-0,149
-178,256	-133,092	-0,041	-0,004
-177,242	-55,959	0,147	-0,047
-176,227	158,316	0,070	-0,069
-175,212	-200,000	-0,004	-0,015
-174,198	800,000	-0,018	0,048
-173,183	800,000	-0,049	-0,103
-172,169	800,000	-0,069	-0,172
-171,154	-147,586	-0,073	0,004
-170,139	-33,486	0,089	-0,035
-169,125	800,000	0,008	0,018
-168,110	746,014	0,084	0,162
-167,096	359,445	-0,083	0,119
-166,081	-52,995	0,036	-0,012
-165,066	-70,422	-0,069	0,018
-164,052	609,799	0,054	0,096
-163,037	-87,405	0,104	0,022
-162,023	-2,872	-0,091	0,045
-161,008	-42,198	-0,109	0,039
-159,993	-125,832	-0,016	0,002
-158,979	-105,643	-0,100	-0,016
-157,964	-200,000	-0,003	-0,068
-156,950	-111,673	-0,014	-0,002
-155,935	163,353	0,113	-0,113
-154,920	55,126	0,092	0,063
-153,906	16,842	0,039	-0,022
-152,891	-152,210	0,065	0,003
-151,877	-200,000	-0,015	0,093
-150,862	-154,922	0,097	-0,004
-149,847	-46,527	-0,047	-0,016
-148,833	-137,590	0,091	-0,007
-147,818	800,000	-0,033	0,072
-146,804	134,146	0,093	0,085
-145,789	800,000	0,020	0,045
-144,775	-95,261	0,050	0,010
-143,760	-200,000	-0,001	-0,084
-142,745	25,847	-0,074	-0,044
-141,731	800,000	0,038	-0,075
-140,716	-52,438	0,059	0,019
-139,702	155,309	-0,049	-0,049
-138,687	-64,266	-0,144	0,042
-137,672	-200,000	0,000	-0,058
-136,658	-200,000	0,008	-0,105
-135,643	222,750	-0,038	-0,043
-134,629	800,000	0,054	-0,124
-133,614	-25,448	-0,105	0,044
-132,599	282,229	-0,115	0,147
-131,585	-200,000	0,033	-0,122
-130,570	135,879	0,113	0,105
-129,556	-200,000	0,002	-0,055
-128,541	-34,232	0,062	0,024
-127,526	-200,000	-0,013	-0,090
-126,512	-5,049	0,115	0,056
-125,497	719,944	0,038	-0,073
-124,483	-200,000	0,011	-0,034
-123,468	800,000	-0,003	0,008
-122,453	-49,332	-0,105	0,036
-121,439	31,877	-0,028	0,017
-120,424	-106,843	-0,142	-0,022
-119,410	-200,000	0,029	-0,110
-118,395	287,727	-0,040	0,052
-117,380	214,854	-0,119	0,135
-116,366	-200,000	0,031	-0,138
-115,351	563,336	0,049	-0,084
-114,337	-200,000	-0,010	-0,073
-113,322	-167,588	-0,040	-0,001
-112,307	-54,200	-0,054	-0,017
-111,293	3,937	0,121	0,063
-110,278	-52,684	0,048	-0,016
-109,264	-200,000	-0,011	0,055
-108,249	34,930	-0,054	0,033
-107,234	177,659	-0,130	-0,135
-106,220	800,000	0,040	0,079
-105,205	99,825	-0,103	0,085
-104,191	-200,000	0,002	0,053
-103,176	-200,000	0,042	0,146
-102,162	800,000	-0,085	0,176
-101,147	441,308	0,078	0,121
-100,132	14,431	0,064	-0,035
-99,118	118,615	-0,100	-0,087
-98,103	800,000	-0,061	0,141
-97,089	-30,030	0,141	-0,057
-96,074	578,819	-0,023	0,040
-95,059	-200,000	0,019	0,061
-94,045	800,000	0,022	-0,061
-93,030	800,000	0,014	-0,030
-92,016	25,298	-0,105	-0,062
-91,001	800,000	-0,017	-0,037
-89,986	800,000	0,037	0,090
-88,972	-63,494	0,041	-0,012
-87,957	203,687	0,027	0,029
-86,943	-200,000	0,003	0,102
-85,928	17,231	-0,115	0,064
-84,913	-200,000	0,033	0,145
-83,899	-108,996	0,077	0,012
-82,884	-27,139	-0,122	0,050
-81,870	800,000	0,042	0,090
-80,855	800,000	0,046	-0,137
-79,840	-200,000	0,036	-0,200
-78,826	-152,337	-0,010	0,001
-77,811	-200,000	-0,072	-0,238
-76,797	292,960	-0,099	-0,128
-75,782	800,000	0,017	-0,039
-74,767	-35,605	0,113	0,044
-73,753	473,108	0,036	-0,057
-72,738	525,957	-0,044	-0,075
-71,724	204,441	-0,133	0,147
-70,709	89,421	0,054	0,043
-69,694	-67,988	0,172	0,047
-68,680	-152,668	0,021	0,001
-67,665	-200,000	0,010	-0,102
-66,651	-67,135	0,081	-0,023
-65,636	349,530	0,040	0,057
-64,622	-31,738	-0,165	0,066
-63,607	-130,885	-0,057	0,005
-62,592	14,534	0,073	0,040
-61,578	170,937	0,048	0,048
-60,563	78,400	0,073	0,055
-59,549	800,000	0,045	0,115
-58,534	-104,978	-1,419	-0,229
-57,519	377,820	-1,576	-2,294
-56,505	-200,000	-0,410	-4,501
-55,490	125,464	0,735	0,658
-54,476	800,000	4,766	11,376
-53,461	-200,000	17,304	271,976
-52,446	800,000	716,292	2188,794
-51,432	553,636	1630,350	2792,050
-50,417	81,429	1655,670	1268,808
-49,403	24,352	1530,248	895,084
-48,388	18,308	1453,622	821,153
-47,373	18,566	1443,004	816,357
-46,359	18,246	1433,882	809,643
-45,344	16,685	1429,095	799,499
-44,330	16,632	1427,285	798,204
-43,315	16,661	1425,359	797,231
-42,300	16,624	1423,866	796,187
-41,286	16,697	1422,555	795,768
-40,271	16,673	1421,221	794,877
-39,257	16,640	1419,921	793,964
-38,242	16,665	1418,800	793,424
-37,227	16,679	1417,556	792,762
-36,213	16,672	1416,186	791,932
-35,198	16,628	1415,025	791,044
-34,184	16,634	1414,132	790,543
-33,169	16,574	1412,882	789,531
-32,154	16,652	1411,883	789,306
-31,140	16,663	1410,565	788,587
-30,125	16,706	1409,337	788,075
-29,111	16,655	1408,312	787,229
-28,096	16,615	1407,233	786,410
-27,082	16,581	1405,992	785,525
-26,067	16,559	1404,996	784,833
-25,052	16,595	1403,897	784,357
-24,038	16,569	1402,858	783,624
-23,023	16,563	1401,753	782,946
-22,009	16,537	1400,910	782,325
-20,994	16,494	1400,153	781,672
-19,979	16,482	1399,160	781,031
-18,965	16,515	1398,157	780,594
-17,950	16,477	1397,328	779,921
-16,936	16,510	1396,254	779,443
-15,921	16,497	1394,947	778,626
-14,906	16,467	1393,989	777,921
-13,892	16,515	1393,241	777,695
-12,877	16,514	1392,224	777,091
-11,863	16,483	1391,311	776,409
-10,848	16,507	1390,528	776,049
-9,833	16,490	1389,384	775,305
-8,819	16,415	1388,392	774,374
-7,804	16,351	1387,711	773,668
-6,790	16,454	1386,387	773,373
-5,775	16,374	1385,549	772,506
-4,760	16,370	1384,735	772,004
-3,746	16,362	1383,978	771,512
-2,731	16,344	1383,233	770,986
-1,717	16,369	1382,113	770,445
-0,702	16,320	1380,509	769,294
0,313	20,159	1301,901	743,173
1,327	36,602	707,555	442,048
2,342	56,221	125,783	86,493
3,356	2,659	16,714	8,562
4,371	4,029	3,071	1,587
5,386	-41,419	0,508	0,184
6,400	337,153	0,079	0,110
7,415	-34,807	-0,208	-0,080
8,429	15,828	-0,220	-0,122
9,444	-103,938	-0,349	-0,057
10,459	40,333	-0,354	-0,225
11,473	57,782	-0,344	-0,238
12,488	124,779	-0,183	-0,163
13,502	78,821	-0,326	-0,247
14,517	32,523	-0,375	-0,229
15,531	95,049	-0,240	-0,193
16,546	-0,715	-0,389	-0,194
17,561	-50,108	-0,307	-0,102
18,575	-30,367	-0,213	-0,085
19,590	95,432	-0,232	-0,187
20,604	-64,802	-0,249	-0,071
21,619	50,383	-0,467	-0,312
22,634	66,771	-0,464	-0,334
23,648	193,885	-0,451	-0,484
24,663	1,743	-0,560	-0,284
25,677	51,602	-0,347	-0,233
26,692	126,134	-0,229	-0,205
27,707	-122,957	-0,418	-0,047
28,721	-41,493	-0,338	-0,122
29,736	90,812	-0,438	-0,347
30,750	138,240	-0,398	-0,370
31,765	125,880	-0,364	-0,326
32,780	108,864	-0,395	-0,334
33,794	51,463	-0,226	-0,152
34,809	-59,050	-0,444	-0,135
35,823	147,463	-0,361	-0,344
36,838	105,875	-0,387	-0,324
37,853	53,152	-0,388	-0,262
38,867	106,428	-0,345	-0,289
39,882	90,371	-0,317	-0,251
40,896	31,715	-0,319	-0,194
41,911	86,852	-0,369	-0,287
42,926	-22,421	-0,469	-0,200
43,940	-17,429	-0,406	-0,180
44,955	17,018	-0,370	-0,206
45,969	-43,612	-0,439	-0,156
46,984	19,411	-0,360	-0,204
47,999	-37,365	-0,341	-0,128
49,013	156,860	-0,314	-0,307
50,028	364,411	-0,215	-0,307
51,042	120,368	-0,398	-0,349
52,057	159,116	-0,343	-0,337
53,071	-2,878	-0,421	-0,207
54,086	-22,281	-0,413	-0,176
55,101	135,352	-0,248	-0,228
56,115	-13,337	-0,427	-0,195
57,130	59,927	-0,363	-0,252
58,144	74,256	-0,462	-0,342
59,159	250,610	-0,340	-0,408
60,174	8,563	-0,500	-0,265
61,188	-5,254	-0,243	-0,117
62,203	276,559	-0,253	-0,317
63,217	207,695	-0,326	-0,359
64,232	28,430	-0,392	-0,233
65,247	21,843	-0,471	-0,270
66,261	108,755	-0,435	-0,367
67,276	149,862	-0,264	-0,253
68,290	-17,996	-0,466	-0,205
69,305	115,958	-0,347	-0,299
70,320	126,203	-0,216	-0,192
71,334	16,992	-0,315	-0,176
72,349	545,432	-0,180	-0,305
73,363	48,457	-0,379	-0,250
74,378	-10,433	-0,389	-0,181
75,393	101,034	-0,229	-0,188
76,407	128,355	-0,282	-0,253
77,422	-1,276	-0,171	-0,085
78,436	57,308	-0,330	-0,226
79,451	95,230	-0,261	-0,209
80,466	-67,571	-0,265	-0,073
81,480	70,013	-0,318	-0,231
82,495	64,994	-0,444	-0,316
83,509	4,667	-0,318	-0,164
84,524	-97,213	-0,222	-0,040
85,539	-54,038	-0,354	-0,113
86,553	-20,826	-0,390	-0,168
87,568	268,582	-0,218	-0,269
88,582	75,988	-0,317	-0,236
89,597	314,848	-0,228	-0,303
90,611	28,359	-0,345	-0,205
91,626	-11,240	-0,340	-0,157
92,641	-125,423	-0,322	-0,034
93,655	-23,585	-0,283	-0,119
94,670	-3,337	-0,278	-0,136
95,684	82,787	-0,339	-0,259
96,699	105,003	-0,238	-0,197
97,714	61,570	-0,243	-0,170
98,728	-99,497	-0,399	-0,070
99,743	34,451	-0,320	-0,196
100,757	-168,828	-0,244	0,006
101,772	161,449	-0,185	-0,182
102,787	-11,637	-0,257	-0,118
103,801	4,555	-0,329	-0,169
104,816	-147,112	-0,309	-0,018
105,830	800,000	-0,104	-0,243
106,845	223,821	-0,209	-0,237
107,860	800,000	-0,157	-0,331
108,874	113,587	-0,270	-0,230
109,889	101,669	-0,284	-0,232
110,903	6,514	-0,269	-0,140
111,918	117,600	-0,257	-0,222
112,933	-7,893	-0,278	-0,131
113,947	-34,893	-0,258	-0,098
114,962	215,774	-0,207	-0,231
115,976	-61,393	-0,243	-0,071
116,991	81,387	-0,308	-0,234
118,006	-10,580	-0,349	-0,162
119,020	62,826	-0,245	-0,172
120,035	186,904	-0,160	-0,167
121,049	7,512	-0,318	-0,166
122,064	-7,583	-0,174	-0,082
123,079	130,794	-0,153	-0,138
124,093	-32,189	-0,313	-0,122
125,108	93,302	-0,336	-0,267
126,122	-51,555	-0,344	-0,112
127,137	144,679	-0,168	-0,158
128,151	-17,483	-0,243	-0,107
129,166	30,573	-0,141	-0,084
130,181	800,000	-0,130	-0,283
131,195	50,734	-0,338	-0,224
132,210	60,062	-0,237	-0,164
133,224	187,888	-0,165	-0,173
134,239	87,988	-0,175	-0,136
135,254	11,039	-0,213	-0,114
136,268	104,870	-0,188	-0,155
137,283	351,930	-0,150	-0,208
138,297	160,201	-0,254	-0,249
139,312	230,123	-0,258	-0,296
140,327	-55,364	-0,353	-0,110
141,341	-51,368	-0,181	-0,059
142,356	46,936	-0,228	-0,148
143,370	-10,440	-0,214	-0,099
144,385	158,875	-0,230	-0,224
145,400	193,597	-0,254	-0,269
146,414	224,068	-0,235	-0,267
147,429	135,513	-0,289	-0,264
148,443	39,238	-0,235	-0,147
149,458	105,294	-0,164	-0,135
150,473	77,914	-0,181	-0,135
151,487	115,984	-0,225	-0,193
152,502	115,604	-0,276	-0,236
153,516	231,227	-0,261	-0,299
154,531	78,830	-0,172	-0,129
155,546	-15,076	-0,184	-0,082
156,560	246,353	-0,236	-0,279
157,575	172,215	-0,179	-0,181
158,589	83,960	-0,278	-0,212
159,604	-32,846	-0,269	-0,104
160,619	163,514	-0,208	-0,205
161,633	124,688	-0,194	-0,171
162,648	143,598	-0,233	-0,217
163,662	-23,131	-0,251	-0,105
164,677	9,258	-0,174	-0,092
165,692	81,374	-0,317	-0,239
166,706	199,293	-0,274	-0,294
167,721	99,121	-0,316	-0,255
168,735	193,857	-0,225	-0,238
169,750	210,228	-0,213	-0,234
170,764	3,888	-0,169	-0,086
171,779	26,741	-0,230	-0,134
172,794	18,079	-0,330	-0,183
173,808	568,590	-0,076	-0,129
174,823	29,103	-0,256	-0,151
175,837	97,892	-0,181	-0,145
176,852	181,049	-0,229	-0,235
177,867	43,454	-0,265	-0,169
178,881	800,000	-0,091	-0,188
179,896	-90,875	-0,161	0,032
180,910	-15,364	-0,222	-0,099
181,925	-5,811	-0,231	-0,110
182,940	188,126	-0,165	-0,172
183,954	430,682	-0,166	-0,251
184,969	161,109	-0,165	-0,161
185,983	16,462	-0,190	-0,104
186,998	-117,288	-0,351	-0,044
188,013	-200,000	-0,050	-0,223
189,027	160,109	-0,246	-0,239
190,042	158,206	-0,246	-0,238
191,056	53,593	-0,151	-0,101
192,071	12,518	-0,185	-0,099
193,086	125,949	-0,188	-0,166
194,100	-54,159	-0,176	-0,056
195,115	67,337	-0,207	-0,147
196,129	8,950	-0,321	-0,169
197,144	-70,273	-0,191	-0,050
198,159	179,917	-0,174	-0,178
199,173	446,268	-0,071	-0,109
200,188	2,128	-0,106	-0,053
201,202	-43,696	-0,234	-0,082
202,217	70,163	-0,273	-0,196
203,232	521,942	-0,099	-0,162
204,246	236,970	-0,131	-0,151
205,261	56,453	-0,110	-0,074
206,275	66,491	-0,213	-0,150
207,290	114,207	-0,103	-0,087
208,304	-130,350	-0,210	-0,020
209,319	-10,538	-0,182	-0,083
210,334	52,756	-0,211	-0,140
211,348	-92,134	-0,236	-0,046
212,363	-7,039	-0,195	-0,092
213,377	12,249	-0,223	-0,119
214,392	34,842	-0,181	-0,110
215,407	-110,169	-0,126	-0,018
216,421	403,151	-0,160	-0,235
217,436	800,000	-0,105	-0,269
218,450	-95,707	-0,179	0,033
219,465	38,419	-0,241	-0,149
220,480	288,755	-0,181	-0,229
221,494	800,000	-0,047	-0,101
222,509	105,988	-0,158	-0,130
223,523	103,360	-0,155	-0,126
224,538	800,000	-0,132	-0,359
225,553	-18,469	-0,223	-0,096
226,567	364,733	-0,157	-0,220
227,582	238,383	-0,198	-0,229
228,596	96,172	-0,021	-0,017
229,611	614,238	-0,116	-0,203
230,626	519,761	-0,148	-0,241
231,640	-6,659	-0,068	-0,032
232,655	197,546	-0,174	-0,185
233,669	250,859	-0,114	-0,135
234,684	335,086	-0,147	-0,199
235,699	8,144	-0,174	-0,091
236,713	-134,298	-0,226	-0,019
237,728	10,944	-0,061	0,032
238,742	360,950	-0,048	0,067
239,757	-15,697	-0,275	-0,121
240,772	79,622	-0,252	-0,187
241,786	7,701	-0,119	-0,061
242,801	254,460	-0,122	-0,145
243,815	-70,276	-0,159	0,042
244,830	27,599	-0,098	-0,057
245,844	800,000	-0,103	-0,199
246,859	224,620	-0,148	-0,167
247,874	48,187	-0,206	-0,133
248,888	800,000	-0,116	-0,258
249,903	41,707	-0,233	-0,146
250,917	-4,540	-0,104	-0,050
251,932	34,485	-0,132	-0,080
252,947	59,318	-0,166	-0,113
253,961	560,784	-0,122	-0,205
254,976	587,441	-0,105	-0,181
255,990	703,793	-0,079	-0,144
257,005	110,917	-0,145	-0,121
258,020	800,000	-0,040	-0,097
259,034	800,000	-0,090	-0,188
260,049	177,141	-0,231	-0,233
261,063	-21,287	-0,217	-0,092
262,078	-187,845	-0,186	-0,002
263,093	-3,783	-0,192	-0,092
264,107	767,115	-0,100	-0,190
265,122	151,698	-0,198	-0,187
266,136	697,668	-0,126	-0,230
267,151	-64,805	-0,134	-0,037
268,166	-88,721	-0,244	0,050
269,180	-62,554	-0,350	-0,100
270,195	-34,742	-0,200	-0,075
271,209	-63,872	-0,194	-0,055
272,224	-29,539	-0,275	-0,108
273,239	555,572	-0,064	-0,107
274,253	447,267	-0,018	0,027
275,268	-34,380	-0,234	-0,088
276,282	-200,000	-0,054	-0,236
277,297	54,553	-0,156	-0,104
278,312	54,281	-0,243	-0,162
279,326	99,160	-0,084	-0,067
280,341	-50,044	-0,097	-0,032
281,355	-171,228	-0,145	0,003
282,370	23,365	-0,158	-0,090
283,384	9,748	-0,280	-0,146
284,399	-200,000	-0,041	-0,282
285,414	9,371	-0,140	-0,073
286,428	26,157	-0,185	-0,106
287,443	158,875	-0,120	-0,115
288,457	-145,090	-0,094	0,006
289,472	504,855	-0,100	-0,161
290,487	254,299	-0,067	-0,080
291,501	-66,890	-0,229	-0,062
292,516	800,000	-0,071	-0,211
293,530	491,009	-0,156	-0,247
294,545	61,480	-0,178	-0,122
295,560	-115,114	-0,277	-0,036
296,574	156,057	-0,189	-0,180
297,589	531,589	-0,134	-0,220
298,603	130,467	-0,205	-0,181
299,618	-200,000	-0,016	-0,086
300,633	185,206	-0,191	-0,196
301,647	14,502	-0,127	-0,068
302,662	-6,705	-0,073	-0,034
303,676	277,354	-0,133	-0,164
304,691	-200,000	-0,021	-0,073
305,706	320,128	-0,104	-0,136
306,720	4,105	-0,196	-0,099
307,735	-64,448	-0,100	-0,028
308,749	-78,740	-0,133	0,031
309,764	-97,025	-0,149	-0,027
310,779	720,555	-0,116	-0,215
311,793	112,480	-0,094	-0,078
312,808	-9,506	-0,203	-0,093
313,822	800,000	-0,126	-0,288
314,837	160,834	-0,114	-0,110
315,852	596,656	-0,032	0,055
316,866	-57,024	-0,178	-0,054
317,881	7,794	-0,124	-0,064
318,895	403,200	-0,105	-0,152
319,910	-45,611	-0,145	-0,049
320,925	-200,000	-0,081	-0,282
321,939	-200,000	-0,023	-0,073
322,954	265,547	-0,107	-0,129
323,968	-47,110	-0,132	0,044
324,983	390,647	-0,181	-0,260
325,997	211,261	-0,121	-0,132
327,012	-31,316	-0,228	-0,088
328,027	429,193	-0,068	-0,102
329,041	-65,412	-0,170	-0,047
330,056	-100,667	-0,133	-0,022
331,070	-89,122	-0,051	0,010
332,085	-168,672	-0,104	0,003
333,100	41,413	-0,146	-0,091
334,114	307,889	-0,110	-0,142
335,129	182,639	-0,210	-0,213
336,143	40,384	-0,293	-0,181
337,158	-77,534	-0,098	-0,023
338,173	-200,000	0,010	0,093
339,187	-200,000	0,009	-0,067
340,202	-200,000	0,002	-0,170
341,216	12,413	-0,103	-0,054
342,231	22,421	-0,111	-0,063
343,246	208,360	-0,237	-0,255
344,260	300,744	-0,102	-0,129
345,275	-200,000	-0,058	-0,200
346,289	-38,595	-0,126	0,046
347,304	90,891	-0,269	-0,207
348,319	738,945	-0,074	-0,137
349,333	-12,231	-0,137	-0,062
350,348	-84,882	-0,145	-0,031
351,362	30,029	-0,085	-0,050
352,377	522,223	-0,053	-0,086
353,392	329,974	-0,117	-0,155
354,406	10,014	-0,147	-0,076
355,421	210,655	1313,720	1420,635
356,435	162,178	1474,362	1421,168
