DTS Sentinel unit serial number:	SN410029Multiplexer serial number:	ORYXHardware model number:	OX2-SRSoftware version number:	ORYX F/W v4,00 Oryx Data Collector v3.7.2.0data status	okinstallation	B3 Nyhavnadifferential loss correction	single-endedforward channel	channel 1reverse channel	N/Adate	2023/12/02time	19:17:30forward acquisition time	300,00reverse acquisition time	0,00gamma	499,1914k internal	0,3200k external	0,3200temperature offset calibration	1,0000default loss term (dB/km)	0,3820temperature slope calibration	1,0000multiplexer offset coefficient	1,0000multiplexer slope coefficient	1,0000fibre end	0,00T internal ref (°C)	13,41T ext. ref 1 (°C)	-1,81T ext. ref 2 (°C)	-1,81length (m)	temperature (°C)	Stokes	anti-Stokes-744,400	800,000	-0,089	-0,239
-743,385	-200,000	0,014	0,363
-742,371	95,581	-0,226	-0,188
-741,356	-200,000	-0,029	0,371
-740,342	143,107	-0,113	-0,110
-739,327	-200,000	-0,117	0,399
-738,312	88,605	-0,217	-0,175
-737,298	-200,000	-0,005	0,118
-736,283	800,000	-0,164	-0,386
-735,269	-200,000	0,068	0,363
-734,254	-34,813	-0,149	-0,059
-733,239	-11,735	-0,200	0,095
-732,225	800,000	-0,110	-0,239
-731,210	-200,000	-0,030	0,253
-730,196	268,922	-0,007	-0,009
-729,181	35,512	-0,055	-0,035
-728,167	313,571	0,045	-0,062
-727,152	-200,000	-0,036	0,153
-726,137	-151,665	-0,155	0,008
-725,123	800,000	-0,022	-0,054
-724,108	351,154	-0,087	-0,125
-723,094	714,800	0,043	-0,084
-722,079	185,708	-0,067	-0,073
-721,064	-100,654	-0,076	-0,013
-720,050	-200,000	-0,014	-0,052
-719,035	-179,859	-0,110	-0,002
-718,021	247,017	-0,108	-0,133
-717,006	-200,000	-0,027	-0,164
-715,991	-71,291	-0,086	-0,023
-714,977	-35,376	-0,086	-0,034
-713,962	800,000	-0,023	0,061
-712,948	39,681	-0,028	-0,018
-711,933	-200,000	0,041	0,133
-710,918	-200,000	-0,007	0,081
-709,904	505,703	0,011	-0,019
-708,889	-158,495	-0,054	0,002
-707,875	124,032	-0,141	-0,128
-706,860	-168,610	-0,090	-0,002
-705,845	346,873	0,030	-0,043
-704,831	118,111	-0,073	-0,065
-703,816	800,000	0,052	0,115
-702,802	-88,323	-0,121	-0,026
-701,787	-200,000	0,006	0,034
-700,772	-200,000	-0,012	0,149
-699,758	-200,000	0,010	0,044
-698,743	-158,215	0,100	0,004
-697,729	15,444	0,033	-0,019
-696,714	417,271	-0,061	0,094
-695,699	252,302	-0,082	0,102
-694,685	176,108	0,026	-0,028
-693,670	-24,990	-0,098	-0,042
-692,656	-11,555	-0,068	-0,032
-691,641	-200,000	0,027	0,100
-690,627	-132,236	0,084	-0,008
-689,612	-200,000	-0,032	0,116
-688,597	-55,897	-0,072	-0,023
-687,583	48,528	-0,048	-0,032
-686,568	112,061	-0,023	0,020
-685,554	-5,892	0,178	-0,088
-684,539	-129,613	0,148	0,015
-683,524	254,154	-0,061	-0,076
-682,510	193,979	-0,023	0,025
-681,495	138,468	-0,092	0,088
-680,481	-41,380	-0,062	-0,023
-679,466	311,337	0,034	-0,046
-678,451	122,461	0,070	-0,064
-677,437	216,146	-0,109	0,125
-676,422	477,628	-0,045	-0,074
-675,408	-200,000	-0,013	-0,136
-674,393	-75,270	0,165	-0,043
-673,378	-52,520	-0,101	-0,034
-672,364	-200,000	-0,021	-0,185
-671,349	-45,992	-0,188	-0,067
-670,335	-200,000	-0,003	0,110
-669,320	-28,171	0,068	-0,028
-668,305	282,700	0,051	0,066
-667,291	-200,000	-0,009	0,110
-666,276	-97,998	0,118	0,022
-665,262	-124,930	-0,144	0,016
-664,247	800,000	0,011	0,025
-663,232	185,998	0,089	0,096
-662,218	-69,659	-0,065	-0,018
-661,203	-103,077	0,125	0,021
-660,189	258,991	-0,098	-0,123
-659,174	-200,000	-0,009	-0,158
-658,159	-89,474	-0,138	-0,029
-657,145	48,002	-0,114	0,077
-656,130	133,484	0,110	0,104
-655,116	0,537	0,049	0,025
-654,101	800,000	0,037	-0,098
-653,086	415,231	0,104	-0,161
-652,072	535,851	-0,077	0,134
-651,057	-100,964	-0,195	0,034
-650,043	409,420	0,011	0,016
-649,028	241,119	-0,039	0,047
-648,014	-116,390	-0,138	0,018
-646,999	800,000	-0,034	0,109
-645,984	-132,564	0,074	-0,007
-644,970	-52,025	-0,027	0,009
-643,955	73,613	-0,019	0,014
-642,941	-200,000	-0,006	-0,051
-641,926	-121,966	0,038	0,004
-640,911	276,677	-0,077	0,099
-639,897	-74,008	0,067	0,017
-638,882	-124,971	0,190	0,021
-637,868	34,683	-0,097	0,062
-636,853	800,000	-0,040	0,111
-635,838	-82,150	-0,254	-0,059
-634,824	-94,564	0,205	-0,040
-633,809	65,194	-0,016	0,012
-632,795	380,822	-0,054	0,081
-631,780	-200,000	0,031	0,185
-630,765	-40,066	0,075	-0,028
-629,751	-200,000	0,051	-0,173
-628,736	177,441	-0,046	0,048
-627,722	-200,000	-0,003	0,100
-626,707	178,595	-0,047	0,050
-625,692	-200,000	0,014	0,048
-624,678	-200,000	0,013	0,046
-623,663	800,000	0,050	0,138
-622,649	455,624	-0,030	0,049
-621,634	464,653	-0,019	-0,030
-620,619	252,815	-0,045	-0,055
-619,605	-149,196	0,054	-0,003
-618,590	-85,529	0,074	0,016
-617,576	156,794	0,055	0,055
-616,561	-86,963	0,106	0,023
-615,546	50,207	-0,119	-0,081
-614,532	-200,000	-0,006	-0,098
-613,517	-200,000	-0,029	-0,137
-612,503	658,612	0,040	-0,075
-611,488	-200,000	-0,002	0,096
-610,474	-200,000	-0,004	0,045
-609,459	348,707	-0,036	-0,052
-608,444	-62,409	-0,115	-0,034
-607,430	-0,757	-0,063	-0,032
-606,415	52,613	0,093	0,064
-605,401	800,000	-0,079	-0,186
-604,386	142,658	0,025	-0,024
-603,371	90,169	0,115	0,093
-602,357	-200,000	0,020	0,081
-601,342	-47,316	-0,103	0,036
-600,328	-148,044	-0,124	0,007
-599,313	461,534	0,008	-0,013
-598,298	19,702	-0,056	-0,033
-597,284	457,913	-0,040	0,065
-596,269	-200,000	0,013	0,051
-595,255	-104,803	0,068	-0,011
-594,240	-27,026	-0,176	0,074
-593,225	-79,701	-0,155	-0,038
-592,211	-47,922	0,063	-0,022
-591,196	143,886	-0,081	-0,078
-590,182	-200,000	-0,028	-0,117
-589,167	23,419	0,073	-0,043
-588,152	510,950	-0,054	0,091
-587,138	179,814	-0,122	0,130
-586,123	269,942	0,106	-0,135
-585,109	-200,000	-0,006	-0,026
-584,094	-104,678	0,054	0,009
-583,079	519,155	0,033	0,056
-582,065	-200,000	0,001	-0,124
-581,050	175,535	-0,054	0,056
-580,036	139,180	0,045	0,043
-579,021	-73,522	-0,112	0,029
-578,006	191,691	-0,067	-0,074
-576,992	-200,000	-0,000	0,068
-575,977	81,200	-0,188	0,146
-574,963	-64,646	0,091	0,027
-573,948	800,000	-0,042	0,113
-572,934	800,000	0,041	-0,096
-571,919	-200,000	-0,019	-0,106
-570,904	-39,311	-0,082	-0,031
-569,890	800,000	-0,054	0,141
-568,875	-32,374	0,151	-0,061
-567,861	-77,844	-0,107	-0,026
-566,846	-28,427	0,087	-0,036
-565,831	-40,274	-0,032	0,012
-564,817	-200,000	0,003	-0,059
-563,802	-200,000	-0,013	0,046
-562,788	723,791	0,022	0,042
-561,773	-89,399	-0,057	0,012
-560,758	-197,060	0,085	-0,000
-559,744	66,850	0,094	0,069
-558,729	37,367	-0,136	0,087
-557,715	259,096	0,051	-0,063
-556,700	636,576	-0,039	-0,072
-555,685	321,817	0,039	-0,054
-554,671	800,000	-0,078	0,176
-553,656	-187,790	0,157	-0,001
-552,642	-9,223	-0,085	0,041
-551,627	97,763	-0,076	0,063
-550,612	0,020	0,068	-0,035
-549,598	281,427	-0,128	-0,166
-548,583	-100,981	-0,090	-0,016
-547,569	-200,000	0,013	-0,056
-546,554	-181,944	0,085	-0,001
-545,539	800,000	0,032	0,071
-544,525	341,704	0,062	0,087
-543,510	78,997	-0,046	0,036
-542,496	-200,000	0,026	-0,099
-541,481	-163,284	-0,122	-0,004
-540,466	800,000	-0,006	0,020
-539,452	770,359	0,073	-0,144
-538,437	-200,000	-0,009	0,076
-537,423	800,000	-0,043	0,117
-536,408	800,000	0,018	0,054
-535,393	-116,672	-0,053	0,007
-534,379	335,012	-0,060	-0,083
-533,364	31,808	0,139	-0,086
-532,350	-161,404	0,040	0,001
-531,335	225,182	0,052	-0,060
-530,321	800,000	-0,031	0,068
-529,306	-200,000	0,034	-0,110
-528,291	-124,963	-0,159	0,017
-527,277	-90,199	0,074	-0,015
-526,262	-200,000	0,007	-0,124
-525,248	-200,000	0,003	0,058
-524,233	-200,000	0,017	0,089
-523,218	336,718	0,043	0,061
-522,204	-68,967	-0,053	0,015
-521,189	800,000	0,039	-0,096
-520,175	562,822	0,057	-0,100
-519,160	184,692	0,056	0,060
-518,145	-129,480	0,083	-0,008
-517,131	340,672	0,024	-0,033
-516,116	158,377	0,049	-0,049
-515,102	-200,000	-0,011	0,093
-514,087	118,745	-0,040	-0,036
-513,072	800,000	0,031	-0,073
-512,058	-200,000	-0,000	0,087
-511,043	800,000	-0,014	0,036
-510,029	-200,000	0,027	0,090
-509,014	-65,838	0,088	0,025
-507,999	-126,844	0,066	-0,007
-506,985	-200,000	-0,014	-0,059
-505,970	-27,350	-0,160	0,067
-504,956	800,000	0,004	-0,009
-503,941	70,634	-0,142	-0,106
-502,926	81,235	0,060	0,047
-501,912	-200,000	-0,009	-0,101
-500,897	252,785	0,037	-0,046
-499,883	-75,929	-0,050	0,013
-498,868	-200,000	-0,015	-0,095
-497,853	397,593	-0,071	-0,107
-496,839	452,873	0,013	-0,020
-495,824	550,759	0,046	-0,080
-494,810	-100,619	-0,127	-0,022
-493,795	54,111	0,119	-0,082
-492,781	-200,000	-0,011	0,127
-491,766	426,887	-0,068	0,106
-490,751	2,850	0,033	0,017
-489,737	800,000	-0,017	-0,053
-488,722	-57,454	0,118	0,037
-487,708	-200,000	0,008	0,055
-486,693	-188,118	-0,077	-0,001
-485,678	124,366	0,053	-0,048
-484,664	176,218	-0,086	-0,090
-483,649	266,977	0,115	-0,145
-482,635	-123,175	-0,188	0,021
-481,620	-200,000	0,005	0,062
-480,605	-200,000	0,013	0,046
-479,591	-48,302	0,068	0,023
-478,576	-200,000	-0,019	0,071
-477,562	-74,419	0,044	0,011
-476,547	-200,000	0,047	-0,194
-475,532	-200,000	0,010	-0,112
-474,518	-200,000	0,006	-0,186
-473,503	11,485	0,050	-0,027
-472,489	149,929	0,104	0,102
-471,474	800,000	0,047	0,133
-470,459	75,347	0,087	-0,066
-469,445	800,000	0,044	-0,134
-468,430	-40,779	0,046	0,017
-467,416	-46,659	0,072	-0,025
-466,401	220,355	0,105	0,122
-465,386	800,000	0,041	0,122
-464,372	271,883	0,124	0,157
-463,357	-200,000	0,012	0,099
-462,343	221,426	0,053	-0,061
-461,328	110,059	-0,077	-0,067
-460,313	-200,000	-0,005	0,083
-459,299	62,840	0,136	0,098
-458,284	-86,220	-0,110	-0,024
-457,270	-0,616	0,068	0,035
-456,255	611,490	-0,025	0,044
-455,241	800,000	-0,041	-0,103
-454,226	800,000	0,059	-0,161
-453,211	181,236	0,058	0,061
-452,197	132,001	0,096	-0,089
-451,182	-200,000	0,009	-0,040
-450,168	-13,572	-0,049	0,023
-449,153	26,977	0,033	-0,020
-448,138	417,552	-0,056	-0,087
-447,124	800,000	0,027	0,061
-446,109	40,211	0,213	-0,137
-445,095	-136,737	0,127	0,010
-444,080	-23,103	0,065	0,028
-443,065	573,534	-0,026	-0,046
-442,051	256,815	-0,065	-0,081
-441,036	800,000	-0,069	-0,183
-440,022	-200,000	-0,024	-0,132
-439,007	-103,914	-0,028	-0,005
-437,992	-179,379	0,046	0,001
-436,978	800,000	-0,040	0,113
-435,963	-200,000	0,010	-0,038
-434,949	28,154	0,055	-0,034
-433,934	-105,523	-0,056	0,009
-432,919	11,763	-0,126	-0,069
-431,905	-200,000	-0,016	0,052
-430,890	800,000	0,027	-0,068
-429,876	-46,034	-0,042	0,015
-428,861	-200,000	-0,029	0,142
-427,846	133,997	-0,079	0,073
-426,832	-200,000	-0,022	0,082
-425,817	-87,680	-0,108	0,023
-424,803	215,453	0,073	-0,084
-423,788	158,642	0,096	0,096
-422,773	-8,642	0,178	0,085
-421,759	86,539	0,098	0,077
-420,744	-15,286	-0,084	-0,039
-419,730	-158,154	-0,182	0,008
-418,715	83,052	-0,083	0,065
-417,701	-176,836	0,071	0,001
-416,686	11,492	0,077	-0,042
-415,671	126,621	0,117	0,106
-414,657	800,000	0,036	0,071
-413,642	-200,000	-0,005	0,036
-412,628	100,111	-0,087	0,072
-411,613	256,660	0,101	-0,125
-410,598	642,568	0,076	-0,140
-409,584	108,651	0,023	-0,020
-408,569	522,360	-0,085	-0,144
-407,555	-21,139	0,028	0,012
-406,540	-200,000	-0,037	-0,144
-405,525	-72,234	0,131	-0,035
-404,511	59,135	-0,161	-0,114
-403,496	27,131	-0,163	-0,098
-402,482	23,734	-0,076	0,045
-401,467	-106,463	-0,052	0,008
-400,452	426,753	-0,025	0,039
-399,438	-45,618	-0,087	0,031
-398,423	-113,291	-0,137	-0,019
-397,409	415,261	-0,051	0,078
-396,394	48,835	-0,085	0,057
-395,379	-200,000	-0,019	0,080
-394,365	15,930	0,070	0,039
-393,350	513,332	0,060	-0,101
-392,336	573,725	-0,063	0,110
-391,321	226,838	-0,082	-0,095
-390,306	264,867	-0,069	0,086
-389,292	744,934	0,020	-0,038
-388,277	-5,628	0,116	0,057
-387,263	213,942	0,024	0,027
-386,248	120,409	0,110	-0,098
-385,233	124,605	0,053	-0,048
-384,219	163,262	-0,089	0,090
-383,204	48,070	-0,093	-0,062
-382,190	-200,000	0,012	-0,076
-381,175	-82,366	-0,114	-0,026
-380,160	-173,836	-0,128	-0,003
-379,146	-36,946	-0,104	0,040
-378,131	800,000	0,039	0,096
-377,117	-27,923	-0,054	-0,023
-376,102	-98,443	-0,029	0,005
-375,088	-200,000	0,028	-0,160
-374,073	800,000	0,066	-0,186
-373,058	98,335	0,036	0,029
-372,044	-200,000	-0,016	0,100
-371,029	-118,932	0,006	-0,001
-370,015	-81,603	0,091	0,021
-369,000	560,055	-0,049	-0,086
-367,985	-65,744	0,081	0,023
-366,971	-121,007	-0,246	0,029
-365,956	-76,708	0,086	0,021
-364,942	135,639	0,049	0,046
-363,927	-200,000	0,007	0,086
-362,912	275,975	-0,060	0,076
-361,898	-200,000	0,018	-0,158
-360,883	144,628	0,084	-0,081
-359,869	800,000	-0,030	0,073
-358,854	349,906	-0,056	0,080
-357,839	180,079	-0,078	0,082
-356,825	767,501	0,093	-0,182
-355,810	152,629	-0,055	-0,054
-354,796	-200,000	-0,018	0,057
-353,781	-115,238	0,032	-0,004
-352,766	146,280	-0,101	0,097
-351,752	81,610	0,029	0,022
-350,737	15,315	-0,116	0,065
-349,723	-18,559	0,047	-0,021
-348,708	31,463	-0,032	-0,020
-347,693	169,311	-0,053	0,054
-346,679	135,496	-0,016	0,015
-345,664	-146,284	0,083	-0,005
-344,650	-106,324	0,121	-0,019
-343,635	20,478	0,089	-0,051
-342,620	346,468	0,035	-0,050
-341,606	800,000	0,064	-0,131
-340,591	72,375	0,061	-0,046
-339,577	-94,288	-0,194	0,038
-338,562	5,871	0,108	-0,057
-337,548	355,404	0,023	0,033
-336,533	485,736	0,054	-0,088
-335,518	112,787	0,074	-0,064
-334,504	-62,420	0,090	-0,027
-333,489	151,291	0,132	0,129
-332,475	-190,582	-0,038	0,000
-331,460	-70,677	-0,045	0,012
-330,445	-65,655	-0,101	0,029
-329,431	-173,790	-0,054	0,001
-328,416	-86,048	0,109	0,024
-327,402	-24,392	0,036	0,015
-326,387	74,463	-0,046	-0,034
-325,372	43,827	-0,060	0,039
-324,358	-200,000	0,005	0,125
-323,343	-21,954	-0,077	-0,034
-322,329	-200,000	0,005	-0,019
-321,314	800,000	-0,009	0,021
-320,299	36,109	0,101	-0,064
-319,285	-18,493	-0,055	0,024
-318,270	43,540	-0,063	0,041
-317,256	800,000	-0,043	-0,105
-316,241	39,107	0,066	0,042
-315,226	-200,000	0,018	-0,084
-314,212	-22,806	0,043	0,019
-313,197	-39,404	-0,018	0,007
-312,183	632,433	-0,031	-0,057
-311,168	105,893	-0,105	-0,089
-310,153	-93,543	-0,093	-0,018
-309,139	-200,000	-0,003	0,014
-308,124	-49,453	0,081	0,027
-307,110	-200,000	0,047	0,154
-306,095	800,000	-0,038	0,079
-305,080	-177,826	-0,023	-0,000
-304,066	401,868	0,075	0,113
-303,051	79,621	-0,083	-0,064
-302,037	-94,634	-0,077	-0,015
-301,022	-200,000	0,005	-0,155
-300,008	78,514	0,113	0,086
-298,993	800,000	-0,021	0,043
-297,978	800,000	0,049	0,142
-296,964	705,714	0,070	0,132
-295,949	-200,000	-0,023	-0,076
-294,935	608,487	-0,061	-0,109
-293,920	18,379	-0,160	-0,091
-292,905	-51,966	0,236	0,078
-291,891	402,103	0,055	0,082
-290,876	-16,850	0,095	0,043
-289,862	-169,445	-0,111	-0,003
-288,847	-47,119	-0,104	-0,036
-287,832	58,681	-0,082	-0,058
-286,818	-200,000	-0,036	-0,117
-285,803	107,464	0,057	-0,048
-284,789	103,254	0,061	-0,051
-283,774	-200,000	0,004	-0,051
-282,759	41,337	-0,079	-0,051
-281,745	459,022	0,041	0,065
-280,730	-104,730	0,172	-0,028
-279,716	-63,869	-0,105	-0,030
-278,701	-77,242	0,148	-0,037
-277,686	-200,000	-0,004	-0,072
-276,672	800,000	-0,044	0,112
-275,657	-9,849	0,073	-0,034
-274,643	144,711	-0,085	-0,081
-273,628	800,000	-0,014	-0,040
-272,613	-200,000	-0,011	-0,206
-271,599	800,000	0,012	0,036
-270,584	292,204	0,042	-0,055
-269,570	-132,252	0,156	-0,014
-268,555	80,703	-0,038	-0,029
-267,540	-200,000	-0,001	0,019
-266,526	-200,000	0,002	-0,112
-265,511	41,194	-0,073	-0,047
-264,497	581,191	-0,028	0,049
-263,482	208,078	0,061	-0,068
-262,467	-64,990	0,056	-0,016
-261,453	-30,417	-0,093	0,037
-260,438	-112,646	-0,099	0,014
-259,424	800,000	-0,064	-0,145
-258,409	82,438	-0,082	-0,063
-257,395	-9,780	0,128	0,061
-256,380	-200,000	-0,022	0,085
-255,365	173,174	0,044	-0,046
-254,351	-200,000	-0,010	-0,124
-253,336	133,493	0,002	-0,002
-252,322	-43,091	-0,088	-0,032
-251,307	800,000	0,048	-0,096
-250,292	-200,000	0,008	-0,077
-249,278	-155,788	0,105	-0,005
-248,263	102,123	0,073	0,061
-247,249	-200,000	-0,003	0,020
-246,234	243,137	0,027	0,032
-245,219	-200,000	-0,003	0,149
-244,205	-67,817	0,159	0,044
-243,190	-112,162	-0,034	-0,005
-242,176	-200,000	0,013	0,135
-241,161	49,921	0,061	0,041
-240,146	800,000	-0,027	0,054
-239,132	-200,000	0,014	0,064
-238,117	247,577	-0,063	-0,076
-237,103	-2,513	-0,142	0,071
-236,088	-107,547	0,133	-0,021
-235,073	-82,430	0,081	0,019
-234,059	126,363	0,007	0,007
-233,044	-200,000	-0,020	0,107
-232,030	530,975	0,079	-0,135
-231,015	226,751	-0,031	-0,036
-230,000	-200,000	-0,018	-0,089
-228,986	-200,000	-0,014	0,075
-227,971	-160,472	0,134	0,005
-226,957	-200,000	0,002	-0,019
-225,942	-200,000	0,020	-0,107
-224,927	136,627	-0,097	0,091
-223,913	-1,824	-0,134	0,067
-222,898	264,703	-0,055	-0,068
-221,884	-200,000	0,003	0,026
-220,869	-200,000	0,000	-0,025
-219,855	-128,390	0,103	0,010
-218,840	230,493	0,041	0,048
-217,825	118,586	-0,079	0,069
-216,811	-200,000	-0,024	-0,108
-215,796	-149,985	-0,015	-0,001
-214,782	-21,595	-0,216	-0,093
-213,767	114,087	0,062	-0,054
-212,752	33,857	-0,086	0,054
-211,738	-200,000	-0,004	0,034
-210,723	-200,000	-0,004	-0,098
-209,709	800,000	0,025	-0,054
-208,694	74,252	-0,102	-0,076
-207,679	-57,470	-0,138	-0,043
-206,665	800,000	0,046	-0,122
-205,650	-44,756	0,144	-0,051
-204,636	-17,377	0,060	0,027
-203,621	-200,000	-0,017	0,147
-202,606	298,358	0,013	-0,017
-201,592	670,639	-0,039	-0,071
-200,577	3,869	-0,098	-0,051
-199,563	-200,000	0,028	0,115
-198,548	-5,743	0,035	0,017
-197,533	143,428	0,091	0,087
-196,519	-200,000	-0,017	0,084
-195,504	537,181	0,093	-0,158
-194,490	800,000	0,035	-0,077
-193,475	97,330	-0,090	0,074
-192,460	263,625	-0,055	0,068
-191,446	-131,090	-0,040	-0,004
-190,431	46,766	-0,083	-0,054
-189,417	-45,889	0,173	0,060
-188,402	-200,000	-0,011	0,099
-187,387	-200,000	0,030	0,118
-186,373	-200,000	0,031	-0,107
-185,358	375,537	0,034	0,050
-184,344	-200,000	-0,012	0,140
-183,329	-200,000	-0,000	-0,040
-182,315	-200,000	0,017	0,064
-181,300	800,000	-0,041	-0,082
-180,285	-105,724	0,089	0,014
-179,271	-24,509	-0,109	0,046
-178,256	24,519	-0,067	0,039
-177,242	-114,526	0,084	0,011
-176,227	194,192	-0,014	-0,015
-175,212	-139,689	0,082	-0,006
-174,198	136,767	0,131	0,122
-173,183	114,397	-0,090	-0,078
-172,169	-27,051	0,112	-0,046
-171,154	-200,000	-0,067	0,228
-170,139	800,000	-0,031	0,063
-169,125	41,062	0,146	0,093
-168,110	286,760	0,096	0,124
-167,096	-200,000	-0,004	0,095
-166,081	185,021	-0,039	-0,042
-165,066	-30,655	-0,060	0,024
-164,052	-131,238	-0,070	-0,007
-163,037	347,977	0,051	0,072
-162,023	-44,997	0,199	0,070
-161,008	-7,263	0,192	0,092
-159,993	122,529	-0,043	0,038
-158,979	-91,024	-0,147	0,030
-157,964	-200,000	-0,004	0,028
-156,950	-200,000	-0,002	0,020
-155,935	2,701	-0,091	0,047
-154,920	-200,000	-0,025	0,093
-153,906	344,615	0,049	-0,068
-152,891	-32,712	-0,137	-0,054
-151,877	133,772	-0,094	-0,087
-150,862	800,000	0,012	0,029
-149,847	-29,888	-0,048	-0,019
-148,833	49,219	0,036	0,024
-147,818	49,682	0,090	0,060
-146,804	-91,321	-0,060	0,012
-145,789	800,000	-0,055	0,110
-144,775	5,867	-0,111	0,058
-143,760	517,714	-0,042	-0,069
-142,745	672,780	-0,066	-0,121
-141,731	281,735	0,084	-0,107
-140,716	359,278	0,055	0,079
-139,702	-8,148	0,173	0,082
-138,687	265,177	-0,037	0,046
-137,672	-200,000	0,001	0,058
-136,658	800,000	-0,050	-0,140
-135,643	6,685	-0,060	-0,032
-134,629	-65,636	0,029	-0,008
-133,614	-24,602	0,104	0,044
-132,599	-64,726	-0,059	-0,017
-131,585	-200,000	0,025	0,140
-130,570	408,270	-0,080	0,120
-129,556	-200,000	0,033	-0,147
-128,541	162,623	-0,181	-0,180
-127,526	-199,493	0,132	-0,000
-126,512	-89,159	-0,137	-0,029
-125,497	-200,000	-0,025	-0,082
-124,483	92,040	-0,083	-0,066
-123,468	800,000	0,055	-0,130
-122,453	-68,475	-0,097	-0,026
-121,439	53,139	0,058	-0,040
-120,424	-146,967	-0,048	0,003
-119,410	-200,000	0,008	0,200
-118,395	-9,055	0,142	0,067
-117,380	83,745	0,052	-0,040
-116,366	549,515	-0,056	-0,097
-115,351	142,403	0,068	-0,064
-114,337	-200,000	-0,003	0,029
-113,322	121,469	0,027	-0,024
-112,307	-200,000	-0,005	0,094
-111,293	-200,000	0,021	0,129
-110,278	-127,951	0,057	0,006
-109,264	800,000	0,023	0,060
-108,249	-200,000	0,007	0,046
-107,234	127,249	0,041	0,037
-106,220	204,441	-0,071	0,078
-105,205	-101,061	0,180	0,031
-104,191	-91,934	0,055	0,011
-103,176	-91,809	0,142	0,028
-102,162	-200,000	-0,029	0,117
-101,147	-155,575	0,112	-0,005
-100,132	45,557	0,062	0,040
-99,118	800,000	0,012	-0,030
-98,103	-110,241	-0,091	-0,013
-97,089	141,924	0,051	-0,048
-96,074	351,348	0,046	0,065
-95,059	-146,237	0,082	-0,005
-94,045	-95,792	-0,173	0,032
-93,030	-200,000	-0,019	-0,096
-92,016	-200,000	-0,011	-0,131
-91,001	-63,710	0,021	0,006
-89,986	158,432	0,075	0,074
-88,972	-65,554	-0,073	-0,021
-87,957	91,153	-0,068	0,054
-86,943	800,000	-0,039	0,095
-85,928	430,093	-0,045	-0,070
-84,913	-200,000	-0,020	0,173
-83,899	217,351	-0,069	-0,078
-82,884	763,088	-0,054	-0,105
-81,870	216,263	0,102	0,115
-80,855	-200,000	-0,009	0,068
-79,840	-200,000	-0,010	0,055
-78,826	-200,000	-0,010	-0,146
-77,811	-200,000	-0,015	0,068
-76,797	8,628	-0,160	0,085
-75,782	33,569	0,132	0,081
-74,767	-164,357	0,026	0,001
-73,753	-30,782	-0,048	-0,019
-72,738	-160,075	0,133	0,005
-71,724	715,511	-0,056	-0,105
-70,709	218,224	-0,017	-0,020
-69,694	4,488	0,072	-0,037
-68,680	-147,935	0,027	0,002
-67,665	340,263	0,054	-0,075
-66,651	-107,960	-0,030	0,005
-65,636	717,556	0,086	-0,162
-64,622	83,715	0,053	-0,041
-63,607	45,255	0,070	-0,046
-62,592	141,072	0,029	-0,027
-61,578	-90,111	-0,094	-0,019
-60,563	-23,181	0,060	-0,026
-59,549	-200,000	0,027	0,104
-58,534	-18,676	-1,614	-0,710
-57,519	457,542	-1,321	-2,085
-56,505	-200,000	-0,480	-4,436
-55,490	257,822	0,894	1,092
-54,476	800,000	4,873	11,395
-53,461	-200,000	19,142	319,235
-52,446	-200,000	740,170	2334,713
-51,432	573,985	1655,408	2870,871
-50,417	78,456	1671,008	1262,984
-49,403	21,408	1544,023	886,420
-48,388	15,328	1466,178	812,162
-47,373	17,953	1456,575	819,498
-46,359	16,706	1446,556	807,847
-45,344	13,521	1441,958	789,986
-44,330	13,403	1440,031	788,336
-43,315	13,480	1438,196	787,668
-42,300	13,501	1436,569	786,848
-41,286	13,508	1435,371	786,191
-40,271	13,478	1433,976	785,256
-39,257	13,420	1432,772	784,286
-38,242	13,509	1431,403	783,931
-37,227	13,499	1430,304	783,247
-36,213	13,508	1428,885	782,482
-35,198	13,573	1427,561	782,039
-34,184	13,560	1426,762	781,508
-33,169	13,501	1425,376	780,437
-32,154	13,503	1424,463	779,914
-31,140	13,523	1422,974	779,161
-30,125	13,553	1421,882	778,676
-29,111	13,538	1420,845	778,005
-28,096	13,494	1419,904	777,252
-27,082	13,426	1418,732	776,260
-26,067	13,458	1417,409	775,655
-25,052	13,432	1416,521	775,018
-24,038	13,410	1415,551	774,352
-23,023	13,407	1414,478	773,720
-22,009	13,419	1413,460	773,188
-20,994	13,389	1412,575	772,531
-19,979	13,381	1412,009	772,154
-18,965	13,378	1410,793	771,445
-17,950	13,372	1409,898	770,899
-16,936	13,374	1408,793	770,274
-15,921	13,326	1407,846	769,498
-14,906	13,364	1406,778	769,064
-13,892	13,356	1405,905	768,518
-12,877	13,396	1404,972	768,165
-11,863	13,342	1404,144	767,428
-10,848	13,365	1403,364	767,079
-9,833	13,323	1402,519	766,391
-8,819	13,276	1401,588	765,630
-7,804	13,266	1400,542	764,984
-6,790	13,252	1399,495	764,318
-5,775	13,274	1398,609	763,907
-4,760	13,294	1397,462	763,342
-3,746	13,237	1396,759	762,661
-2,731	13,230	1395,978	762,174
-1,717	13,245	1394,893	761,622
-0,702	13,233	1393,254	760,637
0,313	17,010	1310,058	732,737
1,327	33,278	703,770	431,238
2,342	50,814	123,426	82,594
3,356	-0,739	16,750	8,373
4,371	7,259	3,301	1,739
5,386	74,211	0,480	0,356
6,400	-200,000	0,020	0,210
7,415	-10,941	-0,296	-0,138
8,429	108,247	-0,188	-0,158
9,444	85,356	-0,187	-0,145
10,459	-110,677	-0,318	-0,046
11,473	81,489	-0,307	-0,234
12,488	-4,836	-0,276	-0,134
13,502	-7,376	-0,304	-0,145
14,517	92,407	-0,375	-0,298
15,531	148,175	-0,308	-0,294
16,546	91,181	-0,353	-0,280
17,561	112,617	-0,369	-0,316
18,575	-200,000	-0,029	-0,187
19,590	132,120	-0,227	-0,206
20,604	288,233	-0,263	-0,337
21,619	179,917	-0,370	-0,383
22,634	134,206	-0,421	-0,385
23,648	190,334	-0,338	-0,359
24,663	88,921	-0,338	-0,265
25,677	75,263	-0,404	-0,301
26,692	134,325	-0,339	-0,311
27,707	167,542	-0,287	-0,288
28,721	94,794	-0,327	-0,262
29,736	-1,845	-0,443	-0,219
30,750	121,042	-0,420	-0,369
31,765	26,007	-0,413	-0,243
32,780	-4,601	-0,401	-0,195
33,794	174,311	-0,378	-0,386
34,809	77,024	-0,404	-0,303
35,823	36,457	-0,352	-0,218
36,838	113,361	-0,417	-0,357
37,853	5,923	-0,426	-0,222
38,867	205,031	-0,426	-0,468
39,882	62,501	-0,369	-0,259
40,896	27,926	-0,365	-0,217
41,911	-42,747	-0,472	-0,168
42,926	289,123	-0,202	-0,259
43,940	244,480	-0,288	-0,342
44,955	281,774	-0,291	-0,369
45,969	173,428	-0,329	-0,334
46,984	138,129	-0,259	-0,240
47,999	3,828	-0,424	-0,218
49,013	-37,212	-0,359	-0,135
50,028	123,885	-0,262	-0,232
51,042	29,107	-0,213	-0,127
52,057	236,233	-0,301	-0,352
53,071	60,608	-0,343	-0,239
54,086	33,155	-0,256	-0,156
55,101	105,209	-0,312	-0,259
56,115	-157,892	-0,429	-0,018
57,130	16,013	-0,351	-0,194
58,144	5,765	-0,460	-0,239
59,159	54,766	-0,363	-0,246
60,174	131,043	-0,330	-0,298
61,188	60,092	-0,360	-0,250
62,203	39,244	-0,316	-0,199
63,217	41,879	-0,419	-0,267
64,232	232,611	-0,262	-0,304
65,247	281,229	-0,268	-0,338
66,261	119,650	-0,315	-0,275
67,276	129,972	-0,410	-0,369
68,290	-42,620	-0,365	-0,130
69,305	6,094	-0,196	-0,102
70,320	25,851	-0,272	-0,159
71,334	48,441	-0,294	-0,193
72,349	-32,198	-0,285	-0,112
73,363	-14,760	-0,332	-0,149
74,378	173,465	-0,348	-0,353
75,393	273,322	-0,170	-0,212
76,407	45,320	-0,308	-0,200
77,422	717,193	-0,085	-0,159
78,436	102,530	-0,317	-0,260
79,451	114,241	-0,339	-0,290
80,466	22,247	-0,340	-0,195
81,480	38,915	-0,286	-0,179
82,495	348,644	-0,215	-0,298
83,509	-130,071	-0,263	0,025
84,524	47,997	-0,329	-0,216
85,539	10,177	-0,231	-0,123
86,553	-43,148	-0,378	-0,134
87,568	44,427	-0,398	-0,256
88,582	126,171	-0,202	-0,179
89,597	225,734	-0,283	-0,322
90,611	38,980	-0,278	-0,174
91,626	238,217	-0,260	-0,303
92,641	116,504	-0,275	-0,237
93,655	131,835	-0,242	-0,219
94,670	64,535	-0,326	-0,231
95,684	91,946	-0,398	-0,315
96,699	92,921	-0,348	-0,276
97,714	3,261	-0,416	-0,212
98,728	-2,290	-0,250	-0,122
99,743	234,421	-0,245	-0,284
100,757	-25,777	-0,290	-0,119
101,772	52,755	-0,386	-0,258
102,787	-4,569	-0,375	-0,181
103,801	245,168	-0,202	-0,239
104,816	147,119	-0,269	-0,254
105,830	218,193	-0,209	-0,234
106,845	183,628	-0,168	-0,174
107,860	233,820	-0,174	-0,201
108,874	198,175	-0,149	-0,159
109,889	-67,961	-0,291	-0,079
110,903	388,652	-0,241	-0,350
111,918	69,551	-0,203	-0,147
112,933	88,805	-0,235	-0,183
113,947	418,610	-0,204	-0,307
114,962	-147,268	-0,268	-0,016
115,976	171,240	-0,246	-0,247
116,991	148,724	-0,290	-0,275
118,006	171,996	-0,282	-0,284
119,020	36,868	-0,242	-0,150
120,035	-49,056	-0,214	-0,071
121,049	70,059	-0,205	-0,148
122,064	188,960	-0,248	-0,260
123,079	-32,433	-0,272	-0,106
124,093	800,000	-0,185	-0,370
125,108	298,851	-0,252	-0,326
126,122	32,733	-0,378	-0,228
127,137	100,041	-0,298	-0,241
128,151	127,096	-0,182	-0,162
129,166	270,705	-0,129	-0,160
130,181	-22,499	-0,182	-0,077
131,195	25,554	-0,371	-0,215
132,210	-119,406	-0,268	-0,032
133,224	85,722	-0,242	-0,186
134,239	42,451	-0,299	-0,190
135,254	378,004	-0,131	-0,188
136,268	25,715	-0,143	-0,083
137,283	39,124	-0,142	-0,089
138,297	114,921	-0,267	-0,228
139,312	224,434	-0,199	-0,225
140,327	170,118	-0,292	-0,293
141,341	366,532	-0,126	-0,178
142,356	41,123	-0,333	-0,210
143,370	-110,137	-0,300	-0,043
144,385	-13,856	-0,172	-0,077
145,400	101,830	-0,270	-0,220
146,414	124,905	-0,330	-0,290
147,429	170,786	-0,298	-0,298
148,443	479,608	-0,163	-0,259
149,458	-15,129	-0,269	-0,120
150,473	-114,854	-0,312	0,041
151,487	-132,668	-0,322	-0,028
152,502	23,910	-0,224	-0,129
153,516	415,451	-0,125	-0,186
154,531	81,273	-0,271	-0,204
155,546	-31,712	-0,167	-0,065
156,560	108,807	-0,118	-0,098
157,575	-60,590	-0,256	-0,075
158,589	-31,134	-0,257	-0,101
159,604	21,800	-0,346	-0,196
160,619	-26,523	-0,367	-0,149
161,633	-10,769	-0,260	-0,119
162,648	-101,920	-0,301	-0,050
163,662	2,797	-0,382	-0,193
164,677	61,293	-0,145	-0,100
165,692	44,792	-0,315	-0,202
166,706	381,264	-0,181	-0,260
167,721	34,142	-0,203	-0,123
168,735	461,543	-0,173	-0,271
169,750	179,348	-0,191	-0,195
170,764	151,943	-0,116	-0,110
171,779	119,519	-0,251	-0,216
172,794	190,128	-0,222	-0,232
173,808	-56,281	-0,339	-0,105
174,823	80,279	-0,227	-0,170
175,837	19,633	-0,226	-0,126
176,852	130,510	-0,364	-0,325
177,867	56,254	-0,161	-0,109
178,881	4,050	-0,192	-0,098
179,896	-148,052	-0,235	-0,013
180,910	-64,578	-0,160	-0,045
181,925	290,344	-0,226	-0,287
182,940	13,301	-0,188	-0,101
183,954	38,298	-0,296	-0,183
184,969	133,830	-0,178	-0,160
185,983	5,428	-0,250	-0,128
186,998	-11,280	-0,257	-0,117
188,013	-68,965	-0,255	-0,068
189,027	-94,195	-0,307	-0,058
190,042	210,456	-0,150	-0,164
191,056	-130,526	-0,421	-0,039
192,071	203,107	-0,118	-0,127
193,086	-53,693	-0,253	-0,080
194,100	60,314	-0,185	-0,127
195,115	717,426	-0,163	-0,302
196,129	505,915	-0,228	-0,369
197,144	481,416	-0,216	-0,342
198,159	100,562	-0,382	-0,308
199,173	76,941	-0,108	-0,080
200,188	-200,000	-0,060	-0,209
201,202	-160,338	-0,145	-0,005
202,217	6,600	-0,169	-0,087
203,232	65,306	-0,170	-0,119
204,246	15,074	-0,184	-0,100
205,261	-15,010	-0,176	-0,078
206,275	185,430	-0,199	-0,206
207,290	99,770	-0,129	-0,104
208,304	136,367	-0,201	-0,183
209,319	-1,850	-0,193	-0,094
210,334	89,882	-0,086	-0,067
211,348	-200,000	-0,072	-0,236
212,363	167,284	-0,217	-0,214
213,377	104,267	-0,248	-0,203
214,392	-52,907	-0,210	-0,067
215,407	101,551	-0,094	-0,076
216,421	123,069	-0,184	-0,160
217,436	167,418	-0,170	-0,168
218,450	-9,705	-0,229	-0,106
219,465	-27,498	-0,243	-0,098
220,480	-99,421	-0,252	-0,044
221,494	313,422	-0,166	-0,217
222,509	-111,258	-0,117	0,016
223,523	600,033	-0,076	-0,132
224,538	192,506	-0,131	-0,137
225,553	-65,408	-0,214	-0,059
226,567	-52,155	-0,150	-0,048
227,582	-69,527	-0,173	0,046
228,596	-63,859	-0,190	-0,054
229,611	22,043	-0,076	-0,043
230,626	-82,530	-0,198	-0,044
231,640	403,721	-0,116	-0,170
232,655	-16,795	-0,275	-0,120
233,669	93,713	-0,233	-0,183
234,684	146,162	-0,160	-0,149
235,699	244,611	-0,202	-0,236
236,713	-27,428	-0,096	0,038
237,728	-51,349	-0,168	-0,054
238,742	11,600	-0,223	-0,118
239,757	-8,506	-0,239	-0,111
240,772	294,877	-0,203	-0,258
241,786	0,154	-0,211	-0,104
242,801	-66,759	-0,261	-0,071
243,815	121,329	-0,124	-0,107
244,830	87,440	-0,221	-0,169
245,844	800,000	-0,084	-0,184
246,859	209,314	-0,176	-0,192
247,874	118,873	-0,220	-0,189
248,888	-59,468	-0,154	-0,045
249,903	800,000	-0,132	-0,325
250,917	119,104	-0,102	-0,087
251,932	186,263	-0,101	-0,104
252,947	110,446	-0,150	-0,125
253,961	-41,655	-0,148	-0,052
254,976	-200,000	0,027	-0,157
255,990	800,000	-0,096	-0,224
257,005	800,000	-0,089	-0,188
258,020	29,128	-0,154	-0,090
259,034	-18,941	-0,151	-0,065
260,049	472,909	-0,172	-0,268
261,063	68,162	-0,200	-0,141
262,078	122,744	-0,177	-0,153
263,093	800,000	-0,119	-0,279
264,107	17,035	-0,330	-0,180
265,122	-10,748	-0,169	-0,077
266,136	112,769	-0,197	-0,165
267,151	-21,883	-0,257	-0,108
268,166	85,990	-0,174	-0,132
269,180	-73,502	-0,213	-0,053
270,195	57,340	-0,161	-0,108
271,209	205,901	-0,097	-0,104
272,224	-116,024	-0,144	-0,018
273,239	160,437	-0,103	-0,099
274,253	29,240	-0,208	-0,122
275,268	-200,000	-0,003	-0,038
276,282	-122,897	-0,206	0,023
277,297	10,065	-0,199	-0,104
278,312	358,117	-0,151	-0,209
279,326	-66,434	-0,166	-0,045
280,341	800,000	-0,072	-0,150
281,355	-200,000	-0,022	-0,117
282,370	146,088	-0,197	-0,183
283,384	-77,889	-0,150	-0,035
284,399	-46,149	-0,183	-0,062
285,414	-79,273	-0,212	-0,049
286,428	-200,000	-0,058	-0,288
287,443	-200,000	-0,019	-0,222
288,457	240,737	-0,131	-0,151
289,472	-111,397	-0,109	-0,015
290,487	441,635	-0,151	-0,229
291,501	93,224	-0,186	-0,145
292,516	-88,048	-0,160	-0,033
293,530	-200,000	-0,080	-0,269
294,545	-200,000	-0,053	-0,181
295,560	34,245	-0,057	0,034
296,574	319,342	-0,155	-0,203
297,589	483,141	-0,114	-0,179
298,603	-38,642	-0,322	-0,117
299,618	40,293	-0,259	-0,160
300,633	-136,095	-0,147	-0,012
301,647	69,362	-0,112	-0,079
302,662	70,544	-0,211	-0,150
303,676	800,000	-0,011	-0,025
304,691	-200,000	-0,014	0,058
305,706	177,007	-0,163	-0,164
306,720	175,955	-0,163	-0,163
307,735	-41,757	-0,289	-0,102
308,749	279,700	-0,125	-0,154
309,764	-180,012	-0,207	0,003
310,779	-200,000	0,007	-0,118
311,793	-98,330	-0,117	-0,020
312,808	146,650	-0,139	-0,129
313,822	98,816	-0,126	-0,100
314,837	621,394	-0,115	-0,200
315,852	3,335	-0,193	-0,096
316,866	-3,379	-0,088	0,042
317,881	-47,873	-0,104	-0,034
318,895	-7,196	-0,218	-0,101
319,910	-14,839	-0,160	-0,070
320,925	-0,601	-0,114	-0,055
321,939	-200,000	-0,016	-0,078
322,954	-3,087	-0,057	-0,027
323,968	800,000	-0,049	-0,147
324,983	-97,866	-0,097	-0,017
325,997	51,919	-0,171	-0,112
327,012	233,311	-0,188	-0,213
328,027	800,000	-0,061	-0,125
329,041	414,691	-0,104	-0,153
330,056	145,615	-0,079	-0,073
331,070	-200,000	-0,009	-0,093
332,085	800,000	-0,074	-0,159
333,100	-43,928	-0,144	-0,049
334,114	151,935	-0,125	-0,117
335,129	130,008	-0,157	-0,138
336,143	463,069	-0,112	-0,172
337,158	171,848	-0,118	-0,116
338,173	422,306	-0,059	-0,087
339,187	-67,874	-0,144	-0,038
340,202	45,613	-0,048	-0,031
341,216	80,356	-0,143	-0,106
342,231	337,618	-0,110	-0,147
343,246	-19,770	-0,192	-0,081
344,260	68,236	-0,158	-0,111
345,275	-51,234	-0,104	0,033
346,289	-200,000	-0,001	-0,259
347,304	-167,634	-0,112	0,003
348,319	32,554	-0,123	-0,073
349,333	153,561	-0,225	-0,211
350,348	108,846	-0,104	-0,085
351,362	-200,000	-0,029	-0,114
352,377	90,887	-0,107	-0,083
353,392	205,878	-0,193	-0,207
354,406	60,940	-0,097	-0,066
355,421	209,334	1311,592	1411,625
356,435	161,110	1471,928	1412,118
