DTS Sentinel unit serial number:	SN410029Multiplexer serial number:	ORYXHardware model number:	OX2-SRSoftware version number:	ORYX F/W v4,00 Oryx Data Collector v3.7.2.0data status	okinstallation	B3 Nyhavnadifferential loss correction	single-endedforward channel	channel 1reverse channel	N/Adate	2023/11/28time	19:47:30forward acquisition time	300,00reverse acquisition time	0,00gamma	499,1914k internal	0,3206k external	0,3206temperature offset calibration	1,0000default loss term (dB/km)	0,3820temperature slope calibration	1,0000multiplexer offset coefficient	1,0000multiplexer slope coefficient	1,0000fibre end	0,00T internal ref (°C)	7,75T ext. ref 1 (°C)	-6,90T ext. ref 2 (°C)	-7,05length (m)	temperature (°C)	Stokes	anti-Stokes-744,400	67,407	-0,155	-0,115
-743,385	-200,000	-0,053	0,370
-742,371	114,687	-0,198	-0,175
-741,356	-200,000	0,016	0,302
-740,342	249,806	-0,107	-0,132
-739,327	476,114	-0,123	0,203
-738,312	800,000	-0,121	-0,384
-737,298	211,132	-0,144	0,165
-736,283	634,964	-0,047	-0,086
-735,269	397,976	-0,132	0,201
-734,254	36,174	-0,221	-0,141
-733,239	-42,173	-0,292	0,108
-732,225	-200,000	-0,012	-0,118
-731,210	268,860	0,070	0,089
-730,196	8,103	-0,192	0,104
-729,181	-200,000	0,028	-0,114
-728,167	52,865	0,075	0,052
-727,152	-123,467	-0,062	-0,007
-726,137	-82,490	-0,070	-0,016
-725,123	21,049	-0,160	-0,094
-724,108	370,970	-0,078	-0,116
-723,094	800,000	-0,074	-0,188
-722,079	-160,539	-0,142	-0,005
-721,064	-200,000	0,000	0,147
-720,050	-200,000	-0,032	-0,175
-719,035	676,449	0,003	-0,006
-718,021	800,000	-0,047	-0,138
-717,006	95,677	-0,028	-0,023
-715,991	-107,033	-0,058	-0,009
-714,977	-200,000	-0,004	-0,071
-713,962	125,751	-0,038	-0,035
-712,948	98,779	0,088	0,074
-711,933	-200,000	0,004	0,044
-710,918	314,792	-0,046	-0,062
-709,904	-200,000	0,019	-0,098
-708,889	-37,064	-0,121	0,047
-707,875	-27,737	-0,044	-0,018
-706,860	-200,000	-0,004	0,065
-705,845	175,895	0,039	-0,041
-704,831	-200,000	-0,018	0,061
-703,816	-132,135	-0,041	-0,004
-702,802	2,673	0,041	-0,021
-701,787	-200,000	0,001	-0,021
-700,772	-112,689	-0,178	0,025
-699,758	-41,701	-0,066	0,024
-698,743	33,933	0,144	0,091
-697,729	34,013	-0,064	0,040
-696,714	144,659	0,104	-0,100
-695,699	122,235	-0,068	-0,062
-694,685	88,129	0,029	-0,023
-693,670	563,714	-0,047	-0,083
-692,656	127,200	-0,054	0,050
-691,641	95,189	0,082	-0,068
-690,627	94,415	0,046	0,038
-689,612	0,153	-0,081	0,042
-688,597	-157,631	-0,108	-0,005
-687,583	-200,000	-0,026	-0,143
-686,568	-200,000	-0,024	-0,104
-685,554	62,009	0,126	0,091
-684,539	-11,298	0,085	0,041
-683,524	-84,419	0,109	-0,025
-682,510	-200,000	0,031	0,145
-681,495	223,341	-0,052	0,061
-680,481	-104,981	-0,082	-0,013
-679,466	-151,067	-0,035	-0,002
-678,451	99,997	0,067	-0,056
-677,437	-200,000	-0,005	-0,061
-676,422	-200,000	-0,134	-0,000
-675,408	71,018	-0,024	-0,018
-674,393	105,160	-0,169	-0,145
-673,378	800,000	-0,021	-0,053
-672,364	562,469	-0,016	0,028
-671,349	800,000	-0,065	-0,155
-670,335	-200,000	-0,019	-0,072
-669,320	-200,000	0,003	0,023
-668,305	51,174	0,057	-0,039
-667,291	-200,000	-0,007	-0,039
-666,276	-200,000	-0,018	-0,114
-665,262	205,282	-0,055	0,062
-664,247	-200,000	0,014	-0,109
-663,232	-87,925	-0,102	0,022
-662,218	172,559	0,126	0,131
-661,203	800,000	0,045	-0,139
-660,189	-85,792	-0,079	0,018
-659,174	184,546	-0,090	-0,096
-658,159	167,867	-0,059	0,061
-657,145	-7,305	-0,112	0,055
-656,130	-200,000	0,002	-0,102
-655,116	800,000	0,058	-0,120
-654,101	-200,000	-0,005	0,034
-653,086	-92,128	-0,048	-0,010
-652,072	-13,717	0,077	0,036
-651,057	-33,665	-0,132	-0,052
-650,043	24,230	-0,141	-0,084
-649,028	-200,000	-0,018	-0,086
-648,014	-200,000	-0,023	-0,100
-646,999	-22,377	0,036	-0,016
-645,984	6,154	0,033	0,018
-644,970	-7,675	0,091	0,044
-643,955	241,715	-0,043	-0,052
-642,941	-200,000	-0,000	-0,087
-641,926	-200,000	0,006	-0,059
-640,911	-113,958	0,117	-0,016
-639,897	-32,948	0,086	-0,034
-638,882	288,261	-0,037	0,049
-637,868	389,816	-0,050	0,075
-636,853	-200,000	-0,042	-0,135
-635,838	303,943	-0,099	-0,133
-634,824	-28,120	0,067	-0,028
-633,809	-200,000	-0,049	0,223
-632,795	-158,805	-0,159	0,006
-631,780	-84,662	0,063	-0,014
-630,765	-174,721	-0,109	-0,002
-629,751	-200,000	-0,031	-0,177
-628,736	20,517	-0,048	-0,028
-627,722	-10,843	0,067	-0,032
-626,707	-32,348	0,055	-0,022
-625,692	-25,797	-0,096	-0,041
-624,678	149,059	0,056	0,055
-623,663	223,326	-0,046	-0,053
-622,649	497,736	0,067	-0,112
-621,634	256,703	-0,094	0,117
-620,619	-71,980	-0,080	-0,021
-619,605	-90,700	0,104	-0,022
-618,590	151,924	0,068	-0,067
-617,576	-162,759	0,222	0,008
-616,561	30,756	-0,057	0,035
-615,546	-200,000	-0,005	0,034
-614,532	-105,578	-0,133	-0,022
-613,517	15,395	0,056	0,032
-612,503	400,261	-0,050	0,076
-611,488	132,061	0,036	0,033
-610,474	125,383	0,116	0,106
-609,459	159,730	-0,042	0,042
-608,444	-200,000	-0,001	-0,023
-607,430	-122,885	-0,050	-0,006
-606,415	-200,000	-0,006	-0,047
-605,401	-180,019	0,156	-0,002
-604,386	-200,000	0,001	0,069
-603,371	346,151	-0,048	0,068
-602,357	-101,808	0,052	0,009
-601,342	-200,000	0,033	-0,199
-600,328	-112,770	-0,132	-0,019
-599,313	189,344	-0,093	-0,101
-598,298	179,072	-0,045	0,047
-597,284	-200,000	0,010	-0,084
-596,269	55,813	0,105	0,073
-595,255	12,657	-0,164	0,091
-594,240	131,256	0,040	-0,037
-593,225	800,000	0,025	-0,055
-592,211	177,878	-0,078	0,082
-591,196	247,770	-0,006	-0,008
-590,182	-200,000	0,012	0,047
-589,167	-60,303	-0,038	-0,012
-588,152	-3,691	0,159	0,079
-587,138	-134,058	-0,132	0,012
-586,123	-200,000	-0,010	-0,140
-585,109	-43,846	-0,090	0,033
-584,094	-99,377	0,050	0,009
-583,079	-200,000	-0,008	-0,030
-582,065	-56,758	-0,116	0,037
-581,050	20,605	0,071	0,041
-580,036	793,536	-0,041	-0,082
-579,021	416,832	-0,062	-0,096
-578,006	107,982	0,060	0,052
-576,992	800,000	0,050	-0,144
-575,977	-144,757	-0,087	0,006
-574,963	10,625	0,151	-0,083
-573,948	-128,950	0,010	0,001
-572,934	328,881	-0,067	0,094
-571,919	-200,000	-0,057	-0,202
-570,904	0,882	0,068	-0,035
-569,890	-200,000	0,001	0,062
-568,875	-200,000	-0,015	0,108
-567,861	-49,992	-0,078	-0,027
-566,846	800,000	0,021	-0,044
-565,831	800,000	0,007	0,014
-564,817	800,000	0,042	-0,107
-563,802	-183,376	-0,240	-0,003
-562,788	181,333	-0,038	0,040
-561,773	-200,000	-0,017	0,100
-560,758	54,382	-0,059	-0,041
-559,744	43,377	0,182	0,120
-558,729	198,822	-0,027	0,030
-557,715	432,936	0,034	0,054
-556,700	548,910	0,029	-0,050
-555,685	12,713	-0,109	-0,060
-554,671	119,415	-0,061	-0,055
-553,656	-139,929	0,030	0,002
-552,642	800,000	-0,049	0,120
-551,627	800,000	0,025	0,065
-550,612	297,094	-0,033	0,044
-549,598	132,132	-0,034	-0,032
-548,583	129,594	0,099	0,091
-547,569	800,000	-0,041	-0,115
-546,554	-200,000	0,004	0,058
-545,539	58,564	-0,058	0,041
-544,525	482,012	0,036	-0,059
-543,510	800,000	0,052	0,143
-542,496	-200,000	-0,019	-0,070
-541,481	-143,796	0,085	0,006
-540,466	800,000	0,035	-0,084
-539,452	203,784	0,024	-0,027
-538,437	374,476	-0,012	0,018
-537,423	41,611	-0,051	0,033
-536,408	203,264	-0,045	0,050
-535,393	-42,160	-0,104	-0,038
-534,379	-45,956	0,123	-0,044
-533,364	679,172	0,060	0,113
-532,350	-101,131	0,088	-0,015
-531,335	646,957	0,096	0,177
-530,321	131,876	-0,078	0,072
-529,306	131,699	-0,062	0,058
-528,291	-200,000	-0,019	-0,073
-527,277	797,755	-0,059	-0,117
-526,262	-200,000	-0,027	-0,100
-525,248	-200,000	-0,018	-0,091
-524,233	800,000	-0,055	-0,156
-523,218	-123,562	0,027	0,003
-522,204	669,072	0,011	0,021
-521,189	-200,000	0,022	-0,090
-520,175	-200,000	-0,007	-0,112
-519,160	103,093	0,044	0,037
-518,145	-53,946	0,174	0,057
-517,131	342,360	-0,026	-0,037
-516,116	357,383	0,128	0,184
-515,102	800,000	-0,057	0,116
-514,087	-44,129	0,045	-0,016
-513,072	98,878	-0,106	0,088
-512,058	-60,836	0,092	0,028
-511,043	291,180	-0,090	0,118
-510,029	-200,000	0,020	0,081
-509,014	-200,000	-0,024	0,140
-507,999	-146,498	0,162	-0,010
-506,985	389,969	0,023	0,034
-505,970	-200,000	-0,003	-0,085
-504,956	-97,808	0,017	-0,003
-503,941	-82,570	-0,103	-0,024
-502,926	284,498	0,058	-0,075
-501,912	2,118	0,073	0,038
-500,897	114,451	0,083	0,073
-499,883	110,717	0,046	0,040
-498,868	-102,123	0,196	0,034
-497,853	-116,459	-0,194	0,026
-496,839	-200,000	0,001	-0,028
-495,824	68,372	-0,028	-0,020
-494,810	236,051	-0,070	-0,083
-493,795	531,141	0,069	0,117
-492,781	303,652	-0,029	0,039
-491,766	800,000	-0,032	0,067
-490,751	-200,000	0,034	-0,195
-489,737	-42,207	0,026	-0,010
-488,722	-39,170	0,129	0,049
-487,708	41,118	0,029	0,019
-486,693	-200,000	0,007	0,068
-485,678	-200,000	0,020	-0,199
-484,664	-200,000	0,039	-0,195
-483,649	31,866	0,034	0,021
-482,635	642,084	-0,054	0,099
-481,620	800,000	0,055	0,118
-480,605	800,000	0,050	-0,116
-479,591	-200,000	0,044	0,166
-478,576	-93,887	0,064	0,013
-477,562	800,000	-0,021	-0,064
-476,547	-200,000	-0,007	-0,100
-475,532	502,210	0,036	0,060
-474,518	-9,673	0,098	-0,047
-473,503	-200,000	-0,013	0,057
-472,489	99,510	0,057	-0,047
-471,474	197,968	0,084	0,093
-470,459	-98,960	0,081	-0,015
-469,445	800,000	-0,040	-0,084
-468,430	-200,000	-0,013	-0,081
-467,416	-88,348	0,039	0,008
-466,401	67,617	-0,149	0,109
-465,386	-200,000	0,019	-0,096
-464,372	800,000	0,035	-0,100
-463,357	-200,000	0,056	0,220
-462,343	147,553	-0,057	-0,055
-461,328	-43,657	-0,031	-0,011
-460,313	-200,000	-0,024	0,115
-459,299	80,893	-0,185	0,143
-458,284	169,464	0,052	0,053
-457,270	-78,514	0,036	0,009
-456,255	-122,490	0,103	-0,012
-455,241	265,349	-0,072	-0,090
-454,226	-32,501	-0,052	0,021
-453,211	-200,000	0,005	0,062
-452,197	-96,342	0,070	0,013
-451,182	-200,000	-0,007	0,063
-450,168	-90,275	-0,035	0,007
-449,153	84,136	0,024	0,019
-448,138	-200,000	-0,025	-0,112
-447,124	-180,567	-0,117	-0,002
-446,109	-67,094	-0,078	0,022
-445,095	-56,318	0,043	0,014
-444,080	142,472	0,082	0,078
-443,065	-4,911	-0,046	0,022
-442,051	158,598	-0,046	0,046
-441,036	-109,033	0,102	0,015
-440,022	-130,020	-0,083	-0,008
-439,007	-100,837	-0,096	-0,017
-437,992	-11,688	0,157	0,074
-436,978	496,278	0,084	0,140
-435,963	117,497	0,139	0,123
-434,949	800,000	-0,049	-0,099
-433,934	-200,000	-0,001	-0,060
-432,919	-113,641	-0,064	-0,009
-431,905	-28,592	0,011	-0,005
-430,890	-200,000	0,001	0,017
-429,876	589,813	-0,027	0,048
-428,861	-37,953	-0,024	0,009
-427,846	206,289	0,068	-0,076
-426,832	-67,519	0,076	-0,021
-425,817	800,000	-0,004	-0,009
-424,803	-200,000	-0,017	-0,204
-423,788	93,176	0,065	0,053
-422,773	-11,023	-0,125	0,059
-421,759	-22,065	0,132	0,057
-420,744	800,000	0,008	-0,019
-419,730	517,790	0,044	-0,074
-418,715	221,719	0,061	0,070
-417,701	-200,000	0,001	-0,063
-416,686	333,790	-0,031	0,043
-415,671	403,050	0,064	0,097
-414,657	167,061	0,037	-0,038
-413,642	265,235	-0,058	0,073
-412,628	27,794	0,029	0,017
-411,613	35,005	0,050	0,031
-410,598	255,666	0,041	-0,050
-409,584	196,546	0,081	-0,089
-408,569	800,000	-0,047	0,115
-407,555	496,095	-0,047	0,077
-406,540	-200,000	-0,033	0,133
-405,525	-200,000	-0,004	-0,038
-404,511	154,086	-0,062	0,061
-403,496	175,579	0,068	-0,070
-402,482	-200,000	-0,002	-0,083
-401,467	-113,904	0,073	-0,010
-400,452	139,890	0,094	0,089
-399,438	444,192	0,018	-0,029
-398,423	-40,869	-0,016	0,006
-397,409	800,000	0,030	-0,077
-396,394	-7,827	-0,082	-0,039
-395,379	377,340	-0,047	0,069
-394,365	421,816	0,035	-0,054
-393,350	-200,000	0,006	0,122
-392,336	-200,000	-0,026	0,139
-391,321	62,334	-0,100	0,072
-390,306	800,000	-0,045	-0,126
-389,292	-100,284	0,072	-0,013
-388,277	-4,848	-0,102	0,050
-387,263	800,000	0,008	0,016
-386,248	-101,495	0,054	-0,009
-385,233	17,704	-0,051	0,029
-384,219	202,822	-0,033	-0,037
-383,204	-200,000	-0,010	0,060
-382,190	323,632	-0,024	-0,033
-381,175	-18,087	-0,046	0,020
-380,160	-200,000	0,015	-0,102
-379,146	-118,209	0,070	-0,009
-378,131	384,501	0,041	0,061
-377,117	-200,000	-0,037	0,205
-376,102	-200,000	-0,001	0,044
-375,088	-200,000	0,048	-0,185
-374,073	-200,000	-0,005	-0,057
-373,058	15,447	-0,032	-0,018
-372,044	484,488	0,045	0,073
-371,029	-9,803	-0,053	-0,025
-370,015	-1,191	-0,052	0,026
-369,000	61,389	-0,103	-0,073
-367,985	-26,397	0,019	-0,008
-366,971	-200,000	-0,015	0,064
-365,956	694,720	-0,049	0,093
-364,942	103,300	0,057	0,048
-363,927	302,655	0,124	0,164
-362,912	-200,000	-0,016	0,065
-361,898	-131,876	0,083	-0,008
-360,883	46,127	-0,093	-0,061
-359,869	-200,000	0,003	-0,217
-358,854	-10,055	0,036	0,017
-357,839	452,156	0,061	0,096
-356,825	301,344	0,068	-0,090
-355,810	293,257	0,029	-0,038
-354,796	800,000	-0,052	-0,104
-353,781	-91,996	0,061	0,012
-352,766	-200,000	-0,015	-0,171
-351,752	372,156	0,008	-0,012
-350,737	-92,410	0,081	-0,016
-349,723	81,684	0,148	0,115
-348,708	-200,000	0,017	-0,061
-347,693	-25,318	-0,143	-0,060
-346,679	31,539	-0,116	-0,071
-345,664	800,000	-0,016	-0,040
-344,650	-200,000	0,003	-0,040
-343,635	399,971	-0,180	-0,271
-342,620	-171,523	-0,064	0,001
-341,606	73,936	-0,038	-0,029
-340,591	-200,000	-0,002	0,078
-339,577	-145,924	0,077	-0,005
-338,562	703,182	-0,046	-0,087
-337,548	800,000	-0,052	-0,145
-336,533	-29,460	0,084	0,034
-335,518	-200,000	-0,002	0,087
-334,504	159,152	-0,082	0,082
-333,489	394,847	0,047	-0,070
-332,475	194,355	0,027	-0,029
-331,460	296,612	-0,068	0,089
-330,445	800,000	-0,102	0,241
-329,431	220,654	0,113	0,130
-328,416	-14,009	0,059	0,027
-327,402	208,441	0,046	0,052
-326,387	762,848	-0,061	0,119
-325,372	222,182	0,054	-0,062
-324,358	-119,153	0,068	-0,008
-323,343	89,490	0,046	0,037
-322,329	-200,000	0,015	-0,082
-321,314	39,379	0,189	0,121
-320,299	59,599	-0,042	0,030
-319,285	133,550	-0,127	-0,117
-318,270	768,592	-0,048	-0,093
-317,256	126,958	0,003	0,003
-316,241	800,000	-0,018	-0,047
-315,226	-8,675	-0,145	0,069
-314,212	609,296	0,062	0,111
-313,197	9,119	0,049	-0,026
-312,183	-20,447	-0,082	0,036
-311,168	-200,000	-0,025	0,086
-310,153	-200,000	-0,001	0,033
-309,139	800,000	-0,031	-0,079
-308,124	118,626	-0,028	0,024
-307,110	14,740	-0,028	0,015
-306,095	800,000	-0,031	0,063
-305,080	481,406	-0,086	0,139
-304,066	-200,000	0,009	0,076
-303,051	29,492	0,078	0,047
-302,037	73,868	-0,126	-0,094
-301,022	414,892	-0,023	0,034
-300,008	800,000	0,040	0,096
-298,993	-55,796	0,137	-0,043
-297,978	800,000	-0,101	0,203
-296,964	-200,000	-0,026	0,113
-295,949	800,000	-0,035	-0,081
-294,935	-200,000	0,032	-0,164
-293,920	-200,000	0,007	-0,045
-292,905	40,038	0,036	-0,023
-291,891	-136,856	0,111	-0,009
-290,876	-200,000	-0,008	-0,071
-289,862	800,000	0,021	-0,042
-288,847	-86,252	-0,143	-0,031
-287,832	160,541	0,113	-0,112
-286,818	41,929	0,074	0,048
-285,803	223,460	0,062	-0,071
-284,789	-83,574	0,037	-0,008
-283,774	-195,919	0,149	0,001
-282,759	-200,000	-0,004	-0,137
-281,745	-86,821	0,135	0,029
-280,730	-28,137	-0,070	-0,029
-279,716	-31,529	0,041	-0,016
-278,701	-91,235	0,149	0,030
-277,686	-200,000	0,027	-0,093
-276,672	-147,225	-0,111	0,007
-275,657	-110,449	0,080	0,012
-274,643	-3,163	-0,110	0,054
-273,628	-4,126	0,116	-0,057
-272,613	-34,278	-0,032	-0,013
-271,599	751,290	0,045	-0,088
-270,584	269,817	0,049	0,061
-269,570	196,277	0,210	0,228
-268,555	94,604	-0,126	0,102
-267,540	145,748	-0,068	-0,065
-266,526	-15,966	-0,042	-0,019
-265,511	-187,928	-0,190	0,002
-264,497	-144,805	0,154	-0,010
-263,482	70,467	-0,080	-0,059
-262,467	-200,000	0,001	0,039
-261,453	800,000	0,046	-0,098
-260,438	406,160	-0,051	-0,077
-259,424	93,688	0,178	-0,143
-258,409	-105,118	0,067	-0,011
-257,395	114,812	-0,071	-0,062
-256,380	-200,000	-0,013	0,102
-255,365	152,514	0,050	0,049
-254,351	-38,680	0,127	-0,047
-253,336	-135,748	-0,072	0,006
-252,322	167,566	-0,081	-0,082
-251,307	800,000	-0,030	0,066
-250,292	-200,000	-0,002	-0,057
-249,278	257,007	0,053	-0,066
-248,263	117,650	0,047	-0,041
-247,249	-200,000	0,041	-0,132
-246,234	642,137	-0,065	0,119
-245,219	800,000	0,026	0,062
-244,205	-35,642	-0,081	0,031
-243,190	38,269	0,114	0,072
-242,176	800,000	0,038	-0,109
-241,161	98,181	0,023	0,019
-240,146	109,054	0,147	-0,125
-239,132	-200,000	0,027	-0,145
-238,117	-77,970	0,094	0,023
-237,103	-200,000	0,006	0,040
-236,088	65,926	-0,109	-0,078
-235,073	800,000	-0,038	0,098
-234,059	391,094	-0,066	0,098
-233,044	55,029	-0,051	0,035
-232,030	45,312	-0,010	-0,007
-231,015	242,747	-0,101	-0,121
-230,000	340,412	-0,075	0,104
-228,986	-129,861	-0,082	-0,008
-227,971	-200,000	0,008	-0,124
-226,957	-200,000	0,001	-0,048
-225,942	-200,000	-0,019	0,088
-224,927	-142,910	-0,090	0,006
-223,913	-29,614	-0,048	0,019
-222,898	-63,321	0,062	-0,018
-221,884	-3,580	-0,134	0,066
-220,869	-37,618	0,027	-0,010
-219,855	447,686	0,045	-0,071
-218,840	496,884	0,033	0,054
-217,825	-116,769	0,034	-0,004
-216,811	800,000	0,060	-0,166
-215,796	-200,000	-0,012	-0,052
-214,782	800,000	0,038	-0,117
-213,767	-38,473	-0,046	-0,017
-212,752	-146,036	-0,089	0,005
-211,738	-184,638	0,036	-0,000
-210,723	607,011	-0,042	0,075
-209,709	47,884	-0,117	-0,078
-208,694	48,651	-0,121	-0,081
-207,679	-55,059	-0,038	0,012
-206,665	135,031	0,067	-0,062
-205,650	-119,841	0,084	0,010
-204,636	198,035	-0,060	-0,065
-203,621	92,837	-0,123	0,099
-202,606	94,109	-0,166	-0,134
-201,592	800,000	-0,044	-0,100
-200,577	-19,298	-0,101	-0,044
-199,563	271,498	0,031	-0,038
-198,548	-129,617	-0,063	-0,006
-197,533	-30,375	0,079	-0,032
-196,519	112,662	-0,046	-0,040
-195,504	119,218	-0,027	0,024
-194,490	-43,903	-0,128	0,046
-193,475	210,613	0,021	-0,024
-192,460	165,616	-0,033	0,033
-191,446	800,000	-0,089	0,175
-190,431	121,896	-0,087	0,077
-189,417	-19,982	0,036	0,016
-188,402	-31,084	-0,044	0,018
-187,387	15,198	-0,077	-0,043
-186,373	170,585	-0,022	0,023
-185,358	487,338	0,045	0,073
-184,344	-72,005	0,082	0,021
-183,329	-62,410	0,085	0,025
-182,315	-126,063	-0,170	0,018
-181,300	-92,109	-0,072	0,014
-180,285	80,090	-0,063	0,048
-179,271	-92,131	-0,045	0,009
-178,256	310,590	0,061	-0,081
-177,242	-99,499	0,013	0,002
-176,227	800,000	0,029	0,063
-175,212	6,061	0,099	0,052
-174,198	238,444	-0,069	0,082
-173,183	-200,000	-0,040	-0,142
-172,169	-171,212	-0,135	-0,003
-171,154	59,039	-0,126	-0,088
-170,139	254,542	0,048	0,059
-169,125	663,719	0,039	0,071
-168,110	-200,000	0,016	0,132
-167,096	-63,479	0,134	0,039
-166,081	-98,697	-0,151	0,027
-165,066	-200,000	0,001	-0,080
-164,052	255,660	0,092	0,113
-163,037	-126,314	0,050	-0,005
-162,023	-200,000	0,006	0,081
-161,008	-200,000	0,020	-0,086
-159,993	187,377	-0,037	0,040
-158,979	-49,066	0,055	-0,018
-157,964	800,000	0,063	-0,181
-156,950	-110,417	-0,038	-0,005
-155,935	-43,740	0,064	-0,023
-154,920	203,842	0,064	0,071
-153,906	-114,340	0,105	0,014
-152,891	-150,155	-0,172	0,009
-151,877	800,000	0,027	-0,067
-150,862	-113,789	-0,103	0,014
-149,847	327,980	-0,023	-0,032
-148,833	442,089	0,058	-0,090
-147,818	-200,000	0,009	0,051
-146,804	-200,000	-0,001	0,021
-145,789	-200,000	-0,009	0,165
-144,775	-200,000	-0,002	-0,048
-143,760	234,442	0,051	0,060
-142,745	-24,834	-0,136	0,057
-141,731	212,159	-0,065	0,073
-140,716	-200,000	0,040	0,169
-139,702	111,930	-0,014	-0,012
-138,687	185,894	-0,085	0,090
-137,672	-31,224	0,058	0,023
-136,658	-20,491	-0,011	-0,005
-135,643	-17,429	-0,096	-0,043
-134,629	-107,237	0,051	0,008
-133,614	224,111	-0,040	0,046
-132,599	482,390	-0,052	0,085
-131,585	800,000	-0,049	0,129
-130,570	365,926	-0,030	-0,043
-129,556	22,292	0,057	0,033
-128,541	-145,749	-0,091	0,006
-127,526	-54,875	-0,111	-0,035
-126,512	407,638	0,097	-0,146
-125,497	70,929	0,050	-0,037
-124,483	-42,704	0,171	-0,061
-123,468	800,000	-0,063	0,132
-122,453	81,367	-0,035	-0,026
-121,439	-60,870	-0,139	-0,041
-120,424	-11,327	0,072	-0,034
-119,410	130,596	-0,038	0,035
-118,395	135,051	0,125	0,115
-117,380	4,384	-0,002	0,001
-116,366	29,471	0,083	0,050
-115,351	-200,000	0,001	-0,010
-114,337	394,009	0,060	-0,089
-113,322	-68,690	-0,165	-0,045
-112,307	-200,000	0,043	-0,147
-111,293	729,193	0,045	0,086
-110,278	224,039	0,066	-0,076
-109,264	200,507	-0,034	0,038
-108,249	-200,000	-0,023	-0,115
-107,234	192,358	0,023	-0,025
-106,220	11,678	-0,134	-0,073
-105,205	-200,000	0,003	-0,108
-104,191	-115,348	0,099	-0,013
-103,176	800,000	-0,024	-0,057
-102,162	90,811	-0,118	0,093
-101,147	-200,000	-0,007	-0,073
-100,132	390,669	-0,076	-0,112
-99,118	-200,000	-0,027	-0,134
-98,103	206,530	0,030	0,033
-97,089	800,000	0,062	0,153
-96,074	-129,587	-0,179	0,017
-95,059	-200,000	0,010	0,138
-94,045	-200,000	-0,015	0,124
-93,030	-200,000	0,017	-0,064
-92,016	-200,000	0,020	0,101
-91,001	587,269	0,039	-0,069
-89,986	-99,806	0,106	-0,019
-88,972	-200,000	0,080	0,000
-87,957	-200,000	0,006	-0,070
-86,943	-200,000	-0,009	0,084
-85,928	411,787	-0,058	-0,088
-84,913	371,654	-0,057	-0,082
-83,899	-130,276	-0,016	0,002
-82,884	332,336	0,035	-0,048
-81,870	-184,029	0,162	0,002
-80,855	42,196	-0,163	0,105
-79,840	-30,767	-0,133	-0,053
-78,826	-200,000	-0,071	-0,000
-77,811	113,276	0,033	-0,029
-76,797	-99,739	-0,127	-0,022
-75,782	-30,718	0,075	0,030
-74,767	-92,168	-0,088	-0,018
-73,753	445,849	-0,035	-0,055
-72,738	800,000	0,028	-0,061
-71,724	-200,000	0,015	-0,063
-70,709	-200,000	0,011	-0,141
-69,694	-200,000	0,015	-0,122
-68,680	438,362	0,029	0,044
-67,665	-9,618	0,053	0,025
-66,651	800,000	-0,072	0,172
-65,636	121,616	-0,040	-0,035
-64,622	467,447	-0,085	-0,135
-63,607	-200,000	0,019	-0,067
-62,592	-94,710	0,085	0,016
-61,578	-200,000	0,018	-0,080
-60,563	367,672	-0,091	0,130
-59,549	-29,041	-0,116	-0,047
-58,534	66,376	-2,185	-1,568
-57,519	507,382	-1,096	-1,804
-56,505	-200,000	-0,373	-4,348
-55,490	800,000	0,836	1,804
-54,476	800,000	5,116	11,247
-53,461	-200,000	22,424	346,470
-52,446	800,000	755,814	2283,842
-51,432	526,557	1638,818	2739,785
-50,417	66,905	1633,790	1174,699
-49,403	15,372	1497,415	828,295
-48,388	9,620	1413,959	755,055
-47,373	19,437	1405,359	796,226
-46,359	13,238	1393,800	761,015
-45,344	7,887	1389,344	733,788
-44,330	7,878	1387,583	732,791
-43,315	7,856	1385,888	731,764
-42,300	7,862	1384,026	730,779
-41,286	7,906	1382,784	730,298
-40,271	7,852	1381,860	729,529
-39,257	7,893	1380,741	729,099
-38,242	7,883	1379,497	728,370
-37,227	7,838	1378,595	727,658
-36,213	7,879	1377,193	727,075
-35,198	7,866	1376,059	726,386
-34,184	7,856	1375,406	725,968
-33,169	7,796	1374,061	724,955
-32,154	7,822	1373,105	724,542
-31,140	7,804	1371,875	723,783
-30,125	7,873	1370,469	723,327
-29,111	7,822	1369,525	722,564
-28,096	7,829	1368,380	721,966
-27,082	7,763	1367,323	721,077
-26,067	7,748	1366,296	720,440
-25,052	7,802	1365,298	720,130
-24,038	7,837	1364,353	719,763
-23,023	7,761	1363,567	718,972
-22,009	7,786	1362,478	718,484
-20,994	7,757	1361,589	717,854
-19,979	7,789	1360,509	717,403
-18,965	7,733	1359,733	716,711
-17,950	7,731	1358,740	716,150
-16,936	7,688	1357,911	715,491
-15,921	7,656	1356,853	714,760
-14,906	7,695	1355,866	714,388
-13,892	7,701	1355,041	713,954
-12,877	7,722	1354,188	713,568
-11,863	7,663	1353,486	712,903
-10,848	7,613	1352,734	712,254
-9,833	7,622	1351,675	711,708
-8,819	7,586	1350,912	711,117
-7,804	7,554	1350,004	710,467
-6,790	7,580	1349,032	710,042
-5,775	7,588	1348,030	709,524
-4,760	7,592	1347,134	709,041
-3,746	7,618	1345,956	708,512
-2,731	7,646	1345,342	708,287
-1,717	7,609	1344,363	707,577
-0,702	7,619	1342,731	706,735
0,313	11,555	1254,919	677,975
1,327	27,103	660,398	390,658
2,342	42,497	113,428	72,758
3,356	0,688	16,101	8,112
4,371	-4,114	3,887	1,895
5,386	7,093	1,386	0,728
6,400	800,000	0,272	0,582
7,415	-124,334	-0,155	-0,017
8,429	-13,329	-0,253	-0,116
9,444	144,477	-0,236	-0,222
10,459	-16,095	-0,226	-0,101
11,473	-52,395	-0,223	-0,072
12,488	-11,264	-0,214	-0,099
13,502	-50,045	-0,288	-0,096
14,517	-101,180	-0,367	-0,063
15,531	193,072	-0,335	-0,358
16,546	82,376	-0,277	-0,212
17,561	198,105	-0,246	-0,265
18,575	217,714	-0,197	-0,222
19,590	227,561	-0,175	-0,201
20,604	-16,083	-0,243	-0,108
21,619	-26,822	-0,502	-0,206
22,634	137,991	-0,403	-0,372
23,648	218,442	-0,376	-0,424
24,663	12,309	-0,377	-0,204
25,677	50,317	-0,320	-0,213
26,692	-97,957	-0,410	-0,074
27,707	209,496	-0,216	-0,239
28,721	70,466	-0,283	-0,206
29,736	144,545	-0,302	-0,285
30,750	89,990	-0,377	-0,296
31,765	183,821	-0,288	-0,301
32,780	93,543	-0,366	-0,292
33,794	109,769	-0,307	-0,259
34,809	699,917	-0,167	-0,310
35,823	-3,118	-0,394	-0,193
36,838	60,137	-0,276	-0,192
37,853	3,508	-0,385	-0,197
38,867	387,383	-0,250	-0,364
39,882	94,590	-0,282	-0,226
40,896	-14,522	-0,451	-0,204
41,911	10,668	-0,332	-0,178
42,926	207,502	-0,382	-0,421
43,940	122,664	-0,288	-0,253
44,955	128,729	-0,335	-0,300
45,969	186,004	-0,316	-0,331
46,984	86,157	-0,259	-0,200
47,999	22,526	-0,421	-0,242
49,013	-3,329	-0,366	-0,179
50,028	74,604	-0,385	-0,284
51,042	254,223	-0,230	-0,277
52,057	-66,674	-0,317	-0,088
53,071	139,373	-0,275	-0,254
54,086	2,717	-0,243	-0,124
55,101	-66,602	-0,414	-0,115
56,115	88,866	-0,278	-0,217
57,130	11,221	-0,339	-0,182
58,144	126,132	-0,295	-0,262
59,159	189,045	-0,284	-0,299
60,174	53,530	-0,414	-0,278
61,188	-8,099	-0,411	-0,194
62,203	112,814	-0,314	-0,267
63,217	-61,856	-0,255	-0,075
64,232	9,531	-0,416	-0,221
65,247	46,537	-0,213	-0,139
66,261	-49,416	-0,411	-0,137
67,276	225,716	-0,206	-0,235
68,290	234,975	-0,259	-0,301
69,305	-161,000	-0,314	-0,011
70,320	112,207	-0,149	-0,126
71,334	42,321	-0,404	-0,258
72,349	-48,338	-0,304	-0,102
73,363	-74,373	-0,443	-0,111
74,378	101,121	-0,279	-0,228
75,393	19,800	-0,206	-0,116
76,407	72,599	-0,378	-0,277
77,422	-51,963	-0,223	-0,072
78,436	9,714	-0,248	-0,131
79,451	51,608	-0,269	-0,179
80,466	165,058	-0,312	-0,309
81,480	-30,426	-0,404	-0,160
82,495	-9,234	-0,289	-0,135
83,509	185,448	-0,147	-0,154
84,524	-36,464	-0,330	-0,124
85,539	110,686	-0,243	-0,205
86,553	-123,294	-0,409	-0,045
87,568	43,540	-0,330	-0,211
88,582	37,757	-0,318	-0,198
89,597	25,698	-0,332	-0,193
90,611	43,660	-0,390	-0,250
91,626	-71,215	-0,301	-0,079
92,641	-58,353	-0,318	-0,096
93,655	-79,365	-0,205	-0,048
94,670	-46,897	-0,234	-0,080
95,684	42,083	-0,280	-0,178
96,699	-16,129	-0,321	-0,142
97,714	62,811	-0,272	-0,190
98,728	-131,375	-0,389	0,036
99,743	9,531	-0,154	-0,082
100,757	-48,079	-0,279	-0,094
101,772	-8,115	-0,331	-0,156
102,787	103,470	-0,294	-0,242
103,801	-66,975	-0,346	-0,095
104,816	112,148	-0,211	-0,179
105,830	345,530	-0,153	-0,211
106,845	-23,343	-0,246	-0,103
107,860	232,319	-0,202	-0,232
108,874	92,958	-0,245	-0,194
109,889	466,229	-0,144	-0,227
110,903	58,289	-0,225	-0,154
111,918	-159,520	-0,196	-0,007
112,933	183,511	-0,197	-0,204
113,947	26,997	-0,229	-0,134
114,962	-82,346	-0,312	-0,070
115,976	216,380	-0,234	-0,260
116,991	-83,327	-0,209	-0,047
118,006	90,844	-0,222	-0,174
119,020	-56,629	-0,196	-0,060
120,035	800,000	-0,058	-0,146
121,049	46,004	-0,244	-0,157
122,064	-98,352	-0,188	-0,033
123,079	34,581	-0,283	-0,172
124,093	-106,055	-0,232	-0,036
125,108	14,873	-0,305	-0,166
126,122	76,579	-0,288	-0,213
127,137	41,558	-0,231	-0,146
128,151	-34,915	-0,229	-0,087
129,166	277,982	-0,131	-0,164
130,181	469,743	-0,191	-0,301
131,195	22,614	-0,249	-0,142
132,210	66,041	-0,217	-0,154
133,224	-155,898	-0,165	-0,007
134,239	-113,095	-0,222	-0,030
135,254	0,678	-0,187	-0,093
136,268	-69,468	-0,142	-0,038
137,283	227,148	-0,154	-0,175
138,297	336,036	-0,183	-0,249
139,312	-105,477	-0,301	-0,047
140,327	80,749	-0,255	-0,192
141,341	-83,034	-0,115	-0,026
142,356	260,677	-0,178	-0,215
143,370	76,076	-0,186	-0,137
144,385	137,386	-0,206	-0,188
145,400	-17,858	-0,240	-0,105
146,414	46,040	-0,312	-0,201
147,429	32,726	-0,260	-0,156
148,443	620,225	-0,097	-0,171
149,458	75,264	-0,253	-0,186
150,473	-69,836	-0,180	-0,048
151,487	297,594	-0,136	-0,175
152,502	-9,859	-0,235	-0,109
153,516	14,898	-0,196	-0,106
154,531	325,884	-0,121	-0,162
155,546	-44,212	-0,159	-0,055
156,560	-80,238	-0,159	-0,037
157,575	-112,094	-0,330	-0,046
158,589	-59,259	-0,300	-0,089
159,604	106,944	-0,278	-0,230
160,619	-171,407	-0,265	0,006
161,633	6,925	-0,207	-0,107
162,648	20,625	-0,230	-0,129
163,662	170,520	-0,227	-0,226
164,677	207,953	-0,210	-0,229
165,692	218,499	-0,302	-0,336
166,706	150,795	-0,240	-0,227
167,721	-63,477	-0,224	-0,064
168,735	73,776	-0,184	-0,134
169,750	55,403	-0,205	-0,138
170,764	49,552	-0,228	-0,149
171,779	236,911	-0,060	-0,070
172,794	-143,117	-0,307	0,020
173,808	-15,326	-0,290	-0,128
174,823	180,657	-0,138	-0,141
175,837	194,699	-0,229	-0,242
176,852	540,089	-0,115	-0,192
177,867	95,022	-0,176	-0,139
178,881	58,225	-0,170	-0,115
179,896	-21,224	-0,176	0,075
180,910	61,630	-0,231	-0,160
181,925	246,665	-0,207	-0,243
182,940	357,509	-0,148	-0,206
183,954	-38,247	-0,349	-0,128
184,969	62,282	-0,236	-0,163
185,983	31,227	-0,202	-0,120
186,998	111,370	-0,225	-0,189
188,013	-80,113	-0,216	-0,050
189,027	226,749	-0,125	-0,141
190,042	132,178	-0,206	-0,184
191,056	56,631	-0,157	-0,106
192,071	33,177	-0,212	-0,127
193,086	16,536	-0,128	-0,070
194,100	-158,272	-0,197	-0,008
195,115	-132,928	-0,242	-0,021
196,129	666,283	-0,100	-0,180
197,144	-200,000	-0,040	-0,294
198,159	2,320	-0,201	-0,100
199,173	300,123	-0,198	-0,254
200,188	83,622	-0,172	-0,130
201,202	800,000	-0,072	-0,202
202,217	138,113	-0,216	-0,197
203,232	509,333	-0,123	-0,199
204,246	216,336	-0,181	-0,200
205,261	307,279	-0,138	-0,179
206,275	104,432	-0,106	0,087
207,290	113,627	-0,170	-0,143
208,304	237,208	-0,148	-0,171
209,319	11,762	-0,137	-0,073
210,334	315,920	-0,128	-0,168
211,348	-71,648	-0,312	-0,080
212,363	272,314	-0,177	-0,217
213,377	225,313	-0,205	-0,231
214,392	279,379	-0,120	-0,148
215,407	-24,665	-0,205	-0,084
216,421	8,034	-0,188	-0,097
217,436	48,816	-0,273	-0,177
218,450	88,503	-0,206	-0,159
219,465	69,415	-0,245	-0,174
220,480	56,991	-0,171	-0,116
221,494	296,895	-0,110	-0,140
222,509	-78,359	-0,281	-0,066
223,523	11,991	-0,151	-0,080
224,538	107,569	-0,200	-0,165
225,553	201,147	-0,186	-0,199
226,567	218,359	-0,220	-0,244
227,582	108,970	-0,114	-0,095
228,596	548,102	-0,113	-0,188
229,611	145,031	-0,198	-0,183
230,626	-55,449	-0,181	-0,056
231,640	-31,967	-0,247	-0,095
232,655	45,403	-0,186	-0,119
233,669	-20,594	-0,270	-0,114
234,684	103,747	-0,089	-0,073
235,699	800,000	-0,043	-0,130
236,713	11,278	-0,149	-0,079
237,728	-38,533	-0,179	-0,065
238,742	-21,622	-0,131	-0,055
239,757	-166,484	-0,174	0,005
240,772	-71,834	-0,206	-0,053
241,786	103,068	-0,138	-0,112
242,801	109,530	-0,178	-0,147
243,815	46,386	-0,155	-0,099
244,830	117,866	-0,164	-0,140
245,844	265,415	-0,104	-0,125
246,859	34,477	-0,255	-0,153
247,874	-46,542	-0,217	-0,073
248,888	119,985	-0,196	-0,168
249,903	-50,850	-0,235	-0,076
250,917	333,866	-0,079	-0,106
251,932	57,322	-0,121	-0,081
252,947	-54,297	-0,196	-0,061
253,961	325,829	-0,171	-0,226
254,976	145,064	-0,188	-0,174
255,990	111,069	-0,200	-0,166
257,005	509,272	-0,150	-0,241
258,020	-57,678	-0,079	0,024
259,034	-23,653	-0,052	-0,021
260,049	68,361	-0,165	-0,117
261,063	32,654	-0,167	-0,099
262,078	545,159	-0,084	-0,139
263,093	-37,616	-0,345	-0,126
264,107	147,075	-0,130	-0,121
265,122	-99,694	-0,135	-0,023
266,136	800,000	-0,069	-0,143
267,151	628,355	-0,080	-0,140
268,166	451,000	-0,073	-0,112
269,180	-178,219	-0,216	-0,003
270,195	109,630	-0,262	-0,216
271,209	59,648	-0,095	-0,064
272,224	53,257	-0,129	-0,085
273,239	-4,224	-0,125	-0,059
274,253	-143,149	-0,192	-0,013
275,268	-8,063	-0,261	-0,121
276,282	161,841	-0,197	-0,190
277,297	-50,319	-0,243	-0,079
278,312	37,080	-0,211	-0,128
279,326	-70,068	-0,126	-0,033
280,341	-123,309	-0,206	-0,022
281,355	89,156	-0,210	-0,161
282,370	-200,000	-0,024	-0,192
283,384	397,405	-0,085	-0,122
284,399	32,254	-0,132	-0,079
285,414	495,843	-0,114	-0,181
286,428	151,132	-0,210	-0,197
287,443	800,000	-0,072	-0,213
288,457	-150,779	-0,238	-0,012
289,472	123,234	-0,130	-0,113
290,487	68,875	-0,111	-0,079
291,501	56,758	-0,285	-0,191
292,516	800,000	-0,068	-0,146
293,530	800,000	-0,054	-0,149
294,545	-39,320	-0,124	0,044
295,560	800,000	-0,079	-0,160
296,574	171,189	-0,059	0,058
297,589	58,946	-0,135	-0,091
298,603	628,529	-0,187	-0,327
299,618	-200,000	-0,015	-0,113
300,633	800,000	-0,070	-0,136
301,647	-88,202	-0,125	0,026
302,662	295,472	-0,076	0,096
303,676	-110,909	-0,328	-0,046
304,691	-76,922	-0,135	-0,032
305,706	84,395	-0,202	-0,152
306,720	-200,000	-0,094	-0,316
307,735	-200,000	0,010	-0,098
308,749	49,898	-0,099	-0,064
309,764	71,828	-0,214	-0,153
310,779	-130,091	-0,290	-0,027
311,793	27,288	-0,261	-0,150
312,808	88,607	-0,168	-0,129
313,822	158,252	-0,182	-0,174
314,837	262,860	-0,158	-0,189
315,852	12,765	-0,207	-0,109
316,866	-99,666	-0,100	0,017
317,881	-107,716	-0,156	-0,023
318,895	565,649	-0,161	-0,270
319,910	425,520	-0,130	-0,193
320,925	-3,757	-0,180	-0,086
321,939	-151,953	-0,172	-0,008
322,954	800,000	-0,066	-0,145
323,968	-147,074	-0,197	0,011
324,983	-79,776	-0,092	-0,021
325,997	-18,633	-0,190	-0,081
327,012	-192,090	-0,071	-0,000
328,027	9,945	-0,221	-0,115
329,041	-176,841	-0,058	-0,001
330,056	-141,358	-0,127	-0,009
331,070	800,000	-0,058	-0,126
332,085	8,109	-0,106	-0,054
333,100	117,338	-0,159	0,134
334,114	-28,886	-0,241	-0,095
335,129	67,075	-0,150	-0,105
336,143	-36,360	-0,199	-0,073
337,158	-32,113	-0,099	0,038
338,173	311,131	-0,069	-0,089
339,187	533,445	-0,076	-0,124
340,202	797,857	-0,073	-0,138
341,216	174,085	-0,198	-0,196
342,231	305,964	-0,180	-0,231
343,246	-103,707	-0,176	-0,028
344,260	-200,000	-0,055	-0,185
345,275	247,216	-0,104	-0,121
346,289	385,924	-0,119	-0,169
347,304	554,961	-0,052	0,086
348,319	800,000	-0,064	-0,175
349,333	167,195	-0,096	-0,094
350,348	770,753	-0,132	-0,247
351,362	-39,703	-0,202	-0,072
352,377	47,699	-0,099	-0,063
353,392	-200,000	-0,034	0,118
354,406	121,426	-0,136	-0,116
355,421	205,455	1304,282	1389,649
356,435	157,970	1463,671	1390,103
