DTS Sentinel unit serial number:	SN410029Multiplexer serial number:	ORYXHardware model number:	OX2-SRSoftware version number:	ORYX F/W v4,00 Oryx Data Collector v3.7.2.0data status	okinstallation	B3 Nyhavnadifferential loss correction	single-endedforward channel	channel 1reverse channel	N/Adate	2023/12/03time	19:27:30forward acquisition time	300,00reverse acquisition time	0,00gamma	499,1914k internal	0,3198k external	0,3198temperature offset calibration	1,0000default loss term (dB/km)	0,3820temperature slope calibration	1,0000multiplexer offset coefficient	1,0000multiplexer slope coefficient	1,0000fibre end	0,00T internal ref (°C)	14,26T ext. ref 1 (°C)	-1,06T ext. ref 2 (°C)	-1,08length (m)	temperature (°C)	Stokes	anti-Stokes-744,400	596,549	-0,196	-0,355
-743,385	-200,000	0,022	0,108
-742,371	44,877	-0,178	-0,119
-741,356	-200,000	0,025	0,339
-740,342	12,129	-0,188	-0,105
-739,327	-200,000	0,067	0,371
-738,312	101,104	-0,272	-0,230
-737,298	-200,000	0,056	0,291
-736,283	71,733	-0,246	-0,186
-735,269	-200,000	-0,006	0,235
-734,254	467,902	-0,067	-0,109
-733,239	105,093	-0,158	0,136
-732,225	-200,000	-0,015	-0,149
-731,210	800,000	0,049	0,105
-730,196	800,000	-0,028	0,071
-729,181	-96,270	0,094	-0,018
-728,167	92,457	-0,032	-0,026
-727,152	800,000	0,030	0,085
-726,137	622,453	-0,013	-0,024
-725,123	-112,003	-0,197	0,029
-724,108	-200,000	0,002	-0,138
-723,094	99,392	-0,168	-0,141
-722,079	526,348	-0,080	-0,137
-721,064	110,550	-0,029	-0,025
-720,050	-46,233	-0,111	0,040
-719,035	-200,000	0,029	0,101
-718,021	399,865	-0,040	0,061
-717,006	569,821	-0,081	-0,145
-715,991	29,396	-0,102	-0,063
-714,977	-110,550	-0,016	0,002
-713,962	-72,373	-0,083	0,022
-712,948	800,000	0,062	0,136
-711,933	-200,000	0,008	0,038
-710,918	800,000	0,030	-0,079
-709,904	-48,780	-0,070	0,024
-708,889	308,880	-0,064	-0,087
-707,875	-106,007	-0,076	0,012
-706,860	92,244	0,023	0,019
-705,845	-8,506	0,066	0,032
-704,831	-200,000	-0,018	0,110
-703,816	105,802	-0,032	0,028
-702,802	523,529	-0,029	-0,050
-701,787	-200,000	0,023	-0,085
-700,772	-200,000	0,021	-0,079
-699,758	-48,123	-0,160	-0,056
-698,743	-129,270	-0,110	0,011
-697,729	300,601	0,035	-0,047
-696,714	18,367	0,042	-0,024
-695,699	-199,455	-0,037	0,000
-694,685	-81,417	0,079	0,019
-693,670	361,563	0,035	-0,052
-692,656	800,000	0,018	0,049
-691,641	-200,000	0,011	0,091
-690,627	66,888	0,041	-0,030
-689,612	1,566	0,079	-0,041
-688,597	-94,453	-0,053	-0,010
-687,583	-200,000	0,009	-0,070
-686,568	603,451	0,006	-0,011
-685,554	-200,000	-0,020	0,107
-684,539	-29,867	-0,017	0,007
-683,524	800,000	-0,066	0,177
-682,510	-200,000	-0,021	-0,075
-681,495	-200,000	-0,028	-0,152
-680,481	94,730	-0,141	-0,116
-679,466	129,868	-0,074	-0,069
-678,451	-25,111	0,062	0,027
-677,437	16,009	0,047	0,027
-676,422	40,306	-0,078	0,051
-675,408	-41,219	0,104	0,039
-674,393	-159,324	-0,071	0,003
-673,378	36,662	-0,094	-0,060
-672,364	-93,331	-0,103	0,021
-671,349	353,477	0,070	-0,101
-670,335	-200,000	0,005	0,082
-669,320	-200,000	-0,121	-0,000
-668,305	518,659	0,009	0,016
-667,291	-200,000	-0,012	-0,083
-666,276	-200,000	-0,027	-0,093
-665,262	-53,843	-0,120	0,039
-664,247	232,629	-0,113	-0,134
-663,232	-200,000	-0,017	-0,065
-662,218	800,000	0,016	0,037
-661,203	-175,159	-0,026	-0,001
-660,189	-10,770	0,098	0,047
-659,174	50,074	-0,114	-0,078
-658,159	-47,518	-0,100	0,035
-657,145	525,613	-0,081	0,140
-656,130	800,000	0,057	-0,156
-655,116	6,228	0,057	0,031
-654,101	79,065	0,105	-0,082
-653,086	-200,000	0,018	-0,108
-652,072	-86,966	-0,141	-0,031
-651,057	506,600	-0,053	-0,090
-650,043	244,047	-0,013	-0,016
-649,028	531,830	0,040	-0,069
-648,014	136,212	-0,025	0,023
-646,999	-200,000	0,014	0,090
-645,984	99,115	-0,063	-0,053
-644,970	90,306	0,051	0,041
-643,955	359,683	-0,028	0,040
-642,941	84,967	-0,078	0,062
-641,926	-7,632	0,050	-0,024
-640,911	-87,450	0,158	-0,034
-639,897	23,509	0,154	-0,092
-638,882	-41,100	-0,051	0,019
-637,868	210,916	0,019	0,022
-636,853	-106,405	-0,099	0,016
-635,838	104,729	0,015	0,013
-634,824	-200,000	-0,019	-0,215
-633,809	800,000	0,034	0,068
-632,795	549,151	0,031	0,054
-631,780	-200,000	-0,006	0,071
-630,765	-106,454	0,109	0,017
-629,751	-200,000	-0,009	-0,036
-628,736	-15,314	-0,035	-0,016
-627,722	268,607	0,037	-0,047
-626,707	-200,000	-0,032	-0,121
-625,692	800,000	0,045	-0,108
-624,678	-119,534	0,172	-0,021
-623,663	800,000	0,014	-0,035
-622,649	-177,259	-0,128	-0,002
-621,634	63,116	0,083	0,060
-620,619	-200,000	0,007	-0,032
-619,605	-200,000	-0,000	-0,030
-618,590	15,447	0,049	-0,028
-617,576	41,037	-0,065	0,042
-616,561	38,471	-0,029	0,019
-615,546	108,433	0,045	-0,039
-614,532	-200,000	0,005	-0,129
-613,517	-122,208	0,037	-0,004
-612,503	171,099	-0,033	0,034
-611,488	182,860	-0,083	0,089
-610,474	800,000	-0,012	-0,028
-609,459	-106,996	0,108	-0,017
-608,444	80,250	-0,062	-0,048
-607,430	543,420	-0,138	-0,239
-606,415	147,195	0,045	0,044
-605,401	-59,907	-0,042	0,013
-604,386	563,502	-0,024	0,042
-603,371	781,902	0,023	0,046
-602,357	-25,855	-0,097	0,041
-601,342	57,555	-0,123	0,087
-600,328	800,000	0,011	0,030
-599,313	198,314	-0,052	-0,058
-598,298	-200,000	-0,024	0,105
-597,284	294,341	-0,128	-0,170
-596,269	-35,913	0,274	0,107
-595,255	-112,365	-0,091	0,013
-594,240	-147,782	0,102	0,006
-593,225	800,000	-0,021	-0,053
-592,211	-200,000	-0,008	0,077
-591,196	-15,857	0,062	-0,028
-590,182	458,475	0,041	-0,066
-589,167	800,000	-0,043	-0,092
-588,152	13,091	-0,076	-0,042
-587,138	-44,564	-0,101	-0,036
-586,123	-38,399	0,120	0,046
-585,109	-101,107	0,214	-0,038
-584,094	1,019	-0,061	-0,031
-583,079	478,885	-0,025	0,040
-582,065	-65,210	-0,053	0,015
-581,050	-200,000	0,027	0,125
-580,036	241,790	-0,032	0,038
-579,021	-200,000	0,011	0,147
-578,006	161,516	0,069	-0,070
-576,992	800,000	0,038	-0,089
-575,977	-95,028	0,007	-0,001
-574,963	-200,000	0,000	0,029
-573,948	560,342	-0,094	-0,165
-572,934	-200,000	-0,010	0,035
-571,919	-22,271	-0,074	0,032
-570,904	183,929	0,039	-0,041
-569,890	-40,024	-0,038	-0,014
-568,875	166,839	-0,052	0,053
-567,861	800,000	0,042	0,095
-566,846	-76,496	0,051	0,013
-565,831	46,056	0,083	0,056
-564,817	-11,657	0,119	0,056
-563,802	800,000	-0,028	-0,066
-562,788	-153,291	-0,089	-0,004
-561,773	-200,000	-0,001	0,080
-560,758	152,144	0,076	0,075
-559,744	-89,416	0,103	0,022
-558,729	122,394	-0,083	0,075
-557,715	-150,305	-0,083	0,005
-556,700	-115,313	-0,069	-0,009
-555,685	-24,058	-0,133	-0,057
-554,671	-200,000	0,038	-0,127
-553,656	-65,029	-0,117	0,034
-552,642	800,000	0,071	0,178
-551,627	426,794	-0,139	0,217
-550,612	-121,389	0,036	0,004
-549,598	130,612	-0,082	0,076
-548,583	579,897	0,026	0,045
-547,569	19,054	0,123	0,071
-546,554	-200,000	-0,026	0,083
-545,539	329,643	-0,101	0,140
-544,525	-139,386	0,132	0,010
-543,510	81,119	-0,034	0,027
-542,496	-19,979	0,106	0,047
-541,481	636,302	-0,072	-0,133
-540,466	-158,184	0,081	0,003
-539,452	345,355	-0,056	0,080
-538,437	141,461	-0,061	-0,058
-537,423	-200,000	-0,004	-0,117
-536,408	-109,238	-0,026	-0,004
-535,393	-200,000	0,004	0,030
-534,379	104,254	-0,066	-0,056
-533,364	-41,962	-0,058	-0,021
-532,350	-116,842	-0,036	-0,005
-531,335	800,000	0,051	0,109
-530,321	557,998	-0,043	0,076
-529,306	-79,834	-0,060	-0,015
-528,291	455,103	-0,035	-0,056
-527,277	232,245	-0,042	-0,050
-526,262	374,240	0,085	0,125
-525,248	5,185	-0,097	0,051
-524,233	-123,047	0,149	0,017
-523,218	55,674	-0,020	-0,014
-522,204	-114,563	-0,181	-0,025
-521,189	-28,500	-0,131	-0,054
-520,175	-200,000	-0,006	0,038
-519,160	-145,688	-0,136	-0,009
-518,145	-105,197	0,061	-0,010
-517,131	262,507	0,045	0,056
-516,116	-58,801	-0,044	0,014
-515,102	-200,000	0,017	-0,082
-514,087	-50,915	-0,117	0,040
-513,072	-200,000	0,018	-0,059
-512,058	-14,396	0,115	-0,053
-511,043	-200,000	-0,007	0,248
-510,029	800,000	0,009	-0,022
-509,014	800,000	0,055	-0,136
-507,999	-137,423	-0,082	0,007
-506,985	-200,000	0,016	-0,080
-505,970	61,331	-0,052	0,037
-504,956	668,947	0,036	-0,067
-503,941	-49,067	-0,102	0,035
-502,926	-200,000	-0,014	-0,054
-501,912	115,847	-0,032	0,029
-500,897	-200,000	-0,039	0,133
-499,883	800,000	-0,027	-0,083
-498,868	-83,012	-0,153	-0,035
-497,853	-200,000	0,013	-0,152
-496,839	69,750	0,162	-0,120
-495,824	682,863	-0,026	0,049
-494,810	131,231	0,098	-0,091
-493,795	365,417	-0,060	-0,088
-492,781	109,916	0,066	-0,057
-491,766	-101,588	-0,133	-0,023
-490,751	134,819	-0,068	-0,064
-489,737	-77,308	0,085	-0,021
-488,722	77,321	-0,106	-0,081
-487,708	-200,000	0,014	0,095
-486,693	-151,913	0,079	-0,004
-485,678	-116,286	0,070	0,009
-484,664	356,445	0,101	-0,145
-483,649	-20,299	0,111	0,049
-482,635	800,000	0,038	0,088
-481,620	7,918	0,063	-0,034
-480,605	-200,000	0,020	0,138
-479,591	58,447	-0,023	0,016
-478,576	-113,735	-0,079	0,011
-477,562	143,311	-0,068	-0,065
-476,547	-128,191	-0,103	-0,010
-475,532	29,533	-0,122	-0,075
-474,518	800,000	-0,104	0,229
-473,503	104,810	0,033	-0,028
-472,489	-161,949	-0,150	-0,005
-471,474	159,366	0,056	-0,056
-470,459	236,976	-0,158	-0,189
-469,445	524,714	0,055	0,093
-468,430	-17,278	0,060	0,027
-467,416	216,738	-0,061	0,070
-466,401	-185,465	0,123	0,001
-465,386	14,045	0,051	0,029
-464,372	-200,000	-0,021	0,088
-463,357	344,251	0,034	0,048
-462,343	-15,461	-0,033	-0,015
-461,328	-200,000	0,032	0,152
-460,313	-83,123	-0,008	-0,002
-459,299	-64,896	0,103	-0,030
-458,284	800,000	-0,019	-0,053
-457,270	-28,179	0,079	0,033
-456,255	800,000	-0,037	-0,095
-455,241	-154,572	0,080	0,004
-454,226	642,503	-0,025	-0,046
-453,211	527,448	0,055	0,094
-452,197	21,485	0,075	0,044
-451,182	8,998	0,088	0,048
-450,168	95,121	0,146	0,120
-449,153	-200,000	-0,002	0,026
-448,138	-84,612	0,077	0,017
-447,124	800,000	0,021	-0,049
-446,109	369,083	-0,052	-0,076
-445,095	175,514	0,024	0,025
-444,080	-136,703	0,071	-0,006
-443,065	534,481	0,059	0,101
-442,051	-38,645	0,059	-0,022
-441,036	6,724	-0,085	0,045
-440,022	800,000	-0,040	0,104
-439,007	-200,000	-0,005	-0,032
-437,992	510,197	0,093	0,156
-436,978	225,422	-0,039	0,045
-435,963	125,735	0,058	-0,052
-434,949	166,868	-0,027	-0,028
-433,934	-200,000	0,016	0,177
-432,919	-200,000	-0,015	-0,208
-431,905	752,201	0,019	-0,037
-430,890	55,299	0,122	-0,085
-429,876	38,977	0,111	0,071
-428,861	699,082	-0,040	-0,076
-427,846	144,246	0,048	-0,047
-426,832	171,397	-0,071	-0,073
-425,817	800,000	-0,032	0,092
-424,803	176,365	0,073	0,076
-423,788	682,321	-0,022	-0,041
-422,773	14,848	-0,065	0,037
-421,759	-200,000	-0,014	0,195
-420,744	-41,711	0,083	0,030
-419,730	-200,000	0,010	0,118
-418,715	38,855	-0,077	-0,049
-417,701	-115,367	0,168	0,022
-416,686	383,619	-0,029	-0,043
-415,671	300,983	0,088	0,117
-414,657	800,000	0,030	0,075
-413,642	27,754	-0,064	0,038
-412,628	171,854	-0,076	-0,078
-411,613	800,000	-0,072	0,169
-410,598	-104,844	0,103	0,017
-409,584	-43,356	0,079	-0,029
-408,569	297,917	0,049	-0,064
-407,555	6,634	0,089	-0,047
-406,540	202,445	0,043	0,047
-405,525	-125,657	-0,064	0,007
-404,511	-200,000	-0,007	-0,055
-403,496	197,557	0,037	-0,041
-402,482	-200,000	-0,002	-0,058
-401,467	616,077	0,050	0,091
-400,452	-71,477	-0,093	0,025
-399,438	155,592	0,068	0,068
-398,423	246,216	0,059	0,072
-397,409	364,904	-0,104	-0,151
-396,394	-27,741	-0,082	0,034
-395,379	-200,000	-0,031	0,154
-394,365	127,220	-0,138	0,126
-393,350	-14,456	-0,077	0,036
-392,336	468,733	-0,026	-0,043
-391,321	-200,000	-0,010	-0,123
-390,306	272,840	-0,157	-0,200
-389,292	-200,000	0,034	-0,238
-388,277	-18,416	0,124	0,055
-387,263	800,000	0,023	0,047
-386,248	-128,416	-0,079	-0,008
-385,233	-27,639	0,162	0,067
-384,219	-200,000	-0,191	0,000
-383,204	-86,949	0,146	-0,032
-382,190	-200,000	0,000	-0,104
-381,175	-39,600	-0,085	-0,032
-380,160	-127,726	0,137	0,014
-379,146	-58,092	0,060	-0,019
-378,131	206,485	0,046	-0,051
-377,117	-28,906	-0,096	-0,039
-376,102	153,872	0,037	0,036
-375,088	-26,245	-0,078	0,033
-374,073	-200,000	-0,022	-0,088
-373,058	-200,000	0,031	-0,110
-372,044	432,636	0,124	0,193
-371,029	358,724	0,070	-0,100
-370,015	130,620	0,053	0,049
-369,000	191,090	-0,101	-0,109
-367,985	58,695	-0,060	-0,042
-366,971	118,120	-0,041	0,036
-365,956	-200,000	-0,008	0,080
-364,942	124,852	-0,032	-0,029
-363,927	-47,768	0,061	0,021
-362,912	312,330	0,034	-0,045
-361,898	-54,343	-0,051	0,017
-360,883	133,765	0,036	-0,034
-359,869	-141,996	-0,040	-0,003
-358,854	120,900	0,077	0,069
-357,839	-200,000	0,019	0,102
-356,825	800,000	0,043	0,122
-355,810	-115,778	-0,068	0,009
-354,796	800,000	-0,059	0,146
-353,781	58,415	-0,033	-0,023
-352,766	528,390	0,080	-0,136
-351,752	96,263	-0,079	0,064
-350,737	-95,953	-0,024	0,005
-349,723	800,000	-0,044	0,127
-348,708	-200,000	0,029	0,138
-347,693	-139,981	-0,225	0,017
-346,679	800,000	-0,029	0,062
-345,664	-200,000	-0,005	-0,061
-344,650	19,901	0,038	-0,022
-343,635	364,213	-0,099	0,143
-342,620	215,260	0,021	0,024
-341,606	-47,309	-0,116	0,040
-340,591	48,976	0,063	-0,043
-339,577	547,306	0,060	-0,103
-338,562	540,610	0,015	-0,025
-337,548	-140,883	0,086	0,006
-336,533	-116,507	0,120	0,016
-335,518	-137,919	0,099	0,008
-334,504	-200,000	0,015	-0,097
-333,489	-128,492	-0,027	0,003
-332,475	596,631	-0,009	0,015
-331,460	-97,878	-0,111	-0,020
-330,445	800,000	-0,030	-0,083
-329,431	139,997	0,091	-0,086
-328,416	-30,463	0,042	-0,017
-327,402	608,664	-0,050	-0,090
-326,387	-200,000	0,017	-0,071
-325,372	-200,000	-0,034	-0,136
-324,358	-200,000	-0,034	0,112
-323,343	-71,974	-0,092	0,024
-322,329	800,000	-0,018	0,038
-321,314	-87,298	0,134	0,029
-320,299	-29,580	-0,088	-0,036
-319,285	800,000	-0,022	0,043
-318,270	14,052	0,054	-0,030
-317,256	-96,678	0,076	0,014
-316,241	-94,135	-0,108	0,021
-315,226	27,512	-0,150	0,090
-314,212	671,650	0,083	-0,155
-313,197	-48,751	0,091	-0,031
-312,183	-200,000	0,026	0,195
-311,168	-156,342	0,073	-0,003
-310,153	-200,000	-0,008	0,036
-309,139	89,276	-0,053	0,043
-308,124	-140,783	0,051	0,004
-307,110	2,507	-0,084	0,043
-306,095	-13,595	-0,090	0,041
-305,080	-200,000	-0,019	0,180
-304,066	-200,000	-0,042	-0,140
-303,051	-73,092	0,184	0,048
-302,037	-200,000	-0,017	-0,066
-301,022	-200,000	0,042	-0,139
-300,008	-128,503	0,182	0,018
-298,993	-200,000	-0,012	0,050
-297,978	-200,000	-0,013	0,056
-296,964	-111,135	0,032	0,005
-295,949	-144,153	-0,043	0,003
-294,935	-153,255	-0,066	0,003
-293,920	-200,000	0,003	-0,121
-292,905	-200,000	0,007	0,059
-291,891	556,909	0,076	0,132
-290,876	-114,686	0,056	-0,008
-289,862	253,240	-0,065	-0,079
-288,847	-200,000	-0,032	-0,187
-287,832	397,406	-0,044	-0,066
-286,818	-46,300	0,053	0,018
-285,803	-200,000	0,016	0,102
-284,789	800,000	-0,045	-0,096
-283,774	38,000	0,111	-0,070
-282,759	-43,181	0,086	0,031
-281,745	-200,000	0,048	-0,156
-280,730	99,104	-0,046	0,038
-279,716	-52,841	-0,024	-0,008
-278,701	-87,699	0,064	0,014
-277,686	-101,306	-0,095	-0,016
-276,672	-200,000	0,004	0,098
-275,657	429,913	-0,018	-0,027
-274,643	-200,000	-0,017	-0,115
-273,628	-200,000	0,008	-0,195
-272,613	165,512	0,026	0,026
-271,599	-109,507	-0,088	-0,013
-270,584	44,213	0,016	-0,010
-269,570	-75,849	-0,058	-0,015
-268,555	-15,200	-0,080	0,037
-267,540	127,216	-0,138	0,125
-266,526	202,876	-0,071	-0,079
-265,511	157,342	-0,121	0,120
-264,497	-5,948	0,034	0,017
-263,482	412,387	0,053	-0,081
-262,467	-200,000	0,003	-0,041
-261,453	441,476	0,018	-0,029
-260,438	-200,000	0,019	-0,071
-259,424	-200,000	0,002	-0,035
-258,409	389,241	-0,028	0,042
-257,395	151,257	0,031	-0,031
-256,380	800,000	0,032	-0,082
-255,365	94,400	0,033	0,027
-254,351	-41,876	-0,046	-0,017
-253,336	644,778	0,050	0,091
-252,322	122,018	0,062	-0,055
-251,307	-200,000	0,002	-0,026
-250,292	800,000	-0,026	-0,057
-249,278	730,049	0,035	-0,066
-248,263	526,442	0,036	0,061
-247,249	800,000	-0,013	-0,040
-246,234	18,904	-0,066	-0,038
-245,219	800,000	-0,045	-0,107
-244,205	-74,632	-0,027	-0,007
-243,190	77,310	-0,084	-0,064
-242,176	800,000	0,052	-0,125
-241,161	62,081	0,161	0,115
-240,146	79,660	0,057	0,044
-239,132	800,000	-0,022	-0,059
-238,117	-200,000	-0,013	0,114
-237,103	72,474	0,049	-0,036
-236,088	-8,801	-0,089	0,042
-235,073	13,060	0,038	0,021
-234,059	13,241	0,060	0,033
-233,044	4,666	0,028	0,015
-232,030	-200,000	-0,013	0,073
-231,015	800,000	-0,027	-0,057
-230,000	77,609	0,069	-0,053
-228,986	451,291	-0,019	-0,030
-227,971	-43,609	-0,042	0,015
-226,957	-200,000	0,045	0,149
-225,942	304,462	-0,077	-0,103
-224,927	800,000	0,061	0,136
-223,913	-99,964	0,014	0,002
-222,898	-59,842	-0,059	-0,018
-221,884	800,000	-0,034	0,072
-220,869	-200,000	-0,029	0,110
-219,855	-88,930	0,201	-0,042
-218,840	697,058	-0,003	-0,007
-217,825	-73,502	0,087	-0,023
-216,811	70,311	-0,075	0,055
-215,796	-200,000	0,032	-0,116
-214,782	96,207	-0,104	-0,085
-213,767	78,477	0,049	0,037
-212,752	658,999	0,062	-0,113
-211,738	19,680	0,120	0,069
-210,723	800,000	-0,025	-0,067
-209,709	-200,000	0,023	-0,084
-208,694	-200,000	-0,000	-0,013
-207,679	-106,631	-0,165	-0,026
-206,665	779,041	-0,038	-0,075
-205,650	-200,000	-0,000	-0,002
-204,636	73,461	0,112	-0,084
-203,621	137,179	-0,101	-0,094
-202,606	-130,825	-0,193	-0,018
-201,592	235,078	0,019	0,023
-200,577	13,606	-0,029	0,016
-199,563	-200,000	0,006	0,038
-198,548	-114,187	0,051	-0,007
-197,533	800,000	0,030	0,082
-196,519	502,313	-0,021	-0,034
-195,504	42,060	-0,052	0,034
-194,490	-100,434	-0,138	-0,024
-193,475	-161,797	-0,064	0,002
-192,460	800,000	0,021	0,047
-191,446	64,907	0,021	-0,015
-190,431	-200,000	0,020	0,161
-189,417	800,000	0,015	-0,042
-188,402	-30,626	0,063	-0,025
-187,387	169,878	-0,070	-0,071
-186,373	571,041	-0,088	-0,153
-185,358	-200,000	-0,001	-0,064
-184,344	-101,439	-0,026	-0,004
-183,329	-200,000	-0,012	0,185
-182,315	47,718	0,053	0,035
-181,300	-8,163	0,069	0,033
-180,285	728,730	-0,026	0,049
-179,271	27,410	-0,071	-0,043
-178,256	184,026	0,031	0,032
-177,242	-200,000	0,005	0,025
-176,227	-200,000	-0,025	0,118
-175,212	-112,812	0,144	-0,020
-174,198	-200,000	-0,023	0,132
-173,183	32,518	-0,169	-0,104
-172,169	800,000	0,045	-0,121
-171,154	-10,037	0,070	0,033
-170,139	800,000	-0,049	0,139
-169,125	69,251	0,055	0,040
-168,110	-200,000	-0,020	-0,110
-167,096	-195,952	0,091	0,000
-166,081	317,338	0,053	-0,072
-165,066	1,456	-0,084	0,043
-164,052	800,000	0,049	-0,099
-163,037	614,242	0,084	-0,151
-162,023	24,096	0,056	0,033
-161,008	177,211	0,072	0,075
-159,993	800,000	-0,023	-0,051
-158,979	334,874	-0,018	0,025
-157,964	-80,091	0,009	-0,002
-156,950	-123,099	-0,081	-0,009
-155,935	33,612	0,052	0,032
-154,920	783,972	-0,034	-0,067
-153,906	-73,193	0,054	0,014
-152,891	81,846	-0,085	-0,066
-151,877	335,627	-0,045	-0,062
-150,862	-75,346	0,015	-0,004
-149,847	-114,259	0,077	0,010
-148,833	101,735	0,097	0,080
-147,818	385,289	0,112	0,164
-146,804	54,015	0,053	0,036
-145,789	132,249	-0,081	0,075
-144,775	-38,912	-0,107	-0,040
-143,760	-92,046	0,071	-0,014
-142,745	800,000	-0,041	-0,088
-141,731	-200,000	0,006	0,139
-140,716	82,799	0,100	-0,077
-139,702	131,055	-0,067	0,061
-138,687	-200,000	-0,028	-0,101
-137,672	-31,225	-0,125	-0,050
-136,658	260,915	-0,012	0,015
-135,643	-156,485	-0,061	-0,003
-134,629	280,124	0,086	0,109
-133,614	-200,000	0,028	0,187
-132,599	216,960	0,014	-0,016
-131,585	185,005	0,067	0,071
-130,570	659,007	-0,022	0,041
-129,556	-82,156	-0,137	0,032
-128,541	-200,000	-0,001	0,038
-127,526	770,161	0,031	0,061
-126,512	-22,186	0,199	0,086
-125,497	800,000	0,047	0,105
-124,483	-108,396	0,120	-0,018
-123,468	109,547	-0,055	-0,047
-122,453	-200,000	-0,041	0,157
-121,439	358,275	0,035	0,050
-120,424	3,045	-0,038	-0,019
-119,410	14,637	0,175	0,097
-118,395	31,475	0,064	0,039
-117,380	-200,000	-0,009	-0,048
-116,366	131,381	-0,087	0,080
-115,351	-100,711	-0,083	0,014
-114,337	-200,000	-0,014	-0,083
-113,322	800,000	0,050	0,102
-112,307	800,000	0,012	-0,034
-111,293	-200,000	0,020	0,081
-110,278	-200,000	0,025	0,123
-109,264	800,000	-0,027	0,067
-108,249	-48,576	0,111	-0,038
-107,234	-169,751	-0,070	0,002
-106,220	139,766	0,036	-0,034
-105,205	-200,000	0,015	0,058
-104,191	-21,022	0,111	-0,048
-103,176	-84,161	-0,059	0,013
-102,162	-200,000	-0,013	0,106
-101,147	-200,000	-0,037	0,132
-100,132	-64,641	-0,107	0,031
-99,118	167,141	0,045	0,045
-98,103	-62,864	-0,104	-0,030
-97,089	-200,000	-0,008	-0,027
-96,074	406,999	0,076	0,115
-95,059	419,814	0,047	0,071
-94,045	245,371	-0,101	-0,121
-93,030	503,171	-0,046	-0,076
-92,016	-200,000	-0,003	0,012
-91,001	-93,891	0,085	-0,016
-89,986	239,118	-0,041	0,048
-88,972	-28,148	-0,091	-0,037
-87,957	4,096	0,053	-0,028
-86,943	49,890	-0,186	-0,124
-85,928	800,000	0,049	-0,130
-84,913	800,000	0,026	0,063
-83,899	470,442	-0,011	-0,017
-82,884	265,863	-0,029	-0,036
-81,870	-200,000	0,002	0,072
-80,855	60,687	0,082	0,057
-79,840	-200,000	0,032	0,116
-78,826	-200,000	-0,012	-0,171
-77,811	-155,423	-0,033	-0,001
-76,797	426,824	-0,037	0,057
-75,782	-83,091	0,008	-0,002
-74,767	-5,225	-0,064	0,031
-73,753	-200,000	0,031	0,097
-72,738	-200,000	-0,006	-0,048
-71,724	-200,000	-0,015	0,085
-70,709	125,468	-0,066	-0,059
-69,694	-182,861	0,094	-0,001
-68,680	-200,000	-0,025	-0,101
-67,665	-200,000	0,004	-0,110
-66,651	-8,593	0,066	0,031
-65,636	-113,631	-0,155	0,021
-64,622	-97,520	-0,093	-0,017
-63,607	164,568	-0,092	-0,092
-62,592	-47,905	-0,158	0,054
-61,578	7,043	-0,056	0,029
-60,563	-11,436	0,040	-0,019
-59,549	710,443	-0,121	0,229
-58,534	-39,252	-1,598	-0,592
-57,519	507,336	-1,230	-2,030
-56,505	-200,000	-0,512	-4,478
-55,490	278,526	0,919	1,164
-54,476	800,000	4,723	11,067
-53,461	-200,000	18,645	301,719
-52,446	800,000	734,587	2279,377
-51,432	564,738	1651,129	2846,450
-50,417	78,842	1669,280	1264,342
-49,403	22,217	1541,864	889,787
-48,388	16,110	1464,941	815,732
-47,373	17,775	1455,092	818,256
-46,359	16,955	1445,300	808,786
-45,344	14,390	1440,815	793,961
-44,330	14,324	1438,631	792,410
-43,315	14,307	1436,867	791,326
-42,300	14,350	1435,346	790,665
-41,286	14,348	1434,159	789,966
-40,271	14,361	1432,559	789,117
-39,257	14,309	1431,669	788,351
-38,242	14,388	1430,178	787,871
-37,227	14,384	1428,884	787,111
-36,213	14,433	1427,742	786,680
-35,198	14,347	1426,630	785,630
-34,184	14,429	1425,563	785,400
-33,169	14,332	1424,096	784,102
-32,154	14,395	1423,262	783,907
-31,140	14,375	1421,961	783,068
-30,125	14,374	1420,733	782,353
-29,111	14,406	1419,616	781,860
-28,096	14,344	1418,493	780,916
-27,082	14,289	1417,438	780,046
-26,067	14,300	1416,190	779,379
-25,052	14,308	1415,272	778,880
-24,038	14,282	1414,569	778,342
-23,023	14,312	1413,178	777,686
-22,009	14,279	1412,433	777,091
-20,994	14,277	1411,397	776,482
-19,979	14,195	1410,850	775,766
-18,965	14,186	1409,628	775,019
-17,950	14,196	1408,852	774,609
-16,936	14,190	1407,953	774,058
-15,921	14,181	1406,585	773,229
-14,906	14,199	1405,761	772,830
-13,892	14,198	1404,987	772,369
-12,877	14,224	1404,036	771,937
-11,863	14,203	1403,125	771,308
-10,848	14,187	1402,225	770,710
-9,833	14,115	1401,435	769,911
-8,819	14,116	1400,408	769,319
-7,804	14,109	1399,481	768,744
-6,790	14,113	1398,319	768,094
-5,775	14,099	1397,237	767,405
-4,760	14,079	1396,580	766,920
-3,746	14,093	1395,590	766,412
-2,731	14,113	1394,868	766,078
-1,717	14,082	1393,960	765,408
-0,702	14,064	1391,980	764,205
0,313	17,957	1310,226	737,351
1,327	34,410	705,835	435,343
2,342	52,591	124,007	83,729
3,356	1,687	16,704	8,491
4,371	8,229	3,191	1,692
5,386	-5,722	0,483	0,233
6,400	-200,000	0,082	0,301
7,415	366,709	-0,079	-0,113
8,429	0,942	-0,347	-0,176
9,444	-21,676	-0,386	-0,166
10,459	10,319	-0,313	-0,168
11,473	31,900	-0,387	-0,236
12,488	-32,984	-0,347	-0,135
13,502	0,840	-0,276	-0,139
14,517	-44,365	-0,543	-0,191
15,531	-45,975	-0,416	-0,144
16,546	33,688	-0,415	-0,255
17,561	202,206	-0,331	-0,361
18,575	243,304	-0,130	-0,155
19,590	253,608	-0,232	-0,281
20,604	25,986	-0,286	-0,168
21,619	93,377	-0,370	-0,296
22,634	25,308	-0,443	-0,260
23,648	84,837	-0,520	-0,402
24,663	27,810	-0,396	-0,235
25,677	60,895	-0,189	-0,132
26,692	37,820	-0,374	-0,235
27,707	35,793	-0,469	-0,291
28,721	122,076	-0,264	-0,233
29,736	-39,359	-0,279	-0,103
30,750	-8,181	-0,373	-0,177
31,765	25,216	-0,381	-0,223
32,780	476,008	-0,261	-0,418
33,794	26,649	-0,328	-0,194
34,809	72,222	-0,318	-0,233
35,823	29,689	-0,372	-0,223
36,838	104,052	-0,328	-0,272
37,853	102,849	-0,503	-0,416
38,867	264,870	-0,266	-0,328
39,882	800,000	-0,129	-0,394
40,896	-42,157	-0,433	-0,156
41,911	120,772	-0,297	-0,260
42,926	-68,082	-0,508	-0,139
43,940	7,577	-0,377	-0,199
44,955	157,469	-0,295	-0,289
45,969	112,682	-0,303	-0,258
46,984	35,740	-0,283	-0,175
47,999	32,212	-0,286	-0,174
49,013	31,807	-0,320	-0,194
50,028	130,762	-0,338	-0,306
51,042	140,960	-0,320	-0,298
52,057	202,219	-0,253	-0,276
53,071	-19,290	-0,329	-0,143
54,086	2,645	-0,367	-0,187
55,101	43,187	-0,353	-0,227
56,115	81,577	-0,300	-0,229
57,130	25,492	-0,347	-0,203
58,144	52,968	-0,529	-0,356
59,159	-15,135	-0,439	-0,197
60,174	141,542	-0,225	-0,210
61,188	-50,264	-0,350	-0,116
62,203	-6,736	-0,347	-0,166
63,217	23,524	-0,357	-0,206
64,232	-49,971	-0,424	-0,141
65,247	-14,968	-0,360	-0,162
66,261	24,593	-0,330	-0,192
67,276	-26,915	-0,344	-0,141
68,290	160,065	-0,234	-0,230
69,305	54,249	-0,265	-0,179
70,320	-109,055	-0,341	-0,051
71,334	26,550	-0,308	-0,181
72,349	14,947	-0,336	-0,184
73,363	63,463	-0,357	-0,252
74,378	308,103	-0,134	-0,177
75,393	-21,496	-0,280	-0,120
76,407	131,431	-0,200	-0,181
77,422	64,514	-0,196	-0,139
78,436	17,968	-0,391	-0,218
79,451	21,004	-0,303	-0,172
80,466	34,491	-0,313	-0,192
81,480	81,566	-0,408	-0,310
82,495	-50,364	-0,386	-0,128
83,509	-11,536	-0,267	-0,123
84,524	112,760	-0,232	-0,197
85,539	28,399	-0,363	-0,215
86,553	156,263	-0,302	-0,293
87,568	91,770	-0,213	-0,168
88,582	21,168	-0,251	-0,143
89,597	52,546	-0,291	-0,195
90,611	114,643	-0,238	-0,204
91,626	132,507	-0,213	-0,193
92,641	-12,860	-0,185	-0,084
93,655	99,826	-0,290	-0,236
94,670	232,519	-0,181	-0,209
95,684	-136,564	-0,486	-0,039
96,699	-23,027	-0,322	-0,135
97,714	-54,397	-0,371	-0,117
98,728	32,989	-0,351	-0,213
99,743	149,426	-0,205	-0,195
100,757	800,000	-0,111	-0,229
101,772	110,218	-0,247	-0,208
102,787	67,426	-0,268	-0,192
103,801	-11,263	-0,376	-0,173
104,816	-36,446	-0,228	-0,086
105,830	65,515	-0,122	-0,086
106,845	22,943	-0,280	-0,161
107,860	40,141	-0,297	-0,187
108,874	306,697	-0,216	-0,283
109,889	65,853	-0,318	-0,226
110,903	155,320	-0,176	-0,170
111,918	-26,223	-0,227	-0,093
112,933	89,612	-0,240	-0,187
113,947	11,090	-0,290	-0,155
114,962	376,570	-0,135	-0,194
115,976	-90,440	-0,327	-0,066
116,991	490,634	-0,163	-0,263
118,006	113,969	-0,225	-0,192
119,020	-34,007	-0,291	-0,112
120,035	8,610	-0,222	-0,117
121,049	173,385	-0,265	-0,268
122,064	-5,171	-0,234	-0,112
123,079	-3,705	-0,317	-0,154
124,093	230,974	-0,191	-0,220
125,108	-48,798	-0,213	-0,071
126,122	194,609	-0,193	-0,205
127,137	67,261	-0,243	-0,173
128,151	-33,610	-0,290	-0,112
129,166	-18,393	-0,297	-0,130
130,181	59,086	-0,307	-0,211
131,195	-58,468	-0,277	-0,084
132,210	107,010	-0,232	-0,193
133,224	153,024	-0,222	-0,212
134,239	0,580	-0,223	-0,111
135,254	-120,899	-0,248	-0,029
136,268	50,578	-0,300	-0,198
137,283	640,591	-0,161	-0,288
138,297	50,440	-0,318	-0,210
139,312	-44,172	-0,299	-0,104
140,327	-111,160	-0,335	-0,047
141,341	104,296	-0,209	-0,172
142,356	-3,652	-0,239	-0,116
143,370	47,162	-0,305	-0,198
144,385	-18,343	-0,211	-0,092
145,400	-41,290	-0,328	-0,118
146,414	371,222	-0,174	-0,248
147,429	297,802	-0,122	-0,157
148,443	203,318	-0,247	-0,267
149,458	237,922	-0,245	-0,285
150,473	4,721	-0,278	-0,142
151,487	135,838	-0,178	-0,162
152,502	127,670	-0,229	-0,204
153,516	-70,539	-0,354	-0,093
154,531	59,915	-0,290	-0,200
155,546	29,979	-0,281	-0,167
156,560	258,183	-0,155	-0,187
157,575	-28,619	-0,229	-0,092
158,589	-36,062	-0,235	-0,088
159,604	40,624	-0,249	-0,156
160,619	61,927	-0,332	-0,231
161,633	430,839	-0,190	-0,288
162,648	262,692	-0,269	-0,326
163,662	205,654	-0,252	-0,274
164,677	-25,925	-0,186	-0,076
165,692	26,287	-0,223	-0,130
166,706	6,369	-0,236	-0,122
167,721	-95,591	-0,285	-0,053
168,735	138,439	-0,175	-0,160
169,750	-119,571	-0,267	-0,032
170,764	-35,423	-0,197	-0,074
171,779	-200,000	-0,083	-0,284
172,794	119,344	-0,279	-0,241
173,808	174,549	-0,129	-0,131
174,823	113,014	-0,249	-0,210
175,837	92,858	-0,287	-0,226
176,852	-21,633	-0,138	-0,058
177,867	-11,556	-0,232	-0,106
178,881	419,128	-0,145	-0,218
179,896	260,979	-0,225	-0,272
180,910	116,459	-0,253	-0,217
181,925	192,463	-0,265	-0,279
182,940	265,944	-0,238	-0,290
183,954	-55,550	-0,169	-0,053
184,969	-97,372	-0,239	-0,043
185,983	800,000	-0,033	-0,074
186,998	228,067	-0,119	-0,136
188,013	-79,236	-0,223	-0,052
189,027	800,000	-0,159	-0,351
190,042	128,948	-0,190	-0,169
191,056	28,037	-0,310	-0,181
192,071	6,763	-0,134	-0,069
193,086	278,136	-0,187	-0,233
194,100	146,178	-0,207	-0,193
195,115	93,070	-0,139	-0,109
196,129	-2,705	-0,220	-0,107
197,144	-100,546	-0,230	-0,039
198,159	87,351	-0,174	-0,134
199,173	142,122	-0,116	-0,107
200,188	-106,842	-0,146	-0,022
201,202	-32,108	-0,153	-0,059
202,217	777,284	-0,034	-0,065
203,232	267,873	-0,133	-0,163
204,246	-38,886	-0,334	-0,122
205,261	174,997	-0,259	-0,261
206,275	-50,543	-0,321	-0,105
207,290	26,416	-0,209	-0,121
208,304	-107,312	-0,270	-0,041
209,319	43,614	-0,143	-0,091
210,334	91,996	-0,251	-0,196
211,348	70,209	-0,266	-0,191
212,363	251,551	-0,197	-0,233
213,377	1,949	-0,214	-0,107
214,392	156,350	-0,124	-0,119
215,407	11,921	-0,107	-0,057
216,421	-111,977	-0,266	-0,037
217,436	225,041	-0,124	-0,140
218,450	62,813	-0,328	-0,228
219,465	-57,881	-0,184	-0,055
220,480	28,008	-0,157	-0,092
221,494	64,899	-0,168	-0,118
222,509	-76,253	-0,193	-0,047
223,523	-3,616	-0,180	-0,087
224,538	112,795	-0,338	-0,284
225,553	-63,594	-0,301	-0,085
226,567	193,505	-0,231	-0,243
227,582	52,818	-0,239	-0,158
228,596	800,000	-0,048	-0,143
229,611	126,898	-0,220	-0,194
230,626	-122,910	-0,155	-0,017
231,640	438,723	-0,136	-0,207
232,655	-106,024	-0,221	-0,034
233,669	-43,488	-0,336	-0,117
234,684	-102,968	-0,162	0,026
235,699	800,000	-0,079	-0,160
236,713	21,288	-0,151	-0,085
237,728	71,559	-0,177	-0,128
238,742	324,216	-0,108	-0,143
239,757	23,220	-0,167	-0,095
240,772	80,114	-0,233	-0,174
241,786	73,018	-0,164	-0,119
242,801	492,947	-0,126	-0,201
243,815	-127,787	-0,232	-0,023
244,830	98,572	-0,216	-0,173
245,844	-16,075	-0,103	-0,045
246,859	43,437	-0,136	-0,086
247,874	271,206	-0,269	-0,330
248,888	47,968	-0,264	-0,170
249,903	56,992	-0,195	-0,132
250,917	402,216	-0,107	-0,157
251,932	588,733	-0,130	-0,222
252,947	-13,544	-0,133	-0,060
253,961	64,719	-0,272	-0,190
254,976	308,765	-0,209	-0,271
255,990	193,913	-0,148	-0,156
257,005	222,238	-0,124	-0,139
258,020	48,671	-0,194	-0,125
259,034	800,000	-0,067	-0,181
260,049	-86,896	-0,243	-0,051
261,063	58,766	-0,162	-0,110
262,078	-96,449	-0,227	-0,041
263,093	89,261	-0,155	-0,120
264,107	291,337	-0,143	-0,180
265,122	142,397	-0,058	-0,054
266,136	168,807	-0,062	-0,061
267,151	108,430	-0,160	-0,132
268,166	159,237	-0,175	-0,169
269,180	27,468	-0,260	-0,151
270,195	-29,730	-0,266	-0,104
271,209	90,251	-0,111	-0,086
272,224	661,512	-0,046	-0,083
273,239	122,111	-0,195	-0,169
274,253	243,544	-0,186	-0,216
275,268	29,718	-0,302	-0,178
276,282	145,486	-0,194	-0,179
277,297	394,979	-0,118	-0,170
278,312	73,620	-0,231	-0,167
279,326	162,143	-0,092	-0,089
280,341	57,565	-0,165	-0,111
281,355	121,188	-0,146	-0,126
282,370	800,000	-0,162	-0,346
283,384	124,045	-0,160	-0,139
284,399	200,379	-0,126	-0,134
285,414	-97,850	-0,125	0,022
286,428	686,506	-0,084	-0,152
287,443	-12,834	-0,196	-0,088
288,457	15,367	-0,109	0,059
289,472	-16,904	-0,105	0,046
290,487	289,192	-0,169	-0,212
291,501	91,072	-0,236	-0,183
292,516	58,720	-0,232	-0,157
293,530	687,182	-0,080	-0,145
294,545	300,730	-0,112	-0,142
295,560	49,564	-0,148	-0,096
296,574	326,463	-0,106	-0,140
297,589	800,000	-0,084	-0,165
298,603	-200,000	-0,027	-0,200
299,618	412,362	-0,088	-0,130
300,633	117,304	-0,130	-0,110
301,647	-200,000	-0,043	-0,164
302,662	46,886	-0,116	-0,074
303,676	65,691	-0,181	-0,126
304,691	22,875	-0,241	-0,136
305,706	81,148	-0,202	-0,150
306,720	63,641	-0,136	-0,094
307,735	-54,368	-0,147	-0,046
308,749	73,642	-0,132	-0,095
309,764	-27,179	-0,117	0,047
310,779	80,078	-0,190	-0,140
311,793	-82,468	-0,207	-0,046
312,808	23,981	-0,147	-0,083
313,822	716,673	-0,138	-0,254
314,837	136,683	-0,179	-0,161
315,852	-16,438	-0,053	-0,023
316,866	543,144	-0,085	-0,140
317,881	-129,229	-0,121	-0,011
318,895	220,506	-0,129	-0,142
319,910	7,377	-0,150	-0,077
320,925	-50,602	-0,221	0,071
321,939	145,584	-0,153	-0,141
322,954	-24,712	-0,166	-0,067
323,968	59,244	-0,176	-0,119
324,983	-118,384	-0,214	0,026
325,997	-91,888	-0,203	-0,039
327,012	594,666	-0,084	-0,143
328,027	231,651	-0,181	-0,204
329,041	173,883	-0,183	-0,182
330,056	54,938	-0,071	-0,047
331,070	33,523	-0,107	-0,064
332,085	-200,000	-0,010	-0,135
333,100	-164,553	-0,207	-0,006
334,114	-41,405	-0,148	-0,052
335,129	-109,355	-0,258	-0,037
336,143	-123,861	-0,178	0,019
337,158	-200,000	0,009	-0,110
338,173	172,713	-0,126	-0,125
339,187	254,082	-0,103	-0,121
340,202	32,405	-0,289	-0,171
341,216	310,267	-0,137	-0,177
342,231	-50,417	-0,047	-0,015
343,246	33,631	-0,209	-0,124
344,260	-98,645	-0,223	-0,039
345,275	-58,627	-0,137	-0,041
346,289	800,000	-0,064	-0,149
347,304	474,431	-0,086	-0,134
348,319	53,243	-0,237	-0,156
349,333	74,138	-0,131	-0,094
350,348	-57,920	-0,245	-0,073
351,362	800,000	-0,073	-0,202
352,377	611,305	-0,064	-0,110
353,392	-200,000	-0,028	-0,189
354,406	30,705	-0,169	-0,099
355,421	209,355	1315,870	1417,072
356,435	161,120	1476,760	1417,569
