DTS Sentinel unit serial number:	SN410029Multiplexer serial number:	ORYXHardware model number:	OX2-SRSoftware version number:	ORYX F/W v4,00 Oryx Data Collector v3.7.2.0data status	okinstallation	B3 Nyhavnadifferential loss correction	single-endedforward channel	channel 1reverse channel	N/Adate	2023/11/30time	10:22:30forward acquisition time	300,00reverse acquisition time	0,00gamma	499,1914k internal	0,3211k external	0,3211temperature offset calibration	1,0000default loss term (dB/km)	0,3820temperature slope calibration	1,0000multiplexer offset coefficient	1,0000multiplexer slope coefficient	1,0000fibre end	0,00T internal ref (°C)	9,58T ext. ref 1 (°C)	-5,33T ext. ref 2 (°C)	-5,43length (m)	temperature (°C)	Stokes	anti-Stokes-744,400	615,339	-0,152	-0,278
-743,385	-200,000	-0,002	0,266
-742,371	492,245	-0,091	-0,152
-741,356	-200,000	-0,118	0,412
-740,342	-27,367	-0,154	-0,064
-739,327	-200,000	-0,019	0,186
-738,312	-44,659	-0,114	-0,041
-737,298	800,000	-0,123	0,308
-736,283	108,673	-0,273	-0,237
-735,269	800,000	0,111	0,235
-734,254	96,203	-0,252	-0,209
-733,239	73,254	-0,213	0,161
-732,225	449,338	-0,144	-0,231
-731,210	800,000	0,037	0,115
-730,196	800,000	0,047	-0,107
-729,181	-131,917	-0,162	0,015
-728,167	131,438	0,077	0,072
-727,152	-109,818	0,032	0,005
-726,137	-200,000	-0,008	-0,076
-725,123	800,000	-0,036	-0,077
-724,108	129,674	-0,098	-0,091
-723,094	45,941	-0,153	-0,103
-722,079	-200,000	0,003	0,012
-721,064	-200,000	-0,025	-0,090
-720,050	-200,000	0,003	-0,034
-719,035	36,683	0,089	0,057
-718,021	531,139	-0,052	0,089
-717,006	-71,900	-0,117	-0,031
-715,991	800,000	-0,027	-0,061
-714,977	800,000	0,064	-0,130
-713,962	-101,335	-0,204	-0,036
-712,948	-200,000	0,034	-0,160
-711,933	181,213	0,096	-0,102
-710,918	-119,092	0,122	-0,015
-709,904	-200,000	-0,057	-0,184
-708,889	29,149	-0,105	-0,064
-707,875	-80,346	-0,049	0,012
-706,860	16,355	0,117	0,067
-705,845	-39,220	0,063	0,024
-704,831	138,683	-0,056	-0,054
-703,816	96,550	-0,102	0,085
-702,802	611,843	-0,068	-0,123
-701,787	-96,813	-0,114	0,022
-700,772	-200,000	-0,008	-0,093
-699,758	800,000	-0,009	-0,022
-698,743	-200,000	0,034	0,133
-697,729	-10,248	0,071	-0,034
-696,714	-200,000	-0,009	0,039
-695,699	559,532	-0,036	0,064
-694,685	800,000	0,024	0,069
-693,670	59,182	-0,104	0,074
-692,656	-200,000	-0,003	-0,237
-691,641	491,071	-0,055	0,092
-690,627	1,305	-0,107	0,056
-689,612	-76,087	-0,057	-0,014
-688,597	5,037	0,043	0,023
-687,583	20,398	-0,131	0,076
-686,568	-94,738	-0,093	0,018
-685,554	-88,889	-0,156	-0,033
-684,539	-68,380	-0,101	0,028
-683,524	6,936	0,096	-0,052
-682,510	800,000	0,039	0,109
-681,495	-55,033	-0,037	0,012
-680,481	210,042	-0,056	-0,063
-679,466	265,319	-0,020	-0,025
-678,451	109,087	0,075	-0,065
-677,437	12,172	0,080	-0,044
-676,422	-52,498	-0,075	-0,025
-675,408	582,915	-0,067	0,119
-674,393	-94,073	-0,147	-0,029
-673,378	-169,186	-0,083	-0,002
-672,364	249,735	-0,026	0,032
-671,349	-18,273	-0,114	-0,051
-670,335	-36,736	0,099	0,038
-669,320	82,804	0,023	0,018
-668,305	94,905	0,044	0,036
-667,291	-65,681	0,097	-0,028
-666,276	85,254	-0,113	-0,090
-665,262	800,000	-0,029	-0,093
-664,247	-200,000	-0,024	-0,092
-663,232	-200,000	-0,003	-0,056
-662,218	800,000	0,035	-0,073
-661,203	-23,988	-0,080	-0,034
-660,189	800,000	0,062	0,133
-659,174	-101,622	0,067	-0,012
-658,159	0,191	-0,115	-0,059
-657,145	752,665	-0,011	-0,022
-656,130	-200,000	0,026	-0,181
-655,116	-200,000	0,017	-0,068
-654,101	-32,193	0,067	0,027
-653,086	356,319	-0,033	0,048
-652,072	72,990	-0,093	-0,070
-651,057	523,194	-0,063	0,107
-650,043	-34,304	-0,034	-0,013
-649,028	-2,670	-0,208	-0,105
-648,014	-103,773	0,075	-0,013
-646,999	-200,000	0,008	0,037
-645,984	242,359	0,017	-0,021
-644,970	14,582	0,083	0,047
-643,955	73,641	-0,092	-0,070
-642,941	800,000	0,017	-0,052
-641,926	300,896	-0,029	0,038
-640,911	-200,000	-0,002	0,071
-639,897	71,103	0,126	0,094
-638,882	-200,000	0,001	0,067
-637,868	-184,433	-0,083	-0,001
-636,853	764,541	-0,099	-0,195
-635,838	6,988	0,084	-0,045
-634,824	44,551	-0,063	-0,042
-633,809	50,734	-0,068	0,047
-632,795	-200,000	0,032	-0,129
-631,780	172,026	-0,064	0,067
-630,765	149,738	-0,104	0,102
-629,751	-200,000	0,008	-0,087
-628,736	126,397	0,174	-0,159
-627,722	-195,147	-0,077	-0,000
-626,707	288,013	0,027	0,035
-625,692	-52,509	0,198	0,066
-624,678	1,112	0,069	0,036
-623,663	15,859	0,031	0,018
-622,649	247,992	-0,013	-0,015
-621,634	-200,000	-0,006	0,059
-620,619	760,192	-0,050	-0,098
-619,605	4,854	0,035	-0,019
-618,590	26,208	0,119	0,071
-617,576	800,000	0,034	-0,094
-616,561	-152,680	-0,023	0,001
-615,546	-200,000	0,014	-0,075
-614,532	71,176	-0,026	-0,019
-613,517	-67,887	-0,126	-0,035
-612,503	37,658	-0,009	-0,006
-611,488	800,000	0,049	0,098
-610,474	73,768	0,089	0,067
-609,459	99,569	-0,036	-0,030
-608,444	-60,840	-0,153	-0,046
-607,430	800,000	-0,063	-0,137
-606,415	54,643	0,038	-0,026
-605,401	-95,301	-0,085	-0,016
-604,386	-46,477	0,072	0,025
-603,371	800,000	0,036	0,084
-602,357	-10,765	-0,081	0,039
-601,342	51,502	-0,105	-0,072
-600,328	-200,000	0,012	-0,142
-599,313	-120,321	-0,087	-0,011
-598,298	76,684	0,010	-0,008
-597,284	-200,000	-0,027	-0,122
-596,269	-200,000	-0,021	0,084
-595,255	580,692	-0,062	0,110
-594,240	668,710	-0,027	-0,051
-593,225	-102,815	0,086	-0,015
-592,211	-29,093	-0,039	-0,016
-591,196	-103,680	0,088	-0,015
-590,182	-101,505	-0,050	0,009
-589,167	-88,962	-0,094	0,020
-588,152	678,287	0,086	0,161
-587,138	800,000	0,025	0,073
-586,123	31,479	-0,089	0,055
-585,109	800,000	0,042	-0,101
-584,094	362,906	-0,058	0,084
-583,079	-55,943	0,069	-0,022
-582,065	800,000	0,072	-0,166
-581,050	800,000	-0,050	0,116
-580,036	-200,000	-0,006	-0,023
-579,021	-200,000	-0,022	0,081
-578,006	-117,664	-0,144	0,018
-576,992	167,541	-0,015	-0,016
-575,977	-146,756	-0,070	0,004
-574,963	-13,806	0,051	-0,024
-573,948	217,283	-0,071	0,082
-572,934	-170,919	0,050	0,001
-571,919	-200,000	0,003	-0,113
-570,904	53,477	0,028	-0,019
-569,890	-200,000	0,003	-0,030
-568,875	162,215	0,102	0,103
-567,861	-51,421	0,051	-0,017
-566,846	800,000	0,027	0,065
-565,831	372,089	0,056	0,083
-564,817	21,644	-0,081	0,047
-563,802	-200,000	-0,009	0,064
-562,788	-80,392	0,157	0,037
-561,773	49,907	-0,053	-0,036
-560,758	107,408	0,024	0,020
-559,744	135,463	-0,045	0,042
-558,729	-200,000	-0,011	-0,064
-557,715	-110,611	-0,049	0,007
-556,700	-52,069	-0,136	-0,045
-555,685	84,947	0,071	-0,056
-554,671	-200,000	0,005	0,022
-553,656	-96,227	0,160	-0,030
-552,642	-200,000	0,021	0,081
-551,627	-200,000	0,005	0,052
-550,612	-200,000	0,005	0,076
-549,598	305,951	-0,095	-0,128
-548,583	-146,806	-0,139	-0,009
-547,569	255,848	0,030	-0,037
-546,554	-129,635	0,081	-0,008
-545,539	-25,338	0,160	0,068
-544,525	-200,000	0,012	0,118
-543,510	800,000	0,053	-0,151
-542,496	-200,000	0,012	-0,047
-541,481	100,988	-0,132	-0,110
-540,466	-200,000	-0,024	-0,090
-539,452	-90,734	0,057	-0,012
-538,437	-27,977	0,050	0,021
-537,423	-200,000	-0,004	0,189
-536,408	-200,000	0,013	0,049
-535,393	398,890	-0,091	-0,137
-534,379	630,087	0,022	-0,041
-533,364	34,576	-0,056	-0,035
-532,350	-200,000	0,001	0,015
-531,335	-200,000	-0,032	0,105
-530,321	429,352	-0,077	0,120
-529,306	-200,000	0,006	-0,092
-528,291	311,813	-0,092	-0,124
-527,277	369,400	0,021	-0,031
-526,262	-200,000	-0,005	-0,051
-525,248	-154,647	-0,028	-0,001
-524,233	-32,183	0,062	-0,025
-523,218	19,338	-0,010	0,005
-522,204	141,684	-0,078	0,074
-521,189	-200,000	-0,004	0,051
-520,175	-114,149	0,097	0,013
-519,160	-105,872	-0,139	-0,022
-518,145	-200,000	-0,007	0,027
-517,131	800,000	-0,041	0,112
-516,116	-1,624	-0,049	-0,025
-515,102	-82,346	0,073	-0,017
-514,087	-200,000	-0,007	0,065
-513,072	800,000	-0,017	-0,035
-512,058	800,000	-0,047	-0,124
-511,043	-111,365	0,186	-0,027
-510,029	37,534	-0,113	0,072
-509,014	-200,000	-0,049	0,176
-507,999	-200,000	0,004	-0,107
-506,985	-128,028	-0,041	0,004
-505,970	222,865	-0,029	0,034
-504,956	8,455	-0,081	0,044
-503,941	-74,745	0,088	0,023
-502,926	800,000	-0,015	-0,046
-501,912	800,000	0,014	-0,037
-500,897	-200,000	0,002	-0,029
-499,883	-15,153	-0,063	-0,029
-498,868	-200,000	0,007	-0,133
-497,853	333,980	-0,156	-0,217
-496,839	-200,000	-0,011	-0,095
-495,824	408,904	0,097	-0,147
-494,810	800,000	0,050	-0,102
-493,795	-113,650	0,110	0,015
-492,781	-200,000	0,007	0,023
-491,766	-80,426	-0,047	-0,011
-490,751	-200,000	-0,049	-0,187
-489,737	-70,628	0,117	0,031
-488,722	705,176	0,027	0,051
-487,708	-55,415	0,090	0,029
-486,693	-82,360	0,026	-0,006
-485,678	-141,543	0,136	-0,010
-484,664	236,921	-0,110	0,130
-483,649	-200,000	-0,009	0,061
-482,635	83,395	-0,112	-0,087
-481,620	800,000	0,022	-0,071
-480,605	234,982	0,085	-0,101
-479,591	137,166	0,039	0,037
-478,576	106,928	0,023	0,019
-477,562	800,000	-0,071	-0,142
-476,547	-108,908	-0,076	-0,012
-475,532	-103,761	-0,146	0,024
-474,518	-200,000	0,008	0,053
-473,503	800,000	0,046	-0,102
-472,489	7,498	0,176	-0,094
-471,474	-200,000	0,009	-0,034
-470,459	53,937	-0,014	-0,010
-469,445	-200,000	0,022	0,133
-468,430	31,918	-0,089	0,055
-467,416	469,422	0,051	-0,082
-466,401	99,418	0,007	0,006
-465,386	-200,000	-0,005	-0,026
-464,372	104,130	0,015	-0,013
-463,357	305,764	0,048	-0,064
-462,343	455,934	-0,082	-0,130
-461,328	48,320	0,021	-0,014
-460,313	-0,951	-0,104	-0,053
-459,299	-45,541	0,043	0,015
-458,284	800,000	0,040	0,101
-457,270	-200,000	0,038	0,185
-456,255	-26,325	0,043	-0,018
-455,241	-200,000	-0,002	-0,071
-454,226	-70,520	0,078	0,021
-453,211	-200,000	0,026	0,110
-452,197	52,939	-0,072	0,049
-451,182	332,104	0,055	0,077
-450,168	-200,000	-0,018	0,218
-449,153	-200,000	0,012	-0,059
-448,138	-4,819	-0,054	0,027
-447,124	240,738	-0,070	-0,083
-446,109	800,000	0,066	0,150
-445,095	-101,402	0,043	-0,007
-444,080	800,000	-0,018	0,044
-443,065	254,498	-0,015	0,018
-442,051	-200,000	-0,028	0,092
-441,036	-92,370	-0,124	0,025
-440,022	-36,029	-0,058	-0,022
-439,007	-56,961	0,136	0,043
-437,992	-63,314	-0,112	0,033
-436,978	-15,266	-0,040	0,018
-435,963	800,000	0,037	0,105
-434,949	-200,000	-0,004	0,046
-433,934	11,801	-0,027	-0,015
-432,919	-157,677	-0,092	-0,004
-431,905	-200,000	-0,010	-0,198
-430,890	-38,814	0,138	-0,052
-429,876	-200,000	0,006	0,069
-428,861	800,000	-0,037	-0,114
-427,846	800,000	-0,048	0,132
-426,832	800,000	-0,008	0,019
-425,817	800,000	0,019	0,049
-424,803	-93,504	0,057	0,011
-423,788	214,988	-0,099	-0,112
-422,773	-68,416	-0,135	0,037
-421,759	-24,066	-0,062	0,026
-420,744	-200,000	-0,027	-0,134
-419,730	-200,000	0,039	-0,167
-418,715	-200,000	-0,010	-0,069
-417,701	88,678	-0,070	0,056
-416,686	-141,079	0,143	0,010
-415,671	-124,515	-0,052	-0,006
-414,657	-200,000	0,003	0,017
-413,642	800,000	0,024	-0,067
-412,628	10,535	-0,040	0,022
-411,613	-120,940	0,095	0,011
-410,598	-1,945	-0,112	0,056
-409,584	800,000	-0,014	-0,031
-408,569	84,994	0,076	0,060
-407,555	243,522	0,039	-0,047
-406,540	-200,000	-0,022	0,134
-405,525	-13,923	-0,032	-0,015
-404,511	800,000	-0,060	-0,140
-403,496	15,340	0,095	-0,053
-402,482	-11,869	-0,031	-0,015
-401,467	44,806	0,084	0,055
-400,452	-200,000	0,011	0,035
-399,438	-73,330	-0,050	0,013
-398,423	-200,000	-0,010	-0,105
-397,409	-200,000	0,021	-0,084
-396,394	-200,000	-0,029	-0,191
-395,379	800,000	0,057	-0,128
-394,365	257,630	0,081	0,100
-393,350	64,113	0,043	0,031
-392,336	800,000	-0,052	-0,114
-391,321	90,211	-0,109	0,087
-390,306	38,271	-0,080	-0,051
-389,292	800,000	-0,064	-0,137
-388,277	53,870	0,032	-0,022
-387,263	-44,279	0,152	0,054
-386,248	18,822	-0,082	0,047
-385,233	12,046	0,032	0,018
-384,219	-200,000	0,009	-0,044
-383,204	61,404	0,051	-0,036
-382,190	-11,680	-0,027	0,012
-381,175	52,175	0,118	-0,080
-380,160	162,448	-0,029	0,030
-379,146	-200,000	0,031	0,126
-378,131	-70,931	-0,084	-0,022
-377,117	-95,347	0,099	-0,019
-376,102	737,948	-0,055	0,105
-375,088	-200,000	-0,042	-0,146
-374,073	140,083	0,116	0,109
-373,058	-200,000	0,017	0,152
-372,044	-7,566	-0,023	0,011
-371,029	-156,303	0,091	-0,004
-370,015	-35,478	-0,178	-0,069
-369,000	175,839	-0,042	0,043
-367,985	-200,000	0,014	-0,078
-366,971	800,000	0,051	-0,103
-365,956	95,937	-0,063	-0,051
-364,942	-70,492	0,131	0,035
-363,927	-200,000	-0,001	0,038
-362,912	117,158	0,101	-0,089
-361,898	800,000	0,037	-0,078
-360,883	48,597	-0,094	-0,063
-359,869	-200,000	0,015	-0,057
-358,854	-200,000	-0,004	-0,131
-357,839	59,280	0,185	0,130
-356,825	800,000	-0,067	0,143
-355,810	-200,000	0,027	0,089
-354,796	-118,890	-0,144	0,018
-353,781	-200,000	-0,009	0,095
-352,766	0,371	-0,068	0,035
-351,752	109,356	0,136	0,117
-350,737	-120,344	0,131	0,016
-349,723	144,609	-0,014	0,014
-348,708	86,055	0,130	0,102
-347,693	30,085	-0,116	-0,070
-346,679	-200,000	0,004	-0,073
-345,664	42,778	-0,064	-0,042
-344,650	-162,982	-0,106	-0,004
-343,635	446,504	0,062	0,097
-342,620	96,115	0,072	0,059
-341,606	225,125	-0,073	0,085
-340,591	-14,212	-0,112	0,051
-339,577	-21,228	-0,049	0,021
-338,562	254,789	0,019	-0,023
-337,548	-200,000	0,027	0,193
-336,533	800,000	-0,061	0,149
-335,518	147,501	0,111	0,107
-334,504	-200,000	0,005	-0,019
-333,489	472,891	0,035	-0,056
-332,475	-200,000	-0,013	-0,078
-331,460	-200,000	-0,065	-0,236
-330,445	127,798	0,045	0,041
-329,431	57,862	-0,069	-0,048
-328,416	40,296	-0,040	0,026
-327,402	-1,116	-0,164	0,082
-326,387	-200,000	0,005	0,050
-325,372	153,207	0,036	-0,036
-324,358	400,273	0,090	-0,135
-323,343	-200,000	0,006	-0,156
-322,329	108,403	-0,024	0,021
-321,314	611,225	0,071	0,128
-320,299	18,881	0,067	0,038
-319,285	-80,587	0,163	0,038
-318,270	50,820	-0,086	-0,058
-317,256	-178,889	-0,179	0,003
-316,241	67,463	-0,033	0,024
-315,226	-107,242	0,047	0,007
-314,212	-200,000	-0,015	0,122
-313,197	126,969	-0,063	0,057
-312,183	126,898	0,062	-0,056
-311,168	800,000	0,046	0,106
-310,153	519,476	0,049	-0,082
-309,139	323,376	-0,047	-0,065
-308,124	4,334	0,093	-0,048
-307,110	800,000	-0,070	0,187
-306,095	513,590	-0,051	0,085
-305,080	-134,179	0,167	-0,014
-304,066	800,000	0,014	-0,034
-303,051	43,509	-0,060	-0,039
-302,037	-200,000	-0,005	0,019
-301,022	242,995	-0,076	0,091
-300,008	147,497	0,019	0,018
-298,993	-27,782	0,112	-0,046
-297,978	430,573	-0,022	0,033
-296,964	138,211	0,036	-0,034
-295,949	180,658	-0,050	0,052
-294,935	502,951	0,030	-0,049
-293,920	338,471	0,025	-0,034
-292,905	-200,000	0,044	0,148
-291,891	-93,243	0,127	-0,025
-290,876	241,941	0,068	-0,081
-289,862	423,704	-0,076	-0,116
-288,847	800,000	-0,093	0,221
-287,832	331,997	-0,089	-0,123
-286,818	-162,492	0,035	0,001
-285,803	-44,066	0,148	0,053
-284,789	484,426	-0,071	0,116
-283,774	-200,000	0,011	0,150
-282,759	-174,333	0,076	0,002
-281,745	630,302	0,050	0,090
-280,730	270,670	-0,122	-0,154
-279,716	800,000	-0,024	0,072
-278,701	800,000	-0,038	-0,077
-277,686	-200,000	0,021	-0,102
-276,672	-80,735	0,141	-0,033
-275,657	-104,438	-0,119	-0,019
-274,643	-200,000	0,006	-0,078
-273,628	0,435	-0,136	-0,069
-272,613	208,703	-0,069	-0,077
-271,599	144,258	0,078	-0,074
-270,584	360,449	0,038	-0,054
-269,570	366,334	0,062	0,089
-268,555	45,813	-0,030	0,019
-267,540	747,321	-0,027	-0,051
-266,526	800,000	0,035	0,084
-265,511	800,000	0,045	0,113
-264,497	800,000	-0,034	-0,076
-263,482	-200,000	0,029	-0,098
-262,467	-102,119	-0,054	0,009
-261,453	28,336	0,046	-0,028
-260,438	-80,316	-0,048	-0,011
-259,424	178,707	-0,144	-0,150
-258,409	-200,000	0,030	0,151
-257,395	-44,377	0,109	-0,039
-256,380	-129,125	0,118	0,012
-255,365	740,309	0,067	0,128
-254,351	366,924	0,041	0,059
-253,336	-26,076	-0,055	0,023
-252,322	375,167	-0,043	-0,062
-251,307	-200,000	0,027	0,146
-250,292	130,376	0,047	-0,043
-249,278	800,000	0,020	-0,054
-248,263	68,532	-0,058	0,042
-247,249	-67,616	0,059	-0,016
-246,234	-200,000	-0,025	0,101
-245,219	-53,563	-0,070	-0,022
-244,205	35,849	0,030	-0,019
-243,190	800,000	0,028	-0,088
-242,176	740,601	-0,076	0,146
-241,161	800,000	0,064	0,198
-240,146	800,000	-0,035	-0,103
-239,132	78,099	-0,110	-0,083
-238,117	-200,000	-0,002	-0,110
-237,103	-135,477	-0,104	-0,009
-236,088	13,513	-0,110	-0,061
-235,073	-200,000	0,007	0,041
-234,059	-64,909	0,055	0,016
-233,044	626,836	0,047	0,085
-232,030	-181,448	-0,129	0,002
-231,015	460,086	-0,081	-0,129
-230,000	800,000	-0,061	-0,132
-228,986	31,363	-0,054	0,033
-227,971	-200,000	-0,007	0,116
-226,957	49,933	0,083	0,055
-225,942	232,236	0,118	0,138
-224,927	20,142	0,075	-0,043
-223,913	208,019	-0,057	-0,063
-222,898	-200,000	-0,021	0,081
-221,884	19,718	-0,118	-0,067
-220,869	7,568	0,191	0,101
-219,855	52,621	0,066	-0,045
-218,840	-84,065	-0,036	-0,008
-217,825	-200,000	0,018	0,117
-216,811	-9,621	0,058	0,027
-215,796	558,793	-0,070	-0,120
-214,782	184,198	-0,164	-0,173
-213,767	83,509	0,220	0,171
-212,752	145,378	0,106	0,101
-211,738	189,216	0,010	-0,011
-210,723	-100,722	-0,071	-0,012
-209,709	407,404	0,043	0,065
-208,694	-200,000	-0,032	0,127
-207,679	290,120	0,080	-0,103
-206,665	-42,335	0,044	-0,016
-205,650	275,231	0,073	0,091
-204,636	-145,983	-0,140	-0,009
-203,621	179,901	0,030	0,031
-202,606	800,000	0,101	0,202
-201,592	170,403	-0,098	-0,100
-200,577	684,650	-0,043	-0,080
-199,563	-24,778	0,132	-0,055
-198,548	313,737	0,027	0,036
-197,533	85,554	0,103	0,081
-196,519	-77,124	-0,121	-0,030
-195,504	800,000	0,031	-0,088
-194,490	-200,000	-0,016	0,106
-193,475	-200,000	-0,019	-0,131
-192,460	-200,000	-0,004	0,038
-191,446	800,000	0,041	-0,094
-190,431	350,724	-0,023	0,032
-189,417	-60,679	-0,159	-0,047
-188,402	-200,000	-0,002	-0,078
-187,387	-200,000	0,002	-0,023
-186,373	-200,000	-0,003	0,050
-185,358	800,000	-0,015	-0,046
-184,344	-85,115	0,111	-0,025
-183,329	-14,398	0,031	-0,014
-182,315	-118,213	0,120	-0,015
-181,300	721,877	-0,042	-0,081
-180,285	-200,000	-0,030	-0,098
-179,271	177,240	-0,093	0,096
-178,256	80,215	0,008	0,006
-177,242	-200,000	0,021	0,094
-176,227	-101,257	0,086	-0,015
-175,212	-66,455	-0,011	-0,003
-174,198	-75,581	0,031	0,008
-173,183	62,700	0,117	-0,083
-172,169	228,497	-0,167	0,194
-171,154	-18,580	0,024	0,010
-170,139	-101,559	0,084	-0,014
-169,125	-45,582	0,037	0,013
-168,110	-200,000	0,009	0,073
-167,096	-200,000	0,003	0,043
-166,081	-200,000	0,012	0,121
-165,066	410,741	-0,010	0,015
-164,052	-103,129	-0,118	-0,020
-163,037	-7,757	0,010	-0,005
-162,023	800,000	0,043	0,105
-161,008	324,700	0,111	0,151
-159,993	-120,087	-0,161	-0,019
-158,979	136,959	-0,071	-0,066
-157,964	-83,538	0,064	-0,014
-156,950	417,759	-0,104	-0,158
-155,935	268,509	0,109	-0,136
-154,920	-122,574	0,116	-0,013
-153,906	-151,856	0,179	0,009
-152,891	192,486	-0,117	0,126
-151,877	-200,000	-0,003	0,039
-150,862	-74,135	-0,046	-0,012
-149,847	179,332	-0,060	-0,063
-148,833	-200,000	-0,027	0,095
-147,818	1,940	0,084	0,043
-146,804	-58,267	0,114	0,035
-145,789	303,791	0,042	-0,055
-144,775	-89,939	-0,059	0,012
-143,760	-200,000	0,018	0,120
-142,745	562,010	0,055	-0,095
-141,731	219,363	0,088	-0,099
-140,716	404,057	0,035	0,053
-139,702	-200,000	0,003	0,102
-138,687	800,000	-0,033	0,088
-137,672	-200,000	0,018	0,090
-136,658	198,451	-0,077	-0,084
-135,643	800,000	0,028	-0,083
-134,629	57,357	-0,093	0,064
-133,614	800,000	0,040	-0,091
-132,599	716,872	-0,045	-0,085
-131,585	194,296	0,015	-0,016
-130,570	-16,800	-0,050	-0,022
-129,556	498,729	-0,075	0,123
-128,541	274,888	-0,021	0,026
-127,526	172,699	-0,030	0,031
-126,512	11,364	0,112	0,060
-125,497	-200,000	-0,000	-0,003
-124,483	800,000	0,026	-0,076
-123,468	104,251	-0,027	-0,022
-122,453	-146,070	-0,099	0,006
-121,439	-75,749	-0,008	-0,002
-120,424	-67,674	-0,114	-0,032
-119,410	339,390	0,015	-0,020
-118,395	78,874	0,119	0,090
-117,380	800,000	-0,028	0,081
-116,366	6,879	-0,226	0,119
-115,351	-200,000	-0,002	0,103
-114,337	800,000	-0,045	-0,116
-113,322	11,091	-0,026	-0,014
-112,307	197,597	0,092	0,100
-111,293	130,103	-0,071	-0,064
-110,278	-200,000	0,003	0,118
-109,264	220,492	0,012	0,013
-108,249	-200,000	0,036	0,119
-107,234	-72,678	-0,073	0,019
-106,220	19,166	-0,076	0,043
-105,205	800,000	0,016	0,036
-104,191	800,000	-0,036	0,104
-103,176	251,605	-0,081	0,098
-102,162	109,429	0,152	0,129
-101,147	-30,920	-0,163	0,065
-100,132	-41,010	0,081	0,030
-99,118	-134,407	-0,043	0,004
-98,103	800,000	-0,021	-0,043
-97,089	165,238	-0,087	0,087
-96,074	-74,550	0,142	-0,036
-95,059	-200,000	-0,026	-0,102
-94,045	742,937	-0,057	-0,109
-93,030	-200,000	0,015	0,053
-92,016	800,000	0,052	-0,156
-91,001	-156,924	-0,073	0,003
-89,986	800,000	-0,052	0,114
-88,972	135,310	0,194	0,178
-87,957	788,579	0,028	0,055
-86,943	-67,437	-0,082	0,023
-85,928	87,856	-0,114	0,089
-84,913	800,000	-0,029	-0,085
-83,899	62,111	0,048	-0,034
-82,884	-97,549	0,030	0,005
-81,870	19,085	-0,054	0,030
-80,855	-200,000	-0,022	0,152
-79,840	189,897	-0,077	0,082
-78,826	110,805	-0,016	0,014
-77,811	213,825	-0,086	-0,096
-76,797	-200,000	0,021	-0,158
-75,782	-200,000	-0,011	0,086
-74,767	-99,907	-0,138	0,024
-73,753	-111,622	-0,042	-0,006
-72,738	-75,327	0,202	0,051
-71,724	-67,310	-0,049	0,013
-70,709	800,000	-0,027	-0,066
-69,694	82,959	-0,072	0,056
-68,680	128,688	0,133	0,120
-67,665	-96,811	0,128	0,023
-66,651	-124,009	-0,044	0,005
-65,636	65,432	-0,146	-0,104
-64,622	-149,761	-0,102	0,006
-63,607	-200,000	0,006	-0,045
-62,592	211,646	-0,038	0,042
-61,578	23,158	-0,076	0,044
-60,563	84,841	0,056	0,043
-59,549	-147,407	-0,069	-0,004
-58,534	36,317	-2,044	-1,270
-57,519	466,043	-1,124	-1,783
-56,505	-200,000	-0,260	-4,310
-55,490	595,430	0,883	1,550
-54,476	800,000	5,086	11,189
-53,461	-200,000	21,628	344,543
-52,446	800,000	763,130	2349,915
-51,432	549,738	1663,325	2825,300
-50,417	71,938	1659,681	1217,076
-49,403	17,363	1533,271	856,793
-48,388	11,364	1456,974	785,159
-47,373	19,401	1448,411	819,058
-46,359	14,939	1437,587	791,703
-45,344	9,698	1433,405	764,424
-44,330	9,624	1431,386	762,966
-43,315	9,594	1429,761	761,927
-42,300	9,631	1427,803	761,029
-41,286	9,682	1426,538	760,564
-40,271	9,648	1425,366	759,751
-39,257	9,618	1424,281	758,999
-38,242	9,671	1423,087	758,582
-37,227	9,662	1422,016	757,940
-36,213	9,694	1420,531	757,270
-35,198	9,682	1419,586	756,680
-34,184	9,670	1418,628	756,083
-33,169	9,610	1417,361	755,092
-32,154	9,683	1416,127	754,750
-31,140	9,682	1414,881	754,051
-30,125	9,703	1413,979	753,642
-29,111	9,684	1412,532	752,750
-28,096	9,675	1411,482	752,117
-27,082	9,582	1410,372	751,061
-26,067	9,570	1409,364	750,439
-25,052	9,589	1408,345	749,952
-24,038	9,629	1407,295	749,552
-23,023	9,620	1406,336	748,971
-22,009	9,638	1405,088	748,359
-20,994	9,562	1404,422	747,621
-19,979	9,608	1403,412	747,265
-18,965	9,589	1402,547	746,687
-17,950	9,548	1401,563	745,942
-16,936	9,544	1400,657	745,414
-15,921	9,473	1399,970	744,688
-14,906	9,486	1398,783	744,086
-13,892	9,562	1397,808	743,894
-12,877	9,543	1397,212	743,457
-11,863	9,499	1396,263	742,716
-10,848	9,488	1395,179	742,060
-9,833	9,511	1394,243	741,643
-8,819	9,417	1393,577	740,823
-7,804	9,396	1392,626	740,189
-6,790	9,446	1391,522	739,804
-5,775	9,457	1390,507	739,288
-4,760	9,431	1389,462	738,583
-3,746	9,434	1388,558	738,086
-2,731	9,436	1387,733	737,629
-1,717	9,398	1387,004	737,037
-0,702	9,405	1385,221	736,090
0,313	13,429	1297,570	707,900
1,327	29,267	688,391	411,394
2,342	45,489	118,975	77,328
3,356	0,054	16,603	8,315
4,371	2,419	3,747	1,906
5,386	7,780	1,306	0,688
6,400	800,000	0,210	0,576
7,415	55,007	-0,210	-0,143
8,429	-79,697	-0,313	-0,074
9,444	-42,627	-0,481	-0,172
10,459	89,479	-0,287	-0,226
11,473	56,581	-0,309	-0,212
12,488	-79,452	-0,310	-0,073
13,502	-43,000	-0,352	-0,125
14,517	116,188	-0,324	-0,279
15,531	86,183	-0,443	-0,343
16,546	-0,267	-0,201	-0,100
17,561	-7,842	-0,414	-0,196
18,575	77,200	-0,164	-0,123
19,590	78,291	-0,178	-0,134
20,604	140,812	-0,189	-0,176
21,619	26,641	-0,468	-0,275
22,634	-8,064	-0,427	-0,202
23,648	77,333	-0,486	-0,363
24,663	93,005	-0,295	-0,234
25,677	145,654	-0,352	-0,332
26,692	341,329	-0,173	-0,239
27,707	-11,349	-0,364	-0,168
28,721	133,389	-0,393	-0,357
29,736	149,425	-0,418	-0,399
30,750	35,591	-0,392	-0,241
31,765	140,625	-0,461	-0,429
32,780	230,898	-0,306	-0,353
33,794	45,878	-0,471	-0,306
34,809	145,075	-0,252	-0,237
35,823	78,335	-0,309	-0,232
36,838	93,723	-0,412	-0,328
37,853	15,594	-0,449	-0,247
38,867	63,368	-0,254	-0,179
39,882	81,791	-0,329	-0,250
40,896	331,314	-0,238	-0,324
41,911	39,457	-0,292	-0,184
42,926	100,785	-0,310	-0,253
43,940	130,256	-0,438	-0,394
44,955	58,375	-0,448	-0,308
45,969	138,300	-0,415	-0,382
46,984	92,035	-0,313	-0,247
47,999	256,575	-0,206	-0,249
49,013	25,577	-0,360	-0,210
50,028	172,066	-0,319	-0,322
51,042	60,217	-0,273	-0,189
52,057	131,264	-0,345	-0,311
53,071	194,573	-0,270	-0,288
54,086	168,442	-0,327	-0,327
55,101	-99,453	-0,252	-0,044
56,115	-2,059	-0,347	-0,171
57,130	-98,540	-0,376	-0,067
58,144	60,799	-0,476	-0,331
59,159	266,348	-0,294	-0,361
60,174	83,071	-0,386	-0,294
61,188	149,612	-0,305	-0,290
62,203	24,046	-0,361	-0,208
63,217	83,808	-0,268	-0,205
64,232	190,483	-0,351	-0,371
65,247	244,214	-0,176	-0,208
66,261	62,249	-0,421	-0,294
67,276	306,066	-0,195	-0,255
68,290	75,840	-0,310	-0,230
69,305	49,904	-0,301	-0,199
70,320	39,670	-0,267	-0,168
71,334	-74,602	-0,261	-0,065
72,349	-44,308	-0,389	-0,136
73,363	62,749	-0,265	-0,185
74,378	86,318	-0,390	-0,301
75,393	22,485	-0,348	-0,199
76,407	94,433	-0,243	-0,193
77,422	81,830	-0,213	-0,162
78,436	27,468	-0,287	-0,169
79,451	147,728	-0,292	-0,276
80,466	377,589	-0,169	-0,242
81,480	-31,535	-0,429	-0,168
82,495	-31,710	-0,405	-0,158
83,509	286,523	-0,234	-0,297
84,524	90,712	-0,284	-0,223
85,539	314,432	-0,171	-0,226
86,553	179,529	-0,180	-0,185
87,568	257,633	-0,251	-0,302
88,582	-111,285	-0,314	-0,044
89,597	-45,276	-0,284	-0,098
90,611	183,352	-0,173	-0,179
91,626	83,338	-0,204	-0,155
92,641	224,086	-0,229	-0,259
93,655	405,813	-0,199	-0,295
94,670	136,147	-0,253	-0,231
95,684	50,964	-0,236	-0,156
96,699	12,703	-0,284	-0,153
97,714	180,077	-0,375	-0,385
98,728	83,059	-0,193	-0,147
99,743	57,368	-0,224	-0,153
100,757	-160,242	-0,328	-0,012
101,772	38,475	-0,336	-0,209
102,787	178,373	-0,266	-0,271
103,801	643,590	-0,255	-0,456
104,816	-45,957	-0,256	-0,088
105,830	207,837	-0,145	-0,159
106,845	-147,179	-0,230	-0,013
107,860	-17,444	-0,247	-0,108
108,874	25,622	-0,285	-0,166
109,889	203,124	-0,188	-0,203
110,903	-12,287	-0,226	-0,103
111,918	-113,732	-0,214	-0,029
112,933	-46,978	-0,117	-0,040
113,947	-88,242	-0,264	-0,055
114,962	193,054	-0,123	-0,130
115,976	-63,808	-0,277	-0,079
116,991	18,493	-0,265	-0,147
118,006	126,762	-0,260	-0,230
119,020	-84,189	-0,300	-0,066
120,035	-152,030	-0,268	-0,013
121,049	-66,958	-0,277	-0,076
122,064	-77,648	-0,263	-0,063
123,079	-7,187	-0,288	-0,136
124,093	310,142	-0,179	-0,234
125,108	331,349	-0,161	-0,217
126,122	20,723	-0,190	-0,107
127,137	44,179	-0,198	-0,126
128,151	-48,936	-0,174	-0,058
129,166	77,429	-0,143	-0,106
130,181	152,697	-0,148	-0,141
131,195	131,241	-0,281	-0,252
132,210	-118,367	-0,253	-0,031
133,224	-36,775	-0,248	-0,092
134,239	163,639	-0,241	-0,237
135,254	65,345	-0,176	-0,124
136,268	-16,290	-0,258	-0,114
137,283	2,094	-0,291	-0,146
138,297	220,590	-0,213	-0,239
139,312	43,558	-0,233	-0,148
140,327	428,693	-0,155	-0,234
141,341	167,287	-0,279	-0,277
142,356	113,884	-0,302	-0,256
143,370	18,776	-0,228	-0,127
144,385	-109,188	-0,132	-0,019
145,400	-30,037	-0,342	-0,135
146,414	195,456	-0,261	-0,277
147,429	304,569	-0,192	-0,248
148,443	496,663	-0,141	-0,226
149,458	10,972	-0,290	-0,154
150,473	34,405	-0,252	-0,152
151,487	472,814	-0,186	-0,292
152,502	-17,768	-0,184	-0,080
153,516	-65,642	-0,303	-0,084
154,531	27,652	-0,202	-0,118
155,546	264,558	-0,154	-0,188
156,560	-19,745	-0,369	-0,158
157,575	64,404	-0,278	-0,194
158,589	800,000	-0,129	-0,340
159,604	203,729	-0,189	-0,203
160,619	166,285	-0,158	-0,156
161,633	788,013	-0,146	-0,280
162,648	42,936	-0,285	-0,180
163,662	205,238	-0,175	-0,189
164,677	61,545	-0,248	-0,171
165,692	-162,307	-0,230	0,008
166,706	-14,951	-0,131	0,058
167,721	243,087	-0,197	-0,229
168,735	19,247	-0,175	-0,097
169,750	23,524	-0,161	-0,092
170,764	232,466	-0,192	-0,220
171,779	148,355	-0,230	-0,216
172,794	-102,928	-0,229	-0,037
173,808	-76,976	-0,232	-0,056
174,823	-13,348	-0,256	-0,115
175,837	-28,111	-0,228	-0,091
176,852	-22,592	-0,183	-0,076
177,867	153,054	-0,273	-0,259
178,881	120,379	-0,278	-0,240
179,896	800,000	-0,072	-0,187
180,910	-18,927	-0,265	-0,114
181,925	800,000	-0,140	-0,303
182,940	134,454	-0,322	-0,290
183,954	102,019	-0,224	-0,181
184,969	800,000	-0,116	-0,245
185,983	800,000	-0,069	-0,138
186,998	-52,138	-0,195	-0,062
188,013	86,268	-0,226	-0,173
189,027	263,006	-0,170	-0,205
190,042	526,036	-0,168	-0,276
191,056	1,055	-0,225	-0,112
192,071	79,014	-0,170	-0,126
193,086	188,895	-0,143	-0,149
194,100	-33,612	-0,308	-0,117
195,115	175,376	-0,145	-0,146
196,129	123,012	-0,211	-0,184
197,144	-66,594	-0,168	-0,046
198,159	25,724	-0,319	-0,184
199,173	176,121	-0,207	-0,209
200,188	-44,449	-0,213	-0,073
201,202	123,400	-0,107	-0,093
202,217	27,324	-0,214	-0,124
203,232	2,283	-0,208	-0,104
204,246	6,054	-0,292	-0,149
205,261	-1,344	-0,187	-0,091
206,275	-200,000	-0,058	-0,280
207,290	-200,000	-0,044	-0,225
208,304	292,125	-0,105	-0,133
209,319	22,877	-0,236	-0,133
210,334	-49,545	-0,219	-0,072
211,348	-12,683	-0,180	-0,081
212,363	336,214	-0,183	-0,246
213,377	38,104	-0,249	-0,153
214,392	-23,674	-0,211	-0,087
215,407	38,406	-0,206	-0,127
216,421	-34,203	-0,296	-0,112
217,436	378,480	-0,099	-0,141
218,450	236,267	-0,161	-0,184
219,465	650,893	-0,166	-0,296
220,480	159,539	-0,202	-0,195
221,494	57,956	-0,206	-0,139
222,509	313,192	-0,145	-0,189
223,523	255,130	-0,119	-0,142
224,538	-35,912	-0,325	-0,121
225,553	27,677	-0,132	-0,077
226,567	135,031	-0,217	-0,195
227,582	-11,288	-0,221	-0,100
228,596	146,457	-0,103	-0,095
229,611	-102,832	-0,134	-0,022
230,626	27,215	-0,137	-0,079
231,640	-70,982	-0,231	-0,060
232,655	45,255	-0,249	-0,159
233,669	241,411	-0,149	-0,172
234,684	247,118	-0,167	-0,196
235,699	61,133	-0,165	-0,113
236,713	4,366	-0,265	-0,134
237,728	13,492	-0,060	0,032
238,742	-12,365	-0,221	-0,099
239,757	207,741	-0,112	-0,121
240,772	227,172	-0,182	-0,205
241,786	124,208	-0,135	-0,117
242,801	254,816	-0,156	-0,184
243,815	-200,000	-0,213	0,000
244,830	8,889	-0,107	0,056
245,844	-16,889	-0,231	-0,100
246,859	-200,000	-0,001	-0,168
247,874	-24,925	-0,398	-0,162
248,888	-31,997	-0,251	-0,096
249,903	-12,518	-0,210	-0,094
250,917	-42,124	-0,149	-0,052
251,932	-61,037	-0,093	-0,027
252,947	-103,639	-0,155	-0,025
253,961	-42,691	-0,111	-0,039
254,976	-57,437	-0,242	-0,073
255,990	-59,642	-0,173	-0,051
257,005	-37,658	-0,215	-0,079
258,020	-38,241	-0,180	-0,066
259,034	-4,608	-0,177	-0,084
260,049	558,271	-0,170	-0,285
261,063	3,348	-0,232	-0,116
262,078	472,491	-0,133	-0,208
263,093	-10,454	-0,217	-0,099
264,107	271,835	-0,164	-0,200
265,122	0,472	-0,117	0,057
266,136	-131,613	-0,248	-0,022
267,151	155,699	-0,161	-0,153
268,166	141,400	-0,193	-0,176
269,180	-29,035	-0,193	-0,076
270,195	39,126	-0,245	-0,150
271,209	-113,173	-0,242	-0,032
272,224	105,923	-0,120	-0,098
273,239	-41,354	-0,186	-0,066
274,253	-46,040	-0,240	-0,081
275,268	121,164	-0,136	-0,116
276,282	-31,118	-0,268	-0,104
277,297	800,000	-0,082	-0,191
278,312	-33,308	-0,187	-0,071
279,326	800,000	-0,066	-0,137
280,341	-0,614	-0,072	-0,035
281,355	-200,000	0,013	-0,110
282,370	-149,494	-0,160	-0,009
283,384	-12,843	-0,195	-0,087
284,399	72,395	-0,174	-0,125
285,414	192,127	-0,156	-0,162
286,428	-52,304	-0,173	-0,055
287,443	-136,856	-0,255	-0,020
288,457	-52,675	-0,287	-0,091
289,472	240,669	-0,163	-0,187
290,487	73,741	-0,189	-0,136
291,501	31,096	-0,254	-0,149
292,516	-36,120	-0,148	-0,055
293,530	-81,515	-0,176	-0,039
294,545	800,000	-0,042	-0,118
295,560	-121,867	-0,144	-0,016
296,574	204,613	-0,142	-0,152
297,589	23,690	-0,151	-0,085
298,603	42,329	-0,173	-0,108
299,618	-200,000	-0,003	-0,187
300,633	-66,874	-0,231	-0,062
301,647	-5,859	-0,241	-0,113
302,662	-136,226	-0,249	-0,020
303,676	-13,664	-0,149	-0,066
304,691	800,000	-0,131	-0,312
305,706	335,879	-0,150	-0,200
306,720	567,053	-0,084	-0,141
307,735	247,368	0,007	-0,008
308,749	107,719	-0,141	-0,115
309,764	323,683	-0,145	-0,190
310,779	627,383	-0,045	-0,079
311,793	-24,122	-0,215	-0,088
312,808	-119,249	-0,139	0,016
313,822	-22,046	-0,095	-0,039
314,837	-107,943	-0,194	-0,029
315,852	-70,545	-0,103	-0,027
316,866	-145,354	-0,122	0,007
317,881	-89,468	-0,225	-0,045
318,895	800,000	-0,076	-0,168
319,910	294,693	-0,103	-0,129
320,925	16,161	-0,294	-0,158
321,939	242,791	-0,042	-0,048
322,954	79,602	-0,086	-0,064
323,968	275,626	-0,069	-0,084
324,983	352,531	-0,109	-0,148
325,997	32,520	-0,135	-0,080
327,012	63,368	-0,146	-0,100
328,027	-52,233	-0,156	-0,049
329,041	43,687	-0,131	-0,082
330,056	-148,380	-0,083	-0,005
331,070	-47,188	-0,042	-0,014
332,085	413,765	-0,084	-0,123
333,100	594,700	-0,134	-0,229
334,114	-51,409	-0,169	-0,054
335,129	800,000	-0,094	-0,261
336,143	102,497	-0,113	-0,091
337,158	179,006	-0,036	-0,036
338,173	-165,973	-0,099	0,003
339,187	159,652	-0,128	-0,122
340,202	-49,358	-0,147	-0,048
341,216	-91,099	-0,096	-0,019
342,231	-24,037	-0,192	-0,078
343,246	-67,954	-0,170	-0,045
344,260	382,539	-0,153	-0,216
345,275	249,817	-0,091	-0,106
346,289	153,419	-0,063	-0,059
347,304	-91,214	-0,088	0,017
348,319	294,845	-0,083	-0,104
349,333	-78,531	-0,267	-0,062
350,348	206,089	-0,021	-0,023
351,362	166,576	-0,184	-0,178
352,377	-200,000	-0,032	-0,251
353,392	241,781	-0,094	-0,108
354,406	-140,458	-0,097	-0,007
355,421	206,800	1310,546	1398,043
356,435	159,060	1470,718	1398,509
