DTS Sentinel unit serial number:	SN410029Multiplexer serial number:	ORYXHardware model number:	OX2-SRSoftware version number:	ORYX F/W v4,00 Oryx Data Collector v3.7.2.0data status	okinstallation	B3 Nyhavnadifferential loss correction	single-endedforward channel	channel 1reverse channel	N/Adate	2023/12/02time	03:42:30forward acquisition time	300,00reverse acquisition time	0,00gamma	499,1914k internal	0,3194k external	0,3194temperature offset calibration	1,0000default loss term (dB/km)	0,3820temperature slope calibration	1,0000multiplexer offset coefficient	1,0000multiplexer slope coefficient	1,0000fibre end	0,00T internal ref (°C)	16,63T ext. ref 1 (°C)	1,60T ext. ref 2 (°C)	1,59length (m)	temperature (°C)	Stokes	anti-Stokes-744,400	54,995	-0,264	-0,186
-743,385	-200,000	-0,039	0,308
-742,371	-200,000	0,011	-0,200
-741,356	-200,000	0,032	0,315
-740,342	800,000	-0,051	-0,117
-739,327	-200,000	-0,007	0,402
-738,312	23,326	-0,351	-0,210
-737,298	-200,000	-0,019	0,378
-736,283	800,000	-0,111	-0,226
-735,269	-200,000	0,045	0,423
-734,254	115,643	-0,163	-0,146
-733,239	27,975	-0,137	0,084
-732,225	-200,000	-0,064	-0,225
-731,210	122,257	0,045	0,041
-730,196	121,459	-0,109	0,099
-729,181	800,000	-0,055	-0,160
-728,167	-111,640	0,037	-0,005
-727,152	56,073	-0,070	-0,050
-726,137	588,653	-0,106	0,192
-725,123	-32,145	-0,063	0,026
-724,108	322,727	-0,069	-0,096
-723,094	-200,000	0,015	-0,105
-722,079	312,030	-0,075	-0,103
-721,064	-200,000	0,014	0,048
-720,050	108,926	0,071	0,062
-719,035	254,890	-0,057	0,071
-718,021	-10,686	-0,092	0,044
-717,006	-67,662	-0,138	0,039
-715,991	508,932	-0,084	-0,143
-714,977	-147,905	-0,150	-0,009
-713,962	-200,000	-0,011	0,081
-712,948	-169,714	0,135	0,003
-711,933	800,000	-0,053	0,149
-710,918	-200,000	0,011	-0,074
-709,904	-200,000	-0,000	0,092
-708,889	176,777	0,042	-0,045
-707,875	-52,065	0,027	-0,009
-706,860	-72,043	0,164	-0,044
-705,845	-44,617	0,113	0,041
-704,831	-163,299	-0,110	-0,004
-703,816	-100,905	-0,044	0,008
-702,802	157,662	-0,040	-0,040
-701,787	86,560	-0,050	-0,040
-700,772	-200,000	-0,061	-0,208
-699,758	-200,000	0,020	-0,167
-698,743	800,000	-0,047	-0,098
-697,729	-128,441	-0,122	0,012
-696,714	348,605	0,102	0,147
-695,699	-200,000	-0,009	-0,102
-694,685	-200,000	0,038	0,153
-693,670	-38,699	-0,078	0,030
-692,656	352,063	0,020	0,028
-691,641	800,000	0,035	0,096
-690,627	-200,000	0,014	-0,102
-689,612	125,210	-0,082	-0,075
-688,597	-200,000	0,004	-0,053
-687,583	-200,000	0,007	-0,045
-686,568	-200,000	-0,024	-0,157
-685,554	-200,000	-0,010	-0,164
-684,539	387,896	0,027	-0,041
-683,524	-107,935	0,039	-0,006
-682,510	-200,000	-0,001	-0,117
-681,495	-200,000	0,010	-0,038
-680,481	41,950	-0,074	0,049
-679,466	491,750	-0,087	-0,145
-678,451	800,000	-0,044	-0,106
-677,437	-200,000	0,001	-0,071
-676,422	25,955	0,056	0,034
-675,408	-200,000	-0,029	0,106
-674,393	-95,677	0,049	0,009
-673,378	235,169	-0,069	-0,083
-672,364	628,193	0,017	-0,032
-671,349	-200,000	-0,038	0,229
-670,335	16,638	0,064	-0,037
-669,320	-200,000	-0,010	-0,043
-668,305	167,515	-0,082	0,085
-667,291	-200,000	0,001	0,044
-666,276	184,752	-0,076	-0,082
-665,262	-110,557	-0,099	-0,015
-664,247	-153,800	-0,146	0,007
-663,232	144,348	-0,095	-0,093
-662,218	162,667	-0,090	-0,092
-661,203	632,066	-0,025	0,046
-660,189	800,000	-0,051	-0,103
-659,174	493,380	-0,054	-0,090
-658,159	694,078	-0,023	0,044
-657,145	141,071	-0,095	-0,091
-656,130	44,301	-0,098	-0,065
-655,116	-200,000	0,011	0,109
-654,101	-200,000	0,003	0,028
-653,086	-119,196	-0,086	0,011
-652,072	-200,000	-0,034	0,111
-651,057	150,839	-0,054	-0,053
-650,043	359,157	-0,067	0,098
-649,028	51,192	-0,018	0,013
-648,014	800,000	0,041	-0,114
-646,999	6,795	0,144	-0,078
-645,984	-135,179	-0,098	0,008
-644,970	73,561	-0,091	0,069
-643,955	-13,564	-0,179	-0,084
-642,941	-200,000	0,001	-0,116
-641,926	-200,000	0,008	0,051
-640,911	627,549	-0,066	0,122
-639,897	-12,707	-0,097	0,046
-638,882	-200,000	0,001	0,057
-637,868	-54,203	-0,040	-0,013
-636,853	2,362	-0,147	0,077
-635,838	171,005	0,124	0,129
-634,824	10,916	0,061	-0,034
-633,809	-200,000	-0,009	-0,108
-632,795	-200,000	-0,019	0,245
-631,780	4,164	0,130	-0,069
-630,765	380,433	0,045	-0,067
-629,751	-33,346	0,051	0,020
-628,736	-11,812	-0,084	0,040
-627,722	-200,000	0,035	0,118
-626,707	587,333	-0,024	-0,043
-625,692	38,974	0,034	-0,022
-624,678	-47,531	0,094	-0,033
-623,663	800,000	0,034	-0,095
-622,649	-22,694	-0,037	0,016
-621,634	-103,221	0,126	-0,021
-620,619	-5,245	-0,089	-0,044
-619,605	-11,391	0,122	0,058
-618,590	800,000	-0,052	0,117
-617,576	-200,000	-0,019	0,093
-616,561	-101,329	0,073	-0,013
-615,546	320,115	-0,050	-0,069
-614,532	800,000	0,052	0,106
-613,517	-200,000	-0,005	-0,093
-612,503	-111,811	0,103	-0,015
-611,488	270,928	0,041	0,052
-610,474	800,000	-0,037	0,115
-609,459	24,492	0,095	-0,057
-608,444	129,254	-0,070	0,065
-607,430	92,627	-0,189	-0,155
-606,415	800,000	-0,015	-0,040
-605,401	68,419	-0,078	0,058
-604,386	-200,000	-0,010	0,074
-603,371	800,000	-0,015	-0,046
-602,357	373,757	0,026	-0,039
-601,342	104,488	-0,074	-0,063
-600,328	-200,000	-0,034	-0,183
-599,313	-63,320	-0,077	0,023
-598,298	-51,927	-0,140	0,047
-597,284	-200,000	-0,030	-0,106
-596,269	-133,800	-0,097	-0,009
-595,255	-200,000	0,004	0,049
-594,240	-200,000	-0,030	-0,108
-593,225	643,877	-0,023	0,042
-592,211	-69,426	0,094	-0,026
-591,196	-200,000	-0,001	0,016
-590,182	168,116	0,050	0,052
-589,167	71,466	0,064	0,048
-588,152	-174,843	-0,087	-0,002
-587,138	-143,255	-0,100	0,007
-586,123	-200,000	-0,012	-0,041
-585,109	13,975	0,082	0,046
-584,094	-200,000	0,003	-0,023
-583,079	-102,630	0,121	-0,021
-582,065	-55,023	0,104	0,034
-581,050	800,000	0,062	0,189
-580,036	101,006	0,023	-0,019
-579,021	800,000	-0,061	-0,124
-578,006	-200,000	-0,010	0,135
-576,992	-200,000	-0,000	-0,075
-575,977	221,172	-0,104	-0,121
-574,963	-10,273	0,020	-0,009
-573,948	163,836	0,011	0,011
-572,934	-115,917	-0,079	0,011
-571,919	573,855	-0,011	-0,020
-570,904	49,903	-0,031	-0,021
-569,890	-200,000	-0,002	0,009
-568,875	-200,000	0,023	-0,119
-567,861	-200,000	-0,002	0,018
-566,846	-200,000	0,019	-0,070
-565,831	765,073	-0,027	-0,054
-564,817	43,916	-0,091	0,060
-563,802	800,000	0,038	-0,108
-562,788	800,000	-0,029	0,084
-561,773	-51,401	-0,081	0,027
-560,758	-200,000	-0,011	0,084
-559,744	800,000	-0,011	-0,026
-558,729	-48,864	-0,147	-0,051
-557,715	-140,043	-0,032	-0,002
-556,700	-200,000	-0,017	-0,205
-555,685	101,384	-0,091	-0,077
-554,671	15,814	0,062	-0,035
-553,656	-200,000	0,046	0,196
-552,642	353,540	0,050	0,073
-551,627	5,061	0,056	-0,030
-550,612	47,188	0,075	0,050
-549,598	-200,000	0,011	0,086
-548,583	-200,000	-0,005	-0,102
-547,569	-200,000	0,006	-0,037
-546,554	800,000	-0,093	0,196
-545,539	-161,969	0,021	0,001
-544,525	-6,814	0,042	-0,021
-543,510	-200,000	-0,002	-0,063
-542,496	-159,933	-0,128	0,005
-541,481	126,035	-0,024	-0,022
-540,466	-76,951	0,122	0,031
-539,452	282,692	0,059	-0,077
-538,437	285,578	-0,027	0,035
-537,423	-200,000	0,002	0,114
-536,408	-200,000	0,013	0,092
-535,393	-87,171	-0,113	-0,025
-534,379	486,711	0,066	-0,109
-533,364	-200,000	0,000	-0,066
-532,350	196,022	0,074	-0,081
-531,335	800,000	-0,045	0,107
-530,321	-200,000	0,009	-0,057
-529,306	800,000	0,031	-0,068
-528,291	-200,000	-0,009	-0,105
-527,277	-200,000	-0,021	0,080
-526,262	-200,000	0,023	-0,084
-525,248	256,001	0,021	-0,025
-524,233	-103,532	0,068	0,011
-523,218	-44,869	-0,075	-0,027
-522,204	-34,369	-0,074	-0,029
-521,189	-45,143	-0,033	0,012
-520,175	-92,558	-0,084	0,017
-519,160	185,538	0,074	0,079
-518,145	333,135	0,033	-0,046
-517,131	745,684	-0,012	0,023
-516,116	-200,000	0,022	0,094
-515,102	-200,000	-0,041	-0,145
-514,087	640,507	0,067	-0,124
-513,072	691,051	0,047	-0,089
-512,058	94,017	0,071	0,058
-511,043	800,000	0,033	0,066
-510,029	-106,828	-0,190	0,030
-509,014	-200,000	-0,005	0,110
-507,999	-200,000	-0,023	-0,084
-506,985	-65,615	-0,090	0,026
-505,970	-200,000	0,003	-0,074
-504,956	120,674	-0,046	-0,042
-503,941	-200,000	-0,021	0,068
-502,926	120,877	0,058	0,052
-501,912	626,538	-0,070	0,128
-500,897	145,654	0,101	0,098
-499,883	187,454	0,101	-0,109
-498,868	15,530	-0,043	0,024
-497,853	18,245	0,127	-0,073
-496,839	54,021	-0,099	-0,069
-495,824	12,752	0,013	-0,007
-494,810	308,231	0,040	0,054
-493,795	19,742	0,076	0,044
-492,781	285,332	-0,094	-0,122
-491,766	-200,000	0,000	0,124
-490,751	-200,000	-0,029	-0,117
-489,737	-200,000	0,047	-0,174
-488,722	-200,000	-0,025	0,110
-487,708	-150,709	0,040	0,002
-486,693	409,465	0,052	0,079
-485,678	164,014	-0,048	0,049
-484,664	33,202	-0,039	0,024
-483,649	237,513	0,054	0,064
-482,635	339,303	0,046	-0,064
-481,620	-197,944	-0,151	-0,001
-480,605	800,000	0,037	0,084
-479,591	-84,241	0,103	0,023
-478,576	-87,764	-0,069	-0,015
-477,562	-92,935	0,119	-0,024
-476,547	105,892	0,070	0,060
-475,532	49,858	-0,030	0,020
-474,518	-200,000	0,021	-0,095
-473,503	56,600	0,147	0,103
-472,489	640,036	-0,061	0,113
-471,474	-118,996	-0,045	0,006
-470,459	-72,526	-0,112	-0,030
-469,445	-169,874	-0,154	0,004
-468,430	800,000	-0,040	-0,091
-467,416	-94,583	-0,115	-0,022
-466,401	-200,000	0,002	-0,056
-465,386	-5,752	0,007	0,003
-464,372	-60,334	-0,033	-0,010
-463,357	-200,000	-0,010	-0,040
-462,343	0,916	-0,140	-0,072
-461,328	27,627	-0,013	-0,008
-460,313	-200,000	-0,010	0,080
-459,299	-200,000	0,021	0,107
-458,284	-200,000	0,014	0,054
-457,270	800,000	-0,017	0,044
-456,255	96,565	0,053	0,044
-455,241	220,966	-0,081	0,093
-454,226	-200,000	-0,010	-0,053
-453,211	-167,445	-0,108	0,003
-452,197	-152,155	-0,132	-0,007
-451,182	800,000	-0,032	0,089
-450,168	143,646	-0,104	0,100
-449,153	-200,000	-0,013	0,051
-448,138	-137,045	-0,171	-0,014
-447,124	340,850	0,089	-0,126
-446,109	-27,063	0,030	0,013
-445,095	765,319	-0,060	-0,119
-444,080	504,965	-0,022	0,036
-443,065	-105,488	0,132	0,021
-442,051	-200,000	0,012	0,056
-441,036	127,583	-0,085	0,077
-440,022	-200,000	-0,016	-0,075
-439,007	252,161	-0,040	-0,049
-437,992	-200,000	-0,002	0,015
-436,978	800,000	0,014	0,031
-435,963	246,934	0,119	0,145
-434,949	-200,000	-0,005	0,084
-433,934	-200,000	-0,007	-0,069
-432,919	-9,735	-0,068	-0,033
-431,905	-99,477	-0,106	0,019
-430,890	-200,000	0,025	0,125
-429,876	-32,413	-0,080	-0,032
-428,861	320,007	-0,073	0,100
-427,846	-200,000	-0,019	-0,068
-426,832	391,804	0,058	-0,088
-425,817	86,231	-0,087	0,069
-424,803	6,390	-0,065	0,035
-423,788	-26,067	0,153	0,064
-422,773	-68,089	0,095	-0,027
-421,759	-200,000	0,002	-0,016
-420,744	-120,145	0,126	0,015
-419,730	288,427	0,064	-0,084
-418,715	21,190	-0,091	-0,053
-417,701	-200,000	0,033	-0,148
-416,686	213,828	0,044	-0,051
-415,671	202,828	0,085	-0,094
-414,657	8,917	0,048	0,026
-413,642	-200,000	0,019	0,101
-412,628	97,097	0,041	-0,034
-411,613	-200,000	-0,025	-0,150
-410,598	-200,000	-0,011	-0,123
-409,584	800,000	-0,039	-0,090
-408,569	-200,000	0,009	-0,043
-407,555	-200,000	-0,028	0,120
-406,540	169,004	0,027	0,028
-405,525	-52,118	-0,104	-0,034
-404,511	-189,679	-0,070	0,001
-403,496	-129,728	0,019	-0,002
-402,482	-44,824	0,103	0,037
-401,467	-200,000	-0,013	0,070
-400,452	106,160	-0,123	0,104
-399,438	268,149	0,079	0,100
-398,423	740,291	0,072	-0,140
-397,409	-133,715	-0,066	0,006
-396,394	-39,853	-0,015	0,006
-395,379	-200,000	-0,001	-0,189
-394,365	-58,635	0,043	0,013
-393,350	-102,695	-0,034	0,006
-392,336	-98,157	-0,043	-0,008
-391,321	800,000	0,015	-0,042
-390,306	123,966	-0,118	-0,106
-389,292	-102,706	-0,066	-0,011
-388,277	142,382	0,055	0,053
-387,263	693,870	-0,019	0,037
-386,248	-45,700	0,182	0,064
-385,233	600,765	0,008	0,015
-384,219	-1,220	0,090	-0,046
-383,204	-155,888	0,055	-0,002
-382,190	244,839	-0,087	-0,105
-381,175	-200,000	0,025	0,090
-380,160	111,464	0,087	0,075
-379,146	-127,773	-0,082	-0,008
-378,131	-69,477	0,024	-0,007
-377,117	18,865	0,087	-0,050
-376,102	160,673	0,069	-0,069
-375,088	-35,777	0,025	-0,010
-374,073	-200,000	-0,027	-0,087
-373,058	-107,598	-0,078	0,012
-372,044	9,012	-0,094	0,051
-371,029	-4,014	0,089	0,044
-370,015	283,365	0,047	-0,061
-369,000	-200,000	-0,009	-0,125
-367,985	800,000	0,044	-0,105
-366,971	-200,000	-0,029	-0,120
-365,956	800,000	0,014	0,028
-364,942	-104,789	0,143	0,023
-363,927	-20,022	0,064	0,028
-362,912	-94,178	-0,110	-0,021
-361,898	-176,071	-0,106	0,002
-360,883	-17,241	0,070	-0,032
-359,869	-18,630	-0,046	0,021
-358,854	-200,000	0,013	0,055
-357,839	-200,000	0,021	0,203
-356,825	-53,962	-0,039	-0,013
-355,810	-200,000	0,012	0,122
-354,796	-170,619	-0,115	0,003
-353,781	0,792	-0,096	-0,049
-352,766	800,000	0,032	-0,091
-351,752	-200,000	-0,046	0,160
-350,737	-200,000	0,020	0,145
-349,723	-200,000	-0,030	-0,111
-348,708	6,126	-0,126	-0,067
-347,693	46,451	-0,014	-0,009
-346,679	-103,992	0,090	-0,015
-345,664	-200,000	-0,026	-0,212
-344,650	-200,000	0,010	-0,099
-343,635	-200,000	0,034	-0,169
-342,620	240,123	-0,013	0,016
-341,606	-200,000	0,009	0,104
-340,591	303,357	0,059	0,079
-339,577	-171,963	-0,127	-0,003
-338,562	694,848	-0,091	-0,171
-337,548	561,824	0,041	0,072
-336,533	-200,000	0,000	0,020
-335,518	53,189	0,074	0,051
-334,504	239,390	0,144	0,172
-333,489	122,823	-0,091	-0,081
-332,475	-129,341	0,035	0,003
-331,460	-57,954	-0,183	-0,057
-330,445	-100,544	-0,197	-0,035
-329,431	-35,514	0,105	-0,041
-328,416	114,007	0,067	-0,058
-327,402	108,235	-0,065	0,055
-326,387	378,849	0,019	-0,029
-325,372	-200,000	0,006	0,055
-324,358	254,145	0,083	-0,102
-323,343	20,939	-0,193	0,112
-322,329	19,408	0,183	0,105
-321,314	-118,004	0,092	-0,012
-320,299	61,697	-0,013	0,009
-319,285	497,614	-0,023	0,039
-318,270	54,443	-0,045	0,031
-317,256	49,014	-0,178	-0,120
-316,241	129,211	-0,190	-0,174
-315,226	245,692	0,060	0,072
-314,212	-75,897	0,141	-0,036
-313,197	-53,909	0,108	0,035
-312,183	14,743	0,037	0,021
-311,168	489,786	-0,082	0,135
-310,153	131,930	-0,057	-0,053
-309,139	-200,000	0,038	-0,147
-308,124	-165,773	0,071	0,002
-307,110	74,570	0,070	0,053
-306,095	-143,637	0,076	0,005
-305,080	268,586	0,016	-0,021
-304,066	-40,946	0,151	-0,056
-303,051	239,941	-0,140	-0,168
-302,037	-53,907	-0,062	0,020
-301,022	-7,259	-0,068	0,033
-300,008	-114,818	-0,032	-0,004
-298,993	49,289	0,023	0,016
-297,978	87,228	0,184	-0,146
-296,964	800,000	0,013	-0,034
-295,949	-48,869	-0,097	-0,033
-294,935	160,873	0,130	-0,130
-293,920	-200,000	-0,011	0,047
-292,905	-200,000	-0,017	0,117
-291,891	800,000	0,025	-0,068
-290,876	99,017	0,024	0,020
-289,862	-140,231	-0,042	0,003
-288,847	128,472	0,017	-0,015
-287,832	278,538	0,035	0,045
-286,818	-200,000	-0,004	0,077
-285,803	229,816	-0,099	-0,116
-284,789	53,954	0,108	-0,074
-283,774	138,956	0,048	-0,045
-282,759	185,296	-0,079	0,084
-281,745	-90,908	0,046	-0,009
-280,730	-200,000	0,015	-0,095
-279,716	-1,778	0,049	0,025
-278,701	477,686	0,060	0,097
-277,686	-123,520	0,084	-0,009
-276,672	-200,000	0,003	0,077
-275,657	-200,000	-0,007	-0,031
-274,643	-200,000	0,038	0,126
-273,628	800,000	0,054	-0,118
-272,613	-102,565	-0,070	0,012
-271,599	486,922	-0,047	0,077
-270,584	-200,000	0,027	0,221
-269,570	-160,146	0,164	-0,006
-268,555	-200,000	0,006	0,075
-267,540	-16,404	-0,101	-0,046
-266,526	-23,057	-0,126	0,054
-265,511	68,857	0,065	0,048
-264,497	419,939	0,019	0,030
-263,482	-17,436	-0,060	0,027
-262,467	-77,789	0,021	0,005
-261,453	477,991	-0,046	-0,074
-260,438	27,931	-0,089	0,053
-259,424	800,000	-0,040	-0,081
-258,409	301,008	0,057	-0,075
-257,395	-200,000	0,008	0,121
-256,380	-200,000	0,021	0,111
-255,365	45,678	0,083	0,055
-254,351	34,468	-0,114	0,071
-253,336	62,285	0,065	0,046
-252,322	800,000	0,068	-0,161
-251,307	-200,000	-0,006	0,066
-250,292	137,612	-0,034	-0,032
-249,278	-8,482	0,120	0,057
-248,263	82,669	-0,043	0,033
-247,249	-44,200	-0,040	0,014
-246,234	-200,000	0,006	-0,021
-245,219	742,394	0,068	0,132
-244,205	784,798	-0,053	0,103
-243,190	-200,000	0,014	0,143
-242,176	800,000	0,080	0,162
-241,161	-200,000	0,013	-0,117
-240,146	28,731	-0,106	0,064
-239,132	-26,274	0,074	0,031
-238,117	-200,000	-0,001	0,012
-237,103	-200,000	-0,023	-0,119
-236,088	216,066	0,031	-0,035
-235,073	233,913	0,118	0,140
-234,059	-49,027	-0,047	-0,016
-233,044	274,945	0,110	0,140
-232,030	136,045	0,021	0,019
-231,015	-200,000	-0,021	-0,107
-230,000	-82,844	0,115	-0,026
-228,986	-200,000	-0,008	0,094
-227,971	-200,000	0,013	-0,072
-226,957	302,427	0,060	0,080
-225,942	-200,000	0,011	0,080
-224,927	32,571	-0,017	0,011
-223,913	193,765	-0,116	-0,126
-222,898	-151,815	0,107	-0,006
-221,884	-113,010	-0,069	0,010
-220,869	-200,000	-0,002	0,020
-219,855	-38,388	-0,121	-0,046
-218,840	-103,796	0,100	-0,017
-217,825	-17,238	0,025	-0,011
-216,811	106,202	-0,061	0,052
-215,796	-200,000	-0,003	-0,037
-214,782	27,359	-0,103	-0,062
-213,767	-159,693	0,020	0,001
-212,752	657,583	-0,019	-0,034
-211,738	800,000	0,045	0,103
-210,723	141,695	0,064	0,061
-209,709	58,052	0,082	-0,057
-208,694	-200,000	-0,006	0,091
-207,679	-200,000	-0,006	-0,064
-206,665	34,920	0,078	0,049
-205,650	93,256	0,070	0,056
-204,636	302,646	-0,036	0,048
-203,621	36,710	0,046	0,029
-202,606	-19,594	-0,135	0,059
-201,592	-200,000	0,014	0,083
-200,577	800,000	-0,076	-0,160
-199,563	30,248	0,104	-0,063
-198,548	-21,355	0,119	-0,052
-197,533	106,880	0,072	-0,061
-196,519	9,610	0,207	0,112
-195,504	-84,559	-0,027	0,006
-194,490	-104,914	0,011	-0,002
-193,475	299,634	-0,117	-0,155
-192,460	-200,000	-0,014	-0,049
-191,446	611,114	-0,048	0,085
-190,431	83,555	0,070	0,054
-189,417	100,745	0,027	-0,022
-188,402	-200,000	0,002	0,101
-187,387	364,426	-0,028	-0,040
-186,373	-61,464	-0,026	0,008
-185,358	173,815	-0,037	0,038
-184,344	-200,000	-0,003	0,013
-183,329	81,281	0,136	0,105
-182,315	119,533	0,070	-0,062
-181,300	515,415	-0,059	0,099
-180,285	-10,126	0,044	0,021
-179,271	800,000	0,111	-0,238
-178,256	800,000	0,039	-0,118
-177,242	-18,733	0,098	-0,044
-176,227	-200,000	-0,007	0,047
-175,212	37,388	0,060	-0,038
-174,198	-16,169	-0,094	0,042
-173,183	800,000	0,039	-0,093
-172,169	-200,000	-0,006	-0,122
-171,154	-91,233	0,068	0,014
-170,139	800,000	-0,007	0,014
-169,125	-200,000	-0,004	0,055
-168,110	98,623	0,101	-0,083
-167,096	20,831	-0,101	0,058
-166,081	181,036	0,034	-0,035
-165,066	-18,413	-0,146	-0,065
-164,052	-34,255	-0,042	-0,017
-163,037	421,474	0,091	-0,140
-162,023	66,131	-0,063	-0,045
-161,008	300,308	0,052	0,068
-159,993	96,237	-0,145	0,118
-158,979	95,568	0,071	-0,058
-157,964	224,182	0,047	-0,054
-156,950	-75,017	-0,118	0,030
-155,935	118,264	-0,101	0,088
-154,920	275,492	0,080	0,101
-153,906	10,836	0,114	-0,062
-152,891	180,273	0,040	0,041
-151,877	-200,000	-0,014	-0,107
-150,862	800,000	0,014	0,038
-149,847	103,530	0,033	-0,027
-148,833	-200,000	-0,002	-0,086
-147,818	-41,740	-0,038	-0,014
-146,804	-200,000	0,038	0,127
-145,789	-55,126	0,073	0,023
-144,775	-68,786	-0,071	-0,020
-143,760	38,549	-0,200	-0,127
-142,745	-32,458	-0,067	-0,026
-141,731	69,907	0,053	0,039
-140,716	-200,000	-0,008	-0,109
-139,702	-163,935	-0,083	0,003
-138,687	627,534	-0,031	-0,057
-137,672	-200,000	-0,017	-0,067
-136,658	161,050	0,013	-0,013
-135,643	-200,000	0,000	0,020
-134,629	-145,737	0,084	-0,005
-133,614	-200,000	0,026	0,090
-132,599	-37,754	-0,039	-0,015
-131,585	-33,096	0,149	-0,059
-130,570	-9,081	-0,123	-0,058
-129,556	79,025	-0,097	-0,074
-128,541	0,567	-0,126	0,064
-127,526	-200,000	0,000	-0,047
-126,512	-111,028	0,082	0,012
-125,497	-200,000	-0,017	0,098
-124,483	418,853	-0,043	-0,066
-123,468	-200,000	-0,010	-0,043
-122,453	-58,961	-0,084	-0,026
-121,439	-85,967	-0,147	0,032
-120,424	100,340	0,163	-0,134
-119,410	-200,000	0,021	0,198
-118,395	-200,000	-0,009	0,039
-117,380	14,132	0,187	0,103
-116,366	62,209	-0,135	0,096
-115,351	-80,324	-0,130	0,031
-114,337	-98,227	0,078	0,014
-113,322	218,022	0,093	-0,106
-112,307	-77,138	-0,127	0,031
-111,293	-200,000	0,002	-0,016
-110,278	-65,533	0,199	0,056
-109,264	800,000	0,022	-0,051
-108,249	284,987	-0,090	0,116
-107,234	-200,000	-0,043	0,000
-106,220	99,282	-0,051	-0,042
-105,205	-95,268	0,167	-0,032
-104,191	-200,000	0,002	-0,065
-103,176	87,675	0,109	0,086
-102,162	-75,140	-0,072	0,018
-101,147	19,231	0,074	-0,042
-100,132	-200,000	-0,004	-0,067
-99,118	-193,236	-0,071	-0,000
-98,103	33,872	0,032	-0,020
-97,089	-1,346	0,030	-0,015
-96,074	168,235	0,075	0,076
-95,059	312,532	0,054	0,072
-94,045	103,351	-0,042	0,035
-93,030	30,548	-0,064	0,039
-92,016	-200,000	0,053	0,192
-91,001	-30,532	-0,123	0,049
-89,986	-102,798	0,016	0,003
-88,972	-200,000	-0,048	0,152
-87,957	-158,156	0,051	0,002
-86,943	-116,686	-0,017	-0,002
-85,928	221,965	0,018	-0,020
-84,913	800,000	-0,010	0,023
-83,899	-17,852	-0,023	-0,010
-82,884	-200,000	0,020	0,081
-81,870	-101,503	-0,021	-0,004
-80,855	84,467	0,048	0,037
-79,840	26,581	-0,114	-0,067
-78,826	-107,775	-0,059	0,009
-77,811	-3,671	0,045	-0,022
-76,797	-144,850	0,057	-0,004
-75,782	800,000	-0,047	0,134
-74,767	31,075	0,059	0,036
-73,753	-41,901	0,083	-0,030
-72,738	-24,090	-0,059	0,025
-71,724	-44,471	-0,162	0,057
-70,709	711,561	0,013	0,024
-69,694	36,306	-0,058	-0,036
-68,680	-200,000	0,022	-0,097
-67,665	163,258	-0,112	0,112
-66,651	-200,000	0,019	0,070
-65,636	-200,000	0,048	-0,238
-64,622	402,283	-0,067	-0,100
-63,607	88,400	-0,105	0,082
-62,592	19,004	0,043	-0,025
-61,578	-5,319	0,119	0,058
-60,563	-50,511	0,080	0,027
-59,549	-200,000	0,031	0,148
-58,534	-78,487	-1,424	-0,343
-57,519	310,556	-1,662	-2,214
-56,505	-200,000	-0,468	-4,442
-55,490	65,614	1,024	0,735
-54,476	800,000	4,724	11,295
-53,461	-200,000	17,292	268,948
-52,446	800,000	714,525	2180,482
-51,432	552,472	1629,220	2787,933
-50,417	81,476	1655,208	1268,781
-49,403	24,443	1529,491	895,161
-48,388	18,468	1452,862	821,554
-47,373	18,605	1442,220	816,160
-46,359	18,261	1433,382	809,491
-45,344	16,761	1428,412	799,532
-44,330	16,685	1426,614	798,135
-43,315	16,710	1424,791	797,201
-42,300	16,709	1423,290	796,324
-41,286	16,786	1422,089	795,984
-40,271	16,761	1420,608	795,005
-39,257	16,754	1419,452	794,294
-38,242	16,779	1418,082	793,614
-37,227	16,764	1416,950	792,877
-36,213	16,754	1415,739	792,123
-35,198	16,743	1414,428	791,304
-34,184	16,763	1413,658	790,935
-33,169	16,652	1412,468	789,718
-32,154	16,731	1411,345	789,432
-31,140	16,743	1410,261	788,847
-30,125	16,745	1408,973	788,107
-29,111	16,782	1407,604	787,481
-28,096	16,694	1406,845	786,615
-27,082	16,642	1405,692	785,695
-26,067	16,685	1404,460	785,179
-25,052	16,731	1403,176	784,644
-24,038	16,639	1402,493	783,803
-23,023	16,621	1401,413	783,083
-22,009	16,618	1400,314	782,423
-20,994	16,568	1399,724	781,833
-19,979	16,595	1398,608	781,300
-18,965	16,555	1397,682	780,565
-17,950	16,563	1396,743	780,047
-16,936	16,635	1395,599	779,714
-15,921	16,572	1394,226	778,623
-14,906	16,572	1393,441	778,156
-13,892	16,559	1392,782	777,697
-12,877	16,540	1391,825	777,042
-11,863	16,576	1390,802	776,604
-10,848	16,542	1389,780	775,846
-9,833	16,538	1389,044	775,390
-8,819	16,458	1388,258	774,549
-7,804	16,484	1387,130	774,011
-6,790	16,458	1386,218	773,348
-5,775	16,454	1385,121	772,687
-4,760	16,411	1384,310	772,006
-3,746	16,461	1383,433	771,720
-2,731	16,424	1382,856	771,197
-1,717	16,412	1381,664	770,447
-0,702	16,426	1379,890	769,489
0,313	20,234	1301,541	743,343
1,327	36,673	707,623	442,285
2,342	56,208	125,747	86,470
3,356	3,647	16,623	8,571
4,371	1,592	3,169	1,612
5,386	-18,733	0,472	0,208
6,400	48,669	-0,070	0,047
7,415	214,152	-0,342	-0,384
8,429	98,371	-0,248	-0,202
9,444	11,825	-0,372	-0,202
10,459	11,310	-0,368	-0,199
11,473	469,461	-0,149	-0,237
12,488	17,614	-0,356	-0,200
13,502	35,153	-0,203	-0,125
14,517	64,361	-0,396	-0,282
15,531	-22,384	-0,384	-0,164
16,546	6,225	-0,345	-0,181
17,561	21,057	-0,375	-0,215
18,575	-66,693	-0,242	-0,067
19,590	72,775	-0,231	-0,171
20,604	-169,267	-0,338	-0,009
21,619	96,692	-0,394	-0,320
22,634	148,027	-0,354	-0,338
23,648	113,453	-0,277	-0,238
24,663	134,535	-0,298	-0,274
25,677	18,200	-0,366	-0,206
26,692	31,647	-0,346	-0,210
27,707	432,923	-0,241	-0,371
28,721	59,149	-0,327	-0,227
29,736	103,491	-0,419	-0,347
30,750	179,644	-0,286	-0,297
31,765	218,585	-0,323	-0,365
32,780	23,751	-0,408	-0,237
33,794	-90,616	-0,413	-0,084
34,809	249,357	-0,304	-0,365
35,823	-66,798	-0,360	-0,100
36,838	49,214	-0,316	-0,210
37,853	144,526	-0,428	-0,404
38,867	88,640	-0,422	-0,331
39,882	358,971	-0,291	-0,412
40,896	117,205	-0,333	-0,289
41,911	183,205	-0,184	-0,192
42,926	-8,482	-0,409	-0,193
43,940	24,429	-0,452	-0,263
44,955	1,483	-0,432	-0,219
45,969	76,312	-0,323	-0,242
46,984	54,465	-0,278	-0,189
47,999	94,937	-0,342	-0,274
49,013	195,507	-0,327	-0,351
50,028	27,228	-0,342	-0,202
51,042	343,296	-0,215	-0,298
52,057	216,777	-0,332	-0,373
53,071	19,326	-0,396	-0,224
54,086	31,163	-0,213	-0,129
55,101	-5,808	-0,361	-0,174
56,115	153,278	-0,323	-0,312
57,130	48,113	-0,344	-0,227
58,144	79,947	-0,384	-0,291
59,159	53,731	-0,356	-0,241
60,174	74,124	-0,334	-0,247
61,188	221,021	-0,294	-0,334
62,203	28,123	-0,418	-0,248
63,217	111,666	-0,258	-0,219
64,232	16,123	-0,173	-0,096
65,247	-57,056	-0,292	-0,090
66,261	123,706	-0,305	-0,270
67,276	244,885	-0,249	-0,296
68,290	148,925	-0,299	-0,285
69,305	7,071	-0,331	-0,173
70,320	-66,101	-0,348	-0,097
71,334	-25,949	-0,224	-0,093
72,349	-59,688	-0,270	-0,081
73,363	32,057	-0,269	-0,163
74,378	22,323	-0,199	-0,115
75,393	139,431	-0,180	-0,167
76,407	56,758	-0,275	-0,189
77,422	53,214	-0,358	-0,241
78,436	-82,921	-0,271	-0,061
79,451	80,243	-0,387	-0,293
80,466	101,871	-0,362	-0,297
81,480	244,454	-0,266	-0,316
82,495	-1,858	-0,339	-0,167
83,509	-28,738	-0,273	-0,110
84,524	40,286	-0,309	-0,195
85,539	-64,111	-0,148	-0,042
86,553	-112,062	-0,404	-0,057
87,568	210,166	-0,291	-0,321
88,582	236,143	-0,209	-0,244
89,597	76,242	-0,397	-0,295
90,611	48,204	-0,341	-0,224
91,626	149,713	-0,202	-0,193
92,641	31,340	-0,184	-0,111
93,655	-19,600	-0,285	-0,124
94,670	38,983	-0,265	-0,166
95,684	-21,201	-0,363	-0,155
96,699	-78,396	-0,278	-0,066
97,714	0,405	-0,194	-0,097
98,728	176,520	-0,185	-0,189
99,743	-120,905	-0,376	0,044
100,757	104,971	-0,214	-0,177
101,772	-79,834	-0,340	-0,080
102,787	27,371	-0,242	-0,143
103,801	404,706	-0,208	-0,309
104,816	-51,379	-0,225	-0,074
105,830	-64,031	-0,252	-0,072
106,845	88,411	-0,290	-0,226
107,860	114,260	-0,282	-0,241
108,874	-200,000	-0,025	-0,162
109,889	12,566	-0,166	-0,090
110,903	405,220	-0,251	-0,372
111,918	80,329	-0,210	-0,159
112,933	145,803	-0,158	-0,149
113,947	495,540	-0,145	-0,235
114,962	-66,794	-0,162	-0,045
115,976	105,814	-0,209	-0,173
116,991	-21,588	-0,266	-0,113
118,006	24,330	-0,293	-0,170
119,020	233,926	-0,229	-0,265
120,035	133,430	-0,260	-0,236
121,049	16,896	-0,167	-0,093
122,064	-163,348	-0,135	0,004
123,079	63,469	-0,210	-0,148
124,093	80,391	-0,261	-0,197
125,108	-37,756	-0,353	-0,131
126,122	311,964	-0,236	-0,312
127,137	264,015	-0,196	-0,240
128,151	-21,742	-0,320	-0,136
129,166	66,079	-0,176	-0,125
130,181	34,870	-0,274	-0,168
131,195	13,575	-0,254	-0,138
132,210	-10,738	-0,381	-0,176
133,224	771,919	-0,113	-0,217
134,239	88,332	-0,245	-0,190
135,254	79,285	-0,201	-0,151
136,268	157,357	-0,243	-0,236
137,283	14,192	-0,288	-0,157
138,297	-45,059	-0,405	-0,140
139,312	34,559	-0,317	-0,194
140,327	459,247	-0,166	-0,259
141,341	243,174	-0,167	-0,196
142,356	-12,598	-0,185	-0,084
143,370	191,196	-0,155	-0,164
144,385	635,258	-0,133	-0,238
145,400	252,607	-0,238	-0,284
146,414	52,235	-0,278	-0,185
147,429	215,281	-0,226	-0,251
148,443	295,782	-0,130	-0,168
149,458	148,273	-0,210	-0,198
150,473	209,525	-0,137	-0,151
151,487	14,878	-0,345	-0,189
152,502	123,451	-0,264	-0,231
153,516	352,802	-0,216	-0,301
154,531	100,551	-0,246	-0,200
155,546	104,485	-0,234	-0,193
156,560	-66,618	-0,145	-0,040
157,575	32,442	-0,253	-0,152
158,589	39,039	-0,230	-0,143
159,604	60,403	-0,234	-0,161
160,619	143,759	-0,223	-0,208
161,633	-2,592	-0,311	-0,152
162,648	-121,793	-0,296	-0,034
163,662	-66,931	-0,294	-0,081
164,677	11,962	-0,243	-0,130
165,692	93,145	-0,143	-0,113
166,706	83,329	-0,116	-0,088
167,721	77,685	-0,249	-0,185
168,735	177,906	-0,248	-0,253
169,750	242,124	-0,177	-0,207
170,764	120,008	-0,120	-0,104
171,779	188,848	-0,150	-0,157
172,794	61,980	-0,106	-0,074
173,808	-43,408	-0,250	-0,088
174,823	-89,673	-0,270	-0,055
175,837	92,816	-0,215	-0,169
176,852	-12,404	-0,348	-0,158
177,867	-54,053	-0,190	-0,060
178,881	369,601	-0,092	-0,131
179,896	190,924	-0,149	-0,157
180,910	294,434	-0,153	-0,195
181,925	167,637	-0,217	-0,215
182,940	72,474	-0,197	-0,143
183,954	44,252	-0,276	-0,176
184,969	63,150	-0,161	-0,112
185,983	-151,209	-0,195	-0,010
186,998	122,939	-0,192	-0,168
188,013	-10,803	-0,124	-0,057
189,027	-51,584	-0,320	-0,104
190,042	152,571	-0,269	-0,256
191,056	283,966	-0,116	-0,146
192,071	54,840	-0,183	-0,123
193,086	45,027	-0,207	-0,133
194,100	-14,143	-0,209	-0,094
195,115	216,549	-0,158	-0,175
196,129	-71,004	-0,242	-0,063
197,144	-33,752	-0,166	-0,063
198,159	143,870	-0,208	-0,193
199,173	92,251	-0,217	-0,170
200,188	-95,231	-0,175	-0,032
201,202	-49,897	-0,152	0,050
202,217	8,638	-0,222	-0,116
203,232	-200,000	0,006	-0,063
204,246	1,545	-0,230	-0,115
205,261	5,376	-0,157	-0,081
206,275	220,321	-0,147	-0,164
207,290	102,030	-0,112	-0,091
208,304	259,300	-0,144	-0,174
209,319	10,841	-0,160	0,085
210,334	-35,677	-0,223	-0,084
211,348	800,000	-0,109	-0,215
212,363	134,123	-0,166	-0,150
213,377	28,879	-0,260	-0,153
214,392	31,166	-0,108	-0,064
215,407	-89,960	-0,176	-0,035
216,421	-52,088	-0,211	-0,068
217,436	103,449	-0,189	-0,154
218,450	469,022	-0,109	-0,171
219,465	21,229	-0,167	-0,094
220,480	9,399	-0,197	-0,103
221,494	310,935	-0,137	-0,180
222,509	-103,674	-0,206	-0,033
223,523	264,904	-0,127	-0,154
224,538	207,813	-0,120	-0,131
225,553	117,107	-0,197	-0,168
226,567	247,949	-0,142	-0,167
227,582	3,233	-0,192	-0,097
228,596	371,941	-0,074	-0,105
229,611	-0,827	-0,170	-0,083
230,626	-130,633	-0,203	-0,019
231,640	83,948	-0,264	-0,200
232,655	349,027	-0,161	-0,221
233,669	6,680	-0,165	-0,085
234,684	-200,000	-0,073	-0,230
235,699	23,028	-0,144	-0,082
236,713	51,073	-0,218	-0,144
237,728	800,000	-0,054	-0,120
238,742	660,094	-0,115	-0,207
239,757	-22,461	-0,211	-0,088
240,772	261,875	-0,140	-0,169
241,786	800,000	-0,155	-0,303
242,801	-20,851	-0,301	-0,127
243,815	-25,898	-0,067	-0,027
244,830	-200,000	-0,012	-0,078
245,844	700,163	-0,111	-0,205
246,859	800,000	-0,066	-0,185
247,874	-20,925	-0,282	-0,120
248,888	126,072	-0,085	-0,074
249,903	44,650	-0,156	-0,099
250,917	800,000	-0,031	-0,091
251,932	216,803	-0,141	-0,156
252,947	103,512	-0,206	-0,168
253,961	-73,345	-0,176	-0,044
254,976	233,046	-0,186	-0,213
255,990	62,236	-0,219	-0,151
257,005	-200,000	-0,047	-0,295
258,020	197,415	-0,130	-0,138
259,034	370,856	-0,156	-0,220
260,049	-133,399	-0,147	-0,013
261,063	65,653	-0,172	-0,120
262,078	-42,045	-0,120	0,042
263,093	317,207	-0,109	-0,144
264,107	-26,087	-0,159	0,065
265,122	124,486	-0,192	-0,168
266,136	-16,863	-0,178	-0,077
267,151	-61,568	-0,117	-0,034
268,166	-89,740	-0,220	-0,044
269,180	83,652	-0,144	-0,108
270,195	99,363	-0,287	-0,230
271,209	429,007	-0,169	-0,254
272,224	-200,000	-0,006	-0,226
273,239	-46,235	-0,144	0,049
274,253	-135,806	-0,074	0,006
275,268	-86,472	-0,193	-0,041
276,282	-35,667	-0,262	-0,098
277,297	190,949	-0,198	-0,206
278,312	18,903	-0,063	0,035
279,326	69,191	-0,199	-0,142
280,341	-45,450	-0,154	-0,053
281,355	-121,082	-0,272	-0,031
282,370	261,444	-0,230	-0,276
283,384	36,016	-0,211	-0,128
284,399	44,211	-0,143	-0,091
285,414	113,177	-0,169	-0,142
286,428	-155,171	-0,080	-0,004
287,443	636,578	-0,055	-0,097
288,457	-56,316	-0,156	-0,048
289,472	194,878	-0,272	-0,286
290,487	501,504	-0,081	-0,130
291,501	73,110	-0,145	-0,105
292,516	313,039	-0,136	-0,177
293,530	86,167	-0,233	-0,177
294,545	-181,046	-0,208	-0,003
295,560	123,118	-0,176	-0,153
296,574	116,129	-0,188	-0,159
297,589	-106,955	-0,116	0,018
298,603	-56,581	-0,112	0,034
299,618	112,285	-0,184	-0,154
300,633	800,000	-0,009	-0,023
301,647	230,417	0,036	0,041
302,662	15,814	-0,107	-0,058
303,676	402,324	-0,089	-0,129
304,691	800,000	-0,095	-0,256
305,706	400,149	-0,034	-0,050
306,720	674,352	-0,145	-0,260
307,735	800,000	-0,072	-0,151
308,749	167,596	-0,154	-0,151
309,764	270,421	-0,126	-0,153
310,779	130,515	-0,195	-0,173
311,793	269,434	-0,143	-0,173
312,808	208,795	-0,182	-0,197
313,822	15,511	-0,293	-0,158
314,837	214,902	-0,171	-0,188
315,852	221,490	-0,097	-0,108
316,866	-90,702	-0,123	-0,024
317,881	774,661	-0,042	-0,080
318,895	270,327	-0,190	-0,231
319,910	200,315	-0,118	-0,125
320,925	-69,719	-0,250	-0,065
321,939	128,016	-0,149	-0,130
322,954	161,418	-0,143	-0,138
323,968	32,863	-0,118	-0,070
324,983	-62,475	-0,139	-0,040
325,997	-85,515	-0,216	-0,046
327,012	-97,938	-0,214	-0,038
328,027	334,294	-0,144	-0,192
329,041	133,549	-0,087	-0,077
330,056	673,589	0,055	-0,099
331,070	-200,000	-0,003	-0,240
332,085	-138,344	-0,221	0,017
333,100	107,203	-0,130	-0,106
334,114	-45,692	-0,258	-0,087
335,129	-200,000	-0,002	-0,068
336,143	109,105	-0,107	-0,088
337,158	93,284	-0,141	-0,110
338,173	1,766	-0,145	-0,072
339,187	-3,031	-0,046	-0,022
340,202	-28,537	-0,147	-0,058
341,216	36,623	-0,243	-0,148
342,231	800,000	0,005	0,010
343,246	-157,817	-0,132	-0,005
344,260	-195,194	-0,068	0,000
345,275	20,076	-0,113	0,062
346,289	52,006	-0,082	-0,054
347,304	233,419	-0,047	-0,053
348,319	125,368	-0,072	-0,062
349,333	800,000	-0,103	-0,207
350,348	-58,814	-0,111	-0,033
351,362	7,563	-0,155	-0,080
352,377	-107,092	-0,170	-0,026
353,392	-118,619	-0,062	-0,007
354,406	367,226	-0,108	-0,150
355,421	210,503	1314,574	1421,199
356,435	162,052	1475,329	1421,726
