DTS Sentinel unit serial number:	SN410029Multiplexer serial number:	ORYXHardware model number:	OX2-SRSoftware version number:	ORYX F/W v4,00 Oryx Data Collector v3.7.2.0data status	okinstallation	B3 Nyhavnadifferential loss correction	single-endedforward channel	channel 1reverse channel	N/Adate	2023/11/30time	22:02:30forward acquisition time	300,00reverse acquisition time	0,00gamma	499,1914k internal	0,3210k external	0,3210temperature offset calibration	1,0000default loss term (dB/km)	0,3820temperature slope calibration	1,0000multiplexer offset coefficient	1,0000multiplexer slope coefficient	1,0000fibre end	0,00T internal ref (°C)	10,27T ext. ref 1 (°C)	-5,05T ext. ref 2 (°C)	-5,19length (m)	temperature (°C)	Stokes	anti-Stokes-744,400	117,797	-0,196	-0,175
-743,385	505,734	0,114	0,192
-742,371	239,376	-0,156	-0,188
-741,356	381,217	-0,085	0,127
-740,342	-26,909	-0,210	-0,089
-739,327	-200,000	0,011	0,314
-738,312	529,722	-0,141	-0,243
-737,298	-200,000	-0,041	0,175
-736,283	800,000	-0,102	-0,216
-735,269	-200,000	-0,054	0,322
-734,254	-200,000	-0,000	-0,357
-733,239	122,386	-0,184	0,166
-732,225	179,575	-0,118	-0,126
-731,210	-200,000	0,012	0,081
-730,196	-200,000	0,021	-0,089
-729,181	-71,482	-0,062	-0,017
-728,167	-4,437	0,057	-0,028
-727,152	413,220	-0,034	0,053
-726,137	-200,000	-0,031	0,113
-725,123	-107,579	-0,139	-0,022
-724,108	555,928	-0,021	0,036
-723,094	691,857	-0,058	-0,110
-722,079	800,000	-0,008	-0,022
-721,064	800,000	0,054	-0,117
-720,050	-200,000	-0,009	-0,076
-719,035	-134,678	-0,017	0,001
-718,021	-200,000	0,016	-0,057
-717,006	746,268	-0,070	-0,137
-715,991	800,000	-0,040	-0,110
-714,977	-49,818	-0,078	-0,027
-713,962	-51,506	-0,040	0,013
-712,948	-4,952	-0,119	-0,059
-711,933	566,273	0,069	0,122
-710,918	-200,000	-0,038	0,133
-709,904	-46,189	-0,041	0,015
-708,889	426,438	0,065	-0,101
-707,875	-60,721	-0,153	-0,047
-706,860	-3,057	0,102	0,051
-705,845	-88,427	0,036	-0,008
-704,831	194,919	-0,020	0,022
-703,816	220,240	0,049	-0,056
-702,802	800,000	-0,044	-0,110
-701,787	502,678	0,039	0,066
-700,772	-77,700	0,091	-0,023
-699,758	-200,000	-0,009	-0,074
-698,743	800,000	-0,058	0,129
-697,729	116,706	-0,078	0,070
-696,714	-23,542	-0,058	0,025
-695,699	158,585	0,131	-0,132
-694,685	800,000	-0,019	-0,048
-693,670	-23,110	-0,146	-0,063
-692,656	82,688	0,083	0,065
-691,641	800,000	0,042	0,086
-690,627	-80,877	0,017	0,004
-689,612	-58,467	-0,158	-0,049
-688,597	-13,321	-0,037	-0,017
-687,583	-200,000	-0,020	-0,096
-686,568	736,860	-0,019	0,038
-685,554	-60,411	-0,129	-0,039
-684,539	641,682	-0,093	0,172
-683,524	97,821	-0,065	0,054
-682,510	-26,741	0,156	0,066
-681,495	-60,111	-0,067	-0,021
-680,481	-50,051	0,029	-0,010
-679,466	800,000	-0,097	-0,205
-678,451	800,000	-0,046	-0,104
-677,437	-200,000	-0,001	0,138
-676,422	-200,000	-0,011	-0,041
-675,408	-114,733	-0,154	-0,021
-674,393	95,328	0,081	0,067
-673,378	33,005	-0,106	0,066
-672,364	-200,000	0,029	-0,112
-671,349	88,363	-0,111	-0,089
-670,335	314,263	-0,036	0,049
-669,320	-85,812	0,078	0,017
-668,305	453,991	0,068	0,109
-667,291	-36,479	-0,142	0,055
-666,276	80,127	-0,035	-0,028
-665,262	-200,000	0,013	-0,055
-664,247	232,775	-0,032	-0,038
-663,232	-102,376	-0,012	0,002
-662,218	150,155	0,116	0,114
-661,203	53,769	0,052	0,036
-660,189	-31,208	-0,083	0,034
-659,174	96,438	0,091	-0,075
-658,159	-200,000	-0,011	0,039
-657,145	-6,810	-0,076	0,037
-656,130	-35,616	0,068	-0,027
-655,116	800,000	0,048	-0,096
-654,101	136,329	0,085	0,080
-653,086	50,895	-0,111	0,076
-652,072	-200,000	0,002	0,034
-651,057	800,000	-0,031	0,084
-650,043	-200,000	0,014	0,101
-649,028	-200,000	-0,013	0,137
-648,014	-67,213	0,082	0,023
-646,999	64,876	0,084	-0,061
-645,984	47,288	-0,055	-0,037
-644,970	-41,809	0,123	-0,045
-643,955	-102,269	-0,085	0,015
-642,941	800,000	-0,045	-0,133
-641,926	-133,250	-0,156	-0,014
-640,911	800,000	0,010	0,026
-639,897	-200,000	0,011	0,099
-638,882	109,681	-0,060	0,052
-637,868	426,047	0,078	0,121
-636,853	236,135	0,035	0,042
-635,838	-27,403	0,042	0,018
-634,824	-17,253	-0,113	0,051
-633,809	-55,638	-0,044	-0,014
-632,795	17,254	-0,188	-0,107
-631,780	-67,523	-0,072	0,020
-630,765	-200,000	0,011	-0,083
-629,751	455,437	0,061	-0,099
-628,736	190,415	0,033	-0,035
-627,722	41,040	-0,107	-0,070
-626,707	-151,365	0,015	-0,001
-625,692	203,477	0,100	0,112
-624,678	800,000	0,052	-0,111
-623,663	92,682	-0,091	0,074
-622,649	-48,081	-0,173	-0,060
-621,634	-200,000	-0,018	-0,098
-620,619	-93,502	-0,023	-0,004
-619,605	48,903	0,128	-0,087
-618,590	-200,000	0,022	-0,148
-617,576	106,221	0,046	0,039
-616,561	-200,000	0,003	-0,140
-615,546	-157,925	-0,054	0,002
-614,532	-30,386	-0,057	-0,023
-613,517	-159,876	-0,101	-0,004
-612,503	-40,628	0,116	0,043
-611,488	-200,000	0,009	0,032
-610,474	146,237	-0,066	0,064
-609,459	475,421	-0,019	-0,031
-608,444	689,130	0,028	0,053
-607,430	-120,444	0,076	0,009
-606,415	274,734	0,026	-0,034
-605,401	-108,169	0,012	0,002
-604,386	-71,813	0,083	-0,022
-603,371	800,000	0,009	-0,025
-602,357	-200,000	0,007	-0,080
-601,342	203,895	0,007	-0,008
-600,328	-200,000	-0,008	0,050
-599,313	-29,233	-0,063	-0,026
-598,298	-84,829	-0,064	0,014
-597,284	344,865	-0,058	-0,083
-596,269	56,154	0,143	0,100
-595,255	-40,105	0,121	0,045
-594,240	800,000	-0,064	-0,142
-593,225	-86,310	0,018	0,004
-592,211	226,018	-0,045	-0,053
-591,196	800,000	0,020	0,042
-590,182	-200,000	-0,027	0,149
-589,167	-67,871	0,040	0,011
-588,152	347,535	0,039	0,055
-587,138	348,675	-0,049	-0,070
-586,123	-200,000	-0,008	-0,110
-585,109	-112,447	0,045	0,006
-584,094	48,408	0,083	0,056
-583,079	204,516	0,071	0,079
-582,065	-60,092	0,197	-0,060
-581,050	332,008	-0,052	-0,072
-580,036	390,445	0,043	-0,065
-579,021	800,000	0,042	-0,106
-578,006	800,000	0,024	-0,051
-576,992	42,597	-0,094	-0,061
-575,977	-0,021	0,030	-0,015
-574,963	285,589	0,024	0,031
-573,948	800,000	0,032	-0,091
-572,934	264,104	-0,096	-0,120
-571,919	-200,000	0,016	-0,051
-570,904	-70,200	-0,085	0,023
-569,890	-142,985	-0,103	-0,007
-568,875	582,407	0,004	0,008
-567,861	-122,802	0,078	0,009
-566,846	194,469	-0,109	0,119
-565,831	-41,284	-0,111	0,041
-564,817	-67,062	0,184	0,052
-563,802	-200,000	-0,007	0,045
-562,788	800,000	0,038	-0,110
-561,773	-130,460	0,122	-0,012
-560,758	-200,000	0,036	0,155
-559,744	-200,000	-0,013	0,194
-558,729	-138,242	-0,077	-0,006
-557,715	-200,000	-0,005	-0,021
-556,700	800,000	-0,023	-0,052
-555,685	-77,729	0,057	-0,014
-554,671	-200,000	-0,016	-0,097
-553,656	-94,099	0,212	0,041
-552,642	800,000	0,037	-0,082
-551,627	-64,013	-0,064	-0,019
-550,612	-99,539	-0,150	-0,027
-549,598	-200,000	-0,036	-0,173
-548,583	-200,000	-0,031	-0,187
-547,569	71,743	0,079	-0,059
-546,554	-57,304	0,087	0,027
-545,539	-200,000	-0,011	0,076
-544,525	19,578	-0,064	-0,037
-543,510	-15,393	-0,066	0,030
-542,496	-27,257	-0,051	0,021
-541,481	800,000	-0,083	-0,184
-540,466	-125,113	-0,077	-0,008
-539,452	142,903	0,077	0,074
-538,437	437,748	0,001	-0,002
-537,423	158,729	-0,017	0,017
-536,408	800,000	-0,033	-0,079
-535,393	360,493	-0,078	-0,112
-534,379	-139,471	-0,044	-0,003
-533,364	667,528	-0,055	0,104
-532,350	-52,201	0,112	0,037
-531,335	238,068	-0,060	0,072
-530,321	-96,104	0,096	-0,018
-529,306	59,341	-0,112	0,079
-528,291	584,326	-0,051	-0,091
-527,277	-200,000	-0,021	-0,078
-526,262	-200,000	0,027	-0,098
-525,248	-200,000	-0,005	-0,018
-524,233	371,833	-0,043	0,063
-523,218	-200,000	-0,025	0,179
-522,204	-152,430	0,027	0,001
-521,189	-121,908	-0,048	0,006
-520,175	312,629	0,035	0,048
-519,160	-200,000	0,012	0,061
-518,145	-200,000	0,017	-0,082
-517,131	124,597	0,065	0,059
-516,116	-50,294	0,030	0,010
-515,102	-200,000	-0,011	0,048
-514,087	-200,000	-0,003	-0,098
-513,072	-33,281	-0,119	-0,047
-512,058	335,722	0,030	-0,042
-511,043	-174,446	0,057	0,001
-510,029	-68,474	0,066	-0,018
-509,014	800,000	0,025	0,061
-507,999	-7,971	-0,066	0,032
-506,985	-30,706	-0,171	0,069
-505,970	-101,229	-0,215	-0,037
-504,956	534,279	0,068	-0,117
-503,941	25,640	0,046	0,027
-502,926	-138,496	0,102	0,008
-501,912	-200,000	0,018	-0,096
-500,897	191,134	0,086	0,093
-499,883	-200,000	-0,002	0,030
-498,868	-172,462	-0,118	-0,003
-497,853	453,069	0,058	-0,093
-496,839	800,000	-0,024	-0,059
-495,824	197,406	-0,029	0,032
-494,810	40,531	0,125	0,081
-493,795	107,594	0,070	0,060
-492,781	-57,972	-0,076	-0,024
-491,766	-200,000	-0,032	-0,128
-490,751	-200,000	0,016	-0,134
-489,737	-16,964	0,090	-0,041
-488,722	451,145	-0,046	0,073
-487,708	3,013	-0,086	0,045
-486,693	-97,336	0,047	-0,009
-485,678	238,342	-0,047	0,056
-484,664	-200,000	-0,011	-0,241
-483,649	516,330	0,046	0,077
-482,635	71,601	-0,092	-0,068
-481,620	-59,968	-0,156	-0,048
-480,605	-200,000	-0,007	0,034
-479,591	325,873	0,095	0,131
-478,576	-179,064	0,121	0,002
-477,562	-139,967	-0,156	0,012
-476,547	-200,000	-0,023	-0,100
-475,532	-159,615	-0,035	0,001
-474,518	-17,697	0,032	0,014
-473,503	113,715	0,017	0,015
-472,489	251,511	-0,036	-0,044
-471,474	4,677	0,055	-0,029
-470,459	400,520	0,030	-0,046
-469,445	-25,371	0,113	0,048
-468,430	78,817	0,031	-0,023
-467,416	-95,045	0,073	0,014
-466,401	-39,024	-0,176	0,066
-465,386	77,703	0,074	-0,057
-464,372	57,377	0,053	0,037
-463,357	-127,984	0,104	0,011
-462,343	298,547	-0,091	0,120
-461,328	800,000	-0,015	0,034
-460,313	79,313	0,125	0,096
-459,299	-200,000	0,008	0,057
-458,284	-200,000	0,005	0,171
-457,270	-200,000	0,005	-0,097
-456,255	8,497	-0,122	-0,066
-455,241	159,865	-0,094	-0,094
-454,226	-129,317	0,233	-0,023
-453,211	-200,000	0,004	-0,066
-452,197	-200,000	0,060	-0,191
-451,182	800,000	0,042	0,103
-450,168	-200,000	0,014	0,155
-449,153	-200,000	-0,022	0,147
-448,138	-104,375	0,097	0,016
-447,124	-200,000	0,008	-0,211
-446,109	-200,000	0,002	0,050
-445,095	-166,446	-0,026	-0,001
-444,080	253,992	-0,108	0,132
-443,065	338,053	0,055	-0,078
-442,051	46,822	-0,112	0,075
-441,036	167,307	-0,085	-0,086
-440,022	-138,782	-0,190	0,015
-439,007	-200,000	0,009	-0,069
-437,992	3,432	0,069	0,036
-436,978	91,967	0,030	-0,024
-435,963	-200,000	0,008	0,071
-434,949	-117,756	-0,099	-0,013
-433,934	142,425	0,080	0,076
-432,919	-98,296	-0,157	-0,029
-431,905	322,133	0,022	0,030
-430,890	639,364	0,030	0,054
-429,876	800,000	0,057	0,115
-428,861	-200,000	-0,006	0,128
-427,846	159,852	0,080	-0,080
-426,832	49,817	-0,097	0,066
-425,817	-200,000	0,008	-0,057
-424,803	-96,616	-0,057	-0,011
-423,788	-28,504	-0,027	0,011
-422,773	257,588	-0,011	-0,014
-421,759	21,198	0,060	0,035
-420,744	182,524	-0,027	0,029
-419,730	-200,000	0,014	-0,094
-418,715	622,175	-0,081	-0,146
-417,701	800,000	0,044	0,128
-416,686	609,206	0,050	0,090
-415,671	-189,158	-0,100	0,001
-414,657	432,578	0,038	0,059
-413,642	-200,000	0,031	0,101
-412,628	-85,201	0,116	0,026
-411,613	-200,000	0,018	0,130
-410,598	-75,051	-0,146	-0,037
-409,584	-18,594	0,099	-0,044
-408,569	800,000	-0,004	-0,010
-407,555	-200,000	-0,001	-0,082
-406,540	206,963	0,076	0,085
-405,525	95,133	0,073	0,060
-404,511	189,106	0,018	0,019
-403,496	139,322	-0,023	-0,022
-402,482	451,538	0,048	0,077
-401,467	316,049	0,105	0,142
-400,452	-81,297	0,030	0,007
-399,438	-142,989	-0,049	0,003
-398,423	800,000	-0,017	0,038
-397,409	277,601	-0,049	-0,063
-396,394	327,003	0,068	-0,094
-395,379	-200,000	0,018	0,066
-394,365	271,372	0,104	-0,132
-393,350	354,337	0,033	0,047
-392,336	-0,750	0,069	-0,035
-391,321	607,007	-0,026	-0,047
-390,306	-200,000	0,001	0,093
-389,292	-200,000	-0,027	-0,123
-388,277	17,489	0,111	-0,063
-387,263	-200,000	-0,006	-0,022
-386,248	-96,516	0,100	0,019
-385,233	-82,815	0,033	0,008
-384,219	-27,427	0,046	-0,019
-383,204	56,177	-0,069	-0,048
-382,190	7,459	-0,155	-0,083
-381,175	191,538	0,056	0,060
-380,160	132,069	0,109	0,100
-379,146	-38,033	-0,042	-0,016
-378,131	800,000	0,028	0,060
-377,117	-78,934	-0,154	-0,037
-376,102	512,587	0,050	-0,084
-375,088	13,639	-0,055	-0,031
-374,073	-117,833	-0,093	0,012
-373,058	-181,840	-0,124	-0,002
-372,044	800,000	0,026	0,053
-371,029	800,000	0,058	0,123
-370,015	800,000	-0,045	-0,139
-369,000	800,000	-0,051	-0,134
-367,985	-73,783	-0,019	0,005
-366,971	-200,000	-0,026	-0,085
-365,956	38,144	0,034	-0,022
-364,942	301,009	0,044	0,059
-363,927	-155,107	0,109	-0,005
-362,912	-37,684	-0,111	-0,042
-361,898	800,000	0,029	-0,069
-360,883	-15,031	-0,077	0,035
-359,869	-200,000	0,022	-0,108
-358,854	-200,000	-0,029	0,117
-357,839	21,320	-0,014	0,008
-356,825	36,396	0,092	0,058
-355,810	-143,441	0,067	0,005
-354,796	-144,796	-0,057	-0,004
-353,781	87,041	0,020	-0,015
-352,766	-6,788	0,090	-0,044
-351,752	-200,000	0,013	0,045
-350,737	177,768	-0,070	-0,073
-349,723	-200,000	-0,046	0,150
-348,708	-143,022	0,063	0,004
-347,693	-200,000	-0,003	0,126
-346,679	-145,229	-0,042	0,003
-345,664	-200,000	-0,000	-0,213
-344,650	345,576	0,060	-0,084
-343,635	387,235	0,067	0,099
-342,620	59,257	-0,125	-0,088
-341,606	-200,000	0,020	-0,103
-340,591	-200,000	-0,026	-0,095
-339,577	800,000	0,031	-0,074
-338,562	800,000	0,037	-0,107
-337,548	-200,000	-0,015	-0,117
-336,533	158,623	0,101	0,100
-335,518	612,765	0,119	0,214
-334,504	-80,993	0,079	-0,018
-333,489	-106,747	-0,168	-0,026
-332,475	155,685	0,018	0,017
-331,460	-13,085	-0,094	0,043
-330,445	195,216	0,095	0,104
-329,431	-200,000	-0,023	0,084
-328,416	-80,345	-0,088	0,021
-327,402	432,310	-0,041	0,064
-326,387	630,253	0,043	-0,078
-325,372	800,000	-0,023	0,060
-324,358	-14,112	0,022	-0,010
-323,343	-103,150	0,082	0,014
-322,329	-200,000	0,013	0,084
-321,314	-200,000	0,001	0,066
-320,299	-44,487	0,060	0,021
-319,285	-39,551	-0,021	0,008
-318,270	-200,000	-0,008	0,127
-317,256	-143,694	-0,095	0,006
-316,241	46,235	-0,143	0,094
-315,226	114,340	0,056	0,049
-314,212	153,533	0,060	0,059
-313,197	-200,000	-0,007	0,058
-312,183	-78,938	-0,108	-0,026
-311,168	-200,000	0,025	0,118
-310,153	605,429	-0,063	-0,113
-309,139	359,440	-0,092	0,132
-308,124	-160,690	-0,051	0,002
-307,110	78,237	0,024	0,018
-306,095	627,274	-0,024	0,043
-305,080	800,000	0,021	0,043
-304,066	117,698	-0,096	-0,084
-303,051	198,414	-0,055	-0,060
-302,037	166,458	0,068	-0,069
-301,022	95,241	0,058	0,047
-300,008	759,428	0,036	0,070
-298,993	82,446	0,057	0,044
-297,978	-200,000	-0,005	-0,077
-296,964	66,715	0,062	0,045
-295,949	616,757	-0,039	0,071
-294,935	511,923	0,013	-0,022
-293,920	221,508	-0,074	-0,085
-292,905	-200,000	-0,025	-0,126
-291,891	-114,101	-0,005	0,001
-290,876	225,523	0,104	-0,120
-289,862	128,212	-0,091	0,082
-288,847	-200,000	0,026	-0,187
-287,832	-200,000	0,011	-0,046
-286,818	-200,000	-0,009	0,048
-285,803	-80,988	-0,069	-0,016
-284,789	-9,564	0,057	0,027
-283,774	-66,493	0,070	0,020
-282,759	90,336	0,021	0,017
-281,745	-200,000	0,014	-0,050
-280,730	170,884	0,068	-0,069
-279,716	-34,997	-0,056	0,022
-278,701	-200,000	-0,006	0,078
-277,686	-200,000	-0,006	0,079
-276,672	452,153	0,082	0,130
-275,657	800,000	-0,027	0,055
-274,643	800,000	-0,018	-0,055
-273,628	5,884	-0,097	-0,051
-272,613	-65,839	-0,030	0,009
-271,599	-200,000	0,049	0,157
-270,584	-200,000	0,002	0,160
-269,570	2,640	-0,059	0,030
-268,555	-200,000	-0,012	0,098
-267,540	93,179	0,063	-0,051
-266,526	150,111	-0,100	-0,097
-265,511	-21,123	-0,134	-0,058
-264,497	5,326	0,032	-0,017
-263,482	42,028	0,080	-0,052
-262,467	-110,132	0,037	-0,005
-261,453	96,965	0,060	0,049
-260,438	-2,809	-0,077	-0,038
-259,424	-200,000	0,032	-0,202
-258,409	-200,000	-0,031	-0,115
-257,395	-83,862	-0,031	0,007
-256,380	800,000	-0,044	0,110
-255,365	340,032	0,055	0,077
-254,351	-200,000	-0,011	0,043
-253,336	297,113	0,034	0,045
-252,322	800,000	-0,014	-0,036
-251,307	-31,880	0,101	0,040
-250,292	800,000	0,025	0,069
-249,278	83,210	0,106	0,082
-248,263	333,690	-0,049	-0,067
-247,249	369,340	0,063	0,091
-246,234	-15,514	-0,071	0,032
-245,219	208,664	-0,089	0,099
-244,205	177,496	0,015	0,016
-243,190	-200,000	-0,001	-0,030
-242,176	75,120	0,092	0,069
-241,161	-200,000	-0,014	0,077
-240,146	-15,120	0,070	-0,032
-239,132	325,402	0,047	-0,064
-238,117	-200,000	0,014	0,045
-237,103	-34,914	-0,125	0,048
-236,088	135,616	-0,012	-0,011
-235,073	283,233	0,095	0,122
-234,059	-200,000	0,006	-0,053
-233,044	-200,000	-0,010	0,116
-232,030	86,510	0,004	-0,003
-231,015	-2,475	0,044	0,022
-230,000	89,202	-0,176	-0,139
-228,986	800,000	-0,057	0,116
-227,971	-21,730	0,110	-0,047
-226,957	800,000	0,032	-0,070
-225,942	800,000	0,033	0,100
-224,927	-200,000	-0,013	0,059
-223,913	155,403	-0,034	0,033
-222,898	-200,000	0,001	-0,025
-221,884	633,214	0,056	-0,101
-220,869	3,364	-0,088	-0,045
-219,855	-36,187	0,059	-0,022
-218,840	104,127	0,142	0,119
-217,825	747,432	-0,044	0,084
-216,811	146,296	-0,055	-0,053
-215,796	-61,704	-0,114	-0,034
-214,782	800,000	-0,026	-0,080
-213,767	8,245	0,054	0,029
-212,752	-200,000	0,011	0,129
-211,738	109,469	-0,114	0,097
-210,723	87,493	0,025	-0,020
-209,709	-46,293	0,053	0,019
-208,694	-48,035	-0,130	0,044
-207,679	-46,675	0,056	0,019
-206,665	-121,984	0,136	-0,016
-205,650	-200,000	-0,004	0,119
-204,636	409,367	-0,020	0,030
-203,621	-200,000	-0,025	-0,110
-202,606	492,687	-0,082	0,135
-201,592	68,609	-0,117	-0,085
-200,577	71,639	0,028	-0,021
-199,563	108,312	-0,021	-0,018
-198,548	23,471	-0,018	0,011
-197,533	-15,604	0,102	0,046
-196,519	-200,000	0,005	-0,098
-195,504	10,808	-0,123	-0,067
-194,490	-200,000	0,053	-0,245
-193,475	495,141	-0,084	-0,138
-192,460	186,866	0,083	-0,087
-191,446	-200,000	-0,000	0,061
-190,431	-200,000	0,008	0,075
-189,417	-200,000	-0,007	-0,059
-188,402	-200,000	0,048	-0,182
-187,387	-162,714	-0,061	-0,002
-186,373	-65,765	0,162	-0,046
-185,358	-95,341	-0,076	0,014
-184,344	228,466	0,140	-0,162
-183,329	800,000	-0,048	-0,119
-182,315	119,460	0,048	-0,042
-181,300	416,549	0,093	0,141
-180,285	100,110	-0,146	-0,120
-179,271	-200,000	-0,002	0,097
-178,256	26,570	0,043	0,026
-177,242	-200,000	0,023	-0,073
-176,227	203,654	-0,091	-0,100
-175,212	257,200	0,078	0,096
-174,198	21,132	-0,055	0,032
-173,183	-7,579	-0,032	0,015
-172,169	181,369	-0,058	-0,060
-171,154	800,000	-0,032	0,075
-170,139	-200,000	0,010	0,073
-169,125	734,787	0,078	0,149
-168,110	-69,469	0,069	-0,019
-167,096	-200,000	0,001	0,038
-166,081	188,089	-0,022	-0,024
-165,066	43,266	0,068	-0,044
-164,052	-98,606	0,047	0,008
-163,037	800,000	0,078	0,176
-162,023	-10,174	-0,084	0,039
-161,008	-200,000	0,017	0,099
-159,993	92,424	0,034	-0,027
-158,979	-200,000	0,003	-0,059
-157,964	82,900	-0,043	-0,033
-156,950	-200,000	0,014	-0,061
-155,935	555,203	-0,073	-0,126
-154,920	126,632	0,065	0,059
-153,906	172,665	0,073	0,074
-152,891	-160,180	-0,154	0,006
-151,877	-200,000	-0,013	-0,099
-150,862	800,000	0,032	-0,084
-149,847	643,510	-0,071	0,129
-148,833	242,170	0,065	0,077
-147,818	291,373	-0,088	0,114
-146,804	-18,389	0,164	-0,072
-145,789	256,245	-0,077	0,093
-144,775	800,000	-0,054	0,153
-143,760	-109,560	-0,217	0,032
-142,745	371,492	0,088	0,128
-141,731	247,198	0,032	0,039
-140,716	209,483	-0,031	-0,034
-139,702	0,414	0,079	-0,040
-138,687	-133,146	-0,139	0,012
-137,672	-200,000	0,006	-0,074
-136,658	-200,000	0,008	-0,066
-135,643	800,000	-0,031	-0,089
-134,629	-123,085	0,243	-0,027
-133,614	-200,000	-0,156	0,001
-132,599	323,530	0,031	0,042
-131,585	298,444	-0,018	-0,023
-130,570	76,422	-0,094	0,071
-129,556	307,669	-0,003	0,004
-128,541	545,536	0,062	-0,105
-127,526	-98,808	0,021	-0,004
-126,512	117,121	-0,035	-0,030
-125,497	800,000	-0,019	-0,040
-124,483	180,768	0,003	0,003
-123,468	-200,000	-0,014	0,068
-122,453	416,412	-0,018	-0,028
-121,439	-179,714	0,118	-0,002
-120,424	800,000	-0,058	-0,149
-119,410	-52,211	0,068	0,022
-118,395	69,316	0,059	0,043
-117,380	-84,726	0,164	-0,036
-116,366	-120,084	-0,059	-0,007
-115,351	-200,000	0,026	-0,120
-114,337	-200,000	0,004	-0,026
-113,322	-200,000	-0,009	-0,049
-112,307	800,000	-0,026	0,073
-111,293	-200,000	0,023	0,087
-110,278	-25,608	-0,157	0,065
-109,264	-200,000	-0,008	0,086
-108,249	265,881	0,010	0,013
-107,234	8,986	0,029	-0,015
-106,220	-112,520	0,081	-0,011
-105,205	452,046	0,058	0,091
-104,191	120,597	-0,048	0,042
-103,176	226,400	0,035	-0,041
-102,162	249,053	0,120	0,144
-101,147	44,737	-0,057	-0,037
-100,132	-47,565	-0,049	-0,017
-99,118	-200,000	0,002	-0,111
-98,103	-200,000	0,012	-0,052
-97,089	135,334	0,054	-0,050
-96,074	-200,000	0,027	0,111
-95,059	-123,396	0,133	0,015
-94,045	-2,076	-0,120	-0,059
-93,030	800,000	0,028	-0,065
-92,016	77,616	-0,035	0,026
-91,001	800,000	-0,030	-0,093
-89,986	-200,000	0,003	0,038
-88,972	-200,000	0,002	-0,119
-87,957	-200,000	-0,028	0,113
-86,943	-200,000	0,015	-0,077
-85,928	-63,961	0,087	-0,025
-84,913	-200,000	-0,012	-0,080
-83,899	-200,000	-0,001	-0,020
-82,884	-0,847	0,154	0,077
-81,870	-65,805	-0,192	0,054
-80,855	193,566	0,047	-0,051
-79,840	-144,603	0,121	-0,008
-78,826	-200,000	-0,007	0,078
-77,811	-200,000	-0,036	-0,235
-76,797	-200,000	-0,002	0,053
-75,782	-65,733	0,033	0,009
-74,767	-143,469	0,120	0,008
-73,753	-200,000	-0,020	0,153
-72,738	-160,273	-0,057	0,002
-71,724	-200,000	0,006	-0,038
-70,709	-182,997	-0,047	-0,001
-69,694	594,559	-0,053	-0,093
-68,680	-200,000	-0,021	-0,099
-67,665	120,114	0,099	0,086
-66,651	-200,000	-0,039	0,160
-65,636	-15,728	-0,119	0,054
-64,622	800,000	0,052	0,110
-63,607	-25,629	-0,079	0,033
-62,592	1,248	-0,016	0,008
-61,578	202,573	0,104	0,113
-60,563	218,033	0,038	0,043
-59,549	-200,000	0,010	0,106
-58,534	19,081	-2,088	-1,179
-57,519	547,273	-1,120	-1,900
-56,505	-200,000	-0,447	-4,488
-55,490	302,616	1,012	1,325
-54,476	800,000	5,230	11,710
-53,461	-200,000	21,315	342,772
-52,446	800,000	760,338	2363,663
-51,432	560,052	1664,438	2849,516
-50,417	73,833	1664,145	1230,469
-49,403	18,158	1537,856	863,705
-48,388	12,089	1461,052	791,157
-47,373	19,519	1451,995	821,942
-46,359	15,574	1441,464	797,153
-45,344	10,399	1437,101	770,022
-44,330	10,319	1435,271	768,629
-43,315	10,265	1433,599	767,445
-42,300	10,335	1431,649	766,705
-41,286	10,345	1430,429	766,069
-40,271	10,338	1429,418	765,461
-39,257	10,323	1427,971	764,584
-38,242	10,322	1427,139	764,108
-37,227	10,363	1425,794	763,550
-36,213	10,350	1424,515	762,773
-35,198	10,355	1423,326	762,131
-34,184	10,368	1422,569	761,754
-33,169	10,270	1421,284	760,573
-32,154	10,369	1420,088	760,372
-31,140	10,382	1418,760	759,691
-30,125	10,420	1417,862	759,359
-29,111	10,351	1416,629	758,344
-28,096	10,335	1415,281	757,520
-27,082	10,326	1414,098	756,811
-26,067	10,288	1413,302	756,177
-25,052	10,320	1412,041	755,624
-24,038	10,321	1411,115	755,100
-23,023	10,288	1410,257	754,457
-22,009	10,338	1409,078	754,033
-20,994	10,288	1408,189	753,292
-19,979	10,286	1407,419	752,841
-18,965	10,228	1406,403	751,998
-17,950	10,274	1405,306	751,596
-16,936	10,255	1404,700	751,153
-15,921	10,213	1403,734	750,410
-14,906	10,240	1402,683	749,942
-13,892	10,218	1401,878	749,380
-12,877	10,226	1400,798	748,810
-11,863	10,197	1400,200	748,327
-10,848	10,202	1399,260	747,819
-9,833	10,119	1398,409	746,950
-8,819	10,140	1397,365	746,458
-7,804	10,080	1396,829	745,866
-6,790	10,125	1395,548	745,357
-5,775	10,100	1394,595	744,704
-4,760	10,131	1393,499	744,235
-3,746	10,112	1392,500	743,584
-2,731	10,128	1391,653	743,176
-1,717	10,105	1390,856	742,612
-0,702	10,096	1388,974	741,536
0,313	14,118	1301,724	713,397
1,327	30,309	691,354	415,660
2,342	47,608	119,777	78,687
3,356	0,295	16,536	8,298
4,371	4,344	3,593	1,851
5,386	17,331	0,978	0,546
6,400	800,000	0,184	0,402
7,415	-200,000	-0,050	-0,160
8,429	72,639	-0,273	-0,201
9,444	86,369	-0,252	-0,195
10,459	197,810	-0,232	-0,250
11,473	270,125	-0,211	-0,262
12,488	21,811	-0,228	-0,131
13,502	39,450	-0,300	-0,189
14,517	107,069	-0,321	-0,269
15,531	126,525	-0,441	-0,393
16,546	-55,724	-0,425	-0,133
17,561	119,510	-0,344	-0,300
18,575	-1,030	-0,080	-0,040
19,590	-149,815	-0,380	-0,021
20,604	-142,934	-0,174	0,012
21,619	54,746	-0,446	-0,303
22,634	31,107	-0,418	-0,252
23,648	63,497	-0,434	-0,306
24,663	71,435	-0,369	-0,270
25,677	11,570	-0,394	-0,212
26,692	12,309	-0,447	-0,241
27,707	38,609	-0,369	-0,231
28,721	42,832	-0,365	-0,234
29,736	337,272	-0,328	-0,450
30,750	242,270	-0,403	-0,476
31,765	-20,265	-0,425	-0,184
32,780	49,471	-0,439	-0,290
33,794	184,962	-0,261	-0,272
34,809	-8,339	-0,339	-0,160
35,823	151,794	-0,291	-0,279
36,838	188,865	-0,376	-0,396
37,853	58,183	-0,435	-0,299
38,867	135,470	-0,327	-0,300
39,882	409,239	-0,199	-0,297
40,896	-30,947	-0,328	-0,129
41,911	29,889	-0,392	-0,234
42,926	147,758	-0,276	-0,261
43,940	-68,135	-0,353	-0,096
44,955	-13,456	-0,342	-0,155
45,969	-12,814	-0,403	-0,184
46,984	103,985	-0,260	-0,214
47,999	5,396	-0,295	-0,152
49,013	-59,669	-0,261	-0,078
50,028	-18,833	-0,517	-0,225
51,042	40,552	-0,367	-0,232
52,057	57,168	-0,452	-0,309
53,071	56,849	-0,332	-0,227
54,086	196,633	-0,181	-0,194
55,101	128,722	-0,214	-0,191
56,115	48,477	-0,424	-0,278
57,130	200,139	-0,259	-0,279
58,144	73,088	-0,313	-0,229
59,159	193,437	-0,330	-0,351
60,174	-15,658	-0,486	-0,217
61,188	43,784	-0,309	-0,198
62,203	-113,013	-0,317	-0,044
63,217	-122,002	-0,324	-0,037
64,232	-103,712	-0,324	-0,053
65,247	-42,463	-0,358	-0,127
66,261	60,790	-0,283	-0,196
67,276	-45,706	-0,389	-0,134
68,290	-62,569	-0,348	-0,101
69,305	186,448	-0,281	-0,293
70,320	76,706	-0,196	-0,146
71,334	-64,089	-0,222	0,063
72,349	34,683	-0,257	-0,157
73,363	135,370	-0,302	-0,276
74,378	0,788	-0,360	-0,180
75,393	-134,709	-0,270	-0,023
76,407	19,664	-0,272	-0,153
77,422	4,987	-0,266	-0,137
78,436	-36,657	-0,275	-0,103
79,451	97,726	-0,264	-0,213
80,466	-22,906	-0,338	-0,142
81,480	272,591	-0,276	-0,342
82,495	114,686	-0,263	-0,225
83,509	35,960	-0,291	-0,179
84,524	98,760	-0,170	-0,138
85,539	-129,436	-0,224	-0,022
86,553	60,776	-0,354	-0,245
87,568	104,662	-0,360	-0,297
88,582	21,661	-0,405	-0,230
89,597	41,455	-0,361	-0,228
90,611	393,340	-0,145	-0,211
91,626	376,366	-0,172	-0,246
92,641	104,358	-0,196	-0,161
93,655	47,888	-0,254	-0,166
94,670	13,912	-0,301	-0,164
95,684	-15,857	-0,273	-0,121
96,699	-23,773	-0,360	-0,150
97,714	488,950	-0,163	-0,262
98,728	-200,000	-0,038	-0,236
99,743	101,385	-0,276	-0,225
100,757	-14,482	-0,220	-0,099
101,772	672,502	-0,100	-0,183
102,787	54,826	-0,352	-0,237
103,801	23,921	-0,348	-0,200
104,816	125,779	-0,250	-0,221
105,830	-62,887	-0,278	-0,080
106,845	158,370	-0,192	-0,186
107,860	71,324	-0,326	-0,236
108,874	95,897	-0,198	-0,158
109,889	89,539	-0,195	-0,152
110,903	202,044	-0,253	-0,273
111,918	-200,000	-0,006	-0,222
112,933	177,032	-0,269	-0,274
113,947	56,133	-0,233	-0,158
114,962	55,881	-0,232	-0,157
115,976	-47,748	-0,287	-0,097
116,991	184,809	-0,173	-0,179
118,006	113,502	-0,186	-0,158
119,020	-83,175	-0,231	-0,051
120,035	-23,830	-0,171	-0,071
121,049	223,433	-0,199	-0,224
122,064	188,596	-0,099	-0,103
123,079	-24,216	-0,271	-0,112
124,093	457,104	-0,135	-0,211
125,108	164,785	-0,179	-0,176
126,122	145,519	-0,274	-0,256
127,137	21,791	-0,287	-0,163
128,151	321,635	-0,195	-0,260
129,166	29,443	-0,191	-0,113
130,181	800,000	-0,186	-0,412
131,195	140,035	-0,326	-0,300
132,210	167,774	-0,214	-0,212
133,224	175,087	-0,292	-0,296
134,239	381,786	-0,140	-0,200
135,254	-119,724	-0,339	-0,040
136,268	667,656	-0,148	-0,269
137,283	78,095	-0,160	-0,119
138,297	3,924	-0,340	-0,173
139,312	287,436	-0,133	-0,168
140,327	502,569	-0,166	-0,269
141,341	114,038	-0,211	-0,179
142,356	301,496	-0,180	-0,232
143,370	800,000	-0,115	-0,229
144,385	-55,094	-0,223	-0,069
145,400	-43,092	-0,210	-0,074
146,414	-152,292	-0,210	-0,010
147,429	-200,000	-0,086	-0,277
148,443	-5,964	-0,323	-0,153
149,458	14,945	-0,273	-0,148
150,473	-70,913	-0,178	-0,046
151,487	43,290	-0,220	-0,139
152,502	-14,584	-0,279	-0,124
153,516	164,907	-0,164	-0,161
154,531	220,804	-0,197	-0,220
155,546	74,082	-0,200	-0,146
156,560	-71,962	-0,166	-0,043
157,575	273,236	-0,104	-0,128
158,589	130,815	-0,156	-0,139
159,604	-11,608	-0,100	-0,045
160,619	201,600	-0,199	-0,214
161,633	-119,656	-0,198	-0,024
162,648	-156,628	-0,195	-0,008
163,662	17,285	-0,302	-0,167
164,677	47,886	-0,231	-0,150
165,692	184,655	-0,124	0,128
166,706	253,639	-0,183	-0,218
167,721	176,645	-0,212	-0,214
168,735	310,675	-0,210	-0,274
169,750	-32,404	-0,278	-0,107
170,764	-26,768	-0,257	-0,104
171,779	34,423	-0,179	-0,108
172,794	-32,512	-0,215	-0,083
173,808	42,622	-0,212	-0,134
174,823	34,049	-0,256	-0,155
175,837	59,905	-0,377	-0,258
176,852	181,714	-0,207	-0,212
177,867	31,548	-0,228	-0,136
178,881	55,334	-0,167	-0,112
179,896	407,666	-0,025	-0,036
180,910	800,000	-0,112	-0,242
181,925	58,589	-0,280	-0,191
182,940	-63,465	-0,338	-0,096
183,954	221,358	-0,229	-0,256
184,969	271,088	-0,138	-0,169
185,983	193,528	-0,109	-0,114
186,998	-200,000	-0,021	-0,119
188,013	38,804	-0,256	-0,158
189,027	800,000	-0,111	-0,216
190,042	140,154	-0,193	-0,176
191,056	83,708	-0,204	-0,154
192,071	61,114	-0,027	-0,019
193,086	74,786	-0,216	-0,158
194,100	-131,070	-0,219	0,020
195,115	315,967	-0,175	-0,229
196,129	61,098	-0,209	-0,144
197,144	333,076	-0,157	-0,212
198,159	15,729	-0,162	-0,088
199,173	-41,589	-0,367	-0,130
200,188	109,454	-0,244	-0,202
201,202	-200,000	0,007	-0,150
202,217	73,465	-0,190	-0,138
203,232	80,799	-0,080	-0,060
204,246	-64,448	-0,118	-0,033
205,261	800,000	-0,135	-0,309
206,275	87,617	-0,302	-0,232
207,290	-91,476	-0,312	-0,061
208,304	-182,331	-0,127	0,002
209,319	-148,761	-0,344	-0,019
210,334	275,281	-0,194	-0,239
211,348	409,830	-0,169	-0,248
212,363	45,190	-0,139	-0,089
213,377	262,503	-0,177	-0,213
214,392	17,963	-0,178	-0,098
215,407	44,031	-0,126	-0,080
216,421	141,678	-0,115	-0,106
217,436	692,150	-0,162	-0,294
218,450	-64,998	-0,145	-0,040
219,465	3,174	-0,133	-0,067
220,480	64,854	-0,132	-0,092
221,494	800,000	-0,060	-0,149
222,509	-0,998	-0,188	-0,092
223,523	424,446	-0,091	-0,136
224,538	17,488	-0,186	-0,102
225,553	-26,357	-0,242	-0,098
226,567	663,172	-0,154	-0,276
227,582	91,946	-0,285	-0,222
228,596	800,000	-0,047	-0,126
229,611	253,846	-0,181	-0,214
230,626	-133,036	-0,122	0,011
231,640	211,368	-0,151	-0,165
232,655	-50,749	-0,265	-0,086
233,669	530,720	-0,156	-0,256
234,684	52,758	-0,264	-0,174
235,699	106,991	-0,194	-0,159
236,713	-76,912	-0,160	-0,038
237,728	-8,918	-0,205	-0,095
238,742	220,477	-0,164	-0,182
239,757	99,110	-0,206	-0,165
240,772	-23,908	-0,225	-0,092
241,786	199,067	0,050	-0,053
242,801	-23,969	-0,266	-0,109
243,815	47,827	-0,187	-0,120
244,830	9,949	-0,270	-0,141
245,844	42,584	-0,226	-0,142
246,859	800,000	-0,110	-0,213
247,874	365,993	-0,181	-0,253
248,888	8,923	-0,178	-0,093
249,903	61,092	-0,078	-0,053
250,917	-65,645	-0,173	-0,048
251,932	772,834	-0,078	-0,148
252,947	800,000	-0,086	-0,233
253,961	208,322	-0,106	-0,115
254,976	170,577	-0,155	-0,154
255,990	-136,900	-0,223	-0,017
257,005	800,000	-0,074	-0,184
258,020	-200,000	-0,149	0,000
259,034	199,530	-0,110	-0,116
260,049	-83,109	-0,096	-0,021
261,063	25,187	-0,095	-0,055
262,078	48,569	-0,139	-0,090
263,093	772,226	-0,096	-0,181
264,107	43,067	-0,239	-0,150
265,122	526,021	-0,093	-0,152
266,136	111,174	-0,101	-0,084
267,151	-17,552	-0,195	-0,084
268,166	3,817	-0,299	-0,150
269,180	64,231	-0,162	-0,112
270,195	69,850	-0,231	-0,164
271,209	-200,000	-0,014	-0,131
272,224	-17,583	-0,199	-0,086
273,239	-74,211	-0,233	-0,058
274,253	-16,703	-0,059	-0,025
275,268	64,015	-0,163	0,113
276,282	-131,530	-0,270	-0,024
277,297	75,579	-0,240	-0,174
278,312	-10,575	-0,299	-0,136
279,326	-10,957	-0,076	-0,035
280,341	73,271	-0,192	-0,138
281,355	203,753	-0,131	-0,139
282,370	126,252	-0,190	-0,165
283,384	213,331	-0,174	-0,189
284,399	-56,748	-0,267	-0,081
285,414	41,673	-0,136	-0,085
286,428	59,694	-0,080	-0,054
287,443	127,733	-0,122	-0,107
288,457	800,000	-0,023	0,053
289,472	-50,336	-0,090	-0,029
290,487	-44,016	-0,123	-0,042
291,501	20,330	-0,234	-0,130
292,516	19,332	-0,145	-0,080
293,530	281,010	-0,060	-0,074
294,545	-77,886	-0,201	-0,047
295,560	123,907	-0,126	-0,109
296,574	378,121	-0,093	-0,131
297,589	82,249	-0,089	-0,066
298,603	66,566	-0,095	-0,066
299,618	-160,143	-0,079	0,003
300,633	188,824	-0,189	-0,194
301,647	-200,000	-0,037	-0,199
302,662	-177,985	-0,167	0,003
303,676	-200,000	-0,023	-0,078
304,691	-26,229	-0,122	-0,049
305,706	49,334	-0,181	-0,117
306,720	499,709	-0,117	-0,186
307,735	89,998	-0,180	-0,138
308,749	117,937	-0,081	-0,069
309,764	-98,304	-0,031	0,005
310,779	800,000	-0,082	-0,172
311,793	146,542	-0,218	-0,201
312,808	8,473	-0,118	0,061
313,822	-143,188	-0,045	-0,003
314,837	-75,838	-0,080	-0,019
315,852	-200,000	0,002	0,012
316,866	800,000	0,074	-0,169
317,881	750,657	-0,051	-0,095
318,895	-174,368	-0,141	-0,003
319,910	-131,039	-0,162	0,015
320,925	104,725	-0,161	-0,130
321,939	800,000	-0,029	-0,064
322,954	800,000	-0,062	-0,169
323,968	-16,434	-0,194	-0,084
324,983	-139,171	-0,140	-0,010
325,997	105,128	-0,123	-0,099
327,012	171,926	-0,178	-0,175
328,027	800,000	-0,049	-0,145
329,041	253,835	-0,095	-0,111
330,056	390,031	-0,132	-0,188
331,070	349,644	-0,116	-0,157
332,085	-117,513	-0,202	0,025
333,100	-200,000	-0,019	-0,121
334,114	-57,811	-0,187	-0,056
335,129	800,000	-0,058	-0,164
336,143	103,322	-0,152	-0,122
337,158	281,618	-0,018	-0,022
338,173	191,526	-0,040	0,042
339,187	-114,109	-0,118	-0,015
340,202	-5,373	-0,081	-0,038
341,216	223,753	-0,097	-0,107
342,231	800,000	-0,069	-0,192
343,246	54,858	-0,119	-0,079
344,260	178,219	-0,061	-0,061
345,275	701,083	-0,068	-0,123
346,289	431,211	0,045	-0,067
347,304	627,252	-0,102	-0,177
348,319	104,506	-0,137	-0,110
349,333	79,002	-0,107	-0,078
350,348	-69,864	0,055	-0,014
351,362	-30,700	-0,037	-0,014
352,377	-28,720	-0,069	-0,027
353,392	35,106	-0,203	-0,121
354,406	-18,548	-0,073	0,031
355,421	207,851	1311,781	1403,044
356,435	159,912	1472,111	1403,520
