DTS Sentinel unit serial number:	SN410029Multiplexer serial number:	ORYXHardware model number:	OX2-SRSoftware version number:	ORYX F/W v4,00 Oryx Data Collector v3.7.2.0data status	okinstallation	B3 Nyhavnadifferential loss correction	single-endedforward channel	channel 1reverse channel	N/Adate	2023/11/30time	06:52:30forward acquisition time	300,00reverse acquisition time	0,00gamma	499,1914k internal	0,3211k external	0,3211temperature offset calibration	1,0000default loss term (dB/km)	0,3820temperature slope calibration	1,0000multiplexer offset coefficient	1,0000multiplexer slope coefficient	1,0000fibre end	0,00T internal ref (°C)	10,17T ext. ref 1 (°C)	-5,62T ext. ref 2 (°C)	-5,73length (m)	temperature (°C)	Stokes	anti-Stokes-744,400	-200,000	-0,066	-0,260
-743,385	800,000	-0,093	0,256
-742,371	112,627	-0,206	-0,181
-741,356	-200,000	-0,063	0,369
-740,342	800,000	-0,104	-0,288
-739,327	-200,000	0,030	0,192
-738,312	266,936	-0,260	-0,331
-737,298	-200,000	-0,024	0,190
-736,283	268,558	-0,232	-0,295
-735,269	800,000	-0,066	0,164
-734,254	577,952	-0,060	-0,107
-733,239	-13,035	-0,282	0,132
-732,225	405,219	-0,182	-0,279
-731,210	750,649	0,095	0,187
-730,196	108,404	-0,064	0,055
-729,181	245,049	-0,061	0,074
-728,167	-200,000	-0,011	-0,036
-727,152	131,065	0,066	-0,061
-726,137	297,957	-0,097	-0,130
-725,123	255,687	-0,065	-0,080
-724,108	327,010	0,142	-0,197
-723,094	800,000	-0,016	0,038
-722,079	13,090	-0,159	0,089
-721,064	800,000	0,037	-0,090
-720,050	238,341	0,052	-0,062
-719,035	340,862	0,063	-0,089
-718,021	25,347	-0,042	0,025
-717,006	-58,230	-0,029	-0,009
-715,991	78,745	-0,025	-0,019
-714,977	390,940	0,052	-0,078
-713,962	-200,000	-0,005	0,084
-712,948	-61,861	-0,071	0,021
-711,933	-80,013	-0,057	0,014
-710,918	203,990	-0,062	0,069
-709,904	-200,000	0,020	-0,179
-708,889	-106,634	-0,066	0,011
-707,875	-200,000	-0,046	0,165
-706,860	-200,000	0,001	-0,072
-705,845	45,505	0,052	-0,035
-704,831	-200,000	0,027	-0,109
-703,816	380,183	-0,064	-0,096
-702,802	34,452	-0,113	-0,071
-701,787	42,360	-0,041	0,027
-700,772	-200,000	0,016	-0,123
-699,758	-62,346	0,017	-0,005
-698,743	800,000	-0,026	0,069
-697,729	75,260	-0,119	-0,091
-696,714	163,991	0,068	-0,069
-695,699	-200,000	0,007	0,026
-694,685	31,488	-0,027	0,017
-693,670	-200,000	-0,004	-0,037
-692,656	730,340	-0,074	0,144
-691,641	-200,000	0,000	0,057
-690,627	-200,000	0,007	-0,046
-689,612	-200,000	0,043	-0,140
-688,597	483,478	-0,051	-0,084
-687,583	-68,887	-0,006	0,002
-686,568	-18,218	0,122	0,055
-685,554	57,668	0,028	-0,020
-684,539	795,780	0,053	-0,105
-683,524	-49,354	-0,195	-0,067
-682,510	205,887	0,052	-0,058
-681,495	56,858	-0,042	0,029
-680,481	369,001	-0,067	-0,099
-679,466	-200,000	0,029	-0,113
-678,451	266,182	-0,093	-0,117
-677,437	-189,165	-0,141	0,001
-676,422	800,000	-0,007	0,016
-675,408	800,000	0,010	-0,023
-674,393	800,000	-0,031	-0,078
-673,378	551,227	-0,069	-0,120
-672,364	608,736	-0,060	-0,108
-671,349	-6,836	0,025	0,012
-670,335	-45,951	0,065	0,023
-669,320	-200,000	0,025	-0,086
-668,305	294,072	-0,121	0,160
-667,291	-149,006	0,038	-0,002
-666,276	311,542	0,036	0,048
-665,262	68,240	0,066	-0,049
-664,247	-47,812	-0,029	-0,010
-663,232	-116,292	-0,091	-0,012
-662,218	44,853	-0,101	0,067
-661,203	-133,633	0,168	0,015
-660,189	-200,000	0,004	0,089
-659,174	800,000	-0,051	0,111
-658,159	170,433	-0,053	0,055
-657,145	-200,000	-0,001	0,076
-656,130	-16,310	-0,086	0,039
-655,116	-200,000	0,003	0,078
-654,101	510,524	0,033	0,056
-653,086	-66,765	-0,059	0,017
-652,072	282,059	-0,010	0,012
-651,057	588,496	0,100	-0,179
-650,043	648,215	-0,106	-0,198
-649,028	39,558	-0,046	0,030
-648,014	-200,000	-0,026	-0,090
-646,999	45,178	0,123	0,082
-645,984	493,899	0,046	0,077
-644,970	573,067	0,007	0,013
-643,955	800,000	-0,042	-0,091
-642,941	41,185	-0,135	-0,088
-641,926	-21,715	0,100	-0,044
-640,911	59,102	-0,133	0,094
-639,897	62,457	0,140	0,101
-638,882	-45,590	-0,020	0,007
-637,868	-200,000	-0,004	-0,051
-636,853	-111,138	0,070	-0,010
-635,838	-200,000	-0,013	-0,122
-634,824	-200,000	-0,004	-0,077
-633,809	800,000	-0,027	-0,084
-632,795	-200,000	0,012	-0,063
-631,780	93,896	-0,032	-0,027
-630,765	-200,000	0,021	-0,068
-629,751	1,521	-0,035	0,018
-628,736	-200,000	-0,030	-0,109
-627,722	0,271	0,058	-0,030
-626,707	-128,163	-0,022	0,002
-625,692	99,146	0,072	-0,060
-624,678	-38,534	0,091	-0,034
-623,663	-53,782	-0,173	0,056
-622,649	-78,766	0,066	0,016
-621,634	-194,495	-0,134	-0,001
-620,619	-200,000	-0,024	-0,097
-619,605	-178,453	0,086	0,001
-618,590	-200,000	-0,003	0,207
-617,576	-200,000	0,005	0,133
-616,561	27,245	-0,108	0,065
-615,546	800,000	-0,044	-0,113
-614,532	292,750	0,058	-0,077
-613,517	-200,000	0,003	-0,113
-612,503	79,512	0,042	-0,033
-611,488	-200,000	0,006	0,130
-610,474	92,059	-0,085	0,069
-609,459	322,475	-0,055	0,076
-608,444	73,738	-0,140	0,106
-607,430	-21,995	-0,161	0,070
-606,415	-200,000	-0,008	0,032
-605,401	800,000	-0,037	0,082
-604,386	594,868	0,035	0,062
-603,371	-200,000	0,003	-0,206
-602,357	325,421	0,064	0,088
-601,342	800,000	0,034	-0,073
-600,328	-51,421	-0,056	-0,019
-599,313	189,439	-0,026	0,028
-598,298	74,819	-0,095	0,072
-597,284	53,004	0,054	0,037
-596,269	-45,723	0,067	0,024
-595,255	-33,023	-0,132	-0,053
-594,240	-148,415	0,034	-0,002
-593,225	-200,000	-0,018	-0,085
-592,211	-200,000	0,006	-0,141
-591,196	-200,000	0,017	-0,065
-590,182	800,000	0,004	0,010
-589,167	-200,000	0,030	0,193
-588,152	543,256	-0,043	0,074
-587,138	-24,759	-0,084	-0,036
-586,123	283,129	-0,101	-0,131
-585,109	-43,387	0,130	-0,047
-584,094	34,000	0,134	-0,084
-583,079	38,144	0,090	0,058
-582,065	-200,000	0,004	-0,016
-581,050	-50,396	0,068	-0,023
-580,036	-200,000	-0,063	0,215
-579,021	-176,424	-0,119	0,002
-578,006	363,080	-0,039	-0,057
-576,992	208,435	-0,037	0,042
-575,977	547,785	-0,072	-0,124
-574,963	-61,907	0,029	0,009
-573,948	800,000	-0,034	0,092
-572,934	-0,316	0,129	0,066
-571,919	800,000	0,048	-0,118
-570,904	653,148	-0,046	0,086
-569,890	-47,735	-0,108	-0,037
-568,875	-108,162	0,122	0,019
-567,861	60,026	0,045	0,032
-566,846	-200,000	0,013	0,155
-565,831	-200,000	-0,024	-0,094
-564,817	800,000	-0,013	-0,033
-563,802	-200,000	0,003	-0,093
-562,788	-55,756	0,144	-0,046
-561,773	-200,000	-0,001	0,077
-560,758	-23,677	0,032	-0,014
-559,744	-200,000	0,018	0,137
-558,729	-200,000	-0,008	-0,036
-557,715	-200,000	0,007	-0,125
-556,700	-81,454	-0,114	-0,027
-555,685	-200,000	-0,010	0,084
-554,671	-27,862	0,106	-0,044
-553,656	51,281	0,087	0,059
-552,642	-121,600	0,078	-0,009
-551,627	260,388	-0,054	0,067
-550,612	380,530	-0,019	-0,029
-549,598	-161,232	-0,120	0,004
-548,583	-200,000	-0,006	-0,032
-547,569	-40,016	0,067	-0,025
-546,554	11,710	-0,072	-0,039
-545,539	6,423	-0,166	-0,088
-544,525	-200,000	-0,001	0,063
-543,510	4,803	-0,099	-0,052
-542,496	-126,291	0,055	0,006
-541,481	-200,000	-0,017	-0,177
-540,466	-200,000	0,003	-0,022
-539,452	800,000	0,041	-0,094
-538,437	-200,000	0,001	-0,090
-537,423	4,043	-0,070	-0,037
-536,408	261,466	-0,054	-0,068
-535,393	-135,375	-0,052	-0,004
-534,379	-28,865	-0,163	-0,067
-533,364	54,048	-0,073	-0,050
-532,350	-200,000	-0,017	0,128
-531,335	800,000	0,019	0,042
-530,321	-90,173	0,062	-0,013
-529,306	-1,450	0,099	0,050
-528,291	324,291	-0,028	0,038
-527,277	-200,000	0,025	0,111
-526,262	-200,000	0,010	-0,049
-525,248	-77,713	-0,176	0,043
-524,233	-200,000	-0,038	0,150
-523,218	800,000	0,084	0,185
-522,204	-9,281	0,109	0,052
-521,189	800,000	0,030	-0,070
-520,175	38,018	-0,139	-0,089
-519,160	246,987	0,021	0,026
-518,145	800,000	-0,055	0,123
-517,131	-200,000	0,023	0,117
-516,116	800,000	0,020	-0,057
-515,102	-77,221	0,037	-0,009
-514,087	192,865	0,013	-0,014
-513,072	160,231	-0,024	-0,025
-512,058	-200,000	0,012	-0,083
-511,043	-58,264	0,171	0,053
-510,029	24,860	-0,021	0,012
-509,014	-200,000	0,011	-0,037
-507,999	35,120	-0,156	0,098
-506,985	155,675	0,039	-0,039
-505,970	105,191	-0,072	0,061
-504,956	-38,770	-0,088	0,033
-503,941	418,800	-0,052	0,080
-502,926	-66,390	0,019	0,005
-501,912	453,718	0,036	0,057
-500,897	-200,000	0,007	-0,044
-499,883	78,019	-0,081	0,062
-498,868	-200,000	0,016	-0,053
-497,853	88,412	-0,069	-0,055
-496,839	405,866	0,014	0,021
-495,824	703,570	0,073	-0,138
-494,810	-62,622	0,112	-0,033
-493,795	81,225	0,054	-0,042
-492,781	-200,000	-0,004	-0,053
-491,766	800,000	0,013	0,029
-490,751	-200,000	-0,050	-0,178
-489,737	182,572	0,076	-0,081
-488,722	332,822	0,124	0,172
-487,708	-80,119	-0,095	-0,023
-486,693	-200,000	0,007	-0,099
-485,678	-200,000	-0,003	0,035
-484,664	-200,000	0,026	-0,152
-483,649	116,221	0,102	-0,089
-482,635	-200,000	0,029	0,110
-481,620	248,132	0,066	0,081
-480,605	800,000	-0,072	0,160
-479,591	-16,981	0,055	-0,025
-478,576	605,941	0,095	0,171
-477,562	-200,000	-0,003	0,150
-476,547	-200,000	-0,009	-0,044
-475,532	-200,000	-0,004	0,129
-474,518	-200,000	0,007	-0,138
-473,503	800,000	0,033	-0,076
-472,489	-200,000	-0,003	0,088
-471,474	19,767	-0,080	-0,046
-470,459	-75,809	0,041	-0,010
-469,445	800,000	0,029	-0,066
-468,430	497,006	0,045	-0,075
-467,416	-5,306	0,101	-0,050
-466,401	800,000	0,036	0,114
-465,386	-96,321	0,010	-0,002
-464,372	-125,913	-0,057	-0,006
-463,357	-200,000	-0,017	-0,212
-462,343	692,786	-0,042	-0,080
-461,328	40,315	-0,144	-0,093
-460,313	569,467	0,049	0,086
-459,299	538,022	-0,035	0,060
-458,284	241,017	0,073	0,087
-457,270	300,178	0,015	0,021
-456,255	-200,000	-0,012	0,063
-455,241	-200,000	-0,036	-0,120
-454,226	107,820	-0,067	-0,057
-453,211	51,416	0,095	-0,065
-452,197	185,282	0,070	0,075
-451,182	-2,795	0,049	-0,025
-450,168	-200,000	-0,027	-0,112
-449,153	-30,315	0,174	0,071
-448,138	-200,000	-0,009	-0,045
-447,124	-200,000	-0,018	0,058
-446,109	-75,174	0,052	0,013
-445,095	118,700	0,063	-0,056
-444,080	30,316	0,147	-0,090
-443,065	-69,686	0,010	0,003
-442,051	-19,715	0,090	0,040
-441,036	-53,153	-0,127	-0,042
-440,022	-145,135	-0,032	0,002
-439,007	-64,958	-0,067	-0,019
-437,992	-200,000	0,027	-0,133
-436,978	556,871	0,046	-0,080
-435,963	-32,848	-0,111	0,044
-434,949	800,000	0,045	-0,125
-433,934	-59,168	-0,131	-0,040
-432,919	-200,000	0,004	0,085
-431,905	340,100	-0,036	-0,050
-430,890	-200,000	-0,006	-0,123
-429,876	35,509	0,071	0,045
-428,861	-200,000	-0,005	0,040
-427,846	617,411	0,029	-0,052
-426,832	328,899	-0,058	-0,080
-425,817	204,473	0,070	0,078
-424,803	-200,000	0,041	-0,163
-423,788	-200,000	0,028	0,151
-422,773	800,000	-0,044	0,092
-421,759	-167,566	-0,065	0,002
-420,744	106,448	0,062	-0,052
-419,730	-108,826	-0,053	0,008
-418,715	-7,390	0,100	0,048
-417,701	20,690	-0,128	0,074
-416,686	-200,000	0,012	0,051
-415,671	775,046	0,080	0,157
-414,657	800,000	0,027	0,064
-413,642	-115,944	-0,021	-0,003
-412,628	603,547	-0,049	0,088
-411,613	800,000	0,053	-0,137
-410,598	-106,597	-0,047	0,007
-409,584	157,245	0,043	0,042
-408,569	148,788	-0,107	0,103
-407,555	-200,000	-0,000	-0,006
-406,540	13,067	-0,133	0,073
-405,525	-200,000	-0,012	-0,076
-404,511	-23,544	-0,085	-0,036
-403,496	73,560	-0,083	-0,062
-402,482	-70,209	0,184	0,050
-401,467	297,366	0,106	0,140
-400,452	120,106	-0,014	-0,013
-399,438	-200,000	0,001	0,007
-398,423	800,000	0,045	-0,135
-397,409	-200,000	0,004	0,015
-396,394	-200,000	-0,007	0,055
-395,379	509,994	0,040	-0,067
-394,365	-3,805	-0,080	0,040
-393,350	-46,450	0,080	0,028
-392,336	8,472	0,017	0,009
-391,321	800,000	-0,006	0,017
-390,306	190,406	-0,028	0,030
-389,292	-200,000	-0,019	-0,076
-388,277	800,000	-0,021	-0,047
-387,263	-200,000	0,012	-0,122
-386,248	-200,000	-0,021	0,078
-385,233	800,000	-0,061	0,139
-384,219	-29,920	0,109	0,044
-383,204	42,512	0,087	-0,056
-382,190	-73,437	-0,123	-0,032
-381,175	-200,000	-0,035	-0,126
-380,160	-200,000	0,010	-0,032
-379,146	-168,554	0,186	-0,005
-378,131	-136,238	0,182	0,015
-377,117	-32,311	0,027	0,011
-376,102	-105,824	0,179	-0,029
-375,088	-200,000	0,007	0,081
-374,073	51,315	-0,042	-0,028
-373,058	-113,053	0,081	-0,011
-372,044	358,221	0,086	0,124
-371,029	12,465	-0,083	0,046
-370,015	-200,000	-0,003	-0,014
-369,000	-200,000	0,009	-0,084
-367,985	-80,221	-0,058	0,014
-366,971	-96,294	0,044	-0,008
-365,956	2,110	0,152	0,078
-364,942	-200,000	0,008	0,173
-363,927	-200,000	0,013	0,057
-362,912	-105,019	-0,081	-0,013
-361,898	360,054	-0,064	0,092
-360,883	800,000	0,037	0,085
-359,869	216,958	-0,097	-0,110
-358,854	-200,000	-0,004	-0,121
-357,839	-200,000	-0,026	0,125
-356,825	-13,255	0,085	0,039
-355,810	-200,000	-0,006	0,076
-354,796	-200,000	0,005	-0,091
-353,781	94,674	-0,102	0,083
-352,766	-200,000	-0,003	-0,047
-351,752	470,580	0,052	-0,084
-350,737	-60,547	0,064	0,019
-349,723	-52,198	-0,024	-0,008
-348,708	-95,761	-0,135	0,026
-347,693	-53,475	0,053	-0,017
-346,679	100,929	0,111	-0,092
-345,664	46,386	0,031	-0,020
-344,650	-200,000	0,008	-0,027
-343,635	143,721	-0,028	-0,027
-342,620	-200,000	0,000	0,042
-341,606	800,000	0,050	0,120
-340,591	658,033	0,023	0,042
-339,577	-200,000	-0,022	-0,146
-338,562	37,402	-0,112	-0,071
-337,548	96,823	0,028	0,023
-336,533	-102,736	0,124	-0,021
-335,518	-47,222	-0,050	-0,017
-334,504	-200,000	-0,044	-0,159
-333,489	120,633	0,134	-0,119
-332,475	-200,000	-0,011	-0,040
-331,460	-171,629	0,042	0,001
-330,445	800,000	0,028	-0,058
-329,431	329,468	0,049	0,067
-328,416	751,835	0,098	0,189
-327,402	-200,000	0,024	0,169
-326,387	-200,000	-0,011	0,130
-325,372	83,652	-0,101	0,078
-324,358	187,909	-0,027	-0,029
-323,343	-70,923	0,039	-0,010
-322,329	-200,000	0,061	-0,191
-321,314	-118,309	-0,110	0,014
-320,299	-99,583	0,073	-0,013
-319,285	777,119	-0,031	-0,061
-318,270	-13,354	-0,022	0,010
-317,256	-200,000	-0,015	0,055
-316,241	44,551	0,089	-0,059
-315,226	-200,000	-0,004	-0,117
-314,212	-47,964	0,080	-0,028
-313,197	-175,863	-0,024	0,000
-312,183	240,929	-0,094	-0,112
-311,168	800,000	0,025	-0,064
-310,153	-200,000	-0,048	-0,169
-309,139	-200,000	0,041	-0,205
-308,124	45,190	-0,106	0,069
-307,110	85,229	0,009	0,007
-306,095	800,000	0,105	0,217
-305,080	-200,000	0,026	-0,130
-304,066	672,045	0,035	-0,064
-303,051	3,917	-0,152	-0,079
-302,037	800,000	-0,034	-0,083
-301,022	-37,517	0,170	0,064
-300,008	-20,468	-0,077	-0,034
-298,993	-16,308	0,006	-0,003
-297,978	308,144	0,064	0,086
-296,964	25,464	0,083	-0,049
-295,949	195,090	-0,094	-0,102
-294,935	-91,430	-0,147	0,030
-293,920	476,048	-0,025	0,040
-292,905	102,905	-0,061	-0,051
-291,891	244,591	0,064	0,077
-290,876	-200,000	0,005	0,068
-289,862	-200,000	0,012	-0,049
-288,847	800,000	-0,023	0,053
-287,832	124,927	0,053	-0,048
-286,818	-200,000	0,011	-0,151
-285,803	-33,741	0,098	0,038
-284,789	-200,000	-0,023	0,084
-283,774	-74,951	0,122	0,031
-282,759	46,182	0,106	0,070
-281,745	274,704	-0,018	0,023
-280,730	-200,000	0,011	-0,121
-279,716	84,878	0,063	0,049
-278,701	143,362	-0,102	0,096
-277,686	588,139	-0,095	0,168
-276,672	45,552	0,132	0,087
-275,657	137,025	-0,116	0,108
-274,643	432,723	0,050	0,077
-273,628	800,000	-0,028	-0,085
-272,613	128,274	0,015	0,014
-271,599	343,634	-0,093	-0,130
-270,584	440,706	0,035	-0,054
-269,570	145,374	0,134	0,128
-268,555	-18,187	0,057	-0,025
-267,540	-72,546	0,052	0,014
-266,526	-66,509	-0,141	-0,040
-265,511	-73,633	-0,181	-0,047
-264,497	800,000	0,038	0,106
-263,482	76,336	0,111	0,084
-262,467	-200,000	-0,001	0,037
-261,453	-168,559	-0,025	-0,001
-260,438	-110,826	0,048	0,007
-259,424	48,852	-0,052	0,035
-258,409	-200,000	0,032	0,100
-257,395	-126,894	0,052	0,005
-256,380	-200,000	-0,020	0,094
-255,365	-124,741	-0,144	-0,016
-254,351	386,698	-0,027	-0,040
-253,336	-151,072	-0,070	-0,004
-252,322	19,980	0,118	0,068
-251,307	45,696	-0,085	-0,056
-250,292	436,080	0,069	-0,108
-249,278	800,000	0,008	-0,024
-248,263	-99,029	-0,042	0,007
-247,249	-200,000	-0,020	0,065
-246,234	-121,556	-0,119	-0,014
-245,219	-81,186	-0,081	0,019
-244,205	-145,768	0,081	0,005
-243,190	-82,791	-0,028	0,006
-242,176	72,713	0,159	0,118
-241,161	800,000	0,045	0,138
-240,146	800,000	0,004	-0,009
-239,132	108,634	-0,012	-0,010
-238,117	377,944	0,082	-0,119
-237,103	380,507	0,051	-0,075
-236,088	26,576	-0,050	-0,030
-235,073	800,000	0,031	-0,095
-234,059	-200,000	0,014	0,078
-233,044	-120,741	-0,146	0,017
-232,030	5,115	-0,131	-0,069
-231,015	258,714	-0,091	0,112
-230,000	152,772	0,028	0,027
-228,986	-200,000	-0,017	-0,083
-227,971	-200,000	0,017	0,086
-226,957	85,639	-0,091	0,071
-225,942	800,000	0,063	0,184
-224,927	-200,000	0,001	-0,096
-223,913	-36,629	-0,196	0,074
-222,898	-200,000	0,007	0,058
-221,884	-123,833	0,154	-0,017
-220,869	800,000	-0,061	0,135
-219,855	42,720	-0,051	-0,033
-218,840	40,520	-0,024	-0,015
-217,825	41,669	-0,049	0,032
-216,811	-200,000	-0,010	0,043
-215,796	-172,260	-0,131	-0,003
-214,782	22,794	-0,055	-0,032
-213,767	149,347	0,032	0,031
-212,752	800,000	0,028	-0,080
-211,738	800,000	0,061	0,149
-210,723	182,484	-0,097	0,102
-209,709	-200,000	-0,003	0,081
-208,694	-45,196	-0,065	-0,023
-207,679	-136,992	0,036	0,003
-206,665	-68,980	0,148	0,040
-205,650	386,223	0,013	-0,019
-204,636	362,810	0,054	0,077
-203,621	-200,000	0,019	-0,175
-202,606	-123,932	-0,111	-0,012
-201,592	181,186	-0,042	-0,044
-200,577	-200,000	-0,076	-0,240
-199,563	10,456	-0,061	-0,033
-198,548	137,676	0,126	0,117
-197,533	-200,000	0,013	0,061
-196,519	-200,000	0,002	0,014
-195,504	-136,092	-0,145	0,012
-194,490	-200,000	0,000	0,028
-193,475	800,000	-0,040	-0,103
-192,460	28,064	-0,091	-0,055
-191,446	46,940	0,040	-0,027
-190,431	-200,000	0,061	0,201
-189,417	19,317	0,067	-0,038
-188,402	-115,248	-0,046	-0,006
-187,387	-200,000	-0,024	0,091
-186,373	-200,000	-0,011	-0,078
-185,358	-36,047	0,158	-0,060
-184,344	213,939	0,053	0,059
-183,329	105,105	-0,077	-0,065
-182,315	-200,000	-0,027	-0,098
-181,300	-87,866	0,088	0,019
-180,285	-136,604	0,021	-0,002
-179,271	235,723	0,067	-0,078
-178,256	-200,000	0,005	0,046
-177,242	-200,000	-0,006	0,115
-176,227	-200,000	0,020	0,130
-175,212	-200,000	-0,003	-0,036
-174,198	-97,571	-0,052	-0,009
-173,183	-200,000	-0,001	0,038
-172,169	-119,504	0,121	0,015
-171,154	113,243	-0,070	0,060
-170,139	-200,000	-0,012	-0,092
-169,125	283,420	0,037	-0,048
-168,110	-200,000	0,005	-0,020
-167,096	144,171	-0,074	0,070
-166,081	800,000	-0,019	-0,048
-165,066	-117,915	-0,022	-0,003
-164,052	800,000	0,037	0,092
-163,037	78,915	-0,080	-0,060
-162,023	14,268	0,188	-0,103
-161,008	-105,869	-0,100	0,016
-159,993	26,469	-0,077	0,046
-158,979	-200,000	-0,010	-0,104
-157,964	800,000	-0,025	-0,051
-156,950	-45,426	-0,083	-0,029
-155,935	-200,000	0,004	-0,106
-154,920	97,849	-0,066	0,053
-153,906	214,032	0,023	-0,026
-152,891	698,422	-0,015	0,029
-151,877	-58,837	-0,102	-0,031
-150,862	795,199	-0,042	-0,082
-149,847	-56,737	-0,094	0,029
-148,833	-200,000	0,009	0,072
-147,818	-200,000	-0,007	-0,054
-146,804	-200,000	0,034	0,138
-145,789	-157,727	-0,068	0,003
-144,775	266,561	-0,042	-0,053
-143,760	111,539	-0,094	-0,080
-142,745	-200,000	0,002	-0,047
-141,731	-131,905	0,132	0,012
-140,716	-200,000	0,031	0,110
-139,702	800,000	-0,033	0,097
-138,687	-55,344	0,015	0,005
-137,672	121,363	-0,023	0,021
-136,658	-82,996	-0,094	0,021
-135,643	85,429	-0,122	-0,095
-134,629	76,093	0,038	0,029
-133,614	-110,046	-0,038	-0,006
-132,599	-179,717	0,151	-0,002
-131,585	21,534	-0,084	0,048
-130,570	-200,000	0,022	0,120
-129,556	-200,000	0,009	0,067
-128,541	58,477	0,035	-0,024
-127,526	164,786	-0,129	-0,129
-126,512	-25,623	0,029	0,012
-125,497	95,175	0,064	0,051
-124,483	253,838	-0,053	-0,064
-123,468	800,000	0,016	0,040
-122,453	-200,000	0,008	-0,101
-121,439	-56,584	-0,121	0,038
-120,424	800,000	-0,090	0,192
-119,410	178,441	0,127	-0,131
-118,395	24,409	-0,059	0,034
-117,380	41,021	0,040	-0,025
-116,366	-147,175	-0,084	-0,005
-115,351	21,013	0,035	-0,020
-114,337	122,040	0,065	-0,058
-113,322	800,000	0,029	-0,087
-112,307	-200,000	0,034	-0,148
-111,293	-112,756	0,196	0,027
-110,278	-200,000	0,040	-0,209
-109,264	391,641	0,016	0,024
-108,249	-200,000	0,009	0,037
-107,234	-155,384	-0,072	0,003
-106,220	134,137	-0,059	-0,054
-105,205	-7,387	0,027	-0,013
-104,191	-144,860	0,071	0,005
-103,176	639,170	0,025	0,045
-102,162	800,000	0,016	-0,047
-101,147	800,000	-0,034	-0,068
-100,132	22,897	-0,075	-0,043
-99,118	800,000	-0,017	-0,046
-98,103	45,706	0,110	0,072
-97,089	-19,823	0,028	-0,012
-96,074	43,608	0,049	0,032
-95,059	-157,270	-0,154	-0,006
-94,045	693,988	0,009	0,017
-93,030	-200,000	-0,010	-0,121
-92,016	-49,272	-0,100	0,033
-91,001	209,314	-0,038	-0,042
-89,986	-200,000	0,003	-0,052
-88,972	-200,000	-0,018	0,113
-87,957	580,665	-0,075	0,130
-86,943	-41,068	-0,110	0,040
-85,928	-108,417	-0,039	0,006
-84,913	192,176	-0,070	0,075
-83,899	800,000	-0,058	-0,129
-82,884	800,000	-0,040	0,085
-81,870	11,792	0,140	-0,076
-80,855	-200,000	0,013	0,080
-79,840	79,642	-0,097	0,074
-78,826	321,816	-0,053	-0,071
-77,811	26,080	-0,107	-0,063
-76,797	333,140	-0,059	-0,080
-75,782	-200,000	-0,042	0,138
-74,767	-200,000	0,005	-0,046
-73,753	-200,000	-0,004	0,175
-72,738	95,103	-0,113	0,091
-71,724	-29,785	-0,088	0,035
-70,709	157,032	0,040	-0,039
-69,694	-21,919	0,103	0,044
-68,680	-67,857	0,120	0,033
-67,665	-200,000	0,020	0,152
-66,651	-81,401	0,087	0,020
-65,636	-200,000	0,003	-0,024
-64,622	324,917	-0,101	-0,136
-63,607	323,693	0,019	-0,026
-62,592	299,285	-0,062	0,081
-61,578	800,000	-0,075	0,199
-60,563	86,648	-0,043	0,034
-59,549	335,189	0,050	0,068
-58,534	22,267	-2,028	-1,166
-57,519	397,935	-1,264	-1,872
-56,505	-200,000	-0,295	-4,408
-55,490	618,138	0,926	1,648
-54,476	800,000	5,035	11,160
-53,461	-200,000	21,363	339,836
-52,446	800,000	759,876	2358,445
-51,432	559,530	1662,317	2844,261
-50,417	73,619	1661,351	1227,074
-49,403	18,042	1534,984	861,336
-48,388	12,009	1458,468	789,218
-47,373	19,318	1449,596	819,461
-46,359	15,420	1438,819	794,801
-45,344	10,276	1434,737	768,017
-44,330	10,233	1432,719	766,704
-43,315	10,222	1430,973	765,684
-42,300	10,239	1429,079	764,722
-41,286	10,255	1427,832	764,102
-40,271	10,212	1426,582	763,197
-39,257	10,212	1425,510	762,595
-38,242	10,241	1424,382	762,098
-37,227	10,222	1423,378	761,439
-36,213	10,222	1422,027	760,688
-35,198	10,251	1420,770	760,121
-34,184	10,317	1419,815	759,894
-33,169	10,233	1418,373	758,693
-32,154	10,258	1417,537	758,333
-31,140	10,281	1416,108	757,646
-30,125	10,268	1415,147	757,041
-29,111	10,277	1413,988	756,435
-28,096	10,280	1412,824	755,795
-27,082	10,221	1411,664	754,867
-26,067	10,182	1410,836	754,211
-25,052	10,251	1409,393	753,733
-24,038	10,253	1408,526	753,251
-23,023	10,198	1407,653	752,496
-22,009	10,174	1406,602	751,792
-20,994	10,198	1405,371	751,217
-19,979	10,178	1404,857	750,820
-18,965	10,219	1403,690	750,356
-17,950	10,156	1402,896	749,610
-16,936	10,152	1402,237	749,210
-15,921	10,110	1401,192	748,425
-14,906	10,070	1400,304	747,735
-13,892	10,140	1398,984	747,328
-12,877	10,117	1398,339	746,844
-11,863	10,118	1397,512	746,376
-10,848	10,089	1396,630	745,741
-9,833	10,094	1395,719	745,251
-8,819	10,009	1395,055	744,473
-7,804	9,985	1394,177	743,862
-6,790	10,015	1392,879	743,278
-5,775	9,989	1391,929	742,621
-4,760	10,032	1390,885	742,234
-3,746	10,002	1389,941	741,564
-2,731	10,059	1388,888	741,234
-1,717	9,985	1388,414	740,610
-0,702	9,991	1386,547	739,612
0,313	14,021	1299,465	711,598
1,327	30,337	689,724	414,662
2,342	47,577	119,245	78,311
3,356	-0,787	16,557	8,247
4,371	16,493	3,364	1,869
5,386	-28,332	1,026	0,416
6,400	-200,000	0,180	0,608
7,415	54,675	-0,094	-0,064
8,429	-49,982	-0,264	-0,088
9,444	84,560	-0,311	-0,240
10,459	80,481	-0,270	-0,205
11,473	1,728	-0,298	-0,151
12,488	176,096	-0,229	-0,235
13,502	30,382	-0,249	-0,149
14,517	366,161	-0,206	-0,294
15,531	81,725	-0,357	-0,272
16,546	8,108	-0,346	-0,182
17,561	108,914	-0,358	-0,301
18,575	57,598	-0,279	-0,192
19,590	41,112	-0,230	-0,146
20,604	-15,905	-0,213	-0,095
21,619	55,322	-0,425	-0,289
22,634	59,670	-0,309	-0,214
23,648	3,881	-0,522	-0,268
24,663	-55,804	-0,406	-0,127
25,677	82,813	-0,408	-0,312
26,692	30,736	-0,232	-0,139
27,707	47,503	-0,436	-0,286
28,721	114,698	-0,349	-0,300
29,736	140,518	-0,357	-0,332
30,750	19,817	-0,454	-0,257
31,765	133,841	-0,341	-0,311
32,780	347,390	-0,239	-0,332
33,794	91,941	-0,349	-0,276
34,809	115,881	-0,363	-0,312
35,823	126,760	-0,394	-0,351
36,838	51,915	-0,326	-0,218
37,853	-52,069	-0,511	-0,166
38,867	308,420	-0,322	-0,424
39,882	73,941	-0,337	-0,248
40,896	207,930	-0,313	-0,345
41,911	104,159	-0,316	-0,261
42,926	37,386	-0,413	-0,257
43,940	12,389	-0,415	-0,224
44,955	91,283	-0,399	-0,315
45,969	61,661	-0,343	-0,239
46,984	-68,024	-0,323	-0,088
47,999	43,238	-0,322	-0,206
49,013	7,883	-0,517	-0,271
50,028	-101,247	-0,348	-0,059
51,042	56,647	-0,290	-0,198
52,057	316,187	-0,225	-0,299
53,071	300,300	-0,269	-0,349
54,086	114,802	-0,187	-0,160
55,101	-36,371	-0,431	-0,162
56,115	98,299	-0,286	-0,231
57,130	113,968	-0,262	-0,223
58,144	84,008	-0,447	-0,342
59,159	132,249	-0,204	-0,185
60,174	79,024	-0,301	-0,226
61,188	24,446	-0,391	-0,227
62,203	329,171	-0,180	-0,244
63,217	-8,292	-0,238	-0,112
64,232	28,757	-0,248	-0,147
65,247	212,643	-0,259	-0,287
66,261	241,736	-0,297	-0,349
67,276	47,395	-0,320	-0,209
68,290	-77,617	-0,346	-0,083
69,305	19,408	-0,241	-0,135
70,320	-87,299	-0,261	-0,055
71,334	20,717	-0,319	-0,181
72,349	161,967	-0,265	-0,260
73,363	61,772	-0,281	-0,196
74,378	125,873	-0,245	-0,217
75,393	83,510	-0,287	-0,219
76,407	29,893	-0,358	-0,213
77,422	-12,511	-0,266	-0,121
78,436	-21,313	-0,174	-0,074
79,451	-61,309	-0,339	-0,099
80,466	105,497	-0,304	-0,251
81,480	12,963	-0,246	-0,133
82,495	-38,074	-0,399	-0,148
83,509	-12,460	-0,195	-0,089
84,524	-99,315	-0,181	-0,032
85,539	223,700	-0,224	-0,254
86,553	21,219	-0,329	-0,187
87,568	64,195	-0,288	-0,203
88,582	121,438	-0,297	-0,259
89,597	-19,760	-0,366	-0,158
90,611	-6,495	-0,416	-0,198
91,626	296,752	-0,168	-0,216
92,641	157,836	-0,153	-0,149
93,655	0,837	-0,135	-0,068
94,670	47,116	-0,361	-0,235
95,684	135,312	-0,207	-0,188
96,699	448,542	-0,221	-0,342
97,714	-119,276	-0,197	0,024
98,728	-63,545	-0,308	-0,088
99,743	57,815	-0,280	-0,191
100,757	173,470	-0,214	-0,216
101,772	277,586	-0,168	-0,210
102,787	94,080	-0,317	-0,251
103,801	154,602	-0,194	-0,187
104,816	30,826	-0,341	-0,204
105,830	2,866	-0,299	-0,151
106,845	75,888	-0,142	-0,105
107,860	145,947	-0,193	-0,181
108,874	-53,763	-0,369	-0,117
109,889	246,071	-0,210	-0,248
110,903	339,988	-0,226	-0,308
111,918	23,843	-0,231	-0,133
112,933	45,638	-0,284	-0,183
113,947	221,922	-0,142	-0,160
114,962	-15,462	-0,281	-0,125
115,976	233,841	-0,206	-0,238
116,991	172,986	-0,295	-0,298
118,006	46,613	-0,404	-0,262
119,020	51,716	-0,298	-0,198
120,035	113,261	-0,183	-0,155
121,049	248,338	-0,133	-0,157
122,064	6,946	-0,204	-0,106
123,079	156,389	-0,263	-0,254
124,093	12,800	-0,221	-0,119
125,108	195,764	-0,194	-0,206
126,122	23,570	-0,278	-0,159
127,137	78,877	-0,251	-0,187
128,151	-3,083	-0,315	-0,153
129,166	3,065	-0,363	-0,183
130,181	39,400	-0,232	-0,145
131,195	88,801	-0,247	-0,192
132,210	46,746	-0,282	-0,182
133,224	729,669	-0,164	-0,306
134,239	261,740	-0,248	-0,300
135,254	147,629	-0,185	-0,174
136,268	56,362	-0,222	-0,150
137,283	71,486	-0,194	-0,140
138,297	102,560	-0,344	-0,280
139,312	121,922	-0,320	-0,278
140,327	-112,515	-0,324	-0,045
141,341	290,954	-0,184	-0,234
142,356	-31,965	-0,253	-0,098
143,370	42,135	-0,227	-0,143
144,385	125,919	-0,121	-0,107
145,400	378,611	-0,208	-0,298
146,414	114,105	-0,228	-0,193
147,429	23,613	-0,317	-0,181
148,443	134,430	-0,290	-0,262
149,458	800,000	-0,149	-0,306
150,473	-0,118	-0,196	-0,097
151,487	134,287	-0,232	-0,210
152,502	-65,222	-0,351	-0,098
153,516	367,471	-0,124	-0,175
154,531	-55,190	-0,448	-0,139
155,546	10,727	-0,208	-0,110
156,560	-77,690	-0,254	-0,061
157,575	485,556	-0,140	-0,222
158,589	176,859	-0,247	-0,250
159,604	139,037	-0,236	-0,216
160,619	463,041	-0,164	-0,256
161,633	372,212	-0,134	-0,190
162,648	-33,149	-0,168	0,064
163,662	-20,649	-0,182	-0,078
164,677	81,417	-0,186	-0,140
165,692	-81,487	-0,339	-0,077
166,706	207,295	-0,141	-0,153
167,721	69,965	-0,268	-0,192
168,735	154,696	-0,229	-0,219
169,750	94,262	-0,186	-0,147
170,764	264,988	-0,181	-0,220
171,779	47,306	-0,159	-0,103
172,794	4,091	-0,199	-0,101
173,808	800,000	-0,099	-0,196
174,823	81,943	-0,146	-0,110
175,837	-29,742	-0,349	-0,138
176,852	76,183	-0,313	-0,230
177,867	-91,096	-0,211	-0,042
178,881	800,000	-0,105	-0,203
179,896	87,289	-0,246	-0,188
180,910	103,502	-0,218	-0,178
181,925	331,744	-0,127	-0,171
182,940	31,667	-0,340	-0,203
183,954	148,069	-0,201	-0,189
184,969	189,192	-0,194	-0,202
185,983	-28,049	-0,248	-0,099
186,998	444,797	-0,144	-0,220
188,013	73,293	-0,143	-0,104
189,027	-14,174	-0,232	-0,104
190,042	-16,436	-0,318	-0,140
191,056	-110,278	-0,172	-0,025
192,071	41,274	-0,261	-0,163
193,086	-44,251	-0,217	-0,075
194,100	-153,044	-0,270	0,013
195,115	-18,804	-0,355	-0,153
196,129	256,840	-0,172	-0,205
197,144	-15,446	-0,210	-0,093
198,159	10,782	-0,214	-0,113
199,173	161,604	-0,206	-0,200
200,188	-150,453	-0,163	0,009
201,202	483,861	-0,088	-0,139
202,217	-85,084	-0,276	-0,059
203,232	6,435	-0,106	-0,054
204,246	132,936	-0,208	-0,186
205,261	-70,215	-0,282	-0,074
206,275	110,116	-0,143	-0,119
207,290	102,481	-0,124	-0,101
208,304	-200,000	-0,307	-0,000
209,319	220,300	-0,160	-0,178
210,334	42,889	-0,212	-0,133
211,348	171,427	-0,258	-0,256
212,363	90,451	-0,233	-0,180
213,377	247,814	-0,184	-0,216
214,392	-81,109	-0,156	0,036
215,407	-53,554	-0,235	-0,074
216,421	-113,363	-0,248	-0,033
217,436	86,472	-0,191	-0,145
218,450	-105,978	-0,161	-0,025
219,465	92,160	-0,153	-0,119
220,480	-78,539	-0,108	-0,025
221,494	84,041	-0,184	-0,139
222,509	-200,000	-0,037	-0,201
223,523	-9,968	-0,099	-0,045
224,538	26,353	-0,346	-0,200
225,553	218,061	-0,286	-0,317
226,567	79,510	-0,265	-0,197
227,582	50,594	-0,308	-0,201
228,596	212,080	-0,121	-0,132
229,611	25,284	-0,294	-0,168
230,626	92,547	-0,128	-0,100
231,640	-159,270	-0,156	-0,006
232,655	211,112	-0,167	-0,182
233,669	176,266	-0,223	-0,224
234,684	364,665	-0,101	-0,141
235,699	-114,218	-0,085	-0,011
236,713	19,704	-0,224	-0,124
237,728	-92,351	-0,149	0,029
238,742	61,192	-0,179	-0,122
239,757	470,849	-0,183	-0,286
240,772	113,400	-0,171	-0,144
241,786	2,266	-0,226	-0,112
242,801	136,319	-0,149	-0,135
243,815	302,832	-0,079	-0,101
244,830	129,176	-0,149	-0,132
245,844	35,211	-0,243	-0,147
246,859	-48,026	-0,264	-0,088
247,874	154,015	-0,274	-0,259
248,888	404,854	-0,100	-0,146
249,903	151,248	-0,151	-0,142
250,917	-22,494	-0,200	-0,083
251,932	-8,849	-0,152	-0,070
252,947	-16,733	-0,228	-0,099
253,961	529,568	-0,137	-0,224
254,976	632,053	-0,089	-0,156
255,990	162,028	-0,148	-0,143
257,005	253,073	-0,084	-0,098
258,020	71,831	-0,215	-0,154
259,034	228,928	-0,149	-0,168
260,049	86,237	-0,117	-0,088
261,063	-32,688	-0,310	-0,118
262,078	-13,755	-0,235	-0,104
263,093	102,869	-0,210	-0,170
264,107	151,950	-0,127	-0,120
265,122	-80,327	-0,073	0,017
266,136	-115,988	-0,090	-0,011
267,151	-24,743	-0,176	-0,072
268,166	38,803	-0,234	-0,144
269,180	203,580	-0,203	-0,217
270,195	-40,598	-0,177	-0,063
271,209	-48,370	-0,085	0,028
272,224	-12,242	-0,162	-0,073
273,239	36,219	-0,188	-0,114
274,253	-110,002	-0,073	0,010
275,268	320,143	-0,087	-0,114
276,282	800,000	-0,072	-0,206
277,297	105,701	-0,261	-0,213
278,312	49,041	-0,208	-0,134
279,326	-200,000	-0,029	-0,089
280,341	-122,323	-0,080	-0,009
281,355	57,231	-0,136	-0,091
282,370	244,490	-0,125	-0,145
283,384	-43,574	-0,071	-0,024
284,399	124,605	-0,212	-0,183
285,414	455,095	-0,093	-0,142
286,428	381,954	-0,117	-0,166
287,443	-200,000	-0,047	-0,162
288,457	-116,202	-0,241	-0,030
289,472	-40,436	-0,209	-0,074
290,487	114,002	-0,206	-0,172
291,501	-200,000	-0,051	-0,224
292,516	310,029	-0,188	-0,242
293,530	180,906	-0,162	-0,164
294,545	44,465	-0,093	-0,059
295,560	-61,275	-0,138	0,040
296,574	317,954	-0,106	-0,139
297,589	329,197	-0,006	0,008
298,603	170,445	-0,183	-0,180
299,618	-193,504	-0,149	-0,001
300,633	152,559	-0,090	-0,085
301,647	-47,156	-0,056	-0,019
302,662	90,630	-0,154	-0,119
303,676	70,213	-0,134	-0,095
304,691	132,344	-0,218	-0,193
305,706	800,000	-0,168	-0,326
306,720	416,239	-0,137	-0,202
307,735	-150,322	-0,170	-0,009
308,749	367,565	-0,081	-0,112
309,764	58,805	-0,142	-0,096
310,779	-69,057	-0,159	-0,042
311,793	-117,452	-0,110	-0,013
312,808	25,805	-0,131	-0,075
313,822	-11,288	-0,104	-0,047
314,837	55,124	-0,149	-0,098
315,852	518,257	-0,115	-0,186
316,866	87,946	-0,118	-0,090
317,881	-49,236	-0,204	-0,067
318,895	158,098	-0,119	-0,114
319,910	253,443	-0,097	0,114
320,925	-122,525	-0,256	0,028
321,939	220,159	-0,103	-0,113
322,954	-16,091	-0,032	-0,014
323,968	709,697	-0,038	-0,070
324,983	-200,000	-0,046	-0,198
325,997	55,926	-0,105	-0,070
327,012	800,000	-0,053	-0,157
328,027	150,717	-0,024	-0,023
329,041	-70,540	-0,168	-0,043
330,056	130,352	-0,142	-0,125
331,070	-125,389	-0,119	0,012
332,085	361,999	-0,088	-0,121
333,100	-4,622	-0,162	-0,077
334,114	-117,537	-0,226	-0,028
335,129	-103,857	-0,202	-0,032
336,143	172,243	-0,061	-0,060
337,158	129,762	-0,093	-0,082
338,173	-23,751	-0,117	-0,048
339,187	166,139	-0,107	-0,104
340,202	800,000	-0,040	-0,120
341,216	237,538	-0,202	-0,230
342,231	3,333	-0,163	-0,081
343,246	800,000	-0,072	-0,165
344,260	227,465	-0,128	-0,143
345,275	-124,827	-0,144	-0,015
346,289	-160,748	-0,243	0,009
347,304	88,214	-0,092	-0,070
348,319	25,803	-0,122	-0,070
349,333	-151,309	-0,226	-0,011
350,348	99,821	-0,184	-0,146
351,362	-16,844	-0,096	-0,041
352,377	282,577	-0,094	-0,115
353,392	-115,095	-0,132	-0,017
354,406	-56,011	-0,108	-0,033
355,421	207,519	1309,631	1399,468
356,435	159,647	1469,690	1399,947
