DTS Sentinel unit serial number:	SN410029Multiplexer serial number:	ORYXHardware model number:	OX2-SRSoftware version number:	ORYX F/W v4,00 Oryx Data Collector v3.7.2.0data status	okinstallation	B3 Nyhavnadifferential loss correction	single-endedforward channel	channel 1reverse channel	N/Adate	2023/12/03time	16:57:30forward acquisition time	300,00reverse acquisition time	0,00gamma	499,1914k internal	0,3197k external	0,3197temperature offset calibration	1,0000default loss term (dB/km)	0,3820temperature slope calibration	1,0000multiplexer offset coefficient	1,0000multiplexer slope coefficient	1,0000fibre end	0,00T internal ref (°C)	15,14T ext. ref 1 (°C)	-0,34T ext. ref 2 (°C)	-0,36length (m)	temperature (°C)	Stokes	anti-Stokes-744,400	800,000	-0,093	-0,293
-743,385	-200,000	-0,029	0,346
-742,371	275,971	-0,211	-0,274
-741,356	-200,000	0,016	0,240
-740,342	240,109	-0,156	-0,190
-739,327	-200,000	0,043	0,210
-738,312	461,189	-0,204	-0,333
-737,298	-200,000	-0,014	0,297
-736,283	199,017	-0,238	-0,266
-735,269	-200,000	0,056	0,328
-734,254	-25,509	-0,284	-0,121
-733,239	46,522	-0,168	0,114
-732,225	182,928	-0,162	-0,174
-731,210	-200,000	0,019	0,168
-730,196	-200,000	-0,005	0,063
-729,181	187,989	0,055	-0,060
-728,167	-64,066	-0,031	0,009
-727,152	81,994	-0,054	-0,042
-726,137	148,361	-0,111	0,110
-725,123	-200,000	0,022	-0,081
-724,108	800,000	-0,063	-0,157
-723,094	280,689	-0,077	-0,101
-722,079	-200,000	0,006	0,079
-721,064	-200,000	0,024	0,132
-720,050	-92,409	-0,120	0,024
-719,035	72,492	-0,079	-0,060
-718,021	800,000	0,043	-0,116
-717,006	18,288	-0,028	0,016
-715,991	38,695	-0,164	-0,106
-714,977	142,078	-0,084	0,081
-713,962	486,636	-0,022	-0,036
-712,948	-138,369	-0,151	-0,012
-711,933	-200,000	0,009	-0,031
-710,918	800,000	-0,050	0,152
-709,904	-168,153	-0,186	0,005
-708,889	-158,311	-0,121	-0,005
-707,875	800,000	0,042	-0,107
-706,860	-49,419	0,107	-0,037
-705,845	-129,220	0,113	-0,011
-704,831	208,486	0,076	0,086
-703,816	-56,346	-0,053	0,017
-702,802	-24,782	-0,042	-0,018
-701,787	205,122	-0,026	0,029
-700,772	218,561	-0,044	-0,052
-699,758	178,379	-0,045	-0,048
-698,743	800,000	-0,109	0,237
-697,729	-163,376	0,138	-0,005
-696,714	92,995	0,049	-0,041
-695,699	800,000	0,044	0,106
-694,685	-173,135	-0,196	-0,004
-693,670	387,957	-0,006	-0,010
-692,656	-16,104	0,053	-0,025
-691,641	800,000	-0,033	-0,080
-690,627	800,000	0,060	0,123
-689,612	-76,644	0,091	0,023
-688,597	19,874	-0,030	0,017
-687,583	-200,000	-0,030	-0,193
-686,568	-200,000	-0,012	-0,097
-685,554	-121,215	-0,113	-0,014
-684,539	-200,000	0,004	0,066
-683,524	332,244	0,077	0,108
-682,510	-4,019	0,042	0,021
-681,495	219,866	-0,090	-0,105
-680,481	-21,642	0,053	0,023
-679,466	-76,984	-0,080	-0,020
-678,451	130,461	-0,114	-0,106
-677,437	-200,000	-0,004	-0,102
-676,422	29,359	0,054	-0,033
-675,408	-5,130	-0,151	0,075
-674,393	800,000	-0,044	-0,129
-673,378	800,000	0,020	-0,048
-672,364	8,474	-0,041	-0,022
-671,349	-200,000	-0,037	-0,154
-670,335	11,836	0,087	-0,048
-669,320	-200,000	-0,010	-0,057
-668,305	724,317	0,026	0,050
-667,291	-6,946	-0,067	-0,033
-666,276	129,860	0,041	-0,038
-665,262	344,817	-0,039	-0,055
-664,247	-96,368	-0,089	-0,017
-663,232	800,000	0,028	0,069
-662,218	-101,796	0,107	-0,019
-661,203	-154,088	-0,025	-0,001
-660,189	-200,000	-0,016	-0,068
-659,174	-49,133	-0,048	0,017
-658,159	324,591	-0,009	0,013
-657,145	706,538	0,039	-0,075
-656,130	800,000	-0,034	-0,074
-655,116	783,020	0,006	-0,013
-654,101	800,000	-0,008	-0,024
-653,086	-200,000	-0,013	0,069
-652,072	-200,000	-0,005	-0,138
-651,057	-200,000	0,007	0,075
-650,043	-200,000	0,000	-0,049
-649,028	-114,801	-0,025	0,003
-648,014	649,253	0,074	-0,139
-646,999	800,000	0,041	-0,124
-645,984	-200,000	-0,024	0,183
-644,970	530,983	-0,079	-0,136
-643,955	-154,994	-0,038	0,002
-642,941	132,994	-0,125	-0,117
-641,926	-120,763	-0,142	-0,017
-640,911	-29,144	0,029	0,012
-639,897	-60,539	0,137	0,042
-638,882	-153,435	-0,099	-0,005
-637,868	-83,480	0,122	0,028
-636,853	244,684	-0,053	0,065
-635,838	-133,591	-0,172	0,015
-634,824	800,000	0,043	-0,118
-633,809	144,157	0,034	0,033
-632,795	-200,000	0,002	0,030
-631,780	29,151	0,062	0,038
-630,765	-200,000	0,035	-0,118
-629,751	478,394	0,039	-0,064
-628,736	-74,561	0,037	-0,010
-627,722	-131,905	-0,034	0,003
-626,707	-18,845	-0,010	0,004
-625,692	800,000	-0,035	-0,093
-624,678	-96,367	-0,115	0,022
-623,663	800,000	-0,061	-0,128
-622,649	-200,000	0,010	-0,054
-621,634	-200,000	0,018	0,191
-620,619	104,879	-0,059	-0,051
-619,605	75,055	0,039	-0,030
-618,590	124,526	0,201	0,183
-617,576	800,000	-0,035	0,075
-616,561	-127,594	-0,057	-0,006
-615,546	-200,000	0,015	-0,062
-614,532	86,584	-0,171	-0,137
-613,517	800,000	0,022	0,057
-612,503	800,000	-0,032	0,085
-611,488	235,957	0,051	0,062
-610,474	-77,174	0,058	0,014
-609,459	-200,000	-0,007	0,038
-608,444	83,749	0,111	-0,088
-607,430	-5,768	-0,033	-0,016
-606,415	555,965	-0,014	-0,024
-605,401	476,840	-0,065	-0,107
-604,386	75,681	-0,037	0,029
-603,371	-200,000	0,006	-0,105
-602,357	44,862	-0,041	0,027
-601,342	29,213	0,050	0,031
-600,328	-79,476	-0,147	-0,036
-599,313	-67,359	0,082	-0,023
-598,298	238,499	-0,082	0,099
-597,284	-96,899	-0,077	-0,014
-596,269	-200,000	-0,001	-0,006
-595,255	38,491	-0,053	-0,034
-594,240	201,919	-0,092	-0,103
-593,225	-71,953	-0,063	0,017
-592,211	-200,000	0,018	-0,176
-591,196	-88,442	0,109	0,023
-590,182	-54,732	0,173	-0,056
-589,167	22,727	0,095	0,056
-588,152	800,000	-0,085	0,196
-587,138	0,242	0,098	-0,050
-586,123	-43,063	-0,205	-0,075
-585,109	216,550	0,133	-0,153
-584,094	800,000	-0,050	-0,109
-583,079	-200,000	-0,007	0,156
-582,065	608,842	0,103	0,187
-581,050	-59,399	-0,108	-0,034
-580,036	171,127	0,035	-0,037
-579,021	-83,019	-0,123	-0,028
-578,006	269,247	0,012	0,015
-576,992	37,527	0,059	0,038
-575,977	-94,962	0,100	-0,019
-574,963	96,863	-0,059	-0,049
-573,948	-200,000	0,021	0,112
-572,934	-200,000	0,008	0,035
-571,919	-200,000	-0,007	-0,065
-570,904	800,000	0,031	-0,089
-569,890	612,396	0,047	0,086
-568,875	79,241	-0,034	0,026
-567,861	-200,000	0,021	-0,141
-566,846	800,000	-0,034	0,073
-565,831	800,000	-0,057	-0,144
-564,817	-168,942	0,043	0,001
-563,802	206,762	0,024	0,027
-562,788	84,911	-0,081	0,064
-561,773	-95,270	0,089	0,017
-560,758	-128,707	-0,027	-0,003
-559,744	-161,637	0,058	-0,002
-558,729	17,576	0,149	0,086
-557,715	-12,169	-0,037	0,018
-556,700	-200,000	-0,049	-0,221
-555,685	108,546	0,108	-0,093
-554,671	-99,853	-0,070	0,013
-553,656	-25,461	0,088	-0,038
-552,642	800,000	0,063	0,134
-551,627	-200,000	0,001	-0,003
-550,612	547,385	-0,009	-0,015
-549,598	-22,546	-0,190	-0,083
-548,583	172,642	-0,008	-0,008
-547,569	800,000	0,043	-0,087
-546,554	-75,815	0,073	0,019
-545,539	-31,996	-0,078	-0,032
-544,525	-151,714	0,063	0,003
-543,510	-200,000	0,005	-0,107
-542,496	-13,950	-0,055	0,025
-541,481	57,935	-0,087	0,061
-540,466	91,379	-0,039	-0,031
-539,452	800,000	0,016	-0,040
-538,437	6,322	0,087	0,046
-537,423	800,000	0,016	0,036
-536,408	-140,911	-0,184	0,013
-535,393	306,359	-0,066	-0,089
-534,379	124,174	0,067	-0,061
-533,364	101,876	-0,051	-0,043
-532,350	-7,208	0,092	-0,045
-531,335	-99,594	-0,026	-0,005
-530,321	-200,000	0,012	0,107
-529,306	-40,691	-0,171	-0,064
-528,291	-200,000	0,001	0,081
-527,277	755,673	0,025	0,050
-526,262	800,000	0,027	-0,078
-525,248	800,000	0,024	-0,050
-524,233	800,000	-0,016	0,050
-523,218	213,757	0,086	0,098
-522,204	-75,545	-0,035	0,009
-521,189	-45,280	0,044	-0,016
-520,175	-131,783	-0,097	-0,009
-519,160	-200,000	0,036	0,116
-518,145	100,205	0,044	-0,037
-517,131	800,000	-0,021	-0,060
-516,116	94,660	-0,037	-0,031
-515,102	122,224	0,071	-0,064
-514,087	77,535	0,084	0,065
-513,072	62,742	0,054	-0,039
-512,058	126,730	0,030	-0,028
-511,043	-141,871	-0,068	0,005
-510,029	-59,163	0,144	0,045
-509,014	258,182	0,049	0,061
-507,999	-119,146	-0,057	0,007
-506,985	-37,098	0,036	0,014
-505,970	-200,000	-0,002	-0,033
-504,956	463,915	0,046	-0,075
-503,941	-102,276	0,114	-0,019
-502,926	463,924	-0,028	0,046
-501,912	800,000	0,023	-0,062
-500,897	54,708	0,024	0,016
-499,883	-172,752	-0,159	0,004
-498,868	-123,308	-0,141	0,016
-497,853	408,646	0,057	-0,087
-496,839	800,000	-0,027	-0,068
-495,824	800,000	-0,004	0,009
-494,810	-50,975	0,112	0,038
-493,795	103,485	-0,078	-0,066
-492,781	392,714	0,039	0,059
-491,766	18,302	-0,075	0,043
-490,751	105,743	-0,073	-0,062
-489,737	800,000	-0,008	-0,022
-488,722	-18,870	0,149	0,067
-487,708	22,797	0,170	0,100
-486,693	274,840	0,030	0,038
-485,678	308,978	0,083	-0,112
-484,664	101,980	-0,025	-0,021
-483,649	800,000	-0,033	-0,087
-482,635	-89,197	-0,125	-0,026
-481,620	-105,736	-0,131	0,021
-480,605	-103,480	0,065	-0,011
-479,591	142,587	-0,036	0,034
-478,576	-69,553	-0,026	0,007
-477,562	-51,530	0,095	-0,032
-476,547	-9,320	0,098	-0,047
-475,532	-3,000	-0,100	0,050
-474,518	-200,000	-0,016	-0,057
-473,503	-200,000	0,027	0,090
-472,489	-140,033	0,151	-0,011
-471,474	-46,574	-0,138	0,048
-470,459	630,088	0,054	-0,098
-469,445	-31,486	-0,088	-0,036
-468,430	-90,532	-0,061	0,013
-467,416	800,000	-0,027	0,075
-466,401	352,491	0,055	0,078
-465,386	800,000	-0,013	-0,029
-464,372	-24,285	0,098	0,042
-463,357	-11,851	-0,067	0,032
-462,343	-61,338	-0,071	0,021
-461,328	27,566	-0,004	0,002
-460,313	198,206	-0,054	0,060
-459,299	-200,000	0,008	-0,026
-458,284	141,040	-0,083	0,079
-457,270	65,965	0,086	0,063
-456,255	-144,239	0,026	0,002
-455,241	4,462	0,050	0,026
-454,226	158,910	0,058	-0,058
-453,211	-77,137	-0,126	0,031
-452,197	-119,226	0,081	0,010
-451,182	-8,642	-0,092	-0,044
-450,168	-200,000	-0,019	0,067
-449,153	318,590	-0,064	0,088
-448,138	611,213	-0,062	-0,111
-447,124	800,000	-0,065	-0,147
-446,109	-154,710	0,022	0,001
-445,095	-79,477	0,165	0,040
-444,080	800,000	-0,022	0,051
-443,065	-135,516	-0,047	0,004
-442,051	193,153	0,031	-0,034
-441,036	-90,656	-0,035	0,007
-440,022	-200,000	-0,019	0,076
-439,007	496,538	-0,036	-0,061
-437,992	15,672	-0,043	-0,024
-436,978	800,000	-0,069	0,165
-435,963	800,000	0,030	-0,096
-434,949	-76,839	0,045	-0,011
-433,934	-12,836	-0,019	0,009
-432,919	-130,516	-0,061	-0,006
-431,905	-200,000	0,014	0,098
-430,890	340,989	0,040	-0,056
-429,876	108,241	-0,020	-0,018
-428,861	315,195	-0,017	0,023
-427,846	52,657	0,056	0,039
-426,832	-200,000	-0,023	-0,135
-425,817	260,380	0,047	-0,058
-424,803	191,869	0,080	0,087
-423,788	-200,000	-0,037	0,127
-422,773	-200,000	-0,022	0,098
-421,759	-128,375	0,139	-0,014
-420,744	169,845	0,113	-0,116
-419,730	703,360	-0,030	0,057
-418,715	-200,000	0,005	-0,124
-417,701	-12,814	-0,089	0,041
-416,686	127,411	0,072	0,066
-415,671	-187,927	0,210	0,002
-414,657	119,345	0,067	0,059
-413,642	38,887	0,022	0,014
-412,628	800,000	-0,039	0,100
-411,613	243,142	0,061	-0,074
-410,598	-58,133	0,023	-0,007
-409,584	-51,042	0,023	0,008
-408,569	-104,872	0,156	0,026
-407,555	-114,976	0,092	0,012
-406,540	44,421	0,035	0,023
-405,525	-200,000	-0,004	-0,075
-404,511	-200,000	0,011	-0,070
-403,496	1,566	-0,068	-0,035
-402,482	800,000	0,008	0,020
-401,467	-82,473	0,107	-0,025
-400,452	288,482	0,069	0,089
-399,438	-55,574	-0,081	0,026
-398,423	-200,000	0,006	-0,053
-397,409	41,300	0,052	0,034
-396,394	56,170	0,175	-0,122
-395,379	227,944	-0,042	-0,049
-394,365	35,088	0,129	-0,081
-393,350	173,658	-0,075	-0,078
-392,336	461,813	-0,090	0,145
-391,321	18,856	-0,062	-0,035
-390,306	-22,107	-0,107	-0,046
-389,292	-200,000	-0,004	-0,055
-388,277	-200,000	0,011	-0,036
-387,263	235,612	0,051	0,061
-386,248	-200,000	0,008	-0,080
-385,233	-200,000	-0,028	-0,112
-384,219	119,213	0,014	0,012
-383,204	800,000	0,054	-0,122
-382,190	-200,000	-0,042	-0,164
-381,175	-165,079	0,039	-0,001
-380,160	354,867	-0,030	-0,043
-379,146	-119,723	0,166	0,020
-378,131	800,000	-0,061	-0,166
-377,117	-200,000	0,003	-0,054
-376,102	43,437	0,074	-0,049
-375,088	-67,685	0,047	-0,013
-374,073	253,922	-0,087	-0,107
-373,058	543,765	0,071	0,123
-372,044	119,302	0,025	0,022
-371,029	-200,000	-0,010	0,060
-370,015	192,095	-0,043	-0,046
-369,000	234,076	0,019	0,023
-367,985	1,185	0,046	-0,024
-366,971	-60,760	-0,084	-0,025
-365,956	70,740	0,038	-0,028
-364,942	-200,000	-0,003	-0,017
-363,927	-0,380	-0,056	0,029
-362,912	187,670	0,045	0,048
-361,898	-2,612	-0,074	-0,037
-360,883	-200,000	-0,019	-0,102
-359,869	131,581	0,015	-0,014
-358,854	-42,021	-0,111	-0,041
-357,839	-200,000	-0,006	0,104
-356,825	-200,000	-0,011	0,047
-355,810	-97,292	-0,048	-0,009
-354,796	-200,000	0,017	-0,076
-353,781	-200,000	0,016	-0,129
-352,766	-200,000	0,035	-0,114
-351,752	-88,451	-0,085	0,018
-350,737	-200,000	-0,000	0,116
-349,723	27,907	0,048	0,029
-348,708	470,726	-0,040	-0,065
-347,693	800,000	-0,013	-0,031
-346,679	-71,607	0,076	-0,020
-345,664	-58,538	0,061	-0,019
-344,650	800,000	-0,024	0,063
-343,635	82,829	-0,044	-0,034
-342,620	-11,310	0,051	-0,024
-341,606	-175,892	0,072	0,001
-340,591	-200,000	-0,002	-0,031
-339,577	217,186	-0,024	-0,028
-338,562	88,666	0,114	-0,091
-337,548	336,318	-0,084	-0,118
-336,533	516,574	-0,036	0,060
-335,518	800,000	-0,043	0,089
-334,504	-200,000	-0,032	0,198
-333,489	369,724	-0,025	0,036
-332,475	157,332	0,029	0,028
-331,460	-200,000	-0,023	-0,096
-330,445	-1,387	-0,115	-0,058
-329,431	-200,000	0,008	0,116
-328,416	-200,000	0,010	-0,046
-327,402	11,027	-0,090	0,049
-326,387	800,000	-0,042	0,124
-325,372	-200,000	-0,016	0,113
-324,358	-200,000	0,002	-0,064
-323,343	-101,737	0,029	0,005
-322,329	800,000	0,055	0,136
-321,314	343,265	0,074	0,104
-320,299	528,873	0,061	-0,103
-319,285	-200,000	0,007	0,098
-318,270	-53,109	0,079	-0,026
-317,256	-43,840	0,057	0,020
-316,241	450,606	-0,057	0,091
-315,226	-200,000	0,082	-0,000
-314,212	106,696	0,052	0,044
-313,197	209,461	-0,109	0,123
-312,183	-79,584	-0,140	-0,034
-311,168	-200,000	-0,008	-0,159
-310,153	-62,983	-0,105	0,031
-309,139	800,000	-0,046	0,103
-308,124	800,000	0,084	0,193
-307,110	800,000	0,009	0,020
-306,095	147,234	0,036	0,035
-305,080	198,826	-0,055	-0,061
-304,066	751,004	0,071	0,138
-303,051	9,537	0,061	0,033
-302,037	318,931	-0,100	0,136
-301,022	75,955	0,116	-0,088
-300,008	661,506	0,044	0,081
-298,993	800,000	-0,035	0,097
-297,978	60,816	-0,122	0,087
-296,964	800,000	0,022	-0,062
-295,949	-200,000	0,015	0,073
-294,935	-200,000	0,015	0,104
-293,920	20,430	0,089	-0,051
-292,905	288,282	0,054	0,070
-291,891	-167,065	-0,105	0,003
-290,876	598,222	0,019	0,035
-289,862	122,679	-0,068	0,061
-288,847	-95,647	-0,135	0,026
-287,832	-69,372	0,081	0,022
-286,818	800,000	0,011	0,031
-285,803	-200,000	-0,004	0,074
-284,789	27,236	0,025	-0,015
-283,774	-200,000	0,034	0,113
-282,759	-48,136	-0,117	0,040
-281,745	-200,000	0,015	-0,068
-280,730	225,641	-0,030	-0,035
-279,716	800,000	-0,032	-0,080
-278,701	-200,000	0,017	0,103
-277,686	-62,001	-0,100	-0,030
-276,672	263,073	0,044	-0,055
-275,657	142,562	0,017	0,017
-274,643	-200,000	0,020	-0,129
-273,628	-67,106	-0,129	0,036
-272,613	41,967	0,027	0,018
-271,599	-200,000	0,011	-0,131
-270,584	180,615	0,045	-0,047
-269,570	-200,000	-0,034	-0,127
-268,555	200,551	0,028	0,031
-267,540	-200,000	-0,034	-0,178
-266,526	-200,000	0,031	-0,102
-265,511	-200,000	-0,034	-0,202
-264,497	-200,000	0,012	-0,065
-263,482	196,732	0,042	0,045
-262,467	170,509	0,090	0,092
-261,453	800,000	-0,009	0,020
-260,438	-200,000	0,002	0,044
-259,424	-153,536	-0,101	-0,005
-258,409	41,712	0,101	0,065
-257,395	658,638	0,031	0,057
-256,380	-200,000	-0,005	0,119
-255,365	-200,000	-0,002	0,052
-254,351	-28,394	0,092	-0,038
-253,336	-24,000	0,108	-0,046
-252,322	90,881	-0,019	0,016
-251,307	-7,372	0,093	-0,045
-250,292	-149,777	0,046	0,003
-249,278	-117,129	0,052	-0,007
-248,263	47,494	0,029	0,019
-247,249	-200,000	0,012	0,121
-246,234	-119,413	-0,146	0,018
-245,219	-82,305	-0,038	0,009
-244,205	800,000	-0,029	0,064
-243,190	6,866	0,142	0,075
-242,176	61,877	0,047	-0,034
-241,161	-149,514	-0,102	-0,006
-240,146	800,000	-0,026	-0,077
-239,132	-200,000	0,015	0,073
-238,117	155,778	-0,020	-0,020
-237,103	800,000	-0,061	-0,130
-236,088	-77,817	-0,172	0,042
-235,073	521,215	0,018	-0,030
-234,059	-34,206	0,167	-0,065
-233,044	-200,000	-0,005	0,129
-232,030	-200,000	-0,014	0,049
-231,015	146,811	-0,055	0,053
-230,000	743,962	-0,063	0,122
-228,986	-200,000	0,008	0,077
-227,971	-200,000	0,035	-0,116
-226,957	449,093	0,072	0,113
-225,942	-23,982	-0,033	-0,014
-224,927	-200,000	-0,001	0,096
-223,913	661,742	0,014	0,025
-222,898	372,679	-0,065	-0,094
-221,884	-165,649	-0,052	-0,002
-220,869	89,742	0,078	0,062
-219,855	451,962	-0,068	0,107
-218,840	137,382	0,064	0,059
-217,825	23,178	0,096	0,056
-216,811	-200,000	-0,021	0,078
-215,796	72,194	-0,066	-0,049
-214,782	161,600	-0,087	-0,086
-213,767	-12,728	0,064	-0,029
-212,752	10,654	-0,055	-0,030
-211,738	101,625	0,102	0,085
-210,723	-200,000	0,002	0,143
-209,709	28,511	0,052	-0,031
-208,694	-165,272	-0,040	-0,001
-207,679	-200,000	-0,002	-0,080
-206,665	-200,000	-0,016	-0,113
-205,650	-200,000	-0,004	0,090
-204,636	162,220	-0,096	-0,096
-203,621	-172,468	0,100	-0,002
-202,606	-27,930	0,057	-0,023
-201,592	-1,416	-0,104	-0,052
-200,577	-89,968	-0,105	-0,022
-199,563	-38,834	0,131	-0,049
-198,548	293,496	0,079	0,103
-197,533	258,624	0,019	0,024
-196,519	-200,000	-0,030	0,123
-195,504	800,000	-0,010	-0,025
-194,490	800,000	0,048	-0,128
-193,475	206,410	-0,073	-0,081
-192,460	23,287	0,059	-0,034
-191,446	-200,000	0,014	-0,074
-190,431	154,350	-0,054	0,052
-189,417	-15,963	0,059	0,027
-188,402	-43,494	0,080	0,028
-187,387	-52,293	-0,062	-0,020
-186,373	-200,000	-0,013	-0,043
-185,358	333,969	-0,050	-0,069
-184,344	732,065	-0,020	-0,039
-183,329	-200,000	0,008	0,150
-182,315	-20,838	0,108	0,047
-181,300	-64,497	-0,068	-0,020
-180,285	299,505	-0,082	-0,107
-179,271	105,119	0,053	-0,045
-178,256	-200,000	-0,002	-0,074
-177,242	-200,000	0,024	0,084
-176,227	-169,259	0,078	0,002
-175,212	-200,000	-0,029	0,150
-174,198	331,955	-0,092	0,127
-173,183	-200,000	0,024	-0,088
-172,169	800,000	0,036	-0,091
-171,154	800,000	-0,074	-0,186
-170,139	-11,985	-0,078	0,036
-169,125	-115,953	-0,053	-0,007
-168,110	-200,000	-0,046	0,203
-167,096	92,874	-0,081	-0,065
-166,081	793,927	-0,020	0,040
-165,066	-33,763	-0,153	0,060
-164,052	-15,693	0,034	0,016
-163,037	301,935	-0,050	0,066
-162,023	132,011	0,091	0,083
-161,008	800,000	-0,031	-0,086
-159,993	7,802	0,068	0,036
-158,979	5,003	-0,072	0,037
-157,964	-117,162	-0,108	-0,014
-156,950	-152,419	0,059	-0,003
-155,935	-200,000	0,005	0,050
-154,920	325,317	-0,113	0,154
-153,906	19,174	-0,124	0,071
-152,891	53,751	0,154	-0,105
-151,877	103,976	-0,058	-0,048
-150,862	-200,000	-0,008	-0,024
-149,847	204,367	0,036	-0,040
-148,833	179,796	-0,045	0,047
-147,818	-93,259	0,085	0,017
-146,804	236,558	-0,023	0,027
-145,789	392,163	0,038	0,056
-144,775	-77,883	0,066	0,016
-143,760	233,050	0,033	0,039
-142,745	-70,009	-0,028	-0,008
-141,731	4,857	0,152	-0,079
-140,716	-77,793	0,095	0,023
-139,702	-34,135	0,123	0,048
-138,687	-72,852	-0,026	0,007
-137,672	800,000	-0,054	0,119
-136,658	8,211	-0,122	0,065
-135,643	448,138	-0,044	-0,069
-134,629	-28,483	0,068	0,028
-133,614	220,203	-0,022	0,025
-132,599	214,360	0,027	-0,031
-131,585	-57,012	0,069	-0,022
-130,570	679,113	-0,033	-0,061
-129,556	-200,000	-0,005	-0,018
-128,541	-61,875	-0,080	-0,024
-127,526	284,267	-0,063	0,080
-126,512	209,066	0,050	0,056
-125,497	353,804	0,089	0,125
-124,483	59,478	0,152	-0,107
-123,468	-200,000	-0,022	-0,126
-122,453	-151,122	0,050	-0,003
-121,439	-164,705	-0,029	-0,001
-120,424	-74,633	-0,118	-0,030
-119,410	223,594	-0,056	-0,064
-118,395	95,639	0,095	0,077
-117,380	-200,000	-0,020	0,074
-116,366	-200,000	0,005	-0,017
-115,351	-92,280	-0,133	0,026
-114,337	467,067	0,062	0,099
-113,322	-200,000	-0,006	-0,023
-112,307	-200,000	-0,004	0,063
-111,293	717,035	-0,021	0,040
-110,278	-131,851	0,129	0,012
-109,264	-200,000	-0,006	-0,021
-108,249	800,000	0,019	-0,049
-107,234	-16,768	-0,056	-0,025
-106,220	-110,643	-0,109	-0,016
-105,205	-115,900	0,083	0,011
-104,191	-63,566	-0,058	-0,017
-103,176	-200,000	0,023	0,088
-102,162	-18,203	-0,085	0,038
-101,147	800,000	0,046	-0,112
-100,132	800,000	-0,053	-0,147
-99,118	312,937	-0,060	0,080
-98,103	379,429	0,043	0,062
-97,089	-200,000	-0,015	0,132
-96,074	-0,265	0,044	-0,022
-95,059	800,000	0,034	0,085
-94,045	722,744	-0,054	0,102
-93,030	20,567	-0,141	-0,080
-92,016	-200,000	0,009	-0,095
-91,001	-200,000	-0,018	-0,110
-89,986	-200,000	-0,005	-0,058
-88,972	-108,877	-0,108	0,016
-87,957	532,271	-0,023	-0,038
-86,943	416,451	-0,033	0,049
-85,928	800,000	0,033	0,074
-84,913	800,000	-0,011	-0,033
-83,899	735,769	-0,011	-0,022
-82,884	376,831	-0,014	0,021
-81,870	7,136	0,094	0,050
-80,855	800,000	-0,066	-0,141
-79,840	-200,000	-0,008	0,069
-78,826	-200,000	0,002	-0,057
-77,811	800,000	0,023	0,058
-76,797	16,670	-0,118	0,066
-75,782	29,491	-0,037	-0,023
-74,767	-67,268	-0,126	0,035
-73,753	-3,967	0,031	0,015
-72,738	-200,000	0,004	-0,058
-71,724	-53,199	-0,160	-0,052
-70,709	-131,729	0,124	-0,011
-69,694	-200,000	0,002	0,104
-68,680	-153,033	-0,049	-0,002
-67,665	800,000	-0,055	0,154
-66,651	-200,000	-0,004	0,176
-65,636	718,273	-0,035	0,065
-64,622	-89,061	-0,109	0,023
-63,607	285,668	-0,087	-0,111
-62,592	335,823	-0,025	0,035
-61,578	-200,000	-0,007	-0,077
-60,563	-17,112	0,163	-0,073
-59,549	-200,000	-0,024	0,098
-58,534	-64,196	-1,454	-0,417
-57,519	455,787	-1,499	-2,365
-56,505	-200,000	-0,549	-4,441
-55,490	224,668	0,959	1,101
-54,476	800,000	4,802	10,868
-53,461	-200,000	18,151	285,994
-52,446	800,000	726,828	2225,475
-51,432	555,784	1642,434	2814,178
-50,417	79,409	1664,839	1264,248
-49,403	23,004	1538,391	892,058
-48,388	16,982	1461,530	818,322
-47,373	17,919	1451,486	817,177
-46,359	17,383	1441,979	809,229
-45,344	15,265	1437,525	796,582
-44,330	15,158	1435,519	794,928
-43,315	15,197	1433,692	794,072
-42,300	15,216	1432,121	793,262
-41,286	15,248	1430,965	792,743
-40,271	15,219	1429,738	791,890
-39,257	15,213	1428,545	791,172
-38,242	15,259	1427,052	790,532
-37,227	15,248	1426,082	789,907
-36,213	15,259	1424,671	789,148
-35,198	15,272	1423,480	788,519
-34,184	15,302	1422,456	788,061
-33,169	15,226	1421,259	787,010
-32,154	15,237	1420,449	786,582
-31,140	15,283	1418,832	785,872
-30,125	15,323	1417,767	785,440
-29,111	15,270	1416,665	784,550
-28,096	15,200	1415,747	783,679
-27,082	15,171	1414,560	782,853
-26,067	15,206	1413,175	782,223
-25,052	15,177	1412,265	781,550
-24,038	15,132	1411,505	780,890
-23,023	15,123	1410,595	780,313
-22,009	15,102	1409,485	779,569
-20,994	15,114	1408,565	779,084
-19,979	15,081	1407,595	778,362
-18,965	15,074	1406,619	777,760
-17,950	15,102	1405,429	777,203
-16,936	15,093	1404,768	776,762
-15,921	15,107	1403,454	776,072
-14,906	15,100	1402,448	775,452
-13,892	15,086	1401,733	774,960
-12,877	15,091	1400,788	774,432
-11,863	15,065	1399,890	773,781
-10,848	15,037	1398,955	773,103
-9,833	14,967	1398,409	772,448
-8,819	14,977	1397,330	771,865
-7,804	14,986	1396,207	771,257
-6,790	14,942	1395,277	770,508
-5,775	14,994	1394,209	770,131
-4,760	14,976	1393,381	769,556
-3,746	14,971	1392,524	769,031
-2,731	14,984	1391,703	768,605
-1,717	14,965	1390,695	767,934
-0,702	14,948	1388,950	766,861
0,313	18,746	1308,408	739,981
1,327	35,124	707,358	438,063
2,342	53,835	124,980	84,906
3,356	6,155	16,598	8,688
4,371	-5,357	3,083	1,495
5,386	-3,857	0,513	0,251
6,400	800,000	-0,047	0,101
7,415	97,556	-0,153	-0,124
8,429	-26,584	-0,174	-0,072
9,444	9,267	-0,340	-0,181
10,459	-16,772	-0,226	-0,101
11,473	64,878	-0,347	-0,248
12,488	121,544	-0,125	-0,110
13,502	746,997	-0,129	-0,248
14,517	-36,115	-0,257	-0,098
15,531	-12,064	-0,354	-0,164
16,546	-107,401	-0,336	-0,052
17,561	99,691	-0,501	-0,410
18,575	-81,781	-0,245	-0,056
19,590	305,384	-0,177	-0,233
20,604	-86,255	-0,245	-0,053
21,619	106,512	-0,477	-0,400
22,634	137,091	-0,440	-0,407
23,648	72,278	-0,410	-0,301
24,663	209,272	-0,181	-0,201
25,677	156,469	-0,281	-0,274
26,692	154,761	-0,356	-0,346
27,707	20,551	-0,406	-0,231
28,721	155,199	-0,366	-0,356
29,736	128,551	-0,322	-0,289
30,750	125,763	-0,416	-0,371
31,765	99,508	-0,375	-0,306
32,780	153,692	-0,365	-0,353
33,794	169,241	-0,329	-0,332
34,809	119,535	-0,262	-0,229
35,823	22,602	-0,376	-0,217
36,838	101,355	-0,386	-0,317
37,853	-10,274	-0,267	-0,125
38,867	51,428	-0,593	-0,397
39,882	260,963	-0,251	-0,307
40,896	162,621	-0,267	-0,265
41,911	61,354	-0,317	-0,222
42,926	-163,716	-0,394	0,013
43,940	147,609	-0,340	-0,323
44,955	106,472	-0,303	-0,254
45,969	82,161	-0,418	-0,319
46,984	101,600	-0,428	-0,352
47,999	-17,140	-0,308	-0,136
49,013	76,151	-0,231	-0,172
50,028	67,235	-0,375	-0,270
51,042	24,857	-0,310	-0,181
52,057	28,154	-0,330	-0,196
53,071	44,831	-0,439	-0,285
54,086	32,754	-0,308	-0,187
55,101	67,751	-0,257	-0,185
56,115	190,825	-0,228	-0,242
57,130	-46,854	-0,338	-0,116
58,144	-0,109	-0,404	-0,202
59,159	57,716	-0,334	-0,230
60,174	381,611	-0,258	-0,375
61,188	83,585	-0,356	-0,273
62,203	213,194	-0,219	-0,244
63,217	-22,668	-0,297	-0,126
64,232	13,435	-0,331	-0,180
65,247	24,352	-0,339	-0,197
66,261	-25,203	-0,497	-0,207
67,276	26,735	-0,326	-0,192
68,290	90,932	-0,374	-0,295
69,305	147,210	-0,284	-0,269
70,320	244,755	-0,115	-0,137
71,334	137,764	-0,255	-0,235
72,349	198,955	-0,264	-0,285
73,363	84,866	-0,327	-0,252
74,378	40,631	-0,325	-0,206
75,393	87,796	-0,331	-0,258
76,407	17,141	-0,368	-0,205
77,422	73,320	-0,303	-0,223
78,436	126,288	-0,304	-0,271
79,451	63,380	-0,239	-0,169
80,466	46,785	-0,300	-0,196
81,480	164,922	-0,327	-0,325
82,495	115,345	-0,310	-0,266
83,509	423,190	-0,206	-0,312
84,524	244,758	-0,187	-0,222
85,539	224,206	-0,234	-0,267
86,553	21,086	-0,302	-0,172
87,568	84,393	-0,413	-0,317
88,582	-9,889	-0,412	-0,192
89,597	-104,473	-0,273	-0,044
90,611	17,095	-0,351	-0,195
91,626	162,275	-0,148	-0,146
92,641	-25,448	-0,201	-0,083
93,655	-24,087	-0,342	-0,143
94,670	102,454	-0,343	-0,281
95,684	52,050	-0,321	-0,215
96,699	437,561	-0,237	-0,364
97,714	-13,682	-0,281	-0,127
98,728	235,575	-0,179	-0,208
99,743	126,393	-0,243	-0,216
100,757	498,685	-0,126	-0,205
101,772	99,020	-0,151	-0,122
102,787	-10,479	-0,347	-0,161
103,801	90,534	-0,227	-0,179
104,816	88,486	-0,253	-0,198
105,830	40,814	-0,336	-0,212
106,845	7,285	-0,211	-0,110
107,860	-40,881	-0,330	-0,119
108,874	800,000	-0,089	-0,201
109,889	110,923	-0,247	-0,209
110,903	130,309	-0,244	-0,220
111,918	162,758	-0,260	-0,256
112,933	175,849	-0,241	-0,245
113,947	-65,137	-0,163	-0,046
114,962	230,721	-0,232	-0,267
115,976	-29,918	-0,335	-0,133
116,991	122,948	-0,265	-0,233
118,006	111,031	-0,301	-0,254
119,020	-16,967	-0,195	-0,086
120,035	228,613	-0,194	-0,222
121,049	-50,808	-0,182	-0,060
122,064	63,536	-0,204	-0,143
123,079	-79,524	-0,218	-0,051
124,093	9,346	-0,405	-0,214
125,108	194,417	-0,214	-0,228
126,122	292,238	-0,217	-0,277
127,137	60,996	-0,317	-0,220
128,151	-106,657	-0,291	-0,045
129,166	-49,240	-0,296	-0,098
130,181	349,141	-0,162	-0,225
131,195	42,149	-0,279	-0,177
132,210	301,092	-0,204	-0,264
133,224	800,000	-0,105	-0,236
134,239	1,730	-0,307	-0,154
135,254	18,447	-0,283	-0,158
136,268	16,288	-0,196	-0,108
137,283	-94,342	-0,246	-0,047
138,297	-6,733	-0,327	-0,155
139,312	450,686	-0,119	-0,184
140,327	-48,336	-0,298	-0,100
141,341	345,346	-0,198	-0,273
142,356	800,000	-0,103	-0,231
143,370	161,962	-0,155	-0,152
144,385	29,512	-0,181	-0,107
145,400	-32,951	-0,302	-0,117
146,414	69,971	-0,309	-0,223
147,429	267,370	-0,165	-0,203
148,443	-30,411	-0,329	-0,130
149,458	-21,084	-0,244	-0,104
150,473	-101,658	-0,212	-0,036
151,487	-22,835	-0,293	-0,123
152,502	800,000	-0,040	-0,095
153,516	441,840	-0,186	-0,285
154,531	-200,000	-0,100	-0,324
155,546	159,541	-0,220	-0,214
156,560	800,000	-0,053	-0,144
157,575	4,840	-0,300	-0,154
158,589	-81,462	-0,167	-0,038
159,604	3,470	-0,271	-0,137
160,619	64,693	-0,241	-0,170
161,633	129,217	-0,200	-0,178
162,648	-22,275	-0,205	-0,087
163,662	51,690	-0,169	-0,112
164,677	167,146	-0,149	-0,148
165,692	-21,446	-0,280	-0,119
166,706	25,568	-0,200	-0,116
167,721	59,006	-0,300	-0,206
168,735	101,897	-0,256	-0,209
169,750	126,174	-0,251	-0,222
170,764	136,728	-0,198	-0,180
171,779	30,983	-0,207	-0,123
172,794	-138,757	-0,287	-0,022
173,808	-30,101	-0,240	-0,095
174,823	-50,550	-0,273	-0,089
175,837	509,729	-0,165	-0,268
176,852	189,110	-0,201	-0,210
177,867	676,324	-0,137	-0,250
178,881	85,189	-0,239	-0,183
179,896	34,937	-0,263	-0,160
180,910	117,645	-0,245	-0,210
181,925	29,747	-0,304	-0,180
182,940	520,185	-0,191	-0,313
183,954	-200,000	-0,024	-0,083
184,969	7,946	-0,326	-0,170
185,983	140,214	-0,107	-0,099
186,998	1,261	-0,273	-0,136
188,013	-19,952	-0,264	-0,113
189,027	-64,875	-0,108	-0,030
190,042	178,846	-0,271	-0,276
191,056	13,969	-0,189	-0,102
192,071	53,065	-0,208	-0,138
193,086	41,332	-0,241	-0,151
194,100	255,861	-0,196	-0,235
195,115	-170,690	-0,176	-0,004
196,129	10,543	-0,271	-0,143
197,144	-54,598	-0,334	-0,104
198,159	40,951	-0,235	-0,148
199,173	0,109	-0,232	-0,114
200,188	51,011	-0,128	-0,084
201,202	56,173	-0,287	-0,194
202,217	-27,043	-0,274	-0,111
203,232	180,005	-0,168	-0,172
204,246	-71,676	-0,222	-0,057
205,261	-57,588	-0,313	-0,095
206,275	-120,762	-0,183	-0,021
207,290	-39,664	-0,191	-0,069
208,304	-82,586	-0,193	-0,043
209,319	800,000	-0,158	-0,322
210,334	800,000	-0,068	-0,180
211,348	800,000	-0,065	-0,167
212,363	47,090	-0,278	-0,180
213,377	-200,000	-0,075	-0,279
214,392	277,163	-0,135	-0,168
215,407	151,047	-0,136	-0,128
216,421	205,064	-0,144	-0,155
217,436	-200,000	-0,026	-0,099
218,450	-7,356	-0,192	-0,090
219,465	156,834	-0,280	-0,269
220,480	35,016	-0,152	-0,092
221,494	131,574	-0,169	-0,151
222,509	293,736	-0,067	-0,085
223,523	-33,434	-0,231	-0,088
224,538	-18,376	-0,162	-0,070
225,553	20,330	-0,277	-0,155
226,567	39,118	-0,218	-0,135
227,582	183,323	-0,098	-0,101
228,596	59,277	-0,147	-0,101
229,611	22,952	-0,218	-0,124
230,626	127,928	-0,194	-0,171
231,640	90,664	-0,260	-0,202
232,655	-6,665	-0,266	-0,125
233,669	85,816	-0,251	-0,191
234,684	800,000	-0,086	-0,222
235,699	-67,086	-0,133	-0,036
236,713	106,438	-0,234	-0,193
237,728	-154,725	-0,290	-0,013
238,742	7,057	-0,279	-0,144
239,757	-200,000	-0,044	-0,167
240,772	207,899	-0,165	-0,179
241,786	183,608	-0,233	-0,239
242,801	505,337	-0,114	-0,183
243,815	-17,807	-0,152	-0,066
244,830	30,754	-0,140	-0,083
245,844	171,928	-0,191	-0,191
246,859	491,278	-0,181	-0,288
247,874	800,000	-0,085	-0,253
248,888	393,953	-0,136	-0,197
249,903	61,435	-0,153	-0,105
250,917	142,781	-0,160	-0,147
251,932	-102,889	-0,188	0,031
252,947	-66,441	-0,280	-0,077
253,961	4,455	-0,119	-0,060
254,976	195,416	-0,207	-0,218
255,990	48,475	-0,271	-0,175
257,005	164,198	-0,145	-0,142
258,020	59,433	-0,235	-0,160
259,034	-99,305	-0,129	-0,022
260,049	-20,887	-0,208	-0,088
261,063	-2,979	-0,162	-0,078
262,078	-11,275	-0,153	-0,070
263,093	279,350	-0,162	-0,200
264,107	-108,102	-0,192	0,028
265,122	20,400	-0,185	-0,103
266,136	-92,172	-0,262	0,051
267,151	800,000	-0,094	-0,230
268,166	-107,638	-0,106	-0,016
269,180	114,332	-0,279	-0,235
270,195	-12,931	-0,247	-0,111
271,209	-43,798	-0,209	-0,072
272,224	123,876	-0,133	-0,115
273,239	36,563	-0,088	-0,054
274,253	-68,874	-0,106	-0,028
275,268	87,546	-0,156	-0,119
276,282	-15,921	-0,058	-0,025
277,297	210,044	-0,230	-0,250
278,312	-1,024	-0,318	-0,155
279,326	-105,702	-0,145	0,022
280,341	121,062	-0,192	-0,165
281,355	252,089	-0,154	-0,182
282,370	-8,085	-0,188	-0,087
283,384	292,202	-0,199	-0,251
284,399	-200,000	-0,059	-0,281
285,414	144,869	-0,076	-0,071
286,428	435,786	-0,161	-0,242
287,443	-37,549	-0,211	-0,077
288,457	31,267	-0,131	0,078
289,472	-118,806	-0,243	-0,029
290,487	79,834	-0,201	-0,149
291,501	205,380	-0,113	-0,121
292,516	310,660	-0,130	-0,168
293,530	60,107	-0,121	-0,082
294,545	69,676	-0,151	-0,107
295,560	-3,201	-0,122	-0,059
296,574	-46,078	-0,243	-0,082
297,589	-70,155	-0,210	-0,055
298,603	-200,000	-0,109	-0,342
299,618	115,545	-0,159	-0,134
300,633	-50,276	-0,118	-0,038
301,647	60,211	-0,227	-0,155
302,662	32,135	-0,203	-0,120
303,676	55,338	-0,253	-0,169
304,691	-141,776	-0,185	0,013
305,706	121,521	-0,233	-0,200
306,720	207,487	-0,085	-0,092
307,735	-200,000	-0,045	-0,157
308,749	445,340	-0,125	-0,190
309,764	-88,029	-0,130	-0,027
310,779	800,000	-0,068	-0,170
311,793	-47,042	-0,204	-0,068
312,808	159,359	-0,247	-0,237
313,822	233,309	-0,145	-0,165
314,837	36,036	-0,130	-0,079
315,852	74,474	-0,136	-0,099
316,866	-81,013	-0,070	-0,016
317,881	-118,224	-0,037	0,004
318,895	293,042	-0,089	-0,111
319,910	564,912	-0,121	-0,204
320,925	295,553	-0,077	-0,098
321,939	204,409	-0,144	-0,153
322,954	43,534	-0,139	-0,087
323,968	223,673	-0,074	-0,082
324,983	126,045	-0,166	-0,144
325,997	-158,935	-0,072	-0,003
327,012	800,000	-0,074	-0,169
328,027	-164,589	-0,129	-0,004
329,041	250,709	-0,068	-0,079
330,056	636,993	0,081	-0,142
331,070	315,228	0,045	-0,058
332,085	10,378	-0,161	-0,084
333,100	800,000	-0,046	-0,089
334,114	132,320	-0,162	-0,143
335,129	3,949	-0,254	-0,127
336,143	208,845	-0,104	-0,112
337,158	319,817	-0,080	-0,105
338,173	-77,625	-0,126	0,030
339,187	123,786	-0,150	-0,129
340,202	302,646	-0,084	-0,107
341,216	-200,000	-0,003	-0,180
342,231	38,970	-0,166	-0,102
343,246	-143,857	-0,242	-0,015
344,260	-141,448	-0,262	-0,018
345,275	25,915	-0,111	-0,064
346,289	250,691	-0,082	0,096
347,304	8,206	-0,107	-0,055
348,319	-200,000	-0,008	-0,098
349,333	321,986	-0,154	-0,202
350,348	164,106	-0,166	-0,161
351,362	59,593	-0,071	-0,048
352,377	-200,000	-0,044	-0,187
353,392	800,000	-0,059	-0,163
354,406	7,142	-0,149	-0,076
355,421	209,884	1314,495	1417,639
356,435	161,551	1475,223	1418,151
