DTS Sentinel unit serial number:	SN410029Multiplexer serial number:	ORYXHardware model number:	OX2-SRSoftware version number:	ORYX F/W v4,00 Oryx Data Collector v3.7.2.0data status	okinstallation	B3 Nyhavnadifferential loss correction	single-endedforward channel	channel 1reverse channel	N/Adate	2023/12/03time	20:42:30forward acquisition time	300,00reverse acquisition time	0,00gamma	499,1914k internal	0,3199k external	0,3199temperature offset calibration	1,0000default loss term (dB/km)	0,3820temperature slope calibration	1,0000multiplexer offset coefficient	1,0000multiplexer slope coefficient	1,0000fibre end	0,00T internal ref (°C)	13,87T ext. ref 1 (°C)	-1,51T ext. ref 2 (°C)	-1,52length (m)	temperature (°C)	Stokes	anti-Stokes-744,400	252,672	-0,095	-0,118
-743,385	-200,000	0,095	0,339
-742,371	-23,046	-0,200	-0,087
-741,356	-200,000	0,072	0,360
-740,342	84,011	-0,264	-0,210
-739,327	800,000	0,095	0,285
-738,312	281,980	-0,165	-0,215
-737,298	-200,000	-0,059	0,240
-736,283	101,201	-0,406	-0,344
-735,269	-200,000	0,060	0,269
-734,254	304,312	-0,158	-0,214
-733,239	-8,351	-0,230	0,112
-732,225	257,615	-0,142	-0,178
-731,210	270,131	0,104	0,133
-730,196	216,235	-0,094	-0,109
-729,181	-101,383	0,128	0,022
-728,167	-156,184	-0,132	0,006
-727,152	98,046	0,015	0,012
-726,137	-200,000	0,003	-0,048
-725,123	-101,177	-0,153	-0,027
-724,108	10,336	-0,011	-0,006
-723,094	120,064	-0,065	-0,058
-722,079	35,784	-0,186	-0,118
-721,064	-189,165	0,030	-0,000
-720,050	144,819	-0,051	-0,050
-719,035	-5,878	0,032	-0,016
-718,021	-200,000	-0,046	0,158
-717,006	125,750	-0,041	0,038
-715,991	-200,000	-0,009	-0,087
-714,977	-6,625	0,019	-0,010
-713,962	800,000	0,024	0,049
-712,948	288,768	-0,059	-0,077
-711,933	800,000	-0,014	-0,043
-710,918	-100,610	0,072	0,013
-709,904	87,622	-0,123	-0,099
-708,889	152,802	-0,192	-0,191
-707,875	-200,000	-0,036	-0,140
-706,860	-127,390	-0,122	0,013
-705,845	146,058	-0,167	-0,163
-704,831	-109,475	0,046	-0,007
-703,816	800,000	-0,010	0,024
-702,802	77,039	-0,082	-0,064
-701,787	-103,895	-0,150	0,025
-700,772	800,000	-0,023	0,050
-699,758	800,000	-0,022	-0,060
-698,743	176,539	0,073	0,077
-697,729	800,000	0,037	0,094
-696,714	20,689	0,050	-0,029
-695,699	-200,000	-0,004	-0,092
-694,685	100,695	-0,011	0,009
-693,670	-78,509	-0,067	0,017
-692,656	447,999	-0,039	-0,062
-691,641	-109,345	0,097	0,015
-690,627	-200,000	0,021	0,078
-689,612	-137,173	-0,075	-0,006
-688,597	-200,000	0,009	0,051
-687,583	-200,000	-0,015	0,052
-686,568	-67,771	-0,095	-0,027
-685,554	-14,685	-0,109	0,051
-684,539	15,171	0,024	-0,014
-683,524	-200,000	0,018	0,114
-682,510	-2,451	-0,075	-0,038
-681,495	-164,705	-0,063	-0,002
-680,481	-101,963	-0,099	0,017
-679,466	800,000	-0,037	-0,076
-678,451	108,405	-0,131	0,114
-677,437	800,000	-0,039	-0,113
-676,422	-15,083	-0,059	-0,027
-675,408	800,000	-0,044	-0,092
-674,393	-114,160	-0,103	0,014
-673,378	445,887	0,067	-0,107
-672,364	34,781	-0,071	-0,045
-671,349	-200,000	0,029	-0,136
-670,335	-200,000	-0,003	0,086
-669,320	88,746	0,083	-0,067
-668,305	-200,000	-0,011	-0,112
-667,291	-141,487	-0,028	-0,002
-666,276	-40,824	-0,068	-0,025
-665,262	507,977	-0,055	-0,093
-664,247	-200,000	0,017	-0,090
-663,232	-200,000	-0,022	-0,096
-662,218	-200,000	-0,002	0,044
-661,203	686,288	0,042	0,079
-660,189	86,162	-0,070	0,056
-659,174	-81,584	-0,120	0,028
-658,159	-1,050	0,031	-0,016
-657,145	-146,284	-0,090	0,006
-656,130	-200,000	0,010	0,045
-655,116	-5,333	-0,134	0,067
-654,101	-200,000	0,003	0,054
-653,086	-93,632	-0,130	-0,026
-652,072	-160,643	0,075	-0,003
-651,057	-129,962	-0,119	0,012
-650,043	800,000	-0,034	-0,094
-649,028	-86,406	0,165	0,037
-648,014	53,135	0,055	0,038
-646,999	-81,476	0,096	-0,023
-645,984	325,253	-0,006	0,008
-644,970	800,000	0,011	-0,032
-643,955	70,326	-0,117	-0,088
-642,941	-37,791	-0,067	-0,026
-641,926	161,397	0,038	-0,039
-640,911	800,000	-0,047	0,099
-639,897	-15,747	-0,025	0,012
-638,882	39,381	-0,062	-0,040
-637,868	-69,716	0,097	-0,027
-636,853	-200,000	-0,014	-0,107
-635,838	146,023	-0,101	-0,098
-634,824	144,901	-0,024	0,023
-633,809	-200,000	0,016	0,065
-632,795	-100,265	0,064	0,011
-631,780	-56,394	-0,082	-0,026
-630,765	268,267	0,127	-0,161
-629,751	34,342	-0,142	-0,089
-628,736	-145,678	0,117	0,007
-627,722	-200,000	-0,003	-0,018
-626,707	196,496	-0,109	0,121
-625,692	148,232	0,044	-0,043
-624,678	556,624	-0,047	0,082
-623,663	800,000	0,029	0,085
-622,649	63,241	0,103	0,075
-621,634	-200,000	-0,005	-0,075
-620,619	322,488	-0,083	-0,115
-619,605	800,000	0,036	-0,084
-618,590	-200,000	0,007	0,136
-617,576	115,492	0,038	-0,034
-616,561	-83,337	0,050	0,012
-615,546	-17,886	-0,043	0,019
-614,532	530,990	0,028	-0,048
-613,517	-115,329	-0,075	-0,010
-612,503	-89,931	-0,049	-0,010
-611,488	-28,645	0,145	-0,060
-610,474	-200,000	-0,013	0,116
-609,459	494,439	-0,064	-0,106
-608,444	347,523	-0,081	-0,115
-607,430	-200,000	-0,037	-0,121
-606,415	800,000	0,052	-0,154
-605,401	93,052	0,080	-0,066
-604,386	9,041	-0,134	-0,073
-603,371	-200,000	0,014	0,118
-602,357	-200,000	-0,001	0,065
-601,342	-143,998	0,147	-0,010
-600,328	800,000	-0,057	-0,121
-599,313	-200,000	0,030	-0,102
-598,298	-51,476	-0,096	-0,032
-597,284	-64,855	-0,090	-0,026
-596,269	-200,000	-0,029	0,126
-595,255	-8,312	0,163	0,079
-594,240	-165,736	0,119	-0,004
-593,225	226,054	-0,079	0,093
-592,211	-50,462	-0,049	-0,017
-591,196	-90,171	-0,065	0,014
-590,182	-48,708	-0,073	0,025
-589,167	139,678	0,034	0,032
-588,152	-200,000	-0,013	0,167
-587,138	-200,000	0,017	0,149
-586,123	-34,288	-0,070	-0,028
-585,109	22,994	-0,094	0,056
-584,094	449,943	-0,015	-0,024
-583,079	157,945	-0,121	-0,121
-582,065	555,289	0,056	0,097
-581,050	800,000	0,042	0,110
-580,036	12,208	-0,090	-0,050
-579,021	-11,517	-0,082	0,039
-578,006	-62,161	-0,162	-0,049
-576,992	-200,000	0,008	0,083
-575,977	-166,706	-0,115	0,003
-574,963	-200,000	0,010	0,049
-573,948	-28,107	0,167	-0,069
-572,934	-82,690	0,051	0,012
-571,919	-161,009	-0,018	0,001
-570,904	-200,000	0,001	-0,050
-569,890	663,301	-0,114	-0,213
-568,875	800,000	-0,021	-0,045
-567,861	-200,000	-0,001	0,150
-566,846	800,000	-0,022	-0,044
-565,831	-128,296	-0,084	0,009
-564,817	772,783	0,027	-0,053
-563,802	-115,232	0,044	-0,006
-562,788	21,311	0,028	-0,016
-561,773	-140,204	0,175	0,013
-560,758	-72,363	0,119	0,031
-559,744	800,000	0,016	0,049
-558,729	-62,675	0,063	0,019
-557,715	-200,000	0,008	0,124
-556,700	-123,691	-0,121	-0,014
-555,685	561,691	-0,004	0,007
-554,671	21,775	0,056	-0,033
-553,656	8,924	0,065	-0,035
-552,642	245,561	-0,072	0,087
-551,627	56,671	0,032	0,022
-550,612	36,926	-0,058	-0,037
-549,598	-140,704	-0,179	-0,013
-548,583	329,208	0,015	-0,021
-547,569	-200,000	-0,016	-0,067
-546,554	-16,104	0,053	0,024
-545,539	-200,000	-0,003	0,031
-544,525	-200,000	0,007	0,081
-543,510	633,917	-0,013	-0,023
-542,496	-118,835	-0,136	0,017
-541,481	-88,751	-0,114	-0,024
-540,466	1,483	-0,129	0,067
-539,452	258,502	-0,005	0,006
-538,437	96,564	0,087	0,072
-537,423	-154,689	0,103	-0,005
-536,408	-200,000	0,016	-0,071
-535,393	793,407	-0,043	0,087
-534,379	-70,676	-0,117	0,032
-533,364	436,856	-0,019	0,029
-532,350	63,703	-0,165	0,119
-531,335	-20,478	0,133	0,059
-530,321	42,293	0,047	0,031
-529,306	-87,342	-0,093	0,020
-528,291	42,167	0,009	-0,006
-527,277	380,609	-0,032	-0,048
-526,262	-200,000	0,017	-0,063
-525,248	89,574	0,045	0,036
-524,233	-194,442	0,084	-0,000
-523,218	279,460	0,091	-0,118
-522,204	800,000	-0,043	-0,103
-521,189	617,640	0,034	0,062
-520,175	-126,755	-0,146	0,015
-519,160	-200,000	0,017	-0,078
-518,145	172,874	0,066	0,068
-517,131	536,162	0,092	0,159
-516,116	-52,944	0,103	0,034
-515,102	800,000	-0,038	0,106
-514,087	800,000	-0,031	0,062
-513,072	-200,000	-0,021	-0,084
-512,058	132,461	-0,095	0,088
-511,043	164,583	-0,044	0,045
-510,029	-46,637	0,095	-0,033
-509,014	-200,000	0,031	0,113
-507,999	-200,000	-0,005	-0,069
-506,985	602,949	-0,042	-0,076
-505,970	42,706	0,034	0,022
-504,956	226,082	-0,052	-0,061
-503,941	231,711	0,048	0,057
-502,926	-45,901	0,056	-0,020
-501,912	800,000	-0,042	0,090
-500,897	-200,000	0,046	0,160
-499,883	259,096	-0,093	0,116
-498,868	-30,096	0,081	-0,033
-497,853	-64,876	0,036	-0,011
-496,839	316,777	0,020	-0,027
-495,824	443,124	-0,048	0,076
-494,810	-172,877	-0,112	-0,002
-493,795	-200,000	0,027	0,230
-492,781	-73,632	0,071	-0,018
-491,766	67,825	-0,106	0,078
-490,751	52,031	0,077	0,053
-489,737	-147,935	-0,068	-0,004
-488,722	-200,000	0,002	0,239
-487,708	88,263	0,020	0,016
-486,693	7,848	0,010	0,006
-485,678	-11,109	-0,042	0,020
-484,664	-165,091	-0,106	-0,003
-483,649	-200,000	0,003	0,014
-482,635	643,964	0,012	-0,023
-481,620	121,484	-0,039	-0,035
-480,605	123,245	-0,054	0,049
-479,591	352,460	0,047	0,067
-478,576	462,105	-0,128	0,206
-477,562	254,007	-0,074	-0,092
-476,547	105,321	-0,149	-0,127
-475,532	478,869	-0,016	0,027
-474,518	-79,747	0,047	0,011
-473,503	135,452	0,030	0,028
-472,489	-200,000	-0,011	0,086
-471,474	-31,878	0,131	0,052
-470,459	800,000	-0,047	-0,110
-469,445	278,845	-0,107	-0,137
-468,430	-200,000	-0,009	-0,117
-467,416	6,587	-0,037	-0,020
-466,401	800,000	0,034	0,085
-465,386	19,381	0,094	-0,054
-464,372	266,597	0,110	0,138
-463,357	800,000	-0,034	-0,068
-462,343	102,205	-0,081	-0,068
-461,328	329,741	0,037	-0,051
-460,313	800,000	-0,009	-0,025
-459,299	-113,580	0,094	-0,013
-458,284	800,000	-0,028	-0,071
-457,270	554,220	0,004	-0,006
-456,255	-135,010	0,036	-0,003
-455,241	0,601	-0,062	-0,032
-454,226	-200,000	-0,010	-0,042
-453,211	-200,000	0,001	-0,011
-452,197	472,432	-0,059	-0,096
-451,182	575,908	-0,036	0,063
-450,168	97,929	0,038	0,032
-449,153	322,893	-0,030	0,041
-448,138	449,210	-0,018	0,029
-447,124	-147,112	-0,193	-0,012
-446,109	-200,000	0,016	0,084
-445,095	28,220	0,087	0,053
-444,080	-18,926	0,049	0,022
-443,065	-97,082	0,061	-0,011
-442,051	488,231	-0,020	0,032
-441,036	23,020	0,031	0,018
-440,022	-200,000	-0,021	0,115
-439,007	468,038	0,038	0,061
-437,992	95,847	0,046	-0,038
-436,978	104,923	0,165	0,140
-435,963	112,170	0,115	0,100
-434,949	-137,446	-0,084	0,007
-433,934	-200,000	0,009	-0,032
-432,919	800,000	-0,017	-0,049
-431,905	-200,000	0,003	-0,023
-430,890	-200,000	-0,005	-0,043
-429,876	-24,268	0,086	0,037
-428,861	173,316	-0,053	-0,055
-427,846	800,000	-0,041	0,118
-426,832	3,054	0,132	0,069
-425,817	515,046	-0,028	-0,047
-424,803	-116,772	0,075	-0,010
-423,788	-200,000	-0,001	0,013
-422,773	50,495	0,067	0,046
-421,759	665,153	0,068	0,127
-420,744	520,765	-0,082	-0,138
-419,730	180,758	-0,072	-0,077
-418,715	424,081	-0,040	0,062
-417,701	800,000	-0,047	-0,095
-416,686	-74,035	0,086	-0,022
-415,671	-200,000	0,011	-0,041
-414,657	-200,000	0,000	0,214
-413,642	241,345	0,079	0,094
-412,628	-135,808	-0,130	0,011
-411,613	-200,000	0,042	-0,238
-410,598	323,699	-0,069	-0,095
-409,584	-117,881	0,092	-0,012
-408,569	-122,370	-0,020	0,002
-407,555	-200,000	-0,009	0,139
-406,540	29,796	-0,045	0,027
-405,525	89,745	-0,115	-0,092
-404,511	-64,328	0,124	0,036
-403,496	-74,123	-0,067	-0,017
-402,482	727,454	-0,007	0,014
-401,467	800,000	0,042	0,118
-400,452	-2,402	-0,173	0,087
-399,438	800,000	-0,050	0,135
-398,423	-200,000	0,008	0,042
-397,409	214,699	-0,044	-0,050
-396,394	30,531	-0,069	-0,042
-395,379	70,473	0,124	0,092
-394,365	800,000	-0,034	0,077
-393,350	230,287	0,093	0,110
-392,336	580,572	0,072	0,126
-391,321	-200,000	0,010	0,062
-390,306	265,203	0,018	-0,023
-389,292	71,892	-0,088	-0,066
-388,277	-129,790	-0,057	0,006
-387,263	150,446	0,061	0,059
-386,248	-26,094	0,141	0,059
-385,233	-42,865	0,117	-0,042
-384,219	203,794	-0,032	-0,036
-383,204	800,000	-0,075	-0,201
-382,190	-137,931	-0,086	0,007
-381,175	-45,068	-0,028	0,010
-380,160	38,972	0,103	-0,066
-379,146	19,067	-0,018	-0,010
-378,131	-47,122	0,024	0,008
-377,117	261,551	0,014	-0,018
-376,102	124,221	-0,040	-0,036
-375,088	800,000	-0,038	-0,105
-374,073	703,636	-0,048	0,090
-373,058	7,079	-0,074	-0,039
-372,044	-200,000	-0,001	0,024
-371,029	282,189	0,098	0,127
-370,015	800,000	-0,023	-0,059
-369,000	-144,055	0,070	0,005
-367,985	800,000	0,022	-0,048
-366,971	546,823	0,020	-0,035
-365,956	800,000	0,050	0,111
-364,942	-110,353	0,120	0,018
-363,927	-51,055	0,214	-0,072
-362,912	77,921	0,087	0,066
-361,898	94,051	-0,102	0,083
-360,883	-67,512	0,139	-0,039
-359,869	183,241	0,078	0,082
-358,854	-200,000	0,007	-0,078
-357,839	72,709	-0,065	-0,048
-356,825	-200,000	0,008	-0,035
-355,810	-141,588	0,102	-0,007
-354,796	36,850	-0,097	-0,062
-353,781	-171,414	-0,049	0,001
-352,766	37,380	-0,043	-0,027
-351,752	-126,300	0,141	0,015
-350,737	-200,000	0,012	0,040
-349,723	-200,000	-0,005	-0,057
-348,708	800,000	-0,046	0,140
-347,693	-90,988	0,095	-0,019
-346,679	-64,271	0,055	-0,016
-345,664	-27,914	-0,081	0,033
-344,650	-135,277	-0,025	0,002
-343,635	77,637	-0,081	-0,061
-342,620	-67,793	0,087	0,024
-341,606	556,420	0,017	-0,029
-340,591	-200,000	-0,012	-0,042
-339,577	800,000	-0,043	-0,100
-338,562	-145,214	-0,070	0,004
-337,548	271,283	0,056	-0,070
-336,533	213,982	0,078	0,089
-335,518	800,000	-0,014	0,029
-334,504	-200,000	-0,001	-0,034
-333,489	-70,796	0,082	0,022
-332,475	623,706	-0,036	-0,066
-331,460	-200,000	-0,007	-0,061
-330,445	-57,531	0,090	0,028
-329,431	800,000	-0,032	0,070
-328,416	-69,115	-0,100	0,027
-327,402	800,000	0,008	0,023
-326,387	519,725	0,061	0,102
-325,372	166,019	0,069	-0,070
-324,358	245,588	0,102	-0,124
-323,343	-18,559	-0,078	0,035
-322,329	-81,253	0,085	-0,020
-321,314	-200,000	0,012	-0,051
-320,299	284,388	-0,019	-0,024
-319,285	-200,000	0,010	0,047
-318,270	-200,000	0,011	-0,170
-317,256	81,668	-0,231	-0,178
-316,241	-200,000	0,029	-0,195
-315,226	-147,224	0,084	0,005
-314,212	-200,000	-0,013	0,123
-313,197	-200,000	0,001	0,116
-312,183	-200,000	0,001	0,013
-311,168	-97,213	0,142	0,026
-310,153	250,487	-0,030	0,036
-309,139	104,853	0,096	-0,081
-308,124	-124,228	-0,024	0,003
-307,110	221,086	0,078	-0,090
-306,095	721,802	0,019	-0,037
-305,080	-200,000	0,003	-0,033
-304,066	-200,000	0,022	-0,203
-303,051	-200,000	-0,038	-0,142
-302,037	800,000	0,035	0,079
-301,022	48,975	0,079	0,053
-300,008	46,943	0,075	0,050
-298,993	544,271	-0,094	0,161
-297,978	149,051	0,008	-0,008
-296,964	800,000	0,045	-0,142
-295,949	-200,000	-0,009	-0,087
-294,935	-200,000	-0,002	-0,052
-293,920	-200,000	0,017	-0,090
-292,905	-200,000	0,006	-0,077
-291,891	-37,775	0,156	0,059
-290,876	-2,739	-0,121	0,060
-289,862	289,819	0,082	0,106
-288,847	-21,940	-0,133	-0,057
-287,832	-200,000	0,012	-0,068
-286,818	-200,000	0,009	0,090
-285,803	-19,128	-0,044	0,019
-284,789	-200,000	-0,019	0,092
-283,774	-200,000	-0,043	0,253
-282,759	-200,000	0,001	-0,112
-281,745	356,785	-0,037	-0,053
-280,730	703,478	0,067	0,127
-279,716	-200,000	-0,043	0,144
-278,701	-15,897	0,038	0,017
-277,686	-96,847	0,022	0,004
-276,672	12,299	0,147	0,081
-275,657	-98,217	0,024	0,004
-274,643	-200,000	-0,007	-0,034
-273,628	354,316	-0,075	-0,106
-272,613	34,983	-0,104	-0,065
-271,599	36,193	-0,090	-0,057
-270,584	-11,855	0,060	0,028
-269,570	-141,565	0,095	-0,007
-268,555	38,919	-0,118	0,075
-267,540	-200,000	0,027	-0,139
-266,526	389,057	-0,047	-0,070
-265,511	82,528	-0,085	-0,066
-264,497	-80,339	0,151	-0,036
-263,482	102,723	-0,184	-0,154
-262,467	105,147	-0,053	-0,045
-261,453	-95,871	-0,167	-0,032
-260,438	-79,343	-0,074	0,018
-259,424	513,620	-0,082	-0,137
-258,409	800,000	-0,098	-0,262
-257,395	270,406	0,086	0,108
-256,380	72,658	-0,072	-0,054
-255,365	176,278	0,062	0,065
-254,351	-8,924	-0,043	0,020
-253,336	-200,000	0,021	-0,084
-252,322	-24,393	0,186	-0,079
-251,307	-78,280	-0,068	0,017
-250,292	-200,000	0,047	-0,194
-249,278	270,677	0,039	-0,049
-248,263	-200,000	0,015	0,078
-247,249	800,000	-0,043	-0,126
-246,234	-159,215	-0,084	0,003
-245,219	0,630	-0,076	0,039
-244,205	-200,000	0,033	-0,138
-243,190	-91,588	-0,126	0,025
-242,176	-200,000	0,004	-0,076
-241,161	-99,186	-0,033	0,006
-240,146	285,039	0,063	0,081
-239,132	-27,106	0,087	-0,036
-238,117	585,838	0,034	-0,061
-237,103	-11,491	-0,152	0,071
-236,088	72,361	0,076	-0,056
-235,073	121,499	0,174	0,155
-234,059	-20,017	0,139	0,061
-233,044	800,000	-0,041	0,091
-232,030	105,553	0,060	-0,051
-231,015	-139,202	-0,042	-0,003
-230,000	-200,000	-0,016	-0,112
-228,986	224,480	-0,134	-0,154
-227,971	-200,000	0,042	-0,140
-226,957	-131,857	0,162	0,015
-225,942	800,000	-0,048	0,120
-224,927	-121,880	0,028	0,003
-223,913	800,000	-0,042	-0,108
-222,898	16,912	0,064	-0,036
-221,884	-78,714	-0,175	0,042
-220,869	800,000	-0,043	-0,127
-219,855	56,452	-0,066	0,046
-218,840	-200,000	0,008	0,030
-217,825	227,481	-0,108	0,126
-216,811	174,413	0,034	0,035
-215,796	-36,821	0,102	-0,039
-214,782	70,472	-0,124	-0,091
-213,767	-37,773	0,089	-0,034
-212,752	249,837	0,041	0,049
-211,738	672,546	0,046	0,085
-210,723	-101,694	0,042	-0,007
-209,709	-37,686	0,066	-0,025
-208,694	800,000	0,069	-0,148
-207,679	800,000	-0,075	-0,176
-206,665	650,226	0,028	0,051
-205,650	-17,624	0,005	-0,002
-204,636	800,000	0,039	0,103
-203,621	114,204	0,068	0,059
-202,606	673,953	0,067	0,124
-201,592	315,884	0,043	-0,057
-200,577	221,263	0,057	-0,066
-199,563	-75,088	-0,131	0,033
-198,548	539,645	-0,080	0,137
-197,533	586,802	-0,004	-0,007
-196,519	214,915	0,048	0,054
-195,504	-200,000	-0,018	0,158
-194,490	-141,711	0,060	0,004
-193,475	-109,572	-0,141	0,021
-192,460	-90,589	0,066	0,014
-191,446	-85,412	0,141	0,031
-190,431	-200,000	0,000	0,073
-189,417	-117,232	-0,082	0,011
-188,402	-116,962	-0,130	-0,017
-187,387	173,316	-0,049	0,051
-186,373	118,699	-0,170	-0,149
-185,358	356,933	0,052	0,074
-184,344	-167,715	0,034	-0,001
-183,329	-200,000	-0,024	0,081
-182,315	-73,912	-0,070	-0,018
-181,300	88,566	0,065	0,051
-180,285	-80,098	0,020	-0,005
-179,271	412,266	0,081	-0,124
-178,256	589,371	0,052	-0,092
-177,242	-200,000	-0,012	0,072
-176,227	551,055	0,018	-0,032
-175,212	-200,000	0,017	-0,086
-174,198	-200,000	0,015	-0,237
-173,183	-33,477	0,093	-0,036
-172,169	-96,502	-0,089	-0,017
-171,154	465,333	-0,053	-0,085
-170,139	134,262	-0,060	0,055
-169,125	-200,000	-0,021	0,101
-168,110	174,754	0,091	0,094
-167,096	83,644	0,061	-0,048
-166,081	-115,470	-0,181	0,024
-165,066	-200,000	0,025	-0,087
-164,052	-200,000	0,008	0,080
-163,037	-132,187	-0,086	0,008
-162,023	-101,824	0,057	0,010
-161,008	-123,495	-0,096	-0,011
-159,993	-144,699	0,053	-0,003
-158,979	-108,422	0,029	-0,004
-157,964	800,000	0,034	-0,088
-156,950	81,263	-0,078	0,060
-155,935	-200,000	0,001	-0,020
-154,920	-140,296	0,269	0,020
-153,906	-117,571	-0,062	0,008
-152,891	105,566	0,013	0,011
-151,877	328,009	-0,043	0,059
-150,862	-200,000	0,000	-0,105
-149,847	-200,000	-0,031	-0,161
-148,833	248,874	-0,090	-0,109
-147,818	87,446	0,029	0,023
-146,804	613,039	-0,052	-0,094
-145,789	20,274	0,057	0,033
-144,775	-67,254	0,102	-0,028
-143,760	372,792	0,060	0,086
-142,745	-200,000	0,049	0,163
-141,731	-200,000	0,001	0,016
-140,716	22,442	0,095	0,055
-139,702	800,000	-0,024	0,061
-138,687	800,000	-0,020	0,059
-137,672	118,395	-0,051	0,044
-136,658	800,000	-0,031	-0,077
-135,643	-200,000	0,017	-0,102
-134,629	423,926	-0,081	0,124
-133,614	121,093	-0,050	0,044
-132,599	-200,000	0,012	0,093
-131,585	-141,631	0,184	0,013
-130,570	31,901	-0,129	0,079
-129,556	81,255	-0,062	0,048
-128,541	-70,616	-0,075	0,020
-127,526	308,799	-0,027	-0,036
-126,512	-60,051	-0,032	-0,010
-125,497	-200,000	-0,014	0,058
-124,483	-200,000	-0,006	0,063
-123,468	116,052	0,033	-0,028
-122,453	238,724	-0,030	0,035
-121,439	-127,027	-0,084	0,009
-120,424	74,180	-0,022	-0,017
-119,410	-200,000	-0,001	-0,036
-118,395	18,533	0,119	-0,068
-117,380	-200,000	-0,009	-0,094
-116,366	800,000	-0,016	-0,037
-115,351	78,720	-0,125	0,095
-114,337	116,106	-0,139	-0,121
-113,322	105,481	0,046	-0,038
-112,307	-200,000	0,007	-0,070
-111,293	241,436	-0,084	0,100
-110,278	183,023	-0,034	-0,036
-109,264	-200,000	0,019	-0,091
-108,249	-200,000	0,006	-0,022
-107,234	-200,000	0,020	-0,129
-106,220	548,963	0,025	-0,042
-105,205	800,000	0,025	-0,058
-104,191	37,688	-0,043	0,027
-103,176	-200,000	0,020	0,137
-102,162	222,569	-0,015	-0,017
-101,147	-110,743	-0,086	-0,013
-100,132	-200,000	0,030	-0,094
-99,118	-18,077	-0,078	-0,035
-98,103	297,582	0,088	-0,116
-97,089	90,100	0,092	0,073
-96,074	-128,339	0,102	-0,010
-95,059	28,312	-0,079	-0,047
-94,045	197,476	-0,044	-0,048
-93,030	-15,259	-0,155	-0,070
-92,016	26,899	-0,011	0,007
-91,001	622,212	0,087	0,156
-89,986	449,202	0,027	0,042
-88,972	167,946	-0,089	0,090
-87,957	800,000	0,034	-0,084
-86,943	-52,296	0,059	-0,019
-85,928	-67,287	-0,137	-0,038
-84,913	-144,131	0,134	0,009
-83,899	57,928	-0,018	-0,013
-82,884	-200,000	0,001	0,022
-81,870	-40,325	0,100	-0,037
-80,855	-94,288	0,111	-0,021
-79,840	-95,253	-0,009	0,002
-78,826	55,874	0,123	0,084
-77,811	387,047	-0,104	-0,153
-76,797	-17,872	0,129	0,057
-75,782	-113,665	0,110	0,015
-74,767	-200,000	0,005	0,055
-73,753	800,000	-0,064	0,131
-72,738	-200,000	-0,004	0,059
-71,724	-55,003	0,014	-0,004
-70,709	311,201	-0,097	-0,129
-69,694	-83,944	0,090	0,020
-68,680	378,900	-0,049	0,071
-67,665	233,154	0,085	0,099
-66,651	50,865	0,067	-0,045
-65,636	-29,112	0,129	0,052
-64,622	540,308	0,005	0,009
-63,607	252,742	-0,101	-0,122
-62,592	-162,757	0,088	-0,003
-61,578	-110,707	0,130	-0,019
-60,563	-86,906	0,163	0,035
-59,549	-180,432	-0,102	0,001
-58,534	-34,056	-1,608	-0,623
-57,519	543,609	-1,330	-2,258
-56,505	-200,000	-0,519	-4,540
-55,490	194,463	0,985	1,060
-54,476	800,000	4,778	10,907
-53,461	-200,000	18,953	312,028
-52,446	-200,000	739,437	2321,176
-51,432	573,837	1655,377	2871,879
-50,417	78,969	1670,885	1266,106
-49,403	21,853	1543,638	888,887
-48,388	15,741	1466,503	814,743
-47,373	17,844	1456,373	819,248
-46,359	16,857	1446,433	808,888
-45,344	14,038	1441,816	792,765
-44,330	13,899	1439,916	791,025
-43,315	13,925	1438,293	790,224
-42,300	13,949	1436,609	789,382
-41,286	13,946	1435,530	788,745
-40,271	13,922	1434,115	787,821
-39,257	13,946	1432,733	787,144
-38,242	13,983	1431,480	786,601
-37,227	13,986	1430,327	785,952
-36,213	14,016	1428,796	785,220
-35,198	13,984	1427,851	784,518
-34,184	13,979	1426,995	783,995
-33,169	13,927	1425,539	782,915
-32,154	13,973	1424,240	782,389
-31,140	13,983	1423,396	781,940
-30,125	13,979	1422,231	781,250
-29,111	13,974	1420,807	780,414
-28,096	13,933	1419,806	779,641
-27,082	13,933	1418,717	779,011
-26,067	13,873	1417,668	778,121
-25,052	13,896	1416,667	777,651
-24,038	13,901	1415,637	777,080
-23,023	13,951	1414,406	776,604
-22,009	13,893	1413,711	775,922
-20,994	13,878	1412,798	775,321
-19,979	13,851	1411,798	774,611
-18,965	13,810	1410,924	773,908
-17,950	13,805	1409,987	773,340
-16,936	13,836	1408,942	772,881
-15,921	13,765	1407,927	771,962
-14,906	13,810	1407,028	771,652
-13,892	13,807	1406,194	771,150
-12,877	13,826	1405,160	770,639
-11,863	13,840	1404,228	770,162
-10,848	13,839	1403,337	769,641
-9,833	13,781	1402,464	768,861
-8,819	13,756	1401,784	768,337
-7,804	13,721	1400,753	767,583
-6,790	13,719	1399,706	766,968
-5,775	13,749	1398,499	766,415
-4,760	13,745	1397,585	765,863
-3,746	13,722	1396,836	765,316
-2,731	13,727	1395,987	764,844
-1,717	13,728	1395,059	764,309
-0,702	13,707	1393,450	763,301
0,313	17,424	1310,888	735,349
1,327	33,776	704,877	433,265
2,342	51,843	123,733	83,244
3,356	1,575	16,579	8,420
4,371	-1,016	3,199	1,597
5,386	72,293	0,609	0,449
6,400	-200,000	0,080	0,270
7,415	126,886	-0,220	-0,197
8,429	744,719	-0,191	-0,364
9,444	23,021	-0,419	-0,242
10,459	-67,558	-0,337	-0,093
11,473	-82,222	-0,230	-0,053
12,488	144,351	-0,156	-0,147
13,502	51,194	-0,235	-0,157
14,517	239,115	-0,302	-0,356
15,531	116,879	-0,335	-0,291
16,546	103,704	-0,391	-0,325
17,561	164,268	-0,328	-0,327
18,575	66,277	-0,222	-0,159
19,590	515,820	-0,153	-0,254
20,604	-56,096	-0,275	-0,086
21,619	81,258	-0,404	-0,308
22,634	251,379	-0,324	-0,391
23,648	113,488	-0,349	-0,299
24,663	148,215	-0,287	-0,274
25,677	226,823	-0,254	-0,292
26,692	208,433	-0,317	-0,350
27,707	205,822	-0,327	-0,359
28,721	90,980	-0,397	-0,315
29,736	85,777	-0,443	-0,344
30,750	7,081	-0,414	-0,218
31,765	23,707	-0,528	-0,306
32,780	68,621	-0,435	-0,315
33,794	187,653	-0,247	-0,261
34,809	75,857	-0,411	-0,306
35,823	83,787	-0,525	-0,404
36,838	89,156	-0,309	-0,243
37,853	200,353	-0,373	-0,405
38,867	24,563	-0,424	-0,247
39,882	13,762	-0,354	-0,194
40,896	-14,388	-0,385	-0,174
41,911	57,070	-0,364	-0,250
42,926	2,708	-0,451	-0,230
43,940	163,549	-0,285	-0,283
44,955	150,688	-0,363	-0,348
45,969	310,859	-0,227	-0,301
46,984	-34,921	-0,352	-0,135
47,999	127,059	-0,319	-0,285
49,013	-105,223	-0,446	-0,071
50,028	101,028	-0,348	-0,285
51,042	282,198	-0,270	-0,343
52,057	-30,019	-0,484	-0,193
53,071	75,217	-0,413	-0,306
54,086	49,077	-0,298	-0,197
55,101	37,749	-0,264	-0,165
56,115	254,862	-0,207	-0,250
57,130	15,500	-0,259	-0,143
58,144	45,049	-0,281	-0,182
59,159	108,048	-0,251	-0,211
60,174	215,052	-0,268	-0,300
61,188	180,657	-0,285	-0,295
62,203	27,554	-0,341	-0,202
63,217	-106,460	-0,407	-0,063
64,232	-42,073	-0,377	-0,135
65,247	-30,507	-0,369	-0,147
66,261	88,156	-0,417	-0,325
67,276	45,386	-0,395	-0,256
68,290	-43,406	-0,486	-0,172
69,305	144,134	-0,301	-0,282
70,320	164,087	-0,229	-0,227
71,334	93,624	-0,226	-0,180
72,349	140,725	-0,334	-0,311
73,363	37,750	-0,484	-0,302
74,378	68,899	-0,287	-0,207
75,393	-77,535	-0,417	-0,101
76,407	37,705	-0,323	-0,202
77,422	115,789	-0,232	-0,199
78,436	-83,710	-0,365	-0,081
79,451	38,766	-0,192	-0,120
80,466	86,625	-0,230	-0,178
81,480	114,587	-0,338	-0,290
82,495	69,134	-0,321	-0,232
83,509	262,309	-0,240	-0,293
84,524	749,983	-0,174	-0,331
85,539	-77,709	-0,321	-0,077
86,553	-9,600	-0,317	-0,148
87,568	82,984	-0,364	-0,278
88,582	208,184	-0,230	-0,253
89,597	10,446	-0,276	-0,147
90,611	800,000	-0,087	-0,183
91,626	-78,507	-0,208	-0,050
92,641	-25,611	-0,190	-0,078
93,655	-118,046	-0,400	-0,050
94,670	3,077	-0,399	-0,203
95,684	276,756	-0,323	-0,404
96,699	-24,847	-0,371	-0,154
97,714	-57,703	-0,310	-0,095
98,728	3,322	-0,270	-0,138
99,743	-17,760	-0,278	-0,122
100,757	51,620	-0,240	-0,160
101,772	123,046	-0,227	-0,200
102,787	159,081	-0,282	-0,276
103,801	800,000	-0,132	-0,385
104,816	53,234	-0,283	-0,190
105,830	-74,037	-0,231	-0,058
106,845	234,060	-0,191	-0,221
107,860	35,482	-0,318	-0,195
108,874	100,767	-0,346	-0,282
109,889	9,136	-0,370	-0,195
110,903	357,268	-0,149	-0,209
111,918	134,446	-0,188	-0,171
112,933	40,352	-0,336	-0,212
113,947	-200,000	-0,229	0,000
114,962	6,770	-0,303	-0,158
115,976	175,910	-0,168	-0,171
116,991	217,448	-0,215	-0,241
118,006	145,336	-0,269	-0,252
119,020	223,028	-0,204	-0,231
120,035	-4,183	-0,352	-0,170
121,049	-76,945	-0,282	-0,069
122,064	648,914	-0,141	-0,253
123,079	113,573	-0,272	-0,232
124,093	173,245	-0,273	-0,276
125,108	50,137	-0,218	-0,144
126,122	-106,299	-0,280	-0,043
127,137	19,327	-0,231	-0,130
128,151	48,848	-0,250	-0,164
129,166	64,122	-0,186	-0,131
130,181	88,162	-0,234	-0,182
131,195	524,621	-0,170	-0,281
132,210	-11,404	-0,321	-0,147
133,224	281,329	-0,084	-0,105
134,239	552,142	-0,140	-0,236
135,254	510,001	-0,186	-0,303
136,268	127,250	-0,172	-0,152
137,283	53,277	-0,243	-0,163
138,297	139,657	-0,145	-0,134
139,312	-23,100	-0,305	-0,128
140,327	800,000	-0,090	-0,243
141,341	78,630	-0,239	-0,178
142,356	124,102	-0,186	-0,163
143,370	501,333	-0,162	-0,262
144,385	156,958	-0,210	-0,203
145,400	-9,817	-0,276	-0,128
146,414	244,711	-0,307	-0,361
147,429	34,331	-0,324	-0,197
148,443	32,576	-0,338	-0,204
149,458	183,092	-0,233	-0,241
150,473	-30,803	-0,302	-0,119
151,487	79,905	-0,288	-0,216
152,502	220,700	-0,250	-0,281
153,516	97,538	-0,211	-0,169
154,531	417,863	-0,184	-0,275
155,546	78,268	-0,252	-0,188
156,560	316,438	-0,185	-0,245
157,575	30,523	-0,383	-0,228
158,589	82,946	-0,296	-0,225
159,604	330,674	-0,174	-0,235
160,619	166,150	-0,316	-0,313
161,633	81,145	-0,301	-0,227
162,648	299,494	-0,211	-0,272
163,662	-173,160	-0,203	-0,004
164,677	268,991	-0,116	-0,142
165,692	40,208	-0,241	-0,151
166,706	98,755	-0,199	-0,160
167,721	289,685	-0,224	-0,285
168,735	800,000	-0,153	-0,314
169,750	-37,802	-0,213	-0,079
170,764	-2,480	-0,281	-0,137
171,779	800,000	-0,081	-0,233
172,794	80,124	-0,190	-0,142
173,808	91,249	-0,248	-0,194
174,823	140,591	-0,258	-0,238
175,837	1,711	-0,296	-0,148
176,852	109,136	-0,303	-0,253
177,867	408,404	-0,160	-0,236
178,881	319,898	-0,202	-0,268
179,896	226,047	-0,149	-0,168
180,910	105,481	-0,157	-0,129
181,925	52,527	-0,216	-0,143
182,940	145,105	-0,229	-0,214
183,954	61,791	-0,257	-0,178
184,969	236,169	-0,164	-0,190
185,983	800,000	-0,040	-0,124
186,998	275,553	-0,134	-0,166
188,013	-86,836	-0,168	-0,035
189,027	-70,121	-0,298	-0,078
190,042	285,735	-0,172	-0,216
191,056	73,986	-0,236	-0,173
192,071	-8,215	-0,141	-0,066
193,086	-66,140	-0,180	-0,050
194,100	-4,859	-0,240	0,115
195,115	113,412	-0,164	-0,139
196,129	344,498	-0,185	-0,253
197,144	41,187	-0,166	-0,104
198,159	202,951	-0,091	-0,098
199,173	315,047	-0,126	-0,166
200,188	-25,621	-0,134	-0,055
201,202	132,689	-0,200	-0,180
202,217	-86,570	-0,152	-0,032
203,232	301,136	-0,240	-0,309
204,246	108,575	-0,193	-0,160
205,261	296,258	-0,217	-0,277
206,275	800,000	-0,129	-0,333
207,290	71,431	-0,134	-0,097
208,304	498,686	-0,089	-0,142
209,319	15,684	-0,269	-0,147
210,334	114,756	-0,191	-0,161
211,348	-40,941	-0,255	-0,091
212,363	-9,662	-0,243	-0,112
213,377	203,169	-0,191	-0,205
214,392	63,447	-0,260	-0,181
215,407	438,035	-0,113	-0,172
216,421	-17,407	-0,126	-0,055
217,436	800,000	-0,052	-0,139
218,450	-51,004	-0,263	-0,085
219,465	36,297	-0,218	-0,133
220,480	135,065	-0,226	-0,204
221,494	-128,963	-0,225	-0,022
222,509	141,687	-0,173	-0,159
223,523	-149,003	-0,153	-0,008
224,538	-14,177	-0,223	-0,100
225,553	-6,114	-0,230	-0,109
226,567	439,367	-0,169	-0,257
227,582	-200,000	-0,098	-0,331
228,596	165,637	-0,125	-0,123
229,611	-27,087	-0,160	-0,064
230,626	-23,616	-0,316	-0,131
231,640	184,196	-0,136	-0,140
232,655	132,258	-0,146	-0,130
233,669	528,414	-0,131	-0,216
234,684	60,487	-0,133	-0,091
235,699	81,083	-0,240	-0,180
236,713	58,302	-0,218	-0,148
237,728	191,335	-0,067	-0,070
238,742	122,566	-0,158	-0,137
239,757	126,524	-0,209	-0,183
240,772	800,000	-0,124	-0,240
241,786	243,761	-0,202	-0,236
242,801	60,597	-0,228	-0,156
243,815	66,251	-0,129	-0,090
244,830	59,915	-0,123	0,084
245,844	147,727	-0,185	-0,173
246,859	127,418	-0,288	-0,253
247,874	301,763	-0,150	-0,193
248,888	242,879	-0,200	-0,232
249,903	34,992	-0,213	-0,129
250,917	161,936	-0,103	-0,100
251,932	248,225	-0,115	-0,135
252,947	412,113	-0,059	-0,087
253,961	10,269	-0,247	-0,130
254,976	281,904	-0,148	-0,184
255,990	1,130	-0,109	-0,054
257,005	-7,700	-0,170	-0,079
258,020	43,020	-0,199	-0,126
259,034	-58,180	-0,113	-0,034
260,049	212,415	-0,099	-0,108
261,063	-20,252	-0,251	-0,107
262,078	-200,000	-0,030	-0,119
263,093	-18,658	-0,112	-0,048
264,107	285,926	-0,115	-0,143
265,122	-3,915	-0,259	-0,124
266,136	-9,926	-0,184	-0,084
267,151	135,053	-0,129	-0,116
268,166	56,206	-0,149	-0,100
269,180	93,267	-0,170	-0,133
270,195	-200,000	-0,036	-0,264
271,209	-114,706	-0,331	-0,043
272,224	406,310	-0,074	-0,108
273,239	-126,942	-0,126	-0,013
274,253	-83,722	-0,096	-0,021
275,268	76,909	-0,072	-0,053
276,282	-200,000	-0,056	-0,239
277,297	299,161	-0,099	-0,127
278,312	587,906	-0,063	-0,108
279,326	-195,073	-0,204	0,001
280,341	-28,456	-0,166	-0,066
281,355	275,981	-0,093	-0,114
282,370	79,063	-0,157	-0,116
283,384	147,439	-0,161	-0,150
284,399	217,529	-0,209	-0,230
285,414	-85,911	-0,195	-0,041
286,428	-153,662	-0,058	0,003
287,443	-106,937	-0,263	-0,040
288,457	-95,924	-0,169	-0,031
289,472	30,957	-0,225	-0,133
290,487	85,623	-0,148	-0,112
291,501	630,537	-0,069	-0,121
292,516	-200,000	-0,049	-0,162
293,530	9,984	-0,094	-0,049
294,545	-145,483	-0,214	0,013
295,560	116,995	-0,146	-0,124
296,574	-200,000	0,018	-0,101
297,589	-47,972	-0,109	-0,036
298,603	46,614	-0,098	-0,063
299,618	-200,000	-0,138	0,000
300,633	61,024	-0,119	-0,081
301,647	220,535	-0,062	-0,069
302,662	800,000	-0,063	-0,146
303,676	-126,921	0,094	0,009
304,691	185,790	-0,141	-0,144
305,706	-2,742	-0,301	-0,145
306,720	160,508	-0,106	-0,102
307,735	39,417	-0,134	-0,083
308,749	-146,040	-0,074	0,004
309,764	231,669	-0,113	-0,128
310,779	800,000	-0,094	-0,199
311,793	30,854	-0,207	-0,122
312,808	63,988	-0,222	-0,154
313,822	287,194	-0,159	-0,199
314,837	-11,890	-0,197	-0,088
315,852	-49,916	-0,224	0,073
316,866	-140,292	-0,145	0,010
317,881	-54,437	-0,156	-0,048
318,895	70,906	-0,100	-0,071
319,910	224,926	-0,132	-0,147
320,925	800,000	-0,127	-0,290
321,939	46,798	-0,273	-0,174
322,954	-167,651	-0,158	0,004
323,968	-8,266	-0,104	-0,048
324,983	64,112	-0,095	-0,065
325,997	316,116	-0,087	-0,113
327,012	133,973	-0,132	-0,117
328,027	295,862	-0,064	-0,081
329,041	189,287	-0,144	-0,149
330,056	-110,162	-0,089	0,013
331,070	800,000	-0,013	-0,030
332,085	-59,060	-0,082	-0,024
333,100	-54,567	-0,045	-0,014
334,114	800,000	-0,117	-0,232
335,129	-54,311	-0,332	-0,103
336,143	-74,393	-0,240	-0,059
337,158	800,000	-0,063	-0,168
338,173	555,480	-0,008	0,013
339,187	-60,157	-0,123	-0,036
340,202	-137,516	-0,119	0,009
341,216	800,000	-0,059	-0,130
342,231	33,699	-0,112	-0,067
343,246	-52,672	-0,133	-0,042
344,260	-20,320	-0,265	-0,111
345,275	423,717	-0,027	0,041
346,289	800,000	-0,070	-0,212
347,304	108,322	-0,137	-0,112
348,319	-200,000	-0,027	-0,136
349,333	-66,210	-0,297	-0,081
350,348	-118,448	-0,087	-0,011
351,362	-55,096	-0,150	-0,046
352,377	315,196	-0,039	-0,050
353,392	-62,262	-0,217	-0,062
354,406	-200,000	-0,035	-0,212
355,421	208,599	1316,799	1415,662
356,435	160,514	1477,777	1416,159
