DTS Sentinel unit serial number:	SN410029Multiplexer serial number:	ORYXHardware model number:	OX2-SRSoftware version number:	ORYX F/W v4,00 Oryx Data Collector v3.7.2.0data status	okinstallation	B3 Nyhavnadifferential loss correction	single-endedforward channel	channel 1reverse channel	N/Adate	2023/12/02time	22:02:30forward acquisition time	300,00reverse acquisition time	0,00gamma	499,1914k internal	0,3201k external	0,3201temperature offset calibration	1,0000default loss term (dB/km)	0,3820temperature slope calibration	1,0000multiplexer offset coefficient	1,0000multiplexer slope coefficient	1,0000fibre end	0,00T internal ref (°C)	13,21T ext. ref 1 (°C)	-1,86T ext. ref 2 (°C)	-1,87length (m)	temperature (°C)	Stokes	anti-Stokes-744,400	48,299	-0,270	-0,183
-743,385	-200,000	0,034	0,251
-742,371	258,014	-0,143	-0,180
-741,356	800,000	0,134	0,351
-740,342	307,673	-0,182	-0,247
-739,327	800,000	-0,127	0,393
-738,312	48,786	-0,198	-0,135
-737,298	718,368	0,120	0,232
-736,283	169,390	-0,211	-0,219
-735,269	574,423	0,112	0,200
-734,254	141,044	-0,209	-0,201
-733,239	339,304	-0,079	0,112
-732,225	800,000	-0,078	-0,211
-731,210	-82,417	0,256	0,060
-730,196	800,000	0,060	-0,165
-729,181	284,788	-0,057	-0,075
-728,167	495,228	0,067	-0,113
-727,152	-200,000	-0,022	0,122
-726,137	-200,000	-0,011	0,041
-725,123	-60,111	-0,071	0,022
-724,108	-112,463	-0,061	0,009
-723,094	65,147	-0,144	-0,106
-722,079	-77,937	-0,102	-0,025
-721,064	423,725	-0,054	-0,085
-720,050	-200,000	-0,023	-0,235
-719,035	42,392	0,046	-0,030
-718,021	-200,000	0,028	-0,102
-717,006	800,000	-0,076	-0,183
-715,991	206,379	-0,049	-0,056
-714,977	355,726	-0,094	-0,136
-713,962	-200,000	0,017	-0,076
-712,948	-142,495	0,155	0,011
-711,933	800,000	0,039	0,083
-710,918	-200,000	-0,015	0,095
-709,904	773,608	-0,064	-0,128
-708,889	28,950	-0,088	-0,054
-707,875	144,001	-0,027	-0,026
-706,860	-139,078	-0,232	0,018
-705,845	133,728	-0,018	0,017
-704,831	457,225	0,018	0,029
-703,816	-29,253	-0,093	0,038
-702,802	-115,724	0,071	-0,010
-701,787	-200,000	0,002	-0,044
-700,772	-200,000	-0,055	-0,195
-699,758	112,755	0,087	0,077
-698,743	800,000	-0,025	-0,078
-697,729	-13,320	-0,082	0,039
-696,714	-108,591	0,020	-0,003
-695,699	-35,272	-0,098	-0,039
-694,685	203,405	0,078	0,088
-693,670	797,653	-0,034	-0,069
-692,656	64,449	-0,045	-0,033
-691,641	-200,000	0,020	0,091
-690,627	-120,032	0,165	0,020
-689,612	800,000	-0,056	0,143
-688,597	800,000	-0,001	-0,002
-687,583	-28,906	-0,197	-0,082
-686,568	334,998	0,103	-0,145
-685,554	216,479	-0,120	-0,139
-684,539	-131,761	-0,046	0,004
-683,524	-200,000	-0,003	-0,040
-682,510	126,442	0,097	-0,089
-681,495	19,017	-0,046	-0,027
-680,481	-150,468	-0,187	0,010
-679,466	-200,000	0,006	-0,180
-678,451	90,627	0,051	-0,042
-677,437	228,846	-0,043	0,051
-676,422	691,847	0,080	0,152
-675,408	-93,371	-0,081	-0,016
-674,393	-43,524	0,176	0,064
-673,378	231,847	0,013	-0,016
-672,364	249,596	-0,039	-0,048
-671,349	800,000	0,046	-0,100
-670,335	-65,357	0,198	-0,057
-669,320	316,448	-0,072	-0,099
-668,305	-200,000	-0,003	-0,082
-667,291	-137,045	0,124	0,010
-666,276	-200,000	0,005	-0,062
-665,262	-200,000	-0,005	-0,051
-664,247	596,443	0,040	-0,072
-663,232	339,124	-0,012	-0,017
-662,218	-80,953	0,109	0,026
-661,203	-105,200	0,063	0,010
-660,189	800,000	-0,040	0,103
-659,174	-34,612	-0,093	0,037
-658,159	248,345	0,051	-0,063
-657,145	101,601	0,046	-0,039
-656,130	-78,497	0,107	0,026
-655,116	-42,602	-0,142	-0,052
-654,101	-200,000	0,013	-0,049
-653,086	116,278	-0,016	0,014
-652,072	220,699	-0,080	-0,093
-651,057	-200,000	-0,015	-0,099
-650,043	39,407	-0,063	0,041
-649,028	18,886	0,091	-0,052
-648,014	259,606	0,026	0,033
-646,999	-200,000	0,001	0,106
-645,984	84,908	-0,049	0,039
-644,970	7,023	-0,142	-0,077
-643,955	-9,122	0,155	0,075
-642,941	-200,000	0,010	-0,046
-641,926	-200,000	0,000	0,049
-640,911	-200,000	-0,003	-0,093
-639,897	-200,000	0,039	0,232
-638,882	179,969	-0,012	0,012
-637,868	-200,000	-0,011	0,039
-636,853	158,330	-0,015	0,015
-635,838	176,655	-0,090	-0,094
-634,824	-200,000	0,001	-0,056
-633,809	177,588	-0,076	-0,081
-632,795	-6,877	0,150	-0,074
-631,780	800,000	0,037	-0,095
-630,765	-77,087	-0,038	0,010
-629,751	-82,896	0,047	-0,011
-628,736	800,000	-0,022	-0,067
-627,722	-121,891	-0,139	0,016
-626,707	22,617	0,161	0,095
-625,692	71,484	0,121	0,091
-624,678	468,154	-0,036	0,059
-623,663	800,000	0,046	0,113
-622,649	13,598	-0,148	-0,083
-621,634	170,793	-0,022	-0,023
-620,619	-200,000	-0,014	0,132
-619,605	234,726	0,035	0,042
-618,590	-4,740	0,126	0,063
-617,576	-90,210	0,100	0,021
-616,561	359,817	0,058	-0,085
-615,546	48,826	-0,057	-0,038
-614,532	-95,596	0,075	0,014
-613,517	-200,000	-0,016	-0,084
-612,503	-200,000	0,002	-0,094
-611,488	24,895	0,104	-0,062
-610,474	-61,936	0,031	-0,009
-609,459	-200,000	-0,028	-0,124
-608,444	-200,000	0,006	-0,036
-607,430	315,675	-0,089	0,121
-606,415	-85,709	-0,142	-0,032
-605,401	-3,182	0,118	-0,059
-604,386	-38,353	0,078	-0,030
-603,371	67,866	0,074	0,055
-602,357	-172,806	-0,148	-0,003
-601,342	44,698	-0,012	0,008
-600,328	375,963	-0,060	-0,089
-599,313	800,000	-0,018	-0,041
-598,298	184,465	0,049	-0,053
-597,284	-200,000	0,030	0,147
-596,269	-58,564	0,060	0,019
-595,255	581,051	-0,061	0,108
-594,240	800,000	0,035	-0,087
-593,225	800,000	0,040	-0,117
-592,211	-38,929	-0,058	-0,022
-591,196	-94,099	0,063	-0,012
-590,182	291,346	0,034	0,045
-589,167	-23,229	0,127	0,055
-588,152	-200,000	-0,021	0,149
-587,138	20,718	-0,070	-0,041
-586,123	-121,930	-0,087	-0,010
-585,109	61,138	0,115	-0,083
-584,094	-109,270	-0,038	0,006
-583,079	-108,598	0,078	0,012
-582,065	409,184	0,080	0,122
-581,050	5,075	-0,129	0,069
-580,036	-200,000	0,027	0,135
-579,021	-200,000	0,020	-0,083
-578,006	-44,351	0,109	-0,039
-576,992	-26,314	-0,055	-0,023
-575,977	274,751	-0,023	0,030
-574,963	-200,000	-0,008	0,180
-573,948	529,790	-0,042	-0,072
-572,934	-143,062	-0,035	0,002
-571,919	368,230	-0,022	-0,032
-570,904	36,075	-0,167	-0,106
-569,890	-200,000	0,016	-0,114
-568,875	213,788	0,008	-0,009
-567,861	-31,614	-0,159	0,064
-566,846	-200,000	0,023	0,153
-565,831	-200,000	0,003	0,102
-564,817	-200,000	-0,003	0,051
-563,802	324,971	-0,063	-0,087
-562,788	28,565	-0,106	0,065
-561,773	-78,337	-0,053	0,013
-560,758	-75,745	0,040	0,010
-559,744	43,403	0,109	0,072
-558,729	-200,000	-0,008	0,027
-557,715	125,213	-0,073	-0,067
-556,700	-200,000	0,006	-0,084
-555,685	138,618	-0,104	-0,099
-554,671	-200,000	-0,009	0,167
-553,656	-200,000	0,003	0,167
-552,642	380,342	0,035	0,052
-551,627	800,000	0,058	-0,169
-550,612	42,114	-0,059	-0,038
-549,598	800,000	-0,063	-0,132
-548,583	800,000	-0,035	-0,085
-547,569	-91,753	-0,114	-0,023
-546,554	696,317	-0,034	0,064
-545,539	-140,814	0,156	0,011
-544,525	208,190	0,020	0,023
-543,510	38,822	-0,133	0,086
-542,496	800,000	-0,013	-0,035
-541,481	242,574	-0,013	-0,015
-540,466	111,002	0,046	-0,040
-539,452	133,925	-0,036	-0,033
-538,437	-95,040	0,116	0,022
-537,423	385,540	-0,064	0,096
-536,408	-114,033	0,106	0,015
-535,393	49,433	-0,172	-0,116
-534,379	-200,000	-0,002	-0,113
-533,364	-0,242	-0,060	-0,031
-532,350	14,886	0,022	0,013
-531,335	-127,515	0,108	0,011
-530,321	-103,731	-0,161	0,027
-529,306	288,583	-0,033	-0,043
-528,291	270,387	0,017	0,022
-527,277	500,498	-0,073	-0,121
-526,262	-148,000	0,075	-0,004
-525,248	207,483	0,115	0,130
-524,233	-3,764	0,067	-0,033
-523,218	249,887	0,055	-0,068
-522,204	-93,870	-0,137	-0,027
-521,189	-200,000	-0,001	0,060
-520,175	-164,639	-0,054	-0,002
-519,160	-138,299	0,080	-0,006
-518,145	800,000	0,071	0,173
-517,131	463,036	-0,021	0,034
-516,116	-55,651	0,187	0,060
-515,102	-104,915	0,128	0,021
-514,087	25,073	0,096	-0,058
-513,072	-95,610	-0,090	0,017
-512,058	-88,341	0,034	-0,007
-511,043	-174,693	-0,171	0,003
-510,029	800,000	0,019	-0,040
-509,014	-56,214	-0,189	0,060
-507,999	43,387	0,066	-0,044
-506,985	-101,185	-0,073	-0,013
-505,970	-121,443	0,084	-0,010
-504,956	104,764	-0,053	0,045
-503,941	800,000	-0,007	0,015
-502,926	800,000	0,045	0,136
-501,912	-200,000	-0,015	0,095
-500,897	-200,000	-0,012	0,124
-499,883	-200,000	0,012	0,087
-498,868	-200,000	-0,004	-0,087
-497,853	4,931	0,033	0,017
-496,839	-200,000	-0,016	-0,125
-495,824	-200,000	-0,017	-0,078
-494,810	-140,733	0,139	-0,010
-493,795	-200,000	-0,003	0,123
-492,781	-36,948	0,075	-0,029
-491,766	283,341	-0,013	-0,017
-490,751	-200,000	0,004	-0,049
-489,737	388,717	0,034	0,052
-488,722	-25,965	-0,063	-0,026
-487,708	-200,000	0,012	0,067
-486,693	-82,879	0,082	-0,019
-485,678	179,983	0,084	-0,089
-484,664	200,770	0,048	0,054
-483,649	800,000	-0,078	-0,169
-482,635	-54,359	-0,128	-0,042
-481,620	171,004	-0,036	0,037
-480,605	39,039	0,134	-0,086
-479,591	-200,000	-0,019	0,115
-478,576	800,000	0,053	0,129
-477,562	-120,033	-0,159	0,019
-476,547	530,564	-0,117	-0,200
-475,532	-200,000	0,027	-0,151
-474,518	-75,360	0,085	0,022
-473,503	-200,000	0,019	0,077
-472,489	-200,000	-0,002	0,104
-471,474	70,023	-0,087	-0,065
-470,459	120,259	-0,069	-0,062
-469,445	-0,931	0,069	-0,035
-468,430	534,173	0,044	-0,076
-467,416	610,581	0,044	-0,079
-466,401	244,209	-0,099	0,120
-465,386	69,507	0,145	-0,107
-464,372	659,101	0,027	-0,050
-463,357	-123,730	0,083	-0,009
-462,343	444,569	0,044	0,070
-461,328	-61,858	-0,108	-0,032
-460,313	-13,315	0,018	0,008
-459,299	-61,304	0,100	0,030
-458,284	800,000	-0,018	-0,056
-457,270	-82,837	-0,092	-0,021
-456,255	-35,027	-0,130	-0,051
-455,241	60,821	0,041	0,029
-454,226	665,880	-0,044	-0,082
-453,211	403,752	-0,080	-0,122
-452,197	-113,591	0,105	0,015
-451,182	800,000	0,012	-0,024
-450,168	800,000	-0,068	0,168
-449,153	-71,257	-0,049	0,013
-448,138	800,000	0,011	0,024
-447,124	800,000	0,043	0,100
-446,109	-20,010	-0,149	-0,066
-445,095	-83,591	0,099	0,023
-444,080	-200,000	-0,021	0,092
-443,065	109,899	0,103	-0,089
-442,051	92,643	-0,094	-0,076
-441,036	126,767	-0,056	-0,051
-440,022	88,313	0,078	0,062
-439,007	-200,000	-0,020	-0,131
-437,992	0,484	0,029	0,015
-436,978	-19,463	0,121	-0,054
-435,963	-3,698	-0,079	0,039
-434,949	215,764	-0,057	0,066
-433,934	-70,299	-0,121	-0,033
-432,919	382,396	0,032	-0,048
-431,905	197,687	0,056	-0,061
-430,890	-200,000	0,024	-0,087
-429,876	195,546	0,147	-0,161
-428,861	-200,000	0,043	-0,209
-427,846	-200,000	0,003	-0,018
-426,832	176,236	-0,053	-0,056
-425,817	800,000	-0,018	-0,037
-424,803	-128,629	0,149	0,015
-423,788	-200,000	0,018	0,063
-422,773	551,008	-0,046	0,079
-421,759	520,360	0,017	-0,029
-420,744	241,680	0,081	0,097
-419,730	-200,000	0,013	-0,075
-418,715	38,027	-0,088	-0,056
-417,701	-200,000	-0,003	-0,060
-416,686	227,058	0,093	-0,108
-415,671	-72,998	0,009	0,002
-414,657	-76,879	0,108	-0,027
-413,642	800,000	0,038	-0,097
-412,628	115,837	-0,106	-0,093
-411,613	29,178	-0,114	-0,069
-410,598	513,488	-0,038	-0,064
-409,584	800,000	-0,024	-0,062
-408,569	233,094	-0,079	0,094
-407,555	800,000	0,063	-0,129
-406,540	-200,000	-0,018	0,163
-405,525	110,569	-0,079	-0,068
-404,511	800,000	-0,074	-0,147
-403,496	43,430	-0,051	0,033
-402,482	-162,454	0,068	-0,002
-401,467	800,000	0,041	0,088
-400,452	-43,954	0,045	-0,016
-399,438	-200,000	-0,020	-0,076
-398,423	-23,862	-0,083	-0,036
-397,409	800,000	-0,075	-0,174
-396,394	-200,000	-0,022	-0,176
-395,379	335,098	0,023	-0,032
-394,365	501,057	0,014	0,023
-393,350	-200,000	-0,028	0,104
-392,336	-58,066	0,081	-0,025
-391,321	26,542	0,069	0,041
-390,306	70,100	-0,039	0,029
-389,292	736,790	-0,007	0,013
-388,277	69,193	0,015	-0,011
-387,263	35,350	-0,041	-0,026
-386,248	-34,499	0,199	0,078
-385,233	84,108	-0,097	-0,076
-384,219	429,536	-0,044	0,069
-383,204	6,605	-0,059	0,031
-382,190	-140,063	0,073	0,005
-381,175	16,060	0,069	0,039
-380,160	565,308	-0,030	0,053
-379,146	320,419	-0,039	0,053
-378,131	313,220	0,022	-0,029
-377,117	477,055	-0,015	0,025
-376,102	15,229	-0,072	0,041
-375,088	13,763	-0,080	0,044
-374,073	-3,081	-0,078	-0,039
-373,058	800,000	0,066	0,135
-372,044	59,758	-0,069	-0,049
-371,029	155,966	-0,099	0,098
-370,015	-42,023	0,142	-0,052
-369,000	800,000	-0,024	0,053
-367,985	304,887	-0,042	0,056
-366,971	567,542	0,040	0,070
-365,956	475,745	0,059	0,096
-364,942	-200,000	0,111	-0,000
-363,927	-200,000	-0,002	-0,056
-362,912	651,022	0,025	-0,046
-361,898	-200,000	-0,126	-0,000
-360,883	-200,000	-0,011	-0,045
-359,869	539,460	0,029	-0,049
-358,854	-137,967	0,120	-0,009
-357,839	-200,000	-0,004	0,081
-356,825	341,899	0,026	-0,037
-355,810	333,247	0,071	0,099
-354,796	-200,000	0,009	-0,063
-353,781	-6,556	0,098	0,047
-352,766	-80,243	0,098	0,023
-351,752	33,200	-0,053	-0,033
-350,737	-17,006	0,104	0,047
-349,723	32,554	-0,108	-0,067
-348,708	390,260	0,030	-0,045
-347,693	233,593	-0,062	-0,073
-346,679	22,876	-0,020	0,012
-345,664	800,000	-0,029	0,085
-344,650	-140,100	0,110	0,008
-343,635	-91,557	-0,133	0,027
-342,620	-200,000	0,038	0,210
-341,606	-200,000	0,052	0,174
-340,591	270,609	-0,028	-0,035
-339,577	800,000	0,104	-0,237
-338,562	3,234	0,015	-0,008
-337,548	295,010	-0,027	-0,035
-336,533	10,258	-0,037	-0,020
-335,518	-61,140	0,102	-0,031
-334,504	-45,655	0,095	-0,034
-333,489	723,585	0,045	-0,085
-332,475	-25,316	-0,042	-0,018
-331,460	254,409	-0,046	-0,056
-330,445	-200,000	0,006	0,033
-329,431	-107,095	-0,023	-0,004
-328,416	-200,000	0,013	0,065
-327,402	800,000	-0,036	0,102
-326,387	800,000	0,060	0,130
-325,372	109,142	-0,023	-0,019
-324,358	-200,000	0,055	-0,185
-323,343	800,000	-0,030	-0,078
-322,329	-56,796	0,124	0,039
-321,314	-22,982	0,010	0,004
-320,299	800,000	0,037	-0,080
-319,285	-200,000	-0,000	0,042
-318,270	-100,361	-0,113	-0,020
-317,256	-152,273	0,091	-0,005
-316,241	27,357	0,071	0,043
-315,226	-68,192	0,129	-0,036
-314,212	-200,000	0,019	-0,066
-313,197	800,000	-0,030	0,082
-312,183	800,000	0,027	0,077
-311,168	-113,183	0,063	-0,009
-310,153	-200,000	-0,051	0,183
-309,139	185,757	-0,145	-0,155
-308,124	67,477	0,089	0,065
-307,110	65,445	0,012	-0,009
-306,095	37,937	0,084	0,053
-305,080	371,138	0,089	-0,130
-304,066	-76,036	-0,160	0,040
-303,051	4,897	0,038	-0,020
-302,037	-200,000	-0,002	-0,143
-301,022	-153,466	-0,109	0,005
-300,008	136,244	0,119	0,111
-298,993	206,233	-0,075	-0,083
-297,978	-200,000	0,000	0,091
-296,964	318,864	-0,059	-0,081
-295,949	-67,521	-0,096	0,027
-294,935	-76,662	0,247	0,061
-293,920	161,557	-0,111	0,111
-292,905	132,317	-0,059	0,054
-291,891	-200,000	0,046	0,195
-290,876	127,540	-0,063	-0,057
-289,862	-200,000	0,034	-0,136
-288,847	-200,000	-0,004	-0,049
-287,832	-153,489	0,008	0,000
-286,818	49,478	-0,078	0,052
-285,803	800,000	-0,042	0,085
-284,789	199,420	-0,029	0,032
-283,774	237,643	0,075	-0,089
-282,759	800,000	-0,010	-0,029
-281,745	-200,000	0,025	-0,118
-280,730	440,723	-0,113	-0,177
-279,716	-78,050	-0,019	0,005
-278,701	-37,726	0,023	0,009
-277,686	-200,000	0,034	0,167
-276,672	-200,000	0,024	0,121
-275,657	-108,818	0,041	0,006
-274,643	72,145	-0,134	0,099
-273,628	-200,000	-0,001	-0,060
-272,613	-188,342	-0,061	-0,001
-271,599	-63,765	0,114	-0,033
-270,584	159,613	-0,121	0,121
-269,570	-200,000	0,010	0,079
-268,555	-2,914	-0,093	-0,046
-267,540	420,174	-0,062	0,096
-266,526	-200,000	-0,018	-0,160
-265,511	-12,433	0,065	-0,030
-264,497	380,420	0,087	0,127
-263,482	800,000	-0,016	0,049
-262,467	-89,808	0,139	0,029
-261,453	48,493	-0,086	-0,057
-260,438	7,169	-0,139	-0,074
-259,424	800,000	-0,030	-0,091
-258,409	19,560	-0,048	0,027
-257,395	-80,856	0,082	-0,019
-256,380	800,000	0,021	-0,051
-255,365	-200,000	-0,019	-0,065
-254,351	800,000	0,038	0,084
-253,336	-36,932	-0,033	0,012
-252,322	69,766	-0,107	-0,078
-251,307	449,265	0,018	-0,029
-250,292	-200,000	0,074	-0,000
-249,278	-171,505	0,095	-0,002
-248,263	155,207	0,168	0,165
-247,249	800,000	-0,017	-0,042
-246,234	94,186	0,064	0,052
-245,219	379,428	0,067	-0,098
-244,205	133,245	-0,058	0,054
-243,190	-200,000	0,014	0,083
-242,176	-200,000	0,018	-0,133
-241,161	-200,000	-0,012	0,072
-240,146	223,510	-0,057	0,065
-239,132	-1,373	-0,119	-0,060
-238,117	53,856	0,171	-0,117
-237,103	-62,349	0,114	-0,034
-236,088	-25,891	-0,152	-0,064
-235,073	329,592	0,037	-0,050
-234,059	800,000	0,076	0,197
-233,044	189,698	-0,027	0,029
-232,030	398,693	0,056	0,083
-231,015	-200,000	-0,013	-0,058
-230,000	-92,066	-0,062	-0,012
-228,986	-200,000	0,005	0,100
-227,971	-16,671	0,106	0,047
-226,957	-200,000	-0,018	0,079
-225,942	-8,705	0,011	0,005
-224,927	-200,000	0,002	-0,084
-223,913	253,621	-0,065	-0,079
-222,898	479,504	-0,074	-0,120
-221,884	-143,146	0,045	0,003
-220,869	17,687	0,209	-0,118
-219,855	-2,100	0,039	0,019
-218,840	-1,296	0,053	-0,027
-217,825	283,488	-0,059	0,075
-216,811	421,924	-0,065	-0,099
-215,796	-200,000	0,031	-0,143
-214,782	-200,000	0,013	-0,059
-213,767	296,553	-0,051	-0,066
-212,752	84,934	0,174	0,136
-211,738	800,000	-0,015	0,045
-210,723	84,681	-0,174	0,136
-209,709	-200,000	0,015	0,113
-208,694	-200,000	-0,017	-0,056
-207,679	-127,243	-0,089	0,009
-206,665	-47,860	0,067	0,023
-205,650	-47,440	-0,077	-0,027
-204,636	800,000	-0,028	0,061
-203,621	58,384	-0,100	0,070
-202,606	226,095	-0,106	0,123
-201,592	800,000	-0,027	-0,079
-200,577	-200,000	0,002	0,020
-199,563	-200,000	-0,002	-0,104
-198,548	-148,499	0,160	0,009
-197,533	-6,780	-0,053	-0,026
-196,519	52,164	0,102	0,069
-195,504	157,945	0,077	-0,076
-194,490	-200,000	-0,009	-0,157
-193,475	-200,000	0,005	-0,086
-192,460	-14,581	-0,098	-0,045
-191,446	-200,000	-0,006	0,133
-190,431	-200,000	0,012	0,057
-189,417	-132,088	-0,111	-0,010
-188,402	-137,359	-0,053	-0,004
-187,387	-147,641	-0,108	-0,006
-186,373	-155,096	0,239	-0,011
-185,358	-200,000	-0,011	0,049
-184,344	-200,000	0,028	-0,112
-183,329	-200,000	0,016	0,081
-182,315	367,972	-0,050	0,072
-181,300	-100,259	0,063	-0,011
-180,285	-35,717	-0,101	-0,039
-179,271	-200,000	0,044	-0,140
-178,256	-57,403	0,138	-0,043
-177,242	278,033	-0,109	0,139
-176,227	-200,000	-0,026	0,187
-175,212	88,162	-0,029	0,023
-174,198	37,354	0,022	-0,014
-173,183	-115,937	-0,014	-0,002
-172,169	-186,727	-0,163	0,002
-171,154	446,113	-0,033	-0,052
-170,139	61,449	0,069	0,049
-169,125	-200,000	0,016	0,191
-168,110	-60,286	-0,074	0,022
-167,096	63,445	-0,120	0,086
-166,081	-7,778	0,055	0,026
-165,066	-200,000	-0,009	-0,097
-164,052	78,775	-0,058	-0,044
-163,037	466,727	-0,029	-0,046
-162,023	-200,000	0,002	0,109
-161,008	-200,000	-0,008	0,264
-159,993	16,050	0,040	-0,022
-158,979	-200,000	-0,017	0,199
-157,964	-58,033	-0,118	-0,036
-156,950	36,071	-0,059	-0,037
-155,935	-200,000	-0,005	0,199
-154,920	63,460	-0,057	-0,041
-153,906	90,776	-0,078	0,062
-152,891	525,572	-0,035	-0,059
-151,877	-200,000	0,013	-0,121
-150,862	318,432	-0,028	-0,038
-149,847	-200,000	-0,021	0,105
-148,833	-50,926	-0,046	0,015
-147,818	-194,779	0,115	0,001
-146,804	-200,000	-0,028	0,109
-145,789	800,000	0,026	0,077
-144,775	298,504	-0,021	-0,027
-143,760	-141,171	-0,157	0,011
-142,745	-200,000	-0,019	-0,077
-141,731	-121,871	-0,140	-0,016
-140,716	461,102	0,051	0,081
-139,702	800,000	0,058	0,176
-138,687	-120,772	0,022	-0,003
-137,672	-70,224	-0,056	0,015
-136,658	-200,000	-0,011	0,144
-135,643	800,000	-0,019	0,058
-134,629	483,928	-0,053	0,086
-133,614	190,485	0,082	0,087
-132,599	303,037	0,098	0,129
-131,585	800,000	-0,021	0,046
-130,570	-28,343	-0,096	-0,039
-129,556	216,664	0,108	-0,122
-128,541	800,000	0,066	0,129
-127,526	800,000	-0,029	-0,072
-126,512	-38,943	-0,065	0,024
-125,497	800,000	-0,035	0,078
-124,483	790,650	-0,050	-0,097
-123,468	-63,849	-0,096	0,028
-122,453	-200,000	-0,003	-0,059
-121,439	119,188	0,057	0,050
-120,424	-200,000	-0,019	-0,102
-119,410	58,667	-0,126	-0,088
-118,395	-18,927	0,125	0,055
-117,380	-9,662	0,147	-0,069
-116,366	-28,549	-0,133	-0,054
-115,351	-200,000	0,030	-0,169
-114,337	475,548	-0,044	-0,071
-113,322	49,060	0,099	-0,066
-112,307	182,393	0,071	0,074
-111,293	-191,524	-0,136	0,001
-110,278	800,000	-0,015	-0,030
-109,264	-127,167	-0,022	0,002
-108,249	-60,513	-0,087	0,026
-107,234	685,056	-0,024	-0,044
-106,220	-200,000	0,002	-0,026
-105,205	244,609	-0,046	-0,055
-104,191	206,698	-0,023	0,026
-103,176	520,324	0,035	0,058
-102,162	-200,000	0,003	0,122
-101,147	-164,264	-0,026	0,001
-100,132	-163,389	0,042	-0,001
-99,118	-200,000	0,015	-0,095
-98,103	-200,000	-0,004	-0,039
-97,089	-200,000	0,016	0,103
-96,074	-47,498	0,045	-0,016
-95,059	-200,000	0,030	0,118
-94,045	134,684	-0,052	0,048
-93,030	95,300	-0,101	-0,081
-92,016	292,325	-0,044	-0,057
-91,001	210,852	0,049	-0,054
-89,986	-200,000	0,024	0,102
-88,972	214,332	0,068	0,076
-87,957	234,139	0,046	0,054
-86,943	-200,000	0,016	0,069
-85,928	-52,379	-0,042	-0,014
-84,913	800,000	-0,025	0,075
-83,899	800,000	0,035	0,080
-82,884	-34,342	0,046	0,018
-81,870	800,000	0,026	0,057
-80,855	800,000	-0,022	0,061
-79,840	78,863	0,076	-0,057
-78,826	170,915	0,027	-0,028
-77,811	128,461	-0,111	-0,100
-76,797	609,815	0,031	-0,055
-75,782	127,330	0,074	-0,067
-74,767	623,789	0,029	0,052
-73,753	29,087	-0,043	-0,026
-72,738	259,823	-0,084	0,104
-71,724	-200,000	-0,018	-0,064
-70,709	465,403	-0,046	-0,073
-69,694	2,732	0,050	0,025
-68,680	-182,619	0,114	-0,001
-67,665	704,867	-0,083	-0,156
-66,651	-200,000	-0,016	-0,129
-65,636	-200,000	-0,007	0,063
-64,622	761,660	0,012	0,022
-63,607	-123,632	0,048	-0,005
-62,592	329,079	-0,087	0,119
-61,578	111,505	0,047	-0,040
-60,563	-200,000	-0,023	0,138
-59,549	-200,000	0,006	0,065
-58,534	-9,234	-1,568	-0,740
-57,519	507,961	-1,270	-2,095
-56,505	-200,000	-0,562	-4,619
-55,490	148,801	1,119	1,071
-54,476	800,000	4,915	11,427
-53,461	-200,000	19,335	321,627
-52,446	-200,000	742,011	2335,150
-51,432	571,807	1656,228	2867,274
-50,417	78,069	1671,015	1260,726
-49,403	21,199	1544,138	885,217
-48,388	15,042	1466,443	810,729
-47,373	18,000	1456,706	819,612
-46,359	16,649	1446,460	807,335
-45,344	13,312	1442,010	788,833
-44,330	13,251	1439,969	787,390
-43,315	13,300	1438,235	786,646
-42,300	13,290	1436,365	785,543
-41,286	13,283	1435,462	784,985
-40,271	13,229	1433,805	783,792
-39,257	13,260	1432,522	783,208
-38,242	13,287	1431,294	782,633
-37,227	13,283	1430,106	781,935
-36,213	13,287	1428,908	781,266
-35,198	13,297	1427,713	780,630
-34,184	13,346	1426,689	780,273
-33,169	13,277	1425,303	779,155
-32,154	13,346	1424,175	778,835
-31,140	13,303	1423,115	778,020
-30,125	13,351	1421,973	777,594
-29,111	13,303	1421,001	776,801
-28,096	13,315	1419,609	776,067
-27,082	13,213	1418,693	775,057
-26,067	13,239	1417,416	774,448
-25,052	13,238	1416,475	773,902
-24,038	13,222	1415,367	773,187
-23,023	13,204	1414,405	772,549
-22,009	13,196	1413,404	771,932
-20,994	13,171	1412,559	771,325
-19,979	13,195	1411,715	770,942
-18,965	13,172	1410,804	770,308
-17,950	13,216	1409,562	769,807
-16,936	13,176	1408,934	769,245
-15,921	13,139	1407,685	768,361
-14,906	13,166	1406,781	767,960
-13,892	13,142	1405,842	767,305
-12,877	13,108	1405,141	766,734
-11,863	13,195	1403,794	766,374
-10,848	13,133	1403,432	765,856
-9,833	13,107	1402,624	765,266
-8,819	13,106	1401,453	764,592
-7,804	13,064	1400,597	763,896
-6,790	13,009	1399,750	763,149
-5,775	13,084	1398,429	762,746
-4,760	13,087	1397,580	762,270
-3,746	13,050	1396,745	761,609
-2,731	13,070	1395,609	761,053
-1,717	12,993	1395,249	760,470
-0,702	13,006	1393,115	759,336
0,313	17,018	1309,438	732,259
1,327	33,576	702,964	431,326
2,342	51,635	123,228	82,765
3,356	3,579	16,658	8,566
4,371	12,768	3,282	1,788
5,386	16,090	0,607	0,338
6,400	800,000	0,076	0,188
7,415	644,927	-0,146	-0,264
8,429	196,350	-0,276	-0,298
9,444	90,110	-0,201	-0,158
10,459	22,791	-0,371	-0,214
11,473	38,883	-0,298	-0,188
12,488	-35,195	-0,280	-0,107
13,502	24,014	-0,372	-0,216
14,517	-38,739	-0,307	-0,114
15,531	31,231	-0,349	-0,211
16,546	17,597	-0,331	-0,185
17,561	112,717	-0,313	-0,267
18,575	-118,818	-0,266	-0,033
19,590	309,336	-0,109	-0,145
20,604	-89,981	-0,119	-0,024
21,619	197,272	-0,311	-0,336
22,634	64,381	-0,482	-0,343
23,648	248,840	-0,324	-0,388
24,663	35,209	-0,546	-0,337
25,677	39,038	-0,283	-0,178
26,692	-28,479	-0,445	-0,180
27,707	84,132	-0,342	-0,264
28,721	136,547	-0,337	-0,311
29,736	-20,597	-0,386	-0,167
30,750	-4,337	-0,460	-0,224
31,765	140,333	-0,391	-0,364
32,780	202,241	-0,331	-0,360
33,794	88,292	-0,392	-0,307
34,809	97,698	-0,351	-0,284
35,823	118,521	-0,330	-0,287
36,838	107,243	-0,359	-0,301
37,853	203,899	-0,310	-0,339
38,867	136,914	-0,389	-0,358
39,882	111,259	-0,351	-0,299
40,896	52,603	-0,367	-0,246
41,911	138,135	-0,331	-0,306
42,926	7,680	-0,379	-0,199
43,940	113,405	-0,449	-0,384
44,955	185,279	-0,292	-0,306
45,969	212,338	-0,282	-0,314
46,984	16,675	-0,390	-0,217
47,999	153,973	-0,313	-0,303
49,013	114,242	-0,378	-0,324
50,028	-37,545	-0,357	-0,134
51,042	19,355	-0,400	-0,226
52,057	147,259	-0,285	-0,271
53,071	61,621	-0,384	-0,269
54,086	-71,313	-0,390	-0,102
55,101	230,124	-0,169	-0,194
56,115	-40,618	-0,358	-0,130
57,130	72,602	-0,278	-0,204
58,144	306,832	-0,311	-0,409
59,159	72,118	-0,393	-0,288
60,174	64,241	-0,353	-0,250
61,188	40,561	-0,363	-0,230
62,203	91,924	-0,268	-0,212
63,217	7,506	-0,296	-0,155
64,232	42,116	-0,333	-0,212
65,247	265,190	-0,211	-0,259
66,261	123,525	-0,239	-0,211
67,276	131,128	-0,315	-0,285
68,290	51,634	-0,377	-0,252
69,305	175,393	-0,232	-0,237
70,320	95,468	-0,294	-0,236
71,334	-21,052	-0,394	-0,169
72,349	91,407	-0,303	-0,239
73,363	45,017	-0,460	-0,298
74,378	800,000	-0,128	-0,249
75,393	53,746	-0,333	-0,224
76,407	84,065	-0,232	-0,178
77,422	-19,916	-0,248	-0,107
78,436	-104,476	-0,249	-0,040
79,451	76,845	-0,365	-0,272
80,466	186,111	-0,220	-0,230
81,480	260,926	-0,278	-0,338
82,495	71,536	-0,272	-0,198
83,509	-20,832	-0,217	-0,093
84,524	28,234	-0,294	-0,174
85,539	-190,893	-0,290	-0,002
86,553	1,595	-0,196	-0,099
87,568	-34,284	-0,316	-0,121
88,582	243,977	-0,250	-0,295
89,597	-8,193	-0,320	-0,151
90,611	52,013	-0,318	-0,212
91,626	49,792	-0,241	-0,159
92,641	-14,523	-0,190	-0,085
93,655	169,615	-0,205	-0,205
94,670	22,981	-0,242	-0,139
95,684	107,644	-0,196	-0,164
96,699	199,898	-0,171	-0,185
97,714	439,957	-0,172	-0,264
98,728	486,804	-0,147	-0,236
99,743	32,855	-0,349	-0,212
100,757	116,515	-0,260	-0,224
101,772	18,003	-0,288	-0,160
102,787	136,319	-0,253	-0,231
103,801	107,698	-0,409	-0,341
104,816	159,414	-0,280	-0,274
105,830	107,181	-0,248	-0,206
106,845	6,816	-0,274	-0,142
107,860	109,723	-0,171	-0,143
108,874	97,468	-0,210	-0,169
109,889	17,392	-0,244	-0,135
110,903	-33,488	-0,356	-0,137
111,918	63,070	-0,185	-0,130
112,933	115,223	-0,271	-0,231
113,947	21,036	-0,315	-0,179
114,962	-39,121	-0,258	-0,095
115,976	74,941	-0,336	-0,248
116,991	75,231	-0,238	-0,176
118,006	125,534	-0,214	-0,189
119,020	227,176	-0,280	-0,319
120,035	2,049	-0,168	-0,085
121,049	-23,808	-0,284	-0,119
122,064	-10,097	-0,300	-0,139
123,079	93,134	-0,185	-0,147
124,093	331,125	-0,212	-0,287
125,108	92,742	-0,260	-0,205
126,122	130,229	-0,179	-0,160
127,137	-140,918	-0,187	-0,013
128,151	77,406	-0,147	-0,109
129,166	114,160	-0,089	-0,076
130,181	-7,242	-0,237	-0,112
131,195	229,423	-0,227	-0,260
132,210	311,185	-0,193	-0,254
133,224	-102,736	-0,281	-0,046
134,239	2,414	-0,112	-0,057
135,254	81,701	-0,099	-0,075
136,268	203,423	-0,169	-0,183
137,283	118,190	-0,141	-0,122
138,297	383,706	-0,234	-0,338
139,312	-12,440	-0,197	-0,089
140,327	226,895	-0,151	-0,172
141,341	130,673	-0,208	-0,186
142,356	15,541	-0,288	-0,157
143,370	88,828	-0,219	-0,170
144,385	6,411	-0,276	-0,143
145,400	210,546	-0,276	-0,303
146,414	-49,700	-0,305	-0,101
147,429	136,565	-0,231	-0,210
148,443	71,542	-0,242	-0,175
149,458	82,842	-0,201	-0,152
150,473	4,688	-0,255	-0,130
151,487	36,288	-0,201	-0,123
152,502	93,833	-0,296	-0,234
153,516	229,728	-0,166	-0,190
154,531	-20,442	-0,260	-0,111
155,546	522,276	-0,148	-0,243
156,560	-65,503	-0,190	-0,053
157,575	68,872	-0,241	-0,172
158,589	190,963	-0,186	-0,195
159,604	-62,979	-0,317	-0,091
160,619	466,873	-0,208	-0,327
161,633	49,182	-0,211	-0,138
162,648	57,635	-0,114	-0,077
163,662	-63,560	-0,286	-0,081
164,677	693,538	-0,087	-0,160
165,692	779,295	-0,087	-0,167
166,706	137,824	-0,160	-0,147
167,721	31,724	-0,267	-0,160
168,735	-12,535	-0,259	-0,118
169,750	47,590	-0,210	-0,136
170,764	52,244	-0,300	-0,199
171,779	55,614	-0,142	-0,096
172,794	-20,769	-0,201	-0,086
173,808	-35,486	-0,220	-0,083
174,823	-200,000	-0,099	-0,308
175,837	511,313	-0,184	-0,299
176,852	124,821	-0,284	-0,249
177,867	800,000	-0,051	-0,141
178,881	-9,015	-0,175	-0,081
179,896	128,140	-0,202	-0,179
180,910	-1,621	-0,306	-0,150
181,925	488,540	-0,212	-0,338
182,940	8,930	-0,254	-0,133
183,954	6,885	-0,268	-0,138
184,969	221,863	-0,170	-0,191
185,983	106,402	-0,155	-0,128
186,998	159,238	-0,167	-0,162
188,013	30,085	-0,169	-0,100
189,027	79,181	-0,229	-0,171
190,042	141,247	-0,228	-0,210
191,056	-9,924	-0,294	-0,136
192,071	-109,067	-0,222	-0,032
193,086	100,905	-0,174	-0,140
194,100	229,692	-0,223	-0,254
195,115	-17,568	-0,166	-0,072
196,129	179,390	-0,177	-0,181
197,144	4,625	-0,221	-0,113
198,159	-200,000	-0,050	-0,206
199,173	127,803	-0,170	-0,150
200,188	109,811	-0,141	-0,117
201,202	118,466	-0,238	-0,204
202,217	228,205	-0,206	-0,234
203,232	187,318	-0,200	-0,208
204,246	25,967	-0,243	-0,140
205,261	800,000	-0,142	-0,280
206,275	800,000	-0,111	-0,219
207,290	192,541	-0,257	-0,270
208,304	157,291	-0,172	-0,165
209,319	350,677	-0,111	-0,153
210,334	244,145	-0,157	-0,184
211,348	222,988	-0,189	-0,212
212,363	-99,132	-0,216	-0,038
213,377	59,717	-0,291	-0,199
214,392	84,903	-0,191	-0,145
215,407	-126,272	-0,263	0,027
216,421	101,972	-0,156	-0,126
217,436	213,267	-0,130	-0,143
218,450	357,865	-0,178	-0,247
219,465	800,000	-0,068	-0,208
220,480	272,908	-0,151	-0,185
221,494	306,150	-0,148	-0,192
222,509	3,351	-0,262	-0,132
223,523	-54,332	-0,301	-0,094
224,538	42,206	-0,243	-0,153
225,553	172,197	-0,240	-0,240
226,567	28,456	-0,136	-0,079
227,582	162,135	-0,186	-0,181
228,596	199,984	-0,122	-0,131
229,611	153,097	-0,141	-0,134
230,626	343,952	-0,181	-0,247
231,640	626,232	-0,074	-0,130
232,655	125,880	-0,137	-0,120
233,669	53,968	-0,191	-0,127
234,684	11,738	-0,244	-0,130
235,699	176,298	-0,132	-0,133
236,713	-182,224	-0,153	-0,002
237,728	-114,047	-0,082	-0,011
238,742	687,440	-0,083	-0,151
239,757	82,885	-0,223	-0,168
240,772	85,372	-0,201	-0,153
241,786	427,523	-0,170	-0,254
242,801	133,649	-0,250	-0,225
243,815	256,179	-0,181	-0,215
244,830	-153,678	-0,157	0,007
245,844	-34,842	-0,171	-0,064
246,859	800,000	-0,112	-0,261
247,874	289,118	-0,222	-0,279
248,888	117,043	-0,216	-0,184
249,903	-2,111	-0,261	-0,126
250,917	303,872	-0,167	-0,215
251,932	76,973	-0,222	-0,163
252,947	191,798	-0,161	-0,168
253,961	175,259	-0,188	-0,189
254,976	739,942	-0,151	-0,283
255,990	252,410	-0,184	-0,218
257,005	151,953	-0,163	-0,154
258,020	85,743	-0,272	-0,207
259,034	24,087	-0,205	-0,117
260,049	689,321	-0,095	-0,172
261,063	-105,823	-0,112	-0,017
262,078	-7,040	-0,278	-0,130
263,093	182,778	-0,172	-0,176
264,107	151,088	-0,189	-0,178
265,122	-40,061	-0,204	-0,073
266,136	-200,000	-0,054	-0,213
267,151	-26,530	-0,173	-0,070
268,166	185,425	-0,107	-0,110
269,180	800,000	-0,071	-0,159
270,195	-153,698	-0,186	-0,009
271,209	-13,239	-0,173	-0,078
272,224	-200,000	-0,017	-0,196
273,239	40,435	-0,173	-0,107
274,253	346,394	-0,088	-0,120
275,268	-51,445	-0,237	-0,076
276,282	24,493	-0,272	-0,155
277,297	683,309	-0,151	-0,272
278,312	-76,611	-0,204	-0,049
279,326	384,008	-0,125	-0,178
280,341	-110,923	-0,157	-0,022
281,355	47,007	-0,101	-0,065
282,370	-105,644	-0,148	-0,023
283,384	-79,108	-0,255	-0,059
284,399	800,000	-0,055	-0,166
285,414	393,713	-0,056	-0,081
286,428	59,010	-0,196	-0,133
287,443	-44,847	-0,116	0,040
288,457	567,073	-0,086	-0,144
289,472	104,256	-0,157	-0,127
290,487	293,104	-0,169	-0,213
291,501	800,000	-0,090	-0,220
292,516	-159,648	-0,194	-0,007
293,530	800,000	-0,067	-0,155
294,545	-51,170	-0,143	-0,046
295,560	11,699	-0,178	0,094
296,574	173,595	-0,126	-0,126
297,589	561,849	-0,088	-0,148
298,603	100,786	-0,126	-0,101
299,618	743,501	-0,078	-0,146
300,633	-200,000	0,000	0,009
301,647	-60,988	-0,084	-0,024
302,662	116,767	-0,084	-0,071
303,676	200,635	-0,146	-0,154
304,691	283,883	-0,099	-0,122
305,706	166,070	-0,095	-0,093
306,720	518,338	-0,099	-0,160
307,735	800,000	-0,061	-0,117
308,749	395,381	-0,108	-0,156
309,764	257,187	-0,124	-0,147
310,779	-84,613	-0,172	-0,037
311,793	-87,565	-0,163	-0,034
312,808	125,665	-0,146	-0,127
313,822	800,000	-0,034	-0,072
314,837	800,000	-0,090	-0,218
315,852	-40,293	-0,111	-0,040
316,866	800,000	-0,070	-0,192
317,881	-57,431	-0,177	-0,053
318,895	-102,565	-0,100	0,016
319,910	33,504	-0,141	-0,084
320,925	312,822	-0,105	-0,135
321,939	243,655	-0,128	-0,148
322,954	166,291	-0,119	-0,116
323,968	-106,494	-0,146	-0,022
324,983	308,975	-0,071	-0,092
325,997	-65,909	-0,055	-0,015
327,012	396,653	0,025	-0,036
328,027	68,989	-0,111	-0,079
329,041	113,247	-0,176	-0,147
330,056	333,432	-0,038	-0,050
331,070	-200,000	0,002	0,048
332,085	800,000	-0,089	-0,197
333,100	240,217	-0,102	-0,117
334,114	-30,205	-0,138	-0,054
335,129	108,799	-0,139	-0,114
336,143	-47,133	-0,192	-0,064
337,158	-88,248	-0,119	0,024
338,173	-94,838	-0,091	0,017
339,187	-83,439	-0,080	-0,018
340,202	-71,737	-0,100	-0,025
341,216	-51,129	-0,194	-0,062
342,231	-71,220	-0,113	0,029
343,246	115,444	-0,187	-0,157
344,260	265,571	-0,075	-0,090
345,275	30,883	-0,141	-0,083
346,289	800,000	0,008	-0,016
347,304	232,641	-0,093	-0,105
348,319	401,686	-0,122	-0,176
349,333	93,096	-0,212	-0,164
350,348	-92,980	-0,229	-0,044
351,362	81,637	-0,118	-0,088
352,377	204,621	-0,088	-0,094
353,392	132,753	-0,092	-0,082
354,406	-75,657	-0,138	-0,033
355,421	210,517	1313,197	1416,608
356,435	162,064	1473,749	1417,106
