DTS Sentinel unit serial number:	SN410029Multiplexer serial number:	ORYXHardware model number:	OX2-SRSoftware version number:	ORYX F/W v4,00 Oryx Data Collector v3.7.2.0data status	okinstallation	B3 Nyhavnadifferential loss correction	single-endedforward channel	channel 1reverse channel	N/Adate	2023/11/28time	21:12:30forward acquisition time	300,00reverse acquisition time	0,00gamma	499,1914k internal	0,3212k external	0,3212temperature offset calibration	1,0000default loss term (dB/km)	0,3820temperature slope calibration	1,0000multiplexer offset coefficient	1,0000multiplexer slope coefficient	1,0000fibre end	0,00T internal ref (°C)	8,22T ext. ref 1 (°C)	-6,24T ext. ref 2 (°C)	-6,37length (m)	temperature (°C)	Stokes	anti-Stokes-744,400	639,880	-0,185	-0,343
-743,385	-200,000	-0,063	0,310
-742,371	27,528	-0,126	-0,076
-741,356	-200,000	0,014	0,394
-740,342	800,000	-0,105	-0,267
-739,327	-200,000	0,066	0,309
-738,312	218,088	-0,149	-0,172
-737,298	-200,000	-0,035	0,206
-736,283	800,000	-0,100	-0,276
-735,269	-200,000	-0,006	0,421
-734,254	-85,066	-0,247	-0,056
-733,239	178,054	-0,137	0,145
-732,225	718,748	-0,054	-0,104
-731,210	800,000	0,025	0,058
-730,196	-137,598	-0,034	-0,003
-729,181	-200,000	-0,028	-0,099
-728,167	-200,000	-0,026	-0,089
-727,152	209,248	0,060	-0,068
-726,137	420,808	-0,069	0,107
-725,123	-122,778	-0,047	-0,005
-724,108	531,717	-0,078	-0,134
-723,094	394,370	-0,037	0,057
-722,079	78,049	-0,093	-0,072
-721,064	800,000	-0,059	-0,137
-720,050	210,968	0,014	-0,016
-719,035	-200,000	-0,003	-0,088
-718,021	-57,399	-0,041	-0,013
-717,006	-200,000	-0,023	0,078
-715,991	-200,000	-0,035	0,136
-714,977	104,342	-0,080	-0,068
-713,962	-92,292	-0,108	0,022
-712,948	438,747	-0,105	0,166
-711,933	151,173	0,045	0,044
-710,918	-1,511	-0,048	-0,024
-709,904	101,400	-0,129	-0,108
-708,889	-3,339	-0,017	-0,009
-707,875	-101,488	-0,110	-0,019
-706,860	-200,000	0,001	-0,006
-705,845	-137,049	0,106	-0,009
-704,831	188,330	-0,019	0,021
-703,816	569,959	-0,031	-0,054
-702,802	173,198	0,037	-0,039
-701,787	455,893	0,046	0,074
-700,772	772,726	-0,027	-0,053
-699,758	-200,000	0,005	0,059
-698,743	-82,296	-0,099	0,023
-697,729	-200,000	0,002	0,127
-696,714	-82,419	-0,097	-0,023
-695,699	-200,000	-0,002	-0,046
-694,685	-2,744	-0,076	0,038
-693,670	800,000	-0,041	-0,123
-692,656	-200,000	-0,002	0,153
-691,641	-182,207	0,132	-0,002
-690,627	3,817	-0,044	0,023
-689,612	-200,000	-0,004	0,049
-688,597	-11,676	-0,093	-0,044
-687,583	800,000	-0,056	-0,132
-686,568	-200,000	-0,013	-0,062
-685,554	-200,000	-0,022	-0,070
-684,539	-200,000	-0,003	-0,027
-683,524	118,019	0,054	0,048
-682,510	22,801	-0,059	0,035
-681,495	800,000	0,030	0,060
-680,481	131,405	-0,049	-0,046
-679,466	800,000	-0,017	-0,035
-678,451	-108,331	-0,144	0,022
-677,437	-200,000	0,002	0,016
-676,422	800,000	0,054	0,122
-675,408	-200,000	0,003	0,117
-674,393	-17,237	-0,073	0,033
-673,378	11,966	-0,119	-0,066
-672,364	74,747	-0,012	0,009
-671,349	159,424	0,105	-0,106
-670,335	-200,000	0,030	0,192
-669,320	7,015	-0,007	-0,004
-668,305	73,565	0,082	0,062
-667,291	215,366	-0,024	0,027
-666,276	142,904	-0,106	0,102
-665,262	-172,801	0,069	-0,002
-664,247	-153,691	0,049	-0,002
-663,232	34,745	-0,144	-0,091
-662,218	53,674	0,155	0,107
-661,203	-200,000	0,039	0,142
-660,189	19,675	-0,089	-0,052
-659,174	800,000	-0,033	0,096
-658,159	-150,175	-0,177	0,010
-657,145	117,878	-0,074	-0,066
-656,130	195,581	0,048	0,053
-655,116	39,712	0,071	0,046
-654,101	-37,563	-0,076	-0,029
-653,086	-200,000	-0,000	0,005
-652,072	800,000	0,028	-0,056
-651,057	-113,909	0,100	0,014
-650,043	-104,470	-0,081	0,013
-649,028	-87,182	-0,071	-0,016
-648,014	-200,000	0,005	0,033
-646,999	-151,780	-0,166	-0,009
-645,984	214,697	0,023	-0,026
-644,970	61,117	0,047	-0,034
-643,955	-57,317	-0,011	-0,003
-642,941	-180,409	0,095	0,001
-641,926	-200,000	-0,012	-0,082
-640,911	800,000	0,043	0,107
-639,897	31,482	0,048	-0,030
-638,882	42,247	0,024	0,016
-637,868	-187,972	0,107	-0,001
-636,853	800,000	-0,005	0,012
-635,838	106,600	-0,080	-0,068
-634,824	27,356	-0,064	0,038
-633,809	-200,000	-0,009	0,078
-632,795	167,185	0,068	0,069
-631,780	54,152	-0,085	0,059
-630,765	-98,335	-0,105	0,019
-629,751	800,000	-0,006	0,018
-628,736	143,172	0,055	0,052
-627,722	64,981	-0,100	0,073
-626,707	219,701	-0,033	-0,038
-625,692	-0,873	-0,086	-0,044
-624,678	-78,022	0,141	-0,035
-623,663	-143,500	-0,188	-0,013
-622,649	77,544	-0,109	-0,083
-621,634	361,116	-0,145	-0,209
-620,619	-200,000	-0,052	-0,216
-619,605	-97,074	0,117	0,022
-618,590	48,058	-0,073	-0,049
-617,576	-68,995	0,118	0,033
-616,561	265,300	-0,081	0,102
-615,546	-197,435	-0,050	0,000
-614,532	154,896	-0,094	-0,093
-613,517	10,682	0,108	-0,059
-612,503	800,000	0,029	0,064
-611,488	800,000	0,073	0,153
-610,474	800,000	0,060	0,126
-609,459	-91,979	-0,098	0,020
-608,444	43,129	-0,152	-0,100
-607,430	12,752	-0,171	-0,095
-606,415	54,676	0,027	-0,019
-605,401	89,721	0,060	-0,048
-604,386	-128,073	0,172	-0,018
-603,371	304,816	-0,069	-0,093
-602,357	16,826	-0,017	-0,009
-601,342	800,000	0,085	-0,195
-600,328	-200,000	-0,001	-0,036
-599,313	-169,642	0,105	-0,003
-598,298	-200,000	0,011	0,036
-597,284	-200,000	-0,008	-0,077
-596,269	138,389	-0,014	-0,013
-595,255	800,000	0,056	0,122
-594,240	678,855	0,030	0,057
-593,225	800,000	0,057	-0,177
-592,211	157,522	0,105	-0,105
-591,196	654,635	0,044	0,082
-590,182	-101,878	-0,039	-0,007
-589,167	742,603	0,071	0,138
-588,152	551,148	-0,017	0,030
-587,138	50,262	-0,022	0,015
-586,123	148,976	-0,163	-0,158
-585,109	800,000	0,012	0,027
-584,094	163,265	0,082	0,083
-583,079	183,347	-0,079	0,084
-582,065	-122,121	0,076	0,009
-581,050	60,607	0,074	-0,053
-580,036	800,000	0,013	-0,036
-579,021	199,122	0,077	-0,086
-578,006	-115,111	0,073	0,010
-576,992	-125,227	0,073	-0,008
-575,977	313,457	0,052	-0,070
-574,963	-110,220	0,075	0,011
-573,948	800,000	-0,042	0,104
-572,934	-82,616	0,098	0,023
-571,919	-200,000	0,025	-0,105
-570,904	-200,000	-0,003	-0,100
-569,890	-14,104	-0,056	-0,026
-568,875	109,789	-0,010	-0,008
-567,861	-152,851	0,147	-0,007
-566,846	537,166	0,009	-0,015
-565,831	707,001	-0,024	-0,046
-564,817	492,851	0,065	0,107
-563,802	-129,471	-0,104	-0,010
-562,788	-12,704	0,076	0,035
-561,773	-140,507	-0,048	0,004
-560,758	-193,596	-0,072	-0,000
-559,744	800,000	-0,038	-0,098
-558,729	-145,527	0,031	-0,002
-557,715	-98,556	-0,059	0,011
-556,700	249,029	-0,061	0,074
-555,685	363,929	0,031	-0,046
-554,671	508,355	0,056	0,093
-553,656	-200,000	-0,014	0,053
-552,642	-93,021	0,139	-0,028
-551,627	800,000	0,039	0,102
-550,612	-200,000	0,030	-0,213
-549,598	395,710	-0,062	0,093
-548,583	-129,141	-0,052	0,005
-547,569	-152,317	-0,025	0,001
-546,554	-200,000	-0,028	-0,094
-545,539	104,096	0,006	0,005
-544,525	562,685	-0,045	0,078
-543,510	-24,907	-0,127	0,054
-542,496	283,457	-0,088	0,114
-541,481	499,652	0,046	-0,076
-540,466	231,759	-0,037	0,044
-539,452	-112,471	-0,216	-0,031
-538,437	-200,000	0,038	0,152
-537,423	526,620	0,055	-0,094
-536,408	800,000	0,016	-0,044
-535,393	-200,000	-0,016	0,056
-534,379	-5,482	0,135	-0,066
-533,364	231,814	-0,024	-0,028
-532,350	-81,536	-0,124	0,029
-531,335	172,574	-0,030	-0,032
-530,321	535,932	-0,025	0,042
-529,306	284,970	-0,097	0,126
-528,291	-70,577	-0,070	-0,019
-527,277	-129,513	0,060	0,006
-526,262	93,347	-0,064	0,052
-525,248	-39,722	0,022	-0,008
-524,233	-43,277	0,145	0,052
-523,218	337,334	-0,079	-0,111
-522,204	-200,000	0,019	0,201
-521,189	-49,217	0,042	-0,014
-520,175	11,834	-0,056	-0,031
-519,160	-92,164	0,146	-0,029
-518,145	-104,949	-0,141	0,023
-517,131	-200,000	0,021	-0,076
-516,116	88,094	0,128	0,102
-515,102	800,000	-0,025	-0,068
-514,087	11,784	-0,043	0,024
-513,072	800,000	-0,030	-0,081
-512,058	355,078	0,022	-0,032
-511,043	-4,857	0,171	0,085
-510,029	-200,000	0,007	0,093
-509,014	800,000	-0,016	0,033
-507,999	-70,826	-0,105	-0,028
-506,985	184,688	-0,057	0,061
-505,970	-3,692	0,075	-0,037
-504,956	22,394	-0,085	-0,050
-503,941	300,231	-0,088	0,117
-502,926	25,630	-0,110	0,065
-501,912	189,570	0,024	-0,026
-500,897	133,736	-0,048	0,044
-499,883	37,489	-0,108	-0,069
-498,868	800,000	-0,014	-0,034
-497,853	800,000	-0,022	-0,061
-496,839	-200,000	0,038	-0,159
-495,824	800,000	0,022	0,052
-494,810	-200,000	-0,004	0,043
-493,795	-137,774	-0,253	-0,020
-492,781	81,137	-0,102	0,079
-491,766	-13,832	-0,068	-0,031
-490,751	21,590	0,067	-0,039
-489,737	11,735	0,145	0,079
-488,722	-1,564	0,076	0,038
-487,708	-200,000	-0,006	0,051
-486,693	-200,000	-0,018	-0,201
-485,678	422,882	0,034	-0,053
-484,664	-81,030	0,054	-0,013
-483,649	-113,095	-0,177	-0,025
-482,635	-171,279	0,141	0,003
-481,620	-15,756	0,063	-0,029
-480,605	-200,000	0,005	0,090
-479,591	-175,361	0,112	0,002
-478,576	-122,788	-0,035	-0,004
-477,562	-200,000	0,013	-0,121
-476,547	508,098	0,023	0,038
-475,532	800,000	-0,008	0,023
-474,518	43,516	0,070	-0,046
-473,503	36,066	0,020	-0,013
-472,489	-142,113	0,106	0,007
-471,474	-200,000	-0,023	-0,099
-470,459	-150,897	0,041	-0,002
-469,445	233,040	0,145	-0,171
-468,430	-24,983	-0,074	0,031
-467,416	-49,892	0,094	0,032
-466,401	205,610	-0,086	-0,096
-465,386	-200,000	-0,013	0,056
-464,372	145,230	0,030	0,028
-463,357	29,313	-0,036	0,022
-462,343	356,450	-0,090	-0,129
-461,328	-8,450	-0,093	-0,045
-460,313	-200,000	0,020	-0,149
-459,299	29,820	0,030	0,018
-458,284	-200,000	0,024	-0,087
-457,270	422,329	-0,051	0,079
-456,255	392,173	-0,029	-0,043
-455,241	-200,000	-0,012	-0,054
-454,226	167,832	-0,096	0,098
-453,211	17,840	0,060	0,034
-452,197	105,749	-0,011	-0,009
-451,182	-67,897	0,059	-0,016
-450,168	210,701	-0,044	-0,050
-449,153	-133,893	0,144	-0,013
-448,138	-51,636	-0,079	0,026
-447,124	-40,025	0,078	0,029
-446,109	368,468	0,042	-0,061
-445,095	800,000	-0,032	-0,067
-444,080	-200,000	0,004	0,063
-443,065	-20,865	0,060	0,026
-442,051	-75,536	-0,051	0,013
-441,036	800,000	-0,023	-0,056
-440,022	142,204	0,081	0,077
-439,007	526,415	0,027	0,045
-437,992	156,569	0,114	0,113
-436,978	261,890	0,061	0,076
-435,963	-19,871	0,109	0,048
-434,949	-200,000	-0,001	-0,098
-433,934	-0,552	-0,051	-0,026
-432,919	42,876	-0,091	-0,059
-431,905	-61,415	0,132	0,040
-430,890	3,070	-0,060	-0,031
-429,876	-200,000	0,028	0,163
-428,861	-200,000	-0,011	0,134
-427,846	200,584	0,077	0,085
-426,832	800,000	-0,075	-0,154
-425,817	71,784	0,055	-0,041
-424,803	-51,012	0,065	0,022
-423,788	312,864	-0,019	-0,026
-422,773	800,000	-0,027	0,062
-421,759	-200,000	0,011	0,220
-420,744	-185,895	-0,073	-0,001
-419,730	800,000	-0,044	-0,124
-418,715	186,334	0,017	-0,018
-417,701	-200,000	-0,023	-0,160
-416,686	-200,000	-0,008	-0,060
-415,671	-4,300	0,055	-0,027
-414,657	-125,169	-0,017	0,002
-413,642	-20,659	-0,163	0,071
-412,628	314,822	0,017	-0,023
-411,613	-73,663	-0,194	-0,050
-410,598	800,000	0,055	0,119
-409,584	-20,427	0,125	-0,055
-408,569	-6,545	0,044	-0,022
-407,555	132,232	0,069	0,064
-406,540	120,032	0,060	0,053
-405,525	-100,688	-0,117	0,020
-404,511	-200,000	0,011	-0,097
-403,496	485,703	-0,033	-0,053
-402,482	671,662	-0,043	0,080
-401,467	447,945	-0,007	-0,011
-400,452	374,232	-0,050	0,073
-399,438	800,000	0,018	-0,051
-398,423	-200,000	0,017	-0,083
-397,409	106,195	-0,087	0,074
-396,394	800,000	-0,035	0,083
-395,379	40,339	-0,063	-0,041
-394,365	78,160	-0,019	0,014
-393,350	-158,335	-0,063	0,003
-392,336	64,568	0,060	-0,044
-391,321	26,690	-0,154	0,092
-390,306	-200,000	0,005	-0,048
-389,292	-50,347	-0,183	0,061
-388,277	-47,086	0,136	-0,047
-387,263	-73,793	-0,120	0,031
-386,248	-76,721	0,143	0,036
-385,233	-148,213	0,190	-0,011
-384,219	-31,965	-0,180	-0,072
-383,204	800,000	-0,036	-0,074
-382,190	119,448	0,154	-0,137
-381,175	-200,000	-0,021	-0,146
-380,160	-85,265	0,137	-0,030
-379,146	478,221	-0,051	0,083
-378,131	-200,000	-0,021	0,076
-377,117	800,000	-0,025	-0,056
-376,102	-200,000	0,029	-0,131
-375,088	16,963	-0,070	-0,039
-374,073	-200,000	0,011	-0,097
-373,058	163,013	0,031	-0,031
-372,044	800,000	0,017	-0,042
-371,029	34,836	0,036	-0,022
-370,015	-200,000	-0,016	0,087
-369,000	800,000	0,027	-0,071
-367,985	-94,910	-0,070	0,013
-366,971	-200,000	-0,004	0,051
-365,956	469,979	-0,039	-0,063
-364,942	-11,586	0,015	0,007
-363,927	161,168	0,080	0,080
-362,912	-200,000	0,028	-0,116
-361,898	-19,539	-0,151	-0,066
-360,883	172,693	-0,074	0,076
-359,869	190,282	-0,025	-0,026
-358,854	-62,889	0,112	-0,033
-357,839	-200,000	-0,008	0,092
-356,825	-200,000	0,013	0,178
-355,810	800,000	0,030	0,093
-354,796	-56,073	-0,062	-0,020
-353,781	50,193	0,019	0,013
-352,766	-200,000	-0,026	0,109
-351,752	146,874	-0,049	-0,047
-350,737	-26,113	0,108	-0,045
-349,723	356,961	0,028	0,039
-348,708	-8,918	0,064	0,031
-347,693	222,702	-0,100	-0,116
-346,679	-163,529	-0,105	-0,003
-345,664	164,496	-0,089	-0,090
-344,650	800,000	0,029	0,081
-343,635	-62,845	0,159	-0,047
-342,620	-141,998	0,019	-0,001
-341,606	108,559	0,081	0,069
-340,591	-200,000	0,021	-0,092
-339,577	-200,000	-0,021	-0,118
-338,562	-200,000	-0,006	-0,088
-337,548	-88,573	0,071	-0,015
-336,533	-43,789	0,052	-0,018
-335,518	292,167	-0,017	0,022
-334,504	-200,000	0,000	0,109
-333,489	800,000	0,032	0,081
-332,475	-200,000	-0,003	-0,038
-331,460	-40,782	-0,044	-0,016
-330,445	204,650	-0,048	0,053
-329,431	-200,000	-0,035	-0,206
-328,416	67,684	0,081	0,059
-327,402	-44,141	-0,162	0,058
-326,387	49,413	0,086	-0,057
-325,372	-200,000	0,027	-0,089
-324,358	-92,231	-0,095	0,019
-323,343	-114,760	0,011	-0,002
-322,329	503,989	0,016	0,027
-321,314	-200,000	0,019	0,065
-320,299	-136,308	0,174	0,014
-319,285	212,223	-0,121	-0,136
-318,270	-154,754	0,128	-0,006
-317,256	-143,192	-0,141	-0,010
-316,241	-191,331	0,044	0,000
-315,226	-102,990	0,097	-0,016
-314,212	800,000	0,078	0,219
-313,197	-200,000	-0,038	0,206
-312,183	103,780	-0,026	-0,022
-311,168	-200,000	0,029	-0,353
-310,153	-200,000	-0,001	-0,129
-309,139	-77,626	-0,192	-0,047
-308,124	-200,000	0,005	-0,068
-307,110	-158,930	0,065	0,003
-306,095	292,141	0,004	-0,005
-305,080	800,000	-0,041	0,106
-304,066	-200,000	0,008	0,074
-303,051	-200,000	-0,013	-0,059
-302,037	-200,000	-0,006	0,021
-301,022	-96,638	-0,122	-0,023
-300,008	57,579	0,124	-0,086
-298,993	196,301	-0,087	0,094
-297,978	224,332	-0,051	0,059
-296,964	212,276	-0,050	-0,056
-295,949	577,321	-0,020	-0,035
-294,935	428,743	-0,035	0,054
-293,920	-200,000	0,039	0,128
-292,905	800,000	-0,032	0,087
-291,891	-92,299	0,071	0,014
-290,876	19,649	-0,060	0,034
-289,862	800,000	-0,059	0,134
-288,847	216,914	0,074	0,085
-287,832	-200,000	-0,015	0,051
-286,818	76,829	0,073	-0,055
-285,803	-143,445	-0,013	-0,001
-284,789	-200,000	-0,017	-0,129
-283,774	-154,873	0,093	0,004
-282,759	800,000	-0,022	-0,047
-281,745	514,286	0,052	-0,087
-280,730	-155,834	-0,136	-0,006
-279,716	4,248	0,056	-0,029
-278,701	17,717	-0,072	0,040
-277,686	800,000	-0,009	-0,024
-276,672	334,555	0,044	0,060
-275,657	16,291	-0,058	0,033
-274,643	-200,000	-0,002	-0,019
-273,628	353,109	-0,059	0,083
-272,613	-137,500	-0,050	0,004
-271,599	-200,000	-0,022	-0,174
-270,584	-65,909	0,093	0,026
-269,570	-162,831	0,076	0,003
-268,555	711,816	0,047	-0,088
-267,540	-66,467	-0,073	0,020
-266,526	-200,000	-0,004	-0,132
-265,511	406,827	0,067	0,101
-264,497	-200,000	0,001	0,098
-263,482	-200,000	0,011	0,151
-262,467	-12,683	0,088	-0,041
-261,453	14,560	-0,069	0,038
-260,438	645,069	-0,075	0,136
-259,424	800,000	-0,015	-0,035
-258,409	198,057	-0,033	0,036
-257,395	142,321	0,075	-0,071
-256,380	56,576	0,039	0,027
-255,365	275,971	0,174	0,220
-254,351	-121,940	-0,114	0,013
-253,336	44,605	-0,020	-0,013
-252,322	-200,000	0,001	0,065
-251,307	66,383	-0,120	0,087
-250,292	-200,000	-0,006	0,066
-249,278	800,000	-0,012	0,028
-248,263	541,634	0,045	0,077
-247,249	432,623	0,120	0,186
-246,234	250,194	-0,109	0,132
-245,219	6,406	-0,075	0,040
-244,205	117,224	0,085	-0,075
-243,190	-20,002	-0,087	0,038
-242,176	-138,502	0,188	-0,014
-241,161	702,938	-0,038	-0,072
-240,146	188,300	-0,061	0,065
-239,132	-31,296	0,066	-0,026
-238,117	562,871	0,013	-0,022
-237,103	94,245	0,096	0,078
-236,088	800,000	-0,032	-0,081
-235,073	-200,000	-0,023	-0,134
-234,059	-2,552	0,074	0,037
-233,044	384,624	-0,079	-0,116
-232,030	176,624	-0,111	-0,115
-231,015	418,914	0,026	0,040
-230,000	-200,000	0,031	0,097
-228,986	-200,000	-0,003	-0,084
-227,971	55,948	-0,132	0,091
-226,957	0,935	-0,063	0,032
-225,942	-89,801	-0,071	0,015
-224,927	-110,650	-0,189	-0,027
-223,913	-200,000	0,013	-0,113
-222,898	-200,000	-0,005	0,040
-221,884	-200,000	0,006	0,116
-220,869	38,428	0,015	-0,009
-219,855	800,000	0,059	0,175
-218,840	-200,000	0,006	0,084
-217,825	17,091	0,159	0,089
-216,811	232,854	-0,058	-0,068
-215,796	-200,000	0,021	-0,069
-214,782	-200,000	-0,022	0,105
-213,767	-108,201	0,179	-0,027
-212,752	227,841	-0,001	0,001
-211,738	50,538	0,110	0,074
-210,723	31,316	0,068	-0,041
-209,709	-30,602	-0,062	-0,025
-208,694	-145,197	0,102	-0,006
-207,679	76,818	-0,057	0,043
-206,665	89,613	0,053	0,042
-205,650	800,000	-0,061	0,160
-204,636	800,000	-0,036	0,074
-203,621	-60,423	-0,080	0,024
-202,606	346,195	0,027	-0,037
-201,592	-145,608	-0,086	-0,005
-200,577	724,288	0,071	-0,136
-199,563	231,771	-0,041	-0,048
-198,548	-200,000	0,009	-0,046
-197,533	21,941	0,051	-0,030
-196,519	150,983	0,053	0,051
-195,504	130,470	0,096	0,087
-194,490	-200,000	0,002	-0,118
-193,475	800,000	-0,037	0,084
-192,460	-189,195	0,117	0,001
-191,446	-200,000	-0,005	0,190
-190,431	-24,578	0,127	-0,053
-189,417	-18,417	0,132	-0,058
-188,402	800,000	-0,010	0,024
-187,387	-200,000	0,017	-0,155
-186,373	352,888	0,031	-0,044
-185,358	-41,354	-0,040	-0,015
-184,344	-79,109	0,033	-0,008
-183,329	-200,000	-0,001	0,036
-182,315	-79,184	0,143	-0,034
-181,300	-66,274	-0,112	0,031
-180,285	800,000	0,013	-0,036
-179,271	27,644	0,053	0,032
-178,256	71,231	-0,169	-0,124
-177,242	38,820	0,059	0,038
-176,227	75,457	-0,062	0,046
-175,212	-179,869	0,022	-0,000
-174,198	-200,000	0,020	-0,068
-173,183	-46,302	0,147	-0,051
-172,169	-80,645	-0,097	-0,023
-171,154	182,647	-0,132	0,138
-170,139	-54,367	-0,062	-0,020
-169,125	-200,000	0,017	-0,070
-168,110	-140,524	0,092	-0,007
-167,096	-45,524	0,060	-0,021
-166,081	-23,725	0,035	-0,015
-165,066	-27,330	-0,036	-0,015
-164,052	88,226	-0,155	0,122
-163,037	41,700	0,101	0,065
-162,023	800,000	-0,028	0,073
-161,008	-200,000	-0,006	-0,044
-159,993	198,165	-0,033	0,036
-158,979	-166,067	0,011	-0,000
-157,964	574,546	-0,019	0,033
-156,950	257,720	-0,066	-0,080
-155,935	36,975	0,065	0,040
-154,920	116,467	0,047	-0,040
-153,906	19,684	0,100	0,057
-152,891	-97,706	-0,065	-0,012
-151,877	29,028	0,069	-0,041
-150,862	800,000	-0,036	-0,097
-149,847	-139,527	0,144	-0,011
-148,833	-71,917	0,047	-0,012
-147,818	160,189	0,045	0,044
-146,804	19,066	0,052	0,030
-145,789	-15,837	-0,170	-0,076
-144,775	-11,421	0,081	0,038
-143,760	-200,000	-0,045	-0,153
-142,745	800,000	0,043	0,087
-141,731	-181,828	0,179	0,002
-140,716	-200,000	-0,000	0,150
-139,702	-200,000	-0,024	0,084
-138,687	-29,599	0,048	0,019
-137,672	444,854	-0,019	0,029
-136,658	-200,000	-0,031	-0,114
-135,643	96,022	0,075	0,061
-134,629	581,528	-0,047	0,082
-133,614	-200,000	-0,006	0,037
-132,599	244,486	0,026	0,031
-131,585	12,318	-0,053	0,029
-130,570	50,253	0,072	0,048
-129,556	25,447	-0,148	0,087
-128,541	-120,841	0,088	0,010
-127,526	23,070	-0,097	0,056
-126,512	236,184	0,021	0,024
-125,497	-106,449	0,058	-0,009
-124,483	-200,000	-0,006	0,181
-123,468	800,000	0,032	-0,069
-122,453	137,374	-0,112	-0,104
-121,439	-37,075	-0,091	0,034
-120,424	259,740	0,065	-0,080
-119,410	-120,961	-0,045	0,005
-118,395	131,824	0,101	-0,092
-117,380	-200,000	-0,034	0,162
-116,366	-182,651	-0,103	0,001
-115,351	-149,478	0,057	0,003
-114,337	9,434	-0,082	0,044
-113,322	300,283	-0,109	-0,143
-112,307	129,861	-0,061	0,056
-111,293	-90,756	0,064	0,013
-110,278	-200,000	0,004	-0,084
-109,264	51,541	0,080	-0,054
-108,249	-154,957	-0,099	-0,005
-107,234	-200,000	-0,009	-0,143
-106,220	-109,713	-0,100	0,015
-105,205	-192,460	0,065	0,000
-104,191	-111,146	0,161	-0,023
-103,176	-114,280	-0,037	-0,005
-102,162	-19,365	-0,080	-0,035
-101,147	288,185	-0,026	0,033
-100,132	800,000	-0,050	-0,128
-99,118	487,593	-0,089	0,144
-98,103	-168,603	0,148	0,004
-97,089	-62,844	-0,107	0,031
-96,074	-64,359	0,091	0,026
-95,059	605,774	-0,036	0,064
-94,045	-200,000	0,034	0,107
-93,030	-67,844	-0,123	-0,034
-92,016	84,789	0,057	-0,044
-91,001	-30,178	0,024	-0,010
-89,986	-200,000	0,025	-0,100
-88,972	698,632	-0,041	0,077
-87,957	-144,135	-0,095	-0,006
-86,943	800,000	0,008	-0,022
-85,928	86,773	-0,107	-0,083
-84,913	800,000	0,057	-0,122
-83,899	-200,000	0,001	-0,173
-82,884	-22,290	0,027	-0,011
-81,870	381,490	-0,034	0,049
-80,855	54,590	0,112	0,076
-79,840	800,000	0,035	0,101
-78,826	346,533	0,126	-0,176
-77,811	128,093	-0,124	-0,111
-76,797	-101,830	0,162	-0,027
-75,782	316,094	0,035	0,047
-74,767	607,298	-0,014	-0,026
-73,753	-128,085	0,134	-0,013
-72,738	-200,000	-0,015	-0,170
-71,724	800,000	-0,043	-0,103
-70,709	-200,000	0,006	0,093
-69,694	-129,118	0,143	0,014
-68,680	-200,000	-0,014	-0,092
-67,665	0,646	0,198	0,100
-66,651	94,998	-0,098	0,079
-65,636	-200,000	-0,016	0,083
-64,622	260,612	-0,071	-0,087
-63,607	325,982	0,005	-0,006
-62,592	308,055	0,109	-0,144
-61,578	-66,316	-0,064	-0,018
-60,563	8,653	-0,072	-0,038
-59,549	165,759	-0,019	0,019
-58,534	61,251	-2,073	-1,451
-57,519	453,671	-1,192	-1,868
-56,505	-200,000	-0,273	-4,358
-55,490	798,504	0,864	1,689
-54,476	800,000	5,174	11,204
-53,461	-200,000	22,107	342,718
-52,446	800,000	756,096	2297,935
-51,432	536,400	1643,682	2763,194
-50,417	68,451	1641,834	1185,924
-49,403	15,926	1518,081	840,793
-48,388	10,081	1443,353	771,387
-47,373	19,212	1435,653	810,662
-46,359	13,574	1424,290	777,661
-45,344	8,352	1420,547	750,937
-44,330	8,338	1418,382	749,694
-43,315	8,288	1416,575	748,475
-42,300	8,316	1414,819	747,649
-41,286	8,312	1413,698	747,008
-40,271	8,295	1412,524	746,278
-39,257	8,337	1411,216	745,756
-38,242	8,351	1410,168	745,239
-37,227	8,291	1409,157	744,391
-36,213	8,347	1407,595	743,802
-35,198	8,313	1406,640	743,109
-34,184	8,339	1405,694	742,701
-33,169	8,265	1404,307	741,592
-32,154	8,299	1403,499	741,296
-31,140	8,293	1402,164	740,533
-30,125	8,373	1400,785	740,148
-29,111	8,328	1399,699	739,335
-28,096	8,269	1398,736	738,523
-27,082	8,265	1397,441	737,790
-26,067	8,215	1396,149	736,848
-25,052	8,269	1395,351	736,645
-24,038	8,247	1394,240	735,930
-23,023	8,233	1393,523	735,456
-22,009	8,252	1392,435	734,940
-20,994	8,269	1391,221	734,348
-19,979	8,201	1390,335	733,536
-18,965	8,222	1389,410	733,118
-17,950	8,213	1388,532	732,586
-16,936	8,180	1387,796	732,016
-15,921	8,155	1386,720	731,304
-14,906	8,132	1385,777	730,671
-13,892	8,226	1384,721	730,517
-12,877	8,137	1384,082	729,742
-11,863	8,166	1383,180	729,371
-10,848	8,145	1382,124	728,688
-9,833	8,146	1381,132	728,142
-8,819	8,074	1380,432	727,410
-7,804	8,088	1379,541	726,976
-6,790	8,072	1378,600	726,379
-5,775	8,074	1377,621	725,844
-4,760	8,060	1376,785	725,309
-3,746	8,095	1375,679	724,860
-2,731	8,101	1374,734	724,362
-1,717	8,085	1374,002	723,871
-0,702	8,110	1372,136	722,976
0,313	12,116	1283,665	694,478
1,327	28,029	677,206	401,831
2,342	43,593	116,462	74,961
3,356	0,511	16,600	8,336
4,371	5,052	3,767	1,949
5,386	11,098	1,361	0,731
6,400	800,000	0,304	0,750
7,415	-162,926	-0,380	0,013
8,429	192,404	-0,218	-0,233
9,444	71,208	-0,290	-0,212
10,459	-56,683	-0,326	-0,101
11,473	-10,858	-0,332	-0,154
12,488	-96,679	-0,188	-0,034
13,502	10,228	-0,326	-0,174
14,517	-11,298	-0,201	-0,093
15,531	-121,839	-0,431	-0,049
16,546	87,443	-0,240	-0,187
17,561	250,988	-0,302	-0,362
18,575	-85,290	-0,204	-0,044
19,590	327,295	-0,229	-0,310
20,604	33,896	-0,272	-0,167
21,619	83,463	-0,459	-0,352
22,634	132,548	-0,430	-0,390
23,648	24,928	-0,391	-0,228
24,663	-23,538	-0,406	-0,171
25,677	243,797	-0,188	-0,222
26,692	-12,381	-0,366	-0,168
27,707	87,397	-0,296	-0,230
28,721	57,413	-0,358	-0,245
29,736	32,336	-0,323	-0,196
30,750	139,166	-0,321	-0,297
31,765	89,669	-0,436	-0,342
32,780	68,309	-0,390	-0,280
33,794	50,406	-0,365	-0,242
34,809	42,946	-0,359	-0,230
35,823	123,662	-0,505	-0,445
36,838	158,349	-0,235	-0,230
37,853	19,176	-0,370	-0,208
38,867	19,014	-0,379	-0,213
39,882	-174,042	-0,300	0,006
40,896	334,248	-0,176	-0,241
41,911	102,845	-0,331	-0,272
42,926	120,205	-0,344	-0,300
43,940	46,202	-0,307	-0,200
44,955	150,640	-0,314	-0,299
45,969	16,932	-0,310	-0,172
46,984	64,854	-0,299	-0,212
47,999	63,126	-0,264	-0,185
49,013	-2,844	-0,335	-0,164
50,028	-53,981	-0,364	-0,116
51,042	-45,394	-0,308	-0,107
52,057	24,944	-0,292	-0,169
53,071	71,929	-0,358	-0,261
54,086	-12,845	-0,420	-0,191
55,101	65,109	-0,328	-0,232
56,115	4,752	-0,292	-0,150
57,130	19,582	-0,447	-0,252
58,144	25,357	-0,289	-0,168
59,159	18,028	-0,392	-0,219
60,174	84,138	-0,414	-0,317
61,188	61,881	-0,279	-0,194
62,203	63,496	-0,246	-0,173
63,217	-73,854	-0,369	-0,093
64,232	171,316	-0,283	-0,285
65,247	99,843	-0,328	-0,266
66,261	99,265	-0,328	-0,266
67,276	-35,316	-0,448	-0,170
68,290	430,950	-0,181	-0,275
69,305	17,610	-0,308	-0,171
70,320	168,028	-0,211	-0,211
71,334	98,638	-0,308	-0,249
72,349	57,890	-0,199	-0,136
73,363	162,840	-0,297	-0,293
74,378	3,879	-0,348	-0,178
75,393	-8,155	-0,240	-0,113
76,407	32,553	-0,221	-0,134
77,422	-135,731	-0,330	0,027
78,436	-22,166	-0,366	-0,155
79,451	13,570	-0,254	-0,138
80,466	-81,971	-0,388	-0,088
81,480	59,535	-0,183	-0,126
82,495	174,755	-0,285	-0,289
83,509	174,378	-0,191	-0,194
84,524	3,049	-0,227	-0,115
85,539	67,973	-0,238	-0,170
86,553	66,652	-0,426	-0,303
87,568	135,308	-0,252	-0,230
88,582	120,686	-0,240	-0,209
89,597	140,100	-0,332	-0,307
90,611	34,016	-0,274	-0,167
91,626	342,769	-0,204	-0,281
92,641	-163,549	-0,239	-0,008
93,655	-36,255	-0,274	-0,103
94,670	50,165	-0,313	-0,206
95,684	103,223	-0,337	-0,277
96,699	270,666	-0,277	-0,341
97,714	88,020	-0,215	-0,167
98,728	-27,193	-0,244	-0,099
99,743	-38,550	-0,206	-0,076
100,757	-38,378	-0,312	-0,115
101,772	85,831	-0,277	-0,212
102,787	-12,213	-0,368	-0,168
103,801	16,309	-0,288	-0,159
104,816	110,353	-0,310	-0,260
105,830	800,000	-0,096	-0,245
106,845	63,727	-0,276	-0,194
107,860	207,707	-0,201	-0,220
108,874	-117,577	-0,324	-0,040
109,889	168,278	-0,203	-0,202
110,903	-11,078	-0,312	-0,143
111,918	-87,220	-0,234	-0,049
112,933	8,911	-0,245	-0,128
113,947	-2,290	-0,202	-0,098
114,962	-18,770	-0,281	-0,122
115,976	82,178	-0,205	-0,155
116,991	695,544	-0,139	-0,255
118,006	-67,040	-0,306	-0,084
119,020	77,608	-0,194	-0,144
120,035	80,710	-0,285	-0,214
121,049	-13,295	-0,371	-0,167
122,064	132,157	-0,285	-0,256
123,079	55,068	-0,215	-0,145
124,093	-7,907	-0,226	-0,106
125,108	800,000	-0,098	-0,193
126,122	-181,020	-0,252	0,003
127,137	108,864	-0,319	-0,266
128,151	-64,479	-0,354	-0,100
129,166	-37,760	-0,160	-0,059
130,181	70,792	-0,229	0,165
131,195	374,977	-0,204	-0,290
132,210	-16,963	-0,321	-0,141
133,224	209,708	-0,256	-0,280
134,239	-14,840	-0,225	-0,100
135,254	-156,805	-0,307	-0,013
136,268	180,169	-0,132	-0,135
137,283	-4,161	-0,293	-0,141
138,297	-10,285	-0,209	-0,096
139,312	162,891	-0,170	-0,166
140,327	800,000	-0,055	-0,159
141,341	209,807	-0,221	-0,242
142,356	448,843	-0,146	-0,225
143,370	-49,976	-0,305	-0,100
144,385	218,072	-0,241	-0,268
145,400	201,557	-0,199	-0,214
146,414	175,630	-0,228	-0,230
147,429	58,143	-0,312	-0,212
148,443	73,316	-0,168	-0,122
149,458	65,581	-0,148	-0,104
150,473	-67,338	-0,344	-0,093
151,487	-58,023	-0,189	-0,057
152,502	90,577	-0,262	-0,204
153,516	197,201	-0,171	-0,182
154,531	80,108	-0,238	-0,178
155,546	215,216	-0,082	-0,090
156,560	31,086	-0,186	-0,110
157,575	139,625	-0,238	-0,218
158,589	-118,646	-0,401	-0,049
159,604	-43,238	-0,320	-0,112
160,619	-22,563	-0,233	-0,098
161,633	121,011	-0,225	-0,195
162,648	50,911	-0,154	-0,101
163,662	-90,132	-0,238	-0,048
164,677	800,000	-0,093	-0,234
165,692	49,042	-0,168	-0,109
166,706	-184,579	-0,226	0,002
167,721	-0,371	-0,241	-0,119
168,735	-55,023	-0,299	-0,093
169,750	36,379	-0,238	-0,146
170,764	4,361	-0,287	-0,146
171,779	365,696	-0,054	-0,076
172,794	328,556	-0,114	-0,152
173,808	66,767	-0,185	-0,131
174,823	112,950	-0,218	-0,184
175,837	41,321	-0,320	-0,200
176,852	29,628	-0,188	-0,111
177,867	348,299	-0,144	-0,197
178,881	-64,784	-0,149	-0,041
179,896	-22,552	-0,254	-0,106
180,910	-59,147	-0,194	-0,058
181,925	29,084	-0,178	-0,105
182,940	63,399	-0,191	-0,133
183,954	473,306	-0,134	-0,210
184,969	236,013	-0,155	-0,178
185,983	-60,078	-0,269	-0,079
186,998	-147,043	-0,240	-0,014
188,013	105,452	-0,369	-0,303
189,027	184,721	-0,251	-0,259
190,042	-51,888	-0,263	-0,084
191,056	-59,634	-0,192	-0,057
192,071	800,000	-0,128	-0,249
193,086	-77,570	-0,198	-0,047
194,100	-126,876	-0,180	-0,018
195,115	124,023	-0,165	-0,144
196,129	36,609	-0,253	-0,154
197,144	302,944	-0,199	-0,256
198,159	-48,341	-0,258	-0,086
199,173	443,540	-0,118	-0,179
200,188	86,444	-0,223	-0,170
201,202	81,026	-0,161	-0,121
202,217	-84,554	-0,222	-0,048
203,232	6,174	-0,234	-0,120
204,246	4,608	-0,304	-0,154
205,261	800,000	-0,045	-0,110
206,275	129,841	-0,127	-0,113
207,290	76,008	-0,178	-0,130
208,304	-200,000	-0,062	-0,211
209,319	-62,623	-0,171	-0,049
210,334	101,390	-0,266	-0,214
211,348	465,775	-0,175	-0,271
212,363	372,658	-0,151	-0,214
213,377	4,604	-0,177	-0,090
214,392	-2,843	-0,099	0,048
215,407	-130,114	-0,274	-0,025
216,421	31,529	-0,264	-0,157
217,436	-57,996	-0,185	-0,055
218,450	248,298	-0,168	-0,197
219,465	-47,327	-0,307	-0,103
220,480	-103,084	-0,146	-0,024
221,494	-9,056	-0,130	-0,060
222,509	-181,793	-0,184	-0,002
223,523	124,250	-0,328	-0,285
224,538	173,289	-0,105	-0,105
225,553	239,789	-0,186	-0,215
226,567	-28,643	-0,246	-0,097
227,582	68,008	-0,150	-0,106
228,596	146,068	-0,174	-0,161
229,611	-200,000	-0,020	-0,073
230,626	-73,436	-0,202	-0,051
231,640	181,879	-0,226	-0,230
232,655	86,098	-0,211	-0,160
233,669	-20,615	-0,210	-0,089
234,684	-134,233	-0,286	-0,024
235,699	321,397	-0,166	-0,218
236,713	249,488	-0,124	-0,145
237,728	-62,558	-0,168	-0,048
238,742	-153,302	-0,062	0,003
239,757	-77,825	-0,144	-0,034
240,772	212,279	-0,208	-0,227
241,786	450,119	-0,073	-0,111
242,801	214,494	-0,087	-0,095
243,815	-29,583	-0,088	-0,035
244,830	16,140	-0,148	-0,081
245,844	311,531	-0,103	-0,134
246,859	408,973	-0,107	-0,157
247,874	174,959	-0,211	-0,211
248,888	206,531	-0,164	-0,176
249,903	800,000	-0,078	-0,186
250,917	-117,058	-0,182	-0,023
251,932	364,509	-0,107	-0,149
252,947	217,204	-0,150	-0,165
253,961	67,305	-0,227	-0,160
254,976	61,739	-0,149	-0,102
255,990	61,064	-0,136	-0,093
257,005	100,696	-0,221	-0,177
258,020	800,000	-0,108	-0,252
259,034	60,237	-0,204	-0,139
260,049	425,276	-0,031	-0,046
261,063	52,159	-0,218	-0,143
262,078	73,237	-0,062	-0,045
263,093	249,445	-0,125	-0,146
264,107	-19,129	-0,124	0,053
265,122	502,636	-0,102	-0,162
266,136	126,145	-0,098	-0,086
267,151	49,395	-0,109	-0,071
268,166	-37,981	-0,295	-0,107
269,180	592,666	-0,115	-0,196
270,195	-21,391	-0,157	-0,066
271,209	460,465	-0,072	-0,110
272,224	17,502	-0,187	-0,102
273,239	23,985	-0,065	-0,037
274,253	-69,294	-0,153	-0,040
275,268	-41,371	-0,170	-0,060
276,282	-162,074	-0,303	-0,010
277,297	-97,231	-0,167	0,030
278,312	-102,997	-0,133	0,021
279,326	-33,492	-0,156	-0,059
280,341	4,565	-0,150	-0,075
281,355	-11,406	-0,109	-0,049
282,370	800,000	-0,089	-0,175
283,384	70,464	-0,163	-0,116
284,399	286,612	-0,227	-0,283
285,414	197,565	-0,147	-0,155
286,428	-114,295	-0,184	0,024
287,443	-54,923	-0,092	-0,028
288,457	-136,647	-0,058	0,005
289,472	85,584	-0,161	0,122
290,487	83,490	-0,189	-0,141
291,501	338,723	-0,122	-0,163
292,516	84,282	-0,159	-0,119
293,530	-128,946	-0,091	-0,009
294,545	-200,000	0,060	-0,203
295,560	19,695	-0,151	-0,083
296,574	245,071	-0,158	-0,183
297,589	266,361	-0,181	-0,218
298,603	-20,163	-0,251	-0,106
299,618	199,115	-0,118	-0,124
300,633	-200,000	-0,005	-0,182
301,647	-124,183	-0,142	0,015
302,662	449,707	-0,062	0,094
303,676	79,169	-0,185	-0,136
304,691	551,202	-0,122	-0,202
305,706	521,619	-0,101	-0,163
306,720	378,962	-0,073	-0,103
307,735	-114,587	-0,174	0,023
308,749	-18,580	-0,184	-0,079
309,764	17,359	-0,131	0,071
310,779	800,000	-0,052	-0,135
311,793	-43,757	-0,044	0,015
312,808	368,211	-0,107	-0,149
313,822	-9,774	-0,323	-0,147
314,837	-40,144	-0,218	-0,078
315,852	330,722	-0,137	-0,181
316,866	-0,808	-0,090	-0,044
317,881	-18,656	0,073	0,031
318,895	-121,730	-0,090	0,010
319,910	-139,367	-0,156	0,011
320,925	800,000	-0,098	-0,189
321,939	76,165	-0,107	-0,077
322,954	78,311	-0,173	-0,126
323,968	67,504	-0,019	-0,013
324,983	-140,366	-0,174	0,012
325,997	-64,841	-0,193	-0,053
327,012	27,660	-0,230	-0,133
328,027	180,870	-0,173	-0,175
329,041	133,504	-0,191	-0,169
330,056	-200,000	-0,020	-0,194
331,070	44,757	-0,084	-0,053
332,085	20,566	-0,092	-0,051
333,100	-71,407	-0,186	-0,047
334,114	3,464	-0,109	-0,054
335,129	195,166	-0,098	-0,102
336,143	123,690	-0,137	-0,117
337,158	48,260	-0,120	-0,076
338,173	38,157	-0,145	-0,088
339,187	130,796	-0,036	-0,031
340,202	110,703	-0,153	-0,126
341,216	64,052	-0,123	-0,084
342,231	-60,959	-0,180	-0,052
343,246	205,186	-0,104	-0,111
344,260	127,206	-0,078	-0,068
345,275	409,812	-0,108	-0,156
346,289	-78,580	-0,232	0,054
347,304	-84,374	-0,242	-0,052
348,319	137,481	-0,130	-0,117
349,333	-99,281	-0,265	-0,045
350,348	-74,255	-0,060	-0,015
351,362	-27,222	-0,151	-0,060
352,377	-62,047	-0,207	-0,059
353,392	-147,730	-0,272	-0,015
354,406	496,508	-0,032	-0,050
355,421	207,264	1305,377	1393,436
356,435	159,442	1464,903	1393,909
