DTS Sentinel unit serial number:	SN410029Multiplexer serial number:	ORYXHardware model number:	OX2-SRSoftware version number:	ORYX F/W v4,00 Oryx Data Collector v3.7.2.0data status	okinstallation	B3 Nyhavnadifferential loss correction	single-endedforward channel	channel 1reverse channel	N/Adate	2023/12/04time	20:57:30forward acquisition time	300,00reverse acquisition time	0,00gamma	499,1914k internal	0,3201k external	0,3201temperature offset calibration	1,0000default loss term (dB/km)	0,3820temperature slope calibration	1,0000multiplexer offset coefficient	1,0000multiplexer slope coefficient	1,0000fibre end	0,00T internal ref (°C)	14,49T ext. ref 1 (°C)	-0,34T ext. ref 2 (°C)	-0,36length (m)	temperature (°C)	Stokes	anti-Stokes-744,400	464,508	-0,187	-0,305
-743,385	-200,000	-0,039	0,265
-742,371	505,722	-0,109	-0,184
-741,356	-200,000	0,013	0,340
-740,342	800,000	-0,037	-0,108
-739,327	-200,000	0,054	0,400
-738,312	111,063	-0,198	-0,173
-737,298	-200,000	-0,043	0,260
-736,283	109,878	-0,260	-0,227
-735,269	-200,000	0,081	0,429
-734,254	190,796	-0,301	-0,329
-733,239	-39,120	-0,160	0,061
-732,225	361,449	0,096	-0,141
-731,210	-75,453	0,095	0,024
-730,196	145,399	0,064	0,063
-729,181	-200,000	0,009	0,112
-728,167	-200,000	0,007	-0,101
-727,152	-200,000	0,001	0,033
-726,137	119,514	-0,138	-0,124
-725,123	20,431	0,097	-0,057
-724,108	-200,000	-0,045	-0,173
-723,094	-200,000	-0,018	0,068
-722,079	-200,000	0,045	-0,159
-721,064	-200,000	0,011	-0,067
-720,050	-10,361	0,078	0,037
-719,035	160,876	0,023	0,023
-718,021	800,000	0,032	-0,091
-717,006	-200,000	0,000	-0,065
-715,991	206,396	-0,056	0,064
-714,977	-200,000	-0,039	-0,128
-713,962	-200,000	0,002	-0,018
-712,948	-200,000	-0,001	0,101
-711,933	800,000	-0,030	-0,083
-710,918	36,207	-0,034	-0,022
-709,904	-168,776	-0,096	0,003
-708,889	800,000	-0,074	-0,236
-707,875	504,922	-0,023	-0,038
-706,860	-200,000	-0,021	-0,067
-705,845	17,282	-0,077	0,044
-704,831	255,933	-0,056	-0,070
-703,816	91,634	-0,036	0,029
-702,802	-200,000	-0,011	-0,038
-701,787	521,760	-0,136	-0,233
-700,772	-200,000	-0,001	-0,126
-699,758	-200,000	-0,021	-0,098
-698,743	41,422	-0,048	0,032
-697,729	247,721	0,009	0,011
-696,714	-54,312	-0,083	-0,027
-695,699	-200,000	0,004	0,058
-694,685	141,213	0,079	0,076
-693,670	562,112	-0,044	-0,078
-692,656	-141,242	0,034	-0,002
-691,641	-71,129	0,095	-0,026
-690,627	-200,000	-0,017	0,078
-689,612	371,063	-0,029	-0,042
-688,597	121,757	-0,088	0,080
-687,583	800,000	0,039	0,096
-686,568	-137,891	-0,124	-0,010
-685,554	-44,038	0,038	-0,014
-684,539	58,435	-0,037	-0,026
-683,524	-118,176	0,138	-0,018
-682,510	-200,000	0,000	0,054
-681,495	-200,000	-0,008	0,041
-680,481	800,000	-0,071	-0,214
-679,466	-200,000	-0,010	-0,178
-678,451	-69,756	-0,079	0,022
-677,437	-46,654	-0,049	0,017
-676,422	-80,031	0,104	0,025
-675,408	800,000	0,040	-0,103
-674,393	-103,904	-0,099	0,017
-673,378	244,880	-0,089	-0,109
-672,364	-200,000	-0,017	0,092
-671,349	-148,875	-0,116	0,007
-670,335	310,930	-0,105	-0,143
-669,320	-10,836	0,138	0,066
-668,305	405,579	-0,086	0,132
-667,291	-95,483	-0,057	0,011
-666,276	297,908	-0,068	0,091
-665,262	85,201	-0,103	-0,082
-664,247	160,120	-0,090	-0,091
-663,232	800,000	0,011	0,030
-662,218	-174,276	-0,037	0,001
-661,203	527,470	0,036	0,062
-660,189	-125,791	-0,119	0,013
-659,174	709,602	-0,078	0,149
-658,159	-96,655	-0,061	0,011
-657,145	196,380	0,063	0,070
-656,130	-200,000	0,030	0,101
-655,116	-139,979	0,073	0,005
-654,101	-200,000	0,008	0,081
-653,086	98,201	0,039	-0,033
-652,072	56,008	-0,069	-0,048
-651,057	-62,229	0,053	-0,016
-650,043	341,653	-0,059	-0,084
-649,028	107,439	0,061	0,052
-648,014	-200,000	0,002	0,060
-646,999	800,000	0,028	-0,060
-645,984	109,600	-0,049	-0,042
-644,970	-200,000	-0,012	0,084
-643,955	21,178	-0,073	-0,043
-642,941	429,854	0,065	-0,102
-641,926	-200,000	0,023	0,136
-640,911	-63,866	0,109	-0,032
-639,897	6,921	0,188	0,101
-638,882	-200,000	0,001	-0,022
-637,868	-200,000	-0,002	-0,090
-636,853	240,546	-0,172	-0,209
-635,838	-76,942	-0,040	0,010
-634,824	234,064	0,019	-0,023
-633,809	-59,559	-0,099	-0,031
-632,795	105,999	0,065	0,056
-631,780	194,168	-0,016	-0,018
-630,765	73,271	0,053	0,040
-629,751	2,849	-0,044	-0,023
-628,736	-54,985	-0,035	0,011
-627,722	253,347	-0,107	-0,132
-626,707	72,816	0,135	-0,102
-625,692	10,400	-0,061	0,033
-624,678	431,215	0,083	0,130
-623,663	800,000	-0,053	0,111
-622,649	-200,000	0,021	-0,102
-621,634	-58,325	0,040	-0,013
-620,619	-200,000	-0,032	-0,126
-619,605	-200,000	-0,035	-0,188
-618,590	-200,000	0,026	-0,107
-617,576	800,000	0,062	0,131
-616,561	-200,000	-0,045	-0,209
-615,546	591,404	-0,062	0,111
-614,532	800,000	-0,023	0,048
-613,517	458,773	0,063	-0,101
-612,503	-200,000	-0,000	-0,028
-611,488	800,000	0,041	-0,095
-610,474	-123,185	0,061	-0,007
-609,459	-200,000	-0,021	0,123
-608,444	-2,798	-0,141	-0,071
-607,430	-200,000	0,021	-0,115
-606,415	100,620	0,141	-0,119
-605,401	-108,083	-0,021	0,003
-604,386	383,265	0,035	0,052
-603,371	42,537	-0,055	0,036
-602,357	459,279	0,058	-0,094
-601,342	-54,677	0,107	-0,035
-600,328	-110,167	0,005	-0,001
-599,313	56,548	-0,071	0,050
-598,298	-200,000	0,006	-0,069
-597,284	642,918	0,021	0,038
-596,269	-92,624	0,229	-0,046
-595,255	-200,000	0,022	-0,072
-594,240	-200,000	0,003	0,010
-593,225	-200,000	-0,027	-0,139
-592,211	-200,000	-0,001	-0,044
-591,196	163,546	0,014	0,015
-590,182	-36,806	0,035	0,013
-589,167	-150,426	-0,053	0,003
-588,152	-98,967	-0,014	-0,003
-587,138	51,742	-0,094	0,065
-586,123	35,335	-0,049	-0,031
-585,109	3,011	0,099	0,052
-584,094	387,030	-0,046	-0,068
-583,079	33,120	-0,049	-0,030
-582,065	-89,263	-0,036	0,008
-581,050	-44,555	-0,074	0,027
-580,036	800,000	-0,030	0,092
-579,021	-124,914	-0,091	-0,010
-578,006	800,000	0,021	0,043
-576,992	204,143	-0,059	-0,067
-575,977	800,000	-0,052	-0,128
-574,963	42,969	-0,099	-0,065
-573,948	-200,000	0,032	0,130
-572,934	220,939	0,144	0,167
-571,919	245,292	0,078	-0,095
-570,904	367,869	-0,101	-0,147
-569,890	-200,000	-0,040	-0,197
-568,875	-93,501	-0,130	0,026
-567,861	401,371	-0,031	0,046
-566,846	800,000	0,060	0,131
-565,831	-200,000	0,005	0,084
-564,817	-200,000	-0,000	-0,014
-563,802	-87,658	-0,066	-0,014
-562,788	-72,260	0,011	0,003
-561,773	-200,000	0,011	0,256
-560,758	-69,932	0,108	0,029
-559,744	175,079	0,126	-0,132
-558,729	49,697	-0,021	0,014
-557,715	-200,000	-0,018	0,115
-556,700	33,444	-0,075	-0,047
-555,685	-106,408	-0,106	0,017
-554,671	-200,000	0,004	0,097
-553,656	-141,903	0,099	0,007
-552,642	122,642	0,047	0,043
-551,627	-200,000	-0,017	0,114
-550,612	332,989	-0,009	-0,012
-549,598	-200,000	-0,015	-0,198
-548,583	377,709	-0,046	-0,068
-547,569	-91,442	0,156	0,032
-546,554	404,214	-0,017	0,026
-545,539	345,431	0,122	0,173
-544,525	22,614	0,122	0,072
-543,510	800,000	-0,035	-0,097
-542,496	-173,314	-0,076	0,002
-541,481	-200,000	0,036	0,187
-540,466	379,082	0,066	-0,098
-539,452	30,653	-0,035	-0,021
-538,437	800,000	0,015	-0,033
-537,423	99,407	-0,058	-0,048
-536,408	800,000	-0,036	-0,108
-535,393	-200,000	-0,057	-0,189
-534,379	-200,000	0,024	-0,103
-533,364	-82,834	0,053	-0,012
-532,350	-200,000	0,003	-0,034
-531,335	73,813	-0,038	-0,029
-530,321	-200,000	0,007	0,069
-529,306	176,716	0,038	-0,040
-528,291	105,516	0,009	-0,008
-527,277	19,203	-0,056	-0,032
-526,262	-200,000	-0,016	0,196
-525,248	2,618	0,065	0,034
-524,233	-200,000	0,014	0,088
-523,218	-200,000	0,002	-0,032
-522,204	16,173	-0,037	-0,021
-521,189	101,932	-0,104	-0,088
-520,175	-106,079	-0,065	-0,010
-519,160	800,000	-0,044	-0,091
-518,145	76,721	-0,068	0,052
-517,131	-32,562	-0,037	0,015
-516,116	117,074	-0,014	0,012
-515,102	-200,000	0,027	0,136
-514,087	-200,000	-0,014	-0,083
-513,072	800,000	-0,033	-0,069
-512,058	-115,081	0,085	0,011
-511,043	-200,000	-0,030	-0,121
-510,029	-200,000	-0,037	0,165
-509,014	277,357	-0,031	0,040
-507,999	800,000	0,034	-0,087
-506,985	100,899	-0,049	-0,041
-505,970	-200,000	-0,008	0,031
-504,956	800,000	-0,048	-0,107
-503,941	-3,506	0,088	-0,044
-502,926	81,861	-0,140	0,109
-501,912	800,000	0,031	0,078
-500,897	549,529	-0,074	0,129
-499,883	-93,159	0,057	0,011
-498,868	37,755	-0,075	-0,048
-497,853	-200,000	-0,001	0,075
-496,839	-158,618	0,109	-0,004
-495,824	103,712	0,109	0,092
-494,810	727,034	-0,059	0,115
-493,795	-122,619	0,121	-0,014
-492,781	-200,000	-0,043	0,155
-491,766	293,637	-0,034	-0,045
-490,751	800,000	-0,056	-0,120
-489,737	-118,397	0,003	-0,000
-488,722	724,046	-0,030	0,058
-487,708	474,095	-0,017	0,028
-486,693	-200,000	0,007	-0,036
-485,678	-95,563	0,071	-0,013
-484,664	-200,000	-0,018	-0,090
-483,649	1,129	-0,078	-0,040
-482,635	49,074	-0,034	-0,023
-481,620	-200,000	0,016	-0,058
-480,605	154,607	0,016	0,016
-479,591	-78,812	0,074	0,018
-478,576	696,703	0,038	0,071
-477,562	-123,276	-0,124	-0,014
-476,547	225,445	-0,063	-0,074
-475,532	-200,000	-0,001	-0,005
-474,518	294,469	-0,057	-0,075
-473,503	-118,603	0,125	0,016
-472,489	260,658	0,019	-0,024
-471,474	-53,900	-0,031	-0,010
-470,459	0,521	-0,062	-0,032
-469,445	40,978	-0,073	-0,047
-468,430	-200,000	-0,013	0,043
-467,416	-200,000	0,030	0,126
-466,401	52,090	0,223	0,153
-465,386	258,685	-0,024	0,030
-464,372	800,000	-0,022	0,054
-463,357	800,000	0,012	-0,027
-462,343	331,133	-0,129	-0,180
-461,328	-200,000	0,018	-0,061
-460,313	363,742	-0,037	0,053
-459,299	-200,000	-0,019	0,174
-458,284	800,000	-0,020	-0,041
-457,270	800,000	-0,043	0,102
-456,255	-87,187	-0,104	-0,023
-455,241	-200,000	0,022	-0,082
-454,226	800,000	0,065	-0,135
-453,211	-200,000	0,002	-0,056
-452,197	-200,000	-0,003	0,075
-451,182	-36,596	0,025	-0,010
-450,168	26,216	-0,079	-0,048
-449,153	-150,489	0,052	0,003
-448,138	366,326	-0,023	0,034
-447,124	36,045	0,058	-0,037
-446,109	23,576	-0,177	-0,104
-445,095	-200,000	0,006	0,138
-444,080	-200,000	-0,004	0,152
-443,065	757,076	0,018	-0,034
-442,051	-200,000	0,002	0,067
-441,036	-200,000	0,012	-0,128
-440,022	-3,331	-0,120	-0,060
-439,007	-200,000	-0,025	-0,122
-437,992	43,621	0,105	0,069
-436,978	-200,000	0,005	0,084
-435,963	67,104	0,057	0,042
-434,949	-200,000	0,003	-0,018
-433,934	800,000	-0,023	0,061
-432,919	-200,000	-0,019	-0,073
-431,905	-134,592	-0,129	0,011
-430,890	114,794	0,044	0,039
-429,876	108,445	-0,051	0,044
-428,861	-81,206	0,027	0,006
-427,846	-200,000	0,044	0,154
-426,832	596,735	0,031	-0,056
-425,817	-149,502	-0,071	0,004
-424,803	646,736	0,016	0,030
-423,788	317,175	0,072	0,097
-422,773	3,166	-0,147	-0,077
-421,759	-169,468	-0,075	0,002
-420,744	271,646	-0,030	-0,038
-419,730	83,651	0,060	-0,047
-418,715	-200,000	-0,003	0,093
-417,701	-47,607	-0,038	0,013
-416,686	127,162	0,071	0,065
-415,671	251,777	-0,008	-0,010
-414,657	-168,076	0,154	-0,004
-413,642	66,941	0,007	-0,005
-412,628	-67,039	-0,129	0,036
-411,613	-200,000	-0,009	-0,082
-410,598	-121,092	-0,070	-0,008
-409,584	-12,691	0,028	0,013
-408,569	21,581	-0,035	-0,020
-407,555	-200,000	-0,008	0,161
-406,540	-200,000	-0,005	-0,034
-405,525	286,792	0,085	-0,110
-404,511	800,000	-0,026	-0,073
-403,496	-129,446	0,022	-0,002
-402,482	506,963	-0,051	-0,085
-401,467	240,687	0,041	0,050
-400,452	800,000	0,053	0,109
-399,438	-74,593	0,106	0,027
-398,423	-200,000	0,009	-0,163
-397,409	-37,335	0,111	-0,042
-396,394	-79,920	-0,014	-0,003
-395,379	337,594	-0,005	0,007
-394,365	-200,000	0,003	-0,141
-393,350	48,719	0,117	-0,078
-392,336	786,859	-0,042	0,084
-391,321	-110,282	-0,157	-0,023
-390,306	-200,000	-0,013	0,075
-389,292	-200,000	0,005	-0,035
-388,277	142,802	-0,132	-0,126
-387,263	-200,000	0,028	0,190
-386,248	-200,000	0,022	-0,074
-385,233	-200,000	-0,001	0,085
-384,219	3,579	-0,065	0,034
-383,204	-6,733	-0,062	0,030
-382,190	156,940	0,049	0,048
-381,175	233,345	-0,008	-0,010
-380,160	184,887	0,118	0,125
-379,146	-27,735	-0,024	0,010
-378,131	151,244	-0,066	-0,064
-377,117	-37,136	0,049	0,019
-376,102	122,159	-0,024	-0,022
-375,088	-200,000	0,008	0,053
-374,073	800,000	-0,021	0,044
-373,058	172,039	0,043	-0,045
-372,044	250,107	0,095	-0,116
-371,029	800,000	0,038	0,083
-370,015	-192,703	0,118	-0,001
-369,000	800,000	0,086	-0,185
-367,985	800,000	-0,023	-0,054
-366,971	148,967	0,077	-0,074
-365,956	114,395	0,068	-0,060
-364,942	138,374	0,048	0,045
-363,927	115,859	0,076	0,067
-362,912	136,587	0,140	-0,131
-361,898	-15,759	-0,085	-0,039
-360,883	-65,354	-0,088	-0,025
-359,869	55,635	0,046	0,032
-358,854	-200,000	-0,018	0,122
-357,839	-200,000	0,000	0,045
-356,825	-200,000	-0,017	-0,202
-355,810	144,915	-0,048	0,046
-354,796	-11,260	-0,156	-0,074
-353,781	-200,000	-0,020	0,109
-352,766	-200,000	-0,015	-0,069
-351,752	-200,000	0,008	-0,095
-350,737	-200,000	-0,012	0,063
-349,723	-123,836	0,005	-0,001
-348,708	-200,000	-0,010	-0,090
-347,693	-27,232	0,036	-0,015
-346,679	-200,000	-0,037	0,163
-345,664	-93,982	-0,049	-0,010
-344,650	-200,000	0,002	0,113
-343,635	150,312	0,093	0,091
-342,620	-200,000	0,001	0,317
-341,606	-200,000	-0,016	-0,077
-340,591	2,873	-0,075	0,039
-339,577	-157,163	0,083	0,004
-338,562	30,824	-0,111	-0,068
-337,548	-200,000	-0,023	-0,093
-336,533	-98,601	0,134	0,024
-335,518	705,728	-0,060	0,114
-334,504	394,935	-0,051	0,077
-333,489	-110,132	0,161	-0,024
-332,475	498,078	0,038	-0,062
-331,460	61,129	-0,137	-0,097
-330,445	800,000	0,022	0,068
-329,431	-108,384	0,091	-0,014
-328,416	-200,000	0,025	0,150
-327,402	39,611	0,096	0,062
-326,387	283,688	-0,054	-0,070
-325,372	-5,658	-0,045	-0,022
-324,358	422,655	-0,047	-0,073
-323,343	682,879	-0,047	-0,088
-322,329	161,874	0,105	-0,105
-321,314	-200,000	0,039	0,174
-320,299	-137,459	0,019	0,002
-319,285	40,906	-0,050	0,032
-318,270	228,454	-0,037	-0,043
-317,256	-200,000	-0,013	-0,102
-316,241	800,000	-0,037	-0,113
-315,226	81,463	0,069	-0,053
-314,212	-171,358	-0,033	-0,001
-313,197	800,000	0,038	0,099
-312,183	77,648	0,099	-0,075
-311,168	-200,000	0,019	0,108
-310,153	-200,000	-0,041	-0,260
-309,139	3,883	-0,074	-0,039
-308,124	474,486	-0,044	0,071
-307,110	303,733	-0,091	0,120
-306,095	558,630	0,062	0,107
-305,080	117,209	-0,106	-0,093
-304,066	800,000	-0,046	0,124
-303,051	-56,139	0,052	0,017
-302,037	467,861	-0,017	-0,027
-301,022	-200,000	0,001	-0,093
-300,008	319,108	-0,036	-0,048
-298,993	-200,000	0,024	0,082
-297,978	-49,899	0,125	-0,042
-296,964	-155,814	-0,120	-0,005
-295,949	800,000	-0,035	-0,086
-294,935	307,197	-0,074	-0,099
-293,920	-42,189	-0,009	-0,003
-292,905	132,464	-0,075	-0,069
-291,891	254,681	-0,065	0,079
-290,876	419,222	0,027	0,041
-289,862	354,500	-0,119	-0,170
-288,847	-200,000	-0,004	0,147
-287,832	-200,000	0,029	-0,092
-286,818	157,003	0,090	-0,089
-285,803	800,000	-0,051	0,152
-284,789	-200,000	-0,004	0,133
-283,774	-108,006	-0,029	0,004
-282,759	-160,308	-0,026	0,001
-281,745	127,476	0,065	0,059
-280,730	800,000	-0,033	0,069
-279,716	367,001	-0,079	-0,115
-278,701	-200,000	-0,011	-0,047
-277,686	-116,684	0,088	-0,011
-276,672	800,000	0,022	0,051
-275,657	-169,515	0,084	0,002
-274,643	27,138	-0,069	-0,041
-273,628	556,705	-0,096	0,165
-272,613	-200,000	-0,016	-0,062
-271,599	800,000	0,095	0,209
-270,584	800,000	-0,026	0,056
-269,570	-200,000	0,029	0,121
-268,555	-50,487	-0,060	0,020
-267,540	-55,809	-0,110	0,035
-266,526	800,000	-0,026	-0,059
-265,511	388,610	0,031	-0,046
-264,497	170,599	-0,036	0,036
-263,482	800,000	-0,021	0,057
-262,467	-200,000	-0,017	0,071
-261,453	-20,923	0,023	-0,010
-260,438	-22,665	-0,113	-0,048
-259,424	625,825	0,055	-0,099
-258,409	800,000	0,047	-0,094
-257,395	90,813	-0,096	0,077
-256,380	-168,339	0,261	0,007
-255,365	800,000	0,030	0,065
-254,351	312,567	-0,045	-0,060
-253,336	117,589	0,020	-0,017
-252,322	71,873	-0,158	-0,117
-251,307	470,908	0,045	0,073
-250,292	-107,913	-0,044	0,007
-249,278	-36,563	-0,103	0,039
-248,263	1,482	0,142	-0,073
-247,249	-200,000	0,009	-0,073
-246,234	-166,453	-0,085	0,002
-245,219	-47,848	0,052	-0,018
-244,205	-200,000	0,006	-0,115
-243,190	800,000	0,020	0,048
-242,176	-200,000	-0,009	0,075
-241,161	74,240	0,091	0,068
-240,146	800,000	-0,015	0,040
-239,132	-200,000	-0,013	0,179
-238,117	412,236	0,025	-0,037
-237,103	52,867	-0,117	-0,079
-236,088	501,018	-0,064	-0,105
-235,073	248,142	-0,061	0,074
-234,059	305,761	0,097	0,129
-233,044	-12,811	0,075	0,035
-232,030	-200,000	-0,030	0,120
-231,015	438,627	-0,093	-0,146
-230,000	247,466	0,043	-0,052
-228,986	-13,945	-0,104	-0,048
-227,971	-200,000	-0,001	-0,073
-226,957	423,833	0,075	0,116
-225,942	45,288	0,129	0,085
-224,927	800,000	-0,033	0,084
-223,913	-200,000	0,019	-0,083
-222,898	61,173	0,012	-0,008
-221,884	-56,779	0,092	0,029
-220,869	113,865	0,249	0,216
-219,855	-77,994	-0,074	0,018
-218,840	4,223	0,108	0,056
-217,825	800,000	0,042	0,118
-216,811	110,280	-0,020	0,017
-215,796	-94,350	-0,007	-0,001
-214,782	499,429	-0,098	-0,162
-213,767	-200,000	0,011	-0,038
-212,752	65,467	0,071	0,051
-211,738	180,771	0,101	-0,106
-210,723	-200,000	-0,034	0,118
-209,709	-200,000	-0,027	-0,131
-208,694	800,000	0,022	-0,054
-207,679	-81,630	0,076	-0,018
-206,665	-17,392	-0,045	0,020
-205,650	187,126	0,109	0,115
-204,636	364,360	0,069	0,099
-203,621	800,000	0,060	-0,152
-202,606	639,079	0,021	-0,038
-201,592	-107,912	0,021	-0,003
-200,577	-29,415	-0,151	0,061
-199,563	-28,728	0,082	-0,033
-198,548	263,362	-0,051	-0,063
-197,533	51,510	-0,127	0,086
-196,519	8,006	0,075	0,040
-195,504	-14,760	-0,114	0,052
-194,490	-200,000	-0,015	0,052
-193,475	-200,000	-0,004	0,026
-192,460	228,387	0,013	-0,015
-191,446	143,531	0,140	0,132
-190,431	-200,000	-0,013	-0,051
-189,417	-116,438	-0,059	0,008
-188,402	-74,699	-0,075	0,019
-187,387	-200,000	-0,024	-0,097
-186,373	-200,000	0,023	-0,087
-185,358	23,218	-0,047	-0,028
-184,344	-83,444	0,188	0,042
-183,329	223,235	0,144	0,166
-182,315	-200,000	0,045	0,141
-181,300	181,273	0,037	-0,039
-180,285	-200,000	-0,016	-0,051
-179,271	71,754	-0,061	-0,045
-178,256	-200,000	-0,020	0,078
-177,242	800,000	0,026	-0,059
-176,227	323,499	-0,013	0,017
-175,212	344,068	0,088	0,122
-174,198	-200,000	-0,014	-0,099
-173,183	-111,296	-0,116	-0,017
-172,169	-6,904	0,049	0,024
-171,154	31,420	-0,071	-0,043
-170,139	68,076	0,103	-0,075
-169,125	329,476	0,084	0,115
-168,110	171,698	-0,012	0,012
-167,096	521,039	-0,033	0,055
-166,081	-19,678	-0,074	-0,033
-165,066	-200,000	-0,007	0,021
-164,052	-200,000	0,014	-0,081
-163,037	102,065	0,054	-0,045
-162,023	-117,212	0,100	0,013
-161,008	101,478	0,091	-0,075
-159,993	291,053	-0,053	0,069
-158,979	-85,615	-0,069	0,015
-157,964	-200,000	-0,010	-0,122
-156,950	800,000	0,026	-0,063
-155,935	800,000	0,046	-0,121
-154,920	682,039	0,056	0,104
-153,906	790,576	-0,035	0,069
-152,891	-47,971	-0,104	0,036
-151,877	-3,947	0,022	0,011
-150,862	-200,000	0,044	-0,217
-149,847	116,491	-0,121	0,105
-148,833	-200,000	-0,026	0,092
-147,818	-200,000	0,007	0,026
-146,804	-200,000	0,043	0,174
-145,789	246,732	-0,100	0,120
-144,775	54,419	0,012	-0,008
-143,760	-31,120	-0,045	0,018
-142,745	139,615	-0,078	0,073
-141,731	-52,172	-0,150	0,049
-140,716	161,568	-0,091	-0,090
-139,702	33,324	-0,012	-0,008
-138,687	-38,961	-0,117	0,043
-137,672	800,000	0,048	-0,096
-136,658	7,218	-0,084	0,045
-135,643	-200,000	-0,002	-0,052
-134,629	-200,000	-0,007	0,098
-133,614	216,355	-0,037	0,042
-132,599	255,106	0,011	0,013
-131,585	-61,644	-0,104	-0,031
-130,570	800,000	0,047	-0,113
-129,556	-82,245	-0,028	-0,006
-128,541	-200,000	-0,006	0,026
-127,526	-66,366	0,062	-0,017
-126,512	671,525	0,046	0,086
-125,497	-142,886	-0,030	0,002
-124,483	-84,162	0,123	0,028
-123,468	57,792	0,073	0,051
-122,453	-4,290	-0,089	0,044
-121,439	-52,829	-0,180	0,059
-120,424	54,033	0,120	-0,082
-119,410	-200,000	0,028	0,139
-118,395	800,000	0,027	0,079
-117,380	800,000	-0,034	0,097
-116,366	90,332	0,076	-0,060
-115,351	-157,564	0,047	-0,002
-114,337	-17,306	0,033	-0,015
-113,322	774,087	0,012	0,023
-112,307	-200,000	-0,007	-0,026
-111,293	232,376	-0,032	0,037
-110,278	800,000	0,022	0,064
-109,264	753,850	-0,027	-0,051
-108,249	-200,000	-0,004	-0,078
-107,234	800,000	0,014	-0,037
-106,220	361,437	-0,080	-0,114
-105,205	145,108	0,108	0,103
-104,191	51,447	0,091	0,061
-103,176	-61,866	-0,069	0,020
-102,162	346,741	0,059	-0,082
-101,147	800,000	0,055	-0,118
-100,132	-150,305	-0,167	0,009
-99,118	-200,000	-0,025	-0,099
-98,103	800,000	0,019	-0,042
-97,089	800,000	0,021	0,046
-96,074	-99,181	0,106	0,019
-95,059	-2,509	0,018	0,009
-94,045	-82,596	-0,105	0,024
-93,030	79,421	-0,104	0,079
-92,016	-200,000	0,021	-0,126
-91,001	-31,623	0,043	-0,017
-89,986	-57,132	-0,059	-0,018
-88,972	406,740	0,038	0,057
-87,957	101,551	0,106	-0,087
-86,943	-135,281	0,075	-0,006
-85,928	-147,673	-0,159	0,009
-84,913	-83,431	-0,059	0,013
-83,899	800,000	-0,009	-0,023
-82,884	372,524	0,082	-0,118
-81,870	-200,000	-0,016	-0,073
-80,855	800,000	0,042	-0,098
-79,840	621,213	0,106	-0,190
-78,826	-200,000	-0,018	-0,062
-77,811	-200,000	-0,002	-0,092
-76,797	-69,807	0,039	0,011
-75,782	276,117	-0,093	0,118
-74,767	-124,679	-0,111	-0,012
-73,753	102,228	0,081	-0,067
-72,738	597,102	-0,052	-0,092
-71,724	425,110	0,080	-0,123
-70,709	83,180	-0,052	-0,040
-69,694	60,938	0,014	0,010
-68,680	-31,429	-0,029	-0,012
-67,665	-200,000	-0,015	0,058
-66,651	-200,000	-0,014	0,181
-65,636	-200,000	-0,006	0,091
-64,622	-119,028	-0,100	-0,012
-63,607	-173,600	0,177	-0,004
-62,592	37,737	0,069	0,044
-61,578	466,519	0,015	-0,023
-60,563	-187,849	0,121	-0,001
-59,549	-200,000	-0,007	0,107
-58,534	-22,501	-1,580	-0,674
-57,519	440,028	-1,366	-2,120
-56,505	-200,000	-0,587	-4,652
-55,490	261,606	0,852	1,048
-54,476	800,000	4,843	11,475
-53,461	-200,000	18,576	297,504
-52,446	800,000	731,625	2258,741
-51,432	559,206	1648,283	2828,114
-50,417	78,868	1668,464	1262,871
-49,403	22,428	1541,451	889,931
-48,388	16,330	1464,545	815,944
-47,373	17,760	1454,242	817,068
-46,359	17,034	1444,612	808,152
-45,344	14,647	1439,873	794,056
-44,330	14,573	1438,094	792,688
-43,315	14,584	1436,353	791,752
-42,300	14,579	1434,728	790,802
-41,286	14,622	1433,595	790,351
-40,271	14,555	1432,329	789,301
-39,257	14,545	1431,211	788,607
-38,242	14,567	1429,733	787,864
-37,227	14,586	1428,543	787,270
-36,213	14,654	1427,109	786,768
-35,198	14,604	1426,039	785,912
-34,184	14,582	1425,299	785,368
-33,169	14,566	1423,894	784,488
-32,154	14,615	1422,827	784,100
-31,140	14,600	1421,644	783,346
-30,125	14,617	1420,424	782,721
-29,111	14,604	1419,159	781,933
-28,096	14,561	1418,366	781,264
-27,082	14,496	1417,244	780,307
-26,067	14,488	1416,025	779,568
-25,052	14,558	1414,809	779,197
-24,038	14,525	1413,984	778,557
-23,023	14,545	1412,781	777,958
-22,009	14,518	1411,904	777,317
-20,994	14,514	1411,079	776,810
-19,979	14,466	1410,228	776,087
-18,965	14,438	1409,209	775,365
-17,950	14,445	1408,354	774,897
-16,936	14,429	1407,436	774,289
-15,921	14,430	1406,238	773,601
-14,906	14,404	1405,375	772,977
-13,892	14,428	1404,497	772,575
-12,877	14,420	1403,464	771,936
-11,863	14,397	1402,742	771,404
-10,848	14,432	1401,620	770,918
-9,833	14,416	1400,670	770,288
-8,819	14,356	1400,098	769,667
-7,804	14,323	1399,203	768,992
-6,790	14,357	1397,891	768,399
-5,775	14,342	1396,847	767,724
-4,760	14,346	1396,000	767,243
-3,746	14,330	1395,321	766,767
-2,731	14,289	1394,575	766,137
-1,717	14,361	1393,426	765,806
-0,702	14,321	1391,705	764,645
0,313	18,165	1310,207	737,669
1,327	34,566	706,316	435,660
2,342	52,923	124,361	84,035
3,356	3,926	16,635	8,574
4,371	-0,797	3,191	1,594
5,386	15,556	0,560	0,310
6,400	103,465	0,096	0,080
7,415	-8,975	-0,275	-0,130
8,429	-102,814	-0,325	-0,054
9,444	-1,868	-0,361	-0,179
10,459	-14,127	-0,282	-0,128
11,473	63,090	-0,260	-0,184
12,488	22,280	-0,213	-0,123
13,502	-29,746	-0,228	-0,091
14,517	27,720	-0,420	-0,249
15,531	29,158	-0,459	-0,275
16,546	61,202	-0,371	-0,260
17,561	158,478	-0,307	-0,301
18,575	388,074	-0,095	-0,139
19,590	-60,117	-0,224	-0,067
20,604	103,504	-0,233	-0,193
21,619	157,451	-0,401	-0,392
22,634	57,392	-0,501	-0,345
23,648	55,319	-0,354	-0,241
24,663	179,826	-0,306	-0,317
25,677	171,000	-0,349	-0,354
26,692	121,780	-0,315	-0,277
27,707	39,345	-0,462	-0,291
28,721	226,391	-0,263	-0,302
29,736	56,153	-0,505	-0,346
30,750	65,486	-0,473	-0,337
31,765	34,648	-0,366	-0,225
32,780	-15,107	-0,400	-0,180
33,794	-41,120	-0,382	-0,138
34,809	9,051	-0,398	-0,212
35,823	150,931	-0,360	-0,345
36,838	205,621	-0,266	-0,292
37,853	82,989	-0,342	-0,262
38,867	-15,102	-0,472	-0,212
39,882	278,167	-0,249	-0,313
40,896	67,372	-0,242	-0,174
41,911	147,454	-0,262	-0,249
42,926	150,500	-0,288	-0,276
43,940	94,339	-0,434	-0,347
44,955	234,442	-0,270	-0,314
45,969	78,010	-0,391	-0,294
46,984	68,454	-0,281	-0,203
47,999	-17,728	-0,373	-0,164
49,013	-9,696	-0,394	-0,184
50,028	8,102	-0,201	-0,106
51,042	143,007	-0,372	-0,348
52,057	50,205	-0,328	-0,218
53,071	97,597	-0,428	-0,346
54,086	-49,889	-0,380	-0,126
55,101	86,139	-0,339	-0,263
56,115	365,033	-0,230	-0,327
57,130	-12,309	-0,495	-0,227
58,144	33,679	-0,386	-0,236
59,159	57,529	-0,386	-0,265
60,174	-3,129	-0,317	-0,155
61,188	35,864	-0,282	-0,174
62,203	305,264	-0,230	-0,301
63,217	12,119	-0,284	-0,153
64,232	17,600	-0,337	-0,188
65,247	10,390	-0,308	-0,164
66,261	51,833	-0,369	-0,246
67,276	55,610	-0,386	-0,263
68,290	-42,113	-0,322	-0,115
69,305	193,604	-0,267	-0,284
70,320	5,318	-0,283	-0,146
71,334	85,539	-0,251	-0,194
72,349	224,671	-0,271	-0,309
73,363	23,488	-0,280	-0,161
74,378	155,750	-0,322	-0,312
75,393	56,561	-0,309	-0,211
76,407	133,903	-0,254	-0,231
77,422	144,518	-0,224	-0,211
78,436	-30,249	-0,347	-0,138
79,451	17,462	-0,364	-0,203
80,466	614,995	-0,138	-0,244
81,480	158,636	-0,163	-0,159
82,495	-125,278	-0,401	-0,043
83,509	-8,709	-0,391	-0,183
84,524	-32,338	-0,275	-0,107
85,539	-137,917	-0,279	-0,022
86,553	42,723	-0,358	-0,229
87,568	133,113	-0,240	-0,218
88,582	116,193	-0,257	-0,221
89,597	55,564	-0,318	-0,216
90,611	36,917	-0,187	-0,116
91,626	-75,656	-0,357	-0,088
92,641	-15,305	-0,321	-0,143
93,655	47,563	-0,288	-0,188
94,670	99,695	-0,349	-0,283
95,684	178,421	-0,295	-0,302
96,699	40,419	-0,222	-0,140
97,714	-67,879	-0,248	-0,068
98,728	800,000	-0,202	-0,440
99,743	-85,680	-0,293	-0,063
100,757	-19,543	-0,339	-0,147
101,772	-139,545	-0,342	-0,025
102,787	-13,632	-0,292	-0,132
103,801	-8,570	-0,278	-0,130
104,816	-22,675	-0,274	-0,116
105,830	790,193	-0,115	-0,223
106,845	99,814	-0,218	-0,177
107,860	82,178	-0,212	-0,161
108,874	-58,251	-0,269	-0,081
109,889	90,197	-0,257	-0,201
110,903	249,570	-0,281	-0,335
111,918	101,854	-0,283	-0,231
112,933	474,026	-0,152	-0,242
113,947	48,414	-0,248	-0,162
114,962	-101,536	-0,391	-0,066
115,976	30,705	-0,256	-0,153
116,991	71,942	-0,278	-0,203
118,006	157,761	-0,279	-0,271
119,020	232,677	-0,228	-0,263
120,035	299,137	-0,163	-0,211
121,049	362,323	-0,051	-0,071
122,064	109,242	-0,140	-0,117
123,079	434,306	-0,149	-0,228
124,093	-4,602	-0,322	-0,155
125,108	-200,000	-0,073	-0,264
126,122	190,358	-0,207	-0,218
127,137	195,036	-0,249	-0,265
128,151	-20,340	-0,199	-0,085
129,166	58,573	-0,287	-0,197
130,181	100,831	-0,247	-0,200
131,195	90,161	-0,195	-0,152
132,210	649,815	-0,127	-0,228
133,224	-98,060	-0,306	-0,055
134,239	49,926	-0,270	-0,178
135,254	67,322	-0,239	-0,171
136,268	273,248	-0,183	-0,227
137,283	68,558	-0,405	-0,290
138,297	226,016	-0,266	-0,302
139,312	296,543	-0,096	-0,124
140,327	209,599	-0,140	-0,153
141,341	-103,201	-0,339	-0,055
142,356	89,132	-0,185	-0,144
143,370	354,718	-0,088	-0,123
144,385	128,495	-0,320	-0,285
145,400	87,731	-0,239	-0,185
146,414	314,745	-0,184	-0,243
147,429	73,128	-0,318	-0,232
148,443	66,824	-0,277	-0,197
149,458	65,471	-0,085	-0,060
150,473	-11,766	-0,228	-0,104
151,487	-14,791	-0,312	-0,139
152,502	275,707	-0,188	-0,233
153,516	126,215	-0,270	-0,238
154,531	-19,504	-0,338	-0,146
155,546	33,133	-0,323	-0,195
156,560	281,292	-0,125	-0,156
157,575	264,073	-0,219	-0,266
158,589	50,347	-0,197	-0,129
159,604	-105,046	-0,222	-0,035
160,619	-70,589	-0,256	-0,067
161,633	32,871	-0,220	-0,132
162,648	107,060	-0,149	-0,124
163,662	-33,416	-0,193	0,074
164,677	341,271	-0,171	-0,234
165,692	-100,334	-0,236	-0,040
166,706	-5,155	-0,320	-0,153
167,721	557,611	-0,085	-0,144
168,735	52,998	-0,178	-0,119
169,750	800,000	-0,115	-0,311
170,764	416,236	-0,164	-0,244
171,779	-34,261	-0,176	-0,067
172,794	291,476	-0,132	-0,168
173,808	82,813	-0,202	-0,153
174,823	167,591	-0,241	-0,239
175,837	762,830	-0,127	-0,240
176,852	64,842	-0,261	-0,184
177,867	-16,636	-0,308	-0,135
178,881	122,679	-0,190	-0,165
179,896	228,983	-0,231	-0,263
180,910	-50,353	-0,235	-0,077
181,925	140,352	-0,223	-0,205
182,940	42,841	-0,312	-0,197
183,954	31,349	-0,285	-0,170
184,969	179,547	-0,127	-0,130
185,983	800,000	-0,043	-0,115
186,998	550,399	-0,071	-0,119
188,013	4,894	-0,255	-0,130
189,027	257,779	-0,155	-0,186
190,042	-32,936	-0,297	-0,114
191,056	-42,618	-0,332	-0,117
192,071	284,538	-0,209	-0,263
193,086	-35,347	-0,156	-0,059
194,100	3,102	-0,174	-0,088
195,115	3,329	-0,179	-0,090
196,129	37,613	-0,114	-0,070
197,144	327,905	-0,206	-0,275
198,159	25,809	-0,172	-0,099
199,173	86,831	-0,275	-0,211
200,188	-200,000	-0,265	0,001
201,202	-109,781	-0,164	0,024
202,217	92,695	-0,252	-0,198
203,232	8,823	-0,383	-0,200
204,246	87,237	-0,315	-0,242
205,261	53,157	-0,119	-0,079
206,275	66,692	-0,183	-0,129
207,290	447,168	-0,068	-0,104
208,304	-119,117	-0,228	-0,027
209,319	800,000	-0,111	-0,251
210,334	-26,669	-0,121	-0,049
211,348	212,703	-0,244	-0,267
212,363	256,417	-0,240	-0,287
213,377	89,680	-0,285	-0,221
214,392	-18,189	-0,198	-0,086
215,407	196,500	-0,152	-0,161
216,421	-89,660	-0,287	-0,058
217,436	70,575	-0,173	-0,124
218,450	120,684	-0,285	-0,246
219,465	800,000	-0,116	-0,226
220,480	-66,847	-0,099	-0,027
221,494	1,450	-0,130	-0,065
222,509	161,427	-0,184	-0,178
223,523	-200,000	-0,008	-0,158
224,538	-164,078	-0,147	0,005
225,553	44,774	-0,314	-0,200
226,567	599,481	-0,141	-0,243
227,582	1,181	-0,284	-0,141
228,596	-99,518	-0,230	-0,040
229,611	115,612	-0,172	-0,146
230,626	-61,035	-0,114	-0,033
231,640	313,466	-0,176	-0,231
232,655	46,126	-0,228	-0,146
233,669	192,061	-0,200	-0,209
234,684	224,069	-0,186	-0,208
235,699	-66,839	-0,140	-0,038
236,713	-33,583	-0,136	-0,052
237,728	34,398	-0,163	-0,098
238,742	-200,000	-0,055	-0,193
239,757	182,185	-0,195	-0,200
240,772	40,833	-0,202	-0,126
241,786	-22,863	-0,302	-0,126
242,801	109,002	-0,169	-0,140
243,815	467,644	-0,140	-0,218
244,830	-95,065	-0,180	0,033
245,844	-17,475	-0,183	-0,080
246,859	344,835	-0,169	-0,230
247,874	197,098	-0,286	-0,303
248,888	800,000	-0,111	-0,228
249,903	51,450	-0,185	-0,122
250,917	124,173	-0,200	-0,174
251,932	135,348	-0,230	-0,207
252,947	68,307	-0,193	-0,136
253,961	279,564	-0,207	-0,256
254,976	327,675	-0,136	-0,180
255,990	-6,832	-0,176	-0,082
257,005	62,031	-0,235	-0,162
258,020	710,964	-0,110	-0,202
259,034	-137,547	-0,163	0,013
260,049	-50,238	-0,224	-0,073
261,063	682,359	-0,107	-0,194
262,078	10,547	-0,159	-0,084
263,093	0,167	-0,198	-0,097
264,107	260,450	-0,247	-0,295
265,122	121,918	-0,166	-0,143
266,136	79,265	-0,068	-0,050
267,151	347,782	-0,101	-0,137
268,166	374,450	-0,119	-0,167
269,180	95,105	-0,213	-0,168
270,195	800,000	-0,103	-0,220
271,209	199,055	-0,182	-0,193
272,224	637,599	-0,097	-0,171
273,239	49,170	-0,192	-0,124
274,253	-94,914	-0,156	0,029
275,268	458,668	-0,124	-0,191
276,282	21,878	-0,200	-0,112
277,297	23,934	-0,143	-0,081
278,312	334,500	-0,112	-0,151
279,326	-11,419	-0,195	-0,088
280,341	11,973	-0,141	-0,074
281,355	-135,336	-0,155	0,013
282,370	384,028	-0,100	-0,143
283,384	39,162	-0,192	-0,118
284,399	413,076	-0,183	-0,270
285,414	281,906	-0,185	-0,229
286,428	270,347	-0,146	-0,177
287,443	195,301	-0,158	-0,166
288,457	64,953	-0,137	-0,095
289,472	-200,000	0,004	0,031
290,487	186,436	-0,157	-0,161
291,501	-46,181	-0,226	-0,076
292,516	59,217	-0,118	-0,080
293,530	672,473	-0,064	-0,114
294,545	-200,000	-0,024	-0,079
295,560	800,000	-0,074	-0,150
296,574	127,109	-0,125	-0,109
297,589	800,000	-0,054	-0,149
298,603	44,384	-0,126	-0,080
299,618	-84,928	-0,175	-0,037
300,633	-200,000	-0,032	-0,252
301,647	-95,735	-0,176	0,032
302,662	-200,000	-0,028	-0,157
303,676	-152,704	-0,085	-0,004
304,691	139,511	-0,164	-0,149
305,706	349,317	-0,115	-0,157
306,720	130,643	-0,165	-0,145
307,735	-75,803	-0,207	-0,050
308,749	-108,311	-0,049	-0,007
309,764	-12,654	-0,174	-0,078
310,779	140,673	-0,148	-0,135
311,793	-200,000	-0,048	-0,189
312,808	342,378	-0,061	-0,082
313,822	-58,954	-0,111	-0,033
314,837	316,862	-0,186	-0,243
315,852	-128,695	-0,177	-0,017
316,866	-128,412	-0,148	0,014
317,881	-26,054	-0,092	-0,037
318,895	218,059	-0,215	-0,236
319,910	192,733	-0,092	-0,096
320,925	-163,655	-0,088	0,003
321,939	-80,128	-0,216	-0,049
322,954	176,405	-0,118	-0,118
323,968	-40,017	-0,172	-0,061
324,983	-64,015	-0,176	-0,049
325,997	-200,000	0,002	-0,018
327,012	168,954	-0,110	-0,108
328,027	381,692	-0,152	-0,215
329,041	497,264	-0,068	-0,109
330,056	448,698	-0,091	-0,139
331,070	-4,799	-0,220	-0,104
332,085	242,576	-0,134	-0,154
333,100	428,000	-0,075	-0,112
334,114	201,473	-0,197	-0,209
335,129	-102,073	-0,148	-0,024
336,143	65,177	-0,036	-0,025
337,158	800,000	-0,065	-0,170
338,173	48,379	-0,138	-0,089
339,187	-149,652	-0,146	0,008
340,202	-125,812	-0,212	-0,022
341,216	18,226	-0,246	-0,134
342,231	195,778	-0,133	-0,139
343,246	144,292	-0,091	-0,083
344,260	395,997	-0,118	-0,169
345,275	12,517	-0,203	0,107
346,289	-26,273	-0,231	-0,093
347,304	-6,898	0,041	0,019
348,319	-200,000	0,000	-0,136
349,333	246,436	-0,138	-0,160
350,348	-120,487	-0,142	0,016
351,362	-52,664	-0,051	-0,016
352,377	-94,319	-0,236	-0,044
353,392	398,311	-0,083	-0,120
354,406	800,000	-0,051	-0,103
355,421	207,739	1317,753	1413,072
356,435	159,816	1478,848	1413,564
