DTS Sentinel unit serial number:	SN410029Multiplexer serial number:	ORYXHardware model number:	OX2-SRSoftware version number:	ORYX F/W v4,00 Oryx Data Collector v3.7.2.0data status	okinstallation	B3 Nyhavnadifferential loss correction	single-endedforward channel	channel 1reverse channel	N/Adate	2023/12/03time	07:27:30forward acquisition time	300,00reverse acquisition time	0,00gamma	499,1914k internal	0,3201k external	0,3201temperature offset calibration	1,0000default loss term (dB/km)	0,3820temperature slope calibration	1,0000multiplexer offset coefficient	1,0000multiplexer slope coefficient	1,0000fibre end	0,00T internal ref (°C)	13,30T ext. ref 1 (°C)	-1,71T ext. ref 2 (°C)	-1,71length (m)	temperature (°C)	Stokes	anti-Stokes-744,400	800,000	-0,136	-0,281
-743,385	800,000	0,074	0,169
-742,371	-200,000	-0,008	-0,155
-741,356	-200,000	-0,013	0,213
-740,342	-200,000	0,019	-0,079
-739,327	-200,000	0,049	0,293
-738,312	220,968	-0,176	-0,206
-737,298	800,000	0,070	0,203
-736,283	-200,000	-0,120	-0,386
-735,269	-200,000	0,038	0,353
-734,254	3,019	-0,135	-0,071
-733,239	31,002	-0,220	0,137
-732,225	58,932	-0,261	-0,186
-731,210	256,070	-0,062	0,077
-730,196	111,217	-0,085	-0,075
-729,181	150,753	0,030	-0,029
-728,167	334,699	0,107	-0,152
-727,152	70,076	-0,068	-0,051
-726,137	-68,258	-0,127	0,036
-725,123	-110,306	0,048	0,007
-724,108	181,417	-0,019	-0,020
-723,094	38,178	-0,068	-0,044
-722,079	-37,842	0,117	-0,045
-721,064	800,000	0,007	0,021
-720,050	-200,000	0,016	-0,089
-719,035	800,000	0,034	0,095
-718,021	-36,926	-0,090	-0,035
-717,006	161,056	-0,110	-0,112
-715,991	-19,378	-0,140	0,063
-714,977	800,000	-0,030	-0,069
-713,962	-102,318	0,125	0,022
-712,948	328,280	-0,027	0,038
-711,933	541,694	-0,036	-0,063
-710,918	-52,807	-0,102	-0,034
-709,904	135,646	-0,026	0,024
-708,889	-153,658	-0,113	-0,006
-707,875	-5,620	-0,078	-0,039
-706,860	199,173	-0,076	-0,084
-705,845	800,000	-0,038	-0,089
-704,831	-48,248	-0,066	-0,023
-703,816	800,000	0,039	0,088
-702,802	571,692	0,031	-0,055
-701,787	102,054	-0,109	-0,092
-700,772	60,520	-0,076	-0,054
-699,758	39,080	0,130	0,084
-698,743	-94,198	0,227	0,045
-697,729	-176,690	-0,182	0,003
-696,714	80,459	0,029	-0,022
-695,699	-95,639	0,027	-0,005
-694,685	183,580	-0,028	0,030
-693,670	-55,233	-0,131	0,042
-692,656	-200,000	0,008	-0,084
-691,641	141,091	0,022	-0,021
-690,627	591,623	0,042	0,076
-689,612	-200,000	0,015	0,106
-688,597	-118,945	0,065	-0,008
-687,583	-200,000	-0,041	-0,227
-686,568	118,228	-0,077	-0,069
-685,554	-200,000	0,007	-0,045
-684,539	800,000	0,028	-0,060
-683,524	-96,535	0,183	0,035
-682,510	144,557	-0,034	-0,033
-681,495	-6,911	0,041	0,020
-680,481	222,301	-0,105	-0,122
-679,466	513,428	-0,043	0,073
-678,451	45,335	0,058	-0,039
-677,437	800,000	0,031	-0,073
-676,422	800,000	-0,046	-0,112
-675,408	263,214	-0,087	-0,110
-674,393	-200,000	-0,020	0,159
-673,378	-200,000	-0,008	0,091
-672,364	299,469	-0,133	-0,178
-671,349	369,875	0,036	-0,053
-670,335	-20,797	0,083	-0,037
-669,320	-49,277	0,104	-0,036
-668,305	-54,323	-0,093	0,030
-667,291	26,728	-0,077	-0,047
-666,276	800,000	0,015	0,034
-665,262	-200,000	-0,004	-0,115
-664,247	753,380	-0,102	-0,202
-663,232	-40,492	0,046	0,017
-662,218	711,698	-0,009	0,018
-661,203	800,000	-0,050	0,140
-660,189	-200,000	0,002	0,074
-659,174	-200,000	0,016	-0,107
-658,159	22,250	-0,087	-0,051
-657,145	-108,929	-0,047	0,007
-656,130	-31,181	0,031	-0,013
-655,116	-94,611	-0,117	-0,023
-654,101	800,000	0,025	0,070
-653,086	800,000	0,018	0,052
-652,072	800,000	0,047	0,108
-651,057	-200,000	0,008	-0,106
-650,043	800,000	-0,030	-0,062
-649,028	-75,245	0,041	-0,011
-648,014	-200,000	0,014	0,067
-646,999	423,419	-0,024	-0,038
-645,984	-100,652	0,108	0,019
-644,970	275,763	-0,092	-0,119
-643,955	-22,010	-0,158	0,069
-642,941	672,774	-0,060	-0,112
-641,926	-200,000	-0,033	-0,126
-640,911	23,794	0,039	0,023
-639,897	800,000	-0,033	-0,083
-638,882	800,000	-0,074	0,177
-637,868	-5,718	0,065	-0,032
-636,853	458,454	-0,098	-0,159
-635,838	-91,291	0,064	0,013
-634,824	-75,649	-0,054	0,014
-633,809	-136,885	0,105	-0,009
-632,795	800,000	0,031	-0,064
-631,780	118,499	0,081	0,072
-630,765	-200,000	0,003	0,052
-629,751	-131,838	-0,040	-0,004
-628,736	78,820	-0,107	-0,083
-627,722	53,871	0,051	-0,035
-626,707	-76,796	0,044	0,011
-625,692	-136,773	0,126	-0,010
-624,678	101,732	0,076	0,064
-623,663	-30,222	-0,081	-0,033
-622,649	685,259	-0,003	0,007
-621,634	-200,000	-0,021	-0,086
-620,619	-180,450	-0,107	-0,002
-619,605	-99,478	0,034	-0,006
-618,590	-37,261	0,109	-0,042
-617,576	800,000	0,024	0,051
-616,561	800,000	-0,020	0,040
-615,546	-8,359	-0,141	-0,068
-614,532	742,163	0,065	-0,127
-613,517	-136,817	0,072	0,006
-612,503	-14,410	0,079	-0,037
-611,488	338,920	-0,028	0,040
-610,474	-134,969	0,131	0,011
-609,459	800,000	-0,043	0,108
-608,444	-15,214	0,087	0,040
-607,430	145,936	-0,135	-0,131
-606,415	-156,666	-0,043	0,002
-605,401	-20,224	0,064	-0,028
-604,386	800,000	-0,053	0,152
-603,371	-68,562	-0,071	0,020
-602,357	-141,242	-0,050	-0,004
-601,342	-34,890	0,047	0,019
-600,328	-69,604	-0,069	-0,019
-599,313	21,628	-0,109	-0,064
-598,298	-200,000	-0,020	-0,075
-597,284	31,260	-0,054	0,033
-596,269	-68,831	0,088	0,024
-595,255	-29,736	-0,029	0,012
-594,240	-110,144	-0,127	0,019
-593,225	125,197	-0,078	-0,071
-592,211	292,286	-0,092	-0,121
-591,196	30,907	-0,103	-0,064
-590,182	-200,000	-0,008	-0,090
-589,167	-33,108	0,209	0,083
-588,152	50,504	0,052	-0,036
-587,138	132,269	0,062	-0,058
-586,123	-86,398	-0,052	0,012
-585,109	-200,000	0,004	0,017
-584,094	-142,405	-0,156	-0,011
-583,079	-85,097	0,070	-0,016
-582,065	309,382	0,111	0,151
-581,050	196,814	-0,036	0,039
-580,036	288,034	0,016	-0,021
-579,021	776,369	0,024	-0,049
-578,006	29,823	-0,075	-0,046
-576,992	800,000	-0,034	-0,089
-575,977	-200,000	-0,002	0,027
-574,963	30,841	0,106	-0,065
-573,948	800,000	0,051	0,113
-572,934	199,841	0,052	0,057
-571,919	206,069	-0,058	-0,065
-570,904	-200,000	-0,006	-0,127
-569,890	800,000	-0,008	-0,024
-568,875	20,226	0,135	-0,079
-567,861	800,000	0,034	0,106
-566,846	800,000	0,014	0,042
-565,831	800,000	-0,036	-0,103
-564,817	595,272	-0,038	-0,068
-563,802	-157,195	-0,036	-0,002
-562,788	679,656	-0,019	-0,036
-561,773	-200,000	-0,004	-0,039
-560,758	-0,692	-0,071	0,036
-559,744	67,116	-0,048	0,035
-558,729	800,000	-0,068	0,200
-557,715	-21,069	0,064	0,028
-556,700	120,167	-0,028	-0,025
-555,685	-169,575	0,040	-0,001
-554,671	-68,829	0,047	0,013
-553,656	-99,163	0,068	0,012
-552,642	381,325	-0,060	0,089
-551,627	148,769	0,078	0,076
-550,612	191,287	0,122	0,133
-549,598	291,159	-0,093	-0,122
-548,583	234,856	-0,041	-0,049
-547,569	-62,818	-0,099	-0,029
-546,554	-200,000	-0,003	0,014
-545,539	-200,000	0,011	0,150
-544,525	233,804	-0,065	-0,078
-543,510	6,535	-0,068	-0,036
-542,496	-125,329	-0,140	-0,015
-541,481	37,816	-0,037	0,023
-540,466	800,000	0,030	0,088
-539,452	519,407	0,064	-0,108
-538,437	-16,866	0,125	0,057
-537,423	192,878	-0,078	-0,085
-536,408	-200,000	-0,008	0,153
-535,393	596,559	0,029	-0,052
-534,379	295,609	0,023	0,030
-533,364	265,104	0,033	-0,041
-532,350	623,895	0,034	0,062
-531,335	1,920	0,039	0,020
-530,321	338,545	-0,073	0,103
-529,306	645,120	-0,003	0,006
-528,291	-25,729	-0,044	-0,019
-527,277	-89,240	-0,138	0,029
-526,262	358,412	-0,050	-0,072
-525,248	143,147	0,116	0,111
-524,233	800,000	0,041	-0,086
-523,218	800,000	0,054	0,142
-522,204	800,000	-0,025	-0,075
-521,189	323,808	0,026	0,036
-520,175	-50,379	-0,075	0,025
-519,160	-17,414	-0,060	-0,027
-518,145	617,954	0,084	0,153
-517,131	-93,448	0,102	0,020
-516,116	-33,083	0,076	0,030
-515,102	76,275	0,016	0,012
-514,087	-200,000	0,012	-0,157
-513,072	218,681	-0,093	-0,107
-512,058	123,643	-0,092	0,084
-511,043	-4,489	0,141	-0,070
-510,029	800,000	0,033	0,085
-509,014	-76,121	-0,049	0,012
-507,999	-179,130	-0,018	-0,000
-506,985	-200,000	-0,007	0,053
-505,970	800,000	0,083	-0,171
-504,956	169,643	-0,132	-0,136
-503,941	209,775	0,038	0,043
-502,926	-200,000	-0,010	0,104
-501,912	-200,000	-0,001	-0,073
-500,897	215,065	-0,121	-0,139
-499,883	80,683	-0,035	-0,027
-498,868	-119,791	-0,115	-0,014
-497,853	323,525	-0,052	0,072
-496,839	63,038	0,069	0,050
-495,824	-127,531	-0,050	-0,005
-494,810	616,029	-0,022	0,039
-493,795	800,000	0,016	0,050
-492,781	800,000	-0,021	-0,066
-491,766	9,532	-0,204	-0,111
-490,751	169,397	-0,045	0,046
-489,737	60,004	0,048	-0,034
-488,722	-138,593	0,102	0,008
-487,708	-80,072	0,047	0,011
-486,693	-200,000	-0,005	0,064
-485,678	789,946	-0,036	0,072
-484,664	-49,027	-0,142	0,049
-483,649	-200,000	-0,012	-0,157
-482,635	-97,469	0,095	-0,018
-481,620	-38,053	0,054	0,021
-480,605	-200,000	-0,020	0,122
-479,591	222,647	0,092	0,106
-478,576	-144,208	0,097	-0,006
-477,562	-200,000	0,039	-0,143
-476,547	134,706	-0,066	-0,061
-475,532	-200,000	0,012	0,055
-474,518	-45,606	0,070	-0,025
-473,503	-61,524	0,084	0,025
-472,489	715,447	-0,062	-0,119
-471,474	33,520	0,078	0,049
-470,459	-75,740	0,114	-0,029
-469,445	-128,692	-0,177	-0,018
-468,430	-200,000	0,014	0,094
-467,416	-53,411	-0,053	-0,017
-466,401	191,288	0,077	0,083
-465,386	-141,608	0,129	0,009
-464,372	-200,000	-0,005	0,048
-463,357	-63,876	-0,085	-0,025
-462,343	69,166	-0,204	-0,151
-461,328	-200,000	0,015	0,136
-460,313	691,133	-0,056	-0,105
-459,299	-78,052	-0,075	0,019
-458,284	84,608	-0,021	0,017
-457,270	335,280	-0,060	-0,084
-456,255	-79,602	-0,148	-0,036
-455,241	274,584	0,083	-0,106
-454,226	24,214	0,064	0,038
-453,211	-200,000	0,014	-0,096
-452,197	-140,035	-0,166	-0,012
-451,182	-59,111	0,014	-0,004
-450,168	422,376	0,086	0,133
-449,153	273,312	0,055	-0,070
-448,138	117,219	-0,072	0,064
-447,124	271,592	0,068	0,086
-446,109	110,034	0,078	-0,067
-445,095	800,000	-0,049	0,102
-444,080	800,000	0,040	0,115
-443,065	-58,121	-0,186	0,058
-442,051	144,167	0,054	0,051
-441,036	460,115	-0,090	0,145
-440,022	-200,000	-0,014	-0,069
-439,007	93,543	0,041	-0,033
-437,992	2,237	-0,116	-0,060
-436,978	34,027	0,043	-0,027
-435,963	-111,809	-0,049	-0,007
-434,949	279,264	-0,075	0,096
-433,934	-200,000	-0,005	0,093
-432,919	800,000	0,019	0,044
-431,905	-45,697	-0,072	-0,025
-430,890	-104,148	0,105	0,017
-429,876	-42,243	-0,014	0,005
-428,861	-111,202	-0,006	-0,001
-427,846	-200,000	0,000	0,209
-426,832	156,088	-0,120	-0,119
-425,817	-119,905	-0,056	0,007
-424,803	-126,968	0,064	-0,007
-423,788	-200,000	-0,052	-0,197
-422,773	800,000	0,017	0,045
-421,759	-200,000	0,000	-0,055
-420,744	-200,000	-0,013	0,072
-419,730	146,607	-0,006	0,006
-418,715	800,000	0,049	-0,137
-417,701	53,528	0,123	-0,084
-416,686	131,649	-0,103	0,095
-415,671	-67,226	-0,060	-0,017
-414,657	163,326	0,028	0,029
-413,642	-200,000	-0,012	0,072
-412,628	169,418	-0,076	-0,078
-411,613	-24,020	-0,165	-0,071
-410,598	800,000	0,019	-0,047
-409,584	121,347	0,056	0,050
-408,569	117,569	0,055	-0,048
-407,555	-12,675	0,135	0,063
-406,540	-200,000	-0,012	-0,048
-405,525	-4,926	-0,122	0,060
-404,511	19,363	0,024	0,014
-403,496	-200,000	0,003	0,064
-402,482	217,070	0,077	-0,088
-401,467	800,000	0,048	0,120
-400,452	166,936	-0,029	0,030
-399,438	-200,000	0,018	0,069
-398,423	-200,000	0,005	-0,149
-397,409	-200,000	0,021	0,081
-396,394	-200,000	-0,009	0,049
-395,379	95,693	0,040	-0,033
-394,365	-67,564	0,099	0,028
-393,350	-200,000	0,010	-0,047
-392,336	44,314	0,061	-0,040
-391,321	-200,000	0,007	-0,101
-390,306	-200,000	-0,006	-0,019
-389,292	93,376	-0,081	0,065
-388,277	28,959	-0,033	0,020
-387,263	-94,218	0,107	-0,021
-386,248	64,524	0,061	-0,044
-385,233	-27,094	-0,056	0,023
-384,219	-158,503	-0,184	0,007
-383,204	-133,507	0,044	0,004
-382,190	800,000	-0,121	-0,308
-381,175	42,142	0,032	-0,021
-380,160	197,125	0,061	0,067
-379,146	111,204	-0,055	-0,048
-378,131	-200,000	0,000	0,033
-377,117	118,543	-0,085	0,076
-376,102	782,654	0,043	-0,085
-375,088	-200,000	-0,012	-0,076
-374,073	-78,553	-0,048	0,012
-373,058	-161,827	-0,074	0,003
-372,044	68,346	0,080	0,059
-371,029	-85,775	0,060	-0,013
-370,015	-30,242	0,156	-0,063
-369,000	-57,944	-0,129	0,040
-367,985	-92,388	-0,129	0,026
-366,971	33,920	-0,030	-0,019
-365,956	800,000	0,035	-0,088
-364,942	-26,235	0,036	0,015
-363,927	385,431	0,056	-0,083
-362,912	800,000	0,044	-0,106
-361,898	193,260	-0,017	-0,018
-360,883	652,096	-0,058	-0,107
-359,869	800,000	-0,065	-0,144
-358,854	35,955	-0,058	-0,036
-357,839	800,000	0,004	0,011
-356,825	441,298	0,034	-0,054
-355,810	662,367	-0,011	0,021
-354,796	-200,000	0,019	0,168
-353,781	-200,000	0,010	0,042
-352,766	-53,043	0,098	-0,032
-351,752	26,728	0,089	0,053
-350,737	585,120	0,033	-0,059
-349,723	-121,817	0,012	0,001
-348,708	81,309	0,050	-0,039
-347,693	69,466	0,032	-0,023
-346,679	-29,040	-0,114	0,046
-345,664	-53,759	0,132	-0,043
-344,650	-10,807	-0,007	-0,003
-343,635	-200,000	0,016	0,060
-342,620	114,418	-0,048	-0,042
-341,606	122,813	0,075	-0,067
-340,591	83,231	-0,051	0,040
-339,577	-117,838	0,100	-0,013
-338,562	208,850	0,087	0,097
-337,548	186,994	0,036	0,038
-336,533	-8,968	0,098	0,047
-335,518	-160,850	0,167	0,006
-334,504	14,036	0,151	-0,084
-333,489	111,006	0,096	0,083
-332,475	-72,823	0,109	-0,028
-331,460	128,858	-0,071	-0,065
-330,445	82,294	0,069	-0,054
-329,431	-148,267	-0,044	0,003
-328,416	-200,000	-0,019	0,118
-327,402	527,474	0,065	0,110
-326,387	-31,320	-0,059	-0,024
-325,372	-141,729	-0,082	-0,006
-324,358	6,094	0,052	-0,027
-323,343	-160,984	0,110	-0,004
-322,329	456,966	0,020	0,031
-321,314	800,000	0,007	0,022
-320,299	-200,000	0,008	0,134
-319,285	800,000	-0,019	0,041
-318,270	-127,000	0,072	-0,008
-317,256	-178,320	-0,062	0,001
-316,241	-147,741	0,107	-0,006
-315,226	277,028	0,062	0,079
-314,212	-78,556	0,137	0,033
-313,197	-200,000	-0,005	0,037
-312,183	40,138	0,134	0,086
-311,168	-27,817	-0,050	-0,021
-310,153	-118,847	-0,064	-0,008
-309,139	800,000	0,035	-0,102
-308,124	-56,166	0,049	-0,015
-307,110	-200,000	0,050	0,181
-306,095	305,573	0,067	0,089
-305,080	-200,000	-0,034	-0,123
-304,066	-200,000	-0,002	-0,015
-303,051	800,000	-0,013	-0,041
-302,037	26,563	-0,085	0,050
-301,022	-16,694	0,157	0,071
-300,008	-45,844	0,053	0,019
-298,993	416,508	0,044	0,067
-297,978	-105,351	0,073	-0,012
-296,964	-24,745	0,073	0,031
-295,949	124,701	-0,041	-0,037
-294,935	-88,198	-0,119	-0,025
-293,920	135,929	0,036	0,034
-292,905	337,693	-0,085	0,119
-291,891	272,920	0,074	0,093
-290,876	-82,929	-0,096	-0,022
-289,862	616,999	-0,039	0,069
-288,847	-61,237	-0,099	0,030
-287,832	-200,000	0,006	0,084
-286,818	800,000	0,034	0,087
-285,803	24,824	0,164	0,097
-284,789	-26,539	-0,041	-0,017
-283,774	-61,236	0,079	0,024
-282,759	-53,464	-0,092	0,030
-281,745	215,381	0,049	-0,055
-280,730	-200,000	-0,003	0,024
-279,716	-200,000	-0,003	-0,076
-278,701	-13,692	-0,179	0,083
-277,686	800,000	0,035	-0,096
-276,672	473,359	-0,042	0,067
-275,657	45,317	-0,017	-0,011
-274,643	-85,220	0,084	-0,019
-273,628	270,180	-0,054	-0,068
-272,613	-188,934	0,082	0,001
-271,599	-200,000	0,011	-0,044
-270,584	182,841	0,157	0,165
-269,570	68,164	-0,085	-0,062
-268,555	-134,005	-0,063	-0,005
-267,540	19,954	0,072	-0,041
-266,526	7,880	-0,091	0,049
-265,511	800,000	-0,035	0,074
-264,497	162,729	0,027	0,027
-263,482	-54,214	-0,065	0,021
-262,467	-200,000	-0,003	0,120
-261,453	129,285	-0,035	0,032
-260,438	49,482	-0,075	-0,050
-259,424	428,141	0,048	-0,074
-258,409	8,682	-0,126	-0,067
-257,395	112,442	0,025	-0,021
-256,380	478,374	0,028	0,046
-255,365	-4,833	0,091	0,045
-254,351	279,313	-0,069	0,088
-253,336	-34,215	0,124	-0,048
-252,322	344,682	-0,048	-0,067
-251,307	196,451	-0,110	-0,120
-250,292	-53,563	0,116	-0,038
-249,278	320,132	0,050	-0,068
-248,263	-51,547	-0,007	-0,002
-247,249	8,292	0,057	0,031
-246,234	800,000	-0,018	0,051
-245,219	58,159	0,139	-0,097
-244,205	800,000	-0,050	-0,108
-243,190	-100,015	-0,054	0,010
-242,176	45,997	-0,062	0,041
-241,161	-200,000	-0,029	0,156
-240,146	800,000	0,067	-0,179
-239,132	-148,543	-0,110	-0,006
-238,117	119,436	0,042	0,037
-237,103	-75,703	-0,081	0,020
-236,088	-76,689	-0,037	0,009
-235,073	-200,000	0,001	0,035
-234,059	31,124	0,130	0,080
-233,044	705,180	0,018	-0,035
-232,030	11,788	-0,084	0,046
-231,015	316,456	-0,050	-0,068
-230,000	370,668	-0,073	0,105
-228,986	-52,907	-0,163	-0,053
-227,971	-36,914	0,097	-0,037
-226,957	-161,970	0,154	-0,005
-225,942	-125,848	-0,085	-0,009
-224,927	-144,570	0,054	0,004
-223,913	23,547	-0,151	-0,088
-222,898	87,607	0,060	0,048
-221,884	-74,695	-0,108	0,028
-220,869	114,430	0,032	0,028
-219,855	800,000	0,034	0,084
-218,840	-135,769	-0,132	0,011
-217,825	-200,000	0,004	-0,037
-216,811	427,840	-0,070	-0,107
-215,796	-74,993	0,081	0,020
-214,782	800,000	0,063	-0,144
-213,767	-122,462	-0,133	-0,015
-212,752	-27,605	0,057	0,024
-211,738	116,128	0,031	0,027
-210,723	282,332	-0,041	-0,052
-209,709	-68,694	-0,081	-0,022
-208,694	-200,000	-0,006	0,038
-207,679	800,000	-0,061	-0,127
-206,665	-29,036	0,193	0,079
-205,650	232,383	0,090	0,105
-204,636	220,990	0,150	0,171
-203,621	-25,712	-0,146	-0,061
-202,606	739,872	-0,066	-0,126
-201,592	83,102	0,060	0,047
-200,577	800,000	0,025	-0,052
-199,563	122,755	0,015	-0,013
-198,548	124,002	0,052	0,047
-197,533	-119,214	-0,036	0,004
-196,519	22,363	0,134	-0,078
-195,504	800,000	0,011	-0,033
-194,490	-151,793	-0,085	0,004
-193,475	298,845	-0,047	-0,061
-192,460	-2,618	0,103	-0,051
-191,446	800,000	0,008	-0,021
-190,431	-12,725	-0,065	-0,030
-189,417	-200,000	-0,010	-0,090
-188,402	208,890	0,064	0,072
-187,387	18,638	-0,008	-0,004
-186,373	-5,880	-0,016	-0,008
-185,358	-200,000	0,007	-0,028
-184,344	103,988	-0,051	0,042
-183,329	10,330	0,163	-0,088
-182,315	-200,000	-0,001	0,011
-181,300	88,730	-0,102	-0,081
-180,285	-111,572	-0,102	-0,015
-179,271	-141,251	0,014	0,001
-178,256	800,000	0,024	-0,061
-177,242	250,906	-0,090	0,110
-176,227	-200,000	0,017	0,068
-175,212	51,506	0,047	0,032
-174,198	-52,965	-0,040	0,013
-173,183	-200,000	0,017	-0,071
-172,169	800,000	0,027	-0,082
-171,154	-200,000	-0,004	0,162
-170,139	-200,000	0,017	-0,091
-169,125	12,094	-0,078	-0,043
-168,110	-200,000	-0,016	0,078
-167,096	-200,000	0,010	-0,039
-166,081	15,085	-0,106	0,059
-165,066	197,171	-0,077	-0,084
-164,052	49,530	-0,037	-0,025
-163,037	800,000	0,012	-0,037
-162,023	225,623	0,022	0,026
-161,008	-125,357	0,235	-0,025
-159,993	-80,189	-0,048	-0,011
-158,979	-1,740	0,043	0,022
-157,964	169,800	-0,077	0,079
-156,950	295,548	-0,018	-0,023
-155,935	-29,237	0,009	-0,004
-154,920	-200,000	0,043	0,187
-153,906	800,000	-0,046	0,113
-152,891	134,107	0,069	0,063
-151,877	-200,000	-0,012	-0,070
-150,862	661,380	-0,105	-0,194
-149,847	-127,038	0,063	0,007
-148,833	-200,000	0,029	-0,149
-147,818	-69,017	-0,076	-0,021
-146,804	-116,990	0,139	-0,018
-145,789	-200,000	0,006	0,097
-144,775	513,072	-0,013	-0,021
-143,760	-109,043	-0,127	-0,019
-142,745	-200,000	-0,005	-0,123
-141,731	329,734	0,019	-0,027
-140,716	280,459	-0,077	0,098
-139,702	-134,245	-0,090	0,008
-138,687	-64,363	0,053	-0,015
-137,672	-66,082	-0,141	0,040
-136,658	-120,261	-0,109	0,013
-135,643	-171,050	-0,089	-0,002
-134,629	-114,715	-0,112	0,015
-133,614	-121,762	0,042	0,005
-132,599	209,959	0,082	-0,092
-131,585	464,150	0,013	0,021
-130,570	-149,299	-0,041	0,002
-129,556	74,135	0,091	-0,067
-128,541	-200,000	0,002	-0,110
-127,526	38,503	0,080	0,051
-126,512	80,118	0,093	0,071
-125,497	498,433	0,029	-0,048
-124,483	-92,070	0,083	0,016
-123,468	-91,843	-0,145	-0,029
-122,453	-8,494	-0,079	-0,037
-121,439	-200,000	0,009	0,057
-120,424	269,994	-0,078	-0,098
-119,410	-57,506	0,112	-0,035
-118,395	206,019	0,033	-0,036
-117,380	-200,000	0,008	0,088
-116,366	49,145	-0,096	0,064
-115,351	-200,000	0,008	0,027
-114,337	-200,000	-0,043	-0,203
-113,322	-200,000	-0,008	-0,054
-112,307	800,000	-0,020	0,060
-111,293	69,449	0,010	-0,008
-110,278	-200,000	-0,022	-0,146
-109,264	800,000	0,029	-0,064
-108,249	-200,000	-0,035	-0,159
-107,234	267,063	0,024	-0,030
-106,220	156,977	0,041	-0,040
-105,205	156,718	-0,061	0,059
-104,191	149,034	0,041	-0,039
-103,176	384,076	-0,052	0,076
-102,162	-200,000	-0,007	-0,027
-101,147	19,990	0,086	0,049
-100,132	-22,653	-0,115	0,049
-99,118	223,335	-0,151	-0,172
-98,103	-61,317	0,124	-0,037
-97,089	50,624	0,068	0,046
-96,074	800,000	-0,042	0,129
-95,059	-200,000	0,016	-0,070
-94,045	148,276	-0,071	0,068
-93,030	-150,590	0,133	-0,007
-92,016	800,000	-0,011	-0,024
-91,001	-200,000	-0,015	-0,099
-89,986	-179,231	0,095	-0,001
-88,972	-200,000	0,013	-0,051
-87,957	-117,042	0,181	0,023
-86,943	452,707	-0,031	-0,050
-85,928	173,882	0,029	0,030
-84,913	-200,000	0,021	-0,070
-83,899	-46,998	-0,091	-0,031
-82,884	-200,000	0,066	0,000
-81,870	748,567	0,086	0,165
-80,855	182,986	-0,132	-0,139
-79,840	163,923	0,010	-0,010
-78,826	29,263	0,030	-0,018
-77,811	-200,000	-0,007	0,084
-76,797	800,000	0,034	0,088
-75,782	15,960	0,038	0,021
-74,767	435,997	0,022	-0,034
-73,753	-112,245	0,040	0,006
-72,738	800,000	0,025	0,064
-71,724	349,010	-0,083	-0,116
-70,709	180,600	-0,042	-0,044
-69,694	-128,188	0,104	0,010
-68,680	-79,382	0,026	0,006
-67,665	-200,000	-0,001	0,011
-66,651	-141,658	0,059	0,004
-65,636	206,689	0,015	0,017
-64,622	160,503	0,030	0,030
-63,607	768,255	-0,056	-0,108
-62,592	-200,000	-0,030	0,096
-61,578	-117,801	0,026	0,003
-60,563	733,626	-0,050	0,095
-59,549	-200,000	0,019	0,126
-58,534	0,252	-1,700	-0,856
-57,519	374,783	-1,447	-2,094
-56,505	-200,000	-0,528	-4,565
-55,490	243,590	0,930	1,106
-54,476	800,000	5,010	11,438
-53,461	-200,000	19,232	320,255
-52,446	-200,000	740,825	2334,317
-51,432	573,146	1655,586	2868,664
-50,417	78,248	1671,108	1261,632
-49,403	21,271	1543,963	885,427
-48,388	15,179	1466,464	811,360
-47,373	17,941	1456,721	819,285
-46,359	16,676	1446,662	807,526
-45,344	13,421	1442,042	789,322
-44,330	13,401	1439,867	788,004
-43,315	13,357	1438,365	786,940
-42,300	13,393	1436,463	786,042
-41,286	13,416	1435,298	785,482
-40,271	13,339	1434,082	784,418
-39,257	13,322	1432,730	783,567
-38,242	13,385	1431,361	783,087
-37,227	13,402	1430,162	782,482
-36,213	13,389	1429,073	781,792
-35,198	13,387	1427,676	780,989
-34,184	13,405	1426,973	780,657
-33,169	13,372	1425,580	779,708
-32,154	13,420	1424,374	779,247
-31,140	13,436	1423,234	778,666
-30,125	13,458	1422,072	778,105
-29,111	13,418	1420,801	777,187
-28,096	13,384	1419,719	776,405
-27,082	13,317	1418,667	775,483
-26,067	13,321	1417,518	774,841
-25,052	13,315	1416,650	774,308
-24,038	13,344	1415,523	773,799
-23,023	13,312	1414,505	773,064
-22,009	13,305	1413,446	772,420
-20,994	13,285	1412,648	771,861
-19,979	13,307	1411,783	771,458
-18,965	13,272	1410,824	770,742
-17,950	13,283	1409,737	770,169
-16,936	13,259	1408,985	769,614
-15,921	13,247	1407,621	768,780
-14,906	13,250	1406,845	768,341
-13,892	13,270	1406,001	767,942
-12,877	13,255	1404,892	767,238
-11,863	13,235	1404,333	766,807
-10,848	13,234	1403,239	766,177
-9,833	13,209	1402,466	765,608
-8,819	13,146	1401,667	764,848
-7,804	13,154	1400,790	764,376
-6,790	13,201	1399,477	763,847
-5,775	13,145	1398,639	763,101
-4,760	13,180	1397,565	762,644
-3,746	13,141	1396,631	761,926
-2,731	13,171	1395,831	761,595
-1,717	13,118	1395,006	760,872
-0,702	13,113	1393,222	759,844
0,313	16,995	1309,871	732,356
1,327	33,287	703,708	431,094
2,342	51,124	123,275	82,590
3,356	3,811	16,635	8,567
4,371	13,143	3,238	1,768
5,386	-15,226	0,621	0,280
6,400	-200,000	0,008	0,166
7,415	747,237	-0,077	-0,147
8,429	102,553	-0,284	-0,235
9,444	-41,300	-0,209	-0,076
10,459	105,347	-0,308	-0,257
11,473	50,902	-0,255	-0,171
12,488	-67,667	-0,277	-0,076
13,502	-21,560	-0,375	-0,161
14,517	337,267	-0,211	-0,291
15,531	159,630	-0,302	-0,297
16,546	147,466	-0,352	-0,335
17,561	69,050	-0,444	-0,322
18,575	170,654	-0,110	-0,112
19,590	14,692	-0,208	-0,115
20,604	-44,882	-0,175	-0,061
21,619	-6,530	-0,470	-0,225
22,634	96,332	-0,486	-0,392
23,648	53,271	-0,540	-0,365
24,663	114,078	-0,392	-0,337
25,677	120,157	-0,306	-0,268
26,692	87,014	-0,360	-0,281
27,707	130,901	-0,319	-0,289
28,721	274,207	-0,302	-0,378
29,736	243,274	-0,302	-0,358
30,750	221,505	-0,354	-0,402
31,765	166,843	-0,327	-0,328
32,780	89,820	-0,402	-0,317
33,794	-43,223	-0,306	-0,109
34,809	108,633	-0,245	-0,206
35,823	66,950	-0,239	-0,171
36,838	29,148	-0,280	-0,167
37,853	128,953	-0,341	-0,307
38,867	184,524	-0,266	-0,279
39,882	230,569	-0,258	-0,298
40,896	174,278	-0,253	-0,258
41,911	335,890	-0,306	-0,419
42,926	17,233	-0,401	-0,224
43,940	33,251	-0,378	-0,230
44,955	-10,057	-0,398	-0,186
45,969	28,454	-0,337	-0,200
46,984	0,067	-0,338	-0,169
47,999	57,120	-0,275	-0,189
49,013	69,886	-0,298	-0,217
50,028	26,328	-0,397	-0,233
51,042	-48,890	-0,241	-0,081
52,057	65,810	-0,394	-0,281
53,071	110,002	-0,346	-0,292
54,086	74,242	-0,317	-0,234
55,101	76,759	-0,261	-0,195
56,115	-4,240	-0,393	-0,191
57,130	75,230	-0,388	-0,288
58,144	131,684	-0,345	-0,313
59,159	-52,977	-0,479	-0,154
60,174	149,079	-0,360	-0,343
61,188	88,982	-0,314	-0,246
62,203	81,223	-0,283	-0,215
63,217	43,833	-0,308	-0,198
64,232	-36,511	-0,405	-0,153
65,247	-27,010	-0,359	-0,147
66,261	-30,553	-0,366	-0,145
67,276	110,564	-0,282	-0,238
68,290	74,962	-0,311	-0,230
69,305	-33,378	-0,325	-0,126
70,320	-10,078	-0,443	-0,206
71,334	43,457	-0,246	-0,158
72,349	219,788	-0,230	-0,259
73,363	-62,000	-0,440	-0,128
74,378	51,272	-0,369	-0,246
75,393	55,270	-0,269	-0,183
76,407	26,462	-0,298	-0,175
77,422	134,113	-0,214	-0,195
78,436	0,082	-0,342	-0,171
79,451	619,748	-0,178	-0,316
80,466	241,607	-0,268	-0,315
81,480	222,880	-0,292	-0,332
82,495	102,576	-0,315	-0,258
83,509	13,897	-0,309	-0,168
84,524	-26,976	-0,231	-0,094
85,539	65,299	-0,238	-0,169
86,553	5,518	-0,328	-0,170
87,568	223,575	-0,191	-0,217
88,582	68,401	-0,289	-0,208
89,597	144,856	-0,181	-0,170
90,611	19,166	-0,283	-0,159
91,626	9,244	-0,335	-0,177
92,641	-73,271	-0,232	-0,059
93,655	118,635	-0,187	-0,162
94,670	192,727	-0,295	-0,313
95,684	41,618	-0,323	-0,205
96,699	107,872	-0,212	-0,178
97,714	-1,884	-0,246	-0,121
98,728	-54,164	-0,182	-0,058
99,743	-15,936	-0,232	-0,103
100,757	800,000	-0,149	-0,347
101,772	72,003	-0,274	-0,200
102,787	345,189	-0,300	-0,414
103,801	137,421	-0,251	-0,230
104,816	-71,046	-0,319	-0,084
105,830	800,000	-0,136	-0,284
106,845	59,582	-0,195	-0,134
107,860	156,339	-0,243	-0,235
108,874	29,835	-0,251	-0,149
109,889	176,758	-0,352	-0,359
110,903	84,029	-0,270	-0,206
111,918	-38,667	-0,240	-0,088
112,933	120,862	-0,173	-0,150
113,947	64,148	-0,273	-0,192
114,962	177,830	-0,229	-0,234
115,976	238,342	-0,267	-0,311
116,991	22,695	-0,395	-0,226
118,006	132,419	-0,175	-0,158
119,020	153,407	-0,168	-0,161
120,035	800,000	-0,180	-0,361
121,049	800,000	-0,091	-0,213
122,064	11,044	-0,227	-0,121
123,079	-102,442	-0,271	-0,045
124,093	9,433	-0,276	-0,146
125,108	234,591	-0,169	-0,195
126,122	336,609	-0,180	-0,245
127,137	13,083	-0,151	-0,082
128,151	-11,170	-0,194	-0,089
129,166	-40,624	-0,244	-0,088
130,181	-51,717	-0,242	-0,078
131,195	170,907	-0,260	-0,261
132,210	181,715	-0,249	-0,256
133,224	20,797	-0,294	-0,166
134,239	226,982	-0,229	-0,261
135,254	323,878	-0,188	-0,251
136,268	5,180	-0,206	-0,106
137,283	141,088	-0,186	-0,172
138,297	134,076	-0,307	-0,278
139,312	69,195	-0,313	-0,225
140,327	452,128	-0,164	-0,254
141,341	48,154	-0,292	-0,191
142,356	149,570	-0,240	-0,227
143,370	-86,433	-0,234	-0,050
144,385	-75,146	-0,321	-0,080
145,400	-5,213	-0,304	-0,146
146,414	157,134	-0,215	-0,208
147,429	123,232	-0,265	-0,232
148,443	-2,273	-0,205	-0,100
149,458	104,673	-0,192	-0,158
150,473	113,471	-0,135	-0,115
151,487	-78,389	-0,311	-0,074
152,502	53,639	-0,256	-0,171
153,516	10,142	-0,339	-0,180
154,531	97,339	-0,207	-0,166
155,546	500,664	-0,104	-0,169
156,560	427,409	-0,116	-0,175
157,575	265,853	-0,127	-0,155
158,589	800,000	-0,137	-0,375
159,604	586,913	-0,140	-0,242
160,619	760,651	-0,137	-0,261
161,633	246,798	-0,117	-0,138
162,648	123,365	-0,262	-0,229
163,662	144,833	-0,224	-0,209
164,677	142,553	-0,121	-0,112
165,692	149,069	-0,181	-0,171
166,706	323,080	-0,209	-0,278
167,721	-69,662	-0,278	-0,074
168,735	204,878	-0,253	-0,274
169,750	87,087	-0,186	-0,144
170,764	44,814	-0,251	-0,161
171,779	426,010	-0,149	-0,225
172,794	43,408	-0,337	-0,214
173,808	13,072	-0,302	-0,162
174,823	67,765	-0,206	-0,147
175,837	-56,339	-0,384	-0,118
176,852	-65,201	-0,175	-0,049
177,867	-81,117	-0,273	-0,062
178,881	-32,637	-0,336	-0,130
179,896	-5,089	-0,200	-0,095
180,910	64,940	-0,186	-0,131
181,925	161,830	-0,179	-0,174
182,940	198,714	-0,185	-0,198
183,954	323,264	-0,151	-0,201
184,969	231,513	-0,182	-0,207
185,983	800,000	-0,060	-0,167
186,998	148,330	-0,241	-0,227
188,013	-67,854	-0,271	-0,073
189,027	82,728	-0,196	-0,148
190,042	226,154	-0,174	-0,197
191,056	224,671	-0,215	-0,243
192,071	75,841	-0,090	-0,066
193,086	198,848	-0,244	-0,261
194,100	-105,354	-0,228	-0,036
195,115	83,598	-0,091	-0,069
196,129	32,213	-0,147	-0,088
197,144	74,802	-0,282	-0,206
198,159	83,252	-0,282	-0,213
199,173	-71,301	-0,292	-0,076
200,188	174,055	-0,206	-0,207
201,202	-56,307	-0,131	-0,040
202,217	642,205	-0,070	-0,124
203,232	-86,889	-0,297	-0,062
204,246	220,323	-0,204	-0,227
205,261	1,045	-0,261	-0,130
206,275	154,246	-0,133	-0,127
207,290	414,464	-0,126	-0,187
208,304	500,758	-0,082	-0,132
209,319	-68,289	-0,191	-0,051
210,334	187,891	-0,163	-0,169
211,348	122,885	-0,183	-0,159
212,363	91,345	-0,163	-0,127
213,377	-17,340	-0,293	-0,128
214,392	112,969	-0,140	-0,118
215,407	249,442	-0,098	-0,116
216,421	169,570	-0,160	-0,159
217,436	-9,226	-0,212	-0,098
218,450	50,803	-0,295	-0,193
219,465	41,412	-0,298	-0,187
220,480	800,000	-0,132	-0,269
221,494	-26,128	-0,277	-0,113
222,509	117,217	-0,150	-0,128
223,523	153,899	-0,255	-0,242
224,538	206,775	-0,052	-0,057
225,553	87,231	-0,170	-0,130
226,567	357,581	-0,160	-0,223
227,582	-59,450	-0,172	-0,051
228,596	406,990	-0,162	-0,238
229,611	284,975	-0,123	-0,154
230,626	262,635	-0,196	-0,236
231,640	229,506	-0,172	-0,195
232,655	251,817	-0,113	-0,134
233,669	157,020	-0,120	-0,115
234,684	443,534	-0,168	-0,257
235,699	800,000	-0,111	-0,224
236,713	317,029	-0,221	-0,291
237,728	-54,475	-0,188	-0,059
238,742	33,266	-0,230	-0,138
239,757	110,663	-0,189	-0,157
240,772	77,795	-0,220	-0,162
241,786	130,317	-0,185	-0,164
242,801	-167,881	-0,196	0,005
243,815	3,375	-0,194	-0,098
244,830	3,098	-0,212	-0,106
245,844	229,524	-0,151	-0,171
246,859	13,583	-0,272	-0,146
247,874	158,570	-0,216	-0,207
248,888	391,004	-0,193	-0,279
249,903	102,560	-0,241	-0,195
250,917	-110,369	-0,170	0,024
251,932	336,104	-0,143	-0,193
252,947	800,000	-0,069	-0,149
253,961	21,441	-0,235	-0,132
254,976	-7,288	-0,214	-0,100
255,990	-57,210	-0,236	-0,072
257,005	96,961	-0,086	-0,068
258,020	-82,733	-0,233	-0,052
259,034	-132,267	-0,089	0,008
260,049	-161,782	-0,139	0,005
261,063	188,538	-0,152	-0,157
262,078	-57,121	-0,203	-0,062
263,093	-72,722	-0,225	-0,057
264,107	-69,219	-0,174	-0,046
265,122	135,872	-0,119	-0,107
266,136	279,832	-0,123	-0,152
267,151	-70,096	-0,193	-0,050
268,166	-67,156	-0,205	-0,056
269,180	800,000	-0,010	-0,025
270,195	31,556	-0,120	-0,071
271,209	509,144	-0,132	-0,213
272,224	-6,744	-0,125	-0,059
273,239	-108,686	-0,217	-0,032
274,253	-14,557	-0,108	-0,048
275,268	83,759	-0,264	-0,199
276,282	95,779	-0,145	-0,114
277,297	-133,329	-0,247	0,021
278,312	-87,439	-0,208	-0,043
279,326	800,000	-0,065	-0,158
280,341	351,551	-0,219	-0,300
281,355	178,663	-0,098	-0,099
282,370	-63,177	-0,177	0,050
283,384	-59,240	-0,103	-0,031
284,399	12,785	-0,129	-0,069
285,414	-48,896	-0,281	-0,092
286,428	605,648	-0,102	-0,176
287,443	800,000	-0,083	-0,168
288,457	51,581	-0,095	-0,062
289,472	261,383	-0,194	-0,233
290,487	85,659	-0,180	-0,136
291,501	150,980	-0,251	-0,235
292,516	3,190	-0,264	-0,132
293,530	-58,290	-0,148	-0,044
294,545	197,899	-0,205	-0,216
295,560	-134,179	-0,147	0,012
296,574	226,589	-0,114	-0,128
297,589	188,680	-0,115	-0,119
298,603	-35,102	-0,160	-0,060
299,618	473,602	-0,100	-0,155
300,633	223,563	-0,175	-0,195
301,647	-200,000	-0,050	-0,237
302,662	482,136	-0,112	-0,176
303,676	290,524	-0,218	-0,273
304,691	800,000	-0,059	-0,121
305,706	-27,401	-0,236	-0,094
306,720	800,000	-0,117	-0,245
307,735	238,901	-0,139	-0,160
308,749	-176,879	-0,105	-0,002
309,764	800,000	0,033	-0,084
310,779	31,149	-0,197	-0,116
311,793	240,403	-0,143	-0,165
312,808	27,738	-0,044	-0,025
313,822	283,760	-0,125	-0,155
314,837	408,130	-0,045	-0,066
315,852	-93,894	-0,172	0,032
316,866	36,764	-0,076	-0,046
317,881	16,433	-0,177	-0,096
318,895	-180,581	-0,168	-0,002
319,910	-176,079	-0,119	-0,002
320,925	230,940	-0,093	-0,105
321,939	162,884	-0,152	-0,147
322,954	-22,075	-0,164	-0,068
323,968	42,566	-0,080	-0,050
324,983	-200,000	-0,010	-0,082
325,997	142,401	-0,190	-0,173
327,012	-23,133	-0,219	-0,090
328,027	54,122	-0,189	-0,125
329,041	186,721	-0,211	-0,217
330,056	24,542	-0,156	-0,089
331,070	55,919	-0,106	-0,071
332,085	297,982	-0,076	-0,097
333,100	-200,000	0,002	-0,098
334,114	271,967	-0,124	-0,150
335,129	47,347	-0,119	-0,076
336,143	800,000	-0,104	-0,222
337,158	238,773	-0,175	-0,200
338,173	-11,592	-0,207	-0,093
339,187	84,481	-0,161	-0,121
340,202	-48,912	-0,082	-0,027
341,216	-50,128	-0,067	0,022
342,231	259,580	-0,188	-0,223
343,246	41,659	-0,157	-0,097
344,260	-114,053	-0,017	0,002
345,275	47,426	-0,161	-0,103
346,289	312,486	-0,098	-0,127
347,304	648,067	-0,049	-0,087
348,319	713,464	-0,031	-0,057
349,333	284,587	-0,115	-0,142
350,348	21,934	-0,090	0,050
351,362	285,701	-0,137	-0,170
352,377	-30,136	-0,218	-0,085
353,392	-200,000	-0,040	-0,173
354,406	800,000	-0,042	-0,118
355,421	209,076	1313,895	1412,910
356,435	160,903	1474,502	1413,400
