DTS Sentinel unit serial number:	SN410029Multiplexer serial number:	ORYXHardware model number:	OX2-SRSoftware version number:	ORYX F/W v4,00 Oryx Data Collector v3.7.2.0data status	okinstallation	B3 Nyhavnadifferential loss correction	single-endedforward channel	channel 1reverse channel	N/Adate	2023/11/30time	16:52:30forward acquisition time	300,00reverse acquisition time	0,00gamma	499,1914k internal	0,3204k external	0,3204temperature offset calibration	1,0000default loss term (dB/km)	0,3820temperature slope calibration	1,0000multiplexer offset coefficient	1,0000multiplexer slope coefficient	1,0000fibre end	0,00T internal ref (°C)	13,06T ext. ref 1 (°C)	-1,47T ext. ref 2 (°C)	-1,52length (m)	temperature (°C)	Stokes	anti-Stokes-744,400	236,894	-0,224	-0,270
-743,385	-200,000	0,074	0,373
-742,371	800,000	-0,074	-0,217
-741,356	800,000	0,109	0,316
-740,342	800,000	-0,089	-0,232
-739,327	-200,000	0,062	0,230
-738,312	121,612	-0,221	-0,200
-737,298	800,000	0,089	0,257
-736,283	-37,450	-0,202	-0,078
-735,269	-200,000	-0,106	0,446
-734,254	382,169	-0,182	-0,273
-733,239	0,471	-0,086	-0,045
-732,225	-200,000	-0,064	-0,249
-731,210	-200,000	0,059	0,192
-730,196	-200,000	0,014	0,062
-729,181	11,647	-0,075	0,042
-728,167	-200,000	-0,043	-0,236
-727,152	115,756	-0,142	-0,126
-726,137	-35,784	-0,031	0,012
-725,123	-141,032	-0,054	0,004
-724,108	800,000	0,051	-0,161
-723,094	278,250	-0,034	-0,045
-722,079	436,584	-0,017	-0,027
-721,064	280,298	0,025	-0,032
-720,050	-200,000	0,052	-0,167
-719,035	-87,160	-0,018	0,004
-718,021	800,000	-0,064	-0,165
-717,006	-83,757	-0,037	0,008
-715,991	135,736	-0,116	-0,110
-714,977	800,000	0,040	-0,113
-713,962	-200,000	-0,015	0,096
-712,948	-200,000	0,023	0,118
-711,933	183,514	0,016	-0,017
-710,918	-99,201	-0,088	0,016
-709,904	-36,058	0,112	-0,044
-708,889	800,000	-0,021	-0,050
-707,875	190,699	-0,047	-0,051
-706,860	-200,000	-0,010	-0,119
-705,845	64,295	-0,079	0,057
-704,831	1,213	-0,077	-0,040
-703,816	106,158	0,082	-0,070
-702,802	-200,000	-0,003	-0,058
-701,787	800,000	-0,027	-0,071
-700,772	600,020	0,015	0,028
-699,758	21,454	-0,138	-0,081
-698,743	-88,684	0,059	-0,013
-697,729	800,000	-0,027	0,055
-696,714	-20,086	0,138	0,062
-695,699	-158,833	-0,083	0,003
-694,685	114,545	-0,006	0,005
-693,670	-200,000	-0,038	0,210
-692,656	74,238	-0,109	0,083
-691,641	-56,578	0,053	0,017
-690,627	-83,476	0,183	-0,042
-689,612	583,739	-0,077	0,137
-688,597	-135,593	-0,147	0,012
-687,583	-42,950	-0,028	0,010
-686,568	72,788	-0,058	-0,044
-685,554	616,023	0,023	0,042
-684,539	-50,152	0,063	0,021
-683,524	100,696	0,061	0,051
-682,510	40,553	-0,081	0,053
-681,495	202,264	0,031	0,035
-680,481	-200,000	-0,012	-0,089
-679,466	-186,409	-0,124	-0,001
-678,451	12,630	-0,072	-0,040
-677,437	46,958	0,116	-0,078
-676,422	-200,000	-0,009	0,061
-675,408	228,181	-0,015	-0,018
-674,393	164,824	0,016	-0,017
-673,378	392,338	0,047	-0,071
-672,364	193,379	-0,023	0,025
-671,349	-200,000	-0,004	0,025
-670,335	-200,000	-0,010	0,074
-669,320	731,645	0,046	0,089
-668,305	440,035	-0,030	0,048
-667,291	8,627	-0,162	0,088
-666,276	76,160	-0,154	-0,118
-665,262	-144,896	0,066	-0,004
-664,247	-200,000	0,024	-0,134
-663,232	-200,000	0,003	-0,057
-662,218	-200,000	-0,036	0,175
-661,203	42,687	-0,104	0,068
-660,189	800,000	-0,047	0,142
-659,174	-49,525	0,065	0,022
-658,159	298,713	-0,057	-0,076
-657,145	-147,889	0,025	-0,001
-656,130	250,918	-0,043	0,053
-655,116	-200,000	0,017	0,059
-654,101	214,438	-0,036	0,041
-653,086	277,909	0,043	0,055
-652,072	345,022	0,091	-0,129
-651,057	542,119	0,049	-0,085
-650,043	367,590	0,024	0,035
-649,028	800,000	0,012	-0,024
-648,014	57,527	-0,097	-0,069
-646,999	120,181	-0,086	0,077
-645,984	-200,000	0,008	0,056
-644,970	240,384	-0,063	-0,076
-643,955	-107,610	-0,025	0,004
-642,941	103,768	0,076	-0,065
-641,926	6,624	0,124	0,067
-640,911	357,212	-0,068	-0,099
-639,897	71,948	-0,063	0,047
-638,882	800,000	-0,023	0,060
-637,868	-36,283	-0,069	-0,027
-636,853	-29,777	-0,114	-0,047
-635,838	-18,172	0,103	0,047
-634,824	318,597	-0,066	0,091
-633,809	800,000	-0,033	0,090
-632,795	800,000	0,029	0,060
-631,780	800,000	-0,026	-0,065
-630,765	-200,000	-0,009	-0,066
-629,751	583,144	-0,082	-0,145
-628,736	-91,041	0,093	-0,019
-627,722	-143,518	0,037	-0,003
-626,707	292,491	0,093	0,123
-625,692	-25,917	-0,021	0,009
-624,678	146,086	0,049	0,047
-623,663	130,767	0,053	0,049
-622,649	15,875	-0,139	-0,079
-621,634	-16,618	-0,196	-0,089
-620,619	488,994	0,056	-0,093
-619,605	-200,000	-0,024	-0,079
-618,590	800,000	-0,021	0,056
-617,576	800,000	0,045	-0,119
-616,561	-49,595	0,039	0,013
-615,546	129,099	-0,037	-0,034
-614,532	141,752	-0,086	0,083
-613,517	800,000	-0,017	-0,043
-612,503	-200,000	-0,019	-0,134
-611,488	-97,572	-0,034	0,006
-610,474	-200,000	0,002	0,109
-609,459	-87,928	0,125	0,027
-608,444	783,568	-0,039	0,077
-607,430	448,434	0,099	-0,158
-606,415	-91,975	0,167	-0,034
-605,401	-200,000	0,021	-0,067
-604,386	-200,000	0,010	-0,067
-603,371	800,000	0,051	0,106
-602,357	800,000	-0,033	-0,073
-601,342	124,383	-0,036	0,033
-600,328	-200,000	0,012	-0,040
-599,313	11,054	0,064	0,035
-598,298	-200,000	-0,011	0,095
-597,284	-37,401	0,100	0,039
-596,269	800,000	0,031	0,069
-595,255	306,830	-0,091	0,123
-594,240	19,639	-0,054	0,031
-593,225	-149,401	0,083	-0,005
-592,211	226,407	-0,050	0,058
-591,196	628,602	-0,036	-0,066
-590,182	-106,339	0,133	0,021
-589,167	-58,941	0,044	0,014
-588,152	-126,181	0,071	-0,008
-587,138	-169,866	-0,168	0,004
-586,123	800,000	-0,013	-0,030
-585,109	145,603	-0,093	-0,090
-584,094	-200,000	0,006	0,062
-583,079	-18,290	-0,044	-0,020
-582,065	259,104	-0,054	-0,067
-581,050	-98,170	0,046	0,008
-580,036	-200,000	-0,018	-0,126
-579,021	572,802	0,068	-0,120
-578,006	-200,000	-0,015	-0,070
-576,992	-200,000	0,004	-0,168
-575,977	-31,708	0,066	0,027
-574,963	23,024	0,053	-0,031
-573,948	-200,000	0,011	-0,053
-572,934	7,321	-0,120	-0,065
-571,919	-58,456	0,105	-0,033
-570,904	800,000	0,031	-0,063
-569,890	-200,000	0,012	-0,085
-568,875	-80,390	0,034	0,008
-567,861	-6,502	0,086	0,042
-566,846	-59,571	0,113	0,035
-565,831	590,895	-0,036	-0,065
-564,817	153,604	0,043	0,042
-563,802	-195,387	-0,117	-0,001
-562,788	-200,000	-0,018	-0,072
-561,773	-101,116	0,148	-0,026
-560,758	800,000	-0,042	0,109
-559,744	-77,245	0,031	-0,008
-558,729	-200,000	-0,007	0,089
-557,715	800,000	-0,029	-0,071
-556,700	95,344	-0,091	-0,075
-555,685	84,888	-0,018	0,014
-554,671	300,953	-0,076	0,101
-553,656	112,034	0,043	-0,037
-552,642	-177,503	0,079	0,001
-551,627	94,966	-0,052	0,043
-550,612	-6,444	0,145	-0,071
-549,598	10,624	0,062	-0,034
-548,583	297,288	0,016	0,022
-547,569	-29,570	0,084	-0,034
-546,554	228,245	0,071	0,083
-545,539	-200,000	-0,008	0,079
-544,525	-4,595	0,057	-0,028
-543,510	-35,006	0,109	-0,043
-542,496	284,267	-0,125	-0,163
-541,481	-200,000	0,023	-0,098
-540,466	-200,000	-0,004	-0,060
-539,452	20,909	0,117	0,068
-538,437	-130,686	0,032	-0,003
-537,423	-89,649	0,047	-0,010
-536,408	-141,314	-0,134	-0,010
-535,393	-200,000	-0,018	-0,108
-534,379	156,487	-0,118	-0,117
-533,364	-200,000	0,017	0,057
-532,350	-112,903	0,092	-0,013
-531,335	123,001	0,075	0,068
-530,321	-200,000	-0,013	-0,067
-529,306	116,619	-0,030	-0,026
-528,291	-34,891	-0,155	-0,061
-527,277	-144,947	-0,112	0,007
-526,262	83,282	-0,067	-0,052
-525,248	-200,000	0,013	0,084
-524,233	-126,326	0,039	-0,004
-523,218	471,196	0,072	-0,118
-522,204	457,428	0,063	0,101
-521,189	631,854	-0,024	-0,044
-520,175	264,312	-0,196	-0,246
-519,160	-200,000	0,002	-0,095
-518,145	54,476	0,077	-0,053
-517,131	36,910	0,022	0,014
-516,116	-29,955	-0,038	0,016
-515,102	104,919	-0,112	0,095
-514,087	-24,883	-0,100	0,042
-513,072	83,713	-0,069	-0,054
-512,058	94,072	-0,092	-0,075
-511,043	-200,000	0,019	0,230
-510,029	-112,596	0,064	-0,009
-509,014	180,130	-0,074	-0,079
-507,999	677,480	0,010	-0,019
-506,985	56,540	-0,031	0,022
-505,970	301,312	-0,099	0,132
-504,956	778,483	0,083	-0,163
-503,941	594,306	-0,059	-0,106
-502,926	437,828	0,070	0,110
-501,912	800,000	0,053	0,119
-500,897	168,796	-0,103	0,106
-499,883	-200,000	0,010	0,067
-498,868	4,083	-0,054	-0,028
-497,853	-132,725	-0,065	-0,006
-496,839	-76,133	-0,086	0,022
-495,824	174,806	0,088	0,092
-494,810	-200,000	0,005	0,046
-493,795	800,000	-0,049	0,127
-492,781	172,708	-0,023	0,024
-491,766	195,963	-0,042	-0,046
-490,751	241,578	-0,023	0,028
-489,737	800,000	0,050	-0,131
-488,722	28,623	-0,103	-0,062
-487,708	46,905	0,089	-0,059
-486,693	-126,167	0,049	0,005
-485,678	-36,623	0,032	-0,012
-484,664	328,520	0,071	-0,099
-483,649	800,000	-0,036	0,107
-482,635	231,657	0,054	-0,064
-481,620	-200,000	0,002	0,201
-480,605	141,303	-0,066	0,063
-479,591	-138,045	0,053	0,004
-478,576	-200,000	-0,016	0,108
-477,562	-200,000	-0,006	0,137
-476,547	-27,293	-0,108	0,045
-475,532	-20,011	0,041	-0,018
-474,518	-5,334	0,047	0,023
-473,503	21,323	-0,149	0,087
-472,489	97,582	0,063	0,052
-471,474	-200,000	-0,007	-0,090
-470,459	256,171	-0,027	0,034
-469,445	-200,000	-0,007	-0,025
-468,430	-200,000	-0,005	-0,026
-467,416	-40,797	-0,140	-0,052
-466,401	30,358	0,096	-0,059
-465,386	-13,065	-0,069	-0,032
-464,372	800,000	-0,053	0,119
-463,357	116,398	-0,089	-0,078
-462,343	-200,000	0,057	-0,224
-461,328	-11,813	-0,130	0,061
-460,313	367,348	-0,068	-0,099
-459,299	97,198	0,159	0,131
-458,284	678,951	-0,057	0,108
-457,270	317,756	-0,154	0,210
-456,255	-200,000	0,004	0,123
-455,241	-200,000	0,016	-0,081
-454,226	61,154	-0,074	0,053
-453,211	-62,433	0,095	0,028
-452,197	-200,000	0,017	0,058
-451,182	-200,000	0,012	0,180
-450,168	-200,000	-0,016	0,051
-449,153	34,955	-0,155	0,097
-448,138	-200,000	0,003	-0,085
-447,124	34,631	0,104	-0,065
-446,109	-39,818	0,044	-0,016
-445,095	-19,576	0,107	0,048
-444,080	-200,000	0,005	0,096
-443,065	435,528	-0,025	0,040
-442,051	-25,582	-0,132	-0,056
-441,036	7,119	-0,056	0,030
-440,022	-112,346	-0,095	-0,014
-439,007	-140,356	0,127	0,009
-437,992	95,158	-0,101	0,083
-436,978	-200,000	0,014	0,049
-435,963	169,513	0,103	-0,106
-434,949	-200,000	-0,023	-0,147
-433,934	569,460	-0,107	-0,188
-432,919	800,000	0,027	-0,061
-431,905	-200,000	0,002	-0,047
-430,890	-200,000	0,005	0,076
-429,876	275,113	0,088	0,113
-428,861	-76,101	-0,037	0,009
-427,846	-101,166	0,103	0,018
-426,832	478,474	0,038	-0,061
-425,817	-31,792	0,088	-0,035
-424,803	800,000	0,030	0,072
-423,788	429,159	0,083	-0,129
-422,773	800,000	0,079	0,205
-421,759	170,686	-0,038	-0,039
-420,744	-200,000	-0,034	0,113
-419,730	475,544	-0,067	-0,108
-418,715	9,190	-0,098	-0,053
-417,701	-200,000	0,037	-0,175
-416,686	207,513	0,059	0,066
-415,671	-200,000	0,019	-0,062
-414,657	-200,000	-0,007	0,112
-413,642	800,000	0,047	0,146
-412,628	564,262	0,019	-0,033
-411,613	-200,000	-0,007	-0,047
-410,598	-200,000	-0,022	-0,118
-409,584	800,000	0,024	0,049
-408,569	-64,217	0,146	-0,042
-407,555	-126,341	0,032	-0,003
-406,540	220,872	-0,008	0,009
-405,525	40,656	0,025	0,016
-404,511	-180,835	0,041	-0,001
-403,496	261,239	0,022	-0,028
-402,482	800,000	-0,018	-0,045
-401,467	800,000	0,054	0,117
-400,452	92,941	0,064	-0,052
-399,438	-34,502	-0,028	-0,011
-398,423	199,463	-0,092	0,101
-397,409	-200,000	0,008	0,101
-396,394	-200,000	0,005	-0,017
-395,379	259,399	0,067	-0,083
-394,365	-200,000	0,004	-0,096
-393,350	-200,000	0,012	0,044
-392,336	-200,000	-0,031	0,156
-391,321	37,389	-0,098	0,062
-390,306	-200,000	0,027	0,105
-389,292	43,192	0,047	0,031
-388,277	500,036	-0,053	-0,088
-387,263	-48,522	0,097	0,033
-386,248	-23,870	-0,139	-0,060
-385,233	-200,000	-0,006	0,023
-384,219	-140,967	-0,083	0,006
-383,204	-200,000	-0,027	-0,102
-382,190	800,000	-0,030	-0,063
-381,175	-200,000	-0,007	0,109
-380,160	-200,000	-0,024	-0,101
-379,146	603,683	-0,047	0,083
-378,131	73,719	0,089	-0,067
-377,117	-124,307	-0,099	-0,011
-376,102	799,268	-0,066	-0,131
-375,088	-52,372	-0,113	-0,037
-374,073	-200,000	0,002	-0,108
-373,058	-27,297	0,150	-0,062
-372,044	-183,906	0,125	0,001
-371,029	-44,026	-0,149	0,053
-370,015	7,580	-0,047	-0,025
-369,000	-200,000	0,028	-0,116
-367,985	-87,622	0,221	-0,047
-366,971	-200,000	-0,052	-0,193
-365,956	452,061	0,026	-0,041
-364,942	-177,662	-0,111	0,002
-363,927	130,995	-0,032	-0,029
-362,912	433,513	0,055	-0,086
-361,898	689,740	0,042	0,080
-360,883	268,001	0,050	0,062
-359,869	800,000	-0,078	-0,169
-358,854	-46,681	0,076	0,027
-357,839	-200,000	0,017	0,088
-356,825	-51,820	0,063	-0,021
-355,810	800,000	0,022	-0,054
-354,796	337,839	-0,070	-0,097
-353,781	564,986	-0,066	-0,115
-352,766	325,782	-0,070	-0,096
-351,752	-91,359	0,039	0,008
-350,737	-112,501	-0,029	0,004
-349,723	176,927	0,063	-0,066
-348,708	635,556	-0,045	-0,082
-347,693	190,638	-0,044	0,048
-346,679	-200,000	0,025	-0,149
-345,664	83,660	0,047	-0,037
-344,650	90,027	0,049	0,039
-343,635	-119,358	0,290	-0,036
-342,620	-200,000	0,046	0,198
-341,606	201,780	-0,042	0,046
-340,591	-82,606	-0,136	-0,031
-339,577	-74,231	-0,089	0,023
-338,562	-200,000	-0,015	-0,112
-337,548	112,377	0,120	0,104
-336,533	-200,000	0,002	0,054
-335,518	800,000	-0,035	0,070
-334,504	105,796	-0,041	-0,035
-333,489	304,673	0,040	0,054
-332,475	449,202	-0,072	-0,115
-331,460	107,034	-0,089	0,076
-330,445	-200,000	0,003	0,060
-329,431	800,000	0,041	-0,089
-328,416	-137,834	0,051	0,004
-327,402	800,000	-0,049	0,141
-326,387	800,000	-0,035	0,096
-325,372	270,409	-0,017	-0,021
-324,358	-131,625	-0,104	-0,010
-323,343	-200,000	0,001	-0,144
-322,329	-45,404	-0,126	-0,045
-321,314	-11,524	0,051	-0,024
-320,299	535,901	-0,062	0,105
-319,285	-65,705	0,059	-0,017
-318,270	800,000	-0,059	-0,123
-317,256	236,404	0,056	-0,067
-316,241	4,183	0,148	0,077
-315,226	504,644	-0,017	0,028
-314,212	-200,000	-0,002	0,051
-313,197	-200,000	0,012	-0,043
-312,183	380,659	-0,019	0,029
-311,168	-157,887	-0,168	0,007
-310,153	743,922	-0,068	0,132
-309,139	800,000	-0,030	-0,068
-308,124	145,635	0,039	0,037
-307,110	-200,000	0,008	-0,072
-306,095	-200,000	-0,027	0,230
-305,080	32,178	-0,154	-0,094
-304,066	-107,052	-0,117	0,018
-303,051	800,000	0,026	-0,058
-302,037	-137,231	0,180	0,014
-301,022	-42,816	0,015	-0,005
-300,008	328,052	0,095	0,131
-298,993	175,120	0,075	0,078
-297,978	-83,032	-0,124	0,028
-296,964	-63,143	0,049	-0,014
-295,949	800,000	-0,083	-0,182
-294,935	-200,000	-0,002	0,017
-293,920	506,209	0,051	0,084
-292,905	-30,485	-0,110	-0,044
-291,891	-0,339	0,111	-0,056
-290,876	-200,000	0,009	0,137
-289,862	-62,052	-0,108	-0,032
-288,847	-41,665	0,027	-0,010
-287,832	-200,000	0,027	0,178
-286,818	292,346	0,032	-0,042
-285,803	800,000	0,039	-0,090
-284,789	-86,600	0,085	0,019
-283,774	800,000	-0,024	0,058
-282,759	106,404	-0,131	0,111
-281,745	-200,000	0,041	-0,132
-280,730	-2,752	0,035	0,017
-279,716	-200,000	0,019	-0,061
-278,701	-200,000	0,018	-0,090
-277,686	328,394	0,018	-0,024
-276,672	48,418	0,089	0,059
-275,657	3,070	0,053	-0,028
-274,643	800,000	-0,089	-0,200
-273,628	79,530	0,055	-0,042
-272,613	1,791	-0,055	-0,028
-271,599	-200,000	-0,022	0,074
-270,584	455,514	0,028	0,045
-269,570	-200,000	0,015	0,061
-268,555	800,000	-0,057	-0,144
-267,540	-125,115	0,052	0,006
-266,526	-86,916	-0,074	-0,016
-265,511	114,171	0,037	0,032
-264,497	-112,769	0,205	-0,029
-263,482	800,000	0,025	0,054
-262,467	-33,052	0,099	0,039
-261,453	-200,000	-0,005	0,018
-260,438	559,419	0,043	0,074
-259,424	-200,000	-0,006	-0,115
-258,409	646,436	0,055	-0,100
-257,395	375,092	-0,069	-0,100
-256,380	-200,000	0,019	0,070
-255,365	-200,000	0,016	0,057
-254,351	800,000	-0,023	-0,054
-253,336	-200,000	0,012	0,038
-252,322	146,209	-0,050	-0,047
-251,307	-36,345	0,093	0,036
-250,292	145,512	-0,045	0,043
-249,278	-65,328	-0,124	0,035
-248,263	-200,000	0,015	0,079
-247,249	268,233	0,078	-0,097
-246,234	66,706	-0,150	-0,109
-245,219	108,981	-0,069	-0,058
-244,205	65,023	0,044	-0,032
-243,190	-80,556	0,067	-0,016
-242,176	800,000	0,042	-0,091
-241,161	-74,264	0,057	0,015
-240,146	7,185	0,167	0,089
-239,132	-9,040	-0,169	0,080
-238,117	-68,584	-0,129	0,035
-237,103	-16,024	-0,057	-0,026
-236,088	12,766	-0,071	-0,039
-235,073	-200,000	-0,001	0,075
-234,059	-72,574	0,164	0,043
-233,044	-200,000	0,035	0,115
-232,030	-51,420	0,087	-0,029
-231,015	800,000	-0,062	0,154
-230,000	800,000	-0,033	0,083
-228,986	94,522	-0,024	0,019
-227,971	-70,906	0,025	0,007
-226,957	-6,379	0,159	-0,077
-225,942	-200,000	0,033	0,109
-224,927	505,826	-0,030	-0,050
-223,913	800,000	0,054	-0,141
-222,898	-23,387	-0,115	-0,049
-221,884	337,115	-0,095	0,132
-220,869	800,000	-0,035	-0,074
-219,855	-98,939	0,090	0,016
-218,840	-200,000	0,045	-0,149
-217,825	-200,000	0,009	0,036
-216,811	800,000	-0,029	-0,059
-215,796	-57,366	-0,075	-0,023
-214,782	800,000	0,041	0,114
-213,767	220,644	0,046	0,053
-212,752	-200,000	-0,013	-0,055
-211,738	208,216	0,022	0,025
-210,723	-200,000	0,004	-0,015
-209,709	-61,272	-0,033	0,010
-208,694	189,198	0,085	-0,091
-207,679	66,183	-0,064	-0,046
-206,665	91,480	0,029	0,023
-205,650	-125,451	-0,075	0,008
-204,636	-36,816	0,090	0,034
-203,621	-200,000	0,002	0,049
-202,606	-16,765	-0,069	-0,031
-201,592	-200,000	0,016	0,077
-200,577	-1,783	-0,045	0,022
-199,563	177,791	-0,074	-0,077
-198,548	112,671	0,040	0,034
-197,533	-82,922	0,087	0,020
-196,519	-200,000	-0,025	0,125
-195,504	-200,000	0,005	-0,063
-194,490	-105,695	0,136	0,022
-193,475	-94,280	-0,078	0,015
-192,460	-200,000	0,042	-0,209
-191,446	251,891	0,051	-0,062
-190,431	-66,201	0,102	-0,029
-189,417	128,659	0,067	0,061
-188,402	152,498	-0,061	0,060
-187,387	37,145	-0,007	-0,005
-186,373	800,000	0,050	0,107
-185,358	464,642	-0,100	0,160
-184,344	143,328	0,008	-0,007
-183,329	800,000	0,039	0,096
-182,315	-154,601	-0,131	0,006
-181,300	236,822	0,055	0,064
-180,285	-200,000	0,017	0,068
-179,271	791,469	0,063	-0,124
-178,256	-129,718	-0,064	0,006
-177,242	-48,108	0,091	-0,031
-176,227	301,451	-0,057	-0,075
-175,212	105,431	-0,056	0,047
-174,198	-46,362	0,053	-0,018
-173,183	-200,000	-0,008	-0,071
-172,169	311,002	0,021	-0,028
-171,154	-200,000	-0,021	0,109
-170,139	-200,000	-0,022	0,145
-169,125	289,483	-0,051	0,066
-168,110	107,858	-0,111	0,094
-167,096	-32,369	-0,069	0,027
-166,081	255,769	0,032	0,039
-165,066	-200,000	-0,000	-0,018
-164,052	-2,405	-0,104	-0,051
-163,037	28,206	0,121	0,072
-162,023	22,296	0,216	0,125
-161,008	-200,000	-0,028	0,204
-159,993	-200,000	-0,004	0,067
-158,979	800,000	-0,052	0,150
-157,964	45,574	-0,088	0,058
-156,950	-200,000	0,013	0,082
-155,935	159,980	0,065	-0,065
-154,920	-8,462	0,075	-0,036
-153,906	4,313	0,061	0,032
-152,891	199,212	0,095	0,103
-151,877	-200,000	-0,009	-0,069
-150,862	-30,509	-0,024	0,010
-149,847	800,000	-0,043	-0,115
-148,833	-83,967	0,075	-0,017
-147,818	103,221	0,023	-0,019
-146,804	-200,000	0,012	-0,047
-145,789	-162,635	0,103	-0,004
-144,775	-17,520	-0,078	-0,035
-143,760	-47,511	0,084	0,029
-142,745	800,000	-0,054	-0,142
-141,731	-72,872	0,221	-0,057
-140,716	-29,145	0,044	-0,018
-139,702	-200,000	-0,002	0,015
-138,687	551,899	-0,061	0,105
-137,672	22,061	0,069	0,040
-136,658	401,553	-0,146	-0,219
-135,643	36,965	-0,127	0,080
-134,629	-200,000	0,017	-0,132
-133,614	-88,994	0,124	-0,026
-132,599	-200,000	-0,007	0,031
-131,585	137,606	0,034	0,031
-130,570	800,000	0,031	0,062
-129,556	125,897	-0,068	0,061
-128,541	76,335	0,036	-0,027
-127,526	54,641	0,084	0,057
-126,512	231,903	0,045	-0,052
-125,497	800,000	-0,067	0,164
-124,483	61,606	-0,141	0,099
-123,468	-200,000	0,011	0,188
-122,453	466,694	0,070	-0,112
-121,439	54,500	-0,046	0,031
-120,424	-28,937	-0,082	0,033
-119,410	484,305	-0,095	0,153
-118,395	655,701	0,053	0,097
-117,380	138,267	0,076	0,071
-116,366	770,052	-0,063	-0,122
-115,351	-88,659	-0,037	-0,008
-114,337	800,000	0,025	0,069
-113,322	254,931	0,048	-0,058
-112,307	-133,468	0,133	-0,012
-111,293	420,459	-0,021	0,032
-110,278	66,361	-0,131	-0,094
-109,264	-111,896	0,160	-0,023
-108,249	-30,158	-0,089	0,036
-107,234	-34,700	-0,066	-0,026
-106,220	-170,229	-0,095	0,002
-105,205	196,562	-0,040	-0,043
-104,191	-66,896	0,077	0,021
-103,176	-25,925	-0,052	0,021
-102,162	377,035	0,056	0,081
-101,147	729,876	0,064	0,121
-100,132	-51,771	0,074	-0,024
-99,118	657,247	-0,100	-0,182
-98,103	-200,000	-0,017	-0,065
-97,089	-6,230	0,049	-0,024
-96,074	-54,452	0,093	-0,030
-95,059	-61,206	-0,125	0,037
-94,045	148,662	-0,081	-0,078
-93,030	-135,361	-0,055	-0,005
-92,016	-118,489	-0,115	0,014
-91,001	753,120	-0,076	-0,146
-89,986	800,000	-0,022	-0,047
-88,972	800,000	0,054	-0,106
-87,957	-40,081	-0,009	-0,003
-86,943	169,173	-0,064	0,065
-85,928	-200,000	-0,007	-0,082
-84,913	800,000	0,054	-0,143
-83,899	-200,000	0,020	0,121
-82,884	458,947	0,027	0,043
-81,870	6,867	0,063	0,033
-80,855	-33,555	0,020	-0,008
-79,840	-58,018	-0,081	0,025
-78,826	164,000	-0,092	-0,092
-77,811	-48,137	-0,047	0,016
-76,797	238,895	-0,081	-0,096
-75,782	-153,916	-0,083	0,004
-74,767	-200,000	0,005	0,054
-73,753	-200,000	0,005	0,063
-72,738	-200,000	-0,004	0,089
-71,724	96,278	-0,080	-0,064
-70,709	424,809	-0,093	-0,142
-69,694	-120,806	0,160	0,019
-68,680	46,040	0,060	0,039
-67,665	-74,749	-0,036	0,009
-66,651	373,582	0,110	0,158
-65,636	341,097	-0,051	0,071
-64,622	-123,059	0,048	0,005
-63,607	-200,000	0,025	-0,092
-62,592	376,199	0,058	-0,083
-61,578	85,392	0,138	0,107
-60,563	365,079	0,026	0,038
-59,549	-200,000	-0,029	0,138
-58,534	-49,339	-1,753	-0,589
-57,519	350,665	-1,423	-1,996
-56,505	-200,000	-0,380	-4,503
-55,490	268,267	0,898	1,116
-54,476	800,000	4,879	11,298
-53,461	-200,000	19,303	324,716
-52,446	-200,000	740,420	2336,533
-51,432	572,751	1651,591	2858,452
-50,417	77,831	1666,371	1254,836
-49,403	21,049	1539,714	881,094
-48,388	14,931	1462,188	807,081
-47,373	18,303	1452,571	817,975
-46,359	16,807	1442,137	804,923
-45,344	13,191	1437,540	785,071
-44,330	13,124	1435,888	783,818
-43,315	13,107	1434,077	782,716
-42,300	13,124	1432,485	781,896
-41,286	13,120	1431,390	781,253
-40,271	13,065	1430,025	780,213
-39,257	13,124	1428,416	779,585
-38,242	13,129	1427,294	778,965
-37,227	13,132	1426,252	778,380
-36,213	13,149	1424,825	777,653
-35,198	13,159	1423,525	776,956
-34,184	13,167	1422,834	776,587
-33,169	13,102	1421,283	775,402
-32,154	13,192	1420,351	775,289
-31,140	13,203	1418,788	774,458
-30,125	13,220	1417,718	773,922
-29,111	13,124	1417,005	773,050
-28,096	13,130	1415,672	772,321
-27,082	13,106	1414,726	771,662
-26,067	13,084	1413,727	770,983
-25,052	13,092	1412,505	770,323
-24,038	13,106	1411,564	769,844
-23,023	13,019	1410,810	768,993
-22,009	13,076	1409,659	768,602
-20,994	13,015	1408,673	767,750
-19,979	13,034	1407,815	767,342
-18,965	13,004	1406,958	766,701
-17,950	13,037	1406,006	766,310
-16,936	13,024	1404,935	765,634
-15,921	13,000	1403,874	764,913
-14,906	12,986	1403,144	764,420
-13,892	13,006	1402,013	763,866
-12,877	12,983	1401,361	763,372
-11,863	13,008	1400,279	762,870
-10,848	12,970	1399,524	762,254
-9,833	12,946	1398,683	761,650
-8,819	12,940	1397,776	761,102
-7,804	12,921	1396,941	760,525
-6,790	12,941	1395,747	759,940
-5,775	12,920	1394,707	759,245
-4,760	12,909	1393,897	758,726
-3,746	12,926	1392,882	758,222
-2,731	12,864	1392,349	757,611
-1,717	12,842	1391,336	756,930
-0,702	12,845	1389,514	755,924
0,313	16,877	1305,899	728,985
1,327	33,342	700,457	428,852
2,342	51,281	122,592	82,122
3,356	3,276	16,747	8,587
4,371	5,981	3,291	1,717
5,386	13,761	0,458	0,251
6,400	800,000	0,158	0,404
7,415	82,042	-0,225	-0,172
8,429	-25,822	-0,330	-0,137
9,444	106,108	-0,200	-0,168
10,459	-16,694	-0,336	-0,149
11,473	-27,854	-0,310	-0,126
12,488	232,418	-0,230	-0,267
13,502	-21,547	-0,489	-0,209
14,517	38,758	-0,348	-0,219
15,531	114,975	-0,279	-0,240
16,546	86,857	-0,403	-0,314
17,561	54,997	-0,344	-0,234
18,575	34,485	-0,160	-0,098
19,590	37,358	-0,261	-0,163
20,604	3,733	-0,231	-0,119
21,619	-42,450	-0,583	-0,209
22,634	156,068	-0,490	-0,477
23,648	-43,254	-0,484	-0,172
24,663	-57,671	-0,481	-0,148
25,677	147,882	-0,248	-0,236
26,692	514,662	-0,186	-0,308
27,707	466,627	-0,178	-0,282
28,721	54,477	-0,506	-0,343
29,736	173,424	-0,342	-0,348
30,750	22,114	-0,468	-0,269
31,765	78,092	-0,297	-0,223
32,780	6,653	-0,515	-0,269
33,794	-40,116	-0,305	-0,111
34,809	185,837	-0,312	-0,328
35,823	5,485	-0,424	-0,220
36,838	122,606	-0,254	-0,224
37,853	117,077	-0,305	-0,264
38,867	137,330	-0,357	-0,329
39,882	30,627	-0,394	-0,237
40,896	52,692	-0,300	-0,201
41,911	205,803	-0,233	-0,256
42,926	301,288	-0,260	-0,339
43,940	87,594	-0,455	-0,354
44,955	16,972	-0,415	-0,231
45,969	300,242	-0,293	-0,381
46,984	102,947	-0,247	-0,204
47,999	-17,413	-0,156	-0,069
49,013	159,056	-0,227	-0,222
50,028	6,330	-0,383	-0,199
51,042	29,540	-0,367	-0,219
52,057	26,606	-0,393	-0,231
53,071	162,839	-0,307	-0,303
54,086	19,398	-0,438	-0,247
55,101	30,192	-0,394	-0,236
56,115	59,272	-0,322	-0,223
57,130	-0,545	-0,391	-0,195
58,144	67,025	-0,364	-0,260
59,159	46,152	-0,410	-0,267
60,174	184,800	-0,388	-0,405
61,188	-26,275	-0,416	-0,171
62,203	62,037	-0,333	-0,233
63,217	106,134	-0,383	-0,319
64,232	-20,025	-0,376	-0,162
65,247	54,826	-0,404	-0,274
66,261	41,955	-0,443	-0,282
67,276	84,235	-0,372	-0,285
68,290	126,132	-0,185	-0,164
69,305	222,583	-0,231	-0,262
70,320	19,531	-0,352	-0,198
71,334	23,031	-0,272	-0,156
72,349	81,464	-0,315	-0,239
73,363	151,072	-0,250	-0,239
74,378	131,955	-0,274	-0,248
75,393	-22,720	-0,255	-0,108
76,407	-9,091	-0,228	-0,107
77,422	-83,921	-0,350	-0,077
78,436	152,669	-0,172	-0,165
79,451	17,122	-0,266	-0,148
80,466	-17,759	-0,378	-0,166
81,480	50,267	-0,365	-0,242
82,495	270,341	-0,232	-0,287
83,509	172,268	-0,276	-0,279
84,524	-71,149	-0,407	-0,107
85,539	49,842	-0,257	-0,169
86,553	246,459	-0,204	-0,242
87,568	99,786	-0,304	-0,247
88,582	77,592	-0,369	-0,275
89,597	51,840	-0,320	-0,213
90,611	-72,939	-0,255	-0,065
91,626	396,699	-0,231	-0,340
92,641	7,842	-0,371	-0,194
93,655	-39,380	-0,344	-0,126
94,670	290,475	-0,318	-0,406
95,684	33,470	-0,279	-0,170
96,699	150,444	-0,294	-0,280
97,714	110,400	-0,189	-0,159
98,728	1,695	-0,306	-0,154
99,743	579,772	-0,126	-0,216
100,757	-54,115	-0,269	-0,085
101,772	11,099	-0,390	-0,208
102,787	-24,599	-0,355	-0,148
103,801	552,017	-0,204	-0,344
104,816	50,983	-0,351	-0,233
105,830	9,857	-0,319	-0,169
106,845	194,779	-0,230	-0,245
107,860	157,910	-0,187	-0,182
108,874	46,268	-0,159	-0,103
109,889	100,202	-0,315	-0,256
110,903	170,328	-0,287	-0,288
111,918	-71,863	-0,216	-0,056
112,933	26,308	-0,236	-0,138
113,947	-68,408	-0,230	-0,062
114,962	58,082	-0,300	-0,205
115,976	364,423	-0,144	-0,203
116,991	85,339	-0,304	-0,233
118,006	95,406	-0,302	-0,241
119,020	292,575	-0,177	-0,226
120,035	15,103	-0,271	-0,148
121,049	-13,942	-0,180	-0,081
122,064	27,429	-0,228	-0,134
123,079	36,398	-0,355	-0,219
124,093	131,282	-0,311	-0,279
125,108	289,487	-0,264	-0,336
126,122	416,528	-0,172	-0,258
127,137	233,176	-0,245	-0,283
128,151	250,163	-0,222	-0,264
129,166	214,175	-0,251	-0,278
130,181	16,288	-0,233	-0,128
131,195	21,293	-0,188	-0,106
132,210	114,961	-0,244	-0,208
133,224	59,424	-0,337	-0,232
134,239	-81,112	-0,296	-0,068
135,254	28,990	-0,132	-0,078
136,268	-119,384	-0,309	-0,037
137,283	144,601	-0,188	-0,175
138,297	176,779	-0,271	-0,275
139,312	800,000	-0,142	-0,300
140,327	-119,897	-0,280	-0,033
141,341	467,821	-0,193	-0,304
142,356	-86,644	-0,257	-0,054
143,370	170,299	-0,199	-0,199
144,385	-64,584	-0,265	-0,075
145,400	88,484	-0,185	-0,144
146,414	-43,476	-0,286	-0,100
147,429	303,871	-0,219	-0,284
148,443	310,034	-0,146	-0,191
149,458	-88,288	-0,118	0,024
150,473	-46,220	-0,288	-0,098
151,487	77,719	-0,189	-0,140
152,502	-3,540	-0,194	-0,094
153,516	-0,926	-0,387	-0,190
154,531	283,134	-0,205	-0,257
155,546	122,767	-0,209	-0,182
156,560	12,535	-0,159	-0,085
157,575	46,053	-0,248	-0,160
158,589	51,277	-0,190	-0,125
159,604	-46,723	-0,324	-0,110
160,619	27,796	-0,262	-0,153
161,633	-28,953	-0,355	-0,141
162,648	101,775	-0,162	-0,132
163,662	-122,067	-0,432	-0,049
164,677	-39,417	-0,218	-0,079
165,692	617,966	-0,126	-0,222
166,706	175,063	-0,229	-0,231
167,721	552,082	-0,116	-0,194
168,735	-11,579	-0,274	-0,125
169,750	-17,068	-0,428	-0,187
170,764	26,843	-0,201	-0,117
171,779	153,532	-0,170	-0,163
172,794	800,000	-0,043	-0,131
173,808	-9,281	-0,260	-0,120
174,823	92,595	-0,202	-0,158
175,837	601,021	-0,235	-0,408
176,852	36,536	-0,298	-0,183
177,867	50,473	-0,142	-0,093
178,881	-3,037	-0,306	-0,148
179,896	-128,928	-0,276	-0,027
180,910	-16,129	-0,211	-0,093
181,925	77,485	-0,229	-0,169
182,940	455,479	-0,275	-0,425
183,954	102,459	-0,223	-0,182
184,969	97,548	-0,189	-0,151
185,983	78,627	-0,182	-0,135
186,998	-195,824	-0,261	-0,001
188,013	94,416	-0,271	-0,214
189,027	-13,966	-0,203	-0,091
190,042	15,497	-0,239	-0,130
191,056	51,556	-0,234	-0,155
192,071	296,786	-0,262	-0,335
193,086	-5,268	-0,204	-0,097
194,100	80,785	-0,108	-0,081
195,115	50,152	-0,157	-0,103
196,129	-97,293	-0,266	-0,048
197,144	-67,018	-0,153	-0,042
198,159	66,765	-0,132	-0,093
199,173	116,288	-0,122	-0,104
200,188	-21,309	-0,209	-0,088
201,202	-46,431	-0,149	0,051
202,217	229,413	-0,186	-0,211
203,232	39,128	-0,222	-0,137
204,246	299,498	-0,200	-0,256
205,261	234,347	-0,199	-0,229
206,275	65,093	-0,133	-0,093
207,290	33,084	-0,141	-0,085
208,304	160,217	-0,079	-0,077
209,319	-105,635	-0,271	-0,042
210,334	241,052	-0,218	-0,253
211,348	-1,905	-0,217	-0,106
212,363	-99,213	-0,294	-0,051
213,377	-30,513	-0,247	-0,096
214,392	394,295	-0,139	-0,202
215,407	-51,111	-0,230	-0,074
216,421	-128,974	-0,196	-0,019
217,436	215,492	-0,224	-0,247
218,450	66,430	-0,358	-0,252
219,465	-24,932	-0,131	-0,054
220,480	147,741	-0,118	-0,110
221,494	-29,232	-0,134	-0,053
222,509	800,000	-0,046	-0,115
223,523	20,180	-0,227	-0,127
224,538	89,204	-0,218	-0,169
225,553	574,871	-0,176	-0,298
226,567	63,499	-0,203	-0,141
227,582	20,047	-0,268	-0,149
228,596	-130,978	-0,114	-0,010
229,611	258,626	-0,126	-0,150
230,626	101,953	-0,239	-0,193
231,640	58,319	-0,238	-0,162
232,655	-4,583	-0,195	-0,093
233,669	142,808	-0,247	-0,227
234,684	106,477	-0,284	-0,233
235,699	-81,011	-0,092	0,021
236,713	-74,132	-0,287	-0,071
237,728	800,000	-0,060	-0,131
238,742	52,241	-0,119	0,078
239,757	184,843	-0,216	-0,222
240,772	-78,380	-0,104	-0,024
241,786	-11,445	-0,228	-0,104
242,801	-114,315	-0,217	-0,029
243,815	-147,863	-0,107	0,006
244,830	10,148	-0,149	-0,078
245,844	-89,731	-0,134	-0,027
246,859	-139,784	-0,254	-0,018
247,874	-72,172	-0,100	0,025
248,888	-3,434	-0,339	-0,163
249,903	107,527	-0,194	-0,160
250,917	30,721	-0,159	-0,094
251,932	800,000	-0,062	-0,187
252,947	393,295	-0,094	-0,136
253,961	-53,425	-0,322	-0,101
254,976	103,802	-0,283	-0,230
255,990	190,204	-0,229	-0,238
257,005	44,471	-0,210	-0,133
258,020	800,000	-0,055	-0,121
259,034	-50,879	-0,173	-0,056
260,049	148,777	-0,132	-0,124
261,063	488,233	-0,044	-0,070
262,078	227,636	-0,178	-0,200
263,093	60,741	-0,214	-0,146
264,107	305,113	-0,120	-0,154
265,122	-23,044	-0,201	-0,083
266,136	-5,360	-0,123	-0,058
267,151	251,686	-0,208	-0,245
268,166	-85,716	-0,153	0,032
269,180	349,659	-0,118	-0,162
270,195	182,786	-0,185	-0,189
271,209	800,000	-0,134	-0,265
272,224	318,696	-0,143	-0,188
273,239	202,473	-0,122	-0,130
274,253	383,874	-0,071	-0,102
275,268	-200,000	-0,044	-0,147
276,282	-200,000	-0,061	-0,233
277,297	800,000	-0,073	-0,186
278,312	-200,000	-0,021	-0,212
279,326	222,662	-0,112	-0,125
280,341	101,544	-0,112	-0,090
281,355	169,810	-0,128	-0,126
282,370	63,157	-0,219	-0,151
283,384	220,138	-0,173	-0,192
284,399	-139,418	-0,214	-0,016
285,414	-101,440	-0,183	-0,030
286,428	-56,133	-0,105	-0,032
287,443	-200,000	0,027	-0,100
288,457	26,753	-0,146	-0,084
289,472	-63,506	-0,103	-0,029
290,487	201,136	-0,160	-0,169
291,501	37,135	-0,109	-0,066
292,516	444,389	-0,059	-0,089
293,530	270,130	-0,071	-0,086
294,545	78,060	-0,151	-0,111
295,560	-200,000	-0,076	-0,288
296,574	228,314	-0,137	-0,154
297,589	114,635	-0,194	-0,163
298,603	-6,210	-0,139	-0,065
299,618	194,968	-0,104	-0,109
300,633	629,452	-0,092	-0,161
301,647	-117,320	-0,087	-0,011
302,662	800,000	-0,108	-0,219
303,676	30,320	-0,255	-0,150
304,691	-45,636	-0,073	-0,025
305,706	81,105	-0,117	-0,087
306,720	-200,000	-0,047	-0,184
307,735	190,215	-0,195	-0,202
308,749	-108,403	-0,174	-0,026
309,764	481,920	-0,078	-0,123
310,779	568,536	-0,069	-0,116
311,793	89,960	-0,221	-0,170
312,808	6,079	-0,263	-0,134
313,822	-102,175	-0,325	0,053
314,837	257,625	-0,162	-0,192
315,852	-71,517	-0,169	-0,043
316,866	-164,163	-0,203	0,006
317,881	-36,120	-0,072	-0,027
318,895	-120,768	-0,236	-0,027
319,910	314,953	-0,172	-0,223
320,925	-73,570	-0,239	-0,060
321,939	-4,580	-0,183	-0,087
322,954	-200,000	-0,132	-0,000
323,968	205,026	-0,053	-0,057
324,983	139,318	-0,188	-0,170
325,997	358,833	-0,157	-0,217
327,012	644,459	-0,102	-0,180
328,027	-60,945	-0,243	-0,070
329,041	288,834	-0,111	-0,138
330,056	-29,665	-0,041	0,016
331,070	6,719	-0,071	-0,036
332,085	37,722	-0,103	-0,063
333,100	241,451	-0,118	-0,136
334,114	4,092	-0,197	-0,099
335,129	-117,894	-0,214	-0,026
336,143	-88,203	-0,135	0,028
337,158	76,168	-0,062	0,045
338,173	-200,000	-0,015	-0,168
339,187	800,000	-0,070	-0,174
340,202	-200,000	-0,014	-0,079
341,216	32,503	-0,218	-0,129
342,231	193,078	-0,173	-0,180
343,246	-54,438	-0,208	-0,064
344,260	-69,666	-0,056	0,015
345,275	37,362	-0,169	-0,102
346,289	-3,580	-0,125	-0,059
347,304	-16,398	-0,142	-0,061
348,319	-74,961	-0,143	-0,035
349,333	604,801	-0,086	-0,148
350,348	200,884	-0,121	-0,127
351,362	657,821	-0,116	-0,205
352,377	175,426	-0,127	-0,126
353,392	800,000	0,035	-0,096
354,406	800,000	-0,047	-0,131
355,421	206,176	1313,089	1401,998
356,435	158,554	1473,608	1402,502
