DTS Sentinel unit serial number:	SN410029Multiplexer serial number:	ORYXHardware model number:	OX2-SRSoftware version number:	ORYX F/W v4,00 Oryx Data Collector v3.7.2.0data status	okinstallation	B3 Nyhavnadifferential loss correction	single-endedforward channel	channel 1reverse channel	N/Adate	2023/11/30time	02:07:30forward acquisition time	300,00reverse acquisition time	0,00gamma	499,1914k internal	0,3210k external	0,3210temperature offset calibration	1,0000default loss term (dB/km)	0,3820temperature slope calibration	1,0000multiplexer offset coefficient	1,0000multiplexer slope coefficient	1,0000fibre end	0,00T internal ref (°C)	10,50T ext. ref 1 (°C)	-5,15T ext. ref 2 (°C)	-5,28length (m)	temperature (°C)	Stokes	anti-Stokes-744,400	741,678	-0,153	-0,300
-743,385	-200,000	0,030	0,287
-742,371	-200,000	0,004	-0,296
-741,356	-200,000	-0,057	0,422
-740,342	0,771	-0,221	-0,114
-739,327	-200,000	0,021	0,440
-738,312	210,709	-0,187	-0,214
-737,298	-200,000	-0,011	0,243
-736,283	181,141	-0,198	-0,211
-735,269	492,107	0,161	0,268
-734,254	54,767	-0,314	-0,220
-733,239	-172,687	-0,192	0,004
-732,225	-200,000	-0,016	-0,080
-731,210	27,213	0,130	0,079
-730,196	-126,578	-0,133	-0,014
-729,181	-110,047	0,023	0,004
-728,167	-55,129	0,123	-0,040
-727,152	800,000	-0,067	0,161
-726,137	-76,950	-0,054	0,014
-725,123	-200,000	-0,001	-0,012
-724,108	800,000	-0,059	-0,144
-723,094	39,699	-0,141	-0,092
-722,079	-148,278	-0,045	0,003
-721,064	303,301	-0,004	0,006
-720,050	55,682	0,010	-0,007
-719,035	-48,122	-0,097	0,034
-718,021	58,851	-0,039	0,028
-717,006	-65,408	-0,097	-0,028
-715,991	-47,325	-0,139	-0,049
-714,977	-200,000	0,036	-0,137
-713,962	-108,413	-0,242	-0,037
-712,948	-76,340	0,171	0,043
-711,933	251,380	-0,009	-0,011
-710,918	236,979	-0,054	0,065
-709,904	-36,018	-0,047	-0,018
-708,889	800,000	-0,029	-0,060
-707,875	104,622	-0,102	-0,087
-706,860	-179,571	-0,073	-0,001
-705,845	800,000	0,016	0,041
-704,831	-58,025	-0,166	0,052
-703,816	4,992	0,096	-0,051
-702,802	0,121	-0,088	-0,045
-701,787	77,368	-0,057	-0,044
-700,772	-41,074	-0,090	-0,033
-699,758	-58,826	-0,083	-0,026
-698,743	-84,652	0,018	-0,004
-697,729	-200,000	-0,010	0,079
-696,714	-4,577	-0,100	-0,050
-695,699	287,111	0,015	-0,019
-694,685	210,700	-0,086	-0,098
-693,670	800,000	-0,074	-0,155
-692,656	-200,000	-0,044	-0,167
-691,641	-100,586	0,042	0,007
-690,627	-75,996	0,114	0,029
-689,612	-122,826	0,111	0,013
-688,597	-200,000	-0,024	-0,079
-687,583	112,267	-0,141	-0,124
-686,568	-200,000	0,017	0,163
-685,554	-2,889	0,096	0,048
-684,539	800,000	0,034	-0,102
-683,524	-120,843	-0,048	0,006
-682,510	800,000	-0,053	0,142
-681,495	258,428	0,031	0,039
-680,481	-52,334	-0,081	0,027
-679,466	800,000	-0,029	-0,076
-678,451	800,000	0,016	-0,039
-677,437	101,853	0,079	-0,066
-676,422	-47,524	-0,025	-0,009
-675,408	4,798	0,025	0,013
-674,393	-200,000	-0,017	0,071
-673,378	-200,000	-0,045	0,169
-672,364	800,000	-0,061	-0,137
-671,349	800,000	-0,051	-0,128
-670,335	546,602	-0,053	-0,092
-669,320	-200,000	-0,019	-0,099
-668,305	-200,000	0,014	-0,055
-667,291	270,338	-0,043	0,055
-666,276	-5,849	0,153	0,075
-665,262	-95,577	-0,134	0,026
-664,247	214,053	0,057	-0,065
-663,232	800,000	-0,037	0,106
-662,218	515,166	-0,054	-0,092
-661,203	458,071	-0,015	0,025
-660,189	8,453	-0,047	-0,026
-659,174	379,025	0,007	-0,011
-658,159	2,909	-0,107	0,056
-657,145	-50,059	-0,070	0,024
-656,130	270,427	0,092	-0,117
-655,116	-200,000	-0,004	0,108
-654,101	-200,000	0,009	-0,033
-653,086	-137,225	-0,108	-0,009
-652,072	-200,000	0,035	-0,207
-651,057	124,074	-0,062	-0,056
-650,043	-200,000	-0,014	-0,133
-649,028	605,146	0,025	-0,045
-648,014	308,420	-0,061	-0,082
-646,999	114,778	-0,028	0,025
-645,984	-88,239	-0,055	0,012
-644,970	756,544	-0,012	-0,024
-643,955	-156,504	-0,170	0,008
-642,941	602,999	0,041	-0,074
-641,926	13,898	-0,039	-0,022
-640,911	-200,000	0,011	0,069
-639,897	590,436	-0,041	-0,073
-638,882	-200,000	-0,017	-0,088
-637,868	-68,439	-0,173	-0,048
-636,853	-200,000	-0,004	-0,076
-635,838	-171,246	-0,111	0,003
-634,824	800,000	-0,048	-0,147
-633,809	-200,000	0,087	0,000
-632,795	96,285	0,075	-0,062
-631,780	-9,048	-0,021	-0,010
-630,765	-8,000	0,095	0,046
-629,751	800,000	0,009	-0,018
-628,736	800,000	-0,052	0,127
-627,722	-173,138	-0,137	0,003
-626,707	-63,158	0,023	-0,007
-625,692	87,261	-0,041	-0,033
-624,678	683,901	0,050	0,095
-623,663	-200,000	0,021	-0,108
-622,649	232,157	-0,050	-0,059
-621,634	-200,000	-0,021	-0,071
-620,619	170,966	0,015	-0,016
-619,605	800,000	0,023	0,058
-618,590	-152,434	0,086	0,004
-617,576	76,829	-0,075	0,058
-616,561	-98,208	-0,177	-0,033
-615,546	-200,000	-0,021	-0,189
-614,532	800,000	-0,029	-0,063
-613,517	-51,061	-0,127	0,043
-612,503	44,254	0,028	-0,019
-611,488	-200,000	-0,023	-0,179
-610,474	-200,000	0,018	-0,063
-609,459	31,120	0,184	0,113
-608,444	800,000	-0,015	0,039
-607,430	800,000	-0,068	-0,216
-606,415	678,737	0,028	-0,054
-605,401	-56,031	0,062	-0,020
-604,386	-162,997	0,212	-0,007
-603,371	-16,587	-0,082	0,037
-602,357	800,000	-0,014	-0,033
-601,342	0,946	-0,126	-0,065
-600,328	213,179	0,096	-0,109
-599,313	-30,254	-0,037	0,015
-598,298	-169,781	-0,020	0,000
-597,284	-200,000	-0,001	0,100
-596,269	-200,000	-0,011	-0,054
-595,255	13,832	-0,069	-0,039
-594,240	451,408	0,019	0,031
-593,225	285,886	-0,036	-0,047
-592,211	-8,787	-0,147	0,071
-591,196	-151,605	-0,032	-0,002
-590,182	166,691	-0,041	0,042
-589,167	-5,786	0,089	-0,044
-588,152	20,382	0,038	-0,022
-587,138	-48,001	-0,066	-0,023
-586,123	-29,271	0,018	-0,008
-585,109	185,599	0,103	-0,110
-584,094	-162,819	0,064	-0,002
-583,079	-200,000	0,003	-0,071
-582,065	-200,000	0,020	0,145
-581,050	800,000	0,029	0,075
-580,036	227,799	-0,078	-0,092
-579,021	8,245	-0,058	0,031
-578,006	-200,000	-0,017	-0,120
-576,992	-5,949	-0,094	-0,046
-575,977	369,346	0,023	-0,034
-574,963	-60,933	0,062	-0,019
-573,948	46,108	0,051	0,034
-572,934	-64,345	0,034	-0,010
-571,919	-5,740	-0,139	-0,069
-570,904	-44,192	-0,102	-0,037
-569,890	68,068	0,081	-0,059
-568,875	576,534	-0,051	-0,091
-567,861	-200,000	-0,007	0,109
-566,846	150,403	-0,038	0,037
-565,831	31,876	-0,029	0,018
-564,817	-200,000	-0,001	-0,044
-563,802	461,475	-0,020	0,033
-562,788	-47,937	0,148	0,051
-561,773	-200,000	0,005	-0,081
-560,758	-34,035	0,005	0,002
-559,744	800,000	0,046	0,100
-558,729	-200,000	-0,004	0,047
-557,715	70,696	0,030	-0,023
-556,700	-74,735	-0,036	0,009
-555,685	6,277	-0,063	-0,034
-554,671	253,466	0,070	0,086
-553,656	130,244	0,045	0,042
-552,642	-163,884	0,162	-0,005
-551,627	61,100	0,089	0,063
-550,612	406,100	0,020	-0,031
-549,598	800,000	-0,029	-0,063
-548,583	-200,000	0,028	0,143
-547,569	-200,000	0,001	-0,123
-546,554	-12,285	0,101	0,047
-545,539	-200,000	0,016	0,094
-544,525	58,137	0,129	0,091
-543,510	800,000	-0,041	0,107
-542,496	-200,000	-0,009	0,047
-541,481	-75,197	-0,050	0,013
-540,466	-97,385	-0,039	-0,007
-539,452	-200,000	-0,012	0,104
-538,437	347,995	0,048	-0,068
-537,423	88,390	0,050	0,040
-536,408	156,531	0,064	-0,064
-535,393	-19,429	-0,125	-0,055
-534,379	800,000	-0,018	-0,041
-533,364	92,944	-0,051	-0,041
-532,350	61,834	0,058	-0,042
-531,335	-40,024	0,098	0,037
-530,321	516,678	-0,041	0,069
-529,306	800,000	-0,021	-0,045
-528,291	-200,000	0,008	-0,121
-527,277	-113,550	0,048	-0,007
-526,262	173,043	-0,027	-0,028
-525,248	-53,526	0,055	0,018
-524,233	800,000	-0,028	0,062
-523,218	114,339	0,073	0,064
-522,204	-200,000	-0,002	0,015
-521,189	22,198	-0,029	-0,017
-520,175	225,006	0,008	0,009
-519,160	195,001	-0,138	0,151
-518,145	325,353	0,067	-0,093
-517,131	800,000	0,040	0,083
-516,116	-44,992	0,082	0,029
-515,102	165,359	-0,038	0,038
-514,087	-200,000	0,030	0,123
-513,072	-97,214	0,220	0,041
-512,058	-200,000	-0,014	-0,083
-511,043	-58,089	-0,069	0,022
-510,029	436,804	-0,042	-0,067
-509,014	-200,000	0,016	-0,084
-507,999	-56,983	0,112	0,035
-506,985	55,162	-0,014	0,010
-505,970	-108,700	0,059	0,009
-504,956	146,884	0,045	-0,044
-503,941	23,359	-0,077	0,045
-502,926	-55,515	-0,152	0,049
-501,912	-200,000	0,020	-0,073
-500,897	683,683	0,055	-0,104
-499,883	-194,405	-0,049	0,000
-498,868	-200,000	0,014	0,085
-497,853	-32,412	0,049	-0,019
-496,839	-75,157	0,151	-0,038
-495,824	-86,584	-0,048	0,010
-494,810	146,786	0,088	0,085
-493,795	-100,840	0,121	0,021
-492,781	340,829	0,043	-0,061
-491,766	-120,940	-0,198	-0,024
-490,751	-60,295	-0,108	-0,033
-489,737	-200,000	0,029	0,141
-488,722	50,943	-0,046	0,031
-487,708	-200,000	-0,007	0,200
-486,693	-200,000	0,055	0,220
-485,678	335,924	-0,039	0,055
-484,664	62,079	-0,163	-0,117
-483,649	-200,000	0,016	0,065
-482,635	24,144	-0,098	0,058
-481,620	-102,899	0,227	0,038
-480,605	-22,444	-0,113	0,049
-479,591	342,856	0,064	-0,091
-478,576	76,415	-0,128	-0,097
-477,562	-200,000	-0,007	-0,035
-476,547	141,909	-0,070	0,067
-475,532	-151,530	-0,144	0,008
-474,518	-200,000	-0,006	0,072
-473,503	-104,726	0,056	0,009
-472,489	18,302	0,090	-0,052
-471,474	42,152	0,133	0,086
-470,459	-142,406	0,148	0,010
-469,445	453,418	0,030	-0,048
-468,430	333,744	-0,070	-0,097
-467,416	-200,000	0,014	0,052
-466,401	26,297	-0,072	-0,043
-465,386	800,000	0,049	0,135
-464,372	800,000	-0,064	0,130
-463,357	152,012	-0,070	0,068
-462,343	-51,077	-0,031	0,010
-461,328	95,297	0,074	0,061
-460,313	800,000	0,053	0,148
-459,299	285,662	0,086	0,111
-458,284	-200,000	-0,027	0,111
-457,270	800,000	-0,029	0,061
-456,255	742,701	-0,059	-0,114
-455,241	-173,509	-0,085	0,002
-454,226	-63,949	0,059	-0,017
-453,211	257,269	-0,029	-0,035
-452,197	-200,000	-0,002	-0,006
-451,182	194,662	0,038	0,042
-450,168	62,227	0,060	-0,043
-449,153	-93,892	-0,126	0,025
-448,138	197,296	-0,108	0,119
-447,124	134,949	-0,053	-0,049
-446,109	98,580	-0,072	-0,059
-445,095	-200,000	-0,026	0,121
-444,080	-116,554	0,052	0,007
-443,065	800,000	0,044	0,126
-442,051	-200,000	-0,025	0,134
-441,036	52,096	-0,057	-0,039
-440,022	800,000	0,026	-0,081
-439,007	215,746	-0,017	-0,019
-437,992	-154,916	0,171	-0,008
-436,978	-200,000	0,010	-0,060
-435,963	800,000	-0,034	0,099
-434,949	66,017	0,053	0,038
-433,934	-22,387	-0,127	0,055
-432,919	395,703	0,054	-0,080
-431,905	-200,000	0,017	0,056
-430,890	30,969	0,096	0,059
-429,876	-53,313	0,168	0,055
-428,861	134,405	0,053	-0,049
-427,846	49,721	-0,116	-0,078
-426,832	281,959	0,042	-0,054
-425,817	-129,902	-0,088	-0,009
-424,803	-38,685	0,082	0,031
-423,788	-159,901	-0,058	0,002
-422,773	570,052	0,115	0,201
-421,759	-160,843	0,024	-0,001
-420,744	-200,000	-0,024	-0,145
-419,730	115,840	-0,021	-0,019
-418,715	225,567	0,040	-0,047
-417,701	-200,000	-0,001	-0,095
-416,686	800,000	-0,038	-0,103
-415,671	-95,217	0,011	0,002
-414,657	-200,000	-0,013	0,058
-413,642	-65,506	0,077	0,022
-412,628	-200,000	0,059	-0,197
-411,613	99,901	0,103	-0,085
-410,598	-200,000	-0,049	-0,182
-409,584	-200,000	0,047	0,200
-408,569	-143,582	0,033	-0,002
-407,555	-109,652	-0,084	0,012
-406,540	-200,000	-0,001	0,153
-405,525	800,000	0,040	-0,106
-404,511	114,324	0,068	-0,060
-403,496	-60,446	-0,073	0,022
-402,482	239,040	-0,119	0,142
-401,467	285,812	0,035	-0,046
-400,452	-61,810	0,059	-0,018
-399,438	-84,590	-0,022	0,005
-398,423	-42,588	-0,055	0,020
-397,409	64,732	-0,019	0,014
-396,394	-17,598	-0,138	0,062
-395,379	-200,000	-0,012	0,104
-394,365	-200,000	0,003	-0,012
-393,350	800,000	0,026	-0,076
-392,336	-127,818	-0,074	0,008
-391,321	25,787	-0,115	0,068
-390,306	117,914	0,044	0,039
-389,292	-27,316	0,110	-0,046
-388,277	-200,000	-0,012	-0,058
-387,263	220,813	-0,070	-0,081
-386,248	-200,000	0,011	0,072
-385,233	-200,000	0,021	0,116
-384,219	-200,000	-0,012	0,134
-383,204	-18,176	-0,105	-0,047
-382,190	297,431	-0,032	-0,042
-381,175	112,374	-0,122	0,105
-380,160	-111,189	0,050	-0,007
-379,146	94,708	0,076	0,062
-378,131	-58,418	0,105	-0,032
-377,117	-17,877	0,077	-0,035
-376,102	-200,000	0,003	-0,082
-375,088	-200,000	0,000	-0,036
-374,073	-162,994	0,049	-0,002
-373,058	124,040	0,021	-0,019
-372,044	37,110	0,043	-0,027
-371,029	800,000	-0,048	-0,148
-370,015	-28,881	0,044	-0,018
-369,000	-15,041	-0,068	-0,031
-367,985	-200,000	0,020	-0,181
-366,971	434,494	0,100	-0,156
-365,956	49,420	-0,140	0,094
-364,942	42,348	0,158	0,103
-363,927	800,000	-0,040	0,111
-362,912	-200,000	-0,005	0,066
-361,898	286,943	0,038	-0,049
-360,883	73,411	0,137	-0,103
-359,869	510,717	-0,069	-0,116
-358,854	166,489	0,073	-0,074
-357,839	93,846	-0,083	0,067
-356,825	699,255	-0,047	-0,089
-355,810	-49,735	0,022	0,007
-354,796	227,251	0,080	0,093
-353,781	-200,000	0,011	-0,096
-352,766	235,378	-0,034	-0,040
-351,752	165,232	0,050	0,050
-350,737	-101,172	0,102	0,018
-349,723	-50,195	-0,060	0,020
-348,708	92,844	0,076	0,061
-347,693	152,430	-0,114	0,111
-346,679	278,728	-0,087	-0,112
-345,664	28,748	0,062	0,037
-344,650	-200,000	-0,038	-0,143
-343,635	800,000	0,022	0,056
-342,620	-200,000	-0,009	-0,082
-341,606	-19,390	0,114	-0,050
-340,591	414,985	-0,071	-0,109
-339,577	15,713	-0,113	-0,063
-338,562	-18,717	-0,060	0,027
-337,548	800,000	0,066	0,160
-336,533	206,404	-0,013	0,015
-335,518	-200,000	-0,001	-0,020
-334,504	-119,989	0,073	-0,009
-333,489	800,000	0,052	-0,136
-332,475	-155,172	-0,049	0,002
-331,460	226,308	-0,048	0,056
-330,445	94,586	0,038	-0,030
-329,431	-200,000	-0,013	-0,145
-328,416	-47,238	0,088	0,031
-327,402	-200,000	-0,013	-0,046
-326,387	-39,764	-0,100	-0,037
-325,372	-200,000	-0,021	0,104
-324,358	-200,000	-0,006	-0,032
-323,343	-85,670	-0,207	-0,045
-322,329	-200,000	-0,005	-0,143
-321,314	-200,000	0,007	0,026
-320,299	-200,000	-0,001	-0,007
-319,285	129,473	0,081	0,074
-318,270	224,929	-0,073	-0,084
-317,256	481,042	-0,011	0,018
-316,241	-200,000	-0,008	-0,191
-315,226	370,309	-0,005	0,008
-314,212	800,000	0,045	0,100
-313,197	-92,538	0,048	0,010
-312,183	-94,447	-0,265	-0,051
-311,168	31,007	-0,007	-0,004
-310,153	-200,000	-0,001	-0,053
-309,139	328,209	0,095	0,130
-308,124	201,833	0,089	0,098
-307,110	369,969	-0,038	-0,055
-306,095	-200,000	0,010	-0,033
-305,080	-200,000	0,019	0,127
-304,066	-200,000	-0,020	0,249
-303,051	-125,942	-0,136	-0,014
-302,037	31,547	-0,037	-0,023
-301,022	615,845	0,013	0,024
-300,008	128,637	-0,014	0,013
-298,993	88,131	0,042	-0,033
-297,978	194,585	0,070	0,076
-296,964	800,000	-0,019	0,042
-295,949	-200,000	-0,025	0,178
-294,935	-110,108	-0,030	0,004
-293,920	-98,998	0,075	0,013
-292,905	-200,000	0,016	0,124
-291,891	113,406	-0,065	0,056
-290,876	-107,131	0,058	0,009
-289,862	-0,330	-0,050	0,025
-288,847	-94,919	-0,048	-0,009
-287,832	-113,534	0,042	-0,006
-286,818	276,155	0,076	-0,096
-285,803	-200,000	0,016	0,190
-284,789	-167,441	0,052	-0,001
-283,774	95,211	-0,081	-0,066
-282,759	-88,093	-0,054	0,011
-281,745	-200,000	-0,029	-0,138
-280,730	-200,000	0,005	-0,099
-279,716	101,057	-0,093	0,077
-278,701	157,348	0,043	0,042
-277,686	-200,000	-0,004	0,095
-276,672	-200,000	0,013	0,060
-275,657	367,140	-0,039	-0,056
-274,643	-200,000	-0,014	0,259
-273,628	-200,000	0,031	-0,140
-272,613	101,269	-0,010	-0,008
-271,599	-77,399	0,178	0,044
-270,584	35,518	0,067	0,042
-269,570	-200,000	-0,004	0,038
-268,555	-200,000	-0,024	-0,131
-267,540	-200,000	0,008	0,043
-266,526	76,977	-0,114	0,086
-265,511	230,353	0,025	-0,029
-264,497	-87,530	0,052	0,011
-263,482	254,436	0,026	-0,032
-262,467	800,000	-0,035	0,078
-261,453	800,000	-0,089	0,185
-260,438	-47,010	0,118	-0,041
-259,424	-200,000	-0,029	-0,093
-258,409	-200,000	-0,009	-0,155
-257,395	-33,274	-0,095	0,037
-256,380	-200,000	-0,027	0,135
-255,365	73,156	0,102	-0,076
-254,351	-200,000	0,021	0,151
-253,336	574,075	-0,021	-0,037
-252,322	-200,000	-0,011	-0,083
-251,307	800,000	0,014	-0,044
-250,292	104,867	0,050	-0,042
-249,278	63,799	0,063	0,045
-248,263	31,154	-0,078	0,047
-247,249	-200,000	0,009	0,029
-246,234	-139,330	0,151	0,011
-245,219	382,836	-0,069	-0,101
-244,205	-200,000	-0,011	-0,178
-243,190	-200,000	0,004	-0,037
-242,176	87,659	0,049	0,039
-241,161	-200,000	0,006	0,242
-240,146	340,631	-0,080	0,112
-239,132	0,177	0,112	-0,057
-238,117	348,015	-0,072	-0,101
-237,103	-200,000	-0,026	-0,168
-236,088	142,877	-0,075	0,071
-235,073	143,611	0,045	-0,043
-234,059	-200,000	-0,014	-0,058
-233,044	-120,159	-0,047	0,006
-232,030	800,000	0,062	0,156
-231,015	-168,170	0,030	0,001
-230,000	-15,802	-0,036	-0,016
-228,986	800,000	-0,051	-0,106
-227,971	341,479	0,078	-0,108
-226,957	800,000	-0,019	0,048
-225,942	-43,870	-0,115	0,041
-224,927	479,640	-0,050	0,081
-223,913	160,529	-0,052	-0,052
-222,898	-32,169	0,115	-0,045
-221,884	-200,000	0,017	-0,097
-220,869	-3,501	0,068	0,033
-219,855	800,000	0,017	-0,052
-218,840	431,991	-0,008	0,013
-217,825	262,410	-0,052	-0,064
-216,811	-111,346	-0,185	-0,027
-215,796	-200,000	-0,015	-0,086
-214,782	-200,000	0,011	-0,061
-213,767	-99,025	-0,061	-0,011
-212,752	-200,000	-0,003	0,186
-211,738	-30,211	0,067	0,027
-210,723	350,116	0,022	-0,031
-209,709	-31,303	-0,073	0,029
-208,694	185,874	-0,079	-0,083
-207,679	236,199	-0,064	-0,075
-206,665	606,368	0,059	-0,105
-205,650	-15,092	0,134	-0,061
-204,636	225,794	-0,027	-0,031
-203,621	-76,539	0,079	-0,019
-202,606	532,543	-0,037	-0,063
-201,592	-144,115	-0,103	0,007
-200,577	98,706	-0,125	0,103
-199,563	194,601	-0,071	0,077
-198,548	126,078	0,143	0,129
-197,533	-200,000	0,001	-0,031
-196,519	-70,469	-0,041	-0,011
-195,504	12,344	0,031	-0,017
-194,490	-149,811	-0,192	-0,011
-193,475	-200,000	-0,016	-0,161
-192,460	46,260	0,161	-0,106
-191,446	-6,920	0,048	-0,023
-190,431	-200,000	-0,013	0,189
-189,417	171,049	0,061	0,062
-188,402	-200,000	-0,007	-0,040
-187,387	-200,000	0,013	-0,060
-186,373	89,186	0,046	-0,037
-185,358	-200,000	-0,005	0,074
-184,344	-122,191	0,093	-0,011
-183,329	4,883	-0,061	-0,032
-182,315	69,576	0,063	0,046
-181,300	368,660	0,020	0,029
-180,285	-200,000	0,009	-0,057
-179,271	-174,728	-0,140	-0,003
-178,256	460,749	0,051	0,080
-177,242	-101,322	-0,145	-0,025
-176,227	134,573	0,073	0,067
-175,212	-117,667	0,075	0,009
-174,198	-200,000	0,003	0,056
-173,183	36,724	0,047	0,029
-172,169	170,240	0,089	-0,091
-171,154	-177,103	0,059	-0,001
-170,139	-200,000	-0,005	-0,040
-169,125	469,554	0,106	0,169
-168,110	-146,569	-0,156	0,009
-167,096	-104,593	-0,078	-0,013
-166,081	-200,000	0,016	-0,107
-165,066	741,807	0,046	-0,088
-164,052	-89,009	-0,043	-0,009
-163,037	-76,403	0,170	-0,042
-162,023	800,000	0,031	0,077
-161,008	791,718	0,051	-0,100
-159,993	199,614	0,044	0,048
-158,979	-161,696	0,111	0,004
-157,964	-33,749	0,099	-0,039
-156,950	579,224	-0,037	0,064
-155,935	-80,077	-0,033	-0,008
-154,920	800,000	-0,039	0,108
-153,906	-200,000	-0,018	0,103
-152,891	-200,000	-0,029	-0,109
-151,877	-200,000	0,026	-0,098
-150,862	-32,787	-0,060	-0,024
-149,847	-60,571	0,039	-0,012
-148,833	800,000	-0,043	0,100
-147,818	800,000	0,061	0,181
-146,804	-165,127	0,107	0,003
-145,789	50,823	0,079	-0,053
-144,775	-17,602	-0,042	-0,019
-143,760	-160,105	-0,084	-0,003
-142,745	800,000	0,043	0,100
-141,731	800,000	-0,044	-0,125
-140,716	-200,000	-0,016	0,084
-139,702	-61,839	0,108	0,032
-138,687	800,000	-0,104	-0,220
-137,672	108,816	-0,028	-0,024
-136,658	438,737	-0,042	-0,065
-135,643	-200,000	-0,004	0,037
-134,629	625,286	-0,046	0,083
-133,614	-50,959	0,061	0,020
-132,599	-10,470	0,060	-0,028
-131,585	28,352	-0,054	0,032
-130,570	292,153	-0,055	-0,071
-129,556	800,000	0,020	-0,044
-128,541	-30,422	-0,109	-0,044
-127,526	-200,000	-0,054	0,000
-126,512	146,270	-0,087	0,083
-125,497	303,492	0,083	0,109
-124,483	800,000	0,047	-0,135
-123,468	-79,037	0,036	0,009
-122,453	214,194	-0,033	-0,037
-121,439	-26,177	-0,054	0,023
-120,424	295,156	0,044	0,057
-119,410	-6,074	-0,122	0,059
-118,395	105,005	-0,050	0,042
-117,380	319,539	0,098	0,132
-116,366	-92,931	0,095	0,019
-115,351	-200,000	0,012	-0,088
-114,337	189,988	-0,019	-0,021
-113,322	270,128	0,046	-0,058
-112,307	-73,052	0,042	0,011
-111,293	16,541	0,069	-0,038
-110,278	118,226	-0,009	-0,008
-109,264	4,627	0,080	-0,041
-108,249	401,337	-0,056	0,084
-107,234	-112,159	-0,128	0,018
-106,220	49,395	0,129	-0,086
-105,205	-200,000	-0,007	0,096
-104,191	-130,290	0,087	-0,008
-103,176	160,083	0,079	0,078
-102,162	-88,208	-0,023	0,005
-101,147	-200,000	-0,042	0,203
-100,132	631,615	0,023	-0,041
-99,118	-9,708	-0,138	-0,065
-98,103	800,000	0,043	0,088
-97,089	-200,000	0,011	0,047
-96,074	-200,000	0,014	-0,059
-95,059	168,905	0,082	-0,083
-94,045	-52,589	0,044	-0,014
-93,030	13,211	-0,139	-0,076
-92,016	-69,021	-0,029	-0,008
-91,001	58,906	-0,043	0,030
-89,986	-87,978	0,258	-0,054
-88,972	-113,180	0,131	0,018
-87,957	77,160	-0,026	-0,019
-86,943	-79,008	-0,072	0,017
-85,928	-200,000	-0,004	-0,146
-84,913	-26,387	-0,043	0,018
-83,899	47,194	0,184	-0,121
-82,884	-131,622	0,086	-0,008
-81,870	-4,971	0,076	-0,037
-80,855	800,000	0,047	0,128
-79,840	-200,000	-0,013	-0,082
-78,826	248,346	0,109	-0,131
-77,811	316,749	0,044	-0,059
-76,797	-82,781	0,060	-0,014
-75,782	36,901	0,074	0,046
-74,767	6,273	-0,106	0,055
-73,753	800,000	0,059	0,138
-72,738	81,988	0,075	-0,058
-71,724	-200,000	0,008	-0,053
-70,709	154,834	-0,093	-0,090
-69,694	-200,000	-0,001	0,027
-68,680	-200,000	0,040	0,181
-67,665	800,000	-0,029	0,067
-66,651	-45,138	-0,024	-0,008
-65,636	-200,000	0,016	0,059
-64,622	-200,000	-0,010	0,061
-63,607	800,000	-0,032	0,094
-62,592	800,000	-0,016	0,049
-61,578	800,000	0,019	0,041
-60,563	387,779	0,043	0,063
-59,549	279,942	-0,042	-0,053
-58,534	10,387	-1,902	-1,020
-57,519	591,509	-1,148	-2,009
-56,505	-200,000	-0,340	-4,324
-55,490	512,908	0,978	1,615
-54,476	800,000	5,069	11,370
-53,461	-200,000	21,003	334,344
-52,446	800,000	758,302	2339,481
-51,432	554,164	1661,720	2833,048
-50,417	73,535	1662,498	1227,855
-49,403	18,370	1536,116	863,891
-48,388	12,342	1459,241	791,483
-47,373	19,135	1450,193	819,168
-46,359	15,629	1439,330	796,313
-45,344	10,629	1435,267	770,216
-44,330	10,543	1433,116	768,619
-43,315	10,543	1431,424	767,682
-42,300	10,539	1429,762	766,743
-41,286	10,584	1428,446	766,218
-40,271	10,568	1427,086	765,384
-39,257	10,526	1426,209	764,685
-38,242	10,563	1425,041	764,201
-37,227	10,567	1423,732	763,489
-36,213	10,564	1422,582	762,830
-35,198	10,597	1421,332	762,286
-34,184	10,629	1420,538	761,978
-33,169	10,554	1419,181	760,865
-32,154	10,607	1418,146	760,533
-31,140	10,633	1416,923	759,970
-30,125	10,660	1415,911	759,523
-29,111	10,626	1414,715	758,690
-28,096	10,601	1413,700	757,999
-27,082	10,531	1412,321	756,899
-26,067	10,543	1411,306	756,380
-25,052	10,544	1410,274	755,805
-24,038	10,544	1409,238	755,221
-23,023	10,533	1408,426	754,703
-22,009	10,573	1407,071	754,133
-20,994	10,521	1406,275	753,435
-19,979	10,515	1405,313	752,861
-18,965	10,511	1404,455	752,350
-17,950	10,485	1403,548	751,716
-16,936	10,480	1402,741	751,230
-15,921	10,414	1401,772	750,372
-14,906	10,400	1400,874	749,797
-13,892	10,476	1399,815	749,553
-12,877	10,476	1399,049	749,113
-11,863	10,437	1398,347	748,528
-10,848	10,426	1397,401	747,941
-9,833	10,344	1396,665	747,137
-8,819	10,374	1395,484	746,614
-7,804	10,352	1394,740	746,085
-6,790	10,331	1393,700	745,400
-5,775	10,317	1392,618	744,727
-4,760	10,337	1391,766	744,337
-3,746	10,382	1390,718	743,952
-2,731	10,339	1389,913	743,296
-1,717	10,330	1388,974	742,724
-0,702	10,348	1387,154	741,800
0,313	14,420	1300,250	713,961
1,327	30,669	691,233	416,440
2,342	47,889	119,635	78,709
3,356	-0,777	16,473	8,208
4,371	8,677	3,525	1,868
5,386	-63,814	0,984	0,282
6,400	800,000	0,209	0,626
7,415	46,544	-0,223	-0,145
8,429	84,883	-0,202	-0,156
9,444	9,298	-0,377	-0,201
10,459	121,021	-0,167	-0,147
11,473	161,579	-0,193	-0,191
12,488	-53,803	-0,153	-0,049
13,502	-7,015	-0,287	-0,137
14,517	7,242	-0,333	-0,174
15,531	14,037	-0,369	-0,202
16,546	53,261	-0,369	-0,248
17,561	-8,579	-0,397	-0,187
18,575	13,391	-0,108	0,059
19,590	322,776	-0,254	-0,342
20,604	-4,915	-0,222	-0,108
21,619	-29,436	-0,416	-0,167
22,634	23,494	-0,501	-0,290
23,648	107,716	-0,457	-0,383
24,663	221,696	-0,212	-0,240
25,677	150,060	-0,244	-0,233
26,692	-22,587	-0,268	-0,114
27,707	-22,325	-0,463	-0,197
28,721	-24,567	-0,495	-0,207
29,736	111,787	-0,398	-0,338
30,750	63,412	-0,516	-0,363
31,765	-16,506	-0,426	-0,189
32,780	-34,971	-0,455	-0,174
33,794	384,733	-0,227	-0,330
34,809	79,451	-0,360	-0,272
35,823	121,045	-0,283	-0,248
36,838	11,412	-0,486	-0,261
37,853	-23,398	-0,382	-0,161
38,867	38,740	-0,326	-0,204
39,882	211,562	-0,283	-0,314
40,896	74,306	-0,323	-0,238
41,911	-22,564	-0,315	-0,134
42,926	7,027	-0,386	-0,202
43,940	199,355	-0,251	-0,271
44,955	-12,438	-0,466	-0,213
45,969	210,183	-0,330	-0,364
46,984	144,443	-0,301	-0,283
47,999	22,428	-0,362	-0,208
49,013	-50,106	-0,376	-0,124
50,028	58,354	-0,419	-0,288
51,042	25,683	-0,389	-0,227
52,057	38,863	-0,400	-0,251
53,071	137,317	-0,309	-0,284
54,086	193,386	-0,237	-0,252
55,101	35,775	-0,333	-0,205
56,115	800,000	-0,150	-0,324
57,130	59,358	-0,363	-0,251
58,144	19,651	-0,308	-0,174
59,159	138,261	-0,354	-0,326
60,174	-22,241	-0,387	-0,164
61,188	163,227	-0,290	-0,287
62,203	169,224	-0,225	-0,226
63,217	129,272	-0,241	-0,216
64,232	2,451	-0,396	-0,200
65,247	119,118	-0,249	-0,216
66,261	188,954	-0,311	-0,327
67,276	244,947	-0,292	-0,345
68,290	679,244	-0,180	-0,331
69,305	50,433	-0,385	-0,255
70,320	486,359	-0,160	-0,257
71,334	-54,691	-0,290	-0,091
72,349	-6,779	-0,298	-0,142
73,363	-50,611	-0,398	-0,131
74,378	-31,908	-0,376	-0,147
75,393	30,295	-0,324	-0,194
76,407	79,769	-0,232	-0,174
77,422	-74,519	-0,316	-0,079
78,436	-14,665	-0,250	-0,112
79,451	98,518	-0,315	-0,255
80,466	127,894	-0,266	-0,237
81,480	108,433	-0,251	-0,210
82,495	57,029	-0,465	-0,317
83,509	-130,429	-0,318	-0,030
84,524	47,370	-0,253	-0,165
85,539	26,969	-0,197	-0,116
86,553	41,465	-0,300	-0,190
87,568	49,887	-0,294	-0,194
88,582	38,604	-0,252	-0,157
89,597	-33,249	-0,226	-0,087
90,611	-6,827	-0,225	-0,107
91,626	19,960	-0,220	-0,124
92,641	18,211	-0,296	-0,165
93,655	-57,310	-0,271	-0,083
94,670	-36,398	-0,309	-0,116
95,684	4,730	-0,258	-0,132
96,699	61,524	-0,438	-0,304
97,714	62,784	-0,382	-0,267
98,728	4,438	-0,206	-0,105
99,743	197,663	-0,192	-0,205
100,757	45,653	-0,302	-0,195
101,772	-56,347	-0,412	-0,127
102,787	13,564	-0,298	-0,162
103,801	-48,020	-0,340	-0,114
104,816	271,933	-0,129	-0,159
105,830	-19,879	-0,228	-0,098
106,845	226,006	-0,230	-0,261
107,860	800,000	-0,119	-0,252
108,874	321,134	-0,264	-0,352
109,889	30,576	-0,357	-0,213
110,903	-200,000	-0,102	-0,351
111,918	212,447	-0,225	-0,248
112,933	292,256	-0,135	-0,172
113,947	216,939	-0,184	-0,204
114,962	-21,989	-0,340	-0,144
115,976	10,613	-0,201	-0,107
116,991	-77,721	-0,238	-0,057
118,006	-51,688	-0,234	-0,076
119,020	-60,009	-0,391	-0,116
120,035	184,463	-0,242	-0,251
121,049	124,266	-0,247	-0,217
122,064	84,821	-0,279	-0,214
123,079	348,400	-0,110	-0,152
124,093	54,935	-0,179	-0,121
125,108	54,626	-0,273	-0,184
126,122	142,165	-0,187	-0,173
127,137	-7,632	-0,242	-0,114
128,151	469,179	-0,100	-0,158
129,166	-150,481	-0,307	-0,016
130,181	128,392	-0,233	-0,207
131,195	403,476	-0,194	-0,286
132,210	-123,249	-0,259	0,029
133,224	-17,558	-0,282	-0,123
134,239	42,262	-0,303	-0,192
135,254	800,000	-0,088	-0,271
136,268	196,824	-0,219	-0,233
137,283	-159,078	-0,214	0,008
138,297	158,180	-0,196	-0,189
139,312	186,905	-0,214	-0,222
140,327	-33,478	-0,265	-0,102
141,341	36,131	-0,205	-0,125
142,356	-20,712	-0,284	-0,121
143,370	206,989	-0,248	-0,270
144,385	8,116	-0,158	-0,082
145,400	-13,057	-0,317	-0,143
146,414	800,000	-0,110	-0,271
147,429	142,370	-0,274	-0,253
148,443	10,337	-0,265	-0,140
149,458	571,956	-0,073	-0,124
150,473	-40,568	-0,278	-0,100
151,487	127,264	-0,226	-0,200
152,502	138,931	-0,251	-0,229
153,516	369,829	-0,180	-0,255
154,531	110,853	-0,250	-0,210
155,546	105,431	-0,171	-0,141
156,560	71,579	-0,211	-0,152
157,575	158,040	-0,230	-0,222
158,589	-40,670	-0,476	-0,171
159,604	96,081	-0,238	-0,189
160,619	-115,963	-0,260	-0,033
161,633	109,536	-0,308	-0,256
162,648	120,737	-0,255	-0,221
163,662	505,239	-0,120	-0,194
164,677	347,149	-0,101	-0,139
165,692	800,000	-0,036	-0,079
166,706	-147,388	-0,260	-0,015
167,721	-53,839	-0,358	-0,113
168,735	-200,000	-0,053	-0,204
169,750	103,220	-0,247	-0,201
170,764	84,735	-0,213	-0,162
171,779	-190,978	-0,206	-0,001
172,794	407,113	-0,216	-0,318
173,808	-6,253	-0,293	-0,138
174,823	-1,312	-0,166	-0,081
175,837	205,006	-0,255	-0,276
176,852	154,847	-0,153	-0,146
177,867	595,088	-0,092	-0,159
178,881	54,339	-0,244	-0,163
179,896	482,189	-0,220	-0,348
180,910	800,000	-0,067	-0,157
181,925	-98,868	-0,261	-0,046
182,940	24,664	-0,221	-0,126
183,954	-33,746	-0,289	-0,110
184,969	115,946	-0,221	-0,188
185,983	42,954	-0,144	-0,091
186,998	423,817	-0,234	-0,350
188,013	127,059	-0,274	-0,241
189,027	57,826	-0,287	-0,194
190,042	162,030	-0,339	-0,330
191,056	100,734	-0,246	-0,199
192,071	423,846	-0,168	-0,252
193,086	90,053	-0,182	-0,141
194,100	-110,446	-0,248	-0,035
195,115	-54,750	-0,147	-0,046
196,129	168,927	-0,180	-0,178
197,144	165,637	-0,212	-0,208
198,159	286,801	-0,197	-0,247
199,173	15,557	-0,169	-0,092
200,188	18,306	-0,147	-0,081
201,202	-31,082	-0,193	-0,075
202,217	81,777	-0,238	-0,178
203,232	54,274	-0,310	-0,207
204,246	247,375	-0,203	-0,238
205,261	-200,000	-0,039	-0,156
206,275	572,261	-0,119	-0,202
207,290	-145,806	-0,227	0,014
208,304	155,490	-0,192	-0,184
209,319	2,095	-0,254	-0,127
210,334	-95,173	-0,270	-0,050
211,348	362,355	-0,204	-0,284
212,363	24,556	-0,229	-0,131
213,377	279,906	-0,110	-0,136
214,392	-29,236	-0,156	-0,061
215,407	800,000	0,036	-0,099
216,421	-98,293	-0,108	-0,019
217,436	98,584	-0,134	-0,107
218,450	94,115	-0,163	-0,128
219,465	55,644	-0,325	-0,218
220,480	52,479	-0,178	-0,118
221,494	121,376	-0,154	-0,133
222,509	83,640	-0,321	-0,242
223,523	-87,639	-0,147	-0,030
224,538	168,657	-0,189	-0,187
225,553	243,386	-0,190	-0,220
226,567	239,060	-0,208	-0,239
227,582	549,744	-0,118	-0,196
228,596	225,252	-0,089	-0,100
229,611	50,247	-0,113	-0,074
230,626	60,433	-0,206	-0,141
231,640	-37,063	-0,274	-0,101
232,655	657,040	-0,150	-0,268
233,669	70,710	-0,212	-0,152
234,684	477,637	-0,163	-0,255
235,699	-156,974	-0,139	-0,006
236,713	-200,000	-0,189	-0,000
237,728	90,425	-0,176	-0,136
238,742	230,397	-0,172	-0,195
239,757	75,356	-0,292	-0,213
240,772	143,133	-0,176	-0,162
241,786	-105,886	-0,102	-0,016
242,801	-118,184	-0,090	-0,011
243,815	-69,801	-0,226	-0,059
244,830	185,185	-0,218	-0,224
245,844	469,706	-0,113	-0,177
246,859	116,177	-0,249	-0,211
247,874	43,344	-0,222	-0,140
248,888	104,925	-0,246	-0,201
249,903	-200,000	-0,034	-0,184
250,917	-23,104	-0,235	-0,097
251,932	-147,032	-0,231	-0,013
252,947	800,000	-0,060	-0,134
253,961	308,971	-0,195	-0,252
254,976	709,811	-0,105	-0,193
255,990	349,029	-0,133	-0,182
257,005	-38,294	-0,078	0,028
258,020	-104,723	-0,180	-0,028
259,034	88,609	-0,188	-0,144
260,049	516,855	-0,082	-0,133
261,063	-26,621	-0,241	-0,097
262,078	146,040	-0,189	-0,175
263,093	-36,780	-0,084	-0,031
264,107	0,092	-0,187	-0,091
265,122	9,971	-0,091	-0,048
266,136	442,924	-0,033	-0,050
267,151	-192,836	-0,240	0,001
268,166	90,019	-0,192	-0,148
269,180	260,032	-0,116	-0,138
270,195	786,141	-0,069	-0,130
271,209	46,305	-0,222	-0,142
272,224	-165,212	-0,179	-0,005
273,239	-161,328	-0,193	0,007
274,253	-90,564	-0,074	0,015
275,268	107,892	-0,117	-0,096
276,282	29,658	-0,186	-0,109
277,297	-9,200	-0,129	-0,059
278,312	239,362	-0,044	-0,051
279,326	147,640	-0,145	-0,135
280,341	-47,845	-0,194	-0,064
281,355	-97,238	-0,160	-0,028
282,370	359,769	-0,098	-0,135
283,384	-43,027	-0,214	-0,074
284,399	80,239	-0,189	-0,140
285,414	-66,363	-0,202	-0,055
286,428	220,053	-0,154	-0,170
287,443	210,210	-0,094	-0,101
288,457	123,729	-0,104	-0,090
289,472	152,912	-0,212	-0,199
290,487	12,214	-0,091	-0,048
291,501	121,397	-0,247	-0,211
292,516	128,287	-0,161	-0,141
293,530	-109,827	-0,053	0,008
294,545	-49,839	-0,174	0,056
295,560	-87,928	-0,167	0,034
296,574	-21,610	-0,182	-0,076
297,589	212,219	-0,239	-0,259
298,603	-200,000	-0,058	-0,186
299,618	378,220	-0,086	-0,121
300,633	-7,833	-0,205	-0,095
301,647	548,502	-0,050	-0,083
302,662	-200,000	-0,046	-0,233
303,676	165,743	-0,099	-0,096
304,691	133,471	-0,243	-0,216
305,706	90,808	-0,164	-0,126
306,720	-200,000	-0,001	-0,221
307,735	800,000	-0,094	-0,247
308,749	5,720	-0,253	-0,128
309,764	-200,000	-0,011	-0,061
310,779	-68,607	-0,239	-0,063
311,793	301,076	-0,147	-0,186
312,808	-98,088	-0,217	-0,038
313,822	14,597	-0,209	-0,112
314,837	-3,343	-0,180	-0,086
315,852	800,000	0,029	0,075
316,866	268,389	-0,058	-0,069
317,881	22,697	-0,163	-0,092
318,895	800,000	-0,048	-0,099
319,910	2,273	-0,082	-0,041
320,925	102,569	-0,176	-0,141
321,939	141,759	-0,130	-0,119
322,954	-200,000	-0,021	-0,073
323,968	-200,000	-0,046	-0,182
324,983	276,091	-0,022	-0,027
325,997	800,000	-0,027	-0,073
327,012	283,508	-0,104	-0,129
328,027	413,370	-0,113	-0,165
329,041	58,760	-0,056	0,038
330,056	-77,776	-0,113	0,027
331,070	102,974	-0,064	-0,051
332,085	274,771	-0,105	-0,128
333,100	0,591	-0,206	-0,101
334,114	524,848	-0,160	-0,258
335,129	-26,525	-0,211	-0,084
336,143	182,480	-0,176	-0,178
337,158	-27,355	-0,132	-0,052
338,173	181,637	-0,145	-0,146
339,187	-140,108	-0,092	0,007
340,202	119,054	-0,145	-0,123
341,216	36,177	-0,172	-0,104
342,231	-7,896	-0,154	-0,071
343,246	100,907	-0,136	-0,109
344,260	-200,000	-0,008	-0,158
345,275	-57,095	-0,135	-0,040
346,289	-84,571	-0,107	-0,023
347,304	-200,000	-0,054	-0,286
348,319	268,701	-0,157	-0,189
349,333	-87,548	-0,234	-0,048
350,348	70,697	-0,217	-0,153
351,362	-33,861	-0,148	-0,055
352,377	433,219	-0,048	-0,072
353,392	-143,435	-0,184	0,012
354,406	800,000	-0,064	-0,143
355,421	207,126	1309,991	1399,077
356,435	159,320	1470,112	1399,545
