DTS Sentinel unit serial number:	SN410029Multiplexer serial number:	ORYXHardware model number:	OX2-SRSoftware version number:	ORYX F/W v4,00 Oryx Data Collector v3.7.2.0data status	okinstallation	B3 Nyhavnadifferential loss correction	single-endedforward channel	channel 1reverse channel	N/Adate	2023/12/01time	11:27:30forward acquisition time	300,00reverse acquisition time	0,00gamma	499,1914k internal	0,3213k external	0,3213temperature offset calibration	1,0000default loss term (dB/km)	0,3820temperature slope calibration	1,0000multiplexer offset coefficient	1,0000multiplexer slope coefficient	1,0000fibre end	0,00T internal ref (°C)	8,42T ext. ref 1 (°C)	-5,55T ext. ref 2 (°C)	-5,64length (m)	temperature (°C)	Stokes	anti-Stokes-744,400	390,617	-0,234	-0,352
-743,385	-200,000	0,064	0,211
-742,371	278,825	-0,120	-0,155
-741,356	-200,000	0,036	0,262
-740,342	243,955	-0,100	-0,122
-739,327	94,865	-0,178	0,147
-738,312	86,590	-0,204	-0,163
-737,298	-200,000	-0,034	0,180
-736,283	58,814	-0,248	-0,176
-735,269	-200,000	0,034	0,356
-734,254	325,624	-0,157	-0,218
-733,239	268,468	-0,112	0,143
-732,225	102,870	-0,159	-0,135
-731,210	-34,126	0,107	0,042
-730,196	-200,000	0,000	-0,071
-729,181	-15,924	0,037	0,017
-728,167	404,508	-0,020	-0,031
-727,152	-200,000	-0,011	0,076
-726,137	9,915	-0,128	-0,070
-725,123	-64,498	0,048	0,014
-724,108	800,000	-0,047	-0,098
-723,094	63,213	-0,114	-0,083
-722,079	58,671	-0,091	0,065
-721,064	427,184	-0,037	0,058
-720,050	-200,000	-0,003	-0,104
-719,035	-200,000	0,009	-0,049
-718,021	362,670	-0,070	-0,103
-717,006	130,103	0,026	0,024
-715,991	-200,000	-0,193	0,000
-714,977	-117,091	-0,093	0,012
-713,962	800,000	-0,035	0,082
-712,948	77,822	0,054	0,042
-711,933	-10,787	-0,118	0,056
-710,918	113,648	0,187	0,164
-709,904	90,093	-0,152	-0,123
-708,889	-200,000	-0,037	-0,122
-707,875	-200,000	0,003	-0,150
-706,860	372,359	0,058	0,086
-705,845	34,930	0,028	0,018
-704,831	408,497	-0,071	0,109
-703,816	39,710	-0,103	0,067
-702,802	-144,363	0,110	-0,007
-701,787	-200,000	0,009	-0,137
-700,772	149,431	-0,082	-0,081
-699,758	93,665	0,014	-0,011
-698,743	-71,917	0,084	-0,022
-697,729	800,000	0,011	0,022
-696,714	269,000	-0,076	0,096
-695,699	-200,000	-0,001	-0,089
-694,685	292,553	-0,050	0,066
-693,670	220,297	-0,032	0,037
-692,656	-200,000	0,026	-0,113
-691,641	-145,151	-0,030	0,002
-690,627	382,581	0,024	0,036
-689,612	-98,633	-0,047	-0,009
-688,597	-200,000	-0,010	-0,093
-687,583	-24,409	0,012	0,005
-686,568	-12,557	0,039	-0,019
-685,554	-32,177	-0,153	-0,061
-684,539	-104,436	0,093	-0,015
-683,524	-36,593	-0,050	0,019
-682,510	-76,429	0,051	0,013
-681,495	327,804	-0,015	-0,021
-680,481	15,073	-0,185	0,105
-679,466	-200,000	-0,005	-0,130
-678,451	-105,405	0,015	0,002
-677,437	87,712	0,078	-0,062
-676,422	327,591	0,072	0,100
-675,408	-127,717	0,159	0,016
-674,393	23,275	0,099	-0,059
-673,378	197,736	-0,091	-0,101
-672,364	800,000	0,026	-0,059
-671,349	800,000	0,026	-0,054
-670,335	370,280	-0,050	0,073
-669,320	698,673	-0,066	0,125
-668,305	800,000	0,030	-0,065
-667,291	-200,000	-0,025	-0,102
-666,276	-54,615	-0,069	0,023
-665,262	220,790	-0,065	0,076
-664,247	800,000	-0,068	-0,165
-663,232	-200,000	-0,023	0,079
-662,218	64,260	0,096	0,070
-661,203	-200,000	-0,020	0,177
-660,189	-55,552	0,124	-0,040
-659,174	72,069	-0,060	-0,045
-658,159	101,212	-0,174	-0,146
-657,145	800,000	-0,039	0,100
-656,130	-44,546	-0,019	-0,007
-655,116	-0,159	-0,053	-0,027
-654,101	311,014	-0,036	0,049
-653,086	402,829	0,046	0,070
-652,072	-45,111	-0,074	0,026
-651,057	-69,431	-0,065	-0,018
-650,043	243,561	-0,150	-0,181
-649,028	-128,032	0,065	-0,007
-648,014	-200,000	-0,020	-0,066
-646,999	66,016	-0,097	0,071
-645,984	-200,000	-0,015	-0,116
-644,970	84,289	-0,083	-0,066
-643,955	414,550	-0,067	-0,103
-642,941	262,623	0,019	0,024
-641,926	800,000	0,035	0,077
-640,911	-59,291	0,038	0,012
-639,897	138,458	0,060	-0,057
-638,882	672,491	-0,028	0,053
-637,868	192,637	0,011	0,012
-636,853	628,590	-0,036	0,066
-635,838	-27,577	0,055	-0,023
-634,824	-90,197	0,055	0,011
-633,809	48,630	0,107	0,072
-632,795	-90,598	-0,182	0,038
-631,780	-200,000	-0,005	-0,092
-630,765	800,000	-0,025	0,068
-629,751	-200,000	-0,013	-0,134
-628,736	98,029	-0,127	-0,105
-627,722	800,000	-0,021	0,049
-626,707	200,487	-0,065	-0,073
-625,692	-21,894	-0,062	-0,027
-624,678	-87,631	0,053	0,012
-623,663	64,501	-0,042	-0,030
-622,649	132,696	-0,117	-0,109
-621,634	800,000	-0,042	0,089
-620,619	152,616	-0,071	-0,070
-619,605	-200,000	-0,031	0,133
-618,590	75,930	-0,011	0,009
-617,576	12,490	0,175	0,097
-616,561	-200,000	0,010	0,121
-615,546	-200,000	0,010	-0,081
-614,532	-171,150	-0,067	0,002
-613,517	800,000	-0,036	-0,074
-612,503	81,232	-0,198	-0,154
-611,488	-81,002	0,074	-0,018
-610,474	-200,000	-0,013	0,133
-609,459	-51,070	-0,095	-0,032
-608,444	53,479	-0,072	0,050
-607,430	-50,792	-0,139	-0,047
-606,415	800,000	-0,063	-0,139
-605,401	-151,380	0,150	-0,008
-604,386	-200,000	0,011	0,132
-603,371	-200,000	-0,028	0,134
-602,357	224,926	0,042	0,049
-601,342	-200,000	0,029	-0,101
-600,328	754,344	0,041	-0,080
-599,313	-200,000	-0,006	0,055
-598,298	-33,511	-0,118	-0,047
-597,284	-200,000	0,030	0,201
-596,269	-200,000	-0,003	0,043
-595,255	-46,178	0,034	-0,012
-594,240	312,539	0,032	-0,044
-593,225	573,657	-0,060	0,105
-592,211	-200,000	0,005	-0,137
-591,196	800,000	-0,024	-0,067
-590,182	-102,677	-0,004	0,001
-589,167	-74,412	-0,047	-0,012
-588,152	143,276	0,028	0,027
-587,138	374,971	0,021	0,031
-586,123	81,166	-0,156	-0,121
-585,109	800,000	-0,036	0,086
-584,094	-200,000	0,005	-0,159
-583,079	-43,560	0,071	0,026
-582,065	-200,000	-0,002	-0,023
-581,050	130,044	-0,073	0,067
-580,036	576,475	0,053	0,094
-579,021	289,920	-0,050	-0,066
-578,006	143,037	0,041	-0,039
-576,992	-32,415	-0,079	0,031
-575,977	38,232	0,107	0,068
-574,963	333,595	0,168	0,234
-573,948	-83,601	-0,114	-0,026
-572,934	-94,073	0,079	-0,015
-571,919	-7,746	-0,063	0,031
-570,904	241,055	0,128	-0,154
-569,890	800,000	-0,027	-0,064
-568,875	125,434	0,048	0,043
-567,861	113,996	-0,095	-0,084
-566,846	800,000	-0,058	0,144
-565,831	800,000	-0,078	0,158
-564,817	-200,000	-0,049	-0,248
-563,802	111,082	0,125	-0,109
-562,788	-200,000	-0,173	-0,000
-561,773	-200,000	0,030	0,132
-560,758	800,000	-0,022	-0,070
-559,744	-79,645	-0,034	0,008
-558,729	18,832	-0,025	-0,014
-557,715	800,000	-0,047	-0,133
-556,700	-130,965	-0,077	-0,007
-555,685	-200,000	-0,001	0,009
-554,671	-76,596	0,040	-0,010
-553,656	-0,217	0,034	-0,017
-552,642	-162,446	-0,070	0,002
-551,627	289,631	-0,064	0,084
-550,612	-200,000	-0,000	0,036
-549,598	67,475	-0,109	-0,080
-548,583	-200,000	-0,018	-0,118
-547,569	-146,413	-0,104	0,006
-546,554	-200,000	-0,001	0,036
-545,539	-2,285	0,045	0,023
-544,525	113,768	0,065	-0,057
-543,510	-38,595	0,043	-0,016
-542,496	38,214	-0,125	-0,080
-541,481	800,000	0,014	-0,044
-540,466	49,269	-0,040	-0,027
-539,452	46,573	-0,083	-0,055
-538,437	-7,359	0,142	0,069
-537,423	31,022	-0,084	0,052
-536,408	351,750	0,077	0,109
-535,393	13,612	-0,017	0,009
-534,379	-81,465	0,080	0,019
-533,364	394,853	0,052	-0,077
-532,350	-200,000	-0,005	-0,108
-531,335	-200,000	0,000	-0,118
-530,321	10,335	0,064	0,035
-529,306	194,464	0,026	0,028
-528,291	-68,977	-0,079	0,022
-527,277	-200,000	0,017	-0,103
-526,262	-157,560	-0,014	-0,001
-525,248	225,028	0,021	-0,024
-524,233	-54,469	0,196	0,063
-523,218	-65,758	-0,093	0,027
-522,204	-85,269	0,230	0,051
-521,189	634,130	-0,040	0,072
-520,175	-67,786	-0,025	0,007
-519,160	575,428	0,040	-0,070
-518,145	800,000	-0,006	-0,018
-517,131	38,537	0,065	0,041
-516,116	-62,045	-0,098	-0,029
-515,102	-200,000	-0,000	-0,037
-514,087	276,222	-0,128	-0,163
-513,072	116,954	0,024	-0,021
-512,058	-33,567	-0,094	0,037
-511,043	554,100	0,048	0,084
-510,029	-153,216	0,029	-0,001
-509,014	79,444	0,149	0,115
-507,999	261,835	-0,103	0,129
-506,985	63,713	0,030	-0,021
-505,970	39,960	-0,101	-0,065
-504,956	61,443	0,105	-0,075
-503,941	245,363	0,070	0,085
-502,926	800,000	-0,058	0,152
-501,912	-69,110	0,041	-0,011
-500,897	-43,768	-0,078	0,028
-499,883	-81,007	0,166	-0,039
-498,868	272,935	-0,057	0,073
-497,853	621,594	0,040	-0,073
-496,839	-124,194	-0,053	-0,006
-495,824	417,017	-0,035	-0,054
-494,810	258,923	0,048	0,060
-493,795	-15,152	-0,055	-0,025
-492,781	-200,000	-0,032	0,126
-491,766	800,000	0,052	0,126
-490,751	-169,365	0,032	0,001
-489,737	299,312	-0,020	0,026
-488,722	-200,000	-0,076	-0,000
-487,708	800,000	0,013	0,028
-486,693	-200,000	-0,015	0,063
-485,678	110,144	0,064	0,055
-484,664	43,433	0,020	-0,013
-483,649	-52,138	-0,094	0,031
-482,635	-200,000	0,002	-0,111
-481,620	115,416	0,025	0,022
-480,605	197,681	0,109	0,119
-479,591	-200,000	0,000	0,016
-478,576	-200,000	-0,002	0,180
-477,562	110,800	-0,059	-0,051
-476,547	-172,019	-0,084	0,002
-475,532	200,006	-0,142	0,156
-474,518	-18,162	0,039	-0,018
-473,503	-60,054	-0,072	0,022
-472,489	768,273	-0,045	0,088
-471,474	288,820	0,100	-0,130
-470,459	-35,036	0,050	0,020
-469,445	-17,128	-0,085	-0,038
-468,430	-200,000	0,004	-0,102
-467,416	67,122	-0,048	-0,035
-466,401	317,349	0,095	0,129
-465,386	-200,000	-0,003	0,019
-464,372	132,017	-0,005	-0,004
-463,357	800,000	-0,054	-0,147
-462,343	-72,455	0,113	-0,030
-461,328	183,310	-0,074	-0,078
-460,313	-81,626	-0,071	-0,017
-459,299	23,518	0,056	0,033
-458,284	124,400	0,080	0,072
-457,270	-36,008	0,081	0,031
-456,255	-72,124	-0,060	-0,016
-455,241	-200,000	-0,010	-0,170
-454,226	800,000	-0,060	-0,164
-453,211	-200,000	0,036	0,164
-452,197	110,662	-0,077	0,066
-451,182	48,962	-0,092	0,062
-450,168	-173,519	0,068	-0,001
-449,153	93,633	-0,125	0,101
-448,138	-108,333	-0,162	-0,025
-447,124	-200,000	-0,003	-0,056
-446,109	363,265	-0,028	0,040
-445,095	-200,000	-0,001	0,070
-444,080	-67,608	-0,104	0,029
-443,065	800,000	-0,070	0,160
-442,051	88,373	-0,067	-0,053
-441,036	339,287	0,096	-0,134
-440,022	-84,525	0,238	-0,053
-439,007	-82,360	-0,066	-0,015
-437,992	196,144	0,052	0,056
-436,978	-200,000	0,028	0,195
-435,963	-200,000	-0,028	0,139
-434,949	51,040	0,036	0,025
-433,934	415,426	-0,052	-0,079
-432,919	-200,000	-0,033	-0,115
-431,905	-200,000	-0,009	-0,117
-430,890	-73,883	0,061	0,016
-429,876	-31,974	0,123	0,049
-428,861	236,636	0,059	-0,071
-427,846	27,792	0,041	0,025
-426,832	177,961	-0,081	-0,085
-425,817	800,000	-0,030	-0,066
-424,803	-177,877	-0,034	-0,001
-423,788	800,000	0,066	0,161
-422,773	-200,000	0,010	-0,095
-421,759	181,443	-0,068	-0,071
-420,744	-70,932	0,021	-0,006
-419,730	-142,389	-0,035	0,002
-418,715	128,974	-0,014	-0,013
-417,701	800,000	0,037	-0,088
-416,686	7,092	-0,179	0,095
-415,671	-200,000	0,033	0,120
-414,657	-111,489	-0,076	-0,011
-413,642	-200,000	0,001	0,025
-412,628	800,000	-0,030	0,092
-411,613	21,658	-0,058	-0,034
-410,598	656,514	-0,050	-0,093
-409,584	-102,716	-0,041	-0,007
-408,569	-59,043	0,160	0,049
-407,555	-200,000	0,025	0,099
-406,540	75,196	-0,065	-0,049
-405,525	105,532	-0,057	-0,048
-404,511	228,969	0,083	-0,097
-403,496	-200,000	-0,006	0,024
-402,482	800,000	0,047	-0,145
-401,467	-58,363	0,110	-0,034
-400,452	69,781	0,087	0,064
-399,438	-200,000	0,047	0,204
-398,423	-200,000	-0,015	-0,107
-397,409	487,648	0,012	-0,020
-396,394	800,000	0,051	0,101
-395,379	-200,000	-0,021	-0,111
-394,365	-200,000	-0,031	0,131
-393,350	-200,000	0,004	0,066
-392,336	800,000	-0,044	0,132
-391,321	-200,000	-0,031	0,113
-390,306	228,556	0,047	-0,054
-389,292	-200,000	0,001	0,042
-388,277	366,855	0,078	0,113
-387,263	-75,469	-0,047	-0,012
-386,248	82,078	0,024	0,019
-385,233	243,603	0,126	0,151
-384,219	-88,140	-0,170	-0,036
-383,204	-200,000	0,014	-0,064
-382,190	-145,498	-0,208	0,013
-381,175	101,563	-0,067	0,056
-380,160	-105,021	0,131	0,021
-379,146	-83,371	-0,084	-0,019
-378,131	238,837	0,062	-0,074
-377,117	326,449	-0,075	-0,103
-376,102	718,354	0,015	-0,028
-375,088	-3,311	-0,041	-0,020
-374,073	173,212	-0,010	-0,010
-373,058	-200,000	0,006	0,028
-372,044	292,541	-0,020	0,026
-371,029	-42,916	0,058	0,021
-370,015	-200,000	-0,015	-0,086
-369,000	-55,204	-0,091	-0,029
-367,985	50,012	-0,025	0,017
-366,971	-200,000	-0,028	0,131
-365,956	800,000	-0,013	-0,030
-364,942	322,154	0,028	-0,038
-363,927	255,515	0,080	-0,098
-362,912	-200,000	-0,003	0,012
-361,898	642,071	-0,079	-0,144
-360,883	-200,000	-0,001	-0,104
-359,869	297,582	0,035	0,046
-358,854	127,604	0,099	0,090
-357,839	-14,816	0,047	0,021
-356,825	-190,399	0,132	-0,001
-355,810	-200,000	0,008	0,078
-354,796	701,978	0,063	0,118
-353,781	800,000	-0,058	-0,162
-352,766	-33,152	-0,148	-0,058
-351,752	40,533	0,109	-0,070
-350,737	62,915	0,075	0,053
-349,723	800,000	-0,029	-0,073
-348,708	-48,530	0,122	0,042
-347,693	-31,347	-0,095	0,038
-346,679	-200,000	-0,029	-0,137
-345,664	-200,000	0,007	-0,032
-344,650	800,000	-0,038	0,093
-343,635	800,000	0,008	-0,018
-342,620	150,623	0,078	-0,076
-341,606	-143,800	0,025	-0,002
-340,591	86,314	-0,093	-0,073
-339,577	116,109	0,047	0,041
-338,562	157,380	-0,056	-0,055
-337,548	109,860	0,037	-0,032
-336,533	-200,000	0,022	0,069
-335,518	-64,300	-0,056	0,016
-334,504	-190,309	0,075	-0,001
-333,489	-200,000	0,028	0,119
-332,475	196,083	0,116	0,126
-331,460	-39,576	-0,138	0,051
-330,445	68,987	0,091	0,067
-329,431	-200,000	-0,009	-0,029
-328,416	-200,000	0,012	0,131
-327,402	318,614	-0,052	-0,071
-326,387	-15,449	0,052	0,024
-325,372	-148,740	-0,092	0,005
-324,358	-21,576	-0,128	-0,056
-323,343	-176,369	-0,073	-0,001
-322,329	-125,824	0,094	-0,010
-321,314	-66,641	0,161	-0,045
-320,299	675,215	0,044	0,082
-319,285	285,457	-0,014	-0,018
-318,270	-200,000	0,006	0,064
-317,256	-200,000	0,013	-0,055
-316,241	185,994	-0,028	-0,029
-315,226	363,528	-0,014	0,020
-314,212	24,809	0,137	0,081
-313,197	-200,000	0,021	0,188
-312,183	-200,000	-0,011	-0,042
-311,168	-200,000	-0,043	-0,163
-310,153	-200,000	0,013	-0,048
-309,139	51,768	0,086	-0,058
-308,124	-200,000	0,002	0,009
-307,110	228,615	-0,041	-0,048
-306,095	-30,943	0,094	-0,038
-305,080	-56,832	0,074	0,023
-304,066	-121,731	0,029	0,003
-303,051	-12,936	-0,104	0,048
-302,037	-133,657	0,070	-0,006
-301,022	243,124	0,035	-0,042
-300,008	127,779	-0,076	0,069
-298,993	85,306	-0,061	-0,047
-297,978	78,525	-0,121	0,092
-296,964	752,141	-0,025	-0,048
-295,949	189,904	0,061	0,066
-294,935	80,495	0,030	-0,023
-293,920	-124,911	-0,098	-0,011
-292,905	800,000	0,018	-0,051
-291,891	694,133	-0,045	0,084
-290,876	-200,000	0,028	0,130
-289,862	172,303	0,048	-0,049
-288,847	564,981	-0,081	-0,140
-287,832	567,239	0,059	-0,103
-286,818	-200,000	0,009	0,055
-285,803	-200,000	0,022	-0,068
-284,789	308,158	-0,101	0,135
-283,774	86,712	0,151	0,118
-282,759	397,535	0,043	0,065
-281,745	272,598	-0,033	0,042
-280,730	-200,000	0,043	-0,157
-279,716	-15,164	-0,095	0,043
-278,701	55,388	0,071	0,049
-277,686	-104,933	0,178	0,029
-276,672	-38,121	-0,079	0,030
-275,657	-200,000	0,005	0,049
-274,643	552,764	-0,041	0,071
-273,628	-200,000	0,025	-0,102
-272,613	-200,000	0,004	-0,074
-271,599	325,090	0,008	0,012
-270,584	-200,000	-0,021	0,093
-269,570	-0,568	-0,086	0,043
-268,555	-86,617	-0,064	0,014
-267,540	-200,000	-0,021	0,118
-266,526	246,929	-0,031	-0,038
-265,511	47,127	0,178	-0,118
-264,497	-200,000	0,001	0,026
-263,482	200,752	0,092	-0,101
-262,467	34,534	0,138	0,086
-261,453	-200,000	0,002	-0,069
-260,438	381,061	-0,043	-0,063
-259,424	452,097	0,052	0,082
-258,409	-14,509	-0,096	-0,044
-257,395	-200,000	0,005	0,059
-256,380	12,238	0,180	0,098
-255,365	-200,000	0,006	0,025
-254,351	-132,897	0,100	-0,009
-253,336	166,162	-0,156	-0,157
-252,322	-200,000	-0,008	-0,167
-251,307	70,822	0,087	-0,064
-250,292	541,287	0,016	0,027
-249,278	-138,723	0,086	-0,007
-248,263	263,581	0,032	0,040
-247,249	278,464	0,086	0,110
-246,234	66,209	-0,131	-0,094
-245,219	-191,206	-0,103	0,001
-244,205	216,017	-0,014	-0,016
-243,190	274,800	-0,075	-0,095
-242,176	436,956	-0,032	0,050
-241,161	800,000	0,034	0,090
-240,146	294,729	0,063	0,082
-239,132	-96,639	0,068	-0,013
-238,117	-200,000	0,057	-0,206
-237,103	-119,327	-0,089	-0,011
-236,088	-200,000	0,002	0,177
-235,073	-200,000	0,006	-0,027
-234,059	-29,743	-0,152	-0,061
-233,044	-93,255	-0,084	-0,016
-232,030	800,000	-0,044	-0,110
-231,015	329,849	0,028	0,039
-230,000	800,000	0,012	0,026
-228,986	800,000	-0,054	-0,167
-227,971	35,626	0,121	0,075
-226,957	-200,000	0,016	0,083
-225,942	176,363	-0,027	0,028
-224,927	287,546	-0,021	-0,027
-223,913	-72,456	-0,095	0,025
-222,898	14,656	-0,062	-0,034
-221,884	450,579	0,044	-0,069
-220,869	-200,000	-0,012	0,084
-219,855	-24,160	0,231	0,098
-218,840	-200,000	-0,009	-0,055
-217,825	258,959	-0,091	0,112
-216,811	-200,000	0,023	0,095
-215,796	273,489	-0,084	-0,106
-214,782	147,686	0,043	-0,041
-213,767	19,355	-0,065	-0,037
-212,752	-35,289	0,052	0,020
-211,738	-200,000	-0,010	0,063
-210,723	148,753	0,072	-0,069
-209,709	74,272	0,051	-0,038
-208,694	85,488	0,075	-0,059
-207,679	40,112	-0,041	-0,026
-206,665	473,658	0,072	-0,116
-205,650	-120,587	0,126	0,015
-204,636	72,861	-0,063	0,046
-203,621	248,400	0,070	0,085
-202,606	-200,000	-0,017	0,096
-201,592	-200,000	-0,048	0,188
-200,577	800,000	-0,021	-0,055
-199,563	-2,472	-0,069	0,034
-198,548	-200,000	0,031	-0,115
-197,533	-13,831	0,097	-0,044
-196,519	-200,000	-0,034	-0,130
-195,504	-99,767	-0,230	-0,041
-194,490	-200,000	0,046	-0,169
-193,475	-200,000	-0,005	0,033
-192,460	-200,000	-0,012	0,048
-191,446	516,684	-0,045	0,075
-190,431	-200,000	0,031	0,158
-189,417	800,000	0,012	0,033
-188,402	-56,723	-0,023	-0,007
-187,387	167,265	-0,097	-0,097
-186,373	-200,000	0,006	-0,128
-185,358	94,671	0,103	-0,083
-184,344	-200,000	0,015	0,100
-183,329	-55,742	0,215	0,068
-182,315	284,985	-0,100	-0,127
-181,300	144,796	0,062	0,058
-180,285	800,000	-0,032	-0,092
-179,271	-200,000	0,002	0,119
-178,256	250,232	0,039	0,047
-177,242	68,317	0,063	0,046
-176,227	216,659	0,106	-0,120
-175,212	-18,426	-0,186	0,082
-174,198	-80,086	-0,052	-0,012
-173,183	340,233	0,116	-0,161
-172,169	-200,000	-0,018	-0,102
-171,154	116,985	-0,069	0,060
-170,139	-31,776	0,110	-0,044
-169,125	134,544	0,085	0,078
-168,110	-131,867	0,120	-0,011
-167,096	34,896	0,057	-0,035
-166,081	800,000	0,014	-0,039
-165,066	-200,000	0,005	-0,020
-164,052	682,520	-0,066	-0,123
-163,037	32,269	0,133	-0,081
-162,023	-50,278	0,096	0,032
-161,008	-117,778	0,068	0,008
-159,993	800,000	0,020	-0,051
-158,979	516,817	-0,072	0,120
-157,964	-32,256	-0,099	-0,039
-156,950	-14,017	0,114	-0,052
-155,935	-200,000	0,001	0,007
-154,920	23,809	0,148	-0,086
-153,906	19,242	0,051	0,029
-152,891	49,691	0,042	0,028
-151,877	381,373	-0,029	-0,042
-150,862	-200,000	-0,003	-0,206
-149,847	19,857	-0,132	-0,075
-148,833	800,000	-0,031	-0,086
-147,818	-130,423	-0,110	0,010
-146,804	-182,235	0,039	0,001
-145,789	800,000	-0,017	0,052
-144,775	241,791	-0,068	-0,081
-143,760	506,817	-0,031	0,050
-142,745	479,280	-0,100	-0,161
-141,731	800,000	-0,045	0,124
-140,716	4,725	0,148	-0,077
-139,702	-71,963	-0,056	0,015
-138,687	800,000	0,057	0,133
-137,672	-80,618	0,082	0,019
-136,658	115,968	-0,090	-0,078
-135,643	-153,209	0,017	0,001
-134,629	-200,000	0,000	-0,102
-133,614	-53,280	0,042	-0,014
-132,599	-16,097	0,022	0,010
-131,585	-200,000	0,035	-0,111
-130,570	55,785	-0,086	-0,059
-129,556	73,722	0,077	0,057
-128,541	-3,189	0,088	-0,043
-127,526	-200,000	-0,042	-0,220
-126,512	-200,000	0,011	0,041
-125,497	60,468	-0,095	0,066
-124,483	-94,815	0,149	0,028
-123,468	-17,337	-0,028	0,012
-122,453	-135,189	-0,088	-0,007
-121,439	800,000	0,060	0,146
-120,424	-86,638	0,088	-0,019
-119,410	221,108	-0,041	-0,047
-118,395	33,736	-0,044	-0,027
-117,380	138,780	0,069	0,064
-116,366	227,310	-0,052	-0,060
-115,351	800,000	-0,042	-0,126
-114,337	172,125	0,055	-0,056
-113,322	90,670	-0,050	0,040
-112,307	800,000	-0,017	-0,041
-111,293	-200,000	-0,001	-0,016
-110,278	99,413	0,030	-0,024
-109,264	800,000	0,044	-0,126
-108,249	12,101	0,041	-0,022
-107,234	73,026	-0,069	-0,051
-106,220	627,905	0,039	-0,070
-105,205	-200,000	-0,001	-0,108
-104,191	-200,000	0,011	0,097
-103,176	131,819	-0,130	0,118
-102,162	800,000	-0,062	0,188
-101,147	800,000	0,023	-0,058
-100,132	-73,526	-0,210	-0,054
-99,118	-200,000	0,007	-0,078
-98,103	800,000	0,041	0,095
-97,089	-71,487	0,069	0,018
-96,074	800,000	0,028	0,074
-95,059	192,157	0,067	0,072
-94,045	-200,000	-0,014	-0,060
-93,030	-15,830	-0,146	0,065
-92,016	247,018	-0,079	-0,094
-91,001	-119,259	0,122	0,015
-89,986	213,267	-0,039	0,043
-88,972	-23,101	0,042	0,018
-87,957	-85,413	0,158	0,035
-86,943	-122,999	-0,023	0,003
-85,928	-45,917	-0,102	-0,035
-84,913	800,000	0,033	-0,094
-83,899	-200,000	0,021	-0,110
-82,884	90,862	0,102	0,081
-81,870	112,333	0,114	0,098
-80,855	360,406	0,081	0,115
-79,840	-200,000	0,031	-0,107
-78,826	-154,528	0,171	-0,008
-77,811	70,217	-0,031	-0,023
-76,797	1,789	-0,097	0,049
-75,782	412,792	-0,030	0,045
-74,767	-166,977	0,045	0,001
-73,753	-200,000	-0,020	0,082
-72,738	-110,929	0,082	0,012
-71,724	-82,113	-0,196	0,045
-70,709	-200,000	0,001	0,022
-69,694	570,484	0,018	-0,031
-68,680	800,000	0,025	0,076
-67,665	-200,000	0,004	0,052
-66,651	-200,000	0,008	-0,063
-65,636	-200,000	0,013	0,143
-64,622	105,101	-0,125	-0,104
-63,607	-200,000	-0,016	-0,060
-62,592	420,034	-0,141	-0,214
-61,578	45,913	0,135	-0,088
-60,563	800,000	0,016	0,034
-59,549	-200,000	-0,011	0,043
-58,534	30,108	-2,218	-1,332
-57,519	672,728	-1,036	-1,903
-56,505	-200,000	-0,320	-4,573
-55,490	702,592	0,884	1,651
-54,476	800,000	5,128	11,334
-53,461	-200,000	22,333	344,421
-52,446	800,000	758,906	2299,407
-51,432	533,413	1650,714	2767,613
-50,417	68,650	1649,078	1191,706
-49,403	16,065	1524,959	844,978
-48,388	10,296	1450,152	775,761
-47,373	19,284	1442,356	814,471
-46,359	13,775	1431,026	781,988
-45,344	8,568	1427,033	755,101
-44,330	8,521	1425,614	754,096
-43,315	8,515	1423,231	752,778
-42,300	8,517	1421,690	751,940
-41,286	8,535	1420,226	751,223
-40,271	8,481	1419,194	750,391
-39,257	8,547	1417,978	750,029
-38,242	8,493	1416,736	749,088
-37,227	8,488	1415,917	748,603
-36,213	8,530	1414,496	748,021
-35,198	8,516	1413,317	747,301
-34,184	8,504	1412,371	746,715
-33,169	8,456	1410,988	745,727
-32,154	8,542	1409,801	745,473
-31,140	8,509	1408,818	744,768
-30,125	8,534	1407,655	744,243
-29,111	8,516	1406,417	743,475
-28,096	8,499	1405,247	742,748
-27,082	8,458	1403,901	741,813
-26,067	8,423	1403,002	741,145
-25,052	8,452	1401,949	740,697
-24,038	8,433	1400,990	740,072
-23,023	8,457	1399,928	739,594
-22,009	8,442	1399,056	739,032
-20,994	8,449	1397,911	738,431
-19,979	8,414	1397,082	737,803
-18,965	8,401	1395,980	737,129
-17,950	8,389	1395,028	736,544
-16,936	8,384	1394,167	736,037
-15,921	8,351	1393,180	735,333
-14,906	8,347	1392,238	734,788
-13,892	8,421	1391,194	734,549
-12,877	8,375	1390,557	733,973
-11,863	8,404	1389,650	733,596
-10,848	8,344	1389,007	732,954
-9,833	8,340	1387,664	732,195
-8,819	8,331	1386,991	731,770
-7,804	8,280	1386,152	731,065
-6,790	8,274	1385,094	730,448
-5,775	8,280	1383,814	729,770
-4,760	8,303	1383,123	729,485
-3,746	8,306	1382,165	728,963
-2,731	8,316	1381,187	728,463
-1,717	8,280	1380,420	727,868
-0,702	8,251	1378,770	726,833
0,313	12,321	1289,533	698,257
1,327	28,206	680,997	404,316
2,342	43,987	117,252	75,588
3,356	0,414	16,496	8,276
4,371	14,909	3,840	2,111
5,386	13,073	1,319	0,717
6,400	599,209	0,297	0,522
7,415	346,136	-0,174	-0,242
8,429	46,124	-0,291	-0,189
9,444	77,209	-0,275	-0,205
10,459	202,489	-0,263	-0,287
11,473	-71,948	-0,308	-0,080
12,488	-94,691	-0,185	-0,035
13,502	86,492	-0,349	-0,270
14,517	14,135	-0,276	-0,151
15,531	30,470	-0,428	-0,257
16,546	-51,010	-0,403	-0,132
17,561	98,399	-0,283	-0,230
18,575	-32,123	-0,235	-0,092
19,590	264,630	-0,235	-0,288
20,604	-83,241	-0,284	-0,064
21,619	206,445	-0,381	-0,418
22,634	213,816	-0,346	-0,385
23,648	56,207	-0,504	-0,344
24,663	33,215	-0,417	-0,254
25,677	224,863	-0,282	-0,322
26,692	-127,438	-0,317	-0,032
27,707	41,363	-0,345	-0,219
28,721	-25,467	-0,424	-0,175
29,736	63,634	-0,413	-0,291
30,750	52,896	-0,520	-0,349
31,765	130,557	-0,422	-0,381
32,780	182,981	-0,351	-0,364
33,794	44,312	-0,302	-0,194
34,809	-44,744	-0,455	-0,159
35,823	82,062	-0,304	-0,231
36,838	93,717	-0,472	-0,375
37,853	122,018	-0,366	-0,321
38,867	268,540	-0,313	-0,387
39,882	65,348	-0,369	-0,262
40,896	67,903	-0,325	-0,233
41,911	26,482	-0,309	-0,181
42,926	-57,403	-0,411	-0,126
43,940	30,850	-0,443	-0,266
44,955	65,331	-0,414	-0,293
45,969	-83,762	-0,274	-0,061
46,984	-160,422	-0,350	0,013
47,999	-25,939	-0,494	-0,203
49,013	-62,956	-0,337	-0,097
50,028	117,613	-0,297	-0,257
51,042	107,654	-0,267	-0,223
52,057	156,319	-0,341	-0,330
53,071	143,382	-0,313	-0,293
54,086	280,757	-0,246	-0,310
55,101	52,800	-0,280	-0,187
56,115	-102,003	-0,350	-0,059
57,130	-81,023	-0,375	-0,086
58,144	-20,196	-0,407	-0,175
59,159	210,645	-0,357	-0,394
60,174	89,175	-0,399	-0,312
61,188	-103,467	-0,217	-0,035
62,203	13,976	-0,318	-0,173
63,217	-21,148	-0,307	-0,131
64,232	-103,181	-0,242	-0,040
65,247	-11,623	-0,355	-0,163
66,261	-9,494	-0,416	-0,194
67,276	94,714	-0,328	-0,261
68,290	91,663	-0,280	-0,221
69,305	-48,768	-0,342	-0,114
70,320	109,138	-0,286	-0,240
71,334	188,290	-0,242	-0,254
72,349	85,100	-0,191	-0,147
73,363	-27,854	-0,469	-0,189
74,378	348,167	-0,239	-0,331
75,393	-60,189	-0,363	-0,108
76,407	-107,763	-0,236	-0,036
77,422	113,890	-0,260	-0,221
78,436	144,110	-0,190	-0,178
79,451	-11,509	-0,257	-0,118
80,466	24,860	-0,391	-0,226
81,480	389,377	-0,166	-0,242
82,495	639,223	-0,148	-0,265
83,509	79,743	-0,257	-0,193
84,524	207,919	-0,192	-0,210
85,539	-15,719	-0,234	-0,104
86,553	137,155	-0,284	-0,260
87,568	-67,825	-0,332	-0,090
88,582	21,622	-0,383	-0,218
89,597	-68,447	-0,297	-0,080
90,611	-25,776	-0,220	-0,090
91,626	372,023	-0,175	-0,250
92,641	-116,065	-0,279	-0,036
93,655	156,791	-0,302	-0,292
94,670	147,827	-0,278	-0,262
95,684	-35,490	-0,362	-0,137
96,699	164,292	-0,200	-0,198
97,714	269,570	-0,226	-0,277
98,728	336,726	-0,214	-0,292
99,743	800,000	-0,088	-0,238
100,757	374,888	-0,195	-0,279
101,772	-2,739	-0,257	-0,125
102,787	800,000	-0,153	-0,318
103,801	345,121	-0,223	-0,306
104,816	103,201	-0,275	-0,225
105,830	-1,181	-0,360	-0,177
106,845	93,886	-0,254	-0,201
107,860	22,680	-0,320	-0,182
108,874	-34,873	-0,277	-0,105
109,889	-28,342	-0,309	-0,124
110,903	68,288	-0,287	-0,205
111,918	800,000	-0,133	-0,285
112,933	614,673	-0,145	-0,255
113,947	86,630	-0,269	-0,207
114,962	375,169	-0,260	-0,371
115,976	-2,281	-0,254	-0,124
116,991	26,963	-0,259	-0,151
118,006	44,060	-0,329	-0,210
119,020	800,000	-0,108	-0,224
120,035	-43,107	-0,212	-0,074
121,049	171,975	-0,161	-0,162
122,064	800,000	-0,101	-0,232
123,079	50,608	-0,232	-0,153
124,093	165,899	-0,283	-0,280
125,108	50,957	-0,241	-0,159
126,122	3,943	-0,325	-0,165
127,137	-200,000	-0,062	-0,218
128,151	26,671	-0,171	-0,099
129,166	-111,194	-0,176	-0,025
130,181	-0,840	-0,264	-0,130
131,195	83,104	-0,229	-0,174
132,210	118,996	-0,268	-0,231
133,224	-16,850	-0,177	-0,078
134,239	-116,238	-0,159	-0,020
135,254	-97,179	-0,191	-0,034
136,268	27,573	-0,246	-0,144
137,283	26,177	-0,323	-0,187
138,297	-14,734	-0,376	-0,167
139,312	178,544	-0,286	-0,291
140,327	-63,749	-0,213	-0,060
141,341	230,779	-0,249	-0,284
142,356	-48,580	-0,254	-0,084
143,370	-9,239	-0,352	-0,163
144,385	55,632	-0,221	-0,149
145,400	-39,700	-0,232	-0,084
146,414	89,789	-0,308	-0,239
147,429	62,534	-0,215	-0,149
148,443	800,000	-0,129	-0,249
149,458	50,010	-0,163	-0,107
150,473	-29,867	-0,228	-0,090
151,487	2,396	-0,256	-0,129
152,502	4,618	-0,242	-0,123
153,516	31,355	-0,289	-0,172
154,531	244,883	-0,211	-0,247
155,546	284,563	-0,161	-0,202
156,560	304,418	-0,141	-0,183
157,575	172,952	-0,122	-0,122
158,589	15,322	-0,282	-0,153
159,604	42,744	-0,221	-0,140
160,619	557,250	-0,168	-0,282
161,633	77,701	-0,255	-0,189
162,648	-23,561	-0,211	-0,088
163,662	417,195	-0,168	-0,250
164,677	189,561	-0,190	-0,198
165,692	-135,518	-0,314	-0,026
166,706	78,203	-0,111	-0,082
167,721	563,210	-0,108	-0,183
168,735	-44,322	-0,138	-0,048
169,750	-56,705	-0,323	-0,099
170,764	-64,726	-0,278	-0,078
171,779	61,881	-0,230	-0,159
172,794	45,934	-0,215	-0,138
173,808	800,000	-0,143	-0,313
174,823	102,505	-0,154	-0,125
175,837	800,000	-0,088	-0,191
176,852	122,692	-0,254	-0,221
177,867	-99,644	-0,214	-0,037
178,881	89,129	-0,224	-0,173
179,896	-52,792	-0,251	-0,080
180,910	-44,507	-0,314	-0,108
181,925	201,147	-0,165	-0,177
182,940	167,084	-0,177	-0,174
183,954	415,985	-0,204	-0,303
184,969	79,799	-0,217	-0,161
185,983	216,963	-0,204	-0,225
186,998	181,115	-0,194	-0,198
188,013	159,586	-0,145	-0,140
189,027	161,248	-0,197	-0,191
190,042	78,379	-0,320	-0,237
191,056	84,510	-0,253	-0,191
192,071	114,823	-0,255	-0,215
193,086	8,854	-0,216	-0,112
194,100	259,017	-0,196	-0,234
195,115	-12,009	-0,197	-0,089
196,129	82,909	-0,283	-0,213
197,144	61,484	-0,249	-0,171
198,159	102,534	-0,219	-0,178
199,173	259,689	-0,184	-0,220
200,188	171,173	-0,197	-0,196
201,202	393,456	-0,136	-0,196
202,217	108,036	-0,205	-0,169
203,232	59,128	-0,189	-0,129
204,246	108,403	-0,168	-0,138
205,261	183,983	-0,226	-0,231
206,275	381,506	-0,167	-0,239
207,290	361,518	-0,141	-0,197
208,304	-109,714	-0,289	-0,042
209,319	800,000	-0,114	-0,258
210,334	444,255	-0,042	-0,064
211,348	419,683	-0,137	-0,204
212,363	800,000	-0,125	-0,338
213,377	25,576	-0,292	-0,168
214,392	-111,793	-0,215	0,030
215,407	-52,731	-0,152	-0,048
216,421	800,000	-0,104	-0,245
217,436	446,971	-0,089	-0,135
218,450	480,596	-0,134	-0,211
219,465	-33,694	-0,235	-0,089
220,480	203,394	-0,107	-0,115
221,494	-123,488	-0,135	-0,015
222,509	800,000	-0,097	-0,193
223,523	-22,406	-0,163	-0,068
224,538	2,212	-0,191	-0,095
225,553	-22,327	-0,176	-0,074
226,567	400,049	-0,117	-0,170
227,582	13,932	-0,235	-0,126
228,596	393,036	-0,120	-0,173
229,611	-137,326	-0,170	0,013
230,626	46,669	-0,220	-0,141
231,640	372,732	-0,135	-0,190
232,655	29,147	-0,217	-0,127
233,669	131,189	-0,153	-0,136
234,684	90,328	-0,249	-0,192
235,699	103,126	-0,182	-0,147
236,713	-133,952	-0,159	-0,013
237,728	-106,385	-0,211	0,032
238,742	503,117	-0,202	-0,324
239,757	358,977	-0,164	-0,227
240,772	79,231	-0,167	-0,123
241,786	-102,629	-0,186	-0,030
242,801	72,363	-0,111	-0,080
243,815	-83,501	-0,215	0,047
244,830	179,298	-0,119	-0,120
245,844	76,431	-0,236	-0,173
246,859	204,970	-0,101	-0,109
247,874	294,391	-0,178	-0,225
248,888	-23,541	-0,299	-0,123
249,903	-115,998	-0,184	-0,023
250,917	99,655	-0,178	-0,142
251,932	-75,567	-0,134	-0,033
252,947	121,362	-0,191	-0,164
253,961	178,901	-0,140	-0,141
254,976	47,462	-0,163	-0,105
255,990	67,924	-0,210	-0,148
257,005	34,799	-0,212	-0,128
258,020	127,110	-0,060	-0,053
259,034	-89,316	-0,127	-0,026
260,049	317,136	-0,100	-0,130
261,063	191,608	-0,167	-0,173
262,078	16,410	-0,221	-0,120
263,093	-200,000	-0,071	-0,251
264,107	37,969	-0,163	-0,099
265,122	111,246	-0,132	-0,110
266,136	-200,000	-0,003	-0,130
267,151	-161,869	-0,154	0,005
268,166	234,430	-0,194	-0,220
269,180	-62,273	-0,204	-0,058
270,195	61,085	-0,140	-0,096
271,209	-38,836	-0,211	-0,076
272,224	101,925	-0,241	-0,193
273,239	-122,110	-0,128	-0,014
274,253	51,492	-0,109	-0,071
275,268	800,000	-0,068	-0,195
276,282	533,421	-0,088	-0,143
277,297	158,476	-0,300	-0,287
278,312	-112,095	-0,240	0,033
279,326	800,000	-0,102	-0,208
280,341	285,262	-0,089	-0,111
281,355	66,426	-0,067	-0,047
282,370	-11,430	-0,259	-0,117
283,384	174,827	-0,202	-0,202
284,399	288,017	-0,137	-0,171
285,414	-200,000	-0,024	-0,213
286,428	133,234	-0,167	-0,149
287,443	285,553	-0,066	-0,082
288,457	-16,201	-0,114	-0,050
289,472	565,790	-0,071	-0,118
290,487	-97,834	-0,118	0,021
291,501	70,096	-0,200	-0,142
292,516	4,919	-0,127	-0,064
293,530	-23,877	-0,177	-0,073
294,545	800,000	-0,081	-0,162
295,560	288,489	-0,058	-0,072
296,574	99,119	-0,070	-0,056
297,589	-125,569	-0,246	-0,025
298,603	138,225	-0,137	-0,124
299,618	-2,289	-0,159	-0,076
300,633	-98,334	-0,169	-0,029
301,647	96,357	-0,149	-0,117
302,662	63,145	-0,126	0,086
303,676	800,000	-0,016	-0,034
304,691	31,074	-0,120	-0,071
305,706	-47,122	-0,246	-0,082
306,720	239,618	-0,134	-0,154
307,735	800,000	-0,093	-0,193
308,749	-35,334	-0,111	-0,041
309,764	-200,000	-0,082	-0,275
310,779	800,000	-0,021	-0,052
311,793	-194,592	-0,076	0,000
312,808	800,000	-0,065	-0,135
313,822	177,874	-0,104	-0,104
314,837	55,425	-0,156	-0,103
315,852	281,235	-0,059	-0,072
316,866	40,459	-0,138	-0,085
317,881	415,913	-0,027	-0,040
318,895	800,000	-0,049	-0,111
319,910	300,762	-0,135	-0,171
320,925	183,591	-0,222	-0,225
321,939	800,000	-0,093	-0,247
322,954	-149,685	-0,309	0,016
323,968	-200,000	-0,003	-0,052
324,983	68,032	-0,139	-0,098
325,997	551,741	-0,061	-0,101
327,012	-68,002	-0,266	-0,070
328,027	134,484	-0,137	-0,122
329,041	-152,249	-0,211	-0,010
330,056	-106,634	-0,169	-0,026
331,070	800,000	-0,076	-0,179
332,085	-200,000	0,032	-0,101
333,100	800,000	-0,053	-0,124
334,114	800,000	-0,065	-0,134
335,129	401,470	-0,106	-0,153
336,143	181,116	-0,146	-0,147
337,158	786,463	-0,065	-0,123
338,173	678,539	-0,017	-0,031
339,187	-0,958	-0,061	-0,029
340,202	405,118	-0,039	0,057
341,216	281,476	-0,067	-0,082
342,231	152,880	-0,203	-0,190
343,246	-92,846	-0,149	-0,028
344,260	-200,000	0,003	-0,087
345,275	-200,000	-0,001	-0,025
346,289	97,563	-0,096	0,076
347,304	-180,600	-0,163	0,002
348,319	800,000	-0,072	-0,158
349,333	800,000	-0,099	-0,219
350,348	-80,513	-0,126	-0,028
351,362	53,439	-0,209	-0,137
352,377	267,378	-0,156	-0,187
353,392	1,611	-0,152	-0,074
354,406	-149,449	-0,135	0,007
355,421	207,124	1310,409	1397,842
356,435	159,317	1470,553	1398,275
