DTS Sentinel unit serial number:	SN410029Multiplexer serial number:	ORYXHardware model number:	OX2-SRSoftware version number:	ORYX F/W v4,00 Oryx Data Collector v3.7.2.0data status	okinstallation	B3 Nyhavnadifferential loss correction	single-endedforward channel	channel 1reverse channel	N/Adate	2023/11/30time	01:27:30forward acquisition time	300,00reverse acquisition time	0,00gamma	499,1914k internal	0,3210k external	0,3210temperature offset calibration	1,0000default loss term (dB/km)	0,3820temperature slope calibration	1,0000multiplexer offset coefficient	1,0000multiplexer slope coefficient	1,0000fibre end	0,00T internal ref (°C)	10,66T ext. ref 1 (°C)	-4,93T ext. ref 2 (°C)	-5,05length (m)	temperature (°C)	Stokes	anti-Stokes-744,400	765,611	-0,183	-0,361
-743,385	-200,000	0,016	0,358
-742,371	140,563	-0,287	-0,275
-741,356	433,748	0,164	0,259
-740,342	415,412	-0,174	-0,270
-739,327	-200,000	0,085	0,363
-738,312	188,192	-0,175	-0,190
-737,298	800,000	-0,103	0,318
-736,283	752,344	-0,126	-0,249
-735,269	-200,000	0,022	0,169
-734,254	25,447	-0,301	-0,181
-733,239	340,868	-0,050	0,071
-732,225	-200,000	-0,025	-0,295
-731,210	25,416	0,078	0,047
-730,196	22,828	-0,078	0,046
-729,181	-155,910	-0,263	0,012
-728,167	-6,877	-0,031	-0,015
-727,152	-48,853	0,033	-0,012
-726,137	-141,369	-0,160	0,012
-725,123	-120,921	0,095	0,011
-724,108	140,879	-0,073	-0,070
-723,094	800,000	-0,054	-0,126
-722,079	789,591	-0,050	-0,101
-721,064	-47,085	0,119	-0,042
-720,050	229,393	0,054	-0,064
-719,035	82,693	0,016	0,013
-718,021	-200,000	-0,015	-0,061
-717,006	-42,236	-0,102	-0,038
-715,991	34,998	-0,109	-0,069
-714,977	-200,000	-0,028	0,092
-713,962	103,928	0,084	-0,071
-712,948	-200,000	-0,004	0,023
-711,933	-200,000	-0,003	0,074
-710,918	800,000	0,027	-0,066
-709,904	132,936	-0,095	0,089
-708,889	-125,199	-0,157	-0,017
-707,875	-29,370	0,053	-0,022
-706,860	-127,267	-0,123	0,013
-705,845	190,949	-0,077	-0,084
-704,831	134,849	0,043	0,040
-703,816	32,171	-0,044	-0,028
-702,802	188,945	-0,116	-0,125
-701,787	800,000	-0,083	0,206
-700,772	-200,000	-0,026	-0,166
-699,758	-90,442	-0,218	-0,045
-698,743	800,000	-0,026	0,061
-697,729	800,000	0,028	0,062
-696,714	-200,000	0,005	-0,129
-695,699	-91,832	0,003	0,001
-694,685	-41,848	0,082	-0,030
-693,670	-79,584	-0,029	0,007
-692,656	-42,579	-0,121	-0,044
-691,641	-200,000	0,002	0,059
-690,627	-163,419	0,095	-0,003
-689,612	-159,648	-0,064	0,003
-688,597	-130,373	-0,239	0,023
-687,583	-3,084	-0,081	-0,041
-686,568	81,514	0,037	-0,029
-685,554	-200,000	-0,004	-0,078
-684,539	800,000	-0,052	-0,122
-683,524	-200,000	-0,003	0,036
-682,510	800,000	0,065	-0,138
-681,495	-97,445	-0,044	-0,008
-680,481	97,900	-0,078	-0,065
-679,466	-200,000	-0,018	-0,078
-678,451	68,514	0,019	0,014
-677,437	-200,000	-0,008	-0,222
-676,422	-34,754	0,113	-0,044
-675,408	800,000	0,031	-0,081
-674,393	272,320	0,041	-0,052
-673,378	59,280	-0,109	-0,078
-672,364	-7,701	-0,107	-0,052
-671,349	800,000	-0,054	-0,112
-670,335	16,845	0,191	-0,109
-669,320	52,691	0,105	-0,072
-668,305	188,172	0,080	0,086
-667,291	800,000	0,023	-0,060
-666,276	-200,000	0,033	-0,199
-665,262	-200,000	0,028	-0,198
-664,247	291,582	0,066	0,087
-663,232	131,506	-0,080	-0,074
-662,218	-200,000	0,017	0,111
-661,203	-200,000	-0,003	0,128
-660,189	29,708	0,083	0,051
-659,174	-37,442	-0,091	0,035
-658,159	-200,000	-0,013	-0,046
-657,145	522,215	0,040	-0,069
-656,130	-200,000	0,012	0,102
-655,116	-11,696	0,036	0,017
-654,101	78,665	-0,126	0,097
-653,086	69,323	-0,098	0,073
-652,072	107,451	0,102	-0,087
-651,057	65,809	-0,160	0,117
-650,043	47,271	0,029	0,020
-649,028	-25,361	-0,059	-0,025
-648,014	-163,371	0,025	-0,001
-646,999	-200,000	-0,001	-0,047
-645,984	-171,033	0,197	-0,005
-644,970	403,650	-0,063	0,095
-643,955	-97,649	-0,117	0,022
-642,941	-200,000	0,014	-0,168
-641,926	41,581	0,123	0,081
-640,911	800,000	-0,057	0,122
-639,897	-200,000	0,009	0,190
-638,882	-193,626	-0,129	0,001
-637,868	267,292	-0,045	0,057
-636,853	728,589	0,027	-0,052
-635,838	-200,000	-0,007	-0,134
-634,824	165,389	-0,105	-0,107
-633,809	-200,000	0,020	-0,152
-632,795	-154,863	0,129	0,006
-631,780	328,258	-0,098	-0,136
-630,765	-101,034	-0,058	0,010
-629,751	312,302	0,077	-0,105
-628,736	280,993	-0,047	0,061
-627,722	-200,000	0,014	0,053
-626,707	9,512	0,113	0,061
-625,692	-200,000	0,022	0,090
-624,678	12,296	-0,047	0,026
-623,663	194,529	0,088	0,097
-622,649	43,783	-0,141	-0,093
-621,634	76,210	0,107	0,081
-620,619	98,032	-0,126	-0,105
-619,605	800,000	-0,028	-0,081
-618,590	49,020	0,064	0,044
-617,576	761,492	-0,043	0,085
-616,561	-200,000	-0,006	-0,040
-615,546	84,335	-0,101	-0,080
-614,532	760,598	-0,056	-0,111
-613,517	-200,000	0,005	-0,121
-612,503	110,916	-0,113	-0,098
-611,488	-118,279	0,189	0,024
-610,474	70,357	-0,127	-0,095
-609,459	-120,714	0,009	-0,001
-608,444	509,407	-0,122	-0,206
-607,430	-200,000	-0,021	-0,107
-606,415	-110,481	-0,096	0,014
-605,401	-200,000	-0,060	-0,000
-604,386	-121,264	0,073	0,009
-603,371	742,434	-0,027	0,053
-602,357	-8,837	0,138	-0,066
-601,342	115,006	-0,022	-0,019
-600,328	87,477	-0,176	-0,141
-599,313	178,422	-0,066	0,069
-598,298	160,011	0,111	0,111
-597,284	-200,000	0,020	0,130
-596,269	-200,000	-0,008	-0,054
-595,255	-124,667	-0,043	-0,005
-594,240	-18,951	0,041	-0,018
-593,225	-28,297	-0,091	0,038
-592,211	-200,000	0,011	0,066
-591,196	-200,000	-0,007	0,039
-590,182	279,226	0,081	0,104
-589,167	800,000	0,062	0,128
-588,152	-200,000	0,038	0,195
-587,138	-200,000	-0,017	-0,058
-586,123	98,238	0,052	-0,043
-585,109	36,264	0,036	-0,023
-584,094	-200,000	-0,036	0,147
-583,079	24,137	-0,095	-0,056
-582,065	-36,395	0,145	-0,056
-581,050	800,000	0,004	-0,009
-580,036	-165,795	-0,132	0,004
-579,021	-55,968	-0,087	0,028
-578,006	-200,000	0,003	-0,064
-576,992	-47,383	-0,103	-0,036
-575,977	-200,000	0,003	-0,030
-574,963	-200,000	-0,003	0,019
-573,948	70,958	0,057	0,042
-572,934	47,959	-0,049	0,033
-571,919	157,560	-0,119	-0,119
-570,904	-16,153	0,033	0,015
-569,890	164,802	-0,044	-0,044
-568,875	371,663	0,019	0,028
-567,861	-200,000	0,007	0,041
-566,846	18,475	0,098	0,056
-565,831	58,413	-0,104	0,073
-564,817	800,000	0,049	-0,100
-563,802	-116,781	0,127	0,017
-562,788	-200,000	0,021	-0,086
-561,773	800,000	-0,044	-0,103
-560,758	-151,134	-0,084	0,004
-559,744	164,077	-0,031	0,031
-558,729	-200,000	0,033	0,173
-557,715	-85,535	-0,140	-0,031
-556,700	-58,504	-0,167	-0,052
-555,685	609,444	-0,093	-0,168
-554,671	-200,000	0,006	-0,106
-553,656	295,038	0,017	-0,023
-552,642	-84,137	0,109	0,025
-551,627	-200,000	0,002	-0,068
-550,612	-57,902	0,048	-0,015
-549,598	-52,612	0,160	-0,053
-548,583	-200,000	-0,012	-0,087
-547,569	800,000	-0,077	-0,193
-546,554	67,420	0,117	0,086
-545,539	726,885	0,060	0,115
-544,525	26,145	0,104	-0,062
-543,510	-200,000	0,009	0,087
-542,496	-200,000	0,036	0,139
-541,481	-54,724	-0,076	-0,025
-540,466	-170,142	0,033	-0,001
-539,452	55,139	0,110	0,077
-538,437	-140,762	0,156	-0,011
-537,423	800,000	-0,046	0,103
-536,408	254,344	-0,048	0,059
-535,393	-69,206	-0,044	0,012
-534,379	-126,611	0,044	-0,005
-533,364	11,651	0,040	-0,022
-532,350	800,000	0,013	0,028
-531,335	735,487	-0,016	0,031
-530,321	101,168	0,104	0,087
-529,306	-200,000	0,001	0,132
-528,291	191,130	-0,075	0,081
-527,277	19,712	-0,183	-0,105
-526,262	33,860	0,080	-0,050
-525,248	-124,746	0,057	0,006
-524,233	800,000	-0,013	0,034
-523,218	-37,700	0,100	0,038
-522,204	408,962	0,054	0,082
-521,189	-200,000	-0,013	0,063
-520,175	631,635	-0,070	-0,127
-519,160	159,454	0,060	-0,060
-518,145	69,935	-0,049	0,036
-517,131	800,000	0,042	-0,091
-516,116	-200,000	-0,005	0,049
-515,102	-200,000	0,023	0,074
-514,087	800,000	-0,041	-0,095
-513,072	493,322	0,037	-0,061
-512,058	-200,000	0,003	-0,046
-511,043	-200,000	-0,002	0,022
-510,029	165,928	0,087	0,088
-509,014	-140,821	0,103	-0,008
-507,999	-200,000	0,004	-0,043
-506,985	-200,000	0,021	0,159
-505,970	54,480	0,015	0,010
-504,956	-200,000	0,005	-0,113
-503,941	-200,000	0,040	-0,136
-502,926	284,233	0,021	-0,027
-501,912	6,955	0,025	0,013
-500,897	-147,762	-0,011	0,001
-499,883	800,000	-0,027	-0,059
-498,868	-200,000	-0,047	-0,156
-497,853	800,000	0,034	-0,091
-496,839	-26,781	0,103	0,043
-495,824	96,586	0,055	-0,045
-494,810	-68,568	0,178	-0,049
-493,795	-174,581	-0,031	-0,001
-492,781	-192,094	0,014	0,000
-491,766	800,000	-0,047	-0,118
-490,751	-143,484	0,167	0,011
-489,737	76,914	-0,094	-0,072
-488,722	-200,000	0,015	0,107
-487,708	-128,709	-0,101	0,010
-486,693	433,963	-0,063	0,099
-485,678	198,631	0,070	0,077
-484,664	223,522	-0,067	-0,078
-483,649	800,000	-0,040	-0,105
-482,635	-200,000	-0,004	-0,143
-481,620	800,000	0,069	-0,141
-480,605	143,383	0,062	0,059
-479,591	800,000	-0,013	-0,031
-478,576	-6,314	0,022	0,011
-477,562	8,946	0,103	0,056
-476,547	-113,964	-0,114	0,016
-475,532	-58,992	-0,109	0,034
-474,518	-7,050	0,091	-0,044
-473,503	-200,000	0,065	0,213
-472,489	711,474	0,088	0,167
-471,474	68,878	-0,036	0,027
-470,459	74,184	-0,019	-0,014
-469,445	442,919	-0,050	-0,079
-468,430	800,000	0,014	0,032
-467,416	-200,000	0,001	0,105
-466,401	800,000	0,071	0,164
-465,386	800,000	-0,021	-0,047
-464,372	-200,000	-0,009	0,092
-463,357	-50,180	0,020	-0,007
-462,343	-119,951	-0,172	-0,021
-461,328	-13,835	0,120	-0,055
-460,313	-35,064	-0,064	-0,025
-459,299	-200,000	0,015	0,093
-458,284	-53,235	0,121	-0,040
-457,270	612,515	0,030	0,054
-456,255	-46,864	-0,078	0,027
-455,241	-77,516	-0,104	0,026
-454,226	-200,000	-0,015	0,054
-453,211	730,488	0,051	0,099
-452,197	-101,167	0,075	0,013
-451,182	-200,000	-0,001	0,024
-450,168	160,260	-0,052	0,052
-449,153	517,826	0,051	0,086
-448,138	-200,000	-0,006	-0,110
-447,124	-112,021	0,054	0,008
-446,109	-112,477	0,027	0,004
-445,095	800,000	-0,011	0,027
-444,080	-114,952	0,076	-0,010
-443,065	-38,015	0,157	0,059
-442,051	-129,364	0,068	-0,007
-441,036	748,328	-0,080	-0,156
-440,022	30,388	0,049	0,030
-439,007	800,000	-0,050	-0,146
-437,992	78,296	-0,011	0,009
-436,978	36,505	0,063	-0,040
-435,963	800,000	0,052	-0,125
-434,949	325,434	-0,040	0,054
-433,934	103,902	-0,059	0,049
-432,919	19,864	0,055	0,031
-431,905	-59,074	0,067	-0,021
-430,890	800,000	0,024	0,064
-429,876	-75,815	0,031	0,008
-428,861	800,000	-0,042	0,087
-427,846	78,859	-0,086	0,066
-426,832	-200,000	0,023	-0,114
-425,817	-55,330	-0,160	0,051
-424,803	800,000	-0,081	0,174
-423,788	-200,000	-0,031	0,131
-422,773	-200,000	0,054	0,207
-421,759	-200,000	0,013	0,056
-420,744	-85,764	-0,107	0,024
-419,730	594,089	0,021	-0,038
-418,715	-76,703	0,025	-0,006
-417,701	-186,154	0,097	0,001
-416,686	-16,514	0,015	-0,007
-415,671	-59,332	0,126	0,038
-414,657	-200,000	0,002	-0,053
-413,642	146,054	-0,074	0,071
-412,628	-85,146	0,056	0,012
-411,613	53,008	-0,080	0,055
-410,598	163,889	-0,056	-0,056
-409,584	70,658	0,041	-0,030
-408,569	144,379	0,067	-0,064
-407,555	-200,000	0,027	0,167
-406,540	-200,000	-0,021	0,083
-405,525	-100,710	-0,140	0,024
-404,511	-90,225	-0,124	-0,026
-403,496	271,397	0,055	0,070
-402,482	-200,000	0,020	-0,173
-401,467	114,955	0,029	0,025
-400,452	197,340	0,154	0,168
-399,438	-200,000	-0,045	-0,145
-398,423	-200,000	-0,010	-0,096
-397,409	-200,000	-0,012	-0,040
-396,394	636,607	-0,048	-0,088
-395,379	259,895	0,098	0,122
-394,365	781,893	0,035	0,069
-393,350	200,853	0,053	0,058
-392,336	-105,180	-0,108	0,018
-391,321	151,473	-0,090	-0,088
-390,306	-200,000	0,008	-0,177
-389,292	289,134	-0,021	0,028
-388,277	800,000	-0,006	-0,018
-387,263	800,000	-0,030	0,071
-386,248	-2,053	0,047	0,024
-385,233	-200,000	0,000	-0,068
-384,219	-43,548	-0,124	0,045
-383,204	800,000	-0,076	-0,181
-382,190	-86,814	-0,098	-0,021
-381,175	-200,000	-0,004	0,032
-380,160	103,834	-0,084	0,070
-379,146	-145,360	0,095	0,006
-378,131	91,072	0,051	0,041
-377,117	228,644	-0,034	-0,039
-376,102	-100,950	-0,128	0,022
-375,088	-161,322	0,066	0,002
-374,073	-16,226	0,103	0,047
-373,058	-38,528	0,169	-0,064
-372,044	-200,000	-0,029	0,111
-371,029	91,059	-0,064	0,051
-370,015	599,513	0,052	0,093
-369,000	89,221	-0,021	-0,017
-367,985	-200,000	-0,011	-0,047
-366,971	800,000	0,064	-0,189
-365,956	528,510	0,059	-0,101
-364,942	800,000	0,040	-0,095
-363,927	-200,000	0,004	0,138
-362,912	24,527	0,075	-0,044
-361,898	-200,000	-0,027	0,087
-360,883	304,328	-0,033	0,044
-359,869	-86,281	-0,012	0,003
-358,854	-200,000	0,017	-0,076
-357,839	-200,000	0,001	0,013
-356,825	-19,978	0,145	0,064
-355,810	800,000	-0,026	0,065
-354,796	675,766	0,013	-0,024
-353,781	404,384	-0,099	-0,150
-352,766	-80,098	0,071	0,017
-351,752	123,504	0,047	-0,042
-350,737	2,412	0,039	0,020
-349,723	-46,356	0,072	-0,025
-348,708	-200,000	-0,006	-0,082
-347,693	36,757	-0,095	-0,060
-346,679	503,070	-0,030	-0,049
-345,664	447,048	0,011	-0,017
-344,650	-200,000	-0,001	0,024
-343,635	-40,886	0,123	0,045
-342,620	626,533	-0,023	-0,042
-341,606	-75,671	-0,205	-0,052
-340,591	-147,994	-0,050	0,003
-339,577	743,915	0,055	-0,106
-338,562	800,000	-0,060	-0,169
-337,548	-62,801	0,055	-0,016
-336,533	111,968	-0,055	0,047
-335,518	800,000	-0,049	0,118
-334,504	800,000	0,039	0,086
-333,489	-23,536	-0,045	0,019
-332,475	78,624	0,089	0,068
-331,460	-118,900	-0,061	0,008
-330,445	36,242	-0,141	0,088
-329,431	128,926	0,087	0,080
-328,416	-17,978	0,124	0,055
-327,402	-200,000	-0,013	0,068
-326,387	114,429	0,036	0,032
-325,372	11,743	0,065	-0,036
-324,358	274,903	-0,031	0,039
-323,343	704,252	-0,040	0,075
-322,329	-57,002	0,049	0,015
-321,314	-162,428	0,051	0,002
-320,299	-6,037	-0,008	-0,004
-319,285	-200,000	0,011	-0,063
-318,270	800,000	-0,046	-0,112
-317,256	-200,000	-0,014	-0,140
-316,241	-165,038	-0,159	-0,005
-315,226	800,000	0,035	-0,105
-314,212	-200,000	-0,002	-0,093
-313,197	11,204	0,084	0,046
-312,183	-200,000	0,005	0,018
-311,168	-200,000	-0,011	-0,183
-310,153	-5,425	-0,081	-0,040
-309,139	325,321	-0,091	0,125
-308,124	-32,375	-0,142	-0,056
-307,110	-200,000	-0,029	-0,140
-306,095	407,166	-0,070	0,106
-305,080	-165,615	-0,051	0,002
-304,066	124,193	-0,054	0,048
-303,051	53,388	-0,012	0,008
-302,037	-54,400	0,014	0,005
-301,022	-104,014	0,085	0,014
-300,008	800,000	0,039	0,084
-298,993	-200,000	0,057	0,194
-297,978	229,228	-0,054	-0,063
-296,964	178,912	-0,038	0,039
-295,949	800,000	0,068	-0,182
-294,935	-200,000	0,011	-0,101
-293,920	15,502	0,081	-0,045
-292,905	-200,000	0,001	-0,047
-291,891	-200,000	0,031	0,099
-290,876	92,470	0,051	-0,041
-289,862	-15,623	-0,043	0,019
-288,847	-51,921	-0,106	0,035
-287,832	-65,800	-0,029	0,008
-286,818	800,000	-0,031	-0,075
-285,803	-200,000	0,016	0,058
-284,789	524,019	-0,031	0,051
-283,774	-200,000	-0,003	0,086
-282,759	-200,000	-0,017	-0,069
-281,745	-200,000	-0,012	-0,059
-280,730	-200,000	-0,019	-0,240
-279,716	-200,000	-0,032	0,150
-278,701	96,785	0,057	0,046
-277,686	-100,604	0,119	-0,021
-276,672	33,382	0,077	0,048
-275,657	25,554	0,040	-0,024
-274,643	800,000	-0,016	-0,035
-273,628	-200,000	-0,012	-0,066
-272,613	59,323	-0,067	0,047
-271,599	292,572	0,039	-0,051
-270,584	-29,186	0,072	0,029
-269,570	-54,109	0,143	-0,046
-268,555	-6,850	-0,066	0,032
-267,540	242,824	-0,023	-0,027
-266,526	800,000	0,056	-0,163
-265,511	-128,155	-0,145	-0,015
-264,497	800,000	-0,016	-0,046
-263,482	259,991	-0,132	-0,162
-262,467	800,000	0,048	0,098
-261,453	27,239	-0,029	0,017
-260,438	210,160	-0,045	-0,050
-259,424	149,704	-0,086	-0,083
-258,409	-87,071	-0,049	-0,010
-257,395	-146,298	-0,142	-0,009
-256,380	-200,000	0,012	0,140
-255,365	800,000	-0,042	-0,084
-254,351	74,200	-0,035	0,026
-253,336	-200,000	0,011	0,146
-252,322	40,851	0,032	-0,021
-251,307	71,261	0,058	-0,043
-250,292	-200,000	-0,024	-0,094
-249,278	800,000	-0,041	0,090
-248,263	-200,000	0,006	0,152
-247,249	-200,000	-0,001	-0,009
-246,234	800,000	-0,011	0,029
-245,219	-160,281	0,072	0,003
-244,205	360,947	-0,047	-0,067
-243,190	-83,811	-0,104	-0,023
-242,176	487,144	0,056	0,091
-241,161	-200,000	0,013	0,090
-240,146	791,223	-0,036	-0,070
-239,132	588,512	0,042	0,074
-238,117	79,608	-0,078	0,059
-237,103	104,286	-0,022	-0,019
-236,088	333,827	-0,078	-0,108
-235,073	-109,596	0,081	0,012
-234,059	92,834	-0,055	0,044
-233,044	218,877	0,066	0,076
-232,030	-158,606	0,065	0,003
-231,015	-200,000	-0,013	-0,243
-230,000	723,086	-0,052	-0,100
-228,986	-94,075	-0,083	0,016
-227,971	-200,000	-0,020	-0,194
-226,957	44,199	0,071	0,046
-225,942	204,133	-0,041	0,045
-224,927	513,898	-0,025	0,041
-223,913	-44,996	-0,104	0,037
-222,898	-192,324	0,036	0,000
-221,884	-72,040	0,100	-0,026
-220,869	93,806	0,060	0,049
-219,855	-200,000	0,020	0,073
-218,840	53,993	0,133	0,091
-217,825	-200,000	-0,020	0,081
-216,811	0,866	-0,113	0,057
-215,796	800,000	0,050	-0,144
-214,782	-200,000	0,025	-0,107
-213,767	632,851	0,090	0,163
-212,752	-84,601	-0,056	0,013
-211,738	-200,000	-0,003	0,022
-210,723	126,392	0,050	-0,045
-209,709	-161,321	-0,096	0,003
-208,694	-200,000	0,019	-0,110
-207,679	-136,103	0,116	0,010
-206,665	800,000	0,008	0,018
-205,650	328,331	0,065	0,089
-204,636	800,000	-0,041	0,086
-203,621	-116,315	0,292	0,038
-202,606	158,101	-0,049	0,048
-201,592	12,760	0,096	-0,053
-200,577	-5,061	-0,126	-0,061
-199,563	-87,092	-0,026	0,006
-198,548	155,085	0,114	0,111
-197,533	-31,920	-0,118	-0,047
-196,519	104,109	0,146	0,122
-195,504	776,669	-0,077	-0,149
-194,490	-200,000	0,006	-0,090
-193,475	2,640	-0,031	0,016
-192,460	-154,948	0,106	0,005
-191,446	-200,000	0,014	0,088
-190,431	-82,233	0,069	0,016
-189,417	51,351	0,078	-0,053
-188,402	22,295	-0,081	0,047
-187,387	-8,459	-0,056	0,027
-186,373	553,905	0,042	-0,072
-185,358	-32,188	-0,048	-0,019
-184,344	-159,463	-0,086	-0,003
-183,329	113,915	-0,052	-0,045
-182,315	72,078	0,075	0,056
-181,300	20,749	-0,152	0,087
-180,285	239,268	-0,074	-0,087
-179,271	-200,000	-0,024	-0,086
-178,256	570,361	0,030	0,052
-177,242	522,844	0,070	-0,117
-176,227	98,663	-0,111	0,091
-175,212	209,404	0,091	0,101
-174,198	20,776	0,133	-0,076
-173,183	24,785	-0,022	-0,013
-172,169	87,299	-0,023	-0,018
-171,154	-200,000	0,039	-0,142
-170,139	763,941	0,050	0,097
-169,125	128,122	-0,115	0,104
-168,110	313,375	-0,074	0,098
-167,096	383,364	0,082	-0,120
-166,081	84,459	0,054	-0,042
-165,066	185,261	-0,045	-0,048
-164,052	10,761	-0,162	0,087
-163,037	130,290	-0,029	0,027
-162,023	-200,000	0,032	0,204
-161,008	736,814	-0,075	0,144
-159,993	800,000	0,020	-0,048
-158,979	800,000	-0,020	-0,050
-157,964	70,842	0,096	-0,070
-156,950	-23,202	-0,026	-0,011
-155,935	615,231	-0,030	-0,054
-154,920	2,503	-0,080	0,041
-153,906	255,273	0,089	0,108
-152,891	179,966	-0,041	0,042
-151,877	528,561	-0,057	-0,096
-150,862	-67,579	-0,099	0,027
-149,847	-200,000	-0,005	0,022
-148,833	281,507	0,031	0,039
-147,818	-200,000	0,026	0,204
-146,804	40,675	0,038	-0,024
-145,789	-120,923	-0,116	0,014
-144,775	-200,000	0,007	-0,046
-143,760	800,000	0,029	0,090
-142,745	0,341	-0,042	-0,021
-141,731	-10,872	0,068	-0,032
-140,716	800,000	-0,041	0,080
-139,702	107,734	-0,034	0,028
-138,687	27,490	0,049	-0,029
-137,672	-200,000	-0,016	0,118
-136,658	31,204	-0,089	-0,054
-135,643	610,214	-0,030	-0,054
-134,629	-128,342	0,199	-0,020
-133,614	-200,000	0,003	0,014
-132,599	-22,566	0,079	0,034
-131,585	-10,373	-0,142	0,066
-130,570	653,069	0,038	0,070
-129,556	-49,874	-0,147	-0,049
-128,541	549,159	-0,022	-0,038
-127,526	-200,000	-0,029	-0,147
-126,512	-200,000	0,001	-0,068
-125,497	-64,449	-0,034	0,010
-124,483	-200,000	0,009	-0,082
-123,468	-200,000	0,026	0,138
-122,453	-200,000	-0,008	-0,029
-121,439	-68,062	0,036	-0,010
-120,424	-21,523	-0,006	-0,003
-119,410	153,531	0,054	0,053
-118,395	-42,926	-0,033	-0,012
-117,380	-24,070	0,166	0,070
-116,366	-79,808	-0,127	0,030
-115,351	-200,000	0,025	-0,132
-114,337	358,571	-0,045	0,063
-113,322	-200,000	0,002	0,040
-112,307	-200,000	-0,006	0,025
-111,293	-128,350	0,069	-0,007
-110,278	-61,092	-0,040	0,012
-109,264	-139,236	-0,036	-0,003
-108,249	-108,755	0,005	0,001
-107,234	565,730	0,013	0,022
-106,220	7,425	0,079	-0,042
-105,205	-200,000	0,011	0,146
-104,191	-89,248	0,058	0,012
-103,176	-31,709	-0,079	0,031
-102,162	-59,800	0,016	0,005
-101,147	677,356	-0,049	-0,090
-100,132	-113,580	-0,092	0,013
-99,118	133,283	-0,107	0,098
-98,103	58,893	-0,042	0,029
-97,089	-200,000	0,008	0,132
-96,074	-200,000	0,001	-0,016
-95,059	-200,000	-0,015	-0,150
-94,045	800,000	0,048	-0,123
-93,030	800,000	0,035	-0,099
-92,016	-200,000	0,005	-0,043
-91,001	53,828	0,122	-0,083
-89,986	-200,000	-0,015	-0,133
-88,972	518,080	-0,016	-0,027
-87,957	571,643	0,008	-0,014
-86,943	-9,918	-0,025	0,012
-85,928	4,633	-0,115	-0,060
-84,913	-167,515	-0,113	-0,003
-83,899	96,987	-0,041	0,034
-82,884	-121,924	0,162	-0,019
-81,870	47,161	0,027	-0,018
-80,855	-200,000	-0,014	0,115
-79,840	330,500	0,063	-0,086
-78,826	-122,981	0,084	-0,009
-77,811	-2,212	-0,101	0,050
-76,797	101,706	-0,078	0,064
-75,782	-9,948	-0,100	-0,047
-74,767	11,834	0,134	0,072
-73,753	-46,544	-0,041	-0,014
-72,738	80,273	-0,055	-0,042
-71,724	-53,359	0,065	-0,021
-70,709	196,059	-0,045	-0,049
-69,694	-129,256	0,138	-0,013
-68,680	-200,000	-0,005	-0,064
-67,665	-200,000	-0,008	-0,079
-66,651	-200,000	-0,010	0,061
-65,636	21,176	0,049	0,028
-64,622	-200,000	0,009	0,031
-63,607	60,910	-0,054	-0,038
-62,592	139,406	-0,055	-0,052
-61,578	-121,418	0,125	0,015
-60,563	237,397	0,046	0,053
-59,549	-200,000	-0,031	0,123
-58,534	23,692	-1,965	-1,140
-57,519	524,102	-1,232	-2,054
-56,505	-200,000	-0,273	-4,477
-55,490	546,475	0,962	1,631
-54,476	800,000	5,087	11,152
-53,461	-200,000	21,015	332,030
-52,446	800,000	757,832	2331,531
-51,432	551,802	1661,965	2828,424
-50,417	73,439	1663,462	1228,012
-49,403	18,489	1536,798	864,831
-48,388	12,480	1459,745	792,384
-47,373	19,121	1450,522	819,241
-46,359	15,750	1439,919	797,174
-45,344	10,745	1435,805	771,019
-44,330	10,723	1433,637	769,716
-43,315	10,704	1431,932	768,679
-42,300	10,707	1430,311	767,793
-41,286	10,698	1428,924	766,976
-40,271	10,671	1427,755	766,193
-39,257	10,693	1426,402	765,540
-38,242	10,744	1425,419	765,221
-37,227	10,733	1424,244	764,508
-36,213	10,748	1422,962	763,860
-35,198	10,730	1422,015	763,239
-34,184	10,779	1420,984	762,884
-33,169	10,724	1419,456	761,777
-32,154	10,758	1418,594	761,444
-31,140	10,763	1417,190	760,683
-30,125	10,783	1416,336	760,290
-29,111	10,799	1414,926	759,576
-28,096	10,698	1414,116	758,638
-27,082	10,711	1412,849	757,987
-26,067	10,693	1411,728	757,271
-25,052	10,742	1410,655	756,896
-24,038	10,695	1409,672	756,119
-23,023	10,689	1408,655	755,514
-22,009	10,683	1407,727	754,959
-20,994	10,687	1406,509	754,296
-19,979	10,713	1405,799	754,004
-18,965	10,664	1404,784	753,203
-17,950	10,607	1403,895	752,429
-16,936	10,611	1403,193	752,043
-15,921	10,583	1402,186	751,342
-14,906	10,624	1401,180	750,962
-13,892	10,641	1400,130	750,452
-12,877	10,598	1399,499	749,882
-11,863	10,599	1398,574	749,360
-10,848	10,557	1397,688	748,664
-9,833	10,532	1396,813	748,047
-8,819	10,503	1395,894	747,393
-7,804	10,501	1395,094	746,926
-6,790	10,562	1393,787	746,478
-5,775	10,519	1393,096	745,879
-4,760	10,530	1392,158	745,397
-3,746	10,492	1391,169	744,665
-2,731	10,502	1390,349	744,240
-1,717	10,515	1389,218	743,666
-0,702	10,496	1387,417	742,584
0,313	14,431	1301,044	714,407
1,327	30,549	692,487	416,903
2,342	47,385	120,188	78,876
3,356	0,506	16,479	8,282
4,371	9,570	3,444	1,835
5,386	25,002	0,891	0,520
6,400	800,000	0,195	0,462
7,415	-160,762	-0,166	0,006
8,429	800,000	-0,105	-0,205
9,444	-71,439	-0,257	-0,067
10,459	76,254	-0,299	-0,223
11,473	40,166	-0,244	-0,155
12,488	173,229	-0,151	-0,154
13,502	1,611	-0,317	-0,160
14,517	40,657	-0,276	-0,175
15,531	79,900	-0,319	-0,242
16,546	131,047	-0,357	-0,323
17,561	94,997	-0,347	-0,278
18,575	10,658	-0,180	-0,097
19,590	186,744	-0,211	-0,222
20,604	-123,456	-0,498	-0,055
21,619	112,027	-0,382	-0,325
22,634	47,224	-0,451	-0,295
23,648	74,052	-0,469	-0,346
24,663	372,445	-0,296	-0,424
25,677	49,996	-0,462	-0,306
26,692	69,492	-0,346	-0,251
27,707	-10,024	-0,332	-0,155
28,721	93,073	-0,434	-0,345
29,736	112,192	-0,365	-0,311
30,750	5,618	-0,402	-0,208
31,765	110,318	-0,408	-0,345
32,780	-34,981	-0,414	-0,158
33,794	-0,273	-0,435	-0,217
34,809	108,916	-0,288	-0,242
35,823	153,975	-0,262	-0,253
36,838	124,409	-0,345	-0,305
37,853	297,581	-0,226	-0,293
38,867	61,796	-0,397	-0,278
39,882	100,680	-0,316	-0,258
40,896	-69,953	-0,213	-0,057
41,911	143,113	-0,309	-0,289
42,926	42,481	-0,292	-0,187
43,940	139,141	-0,441	-0,407
44,955	512,541	-0,266	-0,437
45,969	142,074	-0,334	-0,311
46,984	20,046	-0,398	-0,225
47,999	479,610	-0,162	-0,258
49,013	23,399	-0,366	-0,211
50,028	99,627	-0,338	-0,275
51,042	130,578	-0,325	-0,292
52,057	111,577	-0,230	-0,195
53,071	205,041	-0,361	-0,394
54,086	-37,908	-0,322	-0,119
55,101	96,539	-0,377	-0,303
56,115	263,456	-0,246	-0,301
57,130	39,510	-0,379	-0,238
58,144	95,033	-0,365	-0,292
59,159	40,647	-0,425	-0,269
60,174	89,344	-0,204	-0,159
61,188	-8,227	-0,392	-0,184
62,203	28,101	-0,406	-0,240
63,217	71,357	-0,288	-0,210
64,232	-14,535	-0,426	-0,191
65,247	-111,009	-0,471	-0,067
66,261	180,036	-0,186	-0,191
67,276	37,485	-0,381	-0,237
68,290	242,188	-0,249	-0,293
69,305	187,549	-0,235	-0,246
70,320	154,810	-0,359	-0,346
71,334	99,014	-0,297	-0,241
72,349	148,143	-0,199	-0,188
73,363	-66,373	-0,371	-0,103
74,378	3,936	-0,242	-0,124
75,393	37,895	-0,343	-0,214
76,407	77,143	-0,352	-0,262
77,422	-70,707	-0,292	-0,077
78,436	67,838	-0,164	-0,118
79,451	-25,240	-0,423	-0,175
80,466	108,881	-0,340	-0,284
81,480	3,354	-0,198	-0,101
82,495	-34,774	-0,380	-0,145
83,509	67,620	-0,239	-0,171
84,524	-0,146	-0,138	-0,069
85,539	-173,650	-0,237	-0,005
86,553	494,384	-0,112	-0,181
87,568	133,308	-0,299	-0,271
88,582	33,642	-0,344	-0,209
89,597	157,716	-0,291	-0,283
90,611	225,974	-0,205	-0,233
91,626	208,040	-0,152	-0,166
92,641	-46,168	-0,402	-0,138
93,655	-44,280	-0,277	-0,097
94,670	18,052	-0,314	-0,175
95,684	12,011	-0,326	-0,175
96,699	14,528	-0,294	-0,160
97,714	456,766	-0,147	-0,230
98,728	-1,991	-0,376	-0,184
99,743	26,405	-0,210	-0,122
100,757	-1,487	-0,294	-0,144
101,772	42,517	-0,419	-0,266
102,787	67,495	-0,292	-0,208
103,801	695,768	-0,153	-0,282
104,816	-75,537	-0,372	-0,092
105,830	159,816	-0,175	-0,170
106,845	119,474	-0,263	-0,228
107,860	-135,131	-0,292	-0,024
108,874	-16,747	-0,257	-0,113
109,889	12,656	-0,330	-0,177
110,903	81,167	-0,269	-0,203
111,918	-10,297	-0,227	-0,105
112,933	-1,792	-0,303	-0,148
113,947	233,231	-0,118	-0,136
114,962	-73,540	-0,348	-0,088
115,976	156,959	-0,253	-0,244
116,991	86,099	-0,260	-0,200
118,006	47,429	-0,290	-0,188
119,020	331,800	-0,183	-0,247
120,035	-18,428	-0,316	-0,137
121,049	557,598	-0,144	-0,244
122,064	58,777	-0,233	-0,160
123,079	153,341	-0,265	-0,254
124,093	483,155	-0,169	-0,269
125,108	-5,855	-0,309	-0,147
126,122	13,543	-0,305	-0,164
127,137	309,075	-0,252	-0,330
128,151	47,499	-0,264	-0,171
129,166	571,608	-0,088	-0,151
130,181	-63,159	-0,294	-0,084
131,195	-25,351	-0,345	-0,142
132,210	-3,998	-0,250	-0,121
133,224	41,607	-0,235	-0,148
134,239	-60,824	-0,253	-0,074
135,254	-200,000	-0,019	-0,171
136,268	-11,839	-0,241	-0,110
137,283	90,315	-0,214	-0,167
138,297	97,784	-0,217	-0,174
139,312	64,601	-0,275	-0,193
140,327	342,220	-0,206	-0,281
141,341	28,041	-0,310	-0,182
142,356	-82,937	-0,318	-0,071
143,370	-9,174	-0,208	-0,097
144,385	-19,378	-0,249	-0,107
145,400	210,158	-0,194	-0,213
146,414	209,005	-0,212	-0,232
147,429	800,000	-0,115	-0,247
148,443	174,727	-0,125	-0,126
149,458	192,509	-0,198	-0,209
150,473	-98,529	-0,149	0,026
151,487	-45,449	-0,271	-0,093
152,502	58,331	-0,303	-0,206
153,516	40,931	-0,252	-0,158
154,531	96,498	-0,274	-0,219
155,546	-17,950	-0,207	-0,090
156,560	-181,339	-0,338	-0,005
157,575	41,989	-0,207	-0,130
158,589	-78,693	-0,313	-0,074
159,604	48,152	-0,281	-0,182
160,619	18,786	-0,300	-0,167
161,633	8,177	-0,286	-0,149
162,648	76,634	-0,226	-0,166
163,662	129,110	-0,223	-0,198
164,677	-15,548	-0,226	-0,100
165,692	-10,709	-0,134	-0,061
166,706	-3,408	-0,178	-0,086
167,721	96,274	-0,173	-0,138
168,735	30,038	-0,214	-0,127
169,750	-106,583	-0,267	-0,041
170,764	135,864	-0,197	-0,179
171,779	130,643	-0,133	-0,119
172,794	16,552	-0,224	-0,123
173,808	117,713	-0,268	-0,229
174,823	203,767	-0,186	-0,200
175,837	319,508	-0,142	-0,188
176,852	88,252	-0,201	-0,155
177,867	15,406	-0,303	-0,165
178,881	92,749	-0,185	-0,145
179,896	125,970	-0,151	-0,133
180,910	90,245	-0,359	-0,278
181,925	124,953	-0,239	-0,209
182,940	230,375	-0,243	-0,276
183,954	177,348	-0,216	-0,219
184,969	142,618	-0,107	-0,099
185,983	435,069	-0,098	-0,148
186,998	0,525	-0,251	-0,124
188,013	-47,633	-0,142	-0,048
189,027	254,538	-0,248	-0,295
190,042	228,194	-0,170	-0,192
191,056	120,591	-0,221	-0,191
192,071	86,204	-0,206	-0,157
193,086	-78,740	-0,244	-0,057
194,100	150,160	-0,055	-0,052
195,115	436,052	-0,126	-0,191
196,129	-49,508	-0,190	-0,062
197,144	-13,472	-0,274	-0,123
198,159	222,560	-0,198	-0,221
199,173	-45,495	-0,256	-0,087
200,188	16,152	-0,169	-0,092
201,202	200,918	-0,134	-0,143
202,217	800,000	-0,091	-0,260
203,232	10,945	-0,238	-0,126
204,246	149,816	-0,156	-0,147
205,261	174,659	-0,285	-0,286
206,275	58,002	-0,188	-0,127
207,290	-63,209	-0,258	-0,073
208,304	800,000	-0,095	-0,233
209,319	61,340	-0,172	-0,118
210,334	724,865	-0,137	-0,255
211,348	320,393	-0,124	-0,164
212,363	85,220	-0,265	-0,201
213,377	-63,036	-0,231	-0,066
214,392	344,831	-0,117	-0,160
215,407	170,694	-0,184	-0,183
216,421	-28,561	-0,157	-0,063
217,436	-115,637	-0,176	0,023
218,450	800,000	-0,103	-0,314
219,465	102,796	-0,179	-0,145
220,480	468,837	-0,131	-0,204
221,494	73,432	-0,134	-0,097
222,509	159,427	-0,152	-0,146
223,523	-119,097	-0,124	-0,015
224,538	-37,684	-0,208	-0,076
225,553	260,286	-0,143	-0,171
226,567	81,380	-0,301	-0,225
227,582	410,311	-0,170	-0,251
228,596	24,381	-0,208	-0,119
229,611	455,464	-0,071	-0,109
230,626	-99,069	-0,137	-0,024
231,640	41,461	-0,113	-0,071
232,655	324,185	-0,142	-0,188
233,669	-50,883	-0,219	-0,071
234,684	147,520	-0,125	-0,116
235,699	525,420	-0,080	-0,131
236,713	800,000	-0,073	-0,219
237,728	80,233	-0,196	-0,145
238,742	-113,623	-0,218	-0,029
239,757	46,273	-0,211	-0,135
240,772	-68,382	-0,329	-0,088
241,786	33,024	-0,232	-0,138
242,801	244,028	-0,097	-0,113
243,815	-146,990	-0,197	0,011
244,830	800,000	-0,099	-0,264
245,844	127,552	-0,167	-0,147
246,859	397,311	-0,123	-0,177
247,874	44,949	-0,257	-0,163
248,888	719,073	-0,137	-0,252
249,903	-22,322	-0,278	-0,116
250,917	-200,000	-0,060	-0,275
251,932	229,548	-0,070	-0,079
252,947	341,426	-0,167	-0,226
253,961	528,416	-0,106	-0,173
254,976	156,349	-0,261	-0,249
255,990	3,983	-0,273	-0,137
257,005	-40,810	-0,323	-0,115
258,020	104,673	-0,215	-0,175
259,034	86,849	-0,170	-0,129
260,049	-130,707	-0,244	-0,022
261,063	800,000	-0,072	-0,196
262,078	59,079	-0,170	-0,115
263,093	-117,518	-0,207	0,026
264,107	126,853	-0,177	-0,154
265,122	67,137	-0,080	-0,056
266,136	-73,258	-0,142	-0,036
267,151	32,258	-0,196	-0,117
268,166	194,043	-0,134	-0,140
269,180	179,214	-0,200	-0,202
270,195	47,957	-0,136	-0,087
271,209	124,451	-0,205	-0,178
272,224	59,865	-0,266	-0,181
273,239	-200,000	-0,071	-0,222
274,253	23,240	-0,116	-0,066
275,268	-51,034	-0,177	-0,057
276,282	-134,677	-0,228	-0,019
277,297	64,794	-0,285	-0,198
278,312	1,072	-0,209	-0,103
279,326	-99,646	-0,257	-0,044
280,341	34,901	-0,208	-0,125
281,355	8,033	-0,053	0,027
282,370	-153,833	-0,189	-0,009
283,384	-48,465	-0,168	-0,055
284,399	-90,651	-0,157	-0,031
285,414	35,118	-0,191	-0,115
286,428	-79,518	-0,215	0,049
287,443	-75,642	-0,220	-0,053
288,457	107,026	-0,226	-0,185
289,472	573,850	-0,065	-0,110
290,487	-2,902	-0,265	-0,127
291,501	477,127	-0,116	-0,181
292,516	-44,473	-0,224	-0,077
293,530	-124,775	-0,055	-0,006
294,545	-188,616	-0,142	-0,001
295,560	352,264	-0,172	-0,235
296,574	-200,000	-0,051	-0,170
297,589	394,169	-0,152	-0,219
298,603	224,053	-0,225	-0,250
299,618	382,530	-0,099	-0,140
300,633	-47,750	-0,138	-0,046
301,647	278,337	-0,142	-0,174
302,662	-176,020	-0,242	-0,004
303,676	617,696	-0,115	-0,200
304,691	-105,201	-0,117	0,018
305,706	-74,138	-0,203	-0,050
306,720	-73,088	-0,202	-0,051
307,735	280,874	-0,097	-0,119
308,749	-200,000	-0,012	-0,180
309,764	55,982	-0,085	-0,056
310,779	-133,959	-0,191	0,016
311,793	25,133	-0,117	-0,066
312,808	395,298	-0,125	-0,180
313,822	-17,975	-0,190	-0,081
314,837	256,890	-0,179	-0,212
315,852	15,248	-0,147	-0,079
316,866	86,810	-0,174	-0,132
317,881	-200,000	-0,010	-0,085
318,895	58,982	-0,108	-0,073
319,910	-85,788	-0,225	-0,047
320,925	70,843	-0,159	-0,113
321,939	65,358	-0,199	-0,138
322,954	800,000	-0,052	0,110
323,968	-92,307	-0,054	0,010
324,983	-118,303	-0,233	0,028
325,997	-27,736	-0,125	0,049
327,012	8,748	-0,288	-0,148
328,027	278,804	-0,139	-0,170
329,041	265,640	-0,114	-0,137
330,056	29,273	-0,169	-0,098
331,070	597,820	0,084	0,143
332,085	-179,493	-0,061	0,001
333,100	-58,400	-0,176	-0,052
334,114	-200,000	-0,030	-0,141
335,129	145,681	-0,173	-0,159
336,143	800,000	-0,060	-0,116
337,158	26,187	-0,160	-0,091
338,173	-13,366	-0,103	-0,046
339,187	248,331	-0,098	-0,113
340,202	3,780	-0,171	-0,085
341,216	185,906	-0,140	-0,142
342,231	170,777	-0,083	-0,082
343,246	-82,143	-0,162	-0,036
344,260	-126,147	-0,163	0,017
345,275	136,130	-0,061	-0,055
346,289	-45,733	-0,130	-0,044
347,304	-35,344	-0,156	-0,058
348,319	-79,291	-0,148	0,034
349,333	161,389	-0,147	-0,141
350,348	-200,000	0,015	-0,068
351,362	220,041	-0,105	-0,115
352,377	-30,825	-0,156	-0,060
353,392	109,923	-0,084	0,069
354,406	55,541	-0,144	-0,095
355,421	205,883	1314,062	1399,570
356,435	158,310	1474,700	1400,050
