DTS Sentinel unit serial number:	SN410029Multiplexer serial number:	ORYXHardware model number:	OX2-SRSoftware version number:	ORYX F/W v4,00 Oryx Data Collector v3.7.2.0data status	okinstallation	B3 Nyhavnadifferential loss correction	single-endedforward channel	channel 1reverse channel	N/Adate	2023/12/03time	18:17:30forward acquisition time	300,00reverse acquisition time	0,00gamma	499,1914k internal	0,3198k external	0,3198temperature offset calibration	1,0000default loss term (dB/km)	0,3820temperature slope calibration	1,0000multiplexer offset coefficient	1,0000multiplexer slope coefficient	1,0000fibre end	0,00T internal ref (°C)	14,63T ext. ref 1 (°C)	-0,71T ext. ref 2 (°C)	-0,72length (m)	temperature (°C)	Stokes	anti-Stokes-744,400	144,373	-0,237	-0,231
-743,385	-200,000	0,033	0,252
-742,371	380,953	-0,109	-0,163
-741,356	800,000	0,157	0,468
-740,342	666,912	-0,176	-0,332
-739,327	-200,000	-0,043	0,288
-738,312	799,662	-0,190	-0,383
-737,298	800,000	-0,063	0,195
-736,283	-0,357	-0,308	-0,159
-735,269	800,000	0,105	0,290
-734,254	112,425	-0,272	-0,240
-733,239	477,087	-0,153	0,252
-732,225	275,881	-0,201	-0,260
-731,210	587,834	0,081	0,145
-730,196	-9,749	0,084	-0,041
-729,181	111,872	-0,125	-0,110
-728,167	-175,004	0,059	0,001
-727,152	151,512	-0,057	-0,056
-726,137	-200,000	0,013	0,137
-725,123	-200,000	-0,029	-0,130
-724,108	440,603	-0,096	0,153
-723,094	455,273	0,072	-0,116
-722,079	25,707	-0,099	-0,060
-721,064	-139,735	0,034	-0,003
-720,050	-106,287	0,068	0,011
-719,035	-192,240	0,123	-0,001
-718,021	34,514	-0,067	0,042
-717,006	800,000	0,025	-0,066
-715,991	51,233	-0,038	-0,026
-714,977	9,024	-0,165	0,090
-713,962	-134,127	-0,049	-0,004
-712,948	254,013	0,077	-0,096
-711,933	-200,000	-0,002	0,099
-710,918	-34,918	-0,075	0,030
-709,904	800,000	-0,042	-0,102
-708,889	-23,803	-0,112	0,048
-707,875	-125,402	0,023	-0,002
-706,860	800,000	0,022	-0,052
-705,845	108,631	0,089	-0,077
-704,831	44,340	0,041	0,027
-703,816	-200,000	0,009	-0,068
-702,802	-200,000	-0,017	-0,263
-701,787	-200,000	-0,018	-0,133
-700,772	28,172	-0,012	-0,007
-699,758	-200,000	-0,019	-0,088
-698,743	-200,000	0,001	0,114
-697,729	-106,006	-0,126	0,020
-696,714	-200,000	-0,038	-0,123
-695,699	-84,945	0,039	-0,009
-694,685	-200,000	-0,029	-0,113
-693,670	-90,843	-0,077	-0,016
-692,656	-200,000	0,010	-0,051
-691,641	63,040	0,128	-0,093
-690,627	-102,593	0,144	0,025
-689,612	-65,909	0,069	0,020
-688,597	129,729	0,015	-0,014
-687,583	789,563	-0,024	0,048
-686,568	116,409	-0,070	-0,063
-685,554	125,505	-0,031	-0,028
-684,539	-45,218	0,071	0,025
-683,524	-200,000	0,020	-0,113
-682,510	-114,585	-0,068	0,009
-681,495	-200,000	-0,021	-0,164
-680,481	598,281	-0,072	-0,131
-679,466	55,416	0,067	-0,047
-678,451	67,565	-0,148	-0,109
-677,437	-200,000	-0,023	-0,128
-676,422	-84,771	0,099	0,022
-675,408	-12,414	-0,106	0,050
-674,393	-200,000	-0,022	0,078
-673,378	93,951	-0,080	0,066
-672,364	348,162	0,055	-0,079
-671,349	-200,000	-0,007	-0,300
-670,335	-200,000	-0,030	-0,097
-669,320	135,488	0,063	0,059
-668,305	187,097	0,059	0,064
-667,291	322,657	-0,033	-0,046
-666,276	-200,000	-0,023	0,108
-665,262	800,000	-0,042	-0,097
-664,247	-200,000	-0,004	-0,072
-663,232	-200,000	0,009	-0,085
-662,218	238,648	0,088	-0,106
-661,203	-39,645	-0,162	-0,061
-660,189	238,442	0,062	-0,075
-659,174	59,527	-0,111	0,079
-658,159	-63,076	-0,039	-0,012
-657,145	25,700	-0,030	-0,018
-656,130	-200,000	-0,001	-0,032
-655,116	16,650	0,070	0,040
-654,101	-188,551	0,029	0,000
-653,086	-8,411	-0,077	0,038
-652,072	-200,000	-0,017	-0,112
-651,057	-45,238	-0,139	-0,050
-650,043	800,000	-0,050	0,102
-649,028	69,405	0,023	0,017
-648,014	28,309	0,091	-0,056
-646,999	-97,337	0,063	0,012
-645,984	144,200	-0,054	0,052
-644,970	800,000	-0,039	-0,086
-643,955	800,000	-0,104	-0,239
-642,941	800,000	0,006	0,019
-641,926	-37,286	-0,078	0,030
-640,911	53,566	0,077	-0,054
-639,897	-139,581	0,123	-0,009
-638,882	291,078	0,020	0,027
-637,868	3,061	-0,119	0,062
-636,853	-92,369	-0,108	-0,022
-635,838	-200,000	0,022	-0,112
-634,824	800,000	0,063	-0,139
-633,809	85,591	0,135	0,107
-632,795	303,600	-0,059	0,080
-631,780	206,221	0,066	-0,074
-630,765	50,806	0,083	-0,057
-629,751	-69,949	-0,081	-0,022
-628,736	800,000	0,042	-0,113
-627,722	391,704	-0,074	-0,112
-626,707	-31,341	0,102	0,042
-625,692	800,000	-0,034	0,086
-624,678	-200,000	0,035	0,130
-623,663	-87,177	-0,165	0,036
-622,649	-158,069	-0,095	0,004
-621,634	-200,000	0,008	-0,122
-620,619	157,227	0,039	-0,039
-619,605	-36,920	-0,162	-0,063
-618,590	81,888	0,028	0,022
-617,576	-52,737	0,175	0,058
-616,561	-18,758	-0,030	0,013
-615,546	-200,000	0,018	-0,072
-614,532	800,000	0,024	-0,065
-613,517	800,000	0,013	-0,032
-612,503	96,567	0,043	-0,036
-611,488	-40,137	0,039	-0,015
-610,474	238,501	0,091	0,110
-609,459	374,959	-0,033	-0,049
-608,444	-200,000	-0,028	-0,099
-607,430	-14,108	-0,131	-0,061
-606,415	-200,000	0,017	0,110
-605,401	800,000	-0,033	0,094
-604,386	306,656	0,066	-0,089
-603,371	489,545	-0,045	0,075
-602,357	568,594	0,067	-0,118
-601,342	55,740	-0,076	0,053
-600,328	800,000	-0,081	-0,207
-599,313	503,057	0,032	-0,054
-598,298	-200,000	0,015	-0,091
-597,284	-178,184	0,179	-0,003
-596,269	34,416	0,051	0,032
-595,255	-200,000	0,027	0,144
-594,240	13,890	-0,103	0,058
-593,225	94,071	-0,052	-0,043
-592,211	-144,748	-0,063	0,004
-591,196	-200,000	0,026	-0,095
-590,182	523,757	0,039	0,066
-589,167	572,086	0,078	0,139
-588,152	-48,329	0,148	0,052
-587,138	531,540	-0,093	0,160
-586,123	331,497	-0,105	-0,147
-585,109	-145,715	-0,091	0,006
-584,094	191,665	-0,036	-0,039
-583,079	-48,528	0,080	0,028
-582,065	5,249	0,153	0,082
-581,050	-3,187	0,080	0,040
-580,036	-58,828	0,202	-0,063
-579,021	245,388	-0,052	0,063
-578,006	40,920	-0,063	-0,041
-576,992	-119,982	0,073	-0,009
-575,977	742,675	-0,080	-0,157
-574,963	35,524	-0,032	-0,020
-573,948	800,000	-0,036	0,084
-572,934	-200,000	-0,004	0,101
-571,919	27,221	-0,014	-0,008
-570,904	-200,000	0,020	-0,067
-569,890	57,881	-0,068	-0,048
-568,875	-200,000	0,008	0,066
-567,861	800,000	0,028	0,067
-566,846	-200,000	0,039	0,204
-565,831	800,000	-0,053	0,125
-564,817	-200,000	0,029	-0,121
-563,802	-200,000	0,001	-0,010
-562,788	112,636	-0,108	-0,094
-561,773	247,684	-0,030	-0,037
-560,758	248,878	0,094	-0,116
-559,744	85,595	0,050	-0,040
-558,729	64,768	-0,111	0,081
-557,715	418,667	0,067	-0,104
-556,700	-102,173	-0,184	-0,032
-555,685	206,518	0,043	-0,048
-554,671	91,075	-0,029	-0,023
-553,656	-111,028	-0,101	0,015
-552,642	800,000	-0,010	0,030
-551,627	557,050	0,086	0,150
-550,612	-200,000	0,022	-0,182
-549,598	-200,000	-0,003	0,130
-548,583	-200,000	-0,000	0,142
-547,569	190,430	-0,065	-0,071
-546,554	423,376	0,034	-0,052
-545,539	126,358	-0,058	0,053
-544,525	-156,062	0,099	0,004
-543,510	180,076	-0,045	-0,048
-542,496	149,539	-0,061	0,059
-541,481	202,245	-0,023	0,026
-540,466	85,883	0,141	-0,112
-539,452	393,829	0,057	-0,086
-538,437	7,568	0,155	0,084
-537,423	19,611	0,058	0,033
-536,408	-200,000	-0,014	-0,050
-535,393	-200,000	0,006	-0,172
-534,379	-24,716	-0,043	0,018
-533,364	778,992	-0,018	-0,035
-532,350	-200,000	-0,035	0,122
-531,335	195,811	0,087	0,095
-530,321	-200,000	-0,014	0,153
-529,306	-200,000	-0,003	0,161
-528,291	-200,000	0,015	-0,138
-527,277	-200,000	-0,004	0,053
-526,262	800,000	0,033	0,086
-525,248	608,378	-0,072	0,130
-524,233	-200,000	-0,010	0,082
-523,218	-200,000	0,017	0,123
-522,204	416,639	-0,100	0,155
-521,189	-132,167	0,135	-0,012
-520,175	140,691	-0,055	-0,052
-519,160	-200,000	-0,065	-0,209
-518,145	800,000	0,029	-0,078
-517,131	453,091	0,071	-0,114
-516,116	106,533	-0,058	-0,050
-515,102	800,000	0,044	0,139
-514,087	329,390	0,013	-0,018
-513,072	508,169	-0,053	-0,090
-512,058	800,000	0,020	0,049
-511,043	-200,000	0,021	-0,199
-510,029	1,377	-0,078	0,041
-509,014	53,974	0,094	-0,065
-507,999	-200,000	0,003	0,168
-506,985	-139,801	0,112	-0,008
-505,970	190,836	0,099	-0,108
-504,956	20,928	0,024	-0,014
-503,941	-200,000	-0,001	-0,010
-502,926	105,679	0,093	0,079
-501,912	-200,000	-0,035	-0,131
-500,897	250,374	-0,075	0,092
-499,883	685,998	0,038	-0,072
-498,868	-79,553	-0,091	0,022
-497,853	70,838	-0,160	-0,119
-496,839	45,683	-0,012	-0,008
-495,824	213,719	-0,068	0,078
-494,810	767,994	0,049	0,096
-493,795	-72,175	0,039	0,010
-492,781	800,000	0,042	-0,091
-491,766	517,609	-0,057	0,096
-490,751	-56,010	0,067	-0,021
-489,737	-121,678	-0,186	-0,022
-488,722	-200,000	0,003	0,040
-487,708	-200,000	-0,014	0,059
-486,693	121,876	0,039	0,035
-485,678	-200,000	-0,014	0,098
-484,664	-200,000	0,002	-0,045
-483,649	-200,000	-0,003	-0,088
-482,635	-99,123	-0,141	-0,025
-481,620	-113,039	0,016	-0,002
-480,605	800,000	0,049	0,134
-479,591	-92,397	-0,054	0,011
-478,576	64,344	-0,117	0,084
-477,562	157,561	0,123	-0,122
-476,547	-3,963	-0,146	-0,073
-475,532	800,000	0,027	0,078
-474,518	800,000	0,037	0,084
-473,503	800,000	0,050	0,107
-472,489	-200,000	0,010	0,059
-471,474	-121,682	0,119	-0,014
-470,459	65,934	-0,086	-0,063
-469,445	-200,000	-0,003	0,020
-468,430	-200,000	0,003	-0,030
-467,416	-51,562	0,136	0,045
-466,401	74,740	-0,041	0,031
-465,386	178,528	0,077	0,081
-464,372	184,952	-0,072	0,077
-463,357	-133,086	-0,063	0,006
-462,343	249,335	0,044	-0,053
-461,328	-142,021	0,148	-0,010
-460,313	297,107	0,088	0,117
-459,299	-200,000	-0,007	0,199
-458,284	800,000	0,051	0,138
-457,270	434,166	-0,039	0,061
-456,255	13,157	-0,069	0,038
-455,241	-138,039	0,205	-0,016
-454,226	-143,646	0,106	0,007
-453,211	-88,092	0,044	-0,009
-452,197	800,000	0,008	0,024
-451,182	228,401	0,015	0,017
-450,168	570,791	-0,057	0,101
-449,153	40,079	-0,138	-0,089
-448,138	514,778	-0,061	-0,102
-447,124	-200,000	0,001	0,019
-446,109	-200,000	0,024	-0,117
-445,095	465,412	-0,021	0,033
-444,080	-28,546	0,092	0,038
-443,065	10,582	0,149	0,081
-442,051	660,287	0,018	0,034
-441,036	82,126	0,156	-0,122
-440,022	29,852	-0,060	-0,037
-439,007	800,000	-0,011	-0,027
-437,992	-25,952	0,072	-0,030
-436,978	-200,000	0,002	0,045
-435,963	40,991	0,104	0,067
-434,949	-200,000	0,006	0,061
-433,934	71,867	-0,077	0,058
-432,919	-8,070	-0,107	-0,052
-431,905	800,000	0,060	-0,131
-430,890	699,317	-0,049	0,093
-429,876	800,000	-0,041	0,084
-428,861	-200,000	0,014	0,159
-427,846	62,608	-0,065	0,047
-426,832	230,246	0,030	0,035
-425,817	800,000	-0,013	-0,041
-424,803	574,581	-0,066	0,116
-423,788	800,000	0,038	-0,089
-422,773	-200,000	0,020	0,134
-421,759	24,474	-0,082	-0,049
-420,744	-200,000	-0,024	-0,146
-419,730	45,220	-0,096	-0,063
-418,715	-200,000	-0,000	-0,193
-417,701	538,894	0,066	-0,114
-416,686	56,821	0,107	-0,075
-415,671	159,919	0,098	0,098
-414,657	24,292	-0,015	-0,009
-413,642	-200,000	-0,005	0,033
-412,628	-11,459	0,032	-0,015
-411,613	71,244	-0,021	-0,016
-410,598	800,000	0,033	-0,070
-409,584	-26,568	-0,033	0,014
-408,569	-114,081	0,045	0,006
-407,555	356,950	0,064	0,092
-406,540	124,717	0,119	0,108
-405,525	-200,000	0,006	-0,127
-404,511	-22,497	-0,133	-0,058
-403,496	-95,880	-0,149	0,028
-402,482	-200,000	-0,029	-0,146
-401,467	800,000	0,064	0,180
-400,452	800,000	0,038	0,118
-399,438	-200,000	0,001	-0,021
-398,423	700,961	0,015	-0,028
-397,409	358,507	-0,053	-0,077
-396,394	328,621	-0,096	-0,133
-395,379	800,000	0,026	-0,076
-394,365	577,035	-0,041	0,073
-393,350	206,548	-0,068	0,076
-392,336	-63,971	-0,094	-0,027
-391,321	-117,082	-0,163	0,021
-390,306	-59,328	-0,119	-0,037
-389,292	-181,788	-0,055	0,001
-388,277	85,464	-0,038	0,030
-387,263	-22,747	0,098	0,042
-386,248	770,446	0,061	-0,119
-385,233	165,885	-0,032	0,033
-384,219	-77,825	-0,067	0,017
-383,204	-57,528	-0,149	0,047
-382,190	133,525	-0,007	-0,006
-381,175	800,000	0,055	-0,110
-380,160	-9,483	-0,023	-0,011
-379,146	-31,344	-0,081	0,033
-378,131	125,328	-0,077	0,070
-377,117	233,985	0,078	0,092
-376,102	-200,000	0,006	-0,032
-375,088	-171,911	-0,146	0,003
-374,073	800,000	-0,047	0,095
-373,058	7,182	-0,108	0,058
-372,044	190,944	-0,014	0,015
-371,029	410,447	0,057	0,087
-370,015	-85,705	0,067	-0,015
-369,000	-41,825	-0,059	0,022
-367,985	516,065	-0,034	-0,058
-366,971	-59,138	-0,033	-0,010
-365,956	-10,944	0,106	0,050
-364,942	-58,356	0,138	0,043
-363,927	-200,000	0,016	0,074
-362,912	800,000	-0,018	-0,037
-361,898	410,441	0,024	0,036
-360,883	54,140	-0,135	-0,093
-359,869	-13,840	-0,094	0,043
-358,854	38,441	-0,069	0,044
-357,839	-200,000	0,012	-0,043
-356,825	670,384	0,051	0,094
-355,810	-200,000	-0,023	0,088
-354,796	356,946	-0,053	-0,076
-353,781	281,326	0,025	-0,032
-352,766	800,000	0,020	-0,043
-351,752	-72,563	-0,053	0,014
-350,737	-33,752	0,139	-0,055
-349,723	-200,000	-0,011	-0,123
-348,708	302,109	-0,087	0,116
-347,693	60,896	-0,023	-0,016
-346,679	-43,268	-0,132	-0,048
-345,664	-5,839	-0,042	0,020
-344,650	-200,000	-0,000	0,119
-343,635	-5,893	0,183	0,089
-342,620	-200,000	0,048	0,210
-341,606	800,000	0,008	-0,019
-340,591	-140,609	-0,116	0,009
-339,577	-182,386	0,081	-0,001
-338,562	147,444	0,122	-0,118
-337,548	-93,816	0,056	-0,011
-336,533	-66,390	0,030	-0,008
-335,518	224,976	-0,043	-0,050
-334,504	65,022	0,118	0,085
-333,489	295,083	-0,164	-0,215
-332,475	-200,000	-0,012	0,059
-331,460	-126,230	-0,091	-0,010
-330,445	-121,322	0,053	-0,006
-329,431	-111,131	0,096	0,014
-328,416	-200,000	-0,017	0,056
-327,402	-200,000	0,010	-0,060
-326,387	-118,849	0,126	-0,016
-325,372	-100,291	-0,173	-0,031
-324,358	-200,000	0,012	-0,114
-323,343	-163,249	0,033	0,001
-322,329	20,895	-0,080	0,046
-321,314	-132,801	0,099	0,009
-320,299	-35,183	-0,087	0,034
-319,285	-64,094	0,115	-0,033
-318,270	800,000	-0,064	0,137
-317,256	-39,645	0,093	0,034
-316,241	-200,000	0,032	-0,101
-315,226	800,000	-0,038	0,076
-314,212	800,000	-0,052	-0,114
-313,197	2,075	0,127	0,065
-312,183	472,992	-0,025	0,040
-311,168	78,342	0,087	-0,067
-310,153	100,187	-0,006	0,005
-309,139	-200,000	0,001	-0,070
-308,124	-200,000	0,010	-0,160
-307,110	747,798	0,042	0,082
-306,095	311,963	-0,048	0,065
-305,080	-74,488	0,025	0,006
-304,066	-200,000	0,001	0,055
-303,051	142,498	-0,049	-0,047
-302,037	135,110	0,114	-0,106
-301,022	581,521	0,085	-0,150
-300,008	-132,581	0,108	0,010
-298,993	-120,233	0,093	-0,011
-297,978	-44,450	-0,120	0,043
-296,964	-42,908	-0,081	-0,029
-295,949	149,264	-0,041	0,040
-294,935	110,597	-0,141	-0,121
-293,920	11,898	0,152	-0,083
-292,905	-79,491	0,083	-0,020
-291,891	-41,228	0,026	-0,010
-290,876	306,777	0,015	-0,020
-289,862	181,990	-0,028	-0,030
-288,847	143,430	0,048	-0,046
-287,832	-40,497	-0,045	-0,017
-286,818	276,037	-0,097	-0,124
-285,803	-200,000	-0,012	-0,132
-284,789	-35,099	-0,063	-0,025
-283,774	800,000	-0,037	0,091
-282,759	626,489	-0,054	-0,098
-281,745	113,684	-0,098	-0,085
-280,730	-13,086	-0,135	0,062
-279,716	83,367	-0,025	0,019
-278,701	643,947	-0,044	0,080
-277,686	-64,317	0,113	-0,033
-276,672	200,437	-0,051	0,056
-275,657	282,893	-0,015	0,019
-274,643	800,000	0,039	0,092
-273,628	435,895	-0,112	-0,174
-272,613	800,000	-0,062	-0,160
-271,599	-200,000	0,023	0,105
-270,584	800,000	0,020	-0,057
-269,570	674,057	-0,033	0,061
-268,555	-200,000	-0,008	-0,074
-267,540	114,761	-0,064	-0,056
-266,526	-92,557	0,021	0,004
-265,511	-102,772	-0,108	-0,018
-264,497	-24,757	0,128	0,054
-263,482	224,249	0,072	0,084
-262,467	-29,909	0,072	0,029
-261,453	-103,560	-0,052	0,009
-260,438	-200,000	-0,010	-0,056
-259,424	-102,687	-0,124	-0,021
-258,409	580,075	-0,026	-0,045
-257,395	-41,540	-0,025	-0,009
-256,380	800,000	0,045	0,115
-255,365	135,964	0,047	-0,044
-254,351	186,499	-0,067	0,072
-253,336	-43,118	0,129	0,047
-252,322	142,228	0,011	-0,010
-251,307	-52,070	-0,070	0,023
-250,292	-138,591	-0,082	-0,006
-249,278	-168,179	-0,052	-0,001
-248,263	-200,000	0,017	0,056
-247,249	-126,136	0,126	0,013
-246,234	-160,595	0,089	-0,003
-245,219	-64,642	-0,056	-0,016
-244,205	-81,589	-0,054	0,013
-243,190	269,240	-0,030	0,037
-242,176	-200,000	0,000	-0,045
-241,161	-200,000	0,041	0,223
-240,146	-116,320	-0,044	0,006
-239,132	116,180	-0,027	-0,024
-238,117	-183,445	0,039	0,000
-237,103	800,000	0,018	0,042
-236,088	80,863	-0,073	0,056
-235,073	-1,129	0,059	-0,030
-234,059	-200,000	-0,015	0,055
-233,044	800,000	-0,058	0,119
-232,030	85,398	-0,056	0,044
-231,015	-29,277	-0,091	-0,037
-230,000	800,000	-0,021	0,058
-228,986	-200,000	-0,004	-0,053
-227,971	6,001	-0,045	-0,024
-226,957	-19,698	0,087	0,038
-225,942	800,000	0,009	-0,022
-224,927	178,928	0,113	-0,118
-223,913	105,659	-0,141	-0,119
-222,898	140,439	0,045	-0,042
-221,884	-21,160	-0,059	-0,026
-220,869	102,572	-0,144	-0,120
-219,855	591,092	-0,053	0,094
-218,840	11,136	0,105	-0,057
-217,825	800,000	-0,024	-0,068
-216,811	-20,012	-0,160	-0,070
-215,796	-32,833	-0,150	0,059
-214,782	-200,000	0,042	-0,159
-213,767	-33,328	0,180	0,071
-212,752	800,000	0,039	0,097
-211,738	336,493	0,085	0,118
-210,723	-200,000	-0,021	0,104
-209,709	800,000	-0,028	0,084
-208,694	258,483	-0,037	-0,045
-207,679	0,697	-0,007	-0,004
-206,665	-13,526	-0,001	-0,000
-205,650	264,815	0,083	0,104
-204,636	-200,000	0,013	0,128
-203,621	718,300	0,012	-0,023
-202,606	-65,434	0,059	-0,017
-201,592	-200,000	-0,001	0,094
-200,577	-172,932	0,080	-0,002
-199,563	-200,000	-0,016	-0,114
-198,548	800,000	-0,026	-0,057
-197,533	44,140	0,034	0,022
-196,519	408,740	0,057	0,086
-195,504	-8,541	-0,119	-0,057
-194,490	15,457	0,087	0,048
-193,475	286,874	0,009	-0,011
-192,460	49,284	-0,008	-0,005
-191,446	407,895	0,033	-0,050
-190,431	-200,000	-0,037	0,144
-189,417	-200,000	-0,001	-0,055
-188,402	-200,000	0,008	-0,076
-187,387	711,375	-0,023	-0,044
-186,373	-75,043	0,022	0,006
-185,358	-9,627	0,073	-0,035
-184,344	659,201	0,064	-0,118
-183,329	87,917	0,062	0,049
-182,315	643,126	0,025	-0,045
-181,300	800,000	0,024	0,051
-180,285	-200,000	0,006	-0,052
-179,271	601,119	-0,022	0,039
-178,256	-200,000	-0,026	-0,121
-177,242	44,586	0,203	-0,133
-176,227	368,279	0,076	0,110
-175,212	436,035	-0,043	0,068
-174,198	-110,978	-0,056	-0,008
-173,183	76,383	-0,024	-0,018
-172,169	385,443	0,063	0,092
-171,154	62,370	-0,077	-0,055
-170,139	110,239	-0,043	-0,037
-169,125	-200,000	-0,002	0,035
-168,110	-39,358	0,095	-0,035
-167,096	-116,210	0,135	-0,018
-166,081	494,545	0,023	0,037
-165,066	-200,000	-0,007	-0,108
-164,052	-200,000	0,002	0,011
-163,037	221,169	0,056	0,064
-162,023	-84,720	-0,128	-0,029
-161,008	-200,000	-0,016	0,089
-159,993	800,000	-0,023	-0,063
-158,979	-4,433	0,096	-0,047
-157,964	-18,277	-0,048	0,021
-156,950	184,703	0,102	-0,108
-155,935	800,000	0,032	-0,079
-154,920	21,758	0,048	-0,028
-153,906	-200,000	-0,026	0,087
-152,891	-131,970	-0,120	-0,011
-151,877	93,228	-0,048	0,039
-150,862	800,000	-0,059	0,134
-149,847	-200,000	0,006	0,041
-148,833	800,000	-0,027	0,057
-147,818	800,000	0,068	0,146
-146,804	-36,774	0,147	-0,056
-145,789	-165,414	-0,088	0,003
-144,775	-93,405	-0,082	-0,016
-143,760	-5,307	-0,052	-0,025
-142,745	154,789	-0,070	-0,069
-141,731	-200,000	-0,003	-0,147
-140,716	-10,777	0,006	-0,003
-139,702	84,873	-0,061	-0,048
-138,687	-200,000	0,012	0,131
-137,672	800,000	0,027	-0,061
-136,658	-26,564	-0,012	0,005
-135,643	-60,444	0,032	0,010
-134,629	-200,000	0,030	-0,133
-133,614	201,693	0,037	-0,040
-132,599	800,000	0,041	-0,085
-131,585	-58,053	0,017	-0,005
-130,570	195,618	0,097	0,105
-129,556	60,563	-0,049	-0,034
-128,541	67,807	-0,091	0,066
-127,526	0,985	0,056	-0,028
-126,512	113,767	0,060	0,052
-125,497	-181,613	-0,128	0,002
-124,483	-200,000	0,028	-0,088
-123,468	-200,000	-0,027	0,099
-122,453	-200,000	0,025	-0,185
-121,439	-66,062	0,011	0,003
-120,424	-192,575	-0,079	-0,001
-119,410	-200,000	-0,001	-0,028
-118,395	158,874	0,019	-0,019
-117,380	-37,227	0,138	-0,052
-116,366	-200,000	-0,012	0,088
-115,351	613,932	-0,020	-0,036
-114,337	408,876	-0,007	0,011
-113,322	75,756	-0,056	-0,042
-112,307	-34,526	-0,053	-0,021
-111,293	-139,226	-0,117	0,009
-110,278	84,884	0,119	-0,092
-109,264	-2,998	0,063	-0,031
-108,249	-59,213	-0,162	-0,049
-107,234	212,944	-0,045	0,050
-106,220	-200,000	-0,013	-0,048
-105,205	345,811	0,005	0,007
-104,191	296,981	0,101	0,133
-103,176	-114,686	-0,073	0,010
-102,162	-190,387	0,105	0,001
-101,147	-200,000	0,025	-0,080
-100,132	-200,000	0,026	-0,183
-99,118	-112,354	0,056	-0,008
-98,103	76,733	-0,046	-0,035
-97,089	444,509	0,067	-0,104
-96,074	78,118	-0,048	0,037
-95,059	800,000	-0,019	-0,057
-94,045	-200,000	-0,012	-0,144
-93,030	305,325	0,032	-0,042
-92,016	-135,761	0,113	-0,009
-91,001	27,079	0,054	-0,032
-89,986	217,343	0,032	0,037
-88,972	214,351	0,035	0,040
-87,957	-56,422	-0,043	0,013
-86,943	-4,228	-0,108	0,053
-85,928	51,816	-0,061	-0,041
-84,913	-200,000	0,008	0,055
-83,899	-200,000	-0,065	0,207
-82,884	-200,000	-0,002	-0,032
-81,870	-200,000	-0,004	0,035
-80,855	270,760	0,105	0,131
-79,840	200,744	-0,145	0,159
-78,826	28,943	-0,060	0,036
-77,811	-200,000	-0,006	-0,033
-76,797	58,774	0,092	0,064
-75,782	-59,531	0,058	0,018
-74,767	414,214	0,117	0,178
-73,753	-200,000	0,017	0,159
-72,738	192,253	0,038	0,040
-71,724	555,707	-0,099	-0,170
-70,709	-130,497	-0,110	-0,010
-69,694	-200,000	0,014	0,156
-68,680	-200,000	-0,006	-0,046
-67,665	-78,211	0,079	-0,019
-66,651	-200,000	0,020	0,173
-65,636	-200,000	0,032	0,127
-64,622	14,919	-0,086	-0,048
-63,607	-51,843	0,026	0,008
-62,592	211,246	-0,128	-0,143
-61,578	-100,618	0,146	-0,025
-60,563	-200,000	0,038	0,175
-59,549	-200,000	-0,004	-0,072
-58,534	-64,714	-1,578	-0,450
-57,519	388,938	-1,477	-2,175
-56,505	-200,000	-0,454	-4,540
-55,490	164,368	0,984	0,984
-54,476	800,000	4,774	10,999
-53,461	-200,000	18,559	295,034
-52,446	800,000	730,368	2252,038
-51,432	559,234	1646,420	2827,267
-50,417	78,972	1666,975	1263,297
-49,403	22,501	1540,344	890,384
-48,388	16,523	1463,202	816,797
-47,373	17,836	1453,338	817,593
-46,359	17,112	1443,640	808,638
-45,344	14,770	1439,131	794,883
-44,330	14,657	1437,040	793,152
-43,315	14,712	1435,420	792,489
-42,300	14,707	1433,818	791,552
-41,286	14,749	1432,560	791,027
-40,271	14,702	1431,401	790,128
-39,257	14,686	1430,227	789,373
-38,242	14,768	1428,490	788,774
-37,227	14,744	1427,414	788,037
-36,213	14,745	1426,211	787,346
-35,198	14,755	1425,152	786,776
-34,184	14,773	1424,194	786,301
-33,169	14,703	1422,827	785,185
-32,154	14,701	1421,950	784,660
-31,140	14,704	1420,499	783,842
-30,125	14,780	1419,333	783,526
-29,111	14,719	1418,416	782,699
-28,096	14,766	1416,892	782,048
-27,082	14,649	1416,244	781,110
-26,067	14,645	1415,115	780,436
-25,052	14,727	1413,730	780,029
-24,038	14,638	1413,003	779,179
-23,023	14,652	1411,901	778,606
-22,009	14,648	1410,883	777,996
-20,994	14,602	1409,949	777,233
-19,979	14,632	1409,092	776,869
-18,965	14,573	1408,156	776,047
-17,950	14,565	1407,336	775,525
-16,936	14,555	1406,361	774,912
-15,921	14,579	1405,050	774,270
-14,906	14,561	1404,253	773,718
-13,892	14,581	1403,520	773,378
-12,877	14,573	1402,536	772,765
-11,863	14,561	1401,548	772,134
-10,848	14,554	1400,687	771,597
-9,833	14,518	1399,750	770,883
-8,819	14,445	1398,869	770,027
-7,804	14,456	1398,038	769,591
-6,790	14,472	1396,985	769,053
-5,775	14,479	1396,040	768,536
-4,760	14,464	1394,935	767,830
-3,746	14,485	1394,093	767,432
-2,731	14,438	1393,434	766,822
-1,717	14,434	1392,620	766,323
-0,702	14,438	1390,622	765,212
0,313	18,286	1309,001	738,111
1,327	34,694	705,694	435,923
2,342	53,857	124,120	84,308
3,356	5,075	16,588	8,621
4,371	5,084	3,217	1,672
5,386	117,673	0,442	0,385
6,400	703,952	-0,037	0,070
7,415	95,293	-0,267	-0,215
8,429	140,855	-0,318	-0,298
9,444	121,718	-0,283	-0,250
10,459	359,806	-0,203	-0,289
11,473	159,053	-0,218	-0,214
12,488	89,306	-0,353	-0,278
13,502	65,550	-0,327	-0,234
14,517	-11,966	-0,405	-0,187
15,531	57,815	-0,335	-0,232
16,546	322,913	-0,246	-0,332
17,561	328,904	-0,300	-0,408
18,575	-41,313	-0,306	-0,111
19,590	133,981	-0,292	-0,267
20,604	-93,012	-0,385	-0,075
21,619	143,416	-0,320	-0,301
22,634	87,487	-0,406	-0,317
23,648	95,565	-0,396	-0,319
24,663	130,502	-0,363	-0,329
25,677	77,952	-0,405	-0,305
26,692	33,498	-0,340	-0,209
27,707	-6,594	-0,299	-0,143
28,721	322,563	-0,243	-0,328
29,736	146,498	-0,343	-0,326
30,750	-21,766	-0,372	-0,159
31,765	271,376	-0,245	-0,305
32,780	54,888	-0,357	-0,243
33,794	191,320	-0,282	-0,300
34,809	146,113	-0,225	-0,213
35,823	20,827	-0,384	-0,219
36,838	111,470	-0,336	-0,286
37,853	140,091	-0,355	-0,330
38,867	62,458	-0,458	-0,323
39,882	202,895	-0,348	-0,380
40,896	128,024	-0,353	-0,317
41,911	-19,255	-0,355	-0,155
42,926	19,864	-0,339	-0,192
43,940	131,104	-0,338	-0,307
44,955	41,330	-0,388	-0,247
45,969	124,578	-0,310	-0,275
46,984	94,696	-0,328	-0,263
47,999	6,445	-0,232	-0,121
49,013	-64,647	-0,318	-0,090
50,028	-11,520	-0,196	-0,090
51,042	135,826	-0,330	-0,303
52,057	154,132	-0,246	-0,238
53,071	167,340	-0,406	-0,407
54,086	76,554	-0,359	-0,268
55,101	-71,738	-0,290	-0,076
56,115	-60,442	-0,267	-0,079
57,130	1,508	-0,310	-0,157
58,144	-38,710	-0,373	-0,138
59,159	44,779	-0,363	-0,235
60,174	268,657	-0,267	-0,331
61,188	184,385	-0,234	-0,245
62,203	222,916	-0,247	-0,280
63,217	230,547	-0,264	-0,305
64,232	125,866	-0,302	-0,269
65,247	45,168	-0,354	-0,229
66,261	101,242	-0,265	-0,217
67,276	200,291	-0,353	-0,382
68,290	-18,452	-0,374	-0,164
69,305	-47,586	-0,287	-0,098
70,320	-52,618	-0,389	-0,126
71,334	217,827	-0,264	-0,297
72,349	29,330	-0,409	-0,244
73,363	85,485	-0,322	-0,248
74,378	185,459	-0,229	-0,239
75,393	31,611	-0,317	-0,191
76,407	144,022	-0,313	-0,294
77,422	-149,441	-0,335	-0,018
78,436	-7,801	-0,201	-0,095
79,451	-20,070	-0,387	-0,167
80,466	506,907	-0,128	-0,210
81,480	14,223	-0,390	-0,213
82,495	39,323	-0,290	-0,182
83,509	208,504	-0,291	-0,320
84,524	-69,993	-0,270	-0,072
85,539	-25,314	-0,266	-0,110
86,553	-39,823	-0,345	-0,126
87,568	22,823	-0,418	-0,240
88,582	122,575	-0,267	-0,235
89,597	154,679	-0,312	-0,301
90,611	49,999	-0,219	-0,145
91,626	226,667	-0,135	-0,155
92,641	234,863	-0,140	-0,162
93,655	84,056	-0,226	-0,173
94,670	206,701	-0,222	-0,244
95,684	284,184	-0,225	-0,285
96,699	42,829	-0,361	-0,230
97,714	-12,948	-0,311	-0,141
98,728	546,140	-0,131	-0,221
99,743	62,661	-0,198	-0,139
100,757	63,146	-0,299	-0,210
101,772	123,004	-0,220	-0,194
102,787	-47,560	-0,344	-0,116
103,801	-68,324	-0,225	-0,061
104,816	13,094	-0,282	-0,153
105,830	-48,290	-0,292	-0,098
106,845	14,580	-0,201	-0,110
107,860	181,046	-0,255	-0,264
108,874	-44,454	-0,294	-0,103
109,889	197,276	-0,328	-0,352
110,903	-67,987	-0,322	-0,087
111,918	-127,495	-0,295	-0,030
112,933	-10,152	-0,263	-0,122
113,947	206,800	-0,219	-0,240
114,962	148,553	-0,240	-0,227
115,976	26,375	-0,245	-0,143
116,991	-104,935	-0,364	-0,058
118,006	379,299	-0,236	-0,339
119,020	38,635	-0,231	-0,144
120,035	343,114	-0,122	-0,168
121,049	6,469	-0,258	-0,134
122,064	70,323	-0,344	-0,249
123,079	-100,788	-0,118	-0,020
124,093	-78,538	-0,417	-0,099
125,108	78,426	-0,274	-0,205
126,122	-38,975	-0,302	-0,111
127,137	30,123	-0,275	-0,164
128,151	18,977	-0,249	-0,139
129,166	-30,730	-0,211	-0,083
130,181	-70,810	-0,311	-0,082
131,195	-19,157	-0,258	-0,112
132,210	250,652	-0,258	-0,307
133,224	144,282	-0,262	-0,245
134,239	-29,564	-0,271	-0,108
135,254	60,331	-0,269	-0,186
136,268	707,692	-0,150	-0,278
137,283	124,645	-0,198	-0,174
138,297	27,486	-0,245	-0,144
139,312	27,425	-0,278	-0,163
140,327	211,530	-0,218	-0,240
141,341	262,274	-0,136	-0,165
142,356	800,000	-0,131	-0,261
143,370	174,477	-0,255	-0,258
144,385	-96,666	-0,262	-0,048
145,400	-44,628	-0,268	-0,093
146,414	184,920	-0,289	-0,300
147,429	94,500	-0,207	-0,164
148,443	90,076	-0,237	-0,185
149,458	2,858	-0,194	-0,098
150,473	456,468	-0,175	-0,273
151,487	-44,721	-0,341	-0,118
152,502	-21,228	-0,341	-0,145
153,516	174,685	-0,230	-0,233
154,531	-40,246	-0,176	-0,064
155,546	31,454	-0,278	-0,167
156,560	68,948	-0,235	-0,169
157,575	279,795	-0,219	-0,274
158,589	278,041	-0,233	-0,291
159,604	169,327	-0,282	-0,282
160,619	93,790	-0,287	-0,227
161,633	106,650	-0,229	-0,190
162,648	44,334	-0,292	-0,187
163,662	-13,769	-0,096	-0,043
164,677	202,140	-0,079	-0,086
165,692	63,407	-0,211	-0,148
166,706	175,354	-0,143	-0,145
167,721	319,618	-0,210	-0,279
168,735	51,219	-0,262	-0,173
169,750	477,538	-0,126	-0,200
170,764	-29,730	-0,166	-0,066
171,779	37,843	-0,189	-0,117
172,794	-82,452	-0,094	-0,021
173,808	95,268	-0,280	-0,222
174,823	-59,298	-0,217	-0,065
175,837	18,508	-0,300	-0,167
176,852	158,946	-0,174	-0,169
177,867	53,715	-0,244	-0,163
178,881	-85,966	-0,223	-0,048
179,896	10,741	-0,208	-0,111
180,910	99,516	-0,245	-0,197
181,925	-33,534	-0,107	-0,041
182,940	140,078	-0,237	-0,218
183,954	241,407	-0,176	-0,205
184,969	567,868	-0,159	-0,270
185,983	90,406	-0,187	-0,146
186,998	-21,701	-0,326	-0,138
188,013	-22,502	-0,245	-0,103
189,027	21,607	-0,265	-0,150
190,042	77,287	-0,192	-0,142
191,056	105,677	-0,193	-0,159
192,071	276,773	-0,178	-0,221
193,086	-190,680	-0,208	0,002
194,100	4,250	-0,204	-0,104
195,115	-19,751	-0,168	-0,072
196,129	36,948	-0,287	-0,176
197,144	177,016	-0,301	-0,305
198,159	750,873	-0,141	-0,267
199,173	17,164	-0,193	-0,106
200,188	27,300	-0,098	0,057
201,202	-11,713	-0,083	-0,038
202,217	153,029	-0,094	-0,089
203,232	55,280	-0,189	-0,127
204,246	118,042	-0,237	-0,204
205,261	179,042	-0,134	-0,137
206,275	275,908	-0,178	-0,220
207,290	70,282	-0,229	-0,164
208,304	-48,354	-0,103	0,034
209,319	167,110	-0,194	-0,192
210,334	123,272	-0,177	-0,154
211,348	139,661	-0,201	-0,184
212,363	55,872	-0,263	-0,177
213,377	124,669	-0,108	-0,094
214,392	473,613	-0,091	-0,143
215,407	53,385	-0,226	-0,150
216,421	-92,707	-0,103	-0,020
217,436	-139,321	-0,254	0,019
218,450	266,258	-0,201	-0,244
219,465	30,380	-0,172	-0,102
220,480	25,185	-0,177	-0,102
221,494	169,750	-0,192	-0,191
222,509	169,301	-0,144	-0,143
223,523	118,026	-0,181	-0,155
224,538	4,467	-0,201	-0,102
225,553	52,906	-0,243	-0,161
226,567	267,954	-0,170	-0,207
227,582	-83,404	-0,255	0,056
228,596	98,170	-0,126	-0,100
229,611	-30,655	-0,309	-0,121
230,626	-85,544	-0,289	-0,062
231,640	236,469	-0,176	-0,203
232,655	65,386	-0,322	-0,226
233,669	182,863	-0,272	-0,279
234,684	42,759	-0,269	-0,170
235,699	5,369	-0,244	-0,125
236,713	-9,956	-0,275	-0,126
237,728	-28,004	-0,159	-0,063
238,742	-46,440	-0,221	-0,075
239,757	8,719	-0,189	-0,098
240,772	79,044	-0,158	-0,117
241,786	-75,595	-0,276	-0,068
242,801	67,696	-0,162	-0,115
243,815	386,866	-0,165	-0,237
244,830	54,000	-0,089	-0,059
245,844	-200,000	-0,010	-0,145
246,859	800,000	-0,041	-0,108
247,874	800,000	-0,130	-0,259
248,888	78,401	-0,176	-0,130
249,903	-33,546	-0,136	-0,052
250,917	488,938	-0,098	-0,155
251,932	-55,904	-0,112	-0,034
252,947	23,239	-0,184	-0,104
253,961	130,822	-0,167	-0,148
254,976	-52,632	-0,074	-0,024
255,990	85,695	-0,101	-0,077
257,005	-79,491	-0,146	-0,034
258,020	-63,996	-0,161	-0,045
259,034	497,856	-0,174	-0,279
260,049	142,305	-0,147	-0,135
261,063	124,118	-0,189	-0,164
262,078	54,534	-0,246	-0,164
263,093	153,123	-0,232	-0,219
264,107	18,082	-0,274	-0,151
265,122	-9,565	-0,196	-0,090
266,136	5,537	-0,143	-0,073
267,151	42,368	-0,285	-0,179
268,166	-51,493	-0,292	-0,094
269,180	280,086	-0,133	-0,165
270,195	82,534	-0,208	-0,156
271,209	745,936	-0,139	-0,259
272,224	-18,882	-0,217	-0,093
273,239	-22,564	-0,115	-0,048
274,253	-129,388	-0,250	-0,024
275,268	-59,628	-0,166	-0,049
276,282	264,085	-0,150	-0,181
277,297	-28,286	-0,236	-0,094
278,312	-22,916	-0,306	-0,127
279,326	82,378	-0,209	-0,156
280,341	49,791	-0,048	-0,031
281,355	-153,847	-0,176	-0,008
282,370	497,715	-0,099	-0,158
283,384	93,224	-0,207	-0,161
284,399	-44,954	-0,195	-0,067
285,414	263,293	-0,131	-0,157
286,428	163,147	-0,203	-0,197
287,443	183,735	-0,196	-0,200
288,457	-33,949	-0,144	-0,055
289,472	-85,083	-0,211	-0,045
290,487	28,668	-0,223	-0,130
291,501	193,896	-0,124	-0,130
292,516	28,031	-0,174	-0,101
293,530	141,147	-0,160	-0,146
294,545	800,000	-0,055	-0,157
295,560	-69,966	-0,141	-0,037
296,574	-72,263	-0,237	-0,060
297,589	-45,213	-0,120	0,041
298,603	780,085	-0,081	-0,153
299,618	31,332	-0,172	-0,102
300,633	36,403	-0,144	-0,087
301,647	71,592	-0,014	0,010
302,662	800,000	-0,073	-0,155
303,676	-46,895	-0,117	-0,039
304,691	174,233	-0,147	-0,147
305,706	322,292	-0,076	-0,100
306,720	75,770	-0,189	-0,138
307,735	-99,759	-0,105	0,018
308,749	174,315	-0,147	-0,147
309,764	130,101	-0,098	-0,086
310,779	-9,311	-0,210	-0,096
311,793	-200,000	-0,062	-0,247
312,808	114,489	-0,223	-0,187
313,822	121,665	-0,157	-0,135
314,837	143,887	-0,187	-0,172
315,852	-146,935	-0,137	-0,008
316,866	-101,585	-0,111	0,018
317,881	305,296	-0,033	-0,043
318,895	-114,368	-0,216	-0,028
319,910	-59,142	-0,119	0,035
320,925	62,485	-0,107	-0,073
321,939	17,648	-0,285	-0,156
322,954	-45,483	-0,185	-0,063
323,968	174,331	-0,120	-0,119
324,983	82,412	-0,180	-0,134
325,997	-11,605	-0,238	-0,107
327,012	771,839	-0,144	-0,271
328,027	-200,000	-0,044	-0,220
329,041	-0,273	-0,240	-0,117
330,056	23,831	-0,065	0,037
331,070	-78,773	-0,098	0,023
332,085	-125,706	-0,139	-0,014
333,100	137,048	-0,137	-0,123
334,114	-95,405	-0,150	-0,028
335,129	78,200	-0,230	-0,168
336,143	204,522	-0,113	-0,120
337,158	-200,000	0,001	-0,022
338,173	-38,385	-0,070	0,025
339,187	589,774	-0,053	0,091
340,202	-200,000	-0,035	-0,145
341,216	-149,542	-0,216	0,012
342,231	256,256	-0,103	-0,121
343,246	29,232	-0,060	-0,035
344,260	143,970	-0,135	-0,123
345,275	800,000	0,028	-0,079
346,289	113,808	-0,154	-0,128
347,304	60,297	-0,233	-0,158
348,319	-200,000	-0,021	-0,148
349,333	-52,214	-0,166	-0,053
350,348	-200,000	-0,005	0,059
351,362	95,691	-0,162	-0,127
352,377	-17,277	-0,180	-0,078
353,392	110,743	-0,144	-0,119
354,406	264,704	-0,088	-0,105
355,421	209,625	1314,562	1416,530
356,435	161,342	1475,280	1417,027
