DTS Sentinel unit serial number:	SN410029Multiplexer serial number:	ORYXHardware model number:	OX2-SRSoftware version number:	ORYX F/W v4,00 Oryx Data Collector v3.7.2.0data status	okinstallation	B3 Nyhavnadifferential loss correction	single-endedforward channel	channel 1reverse channel	N/Adate	2023/12/04time	09:02:30forward acquisition time	300,00reverse acquisition time	0,00gamma	499,1914k internal	0,3203k external	0,3203temperature offset calibration	1,0000default loss term (dB/km)	0,3820temperature slope calibration	1,0000multiplexer offset coefficient	1,0000multiplexer slope coefficient	1,0000fibre end	0,00T internal ref (°C)	12,97T ext. ref 1 (°C)	-1,37T ext. ref 2 (°C)	-1,40length (m)	temperature (°C)	Stokes	anti-Stokes-744,400	467,393	-0,148	-0,241
-743,385	-200,000	0,011	0,470
-742,371	192,121	-0,253	-0,278
-741,356	-200,000	0,037	0,202
-740,342	11,212	-0,266	-0,148
-739,327	-200,000	-0,034	0,112
-738,312	-200,000	-0,034	-0,344
-737,298	566,987	-0,150	0,267
-736,283	32,497	-0,203	-0,127
-735,269	189,934	-0,150	0,164
-734,254	800,000	-0,125	-0,282
-733,239	215,010	-0,139	0,161
-732,225	101,444	-0,252	-0,213
-731,210	-90,905	0,147	0,030
-730,196	-172,820	-0,092	0,002
-729,181	-102,363	0,043	0,007
-728,167	316,051	-0,061	0,084
-727,152	-148,249	-0,085	0,005
-726,137	17,906	-0,138	-0,080
-725,123	160,787	0,076	-0,077
-724,108	-93,668	-0,196	-0,039
-723,094	-54,371	-0,099	-0,032
-722,079	347,877	0,029	0,041
-721,064	127,898	-0,166	-0,154
-720,050	-151,963	0,023	-0,001
-719,035	-200,000	0,002	0,032
-718,021	-200,000	-0,041	0,187
-717,006	-200,000	-0,055	-0,206
-715,991	800,000	-0,046	-0,099
-714,977	-75,769	-0,046	-0,012
-713,962	-200,000	-0,013	0,049
-712,948	84,858	-0,040	-0,032
-711,933	800,000	0,088	0,201
-710,918	128,754	-0,031	0,029
-709,904	-200,000	0,014	-0,086
-708,889	123,390	-0,074	-0,068
-707,875	-92,341	0,036	-0,007
-706,860	183,905	-0,095	-0,102
-705,845	-161,481	0,074	-0,003
-704,831	-200,000	-0,022	0,102
-703,816	-161,808	0,051	0,002
-702,802	94,011	-0,055	-0,045
-701,787	176,138	0,062	0,065
-700,772	-200,000	0,008	-0,029
-699,758	800,000	-0,021	0,068
-698,743	-146,298	-0,095	-0,006
-697,729	39,357	0,137	-0,089
-696,714	-200,000	-0,019	0,086
-695,699	59,657	-0,087	0,062
-694,685	800,000	-0,012	-0,027
-693,670	-22,227	-0,081	0,036
-692,656	-200,000	-0,013	0,166
-691,641	-200,000	-0,008	-0,061
-690,627	74,325	-0,109	0,083
-689,612	599,977	-0,040	0,073
-688,597	-109,382	-0,164	0,025
-687,583	24,773	-0,168	-0,101
-686,568	440,138	0,059	0,094
-685,554	-154,022	-0,069	-0,003
-684,539	-200,000	-0,003	-0,017
-683,524	-23,492	-0,137	-0,059
-682,510	-200,000	-0,040	0,133
-681,495	-200,000	0,002	0,022
-680,481	-200,000	0,029	0,115
-679,466	42,956	-0,182	-0,120
-678,451	800,000	-0,032	-0,085
-677,437	-200,000	-0,001	0,005
-676,422	800,000	0,037	-0,075
-675,408	-92,222	-0,086	-0,017
-674,393	6,802	-0,021	-0,011
-673,378	-200,000	-0,004	-0,069
-672,364	35,021	-0,187	-0,118
-671,349	38,745	-0,097	0,063
-670,335	60,628	0,120	-0,086
-669,320	11,826	0,052	0,029
-668,305	-200,000	0,003	-0,040
-667,291	306,960	-0,119	0,162
-666,276	6,432	-0,084	-0,045
-665,262	59,733	-0,048	0,034
-664,247	639,437	-0,045	-0,083
-663,232	-182,658	0,084	0,001
-662,218	26,061	-0,035	-0,021
-661,203	-200,000	-0,002	0,054
-660,189	-200,000	-0,000	0,062
-659,174	-46,260	-0,154	0,054
-658,159	-200,000	0,006	-0,032
-657,145	457,823	-0,012	0,020
-656,130	413,961	0,014	0,022
-655,116	363,135	-0,023	-0,034
-654,101	-200,000	-0,003	0,173
-653,086	-112,490	0,090	0,013
-652,072	800,000	-0,031	-0,082
-651,057	-23,427	0,034	-0,015
-650,043	800,000	-0,080	-0,216
-649,028	-191,743	-0,094	-0,001
-648,014	800,000	0,025	-0,063
-646,999	25,133	-0,103	-0,062
-645,984	401,589	0,039	0,060
-644,970	-75,326	-0,126	0,032
-643,955	528,391	-0,070	0,120
-642,941	-119,186	-0,131	-0,016
-641,926	171,350	-0,031	0,033
-640,911	-127,629	-0,026	0,003
-639,897	-22,586	-0,108	0,047
-638,882	116,705	0,038	0,034
-637,868	800,000	0,033	0,077
-636,853	-15,309	-0,101	-0,047
-635,838	-70,127	-0,145	0,040
-634,824	-200,000	0,000	-0,116
-633,809	-149,843	-0,107	0,006
-632,795	-200,000	0,040	0,255
-631,780	213,761	-0,049	-0,056
-630,765	642,664	-0,034	0,063
-629,751	800,000	0,032	-0,099
-628,736	39,179	-0,170	-0,110
-627,722	-37,490	-0,062	-0,024
-626,707	212,027	-0,062	-0,071
-625,692	260,663	0,093	0,116
-624,678	206,339	-0,116	0,130
-623,663	234,995	-0,132	0,158
-622,649	477,863	-0,082	-0,135
-621,634	-79,920	0,127	0,031
-620,619	800,000	-0,017	-0,041
-619,605	552,458	-0,111	-0,193
-618,590	-200,000	0,009	0,044
-617,576	-200,000	-0,012	0,095
-616,561	800,000	-0,062	-0,145
-615,546	214,295	-0,097	0,111
-614,532	-15,078	-0,088	-0,041
-613,517	-99,119	-0,104	0,019
-612,503	316,637	-0,105	0,144
-611,488	355,804	0,073	0,106
-610,474	-200,000	-0,012	-0,097
-609,459	255,265	-0,060	0,074
-608,444	764,235	-0,042	-0,082
-607,430	14,441	0,064	-0,036
-606,415	-26,615	-0,065	-0,028
-605,401	-6,574	0,196	0,096
-604,386	268,378	0,063	-0,079
-603,371	800,000	0,074	-0,164
-602,357	519,301	0,051	0,087
-601,342	353,585	0,008	-0,012
-600,328	-200,000	-0,003	0,095
-599,313	-200,000	-0,002	0,085
-598,298	-200,000	0,001	0,050
-597,284	82,712	0,158	-0,124
-596,269	-74,842	-0,028	0,007
-595,255	0,370	0,064	0,033
-594,240	-200,000	0,062	-0,202
-593,225	-200,000	0,000	-0,103
-592,211	-141,331	0,157	-0,011
-591,196	-105,292	-0,057	0,009
-590,182	192,876	0,039	0,042
-589,167	181,531	0,071	0,075
-588,152	800,000	-0,020	0,058
-587,138	26,693	-0,161	-0,097
-586,123	-200,000	-0,038	-0,126
-585,109	-200,000	0,006	0,090
-584,094	629,861	0,038	-0,070
-583,079	800,000	0,026	-0,052
-582,065	-159,936	0,117	-0,005
-581,050	-142,948	0,077	0,005
-580,036	-200,000	0,013	-0,090
-579,021	122,438	-0,067	0,061
-578,006	395,131	0,034	0,052
-576,992	-200,000	0,006	-0,129
-575,977	-115,330	-0,066	0,009
-574,963	-32,231	0,108	0,044
-573,948	208,000	0,065	0,074
-572,934	10,234	-0,055	0,030
-571,919	17,661	-0,108	-0,062
-570,904	800,000	-0,047	-0,117
-569,890	-200,000	0,003	0,020
-568,875	-162,914	-0,019	0,001
-567,861	-121,548	0,033	0,004
-566,846	-71,519	-0,056	-0,015
-565,831	-65,987	0,032	0,009
-564,817	-200,000	-0,052	-0,181
-563,802	800,000	-0,051	-0,108
-562,788	156,877	-0,158	-0,158
-561,773	-193,252	0,052	0,000
-560,758	800,000	0,026	0,052
-559,744	189,653	-0,114	0,123
-558,729	37,711	-0,045	-0,029
-557,715	112,114	-0,018	0,016
-556,700	-159,380	-0,130	-0,005
-555,685	782,056	0,082	-0,162
-554,671	53,095	-0,017	-0,012
-553,656	800,000	0,035	0,076
-552,642	-185,002	0,154	-0,002
-551,627	27,309	0,041	-0,025
-550,612	-89,709	0,022	0,005
-549,598	-88,200	-0,035	-0,007
-548,583	-123,345	-0,067	-0,008
-547,569	-145,818	0,060	-0,004
-546,554	292,592	-0,067	0,088
-545,539	271,390	0,023	-0,029
-544,525	-11,648	0,136	-0,064
-543,510	-200,000	0,009	0,049
-542,496	-185,956	-0,043	0,000
-541,481	680,638	-0,043	-0,082
-540,466	77,754	-0,012	0,009
-539,452	256,216	-0,067	0,084
-538,437	205,539	0,073	0,082
-537,423	800,000	-0,020	-0,054
-536,408	-146,942	-0,179	-0,011
-535,393	93,388	0,103	-0,084
-534,379	800,000	0,033	-0,099
-533,364	5,413	0,091	-0,048
-532,350	667,689	-0,066	0,124
-531,335	210,028	0,167	0,189
-530,321	319,685	0,037	-0,051
-529,306	-34,802	0,036	0,014
-528,291	580,287	-0,011	-0,020
-527,277	-67,387	-0,025	-0,007
-526,262	85,135	-0,068	-0,054
-525,248	308,479	0,073	-0,098
-524,233	640,426	0,087	0,159
-523,218	-148,530	-0,121	0,007
-522,204	800,000	-0,010	0,023
-521,189	800,000	-0,074	0,152
-520,175	-200,000	-0,003	-0,050
-519,160	468,978	-0,081	0,132
-518,145	-127,377	-0,112	0,012
-517,131	661,472	0,024	-0,045
-516,116	22,539	0,120	0,070
-515,102	25,314	-0,115	0,069
-514,087	196,182	0,047	-0,051
-513,072	-40,135	0,047	-0,018
-512,058	-123,149	-0,084	-0,010
-511,043	11,892	0,027	-0,015
-510,029	46,638	0,077	-0,051
-509,014	454,142	0,095	0,153
-507,999	800,000	-0,041	0,093
-506,985	-56,849	-0,085	-0,027
-505,970	-100,621	-0,054	-0,009
-504,956	-200,000	0,011	-0,177
-503,941	197,884	0,029	0,031
-502,926	288,206	0,066	0,086
-501,912	800,000	0,008	-0,022
-500,897	-200,000	-0,017	-0,096
-499,883	-200,000	-0,003	0,130
-498,868	93,878	-0,106	-0,087
-497,853	-25,754	0,042	-0,018
-496,839	-93,363	0,026	-0,005
-495,824	-66,352	0,059	0,017
-494,810	-200,000	0,012	0,059
-493,795	485,505	0,052	0,085
-492,781	49,812	-0,015	-0,010
-491,766	131,861	0,067	-0,062
-490,751	800,000	-0,046	0,104
-489,737	335,905	0,034	-0,047
-488,722	-65,375	0,107	0,031
-487,708	344,523	0,019	-0,027
-486,693	800,000	-0,065	0,171
-485,678	-118,948	0,099	-0,012
-484,664	-200,000	0,006	-0,084
-483,649	427,898	-0,037	0,058
-482,635	123,405	-0,027	-0,024
-481,620	-114,900	0,057	0,008
-480,605	-183,546	0,134	0,002
-479,591	-80,314	0,059	-0,014
-478,576	-200,000	-0,043	0,147
-477,562	115,759	-0,010	0,009
-476,547	-152,110	0,122	-0,006
-475,532	276,999	-0,054	-0,069
-474,518	6,136	-0,051	0,027
-473,503	800,000	0,040	0,096
-472,489	-108,146	0,119	0,018
-471,474	-131,979	-0,058	-0,005
-470,459	-2,811	0,076	-0,038
-469,445	57,268	-0,130	-0,091
-468,430	-23,362	0,040	0,017
-467,416	204,590	0,052	0,058
-466,401	95,270	-0,060	-0,049
-465,386	123,062	0,068	0,062
-464,372	-185,727	-0,072	-0,001
-463,357	26,041	-0,054	-0,032
-462,343	-125,116	0,017	0,002
-461,328	222,598	-0,132	0,153
-460,313	216,642	-0,083	-0,095
-459,299	-60,550	0,103	0,031
-458,284	292,934	0,109	0,143
-457,270	800,000	0,040	-0,123
-456,255	-13,527	-0,035	0,016
-455,241	-200,000	-0,006	0,049
-454,226	800,000	-0,050	-0,128
-453,211	-200,000	0,032	-0,115
-452,197	-65,479	0,027	-0,008
-451,182	800,000	-0,047	0,111
-450,168	-200,000	-0,009	0,099
-449,153	-200,000	-0,058	0,193
-448,138	-88,956	-0,131	-0,028
-447,124	128,344	0,023	-0,021
-446,109	106,348	-0,106	0,090
-445,095	777,640	-0,061	-0,120
-444,080	393,426	0,050	-0,076
-443,065	17,695	0,096	0,055
-442,051	-9,162	-0,067	0,032
-441,036	-3,945	0,072	-0,036
-440,022	161,083	-0,091	-0,091
-439,007	768,218	0,020	-0,040
-437,992	-200,000	-0,007	0,117
-436,978	142,561	0,071	0,068
-435,963	-54,540	0,049	0,016
-434,949	39,299	0,069	0,044
-433,934	-200,000	-0,027	0,118
-432,919	-37,274	0,077	-0,029
-431,905	-200,000	0,011	-0,123
-430,890	-73,864	0,077	0,020
-429,876	-200,000	-0,003	-0,079
-428,861	-200,000	0,013	0,049
-427,846	-42,266	-0,040	0,014
-426,832	-200,000	-0,007	-0,101
-425,817	-53,897	-0,089	-0,029
-424,803	115,808	0,095	-0,084
-423,788	-86,768	-0,048	-0,010
-422,773	56,826	0,160	0,112
-421,759	346,883	-0,094	0,133
-420,744	-81,245	-0,043	0,010
-419,730	70,086	-0,077	-0,057
-418,715	-200,000	-0,033	-0,114
-417,701	21,953	0,081	-0,047
-416,686	-16,592	0,019	-0,009
-415,671	-200,000	0,023	-0,107
-414,657	-168,688	0,060	-0,002
-413,642	-115,730	-0,085	-0,011
-412,628	-112,137	0,123	-0,018
-411,613	42,225	-0,162	-0,105
-410,598	27,875	-0,060	-0,036
-409,584	-80,762	0,214	0,051
-408,569	-65,222	-0,100	0,029
-407,555	-200,000	0,020	0,136
-406,540	-200,000	-0,010	0,148
-405,525	59,612	-0,097	-0,069
-404,511	574,447	-0,024	-0,043
-403,496	800,000	-0,011	0,031
-402,482	-200,000	-0,010	-0,092
-401,467	115,548	-0,089	-0,078
-400,452	800,000	0,062	0,128
-399,438	193,358	-0,070	-0,076
-398,423	16,864	-0,077	-0,043
-397,409	171,518	0,083	0,085
-396,394	-49,945	-0,066	0,022
-395,379	800,000	-0,032	0,081
-394,365	-64,536	0,188	0,054
-393,350	-200,000	-0,003	0,032
-392,336	-30,291	0,064	-0,026
-391,321	-47,612	-0,053	-0,018
-390,306	149,085	-0,032	-0,031
-389,292	91,323	-0,145	-0,117
-388,277	-200,000	-0,019	-0,112
-387,263	329,807	0,146	-0,201
-386,248	344,127	0,022	-0,031
-385,233	-103,121	0,139	0,023
-384,219	-166,924	-0,173	0,005
-383,204	-69,540	-0,085	-0,023
-382,190	-126,057	-0,104	0,011
-381,175	-200,000	-0,045	0,150
-380,160	73,526	0,116	-0,087
-379,146	-121,126	-0,045	0,005
-378,131	100,681	0,087	0,072
-377,117	800,000	-0,042	0,115
-376,102	-129,439	-0,070	-0,007
-375,088	-92,445	-0,077	-0,015
-374,073	42,817	0,134	0,087
-373,058	-200,000	-0,003	0,167
-372,044	800,000	-0,008	-0,020
-371,029	125,363	0,014	0,013
-370,015	-200,000	-0,002	-0,037
-369,000	800,000	0,020	0,054
-367,985	-103,732	0,044	-0,007
-366,971	212,270	0,064	0,072
-365,956	-98,728	0,051	-0,009
-364,942	-76,612	-0,048	-0,012
-363,927	22,435	0,068	-0,040
-362,912	-95,746	-0,034	0,006
-361,898	405,058	0,039	0,059
-360,883	-52,554	0,072	0,024
-359,869	68,949	-0,123	-0,091
-358,854	-124,197	0,103	0,011
-357,839	-200,000	0,014	0,081
-356,825	-200,000	0,018	0,092
-355,810	58,504	-0,036	-0,025
-354,796	-200,000	-0,026	-0,110
-353,781	-200,000	-0,006	-0,088
-352,766	196,125	-0,056	-0,061
-351,752	-200,000	-0,042	0,172
-350,737	-200,000	-0,021	0,148
-349,723	-29,811	0,022	0,009
-348,708	-92,512	0,089	0,018
-347,693	163,865	-0,028	-0,028
-346,679	-101,804	0,050	-0,009
-345,664	706,939	-0,071	0,136
-344,650	114,636	0,050	-0,043
-343,635	-111,904	0,112	-0,016
-342,620	-83,321	-0,059	0,013
-341,606	800,000	0,010	0,021
-340,591	573,227	-0,028	-0,048
-339,577	83,323	-0,078	-0,061
-338,562	101,296	0,059	0,049
-337,548	-142,612	-0,145	-0,010
-336,533	-14,198	0,064	0,029
-335,518	-200,000	0,013	0,067
-334,504	800,000	-0,025	-0,065
-333,489	160,212	0,027	-0,027
-332,475	23,555	-0,045	0,026
-331,460	22,749	-0,055	0,032
-330,445	-85,309	0,101	0,022
-329,431	-97,239	0,049	0,009
-328,416	137,640	0,097	0,091
-327,402	-200,000	0,014	0,140
-326,387	800,000	0,022	-0,055
-325,372	-60,387	-0,143	-0,043
-324,358	107,043	0,058	0,049
-323,343	800,000	0,064	-0,138
-322,329	-200,000	-0,010	-0,183
-321,314	-101,274	-0,061	-0,011
-320,299	164,873	0,014	-0,014
-319,285	673,047	0,035	-0,065
-318,270	800,000	0,020	-0,046
-317,256	-14,794	0,110	-0,050
-316,241	-161,921	-0,070	-0,002
-315,226	318,773	0,065	-0,088
-314,212	-200,000	0,030	-0,111
-313,197	44,953	0,041	-0,027
-312,183	401,708	-0,040	-0,060
-311,168	88,364	-0,015	-0,012
-310,153	-200,000	0,008	-0,079
-309,139	104,193	-0,069	0,058
-308,124	154,845	-0,108	0,106
-307,110	-15,512	0,052	0,024
-306,095	-45,984	0,098	-0,034
-305,080	-187,599	-0,049	0,000
-304,066	357,428	-0,079	0,113
-303,051	57,662	-0,047	0,033
-302,037	394,520	0,090	-0,135
-301,022	36,714	-0,034	0,021
-300,008	450,295	0,093	0,147
-298,993	-200,000	0,023	0,087
-297,978	439,105	0,047	0,073
-296,964	-200,000	-0,026	-0,127
-295,949	-200,000	0,005	-0,059
-294,935	-200,000	-0,001	-0,141
-293,920	363,204	-0,098	-0,141
-292,905	6,528	0,078	0,041
-291,891	-77,500	0,101	-0,025
-290,876	-200,000	0,020	0,085
-289,862	133,873	0,073	0,067
-288,847	21,800	0,079	0,046
-287,832	800,000	0,030	0,083
-286,818	-117,741	0,078	0,010
-285,803	-144,202	0,095	0,006
-284,789	419,478	0,072	0,111
-283,774	800,000	-0,040	0,109
-282,759	-67,026	0,031	-0,009
-281,745	125,200	-0,143	-0,129
-280,730	86,050	-0,095	-0,075
-279,716	-200,000	-0,011	0,069
-278,701	-200,000	0,004	-0,022
-277,686	16,960	-0,087	-0,049
-276,672	800,000	0,028	-0,060
-275,657	275,725	-0,069	0,088
-274,643	-169,829	-0,121	0,003
-273,628	-200,000	0,023	-0,094
-272,613	492,113	0,018	0,030
-271,599	-125,366	0,097	-0,010
-270,584	26,644	0,121	-0,072
-269,570	-200,000	-0,005	-0,045
-268,555	-200,000	-0,024	-0,129
-267,540	178,177	-0,092	-0,096
-266,526	335,493	0,085	-0,117
-265,511	220,593	-0,021	-0,024
-264,497	70,035	0,011	0,008
-263,482	-200,000	-0,003	-0,062
-262,467	-59,155	-0,040	0,012
-261,453	800,000	-0,014	0,043
-260,438	186,457	-0,094	0,100
-259,424	-151,111	0,059	0,003
-258,409	-200,000	-0,018	-0,094
-257,395	-56,348	0,048	-0,015
-256,380	-200,000	0,015	-0,052
-255,365	-68,498	0,048	-0,013
-254,351	3,240	-0,066	-0,034
-253,336	245,777	0,070	-0,085
-252,322	475,454	-0,084	-0,135
-251,307	800,000	0,048	0,103
-250,292	-200,000	-0,000	-0,066
-249,278	-127,110	0,102	-0,010
-248,263	122,456	-0,098	0,087
-247,249	200,966	0,039	0,043
-246,234	-200,000	-0,014	-0,141
-245,219	-110,044	-0,083	-0,012
-244,205	-121,778	0,028	-0,003
-243,190	-88,858	0,114	0,024
-242,176	-94,934	-0,070	0,013
-241,161	-29,242	0,021	0,009
-240,146	-200,000	0,009	0,117
-239,132	-116,101	-0,040	-0,005
-238,117	16,068	-0,089	-0,050
-237,103	166,952	-0,052	0,052
-236,088	323,426	-0,037	0,050
-235,073	800,000	0,035	0,097
-234,059	312,907	0,091	0,123
-233,044	-53,017	0,160	0,052
-232,030	16,981	0,034	0,019
-231,015	800,000	-0,027	-0,078
-230,000	-200,000	0,009	-0,042
-228,986	-200,000	0,013	0,080
-227,971	97,509	0,144	-0,118
-226,957	50,763	0,098	0,066
-225,942	300,757	-0,007	0,010
-224,927	444,470	-0,025	0,040
-223,913	-200,000	-0,005	-0,087
-222,898	-88,074	-0,053	-0,011
-221,884	278,788	0,062	-0,078
-220,869	-90,616	0,048	0,010
-219,855	-78,697	-0,022	0,005
-218,840	-200,000	0,001	-0,085
-217,825	-36,461	-0,120	0,046
-216,811	800,000	0,034	-0,069
-215,796	-48,922	-0,072	0,024
-214,782	-200,000	0,037	-0,122
-213,767	108,277	-0,025	0,021
-212,752	-154,888	-0,042	0,002
-211,738	-142,241	0,090	-0,006
-210,723	29,369	0,080	-0,048
-209,709	121,895	-0,122	-0,108
-208,694	721,538	0,066	-0,125
-207,679	648,464	-0,034	-0,062
-206,665	-200,000	0,039	-0,156
-205,650	-200,000	-0,013	-0,043
-204,636	-82,843	0,124	0,028
-203,621	516,797	-0,043	0,072
-202,606	800,000	0,062	0,136
-201,592	273,506	0,055	-0,070
-200,577	492,987	0,064	-0,104
-199,563	-200,000	-0,016	-0,099
-198,548	427,360	-0,059	0,091
-197,533	800,000	0,068	0,213
-196,519	467,005	-0,022	-0,035
-195,504	-200,000	-0,003	-0,081
-194,490	-172,122	0,149	-0,003
-193,475	-200,000	0,015	-0,063
-192,460	61,982	-0,192	-0,136
-191,446	-200,000	0,011	0,060
-190,431	-184,312	-0,086	-0,001
-189,417	14,089	0,052	0,029
-188,402	150,028	-0,038	-0,037
-187,387	-12,990	-0,083	-0,038
-186,373	-74,542	0,064	0,016
-185,358	-77,043	0,101	-0,025
-184,344	-200,000	0,010	-0,123
-183,329	800,000	-0,012	0,036
-182,315	-200,000	0,011	-0,051
-181,300	-16,633	-0,079	0,035
-180,285	800,000	-0,017	-0,034
-179,271	-200,000	0,018	-0,086
-178,256	525,634	0,046	0,077
-177,242	704,014	-0,060	0,113
-176,227	325,435	-0,084	0,115
-175,212	-200,000	0,019	0,066
-174,198	-200,000	-0,002	0,038
-173,183	-67,075	0,050	-0,014
-172,169	-200,000	0,003	0,036
-171,154	-59,329	-0,058	0,018
-170,139	561,320	0,067	0,115
-169,125	105,794	0,100	-0,084
-168,110	-200,000	0,009	0,059
-167,096	229,040	-0,015	0,018
-166,081	21,246	-0,076	0,044
-165,066	-200,000	-0,023	-0,087
-164,052	492,184	0,057	0,093
-163,037	-200,000	0,007	0,056
-162,023	107,357	0,063	0,053
-161,008	243,879	0,100	0,120
-159,993	228,891	0,045	0,052
-158,979	-40,867	-0,102	0,037
-157,964	96,323	0,046	0,037
-156,950	-30,552	-0,092	-0,037
-155,935	-200,000	0,002	-0,018
-154,920	800,000	0,049	0,104
-153,906	-104,899	0,051	0,008
-152,891	310,544	-0,064	0,085
-151,877	121,902	-0,037	0,033
-150,862	219,971	-0,045	0,051
-149,847	432,990	-0,045	0,069
-148,833	17,444	0,068	-0,038
-147,818	292,006	-0,077	-0,100
-146,804	800,000	0,012	0,028
-145,789	136,148	-0,053	0,049
-144,775	98,091	0,105	0,086
-143,760	-115,553	-0,043	-0,006
-142,745	635,162	-0,042	0,076
-141,731	25,401	0,109	0,064
-140,716	63,557	0,019	0,014
-139,702	800,000	0,044	0,101
-138,687	120,419	0,044	0,039
-137,672	-200,000	0,031	0,128
-136,658	-99,189	-0,069	-0,012
-135,643	800,000	-0,011	0,027
-134,629	3,899	-0,062	0,032
-133,614	-71,548	0,224	-0,059
-132,599	105,590	-0,043	0,036
-131,585	108,606	0,118	0,100
-130,570	272,500	-0,094	0,118
-129,556	-200,000	0,013	0,066
-128,541	106,024	0,091	0,076
-127,526	206,985	-0,067	0,074
-126,512	-27,796	0,082	0,034
-125,497	-200,000	0,041	0,180
-124,483	-200,000	-0,021	0,074
-123,468	674,200	-0,108	0,199
-122,453	82,985	-0,045	0,034
-121,439	-56,017	0,108	0,034
-120,424	-45,532	-0,031	-0,011
-119,410	-109,150	0,145	0,022
-118,395	-131,293	0,046	0,004
-117,380	800,000	0,039	0,112
-116,366	-41,022	-0,078	-0,028
-115,351	-154,617	-0,268	-0,012
-114,337	84,524	-0,084	-0,065
-113,322	800,000	0,037	0,106
-112,307	401,375	0,087	-0,130
-111,293	117,914	-0,013	-0,011
-110,278	-60,399	-0,094	0,028
-109,264	101,660	0,097	-0,080
-108,249	800,000	0,046	0,097
-107,234	446,672	0,064	-0,101
-106,220	-45,807	0,138	-0,048
-105,205	-200,000	-0,015	0,071
-104,191	371,692	-0,092	0,132
-103,176	158,854	-0,032	0,031
-102,162	119,830	-0,066	0,058
-101,147	-159,883	0,088	0,003
-100,132	-142,533	0,031	-0,002
-99,118	-18,507	-0,038	0,017
-98,103	800,000	0,023	0,056
-97,089	219,688	0,029	0,033
-96,074	109,565	-0,047	0,040
-95,059	-200,000	-0,003	0,056
-94,045	-200,000	0,024	0,092
-93,030	-75,622	-0,107	0,027
-92,016	-58,415	-0,128	0,039
-91,001	174,290	0,040	0,041
-89,986	-200,000	0,025	-0,092
-88,972	-81,338	0,149	-0,034
-87,957	-98,563	0,110	-0,020
-86,943	155,104	0,102	-0,100
-85,928	119,406	-0,078	0,069
-84,913	369,006	-0,059	-0,085
-83,899	-90,664	-0,116	0,024
-82,884	800,000	-0,048	-0,095
-81,870	584,840	-0,057	0,099
-80,855	-73,856	-0,122	0,031
-79,840	69,441	-0,087	0,064
-78,826	-200,000	-0,020	-0,095
-77,811	800,000	0,026	0,061
-76,797	-200,000	-0,017	-0,069
-75,782	156,572	0,057	-0,056
-74,767	-200,000	-0,022	-0,157
-73,753	-200,000	-0,030	-0,096
-72,738	-200,000	-0,010	0,038
-71,724	-169,478	-0,133	0,003
-70,709	39,001	-0,064	-0,040
-69,694	596,554	-0,031	0,054
-68,680	-138,560	-0,114	0,009
-67,665	-77,008	0,074	-0,018
-66,651	-200,000	0,015	0,130
-65,636	800,000	-0,019	0,039
-64,622	47,119	0,017	-0,011
-63,607	-162,701	-0,050	-0,002
-62,592	-200,000	-0,013	0,054
-61,578	-200,000	0,001	0,144
-60,563	646,514	-0,063	0,114
-59,549	14,606	-0,088	0,049
-58,534	-19,785	-1,615	-0,703
-57,519	398,573	-1,283	-1,906
-56,505	-200,000	-0,580	-4,611
-55,490	349,069	0,937	1,312
-54,476	800,000	4,795	11,149
-53,461	-200,000	19,330	323,260
-52,446	-200,000	742,999	2334,198
-51,432	570,917	1655,913	2862,814
-50,417	77,645	1670,890	1257,531
-49,403	20,971	1544,078	883,363
-48,388	14,868	1466,577	809,354
-47,373	18,093	1456,615	819,400
-46,359	16,617	1446,473	806,589
-45,344	13,120	1441,930	787,282
-44,330	12,981	1440,182	785,629
-43,315	13,053	1438,518	785,034
-42,300	13,029	1436,601	783,845
-41,286	13,065	1435,361	783,306
-40,271	13,020	1434,103	782,375
-39,257	13,040	1432,723	781,686
-38,242	13,032	1431,532	780,966
-37,227	13,060	1430,364	780,431
-36,213	13,027	1429,023	779,514
-35,198	13,084	1427,771	779,071
-34,184	13,089	1426,824	778,547
-33,169	13,088	1425,377	777,722
-32,154	13,085	1424,546	777,225
-31,140	13,104	1423,150	776,518
-30,125	13,103	1422,077	775,897
-29,111	13,122	1420,861	775,295
-28,096	13,045	1420,070	774,469
-27,082	13,048	1418,817	773,768
-26,067	12,983	1417,917	772,941
-25,052	13,012	1416,565	772,310
-24,038	13,001	1415,498	771,645
-23,023	12,985	1414,624	771,064
-22,009	13,007	1413,668	770,615
-20,994	12,917	1412,900	769,743
-19,979	12,957	1411,860	769,333
-18,965	12,928	1410,830	768,605
-17,950	12,959	1409,893	768,209
-16,936	12,926	1409,128	767,608
-15,921	12,911	1407,907	766,842
-14,906	12,920	1407,148	766,440
-13,892	12,910	1406,175	765,833
-12,877	12,934	1405,264	765,419
-11,863	12,935	1404,414	764,931
-10,848	12,911	1403,196	764,126
-9,833	12,834	1402,892	763,568
-8,819	12,844	1401,806	762,997
-7,804	12,832	1400,944	762,439
-6,790	12,827	1399,964	761,854
-5,775	12,836	1398,739	761,196
-4,760	12,844	1397,766	760,674
-3,746	12,773	1397,033	759,916
-2,731	12,788	1396,198	759,501
-1,717	12,790	1395,168	758,919
-0,702	12,791	1393,302	757,880
0,313	16,721	1309,572	730,498
1,327	33,073	702,417	429,521
2,342	50,902	123,084	82,320
3,356	1,584	16,604	8,421
4,371	3,677	3,214	1,652
5,386	-23,304	0,513	0,217
6,400	-200,000	0,066	0,284
7,415	-8,864	-0,170	-0,080
8,429	112,891	-0,241	-0,207
9,444	7,070	-0,468	-0,246
10,459	268,758	-0,224	-0,278
11,473	277,780	-0,172	-0,217
12,488	2,308	-0,391	-0,199
13,502	-33,871	-0,264	-0,102
14,517	-62,961	-0,370	-0,107
15,531	37,413	-0,441	-0,275
16,546	-64,929	-0,406	-0,115
17,561	279,982	-0,284	-0,360
18,575	20,563	-0,147	-0,084
19,590	144,679	-0,209	-0,197
20,604	124,696	-0,267	-0,237
21,619	210,952	-0,372	-0,413
22,634	106,439	-0,372	-0,311
23,648	107,738	-0,414	-0,348
24,663	30,715	-0,329	-0,198
25,677	-37,122	-0,471	-0,177
26,692	154,562	-0,244	-0,237
27,707	72,715	-0,373	-0,274
28,721	39,676	-0,404	-0,255
29,736	79,770	-0,320	-0,242
30,750	2,645	-0,412	-0,210
31,765	27,627	-0,466	-0,276
32,780	19,923	-0,320	-0,182
33,794	353,718	-0,206	-0,289
34,809	91,279	-0,331	-0,262
35,823	59,860	-0,465	-0,323
36,838	43,988	-0,435	-0,280
37,853	99,333	-0,244	-0,198
38,867	79,704	-0,355	-0,268
39,882	-4,571	-0,292	-0,142
40,896	46,215	-0,403	-0,263
41,911	33,674	-0,362	-0,221
42,926	38,691	-0,350	-0,220
43,940	-80,073	-0,312	-0,073
44,955	41,211	-0,357	-0,227
45,969	187,665	-0,350	-0,369
46,984	59,181	-0,339	-0,235
47,999	2,086	-0,325	-0,165
49,013	114,214	-0,261	-0,224
50,028	14,064	-0,312	-0,171
51,042	67,774	-0,409	-0,294
52,057	70,007	-0,443	-0,322
53,071	142,132	-0,274	-0,256
54,086	101,830	-0,326	-0,267
55,101	23,377	-0,377	-0,217
56,115	88,620	-0,408	-0,319
57,130	221,125	-0,262	-0,297
58,144	15,138	-0,387	-0,212
59,159	166,835	-0,425	-0,425
60,174	48,437	-0,373	-0,245
61,188	63,236	-0,429	-0,302
62,203	-2,108	-0,303	-0,149
63,217	-43,300	-0,349	-0,124
64,232	128,924	-0,305	-0,274
65,247	30,784	-0,319	-0,192
66,261	-13,428	-0,408	-0,185
67,276	-5,528	-0,415	-0,199
68,290	369,438	-0,254	-0,362
69,305	223,934	-0,192	-0,219
70,320	66,419	-0,309	-0,220
71,334	72,646	-0,394	-0,289
72,349	9,041	-0,246	-0,130
73,363	-17,514	-0,361	-0,159
74,378	69,382	-0,285	-0,205
75,393	-65,228	-0,223	-0,063
76,407	-73,753	-0,258	-0,065
77,422	249,809	-0,185	-0,221
78,436	17,994	-0,375	-0,210
79,451	221,333	-0,148	-0,167
80,466	259,965	-0,284	-0,345
81,480	73,861	-0,315	-0,232
82,495	344,712	-0,212	-0,293
83,509	25,828	-0,379	-0,221
84,524	12,342	-0,324	-0,174
85,539	380,873	-0,205	-0,297
86,553	68,936	-0,176	-0,127
87,568	-105,056	-0,239	-0,038
88,582	-36,828	-0,335	-0,125
89,597	86,398	-0,194	-0,150
90,611	512,464	-0,065	-0,107
91,626	-119,666	-0,197	-0,024
92,641	288,106	-0,181	-0,230
93,655	119,544	-0,190	-0,165
94,670	275,835	-0,179	-0,223
95,684	-20,566	-0,295	-0,126
96,699	44,176	-0,285	-0,183
97,714	43,449	-0,341	-0,218
98,728	-84,358	-0,237	-0,052
99,743	28,076	-0,345	-0,203
100,757	-79,796	-0,230	-0,054
101,772	-8,924	-0,323	-0,151
102,787	344,548	-0,274	-0,378
103,801	1,349	-0,332	-0,167
104,816	97,691	-0,250	-0,201
105,830	189,098	-0,223	-0,235
106,845	-131,135	-0,313	-0,029
107,860	-45,189	-0,285	-0,098
108,874	118,924	-0,312	-0,270
109,889	52,106	-0,369	-0,246
110,903	479,771	-0,170	-0,272
111,918	-13,831	-0,308	-0,139
112,933	-8,727	-0,330	-0,154
113,947	77,789	-0,213	-0,159
114,962	-193,668	-0,339	0,002
115,976	145,593	-0,261	-0,245
116,991	38,413	-0,318	-0,198
118,006	75,334	-0,265	-0,195
119,020	207,477	-0,168	-0,184
120,035	53,339	-0,179	-0,120
121,049	-53,403	-0,312	-0,099
122,064	-200,000	-0,006	-0,173
123,079	-65,565	-0,323	-0,090
124,093	47,802	-0,246	-0,160
125,108	88,336	-0,278	-0,216
126,122	34,735	-0,245	-0,150
127,137	-77,661	-0,323	-0,078
128,151	-24,791	-0,173	-0,071
129,166	1,514	-0,282	-0,141
130,181	609,689	-0,154	-0,270
131,195	0,584	-0,245	-0,122
132,210	352,203	-0,233	-0,324
133,224	715,668	-0,181	-0,337
134,239	251,058	-0,216	-0,257
135,254	253,886	-0,150	-0,179
136,268	-100,843	-0,207	-0,035
137,283	800,000	-0,087	-0,184
138,297	14,970	-0,220	-0,120
139,312	309,168	-0,226	-0,295
140,327	169,009	-0,264	-0,263
141,341	36,334	-0,207	-0,127
142,356	59,486	-0,310	-0,213
143,370	-127,633	-0,335	-0,033
144,385	6,514	-0,205	-0,106
145,400	-72,287	-0,190	-0,049
146,414	27,404	-0,302	-0,177
147,429	37,771	-0,274	-0,170
148,443	141,879	-0,222	-0,205
149,458	-34,330	-0,273	-0,104
150,473	118,633	-0,174	-0,150
151,487	163,609	-0,144	-0,141
152,502	241,672	-0,218	-0,255
153,516	99,594	-0,235	-0,189
154,531	71,560	-0,133	-0,096
155,546	-82,319	-0,187	-0,042
156,560	-65,081	-0,432	-0,121
157,575	-5,327	-0,148	-0,071
158,589	36,932	-0,273	-0,168
159,604	251,137	-0,224	-0,266
160,619	394,846	-0,152	-0,222
161,633	25,106	-0,362	-0,209
162,648	-200,000	-0,066	-0,242
163,662	107,628	-0,168	-0,139
164,677	800,000	-0,066	-0,196
165,692	106,688	-0,249	-0,206
166,706	265,700	-0,167	-0,204
167,721	444,996	-0,167	-0,256
168,735	55,963	-0,268	-0,181
169,750	45,363	-0,275	-0,176
170,764	104,275	-0,211	-0,173
171,779	443,900	-0,121	-0,185
172,794	396,667	-0,183	-0,267
173,808	343,316	-0,129	-0,176
174,823	74,693	-0,313	-0,229
175,837	74,491	-0,261	-0,191
176,852	-42,941	-0,252	-0,088
177,867	102,670	-0,200	-0,163
178,881	61,409	-0,156	-0,108
179,896	-74,101	-0,161	-0,040
180,910	13,029	-0,146	0,078
181,925	122,287	-0,256	-0,222
182,940	178,671	-0,323	-0,328
183,954	-99,316	-0,163	-0,028
184,969	800,000	-0,075	-0,185
185,983	117,861	-0,145	-0,124
186,998	112,805	-0,152	-0,128
188,013	-58,365	-0,188	-0,056
189,027	-34,275	-0,314	-0,119
190,042	162,718	-0,256	-0,250
191,056	103,929	-0,226	-0,184
192,071	-9,331	-0,118	-0,055
193,086	356,413	-0,067	-0,093
194,100	311,611	-0,164	-0,214
195,115	-130,194	-0,145	-0,014
196,129	-75,316	-0,298	-0,073
197,144	-69,115	-0,193	0,051
198,159	205,940	-0,253	-0,274
199,173	-87,891	-0,222	-0,046
200,188	148,075	-0,132	-0,124
201,202	83,494	-0,145	-0,110
202,217	-52,183	-0,294	-0,094
203,232	-11,208	-0,208	-0,095
204,246	159,110	-0,183	-0,177
205,261	-5,726	-0,121	-0,057
206,275	165,547	-0,246	-0,242
207,290	-82,164	-0,234	-0,052
208,304	155,270	-0,201	-0,192
209,319	455,811	-0,111	-0,172
210,334	45,369	-0,268	-0,171
211,348	103,413	-0,140	-0,114
212,363	-20,801	-0,209	-0,089
213,377	349,363	-0,232	-0,319
214,392	-200,000	-0,027	-0,135
215,407	8,515	-0,206	-0,107
216,421	54,565	-0,173	-0,116
217,436	800,000	-0,101	-0,244
218,450	-50,707	-0,090	-0,029
219,465	-85,747	-0,262	-0,056
220,480	-87,629	-0,128	-0,027
221,494	152,494	-0,138	-0,131
222,509	-96,050	-0,101	-0,018
223,523	19,922	-0,137	-0,076
224,538	61,724	-0,328	-0,226
225,553	-42,150	-0,183	-0,064
226,567	-86,514	-0,194	0,041
227,582	-49,356	-0,187	-0,062
228,596	-50,594	-0,126	-0,041
229,611	-59,549	-0,160	-0,047
230,626	-137,470	-0,198	-0,015
231,640	145,022	-0,169	-0,157
232,655	142,780	-0,212	-0,195
233,669	392,022	-0,165	-0,238
234,684	426,584	-0,182	-0,272
235,699	378,907	-0,127	-0,180
236,713	800,000	-0,089	-0,183
237,728	800,000	-0,094	-0,224
238,742	24,987	-0,217	-0,124
239,757	50,331	-0,168	-0,110
240,772	800,000	-0,141	-0,276
241,786	189,042	-0,289	-0,300
242,801	423,036	-0,063	-0,094
243,815	-29,500	-0,088	-0,035
244,830	-82,660	-0,221	0,049
245,844	77,817	-0,222	-0,163
246,859	418,455	-0,076	-0,112
247,874	57,651	-0,289	-0,195
248,888	22,918	-0,213	-0,120
249,903	23,576	-0,198	-0,112
250,917	129,284	-0,174	-0,154
251,932	-60,883	-0,114	-0,033
252,947	403,920	-0,070	-0,102
253,961	91,444	-0,200	-0,155
254,976	137,739	-0,222	-0,201
255,990	105,004	-0,235	-0,192
257,005	97,859	-0,186	-0,148
258,020	193,667	-0,151	-0,159
259,034	-122,092	-0,144	-0,016
260,049	-139,046	-0,187	0,014
261,063	431,713	-0,135	-0,202
262,078	40,230	-0,091	-0,057
263,093	678,311	-0,132	-0,238
264,107	115,859	-0,252	-0,213
265,122	43,765	-0,244	-0,154
266,136	-40,792	-0,181	-0,064
267,151	640,345	-0,087	-0,153
268,166	-25,309	-0,048	-0,019
269,180	-156,307	-0,130	0,006
270,195	162,546	-0,080	-0,078
271,209	70,140	-0,222	-0,158
272,224	-15,611	-0,088	-0,038
273,239	-14,769	-0,152	-0,067
274,253	-35,391	-0,210	-0,079
275,268	110,135	-0,178	-0,148
276,282	800,000	-0,034	-0,067
277,297	-5,680	-0,047	0,022
278,312	-20,214	-0,259	-0,110
279,326	-183,439	-0,131	0,002
280,341	195,777	-0,100	-0,105
281,355	-99,178	-0,233	0,040
282,370	-57,077	-0,175	-0,053
283,384	-83,042	-0,260	-0,057
284,399	-23,404	-0,222	-0,091
285,414	32,556	-0,160	-0,095
286,428	198,036	-0,047	-0,049
287,443	-200,000	0,003	-0,056
288,457	-74,967	-0,119	-0,029
289,472	-61,613	-0,129	-0,037
290,487	800,000	-0,098	-0,230
291,501	111,842	-0,125	-0,104
292,516	-200,000	-0,024	-0,085
293,530	-63,816	-0,174	-0,049
294,545	164,804	-0,092	-0,089
295,560	529,301	-0,074	-0,120
296,574	410,647	-0,191	-0,281
297,589	26,422	-0,161	-0,092
298,603	-147,181	-0,230	0,013
299,618	800,000	-0,073	-0,143
300,633	422,040	-0,159	-0,236
301,647	62,230	-0,182	-0,125
302,662	352,238	-0,047	-0,065
303,676	-84,095	-0,154	-0,033
304,691	800,000	-0,083	-0,165
305,706	-88,491	-0,108	-0,022
306,720	127,145	-0,108	-0,094
307,735	-9,799	-0,155	-0,071
308,749	515,004	-0,084	-0,135
309,764	9,446	-0,177	0,092
310,779	-43,242	-0,071	-0,025
311,793	75,812	-0,137	-0,099
312,808	435,735	-0,093	-0,140
313,822	485,634	-0,089	-0,140
314,837	-200,000	-0,020	-0,151
315,852	115,818	-0,094	0,079
316,866	303,053	-0,056	-0,071
317,881	73,140	-0,093	-0,067
318,895	-68,145	-0,189	-0,050
319,910	187,946	-0,138	-0,142
320,925	-200,000	-0,030	-0,157
321,939	400,453	-0,063	-0,092
322,954	91,283	-0,140	-0,108
323,968	130,952	-0,100	0,089
324,983	41,917	-0,150	-0,094
325,997	-57,694	-0,151	0,045
327,012	9,806	-0,190	-0,099
328,027	82,776	-0,211	-0,157
329,041	-12,892	-0,173	-0,077
330,056	-176,465	-0,092	-0,002
331,070	12,663	-0,020	-0,010
332,085	-200,000	-0,008	-0,200
333,100	-86,413	-0,152	-0,032
334,114	193,871	-0,069	-0,072
335,129	-63,411	-0,271	-0,076
336,143	93,384	-0,182	-0,141
337,158	414,368	-0,059	-0,086
338,173	-200,000	-0,006	-0,129
339,187	182,962	-0,046	-0,047
340,202	79,691	-0,101	0,074
341,216	-142,145	-0,147	-0,010
342,231	123,477	-0,098	0,085
343,246	-167,021	-0,154	-0,004
344,260	203,132	-0,104	-0,110
345,275	-9,626	-0,098	0,045
346,289	88,978	0,040	0,030
347,304	-200,000	-0,009	-0,160
348,319	242,334	-0,133	-0,153
349,333	3,717	-0,154	-0,077
350,348	-200,000	-0,023	-0,147
351,362	-106,635	-0,089	-0,014
352,377	-66,837	-0,096	0,026
353,392	-200,000	-0,028	-0,182
354,406	-150,185	-0,168	0,009
355,421	209,904	1314,979	1415,621
356,435	161,566	1475,735	1416,099
