DTS Sentinel unit serial number:	SN410029Multiplexer serial number:	ORYXHardware model number:	OX2-SRSoftware version number:	ORYX F/W v4,00 Oryx Data Collector v3.7.2.0data status	okinstallation	B3 Nyhavnadifferential loss correction	single-endedforward channel	channel 1reverse channel	N/Adate	2023/12/01time	14:02:30forward acquisition time	300,00reverse acquisition time	0,00gamma	499,1914k internal	0,3213k external	0,3213temperature offset calibration	1,0000default loss term (dB/km)	0,3820temperature slope calibration	1,0000multiplexer offset coefficient	1,0000multiplexer slope coefficient	1,0000fibre end	0,00T internal ref (°C)	10,19T ext. ref 1 (°C)	-3,16T ext. ref 2 (°C)	-3,22length (m)	temperature (°C)	Stokes	anti-Stokes-744,400	-200,000	-0,092	-0,296
-743,385	-200,000	-0,039	0,287
-742,371	800,000	-0,127	-0,279
-741,356	-200,000	-0,008	0,291
-740,342	46,015	-0,229	-0,153
-739,327	800,000	-0,077	0,207
-738,312	369,884	-0,093	-0,136
-737,298	-200,000	-0,037	0,250
-736,283	442,100	-0,211	-0,336
-735,269	-200,000	0,016	0,280
-734,254	442,592	-0,136	-0,216
-733,239	-43,077	-0,302	0,110
-732,225	-200,000	0,050	-0,229
-731,210	487,465	0,005	-0,009
-730,196	-159,860	0,043	0,002
-729,181	-71,284	-0,163	-0,044
-728,167	274,070	0,095	-0,122
-727,152	800,000	0,047	-0,109
-726,137	-200,000	-0,010	0,039
-725,123	254,963	0,050	0,062
-724,108	52,665	-0,102	0,070
-723,094	-200,000	0,006	-0,037
-722,079	-200,000	-0,003	-0,054
-721,064	-61,103	-0,127	-0,039
-720,050	-3,518	-0,098	0,049
-719,035	118,517	-0,058	-0,052
-718,021	-200,000	0,056	-0,218
-717,006	800,000	-0,037	-0,114
-715,991	800,000	-0,031	-0,078
-714,977	258,533	0,076	-0,094
-713,962	-200,000	-0,008	-0,107
-712,948	49,703	-0,079	0,054
-711,933	237,677	-0,042	-0,050
-710,918	-45,121	0,079	-0,028
-709,904	-67,374	-0,121	-0,034
-708,889	78,834	0,130	-0,101
-707,875	182,217	-0,031	-0,033
-706,860	36,822	0,059	-0,038
-705,845	239,290	0,081	-0,098
-704,831	219,794	-0,073	0,085
-703,816	-200,000	-0,013	-0,117
-702,802	607,314	-0,053	0,097
-701,787	800,000	-0,071	-0,216
-700,772	-200,000	-0,011	-0,055
-699,758	-112,416	0,049	-0,007
-698,743	55,800	0,086	-0,060
-697,729	379,715	0,086	-0,128
-696,714	-52,001	-0,061	0,020
-695,699	-53,783	0,124	0,041
-694,685	88,020	-0,100	-0,080
-693,670	-176,393	-0,008	-0,000
-692,656	272,853	0,043	-0,055
-691,641	-200,000	0,010	0,065
-690,627	112,219	-0,045	0,039
-689,612	385,672	-0,035	0,052
-688,597	800,000	-0,011	0,026
-687,583	255,034	0,106	-0,131
-686,568	489,204	-0,015	-0,025
-685,554	581,226	-0,049	-0,087
-684,539	185,396	-0,028	0,030
-683,524	800,000	0,016	-0,044
-682,510	289,805	0,056	0,074
-681,495	27,579	-0,020	-0,012
-680,481	107,777	-0,072	-0,062
-679,466	54,881	-0,010	-0,007
-678,451	168,569	0,058	-0,060
-677,437	-130,353	-0,086	-0,008
-676,422	243,741	-0,035	-0,043
-675,408	800,000	0,020	-0,052
-674,393	-22,156	-0,004	0,002
-673,378	416,198	-0,021	0,032
-672,364	-21,348	-0,176	0,077
-671,349	-95,564	0,051	-0,010
-670,335	-79,305	-0,069	-0,017
-669,320	113,241	0,040	0,035
-668,305	221,978	0,012	-0,014
-667,291	13,076	-0,007	0,004
-666,276	-56,040	-0,047	-0,015
-665,262	-2,081	-0,084	-0,043
-664,247	800,000	-0,020	0,043
-663,232	114,241	0,051	-0,045
-662,218	-171,972	0,047	0,001
-661,203	-162,281	0,093	-0,003
-660,189	394,504	0,020	0,030
-659,174	86,841	-0,024	-0,019
-658,159	-12,248	-0,081	-0,038
-657,145	800,000	-0,055	-0,140
-656,130	88,611	-0,077	0,062
-655,116	631,640	0,038	-0,070
-654,101	-95,670	-0,104	-0,020
-653,086	-86,970	0,054	-0,012
-652,072	-12,771	-0,044	-0,021
-651,057	-200,000	-0,080	-0,000
-650,043	428,479	0,008	0,012
-649,028	-179,346	0,121	-0,002
-648,014	391,292	-0,023	-0,035
-646,999	-200,000	0,004	0,043
-645,984	371,061	0,089	-0,131
-644,970	41,732	-0,140	-0,091
-643,955	227,472	-0,048	0,057
-642,941	-36,495	-0,157	-0,061
-641,926	730,531	-0,085	-0,165
-640,911	-200,000	0,002	0,058
-639,897	30,438	0,043	-0,027
-638,882	-200,000	-0,024	-0,092
-637,868	231,630	-0,069	-0,082
-636,853	-135,019	-0,113	0,010
-635,838	-200,000	0,018	-0,150
-634,824	256,807	0,064	-0,079
-633,809	-200,000	0,013	0,113
-632,795	-200,000	-0,006	0,102
-631,780	-68,022	0,080	-0,022
-630,765	315,641	-0,005	-0,007
-629,751	-12,197	-0,068	0,032
-628,736	-200,000	-0,028	-0,113
-627,722	-115,242	-0,084	-0,011
-626,707	-83,907	0,042	-0,010
-625,692	251,255	0,036	0,044
-624,678	86,942	0,106	0,085
-623,663	800,000	-0,062	-0,142
-622,649	-161,765	-0,227	0,008
-621,634	234,286	-0,117	-0,139
-620,619	0,301	-0,050	-0,025
-619,605	83,698	0,008	0,006
-618,590	476,597	0,046	0,076
-617,576	-33,160	0,085	0,034
-616,561	-200,000	-0,030	-0,119
-615,546	-63,673	-0,028	-0,008
-614,532	-138,051	-0,108	-0,009
-613,517	2,859	-0,074	-0,039
-612,503	-200,000	0,004	-0,076
-611,488	-35,243	0,099	0,039
-610,474	-200,000	-0,010	0,052
-609,459	800,000	-0,077	0,179
-608,444	-200,000	-0,002	-0,061
-607,430	-200,000	-0,017	0,079
-606,415	800,000	-0,061	-0,163
-605,401	346,974	0,082	-0,117
-604,386	443,001	0,041	0,065
-603,371	-107,615	0,097	0,015
-602,357	-112,944	0,050	0,007
-601,342	427,785	0,042	-0,066
-600,328	-101,275	-0,153	-0,027
-599,313	95,650	0,079	-0,065
-598,298	-200,000	-0,009	-0,074
-597,284	65,130	-0,083	-0,061
-596,269	582,071	0,050	0,088
-595,255	370,590	-0,022	0,033
-594,240	-200,000	0,011	-0,066
-593,225	800,000	0,029	-0,093
-592,211	-112,158	0,031	-0,004
-591,196	1,846	-0,115	-0,059
-590,182	382,093	-0,029	0,043
-589,167	118,024	0,037	-0,033
-588,152	427,920	-0,076	0,119
-587,138	-200,000	-0,008	0,065
-586,123	-200,000	0,006	0,025
-585,109	-136,590	-0,095	0,008
-584,094	707,316	0,053	-0,101
-583,079	-87,938	0,067	-0,014
-582,065	-0,195	0,067	0,034
-581,050	-200,000	0,001	0,146
-580,036	77,220	0,055	0,042
-579,021	72,488	-0,077	-0,058
-578,006	-200,000	0,014	-0,068
-576,992	-107,668	0,064	-0,010
-575,977	162,161	0,084	0,085
-574,963	219,965	-0,122	-0,141
-573,948	-200,000	0,021	0,093
-572,934	78,969	-0,026	0,020
-571,919	461,198	-0,019	-0,031
-570,904	585,638	-0,049	-0,087
-569,890	23,754	-0,074	0,044
-568,875	72,593	0,048	-0,036
-567,861	800,000	0,032	0,087
-566,846	192,010	-0,063	-0,069
-565,831	250,659	-0,094	0,115
-564,817	-79,304	-0,129	0,031
-563,802	107,651	-0,084	-0,072
-562,788	-200,000	-0,004	-0,066
-561,773	-200,000	-0,002	-0,149
-560,758	130,425	-0,082	0,076
-559,744	800,000	0,018	0,052
-558,729	-200,000	0,003	0,010
-557,715	-200,000	-0,008	-0,082
-556,700	169,080	-0,034	-0,035
-555,685	-107,229	-0,124	0,019
-554,671	142,287	-0,042	-0,040
-553,656	-200,000	0,017	-0,084
-552,642	107,608	-0,127	-0,109
-551,627	15,774	0,086	-0,049
-550,612	147,119	-0,137	0,133
-549,598	-200,000	0,033	-0,129
-548,583	401,051	-0,044	-0,067
-547,569	-164,286	-0,125	-0,004
-546,554	-200,000	0,002	-0,032
-545,539	-200,000	-0,001	0,027
-544,525	-200,000	-0,019	0,097
-543,510	-164,335	0,075	-0,002
-542,496	-200,000	0,005	-0,111
-541,481	101,598	0,057	-0,048
-540,466	-102,831	0,015	0,003
-539,452	-200,000	-0,000	0,056
-538,437	61,090	-0,090	-0,064
-537,423	644,985	-0,068	0,125
-536,408	-97,838	0,123	-0,023
-535,393	-36,397	-0,058	0,022
-534,379	-94,269	-0,038	-0,007
-533,364	101,743	0,091	-0,076
-532,350	54,502	-0,050	-0,034
-531,335	305,416	0,116	0,155
-530,321	120,708	0,117	0,104
-529,306	280,811	-0,042	-0,054
-528,291	264,198	0,033	0,041
-527,277	227,889	-0,093	0,109
-526,262	77,647	0,139	-0,106
-525,248	3,315	-0,040	-0,021
-524,233	-200,000	0,030	0,108
-523,218	800,000	0,028	0,072
-522,204	52,143	-0,176	0,121
-521,189	-200,000	0,007	0,193
-520,175	-145,892	-0,072	0,005
-519,160	-200,000	-0,018	-0,105
-518,145	176,966	0,065	0,067
-517,131	-200,000	-0,032	0,211
-516,116	-200,000	0,031	0,135
-515,102	-200,000	-0,026	0,094
-514,087	72,595	0,025	0,019
-513,072	800,000	-0,004	-0,010
-512,058	154,795	0,038	-0,037
-511,043	155,949	0,062	0,062
-510,029	-100,412	-0,055	0,010
-509,014	128,343	-0,059	0,054
-507,999	-200,000	0,037	-0,140
-506,985	268,270	-0,064	0,081
-505,970	229,523	-0,051	0,060
-504,956	66,641	-0,102	-0,074
-503,941	800,000	-0,052	-0,142
-502,926	-150,213	0,117	-0,006
-501,912	800,000	0,025	0,066
-500,897	-200,000	-0,000	0,015
-499,883	-114,994	0,062	-0,008
-498,868	201,726	-0,082	0,091
-497,853	-200,000	-0,006	0,070
-496,839	64,459	-0,108	-0,078
-495,824	-31,243	-0,038	-0,015
-494,810	-200,000	-0,007	0,049
-493,795	37,581	-0,066	0,042
-492,781	-173,079	0,083	0,002
-491,766	-200,000	-0,017	-0,071
-490,751	-200,000	0,000	0,089
-489,737	800,000	0,046	-0,145
-488,722	800,000	-0,022	0,058
-487,708	-200,000	0,017	0,093
-486,693	385,573	-0,039	0,058
-485,678	108,378	-0,034	-0,029
-484,664	307,560	-0,042	0,056
-483,649	335,643	0,078	-0,108
-482,635	-200,000	0,007	-0,080
-481,620	11,303	-0,096	0,052
-480,605	-200,000	0,004	0,041
-479,591	107,076	0,042	-0,036
-478,576	194,506	-0,017	0,018
-477,562	-200,000	-0,009	0,059
-476,547	-31,310	-0,062	-0,025
-475,532	21,901	0,103	-0,060
-474,518	-186,498	0,137	0,001
-473,503	-200,000	-0,005	0,112
-472,489	-191,599	0,056	0,000
-471,474	234,927	0,119	0,141
-470,459	225,915	-0,071	0,083
-469,445	42,413	-0,094	-0,061
-468,430	362,260	0,047	-0,067
-467,416	-159,855	0,076	-0,003
-466,401	229,262	0,028	0,033
-465,386	-200,000	-0,018	-0,149
-464,372	-19,952	-0,115	0,051
-463,357	-200,000	-0,004	0,068
-462,343	-200,000	0,019	-0,061
-461,328	-13,422	-0,097	0,045
-460,313	800,000	-0,025	0,071
-459,299	-0,005	-0,090	-0,046
-458,284	80,996	0,079	0,061
-457,270	-200,000	-0,021	0,070
-456,255	-200,000	-0,035	-0,178
-455,241	800,000	-0,031	0,081
-454,226	800,000	-0,038	-0,083
-453,211	-168,407	0,164	0,004
-452,197	561,862	-0,056	0,097
-451,182	135,540	0,100	-0,093
-450,168	322,011	-0,094	0,128
-449,153	-156,003	0,095	-0,004
-448,138	81,106	-0,018	-0,014
-447,124	17,727	-0,074	0,042
-446,109	44,405	0,071	-0,047
-445,095	458,772	0,053	-0,085
-444,080	-200,000	0,004	-0,050
-443,065	800,000	0,043	0,121
-442,051	800,000	-0,064	-0,141
-441,036	101,124	0,002	-0,001
-440,022	-31,515	-0,089	-0,036
-439,007	-122,647	-0,061	0,007
-437,992	-180,404	-0,129	-0,002
-436,978	29,922	-0,067	0,041
-435,963	9,252	-0,127	0,069
-434,949	-67,572	-0,034	0,009
-433,934	-200,000	0,004	-0,052
-432,919	237,735	0,063	-0,075
-431,905	-150,325	-0,192	0,010
-430,890	-39,717	0,060	0,022
-429,876	228,321	0,088	-0,103
-428,861	-29,345	-0,181	-0,074
-427,846	-200,000	0,000	-0,057
-426,832	-200,000	0,036	-0,198
-425,817	-200,000	0,020	-0,089
-424,803	-3,251	-0,062	-0,031
-423,788	-200,000	-0,028	0,145
-422,773	-200,000	-0,005	-0,040
-421,759	219,494	0,092	0,105
-420,744	88,985	-0,039	0,031
-419,730	800,000	-0,037	-0,074
-418,715	800,000	0,013	0,032
-417,701	-200,000	-0,015	0,076
-416,686	-200,000	-0,014	-0,075
-415,671	56,965	0,101	0,070
-414,657	669,331	-0,084	0,156
-413,642	132,394	-0,021	-0,020
-412,628	106,181	0,067	-0,057
-411,613	203,974	-0,068	0,075
-410,598	-200,000	-0,035	0,133
-409,584	-88,846	0,047	-0,010
-408,569	68,723	0,062	0,045
-407,555	136,264	0,025	-0,024
-406,540	85,470	-0,063	0,049
-405,525	-70,311	-0,116	0,031
-404,511	126,957	-0,073	0,067
-403,496	394,163	0,047	0,070
-402,482	-107,854	-0,179	0,028
-401,467	-200,000	0,015	-0,072
-400,452	-200,000	-0,021	0,102
-399,438	-200,000	0,002	0,253
-398,423	128,949	0,095	-0,087
-397,409	16,204	0,010	0,006
-396,394	-183,621	0,036	0,000
-395,379	174,523	-0,023	-0,024
-394,365	160,353	0,115	0,114
-393,350	-120,023	-0,104	-0,013
-392,336	-100,734	0,146	-0,025
-391,321	-200,000	0,025	0,091
-390,306	-30,694	-0,128	-0,051
-389,292	-200,000	-0,014	-0,104
-388,277	489,105	-0,027	-0,044
-387,263	247,642	0,085	-0,103
-386,248	-200,000	0,007	0,059
-385,233	-67,469	0,002	0,001
-384,219	138,319	-0,013	0,012
-383,204	189,659	-0,087	-0,093
-382,190	-51,836	0,073	0,024
-381,175	168,441	-0,010	0,010
-380,160	-200,000	0,031	0,128
-379,146	-95,243	-0,071	0,014
-378,131	494,601	0,051	0,084
-377,117	800,000	-0,018	-0,050
-376,102	800,000	-0,036	0,093
-375,088	-26,162	0,078	-0,033
-374,073	-151,411	0,120	-0,006
-373,058	-163,190	-0,037	0,001
-372,044	148,861	0,027	-0,026
-371,029	-51,337	0,246	0,082
-370,015	-70,543	-0,033	-0,009
-369,000	-2,460	0,150	0,075
-367,985	800,000	0,037	-0,111
-366,971	-200,000	-0,020	-0,095
-365,956	-66,336	0,090	0,025
-364,942	-59,261	0,062	0,019
-363,927	-200,000	0,015	-0,195
-362,912	-63,706	-0,095	0,027
-361,898	-14,729	-0,157	0,071
-360,883	50,536	0,080	0,054
-359,869	-113,072	0,071	-0,010
-358,854	800,000	0,069	0,154
-357,839	186,195	0,076	0,081
-356,825	-11,983	-0,079	0,037
-355,810	-146,788	0,048	0,003
-354,796	-200,000	-0,010	-0,080
-353,781	800,000	-0,012	0,031
-352,766	-45,210	0,073	-0,026
-351,752	260,111	0,029	0,035
-350,737	-200,000	0,014	-0,101
-349,723	-200,000	0,001	0,063
-348,708	-200,000	0,013	-0,054
-347,693	347,064	-0,040	-0,056
-346,679	611,887	-0,031	0,056
-345,664	-9,989	0,125	-0,059
-344,650	205,490	-0,161	-0,178
-343,635	280,788	-0,051	-0,065
-342,620	-88,663	0,054	-0,011
-341,606	-200,000	0,000	-0,022
-340,591	149,023	0,179	-0,173
-339,577	277,653	0,017	-0,021
-338,562	800,000	-0,023	-0,050
-337,548	-96,829	-0,144	-0,027
-336,533	30,929	0,110	0,067
-335,518	-45,844	0,103	0,036
-334,504	539,674	0,049	0,084
-333,489	-120,823	0,055	-0,006
-332,475	114,648	0,027	0,023
-331,460	-200,000	0,009	-0,036
-330,445	-200,000	0,013	-0,150
-329,431	29,688	-0,022	-0,014
-328,416	289,741	-0,042	0,054
-327,402	265,224	0,082	0,102
-326,387	-82,361	-0,045	-0,010
-325,372	-200,000	-0,012	0,089
-324,358	713,860	0,017	0,031
-323,343	-106,111	0,103	0,016
-322,329	64,714	0,112	0,080
-321,314	192,460	0,095	0,102
-320,299	318,138	-0,046	0,062
-319,285	35,380	0,034	0,021
-318,270	458,387	0,055	-0,087
-317,256	-200,000	0,002	0,014
-316,241	-109,672	-0,080	-0,012
-315,226	77,607	0,066	0,050
-314,212	214,085	0,061	-0,069
-313,197	785,355	0,055	0,108
-312,183	254,947	0,059	-0,073
-311,168	-99,912	-0,015	0,003
-310,153	248,745	-0,045	0,055
-309,139	-173,506	-0,046	0,001
-308,124	-200,000	-0,012	-0,108
-307,110	351,368	0,046	0,064
-306,095	-200,000	-0,004	0,079
-305,080	-27,124	0,030	-0,012
-304,066	-200,000	0,002	0,048
-303,051	800,000	-0,040	-0,089
-302,037	800,000	0,013	0,026
-301,022	-76,564	0,082	0,020
-300,008	113,667	0,029	-0,025
-298,993	-200,000	0,033	0,114
-297,978	-200,000	-0,021	0,069
-296,964	800,000	0,039	0,094
-295,949	800,000	-0,027	-0,058
-294,935	85,323	0,031	-0,024
-293,920	10,674	-0,085	-0,046
-292,905	-200,000	0,000	0,051
-291,891	465,042	0,063	-0,101
-290,876	-200,000	0,052	-0,202
-289,862	-47,682	0,061	-0,021
-288,847	180,921	-0,073	-0,076
-287,832	800,000	-0,028	-0,082
-286,818	800,000	0,054	0,157
-285,803	280,742	0,042	0,054
-284,789	-167,749	0,102	0,003
-283,774	800,000	-0,013	-0,029
-282,759	-99,213	-0,111	-0,020
-281,745	-121,865	-0,099	-0,011
-280,730	637,122	0,053	0,096
-279,716	-152,421	-0,044	0,002
-278,701	145,645	-0,027	0,026
-277,686	420,069	0,054	0,083
-276,672	-200,000	-0,009	0,040
-275,657	624,145	-0,035	-0,064
-274,643	-11,533	0,031	0,014
-273,628	-200,000	0,006	-0,152
-272,613	533,428	-0,107	-0,182
-271,599	180,476	0,049	0,051
-270,584	-200,000	-0,020	0,065
-269,570	-176,114	0,156	-0,003
-268,555	-134,817	-0,171	0,015
-267,540	321,569	-0,020	-0,027
-266,526	800,000	-0,046	-0,129
-265,511	-169,508	-0,044	-0,001
-264,497	115,595	-0,051	-0,044
-263,482	-1,856	0,051	-0,026
-262,467	759,306	0,033	-0,065
-261,453	100,148	0,040	0,033
-260,438	-78,262	-0,178	0,043
-259,424	236,485	-0,023	0,028
-258,409	-114,739	-0,166	0,022
-257,395	126,772	0,137	-0,123
-256,380	53,438	-0,074	0,051
-255,365	-200,000	0,015	0,084
-254,351	800,000	0,036	0,108
-253,336	-200,000	-0,005	0,015
-252,322	66,802	-0,068	-0,049
-251,307	-200,000	-0,041	-0,151
-250,292	800,000	0,041	0,088
-249,278	800,000	0,028	0,059
-248,263	133,494	0,104	0,095
-247,249	28,754	0,175	0,105
-246,234	-200,000	-0,003	0,072
-245,219	323,192	0,073	-0,099
-244,205	209,247	0,034	0,038
-243,190	-20,084	0,056	-0,025
-242,176	-88,880	0,073	0,015
-241,161	22,002	0,067	0,039
-240,146	182,073	-0,062	0,065
-239,132	325,388	-0,031	-0,042
-238,117	576,031	-0,047	-0,083
-237,103	544,145	0,015	0,026
-236,088	772,030	-0,108	-0,211
-235,073	179,157	0,061	0,063
-234,059	340,267	-0,091	-0,127
-233,044	169,577	0,108	0,110
-232,030	-34,422	-0,076	0,029
-231,015	800,000	0,011	-0,029
-230,000	33,797	0,040	0,024
-228,986	-200,000	0,008	-0,028
-227,971	409,032	-0,056	-0,085
-226,957	-200,000	0,000	0,032
-225,942	-81,478	0,167	0,039
-224,927	421,866	0,056	0,086
-223,913	-200,000	0,000	-0,135
-222,898	-200,000	0,032	-0,128
-221,884	85,245	-0,086	0,067
-220,869	-200,000	0,007	0,044
-219,855	800,000	0,038	0,104
-218,840	-65,463	0,073	-0,021
-217,825	-51,266	0,080	0,027
-216,811	207,048	-0,052	-0,058
-215,796	192,530	-0,081	-0,087
-214,782	378,467	0,033	0,047
-213,767	86,470	0,117	0,092
-212,752	-200,000	0,037	0,000
-211,738	429,918	0,058	0,090
-210,723	800,000	-0,014	-0,039
-209,709	-171,674	0,038	0,001
-208,694	-101,183	-0,089	0,015
-207,679	800,000	-0,016	-0,042
-206,665	279,345	-0,020	0,025
-205,650	2,691	0,112	0,057
-204,636	355,222	0,064	0,090
-203,621	-113,078	0,075	-0,010
-202,606	70,465	0,014	0,010
-201,592	283,482	-0,066	-0,084
-200,577	324,539	-0,041	0,055
-199,563	357,017	0,027	0,038
-198,548	154,334	0,077	0,075
-197,533	57,304	0,030	-0,020
-196,519	-199,465	0,079	0,000
-195,504	-200,000	0,006	0,078
-194,490	800,000	-0,082	-0,230
-193,475	800,000	-0,023	-0,057
-192,460	101,220	-0,126	-0,104
-191,446	-89,434	0,214	0,044
-190,431	116,882	0,108	0,094
-189,417	-200,000	-0,029	0,117
-188,402	-18,883	0,073	-0,032
-187,387	535,568	-0,054	-0,091
-186,373	3,171	0,134	-0,069
-185,358	-80,819	-0,133	-0,031
-184,344	-21,465	0,073	0,031
-183,329	348,857	0,066	-0,092
-182,315	100,397	-0,078	-0,064
-181,300	-93,660	0,121	-0,024
-180,285	-129,055	-0,062	-0,006
-179,271	-200,000	0,014	-0,059
-178,256	-81,416	0,036	0,008
-177,242	42,015	0,109	0,070
-176,227	109,956	-0,072	0,061
-175,212	38,279	0,073	-0,046
-174,198	-176,590	-0,107	0,002
-173,183	-33,034	0,068	-0,027
-172,169	64,666	-0,142	0,102
-171,154	101,251	0,040	0,033
-170,139	-31,811	-0,063	0,025
-169,125	253,524	-0,124	0,150
-168,110	-123,957	0,099	0,011
-167,096	-200,000	-0,009	0,036
-166,081	-16,258	-0,061	0,027
-165,066	64,903	-0,030	0,021
-164,052	800,000	-0,029	-0,059
-163,037	-88,300	0,070	-0,015
-162,023	414,227	-0,084	0,127
-161,008	504,318	0,033	0,054
-159,993	225,731	0,156	-0,180
-158,979	-3,917	-0,070	-0,034
-157,964	-200,000	0,002	-0,082
-156,950	444,850	-0,003	0,005
-155,935	-200,000	0,004	-0,090
-154,920	-70,464	-0,109	-0,029
-153,906	137,637	0,069	0,064
-152,891	157,118	0,098	-0,096
-151,877	158,268	0,022	0,022
-150,862	-164,130	-0,145	0,005
-149,847	-200,000	-0,014	-0,199
-148,833	143,175	0,038	-0,036
-147,818	144,777	0,082	0,077
-146,804	800,000	0,017	0,036
-145,789	79,277	-0,037	-0,028
-144,775	-25,153	-0,096	0,040
-143,760	16,063	0,095	-0,053
-142,745	-80,070	-0,023	-0,005
-141,731	800,000	0,019	0,047
-140,716	-76,939	-0,072	-0,018
-139,702	76,598	0,072	-0,054
-138,687	33,661	0,070	0,043
-137,672	-8,010	-0,143	-0,068
-136,658	152,005	-0,074	-0,071
-135,643	-200,000	-0,004	0,080
-134,629	-156,686	-0,189	-0,008
-133,614	-16,155	0,130	-0,058
-132,599	484,223	0,064	-0,103
-131,585	135,679	0,006	-0,006
-130,570	-200,000	0,020	0,091
-129,556	-28,925	-0,054	-0,022
-128,541	26,088	-0,109	0,064
-127,526	568,664	0,036	-0,062
-126,512	-200,000	-0,004	0,145
-125,497	-200,000	0,031	0,154
-124,483	-52,586	-0,102	-0,033
-123,468	-95,101	0,062	0,012
-122,453	-200,000	0,003	0,041
-121,439	424,964	-0,062	-0,095
-120,424	203,130	0,027	-0,029
-119,410	-200,000	-0,001	-0,101
-118,395	-35,758	0,094	-0,036
-117,380	6,521	0,161	0,084
-116,366	-200,000	-0,007	0,032
-115,351	109,653	-0,083	-0,070
-114,337	800,000	-0,066	-0,187
-113,322	-103,147	-0,126	-0,021
-112,307	-200,000	0,002	0,106
-111,293	383,092	-0,069	0,101
-110,278	72,091	-0,116	-0,085
-109,264	161,955	-0,096	0,096
-108,249	800,000	0,039	-0,082
-107,234	800,000	0,020	-0,058
-106,220	127,126	0,073	-0,066
-105,205	356,798	0,009	0,012
-104,191	-200,000	0,015	0,068
-103,176	-200,000	-0,023	0,095
-102,162	-200,000	0,038	0,221
-101,147	-90,330	0,128	0,026
-100,132	202,364	-0,076	0,083
-99,118	-200,000	-0,006	-0,027
-98,103	-200,000	-0,016	-0,068
-97,089	-158,745	-0,135	0,005
-96,074	-98,175	0,124	0,022
-95,059	627,012	0,042	-0,076
-94,045	-200,000	-0,003	0,019
-93,030	52,102	-0,103	-0,069
-92,016	800,000	-0,027	-0,058
-91,001	-144,784	-0,075	0,005
-89,986	-97,839	0,113	-0,020
-88,972	-200,000	0,005	0,056
-87,957	538,402	-0,018	0,030
-86,943	-70,966	0,020	0,005
-85,928	-200,000	0,038	-0,134
-84,913	-111,078	-0,107	-0,015
-83,899	-168,904	0,158	0,004
-82,884	-15,599	-0,039	-0,018
-81,870	439,698	0,007	0,011
-80,855	800,000	-0,032	0,085
-79,840	299,655	-0,065	0,085
-78,826	381,839	-0,046	0,066
-77,811	-28,062	-0,134	0,054
-76,797	183,266	0,058	0,060
-75,782	65,353	0,070	-0,050
-74,767	-69,356	0,064	-0,017
-73,753	800,000	-0,011	-0,033
-72,738	-195,275	0,097	0,000
-71,724	-30,804	-0,111	0,044
-70,709	-96,138	-0,219	-0,041
-69,694	-128,052	0,158	0,016
-68,680	-175,561	-0,084	0,002
-67,665	-35,565	0,087	0,033
-66,651	800,000	0,029	-0,069
-65,636	-14,161	0,086	-0,039
-64,622	198,763	-0,055	-0,059
-63,607	177,763	-0,038	-0,040
-62,592	800,000	-0,021	0,048
-61,578	800,000	-0,041	-0,117
-60,563	-200,000	-0,019	0,074
-59,549	-200,000	0,027	0,186
-58,534	43,642	-1,966	-1,267
-57,519	541,539	-1,137	-1,919
-56,505	-200,000	-0,525	-4,563
-55,490	556,287	0,983	1,677
-54,476	800,000	4,958	11,133
-53,461	-200,000	21,284	339,061
-52,446	800,000	758,728	2346,623
-51,432	556,715	1662,089	2835,669
-50,417	73,368	1663,018	1225,974
-49,403	18,078	1536,660	861,718
-48,388	12,029	1460,046	789,492
-47,373	19,326	1450,849	819,510
-46,359	15,434	1440,319	795,014
-45,344	10,331	1435,856	768,220
-44,330	10,255	1433,976	766,824
-43,315	10,247	1432,111	765,757
-42,300	10,219	1430,759	764,870
-41,286	10,227	1429,448	764,180
-40,271	10,153	1428,207	763,135
-39,257	10,203	1426,843	762,613
-38,242	10,251	1425,824	762,265
-37,227	10,230	1424,757	761,564
-36,213	10,253	1423,492	760,967
-35,198	10,260	1422,218	760,289
-34,184	10,330	1421,216	760,052
-33,169	10,231	1419,827	758,813
-32,154	10,320	1418,883	758,697
-31,140	10,298	1417,558	757,854
-30,125	10,321	1416,585	757,412
-29,111	10,318	1415,186	756,620
-28,096	10,255	1414,347	755,849
-27,082	10,230	1412,861	754,904
-26,067	10,217	1412,110	754,411
-25,052	10,257	1410,929	753,941
-24,038	10,237	1409,965	753,301
-23,023	10,226	1408,981	752,696
-22,009	10,228	1408,093	752,200
-20,994	10,198	1407,004	751,445
-19,979	10,221	1406,050	751,013
-18,965	10,187	1405,195	750,372
-17,950	10,159	1404,223	749,689
-16,936	10,177	1403,415	749,311
-15,921	10,132	1402,570	748,622
-14,906	10,176	1401,414	748,179
-13,892	10,140	1400,519	747,505
-12,877	10,129	1399,683	746,980
-11,863	10,157	1398,931	746,680
-10,848	10,098	1398,108	745,935
-9,833	10,102	1397,063	745,366
-8,819	10,035	1396,411	744,680
-7,804	10,063	1395,296	744,186
-6,790	10,044	1394,406	743,591
-5,775	10,046	1393,329	742,999
-4,760	10,029	1392,329	742,357
-3,746	10,054	1391,423	741,957
-2,731	10,020	1390,511	741,288
-1,717	10,035	1389,590	740,838
-0,702	10,010	1387,966	739,826
0,313	14,152	1300,898	712,341
1,327	30,590	691,027	415,660
2,342	47,282	119,846	78,525
3,356	4,077	16,414	8,436
4,371	6,667	3,487	1,822
5,386	-6,301	1,138	0,545
6,400	779,170	0,299	0,578
7,415	-40,665	-0,265	-0,096
8,429	9,607	-0,236	-0,125
9,444	130,641	-0,237	-0,214
10,459	-41,703	-0,238	-0,086
11,473	16,932	-0,268	-0,149
12,488	194,526	-0,094	-0,100
13,502	146,860	-0,284	-0,269
14,517	17,906	-0,313	-0,175
15,531	39,936	-0,319	-0,202
16,546	27,955	-0,364	-0,215
17,561	9,343	-0,330	-0,175
18,575	10,956	-0,171	-0,092
19,590	173,711	-0,180	-0,183
20,604	-70,726	-0,182	-0,048
21,619	-9,949	-0,421	-0,196
22,634	135,181	-0,424	-0,388
23,648	12,169	-0,412	-0,222
24,663	16,843	-0,298	-0,165
25,677	25,254	-0,382	-0,222
26,692	125,772	-0,327	-0,290
27,707	183,372	-0,328	-0,341
28,721	82,976	-0,398	-0,304
29,736	578,809	-0,211	-0,364
30,750	17,812	-0,442	-0,247
31,765	130,961	-0,401	-0,362
32,780	-89,057	-0,422	-0,087
33,794	116,908	-0,320	-0,276
34,809	-54,731	-0,333	-0,105
35,823	-55,196	-0,395	-0,124
36,838	-70,153	-0,398	-0,106
37,853	105,451	-0,369	-0,306
38,867	55,808	-0,337	-0,229
39,882	17,469	-0,301	-0,167
40,896	14,830	-0,331	-0,181
41,911	151,807	-0,238	-0,228
42,926	-33,413	-0,476	-0,184
43,940	130,902	-0,347	-0,313
44,955	114,921	-0,379	-0,324
45,969	-17,229	-0,288	-0,127
46,984	97,271	-0,261	-0,210
47,999	-88,808	-0,338	-0,070
49,013	-72,319	-0,278	-0,072
50,028	-41,826	-0,344	-0,123
51,042	153,080	-0,306	-0,294
52,057	111,932	-0,405	-0,343
53,071	9,699	-0,578	-0,306
54,086	53,392	-0,255	-0,171
55,101	59,306	-0,340	-0,235
56,115	4,133	-0,309	-0,158
57,130	-35,103	-0,273	-0,104
58,144	10,005	-0,305	-0,162
59,159	18,918	-0,364	-0,204
60,174	134,813	-0,444	-0,404
61,188	73,853	-0,346	-0,254
62,203	-100,844	-0,373	-0,064
63,217	62,389	-0,380	-0,265
64,232	42,019	-0,382	-0,242
65,247	238,902	-0,166	-0,194
66,261	-5,835	-0,296	-0,141
67,276	-21,260	-0,303	-0,129
68,290	316,459	-0,227	-0,301
69,305	111,908	-0,288	-0,244
70,320	70,587	-0,321	-0,233
71,334	177,583	-0,221	-0,226
72,349	14,022	-0,325	-0,176
73,363	0,365	-0,364	-0,182
74,378	78,115	-0,339	-0,253
75,393	72,540	-0,277	-0,202
76,407	-89,913	-0,301	-0,061
77,422	48,650	-0,283	-0,185
78,436	-45,020	-0,228	-0,079
79,451	124,201	-0,275	-0,242
80,466	93,231	-0,262	-0,208
81,480	379,284	-0,196	-0,281
82,495	278,786	-0,245	-0,306
83,509	94,792	-0,206	-0,164
84,524	3,352	-0,283	-0,144
85,539	187,799	-0,231	-0,241
86,553	-47,778	-0,382	-0,129
87,568	108,017	-0,323	-0,270
88,582	88,762	-0,390	-0,303
89,597	168,760	-0,313	-0,312
90,611	50,265	-0,275	-0,182
91,626	-49,868	-0,226	-0,075
92,641	-24,144	-0,255	-0,106
93,655	112,748	-0,175	-0,148
94,670	366,394	-0,196	-0,277
95,684	653,350	-0,142	-0,256
96,699	100,030	-0,315	-0,255
97,714	88,770	-0,299	-0,232
98,728	89,181	-0,358	-0,279
99,743	79,618	-0,342	-0,256
100,757	336,444	-0,185	-0,252
101,772	38,889	-0,215	-0,134
102,787	0,207	-0,383	-0,190
103,801	209,446	-0,229	-0,251
104,816	53,140	-0,334	-0,223
105,830	-131,681	-0,125	0,011
106,845	-38,857	-0,224	-0,082
107,860	-26,269	-0,264	-0,108
108,874	153,103	-0,330	-0,315
109,889	180,426	-0,266	-0,273
110,903	-85,822	-0,297	-0,064
111,918	515,022	-0,158	-0,258
112,933	5,584	-0,209	-0,107
113,947	40,123	-0,242	-0,151
114,962	158,601	-0,218	-0,211
115,976	100,170	-0,223	-0,180
116,991	54,316	-0,252	-0,169
118,006	116,061	-0,263	-0,225
119,020	281,667	-0,202	-0,253
120,035	409,662	-0,181	-0,268
121,049	84,011	-0,219	-0,167
122,064	-17,518	-0,267	-0,117
123,079	-7,835	-0,150	-0,070
124,093	50,284	-0,293	-0,193
125,108	13,699	-0,313	-0,169
126,122	173,113	-0,215	-0,217
127,137	-20,176	-0,218	-0,093
128,151	-98,340	-0,231	-0,041
129,166	311,280	-0,104	-0,136
130,181	24,823	-0,356	-0,205
131,195	157,648	-0,184	-0,178
132,210	37,256	-0,183	-0,113
133,224	-101,184	-0,392	-0,066
134,239	15,316	-0,288	-0,157
135,254	-21,440	-0,105	-0,044
136,268	156,299	-0,208	-0,200
137,283	81,675	-0,241	-0,182
138,297	201,835	-0,220	-0,236
139,312	-13,814	-0,351	-0,157
140,327	95,933	-0,309	-0,246
141,341	393,391	-0,176	-0,255
142,356	-3,907	-0,222	-0,107
143,370	-11,422	-0,125	-0,057
144,385	800,000	-0,122	-0,248
145,400	83,315	-0,232	-0,176
146,414	153,051	-0,142	-0,135
147,429	65,267	-0,347	-0,244
148,443	12,210	-0,241	-0,129
149,458	-52,309	-0,302	-0,097
150,473	9,312	-0,334	-0,175
151,487	202,832	-0,204	-0,220
152,502	-54,560	-0,269	-0,084
153,516	-53,571	-0,352	-0,111
154,531	183,083	-0,214	-0,220
155,546	50,865	-0,340	-0,223
156,560	718,826	-0,105	-0,195
157,575	235,937	-0,136	-0,156
158,589	1,880	-0,232	-0,116
159,604	107,077	-0,176	-0,146
160,619	251,815	-0,305	-0,362
161,633	81,983	-0,300	-0,226
162,648	217,173	-0,243	-0,269
163,662	-200,000	-0,078	-0,244
164,677	-35,571	-0,301	-0,113
165,692	-15,191	-0,346	-0,153
166,706	197,959	-0,194	-0,206
167,721	25,943	-0,240	-0,139
168,735	-200,000	-0,006	-0,373
169,750	68,576	-0,249	-0,177
170,764	345,869	-0,151	-0,207
171,779	17,017	-0,257	-0,141
172,794	27,445	-0,251	-0,146
173,808	157,391	-0,231	-0,222
174,823	241,217	-0,285	-0,331
175,837	43,322	-0,323	-0,204
176,852	-75,995	-0,224	-0,055
177,867	38,927	-0,227	-0,140
178,881	-147,808	-0,205	-0,012
179,896	-53,042	-0,247	-0,078
180,910	175,926	-0,096	-0,096
181,925	73,584	-0,232	-0,168
182,940	229,098	-0,295	-0,335
183,954	485,886	-0,179	-0,284
184,969	-129,909	-0,248	-0,023
185,983	18,186	-0,255	-0,141
186,998	-38,601	-0,211	-0,077
188,013	-60,126	-0,221	-0,065
189,027	51,019	-0,178	-0,117
190,042	149,335	-0,155	-0,145
191,056	-63,744	-0,186	0,053
192,071	135,965	-0,195	-0,176
193,086	133,583	-0,193	-0,173
194,100	286,166	-0,157	-0,197
195,115	292,927	-0,136	-0,172
196,129	10,039	-0,293	-0,154
197,144	98,492	-0,089	-0,071
198,159	92,556	-0,201	-0,157
199,173	-75,727	-0,263	-0,064
200,188	61,914	-0,210	-0,145
201,202	269,296	-0,141	-0,172
202,217	440,029	-0,178	-0,271
203,232	377,883	-0,178	-0,252
204,246	19,142	-0,215	-0,119
205,261	204,021	-0,243	-0,261
206,275	129,071	-0,179	-0,158
207,290	327,017	-0,125	-0,166
208,304	29,095	-0,198	-0,116
209,319	216,853	-0,232	-0,256
210,334	147,068	-0,190	-0,177
211,348	22,259	-0,186	-0,105
212,363	72,016	-0,192	-0,138
213,377	-99,404	-0,221	0,038
214,392	-16,619	-0,283	0,124
215,407	161,983	-0,144	-0,140
216,421	-15,336	-0,191	-0,084
217,436	424,322	-0,093	-0,139
218,450	44,376	-0,226	-0,143
219,465	57,946	-0,202	-0,137
220,480	313,224	-0,212	-0,276
221,494	104,936	-0,180	-0,146
222,509	-200,000	-0,025	-0,097
223,523	-172,411	-0,143	-0,003
224,538	8,720	-0,202	-0,105
225,553	-138,413	-0,140	0,011
226,567	38,451	-0,231	-0,142
227,582	462,504	-0,089	-0,138
228,596	104,277	-0,180	-0,147
229,611	149,040	-0,206	-0,193
230,626	159,192	-0,156	-0,149
231,640	0,201	-0,113	-0,056
232,655	52,360	-0,220	-0,145
233,669	599,011	-0,066	-0,114
234,684	611,949	-0,117	-0,202
235,699	-36,983	-0,220	-0,081
236,713	-38,791	-0,158	-0,057
237,728	-200,000	-0,039	-0,183
238,742	316,476	-0,182	-0,238
239,757	-63,153	-0,228	-0,065
240,772	800,000	-0,095	-0,194
241,786	-200,000	-0,037	-0,122
242,801	78,856	-0,217	-0,160
243,815	679,195	-0,113	-0,203
244,830	266,590	-0,028	-0,034
245,844	8,634	-0,260	-0,134
246,859	-85,256	-0,233	-0,050
247,874	-42,897	-0,258	-0,090
248,888	-75,942	-0,044	0,011
249,903	347,874	-0,140	-0,191
250,917	-147,243	-0,209	0,012
251,932	-19,464	-0,126	-0,054
252,947	241,131	-0,066	-0,076
253,961	388,769	-0,162	-0,232
254,976	148,126	-0,164	-0,153
255,990	14,400	-0,151	-0,081
257,005	85,952	-0,189	-0,143
258,020	111,520	-0,206	-0,171
259,034	355,252	-0,108	-0,149
260,049	489,132	-0,150	-0,237
261,063	65,841	-0,232	-0,162
262,078	97,997	-0,173	-0,137
263,093	29,768	-0,226	-0,133
264,107	800,000	-0,054	-0,114
265,122	-31,126	-0,165	-0,064
266,136	127,482	-0,118	-0,103
267,151	-77,233	-0,304	0,072
268,166	39,912	-0,200	-0,123
269,180	-182,411	-0,209	0,003
270,195	118,910	-0,204	-0,174
271,209	245,856	-0,152	-0,176
272,224	406,295	-0,102	-0,148
273,239	38,685	-0,182	-0,111
274,253	-69,648	-0,350	-0,091
275,268	-113,637	-0,141	0,019
276,282	-66,162	-0,260	-0,071
277,297	60,494	-0,165	-0,112
278,312	139,578	-0,238	-0,215
279,326	72,611	-0,118	-0,085
280,341	800,000	-0,105	-0,203
281,355	-127,154	-0,155	-0,015
282,370	-39,125	-0,177	-0,064
283,384	175,795	-0,130	-0,129
284,399	415,353	-0,075	-0,110
285,414	-51,269	-0,159	0,051
286,428	0,294	-0,163	-0,080
287,443	-200,000	-0,010	-0,042
288,457	636,508	-0,090	-0,158
289,472	43,102	-0,167	-0,104
290,487	164,702	-0,079	-0,077
291,501	14,148	-0,174	-0,093
292,516	-114,446	-0,157	-0,020
293,530	38,844	-0,232	-0,142
294,545	800,000	-0,063	0,146
295,560	13,136	-0,055	0,029
296,574	404,793	-0,050	-0,072
297,589	-200,000	-0,049	-0,173
298,603	31,286	-0,271	-0,160
299,618	-81,316	-0,189	-0,043
300,633	121,185	-0,115	-0,098
301,647	167,939	-0,065	-0,064
302,662	64,882	-0,108	0,075
303,676	-53,750	-0,128	0,040
304,691	-77,640	-0,161	0,038
305,706	74,686	-0,099	-0,071
306,720	796,616	-0,123	-0,234
307,735	-58,666	-0,137	0,040
308,749	-27,456	0,055	0,022
309,764	-98,749	-0,200	-0,035
310,779	20,564	-0,200	-0,111
311,793	7,949	-0,198	-0,101
312,808	109,132	-0,213	-0,175
313,822	-32,404	-0,133	-0,051
314,837	152,740	-0,204	-0,191
315,852	291,458	-0,144	-0,180
316,866	147,704	-0,129	-0,119
317,881	33,105	-0,138	-0,082
318,895	800,000	-0,085	-0,227
319,910	122,998	-0,178	-0,153
320,925	-24,214	-0,152	-0,062
321,939	422,473	-0,176	-0,259
322,954	-109,358	-0,029	-0,004
323,968	-129,236	-0,115	-0,011
324,983	185,092	-0,113	-0,115
325,997	-53,050	-0,093	-0,029
327,012	85,663	-0,187	-0,140
328,027	-28,280	-0,143	-0,056
329,041	-114,513	-0,085	-0,011
330,056	-61,088	-0,217	-0,062
331,070	800,000	0,050	-0,118
332,085	89,202	-0,094	0,071
333,100	-200,000	-0,184	-0,000
334,114	179,131	-0,151	-0,152
335,129	-24,881	-0,243	-0,098
336,143	270,189	-0,142	-0,171
337,158	800,000	-0,108	-0,209
338,173	493,836	-0,043	0,068
339,187	-79,436	-0,219	-0,050
340,202	800,000	-0,015	0,030
341,216	-169,497	-0,254	0,006
342,231	-200,000	-0,082	-0,256
343,246	-200,000	-0,028	-0,190
344,260	-65,401	-0,184	-0,050
345,275	800,000	-0,026	-0,072
346,289	798,484	-0,090	-0,171
347,304	326,081	-0,095	-0,125
348,319	361,480	-0,038	-0,052
349,333	722,167	-0,143	-0,261
350,348	800,000	0,041	-0,096
351,362	-35,031	-0,208	-0,077
352,377	800,000	-0,063	-0,148
353,392	32,688	-0,168	-0,099
354,406	-89,489	-0,124	-0,025
355,421	208,216	1313,891	1404,930
356,435	160,208	1474,474	1405,403
