DTS Sentinel unit serial number:	SN410029Multiplexer serial number:	ORYXHardware model number:	OX2-SRSoftware version number:	ORYX F/W v4,00 Oryx Data Collector v3.7.2.0data status	okinstallation	B3 Nyhavnadifferential loss correction	single-endedforward channel	channel 1reverse channel	N/Adate	2023/11/30time	18:22:30forward acquisition time	300,00reverse acquisition time	0,00gamma	499,1914k internal	0,3204k external	0,3204temperature offset calibration	1,0000default loss term (dB/km)	0,3820temperature slope calibration	1,0000multiplexer offset coefficient	1,0000multiplexer slope coefficient	1,0000fibre end	0,00T internal ref (°C)	12,74T ext. ref 1 (°C)	-2,50T ext. ref 2 (°C)	-2,60length (m)	temperature (°C)	Stokes	anti-Stokes-744,400	800,000	-0,145	-0,309
-743,385	800,000	0,184	0,491
-742,371	411,129	-0,164	-0,254
-741,356	-200,000	-0,067	0,430
-740,342	800,000	-0,105	-0,233
-739,327	-200,000	-0,012	0,273
-738,312	800,000	-0,127	-0,383
-737,298	800,000	-0,098	0,273
-736,283	185,455	-0,255	-0,275
-735,269	-200,000	0,082	0,301
-734,254	800,000	-0,121	-0,278
-733,239	0,634	-0,356	0,185
-732,225	-200,000	-0,051	-0,186
-731,210	16,025	0,199	0,114
-730,196	-140,166	0,033	-0,002
-729,181	611,609	-0,038	0,070
-728,167	800,000	-0,024	-0,054
-727,152	-21,324	-0,014	-0,006
-726,137	-29,667	-0,184	-0,076
-725,123	682,761	-0,056	-0,106
-724,108	-200,000	-0,013	-0,160
-723,094	-200,000	-0,024	-0,126
-722,079	800,000	0,050	-0,142
-721,064	12,540	-0,060	-0,033
-720,050	-12,510	-0,134	0,063
-719,035	699,376	0,029	0,056
-718,021	-2,755	0,073	-0,037
-717,006	-200,000	-0,019	-0,111
-715,991	-6,706	-0,181	-0,089
-714,977	4,449	0,197	-0,104
-713,962	800,000	-0,010	0,026
-712,948	59,908	-0,097	-0,070
-711,933	169,322	0,012	-0,012
-710,918	-200,000	-0,017	-0,096
-709,904	-200,000	-0,000	0,059
-708,889	-200,000	0,004	-0,111
-707,875	-50,384	-0,144	-0,049
-706,860	-200,000	0,002	-0,117
-705,845	486,366	0,049	0,081
-704,831	28,854	0,129	0,079
-703,816	-200,000	0,005	0,081
-702,802	-200,000	-0,013	-0,046
-701,787	-47,491	-0,060	-0,021
-700,772	-143,196	-0,184	0,013
-699,758	-46,425	-0,139	-0,049
-698,743	433,122	-0,073	-0,115
-697,729	463,453	0,034	0,056
-696,714	171,671	0,114	0,119
-695,699	800,000	0,004	0,009
-694,685	800,000	-0,015	-0,049
-693,670	68,761	-0,159	-0,118
-692,656	-54,689	0,074	-0,024
-691,641	148,113	0,077	0,075
-690,627	363,479	0,083	0,122
-689,612	-23,038	0,145	-0,063
-688,597	-200,000	0,041	-0,177
-687,583	-89,134	-0,108	0,023
-686,568	28,396	0,034	-0,021
-685,554	360,756	0,062	-0,090
-684,539	-0,548	-0,110	0,057
-683,524	78,101	-0,073	0,057
-682,510	166,203	-0,044	0,045
-681,495	39,163	-0,058	-0,037
-680,481	-200,000	-0,020	-0,066
-679,466	112,768	-0,043	-0,038
-678,451	-73,540	0,126	0,033
-677,437	233,356	0,048	-0,058
-676,422	621,120	0,016	-0,030
-675,408	-1,588	0,107	-0,055
-674,393	265,089	0,032	0,041
-673,378	205,323	0,065	-0,074
-672,364	800,000	-0,009	-0,027
-671,349	-71,359	0,141	-0,038
-670,335	153,461	-0,119	-0,118
-669,320	-114,989	0,082	-0,011
-668,305	-10,177	0,016	-0,008
-667,291	800,000	-0,055	0,113
-666,276	315,623	-0,080	0,110
-665,262	800,000	-0,070	-0,166
-664,247	-178,641	0,054	0,001
-663,232	218,343	-0,157	-0,182
-662,218	-65,237	-0,032	-0,009
-661,203	490,448	0,027	0,045
-660,189	7,425	-0,148	-0,080
-659,174	326,003	-0,099	-0,137
-658,159	-89,161	-0,047	0,010
-657,145	-200,000	-0,017	-0,075
-656,130	-200,000	-0,025	-0,116
-655,116	185,382	0,083	-0,090
-654,101	-175,302	0,128	0,002
-653,086	-169,140	-0,082	-0,002
-652,072	-200,000	-0,008	-0,050
-651,057	106,832	-0,100	-0,086
-650,043	133,190	-0,114	-0,107
-649,028	-200,000	0,004	-0,015
-648,014	-61,559	0,134	0,041
-646,999	-200,000	0,001	-0,090
-645,984	800,000	-0,020	0,052
-644,970	142,439	-0,104	-0,100
-643,955	-200,000	0,019	-0,120
-642,941	-200,000	-0,052	-0,185
-641,926	112,030	0,030	0,026
-640,911	-200,000	-0,015	0,082
-639,897	-191,615	-0,140	0,001
-638,882	800,000	0,072	0,187
-637,868	-127,340	-0,032	-0,003
-636,853	-200,000	0,007	-0,110
-635,838	577,860	-0,097	-0,173
-634,824	-200,000	-0,006	-0,078
-633,809	-132,905	0,095	-0,009
-632,795	800,000	-0,039	-0,103
-631,780	65,559	-0,089	0,065
-630,765	-42,934	-0,110	0,040
-629,751	142,468	0,058	0,056
-628,736	-64,156	-0,113	0,033
-627,722	722,258	-0,064	-0,123
-626,707	227,313	0,022	0,026
-625,692	-74,442	0,025	0,006
-624,678	784,070	0,037	-0,073
-623,663	800,000	-0,015	-0,036
-622,649	267,228	-0,072	-0,091
-621,634	96,804	-0,053	-0,044
-620,619	-200,000	0,009	-0,080
-619,605	98,691	0,051	0,043
-618,590	-91,807	0,117	0,024
-617,576	-200,000	0,053	-0,204
-616,561	589,448	0,021	0,038
-615,546	-34,086	-0,154	0,061
-614,532	217,509	-0,028	0,032
-613,517	-200,000	-0,053	-0,230
-612,503	80,638	0,086	-0,067
-611,488	-200,000	-0,014	0,050
-610,474	800,000	0,077	0,185
-609,459	800,000	0,018	-0,049
-608,444	-188,644	0,174	-0,002
-607,430	-200,000	0,020	-0,169
-606,415	-200,000	-0,005	0,025
-605,401	-200,000	0,016	0,060
-604,386	-43,146	-0,128	-0,047
-603,371	101,905	0,025	0,021
-602,357	-110,356	-0,088	0,013
-601,342	113,495	0,068	0,060
-600,328	-200,000	-0,012	0,060
-599,313	-200,000	-0,005	-0,072
-598,298	466,341	0,018	-0,030
-597,284	-200,000	0,023	0,141
-596,269	800,000	0,070	-0,151
-595,255	-9,766	0,097	0,046
-594,240	-157,918	0,067	-0,003
-593,225	113,083	0,139	0,122
-592,211	45,604	-0,088	-0,059
-591,196	800,000	-0,051	-0,132
-590,182	612,026	-0,067	-0,122
-589,167	305,087	0,082	0,110
-588,152	-183,371	-0,097	-0,001
-587,138	54,296	0,095	0,066
-586,123	-35,127	-0,090	-0,035
-585,109	800,000	0,048	-0,099
-584,094	-89,291	-0,072	0,015
-583,079	-200,000	0,001	0,005
-582,065	800,000	-0,041	0,114
-581,050	-128,440	-0,029	-0,003
-580,036	14,254	-0,064	0,036
-579,021	412,617	-0,058	0,090
-578,006	-200,000	0,006	-0,206
-576,992	800,000	-0,048	-0,142
-575,977	-151,752	0,163	0,009
-574,963	800,000	0,013	0,041
-573,948	-0,699	-0,042	0,022
-572,934	800,000	-0,072	0,181
-571,919	278,551	-0,066	-0,085
-570,904	-66,394	-0,048	-0,014
-569,890	38,750	0,036	0,023
-568,875	-177,746	-0,051	0,001
-567,861	123,051	0,125	0,113
-566,846	800,000	-0,029	-0,060
-565,831	-144,564	0,030	-0,002
-564,817	99,435	0,047	-0,039
-563,802	-200,000	-0,015	0,090
-562,788	-64,216	-0,095	-0,028
-561,773	800,000	0,066	-0,201
-560,758	-200,000	0,001	0,100
-559,744	-200,000	0,036	0,131
-558,729	68,091	-0,105	0,078
-557,715	58,991	-0,067	-0,047
-556,700	-78,345	0,076	-0,019
-555,685	64,415	-0,076	-0,056
-554,671	-200,000	-0,042	-0,145
-553,656	4,402	0,080	0,042
-552,642	-41,918	0,049	0,018
-551,627	-42,812	0,148	0,054
-550,612	132,800	-0,072	0,067
-549,598	213,766	-0,093	-0,106
-548,583	-93,719	-0,033	0,007
-547,569	-200,000	0,012	-0,137
-546,554	349,941	0,010	0,014
-545,539	-160,506	-0,060	-0,002
-544,525	-59,555	0,149	0,046
-543,510	107,440	-0,137	0,117
-542,496	134,049	-0,055	0,052
-541,481	-64,964	0,105	-0,030
-540,466	46,298	0,128	-0,085
-539,452	208,395	-0,050	-0,057
-538,437	-200,000	0,016	0,077
-537,423	-82,225	-0,030	0,007
-536,408	-47,325	0,084	-0,029
-535,393	-200,000	0,009	-0,270
-534,379	33,456	-0,040	-0,025
-533,364	-200,000	-0,002	-0,026
-532,350	72,137	-0,062	-0,047
-531,335	-58,457	0,131	0,041
-530,321	224,751	0,012	0,014
-529,306	552,555	0,058	-0,101
-528,291	-143,326	-0,049	0,003
-527,277	13,024	-0,100	-0,056
-526,262	214,541	-0,042	-0,048
-525,248	-100,800	-0,092	-0,016
-524,233	800,000	-0,021	0,061
-523,218	-73,211	-0,108	-0,028
-522,204	-105,964	0,073	0,012
-521,189	-21,359	0,082	-0,036
-520,175	800,000	0,024	-0,049
-519,160	-200,000	0,014	-0,167
-518,145	515,933	0,011	-0,019
-517,131	740,789	0,053	0,104
-516,116	12,929	-0,046	0,026
-515,102	-38,567	-0,081	0,031
-514,087	800,000	0,012	0,030
-513,072	-184,517	0,029	0,000
-512,058	93,462	-0,034	0,027
-511,043	-84,206	0,152	0,034
-510,029	800,000	0,022	-0,045
-509,014	4,216	0,032	0,017
-507,999	800,000	0,040	0,104
-506,985	428,398	0,057	0,090
-505,970	-94,801	0,168	-0,032
-504,956	-200,000	-0,012	0,041
-503,941	800,000	-0,010	-0,028
-502,926	131,541	-0,058	-0,054
-501,912	-200,000	0,021	0,066
-500,897	800,000	-0,028	0,062
-499,883	-166,456	-0,066	-0,002
-498,868	531,865	0,010	-0,016
-497,853	22,564	-0,059	-0,034
-496,839	77,815	-0,197	-0,151
-495,824	246,014	-0,034	-0,042
-494,810	800,000	0,026	0,081
-493,795	-25,108	-0,129	0,055
-492,781	177,273	0,040	-0,042
-491,766	109,604	-0,056	0,048
-490,751	-81,873	-0,043	0,010
-489,737	20,936	0,059	-0,034
-488,722	61,536	-0,042	-0,030
-487,708	-113,384	0,070	0,010
-486,693	-12,995	-0,126	-0,059
-485,678	-200,000	0,032	0,110
-484,664	123,980	-0,117	-0,105
-483,649	-88,520	-0,073	0,015
-482,635	768,372	0,041	-0,082
-481,620	39,249	-0,141	0,090
-480,605	362,569	-0,023	0,033
-479,591	-200,000	-0,006	-0,054
-478,576	-200,000	-0,003	0,016
-477,562	-200,000	-0,010	-0,101
-476,547	117,651	-0,127	-0,112
-475,532	199,681	-0,091	0,101
-474,518	145,767	0,084	-0,081
-473,503	-18,295	-0,075	-0,034
-472,489	-64,154	0,026	0,007
-471,474	-200,000	-0,020	-0,099
-470,459	-45,187	-0,103	0,037
-469,445	800,000	-0,073	0,165
-468,430	230,597	0,114	-0,134
-467,416	-68,590	-0,176	-0,049
-466,401	147,582	0,073	-0,071
-465,386	246,400	0,092	0,112
-464,372	273,991	0,006	-0,008
-463,357	-28,292	-0,060	0,025
-462,343	218,178	-0,083	0,096
-461,328	104,883	-0,079	-0,067
-460,313	-200,000	-0,047	0,190
-459,299	-89,246	0,219	-0,046
-458,284	561,870	0,111	0,194
-457,270	-200,000	0,010	0,043
-456,255	-200,000	-0,007	-0,127
-455,241	-100,484	-0,058	0,010
-454,226	543,641	-0,080	0,137
-453,211	800,000	0,029	-0,074
-452,197	98,876	-0,099	0,082
-451,182	800,000	-0,026	0,069
-450,168	14,048	0,133	-0,074
-449,153	225,793	-0,100	-0,117
-448,138	670,504	-0,016	-0,029
-447,124	69,511	-0,065	-0,048
-446,109	194,705	-0,048	-0,053
-445,095	344,767	0,010	0,014
-444,080	-200,000	0,041	0,154
-443,065	125,021	-0,071	-0,064
-442,051	-153,870	0,110	-0,005
-441,036	-200,000	0,025	-0,135
-440,022	57,432	0,079	0,056
-439,007	504,066	-0,012	-0,021
-437,992	375,332	0,003	-0,004
-436,978	-75,139	0,057	0,015
-435,963	585,858	-0,009	-0,015
-434,949	-200,000	-0,008	-0,168
-433,934	800,000	-0,038	-0,093
-432,919	-200,000	0,014	-0,063
-431,905	435,995	-0,068	-0,106
-430,890	-21,978	0,035	-0,015
-429,876	41,214	0,070	0,045
-428,861	-200,000	-0,010	0,070
-427,846	61,314	-0,054	-0,039
-426,832	242,781	-0,115	-0,138
-425,817	365,255	0,052	0,076
-424,803	303,378	-0,025	0,033
-423,788	261,187	-0,155	0,193
-422,773	800,000	0,006	0,014
-421,759	800,000	0,037	-0,104
-420,744	800,000	0,035	-0,077
-419,730	112,444	0,043	0,038
-418,715	636,016	-0,064	-0,118
-417,701	800,000	-0,027	-0,073
-416,686	800,000	-0,076	-0,181
-415,671	265,480	0,039	0,049
-414,657	78,046	0,013	0,010
-413,642	-63,561	0,143	-0,042
-412,628	67,501	0,060	-0,044
-411,613	-200,000	-0,010	0,079
-410,598	800,000	-0,018	0,038
-409,584	-140,462	0,051	0,004
-408,569	112,101	0,017	-0,015
-407,555	345,731	0,073	0,104
-406,540	94,956	0,128	0,104
-405,525	800,000	-0,027	-0,078
-404,511	391,817	-0,057	-0,085
-403,496	-34,478	0,069	-0,027
-402,482	249,302	0,050	0,060
-401,467	242,895	-0,082	-0,098
-400,452	68,067	-0,048	0,035
-399,438	-39,438	-0,031	-0,012
-398,423	295,850	-0,040	-0,053
-397,409	800,000	-0,079	-0,169
-396,394	485,354	-0,035	0,058
-395,379	213,492	-0,073	0,083
-394,365	-36,482	0,114	0,044
-393,350	800,000	-0,059	0,137
-392,336	210,956	0,039	-0,044
-391,321	-22,190	-0,109	0,047
-390,306	280,456	0,042	-0,055
-389,292	436,950	0,045	0,070
-388,277	-4,498	-0,039	0,019
-387,263	-200,000	0,004	0,084
-386,248	696,992	0,089	0,167
-385,233	762,073	0,020	0,040
-384,219	269,304	0,031	-0,039
-383,204	490,786	0,075	-0,124
-382,190	-132,963	-0,208	-0,019
-381,175	-200,000	-0,043	-0,151
-380,160	-54,281	-0,108	-0,035
-379,146	398,395	0,030	0,046
-378,131	38,291	-0,221	0,141
-377,117	-200,000	0,011	-0,151
-376,102	-200,000	0,030	-0,112
-375,088	-15,368	-0,074	-0,034
-374,073	-200,000	0,008	-0,043
-373,058	-200,000	-0,006	0,125
-372,044	22,725	-0,045	-0,026
-371,029	-102,885	0,031	0,005
-370,015	-170,703	-0,071	-0,002
-369,000	105,149	0,016	-0,013
-367,985	195,055	0,070	-0,077
-366,971	3,321	-0,104	0,054
-365,956	-200,000	-0,002	0,019
-364,942	800,000	0,028	0,073
-363,927	129,653	0,040	0,036
-362,912	-93,535	0,121	-0,024
-361,898	-200,000	-0,032	0,108
-360,883	1,028	-0,050	0,026
-359,869	63,065	-0,079	-0,056
-358,854	728,585	0,023	-0,044
-357,839	-114,578	0,158	0,021
-356,825	518,758	0,033	0,055
-355,810	-8,748	0,081	-0,039
-354,796	234,223	0,039	0,046
-353,781	-132,938	-0,080	-0,007
-352,766	-200,000	0,005	-0,019
-351,752	71,574	-0,059	0,044
-350,737	227,627	0,088	0,102
-349,723	800,000	-0,028	0,058
-348,708	-63,586	0,145	0,042
-347,693	135,678	0,060	0,056
-346,679	116,645	-0,072	0,063
-345,664	-40,081	-0,008	-0,003
-344,650	534,254	-0,064	0,108
-343,635	800,000	-0,023	0,062
-342,620	-87,961	0,097	0,021
-341,606	305,081	0,066	0,087
-340,591	-130,547	0,120	-0,011
-339,577	-200,000	-0,025	-0,096
-338,562	800,000	-0,067	-0,153
-337,548	800,000	-0,040	0,092
-336,533	322,814	0,054	0,073
-335,518	-55,824	0,158	-0,050
-334,504	394,342	0,058	0,087
-333,489	800,000	-0,052	0,107
-332,475	-99,337	-0,147	-0,026
-331,460	800,000	-0,080	-0,206
-330,445	-31,509	0,078	-0,031
-329,431	-69,096	0,083	-0,023
-328,416	-138,927	-0,054	-0,004
-327,402	-200,000	-0,014	0,089
-326,387	44,134	-0,057	0,037
-325,372	-91,484	-0,113	0,023
-324,358	81,165	0,101	-0,078
-323,343	437,006	-0,041	-0,064
-322,329	116,673	0,078	-0,068
-321,314	124,380	0,047	0,042
-320,299	-200,000	-0,010	-0,102
-319,285	267,050	0,007	0,009
-318,270	-48,802	-0,089	0,030
-317,256	-114,365	-0,075	0,010
-316,241	-200,000	-0,010	0,040
-315,226	55,415	0,170	-0,117
-314,212	346,290	0,046	0,064
-313,197	-87,035	0,123	0,027
-312,183	144,487	0,043	0,041
-311,168	-106,824	0,087	-0,014
-310,153	-46,492	0,056	-0,020
-309,139	-36,182	-0,041	-0,016
-308,124	261,488	-0,151	0,187
-307,110	277,736	0,057	-0,073
-306,095	-25,597	0,123	0,052
-305,080	21,311	0,081	0,047
-304,066	239,505	-0,040	-0,048
-303,051	-105,227	-0,076	0,012
-302,037	257,464	-0,036	-0,044
-301,022	216,075	0,076	0,086
-300,008	331,563	0,099	0,137
-298,993	432,532	0,111	0,173
-297,978	-142,612	-0,088	-0,006
-296,964	165,356	0,086	0,087
-295,949	380,161	-0,014	0,021
-294,935	-200,000	0,018	-0,093
-293,920	221,920	-0,018	0,021
-292,905	23,765	0,081	-0,048
-291,891	-72,242	0,127	0,033
-290,876	337,027	0,075	0,104
-289,862	-200,000	-0,022	0,071
-288,847	108,969	-0,071	0,060
-287,832	13,929	-0,121	-0,067
-286,818	-54,806	-0,027	0,009
-285,803	177,516	0,037	0,039
-284,789	800,000	0,017	0,045
-283,774	244,418	0,064	-0,077
-282,759	-11,174	-0,050	0,023
-281,745	81,393	-0,077	-0,060
-280,730	352,528	0,074	-0,105
-279,716	268,984	-0,056	-0,070
-278,701	217,210	0,080	0,091
-277,686	565,495	-0,020	0,035
-276,672	-200,000	0,035	-0,155
-275,657	-58,542	0,060	-0,019
-274,643	-161,679	0,121	-0,004
-273,628	79,362	-0,090	0,069
-272,613	-152,198	0,049	-0,002
-271,599	-200,000	-0,004	0,080
-270,584	800,000	-0,038	0,105
-269,570	89,225	0,119	0,095
-268,555	167,043	-0,059	0,060
-267,540	-165,721	-0,129	-0,004
-266,526	-114,206	-0,170	-0,023
-265,511	-151,966	0,103	-0,005
-264,497	-200,000	-0,014	0,103
-263,482	238,845	0,113	0,134
-262,467	800,000	-0,038	0,109
-261,453	-75,240	-0,058	-0,015
-260,438	237,969	-0,089	-0,106
-259,424	34,223	0,038	-0,024
-258,409	6,310	-0,104	-0,055
-257,395	61,607	-0,131	0,093
-256,380	385,521	0,060	-0,089
-255,365	800,000	0,032	-0,064
-254,351	594,388	0,041	0,073
-253,336	57,089	-0,159	-0,111
-252,322	568,551	0,051	-0,089
-251,307	87,918	-0,041	0,032
-250,292	800,000	-0,033	-0,084
-249,278	-8,317	-0,039	0,019
-248,263	-33,642	0,166	-0,065
-247,249	638,716	0,009	0,017
-246,234	-200,000	-0,001	0,063
-245,219	-200,000	0,002	-0,025
-244,205	97,535	-0,058	0,047
-243,190	800,000	0,044	0,117
-242,176	-200,000	0,009	0,073
-241,161	-200,000	0,025	0,172
-240,146	-26,997	0,087	0,036
-239,132	55,086	-0,116	-0,080
-238,117	417,040	0,013	-0,020
-237,103	285,434	-0,054	0,069
-236,088	249,435	-0,031	-0,037
-235,073	-200,000	0,024	0,084
-234,059	-200,000	-0,033	0,199
-233,044	-200,000	-0,010	0,073
-232,030	580,230	0,044	0,077
-231,015	-72,135	0,056	-0,015
-230,000	-200,000	0,002	-0,054
-228,986	375,445	-0,025	0,037
-227,971	546,850	0,021	0,036
-226,957	13,314	0,102	0,056
-225,942	388,276	-0,026	0,038
-224,927	23,266	0,096	-0,056
-223,913	-200,000	-0,001	0,067
-222,898	-55,660	-0,030	0,010
-221,884	800,000	0,040	-0,119
-220,869	92,558	0,034	0,028
-219,855	-200,000	0,017	0,090
-218,840	-53,539	-0,086	0,028
-217,825	-155,562	0,108	-0,005
-216,811	538,676	-0,028	-0,048
-215,796	800,000	-0,056	-0,143
-214,782	673,994	0,039	0,073
-213,767	75,143	0,074	0,055
-212,752	-200,000	0,006	-0,021
-211,738	-155,613	0,146	-0,007
-210,723	800,000	-0,012	0,038
-209,709	-200,000	-0,007	0,077
-208,694	800,000	0,050	-0,108
-207,679	499,030	-0,027	-0,045
-206,665	800,000	0,032	-0,063
-205,650	101,031	0,068	0,056
-204,636	-200,000	0,005	-0,080
-203,621	273,639	-0,008	0,010
-202,606	-58,136	0,077	0,024
-201,592	-200,000	0,016	-0,075
-200,577	800,000	0,024	0,058
-199,563	-200,000	0,010	0,046
-198,548	311,279	-0,018	0,024
-197,533	280,302	0,013	-0,017
-196,519	800,000	-0,040	0,123
-195,504	146,949	-0,088	-0,084
-194,490	-200,000	0,002	0,078
-193,475	-71,334	0,045	0,012
-192,460	-43,814	0,093	0,033
-191,446	-113,829	0,058	0,008
-190,431	349,095	0,056	0,079
-189,417	-200,000	-0,054	0,177
-188,402	210,579	0,016	-0,017
-187,387	547,053	0,030	-0,052
-186,373	142,562	-0,057	0,054
-185,358	179,723	-0,028	-0,029
-184,344	-82,155	-0,096	0,022
-183,329	-21,523	0,134	0,058
-182,315	-25,168	-0,082	0,034
-181,300	-5,998	-0,104	-0,050
-180,285	350,832	0,077	-0,109
-179,271	-37,474	-0,015	-0,006
-178,256	-35,333	0,045	-0,017
-177,242	427,357	-0,044	0,068
-176,227	177,352	0,027	0,028
-175,212	800,000	-0,057	0,117
-174,198	87,569	-0,054	0,043
-173,183	-200,000	-0,019	-0,078
-172,169	-200,000	-0,014	0,061
-171,154	270,835	-0,045	-0,056
-170,139	-44,534	0,119	-0,042
-169,125	8,461	0,128	0,068
-168,110	-200,000	-0,003	0,086
-167,096	380,996	-0,014	-0,021
-166,081	225,567	0,024	-0,028
-165,066	-52,758	-0,127	-0,041
-164,052	158,170	-0,085	-0,083
-163,037	5,452	-0,070	0,036
-162,023	343,541	0,070	0,098
-161,008	-105,218	0,095	0,015
-159,993	231,347	0,078	-0,090
-158,979	672,724	-0,042	-0,078
-157,964	800,000	-0,047	-0,140
-156,950	134,944	-0,060	-0,055
-155,935	152,784	0,037	-0,036
-154,920	-106,384	0,082	-0,013
-153,906	230,732	0,076	-0,088
-152,891	800,000	0,035	0,085
-151,877	-200,000	0,016	0,083
-150,862	-200,000	-0,005	-0,112
-149,847	176,371	-0,169	-0,174
-148,833	-200,000	0,001	-0,061
-147,818	-122,251	0,165	-0,019
-146,804	76,062	0,053	0,040
-145,789	-200,000	0,008	0,096
-144,775	424,902	-0,087	-0,134
-143,760	800,000	0,036	0,092
-142,745	-97,527	-0,121	-0,022
-141,731	-200,000	0,013	-0,131
-140,716	6,530	0,077	-0,040
-139,702	495,800	0,071	0,117
-138,687	6,446	0,126	-0,066
-137,672	34,314	-0,106	0,066
-136,658	800,000	-0,018	0,037
-135,643	277,743	-0,040	-0,050
-134,629	12,457	0,091	-0,050
-133,614	-127,799	0,098	0,010
-132,599	124,318	-0,014	0,012
-131,585	-5,409	0,130	-0,063
-130,570	-200,000	0,024	0,114
-129,556	98,481	0,035	-0,029
-128,541	-200,000	0,020	-0,139
-127,526	71,246	0,182	-0,134
-126,512	792,834	-0,043	0,084
-125,497	-146,509	-0,126	0,008
-124,483	-76,194	0,013	0,003
-123,468	-18,223	0,078	0,034
-122,453	34,914	0,047	-0,029
-121,439	164,092	-0,043	-0,043
-120,424	-200,000	0,044	-0,156
-119,410	800,000	0,054	0,124
-118,395	-48,182	0,090	-0,031
-117,380	800,000	0,016	0,034
-116,366	-68,006	0,078	0,021
-115,351	101,549	-0,076	-0,063
-114,337	-200,000	0,032	-0,131
-113,322	-173,943	-0,106	-0,002
-112,307	-38,435	-0,090	-0,034
-111,293	-92,556	0,032	-0,006
-110,278	-180,986	0,140	0,002
-109,264	-114,730	0,196	0,026
-108,249	136,611	-0,078	-0,072
-107,234	103,063	-0,091	-0,076
-106,220	-166,441	-0,096	-0,003
-105,205	4,171	0,144	0,075
-104,191	43,067	0,084	-0,054
-103,176	35,625	0,107	0,066
-102,162	-125,740	-0,105	0,011
-101,147	-200,000	0,001	-0,080
-100,132	-200,000	0,020	-0,155
-99,118	-200,000	-0,003	-0,044
-98,103	-47,388	-0,127	0,044
-97,089	145,425	0,115	-0,109
-96,074	-200,000	0,003	0,148
-95,059	51,632	0,044	0,029
-94,045	-200,000	-0,031	0,136
-93,030	214,455	0,160	-0,180
-92,016	-177,843	0,071	-0,001
-91,001	78,062	0,126	-0,095
-89,986	-200,000	-0,018	0,121
-88,972	331,825	0,060	0,082
-87,957	-200,000	0,000	0,012
-86,943	-45,456	0,025	0,009
-85,928	449,471	-0,039	0,061
-84,913	-200,000	-0,005	-0,222
-83,899	-200,000	-0,004	-0,045
-82,884	800,000	0,066	0,206
-81,870	-45,018	0,168	0,059
-80,855	158,307	-0,064	-0,063
-79,840	-97,350	0,052	-0,009
-78,826	252,372	0,060	-0,073
-77,811	316,416	-0,047	-0,063
-76,797	0,746	0,095	-0,048
-75,782	-72,058	-0,050	0,013
-74,767	78,944	0,058	0,044
-73,753	800,000	0,006	-0,016
-72,738	11,154	-0,035	-0,019
-71,724	-200,000	-0,035	-0,166
-70,709	59,136	0,091	0,063
-69,694	-200,000	0,020	-0,086
-68,680	-200,000	-0,002	-0,025
-67,665	-0,718	0,026	0,013
-66,651	161,907	0,012	-0,012
-65,636	800,000	0,041	0,093
-64,622	-33,755	-0,142	0,055
-63,607	227,031	0,026	0,029
-62,592	63,554	-0,042	-0,030
-61,578	-200,000	-0,001	0,031
-60,563	-106,985	0,052	0,008
-59,549	-200,000	-0,012	0,120
-58,534	9,058	-1,763	-0,939
-57,519	457,548	-1,330	-2,099
-56,505	-200,000	-0,346	-4,381
-55,490	330,648	0,997	1,362
-54,476	800,000	4,960	11,268
-53,461	-200,000	19,652	329,150
-52,446	-200,000	743,436	2338,951
-51,432	569,879	1653,019	2855,227
-50,417	77,143	1666,376	1251,361
-49,403	20,672	1540,232	879,489
-48,388	14,604	1462,525	805,694
-47,373	18,515	1452,923	819,210
-46,359	16,754	1442,484	804,878
-45,344	12,909	1437,809	783,885
-44,330	12,753	1436,200	782,231
-43,315	12,802	1434,504	781,508
-42,300	12,817	1432,696	780,565
-41,286	12,844	1431,579	780,054
-40,271	12,796	1430,244	779,069
-39,257	12,776	1429,060	778,298
-38,242	12,821	1427,623	777,696
-37,227	12,829	1426,355	777,015
-36,213	12,852	1424,773	776,230
-35,198	12,840	1423,874	775,654
-34,184	12,844	1423,045	775,187
-33,169	12,821	1421,531	774,225
-32,154	12,822	1420,739	773,765
-31,140	12,842	1419,471	773,140
-30,125	12,902	1418,184	772,689
-29,111	12,820	1417,222	771,752
-28,096	12,827	1415,909	771,037
-27,082	12,807	1414,947	770,387
-26,067	12,785	1413,951	769,713
-25,052	12,818	1412,752	769,182
-24,038	12,703	1412,099	768,260
-23,023	12,758	1410,705	767,729
-22,009	12,758	1409,953	767,286
-20,994	12,726	1409,143	766,665
-19,979	12,698	1408,226	766,007
-18,965	12,714	1407,090	765,432
-17,950	12,746	1406,200	765,066
-16,936	12,719	1405,410	764,479
-15,921	12,645	1404,465	763,591
-14,906	12,717	1403,234	763,230
-13,892	12,662	1402,398	762,488
-12,877	12,680	1401,626	762,121
-11,863	12,705	1400,477	761,580
-10,848	12,704	1399,684	761,116
-9,833	12,647	1398,895	760,392
-8,819	12,580	1398,227	759,686
-7,804	12,583	1397,285	759,161
-6,790	12,606	1396,098	758,590
-5,775	12,571	1395,319	757,977
-4,760	12,565	1394,218	757,317
-3,746	12,569	1393,310	756,812
-2,731	12,560	1392,418	756,256
-1,717	12,541	1391,416	755,595
-0,702	12,539	1389,749	754,651
0,313	16,399	1305,529	726,722
1,327	32,672	699,321	426,639
2,342	50,256	122,193	81,458
3,356	1,449	16,516	8,368
4,371	8,003	3,244	1,714
5,386	40,635	0,600	0,381
6,400	800,000	0,091	0,254
7,415	-44,419	-0,369	-0,130
8,429	211,955	-0,200	-0,223
9,444	124,502	-0,271	-0,241
10,459	84,809	-0,251	-0,194
11,473	51,334	-0,361	-0,242
12,488	-27,205	-0,304	-0,125
13,502	26,887	-0,257	-0,151
14,517	68,649	-0,310	-0,224
15,531	24,640	-0,387	-0,226
16,546	145,140	-0,217	-0,205
17,561	75,593	-0,405	-0,302
18,575	-16,733	-0,224	-0,100
19,590	-14,005	-0,346	-0,157
20,604	-163,997	-0,222	-0,007
21,619	112,788	-0,349	-0,298
22,634	68,698	-0,385	-0,279
23,648	115,771	-0,437	-0,378
24,663	37,989	-0,416	-0,260
25,677	-41,144	-0,349	-0,127
26,692	63,294	-0,402	-0,284
27,707	93,244	-0,443	-0,353
28,721	60,138	-0,469	-0,326
29,736	-22,793	-0,497	-0,211
30,750	154,627	-0,334	-0,323
31,765	103,182	-0,325	-0,268
32,780	75,742	-0,332	-0,247
33,794	34,236	-0,319	-0,196
34,809	192,101	-0,240	-0,255
35,823	45,187	-0,382	-0,248
36,838	171,169	-0,339	-0,343
37,853	71,506	-0,376	-0,275
38,867	150,435	-0,340	-0,326
39,882	366,349	-0,216	-0,308
40,896	4,290	-0,400	-0,206
41,911	27,017	-0,205	-0,121
42,926	24,784	-0,437	-0,255
43,940	65,515	-0,292	-0,208
44,955	-36,166	-0,422	-0,160
45,969	178,633	-0,306	-0,315
46,984	271,831	-0,224	-0,278
47,999	158,800	-0,250	-0,245
49,013	15,943	-0,424	-0,234
50,028	93,339	-0,334	-0,266
51,042	60,123	-0,322	-0,224
52,057	197,240	-0,310	-0,334
53,071	-28,096	-0,277	-0,112
54,086	117,460	-0,318	-0,275
55,101	91,717	-0,315	-0,249
56,115	42,386	-0,255	-0,163
57,130	47,372	-0,327	-0,214
58,144	82,384	-0,479	-0,365
59,159	145,650	-0,346	-0,326
60,174	-24,692	-0,452	-0,188
61,188	299,050	-0,240	-0,311
62,203	229,591	-0,340	-0,391
63,217	132,508	-0,229	-0,208
64,232	155,379	-0,250	-0,242
65,247	242,515	-0,307	-0,362
66,261	142,582	-0,324	-0,303
67,276	247,269	-0,271	-0,322
68,290	65,503	-0,425	-0,302
69,305	23,528	-0,220	-0,127
70,320	490,612	-0,171	-0,276
71,334	11,796	-0,316	-0,170
72,349	-32,213	-0,333	-0,130
73,363	-1,981	-0,280	-0,138
74,378	29,549	-0,317	-0,189
75,393	-13,293	-0,379	-0,172
76,407	279,293	-0,278	-0,349
77,422	64,596	-0,224	-0,158
78,436	423,152	-0,201	-0,305
79,451	19,759	-0,346	-0,195
80,466	24,810	-0,367	-0,213
81,480	207,059	-0,207	-0,227
82,495	32,085	-0,250	-0,151
83,509	160,064	-0,220	-0,215
84,524	66,704	-0,126	-0,090
85,539	800,000	-0,071	-0,147
86,553	20,379	-0,353	-0,200
87,568	114,000	-0,366	-0,313
88,582	-9,691	-0,282	-0,131
89,597	51,267	-0,312	-0,208
90,611	-77,070	-0,313	-0,076
91,626	226,093	-0,155	-0,176
92,641	95,097	-0,193	-0,154
93,655	212,661	-0,279	-0,309
94,670	275,521	-0,169	-0,211
95,684	33,531	-0,227	-0,138
96,699	20,861	-0,193	-0,109
97,714	195,812	-0,290	-0,310
98,728	188,044	-0,301	-0,316
99,743	53,584	-0,193	-0,129
100,757	-105,139	-0,165	-0,026
101,772	495,876	-0,217	-0,350
102,787	186,845	-0,154	-0,161
103,801	-48,156	-0,342	-0,115
104,816	15,551	-0,356	-0,195
105,830	543,953	-0,134	-0,224
106,845	238,719	-0,194	-0,226
107,860	66,640	-0,323	-0,230
108,874	800,000	-0,110	-0,225
109,889	132,271	-0,271	-0,245
110,903	275,776	-0,231	-0,287
111,918	-118,798	-0,122	-0,015
112,933	52,463	-0,208	-0,139
113,947	156,965	-0,293	-0,284
114,962	9,731	-0,324	-0,172
115,976	518,269	-0,158	-0,260
116,991	193,271	-0,296	-0,314
118,006	9,807	-0,350	-0,185
119,020	-18,366	-0,306	-0,133
120,035	45,725	-0,179	-0,116
121,049	-16,577	-0,239	-0,105
122,064	291,478	-0,166	-0,212
123,079	34,152	-0,284	-0,173
124,093	-21,376	-0,267	-0,113
125,108	139,836	-0,320	-0,295
126,122	156,314	-0,265	-0,256
127,137	-46,606	-0,082	-0,028
128,151	138,706	-0,176	-0,162
129,166	78,845	-0,178	-0,133
130,181	183,940	-0,289	-0,299
131,195	-65,510	-0,347	-0,097
132,210	61,001	-0,235	-0,163
133,224	-9,027	-0,324	-0,151
134,239	92,002	-0,269	-0,212
135,254	-130,128	-0,288	-0,027
136,268	-200,000	-0,069	-0,217
137,283	287,384	-0,242	-0,306
138,297	171,371	-0,214	-0,215
139,312	-1,979	-0,209	-0,102
140,327	219,233	-0,242	-0,271
141,341	-27,958	-0,274	-0,110
142,356	3,282	-0,228	-0,115
143,370	36,915	-0,216	-0,133
144,385	94,755	-0,268	-0,213
145,400	-81,442	-0,168	-0,038
146,414	629,495	-0,194	-0,344
147,429	200,383	-0,098	-0,105
148,443	333,862	-0,227	-0,307
149,458	42,741	-0,180	-0,114
150,473	144,750	-0,158	-0,147
151,487	-176,357	-0,177	0,003
152,502	344,170	-0,194	-0,267
153,516	355,423	-0,212	-0,295
154,531	101,131	-0,289	-0,234
155,546	107,789	-0,233	-0,194
156,560	32,151	-0,263	-0,158
157,575	26,808	-0,217	-0,127
158,589	112,200	-0,275	-0,231
159,604	27,980	-0,274	-0,161
160,619	371,755	-0,187	-0,265
161,633	113,058	-0,271	-0,229
162,648	800,000	-0,108	-0,260
163,662	-15,798	-0,324	-0,143
164,677	605,443	-0,178	-0,310
165,692	38,309	-0,297	-0,184
166,706	20,699	-0,244	-0,137
167,721	68,617	-0,178	-0,127
168,735	210,817	-0,231	-0,253
169,750	90,046	-0,152	-0,118
170,764	189,876	-0,071	-0,074
171,779	-76,687	-0,238	-0,058
172,794	800,000	-0,117	-0,245
173,808	131,333	-0,144	-0,129
174,823	97,530	-0,170	-0,136
175,837	90,136	-0,169	-0,131
176,852	92,723	-0,309	-0,243
177,867	107,132	-0,204	-0,168
178,881	-96,661	-0,282	-0,051
179,896	15,311	-0,303	-0,165
180,910	76,796	-0,265	-0,196
181,925	56,691	-0,293	-0,198
182,940	-49,254	-0,280	-0,093
183,954	57,525	-0,215	-0,146
184,969	243,327	-0,220	-0,257
185,983	-15,932	-0,300	-0,132
186,998	-41,690	-0,295	-0,105
188,013	-200,000	-0,031	-0,188
189,027	213,225	-0,111	-0,122
190,042	627,507	-0,150	-0,265
191,056	200,281	-0,180	-0,193
192,071	366,526	-0,144	-0,202
193,086	112,163	-0,207	-0,174
194,100	68,683	-0,157	-0,112
195,115	319,913	-0,135	-0,178
196,129	12,330	-0,223	-0,119
197,144	-108,302	-0,219	-0,033
198,159	634,620	-0,116	-0,205
199,173	522,369	-0,152	-0,249
200,188	-7,060	-0,111	-0,052
201,202	-73,768	-0,209	-0,052
202,217	-86,914	-0,298	-0,063
203,232	43,061	-0,259	-0,164
204,246	96,798	-0,242	-0,193
205,261	244,831	-0,205	-0,239
206,275	42,169	-0,276	-0,174
207,290	800,000	0,065	-0,178
208,304	-200,000	-0,050	-0,181
209,319	0,554	-0,243	-0,120
210,334	412,675	-0,197	-0,291
211,348	88,547	-0,100	-0,077
212,363	-18,907	-0,281	-0,121
213,377	260,442	-0,114	-0,137
214,392	339,353	-0,030	-0,041
215,407	800,000	-0,075	-0,160
216,421	318,594	-0,125	-0,165
217,436	-92,538	-0,275	-0,053
218,450	-70,089	-0,187	-0,049
219,465	432,602	-0,163	-0,246
220,480	220,295	-0,117	-0,130
221,494	-33,154	-0,183	-0,070
222,509	-122,708	-0,091	-0,010
223,523	-9,858	-0,211	-0,097
224,538	800,000	-0,098	-0,203
225,553	39,412	-0,225	-0,139
226,567	207,331	-0,164	-0,178
227,582	51,310	-0,153	-0,101
228,596	-47,984	-0,237	-0,079
229,611	254,683	-0,101	-0,120
230,626	354,288	-0,102	-0,140
231,640	-41,695	-0,233	-0,083
232,655	-10,429	-0,206	-0,094
233,669	59,180	-0,246	-0,168
234,684	118,424	-0,247	-0,211
235,699	207,572	-0,171	-0,185
236,713	178,722	-0,097	-0,098
237,728	800,000	-0,129	-0,289
238,742	45,926	-0,194	-0,124
239,757	800,000	-0,057	-0,168
240,772	-132,578	-0,208	0,018
241,786	196,708	-0,135	-0,142
242,801	-68,087	-0,257	-0,069
243,815	7,734	-0,204	-0,106
244,830	-80,845	-0,145	-0,033
245,844	154,327	-0,091	-0,087
246,859	-46,620	-0,178	-0,060
247,874	25,090	-0,329	-0,188
248,888	718,695	-0,153	-0,282
249,903	5,885	-0,236	-0,121
250,917	86,216	-0,270	-0,205
251,932	99,430	-0,177	-0,142
252,947	519,930	-0,115	-0,187
253,961	-175,636	-0,207	-0,004
254,976	17,696	-0,233	-0,128
255,990	61,887	-0,180	-0,124
257,005	167,006	-0,104	-0,102
258,020	360,108	-0,192	-0,266
259,034	-169,035	-0,239	-0,006
260,049	800,000	-0,066	-0,175
261,063	51,463	-0,248	-0,163
262,078	338,969	-0,146	-0,197
263,093	472,974	-0,113	-0,177
264,107	-5,456	-0,150	0,071
265,122	19,496	-0,100	-0,055
266,136	-10,969	-0,144	-0,066
267,151	800,000	-0,086	-0,225
268,166	121,990	-0,180	-0,155
269,180	438,530	-0,165	-0,250
270,195	89,916	-0,246	-0,190
271,209	-67,363	-0,169	0,045
272,224	-200,000	-0,056	-0,251
273,239	198,768	-0,112	-0,118
274,253	35,925	-0,158	-0,096
275,268	97,893	-0,250	-0,198
276,282	-30,967	-0,307	-0,119
277,297	121,174	-0,187	-0,160
278,312	758,716	-0,097	-0,181
279,326	67,376	-0,169	-0,119
280,341	50,188	-0,128	-0,083
281,355	31,796	-0,254	-0,150
282,370	800,000	-0,075	-0,180
283,384	800,000	-0,058	-0,135
284,399	800,000	-0,076	-0,169
285,414	82,717	-0,168	-0,126
286,428	101,672	-0,228	-0,184
287,443	800,000	-0,156	-0,302
288,457	431,794	-0,067	-0,101
289,472	125,246	-0,198	-0,172
290,487	136,109	-0,290	-0,260
291,501	47,355	-0,241	-0,155
292,516	-68,440	-0,223	-0,059
293,530	-118,234	-0,183	-0,022
294,545	800,000	-0,062	-0,160
295,560	-25,587	0,041	-0,016
296,574	85,688	-0,043	0,033
297,589	-115,265	-0,246	-0,032
298,603	419,337	-0,078	-0,115
299,618	322,198	-0,082	-0,108
300,633	693,246	-0,060	-0,110
301,647	96,721	-0,054	0,043
302,662	-109,921	-0,227	-0,032
303,676	-79,297	-0,163	-0,038
304,691	79,991	-0,138	-0,102
305,706	168,485	-0,158	-0,155
306,720	-66,904	-0,186	-0,050
307,735	130,076	-0,264	-0,232
308,749	190,985	-0,054	0,056
309,764	-92,852	-0,070	-0,013
310,779	800,000	-0,064	-0,132
311,793	-114,796	-0,154	0,020
312,808	800,000	-0,096	-0,252
313,822	-165,042	-0,155	0,005
314,837	285,429	-0,186	-0,231
315,852	7,777	-0,188	-0,097
316,866	173,205	-0,135	-0,134
317,881	404,870	-0,129	-0,188
318,895	800,000	-0,027	-0,073
319,910	-148,760	-0,207	0,011
320,925	70,592	-0,208	-0,147
321,939	-77,180	-0,265	-0,063
322,954	-75,627	-0,042	-0,010
323,968	-28,687	-0,171	-0,067
324,983	800,000	-0,120	-0,269
325,997	788,800	-0,096	-0,181
327,012	216,744	-0,138	-0,152
328,027	233,566	-0,101	-0,114
329,041	619,644	-0,036	-0,062
330,056	800,000	-0,075	-0,176
331,070	-200,000	-0,028	-0,124
332,085	12,764	-0,103	-0,054
333,100	-4,460	-0,161	-0,076
334,114	-200,000	-0,043	-0,134
335,129	800,000	-0,061	-0,168
336,143	111,154	-0,086	-0,071
337,158	156,494	-0,062	-0,059
338,173	-124,796	-0,109	0,011
339,187	368,343	-0,041	-0,057
340,202	59,415	-0,106	0,071
341,216	217,634	-0,187	-0,205
342,231	-25,273	-0,114	-0,046
343,246	412,691	-0,098	-0,144
344,260	93,475	-0,144	-0,112
345,275	800,000	-0,059	0,123
346,289	800,000	-0,051	-0,139
347,304	-200,000	0,024	-0,100
348,319	-106,141	-0,121	0,018
349,333	-200,000	-0,044	-0,136
350,348	152,128	-0,182	-0,171
351,362	469,478	-0,097	-0,150
352,377	-200,000	-0,045	-0,190
353,392	-90,710	-0,031	-0,006
354,406	-165,843	-0,150	0,004
355,421	208,708	1310,710	1407,160
356,435	160,606	1470,945	1407,670
