DTS Sentinel unit serial number:	SN410029Multiplexer serial number:	ORYXHardware model number:	OX2-SRSoftware version number:	ORYX F/W v4,00 Oryx Data Collector v3.7.2.0data status	okinstallation	B3 Nyhavnadifferential loss correction	single-endedforward channel	channel 1reverse channel	N/Adate	2023/12/05time	09:27:30forward acquisition time	300,00reverse acquisition time	0,00gamma	499,1914k internal	0,3196k external	0,3196temperature offset calibration	1,0000default loss term (dB/km)	0,3820temperature slope calibration	1,0000multiplexer offset coefficient	1,0000multiplexer slope coefficient	1,0000fibre end	0,00T internal ref (°C)	11,60T ext. ref 1 (°C)	-4,30T ext. ref 2 (°C)	-4,59length (m)	temperature (°C)	Stokes	anti-Stokes-744,400	255,171	-0,039	-0,049
-743,385	-200,000	-0,075	0,000
-742,371	-200,000	0,004	-0,054
-741,356	43,278	-0,173	0,115
-740,342	800,000	-0,035	-0,090
-739,327	-23,039	-0,214	0,093
-738,312	287,501	-0,176	-0,232
-737,298	-34,186	-0,166	0,066
-736,283	-200,000	0,001	-0,024
-735,269	237,297	-0,179	0,216
-734,254	-70,000	-0,123	0,034
-733,239	-97,168	-0,353	-0,066
-732,225	-184,329	-0,068	-0,001
-731,210	-2,307	0,072	0,037
-730,196	-23,580	-0,113	-0,049
-729,181	14,234	0,044	-0,025
-728,167	800,000	0,037	0,076
-727,152	791,937	-0,057	0,116
-726,137	-80,537	-0,148	-0,036
-725,123	661,656	-0,036	-0,069
-724,108	639,685	-0,058	-0,108
-723,094	15,298	-0,134	-0,076
-722,079	-200,000	-0,010	-0,078
-721,064	601,618	0,014	-0,025
-720,050	-55,876	-0,115	-0,037
-719,035	428,975	0,079	-0,125
-718,021	90,863	0,036	0,030
-717,006	-200,000	0,001	-0,112
-715,991	-200,000	-0,031	-0,173
-714,977	-200,000	0,013	-0,062
-713,962	-200,000	-0,023	-0,074
-712,948	109,320	-0,055	-0,048
-711,933	-85,717	-0,059	-0,013
-710,918	-16,661	-0,115	-0,053
-709,904	59,798	-0,050	-0,036
-708,889	800,000	-0,070	-0,179
-707,875	-200,000	-0,026	-0,102
-706,860	-16,157	-0,061	0,028
-705,845	-200,000	-0,005	0,115
-704,831	746,033	-0,031	-0,060
-703,816	0,093	0,083	-0,043
-702,802	-200,000	-0,031	-0,145
-701,787	800,000	-0,053	-0,144
-700,772	69,222	0,081	-0,061
-699,758	-78,073	0,109	0,027
-698,743	-65,030	0,041	0,012
-697,729	342,341	0,052	0,074
-696,714	-200,000	0,015	0,070
-695,699	-36,815	-0,089	0,035
-694,685	-200,000	0,011	-0,043
-693,670	55,002	0,036	-0,025
-692,656	370,998	0,073	0,108
-691,641	-200,000	0,024	-0,123
-690,627	-200,000	0,001	0,155
-689,612	17,695	0,159	-0,092
-688,597	133,135	-0,079	-0,074
-687,583	-200,000	0,018	-0,278
-686,568	-200,000	-0,005	0,097
-685,554	-200,000	0,020	-0,211
-684,539	-39,076	0,040	-0,015
-683,524	13,478	0,068	-0,038
-682,510	-87,424	-0,155	0,034
-681,495	800,000	0,058	-0,145
-680,481	800,000	-0,060	-0,189
-679,466	-3,915	-0,094	0,047
-678,451	-200,000	-0,032	-0,125
-677,437	9,728	-0,044	-0,024
-676,422	-132,114	0,109	-0,010
-675,408	49,211	0,008	0,005
-674,393	29,545	-0,076	-0,047
-673,378	800,000	-0,065	-0,149
-672,364	82,488	0,009	0,007
-671,349	-42,236	-0,014	0,005
-670,335	357,441	-0,056	0,082
-669,320	-73,461	-0,053	-0,014
-668,305	-200,000	-0,023	-0,150
-667,291	-124,951	-0,130	0,014
-666,276	-200,000	0,042	-0,146
-665,262	-47,197	-0,052	-0,018
-664,247	19,903	-0,027	-0,016
-663,232	60,118	-0,041	0,029
-662,218	99,201	0,056	-0,047
-661,203	2,476	-0,081	0,043
-660,189	-200,000	-0,006	0,104
-659,174	463,681	0,022	0,035
-658,159	302,677	-0,037	-0,050
-657,145	-181,023	-0,124	-0,002
-656,130	-152,888	-0,116	-0,006
-655,116	-36,870	-0,026	0,010
-654,101	152,345	-0,082	-0,081
-653,086	-22,284	-0,049	0,021
-652,072	-87,318	-0,075	-0,016
-651,057	800,000	-0,037	-0,115
-650,043	8,890	-0,058	0,032
-649,028	236,359	0,087	0,105
-648,014	99,383	0,080	-0,068
-646,999	-23,625	-0,073	-0,031
-645,984	-74,203	-0,055	-0,014
-644,970	144,652	-0,100	-0,097
-643,955	-83,641	0,176	0,041
-642,941	-4,471	-0,122	-0,061
-641,926	10,023	0,027	-0,015
-640,911	424,646	0,080	-0,126
-639,897	91,265	0,045	-0,037
-638,882	90,349	-0,090	-0,073
-637,868	297,540	-0,019	-0,025
-636,853	-200,000	-0,004	-0,225
-635,838	800,000	0,036	-0,102
-634,824	-200,000	-0,011	0,084
-633,809	-200,000	0,037	0,168
-632,795	-131,375	0,090	0,008
-631,780	274,108	-0,058	-0,075
-630,765	106,534	0,006	-0,005
-629,751	-51,264	-0,012	-0,004
-628,736	-200,000	0,001	-0,041
-627,722	575,123	-0,013	-0,023
-626,707	-112,832	-0,010	0,001
-625,692	-200,000	0,032	0,147
-624,678	-53,540	0,098	0,032
-623,663	671,041	0,027	-0,051
-622,649	124,218	0,078	-0,071
-621,634	59,768	-0,074	0,053
-620,619	109,690	-0,028	-0,024
-619,605	51,646	-0,019	0,013
-618,590	470,465	0,048	0,079
-617,576	-167,655	0,227	-0,006
-616,561	130,457	-0,036	-0,034
-615,546	-93,977	-0,129	-0,026
-614,532	79,974	0,081	-0,063
-613,517	171,153	-0,098	-0,102
-612,503	800,000	0,009	-0,023
-611,488	505,368	0,038	0,064
-610,474	26,444	-0,103	-0,063
-609,459	292,299	-0,025	-0,033
-608,444	-135,583	-0,199	-0,017
-607,430	30,043	-0,183	0,113
-606,415	-174,730	0,039	-0,001
-605,401	331,830	-0,026	0,037
-604,386	137,239	0,073	0,069
-603,371	-200,000	-0,007	0,068
-602,357	-23,160	0,009	0,004
-601,342	-167,845	-0,134	0,004
-600,328	-200,000	-0,006	-0,182
-599,313	191,218	-0,089	-0,097
-598,298	-68,946	-0,093	0,026
-597,284	-200,000	0,019	-0,096
-596,269	49,959	-0,025	-0,017
-595,255	800,000	0,003	0,008
-594,240	-29,027	-0,133	0,055
-593,225	800,000	-0,043	-0,108
-592,211	-200,000	-0,006	-0,073
-591,196	347,328	-0,071	-0,101
-590,182	-178,959	0,153	0,002
-589,167	192,335	-0,049	-0,054
-588,152	-73,901	-0,169	-0,044
-587,138	800,000	0,019	-0,057
-586,123	-99,228	-0,078	-0,014
-585,109	253,817	-0,104	0,129
-584,094	-200,000	-0,000	0,150
-583,079	-42,685	0,060	-0,022
-582,065	-161,631	0,096	-0,003
-581,050	-200,000	-0,017	0,070
-580,036	198,911	-0,072	0,080
-579,021	-200,000	0,016	-0,157
-578,006	-141,957	-0,094	0,007
-576,992	652,753	-0,067	0,125
-575,977	8,681	0,164	0,089
-574,963	-200,000	-0,023	0,079
-573,948	-62,166	-0,022	-0,007
-572,934	-127,570	0,073	-0,008
-571,919	800,000	-0,044	-0,102
-570,904	-35,735	0,052	-0,020
-569,890	-10,741	-0,013	-0,006
-568,875	-82,414	0,145	-0,034
-567,861	-200,000	-0,002	0,049
-566,846	800,000	-0,007	0,014
-565,831	-39,003	0,038	0,014
-564,817	-200,000	-0,036	0,140
-563,802	-102,616	0,017	0,003
-562,788	-200,000	0,031	0,119
-561,773	-147,950	0,083	-0,005
-560,758	800,000	-0,029	0,078
-559,744	-200,000	-0,030	0,113
-558,729	-200,000	-0,012	0,046
-557,715	337,846	-0,107	0,151
-556,700	266,609	-0,069	0,088
-555,685	-54,909	0,059	-0,019
-554,671	-110,781	-0,039	0,006
-553,656	-72,900	0,133	0,035
-552,642	-200,000	-0,012	0,080
-551,627	55,153	-0,034	-0,024
-550,612	-200,000	0,030	-0,121
-549,598	-200,000	-0,177	-0,001
-548,583	-200,000	-0,021	-0,112
-547,569	-114,574	0,172	-0,024
-546,554	-148,427	-0,221	-0,013
-545,539	-200,000	-0,019	0,115
-544,525	347,798	0,039	-0,055
-543,510	-86,389	-0,152	-0,034
-542,496	800,000	0,038	-0,096
-541,481	73,023	-0,172	-0,129
-540,466	197,951	-0,072	-0,080
-539,452	185,492	0,063	0,068
-538,437	-12,037	-0,027	-0,013
-537,423	370,617	0,051	-0,075
-536,408	800,000	0,028	0,072
-535,393	800,000	0,050	0,109
-534,379	-200,000	0,026	-0,085
-533,364	96,918	0,018	-0,015
-532,350	-200,000	-0,006	-0,061
-531,335	262,364	0,074	-0,092
-530,321	271,651	-0,068	0,086
-529,306	54,653	0,030	0,021
-528,291	449,609	0,025	-0,039
-527,277	-200,000	0,005	-0,151
-526,262	-200,000	0,052	0,185
-525,248	-200,000	0,004	0,045
-524,233	-44,591	0,068	-0,025
-523,218	284,740	0,045	0,058
-522,204	202,825	0,086	0,096
-521,189	405,355	-0,029	-0,045
-520,175	-19,439	-0,188	-0,084
-519,160	25,158	-0,035	0,021
-518,145	16,038	0,056	0,032
-517,131	614,333	0,035	-0,064
-516,116	-59,618	-0,087	-0,027
-515,102	800,000	0,032	0,095
-514,087	95,048	-0,087	-0,071
-513,072	800,000	0,031	-0,085
-512,058	-34,419	0,026	0,010
-511,043	84,134	-0,019	0,015
-510,029	83,810	0,072	0,057
-509,014	-26,798	0,073	0,031
-507,999	800,000	-0,039	-0,096
-506,985	800,000	0,021	0,062
-505,970	101,416	-0,107	-0,090
-504,956	-95,389	-0,123	-0,024
-503,941	121,585	-0,071	0,064
-502,926	193,800	-0,047	-0,052
-501,912	-200,000	-0,030	0,165
-500,897	800,000	-0,057	-0,163
-499,883	140,840	-0,020	-0,019
-498,868	800,000	-0,062	-0,140
-497,853	181,084	0,032	0,034
-496,839	32,864	0,064	-0,040
-495,824	-200,000	0,008	0,127
-494,810	87,753	0,092	0,074
-493,795	-164,860	-0,101	0,003
-492,781	-200,000	-0,015	0,090
-491,766	-200,000	0,013	0,085
-490,751	-165,125	0,011	-0,000
-489,737	-200,000	0,001	-0,085
-488,722	-200,000	0,012	0,088
-487,708	517,700	-0,048	0,081
-486,693	91,867	-0,039	0,031
-485,678	159,094	0,035	-0,035
-484,664	-32,349	-0,089	-0,036
-483,649	-200,000	-0,049	-0,178
-482,635	67,716	0,061	-0,045
-481,620	800,000	-0,024	0,068
-480,605	-109,486	-0,143	-0,022
-479,591	800,000	-0,026	-0,054
-478,576	-171,101	0,096	-0,002
-477,562	-60,065	-0,181	-0,055
-476,547	-108,019	0,125	-0,019
-475,532	-128,324	0,056	0,006
-474,518	179,538	0,099	0,105
-473,503	75,896	0,084	0,064
-472,489	-53,271	0,030	-0,010
-471,474	-76,929	-0,212	0,053
-470,459	800,000	-0,030	-0,065
-469,445	37,986	0,090	-0,057
-468,430	448,689	-0,052	-0,083
-467,416	-45,867	0,098	0,035
-466,401	291,538	-0,041	0,054
-465,386	-200,000	0,011	-0,051
-464,372	800,000	-0,041	-0,120
-463,357	121,645	-0,109	-0,098
-462,343	39,914	-0,061	0,039
-461,328	800,000	0,023	-0,070
-460,313	-200,000	0,025	0,109
-459,299	173,915	0,094	-0,098
-458,284	-200,000	0,008	0,067
-457,270	378,978	0,038	0,056
-456,255	572,745	-0,046	0,081
-455,241	-200,000	-0,006	-0,047
-454,226	-63,051	-0,044	-0,013
-453,211	32,724	-0,139	-0,087
-452,197	-132,184	0,163	-0,015
-451,182	270,935	-0,120	0,153
-450,168	140,429	-0,098	0,093
-449,153	88,872	0,081	0,065
-448,138	-38,993	-0,177	-0,067
-447,124	-156,924	0,036	-0,002
-446,109	58,603	-0,069	0,049
-445,095	-149,108	0,077	-0,004
-444,080	-200,000	-0,016	0,054
-443,065	-135,966	0,182	0,015
-442,051	-10,866	-0,073	-0,035
-441,036	-14,996	0,036	-0,016
-440,022	234,821	-0,084	-0,100
-439,007	311,155	-0,142	-0,192
-437,992	-21,225	-0,114	-0,050
-436,978	-75,923	0,096	0,024
-435,963	183,700	-0,042	0,045
-434,949	619,255	-0,012	-0,023
-433,934	-110,804	0,080	-0,012
-432,919	-200,000	0,019	-0,097
-431,905	194,076	0,056	-0,061
-430,890	347,807	-0,026	0,036
-429,876	42,132	0,069	-0,045
-428,861	-200,000	-0,054	0,177
-427,846	-12,804	-0,158	-0,074
-426,832	25,124	-0,081	-0,048
-425,817	-200,000	0,014	-0,159
-424,803	-200,000	0,001	-0,024
-423,788	-17,413	-0,085	0,038
-422,773	-200,000	0,035	-0,141
-421,759	118,244	0,068	0,060
-420,744	198,831	-0,057	-0,063
-419,730	-141,073	-0,094	-0,007
-418,715	-200,000	-0,021	-0,091
-417,701	237,987	0,062	0,074
-416,686	335,382	0,058	0,081
-415,671	-200,000	0,013	0,102
-414,657	327,066	0,035	0,049
-413,642	800,000	-0,014	-0,040
-412,628	-200,000	0,000	0,061
-411,613	-200,000	-0,027	-0,110
-410,598	23,432	-0,011	0,006
-409,584	-200,000	-0,027	0,194
-408,569	110,037	0,056	0,049
-407,555	-200,000	0,026	0,095
-406,540	800,000	0,051	-0,134
-405,525	45,304	0,052	-0,035
-404,511	-200,000	-0,036	-0,125
-403,496	800,000	-0,011	-0,034
-402,482	290,656	0,121	0,158
-401,467	-76,043	0,117	-0,030
-400,452	94,192	0,140	0,114
-399,438	800,000	0,034	0,107
-398,423	1,636	-0,168	0,087
-397,409	800,000	-0,011	0,032
-396,394	-29,179	-0,147	-0,060
-395,379	-77,751	0,163	-0,040
-394,365	97,041	0,029	-0,024
-393,350	800,000	0,042	0,086
-392,336	83,443	0,041	0,032
-391,321	-200,000	-0,015	-0,053
-390,306	440,800	-0,050	-0,078
-389,292	-87,517	0,130	-0,028
-388,277	60,818	0,112	0,080
-387,263	-200,000	-0,012	0,146
-386,248	-43,795	0,193	0,069
-385,233	-56,655	0,107	-0,034
-384,219	-200,000	-0,005	0,062
-383,204	-84,920	0,088	-0,020
-382,190	-200,000	0,005	0,130
-381,175	-86,393	0,091	0,020
-380,160	800,000	0,016	-0,042
-379,146	319,226	0,040	-0,055
-378,131	-85,570	0,074	-0,016
-377,117	-200,000	0,012	0,128
-376,102	64,741	0,003	-0,003
-375,088	-132,175	0,066	-0,006
-374,073	-148,379	0,032	-0,002
-373,058	-200,000	0,003	0,017
-372,044	-105,299	0,052	0,008
-371,029	-49,417	-0,060	-0,020
-370,015	-94,391	0,038	0,007
-369,000	-7,337	-0,059	0,029
-367,985	-200,000	-0,012	-0,114
-366,971	-82,678	0,017	-0,004
-365,956	-200,000	0,017	-0,150
-364,942	800,000	-0,037	0,086
-363,927	-54,958	0,163	-0,053
-362,912	-200,000	0,020	0,101
-361,898	-200,000	-0,006	-0,041
-360,883	-59,239	-0,076	0,023
-359,869	29,881	-0,015	0,009
-358,854	-200,000	0,005	-0,051
-357,839	800,000	0,017	0,048
-356,825	29,141	0,076	0,046
-355,810	-200,000	-0,020	0,084
-354,796	175,771	-0,061	0,063
-353,781	128,603	-0,040	0,037
-352,766	142,596	-0,043	0,041
-351,752	90,996	0,065	-0,052
-350,737	-96,674	0,091	-0,017
-349,723	-104,492	-0,114	0,019
-348,708	-200,000	-0,008	-0,060
-347,693	139,176	-0,033	0,031
-346,679	-144,250	-0,081	0,005
-345,664	-44,437	-0,053	0,019
-344,650	800,000	0,031	0,074
-343,635	11,280	0,035	0,019
-342,620	800,000	0,019	0,039
-341,606	-200,000	-0,008	0,026
-340,591	275,776	-0,037	0,048
-339,577	-200,000	0,008	0,083
-338,562	28,250	0,082	-0,049
-337,548	221,683	-0,044	-0,051
-336,533	800,000	0,007	0,019
-335,518	145,470	0,055	-0,053
-334,504	-200,000	-0,035	0,181
-333,489	727,066	0,027	0,053
-332,475	311,195	0,132	-0,178
-331,460	-200,000	0,015	-0,075
-330,445	488,628	-0,052	0,086
-329,431	60,539	0,050	0,035
-328,416	-200,000	-0,006	-0,050
-327,402	-200,000	0,001	0,091
-326,387	10,301	-0,086	-0,047
-325,372	-200,000	-0,005	-0,020
-324,358	-200,000	-0,008	-0,118
-323,343	64,821	0,164	-0,118
-322,329	-200,000	0,017	0,071
-321,314	117,102	0,052	-0,046
-320,299	800,000	-0,044	0,112
-319,285	-200,000	-0,007	0,053
-318,270	-200,000	0,010	-0,050
-317,256	6,857	-0,054	-0,029
-316,241	42,878	-0,107	0,070
-315,226	-200,000	-0,040	0,135
-314,212	-200,000	-0,022	0,108
-313,197	-57,914	-0,048	0,015
-312,183	-6,918	0,192	-0,093
-311,168	605,361	-0,020	-0,035
-310,153	800,000	-0,016	0,040
-309,139	775,546	0,071	-0,139
-308,124	800,000	0,017	-0,051
-307,110	800,000	0,021	-0,044
-306,095	-200,000	-0,008	0,053
-305,080	-109,648	0,042	-0,006
-304,066	34,308	-0,122	-0,076
-303,051	357,455	0,065	-0,093
-302,037	-200,000	0,001	0,076
-301,022	97,254	-0,102	-0,084
-300,008	619,809	0,081	-0,146
-298,993	253,970	-0,032	-0,039
-297,978	85,900	0,115	-0,090
-296,964	101,095	-0,112	0,093
-295,949	800,000	-0,066	-0,166
-294,935	-200,000	-0,006	-0,148
-293,920	-200,000	-0,005	-0,095
-292,905	800,000	0,056	-0,126
-291,891	-200,000	0,016	0,068
-290,876	-47,199	0,061	-0,021
-289,862	678,746	-0,051	-0,095
-288,847	-131,313	-0,034	0,003
-287,832	-135,531	-0,170	-0,014
-286,818	284,131	0,093	-0,120
-285,803	154,330	0,051	0,050
-284,789	-200,000	-0,000	-0,117
-283,774	-200,000	-0,024	0,084
-282,759	-200,000	-0,041	0,169
-281,745	557,317	0,086	0,149
-280,730	131,703	-0,058	-0,053
-279,716	10,930	0,032	0,017
-278,701	421,506	0,069	-0,107
-277,686	572,168	-0,041	0,071
-276,672	221,615	-0,073	0,084
-275,657	-133,189	0,118	0,011
-274,643	-200,000	-0,011	0,102
-273,628	800,000	-0,065	-0,177
-272,613	186,028	0,030	-0,032
-271,599	-47,333	0,070	-0,024
-270,584	-186,609	0,127	0,001
-269,570	-200,000	0,025	0,142
-268,555	354,257	0,047	-0,067
-267,540	171,650	-0,099	0,102
-266,526	210,949	0,024	-0,027
-265,511	800,000	0,057	-0,131
-264,497	38,914	0,114	-0,073
-263,482	143,518	0,114	0,109
-262,467	-15,436	-0,010	0,005
-261,453	-200,000	0,017	0,071
-260,438	-18,598	-0,094	-0,042
-259,424	-6,104	0,013	-0,006
-258,409	-200,000	-0,004	-0,022
-257,395	134,587	0,052	-0,048
-256,380	4,653	0,087	-0,046
-255,365	-59,038	0,117	0,036
-254,351	721,730	0,088	0,168
-253,336	81,242	-0,048	-0,037
-252,322	-200,000	0,027	0,096
-251,307	756,134	-0,056	-0,110
-250,292	370,655	-0,046	-0,067
-249,278	484,943	-0,033	0,054
-248,263	-200,000	-0,011	0,082
-247,249	71,954	0,061	0,046
-246,234	46,687	0,130	-0,086
-245,219	-200,000	-0,029	-0,219
-244,205	800,000	0,054	-0,109
-243,190	-74,392	-0,133	-0,034
-242,176	234,103	0,072	-0,085
-241,161	474,847	-0,024	0,039
-240,146	800,000	0,057	0,145
-239,132	-200,000	0,037	-0,134
-238,117	405,615	0,014	-0,020
-237,103	-54,178	0,141	-0,046
-236,088	-200,000	0,001	-0,097
-235,073	-11,295	0,052	0,025
-234,059	336,834	0,085	0,119
-233,044	-138,130	0,087	0,007
-232,030	50,396	0,057	-0,038
-231,015	-200,000	-0,009	-0,044
-230,000	-200,000	0,018	0,088
-228,986	-8,648	-0,097	-0,046
-227,971	-176,054	-0,055	-0,001
-226,957	0,241	-0,130	-0,066
-225,942	-200,000	-0,026	0,138
-224,927	169,294	-0,160	0,163
-223,913	-54,070	-0,043	-0,014
-222,898	-123,233	-0,054	-0,006
-221,884	-163,165	0,069	-0,002
-220,869	75,851	-0,034	-0,025
-219,855	61,524	0,053	-0,038
-218,840	588,140	-0,066	0,116
-217,825	800,000	0,025	0,070
-216,811	-4,917	0,066	-0,032
-215,796	-33,628	-0,053	-0,021
-214,782	203,029	-0,056	-0,062
-213,767	-24,780	0,119	0,050
-212,752	413,729	0,014	-0,022
-211,738	-185,376	-0,105	-0,001
-210,723	348,598	-0,027	0,039
-209,709	-25,789	0,086	0,036
-208,694	-200,000	-0,007	-0,052
-207,679	50,351	-0,102	0,069
-206,665	357,311	-0,115	0,164
-205,650	-5,570	0,148	0,072
-204,636	209,068	0,009	0,010
-203,621	-200,000	-0,017	0,137
-202,606	-200,000	0,004	-0,033
-201,592	-75,448	-0,086	-0,022
-200,577	468,385	-0,033	0,052
-199,563	-84,803	-0,100	0,022
-198,548	533,750	0,093	0,157
-197,533	-32,965	-0,051	0,020
-196,519	23,734	0,052	0,031
-195,504	-200,000	0,001	0,108
-194,490	-49,130	-0,099	-0,034
-193,475	-200,000	-0,016	0,065
-192,460	-200,000	-0,009	-0,114
-191,446	122,680	-0,119	-0,106
-190,431	33,975	0,109	0,068
-189,417	369,513	0,047	0,068
-188,402	584,761	0,067	-0,119
-187,387	270,571	-0,024	0,031
-186,373	-200,000	0,013	-0,051
-185,358	800,000	0,029	-0,059
-184,344	-200,000	-0,021	0,079
-183,329	800,000	-0,013	0,025
-182,315	-200,000	0,003	0,099
-181,300	800,000	-0,030	0,085
-180,285	-71,536	-0,083	0,022
-179,271	251,758	-0,029	0,035
-178,256	-41,851	0,120	0,043
-177,242	69,348	0,110	0,080
-176,227	53,262	0,056	-0,038
-175,212	-113,788	0,114	0,016
-174,198	-18,224	0,099	-0,044
-173,183	93,479	-0,164	-0,132
-172,169	115,479	0,023	-0,020
-171,154	147,067	-0,122	-0,117
-170,139	200,741	0,102	0,112
-169,125	-179,639	-0,026	0,000
-168,110	-80,730	0,171	-0,040
-167,096	-131,291	-0,118	0,011
-166,081	-3,647	-0,093	-0,046
-165,066	126,723	0,063	0,057
-164,052	490,372	0,054	0,089
-163,037	800,000	0,030	0,076
-162,023	33,831	-0,066	-0,041
-161,008	-4,713	-0,086	0,042
-159,993	-113,837	0,059	-0,008
-158,979	798,174	-0,012	-0,024
-157,964	-200,000	-0,054	-0,268
-156,950	358,403	0,039	-0,055
-155,935	157,605	-0,076	0,075
-154,920	104,991	-0,041	0,035
-153,906	-200,000	-0,015	0,104
-152,891	800,000	-0,027	0,065
-151,877	-200,000	0,001	0,045
-150,862	-62,174	-0,044	-0,013
-149,847	375,795	-0,068	-0,098
-148,833	582,204	0,021	-0,037
-147,818	-13,471	0,066	0,030
-146,804	-22,070	0,050	0,021
-145,789	800,000	-0,010	0,026
-144,775	800,000	-0,032	-0,064
-143,760	641,031	-0,045	-0,082
-142,745	92,103	-0,096	0,077
-141,731	-200,000	0,002	-0,088
-140,716	42,496	0,153	-0,099
-139,702	-54,573	-0,095	0,031
-138,687	86,766	0,050	-0,039
-137,672	335,422	0,047	0,065
-136,658	194,851	-0,080	0,086
-135,643	-200,000	-0,003	0,061
-134,629	800,000	-0,009	0,019
-133,614	118,694	0,133	0,116
-132,599	-200,000	0,033	0,158
-131,585	-200,000	-0,016	-0,115
-130,570	163,594	0,029	0,029
-129,556	-59,310	-0,089	0,027
-128,541	-99,589	0,086	-0,015
-127,526	-200,000	-0,032	-0,133
-126,512	6,739	0,027	0,014
-125,497	-46,338	0,094	0,033
-124,483	151,012	0,086	0,083
-123,468	217,623	0,056	-0,064
-122,453	-200,000	0,017	-0,131
-121,439	-200,000	-0,011	-0,062
-120,424	-129,082	-0,130	-0,013
-119,410	-75,597	-0,103	-0,026
-118,395	13,216	0,131	0,072
-117,380	-97,896	-0,086	-0,016
-116,366	-200,000	-0,002	-0,047
-115,351	-78,688	-0,129	0,031
-114,337	-69,298	-0,106	0,029
-113,322	-78,119	-0,099	-0,024
-112,307	-200,000	-0,014	-0,137
-111,293	257,234	-0,021	0,026
-110,278	-200,000	-0,006	0,114
-109,264	-200,000	-0,012	0,074
-108,249	67,496	0,070	-0,051
-107,234	-200,000	-0,022	-0,085
-106,220	-200,000	-0,020	0,126
-105,205	445,107	0,029	0,045
-104,191	491,926	0,065	0,106
-103,176	-16,005	-0,136	-0,061
-102,162	-69,950	-0,054	0,015
-101,147	-200,000	-0,006	-0,130
-100,132	-200,000	0,019	-0,132
-99,118	-130,407	-0,153	-0,015
-98,103	239,658	-0,029	0,034
-97,089	1,400	-0,170	-0,087
-96,074	-31,248	0,121	-0,048
-95,059	800,000	0,024	0,070
-94,045	800,000	0,020	-0,039
-93,030	98,939	-0,039	0,032
-92,016	55,880	-0,100	0,069
-91,001	238,131	0,009	0,010
-89,986	-200,000	0,022	-0,107
-88,972	-54,676	0,106	0,034
-87,957	3,575	0,045	-0,023
-86,943	-97,618	0,074	0,014
-85,928	-200,000	-0,002	-0,065
-84,913	539,641	0,061	0,103
-83,899	379,426	-0,059	0,085
-82,884	-8,745	0,109	0,052
-81,870	164,906	0,089	0,090
-80,855	-85,190	0,143	-0,032
-79,840	-36,683	0,063	0,024
-78,826	5,329	-0,080	-0,042
-77,811	65,278	0,147	-0,106
-76,797	-134,314	-0,047	0,004
-75,782	-130,453	0,106	0,010
-74,767	-130,776	0,184	-0,017
-73,753	-55,463	-0,018	-0,006
-72,738	136,896	0,084	-0,078
-71,724	-200,000	-0,014	-0,051
-70,709	800,000	-0,053	-0,148
-69,694	-40,538	0,150	-0,055
-68,680	611,829	0,039	-0,069
-67,665	-132,083	-0,029	-0,003
-66,651	280,743	0,058	0,074
-65,636	-104,630	-0,124	-0,020
-64,622	800,000	0,010	0,028
-63,607	-140,878	-0,070	-0,005
-62,592	800,000	-0,019	0,054
-61,578	352,942	-0,051	0,073
-60,563	-200,000	-0,010	0,050
-59,549	800,000	0,007	0,015
-58,534	25,817	-2,050	-1,209
-57,519	676,782	-0,657	-1,216
-56,505	-200,000	-1,096	-4,938
-55,490	176,351	0,947	0,976
-54,476	800,000	5,193	11,770
-53,461	-200,000	20,273	329,736
-52,446	800,000	754,184	2323,917
-51,432	548,941	1661,929	2834,771
-50,417	74,112	1669,861	1241,599
-49,403	19,451	1543,673	877,431
-48,388	13,456	1466,918	804,540
-47,373	18,200	1457,268	822,208
-46,359	15,851	1446,843	805,000
-45,344	11,718	1442,578	782,734
-44,330	11,657	1440,452	781,255
-43,315	11,642	1438,578	780,135
-42,300	11,675	1436,930	779,368
-41,286	11,698	1435,448	778,645
-40,271	11,651	1434,439	777,843
-39,257	11,588	1433,534	777,020
-38,242	11,682	1432,013	776,612
-37,227	11,692	1430,809	775,978
-36,213	11,667	1429,571	775,155
-35,198	11,669	1428,497	774,553
-34,184	11,701	1427,433	774,095
-33,169	11,661	1426,063	773,132
-32,154	11,738	1424,896	772,834
-31,140	11,745	1423,551	772,108
-30,125	11,756	1422,505	771,561
-29,111	11,746	1421,403	770,888
-28,096	11,688	1420,433	770,055
-27,082	11,631	1419,188	769,082
-26,067	11,649	1418,109	768,552
-25,052	11,666	1416,941	767,964
-24,038	11,656	1416,121	767,446
-23,023	11,610	1415,355	766,782
-22,009	11,612	1414,155	766,112
-20,994	11,577	1413,314	765,460
-19,979	11,617	1412,154	764,990
-18,965	11,581	1411,301	764,329
-17,950	11,622	1410,190	763,886
-16,936	11,613	1409,496	763,440
-15,921	11,472	1408,714	762,326
-14,906	11,488	1407,828	761,891
-13,892	11,534	1406,787	761,510
-12,877	11,555	1405,765	761,029
-11,863	11,567	1404,948	760,608
-10,848	11,494	1404,140	759,801
-9,833	11,472	1403,108	759,111
-8,819	11,439	1402,430	758,559
-7,804	11,473	1401,390	758,123
-6,790	11,428	1400,580	757,446
-5,775	11,452	1399,357	756,868
-4,760	11,454	1398,462	756,360
-3,746	11,446	1397,221	755,623
-2,731	11,455	1396,791	755,402
-1,717	11,443	1395,710	754,734
-0,702	11,453	1394,039	753,843
0,313	15,543	1307,997	726,208
1,327	31,834	697,098	424,446
2,342	49,343	120,859	80,420
3,356	-1,308	16,487	8,221
4,371	4,038	3,142	1,623
5,386	-40,986	0,626	0,228
6,400	-200,000	0,011	0,344
7,415	247,890	-0,184	-0,220
8,429	-73,805	-0,360	-0,092
9,444	131,138	-0,322	-0,293
10,459	-49,261	-0,380	-0,128
11,473	101,327	-0,289	-0,239
12,488	169,668	-0,183	-0,185
13,502	25,041	-0,235	-0,138
14,517	-28,588	-0,266	-0,108
15,531	272,674	-0,296	-0,370
16,546	4,857	-0,489	-0,254
17,561	149,630	-0,279	-0,268
18,575	-47,908	-0,254	-0,087
19,590	41,216	-0,264	-0,168
20,604	68,535	-0,302	-0,219
21,619	109,041	-0,376	-0,318
22,634	147,330	-0,426	-0,406
23,648	205,704	-0,363	-0,400
24,663	258,361	-0,329	-0,401
25,677	107,882	-0,349	-0,294
26,692	55,928	-0,190	-0,130
27,707	96,719	-0,369	-0,299
28,721	5,506	-0,447	-0,233
29,736	51,200	-0,416	-0,279
30,750	160,092	-0,503	-0,496
31,765	135,321	-0,442	-0,407
32,780	162,130	-0,338	-0,335
33,794	20,686	-0,341	-0,195
34,809	35,044	-0,356	-0,220
35,823	82,075	-0,317	-0,242
36,838	-15,826	-0,295	-0,132
37,853	154,746	-0,328	-0,319
38,867	53,992	-0,459	-0,312
39,882	27,935	-0,337	-0,200
40,896	-62,096	-0,308	-0,090
41,911	1,392	-0,379	-0,192
42,926	59,735	-0,346	-0,241
43,940	80,974	-0,339	-0,258
44,955	103,731	-0,356	-0,295
45,969	87,105	-0,370	-0,288
46,984	-90,177	-0,279	-0,057
47,999	800,000	-0,168	-0,334
49,013	88,930	-0,306	-0,241
50,028	5,666	-0,342	-0,178
51,042	-2,201	-0,365	-0,180
52,057	4,394	-0,339	-0,175
53,071	54,335	-0,389	-0,264
54,086	207,724	-0,192	-0,212
55,101	207,047	-0,168	-0,185
56,115	63,609	-0,277	-0,196
57,130	-4,807	-0,417	-0,202
58,144	81,752	-0,259	-0,198
59,159	26,376	-0,480	-0,282
60,174	154,750	-0,298	-0,289
61,188	-61,497	-0,231	-0,068
62,203	-49,202	-0,241	-0,081
63,217	14,738	-0,253	-0,139
64,232	40,454	-0,365	-0,231
65,247	-67,882	-0,335	-0,092
66,261	166,341	-0,278	-0,277
67,276	42,866	-0,333	-0,214
68,290	5,629	-0,339	-0,176
69,305	53,796	-0,410	-0,277
70,320	-6,181	-0,258	-0,124
71,334	103,998	-0,323	-0,267
72,349	174,710	-0,343	-0,350
73,363	9,259	-0,300	-0,159
74,378	-125,277	-0,372	-0,040
75,393	105,142	-0,244	-0,202
76,407	-68,094	-0,375	-0,102
77,422	-152,959	-0,308	-0,015
78,436	-23,786	-0,295	-0,124
79,451	88,912	-0,388	-0,304
80,466	98,705	-0,361	-0,293
81,480	160,552	-0,277	-0,272
82,495	218,410	-0,140	-0,158
83,509	525,235	-0,211	-0,350
84,524	24,936	-0,300	-0,175
85,539	169,392	-0,194	-0,195
86,553	36,322	-0,274	-0,169
87,568	-79,404	-0,392	-0,092
88,582	117,600	-0,265	-0,229
89,597	-25,857	-0,394	-0,162
90,611	180,848	-0,219	-0,227
91,626	307,706	-0,170	-0,223
92,641	62,129	-0,327	-0,229
93,655	21,739	-0,312	-0,178
94,670	-36,131	-0,310	-0,117
95,684	69,638	-0,317	-0,230
96,699	21,080	-0,285	-0,162
97,714	-24,747	-0,297	-0,124
98,728	47,357	-0,261	-0,171
99,743	1,846	-0,244	-0,123
100,757	7,835	-0,366	-0,192
101,772	215,976	-0,294	-0,329
102,787	76,515	-0,373	-0,277
103,801	93,102	-0,382	-0,303
104,816	-27,350	-0,325	-0,132
105,830	-69,228	-0,293	-0,079
106,845	87,285	-0,118	-0,092
107,860	-1,160	-0,348	-0,172
108,874	205,110	-0,336	-0,366
109,889	116,713	-0,346	-0,298
110,903	39,005	-0,297	-0,186
111,918	16,774	-0,153	-0,085
112,933	90,507	-0,279	-0,219
113,947	108,105	-0,187	-0,157
114,962	181,674	-0,087	-0,090
115,976	60,192	-0,269	-0,186
116,991	685,716	-0,135	-0,249
118,006	-33,132	-0,384	-0,148
119,020	344,795	-0,242	-0,334
120,035	-82,422	-0,224	-0,051
121,049	2,344	-0,158	-0,080
122,064	41,119	-0,257	-0,162
123,079	55,779	-0,265	-0,180
124,093	172,680	-0,166	-0,168
125,108	248,973	-0,248	-0,295
126,122	143,262	-0,273	-0,255
127,137	35,038	-0,339	-0,208
128,151	-77,068	-0,269	-0,065
129,166	-16,416	-0,201	-0,089
130,181	124,479	-0,181	-0,160
131,195	147,881	-0,256	-0,242
132,210	136,381	-0,306	-0,279
133,224	-14,603	-0,317	-0,142
134,239	-114,156	-0,237	0,032
135,254	-64,430	-0,207	-0,059
136,268	129,210	-0,160	-0,143
137,283	106,346	-0,165	-0,137
138,297	-115,829	-0,243	-0,031
139,312	19,512	-0,242	-0,136
140,327	12,147	-0,273	-0,147
141,341	-38,095	-0,266	-0,098
142,356	87,666	-0,207	-0,161
143,370	9,711	-0,281	-0,149
144,385	428,726	-0,161	-0,244
145,400	-26,173	-0,289	-0,118
146,414	31,524	-0,331	-0,199
147,429	25,892	-0,324	-0,188
148,443	-200,000	-0,049	-0,350
149,458	79,632	-0,211	-0,158
150,473	-24,063	-0,216	-0,090
151,487	106,088	-0,107	-0,089
152,502	94,260	-0,299	-0,237
153,516	42,806	-0,168	-0,107
154,531	-66,010	-0,222	0,062
155,546	207,074	-0,220	-0,240
156,560	79,339	-0,222	-0,167
157,575	41,567	-0,281	-0,178
158,589	42,238	-0,359	-0,228
159,604	94,915	-0,283	-0,225
160,619	123,754	-0,285	-0,250
161,633	-21,688	-0,334	-0,142
162,648	108,222	-0,234	-0,195
163,662	-129,529	-0,288	-0,027
164,677	55,155	-0,216	-0,145
165,692	-55,211	-0,236	0,074
166,706	112,477	-0,315	-0,267
167,721	38,012	-0,206	-0,128
168,735	92,327	-0,165	-0,130
169,750	251,872	-0,221	-0,264
170,764	124,819	-0,184	-0,161
171,779	40,509	-0,155	-0,097
172,794	25,836	-0,310	-0,180
173,808	111,436	-0,180	-0,152
174,823	163,202	-0,267	-0,262
175,837	800,000	-0,149	-0,291
176,852	216,477	-0,149	-0,166
177,867	50,670	-0,194	-0,128
178,881	166,636	-0,232	-0,230
179,896	513,390	-0,179	-0,292
180,910	79,060	-0,273	-0,204
181,925	325,671	-0,201	-0,269
182,940	120,330	-0,169	-0,146
183,954	-37,892	-0,278	-0,103
184,969	-97,195	-0,240	-0,043
185,983	-9,624	-0,235	-0,109
186,998	-33,501	-0,276	-0,106
188,013	-119,726	-0,185	-0,022
189,027	446,811	-0,164	-0,252
190,042	21,479	-0,243	-0,138
191,056	800,000	-0,130	-0,284
192,071	-176,314	-0,223	0,004
193,086	150,579	-0,148	-0,140
194,100	109,642	-0,171	-0,142
195,115	67,260	-0,153	-0,109
196,129	129,312	-0,324	-0,288
197,144	87,915	-0,292	-0,225
198,159	111,786	-0,153	-0,129
199,173	-65,251	-0,253	-0,071
200,188	62,920	-0,102	-0,071
201,202	-40,341	-0,113	0,041
202,217	127,459	-0,245	-0,217
203,232	157,616	-0,256	-0,247
204,246	-16,085	-0,330	-0,145
205,261	223,257	-0,294	-0,331
206,275	-23,473	-0,200	-0,083
207,290	-56,953	-0,160	-0,049
208,304	-83,768	-0,098	0,022
209,319	139,886	-0,156	-0,143
210,334	-200,000	-0,025	-0,104
211,348	121,133	-0,155	-0,135
212,363	-129,071	-0,217	-0,021
213,377	-200,000	-0,063	-0,215
214,392	-11,914	-0,160	-0,073
215,407	49,397	-0,222	-0,145
216,421	194,666	-0,199	-0,210
217,436	-64,970	-0,155	-0,043
218,450	262,293	-0,181	-0,219
219,465	26,732	-0,273	-0,159
220,480	-190,520	-0,157	0,001
221,494	169,918	-0,205	-0,204
222,509	-69,352	-0,276	-0,073
223,523	-20,380	-0,259	-0,110
224,538	264,712	-0,083	-0,101
225,553	292,456	-0,129	-0,164
226,567	64,858	-0,193	-0,135
227,582	59,794	-0,148	-0,101
228,596	184,254	-0,230	-0,237
229,611	-161,423	-0,137	0,005
230,626	-84,997	-0,204	-0,044
231,640	800,000	-0,121	-0,328
232,655	-125,094	-0,238	-0,025
233,669	151,261	-0,188	-0,177
234,684	33,778	-0,151	-0,091
235,699	55,696	-0,242	-0,162
236,713	800,000	-0,109	-0,227
237,728	-43,579	-0,193	-0,067
238,742	378,459	-0,182	-0,259
239,757	181,068	-0,112	-0,114
240,772	-5,400	-0,195	-0,093
241,786	-42,527	-0,226	-0,079
242,801	76,889	-0,214	-0,157
243,815	-194,585	-0,237	0,001
244,830	-17,329	-0,238	-0,104
245,844	-122,087	-0,215	-0,024
246,859	-66,144	-0,326	-0,089
247,874	56,402	-0,265	-0,178
248,888	-79,647	-0,261	-0,061
249,903	36,413	-0,230	-0,140
250,917	800,000	-0,042	-0,122
251,932	112,948	-0,190	-0,159
252,947	-200,000	-0,011	-0,164
253,961	54,586	-0,287	-0,192
254,976	-63,207	-0,218	-0,062
255,990	-125,047	-0,231	-0,024
257,005	93,395	-0,203	-0,159
258,020	-106,157	-0,252	0,039
259,034	569,604	-0,084	-0,142
260,049	-118,430	-0,275	0,033
261,063	-179,261	-0,190	-0,003
262,078	197,435	-0,117	-0,123
263,093	636,506	-0,152	-0,268
264,107	9,050	-0,194	-0,101
265,122	163,772	-0,112	-0,110
266,136	85,362	-0,150	-0,114
267,151	290,045	-0,059	-0,074
268,166	65,863	-0,230	-0,161
269,180	-76,097	-0,179	0,043
270,195	-10,922	-0,306	-0,139
271,209	-63,860	-0,238	-0,067
272,224	555,684	-0,124	-0,207
273,239	800,000	-0,098	-0,275
274,253	-59,630	-0,164	-0,048
275,268	180,908	-0,198	-0,201
276,282	177,884	-0,184	-0,186
277,297	106,867	-0,184	-0,151
278,312	539,654	-0,131	-0,216
279,326	263,471	-0,161	-0,193
280,341	-41,639	-0,175	-0,062
281,355	15,962	-0,169	0,092
282,370	47,694	-0,176	-0,114
283,384	-65,298	-0,229	-0,063
284,399	89,709	-0,141	-0,108
285,414	25,277	-0,277	-0,159
286,428	-136,113	-0,115	-0,009
287,443	-107,800	-0,103	0,015
288,457	-134,770	-0,296	0,024
289,472	41,789	-0,230	-0,144
290,487	-13,082	-0,187	-0,084
291,501	71,183	-0,159	-0,113
292,516	-51,199	-0,162	-0,052
293,530	-75,530	-0,228	-0,056
294,545	20,876	-0,251	-0,140
295,560	382,141	-0,070	-0,099
296,574	61,833	-0,137	-0,094
297,589	15,753	-0,194	-0,105
298,603	589,444	-0,141	-0,241
299,618	138,834	-0,199	-0,181
300,633	-102,326	-0,223	-0,037
301,647	-32,790	-0,065	-0,025
302,662	106,946	-0,140	-0,115
303,676	211,214	-0,148	-0,160
304,691	117,701	-0,132	-0,112
305,706	-63,569	-0,143	-0,040
306,720	73,529	-0,234	-0,169
307,735	404,613	-0,102	-0,149
308,749	-113,844	-0,176	0,023
309,764	-96,076	-0,119	-0,022
310,779	251,933	-0,114	-0,135
311,793	186,115	-0,177	-0,182
312,808	1,356	-0,229	-0,113
313,822	139,451	-0,106	-0,096
314,837	8,608	-0,175	-0,091
315,852	379,303	-0,128	-0,182
316,866	197,158	-0,056	-0,059
317,881	135,779	-0,136	-0,122
318,895	27,688	-0,226	-0,131
319,910	538,664	-0,097	-0,160
320,925	15,906	-0,103	-0,056
321,939	-200,000	0,022	-0,171
322,954	-55,159	-0,050	-0,015
323,968	61,232	-0,105	-0,072
324,983	-47,635	-0,138	-0,046
325,997	-48,330	-0,070	-0,023
327,012	534,089	-0,041	-0,067
328,027	561,022	-0,118	-0,198
329,041	-27,554	-0,190	-0,076
330,056	-175,735	-0,243	0,004
331,070	329,441	-0,087	-0,115
332,085	-108,744	-0,151	0,022
333,100	615,579	-0,070	-0,122
334,114	-11,065	-0,105	-0,047
335,129	103,365	-0,136	-0,110
336,143	-100,052	-0,053	-0,009
337,158	-151,278	-0,170	0,009
338,173	-80,977	-0,174	0,039
339,187	-200,000	-0,014	-0,174
340,202	72,514	-0,171	-0,122
341,216	238,942	-0,119	-0,137
342,231	315,513	-0,089	-0,116
343,246	274,616	-0,180	-0,220
344,260	27,912	-0,095	-0,055
345,275	86,858	-0,130	-0,099
346,289	800,000	-0,026	-0,049
347,304	359,471	-0,076	-0,105
348,319	77,891	-0,211	-0,155
349,333	-62,390	-0,122	-0,035
350,348	-1,008	-0,051	-0,025
351,362	-200,000	-0,049	-0,223
352,377	-200,000	0,009	0,030
353,392	-129,016	-0,108	0,010
354,406	352,741	-0,131	-0,178
355,421	207,793	1314,431	1411,926
356,435	159,854	1474,862	1412,149
