DTS Sentinel unit serial number:	SN410029Multiplexer serial number:	ORYXHardware model number:	OX2-SRSoftware version number:	ORYX F/W v4,00 Oryx Data Collector v3.7.2.0data status	okinstallation	B3 Nyhavnadifferential loss correction	single-endedforward channel	channel 1reverse channel	N/Adate	2023/11/30time	03:12:30forward acquisition time	300,00reverse acquisition time	0,00gamma	499,1914k internal	0,3210k external	0,3210temperature offset calibration	1,0000default loss term (dB/km)	0,3820temperature slope calibration	1,0000multiplexer offset coefficient	1,0000multiplexer slope coefficient	1,0000fibre end	0,00T internal ref (°C)	10,25T ext. ref 1 (°C)	-5,43T ext. ref 2 (°C)	-5,55length (m)	temperature (°C)	Stokes	anti-Stokes-744,400	400,546	-0,173	-0,264
-743,385	-200,000	0,029	0,222
-742,371	172,657	-0,209	-0,218
-741,356	-200,000	-0,069	0,319
-740,342	376,002	-0,184	-0,272
-739,327	-200,000	-0,022	0,153
-738,312	167,987	-0,262	-0,271
-737,298	102,829	-0,248	0,211
-736,283	-200,000	-0,097	-0,349
-735,269	800,000	-0,122	0,351
-734,254	20,694	-0,217	-0,127
-733,239	-200,000	-0,034	0,167
-732,225	63,979	-0,190	-0,138
-731,210	177,702	0,160	0,170
-730,196	-79,793	-0,139	0,034
-729,181	14,253	0,047	0,027
-728,167	-200,000	-0,002	-0,125
-727,152	-200,000	-0,003	0,107
-726,137	-200,000	-0,026	0,084
-725,123	328,131	0,070	-0,098
-724,108	84,717	-0,093	-0,074
-723,094	656,287	-0,098	-0,183
-722,079	-200,000	-0,056	-0,211
-721,064	454,237	0,046	-0,074
-720,050	458,389	-0,047	0,077
-719,035	-111,568	-0,117	-0,017
-718,021	-200,000	0,020	-0,152
-717,006	-200,000	-0,019	-0,225
-715,991	238,722	-0,059	-0,071
-714,977	-80,091	-0,046	-0,011
-713,962	-200,000	0,004	0,030
-712,948	122,461	-0,096	0,087
-711,933	-151,427	-0,068	0,004
-710,918	363,650	-0,012	-0,017
-709,904	-200,000	0,025	0,102
-708,889	406,731	-0,034	0,052
-707,875	-200,000	-0,006	0,127
-706,860	-200,000	-0,002	-0,081
-705,845	172,996	0,011	-0,011
-704,831	-8,762	0,103	-0,050
-703,816	109,911	-0,024	0,021
-702,802	-91,136	-0,066	0,014
-701,787	800,000	-0,034	-0,091
-700,772	-50,539	-0,219	-0,074
-699,758	-200,000	-0,016	0,151
-698,743	-24,332	-0,105	-0,045
-697,729	-200,000	0,011	-0,042
-696,714	43,462	0,086	-0,056
-695,699	-200,000	-0,031	0,107
-694,685	-163,784	-0,121	-0,004
-693,670	-200,000	0,022	-0,162
-692,656	-200,000	-0,002	0,011
-691,641	-27,730	0,093	-0,039
-690,627	176,098	0,045	0,048
-689,612	-200,000	0,023	-0,095
-688,597	20,177	-0,046	0,027
-687,583	-200,000	-0,018	-0,088
-686,568	28,132	0,105	-0,064
-685,554	-122,912	-0,065	-0,008
-684,539	-200,000	0,031	-0,145
-683,524	-135,755	-0,070	-0,006
-682,510	-57,140	-0,154	0,049
-681,495	132,122	-0,083	0,078
-680,481	168,860	-0,125	0,129
-679,466	149,520	-0,060	-0,059
-678,451	800,000	-0,024	-0,075
-677,437	372,887	-0,035	-0,052
-676,422	800,000	-0,029	0,090
-675,408	81,079	-0,073	-0,057
-674,393	-108,747	-0,120	-0,018
-673,378	-181,739	-0,030	-0,000
-672,364	275,712	-0,028	0,036
-671,349	-98,858	-0,043	0,008
-670,335	390,543	-0,028	0,041
-669,320	586,474	-0,058	0,104
-668,305	163,255	-0,068	0,069
-667,291	256,544	0,070	0,087
-666,276	703,361	-0,062	0,120
-665,262	-48,676	-0,160	-0,055
-664,247	21,822	0,037	0,022
-663,232	800,000	0,012	-0,035
-662,218	250,214	-0,032	-0,040
-661,203	800,000	-0,032	0,093
-660,189	215,336	-0,006	-0,007
-659,174	-200,000	0,007	-0,065
-658,159	213,769	0,145	-0,166
-657,145	-200,000	0,024	-0,211
-656,130	-200,000	0,019	-0,097
-655,116	-200,000	-0,008	-0,138
-654,101	53,911	-0,023	0,016
-653,086	59,621	-0,128	0,091
-652,072	800,000	-0,021	-0,065
-651,057	800,000	-0,023	-0,065
-650,043	-64,255	-0,100	0,029
-649,028	-12,418	0,113	0,053
-648,014	-5,113	0,067	-0,033
-646,999	-66,103	0,082	0,024
-645,984	523,830	-0,033	0,056
-644,970	-6,731	-0,054	-0,026
-643,955	-200,000	0,004	-0,077
-642,941	-132,839	0,069	-0,006
-641,926	127,157	-0,027	0,025
-640,911	-200,000	0,000	0,055
-639,897	-111,734	0,296	-0,043
-638,882	-59,641	-0,106	0,033
-637,868	-200,000	0,043	-0,155
-636,853	215,951	-0,009	0,010
-635,838	-79,691	0,010	-0,003
-634,824	81,269	0,140	0,109
-633,809	551,093	0,018	0,032
-632,795	354,442	0,026	0,037
-631,780	371,797	-0,008	0,012
-630,765	149,261	-0,053	-0,052
-629,751	355,673	-0,059	-0,086
-628,736	45,716	-0,074	-0,049
-627,722	-52,990	-0,075	0,025
-626,707	-179,174	0,043	0,001
-625,692	-200,000	-0,002	0,125
-624,678	-200,000	-0,027	0,158
-623,663	-200,000	-0,023	0,074
-622,649	48,573	-0,099	-0,067
-621,634	-200,000	0,000	0,016
-620,619	570,943	0,033	0,058
-619,605	800,000	-0,032	0,063
-618,590	25,320	0,112	-0,067
-617,576	-150,527	0,047	0,003
-616,561	41,152	0,067	0,043
-615,546	34,606	-0,071	-0,045
-614,532	-14,163	-0,080	-0,037
-613,517	118,672	-0,025	-0,022
-612,503	339,565	0,063	-0,089
-611,488	176,105	0,090	0,095
-610,474	-11,660	-0,095	-0,045
-609,459	-121,059	0,051	0,006
-608,444	-16,523	-0,133	-0,061
-607,430	800,000	-0,034	-0,079
-606,415	-87,309	0,023	0,005
-605,401	-200,000	0,012	0,055
-604,386	-124,747	0,127	-0,014
-603,371	264,501	0,047	-0,059
-602,357	21,696	-0,021	-0,012
-601,342	59,834	-0,118	-0,084
-600,328	-200,000	0,003	-0,178
-599,313	-200,000	-0,013	-0,119
-598,298	30,676	-0,022	-0,013
-597,284	800,000	0,037	-0,116
-596,269	30,130	0,029	0,018
-595,255	-51,838	0,044	0,015
-594,240	-115,020	-0,117	0,016
-593,225	-200,000	0,012	-0,129
-592,211	-74,068	0,056	0,015
-591,196	-200,000	0,005	-0,063
-590,182	800,000	-0,023	-0,050
-589,167	-86,899	0,066	-0,014
-588,152	518,696	0,043	-0,073
-587,138	201,984	0,027	0,030
-586,123	38,837	-0,129	0,083
-585,109	-200,000	0,004	-0,037
-584,094	-200,000	-0,015	0,101
-583,079	290,901	0,024	-0,032
-582,065	800,000	0,021	0,063
-581,050	-200,000	-0,033	0,159
-580,036	-162,941	0,061	0,002
-579,021	-44,922	-0,192	0,068
-578,006	-200,000	0,023	-0,073
-576,992	800,000	0,063	-0,149
-575,977	160,333	-0,078	-0,078
-574,963	343,064	-0,067	-0,095
-573,948	59,952	-0,121	0,086
-572,934	-200,000	0,000	-0,058
-571,919	-170,581	-0,052	-0,001
-570,904	800,000	0,020	-0,042
-569,890	-200,000	0,004	-0,018
-568,875	116,560	0,072	0,064
-567,861	-70,638	-0,072	-0,020
-566,846	-200,000	-0,019	-0,091
-565,831	800,000	-0,043	0,106
-564,817	-110,831	-0,133	-0,020
-563,802	-200,000	-0,003	-0,149
-562,788	323,282	-0,024	-0,034
-561,773	-200,000	-0,006	0,028
-560,758	666,875	0,018	0,034
-559,744	-200,000	0,078	0,273
-558,729	-109,795	-0,107	-0,016
-557,715	800,000	0,049	-0,133
-556,700	-15,310	-0,050	-0,023
-555,685	305,562	-0,055	-0,074
-554,671	108,998	0,036	0,031
-553,656	162,274	0,068	-0,069
-552,642	41,670	-0,167	0,109
-551,627	98,135	-0,025	0,021
-550,612	481,360	-0,016	0,026
-549,598	-9,908	-0,113	-0,054
-548,583	-200,000	0,033	-0,107
-547,569	-147,422	0,071	0,004
-546,554	110,635	0,074	0,064
-545,539	773,242	-0,031	0,061
-544,525	400,193	-0,064	0,097
-543,510	447,860	0,105	0,167
-542,496	-37,907	-0,131	-0,050
-541,481	-1,332	-0,067	-0,034
-540,466	455,039	-0,030	-0,048
-539,452	127,540	0,101	-0,093
-538,437	-200,000	-0,032	0,187
-537,423	-4,569	-0,068	-0,034
-536,408	800,000	0,050	0,123
-535,393	652,915	-0,008	0,015
-534,379	-114,714	0,071	0,010
-533,364	192,688	-0,061	-0,066
-532,350	-104,938	0,184	0,030
-531,335	-200,000	0,016	-0,054
-530,321	-159,095	0,060	-0,002
-529,306	-200,000	0,020	-0,069
-528,291	457,529	0,036	0,058
-527,277	171,442	0,042	0,043
-526,262	-200,000	-0,024	-0,175
-525,248	108,190	-0,081	0,069
-524,233	255,229	-0,113	-0,139
-523,218	800,000	0,051	0,141
-522,204	51,403	-0,048	0,033
-521,189	-19,967	0,032	0,014
-520,175	-200,000	-0,014	-0,183
-519,160	-52,767	0,153	-0,051
-518,145	-37,367	-0,077	0,029
-517,131	53,763	0,075	-0,052
-516,116	98,106	0,181	0,150
-515,102	168,684	0,105	0,108
-514,087	-43,660	-0,087	-0,031
-513,072	-200,000	-0,055	-0,247
-512,058	229,816	0,132	-0,155
-511,043	105,002	0,088	-0,074
-510,029	-200,000	0,006	-0,092
-509,014	-39,954	0,207	0,077
-507,999	-68,327	-0,168	0,047
-506,985	637,993	-0,015	-0,027
-505,970	3,778	-0,043	-0,022
-504,956	494,646	-0,043	-0,071
-503,941	139,438	-0,016	0,016
-502,926	-20,500	0,132	-0,058
-501,912	-200,000	-0,006	0,064
-500,897	800,000	0,003	0,009
-499,883	222,655	-0,077	0,090
-498,868	-113,205	-0,048	-0,007
-497,853	-41,813	-0,057	0,021
-496,839	800,000	0,024	-0,058
-495,824	25,025	0,043	0,026
-494,810	253,122	0,027	0,034
-493,795	-81,552	-0,094	0,022
-492,781	-31,078	-0,059	0,024
-491,766	-200,000	-0,000	-0,064
-490,751	63,964	-0,067	-0,049
-489,737	800,000	-0,039	-0,085
-488,722	-120,135	0,042	-0,005
-487,708	-150,727	0,137	-0,007
-486,693	-89,700	-0,124	0,026
-485,678	-71,292	-0,044	0,012
-484,664	-52,419	-0,216	-0,071
-483,649	-133,411	0,100	0,009
-482,635	-36,450	0,007	0,003
-481,620	-54,189	0,097	0,032
-480,605	-200,000	-0,002	-0,020
-479,591	-115,617	-0,126	0,017
-478,576	800,000	-0,036	0,083
-477,562	800,000	0,054	-0,146
-476,547	-146,468	0,114	-0,007
-475,532	-200,000	0,012	-0,041
-474,518	-4,269	0,064	0,032
-473,503	-198,249	0,182	0,001
-472,489	200,347	-0,026	0,028
-471,474	800,000	0,025	0,057
-470,459	68,083	-0,084	0,062
-469,445	134,864	0,051	0,048
-468,430	-200,000	-0,012	0,100
-467,416	-200,000	-0,013	0,097
-466,401	-200,000	0,018	0,113
-465,386	-200,000	-0,016	0,068
-464,372	800,000	0,039	0,109
-463,357	-200,000	-0,030	-0,132
-462,343	800,000	-0,076	-0,153
-461,328	-109,178	-0,120	-0,018
-460,313	211,558	0,029	0,033
-459,299	-200,000	0,006	0,075
-458,284	2,557	0,136	0,070
-457,270	-26,979	0,120	0,050
-456,255	71,899	-0,038	-0,028
-455,241	-200,000	-0,007	-0,147
-454,226	29,485	-0,050	0,030
-453,211	-200,000	-0,032	0,159
-452,197	36,196	-0,063	0,040
-451,182	-118,515	-0,073	0,009
-450,168	-54,101	-0,121	0,039
-449,153	800,000	-0,010	0,029
-448,138	81,995	0,076	0,059
-447,124	-200,000	0,019	-0,125
-446,109	125,237	0,019	-0,017
-445,095	-200,000	0,017	0,124
-444,080	-22,457	0,024	0,010
-443,065	-200,000	-0,014	0,051
-442,051	-117,871	0,035	0,004
-441,036	1,043	-0,127	-0,065
-440,022	-88,586	0,074	0,016
-439,007	-161,920	-0,137	-0,005
-437,992	248,013	-0,091	0,110
-436,978	139,230	0,118	0,111
-435,963	-200,000	0,016	0,067
-434,949	306,869	0,036	-0,048
-433,934	15,342	-0,060	-0,034
-432,919	121,766	-0,159	-0,142
-431,905	-135,310	-0,097	-0,008
-430,890	800,000	0,070	0,158
-429,876	319,660	0,038	0,052
-428,861	-99,627	0,024	-0,004
-427,846	104,082	-0,077	-0,064
-426,832	463,289	-0,085	-0,136
-425,817	332,098	-0,053	-0,073
-424,803	103,874	0,135	0,114
-423,788	-35,863	-0,055	0,021
-422,773	97,813	0,091	0,075
-421,759	-41,547	0,103	-0,038
-420,744	-39,444	-0,042	-0,016
-419,730	240,338	-0,098	-0,117
-418,715	800,000	-0,014	-0,041
-417,701	180,537	-0,100	-0,105
-416,686	-95,642	0,131	-0,025
-415,671	800,000	0,026	0,057
-414,657	-174,296	0,143	0,003
-413,642	111,350	0,098	0,084
-412,628	-200,000	0,042	-0,154
-411,613	-109,624	-0,181	-0,027
-410,598	173,420	-0,035	0,036
-409,584	-119,053	0,053	0,007
-408,569	-200,000	-0,021	0,078
-407,555	800,000	0,024	0,047
-406,540	-200,000	0,005	0,039
-405,525	321,628	-0,062	0,085
-404,511	276,507	0,062	-0,079
-403,496	-200,000	0,011	-0,133
-402,482	-200,000	-0,019	-0,084
-401,467	32,868	0,042	-0,026
-400,452	272,822	0,062	0,078
-399,438	-200,000	-0,007	-0,140
-398,423	-200,000	-0,002	-0,237
-397,409	214,230	0,040	-0,045
-396,394	-200,000	0,000	-0,083
-395,379	800,000	-0,044	0,092
-394,365	800,000	0,041	0,086
-393,350	-92,369	-0,093	0,018
-392,336	-123,732	-0,038	0,004
-391,321	-144,122	0,100	0,007
-390,306	-200,000	-0,002	0,023
-389,292	-168,677	0,032	-0,001
-388,277	-129,173	0,023	-0,002
-387,263	-200,000	-0,004	-0,104
-386,248	-97,332	0,125	0,023
-385,233	800,000	-0,043	0,102
-384,219	-200,000	0,020	0,102
-383,204	-115,623	-0,098	-0,013
-382,190	-117,218	-0,140	-0,018
-381,175	800,000	0,050	-0,134
-380,160	800,000	-0,026	0,071
-379,146	55,535	0,106	0,074
-378,131	368,602	-0,109	-0,158
-377,117	-57,868	-0,090	0,028
-376,102	-200,000	0,021	-0,094
-375,088	-110,648	-0,176	-0,026
-374,073	-36,246	-0,141	0,054
-373,058	-200,000	-0,003	-0,033
-372,044	350,018	0,056	0,079
-371,029	-36,387	-0,037	-0,014
-370,015	778,976	0,042	0,083
-369,000	168,891	-0,135	-0,138
-367,985	25,640	0,196	-0,117
-366,971	112,375	0,034	-0,029
-365,956	-200,000	0,005	-0,028
-364,942	-69,942	0,109	-0,029
-363,927	-109,149	0,082	0,012
-362,912	62,402	-0,072	0,052
-361,898	483,714	0,029	-0,047
-360,883	48,858	-0,085	0,057
-359,869	572,194	0,088	-0,153
-358,854	-200,000	0,001	-0,081
-357,839	-78,685	-0,085	0,021
-356,825	84,256	0,080	0,062
-355,810	800,000	-0,047	0,116
-354,796	38,597	0,029	0,019
-353,781	-46,717	-0,041	-0,014
-352,766	-200,000	0,034	-0,164
-351,752	-200,000	-0,016	0,055
-350,737	47,430	0,076	-0,051
-349,723	-200,000	0,026	0,086
-348,708	108,456	0,032	0,027
-347,693	-118,305	-0,094	-0,012
-346,679	-63,830	0,111	0,032
-345,664	-200,000	-0,150	0,000
-344,650	-200,000	0,027	0,219
-343,635	761,651	-0,034	0,067
-342,620	292,011	0,066	0,086
-341,606	-143,314	0,055	-0,004
-340,591	-55,041	-0,053	-0,017
-339,577	-17,739	-0,020	0,009
-338,562	6,154	-0,043	0,022
-337,548	-200,000	-0,005	0,019
-336,533	201,941	0,144	0,158
-335,518	-200,000	0,038	0,135
-334,504	12,368	0,036	0,020
-333,489	-22,833	0,069	0,029
-332,475	357,399	-0,091	-0,129
-331,460	-200,000	0,001	-0,067
-330,445	-200,000	0,008	0,077
-329,431	-54,774	0,199	0,064
-328,416	126,230	0,078	-0,071
-327,402	-15,716	0,057	0,026
-326,387	800,000	-0,050	-0,115
-325,372	-115,275	-0,136	0,018
-324,358	507,372	-0,072	-0,120
-323,343	471,982	-0,054	-0,087
-322,329	151,600	0,087	0,085
-321,314	-200,000	-0,010	0,063
-320,299	121,371	0,078	-0,070
-319,285	-200,000	0,005	0,097
-318,270	227,141	0,027	0,032
-317,256	10,918	-0,136	-0,074
-316,241	306,415	0,048	-0,064
-315,226	800,000	0,045	0,132
-314,212	20,873	0,094	0,054
-313,197	605,744	0,083	0,148
-312,183	149,012	0,048	-0,047
-311,168	39,056	0,061	-0,039
-310,153	-110,505	-0,044	-0,006
-309,139	-88,061	0,150	-0,032
-308,124	2,709	-0,027	0,014
-307,110	76,178	0,159	0,120
-306,095	-200,000	0,003	-0,035
-305,080	-45,664	-0,123	0,043
-304,066	-74,440	0,024	-0,006
-303,051	379,870	-0,170	-0,249
-302,037	269,437	0,107	0,134
-301,022	-200,000	-0,067	-0,229
-300,008	456,153	0,066	0,105
-298,993	284,083	0,130	0,166
-297,978	43,451	0,054	-0,035
-296,964	-54,446	-0,051	-0,016
-295,949	122,075	0,047	-0,042
-294,935	-62,725	-0,106	-0,031
-293,920	-77,713	0,098	0,024
-292,905	58,338	-0,032	-0,022
-291,891	-127,575	0,065	0,007
-290,876	119,431	-0,099	0,087
-289,862	17,681	-0,050	0,028
-288,847	800,000	-0,006	0,012
-287,832	-51,862	-0,304	-0,100
-286,818	800,000	0,049	0,155
-285,803	123,960	-0,060	-0,054
-284,789	57,692	0,089	0,062
-283,774	-34,435	0,086	0,033
-282,759	521,586	-0,083	-0,139
-281,745	-200,000	-0,005	-0,107
-280,730	-200,000	-0,015	-0,063
-279,716	-140,998	0,071	0,005
-278,701	-200,000	-0,010	-0,039
-277,686	193,198	0,073	0,079
-276,672	146,583	0,096	0,092
-275,657	25,694	0,047	0,028
-274,643	-200,000	0,035	-0,144
-273,628	-200,000	-0,002	-0,017
-272,613	-200,000	0,023	-0,075
-271,599	-101,217	-0,046	0,008
-270,584	566,746	0,048	0,084
-269,570	-200,000	-0,034	0,218
-268,555	-21,436	-0,197	0,085
-267,540	-200,000	-0,017	-0,139
-266,526	800,000	-0,042	0,091
-265,511	-200,000	-0,032	0,115
-264,497	588,082	0,019	0,033
-263,482	-88,465	0,169	0,036
-262,467	86,037	-0,034	-0,027
-261,453	648,857	-0,094	0,172
-260,438	-78,606	0,139	0,033
-259,424	-200,000	0,007	-0,101
-258,409	-200,000	0,013	0,054
-257,395	-80,373	-0,066	-0,016
-256,380	181,720	-0,138	0,144
-255,365	-82,854	-0,095	-0,022
-254,351	-200,000	-0,007	-0,034
-253,336	-200,000	-0,031	-0,151
-252,322	-79,736	-0,144	-0,034
-251,307	183,410	-0,073	0,077
-250,292	-200,000	0,025	0,166
-249,278	-200,000	0,014	-0,081
-248,263	-8,484	0,106	0,050
-247,249	-41,427	0,103	-0,038
-246,234	249,590	0,010	0,012
-245,219	800,000	-0,008	0,017
-244,205	-200,000	-0,017	0,059
-243,190	-5,435	0,128	-0,062
-242,176	800,000	-0,025	0,077
-241,161	-160,377	0,110	0,004
-240,146	800,000	-0,109	0,216
-239,132	174,800	-0,059	0,061
-238,117	-200,000	0,023	-0,093
-237,103	-182,806	0,037	0,000
-236,088	268,128	0,067	-0,083
-235,073	-121,897	-0,084	0,010
-234,059	96,299	0,105	0,085
-233,044	11,621	-0,161	0,088
-232,030	498,584	-0,010	0,017
-231,015	633,450	-0,037	0,067
-230,000	-37,952	-0,222	0,084
-228,986	779,016	-0,012	-0,024
-227,971	-90,827	0,078	0,016
-226,957	-14,226	0,028	-0,013
-225,942	-200,000	0,005	0,087
-224,927	-111,774	-0,035	-0,005
-223,913	800,000	-0,012	0,036
-222,898	800,000	-0,053	-0,138
-221,884	-200,000	-0,004	-0,084
-220,869	407,712	0,047	0,071
-219,855	800,000	-0,058	0,159
-218,840	269,889	-0,066	0,083
-217,825	-41,292	-0,114	-0,042
-216,811	6,206	-0,104	-0,055
-215,796	800,000	-0,032	0,074
-214,782	-200,000	0,031	-0,108
-213,767	-95,248	0,035	-0,007
-212,752	91,761	0,115	0,092
-211,738	112,734	-0,033	0,029
-210,723	-158,034	-0,043	0,002
-209,709	-200,000	0,012	-0,051
-208,694	411,394	0,014	0,022
-207,679	-39,012	0,089	-0,033
-206,665	372,224	-0,061	0,089
-205,650	340,187	-0,066	0,091
-204,636	112,194	-0,132	0,114
-203,621	-200,000	-0,010	0,167
-202,606	53,887	-0,031	0,021
-201,592	51,941	0,062	-0,042
-200,577	-200,000	-0,019	-0,124
-199,563	-200,000	-0,021	-0,129
-198,548	-43,945	0,102	-0,036
-197,533	206,246	-0,079	-0,088
-196,519	38,485	0,099	0,062
-195,504	-200,000	-0,016	-0,054
-194,490	-200,000	0,042	-0,141
-193,475	487,455	0,024	-0,039
-192,460	-200,000	0,013	0,057
-191,446	44,118	0,075	-0,049
-190,431	800,000	-0,035	0,091
-189,417	523,198	0,021	0,036
-188,402	39,620	-0,111	0,071
-187,387	97,204	0,146	-0,119
-186,373	600,433	0,046	-0,082
-185,358	-23,957	-0,041	-0,017
-184,344	800,000	-0,038	-0,100
-183,329	-85,919	0,158	-0,034
-182,315	25,254	-0,132	-0,077
-181,300	-200,000	-0,001	0,014
-180,285	-53,485	-0,061	0,020
-179,271	800,000	0,031	-0,083
-178,256	436,771	0,068	0,105
-177,242	191,592	-0,091	0,097
-176,227	-200,000	-0,006	0,129
-175,212	368,938	0,063	0,090
-174,198	27,846	0,054	0,032
-173,183	171,343	-0,105	-0,107
-172,169	800,000	0,076	-0,187
-171,154	-200,000	0,026	0,095
-170,139	584,599	0,066	-0,116
-169,125	-126,427	0,025	-0,003
-168,110	-127,859	0,039	0,004
-167,096	-141,553	0,047	0,003
-166,081	-200,000	-0,018	-0,075
-165,066	396,198	-0,064	-0,095
-164,052	-37,353	-0,053	-0,020
-163,037	-200,000	-0,005	-0,021
-162,023	348,869	0,083	0,117
-161,008	800,000	-0,016	0,040
-159,993	699,739	-0,056	0,106
-158,979	-200,000	0,016	-0,166
-157,964	-33,064	0,102	-0,040
-156,950	-200,000	-0,021	-0,151
-155,935	800,000	0,028	-0,079
-154,920	-200,000	0,024	-0,093
-153,906	168,127	-0,063	0,064
-152,891	336,770	0,040	-0,055
-151,877	69,749	-0,098	0,072
-150,862	-97,569	0,048	-0,009
-149,847	-105,872	-0,028	-0,004
-148,833	200,953	0,082	-0,089
-147,818	-200,000	0,021	-0,141
-146,804	-200,000	0,011	0,044
-145,789	-200,000	0,004	0,084
-144,775	-166,190	-0,146	0,004
-143,760	31,096	-0,069	0,042
-142,745	129,876	-0,074	-0,067
-141,731	-170,888	-0,088	0,002
-140,716	-13,609	0,200	-0,092
-139,702	-200,000	0,018	0,114
-138,687	479,703	0,047	0,076
-137,672	-32,922	0,084	-0,033
-136,658	800,000	-0,057	-0,148
-135,643	-200,000	-0,012	-0,063
-134,629	467,016	-0,059	-0,094
-133,614	30,477	0,051	-0,031
-132,599	-200,000	-0,001	-0,008
-131,585	-200,000	-0,005	0,024
-130,570	-128,591	-0,070	0,007
-129,556	649,783	0,041	-0,074
-128,541	800,000	0,080	-0,184
-127,526	-200,000	-0,040	0,163
-126,512	126,899	-0,031	-0,028
-125,497	59,441	0,073	0,051
-124,483	97,589	-0,102	0,083
-123,468	-41,845	0,098	0,035
-122,453	800,000	0,009	0,023
-121,439	115,127	-0,136	-0,117
-120,424	-68,773	0,049	0,013
-119,410	-200,000	0,017	0,072
-118,395	175,765	0,065	0,067
-117,380	-200,000	-0,015	0,051
-116,366	235,973	0,076	-0,089
-115,351	233,066	-0,089	-0,104
-114,337	205,251	-0,118	-0,130
-113,322	-200,000	-0,003	-0,032
-112,307	446,864	-0,032	-0,050
-111,293	132,758	0,078	-0,071
-110,278	-97,861	-0,149	-0,027
-109,264	-14,784	-0,007	0,003
-108,249	128,524	0,029	-0,026
-107,234	283,457	-0,047	-0,060
-106,220	-35,013	-0,126	0,048
-105,205	-200,000	-0,008	0,053
-104,191	-91,366	0,052	0,010
-103,176	178,668	-0,057	-0,059
-102,162	-200,000	0,006	0,038
-101,147	-200,000	-0,015	-0,072
-100,132	226,684	-0,078	-0,089
-99,118	800,000	-0,049	-0,117
-98,103	-97,337	-0,108	-0,020
-97,089	483,224	0,049	0,078
-96,074	99,986	0,130	0,106
-95,059	-79,567	-0,026	0,006
-94,045	128,521	0,185	-0,167
-93,030	605,006	-0,049	-0,086
-92,016	-200,000	-0,007	0,064
-91,001	43,028	-0,096	0,062
-89,986	-200,000	0,002	0,011
-88,972	-200,000	0,031	-0,098
-87,957	183,455	0,056	0,058
-86,943	-200,000	-0,007	0,138
-85,928	5,854	-0,132	-0,069
-84,913	-129,983	-0,053	0,005
-83,899	-58,771	-0,040	0,012
-82,884	-200,000	-0,023	0,109
-81,870	-53,380	0,100	0,032
-80,855	-200,000	-0,047	0,243
-79,840	327,596	0,110	0,150
-78,826	-200,000	0,020	0,083
-77,811	2,131	0,075	-0,038
-76,797	-200,000	0,039	-0,145
-75,782	800,000	-0,023	0,061
-74,767	31,880	0,110	0,067
-73,753	-200,000	-0,009	-0,123
-72,738	21,234	0,072	0,041
-71,724	-120,666	-0,085	-0,010
-70,709	800,000	0,010	-0,028
-69,694	-200,000	-0,001	0,193
-68,680	-121,635	0,203	0,023
-67,665	260,678	-0,034	-0,041
-66,651	800,000	0,040	0,096
-65,636	800,000	0,005	-0,017
-64,622	-200,000	-0,031	0,156
-63,607	113,418	-0,069	-0,059
-62,592	800,000	-0,061	-0,143
-61,578	137,719	0,042	0,039
-60,563	800,000	0,044	0,094
-59,549	-200,000	-0,043	0,257
-58,534	42,072	-1,996	-1,277
-57,519	530,755	-1,173	-1,965
-56,505	-200,000	-0,356	-4,326
-55,490	334,986	1,089	1,494
-54,476	800,000	5,065	11,210
-53,461	-200,000	21,148	340,951
-52,446	800,000	759,468	2357,541
-51,432	558,772	1662,463	2843,525
-50,417	73,672	1662,243	1228,246
-49,403	18,083	1535,837	862,191
-48,388	12,123	1458,985	790,204
-47,373	19,479	1450,030	820,640
-46,359	15,553	1439,460	795,946
-45,344	10,353	1435,204	768,788
-44,330	10,298	1433,328	767,489
-43,315	10,261	1431,569	766,341
-42,300	10,306	1429,726	765,538
-41,286	10,368	1428,371	765,077
-40,271	10,300	1427,153	764,073
-39,257	10,275	1426,052	763,335
-38,242	10,333	1425,042	763,038
-37,227	10,312	1423,930	762,313
-36,213	10,346	1422,444	761,647
-35,198	10,324	1421,666	761,097
-34,184	10,393	1420,642	760,844
-33,169	10,271	1419,299	759,522
-32,154	10,317	1418,278	759,162
-31,140	10,373	1417,050	758,737
-30,125	10,377	1415,812	758,060
-29,111	10,325	1414,762	757,225
-28,096	10,313	1413,580	756,504
-27,082	10,304	1412,331	755,765
-26,067	10,229	1411,536	754,960
-25,052	10,303	1410,313	754,621
-24,038	10,306	1409,158	753,985
-23,023	10,296	1408,413	753,512
-22,009	10,271	1407,325	752,785
-20,994	10,285	1406,314	752,277
-19,979	10,282	1405,437	751,763
-18,965	10,304	1404,359	751,262
-17,950	10,231	1403,731	750,554
-16,936	10,215	1402,837	749,974
-15,921	10,180	1401,876	749,265
-14,906	10,214	1400,798	748,817
-13,892	10,228	1399,855	748,351
-12,877	10,187	1398,844	747,588
-11,863	10,202	1398,176	747,274
-10,848	10,168	1397,226	746,577
-9,833	10,100	1396,609	745,900
-8,819	10,091	1395,732	745,363
-7,804	10,119	1394,706	744,915
-6,790	10,079	1393,816	744,223
-5,775	10,097	1392,487	743,567
-4,760	10,102	1391,646	743,112
-3,746	10,126	1390,579	742,626
-2,731	10,082	1389,858	742,007
-1,717	10,111	1388,796	741,546
-0,702	10,087	1387,132	740,516
0,313	14,131	1300,074	712,549
1,327	30,381	690,518	415,321
2,342	47,343	119,527	78,422
3,356	0,857	16,540	8,331
4,371	16,031	3,450	1,912
5,386	26,415	1,049	0,617
6,400	495,329	0,330	0,537
7,415	-61,010	-0,293	-0,087
8,429	31,468	-0,160	-0,097
9,444	87,756	-0,306	-0,239
10,459	-7,362	-0,320	-0,152
11,473	34,454	-0,269	-0,165
12,488	46,420	-0,239	-0,156
13,502	9,636	-0,345	-0,184
14,517	184,874	-0,268	-0,281
15,531	78,839	-0,373	-0,281
16,546	77,122	-0,390	-0,292
17,561	71,976	-0,359	-0,263
18,575	-145,634	-0,212	-0,013
19,590	27,523	-0,205	-0,121
20,604	-24,998	-0,299	-0,124
21,619	-29,944	-0,475	-0,190
22,634	141,079	-0,334	-0,311
23,648	106,376	-0,277	-0,231
24,663	100,831	-0,499	-0,408
25,677	18,422	-0,414	-0,232
26,692	41,564	-0,284	-0,181
27,707	-79,218	-0,313	-0,074
28,721	479,938	-0,264	-0,423
29,736	131,246	-0,362	-0,327
30,750	44,898	-0,330	-0,213
31,765	81,221	-0,287	-0,218
32,780	257,847	-0,313	-0,380
33,794	-94,893	-0,316	-0,060
34,809	-22,483	-0,431	-0,183
35,823	92,810	-0,365	-0,290
36,838	138,290	-0,359	-0,331
37,853	148,216	-0,273	-0,259
38,867	-32,704	-0,415	-0,161
39,882	87,688	-0,400	-0,311
40,896	-50,824	-0,336	-0,111
41,911	172,226	-0,301	-0,305
42,926	-4,256	-0,375	-0,182
43,940	147,246	-0,288	-0,272
44,955	107,781	-0,409	-0,342
45,969	42,716	-0,318	-0,203
46,984	63,828	-0,278	-0,196
47,999	171,158	-0,207	-0,209
49,013	320,573	-0,292	-0,390
50,028	116,966	-0,378	-0,326
51,042	64,525	-0,397	-0,281
52,057	69,220	-0,356	-0,257
53,071	-38,660	-0,525	-0,194
54,086	146,372	-0,207	-0,195
55,101	60,361	-0,345	-0,239
56,115	108,010	-0,192	-0,161
57,130	102,533	-0,274	-0,225
58,144	72,185	-0,384	-0,280
59,159	-2,728	-0,377	-0,184
60,174	-4,597	-0,375	-0,181
61,188	190,595	-0,295	-0,311
62,203	99,470	-0,159	-0,129
63,217	23,736	-0,285	-0,164
64,232	122,010	-0,297	-0,260
65,247	55,520	-0,332	-0,225
66,261	90,013	-0,254	-0,199
67,276	49,852	-0,430	-0,284
68,290	241,708	-0,307	-0,361
69,305	104,628	-0,351	-0,290
70,320	29,268	-0,230	-0,137
71,334	164,380	-0,258	-0,255
72,349	302,930	-0,060	-0,078
73,363	210,557	-0,235	-0,259
74,378	273,136	-0,205	-0,254
75,393	17,361	-0,329	-0,183
76,407	-60,618	-0,330	-0,098
77,422	56,103	-0,328	-0,223
78,436	-25,768	-0,361	-0,148
79,451	31,702	-0,252	-0,152
80,466	9,969	-0,284	-0,151
81,480	291,792	-0,261	-0,334
82,495	62,521	-0,239	-0,167
83,509	61,918	-0,221	-0,154
84,524	130,883	-0,199	-0,179
85,539	-39,554	-0,347	-0,127
86,553	-90,177	-0,284	-0,057
87,568	146,292	-0,315	-0,296
88,582	26,213	-0,372	-0,217
89,597	79,916	-0,296	-0,223
90,611	357,500	-0,140	-0,196
91,626	-146,280	-0,163	0,010
92,641	47,531	-0,296	-0,193
93,655	-15,094	-0,272	-0,122
94,670	70,693	-0,231	-0,167
95,684	6,914	-0,342	-0,178
96,699	-59,274	-0,373	-0,112
97,714	-14,407	-0,459	-0,206
98,728	59,978	-0,288	-0,199
99,743	-5,648	-0,259	-0,124
100,757	-106,283	-0,279	-0,043
101,772	188,600	-0,187	-0,196
102,787	245,056	-0,217	-0,255
103,801	63,870	-0,198	-0,139
104,816	-70,349	-0,281	-0,074
105,830	122,502	-0,208	-0,181
106,845	134,417	-0,216	-0,196
107,860	227,615	-0,309	-0,352
108,874	111,863	-0,278	-0,235
109,889	60,570	-0,292	-0,202
110,903	-7,765	-0,304	-0,143
111,918	-80,596	-0,441	-0,102
112,933	-10,975	-0,134	-0,062
113,947	-17,202	-0,281	-0,123
114,962	800,000	-0,113	-0,314
115,976	32,680	-0,256	-0,154
116,991	-11,601	-0,289	-0,132
118,006	7,676	-0,349	-0,182
119,020	75,017	-0,328	-0,241
120,035	144,987	-0,271	-0,253
121,049	-200,000	-0,067	-0,212
122,064	114,647	-0,195	-0,166
123,079	89,389	-0,255	-0,198
124,093	96,646	-0,360	-0,288
125,108	411,190	-0,201	-0,298
126,122	108,436	-0,252	-0,210
127,137	20,178	-0,212	-0,119
128,151	-70,903	-0,210	-0,055
129,166	9,178	-0,335	-0,176
130,181	313,519	-0,243	-0,319
131,195	9,553	-0,268	-0,141
132,210	-45,151	-0,247	-0,085
133,224	51,184	-0,253	-0,167
134,239	194,184	-0,158	-0,167
135,254	-50,470	-0,315	-0,103
136,268	75,173	-0,155	-0,114
137,283	349,856	-0,136	-0,188
138,297	90,140	-0,356	-0,277
139,312	60,526	-0,247	-0,171
140,327	607,441	-0,208	-0,363
141,341	68,860	-0,238	-0,170
142,356	60,565	-0,251	-0,173
143,370	-20,994	-0,163	-0,069
144,385	151,812	-0,174	-0,166
145,400	474,851	-0,148	-0,234
146,414	88,541	-0,285	-0,220
147,429	22,397	-0,297	-0,168
148,443	6,874	-0,236	-0,122
149,458	91,211	-0,300	-0,235
150,473	-21,365	-0,192	-0,081
151,487	319,585	-0,155	-0,205
152,502	-71,914	-0,332	-0,085
153,516	590,176	-0,101	-0,174
154,531	53,744	-0,284	-0,189
155,546	74,409	-0,306	-0,224
156,560	266,776	-0,226	-0,275
157,575	246,478	-0,215	-0,253
158,589	-200,000	0,042	-0,217
159,604	145,028	-0,185	-0,172
160,619	203,400	-0,204	-0,220
161,633	-16,793	-0,213	-0,094
162,648	13,556	-0,238	-0,128
163,662	0,601	-0,212	-0,105
164,677	-200,000	-0,072	-0,223
165,692	-14,903	-0,125	-0,056
166,706	56,494	-0,255	-0,172
167,721	215,305	-0,222	-0,246
168,735	160,149	-0,188	-0,182
169,750	800,000	-0,132	-0,266
170,764	-27,444	-0,321	-0,129
171,779	-85,672	-0,166	-0,035
172,794	90,549	-0,157	-0,122
173,808	-200,000	-0,084	-0,334
174,823	123,347	-0,271	-0,236
175,837	103,465	-0,239	-0,195
176,852	180,678	-0,214	-0,218
177,867	693,206	-0,089	-0,163
178,881	-64,535	-0,188	-0,053
179,896	-38,534	-0,135	-0,049
180,910	326,438	-0,167	-0,223
181,925	86,250	-0,256	-0,195
182,940	-91,680	-0,313	-0,061
183,954	-83,250	-0,269	-0,059
184,969	-51,737	-0,203	-0,065
185,983	15,905	-0,168	-0,091
186,998	-35,879	-0,166	-0,062
188,013	303,500	-0,230	-0,296
189,027	244,893	-0,217	-0,253
190,042	16,598	-0,313	-0,171
191,056	21,225	-0,232	-0,130
192,071	168,583	-0,217	-0,215
193,086	-142,339	-0,161	-0,011
194,100	84,079	-0,207	-0,157
195,115	-125,400	-0,119	0,012
196,129	-200,000	-0,034	-0,253
197,144	-17,221	-0,351	-0,153
198,159	676,453	-0,197	-0,357
199,173	148,869	-0,176	-0,165
200,188	169,192	-0,157	-0,156
201,202	253,266	-0,120	-0,142
202,217	345,885	-0,185	-0,253
203,232	82,369	-0,234	-0,176
204,246	107,236	-0,254	-0,209
205,261	-2,855	-0,163	-0,079
206,275	83,832	-0,214	-0,162
207,290	206,110	-0,162	-0,175
208,304	230,901	-0,192	-0,218
209,319	71,141	-0,242	-0,174
210,334	-45,995	-0,207	-0,070
211,348	189,841	-0,204	-0,213
212,363	161,043	-0,266	-0,257
213,377	111,349	-0,184	-0,153
214,392	196,075	-0,138	-0,145
215,407	-145,852	-0,177	0,011
216,421	-122,108	0,012	0,001
217,436	98,117	-0,255	-0,203
218,450	-101,892	-0,267	-0,044
219,465	227,394	-0,209	-0,236
220,480	637,227	-0,125	-0,220
221,494	126,918	-0,174	-0,152
222,509	-41,627	-0,197	-0,070
223,523	800,000	-0,077	-0,149
224,538	89,651	-0,279	-0,216
225,553	19,669	-0,323	-0,179
226,567	94,437	-0,174	-0,136
227,582	126,891	-0,195	-0,171
228,596	-200,000	-0,182	-0,000
229,611	800,000	-0,030	-0,070
230,626	2,554	-0,187	-0,094
231,640	185,508	-0,143	-0,147
232,655	373,611	-0,156	-0,220
233,669	83,807	-0,171	-0,129
234,684	3,298	-0,195	-0,098
235,699	-30,425	-0,178	-0,069
236,713	-83,065	-0,078	-0,017
237,728	-156,242	-0,192	-0,008
238,742	-200,000	-0,019	-0,190
239,757	297,582	-0,116	-0,147
240,772	416,717	-0,194	-0,287
241,786	800,000	-0,100	-0,285
242,801	-78,885	-0,294	0,069
243,815	146,219	-0,081	0,075
244,830	274,055	-0,092	-0,112
245,844	57,505	-0,188	-0,127
246,859	-88,196	-0,259	-0,053
247,874	134,203	-0,210	-0,188
248,888	247,086	-0,166	-0,193
249,903	800,000	-0,093	-0,282
250,917	399,670	-0,081	-0,118
251,932	-8,118	-0,257	-0,119
252,947	74,261	-0,096	-0,069
253,961	340,397	-0,157	-0,211
254,976	142,732	-0,154	-0,142
255,990	158,279	-0,170	-0,163
257,005	-97,152	-0,195	-0,035
258,020	-139,647	-0,170	0,012
259,034	-11,334	-0,193	-0,087
260,049	-43,708	-0,179	-0,062
261,063	-200,000	-0,014	-0,217
262,078	256,618	-0,171	-0,203
263,093	22,126	-0,191	-0,107
264,107	114,097	-0,151	-0,126
265,122	-200,000	-0,011	-0,058
266,136	51,664	-0,251	-0,164
267,151	44,727	-0,192	-0,122
268,166	800,000	-0,055	-0,153
269,180	188,564	-0,241	-0,249
270,195	103,297	-0,227	-0,183
271,209	258,793	-0,077	-0,092
272,224	-200,000	-0,016	-0,113
273,239	296,650	-0,076	-0,097
274,253	229,185	-0,122	-0,138
275,268	-136,905	-0,215	-0,017
276,282	419,168	-0,208	-0,307
277,297	588,473	-0,158	-0,270
278,312	69,771	-0,243	-0,173
279,326	-116,648	-0,208	-0,026
280,341	-13,153	-0,133	-0,059
281,355	-200,000	-0,035	-0,257
282,370	2,602	-0,168	-0,084
283,384	-145,375	-0,221	-0,014
284,399	59,406	-0,255	-0,173
285,414	298,774	-0,156	-0,198
286,428	-44,332	-0,130	0,045
287,443	527,653	-0,071	0,115
288,457	44,950	-0,136	0,086
289,472	-69,502	-0,082	-0,022
290,487	368,584	-0,181	-0,253
291,501	87,085	-0,236	-0,179
292,516	800,000	-0,129	-0,313
293,530	-70,690	-0,182	-0,047
294,545	-200,000	-0,011	-0,074
295,560	-58,286	-0,119	-0,035
296,574	-140,767	-0,231	-0,016
297,589	-116,649	-0,182	0,023
298,603	229,507	-0,181	-0,203
299,618	800,000	-0,076	-0,168
300,633	-83,168	-0,134	-0,029
301,647	74,490	-0,104	-0,075
302,662	570,840	-0,100	-0,168
303,676	-167,994	-0,194	-0,005
304,691	91,626	-0,183	-0,142
305,706	800,000	-0,074	-0,181
306,720	-109,483	-0,203	-0,029
307,735	-200,000	-0,007	-0,124
308,749	209,796	-0,100	-0,108
309,764	-86,396	-0,197	-0,041
310,779	-125,107	-0,178	-0,019
311,793	800,000	-0,068	-0,143
312,808	442,363	-0,108	-0,162
313,822	-124,353	-0,199	0,021
314,837	321,620	-0,072	-0,094
315,852	330,672	-0,124	0,165
316,866	448,321	-0,068	-0,103
317,881	-105,698	-0,070	0,011
318,895	113,616	-0,096	-0,080
319,910	-200,000	-0,019	-0,117
320,925	87,358	-0,094	-0,071
321,939	-200,000	-0,019	-0,137
322,954	56,123	-0,326	-0,217
323,968	-83,833	-0,237	-0,051
324,983	29,645	-0,113	-0,066
325,997	140,586	-0,108	-0,098
327,012	17,381	-0,175	-0,095
328,027	-134,123	-0,135	-0,011
329,041	300,874	-0,088	-0,112
330,056	44,215	-0,214	-0,134
331,070	-49,545	-0,254	-0,083
332,085	664,485	-0,021	-0,038
333,100	44,020	-0,166	-0,104
334,114	-126,164	-0,143	-0,014
335,129	-118,037	-0,156	-0,019
336,143	4,560	-0,139	-0,070
337,158	-200,000	-0,006	-0,075
338,173	-66,020	-0,140	-0,038
339,187	172,749	-0,151	-0,149
340,202	733,101	-0,067	-0,123
341,216	15,590	-0,132	-0,071
342,231	68,142	-0,129	-0,090
343,246	-15,256	-0,193	-0,084
344,260	45,151	-0,057	0,036
345,275	-14,578	-0,115	-0,051
346,289	204,642	-0,031	-0,033
347,304	317,010	-0,068	-0,089
348,319	48,435	-0,245	-0,156
349,333	740,651	-0,097	-0,179
350,348	109,987	-0,188	-0,154
351,362	152,675	-0,165	-0,154
352,377	195,050	-0,107	-0,112
353,392	800,000	-0,033	-0,098
354,406	110,825	-0,113	-0,093
355,421	207,253	1309,567	1398,874
356,435	159,424	1469,645	1399,354
