DTS Sentinel unit serial number:	SN410029Multiplexer serial number:	ORYXHardware model number:	OX2-SRSoftware version number:	ORYX F/W v4,00 Oryx Data Collector v3.7.2.0data status	okinstallation	B3 Nyhavnadifferential loss correction	single-endedforward channel	channel 1reverse channel	N/Adate	2023/12/03time	15:57:30forward acquisition time	300,00reverse acquisition time	0,00gamma	499,1914k internal	0,3196k external	0,3196temperature offset calibration	1,0000default loss term (dB/km)	0,3820temperature slope calibration	1,0000multiplexer offset coefficient	1,0000multiplexer slope coefficient	1,0000fibre end	0,00T internal ref (°C)	15,57T ext. ref 1 (°C)	0,05T ext. ref 2 (°C)	0,05length (m)	temperature (°C)	Stokes	anti-Stokes-744,400	283,312	-0,140	-0,184
-743,385	-200,000	0,014	0,334
-742,371	223,709	-0,170	-0,200
-741,356	-200,000	-0,007	0,388
-740,342	365,992	-0,150	-0,220
-739,327	-200,000	0,061	0,319
-738,312	800,000	-0,085	-0,265
-737,298	-200,000	0,007	0,208
-736,283	187,287	-0,188	-0,204
-735,269	-200,000	0,030	0,351
-734,254	252,817	-0,135	-0,169
-733,239	22,125	-0,223	0,132
-732,225	175,387	-0,155	-0,163
-731,210	37,099	-0,019	0,012
-730,196	-84,204	-0,068	0,016
-729,181	800,000	0,022	0,070
-728,167	-200,000	-0,134	0,000
-727,152	-200,000	-0,001	0,056
-726,137	-200,000	-0,008	-0,050
-725,123	-85,624	-0,147	-0,033
-724,108	89,422	0,013	0,011
-723,094	150,920	-0,102	-0,101
-722,079	128,553	-0,093	-0,086
-721,064	800,000	-0,051	-0,157
-720,050	584,220	0,021	-0,037
-719,035	-159,073	0,087	-0,004
-718,021	-200,000	0,014	0,046
-717,006	-70,797	0,009	0,002
-715,991	-34,233	-0,079	-0,032
-714,977	800,000	0,032	-0,091
-713,962	-200,000	0,023	-0,128
-712,948	-200,000	0,014	-0,062
-711,933	-108,886	0,023	-0,004
-710,918	59,508	0,053	-0,038
-709,904	-200,000	-0,032	-0,193
-708,889	465,045	-0,063	-0,102
-707,875	-122,881	-0,125	-0,014
-706,860	419,851	-0,056	-0,087
-705,845	50,496	0,072	-0,049
-704,831	193,957	0,055	0,061
-703,816	47,884	0,012	-0,008
-702,802	333,792	0,037	0,052
-701,787	489,561	-0,091	-0,151
-700,772	-74,774	0,141	0,037
-699,758	78,505	0,131	-0,101
-698,743	-144,702	-0,137	0,009
-697,729	-57,030	0,041	0,013
-696,714	551,120	-0,023	0,041
-695,699	-64,170	-0,081	0,024
-694,685	-144,400	-0,145	0,010
-693,670	800,000	0,011	-0,034
-692,656	78,118	-0,056	-0,044
-691,641	-164,727	0,071	-0,002
-690,627	-200,000	-0,025	-0,108
-689,612	-200,000	0,015	-0,073
-688,597	63,265	0,093	-0,068
-687,583	80,316	-0,087	-0,068
-686,568	-21,501	-0,149	-0,066
-685,554	50,623	0,099	-0,068
-684,539	800,000	0,036	0,106
-683,524	86,812	-0,145	0,116
-682,510	-200,000	-0,031	0,129
-681,495	-94,361	-0,105	0,021
-680,481	95,093	-0,143	-0,118
-679,466	520,124	-0,045	-0,077
-678,451	-200,000	-0,003	-0,033
-677,437	-200,000	0,035	-0,185
-676,422	-1,705	-0,060	0,030
-675,408	-140,908	0,098	-0,007
-674,393	-200,000	0,004	0,024
-673,378	131,398	-0,094	-0,087
-672,364	-200,000	-0,005	0,027
-671,349	-200,000	0,006	0,096
-670,335	437,705	-0,082	-0,131
-669,320	-200,000	0,005	0,031
-668,305	761,810	-0,070	0,138
-667,291	-200,000	0,029	-0,121
-666,276	-136,956	-0,079	0,007
-665,262	163,284	-0,053	-0,054
-664,247	104,061	-0,074	0,063
-663,232	-200,000	0,014	-0,101
-662,218	-4,870	-0,125	0,062
-661,203	800,000	0,014	-0,037
-660,189	-200,000	0,013	0,082
-659,174	-141,441	0,113	0,008
-658,159	98,771	-0,073	-0,061
-657,145	115,403	0,056	-0,050
-656,130	147,071	0,045	-0,044
-655,116	800,000	-0,087	0,217
-654,101	6,794	0,110	0,059
-653,086	583,326	0,102	0,183
-652,072	-93,351	-0,085	0,017
-651,057	227,086	0,067	-0,079
-650,043	89,658	-0,086	0,070
-649,028	800,000	-0,044	-0,098
-648,014	6,451	0,085	-0,046
-646,999	49,095	0,096	0,065
-645,984	-54,648	-0,089	0,029
-644,970	50,451	-0,183	0,125
-643,955	45,899	-0,130	-0,087
-642,941	448,385	-0,096	-0,154
-641,926	800,000	0,021	-0,060
-640,911	403,332	-0,030	0,047
-639,897	-200,000	0,002	0,070
-638,882	104,955	-0,083	-0,071
-637,868	800,000	-0,036	0,115
-636,853	-10,275	-0,093	0,045
-635,838	49,234	0,076	-0,051
-634,824	-95,023	-0,096	-0,019
-633,809	-91,111	-0,083	-0,017
-632,795	-107,424	-0,046	0,007
-631,780	4,125	-0,006	-0,003
-630,765	147,199	0,066	0,065
-629,751	-86,099	-0,166	-0,037
-628,736	-49,076	-0,165	0,057
-627,722	-10,252	0,107	-0,051
-626,707	133,342	0,098	0,092
-625,692	-37,654	0,130	0,050
-624,678	800,000	-0,013	-0,034
-623,663	-200,000	0,015	0,057
-622,649	-200,000	0,009	-0,126
-621,634	266,017	-0,083	0,105
-620,619	347,908	0,037	-0,052
-619,605	3,103	-0,057	0,030
-618,590	-200,000	0,006	-0,037
-617,576	800,000	0,031	-0,070
-616,561	288,825	0,028	0,037
-615,546	-200,000	-0,022	0,105
-614,532	134,885	0,038	0,036
-613,517	-200,000	-0,005	-0,083
-612,503	-131,524	-0,198	-0,019
-611,488	167,334	-0,077	0,080
-610,474	-200,000	-0,011	0,145
-609,459	337,944	-0,057	0,080
-608,444	-33,632	-0,160	-0,063
-607,430	81,686	0,014	0,011
-606,415	197,922	0,057	0,063
-605,401	-146,705	0,128	0,008
-604,386	-200,000	0,024	-0,081
-603,371	-200,000	-0,006	0,063
-602,357	-163,684	-0,013	-0,000
-601,342	-200,000	0,003	-0,034
-600,328	49,917	-0,122	-0,083
-599,313	-75,228	0,050	0,013
-598,298	-90,427	0,086	-0,018
-597,284	-130,647	0,098	-0,009
-596,269	246,878	-0,040	0,049
-595,255	800,000	-0,025	-0,069
-594,240	-200,000	0,023	-0,099
-593,225	14,016	-0,039	0,022
-592,211	124,253	-0,100	-0,091
-591,196	-200,000	-0,009	-0,090
-590,182	550,946	0,004	-0,007
-589,167	-200,000	-0,001	-0,087
-588,152	330,757	-0,045	0,063
-587,138	586,354	-0,054	0,097
-586,123	-17,911	0,103	-0,047
-585,109	-154,620	-0,078	0,004
-584,094	-200,000	0,005	-0,050
-583,079	68,040	-0,035	-0,026
-582,065	-30,845	-0,120	0,049
-581,050	-93,162	-0,131	-0,026
-580,036	-200,000	-0,016	0,096
-579,021	800,000	0,029	-0,084
-578,006	-200,000	-0,007	0,050
-576,992	-200,000	-0,001	-0,025
-575,977	-200,000	-0,012	-0,114
-574,963	60,604	0,143	0,103
-573,948	83,068	-0,024	0,019
-572,934	107,601	-0,017	-0,014
-571,919	180,084	0,041	-0,044
-570,904	-200,000	0,001	-0,068
-569,890	-107,181	-0,074	0,012
-568,875	-200,000	-0,022	0,165
-567,861	-78,941	0,074	-0,018
-566,846	177,266	0,003	-0,003
-565,831	-60,515	-0,024	-0,007
-564,817	-200,000	-0,032	-0,208
-563,802	64,098	-0,091	-0,066
-562,788	438,412	0,099	-0,157
-561,773	231,785	0,066	-0,078
-560,758	800,000	0,045	0,105
-559,744	61,663	-0,100	0,072
-558,729	800,000	0,043	-0,103
-557,715	121,435	0,023	-0,021
-556,700	-156,342	-0,137	0,006
-555,685	535,222	0,091	-0,156
-554,671	205,138	-0,054	0,061
-553,656	-27,041	-0,104	-0,044
-552,642	130,861	0,098	0,091
-551,627	114,143	-0,086	-0,075
-550,612	-5,842	-0,084	-0,041
-549,598	-200,000	-0,020	-0,125
-548,583	42,622	-0,229	-0,150
-547,569	800,000	-0,049	-0,122
-546,554	-15,320	-0,071	0,033
-545,539	-10,913	0,149	0,071
-544,525	-200,000	0,030	0,129
-543,510	186,848	0,045	0,048
-542,496	135,175	-0,045	-0,042
-541,481	-200,000	-0,010	-0,075
-540,466	472,355	0,004	0,006
-539,452	-69,939	0,043	0,012
-538,437	1,884	0,083	-0,043
-537,423	76,751	0,077	-0,059
-536,408	390,324	-0,088	0,133
-535,393	-200,000	0,005	-0,093
-534,379	-29,544	-0,073	0,030
-533,364	800,000	0,035	-0,101
-532,350	380,618	0,107	-0,159
-531,335	348,001	0,085	0,121
-530,321	-97,679	0,134	0,025
-529,306	198,698	-0,106	-0,118
-528,291	-168,419	-0,117	0,003
-527,277	-50,555	-0,072	0,025
-526,262	-55,565	0,061	0,020
-525,248	-1,521	0,212	-0,107
-524,233	-92,026	0,082	0,017
-523,218	-200,000	0,003	0,175
-522,204	-200,000	0,012	0,089
-521,189	640,889	-0,037	0,069
-520,175	-8,625	-0,132	-0,064
-519,160	-200,000	0,008	0,069
-518,145	-53,276	0,046	-0,015
-517,131	-72,067	0,074	-0,020
-516,116	-27,033	0,124	-0,052
-515,102	-200,000	0,009	0,145
-514,087	-89,998	-0,084	-0,018
-513,072	800,000	-0,025	0,073
-512,058	-24,009	-0,069	0,030
-511,043	753,309	0,064	0,126
-510,029	41,482	0,109	0,071
-509,014	45,968	-0,069	0,046
-507,999	211,608	0,059	0,067
-506,985	-70,268	-0,081	-0,022
-505,970	57,235	0,075	-0,053
-504,956	14,773	-0,143	0,080
-503,941	-200,000	-0,025	0,092
-502,926	183,931	0,042	-0,044
-501,912	13,565	-0,130	0,073
-500,897	800,000	-0,050	0,145
-499,883	-117,155	0,059	0,008
-498,868	-148,723	-0,116	-0,007
-497,853	513,081	-0,048	-0,081
-496,839	-200,000	0,019	-0,064
-495,824	-179,935	0,053	0,001
-494,810	-61,714	0,088	-0,026
-493,795	226,783	0,077	0,091
-492,781	800,000	0,046	0,109
-491,766	-46,718	0,104	-0,037
-490,751	392,447	0,031	0,047
-489,737	-180,496	-0,056	-0,001
-488,722	124,919	0,043	-0,039
-487,708	-44,875	0,095	-0,034
-486,693	-200,000	0,006	0,025
-485,678	-87,799	0,103	0,022
-484,664	-145,604	0,099	-0,006
-483,649	-109,791	-0,039	0,006
-482,635	800,000	-0,045	-0,115
-481,620	307,835	-0,102	-0,137
-480,605	276,194	-0,108	-0,139
-479,591	-133,100	0,160	0,014
-478,576	-200,000	0,018	-0,066
-477,562	-101,408	-0,174	0,030
-476,547	-200,000	0,014	-0,142
-475,532	15,472	0,126	-0,071
-474,518	-200,000	-0,006	-0,080
-473,503	-200,000	-0,006	0,134
-472,489	800,000	0,010	0,021
-471,474	57,100	-0,041	0,029
-470,459	-175,731	0,051	0,001
-469,445	76,658	-0,039	-0,030
-468,430	58,377	0,119	-0,084
-467,416	21,409	0,073	-0,043
-466,401	-64,414	0,092	0,027
-465,386	769,821	-0,031	0,061
-464,372	-200,000	0,004	0,057
-463,357	-121,541	-0,079	-0,009
-462,343	106,607	-0,086	0,074
-461,328	371,678	-0,034	-0,050
-460,313	-200,000	-0,016	-0,102
-459,299	800,000	-0,058	-0,117
-458,284	130,591	0,093	0,086
-457,270	325,684	0,076	0,106
-456,255	800,000	-0,032	-0,078
-455,241	800,000	0,020	-0,041
-454,226	48,325	-0,040	-0,027
-453,211	-200,000	-0,002	0,088
-452,197	-33,449	0,165	-0,065
-451,182	16,576	0,078	-0,044
-450,168	800,000	0,036	-0,085
-449,153	-200,000	-0,016	-0,064
-448,138	-200,000	-0,006	0,046
-447,124	800,000	-0,058	-0,128
-446,109	-70,557	-0,089	-0,024
-445,095	116,890	0,078	0,069
-444,080	-146,777	0,152	0,009
-443,065	552,523	0,019	-0,032
-442,051	-155,085	-0,054	0,002
-441,036	598,627	-0,023	0,040
-440,022	154,478	-0,043	0,043
-439,007	800,000	-0,038	0,106
-437,992	-200,000	-0,015	0,048
-436,978	-124,447	0,196	-0,022
-435,963	671,747	-0,049	-0,091
-434,949	800,000	-0,012	-0,026
-433,934	800,000	0,052	-0,115
-432,919	-25,809	-0,049	-0,021
-431,905	-39,971	0,023	0,009
-430,890	192,050	0,124	0,135
-429,876	-200,000	0,002	0,007
-428,861	-54,291	0,030	-0,010
-427,846	180,466	0,066	-0,069
-426,832	-161,787	-0,107	-0,004
-425,817	-104,775	-0,134	0,022
-424,803	115,614	-0,045	-0,040
-423,788	800,000	0,024	-0,073
-422,773	451,908	0,050	-0,080
-421,759	800,000	0,030	-0,065
-420,744	-25,176	-0,094	0,040
-419,730	-200,000	-0,002	-0,159
-418,715	800,000	-0,052	-0,152
-417,701	-164,685	-0,078	0,002
-416,686	36,661	0,124	-0,079
-415,671	-107,307	0,119	0,019
-414,657	800,000	-0,006	0,014
-413,642	109,448	-0,076	0,065
-412,628	-200,000	0,024	0,135
-411,613	72,249	-0,034	-0,026
-410,598	800,000	0,026	-0,079
-409,584	-77,915	-0,143	-0,035
-408,569	-31,495	-0,119	0,048
-407,555	-200,000	-0,108	0,000
-406,540	-200,000	-0,007	-0,061
-405,525	-200,000	-0,048	-0,196
-404,511	96,641	-0,069	-0,057
-403,496	-194,296	-0,096	0,001
-402,482	-64,776	0,102	0,029
-401,467	800,000	-0,015	-0,038
-400,452	-78,647	0,166	-0,040
-399,438	-200,000	0,015	0,048
-398,423	-200,000	-0,002	0,099
-397,409	-149,316	-0,067	0,004
-396,394	-200,000	-0,001	-0,122
-395,379	283,696	0,067	0,086
-394,365	-200,000	0,009	-0,082
-393,350	84,052	0,070	-0,055
-392,336	539,999	0,010	-0,017
-391,321	23,136	-0,061	0,036
-390,306	408,064	-0,089	-0,135
-389,292	-200,000	0,017	-0,081
-388,277	105,745	0,056	-0,048
-387,263	800,000	0,022	-0,046
-386,248	800,000	-0,042	0,110
-385,233	-101,621	0,106	-0,018
-384,219	361,150	-0,090	-0,130
-383,204	800,000	-0,017	0,050
-382,190	-33,215	-0,035	-0,014
-381,175	197,379	0,076	-0,083
-380,160	800,000	0,029	0,071
-379,146	-9,204	-0,058	-0,028
-378,131	-127,075	0,087	-0,009
-377,117	49,667	0,050	-0,034
-376,102	315,689	0,071	-0,096
-375,088	506,089	0,042	-0,070
-374,073	800,000	0,011	-0,035
-373,058	30,917	-0,111	0,068
-372,044	-110,812	0,123	-0,018
-371,029	232,447	0,104	-0,122
-370,015	-200,000	-0,006	-0,110
-369,000	-22,020	-0,101	-0,044
-367,985	575,479	-0,046	0,081
-366,971	-200,000	0,017	0,055
-365,956	-200,000	0,005	0,015
-364,942	-200,000	0,003	0,084
-363,927	-88,465	0,101	0,022
-362,912	81,597	-0,053	-0,041
-361,898	-200,000	-0,005	0,103
-360,883	288,429	-0,059	-0,077
-359,869	-24,711	0,150	-0,064
-358,854	800,000	-0,045	0,111
-357,839	303,317	-0,094	0,126
-356,825	-200,000	0,045	0,208
-355,810	195,361	-0,043	0,047
-354,796	-200,000	-0,008	-0,034
-353,781	186,833	-0,018	0,019
-352,766	-200,000	0,019	0,120
-351,752	-200,000	0,018	-0,081
-350,737	-120,677	0,062	-0,007
-349,723	-200,000	0,008	-0,026
-348,708	565,811	-0,063	0,110
-347,693	800,000	0,037	0,094
-346,679	573,315	0,020	0,036
-345,664	293,608	-0,045	0,059
-344,650	564,805	0,058	-0,101
-343,635	-84,446	-0,086	0,019
-342,620	800,000	0,006	-0,012
-341,606	-1,461	0,041	-0,021
-340,591	575,490	0,021	0,038
-339,577	11,380	-0,116	-0,064
-338,562	-200,000	0,005	-0,059
-337,548	69,368	0,074	0,055
-336,533	-0,482	0,062	-0,032
-335,518	800,000	-0,058	0,140
-334,504	-200,000	0,007	0,194
-333,489	800,000	0,007	0,016
-332,475	-200,000	0,009	-0,072
-331,460	112,312	-0,099	-0,086
-330,445	-12,813	0,053	-0,025
-329,431	800,000	0,071	-0,168
-328,416	-110,565	0,076	0,011
-327,402	-200,000	-0,023	0,103
-326,387	-37,760	0,155	0,059
-325,372	-200,000	0,003	-0,025
-324,358	330,938	-0,070	-0,097
-323,343	-200,000	0,005	0,122
-322,329	-200,000	0,020	0,204
-321,314	626,000	0,044	-0,080
-320,299	63,968	0,174	0,125
-319,285	800,000	0,014	-0,029
-318,270	21,470	-0,040	-0,023
-317,256	-200,000	-0,011	-0,084
-316,241	-133,493	0,050	0,004
-315,226	-179,967	0,111	0,002
-314,212	481,512	0,102	0,167
-313,197	426,567	0,016	-0,025
-312,183	187,285	0,099	0,106
-311,168	-155,149	0,013	0,001
-310,153	192,018	0,041	-0,044
-309,139	88,292	0,061	0,049
-308,124	-200,000	-0,042	-0,133
-307,110	-154,922	0,083	-0,004
-306,095	542,422	-0,035	0,060
-305,080	228,023	0,029	0,034
-304,066	-196,390	-0,114	0,001
-303,051	-141,006	-0,173	-0,012
-302,037	-87,591	0,120	0,026
-301,022	-200,000	-0,024	0,085
-300,008	341,669	0,068	-0,095
-298,993	17,051	0,071	0,040
-297,978	800,000	0,032	0,069
-296,964	-35,197	-0,176	-0,068
-295,949	66,211	0,036	0,026
-294,935	-126,652	-0,077	-0,008
-293,920	-200,000	-0,005	-0,043
-292,905	-145,172	0,048	0,003
-291,891	-200,000	-0,010	0,197
-290,876	800,000	0,065	0,135
-289,862	-42,318	-0,155	0,056
-288,847	82,303	-0,092	-0,071
-287,832	144,763	-0,073	0,070
-286,818	-200,000	-0,010	0,113
-285,803	261,191	0,089	0,111
-284,789	553,707	-0,082	0,141
-283,774	-200,000	-0,020	0,140
-282,759	58,394	-0,016	-0,011
-281,745	-200,000	-0,004	0,141
-280,730	-200,000	-0,003	0,043
-279,716	616,716	-0,081	-0,146
-278,701	-75,786	-0,119	-0,030
-277,686	221,081	0,066	0,076
-276,672	-85,687	0,083	0,018
-275,657	0,572	0,097	-0,050
-274,643	-20,461	0,049	-0,022
-273,628	422,049	0,090	-0,139
-272,613	9,206	0,086	0,046
-271,599	40,029	-0,082	-0,053
-270,584	188,877	0,135	-0,145
-269,570	-200,000	0,003	-0,015
-268,555	-200,000	0,002	-0,021
-267,540	800,000	-0,037	-0,112
-266,526	-18,065	0,111	0,050
-265,511	-122,903	-0,060	-0,007
-264,497	-169,250	0,064	0,002
-263,482	24,969	0,082	0,049
-262,467	339,796	0,057	0,079
-261,453	-200,000	0,027	0,154
-260,438	-102,966	-0,133	0,022
-259,424	-97,633	-0,132	-0,024
-258,409	-170,771	-0,074	0,002
-257,395	186,380	0,089	-0,095
-256,380	588,967	0,018	-0,033
-255,365	800,000	0,058	0,132
-254,351	-192,300	-0,059	-0,000
-253,336	265,220	0,069	0,086
-252,322	-9,008	-0,096	-0,046
-251,307	-48,762	-0,106	-0,036
-250,292	-0,980	-0,088	-0,044
-249,278	-56,275	0,070	-0,022
-248,263	-200,000	0,001	-0,027
-247,249	-21,443	0,119	0,052
-246,234	-131,064	-0,044	-0,004
-245,219	176,263	-0,091	-0,095
-244,205	61,599	-0,104	-0,074
-243,190	118,379	-0,032	-0,028
-242,176	234,355	-0,035	-0,042
-241,161	-159,520	0,155	-0,006
-240,146	-200,000	0,028	0,102
-239,132	187,291	-0,025	-0,027
-238,117	800,000	-0,032	0,075
-237,103	-200,000	-0,010	0,091
-236,088	470,593	-0,039	-0,062
-235,073	237,470	0,147	-0,174
-234,059	268,676	0,058	0,073
-233,044	-200,000	-0,010	0,185
-232,030	305,963	-0,021	0,028
-231,015	-144,687	-0,053	-0,003
-230,000	93,293	-0,029	0,023
-228,986	32,336	0,090	0,055
-227,971	-108,655	0,088	0,013
-226,957	185,256	-0,010	0,010
-225,942	-173,120	0,158	0,003
-224,927	285,353	0,055	0,071
-223,913	-200,000	-0,002	-0,077
-222,898	109,504	-0,078	-0,067
-221,884	341,002	-0,009	-0,013
-220,869	54,803	0,063	0,044
-219,855	246,158	-0,071	0,085
-218,840	45,556	0,127	-0,084
-217,825	-200,000	0,001	-0,004
-216,811	89,164	-0,154	-0,122
-215,796	-200,000	-0,017	-0,079
-214,782	800,000	0,035	0,071
-213,767	-178,956	-0,087	-0,001
-212,752	521,171	-0,088	0,147
-211,738	73,756	0,043	0,032
-210,723	-104,403	-0,133	0,022
-209,709	46,201	0,016	0,011
-208,694	-73,507	-0,098	-0,025
-207,679	-13,173	-0,103	0,047
-206,665	62,028	0,089	0,063
-205,650	-200,000	0,012	0,048
-204,636	-200,000	-0,007	0,089
-203,621	800,000	-0,014	0,031
-202,606	-88,648	0,107	-0,022
-201,592	-118,587	0,040	-0,005
-200,577	386,236	-0,135	-0,199
-199,563	51,831	-0,137	0,093
-198,548	57,824	0,204	0,142
-197,533	-200,000	0,014	-0,052
-196,519	76,951	0,044	-0,033
-195,504	-200,000	0,001	0,006
-194,490	-61,108	-0,122	0,036
-193,475	505,670	-0,067	0,111
-192,460	-58,416	-0,066	-0,020
-191,446	161,399	0,035	0,035
-190,431	-200,000	-0,013	-0,099
-189,417	800,000	0,053	0,105
-188,402	-200,000	0,021	0,071
-187,387	723,785	0,028	0,053
-186,373	-200,000	-0,015	-0,097
-185,358	-87,253	0,136	-0,029
-184,344	-26,063	0,131	-0,055
-183,329	-192,558	-0,091	0,001
-182,315	338,749	-0,016	-0,022
-181,300	298,037	-0,032	0,042
-180,285	-200,000	-0,018	-0,089
-179,271	-200,000	0,001	-0,098
-178,256	-200,000	0,003	-0,099
-177,242	-3,465	0,099	-0,049
-176,227	254,839	0,150	0,183
-175,212	-54,490	0,112	-0,036
-174,198	800,000	-0,035	0,077
-173,183	800,000	-0,056	-0,110
-172,169	105,814	-0,079	-0,067
-171,154	151,399	-0,063	-0,061
-170,139	65,131	0,038	0,027
-169,125	53,477	0,011	-0,007
-168,110	-200,000	-0,004	0,106
-167,096	20,304	0,074	0,043
-166,081	-45,461	-0,091	0,032
-165,066	-95,682	0,040	-0,008
-164,052	265,963	0,068	0,085
-163,037	206,396	-0,023	-0,026
-162,023	-200,000	0,019	0,063
-161,008	800,000	0,056	0,140
-159,993	94,108	-0,056	-0,045
-158,979	276,475	-0,069	-0,087
-157,964	-70,202	-0,068	-0,018
-156,950	-200,000	-0,017	-0,115
-155,935	-90,485	-0,106	0,022
-154,920	86,139	0,019	0,015
-153,906	800,000	0,062	0,171
-152,891	444,102	-0,012	0,019
-151,877	-200,000	-0,008	0,098
-150,862	-200,000	-0,019	0,066
-149,847	-200,000	0,015	-0,086
-148,833	57,891	0,059	-0,041
-147,818	-200,000	0,018	-0,062
-146,804	308,632	0,019	-0,026
-145,789	-145,872	-0,099	0,006
-144,775	120,155	0,031	0,027
-143,760	93,139	0,087	-0,070
-142,745	-174,189	-0,243	-0,005
-141,731	-126,922	-0,078	0,008
-140,716	53,469	0,094	0,064
-139,702	-200,000	0,021	0,069
-138,687	-104,837	-0,074	-0,012
-137,672	266,148	0,038	0,047
-136,658	-200,000	0,000	-0,102
-135,643	800,000	0,019	0,041
-134,629	48,704	0,047	0,031
-133,614	-155,253	0,052	0,002
-132,599	800,000	-0,054	0,128
-131,585	383,345	-0,019	-0,028
-130,570	553,243	-0,035	-0,059
-129,556	800,000	0,010	-0,028
-128,541	800,000	0,056	-0,167
-127,526	-200,000	-0,042	-0,141
-126,512	40,566	-0,144	-0,092
-125,497	235,404	0,091	0,107
-124,483	279,102	0,070	-0,089
-123,468	423,529	-0,040	0,062
-122,453	800,000	-0,031	0,095
-121,439	0,082	0,059	-0,030
-120,424	800,000	-0,044	-0,131
-119,410	800,000	0,046	0,093
-118,395	-200,000	-0,007	0,099
-117,380	800,000	-0,021	-0,049
-116,366	-30,672	-0,065	-0,026
-115,351	-79,402	-0,100	-0,024
-114,337	47,206	-0,087	-0,057
-113,322	-200,000	0,011	-0,219
-112,307	-200,000	-0,007	0,080
-111,293	-110,322	0,089	0,013
-110,278	-200,000	0,040	0,154
-109,264	-200,000	-0,042	0,271
-108,249	45,309	0,062	-0,041
-107,234	324,690	0,026	0,035
-106,220	44,352	-0,078	0,050
-105,205	436,429	0,029	0,046
-104,191	626,520	0,021	0,037
-103,176	122,276	0,128	-0,114
-102,162	211,632	-0,116	0,130
-101,147	-200,000	-0,034	0,130
-100,132	626,402	-0,013	0,024
-99,118	-169,133	-0,217	0,006
-98,103	194,067	0,118	0,127
-97,089	0,833	0,057	-0,029
-96,074	190,037	-0,021	-0,022
-95,059	101,567	0,108	0,089
-94,045	-41,916	-0,034	-0,012
-93,030	238,858	0,014	0,016
-92,016	22,652	-0,123	-0,071
-91,001	73,089	0,049	-0,036
-89,986	-7,505	-0,079	0,038
-88,972	226,713	0,061	0,071
-87,957	560,358	-0,056	-0,096
-86,943	-152,895	-0,120	0,006
-85,928	800,000	-0,033	-0,082
-84,913	351,187	-0,056	-0,079
-83,899	800,000	0,037	0,115
-82,884	-200,000	-0,020	-0,072
-81,870	247,979	-0,081	0,097
-80,855	182,732	-0,120	0,126
-79,840	21,189	0,093	-0,053
-78,826	67,954	-0,113	-0,082
-77,811	322,452	-0,110	-0,149
-76,797	-39,993	0,057	-0,021
-75,782	800,000	0,055	0,127
-74,767	-14,904	0,039	-0,018
-73,753	369,287	0,021	-0,030
-72,738	800,000	0,015	0,040
-71,724	800,000	-0,014	0,029
-70,709	-29,218	0,037	-0,015
-69,694	-6,066	-0,066	-0,032
-68,680	-173,658	-0,016	-0,000
-67,665	-47,728	-0,171	0,058
-66,651	-200,000	-0,005	0,047
-65,636	130,520	-0,055	-0,050
-64,622	-32,723	-0,088	-0,035
-63,607	-82,123	0,130	-0,030
-62,592	-138,914	-0,030	0,002
-61,578	-6,849	0,089	0,043
-60,563	-200,000	0,010	-0,057
-59,549	327,151	0,151	0,206
-58,534	-66,676	-1,447	-0,404
-57,519	358,395	-1,514	-2,151
-56,505	-200,000	-0,485	-4,407
-55,490	185,651	1,012	1,067
-54,476	800,000	4,684	10,925
-53,461	-200,000	17,923	286,117
-52,446	800,000	724,747	2232,451
-51,432	559,632	1639,717	2818,156
-50,417	80,305	1662,158	1267,114
-49,403	23,429	1535,858	893,000
-48,388	17,382	1459,716	819,477
-47,373	18,080	1449,321	816,964
-46,359	17,608	1439,867	809,348
-45,344	15,712	1435,076	797,587
-44,330	15,617	1433,254	796,088
-43,315	15,655	1431,311	795,158
-42,300	15,653	1430,009	794,393
-41,286	15,637	1428,839	793,634
-40,271	15,638	1427,514	792,872
-39,257	15,602	1426,260	791,976
-38,242	15,679	1424,804	791,502
-37,227	15,716	1423,598	790,976
-36,213	15,712	1422,458	790,288
-35,198	15,663	1421,090	789,268
-34,184	15,685	1420,207	788,847
-33,169	15,621	1418,935	787,811
-32,154	15,699	1418,124	787,694
-31,140	15,698	1416,461	786,735
-30,125	15,706	1415,453	786,184
-29,111	15,678	1414,399	785,434
-28,096	15,635	1413,332	784,609
-27,082	15,611	1412,176	783,825
-26,067	15,596	1411,173	783,166
-25,052	15,614	1409,949	782,540
-24,038	15,585	1409,064	781,882
-23,023	15,595	1408,056	781,336
-22,009	15,547	1406,822	780,399
-20,994	15,513	1406,151	779,834
-19,979	15,585	1405,077	779,543
-18,965	15,531	1404,135	778,741
-17,950	15,520	1403,184	778,129
-16,936	15,570	1402,221	777,799
-15,921	15,489	1401,107	776,771
-14,906	15,445	1400,190	776,026
-13,892	15,489	1399,336	775,726
-12,877	15,500	1398,348	775,200
-11,863	15,474	1397,484	774,569
-10,848	15,500	1396,557	774,146
-9,833	15,529	1395,317	773,563
-8,819	15,438	1394,691	772,765
-7,804	15,402	1393,696	772,013
-6,790	15,421	1392,727	771,537
-5,775	15,426	1391,472	770,833
-4,760	15,364	1390,797	770,140
-3,746	15,387	1389,948	769,746
-2,731	15,423	1389,236	769,491
-1,717	15,375	1388,398	768,771
-0,702	15,387	1386,470	767,729
0,313	19,169	1306,232	740,791
1,327	35,231	706,817	438,098
2,342	54,100	124,873	84,963
3,356	2,022	16,545	8,433
4,371	-1,844	3,289	1,633
5,386	-96,698	0,497	0,092
6,400	-200,000	-0,002	0,186
7,415	-130,225	-0,188	0,018
8,429	378,542	-0,153	-0,223
9,444	-60,542	-0,295	-0,088
10,459	0,248	-0,356	-0,179
11,473	173,715	-0,291	-0,298
12,488	-200,000	-0,085	-0,284
13,502	158,068	-0,272	-0,267
14,517	-57,191	-0,355	-0,110
15,531	25,985	-0,365	-0,215
16,546	-19,491	-0,383	-0,167
17,561	483,459	-0,259	-0,418
18,575	-101,046	-0,188	0,032
19,590	42,340	-0,152	-0,097
20,604	62,270	-0,332	-0,234
21,619	120,890	-0,445	-0,391
22,634	64,146	-0,503	-0,358
23,648	12,817	-0,414	-0,225
24,663	45,889	-0,428	-0,280
25,677	59,153	-0,343	-0,238
26,692	54,438	-0,425	-0,289
27,707	39,469	-0,301	-0,190
28,721	42,423	-0,268	-0,172
29,736	99,338	-0,390	-0,319
30,750	218,863	-0,262	-0,296
31,765	61,833	-0,463	-0,326
32,780	61,029	-0,333	-0,233
33,794	31,182	-0,381	-0,231
34,809	22,202	-0,375	-0,216
35,823	105,642	-0,193	-0,162
36,838	212,484	-0,380	-0,424
37,853	11,253	-0,406	-0,219
38,867	50,548	-0,347	-0,232
39,882	97,030	-0,327	-0,265
40,896	149,626	-0,315	-0,302
41,911	61,950	-0,403	-0,283
42,926	18,884	-0,353	-0,199
43,940	-85,135	-0,431	-0,094
44,955	81,801	-0,449	-0,343
45,969	134,340	-0,296	-0,271
46,984	0,604	-0,450	-0,226
47,999	101,036	-0,285	-0,234
49,013	800,000	-0,149	-0,307
50,028	93,387	-0,269	-0,215
51,042	105,295	-0,264	-0,220
52,057	167,554	-0,388	-0,389
53,071	421,026	-0,184	-0,279
54,086	97,203	-0,252	-0,204
55,101	307,793	-0,210	-0,277
56,115	36,515	-0,373	-0,232
57,130	39,178	-0,333	-0,209
58,144	-2,456	-0,422	-0,208
59,159	144,421	-0,335	-0,315
60,174	45,608	-0,395	-0,257
61,188	28,402	-0,334	-0,198
62,203	-45,600	-0,271	-0,094
63,217	-56,637	-0,369	-0,114
64,232	-62,302	-0,236	-0,069
65,247	19,031	-0,482	-0,272
66,261	129,752	-0,393	-0,354
67,276	55,397	-0,408	-0,278
68,290	67,639	-0,341	-0,245
69,305	76,333	-0,228	-0,170
70,320	1,467	-0,422	-0,213
71,334	91,157	-0,432	-0,341
72,349	31,559	-0,341	-0,206
73,363	-117,100	-0,470	-0,060
74,378	46,645	-0,333	-0,218
75,393	107,887	-0,318	-0,267
76,407	-12,962	-0,279	-0,127
77,422	-19,358	-0,314	-0,137
78,436	21,873	-0,405	-0,232
79,451	-41,415	-0,415	-0,149
80,466	46,517	-0,268	-0,174
81,480	166,211	-0,326	-0,325
82,495	-4,488	-0,395	-0,191
83,509	-129,514	-0,424	-0,041
84,524	-6,854	-0,284	-0,135
85,539	94,304	-0,286	-0,228
86,553	118,636	-0,273	-0,237
87,568	-45,961	-0,252	-0,087
88,582	59,456	-0,304	-0,211
89,597	198,852	-0,232	-0,250
90,611	-125,500	-0,264	-0,028
91,626	-19,098	-0,273	-0,119
92,641	0,221	-0,324	-0,162
93,655	48,778	-0,310	-0,204
94,670	-70,866	-0,334	-0,088
95,684	115,508	-0,423	-0,363
96,699	14,072	-0,356	-0,194
97,714	-13,772	-0,230	-0,104
98,728	52,760	-0,194	-0,130
99,743	378,800	-0,192	-0,277
100,757	-56,111	-0,280	-0,087
101,772	-50,030	-0,339	-0,112
102,787	32,896	-0,300	-0,182
103,801	106,077	-0,289	-0,240
104,816	240,649	-0,277	-0,325
105,830	77,215	-0,303	-0,226
106,845	235,838	-0,211	-0,245
107,860	19,879	-0,349	-0,197
108,874	-12,466	-0,262	-0,120
109,889	-43,610	-0,270	-0,095
110,903	800,000	-0,089	-0,214
111,918	136,787	-0,324	-0,297
112,933	53,081	-0,298	-0,200
113,947	800,000	-0,061	-0,177
114,962	13,292	-0,287	-0,156
115,976	44,369	-0,287	-0,185
116,991	127,731	-0,262	-0,233
118,006	165,117	-0,240	-0,238
119,020	-38,017	-0,226	-0,084
120,035	-21,625	-0,295	-0,125
121,049	232,792	-0,244	-0,282
122,064	50,889	-0,178	-0,118
123,079	-78,773	-0,264	-0,063
124,093	-30,330	-0,296	-0,117
125,108	272,898	-0,265	-0,329
126,122	-36,789	-0,265	-0,099
127,137	-60,762	-0,218	-0,064
128,151	213,593	-0,237	-0,263
129,166	-91,722	-0,246	-0,049
130,181	291,494	-0,175	-0,224
131,195	130,587	-0,232	-0,208
132,210	-26,107	-0,247	-0,101
133,224	-85,019	-0,331	0,072
134,239	70,559	-0,252	-0,183
135,254	90,823	-0,200	-0,157
136,268	800,000	-0,092	-0,250
137,283	214,107	-0,217	-0,241
138,297	71,094	-0,187	-0,135
139,312	53,203	-0,293	-0,196
140,327	69,086	-0,294	-0,211
141,341	-101,724	-0,225	-0,038
142,356	90,816	-0,194	-0,152
143,370	697,677	-0,088	-0,162
144,385	-63,070	-0,298	-0,086
145,400	230,736	-0,219	-0,251
146,414	66,729	-0,250	-0,178
147,429	304,192	-0,185	-0,240
148,443	69,044	-0,157	-0,113
149,458	126,828	-0,273	-0,242
150,473	283,321	-0,120	-0,151
151,487	-67,920	-0,281	-0,076
152,502	19,613	-0,216	-0,121
153,516	-50,450	-0,348	-0,114
154,531	15,869	-0,236	-0,129
155,546	83,299	-0,271	-0,206
156,560	255,403	-0,182	-0,219
157,575	211,238	-0,134	-0,148
158,589	-83,991	-0,230	-0,051
159,604	73,344	-0,264	-0,193
160,619	-28,413	-0,273	-0,110
161,633	160,809	-0,277	-0,270
162,648	323,772	-0,146	-0,195
163,662	515,122	-0,136	-0,223
164,677	6,068	-0,156	-0,081
165,692	43,726	-0,228	-0,145
166,706	128,535	-0,210	-0,187
167,721	272,590	-0,156	-0,193
168,735	3,390	-0,307	-0,156
169,750	-138,399	-0,226	-0,017
170,764	-100,773	-0,263	-0,045
171,779	300,255	-0,177	-0,228
172,794	22,248	-0,199	-0,113
173,808	-26,800	-0,150	-0,061
174,823	-43,593	-0,397	-0,139
175,837	23,769	-0,221	-0,127
176,852	442,078	-0,123	-0,189
177,867	12,882	-0,227	-0,122
178,881	-109,914	-0,166	0,024
179,896	50,805	-0,238	-0,157
180,910	-200,000	-0,032	-0,171
181,925	189,850	-0,221	-0,232
182,940	-0,298	-0,188	-0,093
183,954	-153,084	-0,185	-0,009
184,969	-120,083	-0,204	0,024
185,983	-47,457	-0,137	-0,046
186,998	320,623	-0,209	-0,277
188,013	172,981	-0,164	-0,165
189,027	493,504	-0,143	-0,230
190,042	76,951	-0,302	-0,223
191,056	7,179	-0,235	-0,122
192,071	-75,494	-0,306	-0,075
193,086	76,914	-0,175	-0,130
194,100	318,422	-0,157	-0,208
195,115	800,000	-0,067	-0,181
196,129	-27,502	-0,280	-0,113
197,144	278,583	-0,188	-0,234
198,159	125,631	-0,153	-0,135
199,173	109,183	-0,186	-0,155
200,188	-190,342	-0,155	-0,001
201,202	184,281	-0,122	-0,126
202,217	58,697	-0,255	-0,174
203,232	136,825	-0,215	-0,195
204,246	64,133	-0,238	-0,167
205,261	-23,482	-0,212	-0,088
206,275	174,426	-0,096	-0,096
207,290	124,070	-0,180	-0,158
208,304	89,485	-0,172	-0,133
209,319	33,032	-0,133	-0,080
210,334	113,970	-0,375	-0,317
211,348	800,000	-0,100	-0,296
212,363	-200,000	-0,058	-0,205
213,377	-18,179	-0,232	-0,101
214,392	134,823	-0,206	-0,186
215,407	-126,791	-0,224	-0,023
216,421	125,418	-0,239	-0,210
217,436	-71,848	-0,190	-0,049
218,450	244,204	-0,224	-0,261
219,465	29,290	-0,222	-0,131
220,480	124,673	-0,218	-0,191
221,494	-80,714	-0,229	-0,052
222,509	193,426	-0,136	-0,143
223,523	413,033	-0,112	-0,167
224,538	124,048	-0,209	-0,183
225,553	-26,365	-0,219	-0,089
226,567	371,908	-0,149	-0,210
227,582	606,913	-0,107	-0,186
228,596	77,215	-0,159	-0,117
229,611	-50,476	-0,198	-0,065
230,626	553,104	-0,078	-0,131
231,640	-136,448	-0,185	-0,015
232,655	686,142	-0,118	-0,216
233,669	13,432	-0,360	-0,193
234,684	423,600	-0,126	-0,189
235,699	405,964	-0,077	-0,114
236,713	-88,988	-0,048	-0,010
237,728	270,975	-0,140	-0,172
238,742	95,993	-0,138	-0,110
239,757	613,283	-0,131	-0,229
240,772	-101,099	-0,158	-0,027
241,786	103,446	-0,136	-0,111
242,801	-34,061	-0,239	-0,091
243,815	-78,134	-0,091	-0,022
244,830	-200,000	-0,193	0,000
245,844	79,426	-0,195	-0,145
246,859	-6,314	-0,296	-0,140
247,874	107,861	-0,144	-0,119
248,888	-26,320	-0,139	-0,056
249,903	147,897	-0,099	-0,092
250,917	201,117	-0,107	-0,114
251,932	-3,581	-0,151	-0,072
252,947	-71,044	-0,314	-0,081
253,961	-66,367	-0,115	-0,032
254,976	4,433	-0,167	-0,085
255,990	-95,889	-0,208	-0,038
257,005	71,062	-0,196	-0,140
258,020	689,470	-0,145	-0,264
259,034	-77,999	-0,129	-0,031
260,049	-6,985	-0,143	-0,067
261,063	-112,132	-0,218	-0,030
262,078	188,681	-0,196	-0,203
263,093	-65,898	-0,252	-0,069
264,107	282,274	-0,119	-0,148
265,122	186,037	-0,130	-0,134
266,136	-42,560	-0,213	-0,075
267,151	252,129	-0,088	-0,104
268,166	-8,881	-0,259	-0,120
269,180	288,083	-0,154	-0,194
270,195	198,244	-0,156	-0,166
271,209	-17,159	-0,233	-0,101
272,224	800,000	-0,070	-0,180
273,239	-44,355	-0,066	-0,023
274,253	-200,000	-0,063	-0,217
275,268	226,564	-0,147	-0,165
276,282	64,636	-0,192	-0,134
277,297	201,803	-0,123	-0,131
278,312	800,000	-0,100	-0,237
279,326	359,952	-0,158	-0,219
280,341	419,846	-0,109	-0,162
281,355	-37,854	-0,169	-0,062
282,370	119,274	-0,195	-0,167
283,384	-103,191	-0,148	0,024
284,399	-16,459	-0,163	-0,071
285,414	16,471	-0,281	-0,153
286,428	-200,000	-0,198	0,000
287,443	130,951	-0,139	-0,124
288,457	425,275	-0,103	-0,154
289,472	125,029	-0,075	-0,065
290,487	-200,000	-0,117	-0,359
291,501	19,678	-0,300	-0,166
292,516	-13,932	-0,270	-0,120
293,530	134,225	-0,101	-0,090
294,545	46,781	-0,157	-0,101
295,560	86,171	-0,062	0,047
296,574	-54,530	-0,112	-0,035
297,589	161,929	-0,121	-0,117
298,603	150,457	-0,180	-0,168
299,618	116,500	-0,144	-0,122
300,633	-123,279	-0,118	-0,013
301,647	4,593	-0,117	-0,059
302,662	74,421	-0,184	-0,133
303,676	-146,466	-0,156	-0,009
304,691	95,011	-0,107	-0,084
305,706	399,564	-0,185	-0,268
306,720	481,364	-0,193	-0,304
307,735	-125,897	-0,278	-0,029
308,749	-153,611	-0,148	-0,007
309,764	33,553	-0,110	-0,066
310,779	23,135	-0,263	-0,149
311,793	15,263	-0,198	-0,107
312,808	657,120	-0,136	-0,243
313,822	-108,781	-0,148	0,022
314,837	159,254	-0,191	-0,183
315,852	-119,458	-0,134	0,016
316,866	800,000	-0,045	-0,133
317,881	-11,119	-0,136	-0,062
318,895	-117,755	-0,129	-0,016
319,910	76,412	-0,171	-0,125
320,925	-200,000	0,010	-0,132
321,939	157,386	-0,168	-0,160
322,954	-126,009	-0,089	0,009
323,968	-200,000	-0,001	-0,045
324,983	213,908	-0,174	-0,190
325,997	-118,578	-0,116	0,014
327,012	223,155	-0,175	-0,195
328,027	800,000	-0,139	-0,284
329,041	410,360	-0,161	-0,236
330,056	800,000	0,035	-0,092
331,070	794,693	-0,053	-0,101
332,085	-200,000	-0,024	0,106
333,100	-148,731	-0,175	0,010
334,114	-85,372	-0,228	0,048
335,129	212,282	-0,092	-0,100
336,143	64,884	-0,121	-0,084
337,158	-81,285	-0,081	-0,018
338,173	12,052	-0,149	-0,078
339,187	-142,206	-0,254	-0,017
340,202	-200,000	-0,042	-0,130
341,216	-1,315	-0,175	-0,085
342,231	-45,466	-0,179	-0,061
343,246	244,408	-0,169	-0,195
344,260	-94,942	-0,267	0,049
345,275	-143,511	-0,104	-0,007
346,289	-8,375	-0,180	0,083
347,304	-128,745	-0,080	-0,008
348,319	-164,755	-0,176	0,005
349,333	800,000	-0,055	-0,121
350,348	-16,585	-0,108	-0,047
351,362	237,314	-0,130	-0,148
352,377	800,000	-0,027	-0,058
353,392	37,104	-0,201	-0,122
354,406	-63,354	-0,197	-0,055
355,421	209,468	1315,273	1417,617
356,435	161,213	1476,097	1418,128
