DTS Sentinel unit serial number:	SN410029Multiplexer serial number:	ORYXHardware model number:	OX2-SRSoftware version number:	ORYX F/W v4,00 Oryx Data Collector v3.7.2.0data status	okinstallation	B3 Nyhavnadifferential loss correction	single-endedforward channel	channel 1reverse channel	N/Adate	2023/11/29time	02:52:30forward acquisition time	300,00reverse acquisition time	0,00gamma	499,1914k internal	0,3211k external	0,3211temperature offset calibration	1,0000default loss term (dB/km)	0,3820temperature slope calibration	1,0000multiplexer offset coefficient	1,0000multiplexer slope coefficient	1,0000fibre end	0,00T internal ref (°C)	9,57T ext. ref 1 (°C)	-5,72T ext. ref 2 (°C)	-5,86length (m)	temperature (°C)	Stokes	anti-Stokes-744,400	698,677	-0,141	-0,271
-743,385	-200,000	0,015	0,289
-742,371	433,418	-0,167	-0,263
-741,356	-200,000	0,030	0,321
-740,342	575,893	-0,149	-0,264
-739,327	800,000	-0,111	0,235
-738,312	767,430	-0,170	-0,336
-737,298	800,000	-0,071	0,146
-736,283	-200,000	-0,008	-0,319
-735,269	-200,000	-0,114	0,365
-734,254	800,000	-0,129	-0,275
-733,239	-67,349	-0,197	0,056
-732,225	562,890	-0,118	-0,209
-731,210	484,580	0,088	0,145
-730,196	-14,263	-0,051	-0,024
-729,181	62,593	-0,101	0,073
-728,167	800,000	0,018	0,053
-727,152	-200,000	0,052	-0,185
-726,137	165,518	0,006	0,006
-725,123	-46,163	-0,135	0,048
-724,108	-200,000	0,005	-0,224
-723,094	196,686	-0,080	-0,089
-722,079	-200,000	-0,006	-0,058
-721,064	800,000	0,018	-0,047
-720,050	800,000	0,037	0,078
-719,035	-200,000	-0,021	0,091
-718,021	-16,640	-0,010	0,005
-717,006	800,000	-0,020	0,046
-715,991	138,680	-0,072	-0,069
-714,977	28,311	-0,037	-0,022
-713,962	-46,904	-0,056	-0,020
-712,948	-200,000	-0,003	-0,036
-711,933	67,286	0,091	-0,067
-710,918	-84,508	0,125	0,028
-709,904	-6,234	-0,066	0,033
-708,889	272,145	-0,057	0,073
-707,875	12,734	-0,092	-0,051
-706,860	-4,829	0,066	-0,033
-705,845	216,510	-0,081	0,093
-704,831	107,048	0,049	-0,043
-703,816	800,000	0,079	-0,189
-702,802	-200,000	-0,006	0,038
-701,787	217,581	-0,068	-0,079
-700,772	800,000	0,102	-0,218
-699,758	130,479	-0,045	-0,042
-698,743	-48,021	-0,088	0,031
-697,729	-200,000	-0,011	-0,050
-696,714	-164,272	0,113	-0,004
-695,699	-200,000	-0,009	0,045
-694,685	-134,664	-0,160	0,014
-693,670	18,489	0,075	0,044
-692,656	-1,918	0,095	0,048
-691,641	19,939	-0,049	-0,029
-690,627	60,840	-0,048	-0,034
-689,612	-78,159	0,117	0,029
-688,597	61,059	-0,058	-0,042
-687,583	-200,000	0,007	0,041
-686,568	-107,755	-0,136	-0,021
-685,554	98,209	-0,040	-0,034
-684,539	165,634	0,035	-0,036
-683,524	-200,000	-0,021	0,111
-682,510	64,111	0,125	-0,091
-681,495	140,721	0,004	0,004
-680,481	304,167	-0,033	0,044
-679,466	-23,241	-0,139	-0,060
-678,451	-200,000	0,024	-0,089
-677,437	-80,827	-0,155	0,037
-676,422	271,278	0,046	-0,059
-675,408	92,236	-0,122	0,100
-674,393	-200,000	-0,033	-0,163
-673,378	-200,000	-0,019	-0,071
-672,364	-120,893	-0,248	-0,030
-671,349	-71,716	-0,063	0,017
-670,335	721,661	0,055	0,107
-669,320	84,954	0,068	0,054
-668,305	26,580	0,042	0,025
-667,291	800,000	-0,066	0,168
-666,276	-200,000	0,030	-0,148
-665,262	112,944	-0,056	-0,049
-664,247	-128,306	-0,075	-0,008
-663,232	-126,818	-0,021	0,002
-662,218	-146,472	-0,056	-0,003
-661,203	-200,000	0,026	-0,144
-660,189	-200,000	0,035	-0,147
-659,174	-90,885	-0,215	0,044
-658,159	800,000	-0,007	-0,019
-657,145	-86,495	0,047	-0,010
-656,130	-119,417	-0,063	-0,008
-655,116	-2,809	-0,128	0,064
-654,101	175,823	-0,040	-0,042
-653,086	329,205	0,042	-0,059
-652,072	-34,901	0,011	0,004
-651,057	70,095	-0,121	-0,090
-650,043	-200,000	0,029	0,119
-649,028	-51,808	0,028	-0,009
-648,014	-36,551	0,063	0,024
-646,999	800,000	-0,037	-0,096
-645,984	-57,755	-0,041	0,013
-644,970	-200,000	0,009	0,050
-643,955	46,197	-0,070	-0,047
-642,941	-152,392	0,057	-0,003
-641,926	-200,000	-0,006	-0,026
-640,911	-23,845	-0,033	0,014
-639,897	-200,000	0,003	0,017
-638,882	-160,871	0,086	-0,003
-637,868	-37,274	-0,057	0,022
-636,853	295,692	-0,081	-0,108
-635,838	35,478	-0,175	-0,111
-634,824	-9,379	0,039	-0,019
-633,809	-151,575	-0,037	0,002
-632,795	38,153	0,048	0,031
-631,780	-105,847	0,193	0,031
-630,765	-15,654	-0,077	0,035
-629,751	-200,000	-0,021	-0,098
-628,736	-200,000	0,009	-0,054
-627,722	-84,567	-0,043	-0,010
-626,707	-200,000	0,002	0,069
-625,692	-200,000	0,002	-0,084
-624,678	-200,000	0,019	0,101
-623,663	-200,000	0,018	0,132
-622,649	234,838	0,080	-0,096
-621,634	-175,162	-0,072	0,001
-620,619	273,400	-0,027	-0,035
-619,605	800,000	-0,050	0,113
-618,590	-44,129	-0,074	0,027
-617,576	-62,563	0,052	-0,015
-616,561	71,304	-0,028	-0,021
-615,546	154,095	-0,130	-0,129
-614,532	196,022	0,066	0,072
-613,517	800,000	-0,013	-0,036
-612,503	800,000	0,045	-0,102
-611,488	55,706	-0,027	0,019
-610,474	800,000	0,028	0,067
-609,459	129,172	0,034	-0,032
-608,444	-200,000	0,005	-0,017
-607,430	-200,000	0,042	-0,159
-606,415	-160,881	-0,182	-0,007
-605,401	-109,188	-0,132	0,020
-604,386	-11,559	-0,065	-0,031
-603,371	-57,256	0,095	0,030
-602,357	-35,258	-0,196	-0,077
-601,342	73,471	-0,048	0,036
-600,328	800,000	0,012	-0,025
-599,313	-200,000	-0,005	-0,039
-598,298	-10,337	0,158	-0,075
-597,284	-161,994	0,094	0,003
-596,269	58,777	0,033	0,024
-595,255	800,000	-0,017	0,047
-594,240	533,621	-0,052	-0,089
-593,225	-200,000	-0,015	-0,095
-592,211	711,772	-0,101	-0,194
-591,196	-147,479	-0,031	0,002
-590,182	-7,709	0,151	-0,073
-589,167	-200,000	0,033	0,141
-588,152	800,000	-0,035	0,091
-587,138	287,615	-0,061	-0,080
-586,123	-200,000	0,006	-0,121
-585,109	-82,135	-0,093	0,022
-584,094	800,000	-0,024	-0,068
-583,079	-200,000	0,000	-0,123
-582,065	-105,422	-0,097	-0,016
-581,050	205,162	0,062	0,069
-580,036	-158,144	0,029	0,001
-579,021	-91,375	-0,050	-0,010
-578,006	-86,000	-0,148	-0,033
-576,992	-200,000	0,011	-0,089
-575,977	279,900	0,074	-0,095
-574,963	29,883	0,188	0,115
-573,948	38,641	0,068	-0,044
-572,934	287,544	-0,106	-0,139
-571,919	-49,481	0,143	0,049
-570,904	294,982	-0,046	-0,060
-569,890	-200,000	-0,017	-0,174
-568,875	-200,000	0,007	0,027
-567,861	-200,000	0,000	0,156
-566,846	71,062	0,095	-0,071
-565,831	100,070	-0,103	-0,086
-564,817	35,465	-0,172	-0,108
-563,802	591,101	-0,046	-0,083
-562,788	-200,000	0,008	-0,063
-561,773	-57,380	0,092	-0,029
-560,758	308,267	-0,057	0,077
-559,744	-39,344	0,129	0,049
-558,729	-80,519	-0,041	0,010
-557,715	-7,206	-0,089	-0,044
-556,700	361,800	-0,085	0,124
-555,685	-127,142	0,082	-0,009
-554,671	-77,067	0,080	0,020
-553,656	142,972	0,035	-0,034
-552,642	563,732	0,094	0,164
-551,627	-200,000	-0,021	-0,073
-550,612	-41,884	-0,127	0,047
-549,598	104,712	-0,082	-0,069
-548,583	539,919	-0,048	-0,082
-547,569	-171,729	0,083	-0,002
-546,554	-180,669	0,082	0,001
-545,539	-200,000	0,006	0,045
-544,525	443,505	-0,027	0,043
-543,510	-200,000	-0,017	0,104
-542,496	700,180	-0,038	0,072
-541,481	93,312	-0,065	0,053
-540,466	558,040	-0,016	0,027
-539,452	-178,334	0,052	-0,001
-538,437	29,981	-0,096	-0,059
-537,423	-200,000	0,012	0,097
-536,408	160,459	-0,032	-0,033
-535,393	259,250	0,050	0,062
-534,379	-200,000	-0,005	0,053
-533,364	-23,045	-0,283	0,122
-532,350	61,642	0,014	0,010
-531,335	-16,442	-0,148	0,067
-530,321	312,624	-0,096	-0,130
-529,306	-68,224	-0,030	-0,008
-528,291	-200,000	-0,031	-0,102
-527,277	388,489	-0,053	-0,079
-526,262	-200,000	0,000	0,053
-525,248	-200,000	0,016	-0,078
-524,233	533,241	0,036	0,062
-523,218	655,012	0,026	-0,047
-522,204	800,000	-0,023	0,054
-521,189	800,000	-0,047	-0,121
-520,175	15,244	-0,031	0,017
-519,160	453,602	0,038	-0,060
-518,145	-200,000	-0,006	-0,040
-517,131	30,858	0,078	0,048
-516,116	-138,727	-0,052	-0,004
-515,102	52,888	-0,068	-0,047
-514,087	-102,810	-0,108	0,018
-513,072	-200,000	-0,024	0,106
-512,058	-95,826	0,057	0,011
-511,043	59,262	0,038	-0,027
-510,029	388,295	0,094	0,140
-509,014	158,703	0,044	0,044
-507,999	217,384	-0,120	0,137
-506,985	-3,188	0,032	0,016
-505,970	-81,523	-0,121	0,028
-504,956	-200,000	0,013	0,059
-503,941	567,502	-0,027	0,047
-502,926	-200,000	0,020	0,161
-501,912	359,204	0,049	0,070
-500,897	800,000	-0,054	0,136
-499,883	-200,000	0,000	0,056
-498,868	-200,000	0,026	-0,092
-497,853	-200,000	-0,000	-0,038
-496,839	-200,000	0,007	0,105
-495,824	-123,242	0,057	0,006
-494,810	800,000	-0,085	0,226
-493,795	-31,261	0,112	0,045
-492,781	800,000	-0,068	-0,173
-491,766	-200,000	0,062	-0,254
-490,751	-200,000	-0,017	-0,077
-489,737	-1,294	0,121	-0,061
-488,722	296,722	-0,039	0,052
-487,708	800,000	-0,018	-0,038
-486,693	58,117	0,042	0,030
-485,678	-97,386	-0,029	0,005
-484,664	-200,000	-0,024	0,087
-483,649	800,000	-0,036	-0,109
-482,635	-200,000	-0,011	-0,051
-481,620	-200,000	0,004	0,016
-480,605	-43,517	-0,102	-0,037
-479,591	-114,343	0,070	-0,010
-478,576	-200,000	-0,002	0,092
-477,562	-200,000	-0,003	-0,027
-476,547	328,779	0,081	-0,112
-475,532	388,860	0,072	0,108
-474,518	-166,924	0,123	-0,004
-473,503	-200,000	-0,007	0,054
-472,489	-104,750	-0,125	0,020
-471,474	60,669	0,042	0,030
-470,459	462,108	0,026	0,042
-469,445	116,759	0,060	-0,053
-468,430	117,625	-0,047	0,042
-467,416	-200,000	0,033	-0,114
-466,401	564,609	0,039	-0,068
-465,386	530,791	-0,019	-0,032
-464,372	800,000	-0,040	-0,121
-463,357	-200,000	-0,007	-0,121
-462,343	800,000	-0,034	0,082
-461,328	19,882	0,070	-0,040
-460,313	-200,000	-0,018	-0,129
-459,299	-200,000	0,000	-0,001
-458,284	-2,472	0,199	0,100
-457,270	578,786	0,033	-0,058
-456,255	-66,034	0,069	-0,020
-455,241	-200,000	0,019	-0,095
-454,226	-154,054	-0,095	0,005
-453,211	122,968	0,026	-0,023
-452,197	-71,025	0,121	0,032
-451,182	800,000	0,052	0,127
-450,168	-25,743	-0,103	0,043
-449,153	301,526	-0,089	-0,118
-448,138	721,850	0,039	-0,076
-447,124	132,292	0,054	-0,050
-446,109	-200,000	-0,010	0,067
-445,095	800,000	0,026	-0,064
-444,080	-200,000	-0,021	0,120
-443,065	120,642	0,025	-0,022
-442,051	34,535	-0,076	0,048
-441,036	-49,621	-0,121	-0,041
-440,022	412,801	-0,050	-0,076
-439,007	-67,996	-0,097	0,027
-437,992	-200,000	-0,037	0,126
-436,978	-200,000	0,049	0,187
-435,963	-71,293	0,074	-0,020
-434,949	285,956	-0,062	-0,081
-433,934	-200,000	0,011	-0,093
-432,919	-200,000	0,012	-0,048
-431,905	-200,000	0,011	-0,054
-430,890	-65,395	-0,084	0,024
-429,876	-32,534	0,045	0,018
-428,861	-200,000	0,015	0,138
-427,846	-200,000	0,044	0,192
-426,832	-17,919	-0,100	-0,045
-425,817	-165,664	-0,135	0,004
-424,803	-43,805	0,099	0,036
-423,788	-160,745	0,118	-0,004
-422,773	434,519	0,013	-0,020
-421,759	252,043	0,070	0,085
-420,744	-200,000	-0,008	0,120
-419,730	-137,253	-0,160	0,013
-418,715	217,943	0,024	-0,027
-417,701	43,443	0,070	0,045
-416,686	85,147	-0,061	-0,048
-415,671	117,830	0,069	0,061
-414,657	446,941	-0,096	0,152
-413,642	-8,706	0,031	0,015
-412,628	237,889	-0,043	-0,052
-411,613	263,778	-0,113	-0,141
-410,598	271,591	-0,043	0,054
-409,584	37,942	0,239	-0,152
-408,569	253,693	-0,017	-0,021
-407,555	4,480	-0,100	0,052
-406,540	111,149	0,074	-0,064
-405,525	-200,000	0,012	-0,082
-404,511	-200,000	-0,004	-0,121
-403,496	800,000	0,022	-0,068
-402,482	22,711	0,077	-0,045
-401,467	593,596	-0,042	0,074
-400,452	9,015	0,151	0,081
-399,438	302,688	0,107	0,142
-398,423	151,943	0,037	0,036
-397,409	800,000	-0,045	-0,119
-396,394	-200,000	-0,001	-0,016
-395,379	-122,567	0,121	0,014
-394,365	800,000	0,055	-0,129
-393,350	151,672	-0,053	0,051
-392,336	523,409	0,057	0,096
-391,321	173,970	0,051	-0,053
-390,306	-52,692	-0,068	0,022
-389,292	-39,214	-0,072	0,027
-388,277	800,000	0,040	0,119
-387,263	54,576	0,118	0,081
-386,248	-200,000	-0,015	0,127
-385,233	-43,683	0,127	0,045
-384,219	-38,275	-0,094	-0,035
-383,204	800,000	0,038	0,084
-382,190	125,935	-0,029	-0,026
-381,175	-200,000	0,024	0,085
-380,160	294,937	0,067	0,088
-379,146	61,849	0,014	-0,010
-378,131	800,000	-0,014	0,041
-377,117	110,870	0,064	-0,055
-376,102	-159,209	0,058	-0,002
-375,088	261,673	0,031	-0,038
-374,073	-128,609	0,210	-0,021
-373,058	-200,000	0,015	-0,134
-372,044	73,531	0,056	0,042
-371,029	17,009	-0,099	0,056
-370,015	36,532	-0,066	0,042
-369,000	-200,000	-0,039	-0,149
-367,985	307,537	0,039	-0,052
-366,971	-5,835	-0,019	-0,009
-365,956	65,489	-0,114	-0,083
-364,942	50,828	0,103	0,070
-363,927	-200,000	0,002	0,040
-362,912	123,115	0,017	-0,016
-361,898	-152,717	-0,132	-0,007
-360,883	-200,000	-0,027	-0,116
-359,869	113,093	-0,149	-0,129
-358,854	527,688	-0,026	0,043
-357,839	574,647	0,034	0,059
-356,825	331,189	-0,038	0,052
-355,810	800,000	0,095	0,198
-354,796	61,597	-0,075	-0,053
-353,781	-200,000	0,012	-0,069
-352,766	-44,782	-0,085	-0,030
-351,752	10,945	0,065	-0,035
-350,737	-84,169	0,145	-0,033
-349,723	-200,000	0,001	-0,023
-348,708	219,613	0,059	0,068
-347,693	58,593	-0,057	-0,040
-346,679	800,000	-0,018	-0,039
-345,664	302,969	-0,031	-0,041
-344,650	171,872	0,054	0,056
-343,635	-200,000	-0,016	0,120
-342,620	154,341	-0,061	0,060
-341,606	-90,221	0,178	0,037
-340,591	240,062	-0,085	0,101
-339,577	-44,759	-0,023	0,008
-338,562	-1,110	0,155	0,078
-337,548	61,924	0,100	-0,071
-336,533	-200,000	-0,000	-0,078
-335,518	800,000	0,023	0,049
-334,504	-128,245	0,013	0,001
-333,489	339,753	-0,081	0,113
-332,475	-19,044	0,059	-0,026
-331,460	-200,000	-0,004	-0,025
-330,445	800,000	-0,049	-0,120
-329,431	-89,411	-0,055	0,012
-328,416	-200,000	-0,004	0,186
-327,402	-57,197	-0,020	-0,006
-326,387	769,496	0,024	-0,046
-325,372	-200,000	-0,019	-0,100
-324,358	-200,000	-0,027	0,117
-323,343	89,959	0,058	-0,047
-322,329	49,190	-0,097	-0,065
-321,314	149,414	0,190	0,184
-320,299	326,566	-0,030	0,041
-319,285	-31,850	0,057	0,023
-318,270	42,235	-0,095	-0,062
-317,256	-200,000	-0,008	-0,071
-316,241	-200,000	0,028	-0,125
-315,226	-200,000	0,003	-0,060
-314,212	407,843	-0,052	-0,078
-313,197	571,917	0,051	0,089
-312,183	800,000	0,037	-0,084
-311,168	-23,820	0,095	-0,040
-310,153	-89,704	0,044	-0,009
-309,139	-172,273	-0,150	-0,003
-308,124	487,315	0,031	0,051
-307,110	148,946	0,153	0,148
-306,095	678,933	0,059	-0,110
-305,080	28,851	-0,062	0,037
-304,066	-98,696	0,037	-0,007
-303,051	-200,000	0,001	0,196
-302,037	-100,965	-0,132	0,023
-301,022	197,086	0,052	0,057
-300,008	-66,097	0,143	-0,040
-298,993	-122,130	0,110	-0,013
-297,978	-156,806	-0,073	0,003
-296,964	-200,000	-0,016	-0,097
-295,949	-113,607	-0,060	-0,008
-294,935	-169,450	0,059	0,002
-293,920	138,809	0,049	0,045
-292,905	39,461	0,081	0,052
-291,891	-200,000	-0,034	0,171
-290,876	-200,000	0,018	0,103
-289,862	55,796	-0,034	0,024
-288,847	45,709	-0,047	-0,031
-287,832	800,000	-0,029	0,074
-286,818	-68,895	-0,180	-0,049
-285,803	-140,240	0,071	0,005
-284,789	443,471	0,097	0,152
-283,774	800,000	0,062	0,156
-282,759	-18,364	0,053	-0,024
-281,745	-95,444	-0,076	-0,014
-280,730	354,189	-0,024	-0,034
-279,716	15,895	0,083	-0,047
-278,701	440,857	-0,041	0,064
-277,686	-200,000	-0,032	0,104
-276,672	208,969	0,036	0,040
-275,657	800,000	-0,030	-0,072
-274,643	180,027	-0,080	-0,084
-273,628	134,507	-0,048	0,045
-272,613	86,104	0,059	0,047
-271,599	-200,000	-0,026	0,093
-270,584	-172,591	0,025	-0,001
-269,570	539,867	-0,048	0,081
-268,555	-15,626	-0,075	-0,034
-267,540	10,728	-0,096	-0,052
-266,526	800,000	0,026	0,059
-265,511	238,758	-0,075	-0,089
-264,497	-10,961	-0,095	0,044
-263,482	-190,733	0,071	-0,001
-262,467	118,609	-0,110	0,097
-261,453	-39,425	0,033	-0,012
-260,438	-200,000	-0,016	-0,055
-259,424	-200,000	-0,019	-0,161
-258,409	243,290	-0,067	0,080
-257,395	116,380	0,061	-0,053
-256,380	800,000	-0,049	-0,114
-255,365	-200,000	0,027	0,176
-254,351	-200,000	0,020	0,128
-253,336	800,000	0,013	0,040
-252,322	249,174	-0,118	-0,142
-251,307	210,474	-0,031	-0,034
-250,292	-169,424	0,072	-0,002
-249,278	800,000	0,037	-0,093
-248,263	-82,980	0,094	0,021
-247,249	-200,000	-0,011	-0,044
-246,234	-200,000	-0,005	-0,041
-245,219	-85,950	0,067	-0,015
-244,205	-136,571	0,164	0,013
-243,190	-200,000	0,025	-0,184
-242,176	-113,982	-0,192	-0,026
-241,161	79,888	-0,018	0,014
-240,146	800,000	-0,049	0,105
-239,132	-60,537	-0,095	-0,028
-238,117	202,945	0,060	-0,066
-237,103	-46,180	-0,150	0,052
-236,088	800,000	-0,025	-0,075
-235,073	548,688	0,084	-0,143
-234,059	-74,777	0,131	0,033
-233,044	-200,000	-0,002	0,027
-232,030	-200,000	0,047	-0,231
-231,015	800,000	0,043	-0,100
-230,000	-83,357	0,145	-0,033
-228,986	800,000	-0,043	0,096
-227,971	-149,200	0,114	0,006
-226,957	47,128	0,173	0,114
-225,942	112,256	0,048	-0,041
-224,927	-200,000	0,020	0,068
-223,913	800,000	-0,041	-0,085
-222,898	-200,000	-0,002	-0,102
-221,884	-200,000	-0,022	-0,087
-220,869	-200,000	0,015	0,093
-219,855	800,000	-0,007	0,015
-218,840	-43,566	-0,055	-0,020
-217,825	-55,161	0,046	-0,015
-216,811	119,984	-0,080	-0,071
-215,796	-200,000	-0,003	-0,171
-214,782	-78,757	0,052	-0,013
-213,767	422,262	0,031	0,048
-212,752	-200,000	0,010	0,035
-211,738	-125,704	0,162	0,017
-210,723	-91,666	0,132	0,026
-209,709	800,000	0,028	-0,059
-208,694	-2,216	-0,097	0,048
-207,679	800,000	-0,051	-0,151
-206,665	-200,000	0,025	0,101
-205,650	77,457	-0,036	0,027
-204,636	202,589	0,032	0,036
-203,621	100,809	-0,054	0,045
-202,606	-6,990	0,045	0,022
-201,592	-52,222	-0,135	0,044
-200,577	-123,588	-0,142	-0,016
-199,563	-200,000	-0,009	0,074
-198,548	-52,926	0,035	0,011
-197,533	650,732	0,063	-0,116
-196,519	443,677	-0,017	0,027
-195,504	163,442	0,015	-0,015
-194,490	800,000	-0,055	0,115
-193,475	39,642	-0,025	0,016
-192,460	208,785	0,052	-0,058
-191,446	-200,000	0,028	0,188
-190,431	-200,000	0,032	-0,108
-189,417	-4,868	0,077	-0,038
-188,402	-200,000	-0,038	0,155
-187,387	800,000	-0,031	0,086
-186,373	-200,000	-0,007	-0,099
-185,358	335,461	-0,022	-0,030
-184,344	22,045	-0,060	0,035
-183,329	-92,096	0,135	0,027
-182,315	800,000	0,011	0,033
-181,300	-168,797	-0,066	-0,002
-180,285	84,793	-0,102	0,079
-179,271	30,595	-0,097	-0,058
-178,256	-200,000	-0,018	0,085
-177,242	121,703	-0,102	-0,090
-176,227	-65,331	0,072	0,021
-175,212	678,729	-0,049	0,091
-174,198	-11,518	-0,112	-0,052
-173,183	314,166	0,022	0,029
-172,169	-167,387	0,050	-0,001
-171,154	-200,000	0,004	0,187
-170,139	250,917	-0,029	0,035
-169,125	-200,000	0,008	0,044
-168,110	66,800	-0,124	0,090
-167,096	107,684	-0,088	0,075
-166,081	800,000	0,061	0,120
-165,066	-200,000	-0,044	-0,166
-164,052	800,000	0,046	-0,105
-163,037	-58,137	0,109	0,033
-162,023	28,594	0,102	0,061
-161,008	223,572	0,079	-0,091
-159,993	800,000	0,020	-0,063
-158,979	293,314	-0,068	-0,088
-157,964	800,000	0,016	-0,047
-156,950	-200,000	-0,005	0,034
-155,935	-200,000	-0,028	-0,114
-154,920	59,365	-0,007	0,005
-153,906	-65,245	0,115	-0,033
-152,891	-200,000	-0,004	0,048
-151,877	58,763	0,121	-0,084
-150,862	-81,381	-0,230	-0,053
-149,847	800,000	-0,081	-0,176
-148,833	79,611	0,114	0,086
-147,818	241,666	0,066	0,079
-146,804	-200,000	0,010	0,074
-145,789	189,347	-0,053	0,056
-144,775	109,646	0,022	-0,019
-143,760	-200,000	0,020	-0,074
-142,745	800,000	-0,023	-0,065
-141,731	-137,963	-0,065	0,005
-140,716	-200,000	-0,000	0,205
-139,702	-200,000	0,000	0,087
-138,687	-169,902	-0,083	-0,002
-137,672	19,938	-0,058	-0,033
-136,658	256,703	-0,090	-0,110
-135,643	-91,019	0,033	-0,007
-134,629	-200,000	-0,004	-0,058
-133,614	-76,703	-0,048	0,012
-132,599	43,690	-0,067	-0,044
-131,585	-114,238	0,115	-0,016
-130,570	4,040	-0,177	0,091
-129,556	-149,320	-0,061	0,003
-128,541	150,524	-0,036	0,035
-127,526	-200,000	0,013	0,062
-126,512	333,288	0,041	0,056
-125,497	-7,871	0,017	0,008
-124,483	-200,000	0,011	0,103
-123,468	-66,350	0,046	-0,013
-122,453	-200,000	0,007	-0,110
-121,439	-112,883	-0,034	0,005
-120,424	-72,209	0,097	-0,025
-119,410	800,000	0,109	0,227
-118,395	800,000	-0,072	0,185
-117,380	-24,638	0,106	0,045
-116,366	-69,423	-0,036	0,010
-115,351	-190,671	0,101	-0,001
-114,337	78,535	0,025	0,019
-113,322	-87,900	0,150	-0,032
-112,307	415,676	-0,117	0,177
-111,293	94,727	0,147	0,119
-110,278	-200,000	0,009	0,077
-109,264	584,500	-0,076	0,133
-108,249	163,682	-0,103	0,103
-107,234	66,356	-0,057	-0,041
-106,220	104,441	0,078	-0,065
-105,205	-59,752	-0,082	0,025
-104,191	-200,000	-0,020	0,107
-103,176	-41,078	0,015	0,006
-102,162	-111,404	0,093	0,013
-101,147	0,588	-0,060	-0,030
-100,132	-200,000	-0,010	-0,115
-99,118	16,172	0,013	0,007
-98,103	690,263	0,012	0,022
-97,089	-200,000	-0,002	0,122
-96,074	115,312	0,081	0,070
-95,059	38,499	-0,102	-0,064
-94,045	146,945	0,003	0,003
-93,030	45,373	0,065	-0,042
-92,016	-149,194	0,142	-0,008
-91,001	-137,862	-0,057	-0,004
-89,986	-173,529	-0,020	0,000
-88,972	-1,715	0,116	0,057
-87,957	-41,670	0,102	-0,037
-86,943	800,000	-0,044	-0,132
-85,928	242,745	-0,056	-0,066
-84,913	-200,000	0,026	-0,113
-83,899	-200,000	-0,031	-0,149
-82,884	-200,000	0,112	-0,000
-81,870	-200,000	0,003	0,083
-80,855	-117,739	0,114	0,014
-79,840	800,000	-0,015	-0,033
-78,826	87,475	-0,175	-0,137
-77,811	98,053	-0,101	-0,082
-76,797	-66,003	0,054	-0,015
-75,782	-148,907	-0,046	0,003
-74,767	265,525	-0,122	0,151
-73,753	702,264	-0,027	-0,050
-72,738	-200,000	-0,021	-0,089
-71,724	486,461	-0,100	0,162
-70,709	-200,000	0,018	-0,094
-69,694	106,360	0,027	-0,022
-68,680	-200,000	0,005	0,063
-67,665	-200,000	0,016	0,089
-66,651	-80,616	0,229	0,053
-65,636	272,519	-0,050	0,062
-64,622	-200,000	-0,038	-0,147
-63,607	800,000	-0,068	0,159
-62,592	-57,868	-0,104	0,032
-61,578	-36,544	0,017	-0,006
-60,563	-0,216	0,054	0,027
-59,549	-171,211	0,153	0,004
-58,534	43,035	-1,961	-1,260
-57,519	591,951	-1,127	-1,972
-56,505	-200,000	-0,352	-4,261
-55,490	618,285	0,844	1,503
-54,476	800,000	5,080	11,175
-53,461	-200,000	21,591	343,244
-52,446	800,000	763,121	2352,174
-51,432	550,625	1662,480	2825,957
-50,417	71,961	1658,141	1216,173
-49,403	17,378	1531,672	856,053
-48,388	11,393	1455,744	784,707
-47,373	19,349	1447,434	818,326
-46,359	14,927	1436,275	790,991
-45,344	9,663	1432,329	763,752
-44,330	9,629	1430,371	762,515
-43,315	9,577	1428,558	761,273
-42,300	9,637	1426,781	760,580
-41,286	9,659	1425,353	759,892
-40,271	9,591	1424,441	759,053
-39,257	9,618	1423,045	758,408
-38,242	9,600	1422,109	757,793
-37,227	9,622	1420,940	757,246
-36,213	9,705	1419,589	756,885
-35,198	9,684	1418,447	756,147
-34,184	9,690	1417,325	755,550
-33,169	9,588	1416,015	754,340
-32,154	9,622	1415,073	753,967
-31,140	9,632	1413,871	753,344
-30,125	9,701	1412,568	752,944
-29,111	9,676	1411,361	752,154
-28,096	9,662	1410,340	751,515
-27,082	9,641	1408,838	750,586
-26,067	9,548	1408,400	749,888
-25,052	9,595	1407,161	749,416
-24,038	9,610	1406,205	748,947
-23,023	9,617	1405,259	748,448
-22,009	9,590	1404,120	747,685
-20,994	9,567	1403,391	747,162
-19,979	9,601	1402,064	746,584
-18,965	9,544	1401,522	745,999
-17,950	9,571	1400,316	745,452
-16,936	9,561	1399,475	744,930
-15,921	9,485	1398,581	744,068
-14,906	9,521	1397,570	743,669
-13,892	9,588	1396,521	743,395
-12,877	9,547	1396,002	742,898
-11,863	9,516	1395,008	742,196
-10,848	9,481	1394,189	741,569
-9,833	9,424	1393,195	740,745
-8,819	9,437	1392,326	740,312
-7,804	9,371	1391,626	739,610
-6,790	9,455	1390,213	739,215
-5,775	9,398	1389,372	738,475
-4,760	9,446	1388,312	738,103
-3,746	9,445	1387,501	737,639
-2,731	9,397	1386,627	736,923
-1,717	9,389	1385,845	736,443
-0,702	9,466	1384,004	735,790
0,313	13,394	1296,406	707,176
1,327	29,285	687,276	410,803
2,342	45,963	118,658	77,308
3,356	0,752	16,499	8,302
4,371	14,532	3,493	1,918
5,386	17,800	1,208	0,676
6,400	-200,000	0,145	0,547
7,415	-105,349	-0,311	-0,049
8,429	109,490	-0,189	-0,159
9,444	23,347	-0,289	-0,167
10,459	-97,936	-0,412	-0,074
11,473	-69,789	-0,146	-0,039
12,488	-16,891	-0,238	-0,105
13,502	-20,822	-0,325	-0,140
14,517	210,988	-0,311	-0,345
15,531	751,077	-0,187	-0,357
16,546	388,957	-0,197	-0,289
17,561	256,856	-0,305	-0,370
18,575	111,685	-0,239	-0,203
19,590	-200,000	-0,061	-0,193
20,604	-48,080	-0,272	-0,092
21,619	2,056	-0,492	-0,249
22,634	-88,150	-0,407	-0,085
23,648	161,153	-0,391	-0,385
24,663	131,363	-0,379	-0,343
25,677	48,163	-0,377	-0,248
26,692	289,206	-0,176	-0,225
27,707	86,676	-0,314	-0,243
28,721	133,082	-0,403	-0,366
29,736	22,612	-0,461	-0,265
30,750	14,218	-0,286	-0,156
31,765	14,466	-0,360	-0,197
32,780	191,746	-0,380	-0,404
33,794	78,875	-0,225	-0,169
34,809	64,213	-0,396	-0,280
35,823	32,171	-0,462	-0,279
36,838	19,886	-0,439	-0,248
37,853	36,166	-0,381	-0,236
38,867	209,526	-0,320	-0,353
39,882	92,980	-0,228	-0,181
40,896	-22,605	-0,342	-0,145
41,911	57,875	-0,373	-0,256
42,926	1,095	-0,304	-0,153
43,940	211,372	-0,261	-0,289
44,955	185,930	-0,399	-0,417
45,969	-38,262	-0,465	-0,172
46,984	-101,805	-0,224	-0,038
47,999	32,074	-0,197	-0,119
49,013	-60,680	-0,265	-0,078
50,028	17,460	-0,336	-0,187
51,042	106,110	-0,354	-0,294
52,057	204,140	-0,314	-0,342
53,071	99,657	-0,239	-0,194
54,086	-65,829	-0,303	-0,084
55,101	139,736	-0,281	-0,260
56,115	3,130	-0,248	-0,126
57,130	115,249	-0,323	-0,277
58,144	152,794	-0,231	-0,222
59,159	-16,677	-0,299	-0,132
60,174	95,170	-0,409	-0,327
61,188	22,721	-0,292	-0,167
62,203	498,269	-0,256	-0,415
63,217	-63,698	-0,484	-0,138
64,232	222,964	-0,235	-0,266
65,247	13,096	-0,299	-0,162
66,261	76,305	-0,320	-0,238
67,276	184,457	-0,284	-0,295
68,290	170,371	-0,315	-0,316
69,305	41,429	-0,217	-0,137
70,320	7,918	-0,336	-0,176
71,334	114,709	-0,385	-0,329
72,349	68,706	-0,258	-0,185
73,363	86,394	-0,366	-0,282
74,378	106,580	-0,389	-0,324
75,393	-44,279	-0,371	-0,129
76,407	17,447	-0,194	-0,108
77,422	23,235	-0,317	-0,182
78,436	-10,726	-0,346	-0,160
79,451	77,484	-0,321	-0,239
80,466	99,609	-0,295	-0,239
81,480	23,078	-0,252	-0,144
82,495	1,019	-0,308	-0,154
83,509	51,869	-0,161	-0,107
84,524	459,032	-0,157	-0,245
85,539	-30,349	-0,251	-0,099
86,553	45,775	-0,179	-0,116
87,568	38,739	-0,403	-0,251
88,582	-18,222	-0,447	-0,195
89,597	224,087	-0,183	-0,208
90,611	137,992	-0,242	-0,222
91,626	13,486	-0,184	-0,100
92,641	-49,480	-0,254	-0,084
93,655	-117,132	-0,408	-0,051
94,670	-18,808	-0,318	-0,138
95,684	-7,992	-0,313	-0,147
96,699	-26,251	-0,255	-0,104
97,714	-128,018	-0,277	-0,027
98,728	18,520	-0,349	-0,194
99,743	404,148	-0,104	-0,153
100,757	49,002	-0,176	-0,116
101,772	121,961	-0,193	-0,168
102,787	54,397	-0,277	-0,186
103,801	244,494	-0,251	-0,296
104,816	-21,345	-0,296	-0,126
105,830	157,899	-0,219	-0,212
106,845	18,248	-0,204	-0,113
107,860	62,866	-0,304	-0,213
108,874	-90,413	-0,382	-0,077
109,889	174,144	-0,359	-0,363
110,903	800,000	-0,088	-0,208
111,918	8,709	-0,343	-0,180
112,933	-96,878	-0,259	-0,047
113,947	139,370	-0,263	-0,242
114,962	29,672	-0,346	-0,205
115,976	305,429	-0,087	-0,114
116,991	85,621	-0,220	-0,168
118,006	67,191	-0,387	-0,275
119,020	-25,392	-0,206	-0,085
120,035	73,835	-0,218	-0,159
121,049	69,727	-0,305	-0,219
122,064	144,320	-0,237	-0,221
123,079	148,441	-0,299	-0,282
124,093	74,955	-0,302	-0,222
125,108	115,979	-0,336	-0,287
126,122	322,285	-0,262	-0,349
127,137	-20,005	-0,230	-0,099
128,151	160,234	-0,321	-0,312
129,166	-180,790	-0,195	0,003
130,181	217,222	-0,105	-0,117
131,195	-102,917	-0,202	-0,033
132,210	280,907	-0,153	-0,191
133,224	91,136	-0,273	-0,214
134,239	-122,069	-0,174	-0,020
135,254	18,236	-0,229	-0,127
136,268	235,132	-0,183	-0,211
137,283	62,739	-0,251	-0,174
138,297	-90,297	-0,213	-0,043
139,312	7,495	-0,397	-0,206
140,327	184,380	-0,224	-0,232
141,341	158,904	-0,181	-0,176
142,356	73,508	-0,148	-0,108
143,370	-75,714	-0,335	-0,082
144,385	5,144	-0,209	-0,107
145,400	-0,921	-0,260	-0,128
146,414	2,013	-0,356	-0,178
147,429	-59,880	-0,331	-0,098
148,443	-66,716	-0,325	-0,089
149,458	123,570	-0,198	-0,173
150,473	130,014	-0,179	-0,160
151,487	23,998	-0,133	-0,076
152,502	177,062	-0,192	-0,195
153,516	25,814	-0,311	-0,180
154,531	-103,234	-0,379	-0,062
155,546	-48,499	-0,239	-0,080
156,560	72,440	-0,269	-0,195
157,575	146,158	-0,244	-0,227
158,589	26,182	-0,209	-0,121
159,604	237,458	-0,156	-0,180
160,619	356,168	-0,203	-0,282
161,633	-5,679	-0,260	-0,124
162,648	49,157	-0,330	-0,215
163,662	-157,986	-0,177	0,007
164,677	15,861	-0,185	-0,101
165,692	-44,973	-0,224	-0,077
166,706	324,542	-0,154	-0,205
167,721	800,000	-0,112	-0,224
168,735	425,109	-0,197	-0,296
169,750	312,289	-0,120	-0,157
170,764	14,794	-0,315	-0,171
171,779	331,630	-0,183	-0,246
172,794	-57,262	-0,160	-0,049
173,808	683,361	-0,179	-0,325
174,823	422,440	-0,227	-0,339
175,837	325,271	-0,177	-0,236
176,852	8,518	-0,380	-0,198
177,867	24,856	-0,238	-0,137
178,881	232,724	-0,133	-0,152
179,896	8,195	-0,330	-0,172
180,910	8,160	-0,213	-0,110
181,925	-24,126	-0,124	-0,051
182,940	-54,766	-0,373	-0,116
183,954	-2,573	-0,195	-0,094
184,969	-6,045	-0,133	-0,063
185,983	181,955	-0,251	-0,257
186,998	800,000	-0,068	-0,201
188,013	-50,625	-0,218	-0,071
189,027	-82,962	-0,243	-0,054
190,042	70,492	-0,291	-0,208
191,056	85,906	-0,251	-0,191
192,071	67,695	-0,158	-0,112
193,086	-28,455	-0,184	-0,073
194,100	246,696	-0,111	-0,130
195,115	-73,956	-0,281	-0,070
196,129	30,416	-0,198	-0,117
197,144	330,577	-0,244	-0,326
198,159	-139,288	-0,241	-0,018
199,173	105,337	-0,194	-0,159
200,188	-122,849	-0,110	-0,012
201,202	46,580	-0,257	-0,165
202,217	21,703	-0,205	-0,115
203,232	389,380	-0,223	-0,321
204,246	-74,863	-0,204	-0,050
205,261	800,000	-0,057	-0,121
206,275	239,878	-0,093	-0,108
207,290	-15,380	-0,159	-0,070
208,304	-78,823	-0,134	-0,031
209,319	50,973	-0,142	-0,093
210,334	56,591	-0,222	-0,149
211,348	148,259	-0,210	-0,196
212,363	800,000	-0,081	-0,209
213,377	68,992	-0,177	-0,126
214,392	226,199	-0,105	-0,118
215,407	-85,013	-0,179	-0,039
216,421	-81,747	-0,166	0,037
217,436	12,367	-0,245	-0,131
218,450	-53,124	-0,310	-0,098
219,465	-122,420	-0,186	-0,021
220,480	123,897	-0,151	-0,131
221,494	49,784	-0,190	-0,124
222,509	42,502	-0,132	-0,083
223,523	85,125	-0,224	-0,170
224,538	183,859	-0,244	-0,250
225,553	800,000	-0,103	-0,215
226,567	-147,992	-0,210	-0,012
227,582	-167,407	-0,230	-0,006
228,596	186,676	-0,129	-0,133
229,611	130,525	-0,207	-0,183
230,626	318,608	-0,153	-0,201
231,640	176,247	-0,149	-0,150
232,655	33,272	-0,239	-0,143
233,669	138,067	-0,219	-0,199
234,684	213,842	-0,211	-0,231
235,699	26,263	-0,173	-0,099
236,713	214,840	-0,149	-0,163
237,728	-47,887	-0,198	-0,066
238,742	-2,435	-0,199	-0,096
239,757	8,433	-0,207	-0,107
240,772	138,198	-0,259	-0,234
241,786	201,696	-0,197	-0,210
242,801	351,956	-0,124	-0,169
243,815	-44,771	-0,203	-0,070
244,830	-192,189	-0,117	0,001
245,844	-124,549	-0,168	-0,018
246,859	55,189	-0,230	-0,153
247,874	-79,126	-0,196	-0,046
248,888	-191,661	-0,309	-0,002
249,903	-35,211	-0,122	-0,045
250,917	-111,901	-0,094	-0,013
251,932	-3,823	-0,107	-0,051
252,947	257,894	-0,181	-0,215
253,961	172,721	-0,193	-0,192
254,976	-200,000	-0,019	-0,233
255,990	-19,894	-0,170	-0,072
257,005	120,199	-0,069	-0,059
258,020	166,781	-0,166	-0,163
259,034	-86,853	-0,073	0,015
260,049	345,270	-0,164	-0,223
261,063	-14,793	-0,180	-0,079
262,078	-200,000	-0,046	-0,178
263,093	314,430	-0,158	-0,205
264,107	110,680	-0,118	-0,098
265,122	-200,000	0,002	-0,180
266,136	33,406	-0,186	-0,111
267,151	-60,399	-0,158	0,046
268,166	11,388	-0,223	-0,117
269,180	180,183	-0,177	-0,179
270,195	209,908	-0,190	-0,206
271,209	-133,848	-0,129	0,011
272,224	201,702	-0,160	-0,170
273,239	205,174	-0,078	-0,084
274,253	-91,432	-0,293	-0,057
275,268	-109,477	-0,140	-0,020
276,282	107,290	-0,238	-0,195
277,297	48,225	-0,277	-0,178
278,312	121,567	-0,156	-0,133
279,326	15,111	-0,140	-0,075
280,341	-50,251	-0,226	-0,073
281,355	-92,137	-0,191	-0,037
282,370	800,000	-0,056	-0,116
283,384	-200,000	-0,060	-0,314
284,399	434,104	-0,158	-0,237
285,414	54,587	-0,265	-0,176
286,428	-47,376	-0,106	-0,035
287,443	-128,350	-0,311	-0,030
288,457	17,238	-0,055	-0,030
289,472	-94,756	-0,212	-0,039
290,487	45,135	-0,199	-0,126
291,501	800,000	-0,075	-0,212
292,516	14,807	-0,200	-0,107
293,530	353,984	-0,098	-0,134
294,545	202,032	-0,101	-0,107
295,560	214,021	-0,031	0,034
296,574	608,366	-0,149	-0,257
297,589	-59,360	-0,092	-0,027
298,603	417,717	-0,117	-0,173
299,618	-35,864	-0,104	-0,039
300,633	-96,072	-0,208	-0,038
301,647	16,837	-0,156	-0,084
302,662	-46,626	-0,218	-0,073
303,676	-14,822	-0,190	-0,083
304,691	254,724	-0,131	-0,154
305,706	67,683	-0,092	-0,065
306,720	9,690	-0,192	-0,100
307,735	-104,514	-0,120	0,019
308,749	-15,324	-0,190	-0,083
309,764	7,829	-0,152	-0,078
310,779	-200,000	0,012	-0,089
311,793	616,092	-0,087	-0,151
312,808	439,883	-0,126	-0,189
313,822	-57,695	-0,261	-0,078
314,837	282,247	0,037	-0,046
315,852	178,277	-0,156	-0,157
316,866	204,918	-0,079	-0,084
317,881	-200,000	0,017	-0,128
318,895	4,582	-0,193	-0,097
319,910	366,893	-0,074	-0,102
320,925	800,000	-0,061	-0,138
321,939	228,992	-0,065	-0,073
322,954	-200,000	0,001	0,040
323,968	357,335	-0,084	-0,116
324,983	-14,149	-0,163	-0,072
325,997	386,842	-0,127	-0,181
327,012	181,860	-0,134	-0,135
328,027	126,645	-0,205	-0,178
329,041	121,088	-0,164	-0,140
330,056	-41,177	-0,177	-0,062
331,070	67,073	-0,155	-0,108
332,085	-105,757	-0,075	0,012
333,100	-79,156	-0,091	0,021
334,114	-21,669	-0,174	-0,072
335,129	97,471	-0,231	-0,182
336,143	102,677	-0,253	-0,203
337,158	-17,037	-0,208	0,089
338,173	-21,761	-0,080	-0,033
339,187	594,339	-0,120	-0,204
340,202	-186,596	-0,126	-0,001
341,216	12,800	-0,085	0,045
342,231	-75,799	-0,177	-0,043
343,246	88,475	-0,252	-0,191
344,260	-27,679	-0,130	0,051
345,275	-37,226	-0,032	-0,012
346,289	-111,998	-0,107	-0,015
347,304	-89,779	-0,092	0,018
348,319	239,046	-0,149	-0,170
349,333	117,492	-0,139	-0,117
350,348	180,509	-0,051	-0,051
351,362	45,525	-0,102	-0,064
352,377	243,229	-0,096	-0,110
353,392	84,223	-0,079	-0,059
354,406	-89,973	-0,092	-0,018
355,421	207,087	1306,907	1395,150
356,435	159,293	1466,644	1395,627
