DTS Sentinel unit serial number:	SN410029Multiplexer serial number:	ORYXHardware model number:	OX2-SRSoftware version number:	ORYX F/W v4,00 Oryx Data Collector v3.7.2.0data status	okinstallation	B3 Nyhavnadifferential loss correction	single-endedforward channel	channel 1reverse channel	N/Adate	2023/12/01time	20:32:30forward acquisition time	300,00reverse acquisition time	0,00gamma	499,1914k internal	0,3197k external	0,3197temperature offset calibration	1,0000default loss term (dB/km)	0,3820temperature slope calibration	1,0000multiplexer offset coefficient	1,0000multiplexer slope coefficient	1,0000fibre end	0,00T internal ref (°C)	15,88T ext. ref 1 (°C)	1,48T ext. ref 2 (°C)	1,47length (m)	temperature (°C)	Stokes	anti-Stokes-744,400	-200,000	-0,112	-0,410
-743,385	-200,000	0,035	0,208
-742,371	41,688	-0,282	-0,186
-741,356	-200,000	-0,006	0,221
-740,342	42,098	-0,305	-0,201
-739,327	-200,000	-0,046	0,220
-738,312	429,421	-0,134	-0,211
-737,298	-200,000	0,031	0,262
-736,283	800,000	-0,116	-0,240
-735,269	-200,000	-0,020	0,228
-734,254	123,824	-0,272	-0,249
-733,239	233,319	-0,139	0,167
-732,225	800,000	-0,077	-0,166
-731,210	-200,000	0,014	0,090
-730,196	-72,018	0,049	-0,013
-729,181	-14,630	-0,035	0,016
-728,167	-28,967	-0,147	-0,061
-727,152	-200,000	-0,014	-0,058
-726,137	42,914	-0,085	0,056
-725,123	-129,941	-0,037	-0,004
-724,108	-92,318	-0,073	0,015
-723,094	99,954	-0,065	-0,055
-722,079	393,571	0,055	-0,083
-721,064	-79,551	-0,179	0,044
-720,050	50,580	-0,087	-0,060
-719,035	71,879	-0,074	-0,056
-718,021	-138,754	-0,185	-0,014
-717,006	349,428	-0,016	-0,023
-715,991	34,710	-0,030	-0,019
-714,977	-200,000	-0,025	0,105
-713,962	-60,017	0,050	-0,015
-712,948	800,000	-0,028	-0,080
-711,933	-200,000	-0,044	0,144
-710,918	-36,124	0,086	0,034
-709,904	-157,003	-0,082	-0,004
-708,889	800,000	0,015	-0,035
-707,875	540,079	-0,056	-0,097
-706,860	-72,101	-0,072	-0,019
-705,845	-200,000	-0,002	0,146
-704,831	-52,588	-0,079	0,026
-703,816	14,421	0,048	0,027
-702,802	-87,452	-0,087	-0,019
-701,787	180,093	-0,019	-0,020
-700,772	-200,000	-0,006	-0,073
-699,758	800,000	0,067	-0,182
-698,743	615,044	0,024	0,045
-697,729	-185,323	-0,040	-0,000
-696,714	-134,309	-0,150	0,013
-695,699	-70,542	0,063	0,017
-694,685	-200,000	-0,005	0,059
-693,670	14,478	0,133	-0,075
-692,656	630,909	0,057	-0,106
-691,641	-4,678	0,126	-0,063
-690,627	310,891	-0,041	0,056
-689,612	-200,000	0,037	0,127
-688,597	-200,000	0,012	0,039
-687,583	221,186	-0,055	-0,064
-686,568	278,690	-0,160	-0,207
-685,554	510,950	0,056	0,094
-684,539	218,737	0,059	-0,069
-683,524	376,216	0,006	0,009
-682,510	800,000	0,014	-0,030
-681,495	-31,329	-0,177	-0,072
-680,481	-70,534	-0,138	0,038
-679,466	-200,000	0,016	-0,144
-678,451	-200,000	-0,009	0,137
-677,437	-36,632	-0,100	-0,039
-676,422	263,427	0,073	0,092
-675,408	-200,000	-0,042	0,157
-674,393	-200,000	-0,031	0,129
-673,378	-71,598	-0,195	0,052
-672,364	-200,000	-0,005	-0,106
-671,349	-107,531	-0,060	0,009
-670,335	800,000	-0,063	0,166
-669,320	800,000	0,011	-0,028
-668,305	32,445	-0,104	0,065
-667,291	125,880	-0,180	0,166
-666,276	-80,310	0,054	0,013
-665,262	800,000	0,024	-0,061
-664,247	-200,000	0,004	-0,044
-663,232	-33,675	-0,056	0,022
-662,218	733,536	0,058	0,113
-661,203	85,057	-0,057	-0,045
-660,189	-114,411	0,041	-0,006
-659,174	587,412	-0,067	-0,121
-658,159	800,000	0,087	-0,201
-657,145	800,000	-0,020	-0,054
-656,130	110,282	-0,019	-0,017
-655,116	800,000	0,019	-0,040
-654,101	-200,000	0,007	-0,044
-653,086	-61,554	-0,097	-0,029
-652,072	-68,045	-0,107	0,030
-651,057	800,000	-0,032	-0,102
-650,043	-200,000	-0,021	-0,108
-649,028	196,016	0,048	0,053
-648,014	-200,000	-0,014	0,095
-646,999	-200,000	-0,014	0,069
-645,984	235,439	0,027	0,032
-644,970	215,917	0,007	-0,008
-643,955	-121,467	0,081	0,010
-642,941	598,168	0,080	0,145
-641,926	-66,320	0,094	-0,027
-640,911	42,438	-0,070	-0,046
-639,897	-200,000	0,018	0,087
-638,882	19,037	-0,036	-0,021
-637,868	-25,545	-0,084	-0,036
-636,853	-200,000	0,018	-0,087
-635,838	277,876	0,043	-0,056
-634,824	-158,107	-0,064	0,003
-633,809	220,771	0,092	-0,107
-632,795	740,443	0,027	0,053
-631,780	32,851	-0,029	-0,018
-630,765	-46,765	0,058	0,020
-629,751	303,612	0,017	0,023
-628,736	25,217	-0,162	-0,097
-627,722	-68,394	0,073	0,020
-626,707	-98,543	0,118	0,022
-625,692	307,781	-0,100	-0,136
-624,678	331,300	0,112	0,157
-623,663	-198,105	0,063	-0,000
-622,649	64,572	-0,124	-0,091
-621,634	-200,000	-0,011	0,162
-620,619	85,821	-0,050	-0,040
-619,605	-200,000	-0,008	0,109
-618,590	-123,399	0,084	-0,010
-617,576	-103,870	-0,147	0,025
-616,561	77,983	0,059	0,046
-615,546	-200,000	-0,011	0,058
-614,532	-95,713	0,078	-0,015
-613,517	345,448	-0,082	-0,116
-612,503	318,421	0,025	0,034
-611,488	-73,096	0,066	-0,018
-610,474	-200,000	0,018	0,101
-609,459	-93,379	0,130	-0,026
-608,444	800,000	-0,027	0,061
-607,430	-24,275	-0,073	-0,032
-606,415	-200,000	0,021	-0,079
-605,401	439,047	-0,041	-0,066
-604,386	-200,000	-0,000	0,027
-603,371	-104,676	0,126	-0,021
-602,357	186,286	0,020	0,021
-601,342	-3,857	0,092	0,046
-600,328	549,466	-0,098	-0,171
-599,313	562,013	-0,056	0,099
-598,298	-118,971	-0,102	0,013
-597,284	-200,000	-0,002	0,086
-596,269	165,199	-0,052	-0,054
-595,255	-8,957	0,098	0,047
-594,240	184,412	-0,044	0,048
-593,225	800,000	-0,073	-0,213
-592,211	158,074	-0,033	0,033
-591,196	217,526	-0,024	0,027
-590,182	670,102	0,089	-0,168
-589,167	34,059	0,073	0,046
-588,152	4,015	0,028	0,015
-587,138	20,429	-0,032	0,019
-586,123	537,350	0,022	0,038
-585,109	161,855	-0,022	-0,023
-584,094	144,031	0,153	0,148
-583,079	-6,096	0,033	0,016
-582,065	800,000	-0,101	0,254
-581,050	227,770	-0,030	0,036
-580,036	800,000	-0,091	0,188
-579,021	-119,086	-0,106	-0,013
-578,006	50,094	-0,100	0,068
-576,992	164,925	0,023	-0,024
-575,977	-116,557	-0,016	0,002
-574,963	-200,000	-0,002	0,084
-573,948	-200,000	-0,000	-0,017
-572,934	-0,008	-0,019	0,010
-571,919	300,301	0,065	-0,086
-570,904	12,847	-0,207	-0,115
-569,890	1,856	-0,039	-0,021
-568,875	156,774	0,034	0,034
-567,861	-140,172	0,120	0,009
-566,846	196,350	-0,017	-0,019
-565,831	800,000	0,026	0,083
-564,817	-65,065	-0,072	-0,021
-563,802	120,526	-0,073	-0,065
-562,788	-200,000	0,011	-0,101
-561,773	-200,000	0,067	0,232
-560,758	33,987	0,031	0,019
-559,744	-200,000	0,008	-0,122
-558,729	-200,000	0,041	0,136
-557,715	613,126	0,044	0,080
-556,700	-156,489	-0,062	-0,003
-555,685	-200,000	0,017	-0,096
-554,671	-94,142	-0,184	-0,036
-553,656	677,683	-0,027	-0,051
-552,642	-21,652	0,056	-0,025
-551,627	-200,000	-0,020	0,150
-550,612	-73,523	0,131	-0,034
-549,598	-26,686	-0,039	-0,017
-548,583	396,455	0,035	-0,052
-547,569	-145,588	-0,075	-0,005
-546,554	800,000	-0,013	0,037
-545,539	-72,618	0,070	0,019
-544,525	-200,000	-0,016	0,066
-543,510	-62,808	-0,103	-0,031
-542,496	312,340	0,042	-0,057
-541,481	68,253	0,187	-0,138
-540,466	-12,818	0,072	0,034
-539,452	171,801	0,051	0,053
-538,437	507,845	0,049	0,083
-537,423	429,053	0,038	0,060
-536,408	-200,000	0,038	0,203
-535,393	-200,000	-0,025	-0,085
-534,379	55,292	-0,105	-0,073
-533,364	-200,000	0,013	0,105
-532,350	24,738	-0,050	-0,030
-531,335	-108,273	-0,055	-0,008
-530,321	-117,309	0,132	-0,017
-529,306	800,000	-0,014	-0,029
-528,291	-200,000	-0,007	-0,205
-527,277	36,669	-0,065	0,041
-526,262	-200,000	-0,002	-0,050
-525,248	-52,986	-0,114	0,038
-524,233	58,653	0,138	0,098
-523,218	-84,652	0,068	0,015
-522,204	331,786	0,054	0,075
-521,189	212,703	-0,081	0,092
-520,175	509,975	-0,031	-0,053
-519,160	231,670	-0,050	0,059
-518,145	-24,061	0,095	0,041
-517,131	89,319	0,072	-0,058
-516,116	-95,602	0,122	0,023
-515,102	130,810	0,071	0,066
-514,087	800,000	0,025	-0,062
-513,072	800,000	0,007	0,024
-512,058	-200,000	-0,014	0,093
-511,043	-200,000	0,009	-0,063
-510,029	-78,472	0,051	-0,013
-509,014	-151,783	-0,089	0,005
-507,999	-73,700	-0,071	-0,018
-506,985	800,000	0,025	-0,077
-505,970	-11,340	-0,017	-0,008
-504,956	-11,778	0,059	0,028
-503,941	77,619	-0,038	0,030
-502,926	-109,633	0,165	-0,025
-501,912	-91,071	-0,135	0,028
-500,897	555,272	0,045	-0,079
-499,883	214,429	0,111	-0,127
-498,868	104,444	-0,070	-0,060
-497,853	-200,000	0,002	-0,036
-496,839	-110,777	0,050	0,007
-495,824	-200,000	-0,014	-0,079
-494,810	653,309	-0,005	0,009
-493,795	-200,000	-0,004	-0,161
-492,781	395,000	0,010	0,015
-491,766	21,763	-0,031	0,018
-490,751	-98,054	-0,039	-0,007
-489,737	1,479	0,172	-0,089
-488,722	-89,197	0,030	0,006
-487,708	800,000	0,058	0,133
-486,693	-200,000	-0,014	0,112
-485,678	192,681	0,094	-0,103
-484,664	65,413	-0,117	-0,085
-483,649	-131,442	-0,106	-0,010
-482,635	-88,619	0,074	-0,016
-481,620	313,152	-0,113	0,154
-480,605	-7,030	0,124	-0,060
-479,591	-53,541	0,177	-0,058
-478,576	193,582	-0,035	-0,038
-477,562	-124,012	-0,125	0,014
-476,547	-17,207	-0,024	-0,011
-475,532	196,655	0,069	0,076
-474,518	-86,723	0,066	0,014
-473,503	139,234	-0,027	0,025
-472,489	119,075	0,064	0,057
-471,474	221,267	0,023	-0,027
-470,459	-8,613	-0,110	0,053
-469,445	-200,000	-0,007	-0,061
-468,430	-200,000	0,008	-0,111
-467,416	-200,000	-0,003	0,123
-466,401	29,469	0,095	0,058
-465,386	-200,000	-0,028	-0,090
-464,372	311,015	0,025	0,034
-463,357	-122,031	0,011	-0,001
-462,343	-200,000	-0,011	-0,054
-461,328	84,667	0,098	-0,078
-460,313	800,000	0,007	0,019
-459,299	118,003	-0,089	0,079
-458,284	241,381	-0,055	0,066
-457,270	65,395	0,125	-0,091
-456,255	459,326	-0,023	0,038
-455,241	-160,311	-0,024	0,001
-454,226	-200,000	0,010	-0,081
-453,211	12,235	-0,034	-0,019
-452,197	800,000	0,051	0,149
-451,182	-17,933	-0,051	-0,023
-450,168	-35,949	-0,243	0,094
-449,153	482,523	-0,028	-0,045
-448,138	51,047	0,129	-0,088
-447,124	-200,000	0,009	-0,051
-446,109	48,805	-0,074	0,050
-445,095	-118,654	0,039	-0,005
-444,080	20,212	0,118	-0,068
-443,065	38,530	-0,036	0,023
-442,051	-95,309	0,075	-0,014
-441,036	-52,984	-0,058	0,019
-440,022	-200,000	0,006	-0,103
-439,007	-200,000	0,031	-0,118
-437,992	-172,424	-0,015	-0,000
-436,978	-92,807	-0,020	0,004
-435,963	-200,000	-0,013	0,210
-434,949	469,814	0,101	0,163
-433,934	-200,000	-0,009	-0,055
-432,919	-145,738	-0,093	-0,006
-431,905	97,172	-0,095	-0,079
-430,890	701,623	0,025	0,048
-429,876	800,000	0,026	0,063
-428,861	-168,899	0,108	-0,003
-427,846	-25,484	-0,101	0,043
-426,832	45,594	0,144	0,095
-425,817	274,259	-0,050	-0,063
-424,803	-200,000	0,008	-0,031
-423,788	-123,652	-0,033	-0,004
-422,773	13,102	0,086	0,048
-421,759	690,564	0,014	-0,026
-420,744	-166,297	0,017	0,000
-419,730	-146,657	-0,102	-0,006
-418,715	317,091	-0,023	0,032
-417,701	80,708	-0,058	0,045
-416,686	-182,847	-0,022	0,000
-415,671	1,837	-0,121	-0,063
-414,657	-82,539	-0,014	-0,003
-413,642	547,552	0,031	0,053
-412,628	-125,423	-0,159	0,017
-411,613	224,208	0,026	-0,030
-410,598	-68,272	-0,099	-0,027
-409,584	-200,000	-0,013	-0,188
-408,569	-200,000	0,017	-0,069
-407,555	-159,501	-0,044	0,002
-406,540	-200,000	0,010	0,086
-405,525	-173,529	0,123	-0,003
-404,511	-200,000	0,007	-0,046
-403,496	800,000	-0,027	-0,058
-402,482	-2,880	0,033	-0,016
-401,467	-62,418	-0,060	-0,018
-400,452	-200,000	0,033	0,137
-399,438	-200,000	0,001	0,013
-398,423	800,000	0,012	-0,037
-397,409	-71,504	-0,109	0,029
-396,394	800,000	0,032	0,094
-395,379	-200,000	0,010	0,093
-394,365	134,467	0,065	0,061
-393,350	5,083	0,092	0,048
-392,336	172,051	-0,075	0,077
-391,321	452,117	0,090	0,143
-390,306	800,000	-0,027	0,061
-389,292	428,469	0,032	-0,050
-388,277	354,550	0,032	0,046
-387,263	-34,210	-0,088	0,035
-386,248	800,000	0,077	0,164
-385,233	-115,102	0,089	-0,012
-384,219	670,705	-0,051	-0,096
-383,204	-187,395	-0,080	0,001
-382,190	-30,784	-0,164	0,066
-381,175	-200,000	-0,006	-0,053
-380,160	292,316	-0,046	-0,061
-379,146	-65,228	0,082	-0,024
-378,131	-139,501	0,125	0,009
-377,117	293,915	0,071	-0,094
-376,102	123,139	0,055	-0,049
-375,088	15,125	-0,088	-0,049
-374,073	175,521	-0,016	0,017
-373,058	-200,000	0,001	-0,141
-372,044	72,657	-0,040	-0,030
-371,029	-125,261	0,045	0,005
-370,015	-200,000	-0,000	0,031
-369,000	800,000	-0,018	0,038
-367,985	-200,000	-0,015	0,056
-366,971	-93,501	-0,027	0,005
-365,956	-69,423	-0,084	0,023
-364,942	-113,340	-0,071	-0,010
-363,927	739,405	-0,027	-0,053
-362,912	800,000	0,065	0,203
-361,898	-200,000	-0,003	-0,125
-360,883	-200,000	-0,011	-0,084
-359,869	-200,000	-0,019	-0,070
-358,854	273,524	0,064	0,081
-357,839	315,783	-0,030	-0,040
-356,825	-25,595	0,086	-0,036
-355,810	-200,000	0,005	-0,043
-354,796	45,654	0,044	0,029
-353,781	-200,000	-0,011	-0,117
-352,766	-58,907	-0,075	0,023
-351,752	-200,000	0,026	0,152
-350,737	800,000	0,012	-0,027
-349,723	-200,000	-0,007	-0,062
-348,708	-163,615	0,114	0,004
-347,693	323,561	0,020	-0,027
-346,679	331,897	-0,006	-0,008
-345,664	800,000	0,028	-0,071
-344,650	215,112	-0,077	-0,087
-343,635	-200,000	0,007	-0,053
-342,620	-89,221	0,078	0,016
-341,606	800,000	0,056	0,113
-340,591	-31,536	-0,072	-0,029
-339,577	797,503	0,028	-0,056
-338,562	-200,000	-0,003	-0,025
-337,548	799,289	-0,036	0,071
-336,533	-115,074	0,096	-0,013
-335,518	-200,000	0,024	-0,186
-334,504	-200,000	-0,004	0,030
-333,489	-146,984	0,110	0,007
-332,475	-200,000	0,050	-0,168
-331,460	49,620	-0,079	0,054
-330,445	800,000	0,034	-0,077
-329,431	22,700	0,181	0,106
-328,416	800,000	-0,013	0,034
-327,402	118,456	0,115	0,101
-326,387	-115,348	-0,063	0,008
-325,372	122,455	-0,104	0,093
-324,358	232,423	-0,098	-0,116
-323,343	31,938	-0,020	0,012
-322,329	468,948	0,045	-0,073
-321,314	-4,098	-0,067	-0,033
-320,299	-200,000	-0,003	-0,066
-319,285	-114,671	0,088	-0,012
-318,270	-200,000	0,014	-0,173
-317,256	-200,000	-0,004	-0,170
-316,241	-67,818	-0,132	-0,037
-315,226	-40,179	0,087	-0,032
-314,212	346,213	0,034	0,048
-313,197	-52,339	-0,096	0,032
-312,183	143,308	0,080	-0,076
-311,168	-200,000	-0,013	0,051
-310,153	800,000	-0,021	0,067
-309,139	549,414	0,051	-0,087
-308,124	-151,490	0,083	0,004
-307,110	51,180	-0,073	-0,049
-306,095	-52,516	0,035	-0,012
-305,080	-200,000	-0,001	-0,036
-304,066	28,516	-0,110	0,066
-303,051	-200,000	0,008	0,066
-302,037	-38,620	-0,058	-0,022
-301,022	168,375	-0,065	0,066
-300,008	800,000	-0,015	0,044
-298,993	422,438	-0,040	0,062
-297,978	800,000	-0,092	0,190
-296,964	90,180	0,026	-0,021
-295,949	715,368	0,016	-0,031
-294,935	-200,000	0,061	-0,260
-293,920	-84,064	0,088	-0,020
-292,905	428,100	0,041	0,064
-291,891	-76,255	0,102	0,025
-290,876	-70,979	-0,113	0,030
-289,862	14,458	-0,059	0,033
-288,847	213,916	0,016	-0,018
-287,832	-73,643	-0,099	0,026
-286,818	-200,000	-0,013	-0,091
-285,803	800,000	0,016	-0,037
-284,789	-200,000	-0,007	0,117
-283,774	-55,463	-0,053	-0,017
-282,759	-161,285	-0,081	-0,003
-281,745	30,651	0,154	-0,094
-280,730	-87,384	-0,092	0,020
-279,716	127,886	-0,112	-0,101
-278,701	16,980	-0,038	0,021
-277,686	-200,000	-0,010	0,076
-276,672	-126,154	0,075	0,008
-275,657	92,408	0,084	0,068
-274,643	565,138	-0,053	0,092
-273,628	155,789	0,081	0,080
-272,613	55,310	-0,085	-0,059
-271,599	-21,171	-0,013	0,006
-270,584	590,342	0,023	-0,041
-269,570	-200,000	-0,038	-0,127
-268,555	800,000	0,077	-0,162
-267,540	-200,000	0,028	0,097
-266,526	111,117	0,071	-0,061
-265,511	-200,000	0,007	-0,074
-264,497	-200,000	0,009	0,057
-263,482	-200,000	-0,020	-0,064
-262,467	28,208	0,105	-0,063
-261,453	800,000	0,053	0,111
-260,438	58,644	-0,123	-0,087
-259,424	-200,000	-0,027	-0,117
-258,409	-18,596	0,015	-0,007
-257,395	-80,885	-0,147	0,035
-256,380	-200,000	-0,007	0,042
-255,365	-91,944	0,158	0,032
-254,351	-200,000	-0,024	-0,171
-253,336	-42,158	0,123	-0,045
-252,322	-26,738	-0,096	0,040
-251,307	-200,000	0,006	0,069
-250,292	-99,980	-0,100	0,018
-249,278	25,056	0,112	0,066
-248,263	-43,653	0,038	0,014
-247,249	-200,000	0,013	-0,148
-246,234	103,625	-0,034	0,028
-245,219	-145,858	-0,066	-0,004
-244,205	-123,839	-0,040	0,004
-243,190	240,021	-0,132	0,158
-242,176	-108,594	0,030	0,005
-241,161	-200,000	0,022	0,093
-240,146	402,915	0,076	0,115
-239,132	800,000	-0,016	-0,032
-238,117	213,084	-0,019	0,021
-237,103	138,793	0,081	-0,076
-236,088	-200,000	-0,031	-0,108
-235,073	800,000	-0,047	-0,119
-234,059	-200,000	0,007	0,028
-233,044	-200,000	-0,010	-0,042
-232,030	-200,000	-0,002	0,122
-231,015	-200,000	0,003	0,058
-230,000	267,024	-0,084	-0,105
-228,986	-44,475	-0,042	-0,015
-227,971	-200,000	0,020	0,138
-226,957	733,351	0,029	-0,056
-225,942	23,999	-0,120	0,070
-224,927	-40,906	0,027	-0,010
-223,913	104,113	-0,105	-0,088
-222,898	-97,420	-0,179	0,033
-221,884	353,254	0,062	0,089
-220,869	800,000	0,052	0,126
-219,855	-76,117	-0,081	-0,020
-218,840	800,000	0,038	-0,093
-217,825	-66,662	-0,090	0,025
-216,811	-33,775	0,167	-0,065
-215,796	800,000	0,042	0,116
-214,782	-150,958	-0,116	0,006
-213,767	29,224	0,131	0,079
-212,752	800,000	-0,028	0,079
-211,738	-16,075	0,058	0,026
-210,723	-34,956	0,037	-0,014
-209,709	75,977	0,072	-0,054
-208,694	559,035	-0,086	-0,148
-207,679	205,102	-0,168	-0,186
-206,665	-95,879	0,132	0,025
-205,650	-58,778	-0,067	-0,020
-204,636	-200,000	0,004	0,088
-203,621	800,000	0,081	-0,163
-202,606	-200,000	-0,024	0,158
-201,592	-176,764	-0,083	0,001
-200,577	800,000	-0,027	-0,072
-199,563	-200,000	0,011	0,071
-198,548	-200,000	-0,014	0,087
-197,533	800,000	0,016	0,043
-196,519	767,752	-0,031	-0,061
-195,504	-200,000	-0,021	-0,096
-194,490	-143,001	0,008	0,001
-193,475	193,664	-0,039	-0,042
-192,460	334,435	-0,021	-0,029
-191,446	413,289	0,048	0,073
-190,431	-126,105	0,049	-0,005
-189,417	215,151	0,042	-0,048
-188,402	-123,904	-0,161	-0,018
-187,387	-113,219	-0,145	-0,020
-186,373	800,000	0,062	-0,144
-185,358	232,849	-0,083	0,097
-184,344	705,309	0,040	0,075
-183,329	-200,000	-0,010	0,044
-182,315	-151,031	0,119	-0,006
-181,300	-127,985	-0,040	-0,004
-180,285	151,689	0,081	-0,078
-179,271	271,492	-0,029	-0,037
-178,256	411,756	0,077	-0,116
-177,242	643,602	-0,029	-0,053
-176,227	-26,153	0,077	0,032
-175,212	-153,228	0,100	-0,005
-174,198	800,000	-0,006	0,019
-173,183	-97,781	0,101	-0,018
-172,169	-123,836	-0,075	0,008
-171,154	526,031	-0,037	0,063
-170,139	-81,801	0,042	-0,010
-169,125	118,427	0,050	0,044
-168,110	-89,073	-0,042	0,009
-167,096	-77,347	0,155	0,038
-166,081	22,255	-0,184	0,107
-165,066	213,924	-0,055	-0,062
-164,052	-200,000	-0,037	0,118
-163,037	-90,612	-0,238	0,049
-162,023	-110,707	0,124	0,018
-161,008	-200,000	0,004	0,061
-159,993	-71,221	-0,189	-0,050
-158,979	324,511	-0,053	0,072
-157,964	775,874	-0,041	-0,080
-156,950	-200,000	-0,013	-0,047
-155,935	800,000	0,025	-0,076
-154,920	-102,449	0,155	-0,026
-153,906	-31,412	-0,125	-0,050
-152,891	-200,000	0,016	0,069
-151,877	-200,000	-0,010	0,104
-150,862	-200,000	-0,035	-0,150
-149,847	213,717	-0,024	0,027
-148,833	15,644	-0,109	0,061
-147,818	800,000	0,066	0,141
-146,804	246,677	0,032	-0,038
-145,789	89,539	-0,078	0,062
-144,775	285,801	0,048	-0,062
-143,760	800,000	0,032	-0,100
-142,745	800,000	-0,035	-0,095
-141,731	-98,576	-0,047	0,009
-140,716	317,656	0,056	0,075
-139,702	800,000	0,020	-0,056
-138,687	-60,971	0,088	-0,026
-137,672	-200,000	-0,029	0,113
-136,658	20,601	-0,074	0,043
-135,643	-97,096	-0,143	0,026
-134,629	33,100	-0,031	0,019
-133,614	800,000	0,017	0,041
-132,599	290,305	0,052	0,068
-131,585	-200,000	-0,016	0,219
-130,570	-200,000	0,014	0,157
-129,556	-200,000	0,002	-0,021
-128,541	-107,591	0,016	-0,002
-127,526	-200,000	-0,024	-0,143
-126,512	-82,533	-0,054	-0,012
-125,497	576,445	-0,052	0,090
-124,483	-200,000	0,039	0,172
-123,468	800,000	-0,043	-0,109
-122,453	-200,000	-0,005	0,032
-121,439	800,000	-0,035	-0,100
-120,424	800,000	0,045	-0,134
-119,410	134,470	0,083	0,076
-118,395	-162,399	0,070	-0,002
-117,380	-137,855	-0,139	0,011
-116,366	70,102	0,049	0,036
-115,351	-75,731	-0,108	0,027
-114,337	-121,407	0,070	0,008
-113,322	-160,537	0,078	-0,003
-112,307	368,104	-0,064	0,093
-111,293	-146,177	-0,044	-0,003
-110,278	243,326	-0,027	-0,033
-109,264	800,000	-0,025	-0,072
-108,249	318,068	-0,057	-0,077
-107,234	-44,162	0,156	-0,055
-106,220	-102,156	-0,084	0,014
-105,205	-168,396	-0,137	0,004
-104,191	445,686	0,035	0,054
-103,176	800,000	0,048	0,106
-102,162	319,059	0,051	0,069
-101,147	97,580	-0,101	0,082
-100,132	-200,000	0,005	0,085
-99,118	-200,000	0,003	-0,032
-98,103	-200,000	-0,042	-0,140
-97,089	366,634	-0,074	0,107
-96,074	359,145	-0,093	0,133
-95,059	-97,371	-0,022	0,004
-94,045	-200,000	0,020	-0,089
-93,030	-172,348	0,034	0,001
-92,016	-60,930	-0,078	0,023
-91,001	-120,027	-0,017	-0,002
-89,986	-200,000	-0,012	0,084
-88,972	120,599	0,165	-0,146
-87,957	800,000	-0,011	0,029
-86,943	-51,663	-0,036	-0,012
-85,928	-200,000	-0,021	-0,074
-84,913	136,564	0,052	0,048
-83,899	800,000	0,042	0,109
-82,884	-86,282	0,037	-0,008
-81,870	-200,000	-0,003	-0,023
-80,855	355,979	0,073	0,103
-79,840	20,275	-0,078	-0,045
-78,826	-129,155	-0,081	0,008
-77,811	-8,939	0,085	-0,040
-76,797	-90,569	0,043	-0,009
-75,782	-139,166	0,017	0,001
-74,767	242,620	-0,006	0,007
-73,753	-200,000	-0,022	0,092
-72,738	-200,000	0,005	0,147
-71,724	112,461	-0,035	0,030
-70,709	-63,051	0,095	-0,028
-69,694	-200,000	0,013	-0,190
-68,680	648,567	0,087	0,159
-67,665	59,701	-0,011	0,008
-66,651	356,805	0,027	-0,038
-65,636	101,441	-0,046	-0,038
-64,622	-42,870	-0,131	0,047
-63,607	-67,545	-0,068	0,019
-62,592	211,494	-0,132	-0,147
-61,578	800,000	-0,027	-0,077
-60,563	-200,000	0,014	0,113
-59,549	-200,000	-0,014	0,111
-58,534	-76,786	-1,417	-0,349
-57,519	343,269	-1,597	-2,224
-56,505	-200,000	-0,484	-4,281
-55,490	109,699	1,014	0,862
-54,476	800,000	4,792	11,066
-53,461	-200,000	17,609	281,323
-52,446	800,000	720,093	2221,221
-51,432	560,973	1634,328	2811,433
-50,417	80,986	1658,065	1267,358
-49,403	23,773	1532,012	892,449
-48,388	17,654	1455,779	818,533
-47,373	18,250	1445,075	815,337
-46,359	17,828	1435,717	808,017
-45,344	16,041	1431,007	796,840
-44,330	15,933	1429,003	795,182
-43,315	15,974	1427,316	794,403
-42,300	15,934	1425,830	793,357
-41,286	16,020	1424,542	793,016
-40,271	15,962	1423,243	791,986
-39,257	15,951	1422,104	791,268
-38,242	16,020	1420,707	790,786
-37,227	16,007	1419,371	789,951
-36,213	16,014	1418,237	789,323
-35,198	15,966	1417,061	788,407
-34,184	15,998	1416,292	788,102
-33,169	15,905	1414,994	786,910
-32,154	15,974	1413,705	786,488
-31,140	15,995	1412,472	785,869
-30,125	16,047	1411,309	785,433
-29,111	16,018	1410,108	784,595
-28,096	15,983	1409,048	783,815
-27,082	15,954	1407,860	782,987
-26,067	15,946	1406,731	782,291
-25,052	15,914	1405,960	781,677
-24,038	15,883	1404,870	780,899
-23,023	15,878	1403,980	780,351
-22,009	15,863	1402,868	779,631
-20,994	15,854	1401,852	778,993
-19,979	15,858	1400,994	778,505
-18,965	15,836	1399,886	777,753
-17,950	15,819	1399,067	777,189
-16,936	15,891	1398,019	776,911
-15,921	15,805	1396,905	775,863
-14,906	15,820	1395,904	775,344
-13,892	15,789	1395,166	774,762
-12,877	15,788	1394,182	774,177
-11,863	15,821	1393,089	773,692
-10,848	15,842	1392,199	773,264
-9,833	15,808	1391,318	772,588
-8,819	15,734	1390,373	771,692
-7,804	15,727	1389,548	771,171
-6,790	15,725	1388,410	770,500
-5,775	15,680	1387,400	769,701
-4,760	15,717	1386,578	769,384
-3,746	15,703	1385,727	768,819
-2,731	15,732	1384,845	768,432
-1,717	15,678	1384,201	767,795
-0,702	15,686	1382,159	766,671
0,313	19,454	1303,014	740,150
1,327	35,716	706,616	439,061
2,342	55,250	125,135	85,592
3,356	3,387	16,577	8,525
4,371	2,290	3,077	1,571
5,386	-177,186	0,523	-0,009
6,400	-200,000	0,001	-0,024
7,415	-3,606	-0,153	-0,075
8,429	-67,241	-0,462	-0,128
9,444	39,664	-0,338	-0,214
10,459	-82,700	-0,345	-0,078
11,473	28,382	-0,324	-0,194
12,488	39,372	-0,350	-0,222
13,502	-4,288	-0,412	-0,201
14,517	120,581	-0,258	-0,227
15,531	19,592	-0,309	-0,175
16,546	113,141	-0,335	-0,287
17,561	76,759	-0,440	-0,330
18,575	307,232	-0,130	-0,172
19,590	128,056	-0,231	-0,207
20,604	57,305	-0,317	-0,219
21,619	164,074	-0,373	-0,372
22,634	85,715	-0,489	-0,380
23,648	14,703	-0,379	-0,209
24,663	215,920	-0,296	-0,333
25,677	182,832	-0,280	-0,293
26,692	124,456	-0,391	-0,348
27,707	-79,623	-0,393	-0,093
28,721	68,453	-0,340	-0,246
29,736	70,611	-0,318	-0,233
30,750	83,789	-0,448	-0,345
31,765	25,540	-0,382	-0,224
32,780	154,393	-0,267	-0,259
33,794	40,266	-0,266	-0,169
34,809	285,858	-0,340	-0,434
35,823	116,184	-0,357	-0,309
36,838	65,120	-0,422	-0,301
37,853	145,902	-0,333	-0,316
38,867	0,821	-0,412	-0,207
39,882	21,352	-0,387	-0,221
40,896	107,771	-0,315	-0,265
41,911	29,182	-0,405	-0,242
42,926	-28,136	-0,409	-0,166
43,940	43,216	-0,363	-0,233
44,955	173,292	-0,276	-0,281
45,969	177,055	-0,381	-0,392
46,984	93,416	-0,291	-0,233
47,999	70,424	-0,274	-0,199
49,013	49,961	-0,244	-0,162
50,028	95,994	-0,283	-0,228
51,042	236,617	-0,293	-0,342
52,057	-0,671	-0,380	-0,189
53,071	87,595	-0,321	-0,251
54,086	102,236	-0,278	-0,229
55,101	26,375	-0,383	-0,225
56,115	214,415	-0,237	-0,265
57,130	-0,344	-0,366	-0,183
58,144	38,808	-0,421	-0,264
59,159	27,768	-0,390	-0,231
60,174	127,972	-0,409	-0,367
61,188	119,197	-0,319	-0,278
62,203	80,569	-0,333	-0,253
63,217	12,027	-0,372	-0,201
64,232	169,687	-0,304	-0,306
65,247	51,941	-0,301	-0,202
66,261	98,477	-0,336	-0,273
67,276	74,878	-0,271	-0,201
68,290	30,780	-0,281	-0,169
69,305	80,203	-0,337	-0,255
70,320	-31,624	-0,243	-0,096
71,334	15,499	-0,326	-0,180
72,349	34,228	-0,379	-0,232
73,363	115,442	-0,311	-0,268
74,378	86,567	-0,458	-0,355
75,393	-17,575	-0,429	-0,189
76,407	35,640	-0,333	-0,206
77,422	-82,470	-0,325	-0,074
78,436	3,583	-0,392	-0,200
79,451	16,504	-0,237	-0,131
80,466	63,825	-0,408	-0,288
81,480	89,392	-0,271	-0,212
82,495	10,613	-0,318	-0,170
83,509	71,966	-0,260	-0,190
84,524	-110,941	-0,299	-0,043
85,539	114,705	-0,292	-0,250
86,553	-31,328	-0,375	-0,148
87,568	52,547	-0,391	-0,262
88,582	-7,534	-0,406	-0,193
89,597	-101,916	-0,391	-0,066
90,611	103,701	-0,239	-0,198
91,626	-142,707	-0,241	-0,016
92,641	103,542	-0,267	-0,220
93,655	-3,770	-0,352	-0,171
94,670	81,690	-0,355	-0,270
95,684	-112,503	-0,233	-0,032
96,699	58,048	-0,303	-0,208
97,714	-14,413	-0,253	-0,114
98,728	74,438	-0,205	-0,151
99,743	218,170	-0,156	-0,175
100,757	-56,847	-0,295	-0,091
101,772	140,133	-0,254	-0,235
102,787	162,348	-0,184	-0,182
103,801	-23,334	-0,326	-0,137
104,816	184,124	-0,181	-0,188
105,830	106,238	-0,240	-0,200
106,845	21,222	-0,278	-0,158
107,860	-53,548	-0,312	-0,099
108,874	37,221	-0,262	-0,163
109,889	-13,615	-0,339	-0,153
110,903	51,708	-0,280	-0,187
111,918	40,434	-0,178	-0,112
112,933	-58,675	-0,169	-0,051
113,947	19,687	-0,241	-0,136
114,962	211,222	-0,219	-0,242
115,976	176,971	-0,273	-0,279
116,991	158,506	-0,274	-0,267
118,006	47,870	-0,349	-0,228
119,020	69,966	-0,233	-0,169
120,035	-73,831	-0,176	0,045
121,049	-32,626	-0,387	-0,150
122,064	82,121	-0,254	-0,193
123,079	128,235	-0,236	-0,210
124,093	800,000	-0,154	-0,318
125,108	262,952	-0,253	-0,309
126,122	9,274	-0,297	-0,157
127,137	42,957	-0,231	-0,148
128,151	106,277	-0,264	-0,219
129,166	116,131	-0,155	-0,133
130,181	39,910	-0,253	-0,159
131,195	107,410	-0,271	-0,226
132,210	62,161	-0,357	-0,249
133,224	-18,942	-0,300	-0,130
134,239	-151,980	-0,230	-0,012
135,254	393,244	-0,121	-0,177
136,268	-76,793	-0,387	-0,094
137,283	800,000	-0,154	-0,342
138,297	167,204	-0,292	-0,291
139,312	87,323	-0,217	-0,168
140,327	-13,936	-0,417	-0,188
141,341	186,407	-0,158	-0,165
142,356	308,586	-0,217	-0,285
143,370	114,447	-0,185	-0,157
144,385	-200,000	0,017	-0,116
145,400	74,879	-0,320	-0,235
146,414	252,506	-0,166	-0,198
147,429	90,726	-0,273	-0,214
148,443	-91,295	-0,203	-0,040
149,458	1,534	-0,190	-0,095
150,473	-119,576	-0,202	0,024
151,487	-3,798	-0,086	-0,042
152,502	335,830	-0,212	-0,289
153,516	82,626	-0,347	-0,263
154,531	418,405	-0,199	-0,299
155,546	30,860	-0,213	-0,127
156,560	93,296	-0,246	-0,194
157,575	13,718	-0,208	-0,113
158,589	-55,980	-0,272	-0,084
159,604	57,033	-0,236	-0,160
160,619	9,550	-0,331	-0,175
161,633	15,050	-0,360	-0,196
162,648	-94,400	-0,186	-0,035
163,662	-30,464	-0,270	-0,107
164,677	-11,517	-0,342	-0,156
165,692	74,359	-0,160	-0,117
166,706	97,175	-0,174	-0,140
167,721	-56,147	-0,246	-0,076
168,735	-124,236	-0,364	-0,039
169,750	-154,805	-0,263	0,012
170,764	299,180	-0,183	-0,235
171,779	35,733	-0,211	-0,129
172,794	79,059	-0,174	-0,130
173,808	163,207	-0,232	-0,228
174,823	7,811	-0,290	-0,151
175,837	-43,739	-0,346	-0,121
176,852	31,936	-0,254	-0,152
177,867	-18,230	-0,164	-0,071
178,881	186,216	-0,240	-0,249
179,896	-5,797	-0,257	-0,122
180,910	135,892	-0,249	-0,226
181,925	174,643	-0,147	-0,148
182,940	-23,068	-0,195	-0,082
183,954	84,980	-0,220	-0,168
184,969	-83,692	-0,192	-0,042
185,983	26,386	-0,205	-0,119
186,998	48,551	-0,037	0,024
188,013	800,000	-0,146	-0,371
189,027	742,674	-0,049	-0,093
190,042	159,400	-0,254	-0,246
191,056	256,449	-0,179	-0,214
192,071	171,687	-0,195	-0,195
193,086	114,574	-0,207	-0,176
194,100	-60,489	-0,194	-0,057
195,115	32,093	-0,300	-0,179
196,129	135,763	-0,247	-0,224
197,144	15,192	-0,262	-0,143
198,159	52,255	-0,222	-0,147
199,173	24,384	-0,311	-0,178
200,188	23,769	-0,102	-0,058
201,202	86,894	-0,145	-0,112
202,217	182,934	-0,246	-0,253
203,232	117,806	-0,220	-0,189
204,246	159,137	-0,215	-0,208
205,261	24,591	-0,258	-0,148
206,275	290,565	-0,179	-0,227
207,290	91,331	-0,217	-0,169
208,304	375,231	-0,156	-0,221
209,319	-18,390	-0,183	-0,079
210,334	262,647	-0,151	-0,183
211,348	1,647	-0,290	-0,145
212,363	86,014	-0,203	-0,155
213,377	110,356	-0,174	-0,145
214,392	29,335	-0,159	-0,093
215,407	205,383	-0,101	-0,110
216,421	800,000	-0,110	-0,238
217,436	192,196	-0,181	-0,190
218,450	444,628	-0,128	-0,196
219,465	148,615	-0,222	-0,208
220,480	800,000	-0,076	-0,160
221,494	146,403	-0,229	-0,214
222,509	219,630	-0,140	-0,156
223,523	68,060	-0,098	-0,070
224,538	79,134	-0,173	-0,128
225,553	755,007	-0,137	-0,258
226,567	85,333	-0,187	-0,142
227,582	42,071	-0,280	-0,176
228,596	-123,993	-0,278	0,030
229,611	800,000	-0,033	-0,076
230,626	-29,210	-0,175	-0,069
231,640	-125,760	-0,232	0,024
232,655	237,374	-0,222	-0,256
233,669	-122,550	-0,190	-0,021
234,684	59,027	-0,264	-0,180
235,699	115,598	-0,157	-0,133
236,713	26,055	-0,167	-0,097
237,728	301,920	-0,116	-0,149
238,742	90,739	-0,198	-0,154
239,757	136,504	-0,242	-0,219
240,772	162,511	-0,136	-0,133
241,786	43,998	-0,292	-0,185
242,801	-69,923	-0,175	-0,046
243,815	106,647	-0,198	-0,163
244,830	133,885	-0,128	-0,115
245,844	-22,698	-0,211	-0,088
246,859	60,727	-0,242	-0,166
247,874	143,456	-0,249	-0,230
248,888	32,091	-0,171	-0,102
249,903	-0,912	-0,159	-0,078
250,917	-95,910	-0,154	-0,028
251,932	-125,311	-0,210	-0,022
252,947	-72,616	-0,192	-0,049
253,961	28,822	-0,174	-0,102
254,976	62,392	-0,162	-0,112
255,990	97,572	-0,154	-0,122
257,005	145,506	-0,170	-0,158
258,020	-64,678	-0,110	-0,031
259,034	418,456	-0,076	-0,113
260,049	-200,000	-0,179	0,000
261,063	-36,419	-0,296	-0,110
262,078	126,452	-0,243	-0,213
263,093	50,211	-0,147	-0,096
264,107	15,797	-0,194	-0,105
265,122	-78,093	-0,217	-0,051
266,136	701,812	-0,104	-0,191
267,151	213,652	-0,135	-0,148
268,166	208,949	-0,163	-0,176
269,180	-18,551	-0,162	-0,069
270,195	22,054	-0,162	-0,091
271,209	800,000	-0,068	-0,178
272,224	73,479	-0,269	-0,195
273,239	-107,640	-0,124	0,019
274,253	150,906	-0,120	-0,113
275,268	-83,531	-0,217	-0,048
276,282	-29,882	-0,165	-0,065
277,297	106,544	-0,225	-0,184
278,312	63,097	-0,166	-0,115
279,326	-91,855	-0,151	-0,029
280,341	-200,000	0,001	-0,139
281,355	272,770	-0,090	-0,110
282,370	151,300	-0,233	-0,220
283,384	800,000	-0,123	-0,252
284,399	53,527	-0,192	-0,127
285,414	663,304	-0,138	-0,247
286,428	800,000	-0,068	-0,130
287,443	73,043	-0,108	0,078
288,457	32,443	-0,198	-0,118
289,472	15,865	-0,182	-0,099
290,487	26,028	-0,271	-0,156
291,501	-37,971	-0,187	-0,068
292,516	27,200	-0,193	-0,112
293,530	-111,121	-0,182	-0,026
294,545	155,732	-0,144	-0,137
295,560	243,430	-0,073	-0,084
296,574	-13,652	-0,174	-0,078
297,589	-150,009	-0,283	-0,015
298,603	345,604	-0,185	-0,251
299,618	31,732	-0,139	-0,082
300,633	34,556	-0,192	-0,116
301,647	27,801	-0,175	-0,101
302,662	-200,000	0,005	-0,046
303,676	-16,363	-0,143	-0,062
304,691	22,423	-0,167	-0,094
305,706	71,900	-0,150	-0,107
306,720	-34,342	-0,194	-0,073
307,735	108,465	-0,120	-0,099
308,749	40,940	-0,234	-0,145
309,764	179,500	-0,117	-0,118
310,779	-55,706	-0,199	-0,061
311,793	49,653	-0,174	-0,113
312,808	491,087	-0,096	-0,152
313,822	116,805	-0,093	-0,078
314,837	800,000	-0,110	-0,211
315,852	800,000	-0,083	-0,188
316,866	800,000	-0,036	-0,070
317,881	800,000	-0,087	-0,224
318,895	174,119	-0,131	-0,130
319,910	615,802	-0,131	-0,228
320,925	-200,000	-0,011	-0,045
321,939	97,386	-0,080	-0,063
322,954	681,890	-0,075	-0,136
323,968	800,000	-0,075	-0,164
324,983	42,576	-0,167	-0,105
325,997	634,913	-0,121	-0,212
327,012	-6,998	-0,210	-0,098
328,027	-175,725	-0,235	-0,004
329,041	-92,036	-0,245	-0,047
330,056	136,253	-0,129	-0,116
331,070	264,542	-0,172	-0,206
332,085	20,397	-0,130	-0,072
333,100	-63,087	-0,222	-0,063
334,114	25,770	-0,269	-0,154
335,129	-55,445	-0,277	-0,085
336,143	177,609	-0,151	-0,152
337,158	469,244	-0,094	-0,145
338,173	-36,450	-0,057	-0,021
339,187	10,074	-0,090	-0,047
340,202	-89,776	-0,144	-0,029
341,216	19,792	-0,174	-0,096
342,231	-6,314	-0,213	-0,100
343,246	317,479	-0,137	-0,179
344,260	-94,155	-0,143	-0,027
345,275	-200,000	0,011	-0,131
346,289	-32,460	-0,062	-0,024
347,304	-200,000	-0,067	-0,220
348,319	201,833	-0,132	-0,140
349,333	-41,390	-0,172	-0,061
350,348	800,000	-0,159	-0,336
351,362	-50,576	-0,167	-0,054
352,377	120,618	-0,119	-0,102
353,392	205,124	-0,036	-0,039
354,406	-103,671	-0,083	0,013
355,421	208,896	1314,322	1414,774
356,435	160,755	1475,031	1415,301
