DTS Sentinel unit serial number:	SN410029Multiplexer serial number:	ORYXHardware model number:	OX2-SRSoftware version number:	ORYX F/W v4,00 Oryx Data Collector v3.7.2.0data status	okinstallation	B3 Nyhavnadifferential loss correction	single-endedforward channel	channel 1reverse channel	N/Adate	2023/11/29time	05:47:30forward acquisition time	300,00reverse acquisition time	0,00gamma	499,1914k internal	0,3211k external	0,3211temperature offset calibration	1,0000default loss term (dB/km)	0,3820temperature slope calibration	1,0000multiplexer offset coefficient	1,0000multiplexer slope coefficient	1,0000fibre end	0,00T internal ref (°C)	9,04T ext. ref 1 (°C)	-6,39T ext. ref 2 (°C)	-6,51length (m)	temperature (°C)	Stokes	anti-Stokes-744,400	409,939	-0,155	-0,238
-743,385	-200,000	-0,047	0,227
-742,371	562,760	-0,075	-0,132
-741,356	800,000	0,109	0,222
-740,342	199,298	-0,231	-0,257
-739,327	800,000	-0,034	0,099
-738,312	59,161	-0,254	-0,181
-737,298	-92,094	-0,175	0,036
-736,283	610,607	0,031	-0,057
-735,269	800,000	0,091	0,220
-734,254	-95,345	-0,213	-0,041
-733,239	-91,909	-0,249	0,051
-732,225	-200,000	-0,005	-0,062
-731,210	800,000	0,031	0,066
-730,196	-90,967	0,082	-0,017
-729,181	408,861	0,044	-0,068
-728,167	-200,000	-0,031	0,113
-727,152	-200,000	0,000	-0,039
-726,137	-61,629	-0,109	-0,033
-725,123	504,697	-0,076	-0,128
-724,108	-35,479	-0,045	-0,018
-723,094	409,253	-0,107	-0,164
-722,079	160,787	-0,072	0,073
-721,064	15,477	-0,053	-0,030
-720,050	35,634	-0,120	0,076
-719,035	800,000	0,026	0,082
-718,021	17,147	-0,160	-0,092
-717,006	800,000	-0,067	-0,155
-715,991	15,269	0,058	-0,033
-714,977	418,919	-0,042	-0,065
-713,962	-200,000	-0,018	-0,132
-712,948	-85,794	0,069	-0,015
-711,933	-9,953	0,078	-0,037
-710,918	10,798	-0,050	-0,027
-709,904	-200,000	-0,009	-0,117
-708,889	90,664	-0,052	0,042
-707,875	-163,697	-0,068	0,002
-706,860	800,000	0,018	-0,056
-705,845	800,000	0,059	-0,122
-704,831	-200,000	-0,025	-0,128
-703,816	-200,000	-0,024	0,083
-702,802	45,562	-0,097	-0,065
-701,787	-200,000	0,141	0,000
-700,772	-200,000	-0,178	0,000
-699,758	800,000	0,028	-0,075
-698,743	-200,000	-0,022	0,102
-697,729	-137,609	0,024	0,002
-696,714	2,951	0,057	0,030
-695,699	53,785	0,072	-0,050
-694,685	-112,355	-0,059	-0,008
-693,670	800,000	0,042	-0,100
-692,656	-200,000	-0,007	-0,089
-691,641	-64,940	-0,159	-0,046
-690,627	-37,364	0,063	-0,024
-689,612	-16,327	-0,098	-0,045
-688,597	-8,948	0,016	-0,008
-687,583	495,127	-0,092	-0,154
-686,568	-64,643	-0,126	-0,037
-685,554	800,000	-0,016	0,035
-684,539	105,261	0,007	-0,006
-683,524	-200,000	0,007	0,092
-682,510	800,000	0,050	0,143
-681,495	-125,510	0,029	0,003
-680,481	-69,196	-0,187	-0,052
-679,466	-92,024	-0,189	0,038
-678,451	-200,000	-0,041	-0,133
-677,437	65,363	0,083	-0,061
-676,422	800,000	0,066	-0,170
-675,408	-133,254	-0,199	0,018
-674,393	200,508	-0,033	-0,037
-673,378	800,000	0,020	-0,054
-672,364	800,000	-0,031	-0,084
-671,349	-82,842	-0,171	-0,040
-670,335	800,000	-0,088	-0,191
-669,320	-41,044	0,137	-0,051
-668,305	-200,000	0,010	0,054
-667,291	-57,599	0,076	0,024
-666,276	177,767	-0,038	0,040
-665,262	-47,753	-0,096	-0,033
-664,247	57,050	-0,128	-0,090
-663,232	-97,373	-0,062	-0,012
-662,218	-158,261	-0,073	0,003
-661,203	-65,048	0,113	0,033
-660,189	-200,000	-0,014	-0,052
-659,174	-200,000	-0,013	-0,083
-658,159	800,000	-0,037	-0,111
-657,145	800,000	-0,089	-0,238
-656,130	800,000	-0,041	-0,113
-655,116	359,869	-0,039	0,057
-654,101	38,149	-0,045	-0,029
-653,086	32,366	-0,028	-0,018
-652,072	-200,000	0,003	-0,039
-651,057	-135,359	-0,132	-0,011
-650,043	406,459	-0,095	-0,146
-649,028	-9,911	-0,045	-0,022
-648,014	-37,110	0,012	-0,005
-646,999	-49,410	0,153	0,052
-645,984	406,555	-0,058	0,089
-644,970	584,384	0,066	-0,117
-643,955	270,807	-0,098	-0,125
-642,941	63,408	-0,069	-0,050
-641,926	11,744	-0,024	0,013
-640,911	526,583	0,071	0,121
-639,897	-200,000	0,010	0,116
-638,882	800,000	0,043	0,115
-637,868	200,372	-0,092	0,102
-636,853	335,486	0,064	-0,090
-635,838	-136,836	0,101	-0,008
-634,824	79,511	-0,028	-0,021
-633,809	800,000	0,067	0,153
-632,795	800,000	0,034	0,080
-631,780	366,127	0,019	0,027
-630,765	33,698	-0,059	0,037
-629,751	800,000	-0,027	-0,067
-628,736	-44,382	0,070	-0,025
-627,722	158,820	-0,068	0,068
-626,707	20,411	0,076	0,044
-625,692	268,731	-0,057	0,072
-624,678	-2,346	0,098	-0,050
-623,663	221,760	-0,100	-0,116
-622,649	-132,062	-0,118	0,011
-621,634	-200,000	0,003	0,041
-620,619	-64,104	-0,074	0,022
-619,605	325,593	-0,018	-0,025
-618,590	276,645	-0,040	0,051
-617,576	800,000	-0,029	0,063
-616,561	285,550	0,089	-0,115
-615,546	88,949	0,015	-0,012
-614,532	-94,107	0,044	0,009
-613,517	9,562	-0,210	-0,114
-612,503	-16,946	-0,027	0,012
-611,488	-200,000	0,017	-0,130
-610,474	12,723	0,076	0,042
-609,459	432,643	0,033	0,051
-608,444	155,298	-0,075	-0,075
-607,430	108,290	0,079	-0,068
-606,415	800,000	-0,053	-0,159
-605,401	-200,000	0,004	-0,081
-604,386	83,597	-0,089	-0,070
-603,371	-200,000	0,093	0,318
-602,357	-94,044	-0,055	-0,011
-601,342	63,542	0,026	0,019
-600,328	95,055	-0,076	-0,062
-599,313	427,925	0,056	0,088
-598,298	-69,854	-0,085	0,023
-597,284	117,580	-0,035	-0,031
-596,269	-11,949	-0,097	-0,046
-595,255	4,668	0,164	0,086
-594,240	-34,072	-0,041	-0,016
-593,225	-50,505	0,078	0,026
-592,211	183,745	-0,060	-0,064
-591,196	-200,000	0,001	-0,033
-590,182	800,000	-0,074	-0,177
-589,167	-77,026	0,051	0,013
-588,152	-48,469	-0,078	0,027
-587,138	-3,975	-0,109	-0,054
-586,123	-34,210	-0,117	-0,046
-585,109	-11,176	-0,103	-0,049
-584,094	217,875	-0,092	-0,106
-583,079	-200,000	-0,009	0,094
-582,065	-200,000	-0,024	-0,085
-581,050	-114,102	0,038	-0,005
-580,036	-68,565	-0,078	-0,021
-579,021	782,094	-0,035	0,069
-578,006	-97,174	0,042	-0,008
-576,992	-200,000	0,015	0,075
-575,977	482,430	0,018	-0,029
-574,963	-84,943	0,098	0,022
-573,948	473,997	-0,040	-0,065
-572,934	-25,695	0,067	0,028
-571,919	-73,178	-0,073	-0,019
-570,904	-200,000	-0,008	-0,051
-569,890	-19,220	-0,104	-0,046
-568,875	13,534	0,017	-0,009
-567,861	210,073	0,056	0,063
-566,846	800,000	0,007	-0,019
-565,831	69,878	-0,122	-0,091
-564,817	350,552	-0,094	-0,134
-563,802	-109,215	0,044	-0,007
-562,788	800,000	-0,052	0,114
-561,773	800,000	0,045	0,112
-560,758	0,319	0,097	-0,050
-559,744	4,391	0,108	0,057
-558,729	19,445	0,073	0,042
-557,715	157,470	-0,100	-0,099
-556,700	65,057	-0,034	-0,025
-555,685	-200,000	-0,004	-0,055
-554,671	-200,000	-0,010	-0,055
-553,656	800,000	0,007	0,021
-552,642	-200,000	-0,050	0,159
-551,627	-137,662	-0,058	-0,005
-550,612	800,000	-0,029	-0,070
-549,598	-200,000	-0,009	-0,090
-548,583	800,000	-0,006	-0,019
-547,569	-200,000	-0,005	-0,018
-546,554	-106,152	-0,133	-0,021
-545,539	486,304	0,064	0,106
-544,525	800,000	0,009	-0,029
-543,510	83,434	0,148	0,116
-542,496	800,000	0,023	-0,062
-541,481	-43,923	0,091	0,033
-540,466	-154,066	-0,063	-0,003
-539,452	613,062	-0,048	0,087
-538,437	7,698	-0,016	0,009
-537,423	-135,022	0,077	0,007
-536,408	-161,156	0,082	-0,003
-535,393	4,039	-0,089	0,047
-534,379	-72,447	-0,106	-0,028
-533,364	-142,921	0,066	-0,005
-532,350	-200,000	0,000	0,193
-531,335	-200,000	-0,004	-0,112
-530,321	-200,000	-0,013	-0,104
-529,306	-132,908	-0,049	-0,004
-528,291	-113,461	-0,072	0,010
-527,277	-30,637	0,023	-0,010
-526,262	-200,000	0,028	-0,117
-525,248	-200,000	-0,011	-0,034
-524,233	-139,424	-0,093	0,007
-523,218	195,611	0,088	0,097
-522,204	416,061	0,056	0,086
-521,189	800,000	-0,030	-0,092
-520,175	17,099	-0,123	-0,070
-519,160	-200,000	0,015	-0,080
-518,145	-146,491	0,054	0,003
-517,131	800,000	0,019	0,054
-516,116	615,209	0,036	0,064
-515,102	99,647	-0,030	0,025
-514,087	25,622	0,083	0,049
-513,072	259,831	0,064	-0,080
-512,058	511,121	0,092	0,155
-511,043	800,000	0,092	0,208
-510,029	-200,000	0,060	0,193
-509,014	-200,000	-0,005	0,117
-507,999	6,450	0,089	-0,048
-506,985	-200,000	-0,006	-0,147
-505,970	800,000	0,048	-0,131
-504,956	-200,000	0,010	-0,055
-503,941	-159,512	-0,069	-0,003
-502,926	-116,924	0,180	0,023
-501,912	-200,000	0,025	-0,116
-500,897	-200,000	-0,017	0,139
-499,883	29,900	-0,069	-0,042
-498,868	46,597	0,122	0,081
-497,853	173,547	-0,026	-0,027
-496,839	-200,000	0,041	0,140
-495,824	800,000	0,013	-0,036
-494,810	-200,000	-0,022	-0,149
-493,795	-33,547	-0,237	0,093
-492,781	-17,601	-0,091	-0,041
-491,766	518,669	-0,029	-0,050
-490,751	357,344	-0,064	-0,093
-489,737	-108,308	-0,075	0,012
-488,722	800,000	0,036	0,088
-487,708	-200,000	0,041	0,131
-486,693	-31,922	-0,075	0,030
-485,678	-200,000	-0,022	-0,143
-484,664	-68,210	-0,055	0,015
-483,649	-200,000	-0,026	-0,119
-482,635	-200,000	-0,001	-0,092
-481,620	-200,000	0,048	0,171
-480,605	111,984	0,072	-0,063
-479,591	530,933	0,033	0,056
-478,576	361,081	-0,080	-0,116
-477,562	173,535	0,036	0,037
-476,547	-145,324	-0,144	0,009
-475,532	-200,000	0,013	0,068
-474,518	-109,451	-0,143	-0,021
-473,503	356,641	-0,038	-0,055
-472,489	800,000	0,056	0,127
-471,474	171,604	-0,031	-0,032
-470,459	191,770	-0,146	-0,158
-469,445	800,000	0,013	-0,040
-468,430	-15,338	0,080	-0,037
-467,416	-115,374	0,016	-0,002
-466,401	-44,563	0,128	0,046
-465,386	648,148	-0,040	0,073
-464,372	78,008	-0,074	-0,056
-463,357	-178,253	-0,027	0,000
-462,343	127,106	-0,055	0,050
-461,328	37,704	-0,058	-0,037
-460,313	355,780	0,057	-0,082
-459,299	15,188	0,050	0,028
-458,284	-36,184	0,056	-0,021
-457,270	597,605	0,063	-0,113
-456,255	-158,471	0,019	0,001
-455,241	-200,000	-0,001	-0,009
-454,226	-200,000	-0,001	0,086
-453,211	67,227	0,070	-0,051
-452,197	-138,043	0,085	-0,007
-451,182	-6,062	0,063	0,031
-450,168	388,495	0,102	0,151
-449,153	11,835	-0,117	0,064
-448,138	-57,557	-0,101	0,032
-447,124	-200,000	0,020	0,089
-446,109	-113,562	-0,047	-0,006
-445,095	179,693	0,075	-0,078
-444,080	77,593	-0,032	0,025
-443,065	800,000	-0,053	0,122
-442,051	-200,000	-0,033	-0,105
-441,036	573,343	0,046	-0,081
-440,022	115,509	-0,092	-0,080
-439,007	21,269	0,150	-0,087
-437,992	-123,945	0,034	0,004
-436,978	170,825	-0,051	-0,052
-435,963	-32,137	-0,040	0,016
-434,949	172,307	-0,048	-0,050
-433,934	-200,000	-0,005	-0,053
-432,919	-200,000	0,002	-0,028
-431,905	-119,388	-0,096	-0,012
-430,890	-169,896	0,108	0,003
-429,876	-80,834	0,176	0,041
-428,861	201,806	-0,058	-0,065
-427,846	-200,000	-0,036	-0,151
-426,832	43,716	-0,081	-0,053
-425,817	-200,000	0,016	-0,082
-424,803	-200,000	0,015	-0,112
-423,788	-200,000	0,010	0,035
-422,773	-78,722	-0,093	0,023
-421,759	800,000	0,046	0,117
-420,744	316,736	-0,027	0,037
-419,730	-6,332	0,025	-0,012
-418,715	435,439	-0,057	-0,089
-417,701	116,753	-0,095	-0,083
-416,686	-200,000	0,030	-0,111
-415,671	-110,811	0,094	0,014
-414,657	-200,000	0,022	0,102
-413,642	-197,893	-0,104	0,000
-412,628	800,000	0,050	-0,102
-411,613	-200,000	-0,048	-0,164
-410,598	-44,653	-0,103	0,037
-409,584	763,456	0,034	0,067
-408,569	-4,349	-0,095	0,047
-407,555	-121,072	-0,031	0,004
-406,540	-200,000	-0,064	0,220
-405,525	-200,000	0,040	0,180
-404,511	-108,829	-0,093	0,014
-403,496	-75,423	0,127	0,032
-402,482	9,467	0,150	-0,081
-401,467	-5,010	0,071	0,035
-400,452	49,706	0,065	0,044
-399,438	-15,509	0,108	0,049
-398,423	154,305	-0,030	0,029
-397,409	-85,581	0,040	-0,009
-396,394	-2,788	-0,131	-0,065
-395,379	-50,073	0,069	-0,023
-394,365	151,538	-0,072	0,070
-393,350	143,610	0,030	0,029
-392,336	-200,000	0,024	0,110
-391,321	-31,895	0,040	-0,016
-390,306	639,275	-0,014	-0,026
-389,292	-57,257	-0,028	-0,009
-388,277	-73,865	0,109	-0,028
-387,263	800,000	-0,022	0,069
-386,248	-200,000	-0,020	0,124
-385,233	-49,290	0,082	0,028
-384,219	-200,000	0,005	-0,112
-383,204	233,185	0,071	0,084
-382,190	698,066	-0,013	-0,025
-381,175	-86,792	0,080	0,017
-380,160	-200,000	0,006	-0,038
-379,146	30,742	0,092	0,056
-378,131	693,384	-0,033	0,062
-377,117	-200,000	0,001	0,107
-376,102	455,500	0,099	-0,158
-375,088	198,264	0,126	-0,138
-374,073	21,944	-0,077	0,044
-373,058	123,829	0,020	0,018
-372,044	-91,156	0,106	0,022
-371,029	116,627	-0,065	-0,057
-370,015	800,000	0,025	-0,073
-369,000	369,431	-0,081	-0,118
-367,985	436,856	-0,019	-0,030
-366,971	-104,844	-0,034	-0,006
-365,956	-15,377	0,091	-0,041
-364,942	40,427	0,027	0,017
-363,927	-200,000	-0,006	-0,047
-362,912	180,781	-0,037	-0,039
-361,898	-12,741	-0,073	-0,034
-360,883	-200,000	0,025	-0,105
-359,869	153,142	-0,038	0,037
-358,854	-200,000	-0,024	0,089
-357,839	-200,000	0,001	-0,007
-356,825	139,275	0,011	0,010
-355,810	289,550	0,003	0,004
-354,796	-200,000	-0,014	-0,160
-353,781	68,274	0,057	-0,042
-352,766	12,693	-0,104	-0,057
-351,752	125,213	0,118	-0,106
-350,737	109,941	0,060	0,052
-349,723	800,000	0,046	0,097
-348,708	22,800	-0,138	-0,080
-347,693	34,150	0,032	-0,020
-346,679	-33,207	-0,012	0,005
-345,664	-200,000	-0,038	-0,193
-344,650	800,000	-0,028	0,072
-343,635	-200,000	0,007	-0,062
-342,620	19,201	-0,043	0,024
-341,606	800,000	0,028	-0,058
-340,591	-200,000	0,017	0,101
-339,577	-58,637	0,027	-0,008
-338,562	800,000	-0,023	0,051
-337,548	429,450	0,027	-0,041
-336,533	800,000	0,042	0,132
-335,518	496,655	0,053	0,087
-334,504	-0,993	0,048	-0,024
-333,489	620,778	0,044	0,080
-332,475	-200,000	0,008	-0,075
-331,460	-106,783	-0,220	-0,034
-330,445	398,116	-0,030	-0,044
-329,431	268,741	-0,040	0,050
-328,416	-8,002	0,097	0,046
-327,402	800,000	0,012	0,036
-326,387	-112,942	-0,128	0,018
-325,372	-200,000	-0,000	-0,022
-324,358	-200,000	-0,004	-0,123
-323,343	44,975	0,126	0,083
-322,329	117,380	-0,097	-0,085
-321,314	46,644	0,070	-0,047
-320,299	800,000	-0,020	0,057
-319,285	800,000	0,030	0,069
-318,270	426,974	-0,033	0,051
-317,256	-200,000	0,011	-0,159
-316,241	100,742	0,032	-0,026
-315,226	-2,537	0,109	0,054
-314,212	-200,000	0,052	0,227
-313,197	189,762	0,048	0,051
-312,183	101,712	0,076	-0,063
-311,168	-3,414	-0,139	-0,069
-310,153	-200,000	0,036	0,125
-309,139	284,335	-0,050	-0,065
-308,124	800,000	0,043	0,105
-307,110	-111,458	0,140	0,020
-306,095	300,197	0,006	-0,008
-305,080	-200,000	-0,060	0,267
-304,066	-72,708	0,010	-0,002
-303,051	-14,986	0,056	0,026
-302,037	65,001	-0,071	0,051
-301,022	-0,762	0,067	0,034
-300,008	-128,589	-0,041	0,004
-298,993	34,321	0,175	0,108
-297,978	-200,000	-0,024	0,119
-296,964	-38,222	0,047	0,018
-295,949	-9,571	-0,174	0,082
-294,935	-200,000	-0,013	-0,094
-293,920	800,000	-0,013	0,028
-292,905	-200,000	-0,133	-0,000
-291,891	800,000	0,057	0,133
-290,876	-26,960	-0,112	-0,047
-289,862	-200,000	-0,017	-0,057
-288,847	86,114	-0,065	-0,051
-287,832	-12,792	-0,151	0,070
-286,818	-58,076	-0,053	-0,016
-285,803	-200,000	0,003	-0,009
-284,789	-6,310	0,089	-0,043
-283,774	-200,000	-0,022	0,081
-282,759	167,883	0,111	-0,112
-281,745	800,000	-0,029	0,079
-280,730	-122,429	-0,117	0,013
-279,716	-200,000	0,012	-0,077
-278,701	19,810	0,078	-0,045
-277,686	155,940	0,109	0,107
-276,672	425,288	-0,121	0,186
-275,657	378,288	0,042	0,061
-274,643	702,649	-0,004	-0,007
-273,628	-118,479	-0,136	0,017
-272,613	3,670	-0,077	0,040
-271,599	800,000	-0,007	0,019
-270,584	-200,000	0,016	-0,101
-269,570	15,146	-0,037	0,020
-268,555	-147,956	-0,128	0,007
-267,540	323,321	0,065	-0,089
-266,526	1,866	0,010	0,005
-265,511	208,154	0,144	-0,161
-264,497	691,751	-0,058	0,109
-263,482	187,602	-0,017	-0,018
-262,467	-32,540	0,137	0,054
-261,453	733,591	0,036	0,070
-260,438	10,488	-0,065	-0,035
-259,424	-200,000	-0,014	-0,078
-258,409	800,000	0,059	-0,161
-257,395	63,022	0,079	-0,056
-256,380	-22,307	-0,081	-0,035
-255,365	322,938	0,042	0,058
-254,351	-46,191	-0,103	0,036
-253,336	323,348	-0,046	-0,062
-252,322	800,000	-0,037	-0,107
-251,307	-200,000	0,016	-0,083
-250,292	313,103	0,108	-0,145
-249,278	800,000	0,053	0,106
-248,263	-46,282	0,072	-0,025
-247,249	485,721	0,049	0,079
-246,234	-200,000	0,028	0,177
-245,219	-200,000	0,014	-0,080
-244,205	-89,386	-0,079	0,016
-243,190	52,730	0,045	0,031
-242,176	-37,537	0,142	0,054
-241,161	800,000	-0,035	0,096
-240,146	90,137	0,050	-0,040
-239,132	401,521	0,052	0,079
-238,117	124,994	-0,107	-0,096
-237,103	-4,002	-0,133	-0,065
-236,088	-3,179	-0,078	0,039
-235,073	313,412	0,019	0,025
-234,059	111,024	-0,057	0,049
-233,044	108,281	0,075	0,063
-232,030	268,935	-0,043	-0,054
-231,015	124,131	-0,044	-0,040
-230,000	800,000	-0,067	-0,145
-228,986	4,102	-0,054	-0,028
-227,971	800,000	-0,040	-0,112
-226,957	-2,196	0,130	-0,064
-225,942	95,667	-0,015	0,012
-224,927	74,583	-0,088	-0,065
-223,913	684,949	0,076	-0,141
-222,898	397,806	-0,053	0,079
-221,884	236,648	0,029	0,034
-220,869	-87,344	0,041	-0,009
-219,855	800,000	0,019	0,053
-218,840	-101,862	0,031	0,005
-217,825	-14,740	0,076	-0,034
-216,811	-150,299	-0,098	-0,005
-215,796	-107,853	-0,048	-0,007
-214,782	37,523	0,109	-0,069
-213,767	-21,289	0,164	-0,071
-212,752	-13,342	0,100	0,046
-211,738	-200,000	-0,011	0,064
-210,723	113,330	-0,088	-0,076
-209,709	7,497	0,059	0,031
-208,694	-59,136	-0,122	0,037
-207,679	-1,570	-0,081	0,040
-206,665	800,000	0,033	0,069
-205,650	-106,463	0,061	-0,010
-204,636	799,235	-0,052	0,103
-203,621	-83,397	0,005	0,001
-202,606	800,000	-0,061	-0,124
-201,592	-94,618	-0,073	-0,014
-200,577	-188,068	-0,024	0,000
-199,563	800,000	0,038	-0,105
-198,548	625,399	0,014	0,024
-197,533	602,381	0,065	0,116
-196,519	-50,089	-0,048	0,016
-195,504	-200,000	0,009	0,052
-194,490	-200,000	0,013	-0,065
-193,475	-103,404	0,040	0,007
-192,460	34,819	-0,055	0,034
-191,446	243,167	0,029	0,034
-190,431	98,579	-0,011	0,009
-189,417	426,263	0,050	-0,077
-188,402	800,000	0,065	-0,132
-187,387	-200,000	-0,031	-0,108
-186,373	-56,995	-0,084	0,026
-185,358	800,000	-0,047	-0,099
-184,344	63,743	0,154	0,110
-183,329	0,177	0,131	0,066
-182,315	-69,669	-0,034	-0,009
-181,300	-200,000	0,005	-0,082
-180,285	699,096	-0,092	-0,173
-179,271	31,693	-0,015	0,009
-178,256	26,150	0,102	0,060
-177,242	73,969	-0,040	-0,030
-176,227	800,000	0,028	0,062
-175,212	77,350	0,141	0,107
-174,198	72,074	0,102	0,075
-173,183	-75,955	-0,020	0,005
-172,169	800,000	-0,066	-0,142
-171,154	-200,000	-0,001	0,064
-170,139	-129,780	0,178	0,017
-169,125	-200,000	0,006	0,029
-168,110	85,442	0,093	-0,073
-167,096	160,187	-0,078	0,077
-166,081	791,845	-0,030	0,059
-165,066	-200,000	0,007	-0,076
-164,052	-97,276	-0,064	0,012
-163,037	337,440	0,022	0,030
-162,023	238,692	0,079	0,093
-161,008	-200,000	-0,001	0,109
-159,993	104,761	-0,108	0,090
-158,979	26,300	-0,133	-0,078
-157,964	13,138	0,139	-0,076
-156,950	326,800	0,063	0,086
-155,935	-200,000	-0,008	-0,062
-154,920	-200,000	-0,005	0,153
-153,906	98,410	-0,060	0,049
-152,891	378,336	0,058	0,084
-151,877	-200,000	-0,003	-0,062
-150,862	-153,150	-0,188	-0,009
-149,847	672,636	-0,026	-0,048
-148,833	800,000	0,034	-0,079
-147,818	800,000	-0,018	0,050
-146,804	800,000	-0,052	0,124
-145,789	800,000	-0,019	0,041
-144,775	-119,446	0,099	0,012
-143,760	-200,000	-0,011	-0,049
-142,745	257,809	-0,057	0,069
-141,731	633,838	-0,045	-0,082
-140,716	263,926	-0,086	0,106
-139,702	-200,000	-0,017	0,119
-138,687	-200,000	0,006	0,055
-137,672	221,529	0,088	0,100
-136,658	11,356	-0,079	-0,043
-135,643	151,922	0,067	-0,065
-134,629	-60,266	-0,016	-0,005
-133,614	142,700	-0,073	-0,069
-132,599	-54,891	0,156	-0,050
-131,585	48,079	0,038	0,025
-130,570	236,981	-0,088	-0,104
-129,556	-137,337	0,091	-0,007
-128,541	-109,586	-0,091	0,013
-127,526	115,657	0,100	0,086
-126,512	-200,000	0,048	0,166
-125,497	-128,686	0,112	0,011
-124,483	800,000	0,042	-0,106
-123,468	75,262	0,082	-0,061
-122,453	294,707	0,067	-0,086
-121,439	119,624	0,118	-0,104
-120,424	32,305	-0,036	-0,022
-119,410	-200,000	0,040	0,219
-118,395	597,162	0,053	-0,093
-117,380	-200,000	0,012	0,087
-116,366	-14,595	-0,047	0,021
-115,351	134,707	-0,139	0,127
-114,337	18,596	-0,050	-0,028
-113,322	-200,000	0,020	-0,128
-112,307	157,244	-0,082	0,081
-111,293	-73,309	-0,032	0,008
-110,278	-200,000	-0,013	0,061
-109,264	-200,000	-0,015	0,050
-108,249	184,658	-0,112	0,117
-107,234	256,178	0,031	0,038
-106,220	800,000	-0,059	-0,149
-105,205	94,114	0,107	0,086
-104,191	-84,347	0,091	-0,020
-103,176	-125,346	0,074	0,008
-102,162	-158,794	-0,074	0,003
-101,147	-72,219	0,063	-0,016
-100,132	143,661	0,094	-0,088
-99,118	-18,292	-0,072	-0,032
-98,103	-148,945	-0,067	-0,004
-97,089	-168,803	0,153	-0,004
-96,074	670,062	-0,023	0,043
-95,059	79,774	-0,097	0,074
-94,045	563,581	0,032	-0,055
-93,030	409,201	0,098	-0,146
-92,016	126,117	0,120	-0,107
-91,001	506,640	-0,053	-0,088
-89,986	-200,000	0,006	0,046
-88,972	33,890	-0,035	0,022
-87,957	-200,000	-0,011	-0,057
-86,943	-151,965	-0,094	0,005
-85,928	421,465	-0,079	-0,120
-84,913	54,840	-0,077	0,052
-83,899	-200,000	-0,001	0,044
-82,884	-200,000	-0,017	-0,166
-81,870	-200,000	0,006	-0,111
-80,855	-200,000	0,036	0,136
-79,840	120,769	-0,043	0,038
-78,826	419,778	0,060	-0,092
-77,811	1,721	-0,103	-0,052
-76,797	60,265	0,019	0,013
-75,782	345,873	0,089	-0,124
-74,767	-44,559	-0,079	-0,028
-73,753	800,000	-0,009	0,026
-72,738	160,230	0,016	-0,016
-71,724	528,370	0,023	-0,039
-70,709	53,320	-0,101	-0,068
-69,694	288,333	0,103	-0,132
-68,680	339,932	-0,054	0,075
-67,665	10,532	0,171	-0,092
-66,651	-117,542	-0,014	-0,002
-65,636	32,789	-0,120	-0,073
-64,622	194,377	-0,073	-0,078
-63,607	95,556	-0,037	0,030
-62,592	-200,000	0,008	0,176
-61,578	-200,000	-0,005	-0,033
-60,563	-200,000	0,013	-0,093
-59,549	-200,000	0,023	0,074
-58,534	60,198	-2,136	-1,489
-57,519	479,803	-1,160	-1,862
-56,505	-200,000	-0,266	-4,263
-55,490	586,831	0,962	1,677
-54,476	800,000	5,124	11,256
-53,461	-200,000	21,786	336,951
-52,446	800,000	759,465	2300,024
-51,432	534,902	1653,682	2777,532
-50,417	69,451	1651,146	1198,051
-49,403	16,704	1525,721	849,169
-48,388	10,899	1450,315	779,250
-47,373	19,031	1442,008	813,593
-46,359	14,224	1430,930	784,568
-45,344	9,192	1426,948	758,505
-44,330	9,114	1425,121	757,130
-43,315	9,118	1423,376	756,194
-42,300	9,126	1421,454	755,182
-41,286	9,154	1420,346	754,694
-40,271	9,131	1419,018	753,852
-39,257	9,125	1417,950	753,224
-38,242	9,164	1416,710	752,719
-37,227	9,138	1415,615	751,983
-36,213	9,155	1414,323	751,351
-35,198	9,131	1413,254	750,638
-34,184	9,173	1412,119	750,203
-33,169	9,088	1410,903	749,126
-32,154	9,127	1409,828	748,711
-31,140	9,104	1408,570	747,906
-30,125	9,139	1407,505	747,475
-29,111	9,158	1406,299	746,890
-28,096	9,092	1405,170	745,954
-27,082	9,034	1403,800	744,925
-26,067	9,064	1402,930	744,576
-25,052	9,076	1401,893	744,051
-24,038	9,096	1400,883	743,580
-23,023	9,060	1400,076	742,955
-22,009	9,072	1398,921	742,369
-20,994	9,043	1397,856	741,639
-19,979	9,032	1397,135	741,174
-18,965	9,056	1395,959	740,635
-17,950	9,023	1395,043	739,964
-16,936	8,990	1394,499	739,495
-15,921	8,989	1393,183	738,764
-14,906	8,973	1392,249	738,165
-13,892	9,046	1391,222	737,928
-12,877	9,022	1390,617	737,467
-11,863	8,935	1389,969	736,691
-10,848	8,954	1388,933	736,200
-9,833	8,955	1387,833	735,593
-8,819	8,878	1387,043	734,788
-7,804	8,901	1386,107	734,371
-6,790	8,916	1385,022	733,834
-5,775	8,915	1383,909	733,212
-4,760	8,924	1383,120	732,806
-3,746	8,857	1382,504	732,144
-2,731	8,943	1381,345	731,894
-1,717	8,930	1380,460	731,338
-0,702	8,846	1378,886	730,092
0,313	12,812	1290,559	701,364
1,327	28,695	682,945	406,824
2,342	44,674	117,557	76,092
3,356	0,078	16,510	8,269
4,371	9,157	3,630	1,928
5,386	-8,300	1,297	0,613
6,400	-200,000	0,139	0,463
7,415	82,282	-0,244	-0,187
8,429	-42,697	-0,357	-0,127
9,444	369,343	-0,207	-0,296
10,459	66,490	-0,321	-0,230
11,473	-69,851	-0,318	-0,085
12,488	-26,896	-0,299	-0,122
13,502	-81,542	-0,332	-0,076
14,517	-21,125	-0,302	-0,130
15,531	-79,396	-0,485	-0,115
16,546	37,734	-0,324	-0,202
17,561	87,827	-0,288	-0,225
18,575	-68,157	-0,102	-0,028
19,590	617,391	-0,204	-0,361
20,604	195,269	-0,136	-0,146
21,619	152,293	-0,419	-0,403
22,634	-40,561	-0,485	-0,176
23,648	54,644	-0,471	-0,319
24,663	71,052	-0,415	-0,302
25,677	-18,839	-0,463	-0,202
26,692	179,139	-0,277	-0,285
27,707	-14,465	-0,314	-0,142
28,721	117,202	-0,346	-0,300
29,736	73,039	-0,422	-0,310
30,750	86,223	-0,458	-0,355
31,765	23,771	-0,435	-0,251
32,780	57,068	-0,392	-0,269
33,794	-9,330	-0,286	-0,134
34,809	18,316	-0,330	-0,185
35,823	101,360	-0,362	-0,297
36,838	98,649	-0,427	-0,346
37,853	137,935	-0,436	-0,402
38,867	138,073	-0,328	-0,303
39,882	211,544	-0,334	-0,370
40,896	21,375	-0,335	-0,191
41,911	-14,608	-0,271	-0,122
42,926	-20,569	-0,378	-0,162
43,940	13,990	-0,501	-0,273
44,955	148,333	-0,315	-0,298
45,969	-22,816	-0,422	-0,178
46,984	174,824	-0,224	-0,228
47,999	52,983	-0,287	-0,193
49,013	43,826	-0,307	-0,197
50,028	29,951	-0,214	-0,128
51,042	48,671	-0,498	-0,327
52,057	389,847	-0,180	-0,262
53,071	402,926	-0,282	-0,418
54,086	100,350	-0,202	-0,164
55,101	72,315	-0,322	-0,235
56,115	-59,443	-0,365	-0,109
57,130	125,531	-0,246	-0,218
58,144	54,901	-0,328	-0,222
59,159	69,365	-0,318	-0,229
60,174	89,060	-0,351	-0,274
61,188	-26,632	-0,420	-0,172
62,203	-47,888	-0,372	-0,126
63,217	21,091	-0,435	-0,247
64,232	-54,288	-0,321	-0,102
65,247	69,705	-0,335	-0,242
66,261	2,707	-0,282	-0,143
67,276	30,967	-0,321	-0,193
68,290	-82,019	-0,350	-0,080
69,305	26,252	-0,308	-0,180
70,320	92,813	-0,250	-0,197
71,334	152,619	-0,224	-0,215
72,349	76,108	-0,395	-0,293
73,363	99,714	-0,283	-0,229
74,378	60,579	-0,397	-0,275
75,393	-5,232	-0,347	-0,167
76,407	148,326	-0,317	-0,300
77,422	214,626	-0,192	-0,213
78,436	-45,740	-0,306	-0,105
79,451	-78,778	-0,281	-0,067
80,466	-85,318	-0,319	-0,069
81,480	-40,387	-0,385	-0,139
82,495	-79,812	-0,369	-0,086
83,509	41,398	-0,298	-0,188
84,524	92,183	-0,269	-0,212
85,539	39,364	-0,331	-0,207
86,553	-48,236	-0,303	-0,102
87,568	46,880	-0,308	-0,200
88,582	61,909	-0,251	-0,175
89,597	80,002	-0,403	-0,303
90,611	-110,781	-0,337	-0,048
91,626	319,696	-0,162	-0,215
92,641	317,006	-0,124	-0,165
93,655	91,143	-0,281	-0,220
94,670	80,812	-0,238	-0,179
95,684	-34,358	-0,328	-0,125
96,699	144,632	-0,321	-0,300
97,714	-171,919	-0,286	0,006
98,728	43,092	-0,234	-0,149
99,743	77,804	-0,327	-0,243
100,757	321,651	-0,198	-0,264
101,772	-21,794	-0,322	-0,136
102,787	-2,540	-0,430	-0,210
103,801	140,045	-0,242	-0,223
104,816	557,433	-0,128	-0,216
105,830	52,572	-0,212	-0,141
106,845	72,080	-0,136	-0,099
107,860	192,518	-0,214	-0,226
108,874	-200,000	-0,062	-0,316
109,889	46,419	-0,388	-0,251
110,903	8,406	-0,277	-0,145
111,918	120,056	-0,115	-0,100
112,933	-177,090	-0,373	-0,006
113,947	236,638	-0,210	-0,243
114,962	131,048	-0,322	-0,289
115,976	265,342	-0,130	-0,158
116,991	76,372	-0,223	-0,164
118,006	98,479	-0,192	-0,155
119,020	63,457	-0,178	-0,125
120,035	78,667	-0,207	-0,155
121,049	-75,686	-0,313	-0,077
122,064	68,240	-0,282	-0,201
123,079	-20,298	-0,188	-0,081
124,093	264,115	-0,269	-0,327
125,108	63,040	-0,305	-0,213
126,122	-12,581	-0,214	-0,097
127,137	-71,035	-0,414	-0,108
128,151	646,390	-0,124	-0,221
129,166	-49,379	-0,163	-0,054
130,181	120,563	-0,121	-0,105
131,195	6,534	-0,223	-0,115
132,210	148,253	-0,335	-0,315
133,224	16,417	-0,339	-0,186
134,239	101,223	-0,198	-0,161
135,254	609,815	-0,135	-0,235
136,268	31,424	-0,199	-0,119
137,283	166,248	-0,232	-0,230
138,297	153,761	-0,237	-0,226
139,312	800,000	-0,145	-0,284
140,327	-19,464	-0,291	-0,125
141,341	-19,271	-0,227	-0,098
142,356	6,370	-0,233	-0,120
143,370	172,662	-0,126	-0,127
144,385	508,426	-0,165	-0,268
145,400	66,976	-0,242	-0,172
146,414	-54,812	-0,359	-0,112
147,429	120,228	-0,292	-0,252
148,443	68,692	-0,179	-0,128
149,458	-33,177	-0,280	-0,108
150,473	112,395	-0,155	-0,130
151,487	189,528	-0,180	-0,188
152,502	139,092	-0,258	-0,236
153,516	5,030	-0,279	-0,142
154,531	97,846	-0,146	-0,117
155,546	242,386	-0,187	-0,218
156,560	-96,263	-0,152	-0,028
157,575	-200,000	-0,051	-0,206
158,589	427,859	-0,184	-0,277
159,604	-153,874	-0,319	-0,015
160,619	-112,169	-0,258	-0,036
161,633	61,552	-0,273	-0,189
162,648	66,187	-0,122	-0,086
163,662	84,538	-0,223	-0,169
164,677	-117,090	-0,128	-0,016
165,692	-110,603	-0,313	0,045
166,706	58,066	-0,321	-0,218
167,721	-15,165	-0,239	-0,106
168,735	17,232	-0,243	-0,134
169,750	14,517	-0,300	-0,162
170,764	290,269	-0,215	-0,272
171,779	34,087	-0,239	-0,145
172,794	130,827	-0,253	-0,225
173,808	10,288	-0,187	-0,098
174,823	167,754	-0,281	-0,277
175,837	25,388	-0,311	-0,179
176,852	18,609	-0,065	0,036
177,867	-80,918	-0,155	-0,035
178,881	96,505	-0,315	-0,250
179,896	-39,729	-0,237	-0,086
180,910	119,519	-0,226	-0,194
181,925	246,930	-0,245	-0,288
182,940	200,731	-0,219	-0,235
183,954	431,628	-0,185	-0,279
184,969	-200,000	-0,058	-0,198
185,983	-157,494	-0,259	-0,011
186,998	13,800	-0,258	-0,139
188,013	-25,630	-0,370	-0,151
189,027	461,415	-0,132	-0,205
190,042	800,000	-0,094	-0,201
191,056	-123,823	-0,126	0,014
192,071	437,409	-0,073	-0,110
193,086	-113,410	-0,153	-0,021
194,100	138,949	-0,248	-0,226
195,115	81,850	-0,156	-0,117
196,129	-25,302	-0,266	-0,109
197,144	-39,107	-0,268	-0,097
198,159	-35,887	-0,164	-0,061
199,173	198,642	-0,211	-0,224
200,188	8,205	-0,170	-0,088
201,202	232,627	-0,108	-0,123
202,217	-43,769	-0,218	-0,076
203,232	370,308	-0,170	-0,240
204,246	800,000	-0,106	-0,216
205,261	800,000	-0,086	-0,226
206,275	157,776	-0,188	-0,180
207,290	0,854	-0,193	-0,095
208,304	283,837	-0,102	-0,127
209,319	29,681	-0,156	-0,092
210,334	144,657	-0,245	-0,227
211,348	88,628	-0,304	-0,234
212,363	-74,787	-0,257	-0,063
213,377	232,781	-0,122	-0,139
214,392	122,460	-0,205	-0,177
215,407	659,284	-0,118	-0,212
216,421	105,952	-0,140	-0,115
217,436	602,535	-0,079	-0,137
218,450	109,105	-0,185	-0,153
219,465	219,488	-0,172	-0,190
220,480	41,197	-0,242	-0,151
221,494	-126,572	-0,183	-0,019
222,509	43,773	-0,200	-0,126
223,523	-33,626	-0,141	-0,054
224,538	-83,502	-0,274	-0,060
225,553	-164,488	-0,427	-0,013
226,567	112,071	-0,204	-0,170
227,582	-1,077	-0,234	-0,114
228,596	81,639	-0,180	-0,135
229,611	-200,000	0,005	-0,076
230,626	181,936	-0,160	-0,163
231,640	54,358	-0,137	-0,091
232,655	800,000	-0,150	-0,299
233,669	55,418	-0,260	-0,174
234,684	406,735	-0,161	-0,235
235,699	564,595	-0,079	-0,133
236,713	800,000	-0,051	0,112
237,728	-46,116	-0,172	-0,058
238,742	-51,800	-0,152	-0,049
239,757	-9,260	-0,157	-0,072
240,772	-200,000	-0,067	-0,268
241,786	800,000	-0,147	-0,288
242,801	182,104	-0,159	-0,162
243,815	-92,138	-0,261	-0,050
244,830	19,088	-0,194	-0,107
245,844	113,161	-0,078	-0,065
246,859	400,356	-0,134	-0,194
247,874	179,505	-0,164	-0,166
248,888	213,919	-0,171	-0,187
249,903	-53,607	-0,159	-0,050
250,917	370,148	-0,097	-0,136
251,932	800,000	0,024	-0,052
252,947	254,703	-0,141	-0,166
253,961	800,000	-0,115	-0,246
254,976	73,147	-0,292	-0,211
255,990	113,338	-0,206	-0,173
257,005	-99,164	-0,219	-0,038
258,020	-200,000	-0,057	-0,243
259,034	-36,287	-0,083	-0,031
260,049	-100,490	-0,171	-0,029
261,063	-43,587	-0,239	-0,083
262,078	101,496	-0,196	-0,157
263,093	-10,782	-0,167	-0,076
264,107	413,525	-0,130	-0,192
265,122	16,893	-0,133	-0,072
266,136	724,304	-0,098	-0,180
267,151	11,060	-0,130	-0,068
268,166	-200,000	-0,036	-0,172
269,180	-28,642	-0,133	-0,053
270,195	-26,508	-0,163	-0,066
271,209	800,000	-0,146	-0,297
272,224	18,890	-0,184	-0,101
273,239	66,816	-0,200	-0,140
274,253	238,025	-0,209	-0,239
275,268	68,799	-0,094	-0,067
276,282	800,000	-0,144	-0,292
277,297	800,000	-0,200	-0,384
278,312	85,390	-0,272	-0,205
279,326	39,547	-0,091	-0,056
280,341	-89,542	-0,117	-0,024
281,355	164,669	-0,143	-0,139
282,370	23,000	-0,130	-0,073
283,384	47,523	-0,054	-0,035
284,399	51,969	-0,111	-0,072
285,414	-13,572	-0,160	-0,071
286,428	150,705	-0,212	-0,198
287,443	-143,539	-0,216	-0,014
288,457	217,295	-0,065	-0,071
289,472	73,114	-0,174	-0,125
290,487	310,806	-0,188	-0,243
291,501	50,559	-0,214	-0,139
292,516	62,958	-0,183	-0,126
293,530	-61,840	-0,159	-0,045
294,545	-200,000	-0,027	-0,122
295,560	-133,452	-0,188	0,016
296,574	178,538	-0,145	-0,145
297,589	82,198	-0,255	-0,190
298,603	75,540	-0,218	-0,158
299,618	-84,069	-0,226	-0,049
300,633	144,345	-0,153	-0,141
301,647	-34,665	-0,213	-0,080
302,662	235,927	-0,147	-0,167
303,676	66,363	-0,224	-0,156
304,691	32,582	-0,186	-0,110
305,706	-1,182	-0,107	-0,052
306,720	-77,375	-0,158	0,037
307,735	26,796	-0,128	-0,073
308,749	793,295	-0,106	-0,201
309,764	-1,986	-0,199	-0,096
310,779	-74,281	-0,148	-0,036
311,793	46,225	-0,231	-0,147
312,808	-200,000	-0,023	-0,081
313,822	-200,000	-0,007	-0,161
314,837	2,579	-0,174	-0,086
315,852	-132,694	-0,231	0,020
316,866	31,430	-0,144	-0,085
317,881	-22,228	-0,080	0,033
318,895	-200,000	-0,045	-0,232
319,910	142,911	-0,194	-0,177
320,925	-200,000	-0,033	-0,220
321,939	-200,000	-0,048	-0,156
322,954	-200,000	0,002	-0,217
323,968	174,333	0,028	-0,028
324,983	272,078	0,055	-0,067
325,997	216,609	-0,126	-0,138
327,012	34,995	-0,126	-0,075
328,027	56,175	-0,171	-0,114
329,041	800,000	-0,047	-0,093
330,056	233,376	-0,108	-0,122
331,070	-0,261	-0,201	-0,098
332,085	-200,000	-0,044	-0,169
333,100	-38,859	-0,262	-0,094
334,114	-112,881	-0,181	-0,024
335,129	228,449	-0,152	-0,170
336,143	-123,875	-0,223	0,024
337,158	72,360	-0,080	-0,057
338,173	75,097	-0,130	-0,094
339,187	-200,000	0,014	0,084
340,202	-200,000	-0,024	-0,086
341,216	156,209	-0,142	-0,134
342,231	252,161	-0,129	-0,150
343,246	-27,564	-0,098	-0,039
344,260	800,000	-0,061	-0,176
345,275	395,575	-0,076	-0,109
346,289	97,807	-0,129	0,101
347,304	-150,799	-0,108	-0,006
348,319	-87,969	-0,132	-0,027
349,333	319,075	-0,118	-0,154
350,348	-200,000	0,006	-0,157
351,362	-200,000	-0,041	-0,181
352,377	406,185	-0,019	0,027
353,392	257,931	-0,116	-0,137
354,406	446,461	-0,107	-0,162
355,421	207,575	1307,069	1396,536
356,435	159,690	1466,819	1397,009
