DTS Sentinel unit serial number:	SN410029Multiplexer serial number:	ORYXHardware model number:	OX2-SRSoftware version number:	ORYX F/W v4,00 Oryx Data Collector v3.7.2.0data status	okinstallation	B3 Nyhavnadifferential loss correction	single-endedforward channel	channel 1reverse channel	N/Adate	2023/11/30time	06:57:30forward acquisition time	300,00reverse acquisition time	0,00gamma	499,1914k internal	0,3210k external	0,3210temperature offset calibration	1,0000default loss term (dB/km)	0,3820temperature slope calibration	1,0000multiplexer offset coefficient	1,0000multiplexer slope coefficient	1,0000fibre end	0,00T internal ref (°C)	10,14T ext. ref 1 (°C)	-5,66T ext. ref 2 (°C)	-5,78length (m)	temperature (°C)	Stokes	anti-Stokes-744,400	466,079	-0,215	-0,351
-743,385	-200,000	-0,040	0,243
-742,371	81,185	-0,215	-0,169
-741,356	-200,000	0,041	0,303
-740,342	143,361	-0,181	-0,175
-739,327	-200,000	-0,091	0,300
-738,312	69,347	-0,101	-0,075
-737,298	800,000	-0,112	0,255
-736,283	-200,000	0,049	-0,307
-735,269	-200,000	-0,018	0,249
-734,254	108,685	-0,178	-0,154
-733,239	175,736	-0,185	0,195
-732,225	-200,000	-0,060	-0,291
-731,210	147,408	0,180	0,175
-730,196	-64,294	-0,123	-0,036
-729,181	324,822	0,126	-0,175
-728,167	-200,000	0,025	-0,217
-727,152	-149,187	0,042	0,002
-726,137	-200,000	0,007	-0,130
-725,123	-37,237	0,053	0,020
-724,108	716,661	-0,077	-0,148
-723,094	-200,000	-0,024	-0,080
-722,079	391,774	0,034	0,051
-721,064	236,525	-0,032	0,039
-720,050	35,957	-0,056	0,036
-719,035	-200,000	-0,009	-0,186
-718,021	262,642	-0,075	-0,095
-717,006	227,799	-0,042	-0,049
-715,991	136,069	-0,086	-0,081
-714,977	-200,000	-0,000	-0,125
-713,962	286,830	-0,026	-0,034
-712,948	-66,699	-0,133	-0,038
-711,933	663,669	-0,097	-0,182
-710,918	172,430	-0,191	0,199
-709,904	22,095	0,115	0,068
-708,889	114,309	-0,068	-0,060
-707,875	-200,000	-0,002	-0,024
-706,860	-200,000	-0,051	-0,185
-705,845	-37,135	-0,065	0,025
-704,831	-98,576	-0,108	0,020
-703,816	370,369	-0,080	0,117
-702,802	-200,000	-0,007	0,052
-701,787	-157,044	-0,004	-0,000
-700,772	-11,844	-0,077	-0,037
-699,758	-41,863	0,081	-0,030
-698,743	-200,000	0,001	0,041
-697,729	-200,000	-0,008	-0,067
-696,714	800,000	-0,036	-0,075
-695,699	-170,536	-0,033	0,001
-694,685	-200,000	0,017	0,139
-693,670	-200,000	-0,021	0,093
-692,656	7,909	0,072	-0,039
-691,641	7,926	-0,012	0,007
-690,627	800,000	-0,043	0,088
-689,612	-96,863	-0,052	-0,010
-688,597	797,613	0,017	-0,035
-687,583	-128,385	-0,081	0,008
-686,568	-133,694	-0,104	-0,009
-685,554	-200,000	-0,005	0,084
-684,539	-88,902	0,063	-0,013
-683,524	-21,799	-0,055	-0,024
-682,510	23,878	0,152	0,090
-681,495	800,000	-0,038	-0,105
-680,481	800,000	-0,088	-0,183
-679,466	84,266	-0,102	-0,080
-678,451	800,000	0,052	-0,115
-677,437	225,373	-0,038	0,045
-676,422	-200,000	0,018	0,093
-675,408	-25,279	-0,078	-0,033
-674,393	-86,764	0,138	0,030
-673,378	140,413	-0,126	-0,120
-672,364	-192,647	-0,230	-0,001
-671,349	13,540	0,078	-0,044
-670,335	-88,514	-0,180	0,038
-669,320	7,038	-0,074	-0,040
-668,305	40,635	0,091	-0,059
-667,291	100,991	-0,101	-0,085
-666,276	-200,000	0,041	-0,158
-665,262	-200,000	-0,026	-0,089
-664,247	800,000	0,029	-0,076
-663,232	-200,000	0,025	-0,088
-662,218	-200,000	-0,021	0,129
-661,203	-200,000	-0,032	0,146
-660,189	-200,000	0,026	-0,121
-659,174	-49,361	-0,063	-0,021
-658,159	-79,757	0,098	-0,024
-657,145	-200,000	0,002	-0,012
-656,130	-200,000	0,006	-0,026
-655,116	-200,000	0,015	-0,049
-654,101	36,920	-0,022	0,014
-653,086	36,440	-0,121	0,077
-652,072	-200,000	-0,001	-0,156
-651,057	-10,507	-0,149	-0,071
-650,043	379,918	-0,027	-0,041
-649,028	-38,080	0,026	-0,010
-648,014	-200,000	-0,002	0,036
-646,999	-60,766	0,082	0,025
-645,984	-184,255	0,082	-0,001
-644,970	150,159	-0,047	0,046
-643,955	-200,000	-0,014	-0,066
-642,941	423,114	-0,059	-0,092
-641,926	269,810	-0,016	0,020
-640,911	-41,333	0,110	-0,041
-639,897	-114,916	0,123	0,017
-638,882	2,963	-0,076	-0,040
-637,868	-200,000	-0,005	0,075
-636,853	-23,664	-0,195	0,084
-635,838	-200,000	0,043	-0,143
-634,824	-200,000	0,026	-0,202
-633,809	-200,000	-0,006	-0,031
-632,795	459,309	0,044	-0,071
-631,780	-200,000	-0,015	-0,134
-630,765	30,714	-0,104	-0,064
-629,751	12,099	-0,023	0,013
-628,736	-90,687	-0,073	-0,015
-627,722	74,010	-0,051	0,039
-626,707	327,409	0,040	0,056
-625,692	328,569	0,034	-0,048
-624,678	-52,108	-0,050	-0,017
-623,663	-200,000	-0,007	-0,057
-622,649	-119,261	-0,076	-0,009
-621,634	551,680	-0,090	-0,157
-620,619	800,000	0,030	-0,065
-619,605	-141,598	0,039	-0,003
-618,590	-158,398	-0,083	0,003
-617,576	126,302	-0,060	-0,055
-616,561	800,000	-0,035	-0,106
-615,546	-200,000	-0,014	-0,094
-614,532	-200,000	-0,015	0,067
-613,517	800,000	-0,007	-0,017
-612,503	225,611	-0,094	-0,110
-611,488	295,573	0,043	-0,057
-610,474	-103,710	-0,108	-0,018
-609,459	25,889	-0,027	0,016
-608,444	51,600	-0,127	-0,087
-607,430	83,064	-0,126	0,099
-606,415	116,853	0,084	-0,074
-605,401	11,358	0,027	0,015
-604,386	800,000	-0,022	0,049
-603,371	388,757	0,075	0,112
-602,357	348,359	0,018	0,026
-601,342	19,265	0,108	0,062
-600,328	37,917	-0,039	0,025
-599,313	-55,940	0,050	-0,016
-598,298	-96,021	0,117	-0,022
-597,284	12,267	-0,050	0,027
-596,269	99,965	-0,069	0,058
-595,255	-60,000	-0,048	-0,015
-594,240	-152,454	-0,027	-0,001
-593,225	-62,971	-0,082	0,024
-592,211	15,935	-0,092	-0,052
-591,196	717,182	0,079	-0,151
-590,182	-70,629	0,043	0,012
-589,167	361,535	0,035	-0,050
-588,152	36,809	0,061	0,039
-587,138	-12,186	-0,069	-0,032
-586,123	55,359	-0,141	-0,098
-585,109	75,441	-0,090	-0,068
-584,094	28,796	0,113	0,069
-583,079	800,000	-0,044	0,097
-582,065	-77,740	-0,028	-0,007
-581,050	-200,000	0,025	0,109
-580,036	-24,523	0,120	0,051
-579,021	224,311	-0,063	-0,073
-578,006	-54,472	-0,099	0,032
-576,992	800,000	-0,021	0,048
-575,977	-66,467	0,145	0,041
-574,963	623,872	0,048	0,087
-573,948	9,398	-0,055	0,030
-572,934	362,677	-0,052	0,076
-571,919	-60,565	-0,126	0,038
-570,904	-71,338	-0,230	0,062
-569,890	800,000	-0,023	-0,056
-568,875	-200,000	-0,012	0,105
-567,861	-145,320	0,078	-0,005
-566,846	-200,000	-0,002	0,089
-565,831	36,276	-0,074	0,047
-564,817	-53,113	0,079	-0,026
-563,802	53,366	-0,124	-0,085
-562,788	454,240	-0,093	-0,148
-561,773	-200,000	-0,016	-0,064
-560,758	-133,155	0,028	0,003
-559,744	-67,156	0,089	-0,025
-558,729	-200,000	-0,035	-0,113
-557,715	-121,331	0,062	0,007
-556,700	-90,448	-0,098	0,020
-555,685	-119,700	0,078	0,010
-554,671	-19,987	0,045	0,020
-553,656	-200,000	0,004	-0,100
-552,642	-146,771	0,063	-0,004
-551,627	791,422	-0,020	-0,039
-550,612	108,593	0,094	-0,081
-549,598	-200,000	-0,046	-0,166
-548,583	-200,000	0,007	-0,028
-547,569	-84,798	-0,076	-0,017
-546,554	369,859	0,019	0,028
-545,539	-200,000	0,010	0,141
-544,525	-200,000	0,004	0,079
-543,510	-200,000	-0,008	0,059
-542,496	-26,730	0,154	-0,065
-541,481	-110,817	-0,146	0,021
-540,466	584,875	0,073	0,129
-539,452	122,509	0,147	-0,132
-538,437	800,000	-0,063	0,165
-537,423	290,167	0,053	-0,070
-536,408	-200,000	0,022	-0,093
-535,393	-34,292	0,055	0,021
-534,379	87,425	0,082	-0,065
-533,364	-134,523	0,048	-0,004
-532,350	14,770	-0,074	0,041
-531,335	33,250	-0,064	-0,040
-530,321	432,653	-0,055	-0,086
-529,306	486,351	-0,051	-0,083
-528,291	111,624	-0,061	-0,053
-527,277	-200,000	0,029	0,116
-526,262	-200,000	-0,004	-0,036
-525,248	186,351	0,078	-0,083
-524,233	-80,170	0,030	0,007
-523,218	515,665	0,062	0,105
-522,204	193,941	0,114	0,124
-521,189	800,000	-0,036	-0,111
-520,175	800,000	0,009	-0,023
-519,160	-200,000	-0,013	0,057
-518,145	23,560	0,151	0,089
-517,131	-9,425	0,018	-0,008
-516,116	-88,673	-0,045	0,010
-515,102	800,000	0,012	-0,026
-514,087	-70,261	0,099	-0,027
-513,072	-56,753	-0,042	0,013
-512,058	405,462	-0,051	-0,078
-511,043	-67,268	0,095	0,027
-510,029	13,803	-0,173	0,097
-509,014	80,081	0,049	0,038
-507,999	411,189	-0,046	0,071
-506,985	9,039	-0,136	0,074
-505,970	-200,000	-0,006	-0,195
-504,956	-159,470	0,098	0,004
-503,941	-30,555	-0,115	0,047
-502,926	-90,101	-0,028	0,006
-501,912	92,866	0,088	-0,071
-500,897	-53,788	0,114	0,037
-499,883	24,911	-0,063	0,038
-498,868	36,954	-0,127	-0,081
-497,853	-200,000	0,007	0,117
-496,839	198,505	0,018	-0,019
-495,824	-42,170	0,129	-0,047
-494,810	-53,672	0,074	0,024
-493,795	130,359	-0,054	0,050
-492,781	-191,574	-0,162	0,001
-491,766	800,000	-0,026	0,064
-490,751	535,086	0,006	-0,011
-489,737	-200,000	-0,027	-0,116
-488,722	800,000	-0,041	0,093
-487,708	107,163	-0,052	-0,044
-486,693	-200,000	-0,004	0,029
-485,678	-183,060	-0,089	0,001
-484,664	120,113	-0,059	-0,052
-483,649	105,970	0,076	-0,065
-482,635	-200,000	0,002	-0,117
-481,620	800,000	-0,049	-0,115
-480,605	263,847	0,107	0,134
-479,591	392,070	-0,020	-0,030
-478,576	-35,959	0,036	0,014
-477,562	37,162	-0,108	-0,069
-476,547	-23,828	0,096	-0,041
-475,532	54,543	0,025	0,017
-474,518	-107,294	0,038	0,006
-473,503	-67,230	-0,010	-0,003
-472,489	-200,000	0,014	0,049
-471,474	629,656	0,061	-0,111
-470,459	86,008	0,106	-0,084
-469,445	-146,987	-0,095	0,006
-468,430	800,000	0,052	-0,125
-467,416	-60,667	-0,033	0,010
-466,401	-200,000	0,011	0,056
-465,386	-200,000	0,033	0,228
-464,372	19,789	0,117	0,067
-463,357	-82,494	0,057	0,013
-462,343	16,142	-0,076	0,043
-461,328	326,508	-0,099	0,136
-460,313	72,208	0,048	0,036
-459,299	37,586	0,150	-0,095
-458,284	-72,579	0,006	-0,002
-457,270	-200,000	-0,008	0,056
-456,255	800,000	-0,039	0,081
-455,241	-200,000	-0,013	-0,067
-454,226	800,000	-0,014	0,035
-453,211	-7,273	-0,012	0,006
-452,197	0,541	0,068	-0,035
-451,182	-104,867	0,040	-0,007
-450,168	194,971	-0,062	0,068
-449,153	615,995	0,015	-0,026
-448,138	-200,000	0,006	0,019
-447,124	22,513	-0,052	0,030
-446,109	-200,000	-0,036	-0,132
-445,095	351,545	-0,012	-0,017
-444,080	-200,000	-0,016	0,155
-443,065	163,293	-0,016	0,016
-442,051	800,000	0,044	-0,108
-441,036	-200,000	-0,027	-0,107
-440,022	-60,943	0,025	-0,008
-439,007	29,861	-0,101	-0,061
-437,992	-2,932	0,102	0,051
-436,978	89,492	0,054	0,043
-435,963	-200,000	-0,000	0,051
-434,949	121,098	-0,038	-0,034
-433,934	443,670	-0,096	0,152
-432,919	-40,206	-0,119	0,044
-431,905	-200,000	-0,035	-0,132
-430,890	-64,463	0,049	0,014
-429,876	800,000	-0,027	0,073
-428,861	-15,597	0,033	-0,015
-427,846	800,000	-0,083	0,200
-426,832	172,113	0,052	-0,053
-425,817	-120,499	0,051	-0,006
-424,803	502,963	-0,044	-0,073
-423,788	-103,032	0,060	-0,010
-422,773	-163,349	0,054	-0,002
-421,759	176,512	0,109	0,113
-420,744	800,000	0,032	0,087
-419,730	-174,772	0,095	0,002
-418,715	-200,000	-0,024	-0,079
-417,701	-200,000	-0,010	-0,050
-416,686	-200,000	-0,002	0,139
-415,671	-200,000	0,003	-0,063
-414,657	-181,225	-0,111	0,002
-413,642	-141,129	0,085	-0,006
-412,628	-200,000	-0,020	-0,198
-411,613	20,820	0,053	0,031
-410,598	800,000	-0,043	0,123
-409,584	32,008	0,088	0,054
-408,569	707,691	-0,036	0,069
-407,555	-114,753	0,107	0,014
-406,540	-35,045	-0,091	-0,035
-405,525	-200,000	0,022	-0,180
-404,511	473,192	-0,077	-0,125
-403,496	550,225	0,060	-0,104
-402,482	-82,151	0,060	-0,014
-401,467	-18,980	-0,078	-0,035
-400,452	-200,000	0,011	0,097
-399,438	-200,000	0,027	-0,097
-398,423	25,119	0,134	0,079
-397,409	16,153	-0,081	-0,046
-396,394	-32,820	0,062	0,025
-395,379	-200,000	0,014	0,059
-394,365	-113,866	-0,089	0,012
-393,350	665,618	0,028	0,051
-392,336	121,148	-0,066	0,059
-391,321	239,220	0,029	-0,035
-390,306	46,736	-0,081	-0,053
-389,292	-200,000	0,036	-0,151
-388,277	105,739	0,107	-0,091
-387,263	-200,000	0,002	-0,006
-386,248	254,371	0,056	0,069
-385,233	4,811	-0,160	0,084
-384,219	-25,994	-0,014	0,006
-383,204	49,841	0,078	0,053
-382,190	-200,000	-0,012	0,090
-381,175	147,315	0,096	-0,092
-380,160	800,000	0,021	0,056
-379,146	800,000	0,054	-0,159
-378,131	-200,000	0,017	-0,066
-377,117	114,358	0,037	0,032
-376,102	-200,000	-0,003	-0,149
-375,088	491,291	-0,017	-0,028
-374,073	-88,402	0,035	-0,007
-373,058	469,371	-0,037	-0,059
-372,044	-19,876	0,049	0,022
-371,029	-200,000	0,018	-0,091
-370,015	153,749	-0,069	0,068
-369,000	-164,746	-0,139	0,004
-367,985	50,081	-0,018	-0,012
-366,971	-5,459	-0,125	0,061
-365,956	62,960	0,033	-0,023
-364,942	-54,424	0,034	0,011
-363,927	123,656	0,112	0,100
-362,912	101,360	-0,104	0,087
-361,898	-42,994	-0,032	-0,012
-360,883	267,848	0,015	-0,018
-359,869	404,029	0,026	-0,040
-358,854	-86,955	0,120	-0,026
-357,839	-200,000	0,016	0,071
-356,825	-10,494	0,040	0,019
-355,810	17,909	-0,022	0,012
-354,796	767,548	-0,048	-0,093
-353,781	2,412	-0,020	-0,010
-352,766	-93,836	-0,145	0,028
-351,752	-110,506	0,048	0,007
-350,737	142,655	0,087	0,082
-349,723	-200,000	0,006	0,025
-348,708	800,000	-0,015	0,036
-347,693	-200,000	0,008	-0,061
-346,679	59,973	-0,020	0,014
-345,664	-200,000	0,005	-0,041
-344,650	-45,472	0,188	0,066
-343,635	2,196	-0,145	-0,075
-342,620	800,000	-0,013	0,029
-341,606	127,681	0,068	-0,062
-340,591	499,809	-0,029	-0,048
-339,577	-71,791	-0,043	0,011
-338,562	319,950	-0,055	-0,075
-337,548	-200,000	0,021	-0,092
-336,533	410,905	0,108	0,164
-335,518	800,000	0,028	-0,078
-334,504	228,476	0,120	0,140
-333,489	-132,691	0,128	0,012
-332,475	111,208	-0,033	-0,029
-331,460	212,117	-0,106	0,120
-330,445	-154,612	0,068	0,003
-329,431	186,078	0,080	0,085
-328,416	-200,000	-0,010	0,109
-327,402	-200,000	-0,011	-0,099
-326,387	106,934	0,086	-0,073
-325,372	313,747	-0,080	-0,108
-324,358	-200,000	0,026	-0,144
-323,343	77,255	0,105	0,080
-322,329	-121,781	0,052	0,006
-321,314	-52,163	0,131	-0,043
-320,299	124,259	-0,018	0,016
-319,285	136,932	0,060	0,056
-318,270	159,058	-0,004	-0,004
-317,256	-98,632	-0,128	-0,023
-316,241	800,000	0,017	-0,043
-315,226	-200,000	-0,030	-0,116
-314,212	311,311	0,096	0,129
-313,197	800,000	0,021	0,048
-312,183	-200,000	0,024	0,148
-311,168	-200,000	0,038	0,128
-310,153	0,179	-0,056	0,029
-309,139	-111,145	-0,185	-0,027
-308,124	163,171	-0,109	-0,109
-307,110	408,431	-0,046	0,070
-306,095	11,741	0,062	0,034
-305,080	68,176	0,103	0,075
-304,066	-188,643	-0,094	0,001
-303,051	-200,000	-0,005	-0,050
-302,037	415,916	0,065	-0,100
-301,022	800,000	-0,040	0,085
-300,008	-35,879	0,041	0,016
-298,993	-200,000	-0,036	0,171
-297,978	328,554	-0,056	-0,077
-296,964	-126,631	0,068	-0,007
-295,949	800,000	-0,045	0,138
-294,935	-2,070	0,074	-0,037
-293,920	-200,000	-0,017	-0,065
-292,905	-200,000	0,006	0,027
-291,891	736,295	-0,016	0,031
-290,876	-200,000	0,008	0,070
-289,862	36,520	-0,080	-0,050
-288,847	-200,000	0,025	-0,115
-287,832	220,113	-0,037	-0,042
-286,818	207,215	-0,139	0,155
-285,803	-200,000	-0,005	0,127
-284,789	-49,531	0,083	-0,028
-283,774	-35,749	-0,149	0,057
-282,759	-172,122	-0,159	0,004
-281,745	255,862	-0,066	-0,081
-280,730	-27,725	0,078	0,032
-279,716	-87,942	-0,183	0,039
-278,701	-122,736	0,101	0,011
-277,686	17,288	-0,042	0,023
-276,672	800,000	-0,055	0,145
-275,657	-200,000	0,149	-0,000
-274,643	-200,000	-0,009	-0,110
-273,628	-200,000	-0,012	-0,069
-272,613	388,865	0,017	-0,025
-271,599	125,298	0,034	0,030
-270,584	40,265	0,074	0,047
-269,570	-200,000	0,010	0,200
-268,555	800,000	0,010	-0,024
-267,540	800,000	-0,017	0,037
-266,526	-200,000	0,008	-0,031
-265,511	184,552	-0,038	0,040
-264,497	242,174	-0,027	-0,032
-263,482	159,289	0,090	0,089
-262,467	-200,000	0,011	0,079
-261,453	-2,728	-0,122	0,060
-260,438	42,365	0,070	-0,045
-259,424	-200,000	-0,004	-0,035
-258,409	16,873	0,064	-0,036
-257,395	-200,000	0,015	0,072
-256,380	521,578	0,031	0,053
-255,365	-2,785	-0,023	0,011
-254,351	-65,088	0,103	-0,029
-253,336	165,848	0,018	0,019
-252,322	-200,000	-0,033	0,000
-251,307	-200,000	0,014	-0,049
-250,292	-3,521	-0,068	0,033
-249,278	-79,518	0,132	0,031
-248,263	-34,285	0,094	-0,037
-247,249	-38,091	-0,109	-0,041
-246,234	800,000	-0,069	-0,156
-245,219	-200,000	-0,010	0,059
-244,205	800,000	-0,024	-0,075
-243,190	44,093	-0,175	0,114
-242,176	-72,269	-0,066	-0,017
-241,161	386,568	0,062	0,091
-240,146	208,465	-0,048	0,053
-239,132	-167,173	-0,036	0,001
-238,117	97,486	-0,015	0,012
-237,103	-10,870	-0,076	-0,035
-236,088	7,110	-0,014	0,007
-235,073	-200,000	0,011	-0,046
-234,059	-114,614	0,220	-0,030
-233,044	800,000	-0,005	0,014
-232,030	-200,000	0,037	-0,143
-231,015	258,520	-0,180	-0,221
-230,000	-200,000	0,018	0,082
-228,986	-11,174	-0,125	0,058
-227,971	30,386	-0,029	-0,018
-226,957	800,000	-0,016	0,045
-225,942	29,002	-0,112	-0,067
-224,927	800,000	0,053	-0,125
-223,913	70,410	-0,096	-0,071
-222,898	92,733	-0,100	-0,081
-221,884	-121,977	0,133	-0,015
-220,869	-200,000	-0,010	0,037
-219,855	800,000	0,057	0,120
-218,840	74,579	0,067	-0,050
-217,825	800,000	-0,048	-0,108
-216,811	472,479	-0,077	-0,123
-215,796	-200,000	-0,003	0,016
-214,782	-200,000	0,024	-0,086
-213,767	52,001	0,139	-0,094
-212,752	614,055	-0,037	0,066
-211,738	166,108	0,117	0,118
-210,723	74,674	0,045	0,034
-209,709	8,483	-0,082	-0,043
-208,694	68,485	-0,084	0,061
-207,679	533,172	0,011	0,018
-206,665	800,000	0,037	0,090
-205,650	157,854	-0,083	0,082
-204,636	-200,000	0,004	0,183
-203,621	-200,000	0,004	-0,136
-202,606	537,347	0,014	0,024
-201,592	708,225	-0,032	-0,060
-200,577	-145,348	-0,004	-0,000
-199,563	46,840	0,116	-0,076
-198,548	800,000	0,083	-0,192
-197,533	-62,831	0,085	-0,025
-196,519	13,600	0,203	0,112
-195,504	-83,565	-0,093	-0,021
-194,490	215,597	-0,123	0,139
-193,475	168,560	-0,069	-0,070
-192,460	-149,200	0,115	0,006
-191,446	-200,000	0,024	0,196
-190,431	575,773	0,120	0,209
-189,417	-153,846	-0,040	-0,002
-188,402	-200,000	-0,011	0,065
-187,387	-80,065	0,024	0,006
-186,373	211,144	-0,091	-0,101
-185,358	-55,575	0,119	-0,038
-184,344	-148,047	0,148	-0,009
-183,329	-11,063	0,052	-0,024
-182,315	-92,743	0,061	0,012
-181,300	800,000	-0,042	0,092
-180,285	-200,000	-0,011	-0,038
-179,271	46,068	-0,044	0,029
-178,256	-173,808	0,060	-0,001
-177,242	19,796	0,054	-0,031
-176,227	800,000	0,020	0,063
-175,212	-25,400	-0,048	-0,020
-174,198	-200,000	-0,022	-0,112
-173,183	11,397	-0,123	0,067
-172,169	-133,224	-0,091	0,008
-171,154	-200,000	-0,016	0,090
-170,139	-137,051	0,048	-0,004
-169,125	-121,329	0,044	-0,005
-168,110	190,220	-0,055	0,059
-167,096	800,000	-0,025	0,063
-166,081	800,000	0,042	-0,119
-165,066	-96,204	-0,127	-0,024
-164,052	-192,713	-0,009	0,000
-163,037	-64,892	0,081	0,023
-162,023	-113,664	0,099	-0,014
-161,008	226,025	0,157	0,181
-159,993	-111,528	0,102	-0,015
-158,979	302,056	0,042	0,055
-157,964	325,204	-0,027	-0,037
-156,950	-9,866	-0,060	-0,028
-155,935	273,271	-0,058	-0,073
-154,920	436,610	-0,102	0,159
-153,906	64,067	-0,024	-0,017
-152,891	-73,974	0,112	0,029
-151,877	123,600	0,051	-0,046
-150,862	57,676	-0,090	-0,063
-149,847	118,506	-0,052	-0,045
-148,833	127,968	-0,045	-0,041
-147,818	-2,609	0,125	0,062
-146,804	350,355	0,049	0,069
-145,789	130,607	-0,062	0,056
-144,775	-200,000	-0,014	0,077
-143,760	-66,168	-0,170	-0,048
-142,745	106,029	-0,074	-0,062
-141,731	31,004	-0,139	-0,084
-140,716	772,542	0,027	0,052
-139,702	169,734	0,085	-0,086
-138,687	800,000	-0,045	0,141
-137,672	222,136	-0,060	-0,069
-136,658	-200,000	0,026	-0,213
-135,643	193,986	0,095	-0,102
-134,629	-76,248	0,052	0,013
-133,614	-200,000	-0,000	-0,006
-132,599	74,100	0,145	-0,108
-131,585	133,974	-0,015	0,014
-130,570	-200,000	0,008	-0,071
-129,556	-200,000	-0,020	0,105
-128,541	-63,251	0,100	-0,029
-127,526	-138,050	-0,076	-0,006
-126,512	18,529	0,020	0,011
-125,497	800,000	-0,048	-0,136
-124,483	-200,000	-0,008	0,051
-123,468	530,029	-0,031	0,053
-122,453	-47,241	-0,088	-0,030
-121,439	-107,527	0,139	0,021
-120,424	-95,629	0,046	-0,009
-119,410	192,429	0,033	0,035
-118,395	-108,183	0,068	0,010
-117,380	-159,688	0,072	0,003
-116,366	-7,932	-0,139	0,066
-115,351	47,414	0,151	-0,100
-114,337	-200,000	-0,030	-0,105
-113,322	-200,000	-0,018	0,085
-112,307	25,639	0,011	0,006
-111,293	151,880	-0,038	0,037
-110,278	-200,000	-0,000	0,033
-109,264	-9,512	0,115	-0,054
-108,249	428,303	-0,084	0,129
-107,234	472,865	0,011	0,018
-106,220	688,384	0,037	0,068
-105,205	800,000	0,036	0,101
-104,191	-33,251	-0,112	-0,044
-103,176	497,321	0,053	0,087
-102,162	258,285	-0,042	-0,051
-101,147	42,693	0,020	0,013
-100,132	205,627	-0,104	-0,114
-99,118	405,191	0,073	-0,109
-98,103	-113,098	0,110	0,015
-97,089	353,864	0,078	0,110
-96,074	21,183	0,081	0,046
-95,059	-62,033	-0,050	-0,015
-94,045	6,078	-0,079	-0,041
-93,030	219,742	-0,107	-0,121
-92,016	62,888	0,081	0,057
-91,001	-3,675	0,188	-0,092
-89,986	264,507	0,075	0,093
-88,972	-46,644	-0,031	0,011
-87,957	-200,000	-0,019	-0,065
-86,943	-6,056	-0,084	-0,040
-85,928	746,817	-0,024	-0,045
-84,913	26,333	0,115	-0,068
-83,899	-200,000	-0,003	0,089
-82,884	-72,270	-0,068	0,018
-81,870	800,000	0,018	0,039
-80,855	12,371	0,016	0,009
-79,840	-117,285	0,033	0,004
-78,826	800,000	0,016	0,032
-77,811	135,552	0,047	-0,044
-76,797	800,000	0,046	-0,115
-75,782	-200,000	0,010	0,199
-74,767	-14,885	0,182	0,082
-73,753	-200,000	-0,012	0,084
-72,738	800,000	-0,021	-0,050
-71,724	130,453	0,061	-0,055
-70,709	4,963	-0,158	-0,082
-69,694	-156,232	0,144	0,006
-68,680	-114,165	-0,160	-0,022
-67,665	305,370	0,041	-0,053
-66,651	800,000	0,045	0,125
-65,636	800,000	-0,056	-0,123
-64,622	145,361	-0,087	0,082
-63,607	111,347	0,126	-0,108
-62,592	800,000	-0,069	-0,154
-61,578	106,298	0,078	0,065
-60,563	-191,190	-0,176	-0,001
-59,549	-200,000	-0,058	0,237
-58,534	57,390	-1,937	-1,334
-57,519	432,326	-1,319	-2,026
-56,505	-200,000	-0,408	-4,397
-55,490	427,900	0,991	1,515
-54,476	800,000	5,024	11,142
-53,461	-200,000	21,349	340,606
-52,446	800,000	759,960	2360,096
-51,432	559,556	1662,441	2844,946
-50,417	73,556	1661,579	1227,101
-49,403	18,009	1535,061	861,336
-48,388	11,979	1458,228	789,058
-47,373	19,368	1449,568	819,805
-46,359	15,450	1438,456	794,858
-45,344	10,220	1434,668	767,827
-44,330	10,166	1432,693	766,481
-43,315	10,173	1430,719	765,430
-42,300	10,180	1429,257	764,652
-41,286	10,211	1427,911	764,047
-40,271	10,208	1426,451	763,221
-39,257	10,184	1425,454	762,544
-38,242	10,172	1424,356	761,871
-37,227	10,193	1423,319	761,385
-36,213	10,201	1421,963	760,664
-35,198	10,209	1420,825	760,065
-34,184	10,249	1419,824	759,690
-33,169	10,165	1418,628	758,621
-32,154	10,208	1417,595	758,241
-31,140	10,255	1416,124	757,645
-30,125	10,264	1414,934	757,020
-29,111	10,253	1414,023	756,454
-28,096	10,182	1412,848	755,460
-27,082	10,188	1411,564	754,774
-26,067	10,136	1410,725	754,048
-25,052	10,243	1409,387	753,805
-24,038	10,246	1408,394	753,258
-23,023	10,168	1407,657	752,470
-22,009	10,112	1406,620	751,624
-20,994	10,171	1405,265	751,148
-19,979	10,146	1404,959	750,837
-18,965	10,143	1403,782	750,162
-17,950	10,118	1402,785	749,485
-16,936	10,100	1401,929	748,913
-15,921	10,086	1401,113	748,381
-14,906	10,115	1400,120	747,955
-13,892	10,094	1399,014	747,239
-12,877	10,111	1398,292	746,901
-11,863	10,047	1397,674	746,246
-10,848	10,073	1396,630	745,777
-9,833	10,051	1395,822	745,215
-8,819	10,007	1394,983	744,535
-7,804	9,974	1393,857	743,753
-6,790	10,028	1392,920	743,473
-5,775	10,034	1391,809	742,876
-4,760	10,019	1390,739	742,206
-3,746	10,021	1390,018	741,802
-2,731	9,991	1389,006	741,091
-1,717	10,001	1388,409	740,793
-0,702	9,987	1386,385	739,617
0,313	14,025	1299,181	711,569
1,327	30,326	690,070	414,907
2,342	47,297	119,322	78,266
3,356	0,826	16,595	8,357
4,371	-4,000	3,492	1,702
5,386	33,311	0,878	0,536
6,400	800,000	0,248	0,606
7,415	-34,115	-0,240	-0,093
8,429	-27,360	-0,343	-0,140
9,444	-47,285	-0,273	-0,093
10,459	31,170	-0,366	-0,221
11,473	-66,800	-0,418	-0,116
12,488	6,290	-0,184	-0,096
13,502	399,251	-0,131	-0,194
14,517	-13,967	-0,230	-0,104
15,531	44,041	-0,302	-0,195
16,546	158,748	-0,180	-0,177
17,561	120,579	-0,288	-0,252
18,575	107,684	-0,287	-0,240
19,590	550,587	-0,197	-0,335
20,604	135,708	-0,256	-0,235
21,619	113,167	-0,412	-0,351
22,634	137,318	-0,475	-0,438
23,648	125,796	-0,383	-0,341
24,663	81,999	-0,370	-0,282
25,677	-45,066	-0,403	-0,140
26,692	-29,005	-0,474	-0,191
27,707	50,348	-0,310	-0,206
28,721	24,009	-0,321	-0,186
29,736	197,444	-0,339	-0,365
30,750	77,194	-0,572	-0,427
31,765	121,979	-0,430	-0,377
32,780	39,109	-0,355	-0,223
33,794	160,970	-0,287	-0,282
34,809	213,252	-0,298	-0,332
35,823	136,385	-0,415	-0,381
36,838	39,284	-0,382	-0,240
37,853	110,651	-0,324	-0,274
38,867	265,649	-0,197	-0,242
39,882	-16,449	-0,385	-0,171
40,896	71,551	-0,363	-0,265
41,911	51,392	-0,392	-0,261
42,926	47,721	-0,391	-0,256
43,940	-4,437	-0,398	-0,193
44,955	130,077	-0,275	-0,248
45,969	-27,800	-0,371	-0,150
46,984	61,544	-0,345	-0,241
47,999	77,503	-0,223	-0,166
49,013	94,854	-0,270	-0,215
50,028	46,245	-0,269	-0,175
51,042	180,786	-0,307	-0,317
52,057	200,622	-0,329	-0,356
53,071	40,998	-0,315	-0,200
54,086	113,316	-0,324	-0,276
55,101	441,808	-0,179	-0,275
56,115	13,940	-0,294	-0,160
57,130	8,491	-0,354	-0,187
58,144	97,540	-0,355	-0,286
59,159	63,059	-0,431	-0,302
60,174	134,722	-0,386	-0,351
61,188	81,678	-0,368	-0,279
62,203	11,809	-0,258	-0,138
63,217	-117,386	-0,305	-0,038
64,232	82,270	-0,257	-0,195
65,247	73,122	-0,309	-0,226
66,261	9,838	-0,209	-0,111
67,276	41,526	-0,301	-0,191
68,290	28,940	-0,286	-0,170
69,305	75,751	-0,309	-0,229
70,320	-61,624	-0,325	-0,095
71,334	-29,194	-0,479	-0,192
72,349	-52,805	-0,353	-0,113
73,363	199,780	-0,351	-0,378
74,378	154,043	-0,296	-0,284
75,393	118,597	-0,201	-0,174
76,407	72,445	-0,276	-0,202
77,422	12,892	-0,245	-0,133
78,436	-20,405	-0,269	-0,116
79,451	461,376	-0,172	-0,269
80,466	98,252	-0,320	-0,258
81,480	62,645	-0,311	-0,217
82,495	542,193	-0,167	-0,280
83,509	-36,371	-0,296	-0,111
84,524	-185,942	-0,109	0,001
85,539	12,937	-0,339	-0,183
86,553	110,151	-0,272	-0,229
87,568	73,693	-0,305	-0,223
88,582	13,957	-0,266	-0,145
89,597	-3,888	-0,299	-0,145
90,611	45,383	-0,246	-0,159
91,626	29,460	-0,259	-0,154
92,641	85,682	-0,199	-0,153
93,655	124,008	-0,145	-0,128
94,670	4,950	-0,304	-0,156
95,684	196,804	-0,232	-0,248
96,699	-69,497	-0,305	-0,081
97,714	-111,720	-0,228	-0,032
98,728	187,259	-0,294	-0,307
99,743	267,069	-0,218	-0,267
100,757	12,136	-0,330	-0,177
101,772	460,034	-0,184	-0,288
102,787	366,164	-0,221	-0,313
103,801	151,122	-0,259	-0,247
104,816	159,872	-0,242	-0,236
105,830	-144,220	-0,095	-0,006
106,845	234,628	-0,132	-0,152
107,860	-45,058	-0,281	-0,097
108,874	117,915	-0,151	-0,130
109,889	161,824	-0,251	-0,246
110,903	17,099	-0,263	-0,145
111,918	-5,041	-0,275	-0,132
112,933	51,026	-0,136	-0,090
113,947	-44,509	-0,295	-0,103
114,962	-26,673	-0,327	-0,133
115,976	55,428	-0,317	-0,214
116,991	-107,987	-0,344	-0,052
118,006	-66,099	-0,359	-0,099
119,020	303,371	-0,194	-0,251
120,035	-27,013	-0,291	-0,118
121,049	-49,134	-0,317	-0,105
122,064	132,968	-0,262	-0,236
123,079	-21,257	-0,320	-0,136
124,093	53,483	-0,235	-0,157
125,108	56,637	-0,183	-0,124
126,122	220,398	-0,252	-0,282
127,137	49,687	-0,263	-0,172
128,151	192,942	-0,165	-0,174
129,166	58,817	-0,313	-0,215
130,181	-94,201	-0,435	-0,082
131,195	54,383	-0,283	-0,190
132,210	119,763	-0,271	-0,234
133,224	43,693	-0,280	-0,178
134,239	17,445	-0,175	-0,097
135,254	16,310	-0,318	-0,175
136,268	-44,679	-0,290	-0,100
137,283	464,187	-0,159	-0,249
138,297	58,678	-0,247	-0,169
139,312	301,384	-0,218	-0,281
140,327	726,397	-0,150	-0,280
141,341	347,659	-0,120	-0,165
142,356	-200,000	-0,061	-0,243
143,370	186,867	-0,201	-0,209
144,385	-118,000	-0,272	-0,034
145,400	90,362	-0,254	-0,198
146,414	-4,193	-0,421	-0,202
147,429	60,783	-0,211	-0,145
148,443	-200,000	-0,037	-0,166
149,458	-11,544	-0,206	-0,094
150,473	12,550	-0,218	-0,117
151,487	53,634	-0,267	-0,178
152,502	-144,366	-0,245	-0,016
153,516	107,516	-0,210	-0,174
154,531	109,981	-0,340	-0,284
155,546	-77,495	-0,271	-0,065
156,560	16,201	-0,322	-0,177
157,575	102,323	-0,228	-0,186
158,589	9,604	-0,320	-0,168
159,604	111,056	-0,201	-0,168
160,619	11,365	-0,332	-0,177
161,633	208,698	-0,257	-0,280
162,648	-34,268	-0,262	-0,100
163,662	9,154	-0,166	-0,087
164,677	112,423	-0,172	-0,145
165,692	-51,122	-0,257	-0,083
166,706	-67,656	-0,265	-0,072
167,721	69,623	-0,237	-0,170
168,735	800,000	-0,079	-0,160
169,750	479,697	-0,162	-0,256
170,764	557,736	-0,105	-0,176
171,779	-44,412	-0,139	-0,048
172,794	58,106	-0,183	-0,124
173,808	207,008	-0,170	-0,185
174,823	95,809	-0,263	-0,209
175,837	136,619	-0,209	-0,189
176,852	800,000	-0,126	-0,333
177,867	-36,159	-0,186	-0,069
178,881	-78,270	-0,203	-0,048
179,896	65,983	-0,177	-0,124
180,910	137,181	-0,175	-0,159
181,925	149,595	-0,208	-0,195
182,940	101,560	-0,237	-0,191
183,954	246,559	-0,207	-0,242
184,969	32,508	-0,137	-0,082
185,983	153,959	-0,242	-0,231
186,998	108,160	0,003	-0,003
188,013	800,000	-0,110	-0,276
189,027	39,097	-0,269	-0,166
190,042	87,110	-0,134	-0,103
191,056	98,956	-0,208	-0,166
192,071	-64,286	-0,281	-0,079
193,086	9,078	-0,094	-0,049
194,100	-200,000	-0,070	-0,224
195,115	69,293	-0,093	-0,066
196,129	103,910	-0,167	-0,136
197,144	436,615	-0,156	-0,236
198,159	155,543	-0,175	-0,168
199,173	800,000	-0,054	-0,107
200,188	146,825	-0,125	-0,117
201,202	-127,023	-0,212	-0,021
202,217	-60,054	-0,056	-0,017
203,232	166,117	-0,217	-0,213
204,246	-61,767	-0,195	-0,056
205,261	205,115	-0,243	-0,262
206,275	295,305	-0,169	-0,214
207,290	-99,540	-0,052	0,009
208,304	-200,000	-0,067	-0,280
209,319	-25,776	-0,108	0,044
210,334	172,479	-0,187	-0,186
211,348	5,315	-0,186	-0,095
212,363	282,577	-0,113	-0,141
213,377	-200,000	-0,040	-0,177
214,392	-27,877	-0,231	-0,092
215,407	-13,843	-0,078	-0,035
216,421	-96,248	-0,267	-0,048
217,436	133,002	-0,164	-0,147
218,450	170,653	-0,165	-0,164
219,465	-12,361	-0,272	-0,123
220,480	-2,879	-0,168	0,081
221,494	-200,000	0,001	-0,068
222,509	419,856	-0,145	-0,215
223,523	230,732	-0,130	-0,148
224,538	-114,515	-0,110	0,014
225,553	-7,520	-0,205	-0,096
226,567	456,041	-0,150	-0,231
227,582	110,036	-0,169	-0,141
228,596	156,401	-0,101	-0,097
229,611	-136,606	-0,162	-0,013
230,626	116,514	-0,152	-0,129
231,640	-16,008	-0,194	-0,085
232,655	41,868	-0,143	-0,090
233,669	-147,984	-0,219	-0,012
234,684	-49,699	-0,139	0,046
235,699	85,062	-0,174	-0,132
236,713	109,516	-0,154	-0,128
237,728	446,720	-0,053	-0,080
238,742	53,010	-0,325	-0,215
239,757	123,140	-0,102	0,088
240,772	31,277	-0,232	-0,137
241,786	800,000	-0,059	-0,169
242,801	-44,509	-0,123	-0,042
243,815	-140,703	-0,150	0,011
244,830	-160,751	-0,187	0,007
245,844	467,847	-0,070	-0,109
246,859	86,330	-0,195	-0,148
247,874	-94,856	-0,191	-0,035
248,888	114,581	-0,196	-0,164
249,903	53,019	-0,273	-0,180
250,917	111,276	-0,125	-0,104
251,932	2,163	-0,174	-0,086
252,947	-69,911	-0,275	-0,072
253,961	-3,026	-0,255	-0,122
254,976	800,000	-0,054	-0,119
255,990	-200,000	-0,008	-0,209
257,005	-178,209	-0,144	0,002
258,020	49,785	-0,243	-0,158
259,034	-200,000	-0,027	-0,215
260,049	633,863	-0,058	-0,101
261,063	-85,597	-0,171	-0,036
262,078	313,884	-0,134	-0,174
263,093	-118,579	-0,154	-0,019
264,107	-11,381	-0,285	-0,129
265,122	-38,450	-0,228	-0,083
266,136	-200,000	-0,022	-0,177
267,151	100,359	-0,182	-0,146
268,166	485,839	-0,071	-0,113
269,180	13,110	-0,184	-0,098
270,195	-162,483	-0,140	0,005
271,209	363,043	-0,158	-0,219
272,224	118,020	-0,162	-0,137
273,239	304,191	-0,084	-0,107
274,253	-148,827	-0,208	-0,011
275,268	227,604	-0,133	-0,149
276,282	47,661	-0,197	-0,126
277,297	-120,318	-0,142	0,016
278,312	-20,700	-0,246	-0,104
279,326	-30,933	-0,127	0,049
280,341	-31,588	-0,096	-0,037
281,355	-101,527	-0,187	-0,031
282,370	-200,000	-0,046	-0,181
283,384	-150,656	-0,304	0,016
284,399	162,813	-0,129	-0,125
285,414	-126,911	-0,166	-0,017
286,428	116,606	-0,173	-0,146
287,443	800,000	0,011	-0,032
288,457	-172,631	-0,105	0,002
289,472	183,711	-0,139	-0,142
290,487	79,701	-0,118	-0,087
291,501	800,000	-0,113	-0,265
292,516	147,595	-0,180	-0,166
293,530	-109,932	-0,153	-0,022
294,545	-29,513	-0,149	-0,058
295,560	-200,000	-0,008	-0,100
296,574	158,495	-0,134	-0,128
297,589	-84,069	-0,249	-0,054
298,603	37,046	-0,196	-0,119
299,618	800,000	-0,083	-0,163
300,633	167,904	-0,107	-0,105
301,647	800,000	-0,036	-0,103
302,662	669,986	-0,069	-0,123
303,676	9,310	-0,173	-0,090
304,691	437,338	-0,173	-0,260
305,706	121,400	-0,119	-0,102
306,720	-200,000	-0,038	-0,192
307,735	-22,886	-0,138	-0,057
308,749	-200,000	-0,023	-0,080
309,764	304,462	-0,126	-0,161
310,779	-200,000	-0,066	-0,260
311,793	-143,883	-0,157	-0,010
312,808	119,519	-0,206	-0,175
313,822	800,000	-0,085	-0,187
314,837	-111,565	-0,125	0,017
315,852	-8,215	-0,094	0,043
316,866	166,431	-0,032	0,031
317,881	562,922	-0,109	0,181
318,895	-61,374	-0,177	-0,051
319,910	128,875	-0,085	-0,075
320,925	800,000	-0,070	-0,182
321,939	3,092	-0,209	-0,104
322,954	793,276	-0,098	-0,187
323,968	-56,945	-0,119	-0,036
324,983	-149,868	-0,114	0,006
325,997	124,029	-0,098	-0,084
327,012	171,547	-0,201	-0,198
328,027	148,925	-0,119	-0,110
329,041	800,000	-0,075	-0,214
330,056	11,254	-0,091	-0,047
331,070	40,296	-0,032	0,020
332,085	235,345	-0,095	-0,107
333,100	492,464	-0,098	-0,154
334,114	66,240	-0,109	-0,075
335,129	482,998	-0,084	-0,131
336,143	-200,000	-0,010	-0,127
337,158	-14,325	-0,091	-0,040
338,173	800,000	0,056	0,111
339,187	-28,522	-0,176	-0,069
340,202	-74,516	-0,156	-0,038
341,216	800,000	-0,103	-0,239
342,231	-200,000	-0,022	-0,107
343,246	83,631	-0,134	-0,100
344,260	-94,645	-0,026	0,005
345,275	-126,457	-0,074	0,007
346,289	-99,537	-0,075	0,013
347,304	662,846	-0,085	-0,151
348,319	388,890	-0,128	-0,183
349,333	166,041	-0,116	-0,112
350,348	-46,454	-0,280	0,094
351,362	800,000	-0,093	-0,199
352,377	250,044	-0,082	-0,095
353,392	800,000	-0,058	0,128
354,406	-13,083	-0,066	-0,029
355,421	207,180	1310,078	1399,126
356,435	159,369	1470,197	1399,599
