DTS Sentinel unit serial number:	SN410029Multiplexer serial number:	ORYXHardware model number:	OX2-SRSoftware version number:	ORYX F/W v4,00 Oryx Data Collector v3.7.2.0data status	okinstallation	B3 Nyhavnadifferential loss correction	single-endedforward channel	channel 1reverse channel	N/Adate	2023/11/30time	08:22:30forward acquisition time	300,00reverse acquisition time	0,00gamma	499,1914k internal	0,3219k external	0,3219temperature offset calibration	1,0000default loss term (dB/km)	0,3820temperature slope calibration	1,0000multiplexer offset coefficient	1,0000multiplexer slope coefficient	1,0000fibre end	0,00T internal ref (°C)	9,31T ext. ref 1 (°C)	-5,30T ext. ref 2 (°C)	-5,40length (m)	temperature (°C)	Stokes	anti-Stokes-744,400	-54,777	-0,241	-0,078
-743,385	-200,000	-0,018	0,265
-742,371	800,000	-0,098	-0,198
-741,356	800,000	-0,097	0,250
-740,342	-20,339	-0,273	-0,121
-739,327	800,000	-0,103	0,283
-738,312	101,983	-0,170	-0,143
-737,298	800,000	-0,129	0,288
-736,283	424,886	-0,160	-0,249
-735,269	146,136	0,101	0,098
-734,254	348,523	-0,214	-0,306
-733,239	-17,419	-0,181	0,082
-732,225	800,000	-0,124	-0,311
-731,210	-200,000	-0,021	0,093
-730,196	651,617	-0,005	-0,009
-729,181	-76,886	-0,003	0,001
-728,167	-200,000	0,034	-0,127
-727,152	485,620	-0,052	-0,086
-726,137	42,591	-0,086	-0,056
-725,123	-200,000	-0,018	-0,097
-724,108	-200,000	0,018	0,124
-723,094	-143,104	-0,010	0,001
-722,079	183,552	0,087	-0,093
-721,064	757,022	-0,070	0,138
-720,050	-200,000	0,005	-0,032
-719,035	-86,643	-0,066	-0,014
-718,021	267,559	-0,060	-0,077
-717,006	265,721	-0,149	-0,188
-715,991	574,752	-0,116	-0,205
-714,977	800,000	0,033	-0,071
-713,962	-200,000	-0,008	0,105
-712,948	335,619	-0,002	0,003
-711,933	194,351	0,052	0,057
-710,918	800,000	-0,043	-0,096
-709,904	47,371	-0,085	0,057
-708,889	84,195	-0,121	0,096
-707,875	-200,000	0,007	-0,095
-706,860	238,894	0,110	-0,132
-705,845	-200,000	0,006	0,035
-704,831	800,000	-0,026	0,059
-703,816	-19,317	-0,062	-0,028
-702,802	196,056	0,050	-0,055
-701,787	72,799	-0,081	0,061
-700,772	800,000	0,023	0,070
-699,758	252,955	0,050	-0,061
-698,743	-44,435	0,141	0,051
-697,729	39,165	-0,035	0,023
-696,714	90,138	-0,127	0,102
-695,699	59,696	-0,090	-0,064
-694,685	128,604	-0,029	0,027
-693,670	-200,000	0,001	-0,073
-692,656	-200,000	0,020	-0,096
-691,641	79,728	0,047	-0,036
-690,627	-200,000	0,010	0,032
-689,612	71,267	0,042	0,032
-688,597	-113,238	0,113	0,016
-687,583	-105,299	0,038	-0,006
-686,568	83,945	-0,073	-0,058
-685,554	55,847	-0,038	-0,027
-684,539	-87,898	-0,058	-0,013
-683,524	-43,678	0,055	-0,020
-682,510	2,893	0,119	0,062
-681,495	-200,000	0,004	0,093
-680,481	342,237	-0,063	-0,089
-679,466	58,685	-0,082	-0,058
-678,451	54,068	-0,075	-0,052
-677,437	-200,000	-0,011	0,134
-676,422	-102,621	-0,177	0,030
-675,408	-118,602	-0,048	0,006
-674,393	-200,000	0,015	-0,104
-673,378	14,042	-0,230	-0,129
-672,364	-200,000	-0,021	-0,083
-671,349	-163,652	-0,163	0,005
-670,335	86,296	-0,028	0,022
-669,320	65,203	-0,063	-0,046
-668,305	-10,279	0,111	0,053
-667,291	800,000	-0,058	-0,153
-666,276	800,000	0,010	-0,031
-665,262	800,000	0,063	-0,135
-664,247	227,618	0,011	0,013
-663,232	64,725	-0,179	-0,130
-662,218	-123,053	0,077	-0,009
-661,203	540,812	-0,102	0,177
-660,189	-200,000	0,059	0,000
-659,174	89,026	0,051	0,041
-658,159	144,045	-0,090	-0,086
-657,145	114,902	-0,032	-0,028
-656,130	800,000	0,018	-0,057
-655,116	204,782	0,085	0,095
-654,101	703,214	-0,061	0,116
-653,086	-8,289	-0,021	0,010
-652,072	69,454	-0,064	0,048
-651,057	168,911	0,120	-0,123
-650,043	-200,000	0,009	-0,216
-649,028	-142,959	-0,180	-0,012
-648,014	-200,000	0,001	0,069
-646,999	233,337	0,067	-0,079
-645,984	625,702	0,021	-0,039
-644,970	144,837	-0,039	-0,038
-643,955	483,384	0,046	-0,076
-642,941	44,540	-0,085	0,056
-641,926	-200,000	-0,010	-0,133
-640,911	267,139	0,105	-0,133
-639,897	-29,699	0,066	-0,027
-638,882	45,336	-0,064	-0,042
-637,868	-200,000	0,010	0,051
-636,853	622,148	-0,067	-0,122
-635,838	-78,323	0,011	0,003
-634,824	-161,807	-0,063	-0,002
-633,809	1,059	0,068	-0,035
-632,795	-200,000	-0,003	0,062
-631,780	67,217	0,031	0,023
-630,765	219,309	0,039	-0,045
-629,751	800,000	-0,023	-0,060
-628,736	587,714	-0,072	-0,128
-627,722	-38,302	-0,151	0,057
-626,707	455,261	-0,038	0,061
-625,692	72,001	-0,020	-0,015
-624,678	-52,556	0,047	0,015
-623,663	618,942	-0,066	-0,119
-622,649	-200,000	-0,046	-0,153
-621,634	435,930	-0,071	-0,112
-620,619	-50,159	0,017	0,006
-619,605	493,672	0,026	-0,043
-618,590	243,670	-0,121	-0,147
-617,576	-200,000	-0,017	-0,078
-616,561	-4,851	0,044	0,022
-615,546	-200,000	-0,019	-0,091
-614,532	-166,117	-0,064	-0,002
-613,517	663,484	0,070	-0,130
-612,503	44,889	0,118	-0,078
-611,488	-147,687	-0,114	-0,007
-610,474	585,007	-0,080	0,142
-609,459	168,241	-0,075	0,077
-608,444	3,508	-0,119	0,062
-607,430	-109,779	0,076	-0,011
-606,415	800,000	0,042	-0,096
-605,401	-144,323	-0,058	-0,004
-604,386	-97,475	0,060	0,011
-603,371	64,842	-0,058	-0,042
-602,357	3,608	0,099	0,052
-601,342	370,094	-0,038	0,056
-600,328	-200,000	0,004	0,034
-599,313	-90,901	0,015	0,003
-598,298	157,277	-0,072	0,072
-597,284	147,720	0,070	0,068
-596,269	379,372	0,028	0,041
-595,255	90,503	-0,049	0,039
-594,240	640,560	-0,018	-0,034
-593,225	639,356	-0,082	-0,151
-592,211	125,482	-0,117	0,106
-591,196	-200,000	-0,011	0,052
-590,182	-63,824	-0,063	0,018
-589,167	13,595	0,141	-0,078
-588,152	44,438	-0,075	0,049
-587,138	280,565	0,051	-0,066
-586,123	-200,000	0,001	-0,131
-585,109	693,184	-0,060	-0,114
-584,094	187,717	0,020	-0,022
-583,079	256,867	-0,060	0,075
-582,065	-200,000	0,047	0,217
-581,050	800,000	-0,024	-0,054
-580,036	142,099	-0,136	-0,130
-579,021	329,900	0,079	-0,110
-578,006	197,499	-0,106	-0,116
-576,992	63,515	-0,108	-0,078
-575,977	800,000	-0,026	0,078
-574,963	-16,269	-0,027	0,012
-573,948	-200,000	0,018	0,059
-572,934	96,758	-0,086	0,070
-571,919	-200,000	0,025	0,099
-570,904	800,000	-0,068	-0,147
-569,890	-200,000	-0,024	-0,103
-568,875	-85,237	0,134	0,030
-567,861	150,330	0,084	0,082
-566,846	27,572	0,040	0,024
-565,831	166,548	0,092	0,094
-564,817	-64,170	-0,107	0,031
-563,802	139,568	-0,049	-0,046
-562,788	-200,000	0,023	-0,150
-561,773	180,695	-0,053	0,056
-560,758	390,175	0,044	0,066
-559,744	-200,000	0,005	-0,072
-558,729	558,590	0,026	0,045
-557,715	-130,186	-0,087	0,008
-556,700	189,842	-0,068	-0,073
-555,685	-200,000	0,027	-0,169
-554,671	800,000	-0,021	0,054
-553,656	-200,000	0,021	0,106
-552,642	87,417	0,063	-0,050
-551,627	-111,808	-0,065	0,009
-550,612	-70,586	0,047	-0,013
-549,598	38,992	-0,004	-0,002
-548,583	-200,000	-0,017	-0,173
-547,569	-13,897	-0,109	0,050
-546,554	-57,901	-0,151	-0,047
-545,539	104,971	-0,129	-0,109
-544,525	-129,939	0,098	0,010
-543,510	800,000	0,022	-0,051
-542,496	-7,980	0,106	0,051
-541,481	-52,627	-0,126	-0,041
-540,466	800,000	-0,037	-0,103
-539,452	487,255	0,079	0,130
-538,437	800,000	0,066	0,159
-537,423	389,571	0,055	0,082
-536,408	167,662	0,096	0,098
-535,393	800,000	-0,092	-0,185
-534,379	-200,000	-0,006	-0,168
-533,364	-200,000	-0,007	-0,142
-532,350	130,893	0,107	0,098
-531,335	534,164	0,053	0,090
-530,321	-66,914	0,111	0,031
-529,306	301,764	0,062	0,082
-528,291	27,390	-0,049	0,030
-527,277	800,000	-0,015	-0,041
-526,262	170,134	-0,030	-0,031
-525,248	-200,000	-0,016	-0,065
-524,233	-200,000	-0,002	0,058
-523,218	-200,000	-0,011	0,097
-522,204	-160,686	0,169	0,006
-521,189	162,980	-0,092	-0,093
-520,175	-200,000	0,011	0,120
-519,160	-200,000	-0,018	-0,076
-518,145	-170,884	0,088	0,002
-517,131	-76,675	0,039	-0,010
-516,116	-82,126	-0,132	0,031
-515,102	103,675	0,027	0,023
-514,087	-121,265	-0,105	0,012
-513,072	249,090	-0,024	0,029
-512,058	-60,141	0,015	0,005
-511,043	-131,034	0,090	-0,009
-510,029	-200,000	0,009	0,048
-509,014	-5,025	0,056	0,028
-507,999	263,821	0,001	-0,001
-506,985	-100,742	0,111	-0,019
-505,970	183,494	-0,072	-0,077
-504,956	332,142	0,081	-0,112
-503,941	35,113	0,091	0,057
-502,926	-36,137	0,016	0,006
-501,912	43,245	-0,014	0,009
-500,897	90,300	0,143	0,114
-499,883	-148,921	-0,128	0,007
-498,868	390,718	-0,059	-0,088
-497,853	695,548	-0,109	0,206
-496,839	728,185	0,006	0,012
-495,824	-200,000	0,020	0,092
-494,810	5,238	0,110	-0,058
-493,795	179,809	-0,020	0,021
-492,781	-83,582	-0,169	-0,038
-491,766	-139,322	0,072	0,005
-490,751	-200,000	0,013	0,041
-489,737	800,000	0,053	0,147
-488,722	800,000	0,051	0,131
-487,708	204,977	0,073	0,081
-486,693	-200,000	-0,010	-0,092
-485,678	-200,000	0,001	-0,080
-484,664	-81,822	-0,114	0,027
-483,649	36,799	-0,129	-0,081
-482,635	19,976	-0,093	0,053
-481,620	-200,000	-0,060	-0,000
-480,605	30,006	-0,012	0,007
-479,591	-124,737	0,143	0,016
-478,576	-200,000	-0,002	0,163
-477,562	-127,561	-0,060	-0,006
-476,547	164,640	0,080	-0,081
-475,532	800,000	-0,041	-0,127
-474,518	688,508	0,015	0,028
-473,503	800,000	-0,032	0,086
-472,489	-59,190	-0,123	0,038
-471,474	30,636	0,058	-0,035
-470,459	-152,859	0,029	0,001
-469,445	-94,527	-0,049	-0,010
-468,430	-100,706	-0,102	-0,018
-467,416	-86,071	-0,050	-0,011
-466,401	144,327	0,065	0,062
-465,386	39,038	0,183	0,117
-464,372	256,419	-0,023	0,028
-463,357	-81,970	-0,080	-0,019
-462,343	-126,060	-0,057	-0,006
-461,328	78,034	0,112	0,085
-460,313	99,618	-0,064	0,053
-459,299	460,824	0,051	0,081
-458,284	-200,000	0,024	0,084
-457,270	405,643	-0,008	0,012
-456,255	-158,170	0,078	-0,003
-455,241	-101,563	0,147	-0,025
-454,226	284,674	0,061	0,079
-453,211	-200,000	-0,008	0,134
-452,197	-18,875	-0,021	-0,009
-451,182	-200,000	0,039	0,169
-450,168	-120,024	0,144	-0,017
-449,153	-5,214	0,102	-0,050
-448,138	108,672	0,170	-0,145
-447,124	-149,161	0,135	0,008
-446,109	-200,000	-0,041	0,137
-445,095	-200,000	-0,001	-0,004
-444,080	-87,177	0,128	-0,028
-443,065	-39,432	0,027	-0,010
-442,051	149,169	-0,132	-0,128
-441,036	-179,982	-0,091	-0,001
-440,022	138,596	-0,050	-0,047
-439,007	8,382	-0,036	0,019
-437,992	-176,911	0,054	-0,001
-436,978	-30,097	0,118	0,048
-435,963	596,725	-0,071	0,126
-434,949	78,795	-0,068	-0,052
-433,934	-93,596	0,060	0,012
-432,919	800,000	-0,060	-0,171
-431,905	-108,509	0,109	-0,017
-430,890	-10,346	0,047	-0,022
-429,876	-130,230	0,179	-0,017
-428,861	-200,000	0,013	0,051
-427,846	800,000	-0,017	0,040
-426,832	61,804	-0,067	-0,048
-425,817	-200,000	0,007	-0,085
-424,803	71,787	0,027	-0,020
-423,788	-200,000	-0,024	0,143
-422,773	-200,000	-0,006	0,090
-421,759	306,542	-0,069	0,092
-420,744	800,000	-0,058	0,181
-419,730	-27,798	-0,102	0,042
-418,715	114,905	0,066	0,057
-417,701	-200,000	0,000	-0,038
-416,686	-200,000	0,006	0,049
-415,671	800,000	-0,008	0,021
-414,657	-200,000	-0,034	0,132
-413,642	-133,747	0,170	0,015
-412,628	190,394	-0,050	-0,054
-411,613	-117,718	-0,110	-0,014
-410,598	-200,000	0,019	-0,165
-409,584	534,912	0,076	-0,130
-408,569	800,000	-0,035	0,104
-407,555	-200,000	-0,002	0,027
-406,540	800,000	-0,009	0,019
-405,525	-132,996	-0,077	-0,007
-404,511	244,788	-0,083	-0,100
-403,496	-59,928	-0,087	-0,026
-402,482	-200,000	-0,011	0,069
-401,467	88,673	0,102	0,081
-400,452	778,319	0,074	0,146
-399,438	-197,990	-0,074	-0,000
-398,423	45,980	-0,047	-0,031
-397,409	-200,000	0,033	-0,127
-396,394	-200,000	-0,014	-0,135
-395,379	-132,802	0,116	-0,010
-394,365	610,967	-0,021	0,038
-393,350	93,517	0,068	0,055
-392,336	281,848	-0,020	0,025
-391,321	-200,000	-0,001	0,022
-390,306	800,000	-0,013	-0,027
-389,292	59,386	-0,064	0,045
-388,277	-200,000	-0,002	0,018
-387,263	800,000	0,026	0,068
-386,248	800,000	0,067	0,140
-385,233	83,217	0,080	0,062
-384,219	800,000	0,013	-0,034
-383,204	218,333	-0,131	-0,150
-382,190	235,392	0,095	-0,112
-381,175	800,000	-0,041	0,121
-380,160	-200,000	-0,015	-0,085
-379,146	800,000	-0,035	0,074
-378,131	23,488	0,043	0,025
-377,117	-129,123	-0,099	0,010
-376,102	134,952	-0,126	-0,116
-375,088	-200,000	-0,010	-0,132
-374,073	-44,958	-0,057	0,020
-373,058	609,175	0,082	0,146
-372,044	-200,000	0,017	0,191
-371,029	622,049	0,064	0,116
-370,015	800,000	-0,041	-0,084
-369,000	800,000	-0,063	-0,135
-367,985	-200,000	0,012	-0,122
-366,971	147,726	-0,087	-0,083
-365,956	-45,915	0,038	-0,013
-364,942	800,000	0,076	0,153
-363,927	235,093	-0,075	0,089
-362,912	-200,000	-0,004	0,047
-361,898	-24,425	-0,123	-0,052
-360,883	-122,078	-0,071	-0,008
-359,869	-74,304	-0,121	-0,031
-358,854	75,907	0,145	0,109
-357,839	66,267	0,103	0,074
-356,825	0,568	-0,065	0,033
-355,810	700,058	-0,021	0,039
-354,796	-140,003	-0,154	-0,011
-353,781	242,982	0,053	-0,064
-352,766	175,048	-0,069	-0,071
-351,752	236,194	-0,059	-0,070
-350,737	-105,246	-0,040	0,006
-349,723	-200,000	0,025	0,151
-348,708	-200,000	0,009	0,047
-347,693	198,229	-0,011	0,012
-346,679	-65,848	0,103	-0,029
-345,664	-116,092	-0,193	0,025
-344,650	-38,806	0,101	-0,038
-343,635	233,805	0,099	0,117
-342,620	-110,306	0,068	-0,010
-341,606	-192,442	0,075	0,000
-340,591	-200,000	-0,013	-0,179
-339,577	747,544	0,050	-0,096
-338,562	172,099	-0,092	-0,094
-337,548	-200,000	0,033	0,144
-336,533	-200,000	-0,002	0,024
-335,518	-124,391	0,117	0,013
-334,504	59,137	0,061	0,042
-333,489	-200,000	-0,021	0,090
-332,475	-143,922	0,055	-0,004
-331,460	-9,755	0,097	0,046
-330,445	-200,000	-0,012	-0,074
-329,431	79,728	0,125	0,095
-328,416	-200,000	0,041	-0,136
-327,402	800,000	0,029	-0,077
-326,387	-200,000	-0,015	-0,083
-325,372	-150,597	0,094	0,005
-324,358	233,388	0,153	-0,180
-323,343	800,000	-0,019	-0,041
-322,329	33,427	0,110	-0,068
-321,314	-71,598	0,118	0,031
-320,299	-200,000	0,003	0,141
-319,285	182,659	-0,027	0,028
-318,270	-200,000	-0,000	0,014
-317,256	13,217	0,097	-0,053
-316,241	-108,133	-0,095	0,014
-315,226	-150,251	0,075	-0,004
-314,212	319,484	0,056	0,075
-313,197	527,137	0,026	0,043
-312,183	22,435	0,076	-0,044
-311,168	16,800	-0,027	-0,015
-310,153	-200,000	-0,015	0,067
-309,139	800,000	-0,036	0,105
-308,124	800,000	0,035	0,102
-307,110	-200,000	0,036	0,128
-306,095	13,357	0,104	0,057
-305,080	-200,000	-0,011	0,058
-304,066	-27,379	0,174	-0,071
-303,051	321,139	-0,091	-0,123
-302,037	-57,714	-0,100	-0,031
-301,022	-116,456	0,022	-0,003
-300,008	800,000	0,044	0,115
-298,993	110,553	0,039	-0,033
-297,978	-200,000	0,003	0,141
-296,964	109,927	-0,082	-0,070
-295,949	133,249	-0,055	-0,050
-294,935	34,196	-0,035	0,021
-293,920	-200,000	-0,005	0,057
-292,905	-101,365	0,083	-0,014
-291,891	687,309	-0,091	0,170
-290,876	231,006	0,056	-0,066
-289,862	120,380	0,016	-0,014
-288,847	-200,000	-0,002	-0,095
-287,832	800,000	-0,016	0,031
-286,818	-200,000	0,010	-0,130
-285,803	-200,000	-0,001	0,047
-284,789	-200,000	-0,003	0,086
-283,774	302,486	0,077	0,102
-282,759	-17,298	-0,047	-0,021
-281,745	-200,000	0,000	0,019
-280,730	-200,000	0,023	0,121
-279,716	-70,783	0,011	0,003
-278,701	542,496	-0,037	0,062
-277,686	-200,000	-0,025	0,088
-276,672	15,050	0,072	-0,040
-275,657	-113,370	-0,144	-0,020
-274,643	490,721	0,056	-0,092
-273,628	-126,584	0,054	-0,006
-272,613	-200,000	-0,025	-0,099
-271,599	-200,000	-0,014	-0,136
-270,584	-200,000	-0,013	0,065
-269,570	-30,613	0,156	0,062
-268,555	800,000	-0,056	0,144
-267,540	16,478	0,068	-0,038
-266,526	-143,429	0,132	0,009
-265,511	-48,294	-0,022	-0,008
-264,497	-185,692	0,047	0,000
-263,482	-130,284	0,108	0,010
-262,467	-24,434	-0,136	0,057
-261,453	163,291	-0,018	-0,018
-260,438	-158,738	-0,047	0,002
-259,424	-129,951	0,037	0,004
-258,409	-92,533	-0,039	0,008
-257,395	-200,000	-0,021	-0,079
-256,380	-38,269	0,073	0,027
-255,365	-47,448	-0,142	0,049
-254,351	-200,000	-0,005	-0,065
-253,336	-200,000	-0,016	-0,124
-252,322	53,511	-0,087	-0,059
-251,307	304,481	-0,064	0,085
-250,292	-170,141	0,099	0,002
-249,278	800,000	0,088	0,173
-248,263	277,088	-0,073	0,093
-247,249	29,950	0,128	0,077
-246,234	5,361	-0,060	-0,031
-245,219	-200,000	0,005	0,052
-244,205	-200,000	0,008	0,031
-243,190	-200,000	0,003	-0,086
-242,176	-31,276	0,093	0,037
-241,161	-98,206	0,134	0,024
-240,146	40,316	-0,121	0,077
-239,132	-129,760	0,112	-0,011
-238,117	8,180	-0,136	-0,072
-237,103	207,894	0,009	-0,010
-236,088	181,716	-0,064	0,067
-235,073	800,000	0,012	0,028
-234,059	771,860	0,056	0,109
-233,044	259,336	0,050	-0,061
-232,030	800,000	-0,009	0,018
-231,015	67,011	0,042	0,030
-230,000	115,493	-0,100	-0,087
-228,986	662,436	0,067	-0,123
-227,971	168,570	0,133	-0,134
-226,957	800,000	0,056	0,135
-225,942	12,769	0,124	0,068
-224,927	-55,580	-0,066	-0,021
-223,913	110,501	-0,064	-0,054
-222,898	431,199	-0,098	-0,151
-221,884	542,958	-0,044	-0,074
-220,869	33,566	0,138	-0,085
-219,855	133,730	-0,025	0,023
-218,840	-200,000	-0,014	0,084
-217,825	122,270	0,031	0,027
-216,811	-141,972	-0,059	-0,004
-215,796	-53,653	-0,077	-0,025
-214,782	133,383	0,050	0,046
-213,767	185,326	0,036	0,038
-212,752	800,000	-0,020	0,049
-211,738	52,649	-0,064	-0,044
-210,723	138,914	-0,042	0,039
-209,709	-37,973	-0,078	-0,029
-208,694	-200,000	0,025	-0,083
-207,679	542,992	-0,085	-0,144
-206,665	116,355	0,112	0,097
-205,650	65,776	0,062	0,044
-204,636	177,345	0,047	0,049
-203,621	-14,952	-0,086	0,039
-202,606	-133,094	-0,149	0,013
-201,592	800,000	0,042	-0,098
-200,577	470,658	0,053	-0,084
-199,563	-200,000	-0,003	-0,079
-198,548	185,656	-0,024	-0,025
-197,533	733,370	-0,014	0,027
-196,519	-200,000	0,006	0,025
-195,504	-114,983	-0,042	0,006
-194,490	386,011	0,057	-0,084
-193,475	-200,000	0,025	-0,096
-192,460	40,899	-0,022	0,014
-191,446	-200,000	0,058	-0,232
-190,431	-200,000	-0,011	-0,130
-189,417	43,644	-0,074	-0,048
-188,402	-200,000	0,018	-0,067
-187,387	-116,274	-0,087	0,011
-186,373	800,000	0,063	-0,166
-185,358	-131,268	0,109	-0,010
-184,344	31,331	0,068	0,041
-183,329	-50,790	-0,083	0,027
-182,315	42,447	-0,126	-0,081
-181,300	86,085	-0,037	-0,029
-180,285	-62,823	-0,047	0,014
-179,271	185,795	-0,032	-0,033
-178,256	-120,024	-0,113	-0,014
-177,242	800,000	0,023	-0,051
-176,227	313,068	-0,062	0,082
-175,212	240,620	0,032	0,038
-174,198	582,266	0,014	0,025
-173,183	-74,238	-0,116	-0,030
-172,169	800,000	-0,021	-0,042
-171,154	800,000	-0,025	0,078
-170,139	-200,000	-0,010	0,054
-169,125	800,000	0,011	-0,031
-168,110	-200,000	-0,002	0,112
-167,096	-116,909	0,071	0,009
-166,081	-177,809	-0,112	0,002
-165,066	139,313	-0,026	-0,024
-164,052	800,000	-0,042	-0,085
-163,037	132,682	0,089	0,082
-162,023	-177,284	-0,100	-0,002
-161,008	258,150	-0,074	-0,090
-159,993	180,865	0,043	-0,045
-158,979	-12,189	-0,029	0,013
-157,964	-133,325	0,059	-0,005
-156,950	718,065	-0,072	0,135
-155,935	140,950	-0,088	-0,083
-154,920	55,168	0,144	0,098
-153,906	655,412	-0,022	-0,040
-152,891	-83,654	-0,019	0,004
-151,877	163,860	-0,057	-0,057
-150,862	-8,805	-0,076	0,036
-149,847	-84,721	-0,077	0,017
-148,833	800,000	0,043	-0,121
-147,818	-200,000	0,004	-0,044
-146,804	-200,000	0,003	0,091
-145,789	-89,898	0,056	0,011
-144,775	31,966	-0,218	-0,133
-143,760	201,410	0,122	0,133
-142,745	35,606	-0,103	-0,064
-141,731	-200,000	0,004	0,095
-140,716	63,801	-0,075	-0,053
-139,702	-55,856	-0,032	0,010
-138,687	268,204	0,053	-0,066
-137,672	49,462	0,166	-0,110
-136,658	-200,000	0,004	-0,130
-135,643	-75,375	-0,260	-0,065
-134,629	15,036	-0,053	0,029
-133,614	592,393	-0,040	0,071
-132,599	41,283	0,055	0,035
-131,585	800,000	0,039	0,077
-130,570	625,707	0,051	0,091
-129,556	-151,408	-0,069	-0,004
-128,541	38,378	-0,094	-0,059
-127,526	-28,842	-0,016	0,006
-126,512	49,267	0,079	0,052
-125,497	800,000	-0,110	0,224
-124,483	431,405	0,025	0,038
-123,468	72,967	0,082	0,061
-122,453	-200,000	0,001	-0,028
-121,439	80,558	-0,121	0,092
-120,424	169,242	-0,083	-0,083
-119,410	-50,586	-0,182	-0,060
-118,395	-29,471	0,162	-0,065
-117,380	-200,000	-0,014	0,118
-116,366	-200,000	0,003	-0,065
-115,351	575,981	0,059	-0,102
-114,337	-25,788	-0,127	-0,053
-113,322	-200,000	0,014	-0,063
-112,307	117,268	0,095	0,082
-111,293	-200,000	0,013	-0,041
-110,278	190,282	0,056	-0,059
-109,264	-10,264	-0,091	-0,042
-108,249	17,093	0,081	0,045
-107,234	601,780	-0,037	0,064
-106,220	-76,907	0,046	0,011
-105,205	800,000	0,021	0,050
-104,191	-200,000	0,018	0,100
-103,176	98,565	0,048	0,039
-102,162	482,688	-0,035	0,056
-101,147	800,000	0,011	0,031
-100,132	800,000	-0,025	-0,063
-99,118	267,739	0,054	0,067
-98,103	-4,961	0,105	0,051
-97,089	58,559	-0,127	0,088
-96,074	57,086	0,038	-0,026
-95,059	50,029	0,137	-0,091
-94,045	-19,199	-0,174	0,076
-93,030	-63,017	-0,151	0,044
-92,016	34,138	0,122	0,075
-91,001	43,542	-0,048	-0,031
-89,986	27,697	-0,094	0,056
-88,972	-200,000	0,031	0,124
-87,957	68,179	0,055	-0,040
-86,943	-200,000	-0,034	0,156
-85,928	-45,834	-0,087	-0,030
-84,913	18,040	0,064	-0,036
-83,899	800,000	0,033	-0,091
-82,884	-49,839	0,100	0,033
-81,870	236,527	-0,109	0,127
-80,855	-200,000	-0,039	-0,147
-79,840	-83,268	-0,092	0,021
-78,826	210,064	-0,068	0,076
-77,811	308,970	-0,053	-0,070
-76,797	-200,000	0,018	-0,104
-75,782	800,000	-0,015	-0,037
-74,767	97,645	0,120	0,097
-73,753	-200,000	-0,017	0,055
-72,738	197,697	0,086	-0,093
-71,724	-200,000	0,010	-0,033
-70,709	46,852	-0,080	-0,052
-69,694	-200,000	0,007	0,128
-68,680	441,803	-0,011	-0,017
-67,665	-200,000	0,001	0,036
-66,651	618,218	0,044	0,078
-65,636	-200,000	-0,010	-0,061
-64,622	177,493	0,052	0,054
-63,607	-200,000	-0,021	-0,162
-62,592	75,752	-0,048	0,036
-61,578	60,104	0,087	-0,061
-60,563	-105,266	0,131	0,021
-59,549	393,708	-0,061	0,090
-58,534	58,182	-2,103	-1,449
-57,519	558,124	-1,117	-1,906
-56,505	-200,000	-0,299	-4,422
-55,490	499,582	0,928	1,512
-54,476	800,000	5,113	11,349
-53,461	-200,000	22,410	348,288
-52,446	800,000	768,063	2330,990
-51,432	538,069	1664,888	2796,853
-50,417	70,291	1658,742	1205,164
-49,403	16,994	1532,036	852,245
-48,388	11,076	1456,275	781,561
-47,373	19,304	1448,022	816,465
-46,359	14,531	1436,875	787,529
-45,344	9,445	1432,904	761,171
-44,330	9,402	1431,116	759,990
-43,315	9,371	1429,089	758,735
-42,300	9,341	1427,389	757,661
-41,286	9,385	1426,112	757,160
-40,271	9,353	1424,912	756,341
-39,257	9,372	1423,628	755,720
-38,242	9,326	1422,800	755,033
-37,227	9,394	1421,601	754,688
-36,213	9,371	1420,351	753,887
-35,198	9,400	1419,015	753,285
-34,184	9,412	1418,197	752,877
-33,169	9,344	1416,599	751,680
-32,154	9,389	1415,675	751,372
-31,140	9,376	1414,271	750,535
-30,125	9,401	1413,482	750,202
-29,111	9,435	1412,098	749,598
-28,096	9,373	1411,047	748,722
-27,082	9,321	1409,636	747,699
-26,067	9,333	1408,798	747,282
-25,052	9,359	1407,705	746,790
-24,038	9,349	1406,894	746,287
-23,023	9,360	1405,760	745,708
-22,009	9,290	1405,023	744,959
-20,994	9,384	1403,577	744,600
-19,979	9,331	1402,968	744,000
-18,965	9,298	1402,039	743,326
-17,950	9,344	1400,795	742,851
-16,936	9,296	1400,253	742,312
-15,921	9,246	1399,271	741,526
-14,906	9,281	1398,348	741,172
-13,892	9,300	1397,172	740,609
-12,877	9,265	1396,660	740,145
-11,863	9,249	1395,923	739,650
-10,848	9,261	1394,531	738,938
-9,833	9,158	1393,932	738,116
-8,819	9,152	1393,168	737,656
-7,804	9,146	1392,012	736,986
-6,790	9,156	1391,167	736,553
-5,775	9,178	1389,754	735,879
-4,760	9,171	1389,027	735,430
-3,746	9,247	1387,946	735,181
-2,731	9,175	1387,225	734,439
-1,717	9,168	1386,327	733,900
-0,702	9,131	1384,790	732,888
0,313	13,159	1295,667	704,057
1,327	29,102	685,237	408,187
2,342	45,144	118,147	76,481
3,356	-0,308	16,611	8,280
4,371	-0,526	3,744	1,863
5,386	13,999	1,194	0,652
6,400	-200,000	0,163	0,554
7,415	-107,489	-0,196	-0,030
8,429	539,891	-0,185	-0,311
9,444	101,564	-0,247	-0,203
10,459	175,121	-0,265	-0,270
11,473	211,459	-0,207	-0,230
12,488	-117,706	-0,287	-0,036
13,502	-98,365	-0,347	-0,062
14,517	131,187	-0,347	-0,313
15,531	77,753	-0,330	-0,247
16,546	89,117	-0,337	-0,264
17,561	180,944	-0,256	-0,265
18,575	46,728	-0,114	-0,074
19,590	-17,008	-0,288	-0,127
20,604	-26,337	-0,228	-0,094
21,619	7,819	-0,405	-0,212
22,634	98,039	-0,453	-0,366
23,648	11,606	-0,502	-0,269
24,663	40,688	-0,250	-0,158
25,677	5,234	-0,334	-0,172
26,692	4,325	-0,299	-0,153
27,707	56,984	-0,371	-0,253
28,721	155,888	-0,345	-0,334
29,736	141,723	-0,270	-0,251
30,750	11,539	-0,475	-0,255
31,765	102,751	-0,406	-0,333
32,780	59,500	-0,401	-0,277
33,794	196,238	-0,174	-0,186
34,809	8,054	-0,418	-0,220
35,823	-52,490	-0,359	-0,116
36,838	16,703	-0,432	-0,239
37,853	73,049	-0,326	-0,239
38,867	254,486	-0,218	-0,262
39,882	283,993	-0,254	-0,320
40,896	40,769	-0,398	-0,251
41,911	14,595	-0,268	-0,146
42,926	239,556	-0,306	-0,358
43,940	227,721	-0,313	-0,358
44,955	193,449	-0,291	-0,309
45,969	55,643	-0,317	-0,215
46,984	106,414	-0,296	-0,246
47,999	260,875	-0,258	-0,314
49,013	7,479	-0,342	-0,179
50,028	-20,355	-0,236	-0,101
51,042	-69,898	-0,500	-0,133
52,057	49,869	-0,322	-0,212
53,071	227,829	-0,203	-0,232
54,086	518,274	-0,160	-0,263
55,101	-18,148	-0,255	-0,111
56,115	104,659	-0,237	-0,196
57,130	194,871	-0,315	-0,335
58,144	137,673	-0,341	-0,313
59,159	-20,235	-0,364	-0,156
60,174	107,617	-0,301	-0,251
61,188	140,876	-0,298	-0,276
62,203	19,048	-0,259	-0,145
63,217	-94,830	-0,299	-0,056
64,232	-62,883	-0,372	-0,107
65,247	292,376	-0,236	-0,302
66,261	479,741	-0,183	-0,291
67,276	41,832	-0,337	-0,213
68,290	4,259	-0,290	-0,148
69,305	6,166	-0,389	-0,201
70,320	-39,034	-0,302	-0,111
71,334	162,333	-0,279	-0,274
72,349	254,177	-0,256	-0,307
73,363	284,297	-0,247	-0,312
74,378	-70,046	-0,501	-0,132
75,393	53,933	-0,267	-0,179
76,407	-25,771	-0,362	-0,148
77,422	114,425	-0,233	-0,198
78,436	-3,173	-0,249	-0,121
79,451	233,984	-0,270	-0,312
80,466	113,693	-0,241	-0,205
81,480	201,906	-0,240	-0,259
82,495	33,562	-0,353	-0,214
83,509	64,933	-0,163	-0,115
84,524	-21,225	-0,297	-0,126
85,539	34,680	-0,404	-0,246
86,553	-46,822	-0,264	-0,090
87,568	121,342	-0,363	-0,316
88,582	83,944	-0,282	-0,215
89,597	54,172	-0,335	-0,224
90,611	7,534	-0,378	-0,197
91,626	-69,110	-0,167	-0,044
92,641	10,831	-0,337	-0,179
93,655	101,248	-0,192	-0,156
94,670	90,371	-0,254	-0,198
95,684	198,440	-0,263	-0,282
96,699	158,482	-0,140	-0,136
97,714	44,432	-0,171	-0,109
98,728	210,614	-0,133	-0,146
99,743	591,146	-0,174	-0,300
100,757	109,485	-0,335	-0,280
101,772	800,000	-0,210	-0,417
102,787	-20,024	-0,371	-0,159
103,801	-6,319	-0,264	-0,125
104,816	301,379	-0,132	-0,170
105,830	-148,416	-0,217	0,012
106,845	-106,849	-0,285	0,044
107,860	105,846	-0,248	-0,205
108,874	11,432	-0,344	-0,183
109,889	-20,003	-0,320	-0,137
110,903	-69,411	-0,302	-0,080
111,918	102,297	-0,139	-0,113
112,933	72,232	-0,231	-0,167
113,947	-4,555	-0,172	-0,082
114,962	-72,840	-0,217	-0,055
115,976	-33,983	-0,314	-0,120
116,991	-200,000	-0,071	-0,241
118,006	300,791	-0,251	-0,323
119,020	415,130	-0,194	-0,288
120,035	90,973	-0,261	-0,203
121,049	-119,129	-0,177	-0,021
122,064	54,803	-0,322	-0,216
123,079	121,125	-0,249	-0,216
124,093	133,859	-0,178	-0,160
125,108	147,744	-0,254	-0,239
126,122	173,521	-0,206	-0,207
127,137	65,739	-0,281	-0,198
128,151	301,833	-0,151	-0,195
129,166	-98,183	-0,161	-0,028
130,181	7,928	-0,176	-0,091
131,195	78,691	-0,293	-0,218
132,210	23,311	-0,273	-0,156
133,224	-47,338	-0,179	-0,060
134,239	63,201	-0,212	-0,147
135,254	800,000	-0,092	-0,218
136,268	59,494	-0,239	-0,163
137,283	2,955	-0,181	-0,091
138,297	800,000	-0,017	-0,037
139,312	-98,281	-0,217	-0,038
140,327	320,234	-0,129	-0,171
141,341	49,775	-0,260	-0,170
142,356	201,858	-0,241	-0,259
143,370	243,631	-0,163	-0,190
144,385	82,661	-0,271	-0,204
145,400	100,637	-0,220	-0,178
146,414	50,198	-0,369	-0,242
147,429	300,160	-0,277	-0,355
148,443	-19,594	-0,298	-0,128
149,458	-95,491	-0,284	-0,052
150,473	69,364	-0,243	-0,174
151,487	-128,393	-0,307	-0,030
152,502	312,558	-0,274	-0,358
153,516	153,066	-0,301	-0,286
154,531	516,798	-0,205	-0,334
155,546	-61,660	-0,305	-0,088
156,560	-119,672	-0,094	0,011
157,575	79,857	-0,233	-0,174
158,589	177,162	-0,229	-0,232
159,604	121,105	-0,242	-0,209
160,619	30,988	-0,279	-0,165
161,633	25,186	-0,129	-0,074
162,648	29,366	-0,225	-0,132
163,662	-67,563	-0,190	-0,051
164,677	-18,841	-0,271	-0,116
165,692	-16,723	-0,358	-0,156
166,706	87,962	-0,207	-0,159
167,721	18,190	-0,292	-0,161
168,735	671,631	-0,156	-0,282
169,750	160,921	-0,296	-0,287
170,764	79,741	-0,135	-0,100
171,779	480,170	-0,118	-0,186
172,794	-10,993	-0,120	-0,055
173,808	-55,546	-0,267	-0,082
174,823	-9,562	-0,297	-0,137
175,837	676,138	-0,179	-0,324
176,852	209,412	-0,286	-0,310
177,867	7,543	-0,344	-0,178
178,881	559,755	-0,083	-0,140
179,896	-18,319	-0,227	-0,098
180,910	155,094	-0,199	-0,190
181,925	164,324	-0,301	-0,294
182,940	33,051	-0,245	-0,147
183,954	51,198	-0,245	-0,160
184,969	-13,901	-0,149	-0,066
185,983	-16,491	-0,186	-0,081
186,998	198,833	-0,156	-0,166
188,013	94,325	-0,189	-0,149
189,027	718,370	-0,078	-0,145
190,042	67,832	-0,227	-0,161
191,056	31,265	-0,289	-0,171
192,071	-200,000	0,011	-0,224
193,086	-22,536	-0,235	-0,098
194,100	-0,289	-0,179	-0,088
195,115	151,726	-0,321	-0,303
196,129	230,270	-0,166	-0,188
197,144	35,953	-0,129	-0,078
198,159	674,779	-0,177	-0,319
199,173	-33,029	-0,281	-0,107
200,188	467,626	-0,166	-0,258
201,202	248,565	-0,168	-0,197
202,217	-85,642	-0,186	-0,040
203,232	269,783	-0,132	-0,161
204,246	-90,383	-0,215	-0,043
205,261	-8,199	-0,254	-0,118
206,275	107,791	-0,145	-0,120
207,290	66,696	-0,192	-0,135
208,304	-19,863	-0,277	-0,118
209,319	227,779	-0,144	-0,162
210,334	62,110	-0,162	-0,111
211,348	-11,200	-0,275	-0,125
212,363	-37,919	-0,229	-0,084
213,377	43,902	-0,113	-0,071
214,392	-62,256	-0,108	0,031
215,407	94,778	-0,059	-0,047
216,421	329,276	-0,080	-0,107
217,436	34,971	-0,288	-0,174
218,450	165,404	-0,217	-0,212
219,465	336,567	-0,127	-0,170
220,480	208,758	-0,151	-0,163
221,494	-73,442	-0,073	0,018
222,509	217,951	-0,149	-0,164
223,523	157,285	-0,226	-0,216
224,538	-167,484	-0,234	0,006
225,553	800,000	-0,149	-0,342
226,567	-87,764	-0,242	-0,050
227,582	-50,836	-0,312	-0,101
228,596	203,456	-0,122	-0,130
229,611	40,519	-0,188	-0,117
230,626	-131,337	-0,234	-0,021
231,640	-47,664	-0,175	-0,058
232,655	128,636	-0,140	-0,123
233,669	160,172	-0,150	-0,144
234,684	800,000	-0,089	-0,173
235,699	800,000	-0,067	-0,175
236,713	-73,403	-0,119	-0,030
237,728	-33,888	-0,186	-0,070
238,742	-114,178	-0,100	-0,013
239,757	264,595	-0,139	-0,167
240,772	-200,000	-0,043	-0,266
241,786	-200,000	-0,028	-0,168
242,801	-28,548	-0,270	-0,107
243,815	-144,284	-0,048	0,003
244,830	310,259	-0,072	-0,092
245,844	-200,000	-0,002	-0,165
246,859	-182,102	-0,218	0,003
247,874	800,000	-0,095	-0,273
248,888	800,000	-0,118	-0,234
249,903	88,718	-0,202	-0,155
250,917	113,356	-0,166	-0,139
251,932	39,790	-0,166	-0,102
252,947	-24,967	-0,130	-0,053
253,961	62,566	-0,094	-0,065
254,976	-93,560	-0,148	-0,028
255,990	142,284	-0,165	-0,151
257,005	-120,707	-0,190	-0,022
258,020	-200,000	-0,022	-0,173
259,034	12,382	-0,190	-0,100
260,049	6,746	-0,199	-0,101
261,063	-33,660	-0,158	-0,060
262,078	262,406	-0,173	-0,206
263,093	744,096	-0,186	-0,346
264,107	800,000	-0,059	-0,171
265,122	-44,860	-0,147	-0,050
266,136	-1,449	-0,230	-0,111
267,151	-80,981	-0,184	-0,042
268,166	-40,547	-0,215	-0,076
269,180	-97,602	-0,214	-0,038
270,195	-81,701	-0,136	-0,030
271,209	57,734	-0,079	-0,053
272,224	800,000	-0,057	-0,164
273,239	-200,000	-0,018	-0,092
274,253	-2,930	-0,192	-0,092
275,268	-200,000	-0,087	-0,266
276,282	120,315	-0,130	-0,111
277,297	-64,469	-0,120	-0,033
278,312	51,941	-0,171	-0,112
279,326	800,000	-0,038	-0,085
280,341	163,295	-0,115	-0,112
281,355	177,705	-0,089	-0,089
282,370	201,433	-0,243	-0,257
283,384	-148,862	-0,288	0,016
284,399	-22,405	-0,270	-0,112
285,414	29,176	-0,108	-0,063
286,428	1,149	-0,077	-0,038
287,443	187,539	-0,048	-0,049
288,457	-200,000	-0,066	-0,201
289,472	177,536	-0,074	-0,074
290,487	-105,987	-0,198	-0,030
291,501	-109,071	-0,236	-0,034
292,516	-91,482	-0,083	-0,016
293,530	10,364	-0,105	-0,055
294,545	364,411	-0,066	-0,092
295,560	315,992	-0,075	-0,097
296,574	-3,589	-0,039	-0,018
297,589	95,720	-0,209	-0,163
298,603	114,295	-0,227	-0,189
299,618	34,373	-0,099	-0,059
300,633	800,000	-0,061	-0,129
301,647	-34,300	-0,139	-0,052
302,662	-200,000	-0,001	-0,126
303,676	17,474	-0,188	-0,102
304,691	203,074	-0,087	-0,093
305,706	24,437	-0,185	-0,104
306,720	-200,000	-0,075	-0,240
307,735	303,817	-0,053	-0,067
308,749	175,416	-0,084	-0,083
309,764	370,638	-0,133	-0,186
310,779	434,867	-0,129	-0,192
311,793	22,653	-0,231	-0,129
312,808	776,237	-0,099	-0,186
313,822	-1,946	-0,157	-0,075
314,837	-87,710	-0,195	0,040
315,852	-74,082	-0,091	0,022
316,866	437,089	-0,097	0,145
317,881	-31,448	-0,177	-0,068
318,895	-171,497	-0,082	-0,002
319,910	209,190	-0,195	-0,209
320,925	-107,220	-0,169	-0,025
321,939	466,955	-0,132	-0,203
322,954	-70,089	-0,155	-0,040
323,968	-110,762	-0,133	0,019
324,983	-200,000	-0,024	-0,126
325,997	-45,502	-0,036	-0,012
327,012	800,000	-0,073	-0,212
328,027	33,814	-0,128	-0,076
329,041	86,495	-0,198	-0,149
330,056	104,575	-0,095	-0,076
331,070	597,892	-0,144	-0,245
332,085	-23,287	-0,085	0,035
333,100	262,799	-0,106	-0,126
334,114	99,770	-0,110	-0,087
335,129	-82,957	-0,205	-0,045
336,143	-200,000	0,007	-0,223
337,158	312,672	-0,143	-0,184
338,173	-113,551	-0,184	-0,024
339,187	241,948	-0,134	-0,153
340,202	-200,000	-0,015	-0,221
341,216	-200,000	-0,047	-0,216
342,231	-123,916	-0,144	-0,015
343,246	279,625	-0,135	-0,165
344,260	149,652	-0,039	-0,036
345,275	800,000	-0,020	0,051
346,289	-200,000	0,001	0,026
347,304	68,769	-0,050	-0,035
348,319	135,291	-0,176	-0,156
349,333	67,131	-0,080	-0,056
350,348	-200,000	0,028	-0,211
351,362	-44,879	-0,207	-0,070
352,377	-125,108	-0,229	-0,024
353,392	-85,930	-0,108	-0,023
354,406	322,940	-0,073	-0,095
355,421	207,533	1309,788	1396,190
356,435	159,658	1469,844	1396,649
