DTS Sentinel unit serial number:	SN410029Multiplexer serial number:	ORYXHardware model number:	OX2-SRSoftware version number:	ORYX F/W v4,00 Oryx Data Collector v3.7.2.0data status	okinstallation	B3 Nyhavnadifferential loss correction	single-endedforward channel	channel 1reverse channel	N/Adate	2023/12/02time	09:27:30forward acquisition time	300,00reverse acquisition time	0,00gamma	499,1914k internal	0,3196k external	0,3196temperature offset calibration	1,0000default loss term (dB/km)	0,3820temperature slope calibration	1,0000multiplexer offset coefficient	1,0000multiplexer slope coefficient	1,0000fibre end	0,00T internal ref (°C)	15,10T ext. ref 1 (°C)	-0,37T ext. ref 2 (°C)	-0,38length (m)	temperature (°C)	Stokes	anti-Stokes-744,400	800,000	-0,103	-0,296
-743,385	-200,000	-0,056	0,328
-742,371	151,140	-0,201	-0,200
-741,356	-200,000	0,061	0,475
-740,342	-200,000	-0,005	-0,205
-739,327	800,000	-0,103	0,239
-738,312	800,000	-0,049	-0,142
-737,298	-200,000	-0,025	0,200
-736,283	426,763	-0,193	-0,304
-735,269	-200,000	-0,002	0,322
-734,254	318,192	-0,245	-0,339
-733,239	295,802	-0,125	0,168
-732,225	126,784	-0,181	-0,167
-731,210	-200,000	0,006	0,152
-730,196	-69,614	-0,186	0,051
-729,181	-200,000	-0,006	0,062
-728,167	-123,983	-0,072	-0,008
-727,152	-29,586	-0,195	-0,081
-726,137	658,662	0,095	-0,178
-725,123	89,039	-0,134	0,109
-724,108	-102,883	-0,178	0,030
-723,094	673,911	-0,015	-0,029
-722,079	352,660	-0,062	-0,090
-721,064	26,919	0,117	-0,071
-720,050	24,195	-0,031	-0,018
-719,035	800,000	0,065	-0,135
-718,021	16,274	-0,145	-0,083
-717,006	-16,173	-0,045	-0,021
-715,991	93,105	-0,119	-0,098
-714,977	800,000	0,006	-0,015
-713,962	108,891	0,040	0,035
-712,948	-200,000	0,018	0,102
-711,933	446,138	-0,040	0,064
-710,918	-130,327	-0,169	0,016
-709,904	-70,037	-0,093	-0,026
-708,889	800,000	-0,020	-0,059
-707,875	93,776	-0,011	-0,009
-706,860	153,074	-0,044	-0,044
-705,845	196,991	0,067	-0,075
-704,831	142,960	-0,053	-0,051
-703,816	-200,000	-0,005	0,038
-702,802	-78,970	-0,153	-0,038
-701,787	6,586	-0,106	-0,057
-700,772	717,431	-0,074	-0,144
-699,758	-64,174	-0,139	0,041
-698,743	51,202	0,158	0,109
-697,729	63,917	0,030	0,022
-696,714	227,121	0,024	0,028
-695,699	-134,873	0,080	-0,007
-694,685	-200,000	-0,001	-0,117
-693,670	116,744	-0,140	-0,125
-692,656	497,884	-0,044	-0,074
-691,641	2,804	0,020	0,010
-690,627	-200,000	0,015	-0,098
-689,612	-54,407	-0,182	0,059
-688,597	76,801	0,053	-0,041
-687,583	-119,090	-0,169	-0,021
-686,568	-64,658	-0,035	-0,010
-685,554	800,000	0,015	-0,033
-684,539	-200,000	0,132	0,000
-683,524	510,893	0,046	0,078
-682,510	172,659	0,022	-0,023
-681,495	600,396	-0,083	-0,150
-680,481	138,971	-0,109	-0,104
-679,466	800,000	-0,027	-0,083
-678,451	-200,000	-0,029	0,099
-677,437	-70,195	0,137	0,037
-676,422	-86,335	-0,052	0,011
-675,408	82,988	-0,072	0,057
-674,393	800,000	-0,023	-0,067
-673,378	-6,001	-0,049	-0,024
-672,364	-200,000	0,003	-0,189
-671,349	-200,000	-0,005	-0,106
-670,335	800,000	0,013	-0,029
-669,320	-6,325	-0,061	0,030
-668,305	32,492	-0,029	-0,018
-667,291	91,355	0,062	0,050
-666,276	597,629	-0,071	-0,128
-665,262	800,000	0,014	0,029
-664,247	800,000	-0,060	-0,135
-663,232	-200,000	0,010	0,117
-662,218	800,000	0,006	-0,017
-661,203	-48,264	-0,041	0,014
-660,189	-200,000	-0,012	-0,048
-659,174	800,000	0,017	0,042
-658,159	253,460	-0,062	-0,077
-657,145	-85,360	-0,038	0,009
-656,130	-200,000	-0,012	-0,120
-655,116	-200,000	0,018	0,139
-654,101	140,798	0,059	0,057
-653,086	18,508	-0,150	-0,087
-652,072	-200,000	-0,022	-0,109
-651,057	78,721	-0,122	-0,094
-650,043	52,476	-0,132	-0,092
-649,028	41,425	-0,002	0,002
-648,014	-68,793	0,152	0,042
-646,999	-133,322	0,099	-0,009
-645,984	94,943	0,064	0,053
-644,970	-64,390	-0,116	-0,034
-643,955	-200,000	0,038	-0,182
-642,941	-67,335	-0,082	-0,023
-641,926	14,691	-0,096	0,054
-640,911	311,653	0,036	-0,050
-639,897	-85,529	-0,118	0,026
-638,882	11,341	-0,127	0,070
-637,868	-200,000	-0,007	-0,028
-636,853	34,891	-0,079	0,050
-635,838	-200,000	-0,021	-0,175
-634,824	158,705	-0,072	-0,073
-633,809	-200,000	0,035	0,122
-632,795	313,257	0,115	0,158
-631,780	140,559	-0,097	-0,093
-630,765	800,000	0,038	0,121
-629,751	800,000	-0,013	-0,039
-628,736	301,757	0,046	-0,062
-627,722	188,154	0,038	-0,041
-626,707	-73,991	0,105	0,028
-625,692	23,092	0,113	-0,067
-624,678	66,457	-0,147	0,108
-623,663	-181,083	-0,161	0,002
-622,649	421,493	0,018	-0,029
-621,634	800,000	-0,025	0,071
-620,619	-97,783	-0,051	0,009
-619,605	800,000	-0,035	-0,072
-618,590	173,090	-0,029	0,030
-617,576	-200,000	-0,023	-0,105
-616,561	-39,461	0,086	-0,033
-615,546	390,560	-0,040	0,060
-614,532	269,884	-0,029	-0,037
-613,517	-200,000	-0,007	0,051
-612,503	800,000	-0,038	0,085
-611,488	61,583	0,020	-0,015
-610,474	-2,942	0,056	0,028
-609,459	195,220	-0,029	-0,032
-608,444	-31,657	-0,058	-0,024
-607,430	217,453	-0,036	-0,042
-606,415	-146,670	-0,080	0,005
-605,401	-200,000	-0,004	-0,028
-604,386	-150,088	0,012	-0,001
-603,371	0,594	0,008	-0,004
-602,357	-13,368	0,108	0,050
-601,342	-107,132	-0,023	0,004
-600,328	-75,567	-0,166	-0,042
-599,313	800,000	0,022	-0,048
-598,298	800,000	0,020	-0,050
-597,284	508,145	-0,017	0,028
-596,269	-200,000	-0,005	-0,034
-595,255	200,768	-0,074	0,082
-594,240	-200,000	-0,018	0,148
-593,225	49,274	-0,097	-0,066
-592,211	295,394	-0,020	-0,027
-591,196	-73,182	-0,062	-0,016
-590,182	101,430	0,033	0,028
-589,167	56,019	0,026	0,019
-588,152	800,000	0,039	0,084
-587,138	454,672	0,050	0,081
-586,123	-122,955	0,044	0,005
-585,109	287,859	-0,084	-0,111
-584,094	800,000	0,007	0,019
-583,079	-193,771	0,220	0,001
-582,065	44,836	-0,045	-0,030
-581,050	800,000	0,030	0,066
-580,036	-91,352	-0,033	0,007
-579,021	-74,647	0,080	0,021
-578,006	33,036	-0,148	-0,093
-576,992	-7,183	-0,113	-0,055
-575,977	-128,364	0,043	0,004
-574,963	-200,000	0,012	0,080
-573,948	-114,118	-0,084	-0,012
-572,934	58,171	-0,096	0,068
-571,919	-91,718	-0,130	0,027
-570,904	-200,000	0,002	0,020
-569,890	-24,951	0,099	-0,042
-568,875	77,908	0,120	0,093
-567,861	-109,099	-0,094	-0,014
-566,846	-73,314	0,117	0,031
-565,831	570,765	-0,039	0,069
-564,817	434,823	-0,024	0,038
-563,802	446,607	0,049	-0,077
-562,788	-200,000	0,005	-0,020
-561,773	596,573	0,034	-0,061
-560,758	-200,000	-0,005	-0,101
-559,744	44,733	0,067	0,045
-558,729	-62,332	-0,112	-0,033
-557,715	326,195	0,025	0,034
-556,700	800,000	-0,068	-0,192
-555,685	-200,000	0,022	-0,094
-554,671	-16,617	0,008	-0,004
-553,656	122,906	0,184	0,166
-552,642	142,494	-0,045	0,044
-551,627	54,493	-0,045	-0,031
-550,612	785,900	0,038	-0,076
-549,598	-38,291	0,079	-0,030
-548,583	800,000	0,028	0,084
-547,569	-200,000	-0,011	0,071
-546,554	165,273	0,061	-0,063
-545,539	81,578	-0,072	0,056
-544,525	-200,000	0,005	0,099
-543,510	800,000	-0,038	0,083
-542,496	-19,417	-0,121	0,054
-541,481	-84,314	-0,135	-0,031
-540,466	-58,707	0,088	-0,028
-539,452	800,000	0,027	0,056
-538,437	-200,000	0,022	0,104
-537,423	-200,000	0,007	0,101
-536,408	169,757	-0,059	-0,061
-535,393	-200,000	-0,003	-0,115
-534,379	800,000	0,015	0,037
-533,364	-200,000	0,001	0,019
-532,350	234,308	0,051	-0,061
-531,335	72,625	0,117	-0,088
-530,321	-200,000	0,001	0,086
-529,306	-94,319	0,092	-0,018
-528,291	-30,491	-0,065	-0,027
-527,277	-200,000	0,008	-0,035
-526,262	113,936	0,037	0,033
-525,248	-200,000	-0,005	0,019
-524,233	-2,311	0,066	0,033
-523,218	800,000	-0,032	0,095
-522,204	800,000	-0,028	-0,057
-521,189	-132,964	-0,169	-0,015
-520,175	89,921	-0,146	-0,118
-519,160	183,669	0,042	0,045
-518,145	-0,065	0,108	0,056
-517,131	-174,223	-0,116	-0,002
-516,116	800,000	-0,026	0,054
-515,102	43,181	0,069	0,045
-514,087	-200,000	0,037	-0,124
-513,072	74,355	0,085	-0,065
-512,058	453,843	-0,028	0,044
-511,043	352,567	-0,032	-0,045
-510,029	138,443	0,007	-0,007
-509,014	-107,436	-0,087	-0,014
-507,999	657,012	0,035	0,065
-506,985	591,124	0,013	-0,023
-505,970	293,784	-0,047	-0,062
-504,956	-146,625	0,137	-0,008
-503,941	224,298	0,016	-0,018
-502,926	-45,310	0,132	-0,047
-501,912	548,584	-0,019	-0,033
-500,897	480,262	0,054	0,089
-499,883	-102,802	0,066	0,011
-498,868	-166,171	-0,090	0,003
-497,853	-200,000	0,137	0,000
-496,839	800,000	0,064	-0,141
-495,824	-75,210	0,113	0,029
-494,810	-195,586	0,146	0,001
-493,795	800,000	-0,027	0,069
-492,781	295,504	-0,081	-0,108
-491,766	92,533	-0,075	0,061
-490,751	279,143	0,039	-0,051
-489,737	-10,012	-0,041	-0,020
-488,722	-77,397	-0,022	0,005
-487,708	19,557	0,112	0,065
-486,693	-0,659	0,072	-0,037
-485,678	599,546	-0,075	-0,135
-484,664	800,000	-0,021	-0,061
-483,649	-200,000	-0,008	0,034
-482,635	392,865	0,101	-0,152
-481,620	-7,209	0,106	0,051
-480,605	800,000	0,014	0,045
-479,591	800,000	-0,020	0,059
-478,576	-31,409	0,094	0,038
-477,562	48,276	-0,089	0,060
-476,547	218,069	-0,131	0,151
-475,532	-110,408	0,038	-0,006
-474,518	-200,000	-0,007	-0,105
-473,503	190,578	0,112	-0,121
-472,489	372,782	0,102	0,150
-471,474	-46,111	0,017	-0,006
-470,459	135,890	-0,052	-0,049
-469,445	110,866	-0,058	-0,051
-468,430	-200,000	0,005	0,064
-467,416	-25,775	-0,121	0,051
-466,401	0,407	-0,071	0,036
-465,386	-16,178	0,162	0,074
-464,372	-70,504	-0,033	0,009
-463,357	594,042	-0,067	-0,120
-462,343	-123,186	-0,114	0,013
-461,328	-200,000	0,021	-0,141
-460,313	230,016	-0,053	-0,063
-459,299	38,182	0,067	-0,043
-458,284	244,305	-0,054	0,066
-457,270	-200,000	0,015	-0,064
-456,255	-200,000	-0,011	-0,053
-455,241	-200,000	0,029	-0,103
-454,226	800,000	-0,034	-0,097
-453,211	-131,049	0,038	0,004
-452,197	-8,196	0,066	0,032
-451,182	-200,000	0,010	-0,034
-450,168	-85,982	0,014	-0,003
-449,153	-98,354	0,050	-0,009
-448,138	47,164	-0,072	-0,048
-447,124	-145,069	0,037	-0,002
-446,109	800,000	-0,025	-0,063
-445,095	-200,000	0,020	-0,107
-444,080	218,007	-0,046	0,053
-443,065	-200,000	0,011	0,081
-442,051	-63,858	-0,084	0,025
-441,036	265,764	0,056	-0,071
-440,022	-46,531	-0,185	-0,065
-439,007	-128,005	0,102	-0,010
-437,992	-171,518	0,041	0,001
-436,978	202,689	0,092	0,103
-435,963	-163,301	-0,045	-0,002
-434,949	152,584	-0,065	-0,064
-433,934	88,481	-0,144	-0,115
-432,919	143,666	0,081	-0,077
-431,905	800,000	-0,034	-0,094
-430,890	-200,000	0,000	-0,030
-429,876	247,131	0,072	0,088
-428,861	800,000	0,070	0,177
-427,846	800,000	-0,025	-0,052
-426,832	800,000	-0,066	-0,151
-425,817	42,940	0,094	-0,062
-424,803	402,728	-0,116	-0,176
-423,788	-101,322	-0,120	-0,021
-422,773	-200,000	0,010	0,100
-421,759	460,607	-0,038	0,061
-420,744	69,303	-0,086	-0,064
-419,730	44,353	-0,068	-0,045
-418,715	-195,858	-0,063	-0,000
-417,701	-192,370	0,051	-0,000
-416,686	507,594	0,066	0,110
-415,671	-157,341	-0,045	0,002
-414,657	559,851	0,011	-0,020
-413,642	-200,000	-0,016	-0,071
-412,628	-156,593	0,029	-0,001
-411,613	800,000	-0,051	-0,112
-410,598	800,000	-0,026	-0,077
-409,584	800,000	0,054	0,128
-408,569	-200,000	0,024	0,079
-407,555	-92,753	-0,008	-0,002
-406,540	-89,022	-0,031	0,007
-405,525	-7,694	-0,074	0,036
-404,511	206,996	-0,066	-0,075
-403,496	-200,000	-0,023	-0,108
-402,482	800,000	0,038	-0,107
-401,467	-200,000	-0,012	-0,077
-400,452	800,000	-0,039	0,101
-399,438	83,623	0,117	0,092
-398,423	-200,000	-0,023	0,076
-397,409	-113,594	0,107	-0,015
-396,394	147,056	0,041	-0,040
-395,379	168,487	0,074	-0,076
-394,365	-200,000	0,005	-0,055
-393,350	-200,000	-0,014	-0,126
-392,336	148,373	0,071	0,068
-391,321	-200,000	-0,024	-0,078
-390,306	81,720	0,078	-0,060
-389,292	-200,000	0,002	-0,060
-388,277	800,000	0,055	-0,139
-387,263	800,000	0,061	-0,125
-386,248	76,017	-0,057	0,043
-385,233	800,000	-0,026	0,060
-384,219	-200,000	-0,011	-0,040
-383,204	13,241	-0,121	-0,067
-382,190	305,771	-0,085	-0,114
-381,175	-76,819	-0,061	-0,015
-380,160	-200,000	-0,010	-0,064
-379,146	-13,225	0,108	-0,050
-378,131	84,350	-0,039	-0,030
-377,117	419,989	-0,097	0,149
-376,102	53,818	-0,071	-0,049
-375,088	-200,000	-0,007	-0,126
-374,073	800,000	-0,039	-0,118
-373,058	207,169	0,076	-0,086
-372,044	-12,277	-0,093	-0,044
-371,029	-200,000	0,001	0,058
-370,015	-70,097	0,053	-0,014
-369,000	-110,431	-0,131	-0,019
-367,985	-150,686	0,093	0,005
-366,971	-200,000	0,011	0,069
-365,956	-60,398	-0,061	-0,019
-364,942	-23,945	0,074	-0,032
-363,927	800,000	0,090	0,238
-362,912	-200,000	-0,019	0,138
-361,898	71,236	0,103	-0,076
-360,883	800,000	-0,055	-0,124
-359,869	-200,000	-0,014	-0,115
-358,854	-54,243	-0,069	0,022
-357,839	-73,994	0,123	0,032
-356,825	-200,000	-0,022	-0,082
-355,810	-200,000	-0,002	0,034
-354,796	90,644	0,079	-0,063
-353,781	19,172	-0,111	0,064
-352,766	85,709	-0,048	0,038
-351,752	-29,798	0,045	0,018
-350,737	800,000	0,041	0,082
-349,723	-200,000	-0,005	0,030
-348,708	719,825	-0,047	0,090
-347,693	61,271	-0,041	0,029
-346,679	-151,349	0,101	-0,005
-345,664	-156,427	0,105	-0,005
-344,650	800,000	-0,033	0,097
-343,635	252,434	0,041	0,050
-342,620	264,261	-0,046	0,057
-341,606	314,458	0,095	0,129
-340,591	-200,000	-0,006	-0,048
-339,577	800,000	-0,014	0,035
-338,562	-110,099	-0,090	-0,013
-337,548	-57,470	-0,030	0,010
-336,533	-67,282	0,174	0,049
-335,518	708,441	0,058	0,110
-334,504	-5,400	-0,051	0,025
-333,489	36,680	-0,031	-0,019
-332,475	336,650	-0,101	0,141
-331,460	-103,885	0,033	0,006
-330,445	79,081	-0,070	0,054
-329,431	700,871	0,047	0,089
-328,416	120,487	0,137	0,122
-327,402	-32,042	-0,020	0,008
-326,387	774,692	0,060	0,119
-325,372	-200,000	-0,030	-0,153
-324,358	-200,000	0,028	-0,100
-323,343	-53,970	0,055	-0,018
-322,329	357,653	0,056	-0,080
-321,314	74,332	-0,097	0,073
-320,299	-200,000	-0,006	0,061
-319,285	-138,949	-0,110	0,008
-318,270	416,169	0,038	-0,058
-317,256	800,000	-0,026	-0,066
-316,241	-200,000	0,000	0,017
-315,226	-65,254	0,092	0,026
-314,212	260,966	0,050	0,062
-313,197	-200,000	-0,030	-0,101
-312,183	800,000	0,041	0,096
-311,168	248,068	-0,052	-0,063
-310,153	308,062	-0,095	-0,128
-309,139	147,587	-0,083	-0,081
-308,124	224,380	0,016	0,019
-307,110	229,088	0,131	0,153
-306,095	-200,000	0,010	0,041
-305,080	-46,706	0,031	-0,011
-304,066	-200,000	-0,018	0,107
-303,051	800,000	-0,010	-0,026
-302,037	-200,000	0,006	-0,073
-301,022	-71,749	-0,061	-0,016
-300,008	-27,510	0,141	0,059
-298,993	800,000	-0,053	0,112
-297,978	-200,000	0,042	0,176
-296,964	-200,000	0,002	0,012
-295,949	366,193	-0,022	-0,031
-294,935	-83,662	-0,097	-0,022
-293,920	-21,074	0,173	-0,075
-292,905	-46,061	0,058	0,020
-291,891	-104,943	0,060	0,010
-290,876	32,571	-0,064	0,040
-289,862	42,276	0,080	-0,052
-288,847	-85,001	0,058	0,013
-287,832	800,000	-0,024	0,061
-286,818	-12,594	0,049	-0,023
-285,803	204,494	0,136	0,151
-284,789	99,240	0,109	0,090
-283,774	-200,000	0,000	-0,069
-282,759	800,000	-0,021	-0,054
-281,745	-200,000	-0,012	-0,083
-280,730	565,665	0,012	0,022
-279,716	-200,000	-0,018	-0,095
-278,701	-200,000	0,008	0,061
-277,686	-69,661	0,144	-0,039
-276,672	137,344	0,039	0,037
-275,657	128,918	-0,103	0,094
-274,643	-200,000	0,011	-0,086
-273,628	800,000	-0,039	-0,110
-272,613	-200,000	-0,040	-0,180
-271,599	-63,753	0,032	-0,009
-270,584	431,150	-0,030	-0,046
-269,570	-112,118	0,025	0,004
-268,555	800,000	0,044	0,125
-267,540	793,650	0,073	-0,144
-266,526	250,994	-0,079	-0,096
-265,511	-58,920	0,089	-0,027
-264,497	61,634	0,037	0,026
-263,482	-200,000	0,014	0,264
-262,467	-125,676	0,090	-0,010
-261,453	-200,000	-0,018	0,076
-260,438	-200,000	-0,020	-0,131
-259,424	-200,000	0,002	-0,057
-258,409	-30,572	-0,022	-0,009
-257,395	664,833	-0,050	-0,093
-256,380	-200,000	0,004	0,065
-255,365	438,625	-0,117	0,183
-254,351	108,019	0,056	0,048
-253,336	-113,259	-0,034	0,005
-252,322	-102,268	-0,031	-0,005
-251,307	-94,214	-0,018	0,004
-250,292	-200,000	0,030	0,100
-249,278	-157,273	0,142	0,006
-248,263	177,277	0,060	0,062
-247,249	800,000	-0,051	0,113
-246,234	800,000	0,036	0,101
-245,219	502,278	0,033	-0,055
-244,205	143,150	0,009	0,009
-243,190	164,585	0,061	0,061
-242,176	172,925	-0,074	0,076
-241,161	312,981	0,093	0,125
-240,146	599,023	-0,027	0,047
-239,132	-9,978	0,107	-0,050
-238,117	-86,559	-0,097	0,021
-237,103	52,498	0,063	-0,043
-236,088	-200,000	0,051	0,184
-235,073	-63,629	-0,106	0,031
-234,059	-200,000	0,023	-0,084
-233,044	800,000	-0,017	-0,040
-232,030	183,382	-0,114	0,121
-231,015	-75,206	0,198	-0,050
-230,000	-200,000	-0,012	0,050
-228,986	-48,183	0,094	0,032
-227,971	-200,000	0,004	0,040
-226,957	-200,000	0,008	0,137
-225,942	800,000	-0,050	0,145
-224,927	-123,749	0,076	-0,008
-223,913	49,101	0,086	0,057
-222,898	82,443	-0,135	-0,104
-221,884	-69,256	0,079	0,021
-220,869	52,320	0,068	-0,046
-219,855	-200,000	-0,000	0,008
-218,840	159,608	0,081	0,080
-217,825	89,170	-0,086	-0,068
-216,811	800,000	0,092	-0,208
-215,796	26,458	-0,146	0,087
-214,782	800,000	-0,034	-0,089
-213,767	800,000	0,035	-0,072
-212,752	53,800	0,041	0,028
-211,738	430,748	0,062	0,096
-210,723	-51,478	0,017	-0,006
-209,709	-200,000	-0,001	0,107
-208,694	-200,000	-0,000	0,045
-207,679	800,000	0,026	-0,067
-206,665	-11,704	0,104	-0,048
-205,650	221,705	0,075	-0,086
-204,636	-200,000	0,007	0,028
-203,621	118,707	-0,077	-0,068
-202,606	-47,774	-0,159	0,055
-201,592	-33,707	-0,035	-0,014
-200,577	-172,199	-0,130	0,003
-199,563	-200,000	0,003	0,009
-198,548	-194,374	0,095	0,001
-197,533	-145,900	-0,137	-0,009
-196,519	289,205	0,090	0,117
-195,504	-150,962	-0,079	-0,004
-194,490	456,304	0,033	0,053
-193,475	322,467	-0,078	-0,106
-192,460	139,926	0,123	-0,115
-191,446	87,895	0,010	0,008
-190,431	-0,667	-0,043	0,022
-189,417	-200,000	-0,019	0,151
-188,402	-192,295	0,035	-0,000
-187,387	-41,778	-0,115	-0,042
-186,373	-91,857	-0,129	0,026
-185,358	800,000	0,028	-0,075
-184,344	-177,014	-0,056	-0,001
-183,329	191,652	-0,042	-0,045
-182,315	-200,000	0,006	0,040
-181,300	49,051	0,063	0,042
-180,285	-77,093	-0,074	-0,018
-179,271	239,501	-0,019	0,023
-178,256	800,000	-0,016	-0,039
-177,242	264,162	0,049	0,061
-176,227	750,978	0,030	0,057
-175,212	-173,678	0,051	-0,001
-174,198	100,908	-0,124	0,103
-173,183	-38,761	-0,073	0,027
-172,169	-124,402	-0,107	-0,012
-171,154	-200,000	-0,012	0,048
-170,139	-29,765	-0,088	-0,036
-169,125	800,000	0,048	0,122
-168,110	183,226	0,074	0,078
-167,096	-96,764	0,085	-0,016
-166,081	-200,000	-0,035	-0,216
-165,066	-131,407	0,049	0,005
-164,052	-119,404	-0,029	-0,004
-163,037	71,975	0,020	0,015
-162,023	9,419	-0,010	0,005
-161,008	-43,863	-0,099	0,035
-159,993	173,285	-0,084	-0,086
-158,979	-0,287	-0,102	0,052
-157,964	26,332	-0,063	-0,037
-156,950	264,592	-0,079	-0,099
-155,935	-75,630	-0,044	-0,011
-154,920	391,102	0,091	0,135
-153,906	9,949	0,046	-0,025
-152,891	8,084	-0,113	-0,060
-151,877	-121,817	0,070	0,008
-150,862	159,362	0,064	-0,063
-149,847	309,350	-0,043	-0,057
-148,833	742,365	0,089	0,171
-147,818	-200,000	-0,012	-0,048
-146,804	62,922	0,028	-0,020
-145,789	-200,000	-0,007	-0,127
-144,775	536,432	-0,027	0,046
-143,760	-200,000	-0,023	-0,088
-142,745	169,168	-0,061	-0,062
-141,731	-200,000	-0,001	-0,090
-140,716	51,739	-0,103	0,069
-139,702	-200,000	0,005	0,033
-138,687	800,000	-0,073	-0,147
-137,672	20,822	-0,110	0,063
-136,658	169,244	-0,095	-0,096
-135,643	-126,629	-0,098	0,010
-134,629	194,653	-0,066	-0,071
-133,614	6,398	0,054	0,028
-132,599	-158,717	-0,073	-0,003
-131,585	555,050	0,063	-0,108
-130,570	78,463	-0,048	0,037
-129,556	613,692	-0,064	-0,115
-128,541	22,921	-0,058	-0,034
-127,526	506,742	0,075	0,124
-126,512	-1,792	-0,110	0,055
-125,497	704,558	0,058	0,110
-124,483	-200,000	0,001	0,082
-123,468	800,000	-0,056	0,112
-122,453	-200,000	0,036	0,149
-121,439	438,169	-0,069	-0,107
-120,424	486,022	-0,013	-0,021
-119,410	-54,305	0,097	-0,031
-118,395	83,966	0,105	0,081
-117,380	-124,591	0,120	0,013
-116,366	70,845	-0,085	-0,063
-115,351	102,803	-0,091	-0,076
-114,337	143,472	-0,099	-0,094
-113,322	530,129	0,045	0,075
-112,307	-200,000	-0,002	-0,117
-111,293	191,973	0,038	-0,041
-110,278	800,000	-0,029	0,062
-109,264	-138,890	0,065	-0,005
-108,249	-42,952	-0,079	0,028
-107,234	-159,721	-0,009	-0,000
-106,220	-200,000	-0,010	-0,071
-105,205	800,000	0,069	0,152
-104,191	126,325	-0,055	0,050
-103,176	800,000	0,003	0,010
-102,162	693,695	-0,028	-0,053
-101,147	50,865	-0,152	0,102
-100,132	800,000	0,022	0,051
-99,118	780,715	0,081	-0,158
-98,103	-37,381	-0,094	0,035
-97,089	140,642	0,109	-0,102
-96,074	96,327	-0,099	0,080
-95,059	198,522	0,095	-0,104
-94,045	-14,948	0,089	-0,040
-93,030	-200,000	-0,036	0,139
-92,016	170,574	-0,009	0,009
-91,001	12,272	-0,048	0,026
-89,986	800,000	0,046	0,100
-88,972	319,069	0,116	0,156
-87,957	-200,000	0,035	-0,118
-86,943	-200,000	-0,030	-0,105
-85,928	-50,917	0,180	-0,060
-84,913	-131,031	-0,009	-0,001
-83,899	59,431	-0,071	-0,050
-82,884	146,338	0,040	0,038
-81,870	800,000	0,061	0,123
-80,855	73,758	0,085	-0,064
-79,840	484,311	0,039	-0,063
-78,826	205,735	0,044	0,048
-77,811	-79,855	-0,080	-0,019
-76,797	-200,000	-0,001	-0,127
-75,782	35,052	-0,128	-0,080
-74,767	99,303	0,109	-0,089
-73,753	193,611	0,066	0,071
-72,738	19,398	-0,026	0,015
-71,724	498,029	-0,021	-0,035
-70,709	477,168	-0,084	0,135
-69,694	36,906	-0,092	-0,058
-68,680	-200,000	-0,014	0,061
-67,665	800,000	-0,015	0,040
-66,651	-140,778	0,159	-0,011
-65,636	-200,000	-0,004	-0,192
-64,622	-128,998	-0,063	0,006
-63,607	262,883	0,052	-0,065
-62,592	419,140	-0,059	0,089
-61,578	800,000	0,022	-0,066
-60,563	-200,000	-0,013	-0,048
-59,549	-33,854	0,081	0,032
-58,534	-73,685	-1,534	-0,393
-57,519	344,968	-1,653	-2,308
-56,505	-200,000	-0,616	-4,417
-55,490	182,810	0,813	0,852
-54,476	800,000	4,870	11,263
-53,461	-200,000	18,352	286,441
-52,446	800,000	727,203	2227,710
-51,432	556,754	1642,778	2817,826
-50,417	79,305	1664,349	1263,836
-49,403	22,977	1537,893	891,974
-48,388	16,922	1461,359	818,247
-47,373	17,914	1451,115	817,258
-46,359	17,333	1441,570	809,068
-45,344	15,204	1436,626	796,095
-44,330	15,166	1434,987	794,977
-43,315	15,190	1433,111	794,018
-42,300	15,176	1431,529	793,043
-41,286	15,190	1430,411	792,459
-40,271	15,191	1429,142	791,733
-39,257	15,183	1427,928	790,991
-38,242	15,228	1426,530	790,398
-37,227	15,212	1425,438	789,685
-36,213	15,184	1424,000	788,726
-35,198	15,206	1422,857	788,164
-34,184	15,217	1422,052	787,736
-33,169	15,161	1420,899	786,805
-32,154	15,231	1419,848	786,522
-31,140	15,224	1418,358	785,630
-30,125	15,282	1417,184	785,225
-29,111	15,249	1415,972	784,366
-28,096	15,223	1414,947	783,642
-27,082	15,140	1413,938	782,664
-26,067	15,090	1412,898	781,824
-25,052	15,123	1411,816	781,348
-24,038	15,091	1410,783	780,597
-23,023	15,119	1410,019	780,272
-22,009	15,111	1408,932	779,600
-20,994	15,071	1407,932	778,831
-19,979	15,070	1406,839	778,191
-18,965	15,050	1405,980	777,591
-17,950	15,038	1405,064	776,999
-16,936	15,038	1404,056	776,409
-15,921	15,036	1402,799	775,675
-14,906	15,023	1402,002	775,141
-13,892	15,091	1400,990	774,869
-12,877	15,078	1400,047	774,254
-11,863	15,093	1399,219	773,837
-10,848	15,007	1398,451	772,982
-9,833	14,998	1397,551	772,412
-8,819	14,971	1396,690	771,781
-7,804	14,944	1395,731	771,093
-6,790	14,916	1394,746	770,387
-5,775	14,951	1393,539	769,854
-4,760	14,973	1392,678	769,448
-3,746	14,930	1391,971	768,831
-2,731	14,909	1391,096	768,219
-1,717	14,930	1390,303	767,849
-0,702	14,930	1388,289	766,706
0,313	18,723	1307,866	739,854
1,327	35,110	706,945	437,941
2,342	53,860	124,807	84,831
3,356	2,281	16,790	8,574
4,371	5,560	3,121	1,628
5,386	-62,495	0,556	0,163
6,400	800,000	0,095	0,268
7,415	-89,735	-0,244	-0,050
8,429	53,169	-0,301	-0,204
9,444	-51,883	-0,428	-0,140
10,459	-44,552	-0,275	-0,097
11,473	-88,847	-0,261	-0,054
12,488	6,131	-0,418	-0,219
13,502	13,218	-0,307	-0,168
14,517	26,292	-0,313	-0,185
15,531	108,223	-0,245	-0,207
16,546	81,440	-0,302	-0,231
17,561	122,523	-0,291	-0,258
18,575	-53,461	-0,284	-0,091
19,590	90,558	-0,310	-0,245
20,604	-5,609	-0,330	-0,160
21,619	118,783	-0,387	-0,338
22,634	81,849	-0,457	-0,349
23,648	176,957	-0,472	-0,486
24,663	63,957	-0,284	-0,202
25,677	117,196	-0,314	-0,273
26,692	444,522	-0,291	-0,453
27,707	222,205	-0,235	-0,267
28,721	-51,664	-0,390	-0,128
29,736	-34,537	-0,432	-0,166
30,750	135,323	-0,356	-0,327
31,765	-10,735	-0,360	-0,168
32,780	98,663	-0,360	-0,293
33,794	97,738	-0,398	-0,323
34,809	84,370	-0,367	-0,283
35,823	-43,486	-0,329	-0,117
36,838	56,057	-0,404	-0,277
37,853	155,026	-0,273	-0,265
38,867	32,437	-0,506	-0,308
39,882	-46,142	-0,517	-0,179
40,896	-17,300	-0,399	-0,177
41,911	77,461	-0,249	-0,187
42,926	89,044	-0,257	-0,202
43,940	8,673	-0,557	-0,295
44,955	175,997	-0,315	-0,323
45,969	364,017	-0,232	-0,331
46,984	52,496	-0,266	-0,179
47,999	241,744	-0,272	-0,321
49,013	-5,464	-0,439	-0,212
50,028	129,097	-0,333	-0,300
51,042	-41,204	-0,297	-0,108
52,057	-144,939	-0,379	-0,024
53,071	87,209	-0,425	-0,331
54,086	127,184	-0,292	-0,261
55,101	170,515	-0,249	-0,251
56,115	222,904	-0,234	-0,266
57,130	103,878	-0,294	-0,243
58,144	-0,211	-0,380	-0,190
59,159	-22,593	-0,397	-0,169
60,174	-32,230	-0,399	-0,156
61,188	96,505	-0,346	-0,279
62,203	121,569	-0,371	-0,326
63,217	32,750	-0,277	-0,169
64,232	-62,283	-0,386	-0,113
65,247	54,712	-0,381	-0,259
66,261	63,295	-0,289	-0,204
67,276	-7,463	-0,369	-0,175
68,290	17,454	-0,288	-0,161
69,305	113,497	-0,352	-0,301
70,320	5,064	-0,396	-0,205
71,334	36,408	-0,288	-0,178
72,349	97,092	-0,326	-0,263
73,363	29,369	-0,343	-0,205
74,378	474,790	-0,238	-0,380
75,393	84,009	-0,278	-0,213
76,407	-9,068	-0,290	-0,136
77,422	84,358	-0,285	-0,219
78,436	25,890	-0,226	-0,132
79,451	-2,122	-0,404	-0,199
80,466	63,791	-0,258	-0,182
81,480	322,406	-0,290	-0,389
82,495	130,027	-0,269	-0,242
83,509	-41,936	-0,325	-0,116
84,524	7,570	-0,250	-0,131
85,539	31,969	-0,221	-0,134
86,553	56,609	-0,235	-0,160
87,568	32,642	-0,255	-0,155
88,582	52,238	-0,236	-0,158
89,597	61,261	-0,310	-0,216
90,611	-21,140	-0,254	-0,109
91,626	93,757	-0,334	-0,266
92,641	-26,757	-0,360	-0,147
93,655	45,773	-0,223	-0,145
94,670	144,083	-0,344	-0,323
95,684	118,774	-0,267	-0,232
96,699	318,754	-0,267	-0,356
97,714	42,722	-0,228	-0,146
98,728	-30,697	-0,227	-0,090
99,743	800,000	-0,083	-0,181
100,757	-34,788	-0,344	-0,131
101,772	54,973	-0,219	-0,148
102,787	474,389	-0,220	-0,350
103,801	54,231	-0,321	-0,216
104,816	66,279	-0,269	-0,192
105,830	67,848	-0,155	-0,111
106,845	-78,047	-0,326	-0,078
107,860	-26,506	-0,388	-0,159
108,874	-10,772	-0,340	-0,157
109,889	6,861	-0,284	-0,148
110,903	152,151	-0,266	-0,255
111,918	206,686	-0,178	-0,195
112,933	2,835	-0,413	-0,210
113,947	158,631	-0,261	-0,254
114,962	94,582	-0,303	-0,242
115,976	126,202	-0,248	-0,220
116,991	-15,590	-0,297	-0,132
118,006	2,395	-0,328	-0,166
119,020	-10,147	-0,185	-0,086
120,035	97,079	-0,197	-0,158
121,049	123,865	-0,144	-0,126
122,064	45,966	-0,178	-0,115
123,079	-68,588	-0,256	-0,069
124,093	320,823	-0,210	-0,281
125,108	-112,737	-0,321	-0,044
126,122	7,152	-0,249	-0,130
127,137	-64,474	-0,168	-0,048
128,151	34,506	-0,182	-0,111
129,166	273,157	-0,204	-0,253
130,181	-0,593	-0,250	-0,124
131,195	140,623	-0,230	-0,213
132,210	182,375	-0,223	-0,230
133,224	-67,933	-0,207	-0,056
134,239	-200,000	-0,074	-0,258
135,254	178,109	-0,201	-0,205
136,268	-93,421	-0,334	-0,064
137,283	-48,434	-0,257	-0,086
138,297	37,636	-0,209	-0,130
139,312	-15,564	-0,307	-0,137
140,327	393,051	-0,174	-0,255
141,341	56,115	-0,291	-0,197
142,356	-117,478	-0,198	0,025
143,370	77,244	-0,209	-0,156
144,385	35,987	-0,291	-0,179
145,400	32,255	-0,311	-0,187
146,414	143,514	-0,284	-0,265
147,429	35,321	-0,263	-0,161
148,443	-11,638	-0,325	-0,149
149,458	134,088	-0,291	-0,264
150,473	173,199	-0,228	-0,230
151,487	369,811	-0,182	-0,259
152,502	208,410	-0,266	-0,291
153,516	40,660	-0,345	-0,217
154,531	191,869	-0,177	-0,187
155,546	603,219	-0,157	-0,275
156,560	213,441	-0,175	-0,194
157,575	225,484	-0,173	-0,196
158,589	161,177	-0,112	-0,109
159,604	175,943	-0,144	-0,146
160,619	217,968	-0,300	-0,335
161,633	250,824	-0,271	-0,322
162,648	275,288	-0,183	-0,227
163,662	303,094	-0,113	-0,147
164,677	55,076	-0,209	-0,141
165,692	118,374	-0,130	-0,112
166,706	130,249	-0,124	-0,111
167,721	15,820	-0,192	-0,105
168,735	60,482	-0,252	-0,174
169,750	67,125	-0,213	-0,151
170,764	19,838	-0,325	-0,182
171,779	146,583	-0,174	-0,163
172,794	508,902	-0,083	-0,135
173,808	800,000	-0,131	-0,335
174,823	-57,946	-0,295	-0,089
175,837	382,884	-0,194	-0,279
176,852	205,313	-0,171	-0,186
177,867	100,983	-0,135	-0,110
178,881	127,743	-0,053	-0,047
179,896	174,456	-0,104	-0,105
180,910	-52,169	-0,178	-0,057
181,925	93,570	-0,221	-0,174
182,940	29,983	-0,230	-0,136
183,954	158,349	-0,184	-0,178
184,969	268,452	-0,127	-0,156
185,983	-50,411	-0,096	-0,032
186,998	-48,158	-0,244	-0,082
188,013	103,149	-0,180	-0,147
189,027	70,776	-0,154	-0,111
190,042	186,708	-0,168	-0,174
191,056	78,888	-0,266	-0,198
192,071	77,095	-0,149	-0,110
193,086	-152,442	-0,237	0,012
194,100	102,542	-0,088	-0,071
195,115	26,954	-0,256	-0,149
196,129	326,711	-0,116	-0,155
197,144	47,641	-0,253	-0,164
198,159	261,461	-0,270	-0,326
199,173	800,000	-0,071	-0,189
200,188	45,987	-0,222	-0,143
201,202	180,230	-0,201	-0,206
202,217	-37,005	-0,228	-0,085
203,232	-72,011	-0,192	-0,049
204,246	571,244	-0,088	-0,149
205,261	82,112	-0,237	-0,179
206,275	618,964	-0,130	-0,229
207,290	170,943	-0,179	-0,179
208,304	-26,382	-0,168	-0,068
209,319	-9,695	-0,248	-0,115
210,334	53,477	-0,186	-0,124
211,348	-12,407	-0,275	-0,124
212,363	181,851	-0,204	-0,209
213,377	-50,292	-0,227	-0,074
214,392	-154,598	-0,121	0,006
215,407	725,407	-0,094	-0,175
216,421	178,701	-0,164	-0,167
217,436	60,174	-0,210	-0,144
218,450	186,484	-0,204	-0,211
219,465	58,270	-0,148	-0,101
220,480	85,342	-0,153	-0,116
221,494	208,000	-0,084	-0,091
222,509	10,715	-0,193	-0,102
223,523	72,138	-0,256	-0,185
224,538	-18,063	-0,310	-0,135
225,553	141,167	-0,216	-0,199
226,567	-112,349	-0,265	-0,036
227,582	241,987	-0,240	-0,280
228,596	211,284	-0,160	-0,175
229,611	79,376	-0,093	-0,069
230,626	27,516	-0,178	-0,104
231,640	153,878	-0,234	-0,223
232,655	292,688	-0,155	-0,197
233,669	-200,000	-0,052	-0,198
234,684	-155,682	-0,237	-0,010
235,699	-95,746	-0,239	-0,044
236,713	625,520	-0,165	-0,290
237,728	-19,331	-0,120	-0,052
238,742	140,806	-0,220	-0,202
239,757	170,251	-0,195	-0,193
240,772	75,223	-0,239	-0,175
241,786	280,602	-0,119	-0,148
242,801	99,872	-0,169	-0,136
243,815	-61,491	-0,323	-0,094
244,830	-47,134	-0,135	-0,045
245,844	299,237	-0,160	-0,205
246,859	114,680	-0,267	-0,225
247,874	-73,652	-0,426	-0,107
248,888	54,742	-0,194	-0,130
249,903	-115,623	-0,201	-0,026
250,917	800,000	-0,061	-0,118
251,932	39,077	-0,136	0,084
252,947	46,667	-0,238	-0,153
253,961	108,474	-0,212	-0,175
254,976	277,219	-0,206	-0,254
255,990	281,310	-0,189	-0,235
257,005	113,760	-0,171	-0,144
258,020	54,656	-0,213	-0,142
259,034	-96,648	-0,297	-0,054
260,049	-9,271	-0,219	-0,101
261,063	229,497	-0,134	-0,151
262,078	145,410	-0,136	-0,126
263,093	83,934	-0,111	-0,084
264,107	-19,214	-0,232	-0,099
265,122	38,848	-0,207	-0,128
266,136	27,847	-0,204	-0,119
267,151	-6,491	-0,194	-0,091
268,166	-200,000	-0,097	-0,000
269,180	173,662	-0,172	-0,172
270,195	277,986	-0,203	-0,250
271,209	125,039	-0,241	-0,210
272,224	136,239	-0,133	-0,120
273,239	130,446	-0,126	-0,112
274,253	353,140	-0,069	-0,095
275,268	70,388	-0,214	-0,153
276,282	162,707	-0,198	-0,192
277,297	403,994	-0,176	-0,258
278,312	245,025	-0,133	-0,155
279,326	643,244	-0,144	-0,254
280,341	23,229	-0,093	-0,053
281,355	-27,162	-0,069	-0,028
282,370	-160,233	-0,212	0,008
283,384	-76,518	-0,220	-0,053
284,399	800,000	-0,061	-0,145
285,414	-56,570	-0,227	-0,069
286,428	-75,889	-0,124	-0,030
287,443	-35,842	-0,171	-0,064
288,457	32,108	-0,150	-0,089
289,472	-59,987	-0,182	-0,053
290,487	113,850	-0,130	-0,109
291,501	128,483	-0,120	-0,105
292,516	-82,699	-0,129	0,029
293,530	-30,385	-0,121	-0,047
294,545	81,016	-0,165	-0,123
295,560	-47,991	-0,240	-0,080
296,574	-129,066	-0,136	-0,013
297,589	131,663	-0,111	-0,099
298,603	306,071	-0,224	-0,288
299,618	204,947	-0,240	-0,257
300,633	800,000	-0,074	-0,151
301,647	252,583	-0,068	-0,081
302,662	-72,158	-0,233	-0,059
303,676	227,952	-0,145	-0,163
304,691	-135,928	-0,230	0,018
305,706	551,792	-0,095	-0,157
306,720	165,194	-0,088	-0,086
307,735	-200,000	-0,046	-0,177
308,749	-70,745	-0,147	-0,038
309,764	-50,256	-0,072	-0,023
310,779	-200,000	-0,068	-0,208
311,793	-82,568	-0,203	-0,045
312,808	400,477	-0,166	-0,240
313,822	218,949	-0,194	-0,214
314,837	119,986	-0,134	-0,114
315,852	-4,523	-0,141	-0,067
316,866	-70,975	-0,107	-0,028
317,881	-24,762	-0,107	-0,044
318,895	-124,911	-0,096	-0,010
319,910	250,912	-0,170	-0,200
320,925	-200,000	-0,025	-0,177
321,939	94,765	-0,113	-0,089
322,954	431,839	0,060	-0,090
323,968	80,279	-0,078	-0,058
324,983	-70,945	-0,111	-0,029
325,997	-108,368	-0,086	-0,013
327,012	-54,721	-0,115	0,036
328,027	242,874	-0,123	-0,142
329,041	406,501	-0,117	-0,171
330,056	202,056	-0,127	-0,135
331,070	125,436	-0,056	-0,048
332,085	-200,000	-0,014	-0,103
333,100	134,923	-0,125	-0,112
334,114	565,963	-0,103	-0,173
335,129	439,446	-0,125	-0,188
336,143	-126,752	-0,172	0,017
337,158	45,458	-0,071	-0,045
338,173	-46,618	-0,254	0,085
339,187	-200,000	-0,025	-0,077
340,202	0,352	-0,211	-0,103
341,216	-178,662	-0,260	-0,004
342,231	800,000	-0,090	-0,174
343,246	230,961	-0,147	-0,166
344,260	93,858	-0,089	-0,069
345,275	-23,286	-0,066	0,027
346,289	347,618	-0,091	-0,124
347,304	-20,381	-0,236	-0,099
348,319	-13,174	-0,076	-0,034
349,333	800,000	-0,143	-0,280
350,348	81,289	-0,201	-0,149
351,362	405,139	0,027	-0,039
352,377	485,952	-0,082	-0,128
353,392	800,000	-0,026	-0,058
354,406	290,962	-0,157	-0,196
355,421	209,676	1311,854	1414,701
356,435	161,382	1472,260	1415,213
