DTS Sentinel unit serial number:	SN410029Multiplexer serial number:	ORYXHardware model number:	OX2-SRSoftware version number:	ORYX F/W v4,00 Oryx Data Collector v3.7.2.0data status	okinstallation	B3 Nyhavnadifferential loss correction	single-endedforward channel	channel 1reverse channel	N/Adate	2023/12/01time	21:07:30forward acquisition time	300,00reverse acquisition time	0,00gamma	499,1914k internal	0,3196k external	0,3196temperature offset calibration	1,0000default loss term (dB/km)	0,3820temperature slope calibration	1,0000multiplexer offset coefficient	1,0000multiplexer slope coefficient	1,0000fibre end	0,00T internal ref (°C)	16,01T ext. ref 1 (°C)	1,31T ext. ref 2 (°C)	1,30length (m)	temperature (°C)	Stokes	anti-Stokes-744,400	243,832	-0,186	-0,228
-743,385	-200,000	0,025	0,403
-742,371	148,208	-0,199	-0,195
-741,356	423,986	0,187	0,293
-740,342	215,674	-0,171	-0,197
-739,327	-200,000	-0,010	0,291
-738,312	800,000	-0,123	-0,324
-737,298	-200,000	-0,073	0,236
-736,283	249,886	-0,197	-0,244
-735,269	-200,000	-0,026	0,305
-734,254	721,086	-0,136	-0,265
-733,239	116,382	-0,125	0,112
-732,225	127,719	-0,163	-0,150
-731,210	181,608	0,153	0,164
-730,196	-136,337	-0,109	-0,009
-729,181	800,000	-0,032	-0,073
-728,167	800,000	0,015	-0,035
-727,152	4,624	-0,269	-0,143
-726,137	800,000	-0,021	0,068
-725,123	3,971	-0,080	-0,042
-724,108	233,644	-0,105	-0,126
-723,094	-145,171	-0,031	-0,002
-722,079	407,825	-0,019	0,029
-721,064	17,997	0,097	-0,056
-720,050	579,626	-0,083	0,149
-719,035	-75,982	-0,144	-0,037
-718,021	-200,000	-0,020	-0,068
-717,006	-81,836	-0,008	0,002
-715,991	-26,326	-0,093	-0,039
-714,977	225,195	-0,039	-0,046
-713,962	-146,877	-0,055	0,003
-712,948	-166,680	-0,042	-0,001
-711,933	800,000	0,036	0,082
-710,918	-31,216	0,036	-0,015
-709,904	465,140	0,009	-0,015
-708,889	-200,000	-0,018	-0,162
-707,875	-145,684	0,079	-0,005
-706,860	658,053	0,004	-0,008
-705,845	787,185	-0,011	0,022
-704,831	-7,034	-0,033	-0,016
-703,816	800,000	-0,051	0,115
-702,802	-55,672	-0,088	-0,029
-701,787	-200,000	0,012	-0,044
-700,772	3,408	0,044	0,023
-699,758	0,885	0,042	-0,022
-698,743	-84,745	-0,056	-0,013
-697,729	-74,948	-0,035	-0,009
-696,714	-155,908	-0,099	-0,004
-695,699	162,336	-0,073	-0,074
-694,685	42,350	0,090	-0,060
-693,670	99,999	0,101	0,085
-692,656	-17,673	-0,109	-0,049
-691,641	210,983	-0,042	0,048
-690,627	416,616	0,058	-0,091
-689,612	124,864	0,065	-0,059
-688,597	-200,000	-0,005	0,016
-687,583	-200,000	0,025	-0,117
-686,568	258,651	0,062	-0,078
-685,554	-200,000	0,001	0,074
-684,539	-80,811	-0,099	-0,024
-683,524	-86,888	0,171	0,038
-682,510	314,973	-0,054	0,075
-681,495	233,102	0,044	-0,052
-680,481	394,106	-0,063	0,095
-679,466	29,987	-0,090	0,056
-678,451	150,644	0,040	0,040
-677,437	92,185	0,042	0,034
-676,422	304,064	0,071	0,095
-675,408	-123,496	0,130	-0,015
-674,393	-200,000	0,011	-0,078
-673,378	-200,000	-0,003	-0,136
-672,364	-149,641	0,126	-0,007
-671,349	505,449	0,060	-0,102
-670,335	-200,000	-0,014	0,047
-669,320	550,451	-0,085	0,148
-668,305	126,610	-0,090	0,082
-667,291	-113,839	0,030	-0,004
-666,276	787,803	-0,025	-0,050
-665,262	-11,517	-0,157	-0,075
-664,247	93,443	0,018	-0,015
-663,232	140,335	0,004	-0,004
-662,218	216,736	0,011	0,012
-661,203	-200,000	-0,003	-0,016
-660,189	26,620	-0,023	-0,014
-659,174	13,128	-0,144	0,081
-658,159	303,105	-0,119	-0,160
-657,145	-105,125	-0,155	-0,025
-656,130	-200,000	0,009	-0,047
-655,116	-58,559	0,149	-0,047
-654,101	800,000	0,039	0,101
-653,086	40,386	-0,063	0,041
-652,072	768,875	0,040	0,079
-651,057	-200,000	-0,032	-0,128
-650,043	-108,800	-0,149	-0,023
-649,028	-200,000	-0,018	-0,112
-648,014	60,134	0,023	-0,017
-646,999	-200,000	0,029	0,105
-645,984	-200,000	-0,005	0,086
-644,970	-6,597	-0,062	-0,031
-643,955	-200,000	-0,071	-0,230
-642,941	148,375	-0,127	-0,124
-641,926	234,884	-0,027	0,033
-640,911	-200,000	0,017	-0,084
-639,897	-152,029	0,109	0,006
-638,882	-109,689	-0,064	0,010
-637,868	157,313	0,035	0,035
-636,853	-200,000	-0,023	-0,140
-635,838	-200,000	-0,010	-0,049
-634,824	208,063	0,045	-0,051
-633,809	124,230	0,067	-0,061
-632,795	-14,524	0,116	-0,054
-631,780	82,807	-0,108	0,085
-630,765	-33,822	0,142	-0,057
-629,751	-200,000	-0,000	0,011
-628,736	328,595	-0,049	-0,069
-627,722	166,726	-0,010	-0,010
-626,707	-34,226	-0,112	0,045
-625,692	800,000	-0,049	0,102
-624,678	482,113	0,089	0,146
-623,663	412,453	-0,063	-0,098
-622,649	168,820	-0,040	-0,041
-621,634	-98,122	0,086	-0,016
-620,619	-200,000	0,011	-0,073
-619,605	-124,917	0,112	-0,012
-618,590	800,000	-0,042	-0,134
-617,576	721,307	-0,057	0,111
-616,561	-33,606	-0,117	0,046
-615,546	474,040	0,069	0,113
-614,532	423,923	-0,063	0,098
-613,517	-65,902	-0,135	-0,039
-612,503	-28,890	-0,054	-0,022
-611,488	-27,237	0,110	0,046
-610,474	4,119	-0,089	0,047
-609,459	63,130	0,051	-0,037
-608,444	800,000	-0,020	0,043
-607,430	-200,000	0,004	-0,103
-606,415	-200,000	-0,006	0,054
-605,401	800,000	-0,004	-0,009
-604,386	-69,916	-0,109	-0,030
-603,371	169,117	0,026	-0,027
-602,357	-138,832	0,074	0,006
-601,342	-200,000	0,003	-0,032
-600,328	60,497	0,098	0,070
-599,313	679,782	-0,017	-0,031
-598,298	-200,000	-0,011	-0,097
-597,284	631,320	-0,010	0,019
-596,269	-109,143	0,042	0,006
-595,255	-124,732	0,049	0,005
-594,240	88,103	-0,008	-0,006
-593,225	68,616	-0,040	-0,029
-592,211	-24,116	-0,102	-0,044
-591,196	499,817	0,075	-0,126
-590,182	-49,219	0,060	-0,020
-589,167	-33,184	-0,121	-0,048
-588,152	-81,389	0,043	0,010
-587,138	-144,976	-0,052	0,003
-586,123	800,000	-0,029	0,090
-585,109	-120,987	-0,143	0,017
-584,094	3,719	-0,063	-0,033
-583,079	-200,000	0,019	-0,065
-582,065	48,797	-0,027	0,018
-581,050	800,000	-0,036	0,074
-580,036	557,954	0,014	0,025
-579,021	272,980	-0,077	-0,099
-578,006	800,000	-0,076	-0,158
-576,992	53,669	-0,110	-0,077
-575,977	50,728	0,079	0,054
-574,963	362,463	0,024	0,035
-573,948	81,827	0,053	-0,042
-572,934	-200,000	0,014	-0,073
-571,919	-25,982	-0,092	-0,039
-570,904	465,554	-0,118	-0,192
-569,890	338,852	-0,101	-0,143
-568,875	405,791	0,059	-0,090
-567,861	-143,068	0,045	-0,003
-566,846	215,071	-0,049	0,056
-565,831	83,115	0,039	0,031
-564,817	15,935	-0,085	-0,048
-563,802	-200,000	-0,008	-0,088
-562,788	11,239	-0,083	-0,046
-561,773	800,000	0,041	-0,084
-560,758	-1,188	0,126	0,064
-559,744	800,000	-0,056	0,114
-558,729	444,462	-0,019	-0,031
-557,715	-110,506	-0,071	0,011
-556,700	-200,000	0,009	0,035
-555,685	800,000	0,062	-0,131
-554,671	333,497	0,046	-0,065
-553,656	-7,027	-0,074	-0,036
-552,642	106,746	-0,041	0,035
-551,627	-200,000	0,047	0,189
-550,612	-75,670	0,006	-0,001
-549,598	288,047	0,056	-0,074
-548,583	800,000	-0,014	-0,045
-547,569	-141,442	-0,034	-0,002
-546,554	-38,706	0,038	0,014
-545,539	800,000	-0,036	0,089
-544,525	434,762	0,045	0,071
-543,510	-200,000	0,016	-0,057
-542,496	190,534	0,035	-0,038
-541,481	-200,000	-0,038	-0,172
-540,466	586,506	0,100	0,179
-539,452	-200,000	-0,025	0,204
-538,437	-156,892	0,120	-0,005
-537,423	-200,000	-0,046	0,164
-536,408	-200,000	0,019	0,083
-535,393	-200,000	0,005	0,064
-534,379	389,211	-0,052	0,078
-533,364	255,264	0,063	-0,078
-532,350	303,699	0,024	0,033
-531,335	62,965	0,023	0,016
-530,321	-200,000	-0,013	-0,071
-529,306	-200,000	-0,030	0,102
-528,291	76,766	-0,122	-0,094
-527,277	-165,446	-0,114	-0,004
-526,262	800,000	0,035	-0,077
-525,248	63,048	-0,140	-0,101
-524,233	6,319	0,110	0,059
-523,218	770,505	-0,047	0,094
-522,204	-58,097	0,133	0,042
-521,189	-200,000	0,005	-0,091
-520,175	38,561	0,014	-0,009
-519,160	545,132	0,054	-0,094
-518,145	98,380	-0,027	-0,023
-517,131	136,845	0,089	0,084
-516,116	-89,100	0,046	-0,010
-515,102	13,644	0,104	-0,058
-514,087	172,587	0,163	-0,170
-513,072	43,634	0,089	-0,059
-512,058	433,348	-0,008	-0,013
-511,043	-200,000	-0,024	0,086
-510,029	367,962	0,097	-0,143
-509,014	-135,640	0,116	-0,010
-507,999	800,000	-0,018	-0,044
-506,985	217,575	0,034	0,040
-505,970	729,079	-0,065	-0,126
-504,956	-113,399	-0,114	-0,016
-503,941	85,574	0,083	-0,066
-502,926	311,983	0,063	0,085
-501,912	-200,000	-0,006	-0,099
-500,897	91,654	0,108	0,088
-499,883	41,594	0,056	0,037
-498,868	219,747	0,050	-0,058
-497,853	111,086	-0,079	0,069
-496,839	-9,820	-0,070	-0,033
-495,824	290,901	-0,063	0,083
-494,810	-200,000	-0,027	0,187
-493,795	-52,896	0,017	-0,006
-492,781	-67,141	0,225	0,063
-491,766	145,224	0,049	-0,047
-490,751	-200,000	-0,014	-0,074
-489,737	221,801	0,012	0,014
-488,722	-200,000	0,007	0,118
-487,708	-107,080	-0,124	-0,020
-486,693	330,487	-0,056	0,078
-485,678	-131,876	-0,102	0,009
-484,664	64,382	-0,098	-0,071
-483,649	152,296	-0,024	0,024
-482,635	160,506	-0,040	0,040
-481,620	140,094	0,079	-0,075
-480,605	443,026	0,059	0,094
-479,591	115,408	-0,064	0,056
-478,576	343,653	-0,012	0,017
-477,562	9,143	-0,035	-0,019
-476,547	800,000	-0,043	-0,092
-475,532	88,291	-0,026	0,020
-474,518	361,853	0,081	-0,117
-473,503	50,869	0,042	-0,028
-472,489	267,461	0,026	0,033
-471,474	108,726	0,038	-0,032
-470,459	-200,000	-0,010	-0,038
-469,445	94,829	0,066	-0,054
-468,430	113,546	-0,038	0,033
-467,416	10,532	-0,077	-0,042
-466,401	95,449	0,205	0,168
-465,386	-18,218	0,110	0,049
-464,372	704,288	-0,019	-0,037
-463,357	-1,368	0,142	-0,072
-462,343	96,235	-0,038	0,031
-461,328	-80,844	-0,033	-0,008
-460,313	800,000	0,021	-0,056
-459,299	194,400	-0,049	-0,054
-458,284	72,687	0,048	0,036
-457,270	-148,329	0,142	0,008
-456,255	-200,000	-0,024	-0,118
-455,241	-58,838	-0,057	-0,018
-454,226	525,338	0,015	0,026
-453,211	286,998	-0,024	-0,031
-452,197	18,010	-0,091	-0,052
-451,182	-200,000	0,002	-0,034
-450,168	-33,705	-0,138	-0,054
-449,153	-200,000	0,021	0,113
-448,138	-40,896	0,038	-0,014
-447,124	-70,260	-0,028	0,008
-446,109	-16,687	0,115	-0,052
-445,095	-34,104	-0,040	0,016
-444,080	274,559	0,045	0,057
-443,065	658,156	-0,046	0,086
-442,051	-49,659	-0,169	-0,058
-441,036	-180,716	-0,042	-0,001
-440,022	-200,000	-0,004	-0,090
-439,007	29,452	-0,057	-0,035
-437,992	11,277	0,071	0,039
-436,978	800,000	0,060	0,181
-435,963	80,833	0,045	-0,035
-434,949	-200,000	-0,006	-0,030
-433,934	-154,926	-0,145	-0,007
-432,919	800,000	0,018	0,045
-431,905	-99,878	0,080	-0,014
-430,890	800,000	-0,007	-0,021
-429,876	204,967	0,070	-0,078
-428,861	-200,000	-0,033	0,116
-427,846	51,091	-0,013	0,009
-426,832	69,408	-0,104	-0,077
-425,817	-67,053	-0,055	-0,016
-424,803	-200,000	0,011	-0,049
-423,788	539,065	-0,058	0,099
-422,773	-200,000	-0,018	-0,061
-421,759	800,000	-0,019	-0,042
-420,744	639,888	-0,048	0,088
-419,730	225,102	-0,025	0,029
-418,715	-8,535	-0,133	0,064
-417,701	-34,171	0,031	0,012
-416,686	56,226	0,139	-0,097
-415,671	364,555	0,088	-0,127
-414,657	-200,000	-0,004	-0,031
-413,642	102,135	0,027	0,023
-412,628	-154,455	-0,054	-0,003
-411,613	31,868	0,100	-0,062
-410,598	800,000	-0,044	0,138
-409,584	800,000	-0,044	0,105
-408,569	13,096	-0,094	-0,052
-407,555	-73,765	0,030	0,008
-406,540	371,308	-0,017	0,025
-405,525	-200,000	0,001	0,064
-404,511	-78,489	0,113	0,028
-403,496	5,250	0,015	-0,008
-402,482	181,061	-0,024	0,025
-401,467	-17,139	0,110	-0,050
-400,452	373,885	0,045	0,065
-399,438	800,000	0,017	0,047
-398,423	11,836	-0,052	-0,028
-397,409	41,729	-0,182	-0,118
-396,394	800,000	0,014	0,027
-395,379	-26,691	-0,072	-0,030
-394,365	70,819	0,044	-0,033
-393,350	87,234	0,078	0,062
-392,336	-38,027	0,006	-0,002
-391,321	-2,962	-0,071	0,036
-390,306	-200,000	0,025	-0,213
-389,292	319,151	-0,112	-0,153
-388,277	-87,046	-0,080	-0,017
-387,263	716,592	0,012	0,024
-386,248	660,361	-0,031	0,057
-385,233	-200,000	0,005	0,046
-384,219	267,695	-0,080	-0,101
-383,204	-200,000	-0,030	-0,210
-382,190	-20,071	-0,007	-0,003
-381,175	-200,000	0,010	0,130
-380,160	389,074	0,102	-0,151
-379,146	-200,000	-0,036	0,121
-378,131	-140,513	0,092	-0,007
-377,117	-200,000	-0,003	-0,111
-376,102	-200,000	0,015	0,070
-375,088	-108,582	-0,153	0,023
-374,073	-53,414	0,126	-0,041
-373,058	-200,000	0,002	0,130
-372,044	-56,940	0,185	-0,058
-371,029	-200,000	-0,006	-0,022
-370,015	-80,938	-0,091	-0,021
-369,000	-200,000	0,011	-0,049
-367,985	-7,221	-0,096	-0,047
-366,971	-5,332	-0,074	-0,036
-365,956	211,241	0,101	0,114
-364,942	-200,000	0,015	0,133
-363,927	19,597	0,089	-0,051
-362,912	73,811	-0,083	0,062
-361,898	-200,000	-0,011	0,102
-360,883	85,761	-0,127	-0,100
-359,869	180,056	-0,022	-0,023
-358,854	-9,369	-0,046	0,022
-357,839	698,937	-0,108	0,205
-356,825	800,000	0,098	0,208
-355,810	-200,000	0,001	0,073
-354,796	336,408	-0,042	-0,058
-353,781	40,093	0,030	-0,020
-352,766	25,884	-0,082	-0,049
-351,752	-132,137	0,138	-0,013
-350,737	-128,236	0,054	0,005
-349,723	103,857	-0,030	-0,026
-348,708	-200,000	0,009	0,045
-347,693	-56,744	0,141	0,045
-346,679	194,671	-0,021	0,023
-345,664	336,784	-0,071	-0,099
-344,650	-128,974	-0,068	0,007
-343,635	495,930	0,041	0,067
-342,620	194,706	0,148	0,161
-341,606	344,592	-0,020	-0,028
-340,591	-45,753	-0,113	-0,040
-339,577	329,561	-0,044	-0,060
-338,562	702,353	-0,015	0,029
-337,548	340,707	-0,066	0,093
-336,533	-2,574	0,019	-0,009
-335,518	9,453	0,124	-0,067
-334,504	-116,128	0,137	-0,018
-333,489	96,810	0,079	0,065
-332,475	-7,655	-0,043	-0,021
-331,460	545,195	-0,073	0,125
-330,445	-24,967	-0,029	-0,012
-329,431	672,623	-0,068	-0,127
-328,416	436,473	0,112	-0,175
-327,402	800,000	0,061	0,126
-326,387	-23,797	0,115	0,049
-325,372	-138,112	0,105	-0,008
-324,358	800,000	-0,028	-0,070
-323,343	-105,056	-0,045	-0,007
-322,329	-200,000	-0,002	0,126
-321,314	800,000	-0,030	0,086
-320,299	34,502	0,121	0,075
-319,285	-112,558	-0,094	0,013
-318,270	-200,000	-0,028	0,166
-317,256	-169,536	-0,167	0,004
-316,241	-163,446	0,147	0,005
-315,226	-147,886	0,036	-0,002
-314,212	-99,160	0,047	0,008
-313,197	139,613	0,064	-0,061
-312,183	163,883	-0,066	0,066
-311,168	-147,636	-0,074	-0,004
-310,153	37,508	0,134	0,085
-309,139	343,772	0,037	-0,052
-308,124	-11,175	0,062	0,029
-307,110	800,000	0,036	0,108
-306,095	-200,000	0,033	0,137
-305,080	92,772	-0,081	-0,066
-304,066	-13,525	-0,040	0,019
-303,051	10,547	-0,128	0,069
-302,037	172,519	-0,089	-0,091
-301,022	771,421	0,021	0,040
-300,008	-200,000	-0,005	-0,081
-298,993	555,910	-0,054	0,094
-297,978	70,211	0,085	0,063
-296,964	509,862	-0,036	0,060
-295,949	-200,000	0,019	-0,131
-294,935	800,000	-0,017	-0,041
-293,920	79,666	0,070	0,053
-292,905	-200,000	-0,030	0,104
-291,891	-116,280	0,083	-0,011
-290,876	800,000	-0,040	0,095
-289,862	800,000	0,018	-0,040
-288,847	54,464	-0,116	-0,080
-287,832	800,000	0,022	0,057
-286,818	800,000	0,046	-0,140
-285,803	-176,668	0,093	0,002
-284,789	-166,400	0,072	0,002
-283,774	-3,478	-0,067	-0,033
-282,759	-43,638	-0,060	0,022
-281,745	800,000	0,069	-0,143
-280,730	70,270	-0,086	-0,063
-279,716	800,000	0,050	0,142
-278,701	430,244	0,025	-0,039
-277,686	-93,107	0,125	-0,025
-276,672	-131,054	-0,137	-0,013
-275,657	-200,000	0,004	0,041
-274,643	-135,090	-0,067	0,006
-273,628	220,932	0,013	-0,015
-272,613	-200,000	-0,012	-0,125
-271,599	-200,000	0,011	0,063
-270,584	-200,000	-0,003	0,116
-269,570	282,658	0,063	0,081
-268,555	-140,110	-0,136	0,010
-267,540	800,000	-0,061	-0,144
-266,526	800,000	-0,075	-0,206
-265,511	-200,000	-0,011	0,048
-264,497	43,873	-0,023	0,015
-263,482	-125,164	0,074	0,008
-262,467	99,703	0,090	-0,075
-261,453	89,524	-0,104	0,083
-260,438	31,017	-0,062	-0,038
-259,424	55,168	-0,016	0,011
-258,409	-84,851	0,105	0,023
-257,395	-30,107	-0,076	0,031
-256,380	257,907	0,049	0,060
-255,365	-53,517	-0,020	0,007
-254,351	-141,611	0,052	0,004
-253,336	-48,146	0,035	-0,012
-252,322	61,461	-0,101	0,072
-251,307	-15,516	-0,108	-0,049
-250,292	63,452	0,147	-0,105
-249,278	16,693	0,055	-0,031
-248,263	-200,000	0,032	0,170
-247,249	-41,667	0,161	0,059
-246,234	-200,000	0,010	0,066
-245,219	800,000	-0,024	-0,064
-244,205	-145,809	-0,148	-0,009
-243,190	633,588	0,038	-0,069
-242,176	800,000	-0,045	0,096
-241,161	561,206	-0,042	0,073
-240,146	547,910	0,104	0,179
-239,132	8,581	-0,034	0,018
-238,117	-158,845	-0,063	0,003
-237,103	-64,436	0,057	0,017
-236,088	800,000	-0,038	-0,086
-235,073	800,000	-0,037	0,100
-234,059	6,439	0,116	0,062
-233,044	-173,211	0,048	0,001
-232,030	-200,000	-0,007	-0,053
-231,015	301,392	0,046	-0,061
-230,000	-133,087	0,014	-0,001
-228,986	-200,000	-0,029	0,097
-227,971	26,800	0,215	0,129
-226,957	-140,687	0,192	0,014
-225,942	-200,000	0,032	0,159
-224,927	800,000	0,072	0,161
-223,913	133,804	-0,005	-0,004
-222,898	800,000	-0,105	-0,208
-221,884	253,915	0,047	0,057
-220,869	-200,000	0,003	0,069
-219,855	-200,000	0,052	0,189
-218,840	45,643	-0,108	0,071
-217,825	-200,000	0,015	-0,106
-216,811	-80,354	-0,098	-0,023
-215,796	-50,678	-0,128	-0,043
-214,782	-43,524	0,110	0,039
-213,767	649,715	-0,028	-0,050
-212,752	800,000	0,041	0,096
-211,738	-180,950	0,050	-0,001
-210,723	-122,114	-0,062	-0,007
-209,709	-161,479	0,073	0,003
-208,694	-39,007	-0,148	-0,055
-207,679	-92,837	0,098	0,019
-206,665	-200,000	0,034	-0,130
-205,650	-200,000	0,004	-0,081
-204,636	59,131	-0,023	-0,016
-203,621	-73,187	0,109	0,028
-202,606	-29,333	-0,045	0,018
-201,592	800,000	0,034	-0,104
-200,577	800,000	-0,020	-0,052
-199,563	95,730	-0,058	-0,047
-198,548	-8,790	-0,046	0,022
-197,533	25,252	0,063	-0,037
-196,519	64,532	-0,089	-0,064
-195,504	800,000	-0,018	-0,054
-194,490	223,702	-0,009	0,010
-193,475	-200,000	-0,016	0,079
-192,460	37,625	-0,044	0,027
-191,446	37,557	0,074	-0,046
-190,431	-59,500	0,080	0,024
-189,417	384,437	-0,025	-0,038
-188,402	108,244	0,049	-0,041
-187,387	-97,066	-0,104	0,019
-186,373	376,530	-0,026	0,039
-185,358	-200,000	0,002	0,159
-184,344	-11,353	-0,078	0,036
-183,329	-200,000	0,004	0,030
-182,315	-200,000	0,028	0,088
-181,300	-200,000	-0,005	0,121
-180,285	-116,450	-0,198	-0,026
-179,271	-1,704	-0,079	-0,039
-178,256	108,171	0,065	0,055
-177,242	800,000	0,013	0,039
-176,227	-63,357	-0,056	-0,016
-175,212	800,000	-0,011	0,026
-174,198	-119,300	0,149	0,018
-173,183	-41,812	-0,087	0,031
-172,169	-169,013	-0,014	0,000
-171,154	67,041	0,079	-0,057
-170,139	800,000	0,019	-0,053
-169,125	264,267	0,110	0,137
-168,110	-200,000	0,031	-0,120
-167,096	40,796	0,072	0,046
-166,081	-200,000	-0,024	-0,147
-165,066	-200,000	-0,008	-0,027
-164,052	-70,313	0,093	-0,025
-163,037	26,529	-0,108	0,064
-162,023	-200,000	0,002	0,029
-161,008	800,000	0,057	0,129
-159,993	-186,251	0,048	0,000
-158,979	336,128	-0,050	-0,069
-157,964	800,000	-0,046	-0,135
-156,950	800,000	-0,037	-0,087
-155,935	504,781	-0,041	-0,068
-154,920	38,039	0,080	-0,051
-153,906	143,562	-0,033	0,031
-152,891	347,089	-0,092	0,129
-151,877	286,990	0,081	-0,104
-150,862	168,230	-0,081	0,082
-149,847	186,932	0,083	-0,088
-148,833	377,195	0,066	0,097
-147,818	-200,000	-0,094	0,000
-146,804	800,000	-0,077	0,194
-145,789	-200,000	0,006	-0,051
-144,775	270,015	-0,021	-0,027
-143,760	-200,000	-0,014	-0,067
-142,745	800,000	0,058	0,128
-141,731	538,102	0,033	-0,056
-140,716	-133,648	0,094	0,008
-139,702	-73,846	-0,065	0,017
-138,687	800,000	-0,035	-0,085
-137,672	150,732	-0,051	-0,049
-136,658	38,022	0,046	0,029
-135,643	264,850	-0,086	-0,106
-134,629	250,050	0,051	-0,061
-133,614	-106,369	0,022	0,004
-132,599	-200,000	0,012	-0,074
-131,585	-52,168	-0,078	0,026
-130,570	-187,001	0,085	-0,001
-129,556	-200,000	0,021	-0,143
-128,541	800,000	-0,026	-0,071
-127,526	51,132	-0,074	-0,050
-126,512	-93,301	0,081	-0,016
-125,497	-149,358	0,005	-0,000
-124,483	99,108	-0,045	-0,037
-123,468	22,036	-0,055	0,032
-122,453	-13,086	-0,082	0,038
-121,439	-8,079	-0,096	0,046
-120,424	-200,000	0,003	-0,119
-119,410	-200,000	-0,003	-0,038
-118,395	-75,724	0,077	-0,019
-117,380	800,000	0,020	-0,057
-116,366	-21,436	0,029	0,012
-115,351	462,639	0,046	-0,073
-114,337	19,829	-0,038	-0,022
-113,322	59,328	-0,082	-0,057
-112,307	-200,000	0,022	0,094
-111,293	800,000	0,070	0,184
-110,278	-193,440	0,027	0,000
-109,264	800,000	-0,056	-0,130
-108,249	800,000	-0,057	-0,154
-107,234	-74,853	0,099	-0,025
-106,220	204,652	-0,124	-0,137
-105,205	590,445	0,049	0,086
-104,191	290,661	0,088	0,113
-103,176	-108,549	-0,050	-0,008
-102,162	-30,382	-0,098	0,039
-101,147	-200,000	0,009	-0,083
-100,132	-200,000	0,016	-0,159
-99,118	800,000	-0,044	-0,131
-98,103	-200,000	0,018	0,082
-97,089	-157,221	0,076	-0,003
-96,074	100,551	0,118	0,098
-95,059	-200,000	-0,006	0,081
-94,045	800,000	0,096	0,206
-93,030	452,066	0,027	0,043
-92,016	-82,054	-0,050	0,012
-91,001	-200,000	-0,014	0,056
-89,986	536,873	0,050	0,085
-88,972	78,935	0,071	0,054
-87,957	107,387	-0,128	0,108
-86,943	289,362	0,008	0,011
-85,928	-149,602	-0,148	-0,008
-84,913	450,253	-0,124	-0,195
-83,899	19,097	-0,205	-0,117
-82,884	-130,089	0,123	-0,012
-81,870	95,415	-0,034	-0,028
-80,855	-77,437	-0,040	0,010
-79,840	-200,000	0,036	0,129
-78,826	95,626	-0,109	-0,088
-77,811	800,000	0,066	-0,140
-76,797	96,576	-0,068	-0,055
-75,782	-119,605	0,099	-0,012
-74,767	800,000	0,129	0,257
-73,753	18,361	0,094	-0,053
-72,738	694,441	-0,015	-0,028
-71,724	-139,707	-0,163	0,012
-70,709	85,465	0,052	-0,040
-69,694	432,040	-0,057	-0,087
-68,680	268,529	0,076	0,094
-67,665	-113,572	0,045	-0,006
-66,651	-23,948	0,038	0,016
-65,636	-200,000	0,009	-0,070
-64,622	-116,888	-0,087	0,011
-63,607	800,000	0,054	-0,148
-62,592	563,165	0,067	0,115
-61,578	-113,294	0,033	0,005
-60,563	137,666	-0,066	0,061
-59,549	73,000	-0,226	0,168
-58,534	-65,897	-1,372	-0,386
-57,519	349,472	-1,564	-2,196
-56,505	-200,000	-0,401	-4,393
-55,490	115,065	0,895	0,775
-54,476	800,000	4,804	11,343
-53,461	-200,000	17,662	279,232
-52,446	800,000	719,879	2213,072
-51,432	558,008	1634,105	2805,309
-50,417	80,872	1657,344	1266,345
-49,403	23,829	1531,557	892,545
-48,388	17,849	1454,882	819,041
-47,373	18,258	1444,531	815,145
-46,359	17,902	1435,069	808,078
-45,344	16,163	1430,424	797,171
-44,330	16,094	1428,520	795,748
-43,315	16,056	1426,731	794,539
-42,300	16,100	1425,111	793,813
-41,286	16,128	1424,091	793,347
-40,271	16,116	1422,648	792,456
-39,257	16,070	1421,360	791,490
-38,242	16,080	1420,251	790,891
-37,227	16,150	1418,772	790,362
-36,213	16,121	1417,622	789,553
-35,198	16,168	1416,459	789,097
-34,184	16,105	1415,630	788,305
-33,169	16,026	1414,468	787,259
-32,154	16,128	1413,240	787,022
-31,140	16,131	1411,828	786,220
-30,125	16,145	1410,556	785,546
-29,111	16,148	1409,486	784,932
-28,096	16,084	1408,561	784,083
-27,082	16,021	1407,464	783,148
-26,067	16,038	1406,283	782,538
-25,052	16,081	1405,113	782,060
-24,038	16,008	1404,377	781,278
-23,023	16,037	1403,041	780,638
-22,009	16,069	1402,091	780,228
-20,994	15,995	1401,507	779,528
-19,979	15,982	1400,325	778,780
-18,965	15,917	1399,514	777,995
-17,950	15,961	1398,485	777,597
-16,936	16,004	1397,233	777,068
-15,921	15,974	1396,111	776,276
-14,906	15,957	1395,169	775,643
-13,892	15,951	1394,307	775,103
-12,877	15,947	1393,544	774,629
-11,863	15,917	1392,659	773,971
-10,848	15,936	1391,752	773,522
-9,833	15,956	1390,603	772,944
-8,819	15,875	1389,736	772,059
-7,804	15,872	1388,650	771,410
-6,790	15,879	1387,671	770,870
-5,775	15,843	1386,642	770,103
-4,760	15,808	1385,988	769,545
-3,746	15,835	1385,258	769,233
-2,731	15,832	1384,578	768,811
-1,717	15,820	1383,310	768,024
-0,702	15,853	1381,351	767,056
0,313	19,620	1302,475	740,631
1,327	35,900	706,502	439,455
2,342	55,299	125,155	85,633
3,356	6,295	16,490	8,642
4,371	8,798	3,079	1,639
5,386	-6,972	0,439	0,210
6,400	-200,000	0,006	0,188
7,415	-6,726	-0,385	-0,185
8,429	43,700	-0,207	-0,134
9,444	6,106	-0,349	-0,182
10,459	53,688	-0,235	-0,160
11,473	75,102	-0,303	-0,226
12,488	106,859	-0,236	-0,198
13,502	-49,937	-0,346	-0,116
14,517	40,009	-0,338	-0,214
15,531	258,284	-0,288	-0,351
16,546	-85,521	-0,291	-0,063
17,561	115,372	-0,292	-0,253
18,575	-51,947	-0,132	0,043
19,590	12,679	-0,327	-0,178
20,604	-10,628	-0,251	-0,117
21,619	168,862	-0,430	-0,434
22,634	22,720	-0,486	-0,281
23,648	57,779	-0,434	-0,300
24,663	2,876	-0,510	-0,261
25,677	141,717	-0,366	-0,343
26,692	357,048	-0,246	-0,347
27,707	65,876	-0,388	-0,278
28,721	30,602	-0,306	-0,185
29,736	59,916	-0,477	-0,333
30,750	100,602	-0,435	-0,357
31,765	-24,310	-0,505	-0,212
32,780	147,884	-0,335	-0,320
33,794	96,446	-0,345	-0,279
34,809	8,675	-0,396	-0,210
35,823	102,038	-0,510	-0,421
36,838	170,509	-0,268	-0,272
37,853	132,153	-0,359	-0,327
38,867	296,214	-0,224	-0,291
39,882	-12,505	-0,309	-0,142
40,896	48,243	-0,366	-0,241
41,911	44,170	-0,356	-0,230
42,926	184,745	-0,209	-0,219
43,940	-16,709	-0,368	-0,164
44,955	264,673	-0,278	-0,342
45,969	47,432	-0,362	-0,238
46,984	305,421	-0,268	-0,352
47,999	455,407	-0,231	-0,362
49,013	9,478	-0,303	-0,162
50,028	5,698	-0,225	-0,117
51,042	14,729	-0,409	-0,225
52,057	139,395	-0,238	-0,221
53,071	72,033	-0,367	-0,269
54,086	189,048	-0,331	-0,350
55,101	34,863	-0,427	-0,263
56,115	63,433	-0,394	-0,278
57,130	130,130	-0,376	-0,339
58,144	302,960	-0,300	-0,393
59,159	607,804	-0,244	-0,431
60,174	356,514	-0,264	-0,372
61,188	176,350	-0,291	-0,298
62,203	3,093	-0,289	-0,148
63,217	300,210	-0,203	-0,265
64,232	-60,310	-0,334	-0,100
65,247	-54,886	-0,309	-0,097
66,261	163,630	-0,295	-0,293
67,276	-23,099	-0,441	-0,186
68,290	-17,706	-0,375	-0,165
69,305	85,144	-0,333	-0,257
70,320	76,319	-0,284	-0,212
71,334	367,151	-0,217	-0,310
72,349	-19,231	-0,228	-0,099
73,363	-86,135	-0,350	-0,075
74,378	173,389	-0,294	-0,299
75,393	-3,752	-0,416	-0,203
76,407	250,229	-0,194	-0,233
77,422	195,696	-0,224	-0,240
78,436	-112,368	-0,353	-0,049
79,451	175,186	-0,249	-0,254
80,466	9,537	-0,357	-0,190
81,480	61,560	-0,303	-0,212
82,495	62,190	-0,289	-0,202
83,509	135,514	-0,256	-0,235
84,524	250,372	-0,203	-0,243
85,539	150,948	-0,269	-0,257
86,553	258,908	-0,122	-0,148
87,568	18,115	-0,252	-0,141
88,582	-116,347	-0,291	-0,037
89,597	-26,320	-0,213	-0,088
90,611	57,757	-0,210	-0,144
91,626	262,333	-0,163	-0,199
92,641	-49,213	-0,285	-0,095
93,655	-2,840	-0,382	-0,187
94,670	-5,833	-0,341	-0,163
95,684	484,017	-0,224	-0,360
96,699	72,480	-0,302	-0,221
97,714	31,269	-0,276	-0,166
98,728	136,487	-0,222	-0,204
99,743	-58,601	-0,161	-0,049
100,757	191,719	-0,222	-0,235
101,772	189,153	-0,277	-0,292
102,787	2,629	-0,351	-0,178
103,801	-39,273	-0,314	-0,115
104,816	-5,604	-0,183	-0,088
105,830	104,521	-0,210	-0,174
106,845	-11,490	-0,234	-0,108
107,860	-60,418	-0,351	-0,104
108,874	54,805	-0,283	-0,191
109,889	773,165	-0,188	-0,362
110,903	3,423	-0,355	-0,181
111,918	19,508	-0,259	-0,146
112,933	-82,380	-0,164	0,037
113,947	-147,672	-0,249	-0,014
114,962	247,370	-0,164	-0,195
115,976	124,914	-0,272	-0,241
116,991	1,648	-0,306	-0,154
118,006	696,856	-0,167	-0,309
119,020	272,319	-0,151	-0,187
120,035	14,556	-0,199	-0,109
121,049	243,286	-0,109	-0,128
122,064	-26,537	-0,230	-0,094
123,079	42,892	-0,259	-0,165
124,093	393,683	-0,126	-0,184
125,108	104,304	-0,294	-0,243
126,122	407,031	-0,140	-0,208
127,137	152,793	-0,198	-0,190
128,151	-138,679	-0,195	0,015
129,166	-16,366	-0,220	-0,098
130,181	-45,696	-0,223	-0,077
131,195	-107,184	-0,381	-0,058
132,210	307,859	-0,221	-0,290
133,224	-19,829	-0,242	-0,104
134,239	127,317	-0,251	-0,224
135,254	-88,879	-0,183	-0,038
136,268	75,082	-0,208	-0,153
137,283	-105,934	-0,204	-0,032
138,297	89,017	-0,294	-0,229
139,312	147,091	-0,255	-0,240
140,327	267,423	-0,158	-0,194
141,341	130,654	-0,260	-0,234
142,356	36,829	-0,223	-0,138
143,370	293,188	-0,187	-0,239
144,385	105,905	-0,207	-0,172
145,400	242,074	-0,181	-0,212
146,414	74,709	-0,256	-0,188
147,429	85,193	-0,332	-0,255
148,443	88,353	-0,136	-0,105
149,458	-91,922	-0,337	-0,066
150,473	0,425	-0,194	-0,097
151,487	25,173	-0,168	-0,097
152,502	223,671	-0,173	-0,196
153,516	55,762	-0,248	-0,168
154,531	441,777	-0,080	-0,123
155,546	800,000	-0,115	-0,272
156,560	-103,351	-0,257	-0,042
157,575	-64,051	-0,268	-0,076
158,589	17,265	-0,188	-0,104
159,604	428,891	-0,173	-0,263
160,619	397,416	-0,264	-0,387
161,633	138,061	-0,258	-0,236
162,648	-97,806	-0,233	-0,042
163,662	-132,451	-0,279	-0,025
164,677	120,813	-0,193	-0,168
165,692	13,059	-0,294	-0,158
166,706	38,434	-0,245	-0,152
167,721	141,983	-0,254	-0,236
168,735	84,897	-0,283	-0,217
169,750	164,221	-0,174	-0,172
170,764	-4,836	-0,264	-0,127
171,779	-10,383	-0,292	-0,135
172,794	513,370	-0,133	-0,218
173,808	191,711	-0,195	-0,205
174,823	-38,898	-0,272	-0,100
175,837	96,570	-0,272	-0,217
176,852	-20,449	-0,288	-0,123
177,867	103,756	-0,210	-0,172
178,881	800,000	-0,077	-0,217
179,896	174,050	-0,201	-0,203
180,910	36,477	-0,303	-0,186
181,925	119,600	-0,300	-0,259
182,940	800,000	-0,083	-0,224
183,954	441,451	-0,201	-0,307
184,969	800,000	-0,093	-0,227
185,983	-130,591	-0,274	-0,025
186,998	383,402	-0,176	-0,253
188,013	154,698	-0,293	-0,281
189,027	99,275	-0,210	-0,169
190,042	6,733	-0,339	-0,175
191,056	-200,000	-0,032	-0,362
192,071	800,000	-0,074	-0,160
193,086	15,370	-0,136	-0,074
194,100	-0,103	-0,256	-0,127
195,115	-137,944	-0,342	-0,026
196,129	174,876	-0,124	-0,125
197,144	-119,355	-0,228	-0,027
198,159	-75,512	-0,229	-0,056
199,173	-22,128	-0,212	-0,089
200,188	136,247	-0,080	-0,072
201,202	800,000	-0,043	-0,107
202,217	249,729	-0,087	-0,103
203,232	337,686	-0,082	-0,111
204,246	279,826	-0,140	-0,174
205,261	800,000	-0,091	-0,184
206,275	-112,124	-0,146	-0,020
207,290	-128,694	-0,210	-0,020
208,304	-29,003	-0,164	0,065
209,319	254,518	-0,146	-0,175
210,334	61,513	-0,199	-0,138
211,348	362,952	-0,166	-0,232
212,363	88,387	-0,221	-0,170
213,377	-87,778	-0,179	0,037
214,392	36,494	-0,050	-0,031
215,407	21,196	-0,170	-0,096
216,421	-17,366	-0,307	-0,134
217,436	-200,000	-0,026	-0,152
218,450	125,092	-0,208	-0,182
219,465	274,780	-0,202	-0,249
220,480	800,000	-0,144	-0,281
221,494	163,442	-0,202	-0,197
222,509	-4,108	-0,239	-0,115
223,523	-95,451	-0,122	-0,023
224,538	222,847	-0,166	-0,186
225,553	-47,020	-0,148	-0,050
226,567	53,872	-0,219	-0,146
227,582	-200,000	-0,026	-0,193
228,596	135,158	-0,089	-0,080
229,611	155,697	-0,138	-0,132
230,626	72,869	-0,243	-0,176
231,640	-103,956	-0,136	-0,022
232,655	182,818	-0,244	-0,251
233,669	436,853	-0,151	-0,229
234,684	800,000	-0,077	-0,178
235,699	161,876	-0,159	-0,155
236,713	465,474	-0,117	-0,182
237,728	199,127	-0,167	-0,178
238,742	181,403	-0,242	-0,247
239,757	52,468	-0,234	-0,155
240,772	-15,938	-0,311	-0,137
241,786	-77,153	-0,193	-0,046
242,801	800,000	-0,046	-0,115
243,815	-108,600	-0,109	0,016
244,830	-73,277	-0,114	0,029
245,844	96,850	-0,221	-0,176
246,859	-89,966	-0,109	-0,022
247,874	225,068	-0,212	-0,238
248,888	151,873	-0,153	-0,145
249,903	72,521	-0,133	-0,096
250,917	294,894	-0,116	-0,148
251,932	120,321	-0,048	-0,041
252,947	314,348	-0,132	-0,173
253,961	-200,000	-0,010	-0,203
254,976	-41,031	-0,206	-0,073
255,990	800,000	-0,134	-0,309
257,005	800,000	-0,064	-0,179
258,020	-90,771	-0,240	-0,048
259,034	-90,421	-0,279	-0,055
260,049	800,000	-0,043	-0,110
261,063	22,041	-0,142	-0,080
262,078	-200,000	-0,077	-0,289
263,093	177,588	-0,148	-0,150
264,107	-69,576	-0,299	-0,079
265,122	390,706	-0,064	-0,092
266,136	-200,000	0,016	-0,202
267,151	415,007	-0,160	-0,237
268,166	800,000	-0,084	-0,207
269,180	-200,000	-0,034	-0,191
270,195	181,496	-0,078	-0,079
271,209	102,266	-0,257	-0,208
272,224	131,936	-0,134	-0,120
273,239	-106,619	-0,188	-0,029
274,253	157,617	-0,184	-0,176
275,268	42,362	-0,167	-0,105
276,282	419,148	-0,061	-0,090
277,297	18,673	-0,295	-0,163
278,312	-38,762	-0,148	-0,054
279,326	164,087	-0,165	-0,160
280,341	687,820	-0,070	-0,127
281,355	39,512	-0,160	-0,099
282,370	-92,272	-0,203	-0,039
283,384	194,077	-0,142	-0,148
284,399	800,000	-0,159	-0,309
285,414	174,266	-0,224	-0,224
286,428	57,285	-0,156	-0,105
287,443	470,704	-0,154	-0,240
288,457	-80,655	-0,174	0,040
289,472	-106,257	-0,285	-0,044
290,487	615,594	-0,115	-0,201
291,501	-95,847	-0,227	-0,041
292,516	-4,627	-0,077	-0,036
293,530	37,440	-0,204	-0,125
294,545	-22,591	-0,221	-0,092
295,560	47,147	-0,242	-0,155
296,574	-96,666	-0,180	-0,032
297,589	44,000	-0,191	-0,120
298,603	-200,000	-0,048	-0,225
299,618	-200,000	-0,116	-0,399
300,633	133,313	-0,149	-0,133
301,647	18,130	-0,019	0,011
302,662	146,186	-0,135	-0,125
303,676	-62,826	-0,179	-0,051
304,691	222,813	-0,148	-0,165
305,706	13,089	-0,229	-0,122
306,720	30,856	-0,135	-0,079
307,735	20,081	-0,132	-0,073
308,749	-102,477	-0,097	0,016
309,764	227,990	-0,022	-0,025
310,779	-45,109	-0,047	-0,016
311,793	-12,309	-0,185	-0,083
312,808	-99,653	-0,127	0,022
313,822	-156,832	-0,152	0,006
314,837	800,000	-0,075	-0,188
315,852	463,430	-0,153	-0,237
316,866	-200,000	-0,025	-0,095
317,881	-98,163	-0,134	-0,024
318,895	46,194	-0,256	-0,163
319,910	800,000	-0,097	-0,197
320,925	34,737	-0,199	-0,120
321,939	119,946	-0,144	-0,123
322,954	-125,358	0,009	-0,001
323,968	144,303	-0,164	-0,151
324,983	-104,630	-0,232	0,036
325,997	-139,501	-0,135	-0,010
327,012	-45,463	-0,029	-0,010
328,027	-110,444	-0,171	-0,024
329,041	-80,889	-0,123	0,028
330,056	220,412	-0,088	-0,097
331,070	65,793	-0,093	-0,065
332,085	-76,831	-0,103	-0,025
333,100	800,000	-0,075	-0,191
334,114	216,301	-0,168	-0,184
335,129	-58,325	-0,221	-0,066
336,143	-200,000	-0,025	-0,112
337,158	800,000	0,010	-0,025
338,173	-12,170	-0,132	-0,059
339,187	36,179	-0,034	-0,020
340,202	91,717	-0,204	-0,158
341,216	368,443	-0,090	-0,126
342,231	-200,000	-0,172	-0,000
343,246	110,233	-0,151	-0,125
344,260	-200,000	-0,059	-0,189
345,275	393,510	-0,104	-0,150
346,289	-17,750	-0,197	0,085
347,304	376,998	-0,176	-0,248
348,319	-32,577	-0,088	-0,033
349,333	253,551	-0,178	-0,210
350,348	-29,588	-0,218	-0,085
351,362	800,000	-0,039	-0,114
352,377	-200,000	-0,027	-0,118
353,392	144,365	-0,179	-0,164
354,406	-119,122	-0,182	-0,022
355,421	209,889	1313,598	1417,134
356,435	161,561	1474,214	1417,667
