DTS Sentinel unit serial number:	SN410029Multiplexer serial number:	ORYXHardware model number:	OX2-SRSoftware version number:	ORYX F/W v4,00 Oryx Data Collector v3.7.2.0data status	okinstallation	B3 Nyhavnadifferential loss correction	single-endedforward channel	channel 1reverse channel	N/Adate	2023/12/04time	13:57:30forward acquisition time	300,00reverse acquisition time	0,00gamma	499,1914k internal	0,3201k external	0,3201temperature offset calibration	1,0000default loss term (dB/km)	0,3820temperature slope calibration	1,0000multiplexer offset coefficient	1,0000multiplexer slope coefficient	1,0000fibre end	0,00T internal ref (°C)	14,97T ext. ref 1 (°C)	0,23T ext. ref 2 (°C)	0,22length (m)	temperature (°C)	Stokes	anti-Stokes-744,400	202,919	-0,191	-0,215
-743,385	800,000	-0,092	0,228
-742,371	309,238	-0,147	-0,200
-741,356	800,000	-0,103	0,223
-740,342	155,816	-0,174	-0,175
-739,327	-200,000	0,043	0,395
-738,312	320,193	-0,262	-0,363
-737,298	-200,000	-0,065	0,379
-736,283	61,174	-0,239	-0,173
-735,269	-200,000	0,046	0,312
-734,254	338,606	-0,148	-0,210
-733,239	209,382	-0,146	0,167
-732,225	-200,000	-0,042	-0,164
-731,210	800,000	0,020	0,055
-730,196	-162,591	0,139	0,005
-729,181	366,550	-0,061	0,090
-728,167	800,000	-0,024	-0,059
-727,152	9,658	0,198	-0,109
-726,137	-7,474	-0,090	0,044
-725,123	800,000	-0,039	0,085
-724,108	183,513	0,017	-0,018
-723,094	117,499	-0,095	-0,085
-722,079	557,848	-0,018	-0,031
-721,064	210,791	-0,070	-0,080
-720,050	-66,030	-0,080	-0,023
-719,035	-129,850	-0,101	0,010
-718,021	-200,000	-0,013	-0,068
-717,006	32,740	-0,150	-0,094
-715,991	-200,000	-0,013	-0,184
-714,977	-200,000	-0,010	-0,201
-713,962	-200,000	0,021	0,120
-712,948	-200,000	0,029	-0,105
-711,933	695,583	-0,011	-0,021
-710,918	-31,709	-0,060	-0,024
-709,904	-27,783	-0,164	-0,069
-708,889	800,000	-0,047	0,109
-707,875	261,172	-0,041	0,052
-706,860	33,792	-0,031	-0,020
-705,845	-200,000	-0,014	0,072
-704,831	-200,000	0,029	-0,103
-703,816	-39,705	0,101	-0,038
-702,802	-111,487	0,036	-0,005
-701,787	-200,000	0,022	-0,071
-700,772	800,000	-0,032	-0,071
-699,758	33,777	-0,146	-0,092
-698,743	-200,000	-0,009	-0,042
-697,729	-147,658	0,097	-0,006
-696,714	800,000	-0,039	-0,089
-695,699	89,192	0,051	-0,041
-694,685	800,000	-0,039	-0,093
-693,670	102,066	0,027	0,023
-692,656	-70,306	-0,130	-0,035
-691,641	560,658	0,039	-0,068
-690,627	800,000	0,077	0,200
-689,612	219,870	0,057	0,066
-688,597	-200,000	0,019	-0,066
-687,583	322,383	0,023	-0,032
-686,568	124,972	0,010	0,009
-685,554	301,297	-0,062	0,083
-684,539	-149,407	-0,017	0,001
-683,524	15,086	0,070	0,040
-682,510	-18,409	-0,081	0,036
-681,495	581,450	-0,030	-0,054
-680,481	89,174	-0,132	-0,106
-679,466	119,857	0,038	-0,034
-678,451	-148,479	-0,220	0,013
-677,437	70,164	0,036	-0,027
-676,422	-200,000	-0,008	-0,111
-675,408	149,500	0,034	-0,033
-674,393	-4,711	-0,064	0,032
-673,378	394,258	-0,033	0,049
-672,364	800,000	-0,040	-0,091
-671,349	-200,000	0,046	-0,179
-670,335	61,180	-0,030	-0,021
-669,320	32,933	-0,086	0,054
-668,305	188,317	0,065	0,070
-667,291	440,195	0,064	0,103
-666,276	-82,993	-0,045	-0,010
-665,262	35,508	-0,028	-0,018
-664,247	136,769	0,079	0,075
-663,232	-3,184	0,038	0,019
-662,218	-200,000	0,006	-0,109
-661,203	282,497	-0,080	-0,104
-660,189	502,981	0,036	-0,061
-659,174	-200,000	0,034	-0,136
-658,159	-200,000	0,010	-0,140
-657,145	-101,379	-0,127	-0,022
-656,130	-109,765	-0,096	-0,014
-655,116	-39,373	-0,165	-0,062
-654,101	-29,291	-0,087	0,036
-653,086	185,476	0,080	-0,087
-652,072	125,483	-0,090	-0,083
-651,057	295,296	-0,089	-0,119
-650,043	-200,000	-0,016	-0,158
-649,028	-43,474	-0,061	0,022
-648,014	195,151	0,078	-0,086
-646,999	96,176	-0,024	0,020
-645,984	-200,000	-0,007	0,063
-644,970	800,000	-0,039	0,079
-643,955	800,000	-0,049	0,122
-642,941	-200,000	0,034	0,118
-641,926	23,865	-0,038	-0,023
-640,911	800,000	0,009	-0,024
-639,897	-78,080	-0,050	0,012
-638,882	20,341	0,005	-0,003
-637,868	521,189	-0,099	-0,168
-636,853	68,484	-0,064	-0,048
-635,838	-200,000	0,020	-0,078
-634,824	800,000	-0,063	-0,176
-633,809	30,632	0,048	0,030
-632,795	-179,148	-0,052	-0,001
-631,780	-200,000	0,016	-0,167
-630,765	100,446	0,141	-0,118
-629,751	124,475	-0,095	-0,086
-628,736	-200,000	-0,002	-0,033
-627,722	-186,840	-0,087	0,001
-626,707	800,000	-0,022	0,058
-625,692	13,189	-0,040	-0,022
-624,678	800,000	-0,034	0,079
-623,663	526,715	-0,069	0,119
-622,649	-98,032	-0,080	-0,015
-621,634	-200,000	0,038	-0,184
-620,619	-200,000	-0,022	-0,096
-619,605	-70,903	0,091	0,025
-618,590	318,100	0,071	0,097
-617,576	134,884	-0,049	0,047
-616,561	-116,872	0,074	0,010
-615,546	-200,000	0,005	-0,076
-614,532	800,000	-0,048	-0,120
-613,517	800,000	-0,040	-0,109
-612,503	159,148	-0,089	-0,089
-611,488	92,392	-0,049	-0,040
-610,474	375,429	0,128	0,189
-609,459	-91,862	-0,161	-0,033
-608,444	-200,000	0,005	-0,082
-607,430	800,000	0,036	-0,078
-606,415	263,765	-0,154	-0,194
-605,401	161,438	-0,082	0,083
-604,386	800,000	0,055	-0,139
-603,371	800,000	-0,039	0,103
-602,357	172,911	-0,028	0,030
-601,342	-200,000	0,000	0,151
-600,328	496,093	-0,030	0,049
-599,313	173,448	0,072	-0,075
-598,298	800,000	0,022	-0,058
-597,284	-182,591	0,066	0,001
-596,269	-43,042	0,089	-0,033
-595,255	-19,118	0,018	0,008
-594,240	-200,000	-0,010	-0,140
-593,225	518,906	-0,024	0,041
-592,211	-29,321	-0,049	0,020
-591,196	29,723	-0,052	-0,032
-590,182	-60,001	0,117	0,036
-589,167	522,413	-0,019	0,033
-588,152	-87,636	-0,199	0,043
-587,138	-166,650	0,015	-0,000
-586,123	-200,000	0,003	-0,054
-585,109	198,742	-0,058	-0,064
-584,094	455,058	0,081	-0,130
-583,079	-200,000	-0,109	0,000
-582,065	-200,000	0,000	0,061
-581,050	-57,154	-0,025	0,008
-580,036	258,350	-0,051	0,063
-579,021	766,846	-0,019	-0,038
-578,006	3,452	-0,109	-0,057
-576,992	800,000	0,025	-0,056
-575,977	56,957	0,042	0,030
-574,963	800,000	-0,033	0,093
-573,948	-200,000	-0,007	0,072
-572,934	99,035	-0,078	0,065
-571,919	-69,796	0,087	0,024
-570,904	147,464	-0,067	0,065
-569,890	-200,000	-0,003	-0,057
-568,875	27,225	-0,047	-0,028
-567,861	-200,000	-0,016	0,074
-566,846	-200,000	-0,020	0,117
-565,831	14,277	0,110	0,062
-564,817	105,627	0,082	-0,070
-563,802	247,021	-0,065	-0,079
-562,788	-112,767	-0,091	0,013
-561,773	-200,000	0,030	-0,103
-560,758	-60,355	0,031	0,009
-559,744	-200,000	-0,025	0,138
-558,729	-200,000	-0,014	0,071
-557,715	800,000	0,039	-0,090
-556,700	-49,412	0,030	-0,010
-555,685	-200,000	-0,001	0,052
-554,671	262,114	0,057	0,071
-553,656	-200,000	-0,000	-0,130
-552,642	-4,505	-0,009	0,004
-551,627	-200,000	0,007	-0,034
-550,612	-200,000	-0,005	-0,037
-549,598	-200,000	-0,009	-0,145
-548,583	-123,306	-0,160	-0,018
-547,569	-48,274	-0,137	0,048
-546,554	199,917	0,118	0,131
-545,539	-100,216	0,152	-0,027
-544,525	-81,035	-0,083	-0,020
-543,510	-200,000	0,012	0,055
-542,496	800,000	0,010	-0,021
-541,481	-131,565	0,063	-0,006
-540,466	-200,000	0,030	0,115
-539,452	50,389	0,106	-0,072
-538,437	-200,000	-0,016	-0,204
-537,423	299,070	0,015	0,021
-536,408	800,000	0,027	0,076
-535,393	-37,203	-0,090	0,034
-534,379	-200,000	0,010	-0,077
-533,364	-200,000	-0,001	0,023
-532,350	-115,461	0,062	-0,008
-531,335	722,762	0,042	0,081
-530,321	-142,720	0,061	-0,004
-529,306	800,000	-0,066	-0,206
-528,291	800,000	-0,015	-0,038
-527,277	42,449	-0,094	-0,062
-526,262	41,442	-0,062	-0,041
-525,248	-200,000	0,009	0,037
-524,233	-200,000	0,001	0,030
-523,218	-200,000	-0,021	-0,087
-522,204	118,787	0,077	-0,068
-521,189	417,435	0,020	0,031
-520,175	-200,000	-0,034	-0,203
-519,160	566,389	-0,022	-0,039
-518,145	312,553	-0,028	-0,038
-517,131	-10,987	0,143	-0,068
-516,116	-200,000	-0,023	-0,089
-515,102	95,006	-0,098	0,080
-514,087	-200,000	0,005	0,025
-513,072	373,999	-0,049	-0,072
-512,058	-121,693	-0,062	0,007
-511,043	567,422	-0,065	-0,114
-510,029	-91,643	-0,047	0,009
-509,014	-114,315	0,119	0,016
-507,999	-42,340	-0,068	0,025
-506,985	212,360	-0,120	0,137
-505,970	-200,000	0,017	0,099
-504,956	89,130	0,093	0,074
-503,941	473,383	0,029	-0,047
-502,926	-200,000	0,004	0,149
-501,912	404,620	-0,054	0,082
-500,897	-12,826	0,074	0,034
-499,883	34,673	0,048	-0,030
-498,868	-200,000	0,012	-0,041
-497,853	192,950	0,089	-0,097
-496,839	-200,000	0,028	-0,093
-495,824	132,894	0,044	0,041
-494,810	108,629	-0,096	0,083
-493,795	117,304	-0,021	-0,019
-492,781	-42,505	0,032	0,012
-491,766	-200,000	-0,000	-0,136
-490,751	-200,000	-0,006	-0,103
-489,737	-200,000	0,024	0,133
-488,722	53,204	0,091	0,063
-487,708	273,940	-0,115	0,146
-486,693	31,723	0,095	0,059
-485,678	800,000	-0,019	-0,046
-484,664	503,189	0,105	0,175
-483,649	-200,000	0,010	0,049
-482,635	273,150	0,004	-0,005
-481,620	241,291	-0,051	0,061
-480,605	10,465	0,078	-0,043
-479,591	0,826	-0,091	0,047
-478,576	1,743	-0,034	0,017
-477,562	254,130	-0,028	-0,034
-476,547	22,246	0,044	-0,026
-475,532	45,836	0,118	-0,078
-474,518	-200,000	0,035	-0,188
-473,503	-54,735	0,074	0,024
-472,489	800,000	0,021	-0,047
-471,474	338,163	-0,028	0,039
-470,459	-200,000	-0,012	-0,060
-469,445	800,000	0,040	-0,103
-468,430	-200,000	-0,004	-0,160
-467,416	48,127	0,109	0,074
-466,401	45,636	-0,095	-0,063
-465,386	-33,170	0,114	-0,045
-464,372	213,467	-0,018	-0,020
-463,357	614,669	0,062	0,113
-462,343	800,000	0,019	-0,042
-461,328	-200,000	-0,074	-0,283
-460,313	-200,000	0,019	0,100
-459,299	-151,074	0,077	-0,004
-458,284	523,305	0,058	0,098
-457,270	483,816	-0,049	-0,081
-456,255	42,895	-0,153	0,100
-455,241	449,021	-0,090	0,144
-454,226	-200,000	0,002	-0,063
-453,211	-175,621	0,125	-0,002
-452,197	149,739	0,097	-0,095
-451,182	116,044	0,099	0,087
-450,168	-200,000	0,014	0,049
-449,153	-200,000	0,007	-0,068
-448,138	88,152	0,052	-0,042
-447,124	790,271	0,074	-0,148
-446,109	11,114	-0,127	-0,070
-445,095	-166,501	0,154	-0,005
-444,080	25,447	0,079	0,047
-443,065	-182,606	-0,025	0,000
-442,051	-16,582	0,052	-0,024
-441,036	220,254	-0,064	-0,074
-440,022	116,986	0,046	-0,041
-439,007	-200,000	0,007	-0,068
-437,992	-200,000	-0,000	-0,031
-436,978	181,656	0,052	0,055
-435,963	-200,000	0,006	0,080
-434,949	800,000	-0,021	-0,054
-433,934	228,597	-0,094	-0,110
-432,919	-200,000	-0,004	0,102
-431,905	12,906	-0,102	-0,057
-430,890	-116,015	-0,020	0,003
-429,876	-200,000	0,007	0,061
-428,861	-200,000	-0,022	-0,106
-427,846	-85,057	0,038	0,008
-426,832	-200,000	-0,015	0,170
-425,817	-91,105	-0,112	0,023
-424,803	-125,637	-0,276	0,030
-423,788	354,911	0,051	0,073
-422,773	-140,862	0,116	0,008
-421,759	800,000	0,038	-0,088
-420,744	138,065	0,087	-0,082
-419,730	-110,221	-0,092	0,014
-418,715	-200,000	0,006	-0,121
-417,701	800,000	-0,046	0,114
-416,686	254,196	0,054	0,067
-415,671	800,000	-0,076	0,154
-414,657	228,013	0,042	0,049
-413,642	-43,653	-0,137	0,049
-412,628	437,029	0,025	0,040
-411,613	16,135	-0,090	0,051
-410,598	5,608	-0,067	0,035
-409,584	644,859	0,041	0,075
-408,569	72,562	0,010	-0,007
-407,555	-200,000	0,037	0,148
-406,540	18,922	-0,164	0,094
-405,525	-111,323	-0,119	0,017
-404,511	-57,815	0,101	0,032
-403,496	-200,000	0,008	0,065
-402,482	-10,702	0,037	-0,018
-401,467	258,914	0,027	-0,034
-400,452	-200,000	-0,012	-0,045
-399,438	254,574	0,095	0,117
-398,423	-122,008	-0,091	0,011
-397,409	-53,729	0,098	0,032
-396,394	366,705	0,037	0,054
-395,379	210,955	0,040	-0,045
-394,365	520,898	0,085	0,143
-393,350	800,000	-0,018	0,053
-392,336	-5,229	0,043	0,021
-391,321	-23,989	-0,052	0,022
-390,306	800,000	-0,053	-0,136
-389,292	119,268	0,070	-0,062
-388,277	-126,983	-0,108	0,011
-387,263	800,000	-0,011	-0,028
-386,248	-44,825	0,084	0,030
-385,233	800,000	0,045	0,102
-384,219	10,381	-0,194	-0,106
-383,204	30,082	-0,053	0,032
-382,190	5,741	-0,080	0,042
-381,175	317,412	0,039	0,052
-380,160	-200,000	0,044	0,199
-379,146	-200,000	0,008	-0,041
-378,131	-181,812	-0,178	-0,002
-377,117	-200,000	-0,008	0,063
-376,102	-200,000	0,007	0,104
-375,088	-200,000	0,007	-0,109
-374,073	-177,977	0,143	-0,002
-373,058	-114,205	0,060	-0,008
-372,044	293,062	0,094	-0,124
-371,029	-68,032	-0,113	-0,031
-370,015	-39,687	0,078	-0,029
-369,000	-9,868	-0,060	-0,029
-367,985	-200,000	-0,023	0,094
-366,971	235,812	-0,058	-0,069
-365,956	-64,646	0,083	-0,024
-364,942	-72,588	-0,091	0,024
-363,927	-29,709	0,116	-0,047
-362,912	-200,000	-0,005	-0,037
-361,898	-148,842	0,019	-0,001
-360,883	-32,481	-0,059	-0,024
-359,869	-200,000	-0,027	-0,091
-358,854	800,000	0,049	-0,135
-357,839	74,967	0,070	-0,052
-356,825	-200,000	-0,009	0,095
-355,810	800,000	0,010	-0,029
-354,796	800,000	-0,054	-0,148
-353,781	800,000	-0,041	-0,098
-352,766	-19,904	0,024	0,011
-351,752	800,000	-0,043	-0,089
-350,737	128,125	0,067	0,061
-349,723	322,289	0,085	-0,116
-348,708	-40,312	-0,048	-0,018
-347,693	196,342	-0,129	0,141
-346,679	68,681	0,065	-0,047
-345,664	-56,410	0,131	0,041
-344,650	-85,218	-0,052	0,011
-343,635	-200,000	-0,010	0,177
-342,620	79,855	0,117	0,090
-341,606	-200,000	0,011	0,113
-340,591	-200,000	0,013	-0,066
-339,577	-41,079	-0,189	-0,069
-338,562	66,541	0,128	-0,093
-337,548	-200,000	0,013	-0,042
-336,533	253,162	0,045	0,056
-335,518	-74,612	0,089	0,023
-334,504	58,841	-0,050	0,035
-333,489	-173,173	-0,116	-0,002
-332,475	800,000	-0,032	-0,069
-331,460	-92,757	-0,178	-0,035
-330,445	-145,680	0,056	-0,004
-329,431	230,784	-0,022	0,026
-328,416	-180,402	-0,062	0,001
-327,402	441,597	0,078	0,123
-326,387	136,122	0,121	-0,113
-325,372	-19,492	-0,127	-0,056
-324,358	-105,746	-0,188	0,030
-323,343	800,000	0,014	-0,030
-322,329	-200,000	0,000	-0,070
-321,314	592,688	0,130	0,231
-320,299	27,071	0,084	0,050
-319,285	294,591	0,056	-0,073
-318,270	217,281	0,043	0,049
-317,256	59,898	0,112	-0,079
-316,241	800,000	-0,033	-0,079
-315,226	120,850	0,035	0,031
-314,212	800,000	0,043	0,100
-313,197	800,000	0,035	0,072
-312,183	143,201	-0,145	-0,138
-311,168	800,000	0,008	0,023
-310,153	-200,000	-0,003	-0,095
-309,139	-200,000	-0,015	-0,142
-308,124	-69,054	0,145	-0,040
-307,110	800,000	-0,008	0,025
-306,095	761,589	-0,035	0,069
-305,080	600,586	-0,056	-0,100
-304,066	331,450	0,022	0,031
-303,051	-14,930	-0,108	0,049
-302,037	662,782	0,028	0,052
-301,022	-16,366	0,109	0,049
-300,008	800,000	0,034	0,078
-298,993	-200,000	-0,018	0,064
-297,978	70,592	-0,054	0,040
-296,964	94,019	0,087	-0,071
-295,949	-27,228	0,094	-0,039
-294,935	55,541	-0,038	-0,026
-293,920	267,931	-0,086	-0,108
-292,905	-73,301	0,057	0,015
-291,891	-200,000	0,008	0,050
-290,876	-200,000	0,029	-0,118
-289,862	19,687	-0,073	-0,042
-288,847	209,363	0,089	-0,099
-287,832	39,564	0,102	0,065
-286,818	535,597	0,055	-0,094
-285,803	79,048	0,044	0,034
-284,789	465,836	-0,046	0,074
-283,774	11,650	0,061	0,033
-282,759	-105,984	0,145	0,023
-281,745	-200,000	0,006	-0,082
-280,730	-200,000	-0,008	-0,033
-279,716	-78,463	0,137	0,033
-278,701	-200,000	0,011	0,129
-277,686	101,551	0,071	0,059
-276,672	800,000	0,008	0,017
-275,657	-117,970	0,042	-0,005
-274,643	697,374	0,066	-0,125
-273,628	76,164	0,040	-0,030
-272,613	-200,000	-0,009	0,064
-271,599	132,990	0,086	0,079
-270,584	-83,202	-0,051	-0,012
-269,570	-91,549	0,206	0,042
-268,555	157,615	0,028	0,028
-267,540	-173,166	-0,037	0,001
-266,526	-200,000	0,029	0,095
-265,511	-200,000	-0,006	-0,181
-264,497	511,399	-0,030	0,050
-263,482	800,000	0,044	0,126
-262,467	13,250	0,098	0,054
-261,453	262,148	0,039	-0,048
-260,438	800,000	0,061	-0,122
-259,424	23,764	0,052	0,030
-258,409	-105,324	-0,059	0,009
-257,395	-200,000	-0,010	0,040
-256,380	57,385	0,073	-0,051
-255,365	800,000	0,066	0,156
-254,351	800,000	-0,059	0,129
-253,336	126,512	0,071	0,064
-252,322	52,490	0,016	-0,011
-251,307	536,412	0,075	0,128
-250,292	-71,643	0,038	-0,010
-249,278	-200,000	-0,000	0,061
-248,263	-200,000	-0,016	0,054
-247,249	123,997	0,070	0,063
-246,234	161,801	0,173	0,173
-245,219	119,510	-0,101	-0,089
-244,205	-67,178	0,087	0,024
-243,190	365,364	-0,064	-0,092
-242,176	800,000	0,036	0,075
-241,161	-200,000	0,010	0,049
-240,146	-200,000	0,020	-0,106
-239,132	-56,394	0,066	0,021
-238,117	102,394	-0,167	-0,139
-237,103	800,000	-0,039	0,095
-236,088	-200,000	0,017	-0,170
-235,073	-103,346	-0,006	-0,001
-234,059	-39,643	0,108	0,040
-233,044	104,520	0,092	-0,077
-232,030	783,979	0,022	0,043
-231,015	7,149	0,018	-0,010
-230,000	171,083	0,024	0,025
-228,986	716,564	-0,065	0,123
-227,971	-158,468	0,096	-0,004
-226,957	33,323	0,046	0,028
-225,942	133,811	0,064	0,059
-224,927	-0,101	-0,221	-0,112
-223,913	110,504	-0,125	0,107
-222,898	-65,148	-0,153	-0,044
-221,884	-87,021	-0,075	0,016
-220,869	-9,400	0,045	-0,021
-219,855	-110,226	0,181	0,027
-218,840	209,271	-0,069	0,077
-217,825	800,000	-0,041	-0,081
-216,811	-149,438	0,092	0,005
-215,796	-200,000	-0,034	-0,137
-214,782	42,804	-0,114	-0,074
-213,767	12,776	0,075	0,041
-212,752	-200,000	-0,039	0,171
-211,738	-200,000	-0,002	0,071
-210,723	800,000	-0,046	0,141
-209,709	75,391	-0,136	0,102
-208,694	51,292	0,056	-0,038
-207,679	-200,000	-0,016	-0,059
-206,665	-85,168	0,150	-0,033
-205,650	-77,465	-0,069	-0,017
-204,636	-200,000	0,002	0,075
-203,621	-200,000	0,005	0,124
-202,606	-141,915	-0,087	0,006
-201,592	800,000	0,034	-0,104
-200,577	-104,196	-0,194	0,032
-199,563	-200,000	0,001	-0,028
-198,548	-127,340	-0,085	0,009
-197,533	-200,000	-0,028	0,124
-196,519	-60,703	0,038	0,011
-195,504	156,133	-0,051	-0,050
-194,490	800,000	-0,077	-0,153
-193,475	800,000	-0,030	0,089
-192,460	202,615	-0,003	-0,003
-191,446	46,344	0,016	0,011
-190,431	-87,339	0,106	0,023
-189,417	-4,267	0,104	-0,051
-188,402	-139,120	-0,005	0,000
-187,387	-200,000	-0,018	-0,098
-186,373	-200,000	0,022	0,078
-185,358	101,506	0,148	0,123
-184,344	280,986	-0,064	0,081
-183,329	229,167	-0,047	0,055
-182,315	-141,312	-0,178	0,013
-181,300	50,791	-0,009	-0,006
-180,285	800,000	0,002	0,004
-179,271	148,465	-0,076	-0,073
-178,256	2,270	0,027	-0,014
-177,242	-75,367	0,094	0,024
-176,227	800,000	0,037	0,113
-175,212	-72,259	-0,100	0,026
-174,198	225,922	-0,027	-0,031
-173,183	-134,749	-0,080	0,007
-172,169	-200,000	-0,026	-0,172
-171,154	-5,768	-0,061	0,030
-170,139	515,569	-0,076	-0,126
-169,125	214,938	0,086	-0,098
-168,110	73,828	-0,029	-0,022
-167,096	170,742	0,029	0,029
-166,081	-86,644	0,114	-0,025
-165,066	130,292	0,045	0,041
-164,052	-38,206	-0,184	0,069
-163,037	65,706	0,063	-0,045
-162,023	800,000	0,028	0,059
-161,008	-200,000	-0,016	0,097
-159,993	-68,116	0,063	0,017
-158,979	800,000	-0,030	-0,090
-157,964	299,043	-0,109	-0,142
-156,950	-144,845	-0,222	0,014
-155,935	-200,000	-0,013	0,134
-154,920	-200,000	0,005	0,119
-153,906	-200,000	-0,003	0,119
-152,891	-24,943	-0,130	-0,054
-151,877	-200,000	0,020	0,083
-150,862	173,240	-0,096	0,098
-149,847	477,023	0,052	0,084
-148,833	-94,642	-0,052	0,010
-147,818	550,844	0,068	-0,116
-146,804	18,114	0,092	-0,052
-145,789	666,112	0,023	0,043
-144,775	159,802	-0,082	0,082
-143,760	-200,000	-0,020	0,098
-142,745	-72,987	-0,060	-0,015
-141,731	-150,689	-0,062	-0,003
-140,716	104,484	0,166	0,139
-139,702	-200,000	0,021	0,074
-138,687	198,568	0,085	0,092
-137,672	800,000	-0,076	0,223
-136,658	-192,922	-0,105	-0,001
-135,643	-0,747	0,135	-0,068
-134,629	-8,156	-0,111	-0,053
-133,614	246,418	0,091	-0,109
-132,599	8,968	0,107	0,057
-131,585	648,149	-0,040	0,073
-130,570	4,435	0,023	0,012
-129,556	119,936	-0,049	-0,043
-128,541	-31,462	-0,075	0,030
-127,526	-38,514	-0,091	0,034
-126,512	175,695	0,088	0,091
-125,497	-17,426	0,203	0,090
-124,483	370,317	0,067	0,097
-123,468	800,000	0,052	-0,113
-122,453	-200,000	0,009	-0,030
-121,439	-200,000	-0,006	-0,033
-120,424	-153,381	-0,098	-0,005
-119,410	-200,000	0,045	0,192
-118,395	424,946	0,059	0,090
-117,380	586,485	0,032	-0,057
-116,366	-200,000	-0,001	-0,049
-115,351	800,000	0,033	-0,091
-114,337	691,330	0,025	-0,048
-113,322	-50,450	-0,122	0,041
-112,307	412,716	-0,071	-0,107
-111,293	665,417	0,048	-0,089
-110,278	-1,668	-0,063	-0,031
-109,264	270,578	0,029	-0,036
-108,249	524,295	0,051	-0,085
-107,234	-34,737	-0,070	-0,027
-106,220	-153,316	-0,151	0,007
-105,205	16,286	0,073	-0,041
-104,191	-200,000	0,007	0,058
-103,176	-145,100	0,220	0,014
-102,162	800,000	-0,045	0,104
-101,147	251,846	-0,151	0,182
-100,132	289,596	0,051	0,066
-99,118	203,334	-0,071	-0,078
-98,103	-80,190	-0,041	-0,010
-97,089	800,000	0,044	0,092
-96,074	-200,000	-0,003	0,029
-95,059	33,773	0,026	0,016
-94,045	-200,000	0,005	0,126
-93,030	174,845	-0,060	0,062
-92,016	360,172	-0,058	-0,082
-91,001	225,159	0,089	0,102
-89,986	800,000	0,035	0,090
-88,972	7,203	-0,060	0,032
-87,957	800,000	-0,056	0,139
-86,943	70,564	-0,021	-0,015
-85,928	-93,290	0,022	0,004
-84,913	66,761	-0,057	0,041
-83,899	151,534	0,117	0,113
-82,884	241,703	0,036	0,043
-81,870	522,117	0,042	0,070
-80,855	-70,904	0,079	0,021
-79,840	451,441	-0,049	-0,077
-78,826	-17,284	-0,079	-0,035
-77,811	-200,000	-0,040	-0,127
-76,797	246,803	-0,049	-0,059
-75,782	800,000	0,052	-0,108
-74,767	800,000	-0,049	0,129
-73,753	-122,352	0,146	0,017
-72,738	-88,611	0,076	-0,016
-71,724	-200,000	-0,011	0,082
-70,709	290,313	-0,058	0,075
-69,694	18,784	0,109	-0,062
-68,680	247,438	0,058	0,070
-67,665	-200,000	0,012	0,052
-66,651	-134,018	0,108	-0,009
-65,636	800,000	-0,025	0,070
-64,622	-141,177	-0,186	-0,013
-63,607	73,182	-0,079	-0,058
-62,592	1,395	0,046	-0,023
-61,578	180,376	-0,075	-0,078
-60,563	189,329	-0,015	-0,016
-59,549	800,000	0,032	0,094
-58,534	-45,755	-1,400	-0,487
-57,519	316,851	-1,547	-2,075
-56,505	-200,000	-0,417	-4,586
-55,490	183,117	0,945	0,990
-54,476	800,000	4,733	11,310
-53,461	-200,000	18,332	287,990
-52,446	800,000	727,787	2229,385
-51,432	554,501	1643,501	2810,285
-50,417	79,211	1665,043	1262,010
-49,403	22,823	1539,033	890,533
-48,388	16,810	1462,132	816,923
-47,373	17,873	1452,013	816,352
-46,359	17,197	1442,715	807,864
-45,344	15,114	1437,944	795,215
-44,330	15,023	1435,925	793,635
-43,315	14,994	1434,407	792,628
-42,300	15,039	1432,765	791,901
-41,286	15,076	1431,436	791,313
-40,271	15,064	1430,097	790,483
-39,257	15,034	1429,112	789,767
-38,242	15,082	1427,674	789,166
-37,227	15,062	1426,641	788,471
-36,213	15,060	1425,372	787,725
-35,198	15,037	1424,184	786,932
-34,184	15,129	1423,124	786,750
-33,169	15,032	1422,098	785,690
-32,154	15,103	1420,888	785,327
-31,140	15,088	1419,422	784,416
-30,125	15,104	1418,477	783,937
-29,111	15,103	1417,497	783,361
-28,096	15,061	1416,245	782,439
-27,082	15,029	1415,037	781,589
-26,067	14,999	1413,854	780,764
-25,052	15,004	1412,974	780,271
-24,038	15,000	1411,786	779,568
-23,023	14,966	1411,113	779,005
-22,009	14,966	1409,974	778,347
-20,994	14,934	1409,193	777,733
-19,979	14,964	1408,269	777,331
-18,965	14,943	1406,990	776,496
-17,950	14,946	1406,152	776,016
-16,936	14,931	1405,349	775,472
-15,921	14,886	1404,078	774,530
-14,906	14,877	1403,276	774,015
-13,892	14,910	1402,166	773,529
-12,877	14,904	1401,527	773,117
-11,863	14,925	1400,445	772,587
-10,848	14,901	1399,536	771,942
-9,833	14,835	1398,941	771,278
-8,819	14,822	1397,846	770,583
-7,804	14,842	1397,004	770,181
-6,790	14,795	1395,834	769,290
-5,775	14,805	1394,922	768,800
-4,760	14,807	1393,918	768,224
-3,746	14,831	1393,077	767,843
-2,731	14,787	1392,271	767,165
-1,717	14,781	1391,553	766,711
-0,702	14,816	1389,468	765,692
0,313	18,565	1308,394	738,375
1,327	34,760	706,455	436,186
2,342	53,031	124,567	84,215
3,356	2,585	16,490	8,425
4,371	20,561	3,139	1,791
5,386	6,845	0,432	0,227
6,400	247,193	0,125	0,149
7,415	112,834	-0,182	-0,156
8,429	166,537	-0,289	-0,290
9,444	-16,735	-0,426	-0,190
10,459	162,560	-0,212	-0,211
11,473	185,470	-0,293	-0,308
12,488	46,325	-0,320	-0,210
13,502	-46,222	-0,324	-0,112
14,517	-110,347	-0,217	-0,031
15,531	78,360	-0,329	-0,248
16,546	126,288	-0,295	-0,264
17,561	146,578	-0,364	-0,346
18,575	-9,992	-0,198	-0,093
19,590	-30,493	-0,241	-0,096
20,604	62,659	-0,284	-0,200
21,619	128,164	-0,401	-0,360
22,634	150,009	-0,367	-0,351
23,648	45,514	-0,529	-0,344
24,663	37,794	-0,424	-0,265
25,677	-4,618	-0,326	-0,158
26,692	109,543	-0,344	-0,291
27,707	133,811	-0,334	-0,306
28,721	296,245	-0,177	-0,230
29,736	30,596	-0,391	-0,235
30,750	31,121	-0,425	-0,257
31,765	115,017	-0,329	-0,283
32,780	266,963	-0,324	-0,401
33,794	226,658	-0,314	-0,360
34,809	208,218	-0,220	-0,242
35,823	-2,204	-0,355	-0,175
36,838	203,578	-0,368	-0,403
37,853	100,872	-0,348	-0,286
38,867	13,444	-0,397	-0,217
39,882	35,190	-0,312	-0,192
40,896	103,245	-0,294	-0,243
41,911	-95,075	-0,402	-0,076
42,926	76,392	-0,321	-0,240
43,940	40,128	-0,374	-0,236
44,955	439,154	-0,283	-0,437
45,969	-4,682	-0,334	-0,162
46,984	100,850	-0,331	-0,271
47,999	-5,725	-0,308	-0,148
49,013	85,640	-0,316	-0,244
50,028	192,840	-0,327	-0,349
51,042	12,653	-0,487	-0,264
52,057	-124,155	-0,261	-0,029
53,071	93,615	-0,212	-0,169
54,086	4,526	-0,411	-0,212
55,101	-42,302	-0,362	-0,130
56,115	-50,597	-0,367	-0,121
57,130	61,028	-0,446	-0,311
58,144	104,764	-0,249	-0,207
59,159	263,393	-0,327	-0,401
60,174	158,370	-0,305	-0,298
61,188	89,996	-0,307	-0,241
62,203	189,242	-0,297	-0,314
63,217	-36,509	-0,389	-0,146
64,232	3,570	-0,220	-0,113
65,247	-32,388	-0,345	-0,135
66,261	32,934	-0,355	-0,216
67,276	130,340	-0,338	-0,304
68,290	-32,494	-0,350	-0,137
69,305	7,602	-0,256	-0,134
70,320	71,517	-0,298	-0,217
71,334	-140,807	-0,259	0,019
72,349	-156,137	-0,290	-0,013
73,363	114,219	-0,429	-0,367
74,378	53,811	-0,347	-0,234
75,393	36,113	-0,344	-0,212
76,407	134,260	-0,233	-0,213
77,422	-12,113	-0,352	-0,161
78,436	120,452	-0,206	-0,180
79,451	126,601	-0,259	-0,231
80,466	42,359	-0,358	-0,228
81,480	-48,306	-0,314	-0,106
82,495	148,054	-0,369	-0,350
83,509	128,423	-0,241	-0,215
84,524	-34,627	-0,341	-0,131
85,539	-119,180	-0,232	-0,028
86,553	149,018	-0,202	-0,192
87,568	410,721	-0,215	-0,322
88,582	64,121	-0,398	-0,281
89,597	-42,782	-0,376	-0,134
90,611	13,731	-0,372	-0,202
91,626	102,382	-0,172	-0,141
92,641	61,670	-0,315	-0,220
93,655	14,110	-0,302	-0,165
94,670	159,228	-0,318	-0,310
95,684	75,348	-0,337	-0,249
96,699	109,545	-0,271	-0,228
97,714	32,031	-0,234	-0,141
98,728	14,341	-0,377	-0,205
99,743	124,509	-0,231	-0,204
100,757	312,326	-0,224	-0,296
101,772	249,820	-0,165	-0,196
102,787	42,639	-0,298	-0,190
103,801	-24,199	-0,269	-0,112
104,816	-29,827	-0,258	-0,102
105,830	60,898	-0,236	-0,164
106,845	126,443	-0,235	-0,209
107,860	67,216	-0,283	-0,202
108,874	91,105	-0,312	-0,245
109,889	11,486	-0,229	-0,123
110,903	39,942	-0,234	-0,147
111,918	4,084	-0,188	-0,096
112,933	60,782	-0,234	-0,162
113,947	252,836	-0,141	-0,169
114,962	19,013	-0,167	-0,094
115,976	42,229	-0,256	-0,162
116,991	199,116	-0,166	-0,179
118,006	88,837	-0,347	-0,270
119,020	98,527	-0,293	-0,237
120,035	273,604	-0,248	-0,308
121,049	31,994	-0,127	-0,077
122,064	-116,858	-0,213	-0,027
123,079	800,000	-0,088	-0,269
124,093	90,080	-0,330	-0,258
125,108	69,380	-0,298	-0,214
126,122	800,000	-0,138	-0,293
127,137	-175,167	-0,217	-0,004
128,151	79,871	-0,298	-0,223
129,166	62,389	-0,269	-0,188
130,181	127,281	-0,274	-0,243
131,195	210,575	-0,289	-0,319
132,210	137,006	-0,356	-0,325
133,224	-139,592	-0,295	-0,022
134,239	215,523	-0,259	-0,288
135,254	58,299	-0,181	-0,124
136,268	-134,903	-0,255	-0,021
137,283	43,306	-0,313	-0,200
138,297	-15,080	-0,278	-0,124
139,312	79,322	-0,299	-0,224
140,327	174,994	-0,173	-0,175
141,341	-38,547	-0,146	-0,054
142,356	-25,356	-0,268	-0,110
143,370	204,527	-0,136	-0,147
144,385	122,806	-0,296	-0,259
145,400	779,736	-0,159	-0,306
146,414	153,216	-0,236	-0,226
147,429	99,788	-0,300	-0,242
148,443	252,082	-0,229	-0,273
149,458	217,154	-0,158	-0,176
150,473	163,742	-0,173	-0,170
151,487	125,859	-0,261	-0,230
152,502	154,969	-0,279	-0,268
153,516	154,531	-0,267	-0,256
154,531	336,327	-0,265	-0,360
155,546	361,843	-0,154	-0,217
156,560	431,763	-0,144	-0,219
157,575	-200,000	-0,026	-0,157
158,589	28,345	-0,159	-0,093
159,604	348,379	-0,204	-0,281
160,619	99,590	-0,367	-0,296
161,633	166,827	-0,261	-0,258
162,648	153,741	-0,237	-0,227
163,662	314,133	-0,109	-0,143
164,677	132,039	-0,290	-0,261
165,692	91,645	-0,174	-0,136
166,706	43,496	-0,266	-0,169
167,721	-0,906	-0,355	-0,175
168,735	129,832	-0,282	-0,251
169,750	40,280	-0,224	-0,140
170,764	115,111	-0,282	-0,240
171,779	800,000	-0,172	-0,364
172,794	123,109	-0,201	-0,176
173,808	567,172	-0,179	-0,304
174,823	292,007	-0,219	-0,279
175,837	90,676	-0,207	-0,161
176,852	-57,302	-0,202	-0,061
177,867	104,842	-0,115	-0,095
178,881	-99,526	-0,273	-0,047
179,896	79,689	-0,210	-0,157
180,910	178,011	-0,245	-0,249
181,925	82,084	-0,335	-0,253
182,940	255,322	-0,194	-0,232
183,954	71,758	-0,275	-0,198
184,969	331,151	-0,132	-0,177
185,983	88,224	-0,242	-0,187
186,998	-35,720	-0,259	-0,097
188,013	82,550	-0,177	-0,133
189,027	76,008	-0,189	-0,139
190,042	213,910	-0,125	-0,138
191,056	53,571	-0,188	-0,125
192,071	62,193	-0,197	-0,136
193,086	-74,577	-0,168	-0,042
194,100	-11,427	-0,062	0,028
195,115	21,600	-0,156	-0,088
196,129	287,709	-0,194	-0,245
197,144	468,419	-0,133	-0,209
198,159	69,413	-0,173	-0,124
199,173	128,759	-0,178	-0,158
200,188	176,064	-0,154	-0,155
201,202	58,530	-0,143	-0,097
202,217	37,672	-0,182	-0,112
203,232	112,921	-0,136	-0,115
204,246	103,033	-0,272	-0,221
205,261	470,698	-0,152	-0,239
206,275	-50,234	-0,197	-0,064
207,290	86,137	-0,220	-0,168
208,304	-70,260	-0,256	-0,067
209,319	-77,620	-0,121	-0,029
210,334	-54,431	-0,317	-0,099
211,348	800,000	-0,079	-0,209
212,363	280,971	-0,136	-0,170
213,377	42,486	-0,254	-0,160
214,392	350,278	-0,095	-0,131
215,407	800,000	-0,069	-0,143
216,421	148,298	-0,119	0,112
217,436	428,079	-0,177	-0,267
218,450	139,425	-0,201	-0,184
219,465	-5,524	-0,229	-0,108
220,480	290,479	-0,224	-0,283
221,494	800,000	-0,152	-0,303
222,509	-59,045	-0,166	-0,049
223,523	88,914	-0,137	-0,106
224,538	-47,211	-0,259	-0,087
225,553	298,253	-0,162	-0,207
226,567	662,104	-0,148	-0,266
227,582	115,228	-0,304	-0,258
228,596	-52,041	-0,236	-0,076
229,611	71,725	-0,158	-0,113
230,626	30,372	-0,075	-0,044
231,640	408,449	-0,118	-0,174
232,655	-8,202	-0,244	-0,113
233,669	108,372	-0,242	-0,200
234,684	130,755	-0,122	-0,108
235,699	40,016	-0,253	-0,157
236,713	-68,219	-0,111	-0,030
237,728	62,341	-0,199	-0,137
238,742	245,370	-0,165	-0,193
239,757	800,000	-0,104	-0,240
240,772	202,712	-0,148	-0,159
241,786	498,409	-0,131	-0,210
242,801	211,954	-0,124	-0,136
243,815	800,000	-0,056	-0,134
244,830	32,049	-0,231	-0,137
245,844	58,920	-0,129	-0,088
246,859	-7,519	-0,168	-0,078
247,874	235,788	-0,155	-0,178
248,888	104,319	-0,312	-0,254
249,903	418,221	-0,131	-0,195
250,917	23,113	-0,177	-0,100
251,932	-15,814	-0,130	-0,057
252,947	89,729	-0,186	-0,144
253,961	-2,084	-0,129	-0,063
254,976	332,092	-0,229	-0,306
255,990	139,442	-0,123	-0,112
257,005	103,869	-0,150	-0,122
258,020	178,491	-0,104	-0,105
259,034	206,212	-0,068	-0,073
260,049	94,938	-0,166	-0,131
261,063	-200,000	0,021	-0,142
262,078	155,840	-0,222	-0,212
263,093	71,631	-0,165	-0,118
264,107	545,865	-0,050	-0,084
265,122	-74,488	-0,133	-0,033
266,136	-80,472	-0,163	-0,037
267,151	-200,000	-0,031	-0,095
268,166	155,168	-0,118	-0,113
269,180	500,814	-0,223	-0,357
270,195	206,668	-0,163	-0,176
271,209	274,867	-0,076	-0,093
272,224	170,120	-0,092	-0,091
273,239	800,000	-0,070	-0,175
274,253	11,586	-0,089	0,047
275,268	-107,276	-0,275	-0,041
276,282	93,269	-0,317	-0,248
277,297	175,528	-0,135	-0,135
278,312	-200,000	-0,032	-0,280
279,326	800,000	-0,068	-0,134
280,341	-23,412	-0,224	-0,093
281,355	-76,201	-0,204	-0,049
282,370	106,426	-0,184	-0,150
283,384	353,149	-0,121	-0,166
284,399	-10,591	-0,128	-0,058
285,414	226,004	-0,155	-0,174
286,428	800,000	-0,068	-0,182
287,443	-130,873	-0,128	-0,012
288,457	-18,104	-0,100	-0,043
289,472	119,123	-0,270	-0,230
290,487	-50,612	-0,248	-0,080
291,501	218,082	-0,242	-0,267
292,516	220,242	-0,218	-0,242
293,530	27,725	-0,145	-0,084
294,545	206,096	-0,191	-0,205
295,560	155,884	-0,161	-0,153
296,574	-200,000	-0,085	0,000
297,589	-105,223	-0,148	-0,023
298,603	13,261	-0,150	-0,080
299,618	144,226	-0,234	-0,215
300,633	-97,210	-0,134	0,024
301,647	2,743	-0,185	-0,092
302,662	-73,356	-0,130	-0,033
303,676	-58,177	-0,171	-0,051
304,691	72,562	-0,172	-0,123
305,706	338,090	-0,121	-0,162
306,720	96,663	-0,078	-0,061
307,735	-200,000	-0,020	-0,136
308,749	-56,061	-0,118	0,036
309,764	158,300	-0,138	-0,132
310,779	-14,569	-0,113	-0,050
311,793	105,991	-0,129	-0,105
312,808	-11,226	-0,147	-0,066
313,822	44,970	-0,214	-0,136
314,837	-84,137	-0,240	-0,052
315,852	-39,170	-0,188	0,068
316,866	93,040	-0,185	-0,144
317,881	-168,075	-0,194	-0,005
318,895	-127,024	-0,075	-0,008
319,910	-77,286	-0,156	-0,037
320,925	-158,568	-0,218	-0,008
321,939	-200,000	-0,002	-0,059
322,954	-200,000	-0,014	-0,154
323,968	305,830	-0,107	0,137
324,983	46,733	-0,075	-0,048
325,997	-103,627	-0,102	-0,016
327,012	64,386	-0,249	-0,172
328,027	63,054	-0,174	-0,120
329,041	163,289	-0,156	-0,151
330,056	32,585	-0,154	-0,091
331,070	-88,440	-0,174	-0,035
332,085	129,314	-0,173	-0,152
333,100	-2,944	-0,252	-0,121
334,114	121,952	-0,119	-0,102
335,129	-114,295	-0,127	-0,017
336,143	246,821	-0,062	-0,072
337,158	54,277	-0,135	-0,089
338,173	-71,822	-0,198	-0,050
339,187	80,992	-0,110	-0,081
340,202	-89,684	-0,134	-0,027
341,216	228,226	-0,200	-0,224
342,231	132,306	-0,184	-0,163
343,246	-10,898	-0,179	-0,081
344,260	165,582	-0,100	-0,097
345,275	148,670	-0,181	-0,168
346,289	-154,076	-0,087	0,004
347,304	-110,449	-0,255	-0,036
348,319	-127,966	-0,162	-0,016
349,333	-43,862	-0,264	-0,091
350,348	-82,156	-0,227	-0,050
351,362	424,019	-0,133	-0,197
352,377	176,100	-0,067	-0,067
353,392	412,697	-0,048	-0,071
354,406	-200,000	-0,017	-0,104
355,421	208,531	1316,089	1413,687
356,435	160,459	1476,985	1414,188
