DTS Sentinel unit serial number:	SN410029Multiplexer serial number:	ORYXHardware model number:	OX2-SRSoftware version number:	ORYX F/W v4,00 Oryx Data Collector v3.7.2.0data status	okinstallation	B3 Nyhavnadifferential loss correction	single-endedforward channel	channel 1reverse channel	N/Adate	2023/12/02time	22:32:30forward acquisition time	300,00reverse acquisition time	0,00gamma	499,1914k internal	0,3201k external	0,3201temperature offset calibration	1,0000default loss term (dB/km)	0,3820temperature slope calibration	1,0000multiplexer offset coefficient	1,0000multiplexer slope coefficient	1,0000fibre end	0,00T internal ref (°C)	13,21T ext. ref 1 (°C)	-1,80T ext. ref 2 (°C)	-1,82length (m)	temperature (°C)	Stokes	anti-Stokes-744,400	65,839	-0,280	-0,206
-743,385	-200,000	-0,016	0,240
-742,371	248,583	-0,184	-0,227
-741,356	525,172	0,159	0,273
-740,342	716,592	-0,161	-0,313
-739,327	-200,000	0,019	0,290
-738,312	46,160	-0,322	-0,217
-737,298	-200,000	-0,080	0,299
-736,283	344,374	-0,147	-0,210
-735,269	-200,000	0,055	0,299
-734,254	446,852	-0,154	-0,246
-733,239	184,845	-0,219	0,236
-732,225	554,757	-0,151	-0,266
-731,210	-146,492	-0,064	-0,004
-730,196	-21,334	-0,023	-0,010
-729,181	93,900	0,086	-0,071
-728,167	-200,000	0,003	-0,018
-727,152	-52,192	0,192	0,064
-726,137	261,397	-0,077	-0,097
-725,123	150,966	-0,054	0,053
-724,108	473,648	-0,085	-0,139
-723,094	-144,609	-0,128	0,008
-722,079	149,171	0,071	-0,070
-721,064	-112,640	-0,143	-0,020
-720,050	682,191	0,080	0,152
-719,035	-34,038	0,113	-0,045
-718,021	143,631	-0,072	-0,069
-717,006	-184,566	0,078	0,001
-715,991	-200,000	0,008	0,057
-714,977	-200,000	-0,005	-0,041
-713,962	22,471	-0,095	-0,056
-712,948	-200,000	0,002	0,111
-711,933	134,257	-0,081	0,076
-710,918	-84,368	-0,038	-0,009
-709,904	-200,000	-0,045	-0,166
-708,889	-200,000	-0,017	-0,127
-707,875	35,373	0,082	-0,052
-706,860	137,181	0,053	-0,050
-705,845	-200,000	-0,012	0,064
-704,831	179,792	0,033	0,035
-703,816	-168,879	-0,088	0,002
-702,802	44,645	-0,125	0,083
-701,787	-27,793	-0,066	0,028
-700,772	800,000	-0,028	-0,061
-699,758	-36,970	0,038	-0,015
-698,743	74,025	0,115	0,088
-697,729	-4,669	-0,137	0,069
-696,714	97,855	0,040	-0,034
-695,699	338,506	0,111	-0,158
-694,685	-68,287	0,061	-0,017
-693,670	-200,000	-0,017	0,127
-692,656	70,922	-0,037	-0,028
-691,641	-200,000	-0,018	-0,124
-690,627	-32,414	0,163	0,066
-689,612	-117,840	-0,089	0,011
-688,597	-87,079	-0,152	0,033
-687,583	41,760	-0,127	-0,083
-686,568	-53,513	-0,040	-0,013
-685,554	-20,519	0,085	-0,038
-684,539	709,862	0,057	-0,109
-683,524	-200,000	0,016	-0,068
-682,510	-134,121	0,106	-0,009
-681,495	107,987	-0,047	-0,041
-680,481	187,470	-0,075	0,082
-679,466	83,780	-0,079	0,063
-678,451	62,007	0,094	0,068
-677,437	-200,000	-0,017	0,106
-676,422	-200,000	0,005	0,110
-675,408	-78,296	-0,189	-0,047
-674,393	86,779	0,089	-0,071
-673,378	-200,000	-0,008	-0,141
-672,364	41,137	-0,127	-0,083
-671,349	48,274	-0,082	0,056
-670,335	-200,000	0,004	-0,135
-669,320	-159,805	-0,148	0,006
-668,305	-200,000	-0,011	0,076
-667,291	-200,000	0,011	0,058
-666,276	158,686	0,029	0,029
-665,262	800,000	-0,057	-0,133
-664,247	95,892	0,025	-0,021
-663,232	258,758	0,033	-0,041
-662,218	183,382	0,106	-0,114
-661,203	7,990	-0,049	-0,027
-660,189	-129,162	0,021	-0,002
-659,174	37,254	-0,080	0,051
-658,159	800,000	-0,026	-0,061
-657,145	384,247	-0,165	-0,247
-656,130	-200,000	0,018	-0,062
-655,116	-89,765	-0,073	-0,015
-654,101	-200,000	0,005	0,028
-653,086	606,646	-0,070	0,126
-652,072	108,602	-0,122	0,106
-651,057	394,326	-0,059	-0,089
-650,043	320,853	-0,019	0,026
-649,028	54,317	0,030	-0,021
-648,014	-106,754	0,097	-0,016
-646,999	-200,000	0,025	-0,120
-645,984	280,718	-0,049	-0,064
-644,970	-200,000	-0,015	-0,088
-643,955	19,534	-0,137	0,080
-642,941	97,491	-0,053	-0,044
-641,926	206,087	-0,073	-0,082
-640,911	-200,000	-0,016	0,055
-639,897	-59,270	0,070	0,022
-638,882	-200,000	-0,001	-0,098
-637,868	43,340	-0,014	-0,009
-636,853	-9,019	-0,053	0,026
-635,838	-110,118	0,070	-0,010
-634,824	163,474	0,131	-0,134
-633,809	260,825	0,067	-0,085
-632,795	-174,442	-0,076	-0,002
-631,780	-200,000	0,005	0,200
-630,765	-156,028	-0,034	-0,002
-629,751	-95,268	-0,131	-0,025
-628,736	-107,029	-0,073	-0,012
-627,722	55,508	-0,069	0,048
-626,707	429,739	0,029	-0,045
-625,692	170,210	0,118	0,122
-624,678	-28,520	-0,152	-0,063
-623,663	-47,881	0,035	-0,012
-622,649	311,141	0,078	0,106
-621,634	-176,795	-0,112	-0,002
-620,619	-200,000	0,018	0,119
-619,605	68,873	0,057	-0,043
-618,590	141,009	-0,095	0,091
-617,576	-200,000	-0,013	-0,073
-616,561	-200,000	-0,015	-0,201
-615,546	63,798	-0,118	-0,085
-614,532	-200,000	0,011	0,045
-613,517	800,000	-0,022	-0,064
-612,503	-67,378	0,130	-0,037
-611,488	-158,485	0,072	0,003
-610,474	-200,000	0,039	0,134
-609,459	-72,996	-0,144	0,038
-608,444	-88,853	0,010	0,002
-607,430	-200,000	-0,005	-0,083
-606,415	800,000	0,008	-0,019
-605,401	472,856	0,025	-0,040
-604,386	-138,451	0,079	0,006
-603,371	-200,000	0,026	0,100
-602,357	316,612	0,013	-0,018
-601,342	23,958	-0,095	-0,057
-600,328	800,000	-0,053	-0,139
-599,313	-200,000	0,010	-0,090
-598,298	91,782	-0,113	-0,092
-597,284	112,047	0,045	0,040
-596,269	-200,000	0,008	-0,078
-595,255	-200,000	-0,010	0,120
-594,240	-200,000	0,008	0,084
-593,225	25,624	0,127	-0,077
-592,211	-42,055	-0,107	0,039
-591,196	359,745	0,108	-0,157
-590,182	799,392	-0,036	0,073
-589,167	708,851	0,036	-0,069
-588,152	-18,451	-0,024	-0,011
-587,138	272,552	-0,043	0,055
-586,123	-65,010	-0,044	-0,013
-585,109	-90,206	-0,112	-0,023
-584,094	17,256	0,099	0,057
-583,079	400,021	-0,065	0,099
-582,065	-200,000	-0,016	0,058
-581,050	-55,552	-0,025	0,008
-580,036	-130,287	-0,052	-0,005
-579,021	-74,358	-0,100	0,026
-578,006	7,876	-0,127	-0,069
-576,992	-102,622	0,146	0,025
-575,977	-92,959	-0,054	0,011
-574,963	-147,982	0,037	0,002
-573,948	-200,000	-0,002	0,053
-572,934	196,772	0,005	0,006
-571,919	-200,000	0,023	-0,087
-570,904	-92,870	0,087	-0,017
-569,890	800,000	0,013	-0,033
-568,875	145,190	-0,059	-0,057
-567,861	-110,921	0,100	-0,015
-566,846	-22,258	0,083	-0,036
-565,831	781,707	-0,066	-0,131
-564,817	605,847	0,037	-0,068
-563,802	360,754	-0,064	-0,092
-562,788	-128,329	-0,178	-0,018
-561,773	178,012	0,070	-0,074
-560,758	-68,302	0,094	-0,026
-559,744	-126,980	-0,086	0,009
-558,729	-50,905	-0,046	0,016
-557,715	-200,000	-0,021	-0,072
-556,700	-112,326	0,069	0,010
-555,685	-200,000	-0,026	0,096
-554,671	-126,467	0,087	-0,009
-553,656	-67,101	-0,069	-0,020
-552,642	-181,094	-0,082	-0,001
-551,627	566,994	0,044	0,077
-550,612	-200,000	0,026	-0,083
-549,598	-200,000	-0,032	-0,207
-548,583	-200,000	0,015	-0,079
-547,569	43,303	-0,107	-0,070
-546,554	-61,678	0,064	0,019
-545,539	-36,087	0,066	0,026
-544,525	-200,000	-0,026	-0,130
-543,510	427,330	-0,057	0,089
-542,496	800,000	-0,089	-0,182
-541,481	-132,059	-0,093	0,009
-540,466	604,386	0,042	0,077
-539,452	-162,800	0,099	0,003
-538,437	210,611	0,099	-0,113
-537,423	-42,275	-0,046	0,017
-536,408	190,158	0,105	-0,114
-535,393	-79,430	-0,035	-0,008
-534,379	-174,570	-0,154	-0,003
-533,364	-75,393	0,095	0,024
-532,350	-156,235	-0,055	-0,002
-531,335	-200,000	0,022	0,109
-530,321	-73,160	0,108	-0,028
-529,306	281,757	-0,025	-0,032
-528,291	800,000	-0,027	0,056
-527,277	750,673	-0,016	0,031
-526,262	287,149	0,060	-0,078
-525,248	800,000	-0,071	0,166
-524,233	723,904	0,062	0,119
-523,218	439,835	0,009	0,014
-522,204	236,791	0,027	-0,033
-521,189	273,548	0,059	-0,075
-520,175	800,000	0,003	-0,008
-519,160	-41,497	0,113	-0,042
-518,145	-200,000	0,004	0,046
-517,131	218,289	0,063	0,073
-516,116	618,116	-0,029	0,052
-515,102	-101,438	-0,041	0,007
-514,087	-200,000	0,004	-0,098
-513,072	-11,769	-0,109	-0,051
-512,058	-14,475	0,197	-0,091
-511,043	332,987	0,097	-0,135
-510,029	-200,000	-0,015	0,108
-509,014	254,494	0,056	-0,069
-507,999	-200,000	0,003	-0,022
-506,985	157,873	-0,060	0,060
-505,970	-12,953	-0,099	-0,046
-504,956	-200,000	0,005	-0,051
-503,941	142,390	0,053	0,050
-502,926	35,696	-0,063	0,040
-501,912	38,122	0,044	0,028
-500,897	-200,000	0,014	0,091
-499,883	800,000	0,029	0,081
-498,868	305,135	-0,026	-0,035
-497,853	498,293	0,125	-0,208
-496,839	-97,813	0,062	-0,011
-495,824	378,420	-0,071	0,105
-494,810	145,103	0,069	0,067
-493,795	393,927	-0,074	0,111
-492,781	151,892	-0,046	0,045
-491,766	-63,058	0,085	0,025
-490,751	-97,704	-0,054	-0,010
-489,737	-109,207	-0,231	0,035
-488,722	40,912	0,139	0,090
-487,708	30,140	0,071	-0,043
-486,693	-169,203	0,113	-0,003
-485,678	-153,431	-0,056	0,003
-484,664	800,000	0,018	-0,040
-483,649	-200,000	-0,009	-0,092
-482,635	-96,491	-0,149	-0,028
-481,620	239,449	-0,070	0,084
-480,605	-200,000	-0,022	0,073
-479,591	-51,274	0,056	0,019
-478,576	800,000	0,048	0,100
-477,562	-100,376	-0,154	-0,027
-476,547	-43,982	-0,098	-0,035
-475,532	-40,646	-0,029	0,011
-474,518	305,601	0,082	0,110
-473,503	633,498	-0,047	-0,087
-472,489	-165,682	0,144	0,004
-471,474	800,000	0,030	-0,090
-470,459	56,712	0,029	-0,020
-469,445	14,445	0,079	0,045
-468,430	79,342	-0,110	0,084
-467,416	-21,920	0,100	0,044
-466,401	22,414	-0,155	0,091
-465,386	156,977	0,125	-0,124
-464,372	623,285	-0,020	0,036
-463,357	218,187	-0,044	0,050
-462,343	-200,000	0,016	0,074
-461,328	545,063	0,046	0,079
-460,313	800,000	0,002	0,006
-459,299	8,749	0,148	0,080
-458,284	800,000	-0,096	0,211
-457,270	346,264	0,043	-0,061
-456,255	151,879	-0,205	-0,201
-455,241	-25,927	-0,027	-0,011
-454,226	-149,396	0,131	-0,007
-453,211	-14,779	0,109	0,050
-452,197	242,356	0,044	-0,053
-451,182	32,106	-0,057	0,035
-450,168	-60,121	0,039	0,012
-449,153	505,738	0,037	-0,063
-448,138	-200,000	0,003	0,066
-447,124	-105,809	0,045	-0,007
-446,109	800,000	-0,057	-0,157
-445,095	-41,317	0,053	0,019
-444,080	-200,000	0,000	0,051
-443,065	436,963	-0,042	0,066
-442,051	423,277	-0,045	0,069
-441,036	-200,000	-0,031	-0,156
-440,022	303,983	-0,126	-0,169
-439,007	420,257	0,055	-0,085
-437,992	-14,459	0,021	0,010
-436,978	-200,000	-0,003	0,090
-435,963	-114,368	0,237	-0,032
-434,949	178,479	-0,100	-0,105
-433,934	73,007	0,166	0,125
-432,919	163,107	0,005	-0,005
-431,905	531,371	-0,035	-0,060
-430,890	-200,000	-0,020	-0,100
-429,876	168,775	0,058	-0,059
-428,861	-200,000	0,028	-0,197
-427,846	-0,403	0,035	0,018
-426,832	800,000	0,030	-0,081
-425,817	-200,000	-0,006	-0,067
-424,803	509,164	-0,063	-0,105
-423,788	-18,313	0,093	0,042
-422,773	-200,000	-0,007	-0,137
-421,759	109,419	0,063	-0,054
-420,744	800,000	-0,020	-0,041
-419,730	339,824	-0,098	-0,138
-418,715	15,334	-0,138	-0,077
-417,701	34,654	0,122	0,076
-416,686	51,912	0,184	0,125
-415,671	-200,000	-0,006	-0,044
-414,657	-26,973	0,151	0,063
-413,642	-50,122	-0,084	0,028
-412,628	175,371	0,088	0,092
-411,613	800,000	-0,038	-0,077
-410,598	-200,000	0,000	0,031
-409,584	13,605	0,044	-0,025
-408,569	64,031	0,054	0,039
-407,555	276,265	0,074	0,094
-406,540	140,612	0,035	0,034
-405,525	462,723	-0,071	-0,115
-404,511	209,065	0,106	-0,120
-403,496	-200,000	0,022	0,086
-402,482	157,854	0,056	-0,056
-401,467	-200,000	-0,013	-0,067
-400,452	-200,000	0,033	0,136
-399,438	-200,000	-0,001	0,049
-398,423	11,365	0,041	0,022
-397,409	-85,337	0,062	0,014
-396,394	165,233	0,048	-0,049
-395,379	-95,097	0,042	-0,008
-394,365	372,692	0,026	-0,038
-393,350	236,124	0,080	0,095
-392,336	-62,322	0,115	-0,034
-391,321	12,669	-0,052	0,029
-390,306	120,158	-0,041	-0,037
-389,292	800,000	0,007	0,021
-388,277	303,376	0,063	-0,083
-387,263	160,226	0,120	0,120
-386,248	-18,024	0,044	-0,020
-385,233	-200,000	-0,019	0,117
-384,219	-200,000	0,019	-0,083
-383,204	-36,067	-0,020	-0,008
-382,190	231,853	-0,151	-0,178
-381,175	800,000	-0,023	-0,068
-380,160	219,730	-0,079	-0,091
-379,146	-200,000	-0,009	-0,051
-378,131	337,979	-0,094	0,132
-377,117	-200,000	-0,014	-0,046
-376,102	-86,714	0,139	-0,030
-375,088	-26,514	0,040	-0,017
-374,073	800,000	0,061	0,159
-373,058	-51,037	0,113	0,038
-372,044	356,373	0,112	-0,160
-371,029	-125,536	-0,106	0,011
-370,015	-200,000	-0,012	0,159
-369,000	43,720	-0,035	-0,023
-367,985	668,450	0,026	-0,049
-366,971	800,000	-0,035	0,075
-365,956	-200,000	-0,003	-0,041
-364,942	-200,000	-0,009	0,122
-363,927	-85,779	0,051	0,011
-362,912	-200,000	-0,022	0,113
-361,898	800,000	-0,034	-0,077
-360,883	-10,943	0,021	-0,010
-359,869	-157,348	-0,086	-0,004
-358,854	800,000	-0,052	0,158
-357,839	420,285	0,036	0,056
-356,825	-200,000	0,009	0,070
-355,810	-200,000	0,018	0,101
-354,796	-200,000	-0,042	-0,226
-353,781	6,631	-0,073	0,039
-352,766	4,220	-0,038	-0,020
-351,752	-25,528	-0,091	0,038
-350,737	-183,200	0,055	-0,001
-349,723	800,000	0,140	0,306
-348,708	800,000	0,040	0,083
-347,693	-41,820	-0,043	-0,016
-346,679	-17,084	-0,167	-0,075
-345,664	72,877	0,139	-0,104
-344,650	-25,934	-0,051	0,021
-343,635	358,965	0,034	0,049
-342,620	800,000	0,022	0,067
-341,606	330,498	-0,057	0,079
-340,591	53,944	-0,018	-0,013
-339,577	-62,120	0,047	0,014
-338,562	-200,000	-0,032	-0,162
-337,548	800,000	-0,034	-0,068
-336,533	638,066	-0,089	0,163
-335,518	-32,282	-0,069	-0,027
-334,504	313,604	-0,047	0,064
-333,489	-200,000	0,011	-0,043
-332,475	-85,142	-0,058	0,013
-331,460	-200,000	0,006	-0,158
-330,445	-145,955	0,063	-0,004
-329,431	198,640	0,092	-0,101
-328,416	-17,744	-0,006	-0,003
-327,402	-39,057	0,097	0,036
-326,387	-99,342	-0,048	0,009
-325,372	-200,000	0,001	0,033
-324,358	174,027	0,073	-0,076
-323,343	-40,755	0,081	-0,030
-322,329	-200,000	-0,010	-0,054
-321,314	-58,097	0,008	-0,002
-320,299	-87,526	0,198	-0,042
-319,285	-130,457	-0,164	-0,016
-318,270	-200,000	-0,003	-0,025
-317,256	-200,000	0,026	0,114
-316,241	-200,000	-0,003	0,035
-315,226	800,000	0,013	0,031
-314,212	-12,519	-0,105	-0,049
-313,197	-144,141	-0,114	-0,008
-312,183	800,000	0,040	0,116
-311,168	-200,000	-0,004	-0,021
-310,153	-71,522	-0,193	-0,051
-309,139	-200,000	-0,000	-0,005
-308,124	-200,000	0,039	-0,157
-307,110	-142,046	0,047	0,003
-306,095	800,000	0,058	0,129
-305,080	53,640	-0,092	0,063
-304,066	800,000	-0,021	-0,042
-303,051	-36,946	-0,071	-0,027
-302,037	260,455	-0,093	-0,116
-301,022	228,382	0,093	0,108
-300,008	75,233	0,093	0,070
-298,993	800,000	-0,049	0,098
-297,978	-200,000	-0,009	0,047
-296,964	676,906	0,038	-0,072
-295,949	-200,000	0,051	-0,198
-294,935	800,000	-0,059	-0,127
-293,920	-78,241	0,118	-0,029
-292,905	-200,000	-0,015	0,181
-291,891	800,000	0,015	0,041
-290,876	197,740	0,039	-0,043
-289,862	559,249	-0,078	-0,135
-288,847	-200,000	-0,003	-0,055
-287,832	-189,654	-0,132	0,001
-286,818	9,674	-0,071	-0,038
-285,803	-200,000	-0,013	0,048
-284,789	800,000	-0,058	0,166
-283,774	-200,000	-0,001	0,044
-282,759	-77,825	0,027	0,007
-281,745	-94,720	-0,107	0,020
-280,730	247,669	-0,100	-0,120
-279,716	800,000	-0,014	-0,034
-278,701	138,393	-0,110	0,103
-277,686	47,774	0,047	0,031
-276,672	-200,000	-0,017	0,176
-275,657	20,482	0,119	0,069
-274,643	-200,000	-0,005	0,035
-273,628	182,962	-0,040	0,042
-272,613	800,000	-0,035	0,071
-271,599	284,844	-0,097	-0,124
-270,584	75,458	0,116	0,087
-269,570	408,166	0,065	0,098
-268,555	800,000	-0,031	0,071
-267,540	71,921	0,018	0,013
-266,526	-46,611	-0,076	0,027
-265,511	741,534	-0,012	-0,023
-264,497	-200,000	-0,058	0,231
-263,482	28,756	0,078	0,047
-262,467	-200,000	0,005	0,055
-261,453	-31,118	0,142	0,057
-260,438	529,896	-0,089	-0,150
-259,424	-200,000	0,005	-0,064
-258,409	-200,000	0,014	-0,068
-257,395	-168,010	-0,169	0,005
-256,380	56,585	0,060	-0,042
-255,365	-200,000	0,000	0,012
-254,351	-53,517	-0,077	0,025
-253,336	-200,000	0,001	0,073
-252,322	-136,490	-0,103	-0,008
-251,307	-74,757	0,044	0,011
-250,292	577,922	-0,063	0,111
-249,278	-76,336	0,109	0,027
-248,263	-79,464	-0,116	-0,028
-247,249	194,418	-0,097	0,105
-246,234	-145,282	-0,193	-0,012
-245,219	103,938	0,032	0,027
-244,205	731,426	0,013	-0,024
-243,190	351,592	0,092	-0,131
-242,176	433,777	-0,024	0,038
-241,161	474,024	-0,037	0,059
-240,146	164,632	0,065	0,066
-239,132	-200,000	0,004	0,027
-238,117	-200,000	-0,013	-0,088
-237,103	51,568	-0,148	-0,100
-236,088	267,852	-0,009	0,011
-235,073	-200,000	-0,012	-0,157
-234,059	-200,000	-0,017	0,084
-233,044	306,504	0,049	0,066
-232,030	385,008	-0,052	0,076
-231,015	-200,000	0,009	-0,042
-230,000	-79,958	-0,104	-0,025
-228,986	779,706	0,029	0,056
-227,971	-200,000	-0,035	0,160
-226,957	-42,254	0,075	0,027
-225,942	800,000	-0,015	0,033
-224,927	6,445	0,063	-0,033
-223,913	-124,618	0,144	-0,016
-222,898	800,000	0,024	0,076
-221,884	388,830	-0,007	0,011
-220,869	-200,000	0,021	-0,082
-219,855	82,252	0,038	-0,029
-218,840	-200,000	-0,006	-0,021
-217,825	146,855	-0,024	-0,023
-216,811	83,082	-0,076	0,059
-215,796	800,000	0,035	-0,097
-214,782	381,740	0,025	-0,037
-213,767	733,714	-0,050	0,096
-212,752	213,542	-0,082	0,092
-211,738	138,912	0,080	0,075
-210,723	177,682	-0,131	0,136
-209,709	-200,000	0,041	-0,146
-208,694	286,969	0,030	0,038
-207,679	-200,000	0,003	-0,032
-206,665	-200,000	-0,009	-0,049
-205,650	800,000	-0,029	0,065
-204,636	-27,614	0,119	-0,049
-203,621	-84,943	0,075	0,017
-202,606	-84,848	-0,095	0,021
-201,592	-128,354	-0,069	-0,007
-200,577	-154,420	0,112	0,005
-199,563	-42,560	-0,075	0,027
-198,548	-13,389	-0,128	-0,059
-197,533	145,583	0,023	0,022
-196,519	10,937	0,094	-0,051
-195,504	-1,866	-0,133	0,067
-194,490	-200,000	0,010	-0,067
-193,475	-28,776	0,009	0,003
-192,460	476,299	-0,050	-0,081
-191,446	800,000	0,011	0,030
-190,431	459,569	0,068	0,109
-189,417	-200,000	0,018	0,150
-188,402	446,410	0,045	0,071
-187,387	41,458	-0,091	-0,059
-186,373	-87,091	0,093	-0,020
-185,358	800,000	0,045	0,101
-184,344	-62,340	0,104	0,031
-183,329	800,000	0,033	0,087
-182,315	497,201	0,072	0,118
-181,300	-113,919	-0,126	0,017
-180,285	-200,000	-0,020	-0,135
-179,271	-200,000	0,012	-0,057
-178,256	800,000	0,010	0,028
-177,242	-200,000	-0,010	0,156
-176,227	800,000	-0,012	0,031
-175,212	64,213	-0,093	-0,067
-174,198	-133,233	0,109	0,010
-173,183	800,000	0,014	0,037
-172,169	800,000	-0,040	-0,105
-171,154	80,077	-0,068	-0,052
-170,139	-200,000	0,001	-0,019
-169,125	173,936	0,073	0,076
-168,110	-116,751	0,098	0,013
-167,096	-114,043	-0,219	-0,030
-166,081	-200,000	0,026	-0,089
-165,066	-200,000	0,022	-0,101
-164,052	-16,770	-0,048	0,022
-163,037	-55,478	0,099	0,031
-162,023	-56,565	-0,021	0,007
-161,008	-8,959	0,134	0,064
-159,993	-134,053	-0,137	-0,012
-158,979	-139,609	-0,036	-0,003
-157,964	228,655	0,096	-0,111
-156,950	-188,832	-0,099	-0,001
-155,935	-200,000	-0,000	0,091
-154,920	54,526	-0,037	-0,025
-153,906	597,749	0,059	0,104
-152,891	222,305	0,099	0,114
-151,877	198,978	0,119	-0,130
-150,862	-89,769	-0,103	0,021
-149,847	273,003	-0,104	0,130
-148,833	-54,335	-0,067	0,021
-147,818	21,332	-0,102	0,059
-146,804	12,673	0,042	0,023
-145,789	-181,393	0,125	0,002
-144,775	-200,000	0,027	0,110
-143,760	-176,645	0,065	0,001
-142,745	-29,734	-0,012	-0,005
-141,731	439,206	0,020	0,031
-140,716	-164,211	-0,075	0,002
-139,702	-76,725	-0,163	0,040
-138,687	800,000	-0,018	0,042
-137,672	-200,000	0,007	0,095
-136,658	72,443	0,014	0,011
-135,643	2,223	-0,116	0,060
-134,629	50,549	0,058	-0,039
-133,614	149,612	0,042	-0,041
-132,599	288,377	0,103	0,133
-131,585	-100,011	0,065	0,011
-130,570	6,472	-0,151	-0,080
-129,556	12,838	0,070	-0,039
-128,541	197,284	-0,098	-0,106
-127,526	322,328	-0,005	-0,007
-126,512	376,951	-0,041	-0,060
-125,497	230,348	0,050	0,058
-124,483	-200,000	0,023	0,142
-123,468	494,378	-0,031	-0,051
-122,453	254,844	-0,127	-0,155
-121,439	800,000	-0,030	-0,062
-120,424	-200,000	-0,005	-0,066
-119,410	178,844	0,098	0,102
-118,395	96,419	-0,056	0,045
-117,380	-9,264	0,010	0,005
-116,366	325,890	-0,043	0,058
-115,351	500,573	0,069	-0,114
-114,337	323,787	-0,010	0,014
-113,322	-90,888	-0,056	0,011
-112,307	-38,123	0,062	-0,023
-111,293	8,024	0,045	0,024
-110,278	-200,000	0,009	0,100
-109,264	-200,000	-0,012	0,095
-108,249	168,249	-0,065	0,065
-107,234	-200,000	-0,001	-0,010
-106,220	-135,787	0,068	0,006
-105,205	-200,000	0,011	0,147
-104,191	134,892	0,067	-0,062
-103,176	513,875	-0,056	-0,094
-102,162	88,968	-0,058	0,046
-101,147	-110,463	-0,014	-0,002
-100,132	-200,000	0,012	0,055
-99,118	419,224	-0,074	0,112
-98,103	-64,277	0,122	0,035
-97,089	-97,252	0,044	0,008
-96,074	-181,568	-0,110	-0,001
-95,059	800,000	-0,026	0,076
-94,045	800,000	-0,031	0,091
-93,030	-157,460	0,082	0,003
-92,016	-55,611	0,121	-0,038
-91,001	-11,029	0,071	0,033
-89,986	800,000	-0,051	-0,114
-88,972	-46,150	-0,102	0,035
-87,957	-200,000	-0,059	0,000
-86,943	46,497	-0,056	-0,037
-85,928	170,857	-0,100	0,102
-84,913	-200,000	0,002	-0,018
-83,899	103,667	-0,054	0,045
-82,884	-200,000	0,144	0,000
-81,870	18,555	0,090	-0,051
-80,855	-8,939	0,073	-0,034
-79,840	364,755	-0,033	0,048
-78,826	192,985	-0,087	-0,093
-77,811	43,927	-0,086	-0,056
-76,797	21,596	0,121	-0,070
-75,782	800,000	0,050	0,118
-74,767	-200,000	0,001	0,089
-73,753	800,000	0,057	0,134
-72,738	-200,000	-0,006	-0,026
-71,724	86,924	-0,023	-0,018
-70,709	-85,343	-0,184	-0,040
-69,694	227,139	-0,048	-0,055
-68,680	55,534	0,023	0,016
-67,665	-13,116	-0,055	-0,025
-66,651	670,912	0,036	0,067
-65,636	44,145	0,060	0,039
-64,622	233,825	0,069	-0,081
-63,607	238,883	-0,039	-0,046
-62,592	-200,000	-0,028	-0,098
-61,578	328,887	-0,061	-0,084
-60,563	-92,455	-0,041	-0,008
-59,549	-200,000	-0,010	0,056
-58,534	-15,998	-1,666	-0,747
-57,519	346,423	-1,488	-2,078
-56,505	-200,000	-0,516	-4,590
-55,490	254,034	0,865	1,049
-54,476	800,000	4,868	11,322
-53,461	-200,000	19,370	321,294
-52,446	-200,000	741,869	2334,985
-51,432	571,725	1656,279	2867,062
-50,417	78,029	1671,141	1260,555
-49,403	21,198	1544,002	885,091
-48,388	15,033	1466,579	810,723
-47,373	17,989	1456,772	819,557
-46,359	16,665	1446,544	807,423
-45,344	13,309	1442,074	788,815
-44,330	13,240	1440,138	787,392
-43,315	13,265	1438,254	786,451
-42,300	13,244	1436,633	785,434
-41,286	13,272	1435,420	784,875
-40,271	13,240	1433,982	783,906
-39,257	13,237	1432,538	783,071
-38,242	13,260	1431,452	782,555
-37,227	13,294	1430,242	782,025
-36,213	13,293	1428,786	781,191
-35,198	13,278	1427,757	780,529
-34,184	13,329	1426,755	780,190
-33,169	13,297	1425,379	779,253
-32,154	13,349	1424,422	778,945
-31,140	13,290	1423,325	778,035
-30,125	13,347	1421,977	777,539
-29,111	13,338	1420,912	776,885
-28,096	13,302	1419,606	775,968
-27,082	13,221	1418,643	775,030
-26,067	13,217	1417,613	774,418
-25,052	13,258	1416,452	773,946
-24,038	13,235	1415,313	773,185
-23,023	13,182	1414,524	772,471
-22,009	13,207	1413,533	772,020
-20,994	13,213	1412,619	771,517
-19,979	13,214	1411,634	770,952
-18,965	13,158	1410,659	770,128
-17,950	13,173	1409,730	769,658
-16,936	13,220	1408,749	769,313
-15,921	13,170	1407,651	768,451
-14,906	13,151	1406,816	767,872
-13,892	13,167	1405,907	767,424
-12,877	13,155	1405,106	766,897
-11,863	13,152	1404,176	766,348
-10,848	13,125	1403,202	765,660
-9,833	13,096	1402,458	765,089
-8,819	13,073	1401,659	764,512
-7,804	13,016	1400,772	763,734
-6,790	13,081	1399,650	763,395
-5,775	13,051	1398,617	762,661
-4,760	13,056	1397,508	762,051
-3,746	13,026	1396,634	761,402
-2,731	13,036	1395,935	761,037
-1,717	13,003	1395,115	760,407
-0,702	12,960	1393,443	759,267
0,313	17,044	1309,774	732,523
1,327	33,645	703,073	431,532
2,342	51,912	123,120	82,797
3,356	3,301	16,543	8,492
4,371	-1,867	3,187	1,580
5,386	-0,453	0,655	0,328
6,400	-200,000	-0,001	0,184
7,415	32,972	-0,287	-0,176
8,429	20,798	-0,234	-0,134
9,444	-80,339	-0,269	-0,063
10,459	-52,660	-0,330	-0,107
11,473	-93,436	-0,359	-0,070
12,488	54,141	-0,277	-0,188
13,502	50,083	-0,334	-0,222
14,517	-67,263	-0,284	-0,078
15,531	8,713	-0,305	-0,162
16,546	82,329	-0,399	-0,306
17,561	-26,963	-0,430	-0,177
18,575	-68,206	-0,271	-0,074
19,590	-8,703	-0,325	-0,153
20,604	64,976	-0,249	-0,178
21,619	41,893	-0,413	-0,264
22,634	147,766	-0,344	-0,327
23,648	42,114	-0,349	-0,223
24,663	117,791	-0,315	-0,274
25,677	117,206	-0,265	-0,230
26,692	85,104	-0,377	-0,291
27,707	105,928	-0,286	-0,239
28,721	89,671	-0,283	-0,223
29,736	227,018	-0,362	-0,416
30,750	-14,181	-0,533	-0,242
31,765	110,898	-0,337	-0,286
32,780	26,856	-0,418	-0,246
33,794	117,520	-0,329	-0,286
34,809	25,649	-0,329	-0,193
35,823	34,194	-0,374	-0,230
36,838	-41,035	-0,395	-0,143
37,853	91,898	-0,371	-0,294
38,867	800,000	-0,206	-0,448
39,882	43,554	-0,331	-0,213
40,896	-13,065	-0,289	-0,132
41,911	254,256	-0,218	-0,264
42,926	-40,467	-0,447	-0,163
43,940	53,094	-0,356	-0,240
44,955	212,990	-0,230	-0,256
45,969	185,651	-0,308	-0,322
46,984	68,032	-0,228	-0,164
47,999	-43,647	-0,327	-0,116
49,013	38,824	-0,381	-0,239
50,028	47,764	-0,296	-0,194
51,042	719,060	-0,247	-0,464
52,057	91,022	-0,211	-0,167
53,071	27,180	-0,367	-0,216
54,086	-26,133	-0,270	-0,111
55,101	63,651	-0,361	-0,255
56,115	-37,514	-0,371	-0,139
57,130	40,193	-0,418	-0,264
58,144	41,298	-0,297	-0,189
59,159	91,650	-0,391	-0,309
60,174	228,560	-0,320	-0,368
61,188	189,475	-0,377	-0,398
62,203	14,696	-0,413	-0,226
63,217	-102,641	-0,293	-0,049
64,232	73,412	-0,370	-0,272
65,247	44,002	-0,396	-0,255
66,261	-61,878	-0,471	-0,138
67,276	66,343	-0,350	-0,250
68,290	9,858	-0,473	-0,252
69,305	104,326	-0,352	-0,291
70,320	121,474	-0,304	-0,266
71,334	167,143	-0,340	-0,340
72,349	165,206	-0,357	-0,355
73,363	143,844	-0,269	-0,252
74,378	124,242	-0,370	-0,327
75,393	382,202	-0,264	-0,383
76,407	-10,740	-0,337	-0,156
77,422	-50,857	-0,397	-0,130
78,436	227,885	-0,237	-0,272
79,451	92,535	-0,271	-0,215
80,466	-13,254	-0,338	-0,154
81,480	2,116	-0,334	-0,169
82,495	74,263	-0,358	-0,264
83,509	688,821	-0,130	-0,241
84,524	26,855	-0,329	-0,193
85,539	128,943	-0,161	-0,144
86,553	110,981	-0,297	-0,251
87,568	-38,470	-0,364	-0,135
88,582	20,704	-0,316	-0,179
89,597	144,465	-0,317	-0,297
90,611	156,162	-0,190	-0,184
91,626	-18,876	-0,373	-0,162
92,641	-112,306	-0,247	-0,034
93,655	46,148	-0,196	-0,127
94,670	129,246	-0,342	-0,306
95,684	112,244	-0,296	-0,251
96,699	78,724	-0,366	-0,275
97,714	53,668	-0,245	-0,164
98,728	-146,645	-0,236	-0,014
99,743	-29,485	-0,283	-0,113
100,757	-45,730	-0,227	-0,078
101,772	-11,675	-0,385	-0,177
102,787	114,083	-0,263	-0,224
103,801	173,926	-0,214	-0,217
104,816	-12,244	-0,260	-0,119
105,830	103,395	-0,319	-0,262
106,845	800,000	-0,059	-0,160
107,860	82,711	-0,214	-0,163
108,874	209,014	-0,214	-0,235
109,889	-140,474	-0,337	-0,024
110,903	-85,863	-0,241	-0,052
111,918	75,383	-0,240	-0,177
112,933	-122,645	-0,293	-0,033
113,947	110,207	-0,207	-0,174
114,962	23,628	-0,207	-0,119
115,976	31,891	-0,194	-0,117
116,991	-24,407	-0,224	-0,093
118,006	257,903	-0,184	-0,222
119,020	137,945	-0,259	-0,238
120,035	173,610	-0,243	-0,246
121,049	-136,496	-0,190	0,015
122,064	-8,067	-0,252	-0,119
123,079	58,644	-0,230	-0,158
124,093	5,599	-0,470	-0,242
125,108	307,280	-0,240	-0,314
126,122	-25,479	-0,330	-0,136
127,137	78,200	-0,292	-0,218
128,151	572,488	-0,150	-0,256
129,166	-58,830	-0,240	-0,072
130,181	-173,126	-0,158	0,003
131,195	-34,324	-0,257	-0,098
132,210	106,927	-0,282	-0,234
133,224	72,574	-0,254	-0,185
134,239	-86,288	-0,218	-0,046
135,254	365,926	-0,151	-0,214
136,268	-58,593	-0,194	-0,058
137,283	22,057	-0,258	-0,147
138,297	-34,503	-0,257	-0,098
139,312	111,033	-0,219	-0,184
140,327	231,909	-0,266	-0,305
141,341	41,382	-0,212	-0,134
142,356	-119,514	-0,353	-0,042
143,370	46,435	-0,275	-0,178
144,385	194,998	-0,236	-0,250
145,400	72,485	-0,233	-0,169
146,414	98,751	-0,327	-0,264
147,429	45,613	-0,322	-0,207
148,443	-62,098	-0,195	-0,057
149,458	-51,752	-0,216	-0,070
150,473	-129,783	-0,399	-0,038
151,487	371,422	-0,117	-0,166
152,502	155,603	-0,256	-0,246
153,516	193,861	-0,233	-0,246
154,531	-6,181	-0,267	-0,127
155,546	-93,701	-0,266	-0,051
156,560	97,812	-0,124	-0,100
157,575	87,381	-0,181	-0,140
158,589	-106,991	-0,151	-0,023
159,604	-14,608	-0,265	-0,119
160,619	88,492	-0,276	-0,214
161,633	-7,257	-0,270	-0,127
162,648	-22,198	-0,164	-0,069
163,662	10,047	-0,178	-0,094
164,677	49,442	-0,279	-0,182
165,692	800,000	-0,117	-0,245
166,706	5,600	-0,281	-0,144
167,721	120,426	-0,243	-0,210
168,735	148,438	-0,136	-0,128
169,750	248,033	-0,101	-0,119
170,764	59,084	-0,188	-0,129
171,779	43,513	-0,225	-0,143
172,794	-11,491	-0,160	-0,073
173,808	47,311	-0,194	-0,126
174,823	506,833	-0,175	-0,283
175,837	85,523	-0,251	-0,192
176,852	63,863	-0,208	-0,146
177,867	84,941	-0,174	-0,133
178,881	168,465	-0,179	-0,178
179,896	41,066	-0,141	-0,089
180,910	-80,991	-0,229	-0,053
181,925	-12,295	-0,292	-0,133
182,940	61,938	-0,206	-0,143
183,954	187,970	-0,227	-0,236
184,969	-82,214	-0,103	-0,023
185,983	-64,095	-0,265	-0,075
186,998	120,587	-0,202	-0,175
188,013	160,997	-0,199	-0,194
189,027	285,147	-0,200	-0,252
190,042	610,864	-0,224	-0,391
191,056	174,690	-0,222	-0,223
192,071	393,803	-0,190	-0,276
193,086	-108,005	-0,199	0,030
194,100	-200,000	-0,011	-0,070
195,115	119,159	-0,208	-0,179
196,129	177,763	-0,159	-0,161
197,144	34,261	-0,285	-0,172
198,159	112,865	-0,193	-0,163
199,173	193,696	-0,189	-0,199
200,188	137,178	-0,158	-0,144
201,202	638,337	-0,104	-0,185
202,217	-200,000	0,022	-0,076
203,232	-3,603	-0,387	-0,186
204,246	-92,487	-0,177	-0,034
205,261	95,505	-0,211	-0,167
206,275	-19,669	-0,267	-0,114
207,290	800,000	-0,086	-0,175
208,304	619,113	-0,122	-0,213
209,319	800,000	-0,090	-0,226
210,334	113,881	-0,169	-0,143
211,348	277,971	-0,164	-0,203
212,363	323,323	-0,200	-0,266
213,377	124,447	-0,265	-0,231
214,392	171,009	-0,099	-0,098
215,407	2,917	-0,257	-0,129
216,421	-70,793	-0,172	-0,045
217,436	-70,729	-0,179	-0,046
218,450	641,479	-0,130	-0,230
219,465	76,358	-0,206	-0,151
220,480	800,000	-0,086	-0,212
221,494	-81,057	-0,185	-0,042
222,509	-41,829	-0,207	-0,073
223,523	40,837	-0,268	-0,167
224,538	-51,355	-0,244	-0,079
225,553	137,562	-0,212	-0,193
226,567	47,225	-0,227	-0,146
227,582	287,238	-0,166	-0,209
228,596	411,211	-0,073	-0,107
229,611	427,239	-0,104	-0,156
230,626	800,000	-0,074	-0,199
231,640	-177,007	-0,186	-0,003
232,655	172,299	-0,197	-0,196
233,669	57,633	-0,266	-0,180
234,684	-62,394	-0,212	-0,061
235,699	54,890	-0,098	-0,066
236,713	370,226	-0,108	-0,153
237,728	29,730	-0,206	-0,121
238,742	-0,524	-0,166	-0,082
239,757	87,935	-0,300	-0,230
240,772	800,000	-0,102	-0,283
241,786	177,680	-0,159	-0,161
242,801	105,322	-0,140	-0,115
243,815	137,654	-0,213	-0,193
244,830	152,326	-0,215	-0,203
245,844	244,641	-0,161	-0,188
246,859	-17,094	-0,079	-0,034
247,874	345,542	-0,179	-0,244
248,888	203,893	-0,218	-0,234
249,903	-70,272	-0,262	-0,068
250,917	129,308	-0,175	-0,154
251,932	58,059	-0,100	-0,068
252,947	129,675	-0,178	-0,157
253,961	122,791	-0,133	-0,115
254,976	2,486	-0,252	-0,126
255,990	396,262	-0,176	-0,255
257,005	644,464	-0,154	-0,272
258,020	295,010	-0,129	-0,164
259,034	-45,870	-0,111	-0,038
260,049	64,869	-0,094	0,066
261,063	189,972	-0,173	-0,180
262,078	104,829	-0,248	-0,202
263,093	-134,628	-0,276	-0,023
264,107	15,674	-0,165	-0,089
265,122	529,950	-0,103	-0,169
266,136	-8,945	-0,101	-0,047
267,151	769,193	-0,063	-0,118
268,166	168,022	-0,139	-0,137
269,180	114,548	-0,210	-0,177
270,195	118,643	-0,201	-0,172
271,209	248,125	-0,170	-0,199
272,224	220,633	-0,125	-0,139
273,239	800,000	-0,067	-0,150
274,253	800,000	-0,077	-0,193
275,268	129,285	-0,200	-0,176
276,282	-200,000	-0,063	-0,221
277,297	-51,676	-0,260	-0,083
278,312	-181,663	-0,185	-0,002
279,326	800,000	-0,054	-0,125
280,341	800,000	-0,071	-0,140
281,355	210,646	-0,115	-0,125
282,370	244,600	-0,159	-0,185
283,384	244,057	-0,097	-0,113
284,399	275,441	-0,056	-0,068
285,414	-92,732	-0,259	-0,050
286,428	57,516	-0,177	-0,119
287,443	29,472	-0,128	-0,075
288,457	72,224	-0,159	0,114
289,472	109,039	-0,088	-0,072
290,487	-92,939	-0,192	-0,037
291,501	-92,211	-0,180	-0,035
292,516	210,918	-0,259	-0,281
293,530	-162,578	-0,143	0,005
294,545	-50,007	-0,176	-0,057
295,560	10,184	-0,100	0,052
296,574	-200,000	-0,063	-0,258
297,589	67,524	-0,094	-0,066
298,603	-106,634	-0,164	-0,025
299,618	461,214	-0,097	-0,149
300,633	-200,000	0,009	-0,128
301,647	188,403	-0,095	0,098
302,662	-105,500	-0,231	0,036
303,676	64,751	-0,109	-0,076
304,691	-147,422	-0,116	0,007
305,706	551,141	-0,152	-0,253
306,720	183,741	-0,132	-0,134
307,735	333,315	-0,152	-0,203
308,749	597,703	-0,095	-0,163
309,764	-149,710	-0,170	-0,009
310,779	139,615	-0,122	-0,111
311,793	92,961	-0,166	-0,129
312,808	74,557	-0,179	-0,129
313,822	427,071	-0,112	-0,166
314,837	107,629	-0,184	-0,151
315,852	53,459	-0,190	-0,125
316,866	800,000	-0,007	0,013
317,881	-200,000	0,045	-0,201
318,895	517,161	-0,071	-0,114
319,910	189,012	-0,079	-0,081
320,925	-78,872	-0,124	-0,029
321,939	125,700	-0,120	-0,104
322,954	532,123	-0,094	-0,154
323,968	86,833	-0,171	-0,130
324,983	-184,756	-0,169	0,002
325,997	256,882	-0,095	-0,112
327,012	-6,943	-0,143	-0,067
328,027	800,000	-0,025	-0,066
329,041	242,248	-0,148	-0,170
330,056	-109,650	-0,155	0,022
331,070	-159,161	-0,052	-0,002
332,085	756,922	-0,019	-0,036
333,100	118,540	-0,138	-0,117
334,114	800,000	-0,071	-0,151
335,129	800,000	-0,060	-0,129
336,143	800,000	-0,072	-0,217
337,158	541,757	-0,118	-0,193
338,173	-200,000	0,006	-0,078
339,187	-35,277	-0,106	0,039
340,202	294,648	-0,036	-0,046
341,216	557,107	-0,124	-0,206
342,231	800,000	-0,107	-0,224
343,246	-97,790	-0,163	-0,029
344,260	361,346	-0,024	-0,032
345,275	-61,746	-0,191	-0,055
346,289	800,000	-0,068	-0,145
347,304	800,000	-0,016	-0,031
348,319	-23,841	-0,153	-0,063
349,333	198,940	-0,131	-0,138
350,348	316,644	-0,108	-0,140
351,362	-200,000	-0,028	-0,090
352,377	-25,819	-0,198	0,079
353,392	-28,826	-0,196	-0,077
354,406	800,000	-0,046	-0,106
355,421	209,658	1314,240	1415,066
356,435	161,371	1474,912	1415,564
