DTS Sentinel unit serial number:	SN410029Multiplexer serial number:	ORYXHardware model number:	OX2-SRSoftware version number:	ORYX F/W v4,00 Oryx Data Collector v3.7.2.0data status	okinstallation	B3 Nyhavnadifferential loss correction	single-endedforward channel	channel 1reverse channel	N/Adate	2023/12/03time	04:32:30forward acquisition time	300,00reverse acquisition time	0,00gamma	499,1914k internal	0,3201k external	0,3201temperature offset calibration	1,0000default loss term (dB/km)	0,3820temperature slope calibration	1,0000multiplexer offset coefficient	1,0000multiplexer slope coefficient	1,0000fibre end	0,00T internal ref (°C)	13,31T ext. ref 1 (°C)	-1,77T ext. ref 2 (°C)	-1,78length (m)	temperature (°C)	Stokes	anti-Stokes-744,400	11,406	-0,353	-0,196
-743,385	800,000	-0,094	0,251
-742,371	9,547	-0,204	-0,112
-741,356	-200,000	0,033	0,329
-740,342	-7,561	-0,163	-0,080
-739,327	800,000	0,105	0,328
-738,312	30,947	-0,392	-0,244
-737,298	-200,000	0,022	0,319
-736,283	494,334	-0,121	-0,203
-735,269	-200,000	0,066	0,227
-734,254	-42,406	-0,238	-0,088
-733,239	-115,138	-0,233	0,032
-732,225	-200,000	0,004	-0,343
-731,210	0,586	0,138	-0,071
-730,196	332,579	-0,052	-0,074
-729,181	36,911	0,072	0,046
-728,167	764,343	-0,007	0,014
-727,152	-131,962	0,078	0,007
-726,137	-0,253	-0,069	-0,035
-725,123	-200,000	0,005	-0,064
-724,108	-200,000	0,030	-0,165
-723,094	387,516	0,053	-0,081
-722,079	-134,163	-0,085	-0,007
-721,064	-123,716	0,035	0,004
-720,050	149,642	0,139	0,136
-719,035	118,916	-0,107	0,096
-718,021	800,000	-0,034	0,091
-717,006	-48,293	-0,122	0,043
-715,991	-167,234	-0,047	0,001
-714,977	-23,928	-0,095	-0,041
-713,962	800,000	-0,062	-0,144
-712,948	-200,000	-0,004	-0,015
-711,933	-133,182	-0,112	0,010
-710,918	-134,087	-0,132	-0,012
-709,904	800,000	0,057	-0,119
-708,889	-195,315	-0,138	0,001
-707,875	37,347	-0,096	-0,062
-706,860	113,345	0,028	0,024
-705,845	26,304	0,082	-0,050
-704,831	66,091	-0,109	0,080
-703,816	8,789	-0,161	-0,088
-702,802	196,051	0,033	-0,036
-701,787	46,483	0,090	0,061
-700,772	261,616	0,058	-0,073
-699,758	160,528	-0,146	-0,148
-698,743	594,579	0,060	-0,108
-697,729	32,430	0,098	0,061
-696,714	54,726	-0,106	-0,074
-695,699	-200,000	-0,038	-0,151
-694,685	607,592	0,029	-0,052
-693,670	-72,369	-0,229	0,061
-692,656	373,846	-0,074	0,110
-691,641	800,000	0,012	0,026
-690,627	401,346	0,032	0,049
-689,612	-115,654	0,027	-0,004
-688,597	16,681	0,053	0,030
-687,583	531,232	-0,114	-0,197
-686,568	41,503	-0,078	0,051
-685,554	519,760	0,018	-0,030
-684,539	527,256	0,086	-0,148
-683,524	-200,000	-0,118	0,000
-682,510	195,274	0,056	0,062
-681,495	-200,000	0,026	-0,116
-680,481	270,424	-0,044	0,057
-679,466	800,000	-0,013	0,027
-678,451	68,313	-0,068	0,050
-677,437	105,533	-0,061	-0,052
-676,422	-35,251	0,132	0,052
-675,408	-14,197	0,026	0,012
-674,393	450,721	0,027	0,043
-673,378	-71,222	-0,085	0,023
-672,364	800,000	-0,048	-0,107
-671,349	-200,000	0,028	-0,110
-670,335	-200,000	-0,002	-0,043
-669,320	800,000	0,077	-0,179
-668,305	-84,059	-0,063	-0,014
-667,291	191,240	-0,024	0,026
-666,276	100,885	-0,044	-0,037
-665,262	-10,905	0,034	0,016
-664,247	-123,866	-0,054	0,006
-663,232	-200,000	0,013	-0,089
-662,218	-49,505	-0,082	0,028
-661,203	-81,275	-0,173	-0,041
-660,189	-36,550	0,158	0,061
-659,174	800,000	0,041	-0,125
-658,159	63,716	-0,018	-0,013
-657,145	-177,287	-0,070	-0,001
-656,130	209,020	-0,022	-0,026
-655,116	-200,000	0,020	0,068
-654,101	-66,830	-0,073	0,021
-653,086	800,000	0,008	-0,019
-652,072	191,871	-0,049	-0,053
-651,057	-36,363	0,040	0,016
-650,043	800,000	-0,027	0,063
-649,028	107,051	-0,026	-0,023
-648,014	-78,599	0,225	0,055
-646,999	-102,379	-0,073	0,012
-645,984	241,290	-0,040	-0,049
-644,970	-183,258	-0,041	0,001
-643,955	666,231	-0,047	0,088
-642,941	800,000	-0,011	0,029
-641,926	130,322	-0,054	0,051
-640,911	800,000	-0,029	0,066
-639,897	800,000	0,010	0,021
-638,882	-200,000	-0,004	0,022
-637,868	122,060	-0,037	0,034
-636,853	-200,000	0,017	-0,134
-635,838	200,884	-0,134	-0,149
-634,824	393,254	0,063	-0,095
-633,809	537,857	-0,113	-0,194
-632,795	26,946	-0,021	-0,012
-631,780	800,000	-0,040	-0,099
-630,765	-200,000	-0,005	-0,058
-629,751	84,604	-0,148	-0,117
-628,736	-200,000	0,001	-0,024
-627,722	-200,000	-0,008	0,092
-626,707	800,000	-0,016	-0,048
-625,692	326,594	-0,050	-0,070
-624,678	370,912	0,040	-0,058
-623,663	-200,000	0,012	0,041
-622,649	-177,165	0,114	0,002
-621,634	-200,000	0,007	-0,032
-620,619	-200,000	-0,031	-0,105
-619,605	170,059	0,135	-0,140
-618,590	-200,000	-0,018	0,106
-617,576	-12,877	-0,079	0,037
-616,561	800,000	0,078	-0,197
-615,546	-200,000	-0,011	-0,038
-614,532	-200,000	-0,014	-0,052
-613,517	266,050	-0,079	-0,100
-612,503	800,000	0,018	0,038
-611,488	-87,758	0,091	0,020
-610,474	166,233	0,093	0,095
-609,459	-200,000	0,011	0,044
-608,444	-182,978	-0,143	0,002
-607,430	-109,726	-0,036	-0,005
-606,415	795,753	-0,041	0,082
-605,401	-200,000	0,017	-0,056
-604,386	800,000	-0,015	-0,047
-603,371	4,435	0,126	0,067
-602,357	800,000	-0,022	0,056
-601,342	43,704	-0,110	-0,073
-600,328	18,194	-0,117	-0,068
-599,313	364,249	0,041	-0,059
-598,298	-200,000	0,019	0,127
-597,284	17,209	0,167	0,096
-596,269	-49,277	-0,081	0,028
-595,255	197,644	-0,026	-0,029
-594,240	-200,000	-0,011	0,079
-593,225	-94,934	-0,048	-0,009
-592,211	88,460	-0,045	0,036
-591,196	800,000	0,048	-0,142
-590,182	-200,000	-0,003	0,071
-589,167	24,646	0,075	-0,045
-588,152	-160,421	0,030	0,001
-587,138	-200,000	-0,041	-0,157
-586,123	-75,603	0,149	-0,038
-585,109	800,000	-0,030	-0,076
-584,094	-36,621	0,123	-0,048
-583,079	-120,630	-0,062	-0,007
-582,065	114,906	-0,083	0,073
-581,050	-99,508	-0,033	0,006
-580,036	280,381	-0,072	-0,093
-579,021	-154,291	0,065	0,003
-578,006	47,859	-0,112	0,076
-576,992	-200,000	-0,018	-0,116
-575,977	-200,000	-0,007	-0,166
-574,963	800,000	-0,009	0,025
-573,948	-69,599	-0,036	0,010
-572,934	-87,425	0,115	0,025
-571,919	-200,000	0,001	0,016
-570,904	-200,000	0,003	-0,020
-569,890	210,780	-0,049	-0,056
-568,875	-59,916	0,083	-0,026
-567,861	-25,181	0,117	-0,050
-566,846	-101,605	-0,114	-0,020
-565,831	753,490	0,071	0,139
-564,817	-150,239	-0,096	0,005
-563,802	-39,336	-0,085	0,032
-562,788	800,000	-0,038	0,095
-561,773	-94,906	0,022	0,004
-560,758	-200,000	-0,007	0,083
-559,744	3,363	0,022	0,011
-558,729	8,728	0,080	0,044
-557,715	-144,812	-0,030	-0,002
-556,700	-200,000	0,015	-0,169
-555,685	-200,000	-0,049	-0,230
-554,671	-200,000	-0,018	0,057
-553,656	404,180	0,103	0,157
-552,642	-200,000	0,042	0,135
-551,627	500,798	-0,026	-0,044
-550,612	619,659	-0,088	0,161
-549,598	768,293	-0,090	0,178
-548,583	-42,577	-0,144	-0,053
-547,569	-95,653	0,084	0,016
-546,554	97,397	0,097	0,081
-545,539	35,570	0,048	-0,030
-544,525	41,455	-0,081	-0,053
-543,510	-171,661	0,035	0,001
-542,496	376,426	-0,044	-0,064
-541,481	61,315	-0,129	-0,092
-540,466	-43,378	0,116	-0,042
-539,452	391,610	0,038	0,056
-538,437	-52,474	0,157	0,052
-537,423	39,424	-0,075	-0,048
-536,408	249,489	-0,062	0,076
-535,393	-200,000	0,009	-0,035
-534,379	-200,000	0,008	0,046
-533,364	-92,382	0,069	-0,014
-532,350	-136,757	0,103	-0,008
-531,335	44,970	-0,028	0,019
-530,321	-200,000	0,003	0,054
-529,306	495,257	-0,008	-0,014
-528,291	800,000	0,037	-0,091
-527,277	-78,563	-0,103	0,025
-526,262	-19,305	0,073	-0,033
-525,248	800,000	0,053	-0,131
-524,233	-1,493	0,168	-0,085
-523,218	70,897	0,024	-0,018
-522,204	-200,000	-0,008	0,153
-521,189	431,706	-0,035	-0,054
-520,175	291,278	-0,132	-0,174
-519,160	800,000	-0,048	0,106
-518,145	719,242	-0,032	0,061
-517,131	24,646	0,164	0,098
-516,116	-200,000	-0,020	0,101
-515,102	97,849	-0,079	-0,065
-514,087	800,000	-0,030	0,073
-513,072	800,000	0,031	-0,095
-512,058	-61,382	-0,083	-0,025
-511,043	221,088	-0,046	-0,053
-510,029	800,000	0,033	0,070
-509,014	460,988	0,079	0,127
-507,999	12,038	-0,076	0,042
-506,985	-200,000	-0,012	0,168
-505,970	-200,000	-0,004	0,016
-504,956	-119,855	-0,154	-0,019
-503,941	245,256	0,058	0,070
-502,926	29,268	0,023	0,014
-501,912	-91,920	0,118	0,024
-500,897	-200,000	0,016	0,122
-499,883	-43,748	-0,121	-0,044
-498,868	659,248	-0,081	-0,151
-497,853	-200,000	-0,018	-0,161
-496,839	32,118	0,067	-0,042
-495,824	-121,727	0,075	-0,009
-494,810	747,159	0,039	-0,075
-493,795	-50,648	0,054	0,018
-492,781	358,889	0,039	-0,057
-491,766	-200,000	-0,028	0,000
-490,751	800,000	-0,050	0,114
-489,737	193,612	0,025	-0,027
-488,722	-75,458	0,064	-0,016
-487,708	213,277	-0,027	0,031
-486,693	-200,000	0,008	-0,084
-485,678	99,433	0,071	-0,059
-484,664	83,118	-0,047	-0,037
-483,649	-200,000	0,021	-0,130
-482,635	-64,922	0,096	0,028
-481,620	-200,000	-0,011	-0,097
-480,605	-77,027	0,169	0,042
-479,591	-200,000	-0,028	0,090
-478,576	-200,000	0,008	0,110
-477,562	150,194	-0,055	-0,054
-476,547	44,582	0,054	0,035
-475,532	-79,082	-0,059	0,014
-474,518	-109,863	0,075	-0,011
-473,503	-131,548	0,130	-0,012
-472,489	25,184	0,055	0,033
-471,474	67,326	-0,056	-0,041
-470,459	-103,294	0,102	-0,017
-469,445	-200,000	0,008	0,034
-468,430	242,402	0,040	-0,048
-467,416	800,000	0,044	0,112
-466,401	-200,000	0,015	0,088
-465,386	86,689	0,094	0,075
-464,372	444,397	0,030	0,047
-463,357	-183,519	-0,078	0,001
-462,343	-158,299	-0,049	0,002
-461,328	83,933	-0,041	0,032
-460,313	122,717	0,067	0,060
-459,299	185,241	-0,127	0,136
-458,284	-38,674	-0,037	-0,014
-457,270	-190,831	0,069	0,001
-456,255	144,514	-0,089	-0,085
-455,241	232,948	-0,042	0,050
-454,226	633,550	-0,008	-0,015
-453,211	208,914	0,066	-0,075
-452,197	756,929	0,021	0,041
-451,182	-71,976	-0,017	0,005
-450,168	69,873	-0,089	0,066
-449,153	348,328	0,062	0,088
-448,138	800,000	-0,043	-0,089
-447,124	-137,577	-0,033	-0,003
-446,109	-200,000	-0,003	-0,046
-445,095	155,818	0,060	-0,060
-444,080	800,000	-0,042	0,101
-443,065	-109,460	0,078	-0,012
-442,051	800,000	0,036	0,083
-441,036	-45,690	-0,147	0,052
-440,022	-71,812	-0,071	-0,019
-439,007	-59,263	-0,135	0,042
-437,992	324,256	-0,037	-0,051
-436,978	-39,530	-0,087	0,032
-435,963	449,015	0,016	0,025
-434,949	-84,084	-0,226	-0,051
-433,934	-40,608	-0,088	-0,033
-432,919	-128,386	-0,072	-0,007
-431,905	260,949	-0,129	-0,161
-430,890	800,000	0,028	0,058
-429,876	116,243	0,107	0,094
-428,861	-51,165	-0,057	0,019
-427,846	-200,000	-0,023	-0,122
-426,832	123,101	-0,027	-0,024
-425,817	-75,339	-0,109	0,028
-424,803	-121,779	0,108	0,013
-423,788	106,518	0,124	-0,106
-422,773	-109,405	0,094	0,014
-421,759	-200,000	0,036	0,128
-420,744	297,805	0,111	0,146
-419,730	800,000	-0,032	0,078
-418,715	208,497	-0,105	-0,118
-417,701	28,946	0,056	0,034
-416,686	136,117	0,092	0,086
-415,671	800,000	-0,067	0,149
-414,657	-200,000	-0,006	0,139
-413,642	-200,000	0,008	-0,026
-412,628	239,346	-0,062	-0,074
-411,613	-200,000	-0,020	-0,093
-410,598	162,825	0,138	-0,140
-409,584	-200,000	0,010	0,096
-408,569	-41,885	0,058	0,021
-407,555	-200,000	0,005	-0,046
-406,540	-88,511	-0,044	0,009
-405,525	-67,084	0,013	-0,004
-404,511	-200,000	0,020	0,075
-403,496	-69,409	-0,066	-0,018
-402,482	274,428	0,035	-0,045
-401,467	90,802	-0,054	0,043
-400,452	800,000	-0,043	0,094
-399,438	46,664	-0,120	0,080
-398,423	-200,000	-0,008	0,027
-397,409	800,000	-0,033	-0,099
-396,394	-200,000	0,022	-0,133
-395,379	68,588	0,021	-0,015
-394,365	-15,046	0,091	0,042
-393,350	232,229	0,037	0,043
-392,336	-91,916	-0,036	0,007
-391,321	-15,117	-0,193	-0,088
-390,306	-200,000	-0,028	0,091
-389,292	675,063	-0,065	-0,121
-388,277	-200,000	-0,033	0,163
-387,263	81,092	-0,036	0,028
-386,248	-83,986	0,135	0,031
-385,233	-200,000	0,018	-0,108
-384,219	-56,237	0,098	-0,031
-383,204	-200,000	-0,046	-0,157
-382,190	246,669	-0,034	-0,042
-381,175	260,659	0,089	-0,111
-380,160	-200,000	0,008	-0,038
-379,146	649,851	-0,011	-0,020
-378,131	-14,781	-0,019	-0,009
-377,117	58,728	-0,116	0,081
-376,102	678,570	-0,038	-0,071
-375,088	28,272	-0,021	0,013
-374,073	197,833	-0,039	0,043
-373,058	57,691	0,066	0,046
-372,044	142,053	0,049	0,047
-371,029	87,815	-0,072	0,057
-370,015	-200,000	-0,049	0,225
-369,000	113,615	0,026	-0,023
-367,985	92,086	-0,099	-0,080
-366,971	-52,546	-0,065	-0,021
-365,956	45,090	0,025	0,016
-364,942	-51,050	-0,099	-0,033
-363,927	800,000	0,056	0,114
-362,912	229,448	-0,067	0,078
-361,898	39,187	-0,086	-0,055
-360,883	800,000	0,046	-0,132
-359,869	-200,000	-0,021	-0,083
-358,854	800,000	-0,015	-0,031
-357,839	-200,000	0,004	0,027
-356,825	800,000	-0,023	0,059
-355,810	-105,798	0,057	-0,009
-354,796	-162,387	0,085	-0,003
-353,781	-200,000	0,007	-0,062
-352,766	-109,300	-0,110	-0,017
-351,752	22,636	-0,086	-0,050
-350,737	-21,031	-0,049	0,021
-349,723	-93,964	0,041	0,008
-348,708	193,036	0,093	0,101
-347,693	-115,082	-0,016	-0,002
-346,679	-200,000	-0,006	-0,198
-345,664	471,537	0,027	-0,043
-344,650	360,428	0,079	-0,114
-343,635	278,591	-0,022	-0,028
-342,620	-9,753	0,157	0,075
-341,606	81,384	0,144	0,111
-340,591	611,253	-0,072	-0,129
-339,577	-30,568	-0,091	0,037
-338,562	-89,072	-0,094	-0,020
-337,548	-200,000	-0,033	0,120
-336,533	-200,000	0,011	-0,087
-335,518	196,589	0,092	0,101
-334,504	-151,767	0,077	0,004
-333,489	70,975	0,075	0,056
-332,475	-200,000	0,036	-0,133
-331,460	800,000	-0,024	0,074
-330,445	251,878	0,032	0,039
-329,431	-200,000	0,005	0,035
-328,416	-200,000	-0,003	0,036
-327,402	-200,000	0,016	-0,051
-326,387	800,000	-0,018	0,042
-325,372	-91,665	-0,055	0,011
-324,358	685,374	-0,033	-0,061
-323,343	16,040	-0,080	-0,045
-322,329	-148,771	0,057	-0,003
-321,314	-200,000	-0,024	-0,125
-320,299	209,466	0,051	0,057
-319,285	284,259	0,104	0,134
-318,270	6,564	0,011	-0,006
-317,256	10,033	-0,145	-0,079
-316,241	-200,000	-0,029	-0,160
-315,226	503,409	0,026	0,043
-314,212	-6,793	-0,053	0,026
-313,197	82,057	0,086	0,067
-312,183	-102,286	-0,207	-0,035
-311,168	108,208	-0,069	-0,059
-310,153	-169,719	-0,074	-0,002
-309,139	-94,778	-0,113	-0,022
-308,124	-200,000	0,023	0,109
-307,110	49,568	0,143	0,096
-306,095	53,337	0,112	-0,077
-305,080	-55,239	0,125	-0,040
-304,066	157,703	-0,143	-0,142
-303,051	-200,000	0,006	0,048
-302,037	205,126	0,113	0,126
-301,022	161,259	0,070	-0,070
-300,008	800,000	0,036	0,079
-298,993	227,576	0,056	0,065
-297,978	-200,000	0,017	-0,063
-296,964	714,986	-0,024	0,045
-295,949	527,894	-0,052	-0,089
-294,935	409,430	0,035	-0,054
-293,920	134,139	0,089	0,083
-292,905	-58,734	-0,082	0,025
-291,891	412,206	0,114	0,173
-290,876	109,126	-0,123	-0,105
-289,862	444,908	0,009	-0,014
-288,847	-200,000	-0,002	0,008
-287,832	800,000	0,017	-0,037
-286,818	-10,319	-0,092	-0,043
-285,803	-168,284	-0,043	0,001
-284,789	417,597	0,075	0,114
-283,774	-117,199	-0,076	-0,010
-282,759	-200,000	0,009	-0,047
-281,745	-26,354	-0,186	-0,078
-280,730	198,669	0,080	-0,088
-279,716	-0,399	-0,059	-0,030
-278,701	-200,000	-0,029	0,119
-277,686	-200,000	-0,009	0,135
-276,672	635,873	-0,005	-0,008
-275,657	26,172	0,049	0,029
-274,643	800,000	-0,045	-0,105
-273,628	-200,000	-0,010	-0,085
-272,613	-191,956	0,101	-0,001
-271,599	-200,000	0,007	0,043
-270,584	800,000	0,024	0,070
-269,570	-125,217	0,022	0,002
-268,555	26,900	-0,101	-0,060
-267,540	-200,000	0,012	-0,078
-266,526	-167,107	-0,054	-0,002
-265,511	800,000	0,038	-0,075
-264,497	419,036	0,012	0,018
-263,482	317,649	0,052	0,070
-262,467	800,000	0,061	0,166
-261,453	800,000	0,014	0,032
-260,438	-200,000	0,032	-0,190
-259,424	-200,000	-0,003	0,138
-258,409	-153,395	-0,045	-0,002
-257,395	-78,629	0,086	-0,021
-256,380	268,503	-0,063	0,078
-255,365	-200,000	0,004	0,029
-254,351	-200,000	0,008	0,214
-253,336	15,144	-0,053	-0,029
-252,322	-59,505	0,138	-0,042
-251,307	325,259	0,068	-0,093
-250,292	61,716	-0,046	0,032
-249,278	102,187	0,091	0,075
-248,263	-95,187	0,134	0,026
-247,249	-55,144	0,012	0,004
-246,234	-64,189	0,052	-0,015
-245,219	-183,266	-0,094	0,001
-244,205	-28,488	0,070	0,029
-243,190	7,565	0,025	-0,014
-242,176	-200,000	0,018	-0,080
-241,161	-200,000	-0,022	0,087
-240,146	5,641	0,047	0,025
-239,132	-200,000	0,016	0,091
-238,117	-200,000	0,011	-0,043
-237,103	-79,209	-0,097	-0,023
-236,088	-200,000	-0,004	-0,016
-235,073	-141,461	0,130	-0,009
-234,059	-52,414	-0,086	0,028
-233,044	-39,682	0,130	-0,048
-232,030	-200,000	0,012	-0,051
-231,015	48,607	-0,104	-0,070
-230,000	43,100	-0,155	-0,101
-228,986	-36,475	-0,026	0,010
-227,971	175,014	0,027	-0,027
-226,957	348,012	0,079	0,112
-225,942	187,090	0,046	-0,049
-224,927	-4,540	0,031	0,015
-223,913	687,653	-0,025	-0,046
-222,898	177,162	0,086	-0,089
-221,884	800,000	0,009	0,019
-220,869	800,000	0,031	-0,096
-219,855	41,899	-0,067	-0,043
-218,840	-16,034	0,069	0,031
-217,825	-138,534	0,059	-0,005
-216,811	-200,000	0,006	0,075
-215,796	9,487	-0,083	0,045
-214,782	-200,000	-0,009	0,057
-213,767	-39,587	0,030	0,011
-212,752	-200,000	-0,035	0,135
-211,738	484,552	-0,090	0,147
-210,723	268,544	0,082	0,103
-209,709	-200,000	0,011	-0,090
-208,694	359,753	0,092	-0,131
-207,679	800,000	-0,046	-0,092
-206,665	130,019	0,059	-0,054
-205,650	-155,027	-0,074	-0,003
-204,636	242,062	0,053	0,063
-203,621	617,675	-0,063	0,113
-202,606	236,379	0,143	0,168
-201,592	166,227	0,025	-0,025
-200,577	146,070	-0,019	0,018
-199,563	-200,000	-0,013	0,085
-198,548	-124,132	0,086	0,009
-197,533	-200,000	0,000	-0,059
-196,519	-89,339	-0,099	-0,021
-195,504	-92,153	0,180	0,036
-194,490	-200,000	0,022	-0,105
-193,475	-200,000	-0,009	0,039
-192,460	-91,132	0,095	0,019
-191,446	-63,163	-0,120	0,035
-190,431	-200,000	0,021	0,145
-189,417	-200,000	0,043	0,138
-188,402	-200,000	-0,001	0,036
-187,387	-95,596	-0,057	0,011
-186,373	800,000	-0,014	0,037
-185,358	69,490	0,086	0,063
-184,344	-200,000	0,001	0,060
-183,329	-136,040	-0,188	0,016
-182,315	177,521	0,012	0,012
-181,300	593,689	0,041	-0,072
-180,285	88,745	-0,077	-0,061
-179,271	-200,000	0,032	-0,133
-178,256	-31,125	0,049	-0,019
-177,242	66,961	0,102	-0,074
-176,227	800,000	-0,031	0,085
-175,212	-113,811	0,070	-0,010
-174,198	383,433	0,047	0,069
-173,183	-122,844	-0,097	-0,011
-172,169	152,595	-0,090	-0,087
-171,154	-58,611	-0,042	-0,013
-170,139	11,612	0,052	0,028
-169,125	-85,109	-0,070	-0,015
-168,110	-49,353	0,038	0,013
-167,096	444,021	-0,093	-0,146
-166,081	263,307	0,029	-0,036
-165,066	800,000	0,036	-0,084
-164,052	241,966	-0,028	-0,034
-163,037	-111,341	0,175	-0,025
-162,023	48,197	0,058	0,038
-161,008	97,980	0,022	-0,018
-159,993	163,937	-0,077	0,077
-158,979	166,728	-0,022	0,022
-157,964	-160,992	-0,107	-0,004
-156,950	-28,563	0,136	0,055
-155,935	-200,000	-0,016	0,081
-154,920	27,936	-0,044	-0,027
-153,906	-53,437	0,036	0,012
-152,891	-200,000	-0,012	-0,148
-151,877	15,739	0,089	-0,050
-150,862	81,159	-0,091	0,070
-149,847	-200,000	-0,031	-0,139
-148,833	67,371	0,033	0,024
-147,818	147,994	0,059	-0,056
-146,804	37,278	-0,054	0,034
-145,789	117,421	-0,067	0,058
-144,775	217,578	-0,015	-0,017
-143,760	800,000	-0,053	0,137
-142,745	-61,339	0,046	0,014
-141,731	256,076	-0,016	0,020
-140,716	96,831	0,066	-0,054
-139,702	-182,940	0,119	0,001
-138,687	-172,483	0,033	0,001
-137,672	-200,000	0,007	0,029
-136,658	-200,000	0,005	-0,127
-135,643	-102,825	-0,043	0,007
-134,629	-8,576	0,111	0,053
-133,614	-59,056	-0,027	-0,008
-132,599	-77,537	0,078	0,019
-131,585	4,579	0,079	0,041
-130,570	-200,000	0,001	-0,164
-129,556	-70,171	-0,172	-0,046
-128,541	800,000	-0,051	0,118
-127,526	-200,000	-0,012	0,212
-126,512	-6,007	0,132	0,064
-125,497	-16,166	0,063	-0,028
-124,483	800,000	0,028	0,072
-123,468	-142,118	0,099	0,007
-122,453	262,957	-0,116	-0,143
-121,439	163,232	0,157	-0,157
-120,424	800,000	-0,075	-0,180
-119,410	66,012	-0,023	-0,017
-118,395	-79,708	0,096	0,023
-117,380	-60,748	0,110	0,033
-116,366	95,867	0,036	-0,029
-115,351	792,566	-0,040	0,078
-114,337	119,233	-0,131	-0,115
-113,322	800,000	-0,022	-0,068
-112,307	-200,000	0,015	0,084
-111,293	-200,000	0,005	-0,043
-110,278	-18,660	-0,016	-0,007
-109,264	-186,814	-0,063	0,001
-108,249	-200,000	0,002	0,104
-107,234	800,000	-0,030	-0,062
-106,220	800,000	-0,043	-0,123
-105,205	-200,000	0,004	0,178
-104,191	-94,030	0,038	0,007
-103,176	-200,000	0,012	-0,141
-102,162	-5,941	0,104	-0,050
-101,147	-64,413	-0,183	-0,053
-100,132	482,752	-0,038	0,061
-99,118	364,409	0,043	0,061
-98,103	-47,004	0,081	0,028
-97,089	-38,738	0,139	-0,052
-96,074	101,289	-0,050	-0,041
-95,059	297,630	-0,105	-0,137
-94,045	582,649	0,053	-0,093
-93,030	7,590	-0,047	-0,025
-92,016	-57,962	0,086	-0,026
-91,001	24,097	0,067	0,039
-89,986	-42,634	0,114	0,041
-88,972	255,072	0,085	0,104
-87,957	63,694	-0,144	0,102
-86,943	673,453	0,052	0,096
-85,928	4,056	-0,066	-0,034
-84,913	-114,342	0,099	-0,013
-83,899	158,792	-0,019	-0,019
-82,884	180,750	0,018	0,019
-81,870	-157,945	-0,101	-0,004
-80,855	216,747	-0,025	-0,028
-79,840	-200,000	-0,010	-0,198
-78,826	-10,691	0,141	-0,066
-77,811	800,000	-0,073	-0,162
-76,797	597,869	0,090	-0,158
-75,782	234,525	0,157	-0,183
-74,767	59,613	-0,159	0,111
-73,753	100,419	0,113	-0,093
-72,738	390,946	-0,042	-0,062
-71,724	86,980	0,054	-0,043
-70,709	800,000	-0,040	-0,124
-69,694	351,721	-0,034	-0,048
-68,680	-41,375	0,048	0,017
-67,665	220,153	0,075	-0,085
-66,651	-200,000	-0,011	-0,064
-65,636	767,587	-0,017	0,033
-64,622	462,010	0,039	0,062
-63,607	-65,780	-0,132	-0,037
-62,592	-200,000	0,000	-0,132
-61,578	-200,000	-0,019	0,067
-60,563	-200,000	0,018	0,099
-59,549	-200,000	0,005	0,089
-58,534	-43,109	-1,740	-0,621
-57,519	390,494	-1,404	-2,069
-56,505	-200,000	-0,462	-4,655
-55,490	173,541	1,040	1,063
-54,476	800,000	4,985	11,331
-53,461	-200,000	19,349	319,908
-52,446	-200,000	740,593	2334,209
-51,432	573,306	1655,447	2868,977
-50,417	78,266	1670,962	1261,713
-49,403	21,286	1544,074	885,639
-48,388	15,177	1466,328	811,342
-47,373	17,916	1456,710	819,225
-46,359	16,673	1446,447	807,461
-45,344	13,437	1441,769	789,317
-44,330	13,318	1440,036	787,765
-43,315	13,321	1438,303	786,800
-42,300	13,362	1436,531	785,995
-41,286	13,389	1435,212	785,370
-40,271	13,347	1433,907	784,424
-39,257	13,306	1432,804	783,598
-38,242	13,384	1431,314	783,121
-37,227	13,400	1430,140	782,523
-36,213	13,421	1428,907	781,917
-35,198	13,396	1427,767	781,143
-34,184	13,401	1426,908	780,669
-33,169	13,392	1425,268	779,694
-32,154	13,456	1424,204	779,386
-31,140	13,426	1422,867	778,481
-30,125	13,469	1421,905	778,126
-29,111	13,453	1420,695	777,360
-28,096	13,448	1419,482	776,641
-27,082	13,394	1418,730	775,945
-26,067	13,358	1417,379	775,004
-25,052	13,298	1416,502	774,211
-24,038	13,342	1415,468	773,824
-23,023	13,343	1414,493	773,263
-22,009	13,325	1413,425	772,564
-20,994	13,293	1412,708	771,990
-19,979	13,278	1411,787	771,390
-18,965	13,299	1410,711	770,869
-17,950	13,296	1409,694	770,266
-16,936	13,293	1408,846	769,760
-15,921	13,200	1407,816	768,732
-14,906	13,249	1406,935	768,447
-13,892	13,253	1405,865	767,851
-12,877	13,211	1405,075	767,195
-11,863	13,240	1404,084	766,759
-10,848	13,201	1403,365	766,151
-9,833	13,193	1402,541	765,633
-8,819	13,195	1401,426	765,005
-7,804	13,171	1400,788	764,513
-6,790	13,130	1399,537	763,613
-5,775	13,141	1398,355	762,988
-4,760	13,148	1397,603	762,581
-3,746	13,123	1396,748	761,965
-2,731	13,158	1395,915	761,644
-1,717	13,105	1395,104	760,927
-0,702	13,085	1393,226	759,779
0,313	16,966	1310,016	732,368
1,327	33,269	703,601	431,022
2,342	51,061	123,237	82,548
3,356	4,828	16,666	8,640
4,371	-8,315	3,203	1,519
5,386	-78,873	0,621	0,148
6,400	-200,000	0,022	0,185
7,415	-200,000	-0,034	-0,304
8,429	-141,228	-0,404	-0,029
9,444	-55,973	-0,399	-0,125
10,459	40,416	-0,177	-0,113
11,473	54,079	-0,246	-0,167
12,488	-77,808	-0,332	-0,080
13,502	-10,502	-0,400	-0,186
14,517	84,821	-0,335	-0,260
15,531	227,295	-0,288	-0,331
16,546	75,359	-0,243	-0,181
17,561	-5,649	-0,400	-0,193
18,575	106,477	-0,282	-0,236
19,590	49,111	-0,245	-0,162
20,604	-131,113	-0,247	-0,023
21,619	24,586	-0,505	-0,294
22,634	144,741	-0,408	-0,385
23,648	26,257	-0,549	-0,323
24,663	-18,464	-0,458	-0,201
25,677	148,727	-0,259	-0,247
26,692	19,609	-0,412	-0,234
27,707	28,069	-0,407	-0,242
28,721	8,668	-0,471	-0,250
29,736	121,820	-0,341	-0,300
30,750	4,134	-0,403	-0,207
31,765	263,747	-0,267	-0,328
32,780	-60,359	-0,436	-0,130
33,794	63,866	-0,380	-0,269
34,809	147,199	-0,329	-0,313
35,823	40,128	-0,396	-0,250
36,838	313,675	-0,353	-0,469
37,853	103,589	-0,452	-0,374
38,867	87,227	-0,277	-0,216
39,882	92,931	-0,335	-0,267
40,896	127,742	-0,353	-0,316
41,911	26,079	-0,340	-0,199
42,926	66,230	-0,334	-0,239
43,940	110,462	-0,246	-0,209
44,955	22,544	-0,352	-0,203
45,969	450,272	-0,205	-0,320
46,984	-37,019	-0,455	-0,171
47,999	269,041	-0,160	-0,198
49,013	227,155	-0,231	-0,265
50,028	121,401	-0,341	-0,300
51,042	167,966	-0,335	-0,336
52,057	152,747	-0,347	-0,334
53,071	334,428	-0,293	-0,401
54,086	-66,388	-0,474	-0,132
55,101	133,320	-0,282	-0,257
56,115	70,573	-0,338	-0,246
57,130	21,859	-0,417	-0,239
58,144	39,855	-0,223	-0,141
59,159	47,700	-0,531	-0,349
60,174	-18,369	-0,237	-0,104
61,188	-53,227	-0,407	-0,131
62,203	139,594	-0,262	-0,243
63,217	-7,234	-0,286	-0,136
64,232	22,229	-0,282	-0,162
65,247	113,345	-0,301	-0,257
66,261	10,271	-0,369	-0,197
67,276	-14,890	-0,444	-0,200
68,290	551,336	-0,121	-0,204
69,305	18,057	-0,382	-0,213
70,320	171,228	-0,273	-0,276
71,334	38,990	-0,417	-0,262
72,349	36,664	-0,238	-0,148
73,363	-42,224	-0,416	-0,149
74,378	27,938	-0,379	-0,224
75,393	-50,052	-0,352	-0,117
76,407	103,920	-0,177	-0,146
77,422	244,542	-0,215	-0,254
78,436	74,007	-0,258	-0,190
79,451	318,893	-0,311	-0,415
80,466	398,808	-0,187	-0,277
81,480	54,754	-0,352	-0,238
82,495	-31,118	-0,321	-0,126
83,509	-24,302	-0,247	-0,103
84,524	-90,288	-0,208	-0,042
85,539	27,449	-0,327	-0,193
86,553	212,386	-0,201	-0,223
87,568	-49,346	-0,322	-0,107
88,582	-27,994	-0,319	-0,129
89,597	201,006	-0,122	-0,132
90,611	205,746	-0,265	-0,289
91,626	-32,846	-0,157	-0,061
92,641	289,514	-0,271	-0,346
93,655	24,052	-0,282	-0,163
94,670	-72,404	-0,364	-0,094
95,684	331,232	-0,228	-0,309
96,699	800,000	-0,127	-0,305
97,714	757,201	-0,202	-0,385
98,728	-43,808	-0,266	-0,093
99,743	225,370	-0,228	-0,260
100,757	-7,265	-0,226	-0,107
101,772	36,694	-0,438	-0,271
102,787	-19,356	-0,345	-0,150
103,801	335,200	-0,211	-0,288
104,816	80,192	-0,245	-0,185
105,830	-112,939	-0,220	-0,030
106,845	410,094	-0,116	-0,172
107,860	-22,437	-0,203	-0,086
108,874	93,517	-0,231	-0,183
109,889	-92,235	-0,310	-0,061
110,903	-10,474	-0,353	-0,163
111,918	42,432	-0,335	-0,213
112,933	33,334	-0,222	-0,134
113,947	-148,153	-0,188	-0,011
114,962	-135,081	-0,343	-0,029
115,976	-30,240	-0,326	-0,129
116,991	-22,417	-0,266	-0,112
118,006	149,111	-0,177	-0,168
119,020	-22,840	-0,256	-0,108
120,035	-20,224	-0,077	-0,033
121,049	62,248	-0,198	-0,138
122,064	5,063	-0,281	-0,145
123,079	-15,420	-0,277	-0,123
124,093	-64,584	-0,400	-0,113
125,108	120,768	-0,246	-0,214
126,122	23,274	-0,216	-0,124
127,137	1,603	-0,299	-0,150
128,151	180,369	-0,235	-0,241
129,166	12,765	-0,187	-0,101
130,181	59,861	-0,275	-0,190
131,195	98,050	-0,313	-0,252
132,210	16,698	-0,211	-0,117
133,224	91,526	-0,295	-0,232
134,239	126,690	-0,166	-0,147
135,254	-125,656	-0,215	-0,022
136,268	159,672	-0,153	-0,150
137,283	99,361	-0,266	-0,215
138,297	114,817	-0,235	-0,200
139,312	17,335	-0,361	-0,200
140,327	2,697	-0,326	-0,165
141,341	-81,698	-0,298	-0,068
142,356	210,032	-0,176	-0,193
143,370	9,220	-0,259	-0,137
144,385	21,484	-0,208	-0,118
145,400	151,672	-0,312	-0,297
146,414	105,606	-0,372	-0,307
147,429	372,268	-0,145	-0,206
148,443	664,634	-0,171	-0,309
149,458	251,066	-0,197	-0,234
150,473	78,531	-0,263	-0,196
151,487	90,110	-0,235	-0,183
152,502	314,757	-0,202	-0,266
153,516	-66,407	-0,327	-0,090
154,531	253,890	-0,171	-0,204
155,546	366,939	-0,204	-0,289
156,560	291,869	-0,061	-0,077
157,575	-200,000	-0,025	-0,086
158,589	206,968	-0,237	-0,259
159,604	-7,482	-0,194	-0,091
160,619	78,678	-0,264	-0,197
161,633	-24,091	-0,307	-0,127
162,648	83,432	-0,229	-0,174
163,662	133,844	-0,223	-0,202
164,677	-27,369	-0,189	-0,076
165,692	479,564	-0,204	-0,324
166,706	-200,000	-0,048	-0,175
167,721	103,144	-0,256	-0,209
168,735	259,384	-0,203	-0,244
169,750	389,562	-0,127	-0,183
170,764	84,441	-0,317	-0,242
171,779	53,227	-0,248	-0,165
172,794	28,598	-0,180	-0,106
173,808	20,036	-0,266	-0,149
174,823	88,673	-0,164	-0,127
175,837	78,447	-0,258	-0,192
176,852	213,740	-0,340	-0,375
177,867	-127,101	-0,219	-0,022
178,881	215,037	-0,216	-0,239
179,896	-3,794	-0,103	-0,050
180,910	116,448	-0,244	-0,208
181,925	190,521	-0,228	-0,239
182,940	188,509	-0,194	-0,202
183,954	88,754	-0,222	-0,172
184,969	-86,415	-0,171	-0,036
185,983	202,382	-0,182	-0,196
186,998	800,000	-0,101	-0,277
188,013	-46,548	-0,269	-0,091
189,027	11,822	-0,252	-0,134
190,042	495,352	-0,221	-0,354
191,056	-200,000	-0,032	-0,199
192,071	800,000	-0,125	-0,294
193,086	271,538	-0,124	-0,152
194,100	241,281	-0,125	-0,145
195,115	239,972	-0,214	-0,249
196,129	800,000	-0,079	-0,190
197,144	-46,806	-0,380	-0,129
198,159	454,951	-0,190	-0,294
199,173	389,157	-0,153	-0,221
200,188	61,657	-0,155	-0,107
201,202	56,921	-0,240	-0,163
202,217	-23,641	-0,265	-0,110
203,232	27,703	-0,230	-0,134
204,246	451,842	-0,164	-0,252
205,261	144,145	-0,193	-0,179
206,275	-96,808	-0,239	0,043
207,290	-200,000	-0,079	-0,249
208,304	76,194	-0,246	-0,181
209,319	9,877	-0,229	-0,120
210,334	68,774	-0,246	-0,175
211,348	71,116	-0,276	-0,199
212,363	86,469	-0,184	-0,141
213,377	-160,481	-0,218	0,008
214,392	-0,716	-0,158	-0,077
215,407	297,501	-0,094	-0,121
216,421	65,579	-0,164	-0,115
217,436	70,940	-0,229	-0,165
218,450	171,385	-0,116	-0,116
219,465	241,008	-0,181	-0,210
220,480	47,926	-0,125	0,081
221,494	-14,126	-0,136	0,061
222,509	800,000	-0,072	-0,194
223,523	-116,334	-0,181	-0,023
224,538	154,289	-0,083	-0,079
225,553	800,000	-0,064	-0,182
226,567	-110,428	-0,254	0,036
227,582	-53,408	-0,301	-0,095
228,596	-200,000	-0,035	-0,122
229,611	63,547	-0,248	-0,173
230,626	-96,271	-0,124	-0,022
231,640	200,070	-0,107	-0,114
232,655	59,773	-0,197	-0,135
233,669	-42,629	-0,127	-0,045
234,684	-51,140	-0,152	-0,049
235,699	171,634	-0,141	-0,141
236,713	169,154	-0,140	-0,138
237,728	264,422	-0,172	-0,207
238,742	301,028	-0,223	-0,285
239,757	202,435	-0,145	-0,155
240,772	320,592	-0,178	-0,234
241,786	52,385	-0,257	-0,170
242,801	-49,875	-0,111	-0,036
243,815	396,104	-0,148	-0,215
244,830	485,526	-0,078	-0,123
245,844	124,535	-0,141	-0,123
246,859	800,000	-0,086	-0,185
247,874	306,790	-0,148	-0,192
248,888	-64,211	-0,209	-0,059
249,903	231,643	-0,144	-0,163
250,917	200,854	-0,180	-0,192
251,932	312,911	-0,145	-0,189
252,947	52,751	-0,225	0,148
253,961	-200,000	-0,025	-0,115
254,976	185,036	-0,196	-0,202
255,990	-200,000	-0,057	-0,191
257,005	-6,837	-0,241	-0,113
258,020	-200,000	0,020	-0,083
259,034	-9,340	-0,131	-0,061
260,049	254,965	-0,153	-0,182
261,063	29,078	-0,152	-0,089
262,078	0,891	-0,169	-0,083
263,093	-42,999	-0,217	-0,076
264,107	109,015	-0,151	-0,125
265,122	453,411	-0,050	-0,077
266,136	42,548	-0,060	-0,038
267,151	-200,000	-0,030	-0,127
268,166	79,290	-0,192	-0,142
269,180	-32,800	-0,189	-0,072
270,195	26,337	-0,245	-0,141
271,209	107,234	-0,111	-0,091
272,224	81,105	-0,161	-0,120
273,239	43,798	-0,152	-0,096
274,253	194,056	-0,055	-0,058
275,268	66,108	-0,114	-0,080
276,282	20,428	-0,151	-0,084
277,297	23,152	-0,202	-0,114
278,312	2,820	-0,172	-0,086
279,326	-173,289	-0,072	0,001
280,341	344,471	0,063	-0,085
281,355	131,365	-0,088	-0,078
282,370	57,973	-0,114	-0,077
283,384	-36,154	-0,265	-0,098
284,399	759,191	-0,123	-0,231
285,414	768,364	-0,054	-0,101
286,428	-26,511	-0,212	-0,085
287,443	14,106	-0,100	-0,053
288,457	203,520	-0,168	-0,180
289,472	800,000	0,038	-0,080
290,487	-200,000	-0,031	-0,149
291,501	204,954	-0,237	-0,254
292,516	149,649	-0,151	-0,141
293,530	-41,382	-0,142	-0,050
294,545	245,612	-0,111	-0,129
295,560	482,152	-0,052	-0,082
296,574	-200,000	-0,083	-0,280
297,589	142,703	-0,094	-0,086
298,603	124,524	-0,145	-0,125
299,618	132,834	-0,185	-0,165
300,633	252,200	-0,155	-0,182
301,647	-148,409	-0,114	0,006
302,662	65,846	-0,053	0,037
303,676	800,000	-0,015	-0,045
304,691	104,269	-0,145	-0,118
305,706	88,939	-0,205	-0,157
306,720	224,643	-0,113	-0,126
307,735	-72,740	-0,220	-0,055
308,749	102,537	-0,104	-0,083
309,764	62,913	-0,078	-0,054
310,779	648,618	-0,067	-0,119
311,793	344,659	-0,147	-0,199
312,808	-112,927	-0,139	0,019
313,822	-101,732	-0,183	-0,030
314,837	-200,000	-0,006	-0,108
315,852	-200,000	-0,019	-0,167
316,866	463,346	-0,110	-0,169
317,881	-136,891	-0,228	-0,018
318,895	65,175	-0,174	-0,121
319,910	67,942	-0,161	-0,113
320,925	158,198	-0,139	-0,133
321,939	-180,597	-0,178	0,002
322,954	-200,000	-0,048	-0,204
323,968	-196,917	-0,106	-0,000
324,983	101,308	-0,161	-0,129
325,997	-74,914	-0,060	-0,015
327,012	39,530	-0,188	-0,116
328,027	-200,000	-0,034	-0,184
329,041	95,197	-0,064	-0,050
330,056	380,130	-0,070	-0,099
331,070	168,515	-0,120	-0,117
332,085	-92,633	-0,243	0,046
333,100	-16,842	-0,165	-0,071
334,114	568,984	-0,129	-0,216
335,129	800,000	-0,101	-0,194
336,143	118,656	-0,141	-0,120
337,158	-64,835	-0,205	-0,057
338,173	800,000	-0,062	-0,131
339,187	286,244	-0,067	-0,083
340,202	33,295	-0,199	-0,118
341,216	171,305	-0,118	-0,116
342,231	222,529	-0,182	-0,201
343,246	-27,523	-0,145	-0,057
344,260	-102,057	-0,296	0,048
345,275	53,282	-0,139	-0,091
346,289	517,107	-0,035	-0,057
347,304	-167,115	-0,147	-0,004
348,319	-92,827	-0,163	-0,031
349,333	474,400	-0,043	-0,067
350,348	57,559	-0,158	-0,106
351,362	252,142	-0,070	-0,082
352,377	-56,292	-0,144	-0,044
353,392	545,583	-0,148	-0,244
354,406	800,000	-0,094	-0,209
355,421	209,417	1312,139	1412,167
356,435	161,176	1472,547	1412,661
