DTS Sentinel unit serial number:	SN410029Multiplexer serial number:	ORYXHardware model number:	OX2-SRSoftware version number:	ORYX F/W v4,00 Oryx Data Collector v3.7.2.0data status	okinstallation	B3 Nyhavnadifferential loss correction	single-endedforward channel	channel 1reverse channel	N/Adate	2023/12/04time	07:47:30forward acquisition time	300,00reverse acquisition time	0,00gamma	499,1914k internal	0,3205k external	0,3205temperature offset calibration	1,0000default loss term (dB/km)	0,3820temperature slope calibration	1,0000multiplexer offset coefficient	1,0000multiplexer slope coefficient	1,0000fibre end	0,00T internal ref (°C)	12,39T ext. ref 1 (°C)	-2,00T ext. ref 2 (°C)	-2,04length (m)	temperature (°C)	Stokes	anti-Stokes-744,400	644,346	-0,144	-0,268
-743,385	449,739	-0,120	0,192
-742,371	800,000	-0,116	-0,310
-741,356	-200,000	-0,014	0,303
-740,342	-26,060	-0,307	-0,131
-739,327	-200,000	-0,003	0,206
-738,312	-200,000	-0,011	-0,358
-737,298	742,114	-0,111	0,219
-736,283	381,197	-0,192	-0,287
-735,269	-200,000	-0,025	0,362
-734,254	314,493	-0,220	-0,302
-733,239	-151,389	-0,215	0,011
-732,225	214,301	-0,089	-0,102
-731,210	-156,334	0,063	0,003
-730,196	-200,000	-0,000	-0,006
-729,181	-200,000	-0,018	0,110
-728,167	800,000	0,029	0,085
-727,152	-4,681	0,093	0,046
-726,137	-54,028	-0,036	-0,012
-725,123	-27,063	-0,083	0,035
-724,108	-200,000	-0,003	-0,019
-723,094	800,000	-0,110	-0,228
-722,079	-128,363	-0,100	0,010
-721,064	253,963	-0,075	0,094
-720,050	-75,159	0,098	0,025
-719,035	-111,715	-0,047	0,007
-718,021	26,952	0,024	0,014
-717,006	-118,152	-0,111	-0,014
-715,991	124,852	-0,106	-0,097
-714,977	407,147	-0,032	-0,049
-713,962	-200,000	-0,019	-0,109
-712,948	-27,803	-0,099	0,042
-711,933	10,284	0,122	0,067
-710,918	-47,313	-0,123	-0,043
-709,904	166,889	0,050	-0,052
-708,889	-200,000	-0,014	-0,095
-707,875	-87,757	-0,055	-0,012
-706,860	234,946	-0,017	0,020
-705,845	-103,408	-0,032	-0,005
-704,831	-200,000	0,009	0,146
-703,816	-200,000	0,192	0,000
-702,802	393,619	-0,043	0,065
-701,787	157,600	-0,154	0,155
-700,772	0,158	0,074	-0,038
-699,758	50,295	0,148	-0,101
-698,743	-196,703	0,072	-0,000
-697,729	-200,000	-0,002	0,062
-696,714	144,357	0,011	0,010
-695,699	4,962	0,072	-0,039
-694,685	-31,736	-0,048	-0,019
-693,670	35,606	-0,105	-0,067
-692,656	95,544	0,024	-0,020
-691,641	800,000	-0,046	-0,135
-690,627	186,479	-0,038	-0,041
-689,612	-101,371	0,042	0,007
-688,597	800,000	0,022	0,046
-687,583	78,937	-0,088	-0,068
-686,568	-24,094	-0,116	-0,050
-685,554	-200,000	-0,003	-0,049
-684,539	41,279	-0,119	0,078
-683,524	800,000	0,031	-0,062
-682,510	-2,415	-0,080	-0,041
-681,495	380,570	0,071	0,105
-680,481	-100,114	-0,122	-0,022
-679,466	96,026	-0,071	0,059
-678,451	-72,099	-0,047	-0,012
-677,437	47,426	-0,088	0,059
-676,422	800,000	0,035	-0,089
-675,408	439,504	-0,020	0,032
-674,393	30,248	-0,031	-0,019
-673,378	-200,000	-0,016	0,140
-672,364	800,000	-0,066	-0,149
-671,349	800,000	0,024	-0,062
-670,335	254,139	-0,085	-0,105
-669,320	153,965	-0,034	0,034
-668,305	96,471	0,101	0,084
-667,291	369,179	-0,083	0,122
-666,276	110,523	-0,054	-0,047
-665,262	133,250	-0,065	-0,061
-664,247	366,883	-0,058	-0,085
-663,232	66,461	0,095	-0,070
-662,218	-200,000	-0,003	0,020
-661,203	800,000	0,017	0,038
-660,189	98,100	-0,041	-0,034
-659,174	396,699	-0,072	-0,109
-658,159	363,097	-0,027	-0,040
-657,145	-181,644	-0,085	-0,001
-656,130	800,000	-0,018	0,057
-655,116	304,771	0,011	-0,014
-654,101	176,322	-0,057	0,060
-653,086	-200,000	0,007	0,079
-652,072	94,026	-0,074	-0,061
-651,057	247,613	-0,148	-0,181
-650,043	800,000	-0,064	-0,186
-649,028	127,065	-0,120	0,110
-648,014	-129,301	0,102	-0,010
-646,999	189,783	-0,044	-0,048
-645,984	-169,114	-0,128	-0,003
-644,970	-70,016	-0,104	-0,028
-643,955	-10,120	-0,106	0,051
-642,941	147,489	-0,052	0,051
-641,926	-16,968	0,122	-0,056
-640,911	-200,000	0,008	0,108
-639,897	-200,000	-0,002	-0,020
-638,882	-200,000	0,000	0,065
-637,868	800,000	-0,042	0,124
-636,853	-81,317	-0,100	0,024
-635,838	-26,502	0,108	0,046
-634,824	432,179	0,032	-0,050
-633,809	437,230	-0,054	-0,086
-632,795	67,349	0,062	0,046
-631,780	-49,645	0,076	0,026
-630,765	66,515	-0,079	0,058
-629,751	-200,000	0,001	0,082
-628,736	800,000	-0,012	-0,034
-627,722	-82,683	-0,089	-0,021
-626,707	703,450	-0,064	0,122
-625,692	78,635	0,063	0,049
-624,678	344,517	-0,083	0,119
-623,663	-105,427	-0,114	0,019
-622,649	-200,000	-0,018	-0,181
-621,634	800,000	0,021	-0,055
-620,619	133,852	-0,068	-0,064
-619,605	133,243	-0,018	-0,017
-618,590	245,970	0,077	0,094
-617,576	800,000	0,025	0,061
-616,561	94,187	-0,064	0,053
-615,546	-157,047	-0,092	0,004
-614,532	34,384	-0,057	-0,036
-613,517	0,080	0,023	0,012
-612,503	180,294	-0,038	-0,040
-611,488	222,877	-0,051	0,060
-610,474	800,000	-0,072	0,162
-609,459	397,906	0,042	0,064
-608,444	-117,082	-0,023	-0,003
-607,430	9,611	-0,031	-0,017
-606,415	800,000	-0,011	-0,032
-605,401	-122,780	-0,081	0,009
-604,386	800,000	0,019	-0,059
-603,371	-200,000	0,043	-0,140
-602,357	98,613	0,022	0,019
-601,342	-200,000	-0,006	-0,024
-600,328	747,375	0,077	-0,151
-599,313	253,125	0,003	0,003
-598,298	-12,588	-0,150	-0,070
-597,284	172,433	0,041	-0,042
-596,269	-119,878	0,139	-0,017
-595,255	-29,344	0,087	0,036
-594,240	-93,948	-0,075	-0,015
-593,225	-200,000	-0,048	-0,156
-592,211	-200,000	0,004	0,039
-591,196	-200,000	-0,002	-0,023
-590,182	65,449	-0,123	-0,090
-589,167	-46,048	0,064	0,023
-588,152	451,625	-0,050	-0,080
-587,138	-139,875	0,058	-0,004
-586,123	-200,000	-0,011	-0,173
-585,109	-66,539	-0,186	-0,053
-584,094	684,339	0,060	-0,114
-583,079	800,000	0,018	-0,043
-582,065	-124,637	0,037	0,004
-581,050	25,181	-0,008	0,005
-580,036	-200,000	0,011	-0,149
-579,021	800,000	-0,030	0,073
-578,006	-200,000	-0,008	0,094
-576,992	100,237	0,069	-0,058
-575,977	10,889	0,030	-0,017
-574,963	-200,000	0,007	0,063
-573,948	-196,797	-0,182	-0,001
-572,934	800,000	0,052	-0,134
-571,919	-90,130	0,172	-0,036
-570,904	-112,324	-0,170	0,024
-569,890	800,000	-0,019	-0,038
-568,875	230,060	0,076	0,089
-567,861	157,775	-0,020	0,020
-566,846	232,700	0,030	0,036
-565,831	800,000	0,033	0,086
-564,817	-18,784	-0,034	0,015
-563,802	289,593	-0,119	-0,156
-562,788	203,295	0,079	-0,088
-561,773	800,000	0,035	-0,093
-560,758	308,547	0,018	-0,025
-559,744	91,512	-0,014	0,011
-558,729	800,000	0,005	-0,011
-557,715	800,000	0,029	-0,064
-556,700	240,406	0,051	-0,062
-555,685	143,632	0,088	0,084
-554,671	49,911	0,060	0,041
-553,656	-165,041	-0,107	0,003
-552,642	81,397	0,075	-0,058
-551,627	-49,023	-0,213	0,073
-550,612	131,983	0,044	-0,040
-549,598	-174,625	-0,139	-0,003
-548,583	-200,000	-0,012	0,057
-547,569	-200,000	-0,000	0,018
-546,554	800,000	0,034	-0,070
-545,539	-10,349	0,019	-0,009
-544,525	-159,646	-0,069	-0,003
-543,510	800,000	0,054	-0,112
-542,496	243,537	-0,079	0,096
-541,481	49,589	0,065	-0,044
-540,466	-200,000	-0,017	0,176
-539,452	-89,925	-0,130	0,027
-538,437	116,795	0,128	0,113
-537,423	-200,000	-0,013	0,060
-536,408	-200,000	0,036	0,116
-535,393	177,334	-0,116	0,122
-534,379	96,333	-0,025	-0,021
-533,364	267,490	0,010	-0,013
-532,350	7,740	-0,092	0,050
-531,335	800,000	-0,054	0,108
-530,321	211,906	-0,109	0,124
-529,306	139,541	0,021	-0,020
-528,291	-200,000	0,017	-0,112
-527,277	784,742	0,026	-0,051
-526,262	-139,599	-0,159	-0,012
-525,248	-76,069	-0,102	0,026
-524,233	-135,422	0,052	0,004
-523,218	427,875	-0,062	0,097
-522,204	269,117	0,024	0,030
-521,189	-200,000	-0,016	-0,117
-520,175	-200,000	0,023	-0,157
-519,160	-200,000	-0,040	-0,132
-518,145	-52,714	-0,065	-0,022
-517,131	-200,000	0,040	-0,128
-516,116	556,218	0,023	-0,040
-515,102	800,000	-0,023	0,047
-514,087	-91,977	-0,149	-0,030
-513,072	74,118	0,063	-0,048
-512,058	-200,000	-0,003	-0,021
-511,043	97,651	0,038	-0,032
-510,029	302,194	-0,099	0,132
-509,014	158,600	-0,061	0,061
-507,999	-200,000	0,019	0,082
-506,985	800,000	0,026	-0,054
-505,970	29,291	0,042	0,026
-504,956	18,230	-0,146	-0,083
-503,941	-28,892	0,053	0,022
-502,926	-200,000	0,027	0,146
-501,912	-125,057	0,060	-0,007
-500,897	335,429	-0,064	0,089
-499,883	361,699	0,063	0,090
-498,868	-49,103	-0,022	0,008
-497,853	-105,816	0,044	-0,007
-496,839	-200,000	-0,006	0,046
-495,824	-131,518	-0,141	-0,013
-494,810	136,970	0,114	-0,107
-493,795	-200,000	0,013	0,077
-492,781	564,546	0,068	0,119
-491,766	256,179	-0,075	0,092
-490,751	384,917	-0,043	-0,064
-489,737	-200,000	-0,006	0,095
-488,722	63,326	-0,066	0,048
-487,708	-25,772	0,052	-0,022
-486,693	-200,000	-0,009	0,071
-485,678	-84,589	-0,173	0,039
-484,664	-200,000	-0,018	-0,193
-483,649	-75,261	-0,110	0,028
-482,635	244,040	-0,064	-0,078
-481,620	129,055	0,044	-0,041
-480,605	-54,040	0,243	-0,079
-479,591	-200,000	-0,008	-0,074
-478,576	363,927	0,032	-0,047
-477,562	-200,000	-0,000	-0,050
-476,547	359,675	-0,082	0,119
-475,532	-200,000	-0,004	-0,121
-474,518	-200,000	-0,001	-0,112
-473,503	800,000	-0,018	0,037
-472,489	-14,600	-0,134	-0,062
-471,474	626,845	-0,041	0,074
-470,459	-14,502	0,041	-0,019
-469,445	800,000	0,074	-0,172
-468,430	-113,521	-0,205	-0,028
-467,416	800,000	0,065	0,131
-466,401	345,173	-0,047	0,066
-465,386	125,372	-0,089	-0,081
-464,372	-200,000	0,002	-0,059
-463,357	-200,000	0,004	0,050
-462,343	-52,071	-0,107	-0,036
-461,328	302,985	-0,059	0,079
-460,313	190,680	0,131	0,142
-459,299	136,635	-0,054	-0,051
-458,284	800,000	0,032	-0,088
-457,270	-200,000	0,005	0,027
-456,255	-130,459	-0,071	0,007
-455,241	-200,000	0,019	-0,074
-454,226	336,304	0,050	-0,070
-453,211	17,939	0,154	-0,088
-452,197	-91,626	0,067	0,014
-451,182	-200,000	-0,009	-0,042
-450,168	-86,606	-0,007	0,002
-449,153	-28,982	-0,073	0,030
-448,138	-200,000	0,008	0,133
-447,124	194,188	-0,058	0,063
-446,109	67,252	0,140	-0,103
-445,095	84,638	-0,105	-0,082
-444,080	800,000	-0,019	0,051
-443,065	62,650	-0,048	-0,034
-442,051	-200,000	0,001	0,016
-441,036	141,276	-0,133	0,126
-440,022	144,156	0,146	0,140
-439,007	-200,000	0,019	-0,122
-437,992	800,000	0,008	0,024
-436,978	28,896	0,035	0,021
-435,963	-200,000	0,015	0,062
-434,949	291,031	0,091	-0,118
-433,934	-200,000	0,018	0,100
-432,919	64,258	0,067	-0,048
-431,905	210,478	0,059	-0,066
-430,890	-14,242	-0,062	0,029
-429,876	800,000	0,055	0,118
-428,861	698,002	-0,031	-0,058
-427,846	-200,000	0,006	-0,040
-426,832	-130,549	-0,083	-0,008
-425,817	552,582	-0,049	-0,085
-424,803	239,949	-0,067	-0,080
-423,788	156,305	0,064	0,063
-422,773	226,133	0,137	0,160
-421,759	104,226	0,053	-0,045
-420,744	800,000	0,045	-0,132
-419,730	800,000	0,048	-0,146
-418,715	800,000	0,020	-0,044
-417,701	491,198	0,084	-0,139
-416,686	800,000	0,030	0,089
-415,671	-108,053	0,172	0,026
-414,657	-200,000	-0,004	0,079
-413,642	-200,000	-0,098	-0,000
-412,628	46,292	-0,053	-0,035
-411,613	800,000	-0,037	-0,074
-410,598	-200,000	-0,003	-0,010
-409,584	800,000	-0,054	-0,116
-408,569	-87,638	0,176	0,038
-407,555	-67,823	0,067	0,019
-406,540	-200,000	0,024	0,111
-405,525	326,846	-0,055	-0,076
-404,511	-57,923	0,080	0,025
-403,496	800,000	0,030	0,086
-402,482	113,634	0,111	0,097
-401,467	800,000	0,036	0,110
-400,452	706,194	-0,006	0,011
-399,438	-200,000	-0,011	-0,106
-398,423	-200,000	-0,005	-0,074
-397,409	72,867	-0,168	-0,126
-396,394	-200,000	0,012	-0,062
-395,379	26,902	0,018	-0,011
-394,365	-36,113	0,063	-0,024
-393,350	-200,000	0,033	-0,185
-392,336	63,590	-0,037	-0,027
-391,321	76,926	-0,055	-0,042
-390,306	641,995	0,048	-0,088
-389,292	-93,065	-0,188	0,037
-388,277	-200,000	-0,017	0,064
-387,263	-9,172	0,027	0,013
-386,248	800,000	0,056	0,115
-385,233	800,000	0,015	0,041
-384,219	-147,173	0,037	0,002
-383,204	-74,285	-0,108	0,028
-382,190	-200,000	-0,026	0,136
-381,175	274,999	0,021	-0,027
-380,160	-165,018	0,172	0,005
-379,146	-200,000	-0,027	0,092
-378,131	278,401	0,055	0,070
-377,117	800,000	0,043	-0,109
-376,102	99,895	-0,064	-0,053
-375,088	-200,000	-0,043	-0,151
-374,073	64,522	-0,059	-0,042
-373,058	-22,782	0,098	-0,042
-372,044	-55,013	-0,032	0,010
-371,029	-53,165	0,030	-0,010
-370,015	337,676	-0,036	0,050
-369,000	-87,475	-0,108	-0,023
-367,985	-200,000	-0,010	-0,103
-366,971	295,334	0,061	-0,080
-365,956	211,025	0,092	-0,104
-364,942	-90,979	-0,075	0,015
-363,927	22,494	0,021	0,012
-362,912	-200,000	-0,009	0,100
-361,898	112,455	-0,164	0,142
-360,883	-1,509	0,068	-0,034
-359,869	-20,807	-0,071	0,031
-358,854	449,950	-0,061	-0,097
-357,839	-200,000	0,002	0,040
-356,825	800,000	-0,036	-0,083
-355,810	-200,000	-0,012	-0,072
-354,796	-139,636	-0,148	0,011
-353,781	-102,880	-0,044	0,007
-352,766	-200,000	0,001	0,078
-351,752	-94,415	-0,068	0,013
-350,737	324,029	-0,026	0,036
-349,723	100,175	-0,044	0,037
-348,708	-200,000	0,007	0,036
-347,693	-134,551	0,162	0,014
-346,679	54,192	-0,113	0,077
-345,664	-42,549	0,020	-0,007
-344,650	800,000	0,048	0,108
-343,635	-200,000	0,013	0,158
-342,620	20,861	-0,011	-0,006
-341,606	-200,000	-0,030	0,141
-340,591	102,086	0,059	0,049
-339,577	201,730	-0,092	-0,102
-338,562	54,345	-0,119	-0,082
-337,548	101,183	-0,131	-0,109
-336,533	13,562	0,085	0,047
-335,518	-50,279	0,034	0,011
-334,504	-60,348	0,082	-0,025
-333,489	70,994	-0,106	-0,079
-332,475	67,987	0,109	-0,079
-331,460	19,400	-0,147	0,084
-330,445	-164,170	0,098	0,003
-329,431	254,479	0,028	0,034
-328,416	111,259	0,113	0,098
-327,402	269,097	0,026	0,033
-326,387	800,000	0,021	0,066
-325,372	87,948	0,102	-0,080
-324,358	18,827	0,039	0,022
-323,343	-49,099	-0,122	-0,042
-322,329	52,395	-0,114	-0,078
-321,314	41,398	0,078	0,050
-320,299	-150,019	0,004	0,000
-319,285	245,829	-0,102	0,123
-318,270	673,564	0,062	0,115
-317,256	28,201	0,102	-0,062
-316,241	-95,079	0,015	-0,003
-315,226	172,337	-0,088	-0,090
-314,212	516,060	-0,035	0,059
-313,197	800,000	-0,035	0,076
-312,183	665,365	0,055	0,101
-311,168	294,917	0,098	-0,128
-310,153	-200,000	-0,013	0,042
-309,139	800,000	-0,019	0,044
-308,124	-53,334	-0,071	0,023
-307,110	-200,000	0,038	0,170
-306,095	800,000	0,083	0,199
-305,080	-48,805	0,081	-0,027
-304,066	800,000	0,039	0,117
-303,051	800,000	0,115	-0,235
-302,037	-200,000	-0,003	0,016
-301,022	237,655	-0,079	-0,094
-300,008	775,648	0,054	-0,106
-298,993	800,000	-0,019	0,046
-297,978	64,910	0,104	0,075
-296,964	800,000	0,031	-0,085
-295,949	-200,000	-0,053	-0,244
-294,935	161,415	0,109	-0,109
-293,920	0,834	0,038	0,019
-292,905	123,858	0,174	0,156
-291,891	14,295	0,098	-0,054
-290,876	-200,000	-0,005	-0,049
-289,862	-46,880	-0,112	0,039
-288,847	-125,499	-0,079	-0,008
-287,832	23,313	-0,136	0,079
-286,818	-11,661	-0,045	0,021
-285,803	-136,655	-0,055	0,004
-284,789	800,000	0,023	-0,053
-283,774	-200,000	-0,001	-0,128
-282,759	-200,000	-0,006	-0,126
-281,745	800,000	-0,013	0,037
-280,730	788,955	-0,021	0,042
-279,716	446,412	0,044	0,069
-278,701	-45,332	0,062	-0,022
-277,686	480,846	0,032	0,052
-276,672	-200,000	0,022	0,141
-275,657	172,237	0,099	0,102
-274,643	-180,614	0,046	-0,001
-273,628	800,000	-0,023	-0,062
-272,613	-21,104	-0,117	-0,051
-271,599	800,000	0,028	0,077
-270,584	58,994	-0,013	0,009
-269,570	34,059	-0,024	-0,015
-268,555	800,000	-0,023	0,069
-267,540	452,565	-0,045	-0,071
-266,526	131,713	-0,079	0,072
-265,511	-200,000	0,004	0,135
-264,497	-200,000	-0,005	0,211
-263,482	-65,328	0,061	0,017
-262,467	800,000	0,007	0,017
-261,453	42,534	0,090	0,058
-260,438	2,261	-0,168	0,086
-259,424	-129,966	-0,147	0,014
-258,409	224,417	0,091	-0,105
-257,395	36,774	0,140	-0,088
-256,380	800,000	0,047	0,105
-255,365	188,793	0,046	-0,049
-254,351	-184,432	-0,065	0,001
-253,336	-105,547	-0,065	0,010
-252,322	-200,000	-0,004	-0,147
-251,307	-94,227	0,125	-0,024
-250,292	102,978	0,118	-0,098
-249,278	-200,000	0,012	0,101
-248,263	427,775	0,101	0,156
-247,249	447,403	0,055	0,087
-246,234	296,979	0,046	0,061
-245,219	666,655	0,068	-0,126
-244,205	-200,000	0,032	-0,140
-243,190	402,667	0,045	-0,067
-242,176	575,955	-0,041	-0,072
-241,161	270,010	0,048	0,060
-240,146	-200,000	-0,000	0,073
-239,132	38,512	0,077	-0,049
-238,117	-200,000	0,030	-0,184
-237,103	-114,473	0,084	-0,011
-236,088	451,018	0,062	-0,099
-235,073	-90,023	0,119	0,024
-234,059	-200,000	0,034	0,144
-233,044	-200,000	0,009	0,108
-232,030	-111,840	0,034	-0,005
-231,015	800,000	0,049	-0,104
-230,000	-200,000	-0,029	-0,132
-228,986	113,159	0,034	0,030
-227,971	272,929	-0,050	-0,063
-226,957	475,403	0,048	0,078
-225,942	-79,528	0,096	0,023
-224,927	168,756	0,083	-0,084
-223,913	22,408	-0,031	0,018
-222,898	-132,874	-0,074	0,007
-221,884	-53,520	-0,040	-0,013
-220,869	463,551	0,038	-0,061
-219,855	723,295	0,043	0,082
-218,840	-200,000	-0,007	0,114
-217,825	-15,309	0,082	0,037
-216,811	42,267	-0,071	-0,046
-215,796	-70,635	0,103	0,028
-214,782	110,125	0,022	-0,019
-213,767	-104,738	0,064	-0,010
-212,752	800,000	0,067	0,174
-211,738	223,455	-0,034	-0,039
-210,723	-200,000	0,005	0,105
-209,709	540,212	0,059	-0,101
-208,694	73,083	-0,183	-0,136
-207,679	44,007	0,135	-0,088
-206,665	-65,644	0,072	-0,020
-205,650	96,777	0,100	0,081
-204,636	-200,000	0,001	0,056
-203,621	800,000	-0,034	0,070
-202,606	-200,000	0,021	-0,069
-201,592	-200,000	-0,036	-0,152
-200,577	9,906	0,022	0,012
-199,563	139,105	-0,037	0,035
-198,548	115,029	0,097	-0,084
-197,533	467,541	-0,031	0,050
-196,519	-200,000	-0,008	0,067
-195,504	-200,000	-0,012	0,097
-194,490	-134,087	-0,108	-0,009
-193,475	-200,000	-0,028	-0,134
-192,460	-75,223	0,097	-0,024
-191,446	33,985	-0,048	0,029
-190,431	197,859	0,073	0,080
-189,417	800,000	0,040	0,081
-188,402	319,152	0,032	0,043
-187,387	-118,779	-0,142	-0,018
-186,373	-111,380	-0,092	-0,013
-185,358	-200,000	0,010	-0,148
-184,344	742,653	0,045	0,086
-183,329	2,295	0,100	0,051
-182,315	783,294	-0,042	0,083
-181,300	7,362	-0,059	-0,031
-180,285	-104,321	-0,095	0,015
-179,271	457,975	-0,110	0,175
-178,256	161,589	0,044	-0,044
-177,242	-104,494	0,208	-0,034
-176,227	-1,810	0,043	0,021
-175,212	-18,504	-0,088	0,039
-174,198	-182,030	0,027	0,000
-173,183	-121,228	0,054	-0,006
-172,169	-136,211	0,029	-0,002
-171,154	800,000	-0,044	-0,100
-170,139	153,405	0,034	0,033
-169,125	-200,000	-0,011	0,087
-168,110	28,350	0,077	0,046
-167,096	258,961	0,044	-0,054
-166,081	660,597	-0,101	-0,185
-165,066	-200,000	-0,028	-0,132
-164,052	711,412	0,057	0,108
-163,037	429,044	-0,021	0,033
-162,023	800,000	0,062	0,129
-161,008	800,000	-0,051	0,107
-159,993	-200,000	-0,036	0,114
-158,979	800,000	-0,019	-0,039
-157,964	-182,387	0,095	0,001
-156,950	376,720	-0,105	-0,153
-155,935	69,359	0,075	-0,055
-154,920	8,974	0,111	-0,059
-153,906	800,000	0,011	0,034
-152,891	495,506	-0,019	-0,031
-151,877	-31,465	-0,122	-0,049
-150,862	800,000	0,044	0,104
-149,847	371,756	-0,085	-0,122
-148,833	309,067	-0,069	0,091
-147,818	164,266	0,054	0,054
-146,804	-133,993	-0,156	0,013
-145,789	107,844	-0,054	-0,046
-144,775	800,000	0,023	-0,051
-143,760	-162,873	0,047	-0,002
-142,745	-115,200	0,074	-0,010
-141,731	-200,000	0,027	-0,119
-140,716	92,231	0,049	-0,039
-139,702	-120,796	0,024	0,003
-138,687	159,060	-0,051	0,050
-137,672	175,603	-0,064	-0,066
-136,658	-139,052	-0,036	-0,003
-135,643	-200,000	0,019	0,186
-134,629	800,000	-0,048	0,104
-133,614	54,720	0,071	-0,049
-132,599	-99,195	-0,032	0,006
-131,585	-27,014	-0,060	-0,025
-130,570	-123,916	-0,150	-0,017
-129,556	800,000	-0,017	-0,045
-128,541	-119,326	0,044	-0,005
-127,526	122,543	0,123	-0,109
-126,512	260,361	-0,043	0,053
-125,497	-200,000	0,044	0,198
-124,483	91,801	-0,029	0,023
-123,468	213,857	0,075	0,084
-122,453	800,000	-0,042	0,105
-121,439	-84,351	-0,072	-0,016
-120,424	-87,080	-0,079	0,017
-119,410	-36,194	0,121	0,046
-118,395	363,983	-0,054	0,077
-117,380	364,956	-0,114	0,163
-116,366	-200,000	-0,019	0,124
-115,351	42,984	-0,076	-0,049
-114,337	538,773	0,040	-0,068
-113,322	115,292	-0,048	-0,041
-112,307	405,335	0,051	-0,077
-111,293	-200,000	0,072	0,230
-110,278	51,349	0,100	-0,067
-109,264	12,107	-0,082	0,045
-108,249	107,667	0,025	-0,021
-107,234	800,000	-0,026	0,066
-106,220	143,786	-0,094	-0,088
-105,205	403,329	-0,014	0,021
-104,191	-200,000	0,019	-0,065
-103,176	-110,552	-0,036	0,005
-102,162	-42,142	0,155	-0,056
-101,147	794,657	-0,049	0,096
-100,132	-89,339	0,040	-0,008
-99,118	-61,830	-0,100	-0,030
-98,103	288,592	-0,057	0,073
-97,089	-30,611	0,084	-0,033
-96,074	-56,190	-0,098	0,031
-95,059	-86,708	0,082	0,018
-94,045	-124,780	0,007	-0,001
-93,030	160,715	0,077	0,077
-92,016	12,232	-0,066	0,036
-91,001	-1,486	0,175	-0,087
-89,986	800,000	0,013	0,033
-88,972	-99,881	0,112	0,020
-87,957	375,103	-0,029	-0,043
-86,943	-200,000	-0,011	0,057
-85,928	250,673	-0,068	-0,082
-84,913	800,000	0,027	0,069
-83,899	233,755	0,043	-0,051
-82,884	800,000	0,100	0,205
-81,870	-54,776	0,251	-0,080
-80,855	91,724	-0,058	0,046
-79,840	-167,410	-0,098	-0,003
-78,826	183,046	-0,027	-0,028
-77,811	-63,718	-0,206	-0,059
-76,797	-195,419	0,080	-0,000
-75,782	68,107	0,081	0,059
-74,767	-132,547	-0,080	-0,007
-73,753	7,879	0,024	0,013
-72,738	360,374	0,039	-0,055
-71,724	-142,431	-0,188	-0,013
-70,709	-156,734	0,050	-0,002
-69,694	100,070	-0,084	-0,069
-68,680	64,893	0,134	-0,095
-67,665	-102,064	-0,031	-0,005
-66,651	-26,292	0,097	-0,040
-65,636	-200,000	0,019	0,086
-64,622	-126,633	-0,084	0,009
-63,607	-28,486	0,048	0,020
-62,592	144,470	0,077	-0,072
-61,578	56,810	0,041	-0,029
-60,563	-200,000	-0,030	0,122
-59,549	800,000	-0,094	0,207
-58,534	-4,044	-1,846	-0,902
-57,519	327,365	-1,426	-1,939
-56,505	-200,000	-0,564	-4,550
-55,490	393,230	1,012	1,493
-54,476	800,000	4,802	11,146
-53,461	-200,000	19,833	324,960
-52,446	800,000	749,258	2320,025
-51,432	556,240	1660,429	2839,239
-50,417	75,846	1670,810	1247,624
-49,403	20,245	1544,176	879,254
-48,388	14,272	1466,433	805,947
-47,373	18,280	1456,455	819,778
-46,359	16,420	1445,941	804,926
-45,344	12,535	1441,454	783,800
-44,330	12,421	1439,699	782,270
-43,315	12,418	1437,881	781,237
-42,300	12,442	1436,172	780,395
-41,286	12,459	1434,905	779,754
-40,271	12,410	1433,639	778,801
-39,257	12,431	1432,410	778,202
-38,242	12,466	1431,071	777,613
-37,227	12,419	1430,155	776,860
-36,213	12,482	1428,406	776,180
-35,198	12,492	1427,369	775,632
-34,184	12,509	1426,553	775,238
-33,169	12,422	1425,285	774,104
-32,154	12,532	1423,823	773,800
-31,140	12,521	1422,611	773,062
-30,125	12,535	1421,677	772,589
-29,111	12,525	1420,437	771,838
-28,096	12,513	1419,494	771,235
-27,082	12,455	1418,455	770,371
-26,067	12,400	1417,354	769,481
-25,052	12,441	1416,240	769,038
-24,038	12,416	1415,342	768,405
-23,023	12,406	1414,166	767,688
-22,009	12,396	1413,039	766,999
-20,994	12,377	1412,324	766,489
-19,979	12,362	1411,589	765,992
-18,965	12,396	1410,186	765,357
-17,950	12,350	1409,459	764,716
-16,936	12,392	1408,481	764,353
-15,921	12,326	1407,539	763,502
-14,906	12,326	1406,655	762,995
-13,892	12,342	1405,732	762,535
-12,877	12,313	1405,009	761,977
-11,863	12,360	1403,905	761,571
-10,848	12,308	1403,299	760,969
-9,833	12,250	1402,312	760,132
-8,819	12,247	1401,451	759,621
-7,804	12,213	1400,469	758,900
-6,790	12,269	1399,493	758,600
-5,775	12,237	1398,361	757,808
-4,760	12,240	1397,271	757,205
-3,746	12,215	1396,453	756,612
-2,731	12,180	1395,642	755,982
-1,717	12,187	1394,774	755,514
-0,702	12,166	1393,076	754,465
0,313	16,169	1308,536	727,145
1,327	32,336	700,556	426,477
2,342	49,699	122,293	81,280
3,356	2,811	16,578	8,472
4,371	8,868	3,157	1,677
5,386	8,587	0,664	0,352
6,400	-200,000	0,080	0,305
7,415	106,560	-0,289	-0,242
8,429	427,906	-0,183	-0,279
9,444	41,175	-0,397	-0,253
10,459	226,611	-0,162	-0,186
11,473	62,141	-0,300	-0,211
12,488	-81,316	-0,275	-0,063
13,502	84,683	-0,319	-0,246
14,517	115,881	-0,362	-0,313
15,531	28,947	-0,403	-0,241
16,546	52,632	-0,412	-0,278
17,561	201,061	-0,284	-0,309
18,575	-127,533	-0,231	0,023
19,590	136,454	-0,261	-0,240
20,604	-37,207	-0,367	-0,138
21,619	225,052	-0,367	-0,420
22,634	17,456	-0,484	-0,270
23,648	40,392	-0,410	-0,260
24,663	215,290	-0,356	-0,399
25,677	77,397	-0,276	-0,207
26,692	178,310	-0,259	-0,267
27,707	28,174	-0,338	-0,201
28,721	75,811	-0,434	-0,323
29,736	45,977	-0,475	-0,309
30,750	140,353	-0,343	-0,319
31,765	50,531	-0,371	-0,247
32,780	179,149	-0,348	-0,359
33,794	-8,021	-0,368	-0,174
34,809	96,172	-0,374	-0,301
35,823	102,288	-0,308	-0,253
36,838	344,098	-0,229	-0,318
37,853	99,672	-0,433	-0,353
38,867	99,773	-0,389	-0,317
39,882	30,548	-0,305	-0,183
40,896	29,186	-0,340	-0,203
41,911	177,755	-0,233	-0,240
42,926	34,816	-0,397	-0,244
43,940	216,054	-0,298	-0,334
44,955	716,246	-0,209	-0,392
45,969	23,878	-0,455	-0,263
46,984	800,000	-0,190	-0,373
47,999	11,803	-0,235	-0,127
49,013	38,973	-0,292	-0,183
50,028	324,093	-0,254	-0,343
51,042	261,658	-0,285	-0,348
52,057	86,010	-0,369	-0,286
53,071	800,000	-0,170	-0,346
54,086	93,857	-0,300	-0,239
55,101	258,151	-0,270	-0,328
56,115	31,833	-0,279	-0,168
57,130	332,451	-0,248	-0,338
58,144	126,646	-0,322	-0,287
59,159	77,437	-0,358	-0,267
60,174	61,478	-0,404	-0,282
61,188	-9,962	-0,486	-0,226
62,203	191,974	-0,299	-0,318
63,217	73,424	-0,211	-0,155
64,232	-4,011	-0,187	-0,091
65,247	18,281	-0,254	-0,142
66,261	22,513	-0,364	-0,209
67,276	150,754	-0,406	-0,388
68,290	71,934	-0,314	-0,229
69,305	23,355	-0,389	-0,224
70,320	29,445	-0,334	-0,199
71,334	52,605	-0,244	-0,163
72,349	85,870	-0,193	-0,149
73,363	100,152	-0,316	-0,257
74,378	113,537	-0,366	-0,312
75,393	87,699	-0,439	-0,341
76,407	22,587	-0,398	-0,228
77,422	-103,030	-0,247	0,041
78,436	-131,411	-0,332	-0,030
79,451	9,565	-0,230	-0,122
80,466	-64,093	-0,195	-0,055
81,480	101,664	-0,301	-0,246
82,495	101,074	-0,237	-0,194
83,509	118,510	-0,250	-0,217
84,524	-13,491	-0,334	-0,151
85,539	184,122	-0,273	-0,284
86,553	113,494	-0,316	-0,269
87,568	22,480	-0,333	-0,190
88,582	24,105	-0,152	-0,088
89,597	256,621	-0,156	-0,189
90,611	58,020	-0,296	-0,203
91,626	-5,964	-0,245	-0,117
92,641	-89,971	-0,190	-0,038
93,655	-69,395	-0,260	-0,069
94,670	133,849	-0,287	-0,261
95,684	201,336	-0,244	-0,264
96,699	139,237	-0,310	-0,286
97,714	-128,015	-0,319	-0,032
98,728	-82,721	-0,217	-0,049
99,743	73,879	-0,192	-0,141
100,757	202,373	-0,251	-0,272
101,772	187,512	-0,305	-0,319
102,787	61,654	-0,348	-0,242
103,801	59,996	-0,266	-0,184
104,816	91,372	-0,195	-0,153
105,830	6,651	-0,359	-0,186
106,845	-24,890	-0,266	-0,110
107,860	175,038	-0,132	-0,134
108,874	116,589	-0,283	-0,243
109,889	71,159	-0,306	-0,222
110,903	154,745	-0,286	-0,275
111,918	230,966	-0,163	-0,187
112,933	60,326	-0,210	-0,145
113,947	71,745	-0,134	-0,098
114,962	622,590	-0,070	-0,123
115,976	-81,047	-0,206	-0,047
116,991	-9,358	-0,315	-0,147
118,006	-22,839	-0,348	-0,146
119,020	-39,558	-0,276	-0,101
120,035	117,376	-0,209	-0,180
121,049	117,612	-0,215	-0,185
122,064	102,604	-0,312	-0,255
123,079	88,024	-0,170	-0,132
124,093	-124,687	-0,387	-0,041
125,108	44,941	-0,391	-0,251
126,122	-167,763	-0,231	-0,006
127,137	-14,317	-0,289	-0,130
128,151	63,513	-0,159	-0,112
129,166	93,377	-0,234	-0,185
130,181	255,621	-0,192	-0,230
131,195	259,609	-0,197	-0,238
132,210	25,391	-0,350	-0,203
133,224	6,370	-0,248	-0,128
134,239	302,700	-0,095	-0,123
135,254	-20,349	-0,215	-0,092
136,268	-51,750	-0,154	-0,050
137,283	167,074	-0,221	-0,220
138,297	76,219	-0,161	-0,119
139,312	38,932	-0,386	-0,240
140,327	-80,960	-0,278	-0,064
141,341	-174,497	-0,193	0,004
142,356	-42,287	-0,239	-0,085
143,370	103,809	-0,266	-0,218
144,385	115,972	-0,207	-0,177
145,400	11,594	-0,336	-0,179
146,414	70,719	-0,303	-0,219
147,429	194,614	-0,284	-0,301
148,443	262,982	-0,181	-0,220
149,458	50,293	-0,297	-0,195
150,473	180,820	-0,188	-0,192
151,487	161,370	-0,238	-0,232
152,502	-2,223	-0,330	-0,161
153,516	129,142	-0,228	-0,203
154,531	40,404	-0,327	-0,205
155,546	186,735	-0,304	-0,316
156,560	242,857	-0,138	-0,162
157,575	540,960	-0,148	-0,247
158,589	-20,630	-0,135	0,058
159,604	-89,970	-0,323	-0,065
160,619	16,886	-0,442	-0,243
161,633	239,018	-0,163	-0,190
162,648	4,932	-0,288	-0,147
163,662	128,364	-0,154	-0,136
164,677	-41,425	-0,257	-0,092
165,692	-59,621	-0,208	-0,062
166,706	-69,320	-0,169	-0,045
167,721	130,289	-0,287	-0,256
168,735	85,824	-0,213	-0,163
169,750	-108,124	-0,287	-0,043
170,764	-66,910	-0,145	-0,040
171,779	24,766	-0,275	-0,158
172,794	359,389	-0,168	-0,234
173,808	214,985	-0,166	-0,183
174,823	244,877	-0,243	-0,285
175,837	165,679	-0,120	-0,118
176,852	130,240	-0,323	-0,288
177,867	-200,000	-0,070	-0,280
178,881	-46,206	-0,173	-0,059
179,896	44,824	-0,283	-0,181
180,910	-200,000	-0,106	-0,331
181,925	167,661	-0,243	-0,241
182,940	26,469	-0,309	-0,179
183,954	192,332	-0,177	-0,186
184,969	316,650	-0,120	-0,158
185,983	-20,481	-0,226	-0,096
186,998	140,260	-0,126	-0,116
188,013	108,816	-0,196	-0,163
189,027	37,304	-0,265	-0,163
190,042	800,000	-0,094	-0,286
191,056	666,720	-0,111	-0,201
192,071	41,760	-0,214	-0,135
193,086	34,432	-0,257	-0,155
194,100	-44,259	-0,227	-0,079
195,115	450,547	-0,114	-0,176
196,129	1,002	-0,206	-0,102
197,144	173,549	-0,272	-0,273
198,159	800,000	-0,125	-0,291
199,173	350,907	-0,124	-0,171
200,188	-68,797	-0,099	-0,026
201,202	-39,255	-0,218	-0,079
202,217	-44,543	-0,347	-0,120
203,232	-163,312	-0,197	0,006
204,246	234,055	-0,152	-0,174
205,261	-63,418	-0,233	-0,066
206,275	80,431	-0,254	-0,190
207,290	4,247	-0,167	-0,085
208,304	38,571	-0,122	0,075
209,319	-111,469	-0,081	0,011
210,334	16,677	-0,202	-0,111
211,348	630,085	-0,148	-0,260
212,363	158,668	-0,231	-0,222
213,377	100,246	-0,114	-0,092
214,392	88,253	-0,118	-0,090
215,407	110,755	-0,249	-0,207
216,421	582,705	-0,055	-0,094
217,436	147,974	-0,139	-0,130
218,450	252,152	-0,172	-0,204
219,465	800,000	-0,111	-0,223
220,480	800,000	-0,107	-0,239
221,494	-104,814	-0,151	-0,024
222,509	1,469	-0,166	-0,083
223,523	210,068	-0,246	-0,268
224,538	23,878	-0,237	-0,135
225,553	417,842	-0,158	-0,235
226,567	547,910	-0,186	-0,309
227,582	340,381	-0,119	-0,161
228,596	-89,879	-0,082	0,016
229,611	-26,866	-0,235	-0,095
230,626	-81,563	-0,217	-0,049
231,640	650,859	-0,164	-0,292
232,655	539,240	-0,217	-0,359
233,669	661,779	-0,139	-0,249
234,684	67,050	-0,316	-0,223
235,699	28,659	-0,133	-0,078
236,713	272,133	-0,200	-0,245
237,728	-57,054	-0,192	-0,058
238,742	47,154	-0,167	-0,108
239,757	1,588	-0,235	-0,117
240,772	112,061	-0,283	-0,236
241,786	37,057	-0,277	-0,170
242,801	80,420	-0,145	-0,108
243,815	-200,000	0,008	-0,109
244,830	156,080	-0,088	-0,084
245,844	-36,034	-0,119	0,044
246,859	0,871	-0,228	-0,112
247,874	576,959	-0,188	-0,318
248,888	518,508	-0,094	-0,153
249,903	598,607	-0,095	-0,163
250,917	36,365	-0,186	-0,113
251,932	381,542	-0,107	-0,152
252,947	98,167	-0,069	0,055
253,961	-200,000	0,028	-0,201
254,976	536,562	-0,118	-0,194
255,990	800,000	-0,118	-0,229
257,005	287,357	-0,098	-0,123
258,020	139,724	-0,092	-0,084
259,034	776,886	-0,080	-0,151
260,049	194,791	-0,176	-0,184
261,063	504,125	-0,163	-0,262
262,078	344,524	-0,143	-0,194
263,093	218,418	-0,112	-0,124
264,107	-68,931	-0,208	-0,055
265,122	-49,474	-0,129	0,042
266,136	106,064	-0,116	0,095
267,151	-28,784	-0,171	-0,067
268,166	3,779	-0,228	-0,114
269,180	-92,491	-0,286	0,055
270,195	392,429	-0,143	-0,206
271,209	74,465	-0,212	-0,153
272,224	773,124	-0,139	-0,263
273,239	129,555	-0,098	-0,087
274,253	-200,000	-0,048	-0,153
275,268	29,042	-0,197	-0,115
276,282	103,584	-0,196	-0,159
277,297	51,973	-0,129	0,085
278,312	30,393	-0,153	-0,090
279,326	-50,622	-0,199	-0,064
280,341	604,043	-0,059	-0,102
281,355	46,026	-0,204	-0,130
282,370	91,235	-0,237	-0,184
283,384	800,000	-0,103	-0,222
284,399	221,788	-0,183	-0,203
285,414	79,995	-0,191	-0,142
286,428	223,243	-0,130	-0,145
287,443	233,106	-0,136	-0,154
288,457	270,717	-0,045	0,055
289,472	166,327	-0,006	-0,006
290,487	72,818	-0,088	-0,063
291,501	25,375	-0,224	-0,128
292,516	-21,338	-0,159	-0,067
293,530	83,814	-0,066	-0,049
294,545	168,088	-0,138	-0,135
295,560	-113,844	-0,113	-0,015
296,574	200,418	-0,103	-0,109
297,589	800,000	-0,128	-0,264
298,603	800,000	-0,085	-0,230
299,618	114,896	-0,252	-0,211
300,633	103,065	-0,189	-0,152
301,647	341,488	-0,136	-0,183
302,662	-157,133	-0,148	0,006
303,676	-24,766	-0,142	-0,058
304,691	-78,051	-0,242	-0,057
305,706	800,000	-0,014	-0,041
306,720	12,365	-0,187	-0,099
307,735	-109,203	-0,095	-0,014
308,749	79,837	-0,151	-0,112
309,764	-130,023	-0,185	-0,017
310,779	-200,000	-0,008	-0,160
311,793	295,526	-0,060	-0,076
312,808	514,665	-0,125	-0,201
313,822	800,000	-0,102	-0,260
314,837	487,777	-0,082	-0,129
315,852	176,500	-0,079	0,079
316,866	800,000	-0,072	-0,140
317,881	39,751	-0,213	-0,131
318,895	56,950	-0,162	-0,108
319,910	-35,468	-0,243	0,090
320,925	37,326	-0,214	-0,130
321,939	-85,800	-0,045	0,010
322,954	800,000	-0,045	-0,097
323,968	152,549	-0,091	0,085
324,983	50,084	-0,100	0,065
325,997	239,557	-0,177	-0,203
327,012	800,000	-0,041	-0,093
328,027	86,052	-0,232	-0,175
329,041	48,433	-0,179	-0,115
330,056	-115,471	-0,042	-0,005
331,070	-82,753	-0,107	-0,024
332,085	102,201	-0,182	-0,146
333,100	459,111	-0,118	-0,181
334,114	438,633	-0,155	-0,233
335,129	128,192	-0,077	-0,067
336,143	28,967	-0,114	0,066
337,158	612,674	-0,097	-0,167
338,173	-18,245	-0,127	-0,054
339,187	-61,225	-0,188	0,054
340,202	-70,667	-0,139	-0,036
341,216	281,604	-0,129	-0,159
342,231	4,335	-0,202	-0,101
343,246	-10,901	-0,162	-0,073
344,260	-130,588	-0,199	-0,018
345,275	-9,261	-0,052	-0,024
346,289	28,547	-0,142	-0,082
347,304	330,768	-0,088	-0,116
348,319	-120,208	-0,181	0,021
349,333	-52,316	-0,134	-0,042
350,348	108,201	-0,158	-0,130
351,362	-200,000	-0,005	-0,037
352,377	267,136	-0,111	-0,134
353,392	-123,474	-0,104	-0,011
354,406	53,435	-0,053	-0,035
355,421	209,106	1316,032	1413,590
356,435	160,929	1476,888	1414,073
