DTS Sentinel unit serial number:	SN410029Multiplexer serial number:	ORYXHardware model number:	OX2-SRSoftware version number:	ORYX F/W v4,00 Oryx Data Collector v3.7.2.0data status	okinstallation	B3 Nyhavnadifferential loss correction	single-endedforward channel	channel 1reverse channel	N/Adate	2023/12/01time	22:52:30forward acquisition time	300,00reverse acquisition time	0,00gamma	499,1914k internal	0,3196k external	0,3196temperature offset calibration	1,0000default loss term (dB/km)	0,3820temperature slope calibration	1,0000multiplexer offset coefficient	1,0000multiplexer slope coefficient	1,0000fibre end	0,00T internal ref (°C)	15,84T ext. ref 1 (°C)	1,00T ext. ref 2 (°C)	0,97length (m)	temperature (°C)	Stokes	anti-Stokes-744,400	151,818	-0,240	-0,238
-743,385	-200,000	0,008	0,209
-742,371	800,000	-0,072	-0,172
-741,356	800,000	0,173	0,391
-740,342	220,595	-0,199	-0,232
-739,327	800,000	0,137	0,366
-738,312	713,982	-0,168	-0,326
-737,298	-200,000	0,038	0,236
-736,283	131,268	-0,241	-0,225
-735,269	-200,000	-0,009	0,407
-734,254	-13,329	-0,207	-0,097
-733,239	78,845	-0,124	0,097
-732,225	-200,000	-0,079	-0,371
-731,210	446,842	0,118	0,189
-730,196	-85,611	0,078	-0,018
-729,181	-130,413	-0,077	-0,007
-728,167	0,047	-0,006	-0,003
-727,152	-41,385	0,009	0,003
-726,137	-167,649	-0,065	0,002
-725,123	161,608	-0,112	-0,114
-724,108	800,000	-0,062	-0,146
-723,094	-200,000	0,022	-0,082
-722,079	681,343	-0,050	-0,094
-721,064	-45,034	-0,161	-0,058
-720,050	-181,436	-0,055	-0,001
-719,035	-109,371	0,176	-0,027
-718,021	-120,783	0,020	0,002
-717,006	-24,621	-0,105	0,045
-715,991	800,000	-0,076	-0,214
-714,977	800,000	0,011	0,024
-713,962	-200,000	0,007	-0,070
-712,948	-200,000	0,002	0,078
-711,933	-19,636	0,059	-0,026
-710,918	-38,944	-0,136	0,052
-709,904	175,678	-0,113	-0,119
-708,889	-72,927	-0,096	-0,025
-707,875	388,455	0,021	0,032
-706,860	34,546	0,151	0,095
-705,845	800,000	0,048	0,139
-704,831	461,089	0,039	0,064
-703,816	180,738	-0,029	0,031
-702,802	-200,000	-0,007	-0,052
-701,787	131,380	0,069	-0,064
-700,772	-76,938	-0,245	-0,062
-699,758	800,000	-0,034	0,106
-698,743	-200,000	-0,007	-0,108
-697,729	240,602	0,084	0,102
-696,714	108,938	-0,116	0,101
-695,699	2,181	-0,031	-0,016
-694,685	-143,019	-0,011	-0,001
-693,670	-61,443	-0,186	-0,056
-692,656	-96,584	0,077	-0,015
-691,641	-200,000	-0,014	0,091
-690,627	-10,730	0,114	0,054
-689,612	89,654	-0,032	-0,026
-688,597	-151,630	0,174	-0,009
-687,583	800,000	0,017	-0,041
-686,568	525,502	-0,062	-0,106
-685,554	341,337	0,009	-0,013
-684,539	215,928	0,039	0,045
-683,524	-200,000	-0,003	0,021
-682,510	-200,000	0,002	-0,053
-681,495	-200,000	-0,008	0,074
-680,481	-200,000	0,029	-0,127
-679,466	800,000	-0,041	-0,125
-678,451	645,316	-0,016	-0,029
-677,437	-200,000	0,007	-0,038
-676,422	149,463	-0,034	-0,034
-675,408	-111,154	0,074	0,011
-674,393	800,000	-0,034	-0,096
-673,378	192,264	-0,065	-0,072
-672,364	-138,556	0,044	-0,003
-671,349	-112,198	-0,068	-0,010
-670,335	-28,204	-0,037	0,016
-669,320	227,554	-0,054	-0,064
-668,305	-137,415	0,101	0,008
-667,291	-200,000	-0,011	-0,065
-666,276	800,000	-0,031	0,078
-665,262	-96,779	-0,173	-0,033
-664,247	-200,000	0,008	-0,075
-663,232	176,656	-0,036	-0,038
-662,218	-69,593	0,132	0,036
-661,203	-128,531	-0,209	0,021
-660,189	-200,000	-0,003	0,048
-659,174	94,592	-0,123	-0,102
-658,159	-200,000	0,009	0,078
-657,145	88,682	0,097	-0,078
-656,130	-130,977	-0,144	0,014
-655,116	151,624	-0,127	-0,126
-654,101	110,028	-0,099	-0,086
-653,086	-75,163	-0,097	-0,025
-652,072	-93,342	-0,009	0,002
-651,057	-11,263	0,047	-0,022
-650,043	462,238	0,062	-0,100
-649,028	-16,725	-0,042	0,019
-648,014	-200,000	-0,004	0,025
-646,999	568,232	-0,046	-0,082
-645,984	449,637	-0,062	-0,100
-644,970	34,648	0,063	-0,040
-643,955	-200,000	-0,005	0,028
-642,941	-200,000	-0,021	-0,122
-641,926	392,882	0,030	-0,046
-640,911	-13,305	-0,057	0,027
-639,897	7,906	0,082	-0,045
-638,882	338,724	-0,034	0,048
-637,868	-159,814	-0,130	-0,005
-636,853	468,319	-0,072	-0,118
-635,838	17,367	-0,061	-0,035
-634,824	800,000	-0,050	-0,128
-633,809	258,963	-0,046	0,058
-632,795	-200,000	0,006	0,065
-631,780	153,416	0,078	-0,078
-630,765	215,796	-0,135	0,156
-629,751	-200,000	-0,008	0,029
-628,736	-200,000	-0,023	-0,136
-627,722	-200,000	0,018	0,077
-626,707	63,002	-0,041	0,029
-625,692	178,358	0,091	-0,097
-624,678	-35,472	0,036	0,014
-623,663	340,402	-0,030	0,042
-622,649	339,624	-0,073	0,104
-621,634	-200,000	-0,024	-0,111
-620,619	-200,000	0,015	-0,088
-619,605	186,690	0,057	0,062
-618,590	-47,549	-0,081	-0,028
-617,576	800,000	0,025	0,068
-616,561	-200,000	-0,013	0,109
-615,546	59,922	-0,022	0,016
-614,532	396,537	0,053	0,080
-613,517	440,846	0,055	-0,088
-612,503	-200,000	-0,010	-0,044
-611,488	-39,499	0,067	0,025
-610,474	-200,000	0,110	-0,000
-609,459	800,000	-0,037	0,087
-608,444	-200,000	0,006	0,234
-607,430	-48,247	-0,056	0,020
-606,415	111,006	0,088	-0,076
-605,401	113,324	-0,016	-0,014
-604,386	-200,000	0,014	-0,064
-603,371	-200,000	0,009	0,099
-602,357	-166,875	0,085	0,002
-601,342	-181,627	-0,144	-0,002
-600,328	-25,456	-0,174	-0,074
-599,313	-59,599	0,069	-0,021
-598,298	116,584	-0,053	-0,047
-597,284	-107,097	0,024	0,004
-596,269	800,000	0,043	0,107
-595,255	-6,876	0,070	0,034
-594,240	254,888	0,071	0,089
-593,225	-200,000	-0,046	-0,191
-592,211	800,000	0,035	-0,091
-591,196	-200,000	-0,012	-0,092
-590,182	-150,806	0,048	0,003
-589,167	29,289	0,061	-0,037
-588,152	-200,000	0,004	0,060
-587,138	612,667	-0,096	-0,174
-586,123	-200,000	-0,001	-0,104
-585,109	-127,589	0,036	0,004
-584,094	227,547	-0,035	-0,042
-583,079	-200,000	0,004	0,021
-582,065	800,000	-0,049	0,141
-581,050	768,103	0,023	-0,045
-580,036	-197,413	0,076	-0,000
-579,021	-200,000	0,059	0,000
-578,006	-200,000	0,018	-0,177
-576,992	-200,000	0,004	-0,157
-575,977	800,000	-0,086	0,178
-574,963	-89,884	0,088	-0,018
-573,948	-200,000	0,007	0,156
-572,934	-114,703	-0,035	-0,005
-571,919	103,408	-0,052	-0,044
-570,904	-174,997	-0,039	-0,001
-569,890	305,667	0,063	0,085
-568,875	-200,000	-0,015	0,088
-567,861	-200,000	0,000	-0,100
-566,846	793,143	-0,039	-0,077
-565,831	800,000	0,025	-0,078
-564,817	193,581	-0,062	-0,068
-563,802	-200,000	0,008	0,033
-562,788	-200,000	-0,001	-0,125
-561,773	-200,000	-0,020	-0,102
-560,758	310,022	-0,052	0,071
-559,744	272,726	-0,047	0,061
-558,729	-200,000	-0,010	0,043
-557,715	408,044	0,015	-0,022
-556,700	-102,868	0,053	-0,009
-555,685	63,506	-0,081	-0,059
-554,671	188,013	0,095	0,103
-553,656	-200,000	0,038	0,135
-552,642	144,063	0,074	0,071
-551,627	-200,000	-0,017	0,067
-550,612	230,659	0,061	-0,072
-549,598	-37,203	0,108	-0,041
-548,583	90,399	0,032	0,026
-547,569	-200,000	0,002	-0,007
-546,554	112,069	-0,054	0,047
-545,539	65,031	-0,054	0,039
-544,525	-39,271	-0,073	0,028
-543,510	-200,000	-0,029	0,144
-542,496	-3,618	-0,035	0,018
-541,481	103,595	0,074	-0,062
-540,466	462,854	0,067	-0,109
-539,452	-200,000	0,029	-0,132
-538,437	-139,627	-0,079	0,006
-537,423	157,683	-0,053	-0,053
-536,408	357,092	0,054	0,078
-535,393	800,000	-0,070	0,163
-534,379	800,000	-0,064	-0,169
-533,364	353,791	0,030	-0,043
-532,350	-200,000	-0,000	0,006
-531,335	472,519	0,009	-0,015
-530,321	67,518	0,015	0,011
-529,306	527,215	0,012	0,021
-528,291	-200,000	-0,054	-0,187
-527,277	-200,000	0,008	-0,071
-526,262	7,281	0,059	-0,032
-525,248	87,869	-0,064	0,051
-524,233	-200,000	0,007	0,073
-523,218	-51,937	0,044	-0,015
-522,204	354,279	0,050	0,073
-521,189	191,082	-0,020	0,022
-520,175	293,147	-0,036	-0,047
-519,160	-128,213	0,178	0,018
-518,145	-200,000	0,007	0,058
-517,131	-187,178	-0,035	-0,000
-516,116	191,886	0,076	-0,083
-515,102	382,703	0,049	0,073
-514,087	13,760	0,057	0,032
-513,072	313,063	0,060	-0,082
-512,058	204,670	0,025	-0,028
-511,043	-200,000	-0,018	-0,064
-510,029	47,726	-0,094	-0,063
-509,014	6,589	-0,066	-0,035
-507,999	619,743	0,072	0,131
-506,985	18,589	-0,026	-0,015
-505,970	-86,214	-0,170	-0,037
-504,956	367,634	-0,072	-0,106
-503,941	32,518	0,060	0,038
-502,926	54,557	0,103	-0,072
-501,912	800,000	0,018	-0,049
-500,897	420,036	0,066	0,103
-499,883	-28,793	-0,018	0,007
-498,868	75,550	-0,066	-0,050
-497,853	-200,000	0,005	-0,053
-496,839	3,781	0,115	-0,060
-495,824	74,423	-0,041	-0,031
-494,810	27,572	0,092	0,056
-493,795	129,554	0,083	-0,076
-492,781	492,323	0,018	-0,030
-491,766	-70,955	-0,148	-0,040
-490,751	-150,199	-0,018	0,001
-489,737	202,463	-0,035	0,040
-488,722	-52,747	0,166	-0,055
-487,708	-200,000	-0,006	0,066
-486,693	-49,850	0,089	-0,030
-485,678	-8,587	-0,070	0,034
-484,664	40,368	-0,092	0,059
-483,649	-82,812	0,089	-0,021
-482,635	114,751	0,077	0,068
-481,620	800,000	-0,047	0,100
-480,605	484,056	0,100	0,165
-479,591	-99,001	0,075	-0,014
-478,576	562,778	-0,016	0,027
-477,562	-122,142	-0,115	0,013
-476,547	-200,000	0,000	-0,084
-475,532	-47,315	0,176	0,061
-474,518	800,000	0,019	-0,053
-473,503	800,000	-0,042	0,090
-472,489	255,099	0,121	-0,149
-471,474	760,591	0,069	-0,136
-470,459	-198,930	0,026	0,000
-469,445	-200,000	0,005	-0,031
-468,430	16,850	-0,137	-0,078
-467,416	104,584	-0,082	0,069
-466,401	-200,000	0,002	-0,014
-465,386	800,000	-0,045	0,141
-464,372	39,752	0,005	-0,003
-463,357	38,758	-0,086	0,055
-462,343	800,000	-0,018	-0,051
-461,328	31,035	-0,133	0,082
-460,313	-111,304	0,079	0,012
-459,299	-8,701	0,127	0,061
-458,284	-200,000	-0,008	0,160
-457,270	-200,000	0,005	0,082
-456,255	-2,923	-0,109	-0,055
-455,241	309,744	-0,074	-0,099
-454,226	-185,979	0,116	-0,001
-453,211	-200,000	-0,012	0,091
-452,197	27,285	0,075	-0,045
-451,182	-97,003	0,069	-0,013
-450,168	-200,000	-0,014	-0,150
-449,153	193,678	0,035	0,039
-448,138	800,000	-0,068	-0,144
-447,124	356,218	0,032	-0,045
-446,109	800,000	0,055	-0,158
-445,095	439,863	0,020	-0,031
-444,080	800,000	0,019	0,043
-443,065	88,386	0,032	-0,026
-442,051	-200,000	0,017	0,084
-441,036	721,676	0,049	-0,095
-440,022	417,018	0,046	-0,070
-439,007	-161,614	0,042	-0,002
-437,992	-200,000	-0,020	0,080
-436,978	77,956	0,013	-0,010
-435,963	-62,441	0,044	-0,013
-434,949	296,712	-0,064	-0,084
-433,934	315,646	0,043	-0,058
-432,919	92,093	-0,103	-0,083
-431,905	454,416	-0,056	-0,090
-430,890	590,948	0,024	0,043
-429,876	735,620	0,043	0,084
-428,861	-200,000	-0,003	-0,060
-427,846	-200,000	0,020	-0,182
-426,832	163,145	-0,121	-0,122
-425,817	-70,593	0,034	0,009
-424,803	-200,000	-0,019	-0,134
-423,788	-200,000	0,015	0,108
-422,773	128,787	0,118	0,108
-421,759	-12,192	-0,063	-0,029
-420,744	143,584	-0,068	-0,065
-419,730	800,000	-0,036	-0,085
-418,715	-200,000	-0,004	-0,129
-417,701	-152,739	-0,144	-0,007
-416,686	-54,723	-0,048	0,016
-415,671	-42,265	0,092	0,034
-414,657	-200,000	0,031	-0,146
-413,642	55,844	-0,090	0,063
-412,628	-200,000	0,017	-0,093
-411,613	315,663	-0,025	-0,035
-410,598	57,613	0,028	0,020
-409,584	-115,631	-0,061	0,008
-408,569	-200,000	-0,043	0,189
-407,555	800,000	0,041	0,088
-406,540	-139,389	0,105	0,008
-405,525	-164,135	-0,023	0,001
-404,511	130,936	-0,059	-0,054
-403,496	-21,765	0,054	0,023
-402,482	713,234	0,032	-0,061
-401,467	-48,154	0,138	0,048
-400,452	800,000	0,023	0,070
-399,438	-200,000	0,024	-0,100
-398,423	800,000	-0,040	0,121
-397,409	-117,341	-0,053	0,007
-396,394	-200,000	-0,013	-0,076
-395,379	397,995	-0,055	-0,082
-394,365	-190,756	0,163	-0,001
-393,350	800,000	0,023	0,054
-392,336	49,908	-0,055	0,037
-391,321	800,000	0,007	0,021
-390,306	14,961	-0,076	0,043
-389,292	153,092	-0,021	-0,021
-388,277	38,809	-0,024	-0,015
-387,263	541,546	-0,022	-0,037
-386,248	-25,308	0,212	-0,090
-385,233	-73,686	-0,046	0,012
-384,219	-200,000	0,001	0,015
-383,204	196,417	-0,042	-0,046
-382,190	377,843	-0,099	-0,146
-381,175	-200,000	0,015	-0,190
-380,160	-65,990	0,131	0,037
-379,146	25,617	-0,016	-0,010
-378,131	16,508	0,071	0,040
-377,117	-118,360	-0,107	-0,014
-376,102	-200,000	-0,017	0,054
-375,088	-122,742	-0,127	-0,015
-374,073	559,504	0,024	-0,041
-373,058	-40,174	0,041	-0,015
-372,044	-4,618	0,147	-0,072
-371,029	-200,000	0,050	-0,000
-370,015	202,615	0,029	-0,032
-369,000	173,943	0,073	0,075
-367,985	-200,000	0,000	-0,067
-366,971	69,639	-0,049	0,036
-365,956	-107,507	-0,149	0,023
-364,942	680,986	0,075	0,140
-363,927	147,484	-0,067	0,065
-362,912	-200,000	0,015	0,075
-361,898	81,609	0,012	0,009
-360,883	-200,000	0,001	-0,042
-359,869	-77,565	-0,129	-0,032
-358,854	246,382	-0,081	-0,099
-357,839	40,194	0,081	-0,052
-356,825	5,148	0,059	0,031
-355,810	177,745	0,126	0,132
-354,796	-79,764	-0,162	0,039
-353,781	-142,021	-0,081	0,006
-352,766	-200,000	-0,039	-0,130
-351,752	288,979	-0,014	0,019
-350,737	800,000	-0,074	0,158
-349,723	-6,952	0,106	-0,052
-348,708	172,489	-0,044	0,046
-347,693	-200,000	-0,010	0,196
-346,679	-200,000	0,011	-0,127
-345,664	634,477	0,026	-0,047
-344,650	71,180	0,055	-0,041
-343,635	115,508	0,062	-0,054
-342,620	483,290	0,079	0,129
-341,606	673,690	0,038	0,071
-340,591	113,282	-0,050	-0,044
-339,577	-40,113	-0,077	0,029
-338,562	-187,321	0,079	0,001
-337,548	-200,000	0,000	0,047
-336,533	96,863	0,147	0,121
-335,518	621,763	0,065	0,119
-334,504	84,237	0,033	-0,026
-333,489	-200,000	-0,008	0,159
-332,475	74,702	0,014	0,010
-331,460	-43,759	-0,135	-0,048
-330,445	489,446	0,068	-0,111
-329,431	119,014	0,064	-0,057
-328,416	26,411	-0,064	0,038
-327,402	373,523	-0,043	-0,063
-326,387	16,678	0,100	0,056
-325,372	-200,000	0,021	0,073
-324,358	147,361	0,163	-0,158
-323,343	339,200	-0,076	-0,106
-322,329	-200,000	0,005	0,163
-321,314	150,431	0,123	0,119
-320,299	-55,605	0,078	-0,025
-319,285	95,100	0,026	0,021
-318,270	-200,000	-0,003	-0,035
-317,256	519,984	-0,051	0,086
-316,241	-100,298	-0,103	0,018
-315,226	362,321	-0,105	0,151
-314,212	180,592	-0,061	0,064
-313,197	358,569	0,046	0,066
-312,183	800,000	0,012	-0,029
-311,168	3,841	-0,114	-0,059
-310,153	-200,000	-0,039	-0,134
-309,139	472,433	-0,043	-0,069
-308,124	48,458	-0,043	-0,029
-307,110	579,712	-0,047	-0,084
-306,095	800,000	-0,014	0,030
-305,080	-200,000	0,020	0,077
-304,066	-200,000	0,012	0,083
-303,051	-11,234	-0,126	-0,059
-302,037	-66,347	-0,113	-0,032
-301,022	72,621	0,082	-0,061
-300,008	-52,236	0,094	0,031
-298,993	99,752	-0,073	0,061
-297,978	-157,114	0,065	0,003
-296,964	-6,001	0,015	0,007
-295,949	800,000	-0,015	-0,044
-294,935	-200,000	0,002	-0,051
-293,920	-200,000	-0,024	0,150
-292,905	-200,000	0,008	0,131
-291,891	118,066	0,035	0,030
-290,876	-200,000	0,002	-0,067
-289,862	-22,425	-0,072	-0,031
-288,847	-200,000	-0,015	0,178
-287,832	40,617	0,143	0,092
-286,818	14,206	-0,133	0,074
-285,803	-59,513	-0,104	0,032
-284,789	-64,539	0,106	0,031
-283,774	777,068	-0,077	0,151
-282,759	-200,000	0,014	-0,054
-281,745	-107,867	-0,139	-0,021
-280,730	-200,000	-0,035	-0,180
-279,716	800,000	0,052	-0,121
-278,701	110,152	-0,089	-0,076
-277,686	-129,794	0,179	0,017
-276,672	-200,000	0,028	0,122
-275,657	-103,006	0,125	0,021
-274,643	460,353	-0,019	0,031
-273,628	173,539	-0,107	0,111
-272,613	111,895	0,013	0,011
-271,599	-103,254	0,129	-0,022
-270,584	39,112	-0,105	-0,067
-269,570	204,516	0,052	0,058
-268,555	376,068	-0,109	-0,159
-267,540	-88,624	-0,055	0,012
-266,526	-200,000	0,002	0,094
-265,511	297,004	-0,024	-0,032
-264,497	642,545	-0,064	-0,116
-263,482	-35,592	0,109	0,042
-262,467	170,095	0,069	0,070
-261,453	-142,236	0,068	-0,005
-260,438	800,000	0,061	-0,163
-259,424	650,058	-0,014	-0,025
-258,409	-71,336	0,066	-0,018
-257,395	184,327	0,140	0,148
-256,380	800,000	-0,082	0,186
-255,365	138,458	-0,045	0,042
-254,351	-120,093	0,054	-0,007
-253,336	330,793	-0,050	0,069
-252,322	-200,000	-0,007	-0,061
-251,307	-97,521	-0,149	0,027
-250,292	-200,000	0,010	-0,047
-249,278	-200,000	-0,001	-0,103
-248,263	97,033	0,061	0,050
-247,249	458,384	0,031	0,049
-246,234	373,793	0,122	-0,179
-245,219	-200,000	-0,034	-0,120
-244,205	-50,536	0,106	-0,036
-243,190	800,000	0,032	0,075
-242,176	-200,000	0,038	0,131
-241,161	92,046	-0,039	-0,032
-240,146	144,031	-0,048	-0,046
-239,132	-106,015	-0,016	-0,003
-238,117	-200,000	0,011	0,088
-237,103	788,151	-0,017	-0,033
-236,088	-34,884	0,079	0,031
-235,073	265,831	-0,052	-0,065
-234,059	-29,342	-0,050	-0,020
-233,044	70,229	-0,033	0,025
-232,030	-200,000	-0,012	0,103
-231,015	307,284	-0,051	-0,068
-230,000	145,194	0,075	-0,072
-228,986	800,000	0,013	0,038
-227,971	-31,625	0,123	0,049
-226,957	101,225	-0,030	0,025
-225,942	254,318	0,099	0,121
-224,927	-15,000	0,058	0,027
-223,913	172,412	-0,144	-0,148
-222,898	-200,000	-0,015	-0,051
-221,884	-8,747	-0,020	-0,010
-220,869	800,000	-0,038	0,075
-219,855	800,000	0,052	0,154
-218,840	-20,400	-0,020	0,009
-217,825	800,000	0,055	0,160
-216,811	-200,000	-0,013	-0,099
-215,796	455,215	0,110	0,175
-214,782	-200,000	-0,001	0,022
-213,767	-28,603	0,048	-0,020
-212,752	96,713	-0,093	-0,076
-211,738	97,470	-0,071	0,058
-210,723	-200,000	-0,011	-0,047
-209,709	-200,000	0,011	0,055
-208,694	-200,000	0,006	-0,137
-207,679	70,823	0,045	0,033
-206,665	0,841	0,124	0,063
-205,650	800,000	0,023	0,059
-204,636	27,229	0,093	0,056
-203,621	76,828	0,061	-0,046
-202,606	9,557	-0,137	-0,074
-201,592	115,220	-0,013	-0,012
-200,577	-82,429	-0,062	-0,014
-199,563	-46,205	0,049	0,017
-198,548	67,438	-0,032	0,023
-197,533	-200,000	0,002	0,110
-196,519	-200,000	0,005	0,163
-195,504	307,590	0,055	0,074
-194,490	635,616	0,017	-0,031
-193,475	-68,819	-0,029	0,008
-192,460	231,575	-0,017	0,020
-191,446	-200,000	0,006	-0,111
-190,431	-200,000	-0,044	0,146
-189,417	612,045	-0,060	0,108
-188,402	235,532	0,068	0,080
-187,387	170,154	-0,074	-0,076
-186,373	-17,701	-0,093	0,042
-185,358	-90,585	-0,109	0,022
-184,344	-28,654	0,114	0,046
-183,329	341,977	-0,052	0,073
-182,315	-110,425	-0,185	-0,027
-181,300	168,777	-0,039	-0,040
-180,285	56,840	-0,062	-0,043
-179,271	210,917	0,019	0,021
-178,256	-84,551	-0,091	0,020
-177,242	4,630	-0,104	-0,054
-176,227	800,000	0,019	0,049
-175,212	-24,940	0,103	-0,044
-174,198	-200,000	-0,024	0,089
-173,183	401,120	-0,057	-0,085
-172,169	-3,652	-0,091	-0,045
-171,154	-133,997	-0,135	0,012
-170,139	-200,000	0,030	-0,109
-169,125	800,000	0,065	0,134
-168,110	-25,523	0,120	0,050
-167,096	-200,000	-0,014	0,056
-166,081	201,142	-0,035	0,038
-165,066	-107,652	-0,027	-0,004
-164,052	-17,062	-0,145	-0,065
-163,037	96,573	0,043	-0,035
-162,023	-99,345	0,075	-0,013
-161,008	-200,000	0,004	0,056
-159,993	330,669	-0,080	0,110
-158,979	-200,000	-0,010	0,032
-157,964	376,780	0,019	-0,028
-156,950	-200,000	-0,012	-0,061
-155,935	-200,000	-0,002	0,061
-154,920	325,424	-0,075	-0,103
-153,906	692,445	0,038	-0,071
-152,891	210,482	-0,053	-0,059
-151,877	-53,729	0,097	0,031
-150,862	431,450	-0,073	0,113
-149,847	-68,186	0,120	0,033
-148,833	-174,391	0,130	-0,003
-147,818	-125,389	-0,075	-0,008
-146,804	800,000	0,066	0,156
-145,789	19,307	0,074	-0,042
-144,775	-200,000	-0,047	0,183
-143,760	800,000	0,039	-0,094
-142,745	-53,350	0,091	-0,030
-141,731	407,158	-0,014	-0,020
-140,716	84,045	-0,037	-0,029
-139,702	800,000	0,039	0,082
-138,687	261,965	0,117	0,145
-137,672	297,418	0,042	0,055
-136,658	-132,103	0,097	0,009
-135,643	-57,448	-0,134	-0,041
-134,629	-200,000	-0,008	-0,054
-133,614	15,784	0,040	0,022
-132,599	141,832	-0,064	-0,061
-131,585	220,130	0,045	-0,052
-130,570	800,000	-0,019	0,047
-129,556	772,819	0,019	-0,037
-128,541	656,257	0,019	-0,035
-127,526	-66,078	0,109	0,031
-126,512	800,000	-0,046	0,129
-125,497	-200,000	0,018	0,119
-124,483	305,194	-0,125	-0,166
-123,468	341,338	-0,076	-0,106
-122,453	-200,000	-0,005	-0,135
-121,439	428,470	0,016	0,024
-120,424	146,847	-0,071	-0,068
-119,410	-78,073	0,076	0,018
-118,395	-200,000	0,022	0,157
-117,380	113,633	-0,068	-0,059
-116,366	77,254	0,055	-0,041
-115,351	518,342	-0,104	0,173
-114,337	-42,215	-0,112	0,041
-113,322	-200,000	-0,014	-0,060
-112,307	800,000	-0,038	0,110
-111,293	-97,362	0,095	0,017
-110,278	-200,000	-0,009	0,074
-109,264	800,000	0,032	0,093
-108,249	63,370	0,124	0,089
-107,234	-200,000	-0,037	-0,121
-106,220	800,000	-0,020	-0,055
-105,205	461,542	0,068	-0,108
-104,191	204,377	0,101	0,111
-103,176	234,672	0,042	0,049
-102,162	-170,160	-0,091	0,002
-101,147	273,580	-0,075	0,094
-100,132	-126,561	-0,148	-0,015
-99,118	125,301	0,029	-0,026
-98,103	-7,452	-0,125	0,060
-97,089	-200,000	-0,006	0,156
-96,074	0,173	0,008	0,004
-95,059	64,216	-0,075	0,054
-94,045	-160,721	0,082	-0,003
-93,030	550,726	-0,123	-0,210
-92,016	371,230	0,058	0,083
-91,001	-200,000	0,042	0,000
-89,986	210,789	0,034	-0,038
-88,972	242,181	-0,077	-0,091
-87,957	203,997	0,052	0,058
-86,943	-200,000	0,005	0,037
-85,928	71,217	-0,042	-0,031
-84,913	-83,444	0,064	0,014
-83,899	-200,000	-0,017	0,141
-82,884	335,999	0,028	0,039
-81,870	97,184	-0,008	0,007
-80,855	-150,074	-0,084	-0,005
-79,840	-200,000	-0,007	0,089
-78,826	800,000	-0,061	-0,137
-77,811	725,922	-0,016	-0,031
-76,797	31,910	0,120	-0,073
-75,782	800,000	-0,032	0,099
-74,767	716,906	-0,019	-0,035
-73,753	800,000	-0,072	0,174
-72,738	800,000	-0,003	0,008
-71,724	-71,640	-0,037	0,010
-70,709	-183,312	-0,090	-0,001
-69,694	-110,198	-0,094	-0,014
-68,680	800,000	-0,024	-0,057
-67,665	-200,000	0,027	0,146
-66,651	-200,000	0,000	0,019
-65,636	-79,988	-0,026	-0,006
-64,622	183,605	0,076	0,080
-63,607	537,741	-0,033	-0,055
-62,592	-167,870	-0,056	-0,002
-61,578	162,601	0,044	-0,043
-60,563	402,649	-0,013	-0,019
-59,549	61,382	-0,058	0,041
-58,534	-74,956	-1,382	-0,349
-57,519	330,371	-1,582	-2,166
-56,505	-200,000	-0,483	-4,471
-55,490	45,531	0,974	0,637
-54,476	800,000	4,831	11,310
-53,461	-200,000	17,891	282,705
-52,446	800,000	720,732	2227,418
-51,432	563,765	1635,058	2818,720
-50,417	80,915	1658,835	1267,769
-49,403	23,706	1532,879	892,744
-48,388	17,687	1456,370	819,142
-47,373	18,246	1445,805	815,850
-46,359	17,772	1436,686	808,413
-45,344	15,975	1431,767	797,068
-44,330	15,902	1429,851	795,620
-43,315	15,940	1428,186	794,846
-42,300	15,916	1426,649	793,841
-41,286	15,976	1425,362	793,381
-40,271	15,894	1424,168	792,297
-39,257	15,922	1422,872	791,673
-38,242	15,935	1421,726	791,069
-37,227	15,961	1420,340	790,386
-36,213	15,902	1419,026	789,348
-35,198	15,894	1417,880	788,639
-34,184	15,996	1417,015	788,611
-33,169	15,917	1415,506	787,365
-32,154	15,901	1414,738	786,832
-31,140	15,955	1413,280	786,241
-30,125	16,011	1412,005	785,764
-29,111	15,968	1411,135	785,047
-28,096	15,909	1410,072	784,149
-27,082	15,888	1408,804	783,317
-26,067	15,894	1407,730	782,714
-25,052	15,880	1406,529	781,950
-24,038	15,907	1405,499	781,471
-23,023	15,867	1404,709	780,815
-22,009	15,859	1403,640	780,155
-20,994	15,817	1402,643	779,375
-19,979	15,800	1401,713	778,748
-18,965	15,809	1400,654	778,167
-17,950	15,811	1399,761	777,650
-16,936	15,821	1398,764	777,114
-15,921	15,768	1397,618	776,201
-14,906	15,739	1396,815	775,586
-13,892	15,835	1395,527	775,286
-12,877	15,744	1395,106	774,600
-11,863	15,784	1393,923	774,099
-10,848	15,788	1393,075	773,613
-9,833	15,730	1392,146	772,798
-8,819	15,695	1391,218	772,091
-7,804	15,673	1390,210	771,400
-6,790	15,692	1389,234	770,914
-5,775	15,657	1388,226	770,166
-4,760	15,640	1387,365	769,577
-3,746	15,651	1386,629	769,192
-2,731	15,669	1385,689	768,722
-1,717	15,650	1384,753	768,086
-0,702	15,643	1382,929	767,009
0,313	19,339	1303,902	740,268
1,327	35,588	706,639	438,846
2,342	55,255	125,067	85,560
3,356	5,725	16,625	8,682
4,371	15,112	3,058	1,693
5,386	130,548	0,387	0,352
6,400	250,066	0,102	0,123
7,415	287,305	-0,209	-0,268
8,429	-68,253	-0,365	-0,100
9,444	-64,503	-0,355	-0,101
10,459	-75,685	-0,312	-0,078
11,473	48,351	-0,263	-0,174
12,488	367,977	-0,251	-0,360
13,502	99,139	-0,269	-0,220
14,517	22,873	-0,289	-0,167
15,531	125,210	-0,260	-0,232
16,546	64,944	-0,311	-0,222
17,561	136,944	-0,284	-0,263
18,575	-138,672	-0,236	-0,018
19,590	316,372	-0,148	-0,198
20,604	34,519	-0,310	-0,191
21,619	26,680	-0,354	-0,209
22,634	102,444	-0,418	-0,345
23,648	123,664	-0,466	-0,414
24,663	51,764	-0,354	-0,238
25,677	215,193	-0,321	-0,360
26,692	51,389	-0,319	-0,214
27,707	32,939	-0,316	-0,193
28,721	118,916	-0,351	-0,307
29,736	121,865	-0,290	-0,255
30,750	188,282	-0,402	-0,425
31,765	60,228	-0,550	-0,384
32,780	33,295	-0,487	-0,298
33,794	27,984	-0,363	-0,216
34,809	27,979	-0,333	-0,198
35,823	72,471	-0,310	-0,228
36,838	269,705	-0,300	-0,373
37,853	91,113	-0,359	-0,284
38,867	58,407	-0,404	-0,280
39,882	77,386	-0,359	-0,270
40,896	-27,151	-0,447	-0,183
41,911	597,350	-0,160	-0,280
42,926	151,397	-0,307	-0,296
43,940	91,032	-0,293	-0,232
44,955	175,680	-0,423	-0,433
45,969	55,945	-0,382	-0,261
46,984	389,474	-0,279	-0,410
47,999	26,122	-0,432	-0,254
49,013	-29,659	-0,410	-0,164
50,028	70,437	-0,262	-0,191
51,042	75,800	-0,385	-0,287
52,057	8,719	-0,415	-0,220
53,071	241,794	-0,331	-0,391
54,086	378,796	-0,200	-0,289
55,101	51,189	-0,297	-0,198
56,115	261,598	-0,152	-0,187
57,130	29,017	-0,378	-0,225
58,144	130,918	-0,370	-0,335
59,159	100,877	-0,398	-0,326
60,174	97,478	-0,365	-0,295
61,188	-16,147	-0,428	-0,191
62,203	80,353	-0,340	-0,258
63,217	143,960	-0,325	-0,305
64,232	11,693	-0,304	-0,164
65,247	271,893	-0,214	-0,267
66,261	93,852	-0,371	-0,296
67,276	157,707	-0,308	-0,300
68,290	324,241	-0,238	-0,322
69,305	310,166	-0,218	-0,288
70,320	-19,084	-0,322	-0,141
71,334	51,273	-0,369	-0,246
72,349	54,492	-0,308	-0,209
73,363	-25,703	-0,411	-0,170
74,378	151,396	-0,260	-0,249
75,393	-57,580	-0,244	-0,075
76,407	20,882	-0,249	-0,141
77,422	228,725	-0,136	-0,156
78,436	37,790	-0,377	-0,235
79,451	-2,164	-0,404	-0,199
80,466	285,031	-0,290	-0,369
81,480	-50,353	-0,378	-0,125
82,495	78,609	-0,220	-0,166
83,509	1,476	-0,217	-0,109
84,524	-145,859	-0,225	-0,014
85,539	-10,460	-0,205	-0,095
86,553	81,196	-0,299	-0,227
87,568	69,131	-0,354	-0,256
88,582	340,917	-0,253	-0,348
89,597	73,140	-0,418	-0,307
90,611	-73,150	-0,181	-0,046
91,626	353,763	-0,262	-0,367
92,641	20,598	-0,164	-0,093
93,655	-64,557	-0,353	-0,100
94,670	96,703	-0,311	-0,250
95,684	0,625	-0,416	-0,208
96,699	191,780	-0,230	-0,243
97,714	134,064	-0,282	-0,257
98,728	3,885	-0,299	-0,153
99,743	50,915	-0,285	-0,189
100,757	-15,561	-0,292	-0,130
101,772	109,338	-0,295	-0,248
102,787	79,159	-0,257	-0,194
103,801	-30,800	-0,333	-0,131
104,816	91,817	-0,349	-0,275
105,830	-46,738	-0,352	-0,120
106,845	-112,864	-0,275	0,038
107,860	261,709	-0,167	-0,204
108,874	52,870	-0,245	-0,164
109,889	-10,199	-0,319	-0,148
110,903	117,451	-0,196	-0,169
111,918	468,833	-0,173	-0,273
112,933	29,387	-0,239	-0,142
113,947	-62,806	-0,202	-0,058
114,962	65,201	-0,149	-0,105
115,976	162,078	-0,196	-0,193
116,991	64,325	-0,276	-0,195
118,006	521,121	-0,135	-0,223
119,020	51,439	-0,251	-0,167
120,035	-1,843	-0,255	-0,125
121,049	-22,898	-0,250	-0,105
122,064	-16,010	-0,248	-0,110
123,079	92,005	-0,268	-0,211
124,093	800,000	-0,126	-0,250
125,108	130,050	-0,264	-0,237
126,122	163,681	-0,221	-0,218
127,137	-28,212	-0,297	-0,120
128,151	-137,332	-0,276	-0,022
129,166	-23,820	-0,379	-0,158
130,181	222,515	-0,226	-0,255
131,195	52,542	-0,287	-0,192
132,210	68,898	-0,321	-0,231
133,224	800,000	-0,135	-0,313
134,239	142,322	-0,269	-0,250
135,254	644,106	-0,112	-0,200
136,268	128,100	-0,234	-0,208
137,283	47,377	-0,329	-0,214
138,297	108,231	-0,309	-0,258
139,312	592,532	-0,145	-0,252
140,327	66,587	-0,300	-0,214
141,341	183,822	-0,240	-0,248
142,356	212,168	-0,108	-0,120
143,370	-41,817	-0,221	-0,079
144,385	432,480	-0,177	-0,269
145,400	143,499	-0,337	-0,314
146,414	52,019	-0,337	-0,224
147,429	158,898	-0,311	-0,303
148,443	168,748	-0,139	-0,139
149,458	183,964	-0,203	-0,211
150,473	497,563	-0,156	-0,252
151,487	277,380	-0,087	-0,108
152,502	-13,123	-0,301	-0,136
153,516	130,506	-0,293	-0,262
154,531	98,408	-0,268	-0,215
155,546	113,485	-0,236	-0,200
156,560	-30,235	-0,262	-0,104
157,575	131,726	-0,093	-0,084
158,589	1,836	-0,380	-0,191
159,604	-27,789	-0,352	-0,142
160,619	-44,558	-0,367	-0,127
161,633	53,788	-0,278	-0,186
162,648	223,967	-0,258	-0,292
163,662	472,059	-0,146	-0,231
164,677	-2,454	-0,369	-0,180
165,692	185,245	-0,130	-0,135
166,706	-76,517	-0,212	0,052
167,721	355,435	-0,213	-0,296
168,735	104,791	-0,186	-0,153
169,750	-92,871	-0,189	-0,037
170,764	-71,821	-0,092	-0,024
171,779	144,185	-0,188	-0,175
172,794	136,876	-0,194	-0,177
173,808	46,205	-0,202	-0,131
174,823	161,179	-0,222	-0,217
175,837	312,169	-0,154	-0,202
176,852	184,149	-0,144	-0,149
177,867	123,685	-0,119	-0,105
178,881	75,890	-0,135	-0,099
179,896	-157,653	-0,187	0,008
180,910	137,428	-0,258	-0,235
181,925	3,810	-0,261	-0,132
182,940	196,565	-0,265	-0,282
183,954	592,456	-0,105	-0,182
184,969	1,021	-0,284	-0,142
185,983	800,000	0,049	-0,125
186,998	60,130	-0,138	-0,095
188,013	46,847	-0,238	-0,154
189,027	192,082	-0,212	-0,223
190,042	348,095	-0,207	-0,285
191,056	486,540	-0,164	-0,262
192,071	39,772	-0,193	-0,121
193,086	12,077	-0,196	-0,105
194,100	-33,695	-0,139	-0,053
195,115	120,599	-0,237	-0,205
196,129	63,862	-0,274	-0,192
197,144	136,339	-0,243	-0,221
198,159	125,571	-0,266	-0,234
199,173	75,526	-0,198	-0,145
200,188	187,827	-0,180	-0,187
201,202	175,788	-0,194	-0,196
202,217	-50,241	-0,259	-0,085
203,232	-117,335	-0,281	-0,035
204,246	149,007	-0,173	-0,163
205,261	310,418	-0,207	-0,271
206,275	-62,129	-0,100	-0,029
207,290	348,628	-0,166	-0,228
208,304	139,729	-0,109	-0,099
209,319	233,495	-0,197	-0,226
210,334	15,664	-0,247	-0,135
211,348	38,281	-0,166	-0,103
212,363	1,791	-0,137	-0,068
213,377	-200,000	-0,082	-0,283
214,392	800,000	-0,129	-0,273
215,407	145,173	-0,203	-0,189
216,421	119,364	-0,100	-0,086
217,436	-8,235	-0,359	-0,167
218,450	125,122	-0,211	-0,185
219,465	129,714	-0,192	-0,170
220,480	57,435	-0,215	-0,146
221,494	645,340	-0,130	-0,231
222,509	199,280	-0,206	-0,220
223,523	427,625	-0,080	-0,121
224,538	180,655	-0,165	-0,168
225,553	-164,611	-0,221	-0,007
226,567	800,000	-0,087	-0,199
227,582	278,790	-0,203	-0,252
228,596	126,452	-0,047	-0,041
229,611	291,193	-0,120	-0,152
230,626	82,964	-0,225	-0,170
231,640	-8,024	-0,206	-0,096
232,655	-100,414	-0,214	-0,036
233,669	48,907	-0,193	-0,126
234,684	240,693	-0,112	-0,130
235,699	-200,000	-0,003	-0,009
236,713	233,287	-0,131	-0,150
237,728	67,445	-0,247	-0,174
238,742	-77,783	-0,238	-0,057
239,757	209,261	-0,183	-0,199
240,772	54,302	-0,349	-0,233
241,786	210,716	-0,177	-0,194
242,801	-31,137	-0,212	0,082
243,815	107,910	-0,214	-0,177
244,830	40,550	-0,119	-0,074
245,844	110,932	-0,133	-0,111
246,859	-75,280	-0,140	-0,034
247,874	-42,880	-0,188	-0,066
248,888	800,000	-0,108	-0,323
249,903	28,591	-0,215	-0,126
250,917	-200,000	-0,045	-0,210
251,932	195,469	-0,204	-0,215
252,947	-200,000	-0,263	-0,001
253,961	40,645	-0,230	-0,143
254,976	-57,555	-0,176	-0,053
255,990	408,254	-0,163	-0,240
257,005	214,952	-0,173	-0,190
258,020	690,092	-0,088	-0,159
259,034	512,242	-0,066	-0,106
260,049	439,665	-0,145	-0,220
261,063	-200,000	-0,067	-0,265
262,078	-197,432	-0,178	0,001
263,093	48,301	-0,326	-0,211
264,107	-48,570	-0,163	-0,054
265,122	77,775	-0,122	0,090
266,136	159,313	-0,100	-0,096
267,151	-41,735	-0,110	0,039
268,166	-0,793	-0,215	-0,105
269,180	200,477	-0,074	-0,079
270,195	529,363	-0,156	-0,255
271,209	150,736	-0,172	-0,161
272,224	800,000	-0,080	-0,170
273,239	159,813	-0,184	-0,177
274,253	72,153	-0,060	-0,043
275,268	207,270	-0,143	-0,154
276,282	342,657	-0,182	-0,247
277,297	60,038	-0,120	-0,082
278,312	440,209	-0,136	-0,206
279,326	34,614	-0,121	-0,073
280,341	-27,561	-0,159	-0,064
281,355	21,063	-0,115	-0,064
282,370	140,225	-0,127	-0,115
283,384	84,248	-0,138	-0,104
284,399	-47,776	-0,235	-0,078
285,414	-200,000	-0,071	-0,235
286,428	3,673	-0,196	-0,099
287,443	28,233	-0,190	-0,111
288,457	-162,275	-0,233	-0,008
289,472	-58,077	-0,242	-0,073
290,487	800,000	-0,130	-0,252
291,501	237,753	-0,193	-0,222
292,516	12,328	-0,225	-0,119
293,530	158,873	-0,160	-0,153
294,545	-98,178	-0,101	0,018
295,560	800,000	0,079	-0,230
296,574	-48,525	-0,076	-0,025
297,589	-91,135	-0,117	-0,023
298,603	-200,000	-0,002	-0,211
299,618	-113,671	-0,164	0,022
300,633	-49,639	-0,072	0,024
301,647	486,437	-0,063	-0,100
302,662	800,000	-0,049	-0,114
303,676	123,122	-0,161	-0,139
304,691	226,354	-0,182	-0,204
305,706	800,000	-0,081	-0,161
306,720	330,719	-0,112	-0,150
307,735	137,508	-0,134	-0,121
308,749	800,000	0,039	-0,108
309,764	-101,105	-0,094	-0,016
310,779	-67,159	-0,204	-0,055
311,793	-200,000	-0,039	-0,217
312,808	5,338	-0,178	-0,090
313,822	-153,491	-0,233	-0,011
314,837	119,680	-0,163	-0,139
315,852	150,649	-0,108	-0,101
316,866	154,358	0,071	-0,067
317,881	-105,696	-0,117	-0,018
318,895	40,286	-0,076	0,047
319,910	459,691	-0,086	-0,133
320,925	206,667	-0,077	-0,083
321,939	-200,000	-0,008	-0,056
322,954	100,180	-0,128	-0,102
323,968	-117,798	-0,124	0,015
324,983	-68,073	-0,205	-0,055
325,997	800,000	-0,094	-0,191
327,012	-200,000	-0,044	-0,189
328,027	115,589	-0,141	-0,119
329,041	266,628	-0,126	-0,152
330,056	217,008	-0,090	-0,099
331,070	-200,000	-0,013	-0,077
332,085	680,388	-0,060	-0,109
333,100	554,125	-0,037	-0,061
334,114	800,000	-0,061	-0,157
335,129	-157,232	-0,137	-0,006
336,143	95,162	-0,211	-0,165
337,158	123,141	-0,161	-0,139
338,173	47,087	-0,163	-0,104
339,187	-140,414	-0,107	0,008
340,202	141,744	-0,136	0,124
341,216	259,854	-0,078	-0,093
342,231	72,531	-0,268	-0,192
343,246	-62,809	-0,211	-0,060
344,260	210,899	-0,048	-0,052
345,275	567,110	-0,043	0,073
346,289	3,909	-0,116	-0,058
347,304	277,144	-0,116	-0,142
348,319	-31,072	-0,186	-0,072
349,333	-72,716	-0,129	-0,032
350,348	473,128	-0,184	-0,286
351,362	-157,246	-0,159	-0,006
352,377	-200,000	-0,039	-0,152
353,392	455,587	-0,080	-0,123
354,406	-68,200	-0,081	0,022
355,421	209,707	1313,298	1416,336
356,435	161,409	1473,891	1416,866
