DTS Sentinel unit serial number:	SN410029Multiplexer serial number:	ORYXHardware model number:	OX2-SRSoftware version number:	ORYX F/W v4,00 Oryx Data Collector v3.7.2.0data status	okinstallation	B3 Nyhavnadifferential loss correction	single-endedforward channel	channel 1reverse channel	N/Adate	2023/11/29time	20:22:30forward acquisition time	300,00reverse acquisition time	0,00gamma	499,1914k internal	0,3210k external	0,3210temperature offset calibration	1,0000default loss term (dB/km)	0,3820temperature slope calibration	1,0000multiplexer offset coefficient	1,0000multiplexer slope coefficient	1,0000fibre end	0,00T internal ref (°C)	10,87T ext. ref 1 (°C)	-4,27T ext. ref 2 (°C)	-4,34length (m)	temperature (°C)	Stokes	anti-Stokes-744,400	-200,000	-0,047	-0,255
-743,385	800,000	-0,131	0,336
-742,371	165,166	-0,247	-0,253
-741,356	-200,000	-0,017	0,255
-740,342	196,791	-0,236	-0,262
-739,327	-200,000	-0,033	0,324
-738,312	800,000	-0,171	-0,355
-737,298	-200,000	0,014	0,298
-736,283	335,386	-0,142	-0,199
-735,269	276,649	0,214	0,276
-734,254	391,719	-0,248	-0,374
-733,239	20,990	-0,195	0,115
-732,225	395,967	-0,180	-0,273
-731,210	-200,000	0,010	0,106
-730,196	800,000	0,031	-0,070
-729,181	0,356	-0,102	0,052
-728,167	-200,000	0,030	0,153
-727,152	-80,826	-0,092	0,022
-726,137	-59,924	-0,119	-0,037
-725,123	-182,763	0,062	0,001
-724,108	707,934	-0,051	0,098
-723,094	800,000	-0,038	-0,110
-722,079	548,879	0,038	-0,067
-721,064	-4,775	0,080	-0,040
-720,050	366,392	-0,060	-0,088
-719,035	-57,982	-0,161	0,051
-718,021	-31,959	-0,024	-0,010
-717,006	-128,828	-0,106	-0,011
-715,991	454,356	-0,083	-0,134
-714,977	-169,104	-0,142	-0,004
-713,962	-200,000	0,013	-0,054
-712,948	-200,000	-0,003	0,053
-711,933	-15,668	-0,145	0,067
-710,918	96,540	-0,089	-0,074
-709,904	138,474	0,141	-0,134
-708,889	800,000	-0,090	-0,219
-707,875	42,535	0,089	-0,058
-706,860	301,977	-0,040	0,054
-705,845	96,146	0,066	0,055
-704,831	800,000	-0,028	0,067
-703,816	315,569	-0,018	0,025
-702,802	-143,583	-0,116	-0,008
-701,787	66,246	-0,024	-0,018
-700,772	-140,083	-0,119	-0,009
-699,758	166,666	0,076	-0,078
-698,743	-200,000	0,018	0,105
-697,729	-200,000	0,005	0,099
-696,714	-37,399	-0,087	0,034
-695,699	-200,000	0,006	-0,079
-694,685	800,000	-0,037	-0,108
-693,670	-159,496	-0,059	-0,002
-692,656	-38,808	0,074	-0,028
-691,641	159,923	0,039	-0,039
-690,627	-106,429	0,137	0,022
-689,612	-133,058	0,095	0,009
-688,597	712,456	0,025	-0,047
-687,583	774,248	0,067	-0,132
-686,568	161,812	-0,054	-0,055
-685,554	-90,862	0,064	-0,013
-684,539	-200,000	-0,003	0,013
-683,524	254,216	0,061	-0,076
-682,510	795,690	0,028	0,056
-681,495	-200,000	-0,058	-0,000
-680,481	742,119	-0,043	-0,085
-679,466	-200,000	-0,008	-0,033
-678,451	-53,621	-0,092	0,030
-677,437	800,000	0,026	-0,078
-676,422	-200,000	0,235	0,000
-675,408	-200,000	0,029	0,110
-674,393	46,787	-0,151	-0,101
-673,378	98,219	-0,085	0,071
-672,364	-110,116	-0,080	0,012
-671,349	758,923	0,038	0,075
-670,335	664,475	0,013	-0,024
-669,320	-24,157	0,085	-0,037
-668,305	-135,773	-0,149	-0,013
-667,291	-148,677	-0,053	0,003
-666,276	-124,306	-0,068	-0,008
-665,262	-148,576	-0,165	0,010
-664,247	800,000	-0,060	0,159
-663,232	800,000	-0,037	-0,089
-662,218	800,000	-0,024	0,056
-661,203	-151,891	0,186	-0,010
-660,189	23,736	-0,045	-0,027
-659,174	-47,614	-0,085	-0,030
-658,159	-101,745	-0,086	-0,015
-657,145	-200,000	0,002	-0,055
-656,130	-200,000	0,027	-0,166
-655,116	-200,000	0,004	-0,085
-654,101	628,101	0,038	0,070
-653,086	-200,000	0,018	-0,077
-652,072	-44,412	-0,145	-0,052
-651,057	353,856	-0,045	-0,065
-650,043	309,732	0,050	-0,067
-649,028	-53,559	0,027	-0,009
-648,014	219,874	-0,051	-0,059
-646,999	293,520	-0,049	-0,065
-645,984	29,411	-0,038	-0,023
-644,970	25,072	0,071	-0,042
-643,955	-200,000	-0,026	-0,086
-642,941	-36,003	-0,077	0,030
-641,926	-200,000	-0,011	-0,065
-640,911	175,935	0,059	0,062
-639,897	800,000	0,047	0,122
-638,882	149,135	0,058	0,056
-637,868	800,000	-0,025	-0,064
-636,853	800,000	0,038	-0,120
-635,838	-97,607	0,088	-0,016
-634,824	800,000	-0,015	0,033
-633,809	332,946	0,048	-0,067
-632,795	800,000	0,047	-0,099
-631,780	-74,322	0,066	0,017
-630,765	-108,069	0,055	0,008
-629,751	800,000	-0,020	-0,052
-628,736	24,553	-0,074	-0,044
-627,722	800,000	-0,032	-0,091
-626,707	199,326	-0,035	0,038
-625,692	200,727	0,053	-0,058
-624,678	800,000	0,049	0,111
-623,663	111,587	-0,104	-0,090
-622,649	-94,515	-0,118	-0,023
-621,634	-200,000	-0,004	-0,024
-620,619	-200,000	0,015	-0,146
-619,605	-200,000	-0,005	-0,100
-618,590	-200,000	0,014	-0,112
-617,576	-200,000	-0,044	0,249
-616,561	75,995	-0,091	-0,069
-615,546	-136,169	-0,046	0,004
-614,532	343,499	0,034	0,048
-613,517	-200,000	-0,017	0,068
-612,503	594,433	0,042	-0,075
-611,488	-200,000	-0,004	0,012
-610,474	800,000	0,013	0,030
-609,459	-200,000	-0,013	-0,142
-608,444	-60,470	-0,096	-0,029
-607,430	-77,042	-0,085	0,021
-606,415	11,463	-0,113	-0,062
-605,401	113,254	0,083	-0,072
-604,386	-117,729	0,149	0,019
-603,371	175,319	0,070	0,073
-602,357	800,000	0,041	-0,116
-601,342	-101,939	-0,094	-0,016
-600,328	-200,000	-0,009	-0,042
-599,313	115,447	0,010	-0,008
-598,298	800,000	-0,031	0,095
-597,284	253,181	0,104	0,128
-596,269	176,116	0,057	0,059
-595,255	-200,000	0,007	0,036
-594,240	346,364	-0,053	-0,075
-593,225	-75,697	0,050	-0,013
-592,211	-123,347	-0,142	0,016
-591,196	800,000	-0,027	0,068
-590,182	-200,000	0,004	0,108
-589,167	-200,000	0,001	0,060
-588,152	-200,000	-0,006	0,131
-587,138	4,538	-0,043	-0,023
-586,123	-64,893	-0,161	-0,046
-585,109	18,920	0,046	0,026
-584,094	113,638	0,046	-0,040
-583,079	144,497	0,124	-0,120
-582,065	267,352	0,035	0,044
-581,050	-200,000	-0,014	0,060
-580,036	-2,871	-0,034	0,017
-579,021	108,084	-0,032	-0,028
-578,006	-200,000	-0,036	-0,138
-576,992	128,139	-0,128	0,117
-575,977	-200,000	-0,006	-0,040
-574,963	43,171	0,155	0,102
-573,948	800,000	-0,005	0,013
-572,934	-200,000	0,016	0,099
-571,919	115,916	0,076	0,067
-570,904	-200,000	-0,008	-0,063
-569,890	70,509	0,159	-0,119
-568,875	-200,000	0,010	-0,074
-567,861	307,958	0,059	0,079
-566,846	332,444	-0,041	-0,058
-565,831	182,376	0,083	-0,088
-564,817	800,000	-0,027	-0,058
-563,802	88,917	0,028	0,023
-562,788	-12,589	-0,053	0,025
-561,773	-200,000	0,017	0,101
-560,758	-200,000	-0,020	-0,092
-559,744	-93,527	-0,092	-0,018
-558,729	-200,000	-0,034	0,149
-557,715	800,000	0,033	-0,101
-556,700	-41,077	0,160	-0,059
-555,685	110,391	0,048	-0,041
-554,671	-12,008	-0,085	-0,040
-553,656	-200,000	-0,007	-0,052
-552,642	-42,318	0,092	-0,034
-551,627	14,858	-0,050	0,028
-550,612	144,775	0,051	-0,049
-549,598	20,871	0,123	-0,071
-548,583	-200,000	0,018	-0,075
-547,569	-129,551	0,061	-0,006
-546,554	168,524	0,012	0,013
-545,539	82,686	0,051	-0,040
-544,525	344,564	0,049	-0,069
-543,510	119,739	0,084	0,075
-542,496	11,743	0,029	-0,016
-541,481	100,501	0,104	-0,087
-540,466	335,701	-0,076	-0,106
-539,452	-200,000	0,000	0,057
-538,437	-200,000	0,001	0,055
-537,423	16,118	-0,063	0,035
-536,408	-20,151	-0,131	0,058
-535,393	261,463	0,020	-0,025
-534,379	-43,727	-0,074	0,027
-533,364	-7,234	0,059	0,029
-532,350	18,358	0,036	-0,021
-531,335	210,747	0,028	0,032
-530,321	-193,692	0,096	0,001
-529,306	566,686	0,047	-0,082
-528,291	-69,949	-0,072	0,020
-527,277	800,000	-0,048	-0,101
-526,262	16,524	-0,090	-0,051
-525,248	26,840	0,085	-0,051
-524,233	-127,183	0,110	0,011
-523,218	-130,458	0,097	-0,009
-522,204	322,456	0,055	-0,076
-521,189	35,908	0,022	0,014
-520,175	-49,783	-0,042	-0,014
-519,160	-91,884	0,092	0,019
-518,145	800,000	0,027	-0,057
-517,131	167,943	0,065	0,067
-516,116	-200,000	0,006	0,040
-515,102	-200,000	-0,024	-0,100
-514,087	-31,800	-0,058	0,023
-513,072	39,800	-0,169	-0,109
-512,058	32,896	-0,051	-0,031
-511,043	-42,848	-0,136	-0,049
-510,029	466,065	0,060	0,097
-509,014	-27,877	-0,162	-0,067
-507,999	15,648	0,176	0,099
-506,985	48,647	-0,080	-0,054
-505,970	-200,000	0,015	0,074
-504,956	144,166	0,049	-0,047
-503,941	135,465	-0,081	-0,076
-502,926	12,382	-0,092	-0,051
-501,912	81,291	0,015	0,012
-500,897	17,219	-0,020	0,011
-499,883	199,811	0,110	-0,121
-498,868	-200,000	0,046	-0,231
-497,853	800,000	0,015	-0,043
-496,839	-98,218	-0,045	-0,008
-495,824	370,154	0,031	0,046
-494,810	-125,521	-0,134	0,014
-493,795	-116,718	-0,091	0,012
-492,781	-200,000	-0,002	-0,111
-491,766	39,105	-0,039	0,025
-490,751	302,805	0,022	-0,030
-489,737	800,000	-0,031	-0,079
-488,722	-200,000	-0,018	0,100
-487,708	-72,516	0,165	0,044
-486,693	800,000	0,037	0,087
-485,678	-200,000	-0,022	-0,180
-484,664	-200,000	-0,005	-0,150
-483,649	106,542	-0,026	0,022
-482,635	-40,115	-0,036	0,013
-481,620	-57,137	0,056	0,018
-480,605	-92,621	0,199	0,040
-479,591	108,480	-0,148	0,127
-478,576	-159,991	-0,100	0,004
-477,562	29,094	-0,126	-0,076
-476,547	37,432	-0,043	-0,027
-475,532	800,000	0,064	-0,181
-474,518	-200,000	0,010	-0,112
-473,503	800,000	0,017	0,048
-472,489	-47,687	-0,098	-0,034
-471,474	-200,000	-0,027	-0,138
-470,459	-200,000	-0,056	-0,180
-469,445	-46,166	-0,070	0,025
-468,430	211,991	-0,055	0,062
-467,416	-32,324	0,142	0,057
-466,401	-200,000	-0,001	0,084
-465,386	-200,000	0,000	0,123
-464,372	-129,116	-0,139	0,014
-463,357	415,044	0,025	-0,038
-462,343	71,417	-0,041	0,031
-461,328	-130,636	-0,217	0,021
-460,313	-200,000	-0,009	0,218
-459,299	-86,596	0,089	0,019
-458,284	73,603	0,147	0,110
-457,270	186,263	-0,065	-0,069
-456,255	-200,000	0,020	-0,183
-455,241	-74,239	0,067	-0,017
-454,226	800,000	-0,014	-0,042
-453,211	23,609	0,009	0,005
-452,197	161,573	-0,148	0,149
-451,182	77,178	0,092	0,070
-450,168	125,996	-0,133	0,121
-449,153	-178,943	-0,077	0,001
-448,138	-107,157	-0,027	-0,004
-447,124	71,930	-0,050	-0,037
-446,109	-200,000	0,007	-0,125
-445,095	-77,108	0,048	-0,012
-444,080	-187,026	0,073	-0,001
-443,065	53,866	-0,141	0,097
-442,051	-200,000	0,031	0,130
-441,036	-200,000	0,024	0,099
-440,022	34,628	0,036	-0,023
-439,007	-160,986	-0,112	0,004
-437,992	290,685	0,034	0,045
-436,978	800,000	0,058	0,128
-435,963	435,986	0,068	0,107
-434,949	-9,507	-0,080	-0,038
-433,934	-200,000	0,035	-0,151
-432,919	-34,300	0,122	0,048
-431,905	-12,013	-0,133	-0,062
-430,890	776,373	-0,045	0,088
-429,876	780,798	0,082	0,162
-428,861	194,023	-0,089	-0,096
-427,846	-4,858	0,090	-0,044
-426,832	377,208	-0,047	-0,068
-425,817	800,000	-0,022	-0,059
-424,803	800,000	-0,017	0,046
-423,788	50,659	-0,067	0,045
-422,773	800,000	0,040	0,086
-421,759	800,000	-0,032	0,094
-420,744	-55,559	-0,084	-0,027
-419,730	-39,688	-0,087	-0,032
-418,715	-200,000	0,017	-0,130
-417,701	262,389	0,078	-0,097
-416,686	800,000	-0,016	0,036
-415,671	800,000	0,046	0,095
-414,657	138,600	-0,081	0,076
-413,642	-18,032	0,027	0,012
-412,628	-200,000	0,018	-0,079
-411,613	-200,000	-0,002	0,042
-410,598	429,446	-0,124	-0,193
-409,584	75,401	-0,083	0,063
-408,569	-141,886	0,167	0,012
-407,555	800,000	-0,008	0,019
-406,540	129,222	-0,030	-0,028
-405,525	-77,203	0,153	-0,038
-404,511	271,932	0,104	0,132
-403,496	66,238	-0,073	-0,053
-402,482	315,065	0,100	-0,135
-401,467	800,000	-0,036	0,073
-400,452	61,228	0,053	0,037
-399,438	-37,935	0,091	-0,034
-398,423	-50,662	0,154	0,052
-397,409	-43,928	-0,168	-0,060
-396,394	-200,000	0,002	0,010
-395,379	-200,000	0,019	0,153
-394,365	145,758	-0,061	-0,059
-393,350	-200,000	0,002	0,174
-392,336	-5,927	-0,116	-0,056
-391,321	-200,000	-0,011	-0,121
-390,306	136,708	-0,042	0,039
-389,292	447,044	0,083	0,132
-388,277	-147,004	0,056	0,003
-387,263	-200,000	-0,036	-0,126
-386,248	-200,000	-0,023	0,175
-385,233	76,353	-0,046	-0,035
-384,219	611,664	-0,031	-0,056
-383,204	800,000	-0,042	0,123
-382,190	209,250	-0,119	-0,133
-381,175	800,000	0,015	0,033
-380,160	-56,544	0,034	0,011
-379,146	-174,697	0,150	-0,003
-378,131	-0,985	-0,122	-0,062
-377,117	131,765	-0,011	0,010
-376,102	-200,000	-0,008	0,063
-375,088	800,000	-0,024	-0,069
-374,073	800,000	-0,039	-0,110
-373,058	429,642	0,027	-0,041
-372,044	-200,000	0,026	0,104
-371,029	-59,234	0,058	0,018
-370,015	-8,318	-0,078	0,037
-369,000	44,935	-0,123	0,080
-367,985	138,808	0,147	-0,138
-366,971	676,362	0,030	0,057
-365,956	666,518	0,049	0,090
-364,942	-200,000	0,012	0,072
-363,927	104,354	-0,097	0,081
-362,912	800,000	0,011	-0,023
-361,898	-200,000	-0,005	-0,034
-360,883	800,000	-0,030	-0,074
-359,869	-103,469	-0,076	0,013
-358,854	800,000	0,037	0,109
-357,839	-200,000	-0,005	0,069
-356,825	457,957	0,031	-0,049
-355,810	-16,236	0,101	0,045
-354,796	-200,000	-0,006	0,021
-353,781	-128,623	-0,031	0,003
-352,766	421,095	-0,022	0,033
-351,752	-200,000	-0,013	0,043
-350,737	-200,000	0,049	0,167
-349,723	-200,000	0,013	-0,130
-348,708	-23,886	0,086	0,037
-347,693	31,504	-0,089	0,054
-346,679	800,000	0,050	-0,137
-345,664	-34,964	0,071	0,027
-344,650	180,604	-0,050	0,052
-343,635	23,667	-0,054	-0,031
-342,620	139,482	-0,022	0,021
-341,606	-19,029	0,176	0,078
-340,591	197,022	0,041	0,045
-339,577	-200,000	-0,001	-0,081
-338,562	-45,761	-0,104	0,036
-337,548	-200,000	-0,011	0,166
-336,533	-126,005	0,066	0,007
-335,518	610,323	0,064	0,115
-334,504	191,781	0,073	0,079
-333,489	101,152	0,008	-0,007
-332,475	380,874	-0,034	0,049
-331,460	118,548	0,012	-0,011
-330,445	-200,000	-0,013	-0,053
-329,431	-56,406	0,054	0,017
-328,416	401,526	-0,093	-0,141
-327,402	191,987	0,058	-0,062
-326,387	-110,824	-0,065	-0,009
-325,372	-22,148	-0,167	-0,072
-324,358	373,232	0,072	-0,105
-323,343	22,741	0,084	-0,049
-322,329	-200,000	-0,011	-0,036
-321,314	-1,844	0,055	0,028
-320,299	-200,000	0,040	0,133
-319,285	-2,969	-0,047	0,023
-318,270	-146,270	0,094	-0,006
-317,256	331,494	0,044	0,060
-316,241	-96,847	0,046	-0,008
-315,226	-68,695	0,129	0,035
-314,212	-200,000	0,013	-0,121
-313,197	257,584	0,058	0,071
-312,183	520,730	-0,025	0,042
-311,168	417,318	0,032	-0,049
-310,153	-107,446	-0,109	0,017
-309,139	-200,000	-0,011	-0,161
-308,124	75,438	0,089	0,067
-307,110	800,000	-0,044	-0,118
-306,095	-152,044	-0,094	-0,005
-305,080	-99,897	-0,058	-0,010
-304,066	278,911	0,076	-0,097
-303,051	800,000	-0,079	-0,188
-302,037	-200,000	0,002	0,045
-301,022	87,503	0,114	0,090
-300,008	607,866	-0,053	-0,095
-298,993	93,599	0,080	-0,065
-297,978	7,284	0,128	-0,068
-296,964	-200,000	-0,056	-0,180
-295,949	-73,608	-0,087	-0,023
-294,935	-158,317	0,136	0,006
-293,920	123,358	0,032	0,029
-292,905	800,000	0,045	0,132
-291,891	-179,187	0,115	0,002
-290,876	-117,216	0,026	0,003
-289,862	-138,712	-0,137	-0,011
-288,847	-200,000	-0,005	0,066
-287,832	800,000	0,036	0,093
-286,818	-15,765	0,025	-0,011
-285,803	-200,000	-0,019	-0,094
-284,789	211,309	-0,041	0,046
-283,774	-51,234	-0,117	0,039
-282,759	-78,842	-0,103	0,025
-281,745	435,931	-0,060	0,093
-280,730	-200,000	-0,010	0,046
-279,716	-69,944	0,040	-0,011
-278,701	800,000	0,052	0,127
-277,686	609,640	0,028	0,051
-276,672	180,825	0,089	0,094
-275,657	-190,580	0,167	-0,001
-274,643	-200,000	0,012	-0,061
-273,628	-200,000	-0,005	-0,069
-272,613	-1,361	0,064	-0,032
-271,599	-89,234	0,117	0,024
-270,584	-200,000	-0,008	0,027
-269,570	147,605	-0,132	0,127
-268,555	164,632	-0,035	0,035
-267,540	-11,971	-0,162	0,076
-266,526	-90,975	-0,051	-0,010
-265,511	-200,000	0,002	0,058
-264,497	-200,000	0,000	0,087
-263,482	-200,000	-0,004	0,062
-262,467	-200,000	-0,017	-0,064
-261,453	31,401	0,117	0,071
-260,438	-68,640	0,057	0,016
-259,424	-44,074	-0,058	0,021
-258,409	800,000	0,042	-0,106
-257,395	747,705	-0,050	0,097
-256,380	80,378	0,047	0,036
-255,365	800,000	0,020	0,058
-254,351	55,667	-0,079	0,054
-253,336	-47,636	0,047	0,016
-252,322	263,270	-0,093	0,116
-251,307	-50,289	0,037	0,012
-250,292	-200,000	0,022	-0,121
-249,278	-106,824	-0,144	0,023
-248,263	-156,769	0,069	-0,003
-247,249	373,142	0,015	0,022
-246,234	10,567	-0,050	0,027
-245,219	-62,203	-0,172	-0,051
-244,205	-141,132	-0,120	0,009
-243,190	319,329	0,055	-0,074
-242,176	289,169	0,070	0,090
-241,161	-200,000	0,047	0,170
-240,146	653,213	0,043	0,078
-239,132	386,341	0,022	0,032
-238,117	800,000	-0,105	0,209
-237,103	-92,691	-0,060	-0,012
-236,088	-200,000	0,003	-0,085
-235,073	-42,878	-0,029	0,010
-234,059	800,000	0,024	0,054
-233,044	286,004	-0,057	-0,073
-232,030	200,714	0,097	0,106
-231,015	-0,102	-0,053	-0,027
-230,000	-11,928	-0,065	0,030
-228,986	-200,000	-0,005	-0,084
-227,971	-78,024	-0,045	0,011
-226,957	218,964	0,042	-0,047
-225,942	145,933	0,021	0,020
-224,927	-200,000	0,000	-0,088
-223,913	-200,000	-0,001	0,036
-222,898	-200,000	0,004	-0,062
-221,884	213,539	0,048	-0,054
-220,869	-70,011	-0,052	-0,014
-219,855	-200,000	0,014	0,090
-218,840	153,905	0,093	0,091
-217,825	800,000	-0,037	0,106
-216,811	674,676	-0,040	-0,075
-215,796	800,000	0,056	-0,130
-214,782	181,729	-0,133	-0,140
-213,767	-34,851	0,072	-0,028
-212,752	382,003	-0,078	0,115
-211,738	-35,416	0,101	0,039
-210,723	-200,000	0,018	0,126
-209,709	-95,390	-0,118	0,022
-208,694	-200,000	-0,033	0,113
-207,679	-200,000	0,026	0,089
-206,665	31,874	-0,051	-0,031
-205,650	287,866	0,044	-0,056
-204,636	800,000	0,028	0,078
-203,621	800,000	-0,052	0,125
-202,606	113,090	-0,042	-0,036
-201,592	292,046	-0,076	0,099
-200,577	90,837	0,160	0,127
-199,563	-36,027	0,074	-0,028
-198,548	553,587	0,089	0,152
-197,533	800,000	0,038	0,094
-196,519	-59,985	-0,088	0,027
-195,504	413,302	0,076	0,115
-194,490	-143,458	-0,088	0,006
-193,475	116,999	-0,035	-0,030
-192,460	-200,000	0,008	0,074
-191,446	-200,000	-0,002	-0,050
-190,431	307,604	0,050	-0,067
-189,417	-41,435	0,021	-0,008
-188,402	800,000	-0,028	-0,056
-187,387	-62,520	-0,102	0,030
-186,373	-85,211	0,090	-0,020
-185,358	-200,000	-0,006	-0,039
-184,344	-187,605	0,123	0,001
-183,329	-33,683	0,137	0,053
-182,315	-98,919	0,049	-0,009
-181,300	187,440	0,098	-0,104
-180,285	800,000	0,015	-0,047
-179,271	-200,000	-0,039	-0,197
-178,256	316,952	-0,078	-0,105
-177,242	-200,000	0,029	0,108
-176,227	-200,000	-0,003	0,139
-175,212	-200,000	-0,036	-0,135
-174,198	-64,621	-0,082	0,023
-173,183	-11,030	-0,183	-0,085
-172,169	57,331	-0,063	-0,043
-171,154	-183,770	-0,122	0,001
-170,139	-87,350	0,129	0,027
-169,125	-200,000	-0,008	-0,028
-168,110	237,852	-0,047	0,055
-167,096	-200,000	-0,028	-0,135
-166,081	93,534	0,131	-0,105
-165,066	-200,000	-0,014	-0,097
-164,052	800,000	-0,042	-0,108
-163,037	-100,677	-0,041	0,007
-162,023	-56,508	0,062	0,019
-161,008	-80,152	-0,062	-0,015
-159,993	-19,499	0,049	-0,022
-158,979	268,061	0,042	-0,052
-157,964	-114,564	0,078	-0,010
-156,950	-139,030	-0,135	0,010
-155,935	-138,593	0,111	-0,008
-154,920	800,000	-0,039	0,085
-153,906	24,630	-0,069	0,040
-152,891	37,038	0,047	-0,030
-151,877	800,000	0,011	-0,022
-150,862	340,675	-0,135	-0,188
-149,847	-127,282	-0,045	0,005
-148,833	800,000	0,069	0,167
-147,818	3,365	0,070	0,036
-146,804	800,000	0,025	0,076
-145,789	-200,000	0,008	-0,042
-144,775	800,000	-0,107	0,212
-143,760	800,000	-0,034	-0,089
-142,745	170,957	-0,033	-0,034
-141,731	-200,000	0,012	0,081
-140,716	183,105	0,078	0,081
-139,702	-122,112	-0,109	-0,012
-138,687	-200,000	0,004	-0,072
-137,672	234,713	-0,085	-0,100
-136,658	-9,540	0,095	0,045
-135,643	-80,323	0,122	0,029
-134,629	32,031	0,020	-0,012
-133,614	378,127	0,040	-0,058
-132,599	-200,000	-0,022	0,113
-131,585	-200,000	-0,009	-0,085
-130,570	800,000	-0,012	-0,037
-129,556	-200,000	0,001	0,102
-128,541	62,633	-0,099	-0,070
-127,526	-200,000	0,032	-0,126
-126,512	800,000	-0,055	-0,122
-125,497	-17,436	0,102	0,045
-124,483	13,446	-0,135	-0,074
-123,468	-200,000	-0,005	-0,119
-122,453	138,814	-0,065	-0,061
-121,439	251,085	0,052	-0,062
-120,424	170,310	0,039	0,039
-119,410	375,528	0,057	0,083
-118,395	800,000	0,043	0,091
-117,380	86,709	0,157	0,122
-116,366	-200,000	0,016	0,065
-115,351	69,860	0,039	-0,029
-114,337	226,840	0,084	-0,097
-113,322	-11,438	-0,143	-0,066
-112,307	-200,000	-0,035	0,128
-111,293	197,272	0,011	0,012
-110,278	-53,261	-0,084	0,027
-109,264	54,909	0,163	0,111
-108,249	-120,942	-0,039	0,005
-107,234	-200,000	0,002	0,061
-106,220	-97,078	0,007	-0,001
-105,205	15,946	0,038	0,021
-104,191	800,000	0,011	0,027
-103,176	-200,000	0,017	0,230
-102,162	44,595	-0,034	0,022
-101,147	519,730	-0,068	0,113
-100,132	69,685	-0,094	-0,068
-99,118	316,450	-0,086	-0,115
-98,103	124,285	-0,044	0,039
-97,089	0,718	0,188	0,095
-96,074	-200,000	-0,009	0,240
-95,059	333,596	0,038	-0,052
-94,045	-49,099	0,162	0,054
-93,030	-43,196	-0,171	0,061
-92,016	25,342	0,029	-0,017
-91,001	684,239	0,037	-0,068
-89,986	-1,725	0,111	-0,055
-88,972	6,202	-0,060	-0,031
-87,957	77,693	-0,178	0,134
-86,943	-40,750	0,107	0,039
-85,928	151,997	-0,055	-0,053
-84,913	287,108	-0,057	-0,072
-83,899	426,618	0,062	0,095
-82,884	33,368	-0,008	-0,005
-81,870	-42,525	-0,123	-0,044
-80,855	-200,000	-0,031	0,108
-79,840	513,135	0,049	0,081
-78,826	-200,000	-0,019	-0,110
-77,811	196,810	-0,143	-0,154
-76,797	363,129	-0,038	0,055
-75,782	-200,000	0,030	0,144
-74,767	-42,614	0,080	0,028
-73,753	419,651	-0,075	0,114
-72,738	-200,000	-0,013	0,042
-71,724	-10,649	-0,071	-0,033
-70,709	343,465	0,136	-0,189
-69,694	120,817	0,053	-0,047
-68,680	20,848	0,006	-0,003
-67,665	538,909	0,055	0,093
-66,651	210,899	0,115	0,128
-65,636	175,618	-0,084	0,086
-64,622	0,614	0,118	0,059
-63,607	-47,495	-0,115	-0,039
-62,592	18,954	0,088	-0,050
-61,578	179,608	-0,189	0,196
-60,563	251,006	0,072	0,087
-59,549	151,714	-0,103	0,099
-58,534	59,274	-1,781	-1,237
-57,519	419,168	-1,311	-1,988
-56,505	-200,000	-0,378	-4,356
-55,490	317,168	1,057	1,415
-54,476	800,000	5,055	11,079
-53,461	-200,000	20,823	330,110
-52,446	800,000	757,539	2324,702
-51,432	550,232	1662,415	2825,726
-50,417	73,485	1664,110	1228,640
-49,403	18,691	1537,299	866,080
-48,388	12,703	1460,441	793,786
-47,373	19,120	1450,750	819,308
-46,359	15,856	1440,373	797,877
-45,344	10,987	1436,154	772,304
-44,330	10,905	1434,244	770,857
-43,315	10,899	1432,240	769,718
-42,300	10,899	1430,550	768,784
-41,286	10,949	1429,200	768,261
-40,271	10,880	1428,188	767,362
-39,257	10,878	1427,014	766,693
-38,242	10,973	1425,609	766,356
-37,227	10,939	1424,601	765,621
-36,213	10,935	1423,413	764,934
-35,198	10,903	1422,414	764,218
-34,184	11,009	1421,328	764,102
-33,169	10,922	1420,117	763,011
-32,154	10,955	1419,042	762,559
-31,140	10,993	1417,639	761,955
-30,125	11,031	1416,473	761,478
-29,111	11,006	1415,419	760,763
-28,096	10,971	1414,419	760,028
-27,082	10,871	1413,491	759,030
-26,067	10,891	1412,236	758,418
-25,052	10,942	1411,041	757,986
-24,038	10,906	1410,063	757,263
-23,023	10,947	1409,037	756,874
-22,009	10,934	1408,023	756,239
-20,994	10,920	1406,889	755,536
-19,979	10,863	1406,370	754,962
-18,965	10,884	1405,281	754,443
-17,950	10,824	1404,433	753,678
-16,936	10,858	1403,596	753,356
-15,921	10,822	1402,413	752,522
-14,906	10,802	1401,649	751,993
-13,892	10,851	1400,341	751,487
-12,877	10,791	1399,935	750,961
-11,863	10,812	1398,999	750,526
-10,848	10,776	1398,104	749,849
-9,833	10,787	1397,038	749,301
-8,819	10,717	1396,256	748,527
-7,804	10,760	1395,327	748,196
-6,790	10,718	1394,546	747,556
-5,775	10,708	1393,452	746,892
-4,760	10,736	1392,488	746,477
-3,746	10,675	1391,553	745,660
-2,731	10,716	1390,676	745,352
-1,717	10,712	1389,975	744,927
-0,702	10,750	1387,934	743,979
0,313	14,787	1301,491	716,137
1,327	31,083	692,930	418,345
2,342	47,863	120,301	79,127
3,356	2,824	16,332	8,334
4,371	-9,270	3,486	1,637
5,386	-48,567	0,884	0,298
6,400	610,384	0,283	0,501
7,415	-200,000	-0,035	-0,130
8,429	43,175	-0,259	-0,167
9,444	53,629	-0,353	-0,239
10,459	18,559	-0,349	-0,196
11,473	112,787	-0,259	-0,221
12,488	98,154	-0,279	-0,227
13,502	-38,775	-0,339	-0,125
14,517	44,692	-0,395	-0,255
15,531	149,956	-0,183	-0,175
16,546	32,022	-0,380	-0,230
17,561	179,841	-0,343	-0,354
18,575	-34,566	-0,153	-0,059
19,590	7,646	-0,221	-0,116
20,604	70,632	-0,152	-0,110
21,619	79,687	-0,357	-0,270
22,634	25,763	-0,602	-0,352
23,648	28,516	-0,380	-0,226
24,663	-30,295	-0,532	-0,212
25,677	284,667	-0,223	-0,284
26,692	159,946	-0,195	-0,192
27,707	-58,453	-0,393	-0,119
28,721	5,589	-0,378	-0,196
29,736	47,000	-0,587	-0,384
30,750	15,630	-0,371	-0,204
31,765	90,669	-0,377	-0,297
32,780	114,347	-0,342	-0,293
33,794	134,359	-0,230	-0,210
34,809	-34,831	-0,466	-0,178
35,823	76,349	-0,311	-0,231
36,838	132,888	-0,328	-0,298
37,853	169,750	-0,357	-0,360
38,867	121,261	-0,315	-0,276
39,882	28,567	-0,280	-0,166
40,896	41,115	-0,394	-0,250
41,911	-20,014	-0,372	-0,161
42,926	328,940	-0,302	-0,408
43,940	96,097	-0,366	-0,294
44,955	169,418	-0,331	-0,332
45,969	76,417	-0,373	-0,277
46,984	415,598	-0,215	-0,323
47,999	283,425	-0,205	-0,259
49,013	117,851	-0,333	-0,288
50,028	-33,869	-0,267	-0,103
51,042	133,397	-0,279	-0,253
52,057	105,366	-0,282	-0,234
53,071	-29,290	-0,356	-0,143
54,086	118,902	-0,284	-0,246
55,101	50,665	-0,335	-0,222
56,115	-53,456	-0,551	-0,176
57,130	48,197	-0,412	-0,270
58,144	-73,717	-0,481	-0,122
59,159	80,031	-0,316	-0,238
60,174	155,412	-0,322	-0,311
61,188	-5,147	-0,281	-0,135
62,203	31,398	-0,247	-0,148
63,217	115,189	-0,258	-0,221
64,232	71,806	-0,223	-0,163
65,247	-60,659	-0,261	-0,077
66,261	130,785	-0,354	-0,318
67,276	77,137	-0,293	-0,219
68,290	134,157	-0,293	-0,266
69,305	0,591	-0,255	-0,127
70,320	4,253	-0,382	-0,196
71,334	127,819	-0,217	-0,193
72,349	-91,124	-0,364	-0,073
73,363	123,717	-0,331	-0,291
74,378	58,036	-0,286	-0,196
75,393	0,598	-0,460	-0,230
76,407	203,493	-0,171	-0,185
77,422	263,112	-0,273	-0,333
78,436	86,142	-0,270	-0,208
79,451	132,128	-0,221	-0,200
80,466	-9,992	-0,238	-0,110
81,480	431,434	-0,143	-0,218
82,495	258,497	-0,210	-0,254
83,509	105,099	-0,159	-0,131
84,524	297,568	-0,188	-0,242
85,539	-75,245	-0,274	-0,068
86,553	-86,380	-0,230	-0,049
87,568	104,883	-0,296	-0,244
88,582	-70,888	-0,395	-0,104
89,597	-39,130	-0,163	-0,060
90,611	-73,227	-0,408	-0,104
91,626	103,865	-0,204	-0,168
92,641	404,131	-0,169	-0,250
93,655	-127,961	-0,306	-0,030
94,670	25,661	-0,334	-0,194
95,684	-89,214	-0,405	-0,083
96,699	-43,789	-0,253	-0,089
97,714	219,305	-0,312	-0,350
98,728	58,283	-0,243	-0,167
99,743	-1,631	-0,201	-0,099
100,757	382,775	-0,224	-0,323
101,772	64,242	-0,348	-0,245
102,787	50,460	-0,333	-0,220
103,801	16,680	-0,351	-0,194
104,816	45,813	-0,258	-0,166
105,830	179,181	-0,216	-0,221
106,845	-60,958	-0,233	-0,068
107,860	-0,190	-0,194	-0,096
108,874	32,535	-0,144	-0,087
109,889	359,486	-0,240	-0,337
110,903	-40,665	-0,314	-0,113
111,918	5,963	-0,100	-0,052
112,933	261,619	-0,078	-0,095
113,947	15,530	-0,223	-0,122
114,962	167,255	-0,211	-0,209
115,976	484,277	-0,143	-0,228
116,991	12,802	-0,286	-0,154
118,006	-3,811	-0,276	-0,133
119,020	133,306	-0,275	-0,248
120,035	74,890	-0,194	-0,142
121,049	-99,028	-0,253	0,044
122,064	-22,952	-0,214	-0,090
123,079	-13,798	-0,341	-0,154
124,093	106,250	-0,269	-0,222
125,108	13,702	-0,248	-0,134
126,122	167,748	-0,265	-0,263
127,137	96,193	-0,213	-0,170
128,151	176,565	-0,155	-0,157
129,166	60,749	-0,204	-0,141
130,181	18,898	-0,267	-0,149
131,195	221,352	-0,219	-0,246
132,210	186,330	-0,169	-0,175
133,224	10,513	-0,221	-0,117
134,239	318,945	-0,200	-0,266
135,254	-27,724	-0,131	-0,053
136,268	1,716	-0,226	-0,113
137,283	84,698	-0,242	-0,185
138,297	-28,794	-0,326	-0,130
139,312	32,682	-0,317	-0,191
140,327	171,570	-0,195	-0,195
141,341	56,837	-0,245	-0,166
142,356	168,343	-0,133	-0,132
143,370	24,257	-0,177	-0,102
144,385	185,803	-0,169	-0,176
145,400	-78,980	-0,328	-0,077
146,414	730,198	-0,100	-0,188
147,429	716,124	-0,163	-0,304
148,443	197,298	-0,127	-0,135
149,458	113,952	-0,176	-0,149
150,473	217,276	-0,281	-0,313
151,487	-4,735	-0,202	-0,097
152,502	152,622	-0,270	-0,257
153,516	35,928	-0,237	-0,145
154,531	402,202	-0,154	-0,226
155,546	314,890	-0,194	-0,255
156,560	84,393	-0,285	-0,217
157,575	-59,791	-0,338	-0,100
158,589	167,778	-0,153	-0,152
159,604	92,121	-0,204	-0,160
160,619	180,408	-0,259	-0,265
161,633	-57,652	-0,362	-0,110
162,648	82,077	-0,249	-0,188
163,662	-8,354	-0,231	-0,108
164,677	-7,536	-0,254	-0,119
165,692	-90,950	-0,325	-0,065
166,706	-43,501	-0,208	-0,073
167,721	297,570	-0,187	-0,239
168,735	134,450	-0,184	-0,166
169,750	191,134	-0,222	-0,232
170,764	11,411	-0,271	-0,144
171,779	15,926	-0,179	-0,098
172,794	371,213	-0,145	-0,205
173,808	102,591	-0,160	-0,130
174,823	116,705	-0,219	-0,187
175,837	248,119	-0,179	-0,211
176,852	363,323	-0,181	-0,253
177,867	117,966	-0,172	-0,147
178,881	119,349	-0,173	-0,149
179,896	-64,094	-0,264	-0,074
180,910	94,459	-0,175	-0,138
181,925	432,709	-0,198	-0,300
182,940	-66,549	-0,236	-0,065
183,954	-0,500	-0,298	-0,146
184,969	66,320	-0,199	-0,140
185,983	47,716	-0,186	-0,120
186,998	172,432	-0,193	-0,193
188,013	2,851	-0,129	-0,065
189,027	178,783	-0,219	-0,222
190,042	800,000	-0,157	-0,330
191,056	149,682	-0,144	-0,136
192,071	283,509	-0,156	-0,195
193,086	-45,311	-0,238	-0,081
194,100	38,648	-0,189	-0,117
195,115	123,611	-0,227	-0,198
196,129	91,998	-0,238	-0,186
197,144	66,979	-0,246	-0,174
198,159	88,043	-0,167	-0,128
199,173	658,587	-0,122	-0,218
200,188	87,649	-0,156	-0,119
201,202	-127,889	-0,200	-0,020
202,217	12,475	-0,117	-0,063
203,232	-102,532	-0,230	-0,038
204,246	49,722	-0,258	-0,168
205,261	772,819	-0,103	-0,195
206,275	235,492	-0,159	-0,182
207,290	800,000	-0,081	-0,225
208,304	125,342	-0,169	-0,148
209,319	8,234	-0,162	-0,084
210,334	286,923	-0,153	-0,192
211,348	46,364	-0,188	-0,121
212,363	-18,959	-0,259	-0,111
213,377	81,967	-0,118	-0,088
214,392	-102,882	-0,270	-0,044
215,407	-200,000	-0,062	-0,199
216,421	-200,000	-0,026	-0,196
217,436	212,555	-0,223	-0,244
218,450	-77,370	-0,130	-0,031
219,465	216,360	-0,176	-0,194
220,480	64,883	-0,222	-0,155
221,494	-76,076	-0,191	-0,046
222,509	129,495	-0,167	-0,148
223,523	-72,549	-0,121	-0,031
224,538	23,901	-0,312	-0,178
225,553	439,768	-0,149	-0,225
226,567	183,328	-0,203	-0,208
227,582	-5,043	-0,267	-0,127
228,596	178,509	-0,191	-0,193
229,611	-25,360	-0,165	0,067
230,626	13,733	-0,229	-0,123
231,640	47,714	-0,144	-0,093
232,655	-47,485	-0,149	-0,050
233,669	800,000	-0,068	-0,198
234,684	290,930	-0,148	-0,186
235,699	91,937	-0,099	-0,077
236,713	65,856	-0,177	-0,124
237,728	190,513	-0,215	-0,223
238,742	306,214	-0,128	-0,165
239,757	142,774	-0,099	-0,091
240,772	418,915	-0,232	-0,344
241,786	227,539	-0,187	-0,211
242,801	714,009	-0,129	-0,237
243,815	-58,069	-0,234	-0,070
244,830	112,066	-0,188	-0,157
245,844	-82,951	-0,192	-0,042
246,859	31,763	-0,199	-0,118
247,874	9,821	-0,120	-0,063
248,888	258,173	-0,167	-0,199
249,903	63,594	-0,116	-0,080
250,917	-110,046	-0,009	0,001
251,932	-16,633	-0,343	-0,149
252,947	463,135	-0,107	-0,166
253,961	129,683	-0,180	-0,159
254,976	-19,739	-0,293	-0,124
255,990	-65,316	-0,125	-0,034
257,005	-157,010	-0,134	0,006
258,020	47,517	-0,188	-0,121
259,034	360,853	-0,092	-0,127
260,049	-200,000	-0,055	-0,237
261,063	101,053	-0,148	-0,119
262,078	19,318	-0,189	-0,105
263,093	737,367	-0,130	-0,241
264,107	-200,000	-0,073	-0,245
265,122	-189,839	-0,195	-0,001
266,136	-156,437	-0,211	-0,009
267,151	-109,398	-0,351	-0,051
268,166	497,806	-0,113	-0,180
269,180	-2,027	-0,201	-0,097
270,195	164,477	-0,275	-0,267
271,209	334,648	-0,100	-0,134
272,224	32,089	-0,166	-0,099
273,239	-200,000	-0,004	-0,114
274,253	28,778	-0,134	-0,078
275,268	-200,000	-0,039	-0,179
276,282	-15,008	-0,190	-0,084
277,297	39,446	-0,249	-0,153
278,312	-134,092	-0,223	-0,019
279,326	-115,221	-0,167	-0,021
280,341	389,544	-0,071	-0,102
281,355	-30,326	-0,281	-0,109
282,370	30,740	-0,145	-0,085
283,384	-90,144	-0,190	-0,038
284,399	160,638	-0,125	-0,120
285,414	-176,942	-0,225	0,004
286,428	42,953	-0,197	-0,123
287,443	-69,874	-0,201	0,052
288,457	114,674	-0,193	-0,162
289,472	-37,680	-0,144	-0,052
290,487	39,164	-0,249	-0,153
291,501	-147,240	-0,123	-0,007
292,516	52,275	-0,142	-0,093
293,530	800,000	-0,036	-0,083
294,545	52,958	-0,117	-0,077
295,560	51,548	-0,141	-0,092
296,574	283,134	-0,102	-0,126
297,589	26,438	-0,183	-0,105
298,603	56,674	-0,153	-0,102
299,618	235,624	-0,169	-0,192
300,633	-45,681	-0,101	-0,034
301,647	-104,564	-0,229	-0,036
302,662	346,574	-0,117	-0,159
303,676	-99,116	-0,240	-0,041
304,691	91,813	-0,267	-0,206
305,706	800,000	-0,113	-0,278
306,720	-154,192	-0,122	0,006
307,735	59,278	-0,146	-0,099
308,749	-200,000	0,010	-0,107
309,764	92,694	-0,056	-0,043
310,779	-29,675	-0,069	0,027
311,793	8,022	-0,147	-0,076
312,808	237,588	-0,164	-0,187
313,822	145,875	-0,194	-0,179
314,837	-200,000	-0,008	-0,029
315,852	66,544	-0,148	-0,103
316,866	-51,815	-0,203	-0,064
317,881	-60,631	-0,131	-0,038
318,895	104,928	-0,032	0,026
319,910	85,315	-0,185	-0,139
320,925	36,208	-0,172	-0,104
321,939	158,842	-0,131	-0,125
322,954	704,550	-0,143	-0,260
323,968	61,353	-0,097	-0,066
324,983	67,451	0,047	-0,033
325,997	147,912	-0,145	-0,134
327,012	-200,000	-0,056	-0,202
328,027	158,166	-0,120	-0,114
329,041	191,213	-0,135	-0,139
330,056	800,000	-0,095	-0,245
331,070	590,226	-0,110	-0,187
332,085	155,690	-0,061	0,057
333,100	385,334	-0,080	-0,113
334,114	565,785	-0,100	-0,167
335,129	800,000	-0,038	-0,075
336,143	129,494	-0,197	-0,173
337,158	-200,000	-0,032	-0,126
338,173	52,637	-0,172	-0,112
339,187	-200,000	0,025	-0,150
340,202	337,683	-0,128	-0,171
341,216	800,000	-0,097	-0,249
342,231	135,812	-0,191	-0,170
343,246	298,617	-0,081	-0,102
344,260	-139,044	-0,133	0,010
345,275	800,000	-0,076	-0,153
346,289	231,204	-0,113	-0,126
347,304	187,984	-0,139	-0,142
348,319	172,213	-0,040	-0,039
349,333	254,147	-0,136	-0,160
350,348	243,668	-0,185	-0,213
351,362	610,556	-0,090	-0,154
352,377	-200,000	-0,023	-0,121
353,392	-23,844	-0,167	0,068
354,406	-8,144	-0,071	-0,033
355,421	206,434	1311,610	1398,535
356,435	158,771	1471,916	1399,034
