DTS Sentinel unit serial number:	SN410029Multiplexer serial number:	ORYXHardware model number:	OX2-SRSoftware version number:	ORYX F/W v4,00 Oryx Data Collector v3.7.2.0data status	okinstallation	B3 Nyhavnadifferential loss correction	single-endedforward channel	channel 1reverse channel	N/Adate	2023/11/29time	16:27:30forward acquisition time	300,00reverse acquisition time	0,00gamma	499,1914k internal	0,3209k external	0,3209temperature offset calibration	1,0000default loss term (dB/km)	0,3820temperature slope calibration	1,0000multiplexer offset coefficient	1,0000multiplexer slope coefficient	1,0000fibre end	0,00T internal ref (°C)	11,44T ext. ref 1 (°C)	-3,70T ext. ref 2 (°C)	-3,83length (m)	temperature (°C)	Stokes	anti-Stokes-744,400	607,474	-0,177	-0,322
-743,385	800,000	0,070	0,205
-742,371	-200,000	-0,025	-0,135
-741,356	-200,000	0,022	0,340
-740,342	132,512	-0,196	-0,183
-739,327	-200,000	0,043	0,187
-738,312	72,729	-0,194	-0,147
-737,298	-200,000	-0,043	0,240
-736,283	203,094	-0,236	-0,265
-735,269	-200,000	0,031	0,360
-734,254	123,947	-0,174	-0,159
-733,239	-90,092	-0,187	0,039
-732,225	78,081	-0,268	-0,208
-731,210	-70,813	0,136	0,037
-730,196	-200,000	-0,014	-0,064
-729,181	-33,482	-0,120	-0,048
-728,167	-200,000	-0,005	-0,066
-727,152	-1,511	0,132	-0,067
-726,137	-200,000	-0,016	-0,056
-725,123	29,749	-0,078	-0,048
-724,108	85,170	-0,114	-0,091
-723,094	214,752	-0,062	-0,072
-722,079	-4,583	-0,108	-0,054
-721,064	699,765	0,032	0,062
-720,050	129,441	0,032	0,029
-719,035	144,831	-0,064	0,062
-718,021	-136,025	0,030	-0,003
-717,006	82,610	-0,074	-0,058
-715,991	3,399	0,060	-0,032
-714,977	191,538	-0,068	-0,075
-713,962	-108,214	0,134	0,021
-712,948	-97,911	-0,070	0,013
-711,933	-99,569	0,090	-0,016
-710,918	198,373	-0,073	-0,081
-709,904	324,625	0,064	-0,088
-708,889	-100,436	0,060	0,011
-707,875	-200,000	-0,025	-0,096
-706,860	800,000	0,010	-0,030
-705,845	-200,000	-0,031	0,133
-704,831	93,937	0,077	-0,063
-703,816	-200,000	-0,015	-0,055
-702,802	-200,000	-0,033	-0,120
-701,787	153,287	-0,087	-0,087
-700,772	-200,000	-0,003	-0,029
-699,758	-45,090	0,089	0,032
-698,743	81,664	0,118	0,093
-697,729	-34,459	-0,125	-0,049
-696,714	31,774	-0,059	0,036
-695,699	-22,816	-0,066	-0,029
-694,685	-200,000	-0,000	0,009
-693,670	-100,226	-0,021	0,004
-692,656	-85,208	-0,143	-0,032
-691,641	-195,008	0,135	0,001
-690,627	55,604	0,067	-0,047
-689,612	284,346	-0,104	0,136
-688,597	-86,557	-0,024	0,005
-687,583	257,450	-0,052	-0,064
-686,568	205,814	-0,048	-0,054
-685,554	485,611	0,049	0,081
-684,539	-67,640	0,060	-0,017
-683,524	144,467	0,069	-0,067
-682,510	-119,253	-0,180	0,022
-681,495	129,237	0,087	-0,080
-680,481	533,808	-0,111	-0,191
-679,466	800,000	-0,013	0,036
-678,451	-200,000	-0,011	-0,092
-677,437	-200,000	-0,002	-0,105
-676,422	521,992	-0,054	0,092
-675,408	-149,960	0,057	-0,003
-674,393	-200,000	-0,007	-0,042
-673,378	538,861	0,029	-0,049
-672,364	-97,442	-0,159	-0,030
-671,349	132,396	0,055	-0,051
-670,335	-76,277	0,089	0,023
-669,320	-200,000	0,006	-0,066
-668,305	36,951	0,115	0,074
-667,291	409,718	0,037	-0,057
-666,276	-69,695	-0,106	0,029
-665,262	5,041	0,084	-0,045
-664,247	-67,295	-0,022	-0,006
-663,232	-200,000	-0,003	-0,021
-662,218	329,316	0,078	-0,109
-661,203	-105,036	0,033	0,005
-660,189	-19,094	-0,023	-0,010
-659,174	607,568	0,075	-0,136
-658,159	201,220	-0,033	-0,036
-657,145	800,000	-0,047	0,104
-656,130	-200,000	0,023	-0,075
-655,116	190,734	-0,064	-0,070
-654,101	-7,780	0,109	0,053
-653,086	-200,000	-0,004	0,083
-652,072	346,662	-0,029	0,041
-651,057	-26,727	-0,155	-0,065
-650,043	-51,878	-0,051	-0,017
-649,028	252,514	0,063	-0,077
-648,014	342,458	-0,015	-0,022
-646,999	-200,000	-0,005	-0,032
-645,984	-16,684	0,210	0,096
-644,970	-109,251	-0,073	0,011
-643,955	-49,905	-0,033	0,011
-642,941	373,090	0,042	0,062
-641,926	-96,321	-0,151	-0,029
-640,911	-71,431	0,078	-0,021
-639,897	500,550	0,055	-0,092
-638,882	-63,564	0,076	-0,022
-637,868	76,418	0,095	0,072
-636,853	-30,976	-0,103	-0,042
-635,838	93,332	-0,083	-0,068
-634,824	573,997	0,013	-0,023
-633,809	327,917	-0,033	-0,045
-632,795	-69,189	-0,067	-0,018
-631,780	115,628	-0,075	0,066
-630,765	-93,564	0,039	0,008
-629,751	-200,000	-0,039	-0,190
-628,736	-99,806	-0,104	-0,019
-627,722	-44,722	-0,034	-0,012
-626,707	-200,000	0,022	0,073
-625,692	492,921	0,021	0,036
-624,678	385,389	0,059	0,088
-623,663	29,578	0,065	0,040
-622,649	174,687	-0,053	-0,056
-621,634	209,799	-0,133	-0,151
-620,619	210,006	-0,011	-0,012
-619,605	-200,000	0,018	0,131
-618,590	437,390	0,024	-0,039
-617,576	-89,240	0,098	-0,021
-616,561	-3,298	-0,078	-0,039
-615,546	-5,360	-0,162	0,080
-614,532	800,000	-0,048	-0,103
-613,517	119,714	-0,099	-0,088
-612,503	-200,000	-0,006	-0,126
-611,488	-200,000	0,012	-0,127
-610,474	-200,000	0,011	0,076
-609,459	584,308	-0,012	-0,022
-608,444	-200,000	-0,028	-0,123
-607,430	-96,296	-0,145	0,027
-606,415	-162,679	-0,066	-0,002
-605,401	-200,000	-0,001	0,055
-604,386	502,753	0,036	0,061
-603,371	94,542	-0,122	0,100
-602,357	-47,007	0,046	0,016
-601,342	-59,683	0,106	0,033
-600,328	800,000	0,023	-0,066
-599,313	-94,881	0,045	0,009
-598,298	38,423	-0,086	0,055
-597,284	320,114	0,092	0,126
-596,269	-20,243	0,066	0,029
-595,255	252,304	0,053	-0,065
-594,240	800,000	-0,047	0,124
-593,225	116,337	-0,083	-0,073
-592,211	383,493	-0,018	-0,026
-591,196	-200,000	0,002	-0,014
-590,182	-99,279	0,085	0,015
-589,167	800,000	-0,027	0,084
-588,152	-200,000	0,009	0,130
-587,138	-161,157	0,109	-0,004
-586,123	-200,000	-0,000	-0,032
-585,109	-84,959	0,150	0,034
-584,094	236,460	-0,084	-0,100
-583,079	60,031	-0,049	-0,035
-582,065	-200,000	0,013	-0,050
-581,050	800,000	0,047	-0,103
-580,036	248,484	-0,066	0,081
-579,021	-107,408	-0,072	-0,011
-578,006	14,104	0,034	0,019
-576,992	-98,408	-0,095	0,017
-575,977	-75,423	0,114	0,029
-574,963	37,913	-0,078	-0,050
-573,948	-55,707	-0,106	-0,034
-572,934	800,000	0,022	-0,066
-571,919	800,000	0,047	-0,149
-570,904	-200,000	-0,004	0,013
-569,890	-108,514	0,016	-0,002
-568,875	-87,314	0,122	-0,026
-567,861	-117,479	0,102	-0,013
-566,846	587,193	0,036	0,064
-565,831	800,000	-0,028	0,060
-564,817	-11,405	-0,013	0,006
-563,802	-200,000	-0,019	0,086
-562,788	-17,288	-0,056	0,025
-561,773	-200,000	0,003	0,080
-560,758	46,632	-0,050	0,033
-559,744	-200,000	0,029	0,097
-558,729	116,109	0,018	0,016
-557,715	144,393	-0,067	-0,064
-556,700	-200,000	-0,011	-0,176
-555,685	-200,000	-0,013	-0,063
-554,671	26,695	0,089	0,053
-553,656	-200,000	-0,008	-0,115
-552,642	3,410	0,105	-0,055
-551,627	409,794	0,041	0,063
-550,612	800,000	-0,012	-0,024
-549,598	800,000	-0,025	-0,057
-548,583	-200,000	-0,025	0,082
-547,569	800,000	0,037	-0,076
-546,554	-141,088	0,146	-0,011
-545,539	800,000	0,009	0,026
-544,525	800,000	-0,060	0,126
-543,510	800,000	-0,078	0,177
-542,496	177,750	-0,059	-0,062
-541,481	152,908	-0,110	-0,108
-540,466	-200,000	0,020	-0,125
-539,452	155,719	-0,048	-0,048
-538,437	135,082	0,015	-0,014
-537,423	382,222	0,047	0,070
-536,408	-98,746	0,081	0,015
-535,393	-152,160	-0,117	0,006
-534,379	17,279	0,105	0,060
-533,364	198,076	0,006	-0,007
-532,350	166,179	-0,005	0,005
-531,335	-200,000	0,028	0,199
-530,321	-5,947	-0,048	0,024
-529,306	-200,000	0,008	0,077
-528,291	-117,555	-0,127	0,016
-527,277	-86,618	0,077	-0,017
-526,262	-115,064	0,027	-0,004
-525,248	788,080	-0,029	-0,057
-524,233	92,521	0,066	0,054
-523,218	-200,000	-0,000	0,113
-522,204	54,139	0,035	-0,024
-521,189	-21,268	0,143	0,062
-520,175	100,641	-0,075	0,062
-519,160	-200,000	0,000	0,014
-518,145	-18,340	0,133	0,060
-517,131	-200,000	-0,047	0,180
-516,116	-200,000	0,011	0,037
-515,102	800,000	0,040	0,090
-514,087	7,524	-0,044	0,024
-513,072	-116,170	-0,172	-0,023
-512,058	-170,286	0,137	-0,003
-511,043	57,766	0,043	0,030
-510,029	10,449	-0,040	-0,022
-509,014	-1,302	0,055	0,028
-507,999	-69,327	-0,086	-0,024
-506,985	-10,798	0,044	-0,021
-505,970	-13,201	-0,118	-0,055
-504,956	-185,146	0,250	-0,003
-503,941	800,000	-0,068	-0,139
-502,926	84,813	0,121	0,095
-501,912	-190,851	0,152	-0,001
-500,897	203,573	-0,068	-0,076
-499,883	73,906	-0,065	0,049
-498,868	800,000	0,044	-0,114
-497,853	132,421	-0,141	0,131
-496,839	347,008	0,013	-0,019
-495,824	-200,000	0,003	0,043
-494,810	-200,000	0,005	0,027
-493,795	-200,000	0,018	0,104
-492,781	-200,000	0,018	-0,111
-491,766	462,995	0,040	-0,064
-490,751	-135,610	-0,129	0,011
-489,737	-118,718	0,075	-0,009
-488,722	-164,304	0,031	-0,001
-487,708	-125,886	-0,044	0,005
-486,693	39,716	0,063	0,041
-485,678	-200,000	-0,012	-0,038
-484,664	609,646	-0,028	0,050
-483,649	800,000	-0,028	-0,084
-482,635	74,839	-0,079	-0,060
-481,620	-122,639	-0,063	0,007
-480,605	-68,878	0,212	0,058
-479,591	-20,193	0,069	0,031
-478,576	0,364	-0,057	0,029
-477,562	-200,000	-0,019	0,236
-476,547	-26,433	-0,061	-0,026
-475,532	645,207	0,024	0,045
-474,518	-200,000	-0,012	0,086
-473,503	-200,000	0,015	0,062
-472,489	337,982	0,031	0,044
-471,474	-47,408	0,098	-0,034
-470,459	-14,571	-0,128	-0,059
-469,445	96,350	-0,102	-0,084
-468,430	178,030	0,072	-0,075
-467,416	255,911	-0,060	-0,075
-466,401	800,000	0,028	0,060
-465,386	800,000	-0,002	-0,005
-464,372	-200,000	0,006	0,077
-463,357	666,150	0,064	-0,120
-462,343	-97,494	-0,091	0,017
-461,328	-200,000	0,004	-0,041
-460,313	477,319	0,069	-0,113
-459,299	-200,000	-0,037	0,280
-458,284	-200,000	-0,025	0,089
-457,270	33,160	-0,072	-0,045
-456,255	-61,813	0,184	-0,055
-455,241	-200,000	0,024	0,098
-454,226	14,705	0,030	-0,017
-453,211	-0,814	-0,045	0,023
-452,197	269,577	-0,024	0,031
-451,182	800,000	-0,039	0,115
-450,168	137,919	0,031	-0,029
-449,153	-2,184	-0,075	0,038
-448,138	223,114	-0,062	-0,072
-447,124	188,450	-0,042	0,045
-446,109	800,000	-0,008	0,018
-445,095	55,785	0,060	-0,041
-444,080	211,090	0,015	-0,017
-443,065	179,570	-0,052	-0,055
-442,051	800,000	-0,032	-0,070
-441,036	93,645	-0,059	-0,048
-440,022	526,747	-0,048	-0,081
-439,007	800,000	-0,043	-0,088
-437,992	-200,000	-0,015	-0,070
-436,978	-159,329	0,083	-0,003
-435,963	-102,972	0,176	-0,030
-434,949	335,767	-0,041	0,057
-433,934	-125,970	-0,074	0,008
-432,919	-200,000	0,004	-0,091
-431,905	-200,000	-0,012	-0,119
-430,890	-200,000	-0,019	-0,108
-429,876	430,845	0,042	-0,066
-428,861	45,417	0,155	-0,102
-427,846	-200,000	-0,004	-0,043
-426,832	323,332	-0,085	-0,117
-425,817	-200,000	-0,005	-0,100
-424,803	-4,503	0,078	-0,038
-423,788	163,952	-0,017	-0,017
-422,773	178,561	0,046	0,048
-421,759	39,275	0,071	0,045
-420,744	477,563	-0,060	-0,097
-419,730	800,000	-0,037	-0,101
-418,715	-51,914	-0,095	-0,032
-417,701	800,000	-0,057	-0,160
-416,686	18,082	0,163	0,093
-415,671	39,984	-0,085	-0,055
-414,657	636,663	0,034	-0,063
-413,642	-200,000	0,011	0,207
-412,628	-140,689	0,021	-0,002
-411,613	800,000	-0,070	0,158
-410,598	-137,610	-0,101	-0,008
-409,584	800,000	0,024	-0,054
-408,569	-145,922	0,116	-0,007
-407,555	285,465	-0,069	0,089
-406,540	204,367	-0,097	-0,107
-405,525	-80,628	-0,053	-0,013
-404,511	39,010	-0,076	0,048
-403,496	241,777	0,026	-0,031
-402,482	59,814	-0,131	-0,093
-401,467	-0,765	0,020	0,010
-400,452	-52,211	0,132	-0,043
-399,438	34,353	0,009	-0,006
-398,423	-36,211	-0,212	0,082
-397,409	800,000	-0,023	-0,052
-396,394	466,762	0,024	-0,038
-395,379	740,185	-0,043	0,084
-394,365	800,000	0,042	-0,084
-393,350	800,000	0,062	0,132
-392,336	189,134	-0,066	-0,071
-391,321	117,592	-0,124	-0,110
-390,306	644,166	-0,003	0,006
-389,292	463,588	0,050	0,080
-388,277	-58,725	0,042	0,013
-387,263	94,697	-0,076	-0,062
-386,248	-200,000	0,009	-0,057
-385,233	800,000	-0,056	0,122
-384,219	62,664	0,087	0,062
-383,204	800,000	-0,025	0,054
-382,190	-200,000	0,007	0,060
-381,175	355,678	0,089	-0,126
-380,160	276,502	0,094	0,119
-379,146	-200,000	0,014	0,078
-378,131	553,040	0,095	0,164
-377,117	-200,000	0,053	0,172
-376,102	86,887	0,061	-0,048
-375,088	-38,261	-0,076	0,029
-374,073	729,443	-0,052	0,099
-373,058	-200,000	-0,004	0,073
-372,044	43,808	0,052	0,034
-371,029	272,755	0,017	0,021
-370,015	-200,000	0,012	0,218
-369,000	375,637	-0,099	-0,145
-367,985	290,053	-0,129	-0,168
-366,971	-200,000	-0,003	0,038
-365,956	3,387	0,096	0,050
-364,942	48,007	-0,039	-0,026
-363,927	183,042	-0,030	0,032
-362,912	67,210	-0,094	0,069
-361,898	-59,983	0,115	0,035
-360,883	800,000	-0,043	-0,132
-359,869	-69,098	0,059	-0,016
-358,854	166,910	-0,084	-0,085
-357,839	-129,450	-0,102	-0,010
-356,825	-200,000	-0,013	0,188
-355,810	339,927	-0,064	-0,089
-354,796	-200,000	0,001	-0,150
-353,781	-200,000	0,022	-0,148
-352,766	404,615	0,055	-0,084
-351,752	-40,074	0,025	0,009
-350,737	-200,000	0,029	0,111
-349,723	721,702	-0,036	-0,069
-348,708	-131,589	0,035	0,003
-347,693	588,619	-0,018	0,032
-346,679	800,000	-0,052	-0,130
-345,664	383,524	0,076	0,113
-344,650	-176,024	0,092	0,002
-343,635	-45,328	0,095	0,033
-342,620	-60,750	0,158	-0,048
-341,606	-200,000	-0,007	-0,100
-340,591	-200,000	-0,031	-0,108
-339,577	45,582	-0,104	0,069
-338,562	2,757	0,024	0,012
-337,548	458,261	-0,008	0,013
-336,533	-200,000	0,020	-0,117
-335,518	196,901	0,139	0,152
-334,504	460,634	0,037	0,058
-333,489	-114,023	-0,091	0,012
-332,475	-200,000	0,001	0,049
-331,460	-200,000	0,002	0,134
-330,445	-200,000	0,004	0,014
-329,431	-200,000	-0,016	0,144
-328,416	-98,909	-0,131	-0,023
-327,402	-152,016	0,214	0,011
-326,387	-200,000	0,013	0,058
-325,372	53,717	-0,085	-0,058
-324,358	800,000	-0,048	-0,104
-323,343	48,584	-0,058	-0,039
-322,329	469,901	-0,024	0,039
-321,314	20,666	-0,040	0,023
-320,299	105,541	0,137	-0,116
-319,285	-200,000	-0,002	-0,028
-318,270	71,055	-0,162	-0,120
-317,256	498,429	0,041	-0,068
-316,241	70,128	0,098	0,072
-315,226	-200,000	-0,004	0,023
-314,212	800,000	-0,046	0,093
-313,197	405,825	0,060	0,091
-312,183	442,470	-0,027	0,043
-311,168	19,699	0,041	-0,024
-310,153	800,000	0,052	-0,127
-309,139	-136,147	0,068	0,006
-308,124	-125,721	-0,232	0,025
-307,110	800,000	-0,055	0,112
-306,095	-200,000	-0,016	0,127
-305,080	119,010	-0,133	-0,117
-304,066	389,199	-0,056	0,083
-303,051	800,000	-0,049	-0,123
-302,037	177,890	-0,088	-0,092
-301,022	-92,447	0,059	0,012
-300,008	-200,000	-0,010	0,151
-298,993	800,000	0,057	0,115
-297,978	-200,000	-0,004	0,102
-296,964	28,844	-0,054	-0,033
-295,949	-200,000	0,003	0,055
-294,935	-200,000	-0,027	-0,198
-293,920	557,683	-0,084	-0,146
-292,905	800,000	0,045	0,106
-291,891	509,621	-0,038	0,064
-290,876	-113,428	0,137	0,019
-289,862	-142,929	-0,124	-0,008
-288,847	-200,000	-0,014	0,061
-287,832	800,000	0,049	-0,115
-286,818	-200,000	-0,001	0,020
-285,803	-200,000	0,010	-0,058
-284,789	32,788	-0,131	0,081
-283,774	-48,972	0,068	-0,023
-282,759	-200,000	0,009	-0,054
-281,745	186,227	0,075	0,079
-280,730	3,461	-0,095	-0,049
-279,716	-200,000	-0,003	-0,060
-278,701	622,788	0,023	0,042
-277,686	-28,148	0,081	-0,033
-276,672	168,147	0,024	0,024
-275,657	505,720	0,016	0,026
-274,643	-200,000	-0,006	-0,046
-273,628	-65,150	-0,059	-0,017
-272,613	-71,505	0,095	-0,025
-271,599	282,391	0,063	-0,080
-270,584	486,742	-0,047	0,077
-269,570	-131,007	-0,064	0,006
-268,555	-89,103	-0,112	-0,023
-267,540	-18,337	-0,027	0,012
-266,526	99,480	0,039	-0,032
-265,511	122,741	-0,089	-0,079
-264,497	58,881	-0,082	-0,057
-263,482	197,437	-0,041	-0,045
-262,467	-192,166	0,026	0,000
-261,453	-27,158	0,041	-0,017
-260,438	79,789	-0,097	-0,074
-259,424	-34,560	-0,107	0,042
-258,409	-200,000	0,047	-0,196
-257,395	-200,000	0,035	0,142
-256,380	22,603	0,185	0,107
-255,365	-200,000	-0,015	0,112
-254,351	295,824	0,032	0,042
-253,336	122,850	-0,022	-0,020
-252,322	-162,033	-0,081	-0,003
-251,307	800,000	-0,036	0,073
-250,292	607,568	0,016	-0,029
-249,278	109,230	0,097	0,083
-248,263	-200,000	-0,018	0,118
-247,249	-184,050	0,091	0,001
-246,234	-104,774	0,089	-0,014
-245,219	-10,922	0,088	-0,041
-244,205	23,860	0,046	0,027
-243,190	276,700	0,064	0,081
-242,176	-200,000	0,017	0,118
-241,161	-200,000	0,041	0,154
-240,146	800,000	0,007	-0,018
-239,132	1,627	0,113	0,058
-238,117	297,913	-0,019	0,025
-237,103	-121,706	0,091	-0,011
-236,088	-53,060	-0,039	0,013
-235,073	-30,168	0,096	0,039
-234,059	61,419	0,053	0,037
-233,044	-200,000	0,015	0,095
-232,030	-31,514	0,087	-0,035
-231,015	-200,000	-0,030	-0,121
-230,000	-99,580	0,121	0,021
-228,986	43,841	-0,090	-0,059
-227,971	-42,360	-0,012	0,004
-226,957	-163,686	0,034	-0,001
-225,942	-29,412	0,094	0,038
-224,927	90,244	-0,059	0,047
-223,913	-29,139	0,102	-0,041
-222,898	-107,624	-0,089	0,014
-221,884	210,283	-0,058	0,065
-220,869	109,809	-0,037	-0,031
-219,855	153,137	0,084	-0,082
-218,840	798,074	-0,061	-0,119
-217,825	-30,151	-0,110	0,044
-216,811	-11,937	0,078	-0,036
-215,796	-55,984	-0,101	-0,032
-214,782	-200,000	-0,031	-0,189
-213,767	-9,469	0,080	-0,038
-212,752	-200,000	0,024	0,146
-211,738	-200,000	-0,014	0,103
-210,723	-26,552	0,095	0,039
-209,709	-179,304	-0,067	0,001
-208,694	800,000	0,025	-0,064
-207,679	-36,880	0,061	-0,023
-206,665	69,656	-0,045	-0,033
-205,650	-71,585	-0,025	0,007
-204,636	246,534	0,131	0,157
-203,621	-175,983	-0,091	0,002
-202,606	728,355	-0,056	0,106
-201,592	-53,590	-0,098	-0,032
-200,577	-200,000	-0,038	-0,137
-199,563	638,319	0,048	0,087
-198,548	250,177	-0,043	-0,052
-197,533	-69,082	0,021	0,006
-196,519	26,381	-0,117	0,069
-195,504	-42,982	0,054	-0,019
-194,490	207,385	0,017	0,019
-193,475	-200,000	-0,046	-0,169
-192,460	-118,056	0,093	-0,012
-191,446	-200,000	0,004	0,098
-190,431	-91,168	0,050	-0,010
-189,417	113,995	0,024	-0,021
-188,402	224,003	-0,077	-0,089
-187,387	-200,000	0,024	-0,075
-186,373	-17,294	-0,089	-0,040
-185,358	-56,195	-0,079	-0,025
-184,344	-72,445	0,152	0,040
-183,329	-166,933	0,062	-0,002
-182,315	523,071	-0,021	0,036
-181,300	800,000	-0,045	-0,112
-180,285	738,338	0,056	-0,107
-179,271	-17,905	-0,052	-0,023
-178,256	-200,000	0,037	-0,141
-177,242	-23,562	0,084	0,036
-176,227	-111,352	0,110	-0,016
-175,212	29,685	0,049	-0,030
-174,198	-108,688	0,023	0,004
-173,183	276,651	-0,036	0,045
-172,169	-104,490	-0,014	0,002
-171,154	-136,802	-0,258	-0,021
-170,139	518,341	0,060	0,100
-169,125	-200,000	-0,009	0,044
-168,110	195,243	0,045	-0,049
-167,096	-200,000	-0,040	-0,174
-166,081	800,000	-0,060	-0,119
-165,066	10,004	-0,094	0,050
-164,052	800,000	0,020	0,059
-163,037	-200,000	-0,044	-0,137
-162,023	310,759	0,072	0,096
-161,008	800,000	0,037	0,108
-159,993	267,016	-0,047	0,059
-158,979	256,838	0,048	-0,059
-157,964	667,561	-0,055	-0,102
-156,950	-85,759	0,101	0,022
-155,935	-78,289	0,151	-0,037
-154,920	-176,721	0,039	-0,001
-153,906	-200,000	-0,024	0,131
-152,891	800,000	-0,014	0,031
-151,877	211,296	-0,090	-0,101
-150,862	443,604	-0,078	-0,122
-149,847	800,000	-0,072	0,146
-148,833	25,972	0,038	-0,023
-147,818	800,000	-0,027	0,081
-146,804	-21,516	0,059	0,025
-145,789	16,855	-0,097	-0,054
-144,775	-73,784	-0,036	-0,009
-143,760	63,123	0,052	-0,037
-142,745	800,000	-0,026	-0,069
-141,731	129,163	0,029	0,026
-140,716	-200,000	0,004	-0,040
-139,702	214,134	-0,029	0,032
-138,687	800,000	0,015	0,040
-137,672	-200,000	0,021	0,179
-136,658	14,867	-0,018	0,010
-135,643	-45,998	-0,103	0,036
-134,629	-200,000	-0,007	-0,108
-133,614	800,000	-0,015	-0,046
-132,599	457,399	0,052	0,082
-131,585	135,425	0,106	0,097
-130,570	800,000	0,032	0,079
-129,556	800,000	0,032	0,092
-128,541	220,633	-0,021	-0,024
-127,526	127,664	-0,061	-0,055
-126,512	800,000	-0,047	-0,117
-125,497	741,139	-0,042	0,081
-124,483	52,676	-0,022	0,015
-123,468	578,551	-0,068	0,118
-122,453	-200,000	-0,004	-0,028
-121,439	-3,517	-0,097	0,048
-120,424	800,000	0,055	-0,126
-119,410	439,189	0,092	0,143
-118,395	800,000	-0,049	0,120
-117,380	-93,010	-0,110	0,022
-116,366	-200,000	-0,004	0,071
-115,351	800,000	-0,023	0,059
-114,337	-200,000	-0,007	-0,142
-113,322	800,000	0,069	-0,161
-112,307	255,678	0,064	-0,077
-111,293	800,000	-0,040	0,106
-110,278	749,565	-0,063	0,121
-109,264	-200,000	-0,016	-0,117
-108,249	22,665	0,063	0,036
-107,234	-5,432	-0,031	-0,015
-106,220	76,788	0,110	0,082
-105,205	-56,703	0,055	-0,017
-104,191	-200,000	0,012	-0,082
-103,176	117,054	0,059	0,051
-102,162	-44,778	0,133	0,047
-101,147	176,520	-0,095	0,098
-100,132	800,000	-0,059	-0,171
-99,118	56,206	0,037	-0,026
-98,103	-57,079	0,053	0,016
-97,089	-45,524	-0,079	0,028
-96,074	321,089	0,133	0,180
-95,059	33,563	0,059	0,036
-94,045	-200,000	-0,043	0,153
-93,030	526,008	0,051	0,085
-92,016	800,000	-0,057	0,174
-91,001	-200,000	0,032	0,102
-89,986	-126,713	0,038	0,004
-88,972	747,469	-0,036	0,070
-87,957	104,501	-0,020	0,017
-86,943	67,924	-0,143	-0,104
-85,928	-89,675	-0,009	-0,002
-84,913	-200,000	-0,008	-0,083
-83,899	-93,655	0,057	-0,011
-82,884	557,431	0,068	0,116
-81,870	-102,440	0,020	-0,003
-80,855	-200,000	0,002	0,012
-79,840	3,326	0,107	0,055
-78,826	-200,000	-0,001	0,014
-77,811	526,748	0,024	-0,040
-76,797	800,000	-0,028	-0,060
-75,782	800,000	0,077	-0,162
-74,767	333,716	0,051	0,070
-73,753	-200,000	0,028	-0,094
-72,738	800,000	-0,041	-0,101
-71,724	-130,083	-0,051	-0,005
-70,709	-200,000	-0,018	-0,089
-69,694	26,326	0,100	0,059
-68,680	140,936	0,088	0,083
-67,665	473,662	0,096	0,154
-66,651	-104,720	-0,037	0,006
-65,636	-114,929	0,038	0,005
-64,622	-200,000	-0,019	0,097
-63,607	-7,385	-0,100	-0,048
-62,592	110,960	-0,028	-0,024
-61,578	22,891	-0,084	0,049
-60,563	160,645	0,013	0,013
-59,549	-24,884	-0,052	-0,022
-58,534	10,431	-1,968	-1,056
-57,519	453,243	-1,294	-2,029
-56,505	-200,000	-0,235	-4,234
-55,490	349,131	0,964	1,348
-54,476	800,000	5,190	11,388
-53,461	-200,000	20,514	327,130
-52,446	800,000	752,220	2311,187
-51,432	550,074	1657,726	2818,549
-50,417	74,041	1663,519	1231,530
-49,403	19,262	1536,931	869,116
-48,388	13,292	1459,547	796,471
-47,373	18,757	1449,936	817,437
-46,359	16,079	1439,622	798,841
-45,344	11,545	1435,156	774,739
-44,330	11,467	1433,290	773,328
-43,315	11,492	1431,388	772,392
-42,300	11,548	1429,535	771,626
-41,286	11,502	1428,470	770,802
-40,271	11,451	1427,202	769,848
-39,257	11,482	1425,755	769,180
-38,242	11,468	1424,912	768,630
-37,227	11,503	1423,485	767,998
-36,213	11,505	1422,320	767,346
-35,198	11,519	1421,231	766,792
-34,184	11,577	1420,304	766,540
-33,169	11,494	1419,049	765,438
-32,154	11,553	1418,032	765,137
-31,140	11,530	1416,808	764,339
-30,125	11,578	1415,638	763,904
-29,111	11,552	1414,372	763,067
-28,096	11,603	1413,149	762,616
-27,082	11,472	1412,198	761,458
-26,067	11,497	1411,092	760,950
-25,052	11,495	1410,125	760,389
-24,038	11,441	1409,080	759,541
-23,023	11,471	1407,997	759,070
-22,009	11,457	1407,006	758,440
-20,994	11,426	1406,070	757,758
-19,979	11,471	1405,156	757,448
-18,965	11,448	1404,158	756,771
-17,950	11,436	1403,154	756,143
-16,936	11,427	1402,563	755,751
-15,921	11,320	1401,685	754,754
-14,906	11,379	1400,517	754,369
-13,892	11,411	1399,516	753,948
-12,877	11,376	1398,760	753,347
-11,863	11,388	1397,807	752,862
-10,848	11,347	1396,899	752,153
-9,833	11,323	1396,169	751,617
-8,819	11,258	1395,333	750,838
-7,804	11,278	1394,430	750,413
-6,790	11,322	1393,333	749,997
-5,775	11,306	1392,251	749,308
-4,760	11,297	1391,301	748,729
-3,746	11,216	1390,658	747,978
-2,731	11,293	1389,614	747,740
-1,717	11,292	1388,780	747,259
-0,702	11,229	1387,020	745,991
0,313	15,326	1301,694	718,860
1,327	31,755	694,722	421,116
2,342	49,080	120,838	79,981
3,356	-1,223	16,639	8,268
4,371	-2,060	3,316	1,638
5,386	-12,048	0,730	0,336
6,400	800,000	0,183	0,497
7,415	-125,035	-0,160	-0,017
8,429	-51,227	-0,409	-0,134
9,444	12,237	-0,358	-0,194
10,459	-38,898	-0,226	-0,084
11,473	65,885	-0,282	-0,202
12,488	176,800	-0,197	-0,203
13,502	37,611	-0,269	-0,168
14,517	71,084	-0,302	-0,221
15,531	19,958	-0,417	-0,236
16,546	89,900	-0,266	-0,210
17,561	109,558	-0,327	-0,276
18,575	-43,145	-0,155	-0,055
19,590	6,225	-0,179	-0,093
20,604	129,937	-0,267	-0,241
21,619	-13,024	-0,473	-0,216
22,634	31,442	-0,411	-0,248
23,648	-1,647	-0,382	-0,189
24,663	124,849	-0,344	-0,305
25,677	118,650	-0,344	-0,299
26,692	176,423	-0,232	-0,238
27,707	-41,778	-0,310	-0,111
28,721	32,629	-0,382	-0,232
29,736	93,490	-0,362	-0,289
30,750	97,297	-0,362	-0,292
31,765	12,055	-0,460	-0,248
32,780	32,120	-0,351	-0,213
33,794	-27,295	-0,349	-0,142
34,809	-27,571	-0,403	-0,164
35,823	162,640	-0,320	-0,316
36,838	199,705	-0,277	-0,299
37,853	135,707	-0,266	-0,244
38,867	123,196	-0,420	-0,370
39,882	65,959	-0,335	-0,239
40,896	87,264	-0,324	-0,252
41,911	149,167	-0,193	-0,184
42,926	132,101	-0,305	-0,276
43,940	137,673	-0,394	-0,363
44,955	111,630	-0,385	-0,327
45,969	135,224	-0,400	-0,365
46,984	49,048	-0,352	-0,232
47,999	232,803	-0,195	-0,225
49,013	-38,386	-0,377	-0,140
50,028	-10,034	-0,294	-0,137
51,042	81,872	-0,391	-0,297
52,057	212,540	-0,316	-0,351
53,071	-58,065	-0,454	-0,138
54,086	344,525	-0,171	-0,237
55,101	-118,063	-0,233	-0,029
56,115	293,135	-0,232	-0,298
57,130	125,586	-0,317	-0,281
58,144	-38,450	-0,319	-0,118
59,159	34,447	-0,396	-0,243
60,174	39,650	-0,298	-0,188
61,188	-21,906	-0,434	-0,184
62,203	57,276	-0,382	-0,261
63,217	51,226	-0,371	-0,247
64,232	-112,178	-0,452	-0,063
65,247	-28,911	-0,350	-0,140
66,261	-46,884	-0,429	-0,146
67,276	89,533	-0,369	-0,289
68,290	15,921	-0,282	-0,155
69,305	-50,590	-0,354	-0,116
70,320	-131,773	-0,315	-0,029
71,334	74,389	-0,237	-0,174
72,349	198,618	-0,251	-0,270
73,363	23,872	-0,328	-0,189
74,378	131,893	-0,278	-0,251
75,393	-164,247	-0,455	-0,014
76,407	49,953	-0,244	-0,161
77,422	45,648	-0,212	-0,137
78,436	-145,948	-0,289	-0,018
79,451	57,298	-0,350	-0,239
80,466	-11,176	-0,278	-0,128
81,480	171,743	-0,252	-0,254
82,495	97,098	-0,350	-0,281
83,509	291,663	-0,157	-0,201
84,524	-107,826	-0,276	-0,042
85,539	-22,159	-0,313	-0,133
86,553	46,169	-0,311	-0,202
87,568	58,927	-0,338	-0,232
88,582	4,041	-0,271	-0,139
89,597	-82,752	-0,445	-0,100
90,611	418,740	-0,167	-0,251
91,626	-23,419	-0,188	-0,079
92,641	-119,372	-0,274	0,033
93,655	57,088	-0,205	-0,140
94,670	179,750	-0,306	-0,314
95,684	231,755	-0,210	-0,241
96,699	186,643	-0,313	-0,326
97,714	-6,212	-0,307	-0,146
98,728	781,947	-0,118	-0,228
99,743	182,144	-0,165	-0,170
100,757	-49,741	-0,298	-0,099
101,772	87,769	-0,308	-0,238
102,787	83,829	-0,251	-0,191
103,801	79,209	-0,277	-0,208
104,816	97,215	-0,275	-0,221
105,830	201,313	-0,096	-0,103
106,845	-86,178	-0,327	-0,070
107,860	-24,725	-0,274	-0,114
108,874	15,902	-0,288	-0,158
109,889	-53,095	-0,299	-0,095
110,903	95,233	-0,289	-0,230
111,918	198,647	-0,332	-0,355
112,933	-36,333	-0,309	-0,116
113,947	-169,118	-0,232	0,006
114,962	-132,258	-0,426	-0,038
115,976	106,401	-0,229	-0,190
116,991	105,636	-0,293	-0,242
118,006	426,583	-0,173	-0,261
119,020	35,194	-0,279	-0,171
120,035	-58,023	-0,177	-0,053
121,049	70,276	-0,154	-0,111
122,064	-57,887	-0,318	-0,096
123,079	111,287	-0,218	-0,184
124,093	44,487	-0,265	-0,170
125,108	-90,047	-0,362	-0,073
126,122	161,171	-0,219	-0,214
127,137	145,035	-0,192	-0,180
128,151	-1,240	-0,277	-0,136
129,166	96,853	-0,207	-0,165
130,181	596,467	-0,192	-0,333
131,195	215,566	-0,231	-0,256
132,210	-92,549	-0,267	0,052
133,224	128,182	-0,241	-0,214
134,239	-12,862	-0,286	-0,129
135,254	4,853	-0,289	-0,148
136,268	-2,038	-0,341	-0,166
137,283	21,351	-0,375	-0,212
138,297	110,266	-0,246	-0,206
139,312	232,315	-0,194	-0,222
140,327	202,747	-0,253	-0,273
141,341	111,103	-0,176	-0,148
142,356	25,898	-0,261	-0,152
143,370	148,546	-0,231	-0,218
144,385	-63,911	-0,259	0,073
145,400	-18,150	-0,386	-0,168
146,414	160,717	-0,243	-0,237
147,429	307,865	-0,219	-0,285
148,443	-30,384	-0,331	-0,130
149,458	55,910	-0,255	-0,172
150,473	12,483	-0,367	-0,196
151,487	-55,354	-0,138	-0,043
152,502	57,966	-0,186	-0,126
153,516	242,222	-0,195	-0,227
154,531	249,135	-0,298	-0,353
155,546	31,821	-0,285	-0,171
156,560	193,079	-0,234	-0,246
157,575	476,245	-0,122	-0,193
158,589	-16,671	-0,274	-0,120
159,604	52,407	-0,310	-0,206
160,619	9,461	-0,283	-0,149
161,633	-119,412	-0,204	-0,024
162,648	-82,873	-0,140	-0,031
163,662	113,075	-0,105	-0,088
164,677	-120,167	-0,147	0,017
165,692	128,413	-0,243	-0,215
166,706	-22,142	-0,248	-0,104
167,721	238,156	-0,137	-0,158
168,735	724,199	-0,208	-0,387
169,750	33,941	-0,220	-0,133
170,764	19,427	-0,352	-0,196
171,779	52,544	-0,089	-0,059
172,794	32,522	-0,329	-0,197
173,808	800,000	-0,192	-0,406
174,823	458,619	-0,110	-0,170
175,837	118,929	-0,221	-0,190
176,852	-39,558	-0,349	-0,126
177,867	274,674	-0,145	-0,179
178,881	-46,660	-0,251	-0,085
179,896	95,389	-0,217	-0,172
180,910	114,635	-0,266	-0,225
181,925	79,912	-0,236	-0,176
182,940	323,818	-0,257	-0,341
183,954	233,102	-0,204	-0,233
184,969	386,619	-0,175	-0,252
185,983	-117,507	-0,141	0,017
186,998	117,027	-0,232	-0,198
188,013	-173,757	-0,217	0,004
189,027	4,939	-0,221	-0,113
190,042	800,000	-0,152	-0,294
191,056	192,960	-0,140	-0,147
192,071	41,649	-0,228	-0,143
193,086	-131,646	-0,114	-0,010
194,100	-73,741	-0,163	-0,041
195,115	-200,000	-0,012	-0,106
196,129	66,586	-0,198	-0,140
197,144	-42,721	-0,171	-0,060
198,159	71,202	-0,213	-0,153
199,173	187,594	-0,142	-0,147
200,188	60,943	-0,197	-0,136
201,202	793,599	-0,109	-0,209
202,217	106,613	-0,147	-0,121
203,232	42,322	-0,264	-0,166
204,246	57,158	-0,184	-0,124
205,261	11,298	-0,188	-0,100
206,275	263,264	-0,173	-0,209
207,290	518,812	-0,145	-0,236
208,304	-26,429	-0,139	-0,056
209,319	-71,901	-0,138	-0,035
210,334	-79,077	-0,259	-0,061
211,348	-66,097	-0,296	-0,081
212,363	-43,266	-0,265	-0,092
213,377	75,067	-0,232	-0,169
214,392	4,532	-0,198	-0,100
215,407	-80,868	-0,065	-0,015
216,421	212,068	-0,057	0,062
217,436	192,799	-0,129	-0,135
218,450	519,912	-0,085	-0,139
219,465	350,517	-0,105	-0,144
220,480	310,382	-0,138	-0,179
221,494	111,089	-0,235	-0,196
222,509	-54,440	-0,202	-0,063
223,523	67,185	-0,265	-0,187
224,538	42,533	-0,253	-0,159
225,553	478,522	-0,106	-0,167
226,567	27,290	-0,164	-0,095
227,582	48,640	-0,292	-0,189
228,596	-48,624	-0,173	-0,057
229,611	-116,261	-0,070	-0,009
230,626	246,798	-0,172	-0,201
231,640	800,000	-0,065	-0,151
232,655	196,308	-0,227	-0,239
233,669	79,402	-0,264	-0,196
234,684	118,902	-0,238	-0,203
235,699	392,963	-0,177	-0,256
236,713	102,506	-0,143	-0,116
237,728	142,165	-0,117	-0,107
238,742	-158,377	-0,124	-0,005
239,757	0,134	-0,186	-0,091
240,772	-47,435	-0,272	-0,091
241,786	800,000	-0,130	-0,269
242,801	-16,507	-0,080	-0,035
243,815	31,685	-0,142	-0,084
244,830	236,942	-0,179	-0,205
245,844	144,494	-0,265	-0,244
246,859	76,023	-0,136	-0,099
247,874	198,194	-0,165	-0,174
248,888	800,000	-0,135	-0,285
249,903	184,264	-0,120	-0,122
250,917	122,011	-0,193	-0,166
251,932	-200,000	-0,033	-0,172
252,947	-2,078	-0,190	-0,092
253,961	248,331	-0,138	-0,162
254,976	7,419	-0,216	-0,111
255,990	240,445	-0,182	-0,209
257,005	-200,000	-0,054	-0,249
258,020	89,020	-0,181	-0,139
259,034	388,349	-0,153	-0,218
260,049	45,725	-0,162	-0,103
261,063	187,683	-0,140	-0,145
262,078	15,861	-0,323	-0,175
263,093	26,081	-0,138	-0,080
264,107	116,534	-0,136	-0,115
265,122	-72,143	-0,061	-0,015
266,136	111,044	-0,061	-0,051
267,151	206,156	-0,149	-0,160
268,166	62,654	-0,243	-0,167
269,180	-65,477	-0,303	-0,083
270,195	12,699	-0,172	-0,091
271,209	800,000	-0,074	-0,155
272,224	28,106	-0,118	-0,069
273,239	-200,000	0,000	-0,080
274,253	41,061	-0,129	-0,080
275,268	17,581	-0,108	-0,059
276,282	800,000	-0,118	-0,255
277,297	55,329	-0,146	-0,097
278,312	39,803	-0,177	-0,110
279,326	151,616	-0,166	-0,156
280,341	509,796	-0,109	-0,175
281,355	68,106	-0,193	-0,136
282,370	-18,089	-0,273	-0,117
283,384	-148,268	-0,128	-0,007
284,399	161,669	-0,154	-0,149
285,414	-200,000	-0,107	-0,364
286,428	800,000	-0,058	-0,154
287,443	66,276	-0,115	0,080
288,457	86,422	-0,209	-0,158
289,472	50,998	-0,154	-0,100
290,487	359,338	-0,093	-0,128
291,501	547,455	-0,134	-0,221
292,516	540,022	-0,094	-0,154
293,530	567,463	-0,097	-0,163
294,545	-67,281	-0,169	-0,045
295,560	-200,000	0,002	-0,033
296,574	800,000	-0,013	-0,026
297,589	-5,875	-0,155	-0,073
298,603	-85,185	-0,172	0,037
299,618	288,209	-0,090	-0,112
300,633	-200,000	-0,069	-0,218
301,647	374,617	-0,106	-0,149
302,662	199,722	-0,146	-0,154
303,676	83,155	-0,108	-0,081
304,691	-200,000	-0,075	-0,297
305,706	10,124	-0,236	-0,123
306,720	-71,176	-0,238	-0,061
307,735	-9,310	-0,196	-0,090
308,749	-200,000	-0,051	-0,206
309,764	342,409	-0,115	-0,155
310,779	-55,107	-0,199	-0,061
311,793	800,000	-0,099	-0,245
312,808	51,159	-0,178	-0,116
313,822	800,000	-0,073	-0,210
314,837	800,000	-0,040	-0,100
315,852	104,647	-0,115	-0,093
316,866	576,462	-0,097	-0,163
317,881	-79,770	-0,157	-0,036
318,895	-114,358	-0,191	0,025
319,910	800,000	-0,050	-0,138
320,925	341,623	-0,117	-0,158
321,939	26,969	-0,122	-0,070
322,954	425,167	-0,122	-0,180
323,968	-177,577	-0,069	-0,001
324,983	-132,338	-0,155	0,014
325,997	-117,958	-0,249	-0,030
327,012	551,348	-0,112	-0,186
328,027	127,849	-0,184	-0,161
329,041	177,623	-0,108	-0,108
330,056	90,983	-0,094	-0,072
331,070	193,961	-0,077	-0,080
332,085	103,811	-0,147	-0,118
333,100	-200,000	-0,015	-0,110
334,114	184,394	-0,055	0,056
335,129	-56,789	-0,157	-0,047
336,143	-115,057	-0,172	-0,022
337,158	-94,421	-0,090	-0,017
338,173	-87,960	-0,165	-0,034
339,187	800,000	-0,072	-0,161
340,202	-12,092	-0,173	-0,077
341,216	-18,369	-0,175	-0,075
342,231	800,000	-0,082	-0,240
343,246	-152,301	-0,056	-0,003
344,260	-2,615	-0,107	-0,051
345,275	-65,222	-0,150	0,041
346,289	-22,067	-0,153	-0,063
347,304	186,049	-0,153	-0,156
348,319	339,609	-0,114	-0,153
349,333	-93,685	-0,102	0,019
350,348	126,635	-0,180	-0,156
351,362	-16,276	-0,183	-0,079
352,377	54,988	-0,104	0,069
353,392	238,041	-0,140	-0,159
354,406	-30,235	-0,140	-0,054
355,421	208,596	1307,167	1400,881
356,435	160,515	1466,961	1401,378
