DTS Sentinel unit serial number:	SN410029Multiplexer serial number:	ORYXHardware model number:	OX2-SRSoftware version number:	ORYX F/W v4,00 Oryx Data Collector v3.7.2.0data status	okinstallation	B3 Nyhavnadifferential loss correction	single-endedforward channel	channel 1reverse channel	N/Adate	2023/12/04time	07:07:30forward acquisition time	300,00reverse acquisition time	0,00gamma	499,1914k internal	0,3206k external	0,3206temperature offset calibration	1,0000default loss term (dB/km)	0,3820temperature slope calibration	1,0000multiplexer offset coefficient	1,0000multiplexer slope coefficient	1,0000fibre end	0,00T internal ref (°C)	12,15T ext. ref 1 (°C)	-2,45T ext. ref 2 (°C)	-2,49length (m)	temperature (°C)	Stokes	anti-Stokes-744,400	7,709	-0,288	-0,156
-743,385	-200,000	-0,018	0,330
-742,371	-41,281	-0,160	-0,059
-741,356	209,134	0,160	0,183
-740,342	-200,000	-0,047	-0,200
-739,327	-200,000	-0,086	0,282
-738,312	174,709	-0,188	-0,197
-737,298	-200,000	-0,066	0,265
-736,283	173,017	-0,327	-0,343
-735,269	-200,000	-0,009	0,357
-734,254	-41,546	-0,281	-0,104
-733,239	-39,692	-0,243	0,092
-732,225	-200,000	-0,066	-0,268
-731,210	-78,985	0,123	0,030
-730,196	46,357	0,009	0,006
-729,181	146,626	-0,023	-0,022
-728,167	-45,262	0,114	0,041
-727,152	-200,000	-0,005	-0,097
-726,137	800,000	0,034	-0,092
-725,123	-200,000	-0,051	0,188
-724,108	-34,547	-0,052	-0,020
-723,094	563,671	-0,083	0,146
-722,079	15,316	-0,096	-0,055
-721,064	-200,000	-0,050	-0,169
-720,050	-200,000	-0,013	0,072
-719,035	291,986	-0,051	0,068
-718,021	-128,557	-0,072	-0,007
-717,006	-65,952	-0,071	-0,020
-715,991	798,799	0,063	-0,126
-714,977	6,578	0,074	-0,040
-713,962	800,000	-0,047	0,130
-712,948	-200,000	-0,019	0,107
-711,933	-200,000	0,016	0,080
-710,918	-200,000	-0,002	0,096
-709,904	195,917	-0,073	0,080
-708,889	170,434	-0,077	0,080
-707,875	38,718	-0,091	-0,059
-706,860	54,060	-0,018	0,013
-705,845	-26,645	0,178	-0,075
-704,831	41,747	0,039	0,026
-703,816	-200,000	-0,021	-0,076
-702,802	-12,401	-0,101	-0,048
-701,787	-200,000	0,049	-0,180
-700,772	564,039	0,067	-0,117
-699,758	38,607	0,074	-0,048
-698,743	222,632	-0,071	-0,083
-697,729	-31,036	0,048	-0,019
-696,714	800,000	-0,049	0,134
-695,699	-87,992	0,062	-0,013
-694,685	-200,000	0,064	0,000
-693,670	800,000	-0,024	-0,057
-692,656	-174,057	0,042	0,001
-691,641	-125,479	0,042	-0,005
-690,627	174,578	0,075	0,079
-689,612	322,654	0,091	0,125
-688,597	60,688	-0,139	-0,100
-687,583	52,930	0,012	-0,008
-686,568	93,942	-0,022	0,018
-685,554	-200,000	-0,004	0,059
-684,539	-108,311	-0,098	0,015
-683,524	-109,163	0,060	-0,009
-682,510	163,976	0,088	0,090
-681,495	-7,729	0,004	0,002
-680,481	85,986	-0,077	-0,061
-679,466	-111,426	-0,123	0,018
-678,451	153,389	0,029	-0,029
-677,437	-72,497	-0,083	-0,022
-676,422	-33,561	-0,043	-0,017
-675,408	-171,378	0,159	0,004
-674,393	164,197	-0,036	0,037
-673,378	-200,000	-0,001	0,003
-672,364	-200,000	-0,005	-0,026
-671,349	-52,302	-0,165	0,055
-670,335	-145,216	-0,010	-0,001
-669,320	-16,866	0,175	-0,080
-668,305	-200,000	0,043	0,137
-667,291	59,313	-0,135	0,096
-666,276	-200,000	-0,020	-0,077
-665,262	172,729	0,031	-0,033
-664,247	55,656	-0,023	0,016
-663,232	-131,380	0,152	-0,014
-662,218	-119,451	-0,103	0,013
-661,203	-70,168	0,049	-0,013
-660,189	422,279	0,072	0,112
-659,174	-45,077	-0,099	-0,035
-658,159	-96,307	-0,184	0,035
-657,145	283,811	0,095	-0,124
-656,130	17,405	-0,090	-0,051
-655,116	95,839	0,046	0,038
-654,101	-95,401	0,084	0,016
-653,086	-200,000	0,030	0,262
-652,072	24,278	-0,023	-0,014
-651,057	-24,766	-0,071	0,030
-650,043	-80,200	-0,083	-0,020
-649,028	6,168	-0,099	0,053
-648,014	-200,000	0,000	-0,062
-646,999	463,734	0,050	-0,081
-645,984	407,749	0,034	-0,053
-644,970	-100,272	-0,185	-0,033
-643,955	82,198	-0,088	-0,069
-642,941	-200,000	0,002	-0,046
-641,926	-189,897	0,151	0,001
-640,911	-166,405	-0,094	0,003
-639,897	73,184	0,167	0,126
-638,882	-71,064	0,121	0,033
-637,868	-200,000	0,088	0,000
-636,853	692,446	-0,077	-0,147
-635,838	350,282	-0,056	-0,081
-634,824	-44,351	-0,110	-0,040
-633,809	-200,000	-0,011	0,243
-632,795	-152,377	-0,104	-0,005
-631,780	565,140	-0,068	0,120
-630,765	509,545	-0,092	0,155
-629,751	-200,000	-0,024	0,095
-628,736	-200,000	-0,013	0,054
-627,722	268,291	0,040	0,050
-626,707	-138,573	0,107	-0,008
-625,692	450,643	-0,063	-0,100
-624,678	-80,391	-0,042	0,010
-623,663	142,643	-0,017	-0,016
-622,649	282,561	0,037	0,048
-621,634	-153,889	-0,080	0,004
-620,619	131,240	-0,055	0,051
-619,605	-61,455	0,089	0,027
-618,590	-0,062	-0,068	0,035
-617,576	-200,000	0,007	0,169
-616,561	87,352	0,022	-0,018
-615,546	-200,000	-0,009	0,080
-614,532	-170,979	0,135	-0,003
-613,517	27,180	-0,059	0,036
-612,503	800,000	0,035	-0,104
-611,488	-49,703	0,063	0,021
-610,474	-39,540	0,064	-0,024
-609,459	-50,912	0,073	0,025
-608,444	-122,439	-0,178	0,021
-607,430	11,178	0,091	-0,050
-606,415	-48,166	0,035	-0,012
-605,401	-79,014	0,045	0,011
-604,386	-126,307	-0,141	0,015
-603,371	-90,597	0,122	0,025
-602,357	184,011	-0,038	0,040
-601,342	258,549	-0,052	0,065
-600,328	-176,551	0,043	-0,001
-599,313	341,287	-0,136	-0,193
-598,298	114,130	-0,047	-0,042
-597,284	306,592	-0,030	0,041
-596,269	462,400	-0,035	-0,057
-595,255	413,537	0,063	0,096
-594,240	-130,469	-0,106	0,010
-593,225	-200,000	0,002	-0,189
-592,211	-136,906	-0,038	0,003
-591,196	446,274	-0,035	-0,055
-590,182	800,000	-0,047	-0,103
-589,167	-148,201	0,037	-0,002
-588,152	-25,057	0,184	-0,078
-587,138	373,322	-0,006	0,008
-586,123	-137,811	-0,084	-0,007
-585,109	642,124	-0,051	-0,094
-584,094	126,107	0,057	-0,052
-583,079	-70,528	0,121	0,033
-582,065	800,000	0,051	0,130
-581,050	494,311	-0,026	0,043
-580,036	663,363	0,019	0,036
-579,021	-200,000	-0,007	-0,029
-578,006	800,000	0,023	0,070
-576,992	454,175	-0,054	0,086
-575,977	-200,000	0,009	0,166
-574,963	55,253	0,035	-0,024
-573,948	-200,000	-0,010	-0,036
-572,934	-27,723	0,119	-0,049
-571,919	141,664	-0,155	-0,149
-570,904	-109,649	-0,139	0,021
-569,890	172,253	-0,087	-0,090
-568,875	348,296	-0,089	-0,127
-567,861	83,985	0,142	0,112
-566,846	212,425	0,084	0,096
-565,831	64,003	-0,048	0,035
-564,817	-144,328	-0,003	0,000
-563,802	-200,000	-0,011	0,042
-562,788	145,947	-0,110	-0,107
-561,773	-33,251	0,209	0,083
-560,758	-200,000	-0,009	0,049
-559,744	-200,000	0,007	0,120
-558,729	-2,756	0,028	0,014
-557,715	-56,936	0,060	0,019
-556,700	-200,000	0,001	-0,133
-555,685	495,449	-0,006	-0,010
-554,671	342,339	-0,073	-0,104
-553,656	96,357	0,034	0,028
-552,642	-200,000	-0,057	-0,180
-551,627	-200,000	-0,010	-0,085
-550,612	99,837	-0,110	-0,092
-549,598	-200,000	-0,017	-0,101
-548,583	-200,000	0,026	-0,171
-547,569	122,982	-0,080	-0,072
-546,554	117,566	0,032	-0,028
-545,539	800,000	0,078	0,206
-544,525	51,212	-0,041	0,028
-543,510	-200,000	-0,004	0,060
-542,496	54,802	-0,063	0,044
-541,481	800,000	0,022	-0,060
-540,466	-38,829	-0,060	-0,023
-539,452	-2,508	-0,058	0,029
-538,437	-200,000	0,009	-0,050
-537,423	2,209	0,023	0,012
-536,408	-14,369	0,042	0,020
-535,393	94,344	0,106	0,087
-534,379	184,910	0,038	0,040
-533,364	800,000	-0,016	-0,039
-532,350	-200,000	0,029	0,125
-531,335	54,386	0,044	-0,030
-530,321	116,203	0,062	-0,055
-529,306	-77,969	0,063	0,015
-528,291	-62,322	-0,118	0,035
-527,277	39,575	0,080	-0,051
-526,262	-54,328	-0,037	0,012
-525,248	26,033	-0,047	0,028
-524,233	-11,960	0,101	0,047
-523,218	55,446	-0,097	0,067
-522,204	-200,000	0,017	0,095
-521,189	-74,919	0,112	0,029
-520,175	293,616	-0,105	-0,138
-519,160	244,663	-0,052	-0,063
-518,145	-35,588	0,163	0,063
-517,131	40,443	-0,023	0,015
-516,116	39,013	0,047	-0,030
-515,102	558,721	-0,040	0,070
-514,087	190,009	0,038	-0,041
-513,072	-200,000	0,008	-0,119
-512,058	662,105	0,032	-0,060
-511,043	449,497	-0,065	-0,103
-510,029	-200,000	0,025	0,122
-509,014	135,940	0,180	0,169
-507,999	800,000	-0,020	0,063
-506,985	74,177	-0,067	0,050
-505,970	-111,405	-0,042	-0,006
-504,956	132,671	0,008	-0,007
-503,941	-14,019	-0,050	0,023
-502,926	-25,246	0,130	-0,055
-501,912	49,561	0,103	0,070
-500,897	339,168	-0,062	0,087
-499,883	120,574	-0,069	-0,062
-498,868	492,773	0,023	0,037
-497,853	-58,011	0,141	-0,044
-496,839	-200,000	0,042	-0,135
-495,824	-5,740	0,064	0,032
-494,810	-188,407	0,022	0,000
-493,795	-114,849	0,182	-0,025
-492,781	544,842	-0,080	-0,137
-491,766	-200,000	-0,016	-0,117
-490,751	800,000	-0,033	-0,101
-489,737	173,405	-0,046	0,047
-488,722	800,000	-0,045	0,105
-487,708	-1,837	0,075	-0,038
-486,693	800,000	0,034	0,075
-485,678	-139,706	0,092	-0,007
-484,664	307,805	-0,006	-0,008
-483,649	-200,000	-0,012	-0,045
-482,635	-167,714	-0,088	0,002
-481,620	293,062	0,051	-0,067
-480,605	153,153	-0,042	-0,042
-479,591	-43,820	0,117	0,042
-478,576	-117,300	0,074	0,010
-477,562	-200,000	-0,016	0,069
-476,547	-91,661	-0,083	-0,017
-475,532	800,000	-0,041	0,126
-474,518	-98,797	-0,075	0,014
-473,503	-110,844	-0,012	0,002
-472,489	257,585	-0,007	0,009
-471,474	102,464	0,030	0,025
-470,459	188,987	0,092	-0,099
-469,445	-200,000	0,012	-0,092
-468,430	800,000	0,041	-0,089
-467,416	-158,485	-0,162	0,007
-466,401	175,212	-0,094	0,098
-465,386	-200,000	0,011	0,053
-464,372	-3,910	-0,111	0,055
-463,357	21,217	0,094	-0,055
-462,343	283,313	-0,075	-0,098
-461,328	-200,000	0,007	-0,029
-460,313	436,893	0,055	0,086
-459,299	800,000	-0,036	0,098
-458,284	158,155	-0,053	0,053
-457,270	339,897	-0,078	0,110
-456,255	-66,065	0,106	-0,030
-455,241	-177,466	0,158	0,003
-454,226	800,000	-0,039	-0,090
-453,211	2,862	-0,141	0,073
-452,197	294,177	-0,042	-0,055
-451,182	106,463	0,156	0,133
-450,168	-200,000	-0,004	-0,057
-449,153	121,836	-0,051	0,045
-448,138	205,981	-0,110	-0,123
-447,124	-200,000	-0,012	0,056
-446,109	-27,290	-0,027	0,011
-445,095	-200,000	-0,018	0,101
-444,080	800,000	0,058	0,166
-443,065	-200,000	0,029	-0,143
-442,051	-22,935	-0,046	0,020
-441,036	21,600	-0,095	0,055
-440,022	-40,916	0,068	-0,025
-439,007	151,424	-0,054	-0,053
-437,992	351,256	-0,041	0,058
-436,978	-131,341	0,123	-0,012
-435,963	444,707	0,056	0,088
-434,949	-200,000	-0,003	0,084
-433,934	-60,338	-0,065	0,020
-432,919	-200,000	0,025	0,122
-431,905	-31,164	-0,060	0,024
-430,890	800,000	-0,025	0,053
-429,876	800,000	-0,028	0,087
-428,861	-200,000	-0,002	0,157
-427,846	469,822	-0,010	0,017
-426,832	197,696	0,073	-0,081
-425,817	800,000	0,025	-0,059
-424,803	167,146	-0,095	-0,097
-423,788	-200,000	-0,020	0,108
-422,773	-130,459	0,073	0,007
-421,759	234,382	0,044	-0,052
-420,744	78,442	-0,044	-0,034
-419,730	-200,000	-0,005	-0,080
-418,715	-104,178	-0,159	-0,026
-417,701	99,967	0,105	-0,088
-416,686	-91,829	0,043	-0,009
-415,671	563,372	0,071	0,124
-414,657	-29,175	0,061	0,025
-413,642	-136,107	0,079	0,007
-412,628	-200,000	-0,019	-0,082
-411,613	-200,000	-0,018	-0,072
-410,598	-173,439	0,036	0,001
-409,584	-54,342	0,033	0,011
-408,569	-200,000	0,008	0,033
-407,555	70,016	0,075	-0,055
-406,540	-200,000	0,009	0,037
-405,525	-102,824	0,097	-0,016
-404,511	-200,000	-0,013	-0,291
-403,496	154,806	-0,039	-0,039
-402,482	800,000	0,008	0,021
-401,467	-200,000	0,039	0,170
-400,452	91,769	0,093	0,075
-399,438	-15,562	-0,034	0,015
-398,423	41,667	-0,078	-0,050
-397,409	425,757	0,038	-0,058
-396,394	1,391	-0,118	0,060
-395,379	360,691	0,099	0,143
-394,365	-200,000	-0,022	0,119
-393,350	-200,000	-0,017	0,109
-392,336	-200,000	0,013	0,145
-391,321	100,983	-0,041	-0,034
-390,306	-120,145	0,048	0,006
-389,292	233,246	0,007	0,008
-388,277	103,981	-0,081	0,068
-387,263	755,177	-0,086	0,168
-386,248	308,649	0,052	0,070
-385,233	-200,000	0,018	0,080
-384,219	9,204	-0,107	-0,058
-383,204	381,300	-0,148	-0,218
-382,190	-200,000	-0,003	-0,109
-381,175	-200,000	-0,013	-0,099
-380,160	800,000	0,048	-0,099
-379,146	742,908	-0,049	0,095
-378,131	-200,000	-0,016	0,069
-377,117	-82,878	0,165	0,038
-376,102	-25,321	-0,047	-0,020
-375,088	-15,878	-0,078	-0,035
-374,073	-200,000	-0,024	-0,098
-373,058	257,958	0,062	0,077
-372,044	90,350	0,163	0,130
-371,029	-200,000	0,019	0,156
-370,015	-34,130	-0,200	0,078
-369,000	647,864	-0,030	-0,055
-367,985	-200,000	-0,020	-0,229
-366,971	800,000	0,037	-0,075
-365,956	-200,000	-0,007	0,129
-364,942	285,907	0,076	0,098
-363,927	-58,483	0,098	0,030
-362,912	-40,029	-0,303	0,113
-361,898	-116,180	0,039	-0,005
-360,883	79,297	-0,093	-0,072
-359,869	37,730	-0,046	-0,029
-358,854	98,622	-0,086	-0,071
-357,839	81,782	-0,117	0,091
-356,825	-200,000	-0,009	-0,053
-355,810	410,224	0,055	0,083
-354,796	-116,906	-0,209	0,027
-353,781	-21,302	0,144	0,063
-352,766	10,379	-0,060	-0,033
-351,752	8,221	-0,155	0,083
-350,737	426,114	0,017	0,027
-349,723	-200,000	-0,012	0,083
-348,708	752,446	-0,038	-0,073
-347,693	222,676	-0,044	-0,051
-346,679	-105,883	0,151	0,024
-345,664	37,978	-0,143	-0,091
-344,650	-90,342	0,126	0,026
-343,635	182,440	0,059	0,062
-342,620	-25,312	0,140	0,059
-341,606	-67,108	-0,099	0,028
-340,591	-200,000	-0,002	0,044
-339,577	66,870	-0,130	0,095
-338,562	506,648	0,004	0,007
-337,548	-48,733	-0,021	-0,007
-336,533	158,590	0,052	-0,051
-335,518	67,742	-0,075	-0,055
-334,504	579,561	-0,022	0,039
-333,489	-129,778	-0,087	0,008
-332,475	800,000	0,019	-0,058
-331,460	113,012	-0,196	-0,170
-330,445	800,000	0,016	-0,049
-329,431	38,539	0,046	-0,029
-328,416	-200,000	0,006	0,078
-327,402	238,104	0,140	0,166
-326,387	-63,883	-0,112	0,032
-325,372	79,961	-0,072	0,056
-324,358	-200,000	0,065	-0,000
-323,343	60,282	0,101	-0,071
-322,329	246,388	0,081	0,097
-321,314	-200,000	-0,006	0,047
-320,299	-81,713	-0,212	-0,049
-319,285	25,384	-0,158	-0,094
-318,270	315,922	0,055	-0,074
-317,256	-200,000	0,011	-0,258
-316,241	-200,000	-0,000	0,009
-315,226	-200,000	-0,010	0,080
-314,212	16,333	0,077	-0,043
-313,197	128,482	0,019	-0,017
-312,183	-200,000	-0,005	0,026
-311,168	56,296	0,067	-0,047
-310,153	-200,000	-0,035	-0,118
-309,139	-104,145	0,131	-0,022
-308,124	756,038	0,064	0,125
-307,110	800,000	0,003	-0,006
-306,095	493,487	0,060	0,098
-305,080	-113,571	0,055	0,008
-304,066	800,000	0,041	0,090
-303,051	287,617	-0,057	-0,074
-302,037	335,816	-0,069	-0,096
-301,022	-130,119	0,121	0,012
-300,008	-200,000	0,008	-0,030
-298,993	141,018	0,117	0,111
-297,978	-93,512	0,073	-0,014
-296,964	34,105	-0,116	0,072
-295,949	234,489	0,061	0,071
-294,935	-200,000	0,026	-0,115
-293,920	117,261	0,062	-0,054
-292,905	-200,000	-0,010	0,072
-291,891	-57,140	0,156	-0,049
-290,876	800,000	0,049	0,114
-289,862	-99,916	-0,100	-0,018
-288,847	498,419	-0,051	-0,084
-287,832	64,412	-0,083	-0,059
-286,818	-0,545	0,103	-0,052
-285,803	800,000	0,017	0,044
-284,789	19,982	0,136	-0,078
-283,774	-54,194	-0,093	-0,030
-282,759	-77,551	-0,073	-0,018
-281,745	-200,000	0,013	-0,055
-280,730	-6,361	-0,129	-0,062
-279,716	-200,000	0,006	-0,170
-278,701	105,306	0,075	-0,063
-277,686	800,000	-0,026	-0,072
-276,672	800,000	0,017	0,036
-275,657	-147,014	0,061	-0,004
-274,643	-200,000	-0,024	-0,115
-273,628	39,397	0,059	0,037
-272,613	276,252	0,024	-0,031
-271,599	109,854	-0,088	-0,075
-270,584	-200,000	0,028	0,092
-269,570	-56,091	-0,023	0,007
-268,555	70,747	0,053	-0,039
-267,540	-200,000	-0,006	0,023
-266,526	-200,000	-0,002	-0,042
-265,511	800,000	0,060	0,139
-264,497	22,502	0,051	-0,030
-263,482	-78,735	0,188	-0,045
-262,467	18,198	-0,107	0,061
-261,453	105,162	0,007	0,006
-260,438	264,663	0,035	0,044
-259,424	15,414	-0,066	-0,037
-258,409	49,318	-0,053	-0,035
-257,395	-200,000	0,013	-0,056
-256,380	33,060	0,078	-0,048
-255,365	137,080	0,164	0,153
-254,351	-200,000	0,006	0,101
-253,336	-26,753	-0,114	-0,047
-252,322	16,259	-0,028	-0,016
-251,307	100,740	0,120	-0,100
-250,292	255,930	0,062	-0,076
-249,278	-53,198	-0,052	-0,017
-248,263	-200,000	-0,007	-0,100
-247,249	58,548	-0,062	0,043
-246,234	-200,000	-0,005	0,034
-245,219	643,374	0,076	-0,139
-244,205	-18,828	0,072	0,032
-243,190	57,742	-0,095	0,066
-242,176	-200,000	-0,005	0,047
-241,161	650,151	0,092	0,168
-240,146	-73,508	-0,086	0,022
-239,132	-64,405	0,028	0,008
-238,117	-77,992	0,040	0,010
-237,103	800,000	-0,028	-0,067
-236,088	-6,093	0,052	0,025
-235,073	80,331	0,124	-0,095
-234,059	71,071	-0,029	0,021
-233,044	598,285	-0,007	0,013
-232,030	744,217	0,024	0,046
-231,015	130,301	-0,100	-0,091
-230,000	-200,000	0,003	-0,097
-228,986	-111,972	0,072	-0,010
-227,971	800,000	0,025	0,061
-226,957	-96,213	0,066	-0,012
-225,942	-200,000	-0,020	-0,067
-224,927	-200,000	0,002	0,022
-223,913	-74,810	-0,056	-0,014
-222,898	279,544	-0,033	-0,042
-221,884	-200,000	0,001	-0,030
-220,869	-6,100	-0,052	0,025
-219,855	800,000	0,034	-0,086
-218,840	671,174	0,061	0,113
-217,825	-90,292	0,100	-0,020
-216,811	149,086	-0,106	-0,102
-215,796	145,518	-0,070	-0,067
-214,782	-200,000	0,011	-0,077
-213,767	326,189	0,056	-0,076
-212,752	-200,000	-0,000	-0,025
-211,738	-26,540	0,094	-0,039
-210,723	384,501	-0,010	0,015
-209,709	-92,298	0,109	-0,022
-208,694	44,364	-0,086	-0,056
-207,679	-200,000	0,012	-0,148
-206,665	423,276	0,023	0,035
-205,650	-200,000	-0,011	0,059
-204,636	-123,521	0,070	-0,008
-203,621	-200,000	-0,027	-0,139
-202,606	-90,854	0,018	-0,004
-201,592	-2,518	-0,092	-0,045
-200,577	-200,000	0,029	-0,175
-199,563	-132,795	-0,186	-0,017
-198,548	103,763	0,019	-0,016
-197,533	-58,895	-0,068	0,021
-196,519	-200,000	0,007	-0,067
-195,504	220,913	0,024	-0,028
-194,490	-200,000	-0,025	-0,136
-193,475	160,289	-0,096	-0,096
-192,460	216,688	0,078	0,088
-191,446	-200,000	0,026	0,109
-190,431	800,000	-0,036	-0,094
-189,417	-54,416	0,046	0,015
-188,402	-200,000	-0,003	-0,072
-187,387	393,207	-0,066	-0,098
-186,373	-200,000	-0,005	-0,076
-185,358	-200,000	0,023	-0,092
-184,344	-200,000	0,003	0,024
-183,329	800,000	-0,086	0,230
-182,315	800,000	-0,028	0,075
-181,300	800,000	-0,021	0,063
-180,285	800,000	0,072	-0,177
-179,271	9,981	0,032	0,017
-178,256	80,572	-0,100	-0,076
-177,242	-200,000	0,033	0,145
-176,227	-119,120	0,107	0,013
-175,212	800,000	0,017	0,050
-174,198	210,372	-0,054	0,060
-173,183	12,274	0,039	-0,021
-172,169	271,750	-0,048	0,060
-171,154	-43,568	0,066	0,024
-170,139	-3,577	0,008	-0,004
-169,125	199,574	0,028	0,030
-168,110	185,637	0,058	0,062
-167,096	315,173	-0,006	-0,008
-166,081	-200,000	-0,025	0,091
-165,066	1,123	-0,125	0,063
-164,052	345,222	0,021	-0,030
-163,037	-200,000	-0,015	-0,086
-162,023	73,737	0,127	0,094
-161,008	187,901	-0,039	0,041
-159,993	-200,000	-0,050	0,187
-158,979	-85,969	-0,120	-0,026
-157,964	-200,000	0,006	-0,045
-156,950	108,534	0,057	-0,049
-155,935	-200,000	0,020	0,082
-154,920	-179,217	-0,062	-0,001
-153,906	-200,000	0,017	0,059
-152,891	-200,000	-0,021	0,086
-151,877	-7,031	0,027	0,013
-150,862	-78,828	-0,162	0,039
-149,847	-200,000	0,009	0,037
-148,833	123,930	0,078	0,070
-147,818	625,747	-0,029	-0,053
-146,804	800,000	0,072	0,184
-145,789	-55,166	-0,087	0,028
-144,775	-15,620	-0,118	-0,053
-143,760	-68,389	-0,075	0,021
-142,745	-82,858	0,055	0,013
-141,731	-200,000	0,011	0,039
-140,716	421,064	0,091	0,139
-139,702	699,178	0,081	-0,151
-138,687	-200,000	-0,005	0,054
-137,672	282,769	-0,084	0,107
-136,658	-200,000	0,023	-0,102
-135,643	-61,938	-0,105	-0,031
-134,629	355,856	-0,004	-0,006
-133,614	771,387	-0,054	0,104
-132,599	-200,000	0,009	0,053
-131,585	-100,326	0,035	-0,006
-130,570	-200,000	0,002	-0,099
-129,556	37,172	-0,149	-0,094
-128,541	-200,000	-0,019	-0,075
-127,526	43,274	0,075	-0,048
-126,512	800,000	-0,011	0,028
-125,497	-134,898	0,099	-0,008
-124,483	-200,000	-0,009	0,082
-123,468	-0,567	-0,085	0,043
-122,453	9,601	-0,143	0,077
-121,439	-28,605	-0,163	-0,066
-120,424	-58,098	-0,186	0,057
-119,410	800,000	0,053	0,124
-118,395	-200,000	-0,009	0,046
-117,380	-200,000	-0,013	0,066
-116,366	-200,000	0,002	-0,127
-115,351	-33,293	-0,025	0,010
-114,337	585,934	0,012	0,021
-113,322	-200,000	0,021	-0,099
-112,307	-190,968	0,077	0,001
-111,293	-200,000	0,012	0,067
-110,278	654,998	0,019	-0,035
-109,264	205,380	-0,144	-0,158
-108,249	365,979	-0,036	-0,052
-107,234	-109,132	-0,166	-0,025
-106,220	-200,000	-0,025	0,121
-105,205	784,998	-0,038	0,074
-104,191	-200,000	-0,000	0,005
-103,176	97,668	0,096	0,078
-102,162	-101,268	0,073	0,012
-101,147	-200,000	-0,006	0,059
-100,132	334,812	-0,033	-0,045
-99,118	297,505	-0,021	-0,027
-98,103	-85,248	0,124	-0,027
-97,089	150,234	0,047	0,045
-96,074	-200,000	0,016	-0,061
-95,059	-38,752	0,081	0,030
-94,045	-166,600	0,138	-0,004
-93,030	-200,000	-0,002	-0,201
-92,016	117,818	-0,031	-0,027
-91,001	800,000	0,043	0,117
-89,986	474,958	0,041	0,066
-88,972	800,000	0,032	0,066
-87,957	-200,000	-0,004	0,041
-86,943	-200,000	-0,017	-0,057
-85,928	300,053	-0,037	0,048
-84,913	-51,620	0,212	-0,069
-83,899	204,069	0,056	-0,062
-82,884	-79,046	-0,049	-0,012
-81,870	616,059	0,062	0,110
-80,855	142,328	-0,069	0,065
-79,840	-29,606	-0,023	0,009
-78,826	-200,000	0,024	-0,146
-77,811	-17,425	-0,042	0,019
-76,797	-200,000	-0,033	0,157
-75,782	120,244	0,108	0,095
-74,767	409,203	-0,022	0,034
-73,753	-200,000	0,006	0,119
-72,738	533,633	-0,026	0,043
-71,724	490,116	-0,033	-0,054
-70,709	-200,000	-0,028	-0,103
-69,694	734,101	-0,043	0,082
-68,680	42,532	0,142	0,091
-67,665	47,742	-0,073	-0,048
-66,651	467,935	0,039	-0,062
-65,636	172,630	-0,057	0,058
-64,622	691,262	-0,041	0,077
-63,607	-200,000	-0,019	-0,068
-62,592	-200,000	-0,032	-0,135
-61,578	800,000	0,036	0,072
-60,563	-133,709	-0,051	-0,004
-59,549	74,929	-0,079	0,059
-58,534	8,300	-1,783	-0,944
-57,519	519,951	-1,278	-2,125
-56,505	-200,000	-0,584	-4,521
-55,490	483,363	0,968	1,562
-54,476	800,000	4,836	11,200
-53,461	-200,000	20,192	324,263
-52,446	800,000	752,065	2312,142
-51,432	549,189	1663,228	2828,612
-50,417	75,022	1671,984	1243,944
-49,403	20,019	1544,550	878,071
-48,388	14,022	1467,072	804,857
-47,373	18,357	1457,373	820,445
-46,359	16,320	1446,710	804,655
-45,344	12,222	1442,452	782,631
-44,330	12,198	1440,396	781,370
-43,315	12,215	1438,776	780,538
-42,300	12,205	1436,927	779,460
-41,286	12,177	1435,837	778,704
-40,271	12,168	1434,369	777,833
-39,257	12,185	1433,140	777,219
-38,242	12,223	1431,993	776,742
-37,227	12,239	1430,618	776,042
-36,213	12,237	1429,489	775,389
-35,198	12,275	1428,184	774,832
-34,184	12,287	1427,324	774,394
-33,169	12,248	1425,685	773,286
-32,154	12,269	1424,753	772,848
-31,140	12,269	1423,599	772,193
-30,125	12,316	1422,502	771,792
-29,111	12,258	1421,233	770,795
-28,096	12,274	1420,011	770,180
-27,082	12,145	1419,277	769,142
-26,067	12,189	1418,081	768,670
-25,052	12,192	1416,872	767,998
-24,038	12,184	1415,878	767,395
-23,023	12,145	1415,011	766,710
-22,009	12,191	1413,734	766,201
-20,994	12,206	1412,900	765,793
-19,979	12,172	1412,121	765,180
-18,965	12,125	1411,410	764,541
-17,950	12,126	1410,175	763,848
-16,936	12,160	1409,388	763,552
-15,921	12,111	1408,340	762,723
-14,906	12,071	1407,568	762,088
-13,892	12,117	1406,359	761,619
-12,877	12,070	1405,690	761,005
-11,863	12,069	1404,738	760,458
-10,848	12,046	1403,853	759,841
-9,833	11,980	1403,266	759,185
-8,819	11,938	1402,383	758,479
-7,804	11,977	1401,202	757,993
-6,790	11,974	1400,388	757,510
-5,775	11,973	1399,182	756,822
-4,760	11,970	1398,182	756,235
-3,746	11,984	1397,080	755,675
-2,731	11,994	1396,405	755,327
-1,717	11,953	1395,740	754,746
-0,702	12,000	1393,793	753,880
0,313	16,157	1308,702	726,984
1,327	32,887	699,943	427,243
2,342	51,147	121,908	81,563
3,356	3,000	16,592	8,487
4,371	11,497	3,231	1,744
5,386	-35,283	0,775	0,296
6,400	455,434	0,193	0,303
7,415	162,345	-0,104	-0,103
8,429	49,485	-0,302	-0,200
9,444	-4,623	-0,339	-0,165
10,459	66,453	-0,336	-0,241
11,473	138,186	-0,307	-0,285
12,488	113,100	-0,320	-0,273
13,502	88,334	-0,293	-0,229
14,517	-26,640	-0,350	-0,144
15,531	136,996	-0,309	-0,285
16,546	105,143	-0,290	-0,242
17,561	107,888	-0,310	-0,261
18,575	123,912	-0,205	-0,182
19,590	247,819	-0,199	-0,238
20,604	-35,120	-0,282	-0,108
21,619	161,729	-0,422	-0,417
22,634	342,525	-0,337	-0,466
23,648	5,837	-0,514	-0,267
24,663	-7,777	-0,615	-0,292
25,677	-6,932	-0,425	-0,203
26,692	218,024	-0,196	-0,220
27,707	66,226	-0,355	-0,254
28,721	213,635	-0,280	-0,313
29,736	89,516	-0,390	-0,306
30,750	65,267	-0,329	-0,234
31,765	70,190	-0,424	-0,308
32,780	109,167	-0,331	-0,279
33,794	231,578	-0,321	-0,372
34,809	92,063	-0,377	-0,299
35,823	120,539	-0,282	-0,247
36,838	-8,471	-0,409	-0,193
37,853	-39,158	-0,518	-0,191
38,867	327,777	-0,220	-0,298
39,882	15,624	-0,276	-0,152
40,896	232,489	-0,194	-0,225
41,911	245,685	-0,268	-0,318
42,926	-6,114	-0,456	-0,218
43,940	198,776	-0,268	-0,289
44,955	233,947	-0,312	-0,362
45,969	26,962	-0,358	-0,211
46,984	8,729	-0,328	-0,173
47,999	17,732	-0,165	-0,092
49,013	118,465	-0,296	-0,257
50,028	-46,302	-0,282	-0,097
51,042	133,128	-0,352	-0,320
52,057	224,378	-0,254	-0,289
53,071	100,838	-0,381	-0,312
54,086	211,583	-0,281	-0,312
55,101	54,317	-0,299	-0,202
56,115	50,237	-0,305	-0,202
57,130	-23,199	-0,332	-0,140
58,144	-29,598	-0,456	-0,182
59,159	-14,369	-0,275	-0,124
60,174	-82,259	-0,384	-0,087
61,188	4,219	-0,372	-0,191
62,203	-26,606	-0,296	-0,121
63,217	3,784	-0,284	-0,145
64,232	-45,041	-0,365	-0,127
65,247	148,546	-0,295	-0,280
66,261	22,638	-0,327	-0,187
67,276	115,490	-0,316	-0,271
68,290	-84,600	-0,365	-0,080
69,305	45,840	-0,354	-0,229
70,320	135,517	-0,304	-0,278
71,334	58,742	-0,283	-0,195
72,349	366,169	-0,259	-0,368
73,363	169,069	-0,331	-0,332
74,378	117,504	-0,300	-0,259
75,393	16,039	-0,224	-0,124
76,407	-21,638	-0,255	-0,109
77,422	59,672	-0,281	-0,194
78,436	-111,147	-0,399	-0,057
79,451	4,736	-0,302	-0,155
80,466	57,160	-0,285	-0,195
81,480	-4,828	-0,346	-0,167
82,495	-36,680	-0,198	-0,074
83,509	-13,535	-0,305	-0,138
84,524	143,442	-0,240	-0,224
85,539	92,121	-0,344	-0,272
86,553	-36,150	-0,351	-0,132
87,568	-155,594	-0,186	-0,008
88,582	198,962	-0,200	-0,215
89,597	-8,440	-0,410	-0,193
90,611	-158,633	-0,223	-0,009
91,626	17,645	-0,311	-0,173
92,641	-74,091	-0,305	-0,077
93,655	-159,769	-0,189	-0,007
94,670	-169,181	-0,298	0,008
95,684	-83,348	-0,385	-0,086
96,699	-135,216	-0,315	-0,026
97,714	-48,578	-0,428	-0,143
98,728	-99,977	-0,208	-0,036
99,743	-105,085	-0,206	-0,033
100,757	-88,668	-0,253	-0,052
101,772	-62,932	-0,419	-0,121
102,787	5,873	-0,353	-0,183
103,801	66,265	-0,270	-0,192
104,816	306,880	-0,148	-0,193
105,830	105,965	-0,242	-0,200
106,845	22,110	-0,217	-0,124
107,860	-173,993	-0,302	-0,006
108,874	-30,196	-0,330	-0,130
109,889	6,135	-0,409	-0,212
110,903	127,567	-0,269	-0,239
111,918	21,113	-0,237	-0,134
112,933	45,999	-0,251	-0,162
113,947	-167,249	-0,284	0,008
114,962	-33,427	-0,226	-0,087
115,976	-18,812	-0,239	-0,104
116,991	-47,377	-0,182	-0,062
118,006	261,695	-0,272	-0,331
119,020	119,339	-0,244	-0,211
120,035	195,223	-0,207	-0,220
121,049	10,894	-0,311	-0,165
122,064	90,217	-0,263	-0,206
123,079	289,556	-0,182	-0,231
124,093	183,340	-0,259	-0,268
125,108	120,038	-0,279	-0,242
126,122	36,544	-0,245	-0,151
127,137	476,481	-0,124	-0,196
128,151	344,724	-0,127	-0,175
129,166	-101,972	-0,345	-0,058
130,181	73,372	-0,116	-0,085
131,195	144,139	-0,284	-0,265
132,210	-68,117	-0,227	-0,061
133,224	-57,514	-0,234	-0,071
134,239	106,202	-0,246	-0,203
135,254	-71,067	-0,352	-0,092
136,268	75,027	-0,235	-0,173
137,283	-83,423	-0,357	-0,079
138,297	409,724	-0,179	-0,266
139,312	77,043	-0,198	-0,147
140,327	105,211	-0,273	-0,225
141,341	-106,226	-0,243	-0,038
142,356	-2,837	-0,186	-0,090
143,370	220,558	-0,093	-0,104
144,385	7,119	-0,263	-0,137
145,400	-7,273	-0,380	-0,179
146,414	52,301	-0,336	-0,223
147,429	64,641	-0,209	-0,147
148,443	800,000	-0,106	-0,236
149,458	3,249	-0,213	-0,108
150,473	-10,535	-0,261	-0,120
151,487	60,919	-0,169	-0,117
152,502	69,251	-0,286	-0,205
153,516	329,199	-0,177	-0,237
154,531	122,989	-0,253	-0,221
155,546	-6,145	-0,340	-0,161
156,560	101,956	-0,157	-0,128
157,575	372,931	-0,091	-0,129
158,589	151,126	-0,237	-0,224
159,604	317,857	-0,209	-0,277
160,619	506,594	-0,160	-0,260
161,633	39,012	-0,294	-0,182
162,648	234,293	-0,165	-0,189
163,662	20,428	-0,189	-0,106
164,677	25,561	-0,244	-0,141
165,692	-118,585	-0,184	0,022
166,706	58,306	-0,234	-0,160
167,721	242,490	-0,202	-0,236
168,735	180,931	-0,142	-0,146
169,750	409,234	-0,194	-0,286
170,764	800,000	-0,064	-0,173
171,779	-131,710	-0,244	-0,022
172,794	169,235	-0,087	0,087
173,808	66,316	-0,208	-0,147
174,823	99,479	-0,219	-0,176
175,837	155,545	-0,270	-0,259
176,852	126,487	-0,136	-0,120
177,867	800,000	-0,114	-0,264
178,881	-37,155	-0,191	-0,071
179,896	-59,646	-0,234	-0,069
180,910	82,216	-0,343	-0,259
181,925	176,987	-0,153	-0,155
182,940	-17,089	-0,231	-0,101
183,954	-200,000	-0,076	-0,238
184,969	687,031	-0,046	-0,083
185,983	8,083	-0,331	-0,172
186,998	-113,986	-0,257	-0,034
188,013	163,488	-0,161	-0,158
189,027	46,523	-0,060	-0,039
190,042	154,455	-0,291	-0,278
191,056	-113,933	-0,249	-0,033
192,071	38,401	-0,160	-0,099
193,086	-108,841	-0,314	-0,046
194,100	-161,993	-0,239	0,008
195,115	66,649	-0,192	-0,136
196,129	-77,367	-0,262	-0,063
197,144	-57,329	-0,365	-0,111
198,159	70,176	-0,317	-0,227
199,173	800,000	-0,085	-0,256
200,188	628,848	-0,049	-0,086
201,202	-88,217	-0,331	-0,068
202,217	195,964	-0,289	-0,305
203,232	109,104	-0,148	-0,123
204,246	156,698	-0,191	-0,183
205,261	19,957	-0,305	-0,170
206,275	134,493	-0,125	-0,112
207,290	287,015	-0,118	-0,149
208,304	82,800	-0,124	-0,093
209,319	-108,812	-0,264	-0,039
210,334	549,672	-0,095	-0,159
211,348	497,131	-0,179	-0,287
212,363	-20,252	-0,294	-0,125
213,377	30,096	-0,245	-0,144
214,392	5,436	-0,184	-0,094
215,407	-4,476	-0,147	-0,070
216,421	-49,610	-0,118	-0,039
217,436	30,744	-0,139	-0,082
218,450	23,286	-0,224	-0,127
219,465	125,530	-0,099	-0,086
220,480	23,421	-0,274	-0,156
221,494	243,808	-0,174	-0,203
222,509	573,298	-0,100	-0,170
223,523	262,172	-0,112	-0,134
224,538	195,917	-0,187	-0,197
225,553	-58,634	-0,370	-0,110
226,567	207,284	-0,312	-0,337
227,582	221,789	-0,241	-0,269
228,596	800,000	-0,047	-0,095
229,611	275,721	-0,109	-0,134
230,626	117,897	-0,162	-0,138
231,640	39,999	-0,186	-0,115
232,655	303,709	-0,107	-0,138
233,669	37,002	-0,337	-0,206
234,684	13,536	-0,209	-0,112
235,699	-123,504	-0,113	-0,012
236,713	-136,401	-0,336	-0,027
237,728	-97,173	-0,275	-0,049
238,742	12,063	-0,236	-0,125
239,757	156,266	-0,235	-0,224
240,772	-148,402	-0,269	0,015
241,786	26,611	-0,177	-0,102
242,801	166,465	-0,113	-0,111
243,815	645,397	-0,099	-0,176
244,830	48,360	-0,188	-0,121
245,844	57,686	-0,251	-0,169
246,859	-3,301	-0,295	-0,142
247,874	-25,894	-0,300	-0,121
248,888	-27,938	-0,173	-0,069
249,903	571,936	-0,169	-0,285
250,917	800,000	-0,028	-0,071
251,932	195,769	-0,127	-0,134
252,947	-97,582	-0,201	-0,036
253,961	212,658	-0,213	-0,232
254,976	16,549	-0,185	-0,101
255,990	-26,558	-0,208	-0,084
257,005	360,994	-0,112	-0,156
258,020	-68,221	-0,218	-0,058
259,034	47,340	-0,072	-0,046
260,049	20,757	-0,116	-0,065
261,063	-162,735	-0,237	-0,008
262,078	-24,283	-0,266	-0,109
263,093	188,455	-0,143	-0,147
264,107	33,725	-0,222	-0,133
265,122	-32,064	-0,161	-0,062
266,136	-200,000	-0,023	-0,168
267,151	389,750	-0,117	-0,167
268,166	92,990	-0,189	-0,147
269,180	754,609	-0,078	-0,147
270,195	243,762	-0,190	-0,220
271,209	87,123	-0,144	-0,110
272,224	2,218	-0,242	-0,120
273,239	62,116	-0,036	-0,025
274,253	-29,117	-0,178	0,070
275,268	-130,126	-0,160	0,015
276,282	-57,344	-0,225	-0,068
277,297	154,414	-0,121	-0,115
278,312	640,661	-0,072	-0,128
279,326	-56,182	-0,167	-0,051
280,341	-5,731	-0,101	-0,048
281,355	82,069	-0,112	-0,084
282,370	800,000	-0,064	-0,141
283,384	88,052	-0,149	-0,114
284,399	800,000	-0,042	-0,106
285,414	161,853	-0,172	-0,166
286,428	69,435	-0,025	0,018
287,443	-63,181	-0,094	-0,027
288,457	40,452	-0,185	-0,115
289,472	-200,000	-0,044	-0,156
290,487	158,297	-0,117	-0,112
291,501	58,885	-0,193	-0,131
292,516	71,896	-0,221	-0,158
293,530	253,273	-0,066	-0,077
294,545	160,160	-0,118	-0,113
295,560	-50,714	-0,175	-0,056
296,574	199,377	-0,089	-0,095
297,589	-60,833	-0,191	-0,055
298,603	-64,201	-0,282	-0,079
299,618	-107,443	-0,247	-0,037
300,633	632,886	-0,128	-0,225
301,647	-30,088	-0,158	-0,061
302,662	-116,711	-0,232	-0,029
303,676	-129,699	-0,241	-0,023
304,691	137,635	-0,185	-0,166
305,706	152,692	-0,071	-0,067
306,720	30,407	-0,167	-0,098
307,735	4,306	-0,146	-0,074
308,749	51,390	-0,188	-0,122
309,764	-200,000	-0,012	-0,102
310,779	146,821	-0,156	-0,144
311,793	-29,790	-0,106	-0,041
312,808	-22,440	-0,237	-0,098
313,822	109,213	-0,169	-0,139
314,837	-49,412	-0,175	-0,057
315,852	-128,451	-0,109	-0,010
316,866	334,965	-0,091	-0,121
317,881	107,476	-0,079	-0,065
318,895	-6,258	-0,202	-0,094
319,910	-132,748	-0,151	-0,013
320,925	153,856	-0,158	-0,149
321,939	-47,838	-0,180	0,059
322,954	-111,217	-0,202	-0,028
323,968	164,821	-0,029	0,028
324,983	11,429	-0,101	0,053
325,997	185,361	-0,139	-0,142
327,012	313,906	-0,118	-0,153
328,027	222,579	-0,035	0,039
329,041	-200,000	-0,016	-0,053
330,056	-141,238	-0,160	0,011
331,070	98,124	-0,071	-0,056
332,085	-95,298	-0,135	0,025
333,100	-200,000	-0,037	-0,186
334,114	149,679	-0,104	-0,097
335,129	-41,110	-0,237	-0,084
336,143	181,432	0,013	0,013
337,158	89,585	-0,124	-0,095
338,173	16,071	-0,140	-0,076
339,187	307,849	-0,105	-0,135
340,202	-43,519	-0,209	0,072
341,216	-53,250	-0,104	-0,033
342,231	-120,385	-0,071	0,008
343,246	-102,324	-0,120	-0,020
344,260	132,665	-0,114	-0,101
345,275	247,707	-0,056	-0,065
346,289	183,869	-0,090	-0,091
347,304	57,601	-0,048	-0,032
348,319	800,000	-0,088	-0,244
349,333	19,760	-0,263	-0,145
350,348	47,719	-0,160	-0,102
351,362	629,964	-0,127	-0,221
352,377	-200,000	-0,018	-0,093
353,392	-100,742	-0,231	0,039
354,406	35,633	-0,154	-0,093
355,421	208,323	1314,739	1409,441
356,435	160,289	1475,455	1409,918
