DTS Sentinel unit serial number:	SN410029Multiplexer serial number:	ORYXHardware model number:	OX2-SRSoftware version number:	ORYX F/W v4,00 Oryx Data Collector v3.7.2.0data status	okinstallation	B3 Nyhavnadifferential loss correction	single-endedforward channel	channel 1reverse channel	N/Adate	2023/12/04time	13:42:30forward acquisition time	300,00reverse acquisition time	0,00gamma	499,1914k internal	0,3201k external	0,3201temperature offset calibration	1,0000default loss term (dB/km)	0,3820temperature slope calibration	1,0000multiplexer offset coefficient	1,0000multiplexer slope coefficient	1,0000fibre end	0,00T internal ref (°C)	14,92T ext. ref 1 (°C)	0,26T ext. ref 2 (°C)	0,25length (m)	temperature (°C)	Stokes	anti-Stokes-744,400	111,670	-0,299	-0,262
-743,385	724,548	0,163	0,317
-742,371	413,462	-0,093	-0,144
-741,356	-200,000	0,024	0,338
-740,342	58,878	-0,280	-0,200
-739,327	-200,000	-0,083	0,274
-738,312	127,153	-0,244	-0,226
-737,298	-200,000	-0,083	0,313
-736,283	256,130	-0,218	-0,272
-735,269	-200,000	-0,075	0,403
-734,254	195,753	-0,139	-0,154
-733,239	16,476	-0,195	0,112
-732,225	45,956	-0,181	-0,122
-731,210	300,234	0,067	0,090
-730,196	61,331	-0,052	-0,037
-729,181	174,748	-0,162	-0,170
-728,167	-200,000	0,001	0,019
-727,152	-200,000	0,017	0,060
-726,137	-200,000	-0,022	-0,077
-725,123	-200,000	-0,000	-0,114
-724,108	390,865	-0,121	-0,184
-723,094	71,175	-0,118	-0,089
-722,079	800,000	-0,040	-0,103
-721,064	-110,807	0,120	-0,018
-720,050	-200,000	-0,021	0,069
-719,035	35,537	-0,075	-0,048
-718,021	383,886	-0,072	0,108
-717,006	269,289	-0,043	-0,055
-715,991	-200,000	-0,002	-0,164
-714,977	-114,893	-0,057	-0,008
-713,962	58,323	-0,088	0,063
-712,948	43,132	0,146	-0,097
-711,933	-63,726	0,087	-0,026
-710,918	94,737	-0,090	-0,074
-709,904	800,000	0,040	-0,094
-708,889	-118,555	0,051	0,007
-707,875	33,603	-0,118	-0,074
-706,860	167,768	-0,017	-0,017
-705,845	-200,000	0,020	-0,089
-704,831	-88,884	-0,092	0,020
-703,816	-85,496	0,052	-0,012
-702,802	151,488	0,055	0,054
-701,787	800,000	0,025	-0,054
-700,772	44,596	-0,071	-0,047
-699,758	-200,000	-0,005	0,020
-698,743	-94,598	-0,032	0,006
-697,729	84,347	0,074	0,058
-696,714	95,026	-0,072	0,060
-695,699	-105,689	0,031	-0,005
-694,685	49,207	-0,096	0,065
-693,670	32,476	-0,103	-0,064
-692,656	74,825	-0,025	0,019
-691,641	139,178	0,028	0,027
-690,627	65,420	-0,024	-0,017
-689,612	-123,488	0,110	0,013
-688,597	37,283	0,044	0,028
-687,583	18,634	0,060	-0,035
-686,568	-200,000	0,006	-0,035
-685,554	-26,252	-0,020	0,009
-684,539	165,098	0,039	-0,040
-683,524	-119,834	-0,109	-0,014
-682,510	800,000	-0,005	0,012
-681,495	800,000	-0,023	0,053
-680,481	-200,000	0,009	-0,120
-679,466	-200,000	-0,005	-0,039
-678,451	536,338	-0,062	-0,107
-677,437	4,632	0,037	0,019
-676,422	-122,568	0,096	-0,011
-675,408	-200,000	0,007	-0,067
-674,393	148,226	-0,049	0,048
-673,378	-151,479	0,171	0,009
-672,364	-8,751	-0,074	-0,036
-671,349	-200,000	0,000	-0,127
-670,335	-39,276	0,026	-0,010
-669,320	192,229	-0,013	-0,015
-668,305	281,936	0,091	0,118
-667,291	530,382	0,050	-0,085
-666,276	376,317	0,035	0,052
-665,262	-81,356	-0,075	0,018
-664,247	779,915	0,020	-0,039
-663,232	-0,267	0,127	-0,065
-662,218	-200,000	-0,016	-0,057
-661,203	-192,748	0,082	0,001
-660,189	71,565	0,054	0,040
-659,174	-200,000	0,004	-0,042
-658,159	394,791	-0,075	-0,114
-657,145	800,000	0,052	0,105
-656,130	10,560	0,101	0,056
-655,116	89,317	0,124	0,100
-654,101	800,000	-0,010	0,025
-653,086	48,145	-0,119	0,080
-652,072	9,967	-0,054	-0,030
-651,057	293,876	-0,091	-0,121
-650,043	227,970	0,047	0,055
-649,028	800,000	0,044	-0,108
-648,014	800,000	-0,036	0,081
-646,999	-95,236	-0,042	0,008
-645,984	194,230	-0,073	0,080
-644,970	-200,000	-0,013	-0,064
-643,955	-200,000	0,001	-0,113
-642,941	-200,000	-0,008	0,079
-641,926	83,440	-0,055	-0,043
-640,911	-200,000	-0,015	0,150
-639,897	479,943	0,024	-0,040
-638,882	-200,000	-0,022	-0,153
-637,868	-100,895	-0,179	0,032
-636,853	800,000	-0,035	-0,073
-635,838	324,306	0,052	-0,072
-634,824	547,721	0,040	-0,069
-633,809	14,755	-0,063	-0,036
-632,795	-200,000	0,010	0,061
-631,780	-89,619	0,091	0,019
-630,765	-141,966	-0,068	-0,005
-629,751	299,784	-0,024	0,032
-628,736	83,322	-0,099	0,078
-627,722	-200,000	0,002	-0,122
-626,707	800,000	0,007	-0,018
-625,692	800,000	-0,028	-0,083
-624,678	1,452	0,060	0,031
-623,663	466,346	0,058	-0,094
-622,649	800,000	-0,048	-0,130
-621,634	-108,063	0,030	-0,005
-620,619	-200,000	-0,015	0,086
-619,605	119,859	-0,044	-0,039
-618,590	-29,930	0,085	0,035
-617,576	800,000	0,033	-0,081
-616,561	-1,636	0,085	0,043
-615,546	-137,067	-0,114	-0,009
-614,532	16,786	-0,126	-0,072
-613,517	-72,206	-0,024	-0,006
-612,503	-200,000	0,003	0,013
-611,488	-200,000	0,001	-0,052
-610,474	-200,000	-0,021	0,067
-609,459	133,589	-0,045	-0,042
-608,444	215,298	-0,022	-0,026
-607,430	-200,000	-0,006	-0,241
-606,415	-145,781	-0,027	-0,002
-605,401	-126,504	0,070	-0,007
-604,386	48,013	0,092	0,062
-603,371	316,992	-0,017	-0,023
-602,357	-108,274	-0,062	-0,010
-601,342	-32,735	-0,091	-0,036
-600,328	97,022	-0,133	-0,111
-599,313	-154,873	-0,050	-0,002
-598,298	72,645	0,129	-0,097
-597,284	-200,000	0,024	-0,090
-596,269	49,484	0,065	0,044
-595,255	-44,136	-0,116	0,042
-594,240	38,332	-0,087	-0,056
-593,225	-200,000	0,035	0,000
-592,211	-29,842	-0,082	0,033
-591,196	176,265	-0,043	-0,045
-590,182	227,680	-0,043	0,050
-589,167	78,670	-0,060	-0,046
-588,152	800,000	0,021	-0,061
-587,138	-108,600	0,112	0,017
-586,123	-200,000	0,029	0,241
-585,109	800,000	-0,015	0,032
-584,094	112,835	-0,070	-0,061
-583,079	-52,592	0,083	-0,028
-582,065	-78,189	-0,061	0,015
-581,050	343,403	0,056	-0,080
-580,036	800,000	-0,015	0,031
-579,021	655,707	0,037	0,069
-578,006	-200,000	-0,008	0,054
-576,992	-200,000	-0,003	-0,114
-575,977	-157,820	0,079	0,003
-574,963	18,768	0,034	-0,019
-573,948	-70,146	-0,180	-0,049
-572,934	-113,269	-0,058	0,008
-571,919	-33,645	0,035	0,014
-570,904	-200,000	-0,030	-0,097
-569,890	170,595	-0,109	-0,113
-568,875	-200,000	-0,006	0,064
-567,861	-160,703	-0,028	0,001
-566,846	114,642	-0,127	0,111
-565,831	80,167	-0,043	0,033
-564,817	-82,040	-0,031	-0,007
-563,802	-200,000	-0,020	-0,096
-562,788	-198,112	-0,007	0,000
-561,773	-65,747	0,105	0,030
-560,758	-175,144	-0,081	-0,002
-559,744	-200,000	0,018	0,126
-558,729	108,162	0,091	0,078
-557,715	237,934	-0,099	-0,118
-556,700	-200,000	-0,014	-0,173
-555,685	-200,000	0,029	-0,109
-554,671	-10,598	-0,061	0,029
-553,656	650,029	0,010	-0,019
-552,642	289,279	-0,036	0,047
-551,627	106,981	-0,039	-0,034
-550,612	800,000	-0,052	0,148
-549,598	800,000	-0,103	-0,230
-548,583	-200,000	0,001	-0,102
-547,569	-200,000	0,017	-0,058
-546,554	280,521	0,089	0,115
-545,539	485,552	-0,070	0,116
-544,525	72,773	-0,037	0,028
-543,510	-90,698	0,101	0,021
-542,496	-94,974	0,032	-0,006
-541,481	45,628	-0,164	-0,109
-540,466	320,850	-0,020	0,027
-539,452	800,000	0,028	-0,067
-538,437	-118,953	0,060	-0,008
-537,423	800,000	-0,016	0,036
-536,408	-47,615	-0,098	-0,034
-535,393	800,000	0,035	-0,079
-534,379	757,137	-0,089	-0,174
-533,364	-200,000	-0,002	0,089
-532,350	-53,961	0,034	-0,011
-531,335	-73,824	0,154	-0,040
-530,321	58,875	0,105	0,074
-529,306	800,000	0,022	0,070
-528,291	-8,851	-0,015	0,007
-527,277	155,042	-0,131	-0,130
-526,262	-139,282	0,072	-0,005
-525,248	637,208	0,034	-0,063
-524,233	302,627	0,037	0,049
-523,218	-7,114	0,074	0,036
-522,204	-200,000	-0,022	0,114
-521,189	-200,000	-0,005	-0,056
-520,175	505,530	0,056	-0,093
-519,160	13,172	0,043	-0,024
-518,145	488,808	0,028	-0,046
-517,131	800,000	0,041	0,124
-516,116	-200,000	0,020	0,116
-515,102	800,000	-0,046	0,113
-514,087	800,000	-0,066	0,142
-513,072	-200,000	-0,015	-0,087
-512,058	205,505	0,038	0,043
-511,043	-57,477	0,134	-0,042
-510,029	185,042	-0,067	0,072
-509,014	-200,000	-0,003	0,056
-507,999	800,000	-0,005	-0,010
-506,985	-64,203	-0,097	-0,028
-505,970	800,000	-0,021	-0,052
-504,956	36,917	-0,083	0,053
-503,941	77,697	0,110	0,084
-502,926	800,000	-0,046	0,114
-501,912	75,009	-0,079	0,060
-500,897	-200,000	0,008	-0,035
-499,883	387,749	0,011	-0,016
-498,868	-200,000	-0,036	-0,187
-497,853	82,120	-0,067	-0,052
-496,839	84,136	0,065	-0,051
-495,824	82,789	0,044	0,034
-494,810	-25,072	0,091	0,039
-493,795	-200,000	-0,009	0,056
-492,781	800,000	-0,041	0,098
-491,766	800,000	-0,017	-0,045
-490,751	-104,598	0,129	0,021
-489,737	-6,652	0,160	-0,078
-488,722	710,473	-0,033	-0,064
-487,708	-110,476	0,179	0,026
-486,693	236,841	0,056	0,067
-485,678	-200,000	-0,010	-0,065
-484,664	221,882	-0,052	-0,060
-483,649	800,000	0,037	0,114
-482,635	71,945	-0,020	-0,015
-481,620	47,065	0,058	-0,039
-480,605	-200,000	-0,020	0,095
-479,591	-15,173	-0,163	0,075
-478,576	5,984	0,007	0,004
-477,562	-69,329	0,080	0,022
-476,547	383,112	-0,138	-0,204
-475,532	480,856	-0,063	-0,103
-474,518	-181,050	-0,024	-0,000
-473,503	800,000	0,046	0,110
-472,489	-46,310	0,089	-0,031
-471,474	30,741	-0,103	0,063
-470,459	89,925	-0,097	0,078
-469,445	179,034	-0,027	-0,028
-468,430	-14,073	0,165	-0,076
-467,416	-75,541	0,144	0,037
-466,401	10,981	0,096	0,053
-465,386	62,049	0,025	-0,018
-464,372	-200,000	0,001	-0,038
-463,357	800,000	0,054	-0,161
-462,343	-200,000	0,022	-0,077
-461,328	-200,000	0,010	0,168
-460,313	-60,749	-0,101	-0,031
-459,299	-200,000	0,003	-0,016
-458,284	800,000	-0,013	0,032
-457,270	-105,553	0,077	-0,012
-456,255	-200,000	-0,005	-0,056
-455,241	15,673	-0,118	0,067
-454,226	-113,625	-0,114	0,016
-453,211	-200,000	0,011	0,039
-452,197	-200,000	-0,033	0,121
-451,182	-200,000	-0,000	0,066
-450,168	108,985	0,111	0,095
-449,153	-200,000	-0,001	-0,115
-448,138	-163,012	-0,151	0,005
-447,124	42,080	0,110	0,072
-446,109	0,323	0,077	-0,040
-445,095	198,185	-0,071	0,078
-444,080	-123,661	0,228	-0,026
-443,065	61,913	-0,103	0,073
-442,051	-200,000	-0,008	-0,090
-441,036	800,000	-0,040	-0,082
-440,022	-200,000	0,009	-0,075
-439,007	29,395	0,073	-0,045
-437,992	513,525	-0,012	0,020
-436,978	-130,784	0,072	-0,007
-435,963	220,235	-0,023	0,026
-434,949	-200,000	0,027	0,106
-433,934	-83,137	-0,134	-0,031
-432,919	68,532	-0,136	0,100
-431,905	264,075	0,119	0,149
-430,890	694,889	-0,044	0,083
-429,876	-56,252	0,007	0,002
-428,861	-82,376	0,151	-0,035
-427,846	-200,000	0,009	-0,032
-426,832	-153,065	-0,041	-0,002
-425,817	-25,666	-0,082	-0,034
-424,803	43,191	-0,118	-0,077
-423,788	-200,000	-0,009	0,085
-422,773	-200,000	-0,002	0,088
-421,759	-200,000	0,020	0,065
-420,744	-63,393	-0,062	-0,018
-419,730	-5,655	-0,026	0,013
-418,715	-129,559	0,104	0,010
-417,701	-200,000	0,005	-0,125
-416,686	-136,224	0,167	-0,014
-415,671	105,137	-0,101	0,085
-414,657	-126,552	0,148	0,016
-413,642	9,788	-0,037	0,020
-412,628	536,713	0,055	-0,094
-411,613	-200,000	-0,003	0,110
-410,598	179,561	-0,133	-0,140
-409,584	101,605	0,092	0,077
-408,569	-200,000	-0,014	0,050
-407,555	800,000	0,045	0,139
-406,540	6,067	-0,111	-0,059
-405,525	-137,215	-0,080	0,006
-404,511	315,682	-0,052	0,070
-403,496	-200,000	0,006	-0,067
-402,482	-200,000	-0,006	-0,021
-401,467	-131,977	-0,179	0,017
-400,452	-55,418	0,275	0,088
-399,438	-115,397	0,052	0,007
-398,423	192,417	-0,061	-0,066
-397,409	800,000	-0,028	-0,062
-396,394	-72,634	0,083	-0,022
-395,379	356,612	-0,074	0,105
-394,365	35,821	-0,040	-0,025
-393,350	-103,130	0,100	-0,017
-392,336	136,510	-0,103	-0,097
-391,321	235,921	0,014	-0,017
-390,306	-48,358	-0,161	-0,055
-389,292	576,288	-0,057	-0,101
-388,277	121,625	0,023	-0,021
-387,263	250,422	-0,066	0,080
-386,248	85,582	0,050	0,039
-385,233	-200,000	0,020	0,167
-384,219	-200,000	0,002	0,016
-383,204	215,162	0,109	-0,124
-382,190	-104,236	0,059	0,010
-381,175	800,000	0,011	-0,032
-380,160	163,541	0,112	0,113
-379,146	-200,000	0,011	0,036
-378,131	98,812	-0,097	0,080
-377,117	275,321	-0,110	0,140
-376,102	26,860	-0,053	0,032
-375,088	-34,698	0,048	-0,019
-374,073	-200,000	-0,011	0,122
-373,058	165,035	0,103	-0,104
-372,044	-200,000	0,012	0,064
-371,029	-200,000	0,007	0,045
-370,015	39,679	-0,169	0,108
-369,000	127,609	0,007	-0,006
-367,985	52,203	0,062	0,042
-366,971	283,905	-0,044	-0,056
-365,956	-81,973	-0,151	0,035
-364,942	603,968	0,091	0,163
-363,927	800,000	-0,023	-0,061
-362,912	166,381	0,061	0,062
-361,898	-80,276	-0,129	0,031
-360,883	-77,125	-0,073	0,018
-359,869	-10,342	0,039	0,018
-358,854	-200,000	0,006	0,029
-357,839	-104,041	0,076	0,013
-356,825	-200,000	-0,040	0,225
-355,810	375,105	0,021	0,031
-354,796	-85,186	-0,097	-0,022
-353,781	192,838	0,066	-0,072
-352,766	-200,000	0,001	0,050
-351,752	800,000	0,003	-0,007
-350,737	800,000	0,015	0,029
-349,723	-200,000	0,009	-0,138
-348,708	800,000	0,078	0,186
-347,693	324,223	0,084	0,115
-346,679	639,700	0,115	-0,210
-345,664	228,390	0,017	-0,020
-344,650	128,780	-0,034	0,031
-343,635	-200,000	0,013	0,064
-342,620	-200,000	0,019	0,098
-341,606	311,715	-0,063	0,085
-340,591	191,245	0,090	0,098
-339,577	372,497	-0,059	-0,086
-338,562	-40,016	-0,030	0,011
-337,548	-200,000	0,029	-0,108
-336,533	-47,127	-0,086	-0,030
-335,518	-200,000	-0,009	0,091
-334,504	-23,401	0,049	0,021
-333,489	122,258	-0,055	0,049
-332,475	-180,662	-0,099	-0,001
-331,460	800,000	-0,057	-0,163
-330,445	91,700	-0,090	0,073
-329,431	-200,000	0,018	0,078
-328,416	800,000	0,031	0,077
-327,402	-99,124	0,058	0,010
-326,387	-200,000	0,015	-0,132
-325,372	-200,000	0,002	-0,070
-324,358	800,000	-0,012	-0,030
-323,343	800,000	0,015	0,047
-322,329	-200,000	0,029	0,136
-321,314	-200,000	0,003	0,107
-320,299	502,236	0,030	-0,050
-319,285	9,018	0,032	-0,017
-318,270	-200,000	-0,006	0,025
-317,256	-10,328	-0,103	-0,049
-316,241	-200,000	0,019	0,083
-315,226	800,000	-0,028	0,084
-314,212	-3,038	0,085	0,042
-313,197	800,000	0,041	0,086
-312,183	243,013	0,048	0,058
-311,168	800,000	0,068	-0,207
-310,153	-200,000	-0,017	-0,141
-309,139	-200,000	0,023	-0,117
-308,124	800,000	-0,052	-0,132
-307,110	-200,000	0,047	0,181
-306,095	669,208	0,099	0,184
-305,080	-78,746	-0,183	0,044
-304,066	-114,116	0,114	-0,016
-303,051	-124,920	-0,061	-0,007
-302,037	800,000	0,056	-0,123
-301,022	183,315	-0,121	-0,128
-300,008	755,367	-0,043	0,083
-298,993	-200,000	0,027	0,100
-297,978	505,073	0,015	0,024
-296,964	497,283	0,091	0,149
-295,949	800,000	0,054	0,151
-294,935	800,000	0,062	-0,124
-293,920	-33,159	-0,118	-0,047
-292,905	589,849	-0,023	0,041
-291,891	-200,000	0,018	0,148
-290,876	141,713	0,034	-0,032
-289,862	-200,000	-0,016	0,098
-288,847	-149,855	-0,124	0,007
-287,832	-54,405	0,115	0,037
-286,818	-200,000	-0,008	-0,121
-285,803	-31,052	0,037	-0,015
-284,789	142,236	0,128	0,122
-283,774	173,922	-0,076	-0,078
-282,759	-148,131	0,149	0,009
-281,745	111,940	-0,023	-0,020
-280,730	-200,000	0,017	-0,062
-279,716	-200,000	0,018	0,059
-278,701	-1,851	0,129	-0,065
-277,686	-40,875	0,075	0,028
-276,672	313,279	-0,087	0,118
-275,657	800,000	-0,004	0,011
-274,643	247,862	-0,106	-0,129
-273,628	77,253	0,029	-0,022
-272,613	115,292	0,110	-0,096
-271,599	110,118	-0,102	0,087
-270,584	40,146	-0,017	0,011
-269,570	-55,761	-0,060	0,019
-268,555	800,000	-0,012	-0,036
-267,540	406,440	-0,055	-0,084
-266,526	99,544	0,048	-0,040
-265,511	-200,000	-0,026	-0,098
-264,497	173,359	0,086	-0,089
-263,482	254,702	0,050	0,061
-262,467	33,965	0,065	-0,040
-261,453	-97,586	-0,123	0,023
-260,438	-59,874	-0,036	0,011
-259,424	800,000	0,053	-0,119
-258,409	-131,353	-0,139	-0,013
-257,395	-43,468	0,020	0,007
-256,380	-200,000	-0,026	-0,102
-255,365	-11,756	0,034	0,016
-254,351	-200,000	0,019	-0,061
-253,336	-200,000	-0,028	-0,127
-252,322	-200,000	0,005	-0,098
-251,307	540,321	-0,044	-0,075
-250,292	-37,615	-0,165	0,062
-249,278	-200,000	-0,000	-0,122
-248,263	180,364	0,065	0,068
-247,249	800,000	0,026	-0,072
-246,234	-56,686	-0,201	0,063
-245,219	-200,000	-0,038	-0,156
-244,205	-76,428	-0,013	-0,003
-243,190	-16,114	-0,099	-0,045
-242,176	592,395	0,059	0,105
-241,161	-71,923	0,066	0,017
-240,146	1,654	0,068	-0,035
-239,132	70,526	0,081	-0,059
-238,117	113,799	-0,049	0,042
-237,103	-121,233	0,093	-0,011
-236,088	800,000	0,024	-0,057
-235,073	83,660	0,037	0,029
-234,059	-172,958	0,099	-0,002
-233,044	-200,000	0,017	-0,092
-232,030	800,000	0,057	0,153
-231,015	-200,000	-0,028	-0,112
-230,000	-131,654	-0,147	-0,014
-228,986	249,086	0,080	-0,097
-227,971	214,696	-0,023	-0,026
-226,957	800,000	-0,020	0,043
-225,942	58,747	0,050	0,035
-224,927	579,234	0,019	-0,033
-223,913	-200,000	0,008	-0,054
-222,898	-72,211	0,045	-0,012
-221,884	33,128	-0,020	-0,012
-220,869	226,439	-0,074	-0,086
-219,855	488,813	0,039	-0,064
-218,840	272,806	-0,033	-0,041
-217,825	-89,198	0,095	0,020
-216,811	24,603	0,096	0,056
-215,796	-81,232	-0,082	0,019
-214,782	318,810	-0,054	-0,073
-213,767	140,595	0,029	-0,027
-212,752	708,599	-0,037	-0,071
-211,738	-200,000	0,017	0,105
-210,723	800,000	0,055	0,150
-209,709	-200,000	0,003	-0,040
-208,694	-147,696	-0,120	-0,007
-207,679	800,000	-0,026	-0,072
-206,665	16,745	0,124	0,070
-205,650	242,411	0,023	-0,028
-204,636	-200,000	-0,044	0,211
-203,621	800,000	-0,023	0,046
-202,606	-200,000	0,013	-0,042
-201,592	344,539	-0,054	0,075
-200,577	390,166	0,073	0,108
-199,563	26,646	0,028	-0,017
-198,548	-173,205	0,040	0,001
-197,533	800,000	0,048	0,105
-196,519	-56,378	0,044	0,014
-195,504	-200,000	0,032	0,103
-194,490	-200,000	-0,002	-0,097
-193,475	125,580	-0,016	-0,014
-192,460	800,000	-0,048	0,099
-191,446	293,774	0,037	0,048
-190,431	-111,400	0,167	0,024
-189,417	800,000	-0,025	0,068
-188,402	224,148	-0,105	-0,121
-187,387	800,000	-0,029	-0,062
-186,373	551,296	0,047	-0,081
-185,358	-2,302	-0,127	0,063
-184,344	26,454	0,075	0,044
-183,329	4,197	0,058	0,030
-182,315	-121,095	0,130	0,015
-181,300	-106,588	0,208	-0,033
-180,285	800,000	-0,019	0,046
-179,271	800,000	0,042	0,089
-178,256	382,799	-0,044	-0,065
-177,242	-200,000	-0,017	-0,112
-176,227	201,070	-0,088	0,097
-175,212	800,000	-0,036	0,089
-174,198	-200,000	0,002	0,008
-173,183	-200,000	0,020	-0,085
-172,169	-30,202	0,027	0,011
-171,154	-141,199	0,046	0,003
-170,139	-48,899	-0,026	-0,009
-169,125	-15,177	-0,023	0,011
-168,110	3,309	0,129	-0,067
-167,096	125,712	-0,039	0,035
-166,081	117,819	-0,040	-0,035
-165,066	-200,000	0,013	-0,124
-164,052	-200,000	-0,019	0,104
-163,037	-56,304	0,073	-0,023
-162,023	-2,753	0,018	-0,009
-161,008	-111,864	0,089	-0,013
-159,993	153,867	0,103	-0,100
-158,979	476,435	-0,046	-0,074
-157,964	-200,000	-0,004	-0,101
-156,950	457,936	0,009	0,014
-155,935	293,871	-0,050	-0,065
-154,920	-39,378	0,118	0,044
-153,906	-200,000	-0,018	0,063
-152,891	11,197	-0,042	-0,023
-151,877	-9,307	0,038	0,018
-150,862	-87,355	0,012	0,003
-149,847	800,000	-0,035	0,106
-148,833	581,561	0,043	-0,075
-147,818	234,770	0,135	0,158
-146,804	-2,373	-0,091	0,045
-145,789	-15,730	0,120	-0,054
-144,775	-132,524	0,059	0,005
-143,760	-148,624	-0,032	0,002
-142,745	123,847	0,044	-0,039
-141,731	800,000	0,033	-0,076
-140,716	555,918	-0,034	-0,058
-139,702	-159,287	0,136	-0,005
-138,687	-81,596	-0,128	0,030
-137,672	-152,875	-0,100	0,005
-136,658	66,722	0,112	-0,081
-135,643	-53,216	-0,065	0,021
-134,629	-200,000	-0,004	0,030
-133,614	-200,000	-0,016	-0,062
-132,599	115,568	0,105	-0,092
-131,585	-200,000	-0,007	0,134
-130,570	-200,000	-0,006	0,020
-129,556	-200,000	0,017	0,102
-128,541	-68,803	0,052	-0,014
-127,526	-200,000	-0,013	-0,059
-126,512	-200,000	0,006	0,077
-125,497	338,669	0,074	-0,103
-124,483	-21,136	-0,059	-0,026
-123,468	-151,525	-0,054	0,003
-122,453	191,790	-0,072	-0,077
-121,439	800,000	0,034	-0,076
-120,424	-200,000	-0,001	-0,052
-119,410	-200,000	0,023	0,151
-118,395	-200,000	0,028	0,125
-117,380	23,466	-0,108	0,063
-116,366	-200,000	-0,021	-0,079
-115,351	-200,000	-0,004	0,021
-114,337	-126,277	-0,078	-0,008
-113,322	739,816	-0,020	0,038
-112,307	541,693	0,042	0,071
-111,293	-110,662	0,167	0,024
-110,278	-151,834	0,067	-0,003
-109,264	-53,543	-0,026	0,008
-108,249	213,558	0,058	-0,065
-107,234	254,202	0,070	-0,085
-106,220	800,000	-0,045	-0,117
-105,205	69,191	0,078	-0,057
-104,191	-87,836	0,146	0,031
-103,176	-15,181	0,140	-0,063
-102,162	-200,000	0,004	0,040
-101,147	-111,007	0,051	-0,007
-100,132	-200,000	0,002	-0,047
-99,118	800,000	0,017	-0,041
-98,103	79,799	0,081	-0,062
-97,089	-13,164	-0,093	0,043
-96,074	83,073	0,051	0,039
-95,059	-200,000	0,001	-0,056
-94,045	17,793	-0,081	0,045
-93,030	-186,340	-0,107	0,001
-92,016	-5,288	-0,090	-0,044
-91,001	45,606	0,179	0,117
-89,986	69,284	0,095	0,069
-88,972	-40,678	0,078	-0,028
-87,957	521,307	0,094	0,158
-86,943	-84,267	-0,015	-0,003
-85,928	284,072	-0,061	0,078
-84,913	480,815	0,067	-0,108
-83,899	193,733	-0,038	-0,041
-82,884	-22,600	0,052	0,022
-81,870	-200,000	0,024	0,137
-80,855	216,937	0,028	0,032
-79,840	175,241	0,055	-0,057
-78,826	85,534	-0,176	0,137
-77,811	320,989	0,044	-0,060
-76,797	-200,000	-0,015	0,081
-75,782	-52,126	0,066	0,022
-74,767	-58,979	-0,043	-0,013
-73,753	164,303	-0,036	0,036
-72,738	-113,596	-0,149	0,020
-71,724	-105,908	0,040	-0,006
-70,709	352,460	0,037	0,052
-69,694	241,168	0,075	0,088
-68,680	-132,810	-0,091	0,008
-67,665	800,000	0,032	0,094
-66,651	458,345	0,063	0,099
-65,636	-193,222	0,165	0,001
-64,622	-57,355	0,101	-0,031
-63,607	210,552	0,042	-0,047
-62,592	490,035	-0,028	0,045
-61,578	-101,789	0,131	-0,022
-60,563	-191,312	0,048	-0,000
-59,549	-114,582	-0,042	-0,006
-58,534	-52,511	-1,494	-0,486
-57,519	371,234	-1,582	-2,279
-56,505	-200,000	-0,411	-4,592
-55,490	225,199	0,978	1,123
-54,476	800,000	4,559	11,112
-53,461	-200,000	18,191	288,549
-52,446	800,000	727,534	2232,038
-51,432	555,803	1643,445	2812,861
-50,417	79,262	1665,685	1262,760
-49,403	22,777	1539,617	890,641
-48,388	16,782	1462,614	817,057
-47,373	17,853	1452,510	816,539
-46,359	17,245	1442,998	808,252
-45,344	15,045	1438,429	795,159
-44,330	15,002	1436,475	793,842
-43,315	15,025	1434,594	792,882
-42,300	14,986	1433,095	791,837
-41,286	15,007	1432,091	791,348
-40,271	15,027	1430,556	790,565
-39,257	14,993	1429,376	789,720
-38,242	15,009	1428,066	789,038
-37,227	15,029	1426,887	788,450
-36,213	15,010	1425,563	787,599
-35,198	15,036	1424,396	787,045
-34,184	15,059	1423,609	786,687
-33,169	14,996	1422,350	785,665
-32,154	15,017	1421,164	785,076
-31,140	15,054	1419,758	784,443
-30,125	15,048	1418,906	783,911
-29,111	15,028	1417,574	783,050
-28,096	15,020	1416,595	782,443
-27,082	14,964	1415,516	781,551
-26,067	14,966	1414,340	780,880
-25,052	14,975	1413,268	780,299
-24,038	14,926	1412,372	779,544
-23,023	14,940	1411,216	778,940
-22,009	14,899	1410,390	778,262
-20,994	14,890	1409,532	777,716
-19,979	14,898	1408,656	777,237
-18,965	14,898	1407,344	776,485
-17,950	14,851	1406,681	775,866
-16,936	14,855	1405,701	775,316
-15,921	14,862	1404,244	774,512
-14,906	14,882	1403,533	774,185
-13,892	14,868	1402,694	773,626
-12,877	14,885	1401,707	773,131
-11,863	14,871	1400,991	772,639
-10,848	14,875	1399,871	772,011
-9,833	14,833	1399,009	771,307
-8,819	14,799	1398,204	770,678
-7,804	14,765	1397,311	769,995
-6,790	14,742	1396,299	769,299
-5,775	14,743	1395,383	768,771
-4,760	14,750	1394,422	768,244
-3,746	14,763	1393,625	767,835
-2,731	14,747	1392,586	767,156
-1,717	14,748	1391,725	766,657
-0,702	14,737	1390,028	765,641
0,313	18,519	1308,868	738,446
1,327	34,721	706,698	436,248
2,342	53,525	124,696	84,498
3,356	5,838	16,641	8,684
4,371	4,833	3,273	1,697
5,386	-44,640	0,628	0,221
6,400	800,000	0,063	0,151
7,415	-71,671	-0,252	-0,066
8,429	663,310	-0,159	-0,292
9,444	-59,106	-0,351	-0,106
10,459	82,610	-0,205	-0,157
11,473	112,214	-0,251	-0,215
12,488	78,908	-0,250	-0,189
13,502	157,087	-0,295	-0,288
14,517	-78,652	-0,352	-0,084
15,531	41,126	-0,358	-0,228
16,546	16,369	-0,239	-0,133
17,561	241,738	-0,264	-0,313
18,575	-66,772	-0,233	-0,065
19,590	153,119	-0,350	-0,339
20,604	-173,663	-0,273	-0,006
21,619	182,877	-0,350	-0,365
22,634	210,002	-0,320	-0,355
23,648	26,766	-0,470	-0,277
24,663	32,800	-0,387	-0,236
25,677	193,670	-0,310	-0,331
26,692	88,562	-0,274	-0,214
27,707	128,180	-0,315	-0,283
28,721	-79,819	-0,336	-0,079
29,736	54,837	-0,428	-0,291
30,750	304,160	-0,313	-0,411
31,765	76,384	-0,352	-0,263
32,780	138,862	-0,326	-0,302
33,794	191,617	-0,262	-0,279
34,809	157,711	-0,435	-0,425
35,823	66,538	-0,436	-0,312
36,838	136,666	-0,359	-0,331
37,853	-48,703	-0,408	-0,137
38,867	33,593	-0,448	-0,274
39,882	61,146	-0,344	-0,240
40,896	80,360	-0,352	-0,267
41,911	98,542	-0,415	-0,337
42,926	-1,343	-0,452	-0,224
43,940	156,196	-0,268	-0,261
44,955	28,117	-0,418	-0,248
45,969	56,163	-0,292	-0,199
46,984	30,271	-0,325	-0,195
47,999	40,517	-0,346	-0,219
49,013	148,958	-0,202	-0,193
50,028	404,329	-0,246	-0,367
51,042	274,339	-0,171	-0,213
52,057	304,096	-0,317	-0,415
53,071	1,561	-0,411	-0,208
54,086	-9,841	-0,387	-0,181
55,101	102,612	-0,304	-0,251
56,115	169,481	-0,329	-0,331
57,130	17,923	-0,380	-0,213
58,144	50,459	-0,325	-0,216
59,159	165,932	-0,347	-0,346
60,174	57,498	-0,352	-0,242
61,188	127,778	-0,246	-0,220
62,203	-58,495	-0,289	-0,088
63,217	-18,614	-0,366	-0,160
64,232	-29,940	-0,405	-0,162
65,247	1,112	-0,441	-0,222
66,261	23,891	-0,324	-0,187
67,276	7,726	-0,325	-0,171
68,290	-102,012	-0,292	-0,049
69,305	-67,928	-0,245	-0,067
70,320	-91,917	-0,367	0,072
71,334	-79,615	-0,264	-0,062
72,349	13,287	-0,341	-0,185
73,363	43,611	-0,369	-0,237
74,378	142,746	-0,305	-0,285
75,393	-50,758	-0,408	-0,134
76,407	332,798	-0,174	-0,237
77,422	27,346	-0,323	-0,191
78,436	-53,888	-0,319	-0,102
79,451	112,548	-0,340	-0,289
80,466	479,221	-0,294	-0,470
81,480	-31,026	-0,382	-0,151
82,495	-86,901	-0,353	-0,075
83,509	49,823	-0,268	-0,177
84,524	-166,264	-0,248	-0,007
85,539	-53,869	-0,342	-0,109
86,553	-2,854	-0,312	-0,152
87,568	119,827	-0,255	-0,222
88,582	121,933	-0,369	-0,324
89,597	-115,092	-0,279	-0,037
90,611	209,642	-0,260	-0,286
91,626	7,324	-0,238	-0,124
92,641	-22,556	-0,221	-0,094
93,655	-0,335	-0,296	-0,147
94,670	82,405	-0,308	-0,234
95,684	297,006	-0,265	-0,342
96,699	91,635	-0,306	-0,241
97,714	613,328	-0,200	-0,352
98,728	-141,550	-0,343	-0,024
99,743	-54,754	-0,251	-0,079
100,757	109,601	-0,143	-0,120
101,772	95,135	-0,298	-0,238
102,787	-26,923	-0,420	-0,171
103,801	214,356	-0,189	-0,210
104,816	282,044	-0,110	-0,139
105,830	110,197	-0,240	-0,202
106,845	206,747	-0,187	-0,205
107,860	26,438	-0,295	-0,172
108,874	318,649	-0,187	-0,248
109,889	66,651	-0,266	-0,190
110,903	34,536	-0,258	-0,158
111,918	259,069	-0,267	-0,323
112,933	-7,252	-0,235	-0,111
113,947	-47,452	-0,226	-0,076
114,962	58,380	-0,227	-0,156
115,976	5,326	-0,272	-0,140
116,991	-170,164	-0,244	-0,006
118,006	-10,300	-0,333	-0,154
119,020	14,569	-0,291	-0,159
120,035	113,253	-0,263	-0,224
121,049	800,000	-0,155	-0,422
122,064	107,064	-0,183	-0,152
123,079	37,015	-0,262	-0,162
124,093	-55,705	-0,207	-0,064
125,108	251,805	-0,257	-0,307
126,122	237,397	-0,211	-0,246
127,137	307,245	-0,167	-0,219
128,151	28,473	-0,250	-0,147
129,166	-30,925	-0,177	-0,070
130,181	800,000	-0,124	-0,242
131,195	100,419	-0,219	-0,178
132,210	95,752	-0,272	-0,217
133,224	18,836	-0,188	-0,105
134,239	-29,108	-0,311	-0,124
135,254	-26,970	-0,230	-0,094
136,268	220,103	-0,178	-0,200
137,283	-104,466	-0,233	-0,037
138,297	126,880	-0,223	-0,198
139,312	-114,879	-0,374	-0,049
140,327	124,827	-0,211	-0,186
141,341	208,422	-0,234	-0,256
142,356	-21,758	-0,180	-0,076
143,370	-50,564	-0,083	-0,027
144,385	38,398	-0,171	-0,106
145,400	4,266	-0,252	-0,129
146,414	28,644	-0,320	-0,189
147,429	412,443	-0,199	-0,297
148,443	59,732	-0,335	-0,230
149,458	-50,422	-0,202	-0,066
150,473	-141,392	-0,274	0,019
151,487	13,806	-0,210	-0,113
152,502	749,675	-0,099	-0,188
153,516	-54,561	-0,283	-0,089
154,531	-71,505	-0,245	-0,064
155,546	800,000	-0,150	-0,311
156,560	736,504	-0,121	-0,228
157,575	221,499	-0,184	-0,206
158,589	-45,390	-0,317	-0,109
159,604	-121,988	-0,350	-0,040
160,619	-34,378	-0,247	-0,094
161,633	71,431	-0,235	-0,170
162,648	-93,859	-0,288	-0,055
163,662	66,001	-0,209	-0,147
164,677	110,860	-0,133	-0,111
165,692	27,299	-0,189	-0,110
166,706	677,622	-0,093	-0,169
167,721	54,374	-0,276	-0,185
168,735	9,339	-0,364	-0,191
169,750	306,267	-0,146	-0,189
170,764	203,458	-0,189	-0,204
171,779	89,398	-0,185	-0,143
172,794	-29,541	-0,231	-0,091
173,808	104,373	-0,267	-0,219
174,823	11,074	-0,268	-0,142
175,837	192,306	-0,234	-0,247
176,852	90,891	-0,244	-0,190
177,867	-34,624	-0,126	-0,048
178,881	32,610	-0,362	-0,217
179,896	-156,918	-0,149	-0,006
180,910	107,057	-0,154	-0,127
181,925	37,340	-0,225	-0,139
182,940	103,433	-0,238	-0,194
183,954	800,000	-0,178	-0,348
184,969	124,196	-0,345	-0,302
185,983	-6,219	-0,183	-0,086
186,998	83,764	-0,186	-0,141
188,013	171,078	-0,090	-0,090
189,027	22,513	-0,301	-0,171
190,042	311,460	-0,168	-0,220
191,056	33,907	-0,245	-0,148
192,071	30,754	-0,157	-0,093
193,086	490,986	-0,162	-0,260
194,100	-120,397	-0,190	-0,022
195,115	-14,905	-0,182	-0,081
196,129	48,710	-0,247	-0,161
197,144	171,857	-0,184	-0,184
198,159	118,913	-0,139	-0,119
199,173	53,045	-0,259	-0,172
200,188	42,470	-0,213	-0,134
201,202	83,788	-0,200	-0,152
202,217	3,555	-0,221	-0,112
203,232	-93,446	-0,137	-0,026
204,246	471,341	-0,165	-0,259
205,261	294,814	-0,235	-0,300
206,275	50,854	-0,232	-0,153
207,290	42,102	-0,184	-0,116
208,304	76,147	-0,133	-0,098
209,319	128,046	-0,222	-0,196
210,334	204,404	-0,207	-0,223
211,348	-32,356	-0,163	-0,063
212,363	-88,791	-0,332	-0,068
213,377	-63,298	-0,199	-0,056
214,392	-178,307	-0,223	-0,004
215,407	43,879	-0,257	-0,163
216,421	498,752	-0,128	-0,206
217,436	64,200	-0,249	-0,174
218,450	609,045	-0,087	-0,151
219,465	760,218	-0,136	-0,257
220,480	-53,949	-0,140	-0,044
221,494	-200,000	-0,007	-0,055
222,509	300,403	-0,060	-0,077
223,523	194,459	-0,264	-0,278
224,538	362,464	-0,113	-0,158
225,553	-80,384	-0,278	-0,064
226,567	18,323	-0,173	-0,096
227,582	7,431	-0,228	-0,118
228,596	25,332	-0,069	-0,040
229,611	-200,000	-0,008	-0,092
230,626	-34,871	-0,197	-0,074
231,640	-54,728	-0,297	-0,093
232,655	-66,572	-0,356	-0,097
233,669	30,837	-0,275	-0,163
234,684	35,457	-0,250	-0,152
235,699	209,772	-0,109	-0,118
236,713	800,000	-0,081	-0,182
237,728	-31,032	-0,131	-0,051
238,742	800,000	-0,056	-0,146
239,757	-100,557	-0,122	-0,021
240,772	21,239	-0,177	-0,100
241,786	64,338	-0,320	-0,223
242,801	-79,979	-0,142	-0,033
243,815	709,518	-0,096	-0,176
244,830	-9,785	-0,179	-0,082
245,844	53,697	-0,239	-0,159
246,859	119,769	-0,197	-0,169
247,874	-200,000	-0,225	-0,001
248,888	-26,288	-0,272	-0,110
249,903	6,103	-0,092	-0,047
250,917	-67,488	-0,140	-0,038
251,932	176,308	-0,089	-0,089
252,947	-120,413	-0,240	0,028
253,961	39,403	-0,164	-0,101
254,976	-54,697	-0,199	-0,062
255,990	103,158	-0,096	-0,078
257,005	16,158	-0,177	-0,096
258,020	800,000	-0,099	-0,218
259,034	-140,047	-0,212	-0,015
260,049	192,316	-0,205	-0,214
261,063	204,251	-0,153	-0,164
262,078	350,130	-0,132	-0,182
263,093	800,000	-0,069	-0,136
264,107	439,347	-0,123	-0,186
265,122	156,610	-0,158	-0,151
266,136	136,374	-0,074	-0,066
267,151	-41,232	-0,124	-0,044
268,166	800,000	-0,076	-0,176
269,180	121,425	-0,179	-0,155
270,195	-65,298	-0,244	-0,067
271,209	-65,041	-0,233	-0,065
272,224	140,820	-0,129	-0,118
273,239	115,109	-0,128	-0,108
274,253	24,826	-0,225	-0,129
275,268	-70,458	-0,226	-0,059
276,282	-30,104	-0,123	0,048
277,297	289,446	-0,136	-0,170
278,312	13,795	-0,228	-0,122
279,326	-102,113	-0,124	-0,020
280,341	-137,492	-0,071	0,005
281,355	138,459	-0,161	-0,146
282,370	-17,233	-0,049	-0,021
283,384	155,177	-0,278	-0,264
284,399	58,754	-0,102	-0,069
285,414	167,412	-0,123	-0,120
286,428	-139,454	-0,194	-0,014
287,443	14,803	-0,073	-0,039
288,457	-147,742	-0,192	-0,011
289,472	208,604	-0,155	-0,168
290,487	-200,000	-0,070	-0,284
291,501	-1,410	-0,218	-0,106
292,516	19,175	-0,277	-0,153
293,530	346,963	-0,084	-0,114
294,545	-39,833	-0,137	-0,049
295,560	63,587	-0,168	-0,116
296,574	24,886	-0,241	-0,137
297,589	-63,489	-0,094	-0,027
298,603	775,298	-0,061	-0,115
299,618	648,241	-0,033	-0,059
300,633	197,878	-0,195	-0,206
301,647	-200,000	-0,003	-0,240
302,662	719,116	-0,112	-0,206
303,676	228,181	-0,040	-0,045
304,691	227,806	-0,186	-0,209
305,706	220,786	-0,158	-0,175
306,720	-62,639	-0,197	-0,056
307,735	190,143	-0,108	-0,112
308,749	-17,542	-0,096	0,041
309,764	-200,000	-0,073	-0,263
310,779	322,490	-0,061	0,080
311,793	-7,521	-0,200	-0,093
312,808	-43,398	-0,208	-0,072
313,822	36,130	-0,189	-0,114
314,837	137,728	-0,088	-0,079
315,852	80,489	-0,156	-0,115
316,866	-67,708	-0,130	0,035
317,881	-111,246	-0,159	0,022
318,895	26,761	-0,105	-0,061
319,910	-39,771	-0,144	-0,051
320,925	228,207	-0,153	-0,172
321,939	-60,360	-0,294	-0,086
322,954	75,537	-0,089	-0,065
323,968	132,420	-0,082	-0,073
324,983	-200,000	-0,043	-0,213
325,997	87,083	-0,139	-0,105
327,012	-2,919	-0,151	-0,072
328,027	-133,304	-0,175	0,015
329,041	-83,285	-0,195	-0,043
330,056	-200,000	-0,014	-0,126
331,070	-4,418	-0,052	-0,025
332,085	-80,339	-0,051	-0,012
333,100	-62,694	-0,153	-0,043
334,114	60,276	-0,168	-0,114
335,129	-47,586	-0,114	-0,038
336,143	-64,874	-0,155	-0,043
337,158	-200,000	-0,047	-0,191
338,173	37,832	-0,060	-0,037
339,187	-16,184	-0,166	-0,072
340,202	304,162	-0,113	-0,144
341,216	148,089	-0,161	-0,150
342,231	175,767	-0,160	-0,160
343,246	-73,651	-0,142	-0,035
344,260	30,792	-0,174	-0,102
345,275	-164,556	-0,056	0,002
346,289	101,685	-0,094	-0,075
347,304	500,188	-0,066	-0,105
348,319	-38,397	-0,131	-0,047
349,333	22,832	-0,121	-0,068
350,348	228,419	-0,134	-0,151
351,362	354,509	-0,074	-0,101
352,377	-200,000	0,008	-0,086
353,392	107,508	-0,187	-0,153
354,406	94,464	-0,169	-0,132
355,421	209,387	1316,191	1416,403
356,435	161,146	1477,119	1416,900
