DTS Sentinel unit serial number:	SN410029Multiplexer serial number:	ORYXHardware model number:	OX2-SRSoftware version number:	ORYX F/W v4,00 Oryx Data Collector v3.7.2.0data status	okinstallation	B3 Nyhavnadifferential loss correction	single-endedforward channel	channel 1reverse channel	N/Adate	2023/12/04time	19:52:30forward acquisition time	300,00reverse acquisition time	0,00gamma	499,1914k internal	0,3200k external	0,3200temperature offset calibration	1,0000default loss term (dB/km)	0,3820temperature slope calibration	1,0000multiplexer offset coefficient	1,0000multiplexer slope coefficient	1,0000fibre end	0,00T internal ref (°C)	14,52T ext. ref 1 (°C)	-0,68T ext. ref 2 (°C)	-0,70length (m)	temperature (°C)	Stokes	anti-Stokes-744,400	106,673	-0,194	-0,167
-743,385	-200,000	0,004	0,414
-742,371	462,674	-0,167	-0,273
-741,356	405,396	0,192	0,295
-740,342	51,961	-0,190	-0,131
-739,327	800,000	0,127	0,374
-738,312	156,544	-0,258	-0,260
-737,298	800,000	0,076	0,230
-736,283	105,834	-0,281	-0,241
-735,269	-200,000	-0,041	0,265
-734,254	429,578	-0,152	-0,241
-733,239	188,600	-0,196	0,214
-732,225	776,963	-0,122	-0,243
-731,210	268,750	0,157	0,201
-730,196	800,000	-0,042	0,120
-729,181	-52,084	0,102	0,034
-728,167	-58,943	-0,087	0,027
-727,152	573,082	0,013	-0,024
-726,137	511,678	0,034	-0,058
-725,123	-52,548	0,085	-0,028
-724,108	144,410	-0,048	-0,047
-723,094	800,000	-0,062	-0,170
-722,079	800,000	-0,061	-0,160
-721,064	82,898	0,073	-0,057
-720,050	800,000	0,017	0,035
-719,035	-30,633	-0,112	-0,046
-718,021	-200,000	-0,033	-0,153
-717,006	324,061	-0,115	-0,160
-715,991	-23,197	-0,190	-0,083
-714,977	127,727	-0,104	-0,096
-713,962	-62,539	0,156	-0,047
-712,948	369,358	0,045	0,067
-711,933	-200,000	-0,010	-0,057
-710,918	85,560	0,129	-0,103
-709,904	359,207	-0,036	-0,053
-708,889	800,000	-0,058	-0,145
-707,875	-200,000	-0,011	-0,045
-706,860	-200,000	-0,026	0,099
-705,845	715,218	-0,076	-0,148
-704,831	-200,000	-0,002	0,029
-703,816	-62,371	0,142	-0,043
-702,802	-200,000	0,016	0,066
-701,787	-153,960	-0,074	0,004
-700,772	58,633	-0,096	0,068
-699,758	523,540	-0,077	0,132
-698,743	-200,000	0,005	-0,050
-697,729	-7,892	0,143	-0,070
-696,714	-50,156	0,117	-0,040
-695,699	21,225	-0,043	0,026
-694,685	-57,461	-0,078	0,025
-693,670	800,000	-0,055	-0,140
-692,656	3,003	0,150	0,079
-691,641	10,360	0,074	-0,041
-690,627	-200,000	-0,005	0,194
-689,612	770,051	0,078	0,155
-688,597	-200,000	-0,004	-0,111
-687,583	249,612	0,094	-0,116
-686,568	235,675	-0,138	-0,166
-685,554	174,784	-0,086	-0,091
-684,539	-49,932	0,062	-0,021
-683,524	-125,350	0,059	0,007
-682,510	-186,922	-0,072	0,001
-681,495	800,000	0,033	-0,086
-680,481	-200,000	-0,039	0,201
-679,466	57,439	-0,047	-0,033
-678,451	800,000	0,021	-0,053
-677,437	168,805	0,124	0,128
-676,422	-200,000	0,027	0,157
-675,408	-200,000	-0,001	0,044
-674,393	-200,000	-0,004	-0,050
-673,378	800,000	-0,021	-0,045
-672,364	-112,516	-0,100	0,014
-671,349	-54,996	-0,120	0,039
-670,335	215,318	0,007	-0,008
-669,320	252,588	0,023	-0,029
-668,305	-200,000	-0,046	-0,159
-667,291	63,338	-0,146	0,106
-666,276	-23,667	-0,124	0,054
-665,262	48,173	-0,065	-0,044
-664,247	8,902	-0,066	0,036
-663,232	-200,000	-0,040	-0,149
-662,218	-102,495	0,196	0,034
-661,203	-86,534	0,014	-0,003
-660,189	57,738	0,090	0,064
-659,174	259,352	-0,098	-0,123
-658,159	800,000	0,005	-0,011
-657,145	186,689	-0,041	0,044
-656,130	-106,373	0,116	-0,019
-655,116	90,814	0,032	-0,026
-654,101	800,000	0,024	-0,057
-653,086	800,000	0,063	-0,165
-652,072	122,487	-0,096	-0,087
-651,057	89,990	-0,085	-0,069
-650,043	-61,194	-0,134	-0,041
-649,028	-200,000	-0,005	-0,087
-648,014	-172,168	-0,069	0,002
-646,999	57,046	-0,076	0,054
-645,984	-200,000	-0,021	0,072
-644,970	-200,000	-0,003	-0,016
-643,955	226,141	-0,056	-0,066
-642,941	-200,000	0,006	-0,123
-641,926	-200,000	0,026	-0,111
-640,911	-125,799	0,165	0,018
-639,897	247,073	-0,066	-0,081
-638,882	-200,000	0,000	-0,080
-637,868	-53,757	-0,162	-0,053
-636,853	-200,000	0,006	0,063
-635,838	-50,765	0,049	0,016
-634,824	431,801	-0,049	0,077
-633,809	345,529	0,061	0,087
-632,795	12,524	0,132	-0,074
-631,780	800,000	0,023	-0,055
-630,765	800,000	-0,035	0,086
-629,751	127,618	0,034	0,032
-628,736	-111,639	-0,066	0,010
-627,722	169,911	0,097	0,100
-626,707	-200,000	-0,024	-0,179
-625,692	800,000	-0,021	0,052
-624,678	-200,000	0,029	0,163
-623,663	73,100	-0,076	0,058
-622,649	130,884	-0,044	-0,041
-621,634	329,399	-0,048	-0,066
-620,619	-28,779	-0,133	0,055
-619,605	225,170	-0,020	0,024
-618,590	197,405	0,070	-0,078
-617,576	800,000	0,050	0,133
-616,561	22,820	-0,057	0,034
-615,546	153,304	0,056	0,055
-614,532	-200,000	-0,036	-0,241
-613,517	551,945	-0,050	-0,088
-612,503	-200,000	-0,001	0,012
-611,488	800,000	0,017	0,037
-610,474	104,480	-0,036	0,031
-609,459	-200,000	-0,003	0,040
-608,444	-26,329	-0,106	-0,045
-607,430	96,631	-0,119	-0,098
-606,415	-200,000	-0,036	-0,119
-605,401	78,673	0,085	-0,066
-604,386	46,429	-0,016	0,011
-603,371	-50,048	-0,026	-0,009
-602,357	-200,000	0,002	-0,108
-601,342	-200,000	-0,007	-0,027
-600,328	142,342	-0,068	-0,066
-599,313	37,109	-0,048	-0,031
-598,298	-200,000	0,032	0,107
-597,284	30,181	0,111	0,069
-596,269	-145,207	0,096	0,006
-595,255	-57,268	-0,079	-0,025
-594,240	540,280	0,005	0,009
-593,225	119,292	-0,061	0,055
-592,211	100,009	-0,136	-0,114
-591,196	-200,000	-0,036	-0,127
-590,182	186,636	0,119	-0,129
-589,167	196,615	0,052	0,057
-588,152	117,058	-0,110	0,097
-587,138	-116,410	0,098	0,013
-586,123	-100,641	-0,163	0,029
-585,109	800,000	-0,047	-0,108
-584,094	42,004	0,078	0,051
-583,079	-94,642	-0,052	-0,010
-582,065	430,726	0,092	0,144
-581,050	-200,000	-0,008	0,099
-580,036	-77,997	0,163	0,040
-579,021	650,541	-0,016	-0,030
-578,006	211,651	-0,081	-0,093
-576,992	-200,000	-0,019	-0,076
-575,977	365,185	-0,041	-0,059
-574,963	-200,000	0,001	-0,078
-573,948	-200,000	0,009	-0,079
-572,934	39,848	-0,030	-0,019
-571,919	-29,873	-0,015	0,006
-570,904	30,637	0,044	-0,027
-569,890	800,000	-0,024	-0,074
-568,875	249,879	-0,029	-0,036
-567,861	-200,000	0,022	0,077
-566,846	-200,000	0,005	-0,021
-565,831	800,000	0,060	0,149
-564,817	-200,000	-0,004	-0,057
-563,802	-200,000	0,016	-0,067
-562,788	800,000	0,021	-0,064
-561,773	-200,000	0,010	0,038
-560,758	-53,532	0,093	-0,031
-559,744	800,000	-0,018	0,044
-558,729	-14,612	-0,081	0,037
-557,715	-200,000	-0,020	-0,125
-556,700	-64,413	0,144	0,042
-555,685	-24,800	-0,085	0,036
-554,671	303,008	-0,112	-0,150
-553,656	7,075	0,047	0,025
-552,642	800,000	0,024	-0,069
-551,627	74,432	-0,079	-0,060
-550,612	-1,403	-0,095	0,048
-549,598	21,074	-0,141	-0,082
-548,583	-124,033	-0,089	-0,010
-547,569	-31,754	-0,118	0,048
-546,554	-17,589	0,047	0,021
-545,539	138,214	-0,088	-0,083
-544,525	402,825	-0,016	0,024
-543,510	142,547	0,039	-0,037
-542,496	-83,651	-0,090	0,021
-541,481	800,000	0,027	-0,079
-540,466	-200,000	0,001	0,083
-539,452	-200,000	-0,005	0,020
-538,437	-200,000	-0,023	0,104
-537,423	96,329	0,035	0,029
-536,408	93,655	0,024	0,019
-535,393	160,127	-0,083	-0,084
-534,379	122,522	-0,052	-0,046
-533,364	69,959	-0,075	-0,056
-532,350	-84,281	0,134	0,030
-531,335	209,664	0,042	0,048
-530,321	13,050	-0,095	-0,053
-529,306	147,196	-0,032	0,031
-528,291	227,237	-0,059	-0,069
-527,277	-174,326	-0,112	0,002
-526,262	-139,341	-0,069	-0,005
-525,248	-39,732	0,047	-0,018
-524,233	-39,366	0,110	0,041
-523,218	-98,116	0,027	-0,005
-522,204	800,000	0,069	-0,144
-521,189	-200,000	0,006	-0,078
-520,175	800,000	-0,040	-0,091
-519,160	-110,173	0,108	-0,016
-518,145	800,000	-0,036	-0,089
-517,131	173,262	-0,070	-0,072
-516,116	126,020	0,029	-0,026
-515,102	-65,650	-0,036	0,010
-514,087	-130,456	-0,044	0,004
-513,072	212,529	-0,044	-0,051
-512,058	51,831	0,069	0,048
-511,043	800,000	-0,030	-0,079
-510,029	266,282	0,068	-0,086
-509,014	84,353	-0,022	0,017
-507,999	-111,463	-0,121	-0,018
-506,985	58,553	-0,086	0,061
-505,970	-200,000	0,030	-0,168
-504,956	-35,254	-0,171	-0,067
-503,941	194,479	0,036	0,040
-502,926	426,833	0,104	0,162
-501,912	-200,000	0,028	0,166
-500,897	0,733	0,171	-0,088
-499,883	-200,000	0,004	0,094
-498,868	15,100	-0,053	-0,030
-497,853	125,641	-0,128	-0,116
-496,839	267,900	-0,034	-0,043
-495,824	-200,000	0,012	-0,048
-494,810	197,613	-0,078	-0,086
-493,795	-200,000	-0,020	0,140
-492,781	-200,000	0,005	0,084
-491,766	800,000	0,018	0,044
-490,751	171,672	-0,066	0,068
-489,737	-200,000	-0,008	0,077
-488,722	109,500	-0,027	-0,024
-487,708	106,744	0,113	0,097
-486,693	292,214	0,064	0,084
-485,678	-200,000	0,012	-0,057
-484,664	132,223	0,074	0,069
-483,649	181,097	0,034	0,036
-482,635	-5,926	0,047	-0,023
-481,620	488,942	-0,074	0,123
-480,605	800,000	0,031	-0,074
-479,591	-115,805	-0,034	-0,005
-478,576	48,772	-0,062	-0,042
-477,562	184,740	0,040	-0,043
-476,547	266,027	-0,032	-0,040
-475,532	800,000	0,014	-0,037
-474,518	146,540	-0,054	0,053
-473,503	-146,904	0,231	0,014
-472,489	303,754	0,093	0,124
-471,474	800,000	-0,023	0,048
-470,459	-200,000	-0,027	0,101
-469,445	235,366	-0,128	0,152
-468,430	62,389	-0,037	-0,027
-467,416	24,285	0,049	-0,029
-466,401	-200,000	-0,015	0,119
-465,386	-83,147	-0,075	0,017
-464,372	144,871	0,009	0,009
-463,357	-77,291	0,152	0,038
-462,343	-8,240	-0,140	-0,068
-461,328	-44,891	0,073	0,026
-460,313	-155,647	0,055	0,003
-459,299	800,000	0,032	0,076
-458,284	-75,875	0,095	0,024
-457,270	-200,000	0,020	-0,091
-456,255	-200,000	-0,017	0,057
-455,241	316,519	-0,024	0,032
-454,226	-7,705	-0,121	-0,059
-453,211	-200,000	-0,036	-0,204
-452,197	714,179	-0,036	0,068
-451,182	-200,000	-0,008	-0,079
-450,168	667,236	-0,046	0,085
-449,153	157,282	0,010	-0,010
-448,138	-200,000	-0,007	-0,139
-447,124	-12,508	-0,057	0,027
-446,109	800,000	-0,026	0,069
-445,095	120,789	-0,101	0,090
-444,080	-174,668	0,115	0,002
-443,065	201,361	0,080	0,089
-442,051	800,000	0,048	-0,107
-441,036	-200,000	-0,026	-0,139
-440,022	688,146	0,027	-0,051
-439,007	-200,000	-0,023	-0,109
-437,992	-200,000	-0,057	0,249
-436,978	293,340	0,020	-0,026
-435,963	-32,432	0,083	0,033
-434,949	-23,661	-0,031	-0,013
-433,934	-200,000	0,005	-0,094
-432,919	82,399	0,044	-0,035
-431,905	168,420	-0,019	-0,019
-430,890	4,067	0,049	0,026
-429,876	100,019	-0,085	0,071
-428,861	-49,706	0,092	-0,031
-427,846	-170,696	0,088	-0,002
-426,832	112,290	-0,089	0,077
-425,817	-200,000	-0,014	0,105
-424,803	298,064	-0,030	-0,040
-423,788	266,118	-0,043	-0,054
-422,773	593,225	0,024	-0,042
-421,759	8,864	0,069	-0,037
-420,744	-200,000	-0,033	0,145
-419,730	-200,000	0,023	0,081
-418,715	800,000	-0,013	-0,031
-417,701	-108,526	-0,098	0,015
-416,686	-64,977	-0,085	-0,025
-415,671	220,614	-0,031	0,035
-414,657	-22,975	-0,119	0,051
-413,642	-200,000	0,007	-0,074
-412,628	-200,000	0,007	-0,187
-411,613	-200,000	0,004	-0,039
-410,598	-200,000	-0,004	0,020
-409,584	800,000	0,021	0,063
-408,569	-142,454	0,078	0,005
-407,555	-200,000	0,011	-0,074
-406,540	474,514	-0,045	-0,074
-405,525	800,000	0,055	0,137
-404,511	-5,370	-0,026	-0,013
-403,496	-200,000	-0,016	0,089
-402,482	800,000	-0,014	-0,036
-401,467	192,810	0,050	0,054
-400,452	697,206	0,040	0,077
-399,438	-176,431	0,112	-0,002
-398,423	-84,005	-0,109	-0,025
-397,409	-200,000	-0,018	-0,089
-396,394	-122,550	-0,195	0,023
-395,379	203,485	0,052	0,058
-394,365	-200,000	-0,003	-0,129
-393,350	800,000	0,035	-0,087
-392,336	-41,062	0,067	0,025
-391,321	-71,247	-0,074	0,020
-390,306	157,462	-0,082	-0,082
-389,292	-159,276	-0,132	0,005
-388,277	-200,000	0,019	-0,115
-387,263	757,647	0,042	0,082
-386,248	140,608	0,098	-0,093
-385,233	-69,492	0,186	0,051
-384,219	-200,000	0,020	0,065
-383,204	-29,294	0,046	0,019
-382,190	-69,424	0,187	0,051
-381,175	-104,081	0,065	-0,011
-380,160	-84,743	0,042	-0,009
-379,146	68,799	0,139	-0,102
-378,131	800,000	0,060	0,163
-377,117	-106,178	-0,090	-0,014
-376,102	364,400	-0,043	-0,063
-375,088	729,331	0,051	0,098
-374,073	695,151	-0,017	-0,031
-373,058	800,000	-0,025	-0,063
-372,044	-143,294	0,044	-0,003
-371,029	58,233	0,077	-0,054
-370,015	-57,464	-0,045	0,014
-369,000	-118,699	0,089	-0,011
-367,985	-117,158	0,087	0,011
-366,971	-200,000	0,014	-0,170
-365,956	-102,401	0,199	-0,034
-364,942	-174,480	0,122	-0,002
-363,927	199,789	0,095	-0,105
-362,912	-200,000	-0,022	-0,084
-361,898	800,000	-0,064	-0,167
-360,883	-200,000	-0,021	-0,144
-359,869	-134,066	-0,035	-0,003
-358,854	228,443	-0,046	-0,054
-357,839	800,000	0,035	0,088
-356,825	44,644	0,135	0,088
-355,810	585,731	0,082	0,144
-354,796	-164,340	0,098	0,003
-353,781	-86,817	-0,186	0,040
-352,766	-9,168	-0,036	0,017
-351,752	-163,248	0,143	-0,005
-350,737	-200,000	-0,002	0,105
-349,723	-200,000	-0,004	-0,066
-348,708	11,081	0,097	0,053
-347,693	-107,148	-0,070	0,011
-346,679	443,185	-0,042	-0,066
-345,664	70,076	0,101	-0,075
-344,650	692,984	0,084	-0,158
-343,635	367,968	0,041	-0,060
-342,620	-200,000	-0,012	0,103
-341,606	-200,000	0,006	0,081
-340,591	-200,000	0,009	0,041
-339,577	286,244	0,032	0,042
-338,562	63,835	-0,064	0,046
-337,548	-200,000	0,000	-0,187
-336,533	55,129	0,101	0,070
-335,518	261,507	0,138	0,171
-334,504	-79,627	-0,012	0,003
-333,489	-146,491	0,122	-0,008
-332,475	-44,464	0,068	0,024
-331,460	-134,572	-0,060	0,005
-330,445	684,049	-0,038	-0,071
-329,431	-47,224	-0,038	0,013
-328,416	800,000	-0,078	0,170
-327,402	-24,667	0,187	0,079
-326,387	-200,000	0,011	0,090
-325,372	-59,596	-0,102	-0,031
-324,358	711,089	0,010	0,018
-323,343	-101,093	-0,072	0,012
-322,329	-16,429	0,125	-0,056
-321,314	800,000	0,026	0,069
-320,299	-200,000	0,040	0,129
-319,285	800,000	-0,027	-0,085
-318,270	-200,000	0,001	-0,042
-317,256	-99,945	-0,129	-0,023
-316,241	-170,531	0,103	0,003
-315,226	685,617	0,055	-0,103
-314,212	286,086	0,111	0,144
-313,197	-200,000	0,009	0,084
-312,183	800,000	-0,079	-0,177
-311,168	-119,894	-0,107	-0,013
-310,153	429,753	0,044	-0,069
-309,139	604,934	0,072	-0,129
-308,124	127,289	-0,018	0,016
-307,110	-126,133	0,145	0,015
-306,095	13,463	0,109	-0,061
-305,080	-107,026	0,047	-0,007
-304,066	-6,682	-0,155	-0,075
-303,051	-144,523	0,064	0,004
-302,037	800,000	0,029	-0,066
-301,022	-200,000	-0,005	0,022
-300,008	-146,482	0,169	-0,010
-298,993	534,400	0,044	-0,074
-297,978	-55,411	-0,072	0,023
-296,964	300,259	-0,034	-0,045
-295,949	-43,765	0,013	0,005
-294,935	800,000	0,039	0,101
-293,920	54,202	-0,118	0,081
-292,905	-111,719	0,095	-0,014
-291,891	-11,241	0,076	0,035
-290,876	397,743	-0,052	-0,077
-289,862	17,573	0,157	0,089
-288,847	43,004	0,064	0,042
-287,832	-3,412	-0,117	-0,058
-286,818	-117,397	-0,022	-0,003
-285,803	366,797	0,008	-0,011
-284,789	-66,799	0,064	0,018
-283,774	800,000	-0,011	0,035
-282,759	404,675	-0,034	-0,051
-281,745	208,909	-0,082	-0,092
-280,730	-38,550	-0,051	-0,019
-279,716	-200,000	0,002	0,059
-278,701	-108,059	0,164	0,025
-277,686	64,587	0,117	-0,084
-276,672	-176,495	0,123	0,002
-275,657	22,574	-0,114	0,066
-274,643	-194,411	-0,107	0,001
-273,628	228,338	0,064	0,074
-272,613	115,999	-0,068	0,059
-271,599	-200,000	0,043	0,138
-270,584	800,000	0,027	0,067
-269,570	-21,748	0,068	0,029
-268,555	141,311	-0,033	0,031
-267,540	-200,000	-0,017	-0,110
-266,526	534,539	0,044	-0,075
-265,511	-200,000	0,060	-0,249
-264,497	800,000	-0,077	0,156
-263,482	468,104	-0,007	0,012
-262,467	-200,000	0,013	0,156
-261,453	-156,186	-0,051	-0,002
-260,438	-200,000	0,001	0,044
-259,424	104,332	0,063	-0,053
-258,409	58,166	-0,099	-0,070
-257,395	276,636	-0,085	0,108
-256,380	519,753	0,014	0,024
-255,365	-167,841	0,020	0,001
-254,351	-200,000	-0,037	0,159
-253,336	38,463	-0,133	-0,084
-252,322	-119,926	0,035	-0,004
-251,307	-200,000	-0,024	-0,148
-250,292	-11,161	-0,178	-0,084
-249,278	-200,000	-0,021	0,088
-248,263	-18,614	0,063	-0,028
-247,249	-44,634	0,027	0,010
-246,234	-9,666	0,033	-0,015
-245,219	778,089	-0,062	-0,122
-244,205	84,044	-0,057	0,044
-243,190	27,313	0,095	0,057
-242,176	-152,286	0,108	0,005
-241,161	665,038	0,156	0,289
-240,146	-200,000	-0,018	0,073
-239,132	-64,132	-0,170	-0,049
-238,117	-167,145	0,093	0,003
-237,103	-200,000	-0,015	0,177
-236,088	-200,000	-0,017	-0,125
-235,073	362,955	-0,091	-0,130
-234,059	-200,000	0,042	0,168
-233,044	70,630	-0,069	0,051
-232,030	129,167	-0,024	0,022
-231,015	-200,000	-0,016	0,107
-230,000	-200,000	-0,016	0,071
-228,986	-200,000	0,013	0,179
-227,971	-200,000	0,032	-0,136
-226,957	234,216	0,071	-0,084
-225,942	-104,105	-0,098	-0,016
-224,927	47,472	0,117	0,078
-223,913	94,804	-0,065	-0,053
-222,898	-72,318	-0,047	0,012
-221,884	-200,000	0,007	-0,027
-220,869	-200,000	0,006	0,092
-219,855	-91,059	0,174	0,035
-218,840	-200,000	-0,038	0,127
-217,825	628,345	0,045	-0,081
-216,811	16,061	-0,032	-0,018
-215,796	-200,000	0,011	-0,161
-214,782	-12,143	-0,126	-0,058
-213,767	55,588	0,052	-0,036
-212,752	1,969	0,065	-0,033
-211,738	-154,048	0,053	-0,003
-210,723	-200,000	0,045	-0,148
-209,709	800,000	0,088	0,231
-208,694	-11,702	-0,080	0,037
-207,679	61,256	0,032	0,023
-206,665	-200,000	-0,001	0,017
-205,650	12,434	0,066	-0,036
-204,636	161,902	0,048	-0,048
-203,621	37,986	0,023	0,015
-202,606	28,651	-0,098	-0,059
-201,592	800,000	-0,036	-0,093
-200,577	-200,000	-0,018	-0,121
-199,563	109,374	0,106	0,090
-198,548	105,028	0,090	-0,075
-197,533	-135,904	-0,033	-0,003
-196,519	44,634	0,059	-0,039
-195,504	237,464	-0,092	0,109
-194,490	2,837	0,086	-0,044
-193,475	-134,115	-0,140	-0,012
-192,460	-98,914	0,046	0,008
-191,446	-35,193	-0,131	0,050
-190,431	-200,000	-0,016	0,109
-189,417	800,000	-0,027	-0,057
-188,402	16,983	0,056	-0,032
-187,387	-63,194	-0,234	0,068
-186,373	87,996	-0,132	-0,104
-185,358	-200,000	-0,007	-0,098
-184,344	-95,976	0,072	-0,013
-183,329	800,000	-0,041	0,111
-182,315	67,789	0,062	-0,045
-181,300	-200,000	0,038	0,165
-180,285	-15,078	-0,079	-0,036
-179,271	19,593	-0,040	0,023
-178,256	-32,472	-0,051	-0,020
-177,242	229,732	0,066	0,077
-176,227	-200,000	-0,012	0,057
-175,212	-200,000	0,015	0,094
-174,198	125,183	0,015	0,013
-173,183	-151,511	-0,138	0,007
-172,169	-200,000	0,002	-0,076
-171,154	-200,000	0,003	0,054
-170,139	516,973	-0,075	0,125
-169,125	-150,824	-0,099	-0,005
-168,110	752,691	0,057	0,110
-167,096	-200,000	0,005	0,056
-166,081	55,672	-0,121	-0,083
-165,066	-200,000	0,007	-0,046
-164,052	-200,000	-0,023	0,136
-163,037	69,700	0,028	0,021
-162,023	343,220	0,082	0,114
-161,008	101,624	-0,098	0,081
-159,993	-79,454	0,065	0,016
-158,979	-26,950	-0,127	-0,052
-157,964	191,969	-0,087	-0,094
-156,950	800,000	0,027	-0,052
-155,935	800,000	-0,059	0,171
-154,920	358,737	-0,047	0,067
-153,906	-200,000	0,008	0,074
-152,891	181,756	0,069	0,073
-151,877	-200,000	0,037	-0,142
-150,862	89,849	-0,030	0,023
-149,847	124,028	-0,107	-0,095
-148,833	-1,124	0,124	0,062
-147,818	-200,000	-0,002	-0,052
-146,804	439,768	0,141	0,219
-145,789	-38,419	0,076	0,028
-144,775	800,000	-0,005	-0,016
-143,760	-153,669	-0,117	0,006
-142,745	208,034	0,038	-0,042
-141,731	-27,514	-0,130	0,053
-140,716	14,137	0,037	0,021
-139,702	58,344	0,078	-0,054
-138,687	197,542	0,046	0,050
-137,672	-16,387	0,099	-0,045
-136,658	66,887	0,044	-0,032
-135,643	-200,000	0,013	-0,100
-134,629	602,039	0,021	-0,037
-133,614	8,982	0,126	0,068
-132,599	79,135	0,055	0,042
-131,585	310,402	0,111	0,148
-130,570	-146,232	-0,087	-0,005
-129,556	-200,000	-0,028	-0,117
-128,541	549,424	-0,040	-0,068
-127,526	176,728	-0,049	-0,050
-126,512	-101,851	0,131	-0,022
-125,497	-96,550	0,139	0,026
-124,483	-200,000	-0,034	0,117
-123,468	-156,938	-0,073	-0,003
-122,453	246,959	-0,055	-0,066
-121,439	-32,487	0,061	-0,024
-120,424	38,952	0,160	0,101
-119,410	-10,047	0,213	0,100
-118,395	66,179	0,114	0,082
-117,380	800,000	0,044	0,105
-116,366	-200,000	0,025	0,114
-115,351	800,000	-0,043	-0,105
-114,337	-104,698	-0,068	-0,011
-113,322	408,337	-0,089	-0,134
-112,307	800,000	0,019	0,039
-111,293	113,090	0,049	-0,042
-110,278	-200,000	0,000	-0,020
-109,264	-125,461	0,096	0,010
-108,249	-200,000	-0,017	-0,094
-107,234	567,467	-0,038	0,066
-106,220	28,351	-0,088	-0,053
-105,205	235,722	-0,033	-0,039
-104,191	177,260	0,084	0,087
-103,176	-36,347	0,247	-0,094
-102,162	-200,000	0,010	-0,074
-101,147	-200,000	0,029	0,098
-100,132	-200,000	0,009	0,098
-99,118	90,765	0,096	-0,076
-98,103	-200,000	0,003	0,063
-97,089	-200,000	-0,023	-0,075
-96,074	288,370	0,108	-0,140
-95,059	45,222	0,058	0,038
-94,045	800,000	-0,023	-0,060
-93,030	-200,000	-0,010	0,068
-92,016	280,388	-0,032	-0,040
-91,001	516,634	-0,033	0,055
-89,986	70,730	0,075	-0,055
-88,972	-155,594	0,107	0,005
-87,957	800,000	0,063	-0,193
-86,943	741,797	-0,035	0,068
-85,928	-109,484	0,096	0,014
-84,913	745,519	-0,057	-0,109
-83,899	800,000	-0,008	-0,020
-82,884	-176,997	0,129	-0,002
-81,870	-25,830	0,019	0,008
-80,855	-127,297	-0,089	0,009
-79,840	-200,000	-0,003	0,083
-78,826	-167,950	-0,134	-0,004
-77,811	800,000	0,062	0,146
-76,797	800,000	-0,016	0,050
-75,782	71,300	0,107	-0,078
-74,767	-69,256	-0,041	0,011
-73,753	155,656	0,021	0,020
-72,738	-25,609	0,114	-0,047
-71,724	-200,000	0,002	-0,049
-70,709	800,000	-0,030	-0,079
-69,694	334,405	-0,082	0,113
-68,680	360,475	0,078	0,111
-67,665	800,000	-0,063	0,129
-66,651	150,966	0,191	0,184
-65,636	24,275	-0,071	0,042
-64,622	304,014	-0,015	-0,020
-63,607	129,511	-0,107	-0,097
-62,592	46,184	-0,062	-0,041
-61,578	-187,059	-0,051	-0,000
-60,563	-149,199	0,208	0,012
-59,549	800,000	-0,027	0,057
-58,534	-39,699	-1,590	-0,586
-57,519	381,438	-1,490	-2,174
-56,505	-200,000	-0,559	-4,640
-55,490	210,266	0,916	1,020
-54,476	800,000	4,852	11,293
-53,461	-200,000	18,503	297,132
-52,446	800,000	731,572	2257,297
-51,432	558,368	1647,977	2826,842
-50,417	78,861	1668,228	1263,086
-49,403	22,436	1541,281	890,178
-48,388	16,416	1464,380	816,551
-47,373	17,787	1454,233	817,475
-46,359	17,030	1444,612	808,408
-45,344	14,657	1440,200	794,555
-44,330	14,587	1438,124	793,044
-43,315	14,604	1436,482	792,188
-42,300	14,601	1434,729	791,176
-41,286	14,671	1433,434	790,764
-40,271	14,601	1432,196	789,717
-39,257	14,588	1431,106	789,020
-38,242	14,614	1429,798	788,393
-37,227	14,638	1428,558	787,790
-36,213	14,639	1427,208	787,020
-35,198	14,639	1426,038	786,344
-34,184	14,666	1425,180	785,967
-33,169	14,626	1423,652	784,904
-32,154	14,620	1423,008	784,489
-31,140	14,635	1421,434	783,663
-30,125	14,682	1420,302	783,230
-29,111	14,631	1419,302	782,406
-28,096	14,581	1418,336	781,604
-27,082	14,594	1417,090	780,948
-26,067	14,544	1416,138	780,160
-25,052	14,555	1414,989	779,545
-24,038	14,510	1414,001	778,761
-23,023	14,500	1412,979	778,119
-22,009	14,540	1412,046	777,763
-20,994	14,469	1411,172	776,918
-19,979	14,475	1410,232	776,396
-18,965	14,513	1408,843	775,779
-17,950	14,439	1408,370	775,142
-16,936	14,482	1407,331	774,739
-15,921	14,453	1406,090	773,891
-14,906	14,413	1405,475	773,336
-13,892	14,463	1404,177	772,822
-12,877	14,474	1403,450	772,443
-11,863	14,441	1402,661	771,823
-10,848	14,438	1401,789	771,301
-9,833	14,421	1400,775	770,634
-8,819	14,334	1400,025	769,787
-7,804	14,382	1399,080	769,457
-6,790	14,321	1397,944	768,520
-5,775	14,359	1396,797	768,034
-4,760	14,361	1395,920	767,533
-3,746	14,310	1395,284	766,914
-2,731	14,364	1394,483	766,696
-1,717	14,367	1393,519	766,146
-0,702	14,333	1391,932	765,087
0,313	18,086	1310,086	737,509
1,327	34,447	705,996	435,336
2,342	53,498	124,147	84,144
3,356	6,103	16,537	8,647
4,371	-7,620	3,154	1,504
5,386	7,520	0,441	0,233
6,400	-200,000	0,002	0,241
7,415	40,745	-0,269	-0,171
8,429	22,502	-0,257	-0,148
9,444	102,193	-0,249	-0,206
10,459	93,679	-0,295	-0,236
11,473	-97,399	-0,313	-0,057
12,488	233,651	-0,153	-0,179
13,502	-88,021	-0,375	-0,079
14,517	27,597	-0,331	-0,197
15,531	232,330	-0,300	-0,349
16,546	-19,526	-0,555	-0,242
17,561	85,534	-0,386	-0,300
18,575	-32,229	-0,310	-0,122
19,590	-54,647	-0,270	-0,086
20,604	136,169	-0,276	-0,254
21,619	3,936	-0,497	-0,256
22,634	66,339	-0,473	-0,339
23,648	53,578	-0,311	-0,211
24,663	177,670	-0,436	-0,450
25,677	183,479	-0,331	-0,346
26,692	139,698	-0,264	-0,246
27,707	59,196	-0,241	-0,167
28,721	202,175	-0,347	-0,378
29,736	23,293	-0,482	-0,279
30,750	25,754	-0,394	-0,231
31,765	104,050	-0,451	-0,374
32,780	112,115	-0,348	-0,297
33,794	221,779	-0,285	-0,324
34,809	-29,949	-0,395	-0,158
35,823	20,653	-0,389	-0,222
36,838	543,375	-0,293	-0,495
37,853	68,480	-0,381	-0,275
38,867	148,785	-0,290	-0,277
39,882	-9,637	-0,375	-0,176
40,896	149,501	-0,257	-0,246
41,911	167,971	-0,291	-0,293
42,926	95,968	-0,303	-0,244
43,940	190,689	-0,367	-0,389
44,955	7,657	-0,488	-0,257
45,969	48,541	-0,329	-0,217
46,984	58,615	-0,368	-0,254
47,999	32,732	-0,349	-0,212
49,013	337,073	-0,253	-0,347
50,028	48,338	-0,268	-0,177
51,042	-25,142	-0,341	-0,142
52,057	148,533	-0,236	-0,224
53,071	21,063	-0,403	-0,230
54,086	26,263	-0,233	-0,137
55,101	0,383	-0,406	-0,204
56,115	12,843	-0,341	-0,185
57,130	-2,363	-0,456	-0,224
58,144	258,252	-0,314	-0,381
59,159	-9,040	-0,595	-0,280
60,174	-18,396	-0,337	-0,147
61,188	200,169	-0,257	-0,278
62,203	18,837	-0,322	-0,181
63,217	74,920	-0,325	-0,241
64,232	217,342	-0,364	-0,409
65,247	-70,925	-0,253	-0,067
66,261	169,673	-0,374	-0,376
67,276	15,662	-0,403	-0,223
68,290	45,898	-0,233	-0,151
69,305	-82,829	-0,324	-0,073
70,320	157,822	-0,296	-0,288
71,334	22,398	-0,203	-0,117
72,349	110,951	-0,226	-0,192
73,363	64,878	-0,431	-0,306
74,378	266,012	-0,268	-0,329
75,393	22,000	-0,353	-0,202
76,407	-85,548	-0,337	-0,073
77,422	78,047	-0,363	-0,272
78,436	53,697	-0,247	-0,166
79,451	-9,145	-0,182	-0,085
80,466	-28,856	-0,325	-0,131
81,480	173,530	-0,297	-0,302
82,495	-15,395	-0,302	-0,135
83,509	-37,280	-0,359	-0,134
84,524	-2,355	-0,272	-0,133
85,539	-108,382	-0,251	-0,038
86,553	-1,407	-0,285	-0,141
87,568	52,241	-0,336	-0,225
88,582	124,908	-0,323	-0,286
89,597	459,030	-0,262	-0,411
90,611	240,203	-0,235	-0,276
91,626	-95,243	-0,414	-0,078
92,641	-94,387	-0,307	-0,058
93,655	167,034	-0,240	-0,239
94,670	24,211	-0,243	-0,141
95,684	120,248	-0,302	-0,263
96,699	-54,842	-0,343	-0,108
97,714	72,426	-0,288	-0,210
98,728	-30,065	-0,334	-0,133
99,743	-134,682	-0,271	0,023
100,757	33,313	-0,307	-0,186
101,772	-25,867	-0,177	-0,073
102,787	-110,675	-0,268	-0,038
103,801	55,962	-0,427	-0,290
104,816	62,862	-0,219	-0,153
105,830	-107,121	-0,289	-0,044
106,845	-165,655	-0,259	-0,008
107,860	-37,739	-0,104	-0,039
108,874	81,943	-0,246	-0,187
109,889	436,379	-0,163	-0,249
110,903	-1,164	-0,282	-0,139
111,918	211,875	-0,259	-0,286
112,933	-3,148	-0,146	-0,071
113,947	3,154	-0,222	-0,113
114,962	195,545	-0,195	-0,208
115,976	120,687	-0,372	-0,324
116,991	800,000	-0,117	-0,286
118,006	384,440	-0,195	-0,282
119,020	26,254	-0,296	-0,173
120,035	-62,738	-0,294	-0,085
121,049	-3,181	-0,124	-0,060
122,064	-9,648	-0,314	-0,146
123,079	4,496	-0,312	-0,160
124,093	199,848	-0,189	-0,204
125,108	49,704	-0,271	-0,178
126,122	141,373	-0,272	-0,252
127,137	294,832	-0,205	-0,263
128,151	-28,218	-0,329	-0,132
129,166	772,525	-0,164	-0,313
130,181	428,062	-0,194	-0,294
131,195	89,787	-0,375	-0,293
132,210	-2,850	-0,283	-0,138
133,224	698,175	-0,100	-0,185
134,239	198,590	-0,309	-0,332
135,254	-13,782	-0,237	-0,107
136,268	-113,539	-0,353	-0,048
137,283	85,208	-0,287	-0,220
138,297	-49,542	-0,321	-0,106
139,312	363,305	-0,245	-0,345
140,327	263,961	-0,153	-0,186
141,341	23,004	-0,273	-0,156
142,356	-89,525	-0,330	-0,067
143,370	-6,627	-0,296	-0,140
144,385	78,312	-0,277	-0,206
145,400	2,620	-0,322	-0,163
146,414	89,957	-0,272	-0,212
147,429	707,348	-0,145	-0,269
148,443	-28,281	-0,251	-0,101
149,458	283,767	-0,191	-0,240
150,473	316,581	-0,196	-0,259
151,487	212,031	-0,173	-0,191
152,502	-115,409	-0,412	-0,054
153,516	427,785	-0,202	-0,306
154,531	145,983	-0,222	-0,208
155,546	-96,127	-0,278	-0,051
156,560	-200,000	-0,040	-0,144
157,575	-48,520	-0,269	-0,090
158,589	-89,917	-0,296	-0,060
159,604	293,808	-0,163	-0,208
160,619	70,777	-0,235	-0,169
161,633	63,863	-0,189	-0,132
162,648	9,149	-0,198	-0,104
163,662	83,784	-0,183	-0,139
164,677	133,926	-0,147	-0,133
165,692	125,616	-0,170	-0,150
166,706	13,169	-0,216	-0,116
167,721	-44,360	-0,177	-0,061
168,735	-53,997	-0,289	-0,091
169,750	29,045	-0,235	-0,139
170,764	94,339	-0,240	-0,190
171,779	94,290	-0,202	-0,160
172,794	140,565	-0,246	-0,226
173,808	234,405	-0,157	-0,181
174,823	230,379	-0,205	-0,234
175,837	19,714	-0,345	-0,193
176,852	-55,784	-0,324	-0,100
177,867	754,256	-0,061	-0,116
178,881	35,428	-0,234	-0,143
179,896	120,653	-0,301	-0,260
180,910	-91,749	-0,179	-0,035
181,925	-178,431	-0,311	0,005
182,940	-56,319	-0,339	-0,104
183,954	-1,873	-0,222	-0,108
184,969	-94,883	-0,295	-0,055
185,983	12,570	-0,183	-0,098
186,998	95,950	-0,161	-0,128
188,013	47,153	-0,207	-0,134
189,027	246,869	-0,255	-0,300
190,042	241,326	-0,196	-0,228
191,056	169,454	-0,145	-0,144
192,071	-143,411	-0,063	-0,004
193,086	-1,942	-0,269	-0,131
194,100	3,285	-0,274	-0,138
195,115	690,792	-0,098	-0,179
196,129	18,927	-0,189	-0,105
197,144	239,779	-0,175	-0,203
198,159	-84,220	-0,388	-0,085
199,173	-10,963	-0,206	-0,094
200,188	30,567	-0,212	-0,126
201,202	22,402	-0,182	-0,103
202,217	-152,982	-0,109	0,005
203,232	347,769	-0,106	-0,146
204,246	27,399	-0,221	-0,129
205,261	157,666	-0,213	-0,205
206,275	35,696	-0,251	-0,153
207,290	75,134	-0,203	-0,149
208,304	138,058	-0,119	0,109
209,319	232,429	-0,183	-0,210
210,334	322,373	-0,168	-0,223
211,348	-103,207	-0,175	-0,028
212,363	253,135	-0,103	-0,122
213,377	131,396	-0,174	-0,155
214,392	-94,380	-0,232	-0,044
215,407	-63,379	-0,229	-0,065
216,421	-121,368	-0,136	-0,015
217,436	170,709	-0,124	-0,123
218,450	438,759	-0,097	-0,147
219,465	-19,029	-0,258	-0,111
220,480	26,986	-0,180	-0,104
221,494	-138,650	-0,178	0,013
222,509	-28,359	-0,153	-0,061
223,523	-12,362	-0,254	-0,115
224,538	-162,069	-0,172	0,006
225,553	64,194	-0,264	-0,184
226,567	127,670	-0,236	-0,208
227,582	-200,000	-0,085	-0,290
228,596	24,763	-0,206	-0,118
229,611	8,570	-0,182	-0,095
230,626	154,001	-0,189	-0,180
231,640	22,750	-0,166	-0,094
232,655	320,389	-0,082	-0,109
233,669	-57,403	-0,311	-0,094
234,684	201,256	-0,149	-0,159
235,699	-60,504	-0,099	-0,029
236,713	-174,439	-0,130	-0,003
237,728	-145,978	-0,093	0,006
238,742	23,446	-0,291	-0,165
239,757	517,310	-0,118	-0,192
240,772	-108,771	-0,244	-0,036
241,786	127,491	-0,191	-0,168
242,801	89,602	-0,240	-0,186
243,815	-9,455	-0,108	-0,050
244,830	62,595	-0,177	-0,123
245,844	-8,446	-0,148	-0,068
246,859	85,599	-0,213	-0,162
247,874	307,589	-0,145	-0,188
248,888	104,607	-0,098	-0,080
249,903	77,444	-0,127	-0,093
250,917	176,797	-0,234	-0,236
251,932	800,000	-0,040	-0,093
252,947	-163,546	-0,247	-0,008
253,961	-48,871	-0,122	0,040
254,976	-13,383	-0,200	-0,089
255,990	163,569	-0,247	-0,240
257,005	227,541	-0,153	-0,173
258,020	64,067	-0,089	-0,062
259,034	85,134	-0,093	-0,071
260,049	800,000	-0,064	-0,158
261,063	95,230	-0,154	-0,122
262,078	800,000	-0,053	-0,153
263,093	-80,803	-0,268	-0,061
264,107	-137,745	-0,187	-0,014
265,122	221,459	-0,148	-0,164
266,136	-76,938	-0,190	-0,046
267,151	101,646	-0,072	-0,058
268,166	-28,884	-0,121	-0,048
269,180	216,402	-0,163	-0,179
270,195	194,544	-0,242	-0,254
271,209	5,332	-0,243	-0,124
272,224	711,694	-0,097	-0,179
273,239	128,582	-0,102	-0,090
274,253	241,306	-0,180	-0,208
275,268	77,457	-0,221	-0,162
276,282	-22,949	-0,295	-0,123
277,297	112,446	-0,258	-0,216
278,312	143,262	-0,174	-0,160
279,326	126,838	-0,114	-0,100
280,341	-200,000	-0,002	-0,174
281,355	566,235	-0,076	-0,129
282,370	215,440	-0,126	-0,139
283,384	-108,369	-0,282	-0,042
284,399	-132,613	-0,231	-0,020
285,414	323,268	-0,075	-0,099
286,428	59,364	-0,036	-0,024
287,443	-30,915	-0,160	0,062
288,457	108,639	-0,125	-0,103
289,472	45,574	-0,050	-0,032
290,487	-102,278	-0,096	0,016
291,501	-88,750	-0,152	-0,031
292,516	46,549	-0,190	-0,122
293,530	254,604	-0,147	-0,173
294,545	-200,000	0,004	-0,055
295,560	-81,006	-0,120	0,027
296,574	-99,665	-0,135	0,023
297,589	-36,068	-0,183	-0,068
298,603	800,000	-0,113	-0,265
299,618	-111,569	-0,184	-0,025
300,633	155,222	-0,205	-0,195
301,647	-65,759	-0,080	0,022
302,662	-200,000	0,014	-0,068
303,676	160,091	-0,184	-0,177
304,691	100,012	-0,143	-0,114
305,706	-66,888	-0,301	-0,081
306,720	-48,172	-0,147	-0,049
307,735	800,000	-0,074	-0,159
308,749	-80,936	-0,201	-0,045
309,764	-129,407	-0,047	0,004
310,779	294,289	-0,098	-0,123
311,793	61,029	-0,189	-0,129
312,808	800,000	-0,041	-0,103
313,822	-145,517	-0,237	-0,014
314,837	-150,650	-0,120	0,006
315,852	-200,000	-0,028	-0,088
316,866	-5,589	-0,146	-0,069
317,881	-40,805	-0,090	-0,032
318,895	50,605	-0,158	-0,103
319,910	12,081	-0,099	0,052
320,925	331,471	-0,202	-0,269
321,939	200,573	-0,241	-0,255
322,954	7,101	-0,091	-0,047
323,968	-127,307	-0,219	-0,022
324,983	-23,107	-0,074	-0,030
325,997	284,197	-0,068	-0,085
327,012	306,299	-0,088	-0,113
328,027	137,269	-0,107	-0,096
329,041	-41,518	-0,134	-0,047
330,056	98,771	-0,171	-0,136
331,070	174,757	-0,136	-0,135
332,085	-153,572	-0,135	0,006
333,100	800,000	-0,042	-0,118
334,114	440,894	-0,141	-0,213
335,129	115,956	-0,179	-0,151
336,143	43,793	-0,148	-0,093
337,158	-74,917	-0,055	0,014
338,173	-20,006	-0,046	0,019
339,187	384,467	-0,053	-0,075
340,202	96,106	-0,090	-0,070
341,216	-200,000	-0,069	-0,215
342,231	-87,712	-0,167	-0,034
343,246	184,625	-0,178	-0,181
344,260	462,137	-0,087	-0,134
345,275	182,531	-0,126	-0,128
346,289	82,859	-0,162	-0,120
347,304	-182,982	-0,219	0,003
348,319	344,383	-0,176	-0,238
349,333	83,464	-0,117	-0,087
350,348	157,117	-0,057	-0,054
351,362	-98,753	-0,204	-0,035
352,377	-26,738	-0,101	0,041
353,392	-200,000	-0,007	0,048
354,406	44,872	-0,100	-0,063
355,421	208,081	1316,116	1412,841
356,435	160,093	1477,024	1413,344
