DTS Sentinel unit serial number:	SN410029Multiplexer serial number:	ORYXHardware model number:	OX2-SRSoftware version number:	ORYX F/W v4,00 Oryx Data Collector v3.7.2.0data status	okinstallation	B3 Nyhavnadifferential loss correction	single-endedforward channel	channel 1reverse channel	N/Adate	2023/12/02time	21:32:30forward acquisition time	300,00reverse acquisition time	0,00gamma	499,1914k internal	0,3201k external	0,3201temperature offset calibration	1,0000default loss term (dB/km)	0,3820temperature slope calibration	1,0000multiplexer offset coefficient	1,0000multiplexer slope coefficient	1,0000fibre end	0,00T internal ref (°C)	13,25T ext. ref 1 (°C)	-1,91T ext. ref 2 (°C)	-1,91length (m)	temperature (°C)	Stokes	anti-Stokes-744,400	13,824	-0,280	-0,158
-743,385	-200,000	-0,066	0,310
-742,371	630,651	-0,185	-0,342
-741,356	-200,000	0,011	0,256
-740,342	116,772	-0,140	-0,125
-739,327	-200,000	0,017	0,207
-738,312	21,636	-0,290	-0,171
-737,298	-200,000	-0,083	0,312
-736,283	-14,774	-0,176	-0,082
-735,269	208,021	0,173	0,197
-734,254	-29,931	-0,172	-0,071
-733,239	17,692	-0,127	0,073
-732,225	720,518	-0,084	-0,163
-731,210	269,114	0,197	0,251
-730,196	-103,656	-0,211	-0,036
-729,181	-200,000	-0,004	-0,225
-728,167	-8,690	0,042	-0,020
-727,152	410,540	-0,074	0,115
-726,137	-52,648	-0,185	0,062
-725,123	274,294	-0,085	-0,110
-724,108	-0,223	-0,117	-0,060
-723,094	77,547	-0,133	-0,103
-722,079	-105,836	-0,103	0,017
-721,064	736,635	0,087	-0,171
-720,050	280,274	0,060	-0,079
-719,035	13,959	-0,033	0,018
-718,021	-200,000	0,033	-0,110
-717,006	-200,000	-0,033	-0,145
-715,991	-34,111	-0,182	-0,072
-714,977	42,541	0,041	0,027
-713,962	-62,963	0,026	0,008
-712,948	508,339	0,072	-0,122
-711,933	-200,000	-0,014	0,149
-710,918	0,322	0,116	-0,060
-709,904	84,466	-0,049	0,039
-708,889	-10,741	-0,165	-0,079
-707,875	-149,616	0,064	-0,004
-706,860	127,761	-0,111	0,102
-705,845	-200,000	0,014	0,127
-704,831	-107,873	0,082	0,013
-703,816	-94,506	-0,054	0,011
-702,802	31,703	-0,108	0,067
-701,787	614,644	-0,120	-0,220
-700,772	88,014	-0,134	-0,108
-699,758	31,832	-0,112	-0,070
-698,743	-94,239	0,132	-0,026
-697,729	-200,000	0,039	0,192
-696,714	-200,000	0,029	0,179
-695,699	-72,156	-0,159	0,042
-694,685	800,000	-0,023	-0,049
-693,670	70,709	-0,076	0,057
-692,656	-200,000	-0,014	-0,066
-691,641	11,917	0,063	0,035
-690,627	800,000	-0,021	-0,047
-689,612	-200,000	-0,027	0,137
-688,597	-162,054	0,116	0,004
-687,583	240,965	-0,088	-0,106
-686,568	216,413	0,019	-0,022
-685,554	-200,000	-0,002	-0,051
-684,539	-200,000	0,006	0,098
-683,524	-200,000	0,001	0,139
-682,510	-200,000	-0,006	0,093
-681,495	-122,573	0,039	0,005
-680,481	-7,814	-0,093	-0,045
-679,466	-80,161	-0,095	0,023
-678,451	-27,771	-0,038	0,016
-677,437	-68,413	-0,060	-0,017
-676,422	-20,320	0,103	0,046
-675,408	55,035	-0,055	0,038
-674,393	41,605	-0,073	0,048
-673,378	147,019	-0,129	-0,126
-672,364	335,666	-0,022	-0,031
-671,349	51,864	0,063	-0,044
-670,335	-150,352	0,093	0,005
-669,320	746,052	-0,025	0,049
-668,305	-86,113	-0,058	0,013
-667,291	15,241	0,210	0,119
-666,276	15,379	0,055	0,031
-665,262	800,000	-0,020	-0,053
-664,247	98,991	0,096	-0,080
-663,232	-137,166	0,070	0,006
-662,218	-200,000	-0,011	0,040
-661,203	64,073	-0,133	0,097
-660,189	-19,990	-0,032	0,014
-659,174	800,000	0,022	-0,068
-658,159	-58,497	-0,051	0,016
-657,145	-96,070	-0,051	-0,010
-656,130	-200,000	-0,038	-0,182
-655,116	306,586	-0,035	-0,048
-654,101	-200,000	-0,006	-0,053
-653,086	-84,913	0,082	0,019
-652,072	-23,225	0,054	-0,023
-651,057	41,050	0,060	-0,039
-650,043	-71,771	-0,081	-0,022
-649,028	9,178	-0,093	-0,051
-648,014	-37,231	0,081	-0,031
-646,999	225,455	-0,031	-0,036
-645,984	-84,189	-0,118	-0,027
-644,970	250,894	0,078	-0,096
-643,955	1,275	0,027	-0,014
-642,941	-92,160	-0,192	0,039
-641,926	106,057	0,074	-0,063
-640,911	33,245	-0,082	0,051
-639,897	668,164	0,041	0,077
-638,882	-16,314	-0,027	0,012
-637,868	800,000	-0,022	0,061
-636,853	-64,896	0,045	0,013
-635,838	-200,000	0,020	-0,137
-634,824	-200,000	0,032	0,135
-633,809	-117,319	0,123	0,016
-632,795	257,678	0,027	0,033
-631,780	-87,921	0,097	-0,021
-630,765	-55,281	-0,099	-0,032
-629,751	293,999	-0,068	-0,090
-628,736	-200,000	-0,018	0,073
-627,722	495,010	0,037	0,062
-626,707	800,000	-0,031	0,089
-625,692	608,428	-0,025	0,046
-624,678	-5,907	0,085	0,042
-623,663	-26,987	-0,068	0,028
-622,649	55,771	0,041	0,029
-621,634	77,789	-0,039	0,030
-620,619	124,596	0,053	0,048
-619,605	-200,000	0,019	-0,077
-618,590	-92,898	0,026	0,005
-617,576	-90,257	-0,074	0,015
-616,561	800,000	-0,042	-0,132
-615,546	266,617	-0,063	0,079
-614,532	68,094	0,076	-0,056
-613,517	-200,000	-0,015	-0,178
-612,503	237,442	-0,040	0,048
-611,488	-91,761	0,017	0,003
-610,474	-200,000	0,027	0,181
-609,459	-99,839	-0,074	0,013
-608,444	236,619	0,051	-0,061
-607,430	-47,082	-0,142	-0,050
-606,415	-10,247	-0,125	-0,060
-605,401	-32,374	-0,160	0,064
-604,386	279,499	0,100	0,129
-603,371	392,042	-0,019	0,029
-602,357	800,000	0,017	0,054
-601,342	-89,141	0,054	-0,011
-600,328	623,899	-0,078	-0,143
-599,313	-45,077	0,103	0,037
-598,298	800,000	0,017	-0,048
-597,284	-200,000	-0,009	0,048
-596,269	-200,000	0,002	0,053
-595,255	-200,000	0,022	-0,169
-594,240	-92,524	0,030	-0,006
-593,225	-114,687	-0,317	-0,043
-592,211	-200,000	0,000	-0,046
-591,196	169,833	0,044	-0,045
-590,182	-171,402	-0,007	-0,000
-589,167	-144,263	-0,092	0,006
-588,152	9,408	-0,044	-0,024
-587,138	-28,942	-0,131	0,054
-586,123	242,760	-0,050	-0,061
-585,109	-16,017	0,078	-0,036
-584,094	800,000	0,028	0,064
-583,079	-200,000	-0,021	0,095
-582,065	-5,778	0,193	0,095
-581,050	438,867	-0,014	-0,021
-580,036	30,808	-0,042	-0,026
-579,021	-200,000	0,018	0,089
-578,006	88,773	-0,058	0,047
-576,992	137,960	0,033	0,031
-575,977	-200,000	-0,002	0,180
-574,963	-15,755	0,124	0,057
-573,948	800,000	-0,024	0,061
-572,934	103,024	0,008	0,007
-571,919	-94,726	0,033	0,006
-570,904	672,569	-0,027	-0,050
-569,890	40,291	-0,158	-0,102
-568,875	81,506	0,111	-0,087
-567,861	800,000	0,024	0,073
-566,846	27,436	0,093	0,057
-565,831	-124,839	-0,098	0,011
-564,817	92,600	0,027	-0,022
-563,802	131,572	-0,042	0,039
-562,788	800,000	-0,037	-0,100
-561,773	156,572	0,069	-0,068
-560,758	167,658	0,137	0,141
-559,744	-200,000	-0,031	0,122
-558,729	-170,718	0,148	-0,004
-557,715	0,236	-0,039	0,020
-556,700	-99,517	0,043	0,008
-555,685	-105,155	0,084	-0,014
-554,671	16,605	0,068	0,039
-553,656	-84,491	0,026	0,006
-552,642	397,999	-0,028	0,043
-551,627	-150,952	0,025	-0,001
-550,612	-200,000	0,013	-0,133
-549,598	-200,000	0,010	-0,127
-548,583	46,333	0,167	-0,112
-547,569	171,195	0,106	-0,110
-546,554	31,309	0,106	-0,066
-545,539	-104,777	0,144	-0,024
-544,525	2,634	0,089	-0,046
-543,510	-200,000	0,017	-0,091
-542,496	35,601	-0,096	-0,061
-541,481	168,574	-0,120	0,123
-540,466	800,000	-0,061	-0,149
-539,452	-36,524	-0,058	-0,022
-538,437	-0,150	0,016	-0,008
-537,423	-200,000	0,012	-0,121
-536,408	-80,509	0,080	0,019
-535,393	-5,255	-0,104	0,051
-534,379	-83,500	-0,078	-0,018
-533,364	113,577	-0,122	-0,107
-532,350	22,871	-0,029	-0,017
-531,335	772,091	-0,048	0,094
-530,321	568,516	0,087	0,153
-529,306	8,396	-0,136	-0,074
-528,291	-200,000	0,008	-0,118
-527,277	150,585	0,030	0,029
-526,262	-73,052	-0,010	-0,003
-525,248	173,125	-0,156	-0,163
-524,233	800,000	-0,026	0,054
-523,218	-98,856	0,113	0,021
-522,204	-99,854	-0,028	0,005
-521,189	172,454	0,089	0,092
-520,175	-200,000	-0,164	0,000
-519,160	51,435	-0,099	-0,068
-518,145	20,392	0,121	0,070
-517,131	-64,608	0,132	0,038
-516,116	-102,761	-0,079	0,013
-515,102	-3,409	0,024	0,012
-514,087	-138,845	-0,097	0,008
-513,072	424,432	0,035	0,055
-512,058	182,582	-0,056	0,059
-511,043	-149,804	0,053	0,003
-510,029	-110,897	-0,017	0,002
-509,014	-62,048	-0,023	-0,007
-507,999	-44,299	-0,038	0,014
-506,985	9,834	-0,028	0,015
-505,970	-102,571	-0,195	-0,033
-504,956	-200,000	-0,010	-0,050
-503,941	456,488	-0,049	0,078
-502,926	124,977	-0,028	0,025
-501,912	-200,000	0,002	-0,070
-500,897	-52,396	0,069	0,023
-499,883	22,759	-0,099	-0,058
-498,868	237,344	-0,100	-0,120
-497,853	30,768	0,137	-0,084
-496,839	325,828	0,089	-0,123
-495,824	-156,482	-0,065	0,003
-494,810	409,299	-0,079	0,121
-493,795	-200,000	-0,040	0,217
-492,781	800,000	0,032	0,073
-491,766	800,000	-0,047	-0,145
-490,751	800,000	-0,014	-0,033
-489,737	-114,417	0,149	-0,020
-488,722	-200,000	-0,029	0,161
-487,708	-136,395	0,118	0,010
-486,693	-200,000	0,024	-0,156
-485,678	800,000	-0,040	0,121
-484,664	-55,415	-0,119	-0,038
-483,649	-200,000	-0,002	-0,116
-482,635	-200,000	-0,000	-0,028
-481,620	-200,000	-0,047	0,220
-480,605	268,510	0,088	0,111
-479,591	338,028	0,051	0,072
-478,576	6,338	-0,081	-0,043
-477,562	-43,426	0,057	0,021
-476,547	560,343	-0,028	0,048
-475,532	-44,408	-0,050	0,018
-474,518	-118,388	0,090	-0,011
-473,503	-104,306	0,071	-0,012
-472,489	18,803	0,118	0,068
-471,474	800,000	0,022	0,050
-470,459	-54,603	-0,117	-0,038
-469,445	-107,928	-0,166	0,026
-468,430	334,143	0,045	-0,062
-467,416	-76,665	0,025	-0,006
-466,401	800,000	-0,043	-0,121
-465,386	316,380	0,099	0,135
-464,372	54,393	-0,026	0,018
-463,357	-51,731	0,077	-0,026
-462,343	-200,000	-0,044	-0,180
-461,328	421,362	0,026	0,041
-460,313	449,054	0,067	0,106
-459,299	163,535	0,198	-0,200
-458,284	238,235	-0,058	0,069
-457,270	800,000	0,038	-0,111
-456,255	-30,550	-0,069	0,028
-455,241	800,000	-0,039	-0,120
-454,226	148,623	-0,041	-0,040
-453,211	800,000	0,051	0,111
-452,197	229,476	0,073	0,086
-451,182	634,805	0,052	-0,095
-450,168	-200,000	-0,023	0,093
-449,153	156,496	-0,095	0,095
-448,138	216,977	-0,077	-0,088
-447,124	228,639	-0,099	0,116
-446,109	-64,446	0,109	0,032
-445,095	-200,000	0,031	0,186
-444,080	-127,133	0,081	-0,008
-443,065	-200,000	-0,028	0,151
-442,051	-57,923	-0,130	-0,040
-441,036	-80,327	-0,075	0,018
-440,022	251,583	-0,057	-0,070
-439,007	211,630	-0,007	0,008
-437,992	-200,000	0,005	0,085
-436,978	-92,498	0,109	-0,022
-435,963	37,796	0,073	-0,047
-434,949	-162,416	-0,134	0,005
-433,934	369,397	0,055	-0,080
-432,919	-200,000	0,014	-0,051
-431,905	-10,960	0,057	-0,027
-430,890	-200,000	-0,003	-0,031
-429,876	-200,000	0,011	0,131
-428,861	137,738	0,087	0,081
-427,846	160,943	-0,057	0,058
-426,832	30,513	0,050	0,031
-425,817	193,776	-0,066	-0,072
-424,803	-82,789	-0,112	0,026
-423,788	230,929	-0,049	0,057
-422,773	800,000	0,079	0,245
-421,759	135,350	-0,029	0,027
-420,744	173,941	-0,046	0,047
-419,730	-31,495	0,089	0,036
-418,715	-67,539	-0,094	-0,026
-417,701	-33,642	0,070	-0,028
-416,686	189,252	0,043	0,047
-415,671	-183,328	0,155	-0,002
-414,657	-95,750	-0,126	0,024
-413,642	754,103	-0,013	0,024
-412,628	118,251	0,040	-0,035
-411,613	498,828	0,067	-0,111
-410,598	-200,000	0,004	-0,030
-409,584	455,056	-0,010	-0,016
-408,569	451,932	0,070	0,111
-407,555	91,069	0,070	0,056
-406,540	-99,860	0,080	-0,014
-405,525	32,735	-0,098	-0,061
-404,511	61,971	-0,041	0,029
-403,496	-184,226	0,173	-0,002
-402,482	144,724	0,027	0,026
-401,467	-173,023	-0,027	0,001
-400,452	175,386	0,084	0,087
-399,438	37,663	-0,068	0,043
-398,423	-200,000	-0,001	0,007
-397,409	180,774	-0,085	-0,090
-396,394	58,356	-0,180	-0,127
-395,379	228,341	0,069	0,081
-394,365	-157,503	-0,124	0,005
-393,350	-66,918	0,050	0,014
-392,336	126,602	0,136	0,124
-391,321	314,188	0,042	-0,057
-390,306	-33,767	0,073	0,029
-389,292	-200,000	-0,005	-0,061
-388,277	-200,000	0,025	-0,173
-387,263	520,132	0,019	0,032
-386,248	133,177	-0,096	0,089
-385,233	800,000	0,042	-0,113
-384,219	-79,996	-0,083	0,020
-383,204	216,440	0,076	-0,086
-382,190	800,000	-0,019	0,044
-381,175	-27,458	0,096	-0,040
-380,160	-69,551	0,075	0,021
-379,146	16,072	-0,160	0,090
-378,131	355,177	0,093	0,133
-377,117	163,623	0,098	0,099
-376,102	-200,000	0,028	-0,175
-375,088	800,000	0,021	0,042
-374,073	324,355	-0,067	-0,092
-373,058	628,758	-0,027	0,050
-372,044	46,575	0,083	0,055
-371,029	-200,000	-0,008	0,109
-370,015	25,397	0,076	-0,045
-369,000	147,745	-0,028	-0,027
-367,985	800,000	0,030	0,076
-366,971	-200,000	0,003	0,069
-365,956	552,907	-0,053	-0,091
-364,942	-200,000	-0,004	-0,019
-363,927	-200,000	0,018	0,069
-362,912	800,000	-0,010	0,027
-361,898	105,794	-0,106	-0,090
-360,883	-71,306	0,054	-0,014
-359,869	429,674	-0,039	-0,061
-358,854	-5,954	0,074	0,036
-357,839	106,162	0,041	-0,034
-356,825	307,802	0,029	0,039
-355,810	-8,113	0,039	0,019
-354,796	-200,000	-0,001	-0,034
-353,781	-200,000	-0,007	0,084
-352,766	-37,857	-0,102	0,039
-351,752	-111,282	-0,138	0,020
-350,737	609,226	-0,081	0,145
-349,723	351,119	0,061	0,087
-348,708	53,268	-0,053	0,036
-347,693	-200,000	0,030	-0,138
-346,679	800,000	0,070	-0,147
-345,664	254,057	0,128	-0,157
-344,650	265,890	-0,075	-0,095
-343,635	461,732	-0,025	-0,040
-342,620	129,764	0,113	0,104
-341,606	-36,440	-0,122	-0,047
-340,591	319,283	0,004	-0,006
-339,577	800,000	0,035	-0,104
-338,562	256,805	-0,048	-0,059
-337,548	12,819	-0,070	-0,038
-336,533	-200,000	0,023	-0,082
-335,518	8,463	0,084	0,045
-334,504	508,851	0,033	-0,055
-333,489	-200,000	0,018	0,065
-332,475	-146,257	-0,048	0,003
-331,460	-86,811	-0,012	0,003
-330,445	-200,000	0,001	-0,138
-329,431	-200,000	0,011	-0,061
-328,416	-200,000	0,012	0,144
-327,402	800,000	-0,024	0,067
-326,387	-31,208	-0,017	0,007
-325,372	-77,793	-0,125	-0,031
-324,358	715,000	-0,043	-0,083
-323,343	-200,000	0,010	-0,125
-322,329	800,000	-0,044	0,095
-321,314	161,314	-0,008	-0,008
-320,299	-200,000	0,029	0,138
-319,285	-200,000	0,017	0,076
-318,270	511,457	-0,072	-0,120
-317,256	385,292	-0,041	-0,060
-316,241	-192,999	0,181	0,001
-315,226	137,502	0,051	-0,048
-314,212	87,530	0,089	0,071
-313,197	800,000	0,027	-0,068
-312,183	128,775	0,091	-0,083
-311,168	-137,153	-0,093	-0,008
-310,153	800,000	-0,018	-0,049
-309,139	183,308	-0,038	-0,040
-308,124	57,001	0,110	0,076
-307,110	604,457	0,027	0,049
-306,095	-28,242	0,165	0,068
-305,080	398,898	0,034	-0,050
-304,066	117,646	0,050	-0,044
-303,051	226,146	0,090	-0,105
-302,037	-200,000	0,141	0,000
-301,022	-161,849	0,071	0,003
-300,008	-46,012	0,052	-0,018
-298,993	-73,047	0,053	0,014
-297,978	-2,249	-0,072	0,036
-296,964	800,000	-0,027	-0,069
-295,949	-200,000	0,001	-0,018
-294,935	-200,000	0,008	-0,117
-293,920	26,766	0,090	0,054
-292,905	222,097	0,073	0,084
-291,891	212,309	0,053	0,059
-290,876	339,811	-0,035	-0,049
-289,862	-11,263	0,094	-0,044
-288,847	26,012	-0,129	-0,077
-287,832	91,493	-0,052	0,042
-286,818	72,247	0,085	0,064
-285,803	-200,000	0,017	-0,097
-284,789	-81,917	0,068	0,016
-283,774	-200,000	0,017	0,068
-282,759	4,326	0,167	0,087
-281,745	274,347	-0,045	-0,057
-280,730	-137,375	0,058	0,005
-279,716	127,485	-0,026	0,024
-278,701	-200,000	-0,036	0,133
-277,686	219,765	0,064	0,073
-276,672	800,000	-0,042	0,083
-275,657	372,801	0,033	0,047
-274,643	253,216	-0,096	-0,117
-273,628	-200,000	-0,011	-0,092
-272,613	-35,999	-0,025	0,010
-271,599	-99,249	0,089	-0,016
-270,584	604,989	-0,033	0,059
-269,570	800,000	0,042	-0,125
-268,555	-200,000	-0,000	-0,061
-267,540	800,000	0,038	-0,092
-266,526	563,866	0,037	0,064
-265,511	79,334	-0,139	-0,106
-264,497	800,000	-0,034	-0,097
-263,482	315,867	-0,008	0,011
-262,467	-182,018	0,021	0,000
-261,453	1,101	-0,086	0,044
-260,438	-85,869	-0,069	0,015
-259,424	-3,934	-0,066	-0,032
-258,409	-159,022	-0,126	0,005
-257,395	27,233	0,052	-0,031
-256,380	371,566	0,079	0,115
-255,365	-200,000	-0,012	0,137
-254,351	-53,562	0,065	0,021
-253,336	52,191	-0,041	-0,028
-252,322	-200,000	-0,008	-0,088
-251,307	193,229	0,047	0,050
-250,292	31,473	0,080	-0,049
-249,278	405,271	0,043	0,065
-248,263	320,791	0,133	0,181
-247,249	552,718	-0,004	0,007
-246,234	66,726	-0,117	0,085
-245,219	800,000	-0,041	-0,110
-244,205	63,177	-0,083	0,059
-243,190	181,268	-0,038	0,039
-242,176	-4,351	0,133	-0,065
-241,161	-200,000	-0,074	0,243
-240,146	-200,000	0,001	-0,013
-239,132	800,000	0,021	0,051
-238,117	-200,000	-0,019	-0,081
-237,103	21,441	-0,151	-0,087
-236,088	-111,853	0,161	-0,023
-235,073	120,330	0,059	0,052
-234,059	-200,000	0,003	0,069
-233,044	-200,000	-0,006	0,047
-232,030	-200,000	0,007	0,094
-231,015	-200,000	-0,006	0,080
-230,000	268,137	0,017	-0,021
-228,986	36,968	0,101	0,064
-227,971	-200,000	-0,014	0,080
-226,957	170,905	0,099	-0,101
-225,942	-63,540	-0,141	-0,041
-224,927	-200,000	-0,020	0,074
-223,913	436,159	-0,019	-0,029
-222,898	118,252	-0,057	-0,050
-221,884	177,951	-0,094	-0,097
-220,869	800,000	0,046	0,133
-219,855	177,466	0,047	-0,048
-218,840	790,580	0,034	0,068
-217,825	-145,271	-0,098	0,006
-216,811	-75,301	-0,209	-0,053
-215,796	-13,705	0,057	-0,026
-214,782	288,187	0,069	-0,089
-213,767	-200,000	0,008	0,090
-212,752	-4,682	0,048	0,023
-211,738	21,631	0,076	0,044
-210,723	-0,682	0,079	0,040
-209,709	544,551	-0,020	-0,035
-208,694	-30,963	-0,152	-0,061
-207,679	323,034	0,097	-0,132
-206,665	800,000	0,060	-0,137
-205,650	-200,000	0,033	0,127
-204,636	-167,101	0,047	0,001
-203,621	-80,199	-0,155	-0,037
-202,606	800,000	0,020	0,058
-201,592	48,523	-0,078	-0,052
-200,577	-200,000	0,003	0,054
-199,563	-61,676	-0,076	-0,022
-198,548	89,006	0,055	0,044
-197,533	-200,000	-0,007	0,028
-196,519	796,343	0,038	-0,075
-195,504	139,393	-0,086	-0,080
-194,490	-169,171	-0,094	-0,002
-193,475	88,008	-0,030	-0,023
-192,460	-68,103	0,081	-0,022
-191,446	-69,270	0,109	-0,030
-190,431	573,700	0,062	0,108
-189,417	702,385	0,091	0,171
-188,402	8,327	-0,144	-0,077
-187,387	264,891	-0,083	-0,103
-186,373	-200,000	-0,005	-0,098
-185,358	68,706	-0,024	0,017
-184,344	-100,876	-0,060	-0,010
-183,329	-124,359	0,068	-0,008
-182,315	800,000	-0,038	-0,105
-181,300	-128,596	0,098	0,010
-180,285	-0,046	-0,162	-0,082
-179,271	106,939	-0,069	-0,059
-178,256	-124,901	0,034	-0,004
-177,242	-20,779	-0,089	-0,038
-176,227	301,654	-0,028	0,037
-175,212	-200,000	0,003	0,022
-174,198	-73,329	-0,130	0,034
-173,183	-12,933	-0,023	-0,011
-172,169	-200,000	-0,017	-0,141
-171,154	-111,823	0,084	-0,012
-170,139	-200,000	0,016	-0,162
-169,125	-200,000	0,008	-0,157
-168,110	800,000	0,014	-0,044
-167,096	800,000	0,028	0,073
-166,081	800,000	-0,018	-0,037
-165,066	753,484	-0,032	-0,061
-164,052	294,503	-0,087	-0,114
-163,037	269,876	-0,057	0,071
-162,023	-102,882	0,136	0,023
-161,008	-200,000	0,001	0,106
-159,993	-127,404	-0,113	0,011
-158,979	-117,018	-0,035	-0,004
-157,964	299,101	-0,107	0,141
-156,950	25,832	-0,047	0,028
-155,935	-200,000	0,005	-0,020
-154,920	800,000	0,018	-0,048
-153,906	-117,261	-0,119	-0,015
-152,891	-121,078	-0,045	0,005
-151,877	-32,421	-0,125	0,050
-150,862	-200,000	0,005	0,018
-149,847	110,951	-0,045	-0,038
-148,833	-118,348	0,088	0,011
-147,818	365,192	0,020	0,028
-146,804	-200,000	-0,010	0,040
-145,789	-200,000	0,008	0,121
-144,775	346,222	-0,014	0,020
-143,760	800,000	-0,042	-0,103
-142,745	-127,571	0,157	0,016
-141,731	335,659	-0,090	0,124
-140,716	-68,871	0,149	-0,041
-139,702	563,630	0,036	0,062
-138,687	-15,025	0,012	0,006
-137,672	445,030	-0,055	-0,085
-136,658	610,257	-0,055	0,097
-135,643	9,035	-0,168	0,090
-134,629	-200,000	0,021	-0,088
-133,614	-200,000	0,001	0,050
-132,599	-21,223	0,237	0,103
-131,585	800,000	-0,080	0,249
-130,570	-200,000	0,004	0,051
-129,556	-121,619	-0,117	-0,014
-128,541	-200,000	0,001	0,059
-127,526	685,214	-0,048	0,090
-126,512	95,687	-0,098	-0,080
-125,497	-111,535	0,192	0,027
-124,483	-4,388	-0,072	-0,035
-123,468	800,000	-0,017	-0,051
-122,453	194,828	0,059	-0,064
-121,439	-200,000	0,002	0,036
-120,424	186,902	0,055	-0,058
-119,410	215,811	-0,143	0,162
-118,395	81,973	0,121	0,093
-117,380	800,000	0,023	0,056
-116,366	800,000	0,029	0,063
-115,351	175,589	0,070	0,072
-114,337	-80,643	0,053	-0,012
-113,322	800,000	0,048	0,133
-112,307	156,936	0,053	0,052
-111,293	800,000	-0,012	-0,024
-110,278	158,452	0,045	-0,045
-109,264	-59,722	0,113	-0,034
-108,249	-200,000	-0,017	-0,170
-107,234	-200,000	-0,006	0,042
-106,220	800,000	-0,066	-0,179
-105,205	-200,000	0,010	-0,056
-104,191	86,184	-0,097	0,076
-103,176	180,713	0,057	-0,060
-102,162	-43,046	-0,071	-0,025
-101,147	277,225	-0,100	0,127
-100,132	-193,094	0,167	0,001
-99,118	-102,990	-0,090	0,015
-98,103	128,903	0,117	-0,106
-97,089	170,652	-0,060	0,061
-96,074	146,478	0,110	0,105
-95,059	-53,013	-0,042	0,014
-94,045	-105,424	-0,077	0,012
-93,030	-104,303	-0,093	-0,015
-92,016	724,584	0,048	-0,092
-91,001	800,000	0,050	-0,107
-89,986	-200,000	-0,004	0,017
-88,972	800,000	0,053	0,157
-87,957	59,588	-0,046	0,032
-86,943	800,000	0,054	-0,141
-85,928	-200,000	-0,004	0,016
-84,913	334,032	-0,007	0,009
-83,899	562,775	0,010	-0,017
-82,884	46,853	0,113	0,074
-81,870	-200,000	-0,007	0,060
-80,855	-200,000	0,008	0,119
-79,840	-129,749	-0,053	0,005
-78,826	13,526	0,029	0,016
-77,811	-14,801	-0,203	-0,092
-76,797	-7,683	-0,092	-0,044
-75,782	-200,000	-0,005	0,109
-74,767	230,717	0,042	-0,049
-73,753	-61,518	-0,056	-0,017
-72,738	186,711	0,060	0,064
-71,724	-200,000	-0,005	-0,143
-70,709	-200,000	-0,133	0,000
-69,694	160,350	0,011	0,010
-68,680	152,587	-0,043	0,042
-67,665	-17,933	-0,057	0,025
-66,651	342,963	0,061	0,085
-65,636	708,674	-0,026	0,048
-64,622	78,371	-0,091	0,068
-63,607	-53,806	-0,142	0,046
-62,592	86,539	-0,084	0,066
-61,578	800,000	0,049	-0,117
-60,563	-200,000	-0,012	0,119
-59,549	-200,000	0,026	-0,085
-58,534	-21,089	-1,665	-0,719
-57,519	337,431	-1,470	-2,029
-56,505	-200,000	-0,420	-4,517
-55,490	234,596	0,911	1,066
-54,476	800,000	4,879	11,422
-53,461	-200,000	19,302	321,097
-52,446	-200,000	741,880	2335,406
-51,432	572,460	1655,949	2868,055
-50,417	78,097	1670,989	1260,830
-49,403	21,237	1543,914	885,268
-48,388	15,116	1466,447	811,082
-47,373	18,043	1456,619	819,757
-46,359	16,680	1446,412	807,446
-45,344	13,372	1441,832	789,008
-44,330	13,337	1439,848	787,728
-43,315	13,276	1438,201	786,499
-42,300	13,314	1436,446	785,692
-41,286	13,285	1435,548	785,033
-40,271	13,280	1433,827	784,037
-39,257	13,301	1432,588	783,425
-38,242	13,326	1431,258	782,789
-37,227	13,341	1430,117	782,205
-36,213	13,330	1428,889	781,450
-35,198	13,340	1427,610	780,765
-34,184	13,373	1426,800	780,449
-33,169	13,352	1425,320	779,506
-32,154	13,343	1424,278	778,864
-31,140	13,364	1422,867	778,164
-30,125	13,389	1421,966	777,757
-29,111	13,380	1420,770	777,028
-28,096	13,325	1419,730	776,169
-27,082	13,285	1418,651	775,359
-26,067	13,315	1417,564	774,875
-25,052	13,266	1416,396	773,977
-24,038	13,276	1415,524	773,515
-23,023	13,262	1414,435	772,823
-22,009	13,230	1413,455	772,109
-20,994	13,216	1412,504	771,491
-19,979	13,247	1411,729	771,186
-18,965	13,226	1410,623	770,451
-17,950	13,251	1409,801	770,090
-16,936	13,209	1408,810	769,320
-15,921	13,153	1407,788	768,468
-14,906	13,213	1406,871	768,220
-13,892	13,189	1405,966	767,579
-12,877	13,189	1405,093	767,075
-11,863	13,210	1404,002	766,547
-10,848	13,227	1403,086	766,093
-9,833	13,139	1402,293	765,224
-8,819	13,102	1401,680	764,685
-7,804	13,089	1400,754	764,087
-6,790	13,072	1399,629	763,364
-5,775	13,122	1398,233	762,804
-4,760	13,058	1397,610	762,141
-3,746	13,076	1396,565	761,622
-2,731	13,084	1395,950	761,292
-1,717	13,031	1394,970	760,482
-0,702	13,047	1393,133	759,525
0,313	17,017	1309,751	732,416
1,327	33,609	703,131	431,498
2,342	51,844	123,169	82,806
3,356	3,103	16,612	8,516
4,371	1,392	3,290	1,667
5,386	-32,796	0,572	0,224
6,400	-200,000	0,052	0,172
7,415	-30,118	-0,102	-0,041
8,429	800,000	-0,146	-0,288
9,444	-68,388	-0,232	-0,063
10,459	-16,857	-0,191	-0,085
11,473	63,863	-0,309	-0,219
12,488	-77,873	-0,285	-0,069
13,502	-3,102	-0,340	-0,167
14,517	143,456	-0,250	-0,236
15,531	-33,835	-0,422	-0,164
16,546	38,515	-0,322	-0,202
17,561	55,881	-0,419	-0,287
18,575	98,474	-0,212	-0,173
19,590	800,000	-0,100	-0,237
20,604	-102,662	-0,333	-0,056
21,619	28,816	-0,374	-0,223
22,634	81,147	-0,437	-0,333
23,648	161,515	-0,432	-0,427
24,663	89,259	-0,304	-0,239
25,677	-0,325	-0,416	-0,208
26,692	149,513	-0,308	-0,295
27,707	-52,942	-0,377	-0,122
28,721	59,672	-0,448	-0,312
29,736	160,291	-0,352	-0,347
30,750	346,323	-0,246	-0,342
31,765	65,056	-0,336	-0,239
32,780	51,619	-0,398	-0,267
33,794	-37,922	-0,326	-0,122
34,809	-38,444	-0,441	-0,164
35,823	180,625	-0,416	-0,431
36,838	180,052	-0,311	-0,322
37,853	111,819	-0,329	-0,280
38,867	-26,709	-0,357	-0,147
39,882	80,883	-0,317	-0,241
40,896	190,837	-0,327	-0,347
41,911	207,981	-0,326	-0,360
42,926	56,525	-0,274	-0,188
43,940	12,959	-0,339	-0,184
44,955	171,288	-0,293	-0,297
45,969	434,850	-0,221	-0,340
46,984	-8,467	-0,334	-0,158
47,999	53,368	-0,273	-0,184
49,013	187,098	-0,253	-0,266
50,028	45,626	-0,259	-0,168
51,042	258,220	-0,207	-0,251
52,057	228,768	-0,338	-0,389
53,071	21,722	-0,361	-0,207
54,086	46,566	-0,366	-0,239
55,101	84,929	-0,330	-0,255
56,115	50,078	-0,399	-0,265
57,130	113,482	-0,320	-0,274
58,144	-12,468	-0,309	-0,141
59,159	50,700	-0,398	-0,265
60,174	-99,077	-0,391	-0,069
61,188	29,485	-0,337	-0,201
62,203	20,892	-0,392	-0,223
63,217	38,647	-0,354	-0,222
64,232	-3,511	-0,331	-0,162
65,247	-77,993	-0,370	-0,089
66,261	191,931	-0,289	-0,306
67,276	-61,730	-0,456	-0,134
68,290	84,747	-0,319	-0,246
69,305	181,888	-0,195	-0,202
70,320	-83,370	-0,322	-0,072
71,334	78,480	-0,256	-0,192
72,349	74,432	-0,303	-0,224
73,363	111,870	-0,352	-0,299
74,378	17,439	-0,473	-0,264
75,393	29,815	-0,394	-0,235
76,407	58,699	-0,274	-0,189
77,422	15,488	-0,368	-0,203
78,436	66,215	-0,312	-0,222
79,451	42,736	-0,352	-0,225
80,466	35,106	-0,251	-0,154
81,480	200,762	-0,296	-0,320
82,495	-0,412	-0,371	-0,185
83,509	86,748	-0,310	-0,241
84,524	-53,908	-0,361	-0,115
85,539	16,779	-0,319	-0,177
86,553	-100,810	-0,194	-0,033
87,568	20,084	-0,303	-0,171
88,582	-35,478	-0,319	-0,121
89,597	30,669	-0,209	-0,126
90,611	71,732	-0,242	-0,176
91,626	-74,885	-0,414	-0,104
92,641	171,912	-0,238	-0,240
93,655	-16,838	-0,396	-0,175
94,670	90,256	-0,286	-0,225
95,684	50,259	-0,407	-0,269
96,699	311,998	-0,212	-0,280
97,714	157,023	-0,177	-0,171
98,728	-23,318	-0,326	-0,137
99,743	12,223	-0,248	-0,134
100,757	-38,886	-0,228	-0,084
101,772	29,319	-0,266	-0,158
102,787	-7,402	-0,335	-0,158
103,801	218,144	-0,248	-0,278
104,816	137,896	-0,237	-0,218
105,830	48,944	-0,284	-0,187
106,845	140,208	-0,251	-0,232
107,860	28,850	-0,231	-0,137
108,874	-17,428	-0,301	-0,132
109,889	-58,023	-0,424	-0,129
110,903	2,233	-0,453	-0,229
111,918	15,671	-0,271	-0,149
112,933	26,679	-0,237	-0,138
113,947	11,244	-0,197	-0,105
114,962	-23,440	-0,243	-0,102
115,976	-87,733	-0,352	-0,074
116,991	310,564	-0,085	-0,111
118,006	459,233	-0,173	-0,270
119,020	800,000	-0,143	-0,303
120,035	-28,078	-0,283	-0,114
121,049	-64,502	-0,189	-0,053
122,064	135,180	-0,297	-0,271
123,079	-43,267	-0,128	-0,045
124,093	33,926	-0,379	-0,230
125,108	800,000	-0,172	-0,341
126,122	30,383	-0,259	-0,155
127,137	267,767	-0,093	-0,114
128,151	-105,751	-0,340	-0,053
129,166	144,366	-0,186	-0,174
130,181	174,718	-0,182	-0,184
131,195	113,001	-0,258	-0,219
132,210	4,998	-0,207	-0,106
133,224	-90,836	-0,374	-0,075
134,239	24,519	-0,268	-0,155
135,254	387,342	-0,150	-0,217
136,268	-200,000	-0,071	-0,238
137,283	17,495	-0,259	-0,143
138,297	53,538	-0,289	-0,194
139,312	156,433	-0,216	-0,209
140,327	20,478	-0,382	-0,215
141,341	299,339	-0,215	-0,277
142,356	50,948	-0,277	-0,183
143,370	69,012	-0,321	-0,230
144,385	153,585	-0,234	-0,224
145,400	228,950	-0,231	-0,263
146,414	227,336	-0,233	-0,265
147,429	195,637	-0,259	-0,276
148,443	79,224	-0,222	-0,166
149,458	71,165	-0,162	-0,118
150,473	106,955	-0,262	-0,217
151,487	-37,929	-0,389	-0,143
152,502	-62,723	-0,264	-0,076
153,516	9,098	-0,361	-0,190
154,531	57,831	-0,317	-0,216
155,546	114,687	-0,244	-0,207
156,560	428,801	-0,124	-0,188
157,575	-159,030	-0,140	-0,005
158,589	62,169	-0,374	-0,260
159,604	102,806	-0,244	-0,200
160,619	41,860	-0,202	-0,128
161,633	138,765	-0,246	-0,225
162,648	162,891	-0,218	-0,213
163,662	122,444	-0,308	-0,269
164,677	-101,293	-0,347	-0,058
165,692	-58,664	-0,294	-0,088
166,706	194,563	-0,188	-0,199
167,721	128,349	-0,223	-0,198
168,735	127,456	-0,247	-0,219
169,750	289,575	-0,225	-0,285
170,764	186,106	-0,126	-0,130
171,779	211,544	-0,208	-0,229
172,794	221,305	-0,156	-0,175
173,808	3,527	-0,189	-0,096
174,823	145,971	-0,174	-0,163
175,837	344,903	-0,264	-0,362
176,852	27,517	-0,275	-0,161
177,867	132,784	-0,209	-0,188
178,881	369,487	-0,099	-0,141
179,896	-28,030	-0,250	-0,100
180,910	40,381	-0,312	-0,195
181,925	345,858	-0,184	-0,252
182,940	-50,945	-0,145	0,047
183,954	81,157	-0,279	-0,210
184,969	-136,747	-0,267	0,021
185,983	311,766	-0,077	-0,101
186,998	219,885	-0,216	-0,242
188,013	91,744	-0,229	-0,179
189,027	113,234	-0,210	-0,177
190,042	305,642	-0,125	-0,161
191,056	6,635	-0,225	-0,116
192,071	46,640	-0,206	-0,133
193,086	278,530	-0,180	-0,224
194,100	-17,457	-0,174	-0,076
195,115	8,839	-0,234	-0,122
196,129	117,607	-0,262	-0,224
197,144	25,416	-0,289	-0,167
198,159	9,089	-0,225	-0,118
199,173	242,084	-0,136	-0,158
200,188	-200,000	-0,026	-0,240
201,202	90,642	-0,160	-0,124
202,217	403,990	-0,152	-0,223
203,232	111,317	-0,237	-0,199
204,246	-48,210	-0,368	-0,123
205,261	223,404	-0,182	-0,204
206,275	366,901	-0,128	-0,180
207,290	-7,537	-0,284	-0,133
208,304	179,361	-0,167	-0,170
209,319	800,000	-0,109	-0,314
210,334	181,683	-0,225	-0,231
211,348	132,082	-0,249	-0,223
212,363	151,919	-0,193	-0,183
213,377	800,000	-0,138	-0,272
214,392	206,906	-0,230	-0,249
215,407	47,418	-0,209	-0,135
216,421	-160,818	-0,187	0,007
217,436	-5,246	-0,237	-0,113
218,450	113,653	-0,136	-0,114
219,465	-27,110	-0,291	-0,117
220,480	-128,781	-0,095	-0,009
221,494	16,621	-0,090	-0,049
222,509	25,993	-0,199	-0,115
223,523	397,653	-0,119	-0,173
224,538	52,074	-0,236	-0,156
225,553	146,679	-0,268	-0,250
226,567	762,629	-0,095	-0,180
227,582	-9,963	-0,150	-0,069
228,596	63,416	-0,133	-0,093
229,611	-96,447	-0,227	-0,041
230,626	562,597	-0,121	-0,205
231,640	72,126	-0,272	-0,196
232,655	8,183	-0,352	-0,183
233,669	425,802	-0,186	-0,278
234,684	-85,502	-0,298	-0,064
235,699	-93,573	-0,103	-0,019
236,713	46,064	-0,140	-0,089
237,728	-84,211	-0,287	-0,063
238,742	-89,176	-0,119	-0,024
239,757	-130,868	-0,198	-0,018
240,772	70,583	-0,234	-0,168
241,786	-168,216	-0,237	-0,006
242,801	122,596	-0,112	-0,097
243,815	-2,863	-0,143	-0,069
244,830	-61,318	-0,147	-0,042
245,844	-38,323	-0,187	-0,068
246,859	381,540	-0,165	-0,235
247,874	43,680	-0,232	-0,147
248,888	75,328	-0,180	-0,132
249,903	153,253	-0,143	-0,135
250,917	179,311	-0,139	-0,140
251,932	-144,387	-0,190	0,012
252,947	-25,862	-0,118	-0,048
253,961	2,454	-0,335	-0,167
254,976	72,904	-0,227	-0,164
255,990	185,939	-0,251	-0,259
257,005	-146,987	-0,128	-0,008
258,020	85,226	-0,127	-0,096
259,034	130,277	-0,258	-0,228
260,049	-41,258	-0,183	-0,065
261,063	-25,733	-0,261	-0,106
262,078	437,053	-0,122	-0,184
263,093	125,481	-0,169	-0,148
264,107	17,435	-0,217	-0,119
265,122	137,133	-0,164	-0,148
266,136	-73,935	-0,125	-0,031
267,151	311,648	-0,150	-0,195
268,166	657,336	-0,132	-0,236
269,180	548,848	-0,136	-0,226
270,195	273,882	-0,154	-0,188
271,209	-54,313	-0,255	-0,080
272,224	141,162	-0,160	-0,146
273,239	110,927	-0,153	-0,127
274,253	-28,135	-0,152	-0,060
275,268	335,800	-0,074	-0,100
276,282	2,439	-0,345	-0,172
277,297	69,377	-0,186	-0,132
278,312	23,570	-0,273	-0,155
279,326	363,743	-0,084	-0,117
280,341	-200,000	0,029	-0,188
281,355	-81,631	-0,200	-0,045
282,370	240,927	-0,160	-0,185
283,384	730,624	-0,102	-0,189
284,399	-42,866	-0,164	-0,057
285,414	-43,498	-0,165	-0,057
286,428	22,698	-0,163	-0,092
287,443	-97,064	-0,099	0,018
288,457	98,752	-0,190	-0,152
289,472	-48,650	-0,223	-0,073
290,487	-51,167	-0,265	-0,085
291,501	-123,752	-0,304	0,033
292,516	-47,267	-0,082	-0,027
293,530	-50,006	-0,242	-0,079
294,545	-114,839	-0,186	0,024
295,560	113,172	-0,145	-0,122
296,574	112,714	-0,248	-0,207
297,589	800,000	-0,102	-0,227
298,603	112,771	-0,146	-0,122
299,618	-200,000	-0,048	-0,268
300,633	84,567	-0,179	-0,135
301,647	224,664	-0,114	-0,127
302,662	-47,946	-0,225	-0,075
303,676	393,866	-0,086	-0,124
304,691	63,428	-0,070	-0,049
305,706	367,396	-0,202	-0,281
306,720	547,490	-0,160	-0,265
307,735	141,552	-0,158	-0,144
308,749	-14,734	-0,117	-0,052
309,764	393,892	-0,116	-0,166
310,779	-25,225	-0,104	-0,042
311,793	-61,581	-0,114	-0,033
312,808	156,242	-0,160	-0,152
313,822	-108,518	-0,275	-0,040
314,837	-140,947	-0,244	-0,017
315,852	376,400	-0,130	-0,184
316,866	173,871	-0,169	-0,168
317,881	-147,004	-0,194	-0,011
318,895	-28,603	-0,149	-0,059
319,910	238,472	-0,157	-0,179
320,925	-111,629	-0,177	0,024
321,939	-88,133	-0,187	-0,038
322,954	190,609	-0,175	-0,181
323,968	205,113	-0,078	-0,083
324,983	319,815	-0,118	-0,155
325,997	674,135	-0,090	-0,162
327,012	43,348	-0,146	-0,091
328,027	734,014	-0,122	-0,226
329,041	59,811	-0,239	-0,162
330,056	-85,793	-0,163	0,034
331,070	-12,979	-0,224	-0,100
332,085	-37,371	-0,169	0,062
333,100	45,585	-0,194	-0,123
334,114	-78,511	-0,140	-0,033
335,129	0,156	-0,180	-0,088
336,143	55,191	-0,152	-0,101
337,158	510,590	-0,028	-0,045
338,173	-14,515	-0,146	-0,064
339,187	-200,000	-0,027	-0,214
340,202	9,364	-0,093	-0,048
341,216	-179,190	-0,148	0,002
342,231	15,419	-0,274	-0,147
343,246	502,300	-0,145	-0,231
344,260	144,627	-0,200	-0,183
345,275	340,675	-0,150	-0,202
346,289	-200,000	-0,007	-0,027
347,304	-46,901	-0,184	-0,061
348,319	134,147	-0,188	-0,167
349,333	-81,810	-0,255	-0,057
350,348	-108,718	-0,109	-0,016
351,362	-47,662	-0,187	-0,062
352,377	69,916	-0,045	0,031
353,392	-29,700	-0,126	-0,049
354,406	800,000	-0,052	-0,127
355,421	210,651	1313,308	1417,110
356,435	162,174	1473,859	1417,599
