DTS Sentinel unit serial number:	SN410029Multiplexer serial number:	ORYXHardware model number:	OX2-SRSoftware version number:	ORYX F/W v4,00 Oryx Data Collector v3.7.2.0data status	okinstallation	B3 Nyhavnadifferential loss correction	single-endedforward channel	channel 1reverse channel	N/Adate	2023/12/03time	18:57:30forward acquisition time	300,00reverse acquisition time	0,00gamma	499,1914k internal	0,3198k external	0,3198temperature offset calibration	1,0000default loss term (dB/km)	0,3820temperature slope calibration	1,0000multiplexer offset coefficient	1,0000multiplexer slope coefficient	1,0000fibre end	0,00T internal ref (°C)	14,42T ext. ref 1 (°C)	-0,93T ext. ref 2 (°C)	-0,95length (m)	temperature (°C)	Stokes	anti-Stokes-744,400	140,553	-0,136	-0,131
-743,385	562,227	0,172	0,305
-742,371	299,221	-0,144	-0,193
-741,356	-200,000	0,002	0,135
-740,342	141,679	-0,203	-0,195
-739,327	-200,000	0,005	0,193
-738,312	613,379	-0,132	-0,242
-737,298	-200,000	-0,049	0,285
-736,283	-200,000	0,008	-0,223
-735,269	-200,000	0,043	0,269
-734,254	789,685	-0,141	-0,283
-733,239	58,049	-0,289	0,206
-732,225	-200,000	-0,031	-0,201
-731,210	-200,000	0,049	0,159
-730,196	195,564	-0,042	0,046
-729,181	-200,000	-0,001	-0,187
-728,167	-145,433	-0,092	-0,006
-727,152	149,872	0,052	-0,051
-726,137	-54,680	0,078	-0,026
-725,123	-200,000	-0,011	0,063
-724,108	-11,416	-0,068	-0,032
-723,094	-127,043	-0,213	-0,022
-722,079	-21,125	-0,138	-0,061
-721,064	-3,940	0,087	-0,044
-720,050	43,000	-0,057	-0,037
-719,035	214,414	-0,042	0,049
-718,021	-81,945	-0,099	-0,023
-717,006	28,581	-0,160	0,099
-715,991	741,852	-0,052	-0,102
-714,977	-25,732	-0,076	0,033
-713,962	151,199	-0,122	-0,121
-712,948	60,432	0,065	0,047
-711,933	800,000	0,014	0,029
-710,918	345,861	-0,055	0,079
-709,904	100,836	-0,097	-0,082
-708,889	121,170	-0,056	-0,051
-707,875	35,255	-0,017	-0,011
-706,860	685,472	0,099	-0,188
-705,845	216,357	0,085	-0,098
-704,831	180,080	-0,034	-0,036
-703,816	800,000	-0,040	0,094
-702,802	-102,478	-0,051	-0,009
-701,787	800,000	-0,026	-0,079
-700,772	800,000	0,123	-0,307
-699,758	401,996	-0,082	-0,125
-698,743	161,008	-0,059	-0,060
-697,729	199,504	0,028	0,031
-696,714	800,000	-0,013	0,028
-695,699	-16,040	-0,072	-0,033
-694,685	-200,000	-0,031	-0,101
-693,670	-80,081	-0,067	-0,016
-692,656	350,787	-0,049	0,071
-691,641	-26,055	0,070	0,030
-690,627	36,897	0,089	0,057
-689,612	175,140	0,115	-0,121
-688,597	115,935	0,040	0,035
-687,583	-84,018	-0,131	0,030
-686,568	75,929	0,068	0,052
-685,554	-165,327	0,061	0,002
-684,539	34,380	0,085	0,054
-683,524	-200,000	0,002	0,029
-682,510	-59,183	0,012	0,004
-681,495	-39,034	-0,199	-0,076
-680,481	800,000	-0,020	-0,060
-679,466	-173,864	-0,135	-0,003
-678,451	2,481	0,075	0,039
-677,437	246,383	-0,055	-0,068
-676,422	-200,000	-0,001	0,005
-675,408	200,551	0,115	0,129
-674,393	800,000	0,025	0,059
-673,378	-200,000	-0,006	0,212
-672,364	478,622	-0,050	0,082
-671,349	149,817	0,080	-0,079
-670,335	-137,454	0,078	-0,006
-669,320	800,000	0,006	-0,018
-668,305	-33,988	0,094	0,037
-667,291	121,298	0,127	0,115
-666,276	-157,478	-0,219	-0,009
-665,262	107,536	-0,059	-0,051
-664,247	-57,066	-0,178	-0,056
-663,232	543,760	-0,051	0,089
-662,218	-60,919	-0,101	-0,031
-661,203	31,950	-0,008	0,005
-660,189	0,947	0,007	-0,004
-659,174	800,000	-0,046	0,120
-658,159	-43,531	-0,101	0,037
-657,145	-200,000	-0,050	-0,187
-656,130	313,495	0,011	0,015
-655,116	-200,000	-0,001	0,031
-654,101	-200,000	-0,014	-0,085
-653,086	-47,800	0,058	-0,020
-652,072	232,167	-0,065	0,078
-651,057	587,829	-0,045	-0,080
-650,043	462,059	-0,043	-0,070
-649,028	-53,136	0,067	-0,022
-648,014	-200,000	0,002	0,162
-646,999	800,000	-0,014	-0,041
-645,984	800,000	0,024	0,049
-644,970	-200,000	-0,006	-0,104
-643,955	-94,505	-0,093	-0,018
-642,941	27,537	-0,125	-0,076
-641,926	-41,985	0,082	-0,030
-640,911	-34,811	0,079	-0,031
-639,897	-93,754	0,088	0,018
-638,882	93,810	0,184	0,151
-637,868	-2,997	-0,043	0,022
-636,853	800,000	-0,037	-0,097
-635,838	-200,000	0,000	-0,093
-634,824	441,135	-0,061	-0,097
-633,809	504,396	0,044	0,074
-632,795	431,878	0,009	0,014
-631,780	-14,769	-0,100	0,046
-630,765	-82,679	0,139	0,032
-629,751	39,131	-0,025	-0,016
-628,736	-32,349	-0,095	0,038
-627,722	-153,054	-0,136	0,007
-626,707	277,590	-0,041	-0,052
-625,692	-149,792	0,110	-0,006
-624,678	220,060	0,048	0,056
-623,663	-42,198	-0,045	0,017
-622,649	-1,025	-0,065	-0,033
-621,634	171,895	-0,028	-0,029
-620,619	-44,240	0,024	0,009
-619,605	438,521	0,114	-0,181
-618,590	-200,000	0,014	-0,068
-617,576	261,998	-0,075	0,094
-616,561	770,590	0,033	0,066
-615,546	-18,082	0,039	-0,017
-614,532	338,206	-0,118	-0,167
-613,517	800,000	0,030	-0,067
-612,503	800,000	0,035	-0,075
-611,488	-200,000	0,042	0,189
-610,474	699,976	0,028	0,054
-609,459	232,820	-0,078	0,093
-608,444	42,096	-0,029	0,019
-607,430	194,770	-0,038	-0,041
-606,415	266,941	-0,031	0,039
-605,401	-171,491	0,074	0,002
-604,386	174,411	0,136	0,142
-603,371	-176,295	0,133	-0,002
-602,357	-84,699	0,043	0,010
-601,342	237,874	-0,148	-0,178
-600,328	-200,000	-0,053	-0,170
-599,313	657,328	0,011	0,021
-598,298	-200,000	0,010	-0,060
-597,284	800,000	-0,063	0,148
-596,269	-200,000	0,012	0,134
-595,255	800,000	-0,035	0,077
-594,240	-121,880	0,038	0,005
-593,225	-7,925	0,038	0,019
-592,211	-10,152	-0,046	-0,022
-591,196	-200,000	0,005	0,053
-590,182	-29,288	-0,131	0,054
-589,167	-200,000	-0,001	0,135
-588,152	-46,730	0,082	-0,029
-587,138	-75,425	0,046	0,012
-586,123	8,684	-0,172	-0,093
-585,109	800,000	0,029	-0,064
-584,094	18,749	0,093	0,053
-583,079	408,897	0,058	0,090
-582,065	-200,000	0,007	0,026
-581,050	330,097	-0,075	0,104
-580,036	-65,140	-0,094	0,027
-579,021	79,599	-0,135	-0,105
-578,006	292,572	0,035	-0,047
-576,992	800,000	-0,073	-0,161
-575,977	83,090	-0,084	-0,066
-574,963	800,000	0,043	0,125
-573,948	800,000	-0,043	0,097
-572,934	9,526	-0,151	0,082
-571,919	-92,329	0,027	-0,006
-570,904	56,209	-0,074	0,052
-569,890	-200,000	0,001	-0,056
-568,875	379,565	0,101	-0,150
-567,861	729,217	-0,024	-0,047
-566,846	294,468	-0,088	0,116
-565,831	-131,442	0,212	-0,020
-564,817	196,917	-0,126	-0,139
-563,802	318,391	-0,020	-0,028
-562,788	800,000	0,064	0,176
-561,773	164,056	-0,054	0,055
-560,758	54,401	-0,013	-0,009
-559,744	800,000	-0,014	0,043
-558,729	352,129	0,026	-0,037
-557,715	190,519	-0,085	-0,093
-556,700	137,457	-0,144	-0,137
-555,685	-200,000	0,019	-0,206
-554,671	74,945	0,018	0,013
-553,656	-31,573	0,095	0,038
-552,642	321,221	-0,075	0,103
-551,627	21,199	-0,053	0,031
-550,612	106,115	0,042	0,036
-549,598	800,000	0,028	0,065
-548,583	-125,371	0,074	-0,008
-547,569	114,877	-0,028	0,024
-546,554	60,857	0,086	-0,062
-545,539	-105,160	0,168	0,028
-544,525	458,761	0,023	-0,037
-543,510	-200,000	-0,014	0,190
-542,496	-200,000	0,004	-0,046
-541,481	-93,784	-0,066	0,013
-540,466	800,000	0,007	-0,019
-539,452	800,000	-0,049	0,117
-538,437	-200,000	0,025	0,192
-537,423	550,804	0,044	0,077
-536,408	-122,441	-0,055	-0,006
-535,393	-200,000	-0,014	0,066
-534,379	-85,511	0,049	-0,011
-533,364	356,185	0,052	-0,075
-532,350	800,000	0,053	-0,112
-531,335	-200,000	0,004	0,087
-530,321	65,755	-0,123	0,090
-529,306	187,264	-0,065	-0,070
-528,291	-200,000	0,010	0,056
-527,277	-200,000	0,011	-0,127
-526,262	-57,496	-0,196	-0,062
-525,248	212,951	0,049	0,056
-524,233	-200,000	0,002	0,025
-523,218	119,097	0,077	0,069
-522,204	-53,597	-0,035	0,012
-521,189	65,459	-0,020	0,014
-520,175	17,862	-0,085	-0,048
-519,160	257,008	0,092	-0,114
-518,145	286,715	0,055	0,072
-517,131	-156,361	0,151	-0,007
-516,116	-200,000	0,034	0,250
-515,102	-11,270	0,084	-0,040
-514,087	800,000	0,019	-0,045
-513,072	-34,387	-0,184	-0,072
-512,058	407,064	0,025	-0,038
-511,043	800,000	0,033	0,077
-510,029	40,786	0,160	-0,104
-509,014	-28,724	0,060	0,025
-507,999	143,365	-0,072	-0,069
-506,985	207,993	0,083	0,094
-505,970	97,000	0,069	-0,057
-504,956	800,000	-0,038	-0,092
-503,941	800,000	0,061	-0,129
-502,926	-110,198	-0,068	0,010
-501,912	-200,000	-0,007	0,180
-500,897	-200,000	-0,033	0,108
-499,883	47,292	0,116	-0,078
-498,868	96,944	-0,123	0,101
-497,853	515,392	0,014	-0,023
-496,839	-37,580	-0,026	0,010
-495,824	218,267	0,068	-0,078
-494,810	611,861	-0,065	-0,117
-493,795	-111,100	-0,063	0,009
-492,781	80,338	0,076	-0,059
-491,766	115,867	0,041	0,036
-490,751	238,735	0,046	0,055
-489,737	14,909	-0,076	0,043
-488,722	501,501	0,058	0,098
-487,708	800,000	0,057	0,123
-486,693	156,117	-0,084	-0,084
-485,678	-200,000	0,015	-0,066
-484,664	-200,000	0,001	-0,072
-483,649	-39,684	-0,044	0,016
-482,635	-78,326	-0,095	0,023
-481,620	800,000	-0,056	0,115
-480,605	167,986	-0,093	0,095
-479,591	207,260	0,045	0,051
-478,576	102,347	-0,115	-0,097
-477,562	-115,328	0,074	-0,010
-476,547	395,919	0,043	-0,065
-475,532	800,000	-0,049	-0,150
-474,518	-54,807	0,107	-0,035
-473,503	376,119	-0,034	-0,050
-472,489	-5,918	0,049	0,024
-471,474	-200,000	-0,031	-0,147
-470,459	40,614	0,097	-0,063
-469,445	140,455	-0,066	0,062
-468,430	-200,000	0,015	0,058
-467,416	-107,833	0,131	-0,020
-466,401	-200,000	0,008	0,087
-465,386	81,800	0,111	0,087
-464,372	0,100	0,078	-0,040
-463,357	189,788	-0,066	-0,071
-462,343	45,030	-0,072	-0,048
-461,328	269,279	0,023	-0,029
-460,313	233,128	0,090	0,106
-459,299	-200,000	-0,011	0,058
-458,284	-118,056	-0,062	0,008
-457,270	249,917	0,076	-0,093
-456,255	-142,889	-0,115	-0,008
-455,241	-200,000	0,004	0,057
-454,226	34,381	0,060	0,037
-453,211	145,602	-0,086	-0,083
-452,197	236,955	0,082	0,098
-451,182	800,000	0,060	0,125
-450,168	-200,000	0,012	0,068
-449,153	-200,000	-0,030	0,132
-448,138	202,965	0,055	0,062
-447,124	-200,000	-0,003	-0,039
-446,109	800,000	-0,037	-0,097
-445,095	-200,000	0,040	0,206
-444,080	-200,000	-0,010	0,094
-443,065	-83,853	0,054	0,012
-442,051	-200,000	-0,016	0,118
-441,036	-23,379	-0,118	-0,051
-440,022	-139,689	0,055	-0,004
-439,007	-200,000	0,029	0,101
-437,992	-17,260	0,083	-0,037
-436,978	394,314	0,103	0,154
-435,963	-135,557	-0,070	0,006
-434,949	-200,000	-0,021	-0,073
-433,934	-200,000	0,020	-0,077
-432,919	800,000	0,042	-0,101
-431,905	-127,741	0,092	-0,009
-430,890	52,932	-0,064	0,044
-429,876	705,639	0,076	0,144
-428,861	-102,464	0,035	0,006
-427,846	-179,249	-0,057	-0,001
-426,832	142,030	-0,051	0,049
-425,817	-167,124	-0,158	0,005
-424,803	800,000	-0,023	-0,065
-423,788	-200,000	-0,009	0,064
-422,773	-200,000	-0,011	0,049
-421,759	157,347	-0,028	-0,028
-420,744	-200,000	0,005	0,073
-419,730	34,289	-0,061	0,038
-418,715	39,982	-0,042	0,027
-417,701	365,910	-0,090	0,131
-416,686	110,014	-0,026	0,023
-415,671	7,408	0,140	0,075
-414,657	-200,000	-0,004	-0,024
-413,642	-200,000	0,008	0,087
-412,628	800,000	0,031	0,075
-411,613	-200,000	0,009	0,079
-410,598	-200,000	-0,002	-0,056
-409,584	-97,415	-0,028	0,005
-408,569	800,000	-0,043	0,096
-407,555	-152,456	0,055	0,003
-406,540	800,000	-0,055	0,125
-405,525	-200,000	-0,025	-0,113
-404,511	-18,356	0,034	-0,015
-403,496	800,000	-0,046	0,130
-402,482	-177,286	0,079	-0,001
-401,467	-200,000	-0,005	-0,081
-400,452	-200,000	0,012	0,056
-399,438	-200,000	0,003	0,039
-398,423	19,415	0,077	-0,044
-397,409	-0,583	-0,246	-0,125
-396,394	-88,165	-0,114	-0,024
-395,379	503,801	-0,022	-0,037
-394,365	-200,000	0,011	0,161
-393,350	93,637	0,096	0,078
-392,336	568,258	-0,023	0,040
-391,321	-15,833	-0,103	0,047
-390,306	-125,508	0,117	-0,013
-389,292	800,000	-0,016	-0,041
-388,277	286,131	0,040	-0,052
-387,263	62,720	-0,042	-0,030
-386,248	124,576	0,087	0,079
-385,233	-196,032	-0,071	-0,000
-384,219	220,840	-0,056	0,064
-383,204	18,898	-0,142	0,081
-382,190	-200,000	0,036	-0,122
-381,175	-200,000	0,008	0,050
-380,160	-100,493	0,089	-0,016
-379,146	-182,611	0,162	-0,002
-378,131	138,414	-0,027	0,026
-377,117	-200,000	0,001	-0,022
-376,102	150,586	0,120	-0,117
-375,088	-200,000	-0,021	-0,073
-374,073	146,393	0,097	-0,093
-373,058	62,445	0,058	-0,041
-372,044	556,559	0,087	0,152
-371,029	344,400	0,043	0,060
-370,015	-64,420	-0,272	0,079
-369,000	-169,967	-0,120	0,003
-367,985	126,012	-0,098	-0,089
-366,971	15,464	0,006	0,003
-365,956	-39,890	0,041	0,015
-364,942	525,758	0,068	0,116
-363,927	21,674	0,048	0,028
-362,912	-200,000	-0,027	-0,102
-361,898	768,333	-0,025	-0,049
-360,883	379,860	0,055	0,081
-359,869	124,860	0,111	-0,100
-358,854	800,000	-0,036	-0,088
-357,839	800,000	0,045	0,112
-356,825	473,792	0,080	0,130
-355,810	-200,000	0,005	0,027
-354,796	-51,207	0,062	-0,021
-353,781	179,364	-0,066	-0,069
-352,766	800,000	-0,032	-0,087
-351,752	800,000	0,029	0,084
-350,737	-200,000	-0,013	0,156
-349,723	-74,302	0,201	0,052
-348,708	-200,000	-0,016	-0,071
-347,693	-113,681	-0,114	-0,016
-346,679	502,695	-0,052	-0,087
-345,664	-87,209	0,065	0,014
-344,650	-15,049	-0,032	-0,014
-343,635	51,635	0,100	-0,068
-342,620	207,925	0,019	-0,022
-341,606	-54,342	0,066	-0,021
-340,591	-23,919	-0,054	-0,023
-339,577	786,847	0,050	-0,099
-338,562	-200,000	-0,012	0,061
-337,548	755,963	0,081	-0,158
-336,533	-84,045	-0,078	0,018
-335,518	-200,000	-0,002	-0,011
-334,504	-200,000	0,041	0,158
-333,489	-200,000	-0,004	-0,042
-332,475	-93,597	-0,115	-0,023
-331,460	800,000	-0,028	0,088
-330,445	-200,000	-0,034	-0,135
-329,431	53,218	0,145	-0,099
-328,416	-200,000	-0,028	0,113
-327,402	-200,000	0,010	-0,059
-326,387	177,893	0,120	-0,126
-325,372	650,050	-0,136	-0,251
-324,358	-66,345	-0,084	0,024
-323,343	-43,348	0,039	-0,014
-322,329	-200,000	0,020	-0,072
-321,314	-200,000	0,018	0,066
-320,299	114,779	0,098	-0,086
-319,285	667,005	-0,080	-0,150
-318,270	477,504	0,060	-0,098
-317,256	-58,733	-0,179	0,055
-316,241	119,291	0,091	-0,081
-315,226	160,287	0,098	0,098
-314,212	346,976	0,029	0,041
-313,197	800,000	-0,038	0,093
-312,183	800,000	0,025	0,051
-311,168	-37,611	-0,042	-0,016
-310,153	-200,000	0,012	-0,098
-309,139	122,806	-0,033	0,029
-308,124	576,901	-0,006	0,010
-307,110	85,380	-0,072	0,057
-306,095	-200,000	-0,021	0,095
-305,080	800,000	-0,019	0,056
-304,066	-200,000	0,000	0,016
-303,051	-33,986	-0,026	0,010
-302,037	-200,000	0,007	-0,059
-301,022	191,087	-0,026	-0,028
-300,008	800,000	-0,054	0,144
-298,993	-60,617	0,084	-0,025
-297,978	-26,662	0,146	0,061
-296,964	800,000	-0,027	-0,086
-295,949	800,000	0,038	-0,100
-294,935	800,000	0,025	-0,078
-293,920	800,000	-0,025	0,063
-292,905	-200,000	-0,003	-0,061
-291,891	-3,863	0,133	-0,066
-290,876	-200,000	0,013	0,181
-289,862	96,819	0,033	0,027
-288,847	638,586	0,041	-0,074
-287,832	83,147	0,062	0,048
-286,818	219,642	-0,063	-0,073
-285,803	-152,592	0,120	0,006
-284,789	701,866	0,121	0,229
-283,774	-200,000	0,028	0,096
-282,759	800,000	-0,042	-0,100
-281,745	800,000	-0,024	-0,065
-280,730	-43,807	-0,102	0,036
-279,716	-200,000	0,003	-0,196
-278,701	455,712	0,051	-0,080
-277,686	-141,372	0,135	-0,010
-276,672	-200,000	0,018	-0,075
-275,657	-200,000	0,004	0,023
-274,643	-87,487	-0,205	0,044
-273,628	394,077	-0,047	-0,070
-272,613	37,169	-0,078	0,049
-271,599	38,264	-0,069	-0,044
-270,584	-200,000	0,004	0,026
-269,570	393,932	0,047	0,070
-268,555	-74,574	0,060	-0,015
-267,540	-200,000	0,030	-0,168
-266,526	-171,330	-0,059	-0,001
-265,511	114,883	-0,021	0,018
-264,497	414,296	-0,089	0,135
-263,482	-200,000	0,012	0,187
-262,467	80,264	0,028	0,021
-261,453	109,085	0,058	0,049
-260,438	-59,425	-0,077	0,023
-259,424	-200,000	0,022	-0,094
-258,409	800,000	-0,025	0,074
-257,395	-200,000	0,019	-0,100
-256,380	-82,608	0,016	-0,004
-255,365	-3,852	-0,108	-0,053
-254,351	-63,485	-0,044	0,013
-253,336	-200,000	0,013	0,064
-252,322	-200,000	-0,007	-0,139
-251,307	-131,406	-0,084	0,008
-250,292	111,271	0,039	0,033
-249,278	-200,000	-0,001	-0,038
-248,263	141,309	-0,059	0,055
-247,249	345,517	-0,062	0,087
-246,234	-200,000	0,031	-0,131
-245,219	261,323	-0,067	-0,083
-244,205	14,361	-0,038	-0,021
-243,190	800,000	-0,032	-0,088
-242,176	-93,021	0,111	-0,022
-241,161	800,000	0,039	-0,107
-240,146	-200,000	-0,018	0,144
-239,132	166,498	-0,024	-0,025
-238,117	-70,647	-0,029	-0,008
-237,103	-63,061	-0,078	0,023
-236,088	16,153	0,053	0,030
-235,073	800,000	0,023	-0,051
-234,059	221,626	0,060	0,069
-233,044	800,000	0,052	0,105
-232,030	14,873	0,068	0,038
-231,015	-200,000	0,000	-0,053
-230,000	-200,000	0,005	-0,069
-228,986	164,273	-0,066	-0,066
-227,971	-52,588	0,017	-0,006
-226,957	800,000	0,028	0,087
-225,942	79,446	-0,049	-0,037
-224,927	127,539	-0,120	0,109
-223,913	405,664	0,025	-0,037
-222,898	-13,242	-0,045	-0,021
-221,884	276,457	0,035	-0,045
-220,869	-69,165	0,093	0,025
-219,855	-200,000	-0,008	-0,068
-218,840	-121,134	0,070	0,008
-217,825	-105,654	0,038	-0,006
-216,811	62,674	-0,138	-0,099
-215,796	97,555	-0,062	-0,050
-214,782	800,000	-0,016	-0,045
-213,767	-179,630	-0,105	-0,002
-212,752	136,436	-0,090	0,083
-211,738	-111,442	0,125	0,018
-210,723	-200,000	0,026	-0,146
-209,709	196,667	-0,047	-0,051
-208,694	-90,689	-0,104	0,021
-207,679	-109,225	0,090	-0,013
-206,665	-43,105	0,055	-0,020
-205,650	290,337	0,010	-0,013
-204,636	-200,000	0,028	0,090
-203,621	-43,865	0,088	-0,031
-202,606	458,042	-0,056	-0,089
-201,592	506,991	-0,111	-0,185
-200,577	127,302	-0,062	0,056
-199,563	800,000	0,027	-0,058
-198,548	158,659	0,075	0,074
-197,533	-200,000	0,011	0,069
-196,519	-74,343	-0,049	0,012
-195,504	-116,191	-0,063	0,008
-194,490	-200,000	-0,008	-0,199
-193,475	-181,386	0,097	0,001
-192,460	-50,289	-0,092	0,031
-191,446	800,000	0,019	0,049
-190,431	-200,000	0,009	0,032
-189,417	-200,000	-0,007	-0,100
-188,402	-35,072	-0,046	-0,018
-187,387	-200,000	-0,003	-0,067
-186,373	68,985	0,095	-0,070
-185,358	-86,061	-0,145	-0,032
-184,344	-29,673	0,022	-0,009
-183,329	110,079	0,045	-0,038
-182,315	-23,545	0,053	-0,023
-181,300	-200,000	0,000	-0,080
-180,285	29,457	0,108	0,065
-179,271	-200,000	0,046	-0,199
-178,256	-200,000	0,027	-0,134
-177,242	13,212	-0,023	-0,013
-176,227	-92,893	-0,018	-0,003
-175,212	800,000	-0,015	-0,045
-174,198	324,536	-0,024	0,032
-173,183	-200,000	-0,033	-0,231
-172,169	-156,499	-0,112	-0,005
-171,154	135,690	-0,093	-0,087
-170,139	-30,067	0,040	0,016
-169,125	219,318	0,082	0,094
-168,110	221,820	0,058	0,066
-167,096	-200,000	0,011	0,091
-166,081	-95,993	-0,036	-0,007
-165,066	-71,906	-0,075	-0,020
-164,052	-151,915	0,103	0,005
-163,037	-200,000	-0,002	0,087
-162,023	408,027	-0,030	0,045
-161,008	126,417	0,057	0,052
-159,993	484,926	-0,029	-0,047
-158,979	280,236	0,030	0,039
-157,964	800,000	0,024	0,063
-156,950	270,702	-0,129	-0,162
-155,935	225,055	-0,032	-0,036
-154,920	-26,502	0,061	-0,025
-153,906	-118,290	-0,068	-0,008
-152,891	13,435	-0,055	0,030
-151,877	-116,631	-0,155	-0,020
-150,862	133,356	-0,078	-0,072
-149,847	-200,000	0,017	0,094
-148,833	153,722	0,060	0,059
-147,818	-200,000	-0,009	0,110
-146,804	-96,318	-0,061	0,011
-145,789	-86,807	0,077	0,017
-144,775	-200,000	-0,003	0,095
-143,760	-154,236	-0,129	-0,006
-142,745	411,291	-0,049	-0,075
-141,731	146,588	0,038	-0,036
-140,716	-200,000	-0,021	0,095
-139,702	-31,483	0,143	0,057
-138,687	-133,336	-0,090	0,008
-137,672	475,879	-0,049	-0,079
-136,658	115,213	-0,099	-0,086
-135,643	-200,000	0,049	-0,172
-134,629	-148,689	-0,022	-0,001
-133,614	-200,000	-0,005	-0,023
-132,599	-200,000	0,035	0,158
-131,585	800,000	-0,053	0,130
-130,570	161,321	-0,034	0,034
-129,556	800,000	-0,040	0,099
-128,541	-69,235	0,108	-0,029
-127,526	-82,676	0,165	-0,038
-126,512	41,137	-0,119	-0,077
-125,497	316,753	-0,039	0,053
-124,483	-200,000	0,002	-0,128
-123,468	-82,264	-0,131	0,030
-122,453	551,382	-0,038	-0,064
-121,439	-200,000	-0,005	-0,112
-120,424	-4,318	0,013	-0,007
-119,410	800,000	-0,022	-0,062
-118,395	726,996	0,044	-0,084
-117,380	161,862	0,068	0,067
-116,366	-35,177	-0,033	-0,013
-115,351	98,081	-0,049	-0,040
-114,337	94,544	0,107	-0,086
-113,322	120,765	-0,076	0,067
-112,307	87,582	0,057	-0,045
-111,293	11,406	-0,060	0,032
-110,278	438,337	0,045	-0,070
-109,264	183,489	0,117	0,123
-108,249	800,000	-0,035	-0,108
-107,234	-200,000	0,004	-0,017
-106,220	-95,330	0,145	0,027
-105,205	62,107	-0,032	0,022
-104,191	671,422	-0,016	-0,030
-103,176	-1,641	0,184	0,092
-102,162	-195,888	-0,105	-0,001
-101,147	447,592	0,046	-0,072
-100,132	-86,103	0,056	0,012
-99,118	-200,000	-0,002	0,067
-98,103	-54,319	0,105	0,034
-97,089	-110,742	0,074	0,011
-96,074	-80,376	0,020	0,005
-95,059	346,682	-0,099	0,138
-94,045	-125,626	-0,109	0,012
-93,030	800,000	-0,038	0,078
-92,016	800,000	0,015	-0,043
-91,001	-8,674	-0,139	0,066
-89,986	-200,000	0,019	-0,090
-88,972	800,000	0,069	0,164
-87,957	800,000	0,045	0,095
-86,943	-200,000	0,021	-0,090
-85,928	184,624	0,038	-0,040
-84,913	-20,695	-0,050	-0,022
-83,899	61,670	-0,002	-0,002
-82,884	-96,631	0,107	-0,020
-81,870	107,788	0,084	0,071
-80,855	313,110	0,044	0,058
-79,840	-200,000	0,014	-0,052
-78,826	800,000	-0,010	0,024
-77,811	2,206	0,145	-0,074
-76,797	-200,000	-0,003	-0,043
-75,782	63,237	-0,121	0,086
-74,767	800,000	-0,026	0,075
-73,753	35,528	-0,077	0,048
-72,738	-38,520	-0,096	-0,036
-71,724	78,621	-0,026	-0,020
-70,709	30,064	0,165	-0,099
-69,694	-96,014	-0,116	-0,022
-68,680	135,476	-0,030	0,028
-67,665	-107,788	0,121	-0,019
-66,651	800,000	-0,023	-0,071
-65,636	-108,057	0,085	0,013
-64,622	-76,182	0,113	0,028
-63,607	-117,474	0,061	0,008
-62,592	-120,599	-0,098	-0,012
-61,578	508,123	0,082	0,135
-60,563	116,214	0,054	0,047
-59,549	-32,157	0,034	0,013
-58,534	-23,633	-1,574	-0,666
-57,519	416,936	-1,347	-2,045
-56,505	-200,000	-0,580	-4,343
-55,490	236,698	1,004	1,180
-54,476	800,000	4,695	10,898
-53,461	-200,000	18,630	299,260
-52,446	800,000	733,178	2266,587
-51,432	561,122	1649,346	2836,273
-50,417	78,817	1668,358	1263,616
-49,403	22,386	1541,519	890,519
-48,388	16,318	1464,478	816,550
-47,373	17,833	1454,230	818,119
-46,359	17,044	1444,450	808,804
-45,344	14,554	1439,933	794,327
-44,330	14,556	1437,900	793,185
-43,315	14,565	1436,052	792,176
-42,300	14,544	1434,579	791,230
-41,286	14,521	1433,554	790,527
-40,271	14,485	1432,333	789,651
-39,257	14,481	1430,887	788,801
-38,242	14,516	1429,622	788,240
-37,227	14,508	1428,597	787,603
-36,213	14,579	1427,063	787,064
-35,198	14,555	1425,944	786,303
-34,184	14,583	1425,012	785,891
-33,169	14,493	1423,763	784,744
-32,154	14,542	1422,814	784,420
-31,140	14,511	1421,487	783,510
-30,125	14,586	1420,383	783,227
-29,111	14,565	1419,164	782,423
-28,096	14,511	1418,052	781,524
-27,082	14,473	1416,955	780,708
-26,067	14,456	1415,812	779,968
-25,052	14,473	1414,832	779,479
-24,038	14,440	1414,008	778,840
-23,023	14,447	1412,716	778,127
-22,009	14,457	1411,758	777,620
-20,994	14,393	1410,927	776,830
-19,979	14,425	1410,109	776,499
-18,965	14,345	1409,312	775,654
-17,950	14,342	1408,055	774,916
-16,936	14,366	1407,124	774,486
-15,921	14,317	1406,211	773,725
-14,906	14,346	1405,264	773,306
-13,892	14,341	1404,216	772,676
-12,877	14,340	1403,332	772,153
-11,863	14,379	1402,381	771,784
-10,848	14,348	1401,531	771,138
-9,833	14,287	1400,815	770,432
-8,819	14,231	1399,948	769,666
-7,804	14,255	1399,005	769,224
-6,790	14,243	1397,831	768,495
-5,775	14,243	1396,869	767,934
-4,760	14,264	1395,947	767,494
-3,746	14,262	1395,174	767,031
-2,731	14,247	1394,561	766,593
-1,717	14,243	1393,463	765,940
-0,702	14,258	1391,562	764,936
0,313	18,061	1309,745	737,590
1,327	34,313	705,985	435,247
2,342	52,260	124,156	83,706
3,356	4,581	16,602	8,601
4,371	7,881	3,157	1,670
5,386	8,521	0,556	0,295
6,400	314,512	0,085	0,114
7,415	287,898	-0,216	-0,278
8,429	-48,683	-0,383	-0,130
9,444	74,163	-0,237	-0,176
10,459	49,224	-0,394	-0,262
11,473	30,149	-0,483	-0,291
12,488	146,247	-0,245	-0,232
13,502	-76,478	-0,293	-0,072
14,517	64,754	-0,222	-0,158
15,531	27,780	-0,353	-0,210
16,546	3,037	-0,396	-0,203
17,561	135,796	-0,249	-0,230
18,575	127,652	-0,257	-0,231
19,590	200,616	-0,239	-0,260
20,604	140,907	-0,202	-0,189
21,619	-21,723	-0,498	-0,213
22,634	74,990	-0,406	-0,302
23,648	256,414	-0,412	-0,501
24,663	-1,598	-0,463	-0,230
25,677	166,389	-0,216	-0,217
26,692	54,458	-0,449	-0,305
27,707	27,702	-0,321	-0,190
28,721	-24,286	-0,423	-0,177
29,736	122,483	-0,398	-0,351
30,750	384,812	-0,311	-0,454
31,765	126,962	-0,366	-0,328
32,780	5,693	-0,472	-0,246
33,794	185,942	-0,356	-0,374
34,809	100,295	-0,383	-0,314
35,823	-6,817	-0,272	-0,130
36,838	73,489	-0,398	-0,294
37,853	93,718	-0,489	-0,391
38,867	112,510	-0,479	-0,409
39,882	192,609	-0,352	-0,376
40,896	168,022	-0,365	-0,367
41,911	72,267	-0,300	-0,220
42,926	13,254	-0,350	-0,191
43,940	-6,785	-0,451	-0,216
44,955	87,270	-0,363	-0,283
45,969	58,327	-0,314	-0,217
46,984	93,383	-0,332	-0,265
47,999	53,298	-0,236	-0,159
49,013	-56,305	-0,419	-0,130
50,028	129,490	-0,275	-0,248
51,042	97,400	-0,344	-0,279
52,057	108,231	-0,313	-0,263
53,071	96,884	-0,273	-0,220
54,086	1,929	-0,237	-0,120
55,101	188,870	-0,227	-0,240
56,115	114,884	-0,259	-0,223
57,130	-29,217	-0,547	-0,220
58,144	39,428	-0,427	-0,269
59,159	66,811	-0,374	-0,268
60,174	108,822	-0,419	-0,353
61,188	194,747	-0,239	-0,256
62,203	65,246	-0,335	-0,238
63,217	-118,318	-0,408	-0,050
64,232	-9,658	-0,336	-0,157
65,247	24,333	-0,372	-0,216
66,261	161,259	-0,232	-0,229
67,276	123,281	-0,320	-0,283
68,290	275,826	-0,164	-0,205
69,305	9,232	-0,344	-0,183
70,320	-74,718	-0,385	-0,097
71,334	-89,652	-0,402	-0,082
72,349	204,795	-0,315	-0,344
73,363	116,666	-0,396	-0,342
74,378	129,903	-0,349	-0,314
75,393	238,660	-0,314	-0,368
76,407	31,532	-0,267	-0,161
77,422	-40,568	-0,295	-0,107
78,436	-21,580	-0,235	-0,100
79,451	59,814	-0,312	-0,216
80,466	95,814	-0,234	-0,188
81,480	-45,665	-0,430	-0,149
82,495	123,523	-0,193	-0,170
83,509	-25,158	-0,324	-0,134
84,524	113,290	-0,236	-0,201
85,539	179,327	-0,308	-0,317
86,553	60,511	-0,336	-0,234
87,568	86,517	-0,221	-0,171
88,582	184,221	-0,229	-0,239
89,597	95,279	-0,331	-0,265
90,611	0,811	-0,282	-0,141
91,626	-45,820	-0,169	-0,058
92,641	-129,391	-0,278	-0,027
93,655	-51,102	-0,319	-0,105
94,670	8,988	-0,281	-0,148
95,684	46,868	-0,409	-0,267
96,699	100,401	-0,297	-0,242
97,714	184,888	-0,288	-0,300
98,728	261,067	-0,218	-0,266
99,743	3,253	-0,283	-0,144
100,757	-22,118	-0,254	-0,108
101,772	-6,890	-0,373	-0,177
102,787	26,439	-0,351	-0,205
103,801	-173,361	-0,326	0,007
104,816	-31,586	-0,189	-0,074
105,830	361,218	-0,167	-0,236
106,845	55,256	-0,257	-0,174
107,860	229,887	-0,258	-0,297
108,874	56,023	-0,293	-0,199
109,889	89,178	-0,302	-0,236
110,903	137,167	-0,238	-0,218
111,918	-26,241	-0,187	-0,077
112,933	75,167	-0,236	-0,174
113,947	-99,031	-0,245	-0,043
114,962	61,083	-0,193	-0,134
115,976	9,696	-0,212	-0,112
116,991	105,645	-0,281	-0,233
118,006	43,316	-0,377	-0,241
119,020	22,860	-0,385	-0,221
120,035	67,682	-0,211	-0,151
121,049	89,356	-0,220	-0,172
122,064	129,451	-0,146	-0,131
123,079	-26,545	-0,253	-0,104
124,093	136,343	-0,334	-0,305
125,108	121,353	-0,372	-0,324
126,122	11,233	-0,291	-0,156
127,137	151,135	-0,266	-0,254
128,151	99,860	-0,262	-0,212
129,166	-71,340	-0,300	-0,078
130,181	83,512	-0,198	-0,151
131,195	238,415	-0,163	-0,190
132,210	86,622	-0,284	-0,219
133,224	208,258	-0,170	-0,187
134,239	146,655	-0,186	-0,175
135,254	-13,336	-0,236	-0,107
136,268	800,000	-0,071	-0,171
137,283	-15,646	-0,261	-0,116
138,297	39,717	-0,354	-0,222
139,312	153,190	-0,225	-0,216
140,327	220,473	-0,291	-0,327
141,341	138,902	-0,328	-0,302
142,356	127,113	-0,213	-0,189
143,370	800,000	-0,114	-0,273
144,385	11,766	-0,267	-0,143
145,400	93,466	-0,320	-0,253
146,414	155,504	-0,263	-0,253
147,429	283,897	-0,217	-0,273
148,443	-44,988	-0,351	-0,122
149,458	143,924	-0,227	-0,212
150,473	-12,830	-0,229	-0,104
151,487	-88,110	-0,260	-0,054
152,502	-24,178	-0,234	-0,097
153,516	2,762	-0,325	-0,164
154,531	54,303	-0,353	-0,237
155,546	203,479	-0,180	-0,195
156,560	237,469	-0,175	-0,203
157,575	78,711	-0,260	-0,194
158,589	206,415	-0,209	-0,227
159,604	80,099	-0,330	-0,247
160,619	-2,735	-0,361	-0,176
161,633	129,592	-0,265	-0,236
162,648	61,925	-0,279	-0,194
163,662	101,849	-0,131	-0,106
164,677	14,696	-0,259	-0,141
165,692	-47,859	-0,231	-0,078
166,706	-23,605	-0,303	-0,126
167,721	46,102	-0,228	-0,147
168,735	401,737	-0,185	-0,272
169,750	119,776	-0,191	-0,165
170,764	240,017	-0,209	-0,243
171,779	87,737	-0,304	-0,235
172,794	-147,025	-0,221	-0,013
173,808	187,321	-0,233	-0,242
174,823	231,418	-0,295	-0,337
175,837	-22,348	-0,270	-0,114
176,852	-18,088	-0,303	-0,132
177,867	114,836	-0,197	-0,168
178,881	99,189	-0,178	-0,144
179,896	419,260	-0,112	-0,167
180,910	303,979	-0,159	-0,206
181,925	190,489	-0,204	-0,214
182,940	-8,222	-0,288	-0,135
183,954	-5,310	-0,287	-0,137
184,969	184,698	-0,243	-0,252
185,983	92,003	-0,185	-0,145
186,998	-75,420	-0,142	-0,035
188,013	-8,937	-0,261	-0,121
189,027	-124,339	-0,314	-0,034
190,042	158,047	-0,133	-0,129
191,056	243,301	-0,190	-0,222
192,071	49,567	-0,270	-0,177
193,086	-90,996	-0,105	-0,021
194,100	-43,631	-0,229	0,080
195,115	20,591	-0,210	-0,118
196,129	-45,133	-0,258	-0,089
197,144	-76,866	-0,136	-0,033
198,159	-8,614	-0,144	-0,067
199,173	161,070	-0,146	-0,142
200,188	61,284	-0,248	-0,171
201,202	133,516	-0,155	-0,140
202,217	28,539	-0,207	-0,122
203,232	-200,000	-0,048	-0,233
204,246	395,213	-0,194	-0,282
205,261	697,994	-0,109	-0,201
206,275	45,939	-0,214	-0,137
207,290	180,576	-0,095	-0,097
208,304	-102,425	-0,289	-0,048
209,319	141,528	-0,197	-0,181
210,334	-50,950	-0,235	-0,076
211,348	193,230	-0,244	-0,257
212,363	89,616	-0,199	-0,154
213,377	115,954	-0,197	-0,167
214,392	258,664	-0,167	-0,200
215,407	324,420	-0,143	-0,190
216,421	241,094	-0,111	-0,128
217,436	-89,652	-0,251	-0,051
218,450	177,977	-0,155	-0,157
219,465	455,874	-0,183	-0,283
220,480	164,924	-0,148	-0,145
221,494	800,000	-0,057	-0,114
222,509	105,168	-0,132	-0,108
223,523	-24,888	-0,171	-0,070
224,538	459,137	-0,122	-0,190
225,553	-88,940	-0,213	-0,044
226,567	322,965	-0,170	-0,225
227,582	240,064	-0,156	-0,181
228,596	164,266	-0,123	-0,120
229,611	214,830	-0,061	-0,067
230,626	18,478	-0,141	-0,078
231,640	192,708	-0,204	-0,214
232,655	230,432	-0,209	-0,238
233,669	100,093	-0,259	-0,209
234,684	205,797	-0,105	-0,113
235,699	-34,222	-0,163	-0,062
236,713	45,047	-0,203	-0,129
237,728	-82,359	-0,077	-0,017
238,742	739,345	-0,099	-0,185
239,757	124,608	-0,167	-0,145
240,772	265,445	-0,087	-0,105
241,786	136,222	-0,297	-0,269
242,801	800,000	-0,069	-0,207
243,815	-126,419	-0,135	-0,014
244,830	18,498	-0,148	-0,082
245,844	514,101	-0,127	-0,207
246,859	572,228	-0,148	-0,251
247,874	167,626	-0,189	-0,186
248,888	342,947	-0,085	-0,116
249,903	316,937	-0,091	-0,119
250,917	146,161	-0,090	-0,083
251,932	76,462	-0,230	-0,169
252,947	-2,468	-0,250	-0,121
253,961	77,710	-0,020	-0,015
254,976	399,342	-0,046	-0,067
255,990	-76,840	-0,230	-0,055
257,005	800,000	-0,089	-0,191
258,020	498,468	-0,110	-0,176
259,034	147,473	-0,084	0,078
260,049	182,593	-0,142	-0,145
261,063	-200,000	-0,016	-0,072
262,078	176,346	-0,261	-0,263
263,093	3,087	-0,259	-0,130
264,107	4,210	-0,146	0,074
265,122	611,256	-0,032	-0,056
266,136	199,189	-0,089	-0,094
267,151	-80,132	-0,190	-0,044
268,166	69,394	-0,251	-0,179
269,180	92,120	-0,169	-0,132
270,195	33,185	-0,272	-0,163
271,209	-200,000	-0,026	-0,210
272,224	586,978	-0,143	-0,245
273,239	123,935	-0,100	-0,087
274,253	-200,000	-0,032	-0,136
275,268	223,685	-0,176	-0,197
276,282	69,987	-0,252	-0,180
277,297	110,827	-0,125	-0,104
278,312	61,827	-0,113	-0,078
279,326	148,714	-0,083	-0,078
280,341	-142,639	-0,158	-0,010
281,355	-170,970	-0,168	-0,004
282,370	-200,000	-0,085	-0,293
283,384	-200,000	-0,095	-0,312
284,399	186,102	-0,114	-0,118
285,414	9,040	-0,244	-0,127
286,428	-145,809	-0,225	-0,014
287,443	-149,781	-0,180	-0,010
288,457	47,821	-0,231	-0,149
289,472	-83,790	-0,136	-0,030
290,487	94,953	-0,185	-0,145
291,501	150,669	-0,219	-0,205
292,516	252,397	0,026	-0,031
293,530	-200,000	0,023	-0,171
294,545	800,000	-0,033	-0,073
295,560	-183,803	-0,206	-0,002
296,574	54,850	-0,156	-0,104
297,589	-163,057	-0,181	-0,006
298,603	117,076	-0,183	-0,155
299,618	100,061	-0,190	-0,152
300,633	-200,000	-0,005	-0,175
301,647	156,719	-0,038	-0,036
302,662	246,899	-0,107	-0,124
303,676	106,391	-0,122	-0,099
304,691	59,167	-0,191	-0,130
305,706	-117,621	-0,216	-0,027
306,720	800,000	-0,063	-0,123
307,735	204,982	-0,131	-0,141
308,749	-119,244	-0,120	-0,014
309,764	226,396	-0,081	-0,090
310,779	174,095	-0,055	-0,055
311,793	-200,000	-0,021	-0,135
312,808	106,838	-0,184	-0,150
313,822	47,552	-0,037	-0,024
314,837	229,305	-0,141	-0,159
315,852	144,019	-0,120	0,110
316,866	-200,000	-0,032	-0,132
317,881	-121,370	-0,186	-0,021
318,895	-83,216	-0,110	0,024
319,910	800,000	-0,040	-0,113
320,925	-90,339	-0,188	-0,037
321,939	-25,073	-0,194	-0,079
322,954	-122,014	-0,098	-0,011
323,968	800,000	-0,058	0,133
324,983	180,631	-0,114	-0,115
325,997	59,989	-0,151	-0,102
327,012	-26,982	-0,225	-0,090
328,027	257,296	-0,195	-0,231
329,041	105,502	-0,173	-0,141
330,056	645,592	-0,083	-0,146
331,070	344,309	-0,123	-0,166
332,085	22,831	-0,175	-0,099
333,100	540,160	-0,142	-0,233
334,114	152,241	-0,088	-0,083
335,129	-43,559	-0,090	-0,031
336,143	370,124	-0,080	-0,112
337,158	-29,970	-0,152	-0,059
338,173	290,524	-0,081	-0,101
339,187	-26,611	-0,222	-0,089
340,202	234,858	-0,107	-0,122
341,216	110,119	-0,159	-0,131
342,231	327,955	-0,047	-0,062
343,246	261,011	-0,118	-0,141
344,260	304,982	-0,132	-0,168
345,275	-20,485	-0,156	-0,066
346,289	-154,474	-0,136	-0,006
347,304	689,909	-0,125	-0,226
348,319	-127,735	-0,090	-0,009
349,333	-200,000	0,005	-0,120
350,348	165,796	-0,260	-0,253
351,362	3,781	-0,090	-0,045
352,377	800,000	-0,089	-0,193
353,392	800,000	-0,067	-0,172
354,406	-90,500	-0,109	-0,021
355,421	208,292	1316,277	1414,390
356,435	160,262	1477,201	1414,883
