DTS Sentinel unit serial number:	SN410029Multiplexer serial number:	ORYXHardware model number:	OX2-SRSoftware version number:	ORYX F/W v4,00 Oryx Data Collector v3.7.2.0data status	okinstallation	B3 Nyhavnadifferential loss correction	single-endedforward channel	channel 1reverse channel	N/Adate	2023/12/01time	02:42:30forward acquisition time	300,00reverse acquisition time	0,00gamma	499,1914k internal	0,3211k external	0,3211temperature offset calibration	1,0000default loss term (dB/km)	0,3820temperature slope calibration	1,0000multiplexer offset coefficient	1,0000multiplexer slope coefficient	1,0000fibre end	0,00T internal ref (°C)	8,54T ext. ref 1 (°C)	-6,59T ext. ref 2 (°C)	-6,73length (m)	temperature (°C)	Stokes	anti-Stokes-744,400	107,063	-0,272	-0,234
-743,385	274,652	-0,109	0,141
-742,371	50,478	-0,205	-0,140
-741,356	-200,000	0,001	0,239
-740,342	185,947	-0,205	-0,221
-739,327	195,223	-0,127	0,140
-738,312	312,691	-0,252	-0,344
-737,298	648,452	-0,092	0,171
-736,283	570,238	-0,173	-0,306
-735,269	449,672	0,112	0,180
-734,254	96,368	-0,207	-0,171
-733,239	-109,252	-0,249	0,038
-732,225	114,582	-0,185	-0,163
-731,210	197,804	0,076	-0,084
-730,196	-102,213	-0,069	-0,012
-729,181	-103,541	0,089	0,015
-728,167	-34,557	-0,154	0,061
-727,152	-200,000	-0,003	0,091
-726,137	135,490	-0,057	-0,054
-725,123	-156,913	-0,168	-0,007
-724,108	420,125	0,054	-0,084
-723,094	90,682	-0,128	-0,103
-722,079	-43,441	-0,142	-0,052
-721,064	-136,978	-0,096	-0,008
-720,050	164,601	-0,072	-0,073
-719,035	-133,296	-0,129	0,012
-718,021	800,000	0,042	-0,123
-717,006	647,625	-0,086	-0,160
-715,991	-46,232	-0,097	-0,034
-714,977	800,000	-0,093	-0,199
-713,962	-32,351	0,119	-0,048
-712,948	800,000	0,001	0,003
-711,933	350,650	0,084	0,120
-710,918	-109,926	-0,049	0,007
-709,904	-179,938	-0,159	0,002
-708,889	-145,790	-0,139	-0,009
-707,875	553,116	-0,070	-0,122
-706,860	800,000	-0,052	-0,153
-705,845	89,485	0,034	-0,027
-704,831	291,469	0,021	-0,028
-703,816	-200,000	-0,020	0,113
-702,802	-200,000	0,022	0,083
-701,787	-200,000	-0,002	0,063
-700,772	800,000	-0,075	-0,193
-699,758	800,000	-0,034	-0,105
-698,743	-200,000	-0,010	0,048
-697,729	-200,000	0,019	0,134
-696,714	800,000	0,026	0,056
-695,699	-40,594	-0,068	-0,025
-694,685	800,000	0,024	-0,051
-693,670	179,965	-0,031	0,033
-692,656	204,758	0,091	0,102
-691,641	-122,026	-0,051	0,006
-690,627	-200,000	0,004	-0,065
-689,612	342,599	0,077	-0,109
-688,597	29,179	-0,128	-0,078
-687,583	-200,000	-0,010	-0,128
-686,568	22,606	-0,071	-0,042
-685,554	366,073	0,057	-0,083
-684,539	800,000	0,045	0,096
-683,524	-200,000	-0,001	0,191
-682,510	-84,887	-0,098	-0,022
-681,495	24,601	-0,061	0,036
-680,481	85,656	-0,037	0,029
-679,466	0,125	-0,124	0,064
-678,451	-200,000	-0,005	-0,078
-677,437	128,565	0,044	0,040
-676,422	77,062	-0,030	0,023
-675,408	589,454	-0,044	-0,078
-674,393	-200,000	0,005	0,026
-673,378	-125,688	-0,181	0,020
-672,364	420,842	0,021	0,032
-671,349	328,998	-0,073	-0,102
-670,335	-46,362	0,133	0,047
-669,320	-200,000	-0,022	0,081
-668,305	800,000	-0,019	0,044
-667,291	800,000	-0,029	-0,061
-666,276	39,517	-0,174	-0,113
-665,262	292,014	0,099	-0,131
-664,247	-153,448	-0,126	-0,006
-663,232	-82,088	0,117	-0,027
-662,218	800,000	0,022	-0,057
-661,203	115,982	-0,062	-0,055
-660,189	-36,726	0,097	-0,038
-659,174	-76,183	0,041	-0,010
-658,159	156,132	0,059	-0,058
-657,145	446,869	-0,062	-0,099
-656,130	-200,000	-0,013	-0,099
-655,116	122,893	-0,022	-0,020
-654,101	63,984	0,016	-0,012
-653,086	-99,284	0,072	-0,013
-652,072	800,000	0,059	-0,153
-651,057	-191,578	-0,042	-0,000
-650,043	320,252	0,004	0,006
-649,028	800,000	0,061	-0,146
-648,014	-200,000	-0,016	-0,122
-646,999	-200,000	-0,008	0,034
-645,984	89,602	-0,099	-0,080
-644,970	-17,617	-0,005	-0,002
-643,955	-76,092	-0,077	-0,020
-642,941	203,468	-0,141	0,157
-641,926	51,067	-0,077	-0,053
-640,911	333,660	-0,097	-0,135
-639,897	-200,000	-0,039	0,274
-638,882	-96,896	-0,127	-0,024
-637,868	210,593	0,041	-0,047
-636,853	-200,000	0,004	-0,134
-635,838	-200,000	-0,001	-0,099
-634,824	-200,000	0,030	-0,145
-633,809	462,069	-0,059	0,096
-632,795	-200,000	0,002	-0,043
-631,780	69,790	-0,038	0,028
-630,765	81,505	0,071	-0,056
-629,751	800,000	0,054	-0,146
-628,736	82,426	-0,043	0,034
-627,722	-190,077	-0,093	-0,001
-626,707	-14,569	0,065	0,030
-625,692	-200,000	-0,020	0,118
-624,678	800,000	-0,039	0,090
-623,663	47,165	0,051	0,034
-622,649	-96,786	-0,111	-0,021
-621,634	309,177	-0,056	-0,076
-620,619	-200,000	0,009	0,075
-619,605	-97,103	0,109	0,020
-618,590	320,056	0,026	0,036
-617,576	529,041	0,018	-0,030
-616,561	68,589	-0,038	0,028
-615,546	-200,000	0,004	0,037
-614,532	-200,000	-0,003	-0,017
-613,517	-200,000	-0,014	-0,060
-612,503	-200,000	0,008	-0,163
-611,488	-81,458	0,085	-0,020
-610,474	68,893	-0,089	0,066
-609,459	-200,000	-0,010	0,060
-608,444	84,056	0,084	-0,066
-607,430	28,395	-0,067	-0,041
-606,415	453,476	0,012	-0,019
-605,401	103,288	0,196	-0,166
-604,386	0,268	0,043	-0,022
-603,371	800,000	0,049	0,125
-602,357	583,595	-0,076	0,135
-601,342	285,584	-0,087	-0,113
-600,328	518,145	-0,012	0,020
-599,313	18,768	0,143	0,082
-598,298	41,496	-0,100	0,065
-597,284	674,359	-0,065	0,122
-596,269	-139,370	0,128	0,010
-595,255	95,833	-0,037	0,031
-594,240	48,088	-0,062	-0,042
-593,225	82,961	-0,121	-0,095
-592,211	270,606	0,053	0,067
-591,196	-200,000	-0,024	0,079
-590,182	585,180	-0,038	0,068
-589,167	62,526	-0,026	0,018
-588,152	-200,000	0,024	0,098
-587,138	-26,843	0,083	-0,035
-586,123	28,043	-0,034	-0,020
-585,109	141,612	-0,118	0,113
-584,094	-200,000	0,016	0,121
-583,079	-200,000	0,002	0,018
-582,065	-108,268	0,096	0,015
-581,050	-200,000	-0,001	-0,052
-580,036	-70,173	-0,050	0,014
-579,021	800,000	-0,057	-0,116
-578,006	-200,000	0,012	-0,169
-576,992	800,000	-0,031	-0,064
-575,977	641,374	0,038	-0,070
-574,963	213,950	0,059	-0,068
-573,948	151,718	0,057	-0,056
-572,934	363,232	-0,079	0,115
-571,919	800,000	-0,047	0,111
-570,904	-42,909	-0,111	-0,040
-569,890	133,482	0,043	-0,040
-568,875	800,000	-0,020	0,050
-567,861	27,646	-0,101	-0,061
-566,846	-200,000	0,018	-0,162
-565,831	89,202	0,051	-0,041
-564,817	-200,000	-0,011	-0,068
-563,802	-107,225	0,024	-0,004
-562,788	-200,000	0,015	-0,115
-561,773	539,423	0,044	-0,075
-560,758	800,000	-0,044	0,091
-559,744	-157,144	-0,134	0,006
-558,729	-200,000	0,002	0,080
-557,715	230,920	-0,032	-0,038
-556,700	60,859	-0,022	0,016
-555,685	101,687	0,033	-0,028
-554,671	324,509	0,038	0,052
-553,656	498,159	0,106	-0,176
-552,642	354,005	-0,091	-0,130
-551,627	459,958	-0,024	-0,039
-550,612	334,392	0,040	-0,056
-549,598	172,470	0,007	-0,008
-548,583	144,164	0,072	-0,069
-547,569	-200,000	0,031	0,102
-546,554	800,000	0,050	0,112
-545,539	182,896	0,033	0,035
-544,525	-200,000	0,011	-0,159
-543,510	-37,840	-0,097	0,037
-542,496	-38,774	-0,040	-0,015
-541,481	99,937	-0,038	0,032
-540,466	100,904	-0,081	-0,068
-539,452	-111,961	-0,176	0,025
-538,437	2,321	0,115	0,059
-537,423	-19,330	0,075	0,033
-536,408	-115,053	0,046	0,006
-535,393	-162,299	-0,170	0,006
-534,379	144,129	-0,120	0,115
-533,364	-21,208	0,087	-0,038
-532,350	-140,101	-0,055	0,004
-531,335	348,055	0,030	-0,042
-530,321	-200,000	0,019	0,091
-529,306	434,336	-0,062	0,097
-528,291	84,492	-0,106	0,084
-527,277	-200,000	-0,013	-0,074
-526,262	-200,000	0,029	-0,132
-525,248	-200,000	-0,002	0,094
-524,233	-200,000	0,029	0,163
-523,218	800,000	-0,045	-0,091
-522,204	227,442	0,046	0,054
-521,189	185,112	-0,073	0,078
-520,175	800,000	-0,007	-0,015
-519,160	-200,000	-0,009	-0,069
-518,145	-200,000	-0,001	-0,032
-517,131	386,496	0,034	-0,051
-516,116	-8,576	-0,096	0,046
-515,102	800,000	-0,067	0,169
-514,087	800,000	0,033	0,073
-513,072	304,853	-0,119	0,159
-512,058	-90,448	0,122	0,025
-511,043	-9,826	-0,074	-0,035
-510,029	800,000	0,060	-0,172
-509,014	-200,000	-0,001	0,053
-507,999	88,688	-0,032	-0,025
-506,985	-187,175	0,037	0,000
-505,970	8,156	-0,060	-0,032
-504,956	-67,778	0,166	-0,046
-503,941	-200,000	0,021	-0,078
-502,926	-200,000	-0,005	0,168
-501,912	524,945	0,023	0,039
-500,897	-200,000	0,001	0,026
-499,883	728,397	0,045	-0,086
-498,868	21,071	0,061	-0,035
-497,853	-78,652	-0,078	-0,019
-496,839	-70,732	0,156	0,042
-495,824	-200,000	0,006	-0,058
-494,810	800,000	0,013	-0,031
-493,795	-59,520	-0,030	-0,009
-492,781	-200,000	-0,007	-0,108
-491,766	-82,744	-0,122	-0,028
-490,751	-86,602	-0,042	-0,009
-489,737	370,461	0,066	-0,097
-488,722	800,000	-0,067	0,145
-487,708	418,339	0,056	0,086
-486,693	-200,000	-0,022	0,101
-485,678	-63,341	0,102	0,030
-484,664	-173,036	0,068	-0,001
-483,649	-200,000	0,009	-0,066
-482,635	-200,000	-0,051	-0,230
-481,620	-77,765	-0,141	-0,035
-480,605	800,000	-0,016	0,040
-479,591	-37,729	-0,129	0,049
-478,576	547,235	0,020	-0,035
-477,562	56,396	-0,075	0,052
-476,547	355,680	0,048	-0,069
-475,532	264,622	-0,054	-0,068
-474,518	128,606	0,036	0,033
-473,503	95,743	0,084	0,069
-472,489	-95,933	0,176	0,033
-471,474	0,579	0,039	-0,020
-470,459	64,688	-0,115	0,083
-469,445	-138,944	-0,173	0,013
-468,430	-200,000	0,005	-0,086
-467,416	-200,000	-0,009	-0,034
-466,401	-147,088	0,229	0,014
-465,386	-85,238	0,078	0,017
-464,372	-200,000	0,015	0,080
-463,357	92,244	0,036	0,029
-462,343	-36,302	0,059	0,023
-461,328	-139,244	0,102	-0,008
-460,313	-111,023	-0,107	0,016
-459,299	445,325	0,058	0,091
-458,284	-200,000	-0,005	-0,054
-457,270	-147,787	-0,042	-0,002
-456,255	-200,000	0,007	-0,045
-455,241	54,322	-0,034	-0,024
-454,226	-129,261	0,165	-0,016
-453,211	-200,000	0,029	0,118
-452,197	11,964	0,074	0,040
-451,182	-78,578	0,066	-0,016
-450,168	800,000	0,021	-0,044
-449,153	-200,000	-0,018	0,101
-448,138	-200,000	-0,015	-0,152
-447,124	3,496	0,084	0,044
-446,109	-4,075	-0,066	0,033
-445,095	800,000	-0,029	0,062
-444,080	-200,000	0,027	0,117
-443,065	347,249	0,071	0,101
-442,051	636,781	-0,045	0,082
-441,036	-200,000	0,035	0,126
-440,022	-159,302	-0,179	0,007
-439,007	76,993	0,040	-0,031
-437,992	-49,123	0,122	-0,042
-436,978	-200,000	0,034	0,212
-435,963	341,609	0,101	0,141
-434,949	800,000	-0,025	0,065
-433,934	-15,974	-0,158	-0,072
-432,919	-45,058	-0,099	0,035
-431,905	-200,000	-0,001	0,027
-430,890	476,392	-0,057	0,093
-429,876	142,728	0,097	0,092
-428,861	-106,742	0,065	0,010
-427,846	45,848	-0,044	0,029
-426,832	800,000	-0,047	-0,094
-425,817	28,602	0,114	0,069
-424,803	-200,000	0,023	-0,090
-423,788	-200,000	0,022	-0,079
-422,773	-82,953	0,070	-0,016
-421,759	389,685	-0,041	0,061
-420,744	-200,000	-0,011	-0,083
-419,730	-165,024	-0,177	0,006
-418,715	242,957	-0,086	0,103
-417,701	-200,000	0,009	-0,036
-416,686	-82,874	0,188	0,043
-415,671	-200,000	0,009	0,077
-414,657	-71,156	-0,111	0,030
-413,642	-200,000	-0,008	0,036
-412,628	-200,000	-0,002	-0,107
-411,613	119,286	-0,088	0,078
-410,598	110,083	-0,038	-0,033
-409,584	139,114	-0,054	0,051
-408,569	-68,485	0,036	0,010
-407,555	506,327	-0,048	0,081
-406,540	-200,000	0,017	-0,059
-405,525	-66,637	-0,060	-0,017
-404,511	-88,665	0,073	0,015
-403,496	-200,000	-0,014	-0,168
-402,482	557,767	0,023	0,040
-401,467	800,000	0,024	0,061
-400,452	-200,000	0,006	0,030
-399,438	0,074	-0,059	0,030
-398,423	219,466	0,028	0,032
-397,409	-200,000	-0,034	-0,248
-396,394	800,000	-0,031	-0,086
-395,379	223,041	-0,077	-0,089
-394,365	567,746	0,028	0,049
-393,350	748,488	0,091	0,176
-392,336	800,000	-0,014	-0,033
-391,321	-200,000	-0,002	-0,087
-390,306	-80,555	-0,150	0,035
-389,292	-200,000	0,014	-0,103
-388,277	-126,221	0,100	-0,011
-387,263	-153,864	0,082	0,004
-386,248	2,678	0,150	0,078
-385,233	92,231	0,045	0,037
-384,219	-200,000	0,001	0,025
-383,204	-200,000	-0,014	-0,050
-382,190	94,895	-0,042	-0,034
-381,175	-10,963	0,038	-0,018
-380,160	197,748	0,137	-0,150
-379,146	468,593	-0,048	-0,078
-378,131	112,003	-0,080	0,069
-377,117	53,610	-0,112	-0,077
-376,102	-200,000	0,018	-0,129
-375,088	207,818	-0,137	-0,153
-374,073	-17,964	0,048	-0,021
-373,058	-104,310	0,017	0,003
-372,044	49,994	0,027	-0,018
-371,029	-13,652	-0,066	0,031
-370,015	157,906	-0,029	0,029
-369,000	7,770	0,034	-0,018
-367,985	-200,000	-0,025	-0,136
-366,971	-84,507	0,018	0,004
-365,956	-70,940	0,138	-0,037
-364,942	103,571	0,021	0,018
-363,927	-72,165	-0,062	-0,016
-362,912	-200,000	-0,049	0,205
-361,898	-200,000	-0,001	-0,031
-360,883	5,820	-0,088	-0,046
-359,869	634,098	-0,074	-0,134
-358,854	-8,649	0,033	0,016
-357,839	511,859	0,051	0,086
-356,825	-174,694	-0,067	0,001
-355,810	-148,162	0,105	-0,006
-354,796	584,585	-0,072	-0,128
-353,781	183,451	-0,073	-0,077
-352,766	-200,000	-0,007	-0,066
-351,752	162,665	0,043	0,044
-350,737	-200,000	-0,001	0,100
-349,723	263,866	0,115	0,143
-348,708	-84,150	-0,053	-0,012
-347,693	129,779	0,061	-0,056
-346,679	42,311	-0,184	-0,119
-345,664	-8,774	0,046	-0,022
-344,650	-137,559	0,122	0,010
-343,635	509,785	0,040	0,067
-342,620	-60,725	0,051	-0,015
-341,606	583,025	-0,060	0,105
-340,591	800,000	-0,067	-0,137
-339,577	-200,000	0,010	0,065
-338,562	-200,000	0,003	0,064
-337,548	-200,000	-0,007	0,185
-336,533	-94,783	0,092	-0,018
-335,518	-173,518	0,007	0,000
-334,504	-2,324	0,114	-0,057
-333,489	-200,000	0,026	-0,104
-332,475	377,340	-0,061	-0,090
-331,460	454,560	0,027	0,043
-330,445	477,907	-0,063	-0,102
-329,431	-98,902	-0,092	-0,016
-328,416	266,463	-0,046	-0,057
-327,402	64,112	0,062	-0,044
-326,387	0,490	-0,038	-0,019
-325,372	278,018	-0,026	-0,033
-324,358	-119,051	-0,088	0,011
-323,343	800,000	0,015	0,036
-322,329	800,000	-0,019	-0,038
-321,314	-200,000	-0,022	0,095
-320,299	233,608	0,045	0,053
-319,285	800,000	-0,049	-0,146
-318,270	412,889	0,104	-0,158
-317,256	486,081	0,033	-0,054
-316,241	-200,000	0,010	-0,099
-315,226	-200,000	0,030	-0,105
-314,212	800,000	0,016	-0,048
-313,197	-133,444	0,082	-0,007
-312,183	-200,000	0,003	0,049
-311,168	480,664	-0,035	0,056
-310,153	-7,802	-0,033	-0,016
-309,139	176,349	0,052	-0,054
-308,124	179,403	0,055	-0,057
-307,110	163,946	-0,012	0,012
-306,095	-200,000	0,005	0,095
-305,080	247,261	0,061	0,074
-304,066	202,908	0,012	0,013
-303,051	-60,486	-0,148	-0,045
-302,037	-0,282	0,200	0,101
-301,022	97,233	-0,065	-0,053
-300,008	-200,000	-0,001	0,090
-298,993	-200,000	0,010	0,043
-297,978	133,085	0,069	-0,063
-296,964	-42,046	-0,077	0,028
-295,949	-7,187	0,045	0,022
-294,935	120,754	0,097	0,086
-293,920	-200,000	0,013	0,069
-292,905	-114,833	-0,136	-0,018
-291,891	-200,000	-0,005	-0,065
-290,876	-200,000	-0,033	0,128
-289,862	-200,000	0,013	0,054
-288,847	-200,000	-0,027	-0,096
-287,832	-96,038	0,057	-0,011
-286,818	-148,394	-0,037	-0,002
-285,803	333,534	0,047	-0,065
-284,789	68,971	-0,077	-0,056
-283,774	-41,925	0,037	0,014
-282,759	800,000	-0,021	0,050
-281,745	95,539	0,016	0,013
-280,730	138,052	-0,082	-0,076
-279,716	-49,086	0,085	0,029
-278,701	-120,740	-0,105	-0,012
-277,686	180,308	0,046	-0,049
-276,672	-200,000	-0,018	0,103
-275,657	-140,370	0,030	0,002
-274,643	-200,000	0,019	-0,086
-273,628	17,816	-0,040	-0,023
-272,613	24,558	0,056	-0,033
-271,599	155,431	0,154	0,151
-270,584	-111,403	0,066	0,009
-269,570	-200,000	0,049	0,182
-268,555	246,034	-0,081	0,097
-267,540	11,105	-0,021	-0,011
-266,526	800,000	-0,005	-0,016
-265,511	800,000	-0,028	0,069
-264,497	-125,708	-0,031	-0,003
-263,482	444,551	-0,044	0,068
-262,467	-59,640	-0,118	-0,036
-261,453	83,258	0,033	-0,025
-260,438	-0,381	-0,108	-0,055
-259,424	756,607	-0,095	-0,184
-258,409	800,000	-0,030	-0,076
-257,395	29,795	0,067	0,040
-256,380	272,009	0,082	0,103
-255,365	645,382	0,072	0,131
-254,351	12,133	0,171	0,094
-253,336	800,000	0,040	0,089
-252,322	-200,000	0,009	-0,050
-251,307	-34,883	0,085	-0,033
-250,292	-200,000	-0,030	0,107
-249,278	119,458	0,162	0,143
-248,263	82,659	0,071	0,055
-247,249	-98,709	0,140	0,025
-246,234	72,357	-0,009	0,007
-245,219	-51,624	0,111	-0,036
-244,205	448,023	-0,061	0,096
-243,190	-200,000	-0,001	0,059
-242,176	241,991	0,050	0,059
-241,161	-200,000	0,014	0,052
-240,146	-200,000	0,017	0,061
-239,132	276,069	0,068	-0,086
-238,117	-160,397	-0,189	-0,007
-237,103	800,000	0,011	-0,025
-236,088	-26,796	-0,073	-0,030
-235,073	-200,000	0,014	0,107
-234,059	275,002	0,054	0,068
-233,044	-200,000	0,009	0,078
-232,030	323,901	0,041	-0,056
-231,015	154,235	0,051	-0,050
-230,000	102,622	-0,103	0,086
-228,986	87,785	-0,106	0,084
-227,971	350,874	0,038	0,054
-226,957	-137,545	0,058	0,005
-225,942	-93,670	0,121	0,024
-224,927	-20,144	-0,069	-0,030
-223,913	-200,000	-0,026	-0,229
-222,898	142,194	-0,134	-0,127
-221,884	315,829	0,039	-0,053
-220,869	152,820	-0,016	-0,015
-219,855	-200,000	0,007	0,138
-218,840	-116,102	0,066	0,009
-217,825	-19,175	0,061	-0,027
-216,811	-63,772	-0,096	-0,028
-215,796	800,000	-0,044	-0,121
-214,782	67,405	-0,110	-0,080
-213,767	51,090	0,098	-0,066
-212,752	-200,000	0,002	0,048
-211,738	68,471	-0,102	0,074
-210,723	-166,010	0,075	-0,002
-209,709	99,823	-0,032	-0,026
-208,694	190,674	0,052	0,056
-207,679	800,000	0,042	-0,108
-206,665	249,239	-0,035	-0,042
-205,650	-33,839	0,064	0,025
-204,636	13,478	0,037	0,020
-203,621	508,328	0,057	0,094
-202,606	800,000	-0,018	0,053
-201,592	800,000	0,003	-0,005
-200,577	-7,411	0,073	0,035
-199,563	-200,000	-0,018	0,067
-198,548	65,711	0,060	0,043
-197,533	-200,000	0,032	0,125
-196,519	-58,247	-0,099	-0,031
-195,504	-124,494	0,096	0,011
-194,490	-200,000	0,005	-0,066
-193,475	28,464	-0,105	-0,063
-192,460	269,902	-0,051	-0,064
-191,446	45,755	0,032	0,021
-190,431	-200,000	-0,010	0,107
-189,417	-47,762	0,129	-0,044
-188,402	52,365	-0,036	0,025
-187,387	-72,841	0,034	-0,009
-186,373	284,568	-0,130	-0,166
-185,358	-200,000	0,002	-0,102
-184,344	-200,000	-0,006	0,108
-183,329	-15,621	0,036	0,016
-182,315	-64,024	0,101	-0,029
-181,300	-198,396	-0,184	-0,001
-180,285	-200,000	0,007	-0,144
-179,271	-44,727	-0,137	-0,048
-178,256	-200,000	-0,007	0,037
-177,242	774,913	0,014	0,027
-176,227	321,885	-0,087	0,118
-175,212	800,000	0,024	-0,058
-174,198	392,557	-0,048	0,071
-173,183	90,519	-0,131	-0,104
-172,169	-200,000	-0,014	-0,168
-171,154	-125,861	0,104	0,011
-170,139	128,954	-0,053	-0,048
-169,125	32,587	0,099	0,061
-168,110	-200,000	0,017	0,129
-167,096	-39,118	-0,093	0,035
-166,081	-200,000	0,029	0,113
-165,066	-200,000	-0,020	-0,094
-164,052	208,747	0,080	-0,088
-163,037	800,000	-0,038	-0,092
-162,023	-103,995	-0,138	-0,023
-161,008	-200,000	0,037	0,184
-159,993	-200,000	0,008	0,049
-158,979	460,931	0,066	-0,105
-157,964	-77,045	0,128	0,031
-156,950	6,679	0,147	-0,077
-155,935	86,427	-0,154	-0,120
-154,920	-173,353	0,147	-0,003
-153,906	660,808	0,052	0,095
-152,891	-49,043	0,056	-0,019
-151,877	-1,670	0,056	-0,028
-150,862	-90,243	0,038	0,008
-149,847	169,698	-0,032	-0,033
-148,833	40,423	-0,172	-0,110
-147,818	-200,000	0,041	-0,139
-146,804	-61,907	0,053	0,016
-145,789	-200,000	0,009	0,071
-144,775	-128,714	-0,077	-0,008
-143,760	237,453	-0,081	0,095
-142,745	-120,191	0,019	-0,002
-141,731	3,155	-0,116	-0,059
-140,716	-74,809	0,045	0,011
-139,702	-22,298	0,132	0,056
-138,687	139,987	-0,086	0,080
-137,672	-43,612	0,139	0,049
-136,658	800,000	0,013	-0,037
-135,643	800,000	-0,112	-0,220
-134,629	-147,089	-0,061	-0,004
-133,614	800,000	-0,025	-0,068
-132,599	6,637	0,133	-0,070
-131,585	86,936	0,063	0,049
-130,570	181,256	-0,015	-0,016
-129,556	-200,000	0,023	-0,114
-128,541	246,297	0,044	-0,053
-127,526	60,007	-0,023	-0,016
-126,512	182,138	0,010	0,011
-125,497	-184,623	0,139	0,002
-124,483	116,043	0,113	0,098
-123,468	488,712	-0,075	0,122
-122,453	-120,852	-0,167	-0,020
-121,439	800,000	-0,038	0,103
-120,424	8,893	-0,112	-0,060
-119,410	-1,517	0,073	-0,036
-118,395	20,230	0,044	0,025
-117,380	-59,637	-0,091	0,028
-116,366	208,696	-0,064	-0,071
-115,351	-101,516	0,106	-0,018
-114,337	153,838	0,049	-0,047
-113,322	-200,000	0,021	0,076
-112,307	303,233	-0,076	-0,100
-111,293	-72,324	-0,086	-0,022
-110,278	-200,000	0,036	0,114
-109,264	-30,566	0,092	0,037
-108,249	-200,000	0,022	-0,105
-107,234	16,487	0,005	0,003
-106,220	-83,790	0,060	0,014
-105,205	24,501	0,093	-0,054
-104,191	130,661	-0,091	0,083
-103,176	-200,000	0,008	0,067
-102,162	475,542	-0,052	0,083
-101,147	800,000	-0,020	-0,046
-100,132	-134,273	-0,181	-0,016
-99,118	-121,830	0,096	-0,011
-98,103	800,000	-0,046	-0,098
-97,089	-37,912	-0,055	-0,021
-96,074	220,786	0,050	-0,057
-95,059	178,826	-0,148	-0,153
-94,045	-10,733	-0,115	-0,054
-93,030	223,156	-0,084	-0,096
-92,016	2,653	-0,028	-0,015
-91,001	800,000	-0,039	0,098
-89,986	-200,000	-0,004	0,036
-88,972	50,165	0,099	-0,066
-87,957	454,825	-0,035	0,055
-86,943	-200,000	-0,004	0,057
-85,928	-11,395	-0,075	0,035
-84,913	153,325	-0,081	-0,078
-83,899	-134,673	-0,022	0,002
-82,884	-101,553	-0,010	0,002
-81,870	-110,275	-0,070	-0,010
-80,855	-178,233	0,091	-0,001
-79,840	168,317	-0,079	-0,079
-78,826	-118,916	0,009	-0,001
-77,811	-200,000	-0,002	-0,079
-76,797	-26,071	-0,059	-0,024
-75,782	48,828	-0,083	0,055
-74,767	-200,000	0,021	0,097
-73,753	-36,313	-0,088	-0,033
-72,738	21,759	0,040	-0,023
-71,724	800,000	0,023	-0,061
-70,709	800,000	0,049	-0,149
-69,694	75,773	0,096	-0,072
-68,680	800,000	-0,006	-0,016
-67,665	800,000	0,082	0,249
-66,651	397,934	0,006	0,009
-65,636	800,000	-0,038	-0,094
-64,622	800,000	0,031	-0,085
-63,607	-16,850	-0,091	-0,040
-62,592	-31,859	0,055	-0,022
-61,578	-182,084	-0,081	-0,001
-60,563	26,437	0,142	-0,083
-59,549	254,187	-0,120	0,145
-58,534	44,759	-2,025	-1,312
-57,519	609,275	-1,076	-1,904
-56,505	-200,000	-0,457	-4,565
-55,490	472,462	1,001	1,598
-54,476	800,000	5,386	12,078
-53,461	-200,000	22,209	345,196
-52,446	800,000	758,622	2304,218
-51,432	535,118	1649,804	2771,535
-50,417	68,920	1648,146	1193,197
-49,403	16,251	1524,085	845,989
-48,388	10,391	1449,095	776,164
-47,373	19,228	1441,509	814,265
-46,359	13,860	1429,955	782,324
-45,344	8,702	1426,207	755,799
-44,330	8,624	1424,164	754,313
-43,315	8,601	1422,493	753,290
-42,300	8,607	1420,757	752,369
-41,286	8,617	1419,575	751,760
-40,271	8,584	1418,240	750,868
-39,257	8,596	1417,151	750,319
-38,242	8,655	1415,734	749,821
-37,227	8,611	1414,901	749,141
-36,213	8,654	1413,219	748,423
-35,198	8,620	1412,283	747,737
-34,184	8,644	1411,327	747,314
-33,169	8,562	1410,045	746,218
-32,154	8,634	1408,908	745,928
-31,140	8,590	1407,900	745,156
-30,125	8,637	1406,555	744,636
-29,111	8,622	1405,545	744,002
-28,096	8,572	1404,408	743,138
-27,082	8,596	1403,032	742,492
-26,067	8,560	1402,139	741,820
-25,052	8,550	1401,181	741,236
-24,038	8,546	1399,918	740,521
-23,023	8,600	1398,986	740,249
-22,009	8,546	1398,012	739,454
-20,994	8,545	1396,866	738,815
-19,979	8,521	1396,093	738,267
-18,965	8,513	1395,021	737,630
-17,950	8,519	1394,275	737,236
-16,936	8,525	1393,223	736,677
-15,921	8,488	1392,285	735,983
-14,906	8,471	1391,375	735,393
-13,892	8,493	1390,481	734,995
-12,877	8,499	1389,754	734,607
-11,863	8,471	1389,075	734,087
-10,848	8,466	1387,895	733,415
-9,833	8,464	1387,163	732,990
-8,819	8,410	1386,064	732,127
-7,804	8,406	1385,356	731,709
-6,790	8,383	1384,255	730,992
-5,775	8,441	1383,172	730,659
-4,760	8,386	1382,379	729,957
-3,746	8,463	1381,022	729,566
-2,731	8,451	1380,438	729,174
-1,717	8,417	1379,481	728,480
-0,702	8,388	1377,893	727,483
0,313	12,368	1288,841	698,548
1,327	28,082	680,525	404,030
2,342	43,746	117,094	75,446
3,356	2,376	16,439	8,360
4,371	-2,798	3,816	1,874
5,386	8,677	1,355	0,718
6,400	749,164	0,329	0,629
7,415	-17,253	-0,239	-0,106
8,429	233,463	-0,175	-0,203
9,444	-89,618	-0,316	-0,065
10,459	409,097	-0,173	-0,258
11,473	59,595	-0,274	-0,190
12,488	-79,506	-0,260	-0,061
13,502	54,884	-0,285	-0,194
14,517	9,951	-0,322	-0,172
15,531	73,443	-0,358	-0,263
16,546	54,933	-0,231	-0,157
17,561	93,835	-0,394	-0,314
18,575	-140,145	-0,106	-0,008
19,590	49,653	-0,285	-0,189
20,604	-71,501	-0,334	0,087
21,619	101,266	-0,419	-0,343
22,634	333,038	-0,340	-0,464
23,648	91,647	-0,434	-0,343
24,663	75,711	-0,375	-0,278
25,677	-6,813	-0,444	-0,212
26,692	416,009	-0,167	-0,252
27,707	46,806	-0,327	-0,213
28,721	70,059	-0,396	-0,287
29,736	157,400	-0,337	-0,328
30,750	68,542	-0,420	-0,303
31,765	333,297	-0,326	-0,445
32,780	129,796	-0,307	-0,276
33,794	-36,843	-0,442	-0,166
34,809	476,002	-0,215	-0,342
35,823	218,640	-0,314	-0,353
36,838	197,777	-0,230	-0,247
37,853	57,124	-0,371	-0,254
38,867	82,199	-0,309	-0,235
39,882	247,740	-0,283	-0,337
40,896	202,124	-0,171	-0,186
41,911	-38,241	-0,293	-0,109
42,926	91,376	-0,268	-0,211
43,940	35,410	-0,341	-0,210
44,955	60,591	-0,426	-0,296
45,969	-17,931	-0,341	-0,149
46,984	146,183	-0,306	-0,288
47,999	41,626	-0,306	-0,194
49,013	29,129	-0,344	-0,205
50,028	398,693	-0,217	-0,320
51,042	232,834	-0,300	-0,346
52,057	9,394	-0,392	-0,207
53,071	172,597	-0,177	-0,179
54,086	210,661	-0,345	-0,382
55,101	-9,798	-0,344	-0,160
56,115	-50,233	-0,414	-0,137
57,130	90,324	-0,355	-0,278
58,144	154,468	-0,274	-0,264
59,159	79,899	-0,310	-0,234
60,174	203,233	-0,364	-0,396
61,188	42,272	-0,323	-0,205
62,203	0,711	-0,271	-0,136
63,217	39,135	-0,360	-0,225
64,232	68,623	-0,347	-0,249
65,247	172,246	-0,348	-0,351
66,261	135,122	-0,232	-0,212
67,276	37,724	-0,430	-0,267
68,290	-135,999	-0,415	-0,034
69,305	220,365	-0,233	-0,263
70,320	59,798	-0,323	-0,223
71,334	196,384	-0,180	-0,193
72,349	55,494	-0,229	-0,155
73,363	32,533	-0,456	-0,276
74,378	0,326	-0,277	-0,138
75,393	259,254	-0,163	-0,197
76,407	92,712	-0,241	-0,190
77,422	-29,261	-0,191	-0,076
78,436	62,796	-0,266	-0,186
79,451	794,989	-0,141	-0,273
80,466	7,317	-0,453	-0,236
81,480	-40,075	-0,396	-0,144
82,495	95,570	-0,154	-0,123
83,509	143,138	-0,225	-0,210
84,524	130,953	-0,194	-0,174
85,539	106,147	-0,257	-0,213
86,553	76,302	-0,214	-0,159
87,568	-5,276	-0,295	-0,141
88,582	69,215	-0,297	-0,214
89,597	-108,786	-0,424	-0,063
90,611	-20,133	-0,407	-0,175
91,626	-100,959	-0,267	0,045
92,641	-73,560	-0,362	-0,092
93,655	6,292	-0,254	-0,131
94,670	85,196	-0,177	-0,135
95,684	72,192	-0,339	-0,246
96,699	50,469	-0,366	-0,242
97,714	61,213	-0,358	-0,248
98,728	407,788	-0,174	-0,258
99,743	366,550	-0,156	-0,221
100,757	-30,264	-0,284	-0,112
101,772	173,673	-0,242	-0,245
102,787	13,920	-0,289	-0,157
103,801	198,076	-0,261	-0,279
104,816	763,817	-0,086	-0,165
105,830	-63,444	-0,149	-0,043
106,845	-88,742	-0,316	-0,065
107,860	615,810	-0,100	-0,176
108,874	516,241	-0,117	-0,192
109,889	125,043	-0,274	-0,241
110,903	153,020	-0,109	-0,104
111,918	54,106	-0,240	-0,161
112,933	-85,307	-0,221	-0,048
113,947	-37,921	-0,267	-0,099
114,962	235,095	-0,203	-0,234
115,976	-179,089	-0,274	-0,004
116,991	-3,143	-0,302	-0,146
118,006	50,424	-0,243	-0,160
119,020	14,966	-0,273	-0,149
120,035	-8,279	-0,157	-0,073
121,049	-100,351	-0,262	-0,045
122,064	103,481	-0,224	-0,183
123,079	-70,341	-0,359	-0,094
124,093	228,986	-0,176	-0,201
125,108	-39,511	-0,422	-0,153
126,122	54,702	-0,201	-0,135
127,137	41,154	-0,287	-0,181
128,151	208,490	-0,208	-0,227
129,166	25,066	-0,303	-0,175
130,181	-200,000	-0,038	-0,131
131,195	-4,711	-0,350	-0,168
132,210	377,217	-0,186	-0,266
133,224	164,251	-0,204	-0,200
134,239	0,835	-0,300	-0,150
135,254	-44,630	-0,233	-0,081
136,268	-8,249	-0,237	-0,111
137,283	-43,216	-0,315	-0,110
138,297	41,953	-0,270	-0,170
139,312	25,414	-0,320	-0,185
140,327	-117,799	-0,181	-0,022
141,341	269,253	-0,146	-0,179
142,356	225,958	-0,146	-0,166
143,370	207,954	-0,211	-0,230
144,385	-39,638	-0,338	-0,123
145,400	-39,533	-0,267	-0,097
146,414	101,107	-0,216	-0,175
147,429	149,948	-0,320	-0,303
148,443	426,972	-0,120	-0,181
149,458	-172,705	-0,176	-0,004
150,473	59,281	-0,296	-0,203
151,487	363,251	-0,088	-0,123
152,502	613,942	-0,158	-0,276
153,516	352,195	-0,210	-0,291
154,531	485,339	-0,195	-0,310
155,546	45,948	-0,278	-0,179
156,560	72,224	-0,162	-0,117
157,575	48,820	-0,280	-0,183
158,589	102,338	-0,173	-0,141
159,604	232,642	-0,287	-0,329
160,619	38,257	-0,267	-0,165
161,633	62,207	-0,223	-0,155
162,648	-14,198	-0,181	-0,081
163,662	106,281	-0,163	-0,134
164,677	191,235	-0,244	-0,256
165,692	34,998	-0,254	-0,154
166,706	14,251	-0,259	-0,140
167,721	168,792	-0,220	-0,218
168,735	-147,930	-0,358	-0,020
169,750	-78,186	-0,245	-0,058
170,764	800,000	-0,112	-0,220
171,779	-200,000	-0,027	-0,124
172,794	135,964	-0,227	-0,205
173,808	99,144	-0,294	-0,235
174,823	-137,789	-0,116	-0,009
175,837	188,732	-0,212	-0,221
176,852	-93,123	-0,278	-0,053
177,867	315,246	-0,137	-0,180
178,881	62,544	-0,297	-0,206
179,896	361,811	-0,098	-0,137
180,910	43,270	-0,236	-0,150
181,925	37,677	-0,217	-0,134
182,940	5,541	-0,283	-0,145
183,954	731,152	-0,159	-0,297
184,969	-200,000	0,010	-0,191
185,983	800,000	-0,068	-0,168
186,998	-64,987	-0,274	-0,076
188,013	41,229	-0,351	-0,220
189,027	-79,598	-0,196	-0,046
190,042	-44,684	-0,281	-0,097
191,056	70,616	-0,203	-0,145
192,071	63,763	-0,176	-0,122
193,086	800,000	-0,084	-0,247
194,100	-12,073	-0,271	-0,123
195,115	285,718	-0,186	-0,233
196,129	800,000	-0,111	-0,319
197,144	-25,171	-0,318	-0,130
198,159	-47,202	-0,308	-0,103
199,173	580,579	-0,118	-0,201
200,188	25,506	-0,050	0,029
201,202	133,387	-0,222	-0,199
202,217	252,671	-0,152	-0,180
203,232	-160,652	-0,177	0,006
204,246	-89,102	-0,319	-0,065
205,261	44,034	-0,155	-0,098
206,275	289,729	-0,136	-0,172
207,290	800,000	-0,110	-0,225
208,304	-2,848	-0,199	-0,096
209,319	37,799	-0,212	-0,130
210,334	98,484	-0,208	-0,166
211,348	-15,255	-0,159	-0,070
212,363	-12,608	-0,166	-0,075
213,377	-18,543	-0,220	-0,095
214,392	263,868	-0,068	-0,082
215,407	143,966	-0,325	-0,300
216,421	-119,528	-0,241	0,029
217,436	-167,679	-0,110	0,003
218,450	-44,640	-0,259	-0,089
219,465	152,242	-0,195	-0,185
220,480	118,215	-0,186	-0,158
221,494	-43,891	-0,107	0,037
222,509	-181,548	-0,134	0,002
223,523	165,589	-0,150	-0,146
224,538	33,123	-0,162	-0,097
225,553	19,781	-0,196	-0,109
226,567	99,150	-0,190	-0,152
227,582	800,000	-0,131	-0,284
228,596	-90,880	-0,232	-0,046
229,611	341,340	-0,160	-0,217
230,626	800,000	-0,062	-0,119
231,640	330,419	-0,110	-0,147
232,655	298,778	-0,192	-0,245
233,669	-115,566	-0,234	-0,030
234,684	19,750	-0,195	-0,108
235,699	130,529	-0,179	-0,159
236,713	-149,347	-0,207	-0,011
237,728	-126,417	-0,158	0,016
238,742	-24,476	-0,225	-0,092
239,757	-129,150	-0,217	0,021
240,772	237,364	-0,215	-0,247
241,786	269,758	-0,171	-0,208
242,801	800,000	-0,086	-0,177
243,815	182,644	-0,181	-0,184
244,830	304,111	-0,163	-0,210
245,844	113,585	-0,140	-0,117
246,859	637,783	-0,110	-0,194
247,874	70,065	-0,280	-0,199
248,888	-5,919	-0,186	-0,087
249,903	125,951	-0,136	-0,119
250,917	73,340	-0,052	-0,037
251,932	-184,484	-0,280	0,003
252,947	-86,265	-0,198	-0,042
253,961	194,524	-0,233	-0,244
254,976	38,513	-0,252	-0,155
255,990	119,478	-0,032	-0,028
257,005	163,406	-0,112	-0,109
258,020	45,355	-0,197	-0,125
259,034	800,000	-0,029	-0,061
260,049	-75,420	-0,237	-0,058
261,063	61,136	-0,211	-0,144
262,078	105,887	-0,195	-0,159
263,093	270,969	-0,163	-0,198
264,107	-41,559	-0,203	-0,072
265,122	82,538	-0,163	-0,122
266,136	800,000	-0,069	-0,158
267,151	143,257	-0,115	-0,106
268,166	800,000	-0,084	-0,207
269,180	522,032	-0,136	-0,221
270,195	-200,000	-0,005	-0,210
271,209	216,814	-0,143	-0,157
272,224	800,000	-0,014	0,040
273,239	-94,564	-0,202	-0,037
274,253	-89,271	-0,190	-0,038
275,268	-19,834	-0,208	-0,088
276,282	-0,047	-0,251	-0,122
277,297	36,746	-0,105	-0,064
278,312	-53,738	-0,136	-0,043
279,326	47,941	-0,090	-0,058
280,341	52,175	-0,141	-0,093
281,355	-107,110	-0,172	-0,026
282,370	-1,172	-0,183	-0,089
283,384	40,280	-0,158	-0,098
284,399	-49,030	-0,231	-0,076
285,414	103,795	-0,196	-0,158
286,428	800,000	-0,029	-0,082
287,443	-141,728	-0,035	0,002
288,457	-71,087	-0,099	0,026
289,472	800,000	-0,073	-0,182
290,487	74,867	-0,039	-0,028
291,501	291,736	-0,163	-0,204
292,516	34,666	-0,116	-0,069
293,530	-91,439	-0,188	-0,037
294,545	468,746	-0,063	0,097
295,560	-127,704	-0,191	0,019
296,574	-12,211	-0,204	-0,092
297,589	230,542	-0,071	-0,080
298,603	102,384	-0,128	-0,103
299,618	118,613	-0,211	-0,179
300,633	-14,932	-0,147	-0,065
301,647	-104,981	-0,183	0,029
302,662	200,429	-0,167	-0,176
303,676	41,420	-0,142	0,088
304,691	-6,405	-0,189	-0,088
305,706	242,565	-0,172	-0,198
306,720	41,495	-0,122	-0,076
307,735	-119,425	-0,094	-0,011
308,749	-3,265	-0,218	-0,104
309,764	-200,000	0,012	-0,060
310,779	-200,000	-0,005	-0,168
311,793	51,675	-0,178	-0,116
312,808	96,806	-0,064	-0,050
313,822	-200,000	-0,062	-0,191
314,837	-102,713	-0,085	-0,014
315,852	-200,000	-0,037	-0,137
316,866	293,905	-0,142	-0,178
317,881	-200,000	-0,058	-0,237
318,895	800,000	-0,053	-0,151
319,910	101,252	-0,200	-0,159
320,925	14,989	-0,155	-0,083
321,939	800,000	-0,093	-0,233
322,954	470,896	0,022	-0,034
323,968	-145,537	-0,120	0,007
324,983	113,243	-0,143	-0,119
325,997	-200,000	-0,004	-0,043
327,012	800,000	-0,047	-0,105
328,027	144,582	-0,103	-0,095
329,041	320,784	-0,136	-0,178
330,056	800,000	-0,123	-0,244
331,070	109,686	-0,119	-0,098
332,085	-62,385	-0,133	-0,038
333,100	102,217	0,035	-0,028
334,114	27,256	0,055	-0,032
335,129	-148,152	-0,218	-0,012
336,143	764,354	-0,123	-0,231
337,158	800,000	-0,145	-0,278
338,173	19,026	-0,090	-0,049
339,187	2,935	-0,092	-0,046
340,202	800,000	-0,095	-0,191
341,216	-118,264	-0,216	-0,026
342,231	-200,000	-0,013	-0,077
343,246	-42,071	-0,102	-0,036
344,260	800,000	-0,013	-0,026
345,275	-134,709	-0,194	0,016
346,289	-102,566	-0,133	-0,021
347,304	-200,000	-0,011	-0,151
348,319	-200,000	-0,042	-0,128
349,333	398,023	-0,159	-0,228
350,348	0,193	-0,145	-0,071
351,362	-113,343	-0,130	-0,017
352,377	170,526	-0,083	0,081
353,392	17,525	-0,100	-0,054
354,406	-135,682	-0,239	-0,019
355,421	205,769	1311,842	1396,185
356,435	158,217	1472,172	1396,625
