DTS Sentinel unit serial number:	SN410029Multiplexer serial number:	ORYXHardware model number:	OX2-SRSoftware version number:	ORYX F/W v4,00 Oryx Data Collector v3.7.2.0data status	okinstallation	B3 Nyhavnadifferential loss correction	single-endedforward channel	channel 1reverse channel	N/Adate	2023/12/01time	00:37:30forward acquisition time	300,00reverse acquisition time	0,00gamma	499,1914k internal	0,3211k external	0,3211temperature offset calibration	1,0000default loss term (dB/km)	0,3820temperature slope calibration	1,0000multiplexer offset coefficient	1,0000multiplexer slope coefficient	1,0000fibre end	0,00T internal ref (°C)	9,15T ext. ref 1 (°C)	-5,91T ext. ref 2 (°C)	-6,03length (m)	temperature (°C)	Stokes	anti-Stokes-744,400	800,000	-0,102	-0,220
-743,385	-200,000	-0,083	0,403
-742,371	112,736	-0,188	-0,165
-741,356	-200,000	-0,091	0,294
-740,342	24,861	-0,283	-0,170
-739,327	132,477	-0,289	0,270
-738,312	147,936	-0,182	-0,178
-737,298	179,135	-0,244	0,259
-736,283	800,000	-0,124	-0,297
-735,269	-200,000	-0,006	0,291
-734,254	-86,113	-0,275	-0,061
-733,239	42,241	-0,262	0,172
-732,225	800,000	0,092	-0,193
-731,210	800,000	0,054	0,114
-730,196	-200,000	0,003	-0,036
-729,181	30,819	0,104	-0,064
-728,167	800,000	-0,047	-0,096
-727,152	-98,641	0,078	-0,014
-726,137	-200,000	0,029	0,224
-725,123	-26,777	-0,115	0,048
-724,108	800,000	-0,056	-0,135
-723,094	-91,211	0,061	-0,013
-722,079	147,312	0,086	0,083
-721,064	-16,904	0,030	-0,013
-720,050	-175,307	0,090	-0,002
-719,035	-15,501	0,039	0,018
-718,021	800,000	0,053	0,135
-717,006	-200,000	-0,029	-0,155
-715,991	39,511	-0,219	-0,142
-714,977	413,446	-0,045	-0,069
-713,962	-121,020	-0,136	0,016
-712,948	3,218	0,055	0,029
-711,933	800,000	-0,006	0,016
-710,918	-35,274	0,031	0,012
-709,904	458,166	0,053	-0,086
-708,889	800,000	-0,029	-0,058
-707,875	800,000	-0,069	-0,165
-706,860	-177,071	-0,105	0,002
-705,845	187,424	-0,024	-0,026
-704,831	514,341	0,068	-0,115
-703,816	76,763	0,064	-0,049
-702,802	-200,000	-0,025	-0,112
-701,787	487,768	-0,051	-0,085
-700,772	-188,262	-0,106	-0,001
-699,758	600,261	-0,041	0,074
-698,743	161,317	-0,049	0,050
-697,729	-200,000	0,029	0,103
-696,714	800,000	-0,049	0,155
-695,699	-200,000	-0,002	-0,046
-694,685	195,288	-0,037	-0,041
-693,670	133,908	-0,157	-0,147
-692,656	334,926	-0,007	-0,010
-691,641	-200,000	-0,004	-0,106
-690,627	-8,399	-0,042	-0,020
-689,612	-133,912	-0,039	0,003
-688,597	-84,809	0,152	-0,034
-687,583	275,169	-0,075	-0,097
-686,568	-96,204	-0,095	-0,018
-685,554	332,498	0,054	-0,075
-684,539	-84,473	-0,167	0,038
-683,524	800,000	-0,050	0,117
-682,510	390,786	0,068	0,102
-681,495	30,540	-0,029	-0,018
-680,481	62,427	-0,094	-0,068
-679,466	-78,380	-0,162	-0,040
-678,451	-200,000	-0,028	-0,092
-677,437	-200,000	0,000	-0,111
-676,422	-200,000	-0,031	0,129
-675,408	-200,000	0,017	-0,073
-674,393	800,000	0,021	0,052
-673,378	-200,000	0,005	-0,053
-672,364	491,916	-0,070	-0,116
-671,349	-5,177	-0,127	0,063
-670,335	77,399	-0,131	0,101
-669,320	289,279	0,046	0,060
-668,305	-200,000	0,007	-0,046
-667,291	-200,000	0,000	-0,064
-666,276	15,327	-0,084	0,048
-665,262	53,571	-0,102	-0,071
-664,247	-60,062	0,042	-0,013
-663,232	139,902	0,028	0,027
-662,218	-95,700	0,122	-0,023
-661,203	-200,000	-0,018	-0,062
-660,189	800,000	0,078	-0,238
-659,174	422,120	-0,085	-0,132
-658,159	-8,345	-0,137	-0,067
-657,145	1,066	0,088	-0,046
-656,130	-178,926	0,123	0,002
-655,116	169,186	0,067	0,069
-654,101	459,536	0,047	0,075
-653,086	800,000	-0,023	0,058
-652,072	18,521	-0,087	0,050
-651,057	-200,000	-0,030	-0,106
-650,043	-32,242	-0,110	-0,044
-649,028	13,236	-0,077	-0,043
-648,014	800,000	0,022	-0,055
-646,999	58,001	-0,144	-0,102
-645,984	-200,000	-0,006	-0,032
-644,970	-57,123	-0,101	0,032
-643,955	25,191	-0,105	0,063
-642,941	246,162	-0,070	0,085
-641,926	231,426	0,008	0,009
-640,911	7,545	-0,094	-0,051
-639,897	-97,657	0,090	-0,017
-638,882	-116,607	0,075	0,010
-637,868	86,478	-0,105	0,083
-636,853	202,994	-0,037	-0,041
-635,838	-200,000	-0,004	0,065
-634,824	293,049	-0,007	0,010
-633,809	-131,609	0,051	0,005
-632,795	30,377	0,175	0,108
-631,780	13,138	-0,067	0,037
-630,765	-35,030	-0,024	-0,009
-629,751	-200,000	0,072	0,000
-628,736	-138,289	0,069	-0,005
-627,722	-200,000	0,005	0,063
-626,707	-200,000	-0,020	0,167
-625,692	-200,000	0,024	0,131
-624,678	-60,311	0,033	-0,010
-623,663	-38,675	-0,092	0,035
-622,649	169,638	-0,166	-0,171
-621,634	-200,000	0,016	-0,111
-620,619	-200,000	-0,035	-0,209
-619,605	76,534	-0,112	-0,086
-618,590	-175,269	0,140	-0,003
-617,576	-32,952	-0,109	-0,043
-616,561	-200,000	-0,003	0,044
-615,546	800,000	0,035	-0,101
-614,532	-56,736	-0,167	-0,053
-613,517	-200,000	0,029	-0,103
-612,503	730,338	0,071	-0,138
-611,488	18,783	-0,054	0,031
-610,474	-106,079	0,017	-0,003
-609,459	-200,000	-0,009	0,124
-608,444	119,769	-0,054	-0,048
-607,430	96,748	-0,113	-0,094
-606,415	-86,528	-0,097	-0,021
-605,401	-85,449	-0,024	0,005
-604,386	-55,288	0,059	0,019
-603,371	-200,000	-0,030	0,138
-602,357	16,992	-0,094	-0,053
-601,342	754,134	-0,048	0,093
-600,328	-183,902	0,098	0,001
-599,313	273,681	-0,129	-0,165
-598,298	-39,923	0,229	-0,086
-597,284	-193,492	0,039	0,000
-596,269	245,905	-0,091	0,110
-595,255	-200,000	-0,019	-0,147
-594,240	84,920	0,039	-0,031
-593,225	65,238	-0,076	-0,055
-592,211	75,023	-0,047	0,035
-591,196	792,181	-0,045	0,089
-590,182	800,000	0,036	0,098
-589,167	353,894	0,100	0,144
-588,152	208,720	0,120	-0,135
-587,138	26,041	0,030	-0,018
-586,123	511,316	-0,055	-0,093
-585,109	-200,000	-0,009	0,089
-584,094	-127,785	-0,111	-0,011
-583,079	800,000	0,093	0,216
-582,065	-200,000	0,007	0,161
-581,050	251,991	0,059	0,073
-580,036	-134,547	0,040	-0,003
-579,021	-51,761	0,103	0,034
-578,006	373,124	-0,052	-0,076
-576,992	-200,000	-0,011	-0,044
-575,977	-7,186	0,105	-0,051
-574,963	353,200	-0,057	-0,082
-573,948	206,916	0,022	0,025
-572,934	-84,879	0,077	-0,017
-571,919	-200,000	0,001	0,015
-570,904	800,000	-0,015	-0,035
-569,890	-10,909	0,105	-0,050
-568,875	678,367	-0,051	-0,096
-567,861	-200,000	-0,012	0,048
-566,846	60,956	-0,114	0,081
-565,831	-40,046	-0,122	-0,045
-564,817	-200,000	-0,044	0,164
-563,802	110,681	-0,099	-0,086
-562,788	68,532	0,109	0,080
-561,773	-200,000	-0,002	0,058
-560,758	800,000	0,048	0,137
-559,744	-85,345	-0,059	-0,013
-558,729	64,119	0,025	-0,018
-557,715	-200,000	-0,016	0,073
-556,700	382,611	-0,095	0,142
-555,685	123,005	-0,220	0,199
-554,671	332,386	-0,070	-0,098
-553,656	-200,000	-0,033	-0,120
-552,642	19,210	0,084	-0,048
-551,627	158,088	0,056	-0,056
-550,612	-183,111	-0,123	0,002
-549,598	-27,837	-0,160	0,067
-548,583	730,070	-0,045	0,087
-547,569	-10,283	0,072	0,034
-546,554	-200,000	-0,047	-0,247
-545,539	48,519	-0,025	0,017
-544,525	495,927	0,079	0,131
-543,510	-176,326	-0,064	0,001
-542,496	-54,164	-0,111	0,036
-541,481	91,901	-0,035	-0,028
-540,466	-200,000	-0,001	-0,072
-539,452	510,774	-0,073	0,123
-538,437	96,896	-0,036	0,029
-537,423	-200,000	-0,021	0,091
-536,408	564,274	-0,059	-0,102
-535,393	-200,000	-0,018	-0,152
-534,379	-154,228	-0,141	0,007
-533,364	-200,000	-0,027	-0,105
-532,350	-22,633	0,081	-0,035
-531,335	486,357	-0,069	0,114
-530,321	-107,102	-0,033	-0,005
-529,306	21,908	0,062	-0,036
-528,291	-25,552	-0,033	-0,014
-527,277	69,085	-0,127	-0,094
-526,262	-200,000	0,001	-0,031
-525,248	30,541	0,137	-0,084
-524,233	-10,303	0,135	0,064
-523,218	-170,196	0,118	-0,003
-522,204	449,627	0,023	0,036
-521,189	549,093	-0,149	-0,257
-520,175	-71,572	0,032	0,009
-519,160	529,948	-0,062	0,106
-518,145	-200,000	0,008	0,047
-517,131	389,455	-0,033	-0,049
-516,116	60,607	-0,015	0,010
-515,102	-52,021	0,036	-0,012
-514,087	800,000	-0,068	-0,167
-513,072	-200,000	0,022	-0,090
-512,058	-23,350	0,055	0,024
-511,043	-85,005	0,089	-0,020
-510,029	435,443	-0,102	0,159
-509,014	-108,941	0,093	-0,014
-507,999	-46,352	-0,029	-0,010
-506,985	134,882	0,039	0,036
-505,970	37,099	-0,096	0,061
-504,956	-200,000	0,003	-0,153
-503,941	-200,000	-0,008	-0,073
-502,926	-125,992	-0,079	-0,008
-501,912	367,063	0,049	0,071
-500,897	90,521	-0,082	0,066
-499,883	-5,742	-0,154	-0,076
-498,868	-119,564	0,152	-0,019
-497,853	-200,000	-0,021	-0,125
-496,839	623,860	0,030	-0,055
-495,824	255,920	-0,037	0,045
-494,810	-200,000	-0,003	0,029
-493,795	-60,320	-0,114	0,035
-492,781	557,404	-0,050	0,086
-491,766	10,076	-0,089	-0,048
-490,751	388,187	-0,014	0,020
-489,737	-90,601	0,102	0,021
-488,722	800,000	0,034	0,103
-487,708	390,967	0,129	0,193
-486,693	625,556	0,055	0,100
-485,678	800,000	0,055	-0,134
-484,664	125,412	-0,018	-0,016
-483,649	800,000	-0,076	-0,201
-482,635	-139,617	-0,008	0,001
-481,620	-200,000	-0,018	0,139
-480,605	800,000	-0,023	-0,069
-479,591	147,558	-0,045	-0,043
-478,576	800,000	-0,081	0,211
-477,562	-52,319	-0,058	0,019
-476,547	800,000	-0,032	0,101
-475,532	-4,740	0,121	-0,060
-474,518	-57,495	0,061	0,019
-473,503	-137,339	0,150	0,012
-472,489	227,407	0,070	0,082
-471,474	261,350	-0,035	0,043
-470,459	-200,000	0,027	0,112
-469,445	800,000	0,036	0,094
-468,430	188,432	0,076	0,081
-467,416	-200,000	0,019	0,096
-466,401	-200,000	-0,010	-0,066
-465,386	56,410	-0,038	0,026
-464,372	185,207	0,108	0,115
-463,357	-8,873	0,029	0,014
-462,343	183,241	0,019	0,021
-461,328	-200,000	0,011	0,066
-460,313	-200,000	0,021	0,067
-459,299	-37,768	0,073	0,028
-458,284	-77,203	-0,047	0,012
-457,270	334,523	0,061	0,085
-456,255	311,417	0,022	-0,029
-455,241	194,656	-0,049	-0,054
-454,226	-200,000	0,002	0,090
-453,211	-131,710	0,155	-0,014
-452,197	-50,281	-0,084	-0,028
-451,182	179,438	0,067	-0,070
-450,168	800,000	-0,046	0,107
-449,153	-200,000	0,040	-0,185
-448,138	-95,125	-0,155	0,030
-447,124	-107,766	-0,047	-0,007
-446,109	800,000	0,053	-0,109
-445,095	-200,000	-0,009	0,084
-444,080	-200,000	-0,004	0,022
-443,065	387,788	-0,086	-0,129
-442,051	-86,515	0,080	0,017
-441,036	163,440	0,053	-0,053
-440,022	-200,000	0,014	-0,051
-439,007	388,527	0,051	0,077
-437,992	273,969	0,139	0,177
-436,978	468,456	0,012	-0,019
-435,963	-200,000	-0,007	0,042
-434,949	-200,000	-0,038	-0,149
-433,934	-79,623	0,106	-0,026
-432,919	73,739	0,035	-0,027
-431,905	-200,000	0,007	-0,081
-430,890	-200,000	0,006	-0,027
-429,876	82,791	0,044	0,034
-428,861	800,000	0,063	0,194
-427,846	262,587	0,059	-0,074
-426,832	596,563	-0,069	0,123
-425,817	-200,000	0,029	-0,169
-424,803	40,999	0,149	-0,096
-423,788	800,000	0,058	-0,177
-422,773	-200,000	0,003	-0,026
-421,759	115,353	-0,031	0,027
-420,744	-39,793	0,116	-0,043
-419,730	335,356	-0,087	-0,121
-418,715	80,379	0,064	-0,050
-417,701	114,815	-0,118	0,103
-416,686	-200,000	-0,010	-0,065
-415,671	-40,041	-0,050	-0,018
-414,657	-200,000	-0,025	0,161
-413,642	-200,000	-0,010	-0,041
-412,628	-200,000	0,011	-0,059
-411,613	58,213	-0,151	0,106
-410,598	202,487	0,012	-0,014
-409,584	800,000	0,012	0,030
-408,569	-87,253	0,113	0,024
-407,555	-0,829	0,086	-0,044
-406,540	-200,000	-0,002	0,117
-405,525	0,081	-0,158	-0,080
-404,511	-200,000	-0,017	-0,085
-403,496	154,152	-0,044	0,043
-402,482	114,074	0,071	-0,062
-401,467	120,690	0,069	0,062
-400,452	-200,000	-0,007	0,119
-399,438	62,283	0,110	0,079
-398,423	-200,000	-0,017	-0,140
-397,409	438,121	0,071	-0,112
-396,394	-66,001	-0,123	-0,035
-395,379	514,320	0,085	0,142
-394,365	575,338	0,046	0,080
-393,350	-200,000	0,018	0,061
-392,336	238,263	-0,029	0,034
-391,321	800,000	-0,022	0,062
-390,306	68,590	-0,172	0,126
-389,292	-200,000	0,015	-0,059
-388,277	224,816	0,058	0,067
-387,263	211,079	0,059	0,066
-386,248	145,566	0,066	0,063
-385,233	213,509	0,087	0,098
-384,219	-133,903	0,038	-0,003
-383,204	-52,872	-0,111	-0,036
-382,190	-200,000	-0,011	-0,062
-381,175	-152,564	0,004	0,000
-380,160	-74,682	0,116	0,030
-379,146	-106,350	0,052	0,008
-378,131	-200,000	-0,042	-0,138
-377,117	-42,894	-0,080	-0,029
-376,102	31,726	0,037	-0,023
-375,088	-123,400	-0,135	0,015
-374,073	110,224	0,140	0,120
-373,058	621,193	-0,048	-0,087
-372,044	-200,000	-0,003	0,078
-371,029	397,271	-0,059	-0,089
-370,015	-200,000	-0,004	0,031
-369,000	800,000	-0,018	0,039
-367,985	-159,411	-0,079	-0,003
-366,971	64,319	0,118	-0,085
-365,956	165,853	-0,073	0,073
-364,942	43,094	0,026	-0,017
-363,927	434,177	-0,058	0,090
-362,912	305,117	-0,057	0,076
-361,898	800,000	-0,016	-0,045
-360,883	132,641	0,060	-0,056
-359,869	219,920	-0,063	-0,072
-358,854	-114,442	-0,184	0,025
-357,839	-200,000	-0,003	-0,048
-356,825	-117,540	-0,067	-0,009
-355,810	-200,000	-0,001	0,104
-354,796	325,230	0,064	-0,088
-353,781	-200,000	-0,003	0,078
-352,766	796,062	-0,069	-0,136
-351,752	135,194	-0,052	-0,048
-350,737	170,883	0,072	-0,074
-349,723	131,910	-0,032	0,030
-348,708	42,388	0,124	0,081
-347,693	-45,016	0,105	0,037
-346,679	-200,000	0,005	0,140
-345,664	-32,890	-0,055	-0,022
-344,650	-116,503	-0,033	-0,004
-343,635	-162,720	-0,088	-0,003
-342,620	658,140	0,047	-0,086
-341,606	96,830	-0,092	0,075
-340,591	-65,042	-0,075	0,021
-339,577	290,996	0,041	-0,054
-338,562	-165,006	-0,039	-0,001
-337,548	-88,277	-0,027	0,006
-336,533	84,839	0,124	0,097
-335,518	-137,555	0,177	-0,014
-334,504	-182,356	0,052	-0,001
-333,489	79,354	0,017	-0,013
-332,475	800,000	-0,073	-0,199
-331,460	39,269	-0,045	-0,028
-330,445	-200,000	0,006	-0,052
-329,431	157,470	0,069	0,068
-328,416	14,684	0,245	0,136
-327,402	12,212	0,039	0,022
-326,387	-81,434	0,068	0,016
-325,372	530,642	0,044	-0,075
-324,358	-200,000	0,018	-0,113
-323,343	-200,000	0,010	-0,041
-322,329	88,312	0,073	0,057
-321,314	-81,109	0,047	-0,011
-320,299	-104,699	-0,084	-0,014
-319,285	-10,193	0,174	0,082
-318,270	-169,160	-0,143	-0,004
-317,256	489,693	0,063	0,103
-316,241	800,000	0,024	-0,055
-315,226	28,498	0,205	-0,124
-314,212	-67,641	-0,092	0,025
-313,197	-111,907	-0,062	0,009
-312,183	-61,739	0,141	-0,042
-311,168	800,000	0,044	-0,111
-310,153	-82,241	-0,188	0,043
-309,139	-200,000	-0,047	-0,207
-308,124	-137,130	-0,027	0,002
-307,110	178,167	-0,103	-0,108
-306,095	-200,000	-0,007	0,058
-305,080	-43,736	-0,133	-0,047
-304,066	20,714	0,112	-0,065
-303,051	89,652	-0,051	-0,041
-302,037	-60,008	0,044	-0,013
-301,022	127,261	0,053	0,048
-300,008	123,271	-0,021	-0,019
-298,993	-200,000	-0,014	0,178
-297,978	800,000	0,018	-0,041
-296,964	800,000	-0,084	-0,188
-295,949	800,000	0,037	-0,099
-294,935	296,886	-0,097	-0,127
-293,920	-51,493	0,109	0,036
-292,905	444,934	0,067	-0,105
-291,891	-200,000	-0,041	0,129
-290,876	-9,844	0,046	0,022
-289,862	354,248	0,087	-0,124
-288,847	-200,000	-0,017	-0,074
-287,832	706,532	0,064	-0,121
-286,818	-200,000	-0,021	0,108
-285,803	800,000	0,062	0,152
-284,789	-30,936	0,142	-0,057
-283,774	-200,000	-0,024	0,092
-282,759	33,370	0,047	-0,029
-281,745	-99,447	-0,058	-0,010
-280,730	-200,000	0,029	-0,174
-279,716	-166,971	-0,054	-0,002
-278,701	58,879	0,055	0,038
-277,686	800,000	0,053	0,113
-276,672	-200,000	0,019	0,089
-275,657	800,000	-0,084	0,181
-274,643	206,148	-0,021	0,023
-273,628	800,000	-0,098	-0,205
-272,613	1,063	0,095	-0,048
-271,599	-32,562	0,185	0,073
-270,584	-97,318	0,049	0,009
-269,570	19,427	-0,049	-0,028
-268,555	63,790	0,033	0,024
-267,540	729,626	-0,043	-0,082
-266,526	564,171	0,091	-0,158
-265,511	-114,297	-0,037	0,005
-264,497	135,869	0,035	0,032
-263,482	-148,450	0,158	0,009
-262,467	48,206	0,014	0,009
-261,453	800,000	-0,035	0,085
-260,438	165,732	0,111	0,112
-259,424	-93,607	-0,038	-0,007
-258,409	-160,908	-0,074	0,003
-257,395	80,041	0,066	-0,050
-256,380	686,465	0,029	0,053
-255,365	-200,000	-0,016	0,166
-254,351	142,630	-0,056	0,053
-253,336	11,729	0,059	-0,032
-252,322	163,954	-0,116	-0,116
-251,307	-200,000	-0,005	0,095
-250,292	83,625	-0,066	0,051
-249,278	800,000	-0,027	0,067
-248,263	99,638	-0,050	-0,041
-247,249	-85,451	0,066	0,014
-246,234	-104,992	-0,049	-0,008
-245,219	-110,416	-0,155	0,023
-244,205	260,296	-0,050	-0,062
-243,190	-200,000	-0,016	0,081
-242,176	478,969	-0,039	-0,063
-241,161	-124,647	-0,087	-0,010
-240,146	290,339	0,027	0,035
-239,132	156,163	-0,086	-0,084
-238,117	232,836	-0,043	-0,051
-237,103	59,471	-0,060	-0,042
-236,088	-200,000	0,034	0,114
-235,073	-46,410	0,110	0,038
-234,059	-53,990	-0,015	0,005
-233,044	101,677	0,081	0,067
-232,030	30,010	0,115	0,069
-231,015	52,758	-0,033	-0,022
-230,000	46,469	-0,208	-0,137
-228,986	800,000	0,028	-0,066
-227,971	-200,000	-0,020	-0,076
-226,957	-15,228	0,066	0,030
-225,942	652,287	-0,053	0,098
-224,927	-69,358	0,171	-0,046
-223,913	-200,000	-0,023	-0,122
-222,898	800,000	0,050	-0,118
-221,884	800,000	-0,012	-0,027
-220,869	239,326	-0,028	-0,033
-219,855	-90,550	0,030	-0,006
-218,840	476,474	0,097	0,156
-217,825	-125,979	-0,035	-0,004
-216,811	-200,000	-0,005	-0,028
-215,796	800,000	-0,034	0,077
-214,782	333,667	-0,044	-0,061
-213,767	-90,841	0,093	-0,019
-212,752	-105,143	0,038	-0,006
-211,738	-200,000	-0,030	0,103
-210,723	-200,000	-0,041	0,167
-209,709	-173,223	-0,075	-0,002
-208,694	800,000	-0,068	-0,211
-207,679	-200,000	0,002	-0,066
-206,665	483,977	-0,022	0,036
-205,650	-38,412	0,187	-0,070
-204,636	800,000	0,009	0,020
-203,621	-200,000	0,025	-0,091
-202,606	50,127	-0,065	-0,044
-201,592	-200,000	0,007	0,029
-200,577	40,075	-0,118	0,075
-199,563	86,276	0,126	0,098
-198,548	-200,000	-0,022	0,137
-197,533	800,000	0,017	-0,036
-196,519	7,700	-0,072	0,038
-195,504	254,661	0,068	0,083
-194,490	-105,549	-0,122	0,019
-193,475	63,049	0,221	-0,157
-192,460	800,000	-0,027	0,065
-191,446	789,987	-0,067	0,131
-190,431	24,912	-0,071	0,042
-189,417	22,687	0,068	-0,039
-188,402	-46,088	-0,016	0,006
-187,387	-144,860	-0,121	-0,008
-186,373	800,000	0,025	-0,068
-185,358	-46,508	0,179	0,062
-184,344	-200,000	-0,034	-0,116
-183,329	561,385	-0,044	0,075
-182,315	33,411	0,058	0,036
-181,300	74,512	-0,070	-0,052
-180,285	800,000	-0,014	-0,038
-179,271	512,411	-0,064	-0,106
-178,256	-52,663	-0,075	-0,024
-177,242	-200,000	0,002	-0,019
-176,227	154,833	0,132	0,129
-175,212	-200,000	-0,019	-0,088
-174,198	-200,000	0,010	0,036
-173,183	-40,960	-0,142	-0,052
-172,169	-72,034	0,087	0,023
-171,154	-91,978	0,130	0,026
-170,139	-19,420	0,048	-0,021
-169,125	-200,000	0,012	0,069
-168,110	-122,598	-0,070	-0,008
-167,096	-41,897	-0,099	0,036
-166,081	252,586	0,092	-0,112
-165,066	800,000	-0,051	-0,148
-164,052	4,296	0,032	-0,016
-163,037	240,109	-0,104	0,123
-162,023	726,766	0,029	0,055
-161,008	144,316	-0,043	0,040
-159,993	217,654	0,006	0,006
-158,979	65,741	0,093	-0,067
-157,964	-200,000	-0,003	-0,096
-156,950	53,161	0,049	-0,033
-155,935	-87,055	0,159	-0,034
-154,920	800,000	0,038	0,082
-153,906	-158,878	0,134	-0,005
-152,891	-55,971	-0,151	0,047
-151,877	448,323	0,034	0,053
-150,862	8,693	-0,114	0,061
-149,847	-59,493	-0,035	-0,011
-148,833	-107,141	0,182	0,028
-147,818	398,315	-0,065	0,097
-146,804	-200,000	-0,009	0,082
-145,789	75,623	-0,078	-0,058
-144,775	800,000	0,045	-0,093
-143,760	800,000	0,058	-0,151
-142,745	-200,000	-0,005	0,114
-141,731	-200,000	-0,019	-0,089
-140,716	268,431	0,082	-0,101
-139,702	-78,958	0,156	0,037
-138,687	400,974	0,081	-0,120
-137,672	800,000	0,039	0,089
-136,658	800,000	-0,030	-0,065
-135,643	-62,109	-0,089	0,026
-134,629	-200,000	0,020	-0,128
-133,614	692,800	-0,032	-0,059
-132,599	-92,824	0,072	0,014
-131,585	-105,998	-0,091	-0,014
-130,570	350,841	-0,103	0,145
-129,556	423,407	-0,030	0,045
-128,541	-47,460	-0,103	0,035
-127,526	-200,000	-0,015	0,115
-126,512	363,612	0,079	0,112
-125,497	-200,000	-0,006	0,083
-124,483	181,938	-0,057	0,060
-123,468	386,728	-0,057	-0,084
-122,453	-46,786	-0,101	-0,035
-121,439	29,383	0,069	-0,041
-120,424	411,517	-0,044	-0,067
-119,410	45,865	-0,099	0,065
-118,395	237,954	0,104	0,123
-117,380	-200,000	0,019	0,105
-116,366	-6,988	0,095	0,045
-115,351	-140,609	-0,106	-0,008
-114,337	-200,000	-0,034	-0,133
-113,322	-200,000	0,018	-0,109
-112,307	-200,000	0,008	-0,039
-111,293	-200,000	0,004	-0,019
-110,278	-200,000	0,012	0,165
-109,264	-108,341	0,102	-0,015
-108,249	800,000	0,013	0,036
-107,234	85,882	-0,143	-0,111
-106,220	68,861	-0,072	0,052
-105,205	499,006	0,039	-0,063
-104,191	-44,270	0,123	0,043
-103,176	-200,000	0,014	0,049
-102,162	-13,340	0,024	-0,011
-101,147	800,000	0,032	-0,093
-100,132	-106,973	-0,035	0,005
-99,118	800,000	-0,019	0,049
-98,103	-90,647	0,054	-0,011
-97,089	-200,000	-0,019	-0,119
-96,074	464,635	0,027	0,043
-95,059	-200,000	-0,022	0,136
-94,045	-2,726	-0,148	0,073
-93,030	382,179	0,090	-0,131
-92,016	-181,306	-0,121	0,002
-91,001	126,136	-0,061	-0,054
-89,986	-200,000	0,061	0,201
-88,972	-200,000	-0,019	0,090
-87,957	-5,918	0,055	0,026
-86,943	-200,000	0,015	0,108
-85,928	44,935	0,071	-0,046
-84,913	53,358	-0,076	-0,052
-83,899	-8,438	0,093	-0,044
-82,884	671,306	-0,048	-0,087
-81,870	40,179	-0,074	0,047
-80,855	-108,720	-0,074	-0,011
-79,840	164,847	0,077	0,077
-78,826	-161,130	-0,114	-0,004
-77,811	378,076	-0,024	-0,034
-76,797	-151,076	-0,124	-0,007
-75,782	800,000	0,017	0,053
-74,767	265,144	0,072	0,089
-73,753	800,000	0,036	0,098
-72,738	-200,000	0,018	-0,131
-71,724	297,543	0,066	-0,086
-70,709	99,643	-0,079	0,064
-69,694	358,065	0,025	0,035
-68,680	382,773	-0,021	0,030
-67,665	800,000	-0,029	0,067
-66,651	18,047	0,098	0,055
-65,636	800,000	0,026	0,060
-64,622	-200,000	0,022	-0,115
-63,607	800,000	-0,018	-0,056
-62,592	800,000	-0,009	-0,027
-61,578	-20,255	0,154	0,067
-60,563	-200,000	-0,015	0,074
-59,549	18,798	0,062	0,035
-58,534	44,644	-2,052	-1,329
-57,519	594,507	-1,015	-1,779
-56,505	-200,000	-0,393	-4,481
-55,490	419,824	0,873	1,324
-54,476	800,000	5,443	12,128
-53,461	-200,000	21,761	339,945
-52,446	800,000	761,191	2305,084
-51,432	534,802	1656,838	2783,109
-50,417	69,707	1654,563	1202,046
-49,403	16,841	1528,883	851,767
-48,388	10,975	1453,103	781,253
-47,373	19,143	1445,122	816,031
-46,359	14,336	1434,121	786,987
-45,344	9,320	1429,991	760,865
-44,330	9,280	1427,872	759,516
-43,315	9,186	1426,258	758,179
-42,300	9,245	1424,490	757,488
-41,286	9,291	1423,204	756,996
-40,271	9,223	1422,096	756,053
-39,257	9,259	1420,890	755,553
-38,242	9,264	1419,800	754,964
-37,227	9,217	1418,902	754,239
-36,213	9,212	1417,415	753,393
-35,198	9,281	1416,003	752,936
-34,184	9,301	1415,143	752,543
-33,169	9,159	1414,089	751,287
-32,154	9,184	1413,014	750,801
-31,140	9,246	1411,485	750,253
-30,125	9,239	1410,569	749,700
-29,111	9,242	1409,253	748,989
-28,096	9,204	1408,213	748,225
-27,082	9,187	1406,935	747,438
-26,067	9,160	1405,880	746,724
-25,052	9,220	1404,760	746,376
-24,038	9,247	1403,764	745,944
-23,023	9,204	1402,989	745,305
-22,009	9,177	1402,063	744,654
-20,994	9,165	1400,895	743,949
-19,979	9,179	1399,995	743,506
-18,965	9,118	1399,134	742,736
-17,950	9,125	1398,237	742,264
-16,936	9,119	1397,424	741,773
-15,921	9,035	1396,331	740,776
-14,906	9,088	1395,301	740,448
-13,892	9,080	1394,543	739,975
-12,877	9,115	1393,648	739,636
-11,863	9,069	1392,832	738,958
-10,848	9,099	1392,024	738,640
-9,833	9,044	1390,963	737,792
-8,819	9,028	1390,223	737,298
-7,804	8,970	1389,226	736,474
-6,790	9,012	1388,048	736,011
-5,775	8,991	1386,942	735,300
-4,760	9,052	1386,071	735,087
-3,746	9,023	1385,092	734,408
-2,731	9,016	1384,229	733,888
-1,717	9,045	1383,351	733,526
-0,702	8,984	1381,702	732,342
0,313	12,883	1293,337	703,304
1,327	28,688	684,323	407,701
2,342	44,652	117,929	76,338
3,356	-0,942	16,497	8,208
4,371	-0,287	3,725	1,861
5,386	-21,450	1,138	0,488
6,400	800,000	0,220	0,613
7,415	-21,148	-0,101	-0,044
8,429	65,455	-0,279	-0,199
9,444	137,244	-0,292	-0,269
10,459	-74,931	-0,258	-0,065
11,473	-23,029	-0,383	-0,162
12,488	109,862	-0,127	-0,107
13,502	170,908	-0,269	-0,272
14,517	27,546	-0,271	-0,160
15,531	103,043	-0,389	-0,321
16,546	89,958	-0,216	-0,170
17,561	316,516	-0,242	-0,323
18,575	-127,578	-0,240	0,024
19,590	290,915	-0,078	-0,100
20,604	6,779	-0,315	-0,165
21,619	165,401	-0,339	-0,337
22,634	25,173	-0,511	-0,298
23,648	84,621	-0,427	-0,329
24,663	365,630	-0,219	-0,312
25,677	59,395	-0,461	-0,319
26,692	69,334	-0,363	-0,262
27,707	3,118	-0,340	-0,174
28,721	81,860	-0,438	-0,333
29,736	92,768	-0,398	-0,316
30,750	156,124	-0,363	-0,353
31,765	34,968	-0,443	-0,272
32,780	21,347	-0,349	-0,199
33,794	-36,016	-0,266	-0,101
34,809	110,398	-0,331	-0,280
35,823	108,368	-0,408	-0,342
36,838	136,168	-0,355	-0,326
37,853	58,913	-0,330	-0,228
38,867	89,554	-0,364	-0,285
39,882	109,438	-0,274	-0,231
40,896	-65,168	-0,232	-0,065
41,911	10,732	-0,263	-0,141
42,926	211,221	-0,327	-0,362
43,940	88,481	-0,270	-0,210
44,955	34,030	-0,224	-0,137
45,969	284,140	-0,241	-0,305
46,984	-75,416	-0,309	-0,077
47,999	19,465	-0,268	-0,151
49,013	179,879	-0,197	-0,203
50,028	-58,778	-0,331	-0,100
51,042	-96,625	-0,399	-0,073
52,057	107,313	-0,287	-0,239
53,071	90,520	-0,358	-0,281
54,086	36,529	-0,350	-0,217
55,101	3,539	-0,323	-0,165
56,115	94,376	-0,213	-0,170
57,130	26,537	-0,335	-0,196
58,144	112,905	-0,400	-0,340
59,159	18,629	-0,403	-0,225
60,174	88,198	-0,408	-0,318
61,188	-24,058	-0,294	-0,123
62,203	-44,646	-0,248	-0,086
63,217	34,108	-0,346	-0,211
64,232	20,474	-0,283	-0,160
65,247	-35,524	-0,354	-0,134
66,261	263,193	-0,334	-0,408
67,276	59,730	-0,220	-0,152
68,290	33,585	-0,330	-0,201
69,305	173,415	-0,236	-0,239
70,320	62,884	-0,327	-0,229
71,334	42,198	-0,266	-0,169
72,349	105,395	-0,403	-0,334
73,363	63,047	-0,392	-0,275
74,378	-79,120	-0,311	-0,073
75,393	105,141	-0,242	-0,200
76,407	-85,236	-0,258	-0,056
77,422	-45,173	-0,416	-0,144
78,436	-67,213	-0,169	-0,046
79,451	28,890	-0,345	-0,204
80,466	130,580	-0,264	-0,237
81,480	-21,628	-0,339	-0,144
82,495	78,502	-0,331	-0,247
83,509	-63,140	-0,370	-0,106
84,524	26,735	-0,264	-0,154
85,539	59,915	-0,302	-0,208
86,553	189,752	-0,230	-0,242
87,568	-60,204	-0,353	-0,105
88,582	163,669	-0,216	-0,213
89,597	29,512	-0,373	-0,222
90,611	-35,001	-0,325	-0,124
91,626	84,991	-0,262	-0,201
92,641	-63,685	-0,326	-0,093
93,655	60,169	-0,298	-0,206
94,670	88,568	-0,243	-0,189
95,684	14,145	-0,354	-0,192
96,699	133,743	-0,199	-0,180
97,714	124,684	-0,279	-0,245
98,728	184,509	-0,190	-0,197
99,743	79,253	-0,341	-0,255
100,757	666,634	-0,109	-0,197
101,772	256,160	-0,221	-0,266
102,787	65,315	-0,324	-0,229
103,801	18,240	-0,349	-0,194
104,816	123,582	-0,280	-0,246
105,830	89,424	-0,220	-0,171
106,845	206,508	-0,174	-0,190
107,860	-57,790	-0,271	-0,082
108,874	-43,495	-0,267	-0,094
109,889	249,430	-0,210	-0,250
110,903	139,913	-0,303	-0,279
111,918	77,167	-0,277	-0,206
112,933	142,152	-0,233	-0,216
113,947	-90,153	-0,140	0,028
114,962	186,690	-0,202	-0,211
115,976	123,703	-0,232	-0,203
116,991	370,396	-0,160	-0,226
118,006	81,148	-0,287	-0,216
119,020	-50,332	-0,318	-0,104
120,035	582,587	-0,140	-0,241
121,049	-156,546	-0,164	-0,007
122,064	48,729	-0,317	-0,207
123,079	-23,895	-0,236	-0,098
124,093	-17,025	-0,265	-0,116
125,108	3,876	-0,276	-0,140
126,122	183,870	-0,309	-0,319
127,137	116,501	-0,085	-0,073
128,151	-76,635	-0,227	-0,055
129,166	-1,375	-0,239	-0,117
130,181	-58,102	-0,219	-0,066
131,195	13,519	-0,134	-0,072
132,210	107,392	-0,298	-0,247
133,224	101,429	-0,268	-0,217
134,239	-65,680	-0,294	-0,081
135,254	-138,697	-0,349	-0,026
136,268	-3,445	-0,176	-0,085
137,283	82,110	-0,331	-0,250
138,297	-21,043	-0,337	-0,143
139,312	39,712	-0,258	-0,161
140,327	378,174	-0,171	-0,244
141,341	-17,913	-0,283	-0,123
142,356	175,109	-0,142	-0,143
143,370	203,025	-0,138	-0,149
144,385	344,967	-0,165	-0,227
145,400	-53,927	-0,461	-0,145
146,414	-22,531	-0,382	-0,160
147,429	52,248	-0,355	-0,236
148,443	58,014	-0,189	-0,129
149,458	97,213	-0,224	-0,179
150,473	3,971	-0,177	-0,090
151,487	-191,447	-0,266	-0,002
152,502	-16,615	-0,171	-0,075
153,516	87,344	-0,219	-0,168
154,531	375,861	-0,175	-0,249
155,546	83,739	-0,158	-0,120
156,560	33,387	-0,172	-0,103
157,575	162,678	-0,200	-0,195
158,589	53,907	-0,189	-0,126
159,604	133,954	-0,248	-0,223
160,619	164,705	-0,225	-0,221
161,633	-35,258	-0,286	-0,108
162,648	-110,374	-0,391	-0,056
163,662	138,015	-0,148	-0,135
164,677	-45,404	-0,181	-0,062
165,692	104,951	-0,215	-0,176
166,706	-29,368	-0,183	-0,072
167,721	80,052	-0,245	-0,183
168,735	125,127	-0,200	-0,176
169,750	363,945	-0,229	-0,321
170,764	121,188	-0,168	-0,145
171,779	800,000	-0,068	-0,144
172,794	-16,879	-0,275	-0,120
173,808	-200,000	-0,218	-0,000
174,823	85,826	-0,198	-0,151
175,837	-2,164	-0,186	-0,090
176,852	62,032	-0,256	-0,177
177,867	-2,133	-0,134	-0,065
178,881	156,922	-0,199	-0,191
179,896	7,789	-0,319	-0,166
180,910	-65,718	-0,340	-0,094
181,925	-76,080	-0,300	-0,073
182,940	64,168	-0,317	-0,221
183,954	-39,037	-0,179	-0,065
184,969	-101,935	-0,192	-0,032
185,983	37,986	-0,251	-0,155
186,998	34,806	-0,231	-0,140
188,013	-72,444	-0,212	-0,054
189,027	391,661	-0,102	-0,147
190,042	94,545	-0,251	-0,198
191,056	91,321	-0,147	-0,115
192,071	-107,240	-0,189	0,029
193,086	-161,127	-0,267	0,009
194,100	-152,996	-0,243	0,012
195,115	120,735	-0,162	-0,140
196,129	210,648	-0,236	-0,257
197,144	303,877	-0,209	-0,269
198,159	495,835	-0,089	-0,142
199,173	-38,034	-0,212	-0,078
200,188	-50,868	-0,164	-0,053
201,202	-29,300	-0,287	-0,113
202,217	233,382	-0,129	-0,148
203,232	800,000	-0,128	-0,372
204,246	47,020	-0,312	-0,201
205,261	-56,470	-0,258	-0,079
206,275	-74,228	-0,197	-0,049
207,290	800,000	-0,084	-0,180
208,304	486,726	-0,065	-0,104
209,319	342,457	-0,088	-0,120
210,334	254,130	-0,118	-0,140
211,348	800,000	-0,179	-0,406
212,363	606,803	-0,109	-0,188
213,377	-200,000	-0,077	-0,276
214,392	-4,437	-0,196	-0,093
215,407	800,000	-0,069	-0,161
216,421	-21,077	-0,238	-0,101
217,436	286,805	-0,165	-0,207
218,450	127,647	-0,192	-0,169
219,465	217,697	-0,150	-0,165
220,480	-44,170	-0,235	-0,081
221,494	800,000	-0,073	-0,169
222,509	-21,527	-0,215	-0,090
223,523	-116,214	-0,135	0,017
224,538	83,334	-0,103	-0,077
225,553	92,979	-0,135	-0,105
226,567	368,368	-0,155	-0,217
227,582	285,750	-0,140	-0,175
228,596	236,710	-0,129	-0,148
229,611	134,777	-0,141	-0,127
230,626	533,902	-0,093	-0,154
231,640	35,902	-0,253	-0,154
232,655	25,509	-0,207	-0,119
233,669	175,214	-0,168	-0,168
234,684	-46,832	-0,136	-0,046
235,699	-114,528	-0,155	-0,020
236,713	-28,734	-0,179	-0,071
237,728	49,657	-0,144	-0,094
238,742	339,451	-0,122	-0,164
239,757	-159,557	-0,236	-0,009
240,772	246,027	-0,142	-0,166
241,786	-45,788	-0,188	-0,064
242,801	144,086	-0,151	-0,139
243,815	800,000	-0,028	-0,061
244,830	-83,224	-0,085	0,019
245,844	23,881	-0,090	-0,051
246,859	121,730	-0,221	-0,190
247,874	85,248	-0,239	-0,181
248,888	-61,986	-0,253	-0,073
249,903	210,743	-0,091	-0,099
250,917	-83,629	-0,192	-0,042
251,932	738,834	-0,137	-0,255
252,947	-173,683	-0,246	-0,005
253,961	-83,988	-0,257	-0,056
254,976	81,835	-0,188	-0,140
255,990	149,922	-0,200	-0,187
257,005	-8,200	-0,168	-0,078
258,020	-44,063	-0,122	-0,042
259,034	-200,000	0,045	-0,165
260,049	59,808	-0,052	-0,035
261,063	-80,690	-0,168	-0,038
262,078	100,916	-0,263	-0,211
263,093	292,921	-0,138	-0,174
264,107	250,752	-0,167	-0,196
265,122	5,710	-0,251	-0,128
266,136	-47,001	-0,081	-0,027
267,151	-68,804	-0,201	0,053
268,166	243,721	-0,157	-0,181
269,180	215,761	-0,126	-0,138
270,195	-137,990	-0,066	-0,005
271,209	190,900	-0,170	-0,177
272,224	800,000	-0,041	-0,118
273,239	63,845	-0,172	-0,119
274,253	-15,664	-0,147	-0,064
275,268	126,956	-0,252	-0,220
276,282	412,546	-0,096	-0,140
277,297	-27,016	-0,238	-0,095
278,312	24,280	-0,088	-0,050
279,326	-63,112	-0,188	-0,053
280,341	22,309	-0,074	-0,041
281,355	-10,285	-0,134	-0,061
282,370	229,979	-0,166	-0,186
283,384	298,595	-0,138	-0,175
284,399	164,003	-0,181	-0,175
285,414	88,922	-0,183	-0,140
286,428	44,038	-0,174	-0,110
287,443	235,513	-0,100	-0,114
288,457	800,000	-0,098	-0,225
289,472	-90,100	-0,177	-0,035
290,487	523,322	-0,164	-0,266
291,501	464,592	-0,107	-0,165
292,516	-200,000	-0,043	-0,156
293,530	-71,655	-0,193	-0,049
294,545	800,000	-0,049	-0,132
295,560	50,004	-0,153	-0,099
296,574	39,312	-0,276	-0,169
297,589	-154,695	-0,205	0,009
298,603	126,535	-0,175	-0,152
299,618	800,000	0,039	-0,089
300,633	800,000	-0,053	-0,158
301,647	-200,000	-0,038	-0,181
302,662	-41,550	-0,093	0,033
303,676	171,412	-0,131	-0,129
304,691	68,009	-0,157	-0,110
305,706	123,219	-0,164	-0,141
306,720	186,304	-0,149	-0,153
307,735	-81,661	-0,142	-0,032
308,749	-200,000	0,001	-0,131
309,764	110,842	-0,067	0,055
310,779	47,764	-0,174	-0,111
311,793	-156,036	-0,156	-0,007
312,808	800,000	-0,086	-0,195
313,822	11,986	-0,097	-0,051
314,837	118,040	-0,077	-0,065
315,852	31,315	-0,191	-0,112
316,866	-13,507	-0,118	0,052
317,881	499,301	-0,116	-0,184
318,895	-184,846	-0,151	0,002
319,910	271,042	-0,113	-0,136
320,925	-101,272	-0,173	-0,029
321,939	-18,212	-0,256	-0,109
322,954	88,552	-0,152	-0,115
323,968	-170,670	-0,125	-0,003
324,983	139,180	-0,152	-0,137
325,997	13,710	-0,026	0,014
327,012	-38,227	-0,134	-0,048
328,027	221,206	-0,108	-0,119
329,041	-100,575	-0,251	-0,042
330,056	285,364	-0,051	-0,063
331,070	109,052	-0,074	-0,061
332,085	-75,164	-0,058	-0,014
333,100	-164,329	-0,245	0,008
334,114	6,334	-0,145	-0,073
335,129	-7,438	-0,212	-0,098
336,143	269,647	-0,137	-0,165
337,158	372,541	-0,094	-0,131
338,173	-67,683	-0,207	0,055
339,187	15,384	-0,265	-0,142
340,202	800,000	-0,026	-0,077
341,216	110,427	-0,118	-0,097
342,231	-116,870	-0,251	-0,031
343,246	97,363	-0,178	-0,140
344,260	73,079	-0,125	-0,089
345,275	35,184	0,057	-0,034
346,289	334,550	-0,032	0,043
347,304	-200,000	-0,042	-0,224
348,319	308,927	-0,164	-0,211
349,333	343,285	-0,166	-0,223
350,348	49,535	-0,128	-0,082
351,362	-148,076	-0,238	0,013
352,377	-71,760	-0,032	-0,008
353,392	-89,452	-0,114	0,023
354,406	-114,989	-0,205	-0,026
355,421	207,538	1310,008	1399,809
356,435	159,655	1470,118	1400,267
