DTS Sentinel unit serial number:	SN410029Multiplexer serial number:	ORYXHardware model number:	OX2-SRSoftware version number:	ORYX F/W v4,00 Oryx Data Collector v3.7.2.0data status	okinstallation	B3 Nyhavnadifferential loss correction	single-endedforward channel	channel 1reverse channel	N/Adate	2023/12/02time	06:42:30forward acquisition time	300,00reverse acquisition time	0,00gamma	499,1914k internal	0,3194k external	0,3194temperature offset calibration	1,0000default loss term (dB/km)	0,3820temperature slope calibration	1,0000multiplexer offset coefficient	1,0000multiplexer slope coefficient	1,0000fibre end	0,00T internal ref (°C)	15,87T ext. ref 1 (°C)	0,53T ext. ref 2 (°C)	0,51length (m)	temperature (°C)	Stokes	anti-Stokes-744,400	356,993	-0,203	-0,295
-743,385	-200,000	-0,043	0,306
-742,371	-24,455	-0,206	-0,089
-741,356	-200,000	0,103	0,436
-740,342	73,027	-0,212	-0,162
-739,327	800,000	0,123	0,347
-738,312	172,290	-0,257	-0,269
-737,298	-200,000	-0,072	0,296
-736,283	254,123	-0,164	-0,205
-735,269	-200,000	0,047	0,308
-734,254	29,389	-0,246	-0,152
-733,239	614,501	-0,145	0,265
-732,225	155,033	-0,243	-0,244
-731,210	-200,000	0,041	0,170
-730,196	-121,679	-0,072	0,009
-729,181	402,487	-0,049	-0,075
-728,167	-117,195	-0,011	0,001
-727,152	-200,000	-0,021	0,072
-726,137	19,656	-0,163	-0,095
-725,123	28,176	-0,037	-0,023
-724,108	539,448	0,029	-0,050
-723,094	108,198	-0,090	-0,078
-722,079	6,129	-0,092	-0,049
-721,064	215,572	-0,035	-0,040
-720,050	113,692	-0,057	-0,051
-719,035	800,000	-0,028	-0,070
-718,021	-200,000	0,002	-0,041
-717,006	-37,384	-0,026	-0,010
-715,991	-200,000	-0,026	-0,235
-714,977	-200,000	0,000	-0,015
-713,962	-21,710	-0,089	-0,039
-712,948	-70,207	-0,065	0,018
-711,933	-48,599	-0,022	-0,008
-710,918	800,000	-0,049	-0,121
-709,904	-200,000	0,017	0,064
-708,889	-116,970	-0,041	0,005
-707,875	-15,663	0,019	-0,009
-706,860	44,458	-0,059	0,040
-705,845	-200,000	0,006	0,204
-704,831	-200,000	-0,001	0,122
-703,816	536,300	-0,033	-0,057
-702,802	52,416	-0,095	-0,066
-701,787	-200,000	-0,006	-0,064
-700,772	7,001	-0,077	-0,042
-699,758	534,287	0,059	-0,103
-698,743	102,524	0,058	-0,050
-697,729	800,000	0,017	0,051
-696,714	-200,000	-0,011	0,098
-695,699	800,000	-0,018	0,058
-694,685	800,000	-0,041	-0,109
-693,670	-200,000	-0,049	-0,293
-692,656	-200,000	-0,056	-0,249
-691,641	-200,000	-0,030	0,105
-690,627	-200,000	-0,001	0,024
-689,612	800,000	0,053	0,114
-688,597	289,831	0,049	0,065
-687,583	5,716	-0,175	-0,094
-686,568	-200,000	0,010	-0,147
-685,554	-41,270	-0,052	-0,019
-684,539	17,283	-0,031	-0,018
-683,524	-104,559	0,081	-0,013
-682,510	-67,721	0,009	-0,002
-681,495	-200,000	-0,003	0,011
-680,481	472,975	0,005	0,007
-679,466	-157,888	0,074	-0,003
-678,451	-200,000	-0,004	0,084
-677,437	-200,000	-0,010	-0,061
-676,422	-200,000	0,002	0,021
-675,408	265,860	-0,050	0,063
-674,393	800,000	-0,022	-0,046
-673,378	-102,449	-0,150	-0,026
-672,364	-70,332	-0,124	-0,034
-671,349	307,299	-0,069	-0,094
-670,335	203,125	-0,066	0,075
-669,320	253,622	-0,030	0,038
-668,305	-97,116	0,032	-0,006
-667,291	41,654	0,012	-0,008
-666,276	521,791	0,095	-0,163
-665,262	-200,000	0,006	-0,038
-664,247	57,560	0,095	-0,067
-663,232	800,000	0,057	-0,163
-662,218	-3,980	-0,029	-0,015
-661,203	-75,135	-0,227	-0,059
-660,189	223,022	-0,091	-0,107
-659,174	314,694	-0,090	0,123
-658,159	433,395	-0,008	-0,012
-657,145	800,000	-0,034	-0,085
-656,130	-200,000	-0,014	0,136
-655,116	359,008	0,034	0,049
-654,101	81,071	0,144	0,113
-653,086	-7,408	0,057	-0,028
-652,072	93,865	-0,060	0,049
-651,057	271,151	-0,111	-0,142
-650,043	141,686	-0,035	0,034
-649,028	40,443	-0,067	0,044
-648,014	-200,000	-0,023	-0,106
-646,999	-128,749	0,086	-0,009
-645,984	-200,000	-0,024	0,091
-644,970	-200,000	0,002	-0,015
-643,955	-28,870	-0,201	0,083
-642,941	800,000	0,058	-0,151
-641,926	-65,390	-0,064	0,018
-640,911	376,743	0,098	0,145
-639,897	47,968	0,081	0,055
-638,882	-152,375	-0,122	0,006
-637,868	104,968	-0,053	-0,045
-636,853	-1,659	-0,173	-0,088
-635,838	119,410	-0,088	-0,079
-634,824	-200,000	-0,003	-0,069
-633,809	-115,573	0,071	-0,010
-632,795	23,040	0,076	0,045
-631,780	-70,822	0,023	0,006
-630,765	-60,831	-0,123	-0,037
-629,751	125,505	-0,081	0,075
-628,736	-200,000	0,021	-0,104
-627,722	170,513	0,033	-0,034
-626,707	486,298	-0,050	-0,083
-625,692	-200,000	0,002	0,127
-624,678	128,987	-0,017	0,015
-623,663	-200,000	-0,028	0,152
-622,649	106,205	-0,049	0,042
-621,634	578,790	0,039	-0,070
-620,619	-200,000	-0,020	-0,089
-619,605	150,703	-0,055	-0,055
-618,590	-200,000	-0,012	0,081
-617,576	-200,000	0,010	0,070
-616,561	-200,000	0,001	0,066
-615,546	-200,000	0,011	-0,077
-614,532	-8,585	0,033	0,016
-613,517	617,044	-0,007	0,013
-612,503	800,000	-0,041	-0,102
-611,488	42,007	0,104	-0,069
-610,474	61,563	0,027	-0,020
-609,459	-200,000	0,032	0,190
-608,444	542,876	0,060	-0,103
-607,430	54,449	-0,011	-0,007
-606,415	-54,277	-0,152	-0,050
-605,401	535,147	-0,079	-0,136
-604,386	-49,651	0,036	-0,012
-603,371	-200,000	0,039	0,134
-602,357	-200,000	0,004	-0,107
-601,342	-200,000	-0,017	-0,105
-600,328	-87,517	-0,079	-0,017
-599,313	136,904	-0,053	-0,050
-598,298	-200,000	-0,012	-0,039
-597,284	36,989	-0,035	0,022
-596,269	76,868	0,045	-0,035
-595,255	4,377	0,023	0,012
-594,240	-73,702	-0,035	0,009
-593,225	-200,000	-0,023	-0,109
-592,211	206,621	-0,010	-0,011
-591,196	800,000	0,055	0,151
-590,182	800,000	-0,019	0,052
-589,167	21,987	-0,094	-0,055
-588,152	125,593	0,041	-0,038
-587,138	-200,000	-0,007	-0,047
-586,123	181,634	-0,064	0,068
-585,109	-200,000	0,011	0,066
-584,094	-26,348	-0,133	0,056
-583,079	-22,337	-0,219	0,096
-582,065	-86,500	-0,044	-0,010
-581,050	174,198	0,070	0,073
-580,036	-50,213	-0,060	0,021
-579,021	-200,000	0,010	0,052
-578,006	-71,902	0,058	-0,015
-576,992	-200,000	0,013	-0,051
-575,977	-130,814	0,113	0,011
-574,963	-200,000	0,006	-0,040
-573,948	176,226	-0,082	-0,086
-572,934	800,000	0,046	-0,125
-571,919	-138,425	0,029	-0,002
-570,904	100,112	-0,064	-0,054
-569,890	-200,000	-0,024	-0,162
-568,875	-92,838	-0,021	-0,004
-567,861	43,224	0,078	0,052
-566,846	274,959	-0,019	-0,024
-565,831	161,192	-0,050	-0,051
-564,817	800,000	0,049	-0,131
-563,802	376,394	0,020	0,029
-562,788	255,916	-0,089	-0,111
-561,773	-73,546	0,169	-0,044
-560,758	800,000	-0,030	-0,082
-559,744	-200,000	0,002	-0,093
-558,729	800,000	0,014	0,045
-557,715	305,651	0,034	-0,045
-556,700	-13,187	-0,143	-0,067
-555,685	-200,000	-0,009	0,057
-554,671	170,465	-0,064	0,066
-553,656	-151,170	-0,026	0,001
-552,642	-200,000	0,012	-0,069
-551,627	-87,920	-0,049	0,011
-550,612	-25,984	-0,067	0,028
-549,598	-200,000	0,008	-0,030
-548,583	-154,986	-0,018	0,001
-547,569	92,273	0,018	-0,015
-546,554	332,229	-0,052	0,072
-545,539	-121,526	-0,020	0,002
-544,525	-147,923	0,088	-0,005
-543,510	161,935	-0,107	0,108
-542,496	-159,885	-0,114	-0,004
-541,481	38,524	0,113	-0,072
-540,466	-200,000	0,006	-0,118
-539,452	800,000	-0,008	0,018
-538,437	-70,121	0,125	-0,034
-537,423	-10,628	-0,012	-0,006
-536,408	157,826	-0,031	0,032
-535,393	207,250	-0,053	-0,059
-534,379	800,000	0,052	-0,120
-533,364	-200,000	-0,005	-0,154
-532,350	-200,000	0,036	0,117
-531,335	-200,000	-0,009	-0,078
-530,321	182,420	-0,055	-0,059
-529,306	251,844	-0,038	0,047
-528,291	-117,567	-0,081	-0,010
-527,277	-55,889	-0,133	0,043
-526,262	-77,096	0,123	0,031
-525,248	308,255	0,083	-0,112
-524,233	-48,866	0,056	-0,019
-523,218	407,834	-0,099	-0,152
-522,204	800,000	-0,052	-0,158
-521,189	-48,996	0,033	0,011
-520,175	800,000	0,072	-0,200
-519,160	800,000	-0,056	-0,174
-518,145	98,833	0,025	-0,021
-517,131	-200,000	0,004	-0,021
-516,116	-200,000	0,016	0,121
-515,102	145,027	0,032	0,031
-514,087	-80,877	-0,028	-0,007
-513,072	145,589	-0,039	0,037
-512,058	-95,988	0,039	-0,007
-511,043	476,330	0,027	-0,045
-510,029	10,013	0,043	0,024
-509,014	800,000	-0,025	-0,051
-507,999	-100,853	-0,010	0,002
-506,985	-12,178	0,186	-0,088
-505,970	-179,740	0,077	0,001
-504,956	800,000	-0,038	-0,084
-503,941	18,753	0,112	0,065
-502,926	-200,000	0,010	0,124
-501,912	109,904	0,070	0,061
-500,897	112,192	-0,035	0,031
-499,883	-200,000	0,034	0,114
-498,868	-62,375	-0,074	-0,022
-497,853	-200,000	0,022	-0,093
-496,839	-112,637	-0,119	-0,017
-495,824	-15,499	0,182	0,083
-494,810	-72,028	-0,094	0,025
-493,795	97,294	-0,066	0,054
-492,781	685,171	0,009	-0,018
-491,766	800,000	-0,075	-0,177
-490,751	-200,000	0,000	0,015
-489,737	-29,017	0,064	-0,027
-488,722	81,283	0,115	0,090
-487,708	-94,214	0,105	0,021
-486,693	39,292	0,081	-0,052
-485,678	-200,000	0,022	-0,116
-484,664	384,347	-0,055	0,082
-483,649	-60,478	-0,084	0,025
-482,635	13,905	0,142	-0,080
-481,620	757,723	-0,022	0,042
-480,605	103,746	0,158	0,134
-479,591	-200,000	0,004	0,244
-478,576	-56,459	0,072	0,023
-477,562	-200,000	0,014	-0,123
-476,547	-200,000	-0,014	-0,048
-475,532	622,449	0,049	0,089
-474,518	-200,000	0,014	-0,078
-473,503	-7,925	0,090	0,044
-472,489	-72,422	0,063	0,017
-471,474	739,069	-0,059	0,115
-470,459	-30,807	-0,125	-0,051
-469,445	589,971	-0,082	-0,147
-468,430	-200,000	0,039	0,130
-467,416	-200,000	-0,008	0,073
-466,401	692,215	-0,043	0,082
-465,386	-73,321	0,115	0,030
-464,372	36,244	0,070	0,044
-463,357	800,000	0,038	-0,100
-462,343	800,000	-0,038	-0,118
-461,328	108,741	0,044	0,038
-460,313	800,000	-0,026	-0,074
-459,299	800,000	-0,021	-0,052
-458,284	-134,383	0,088	-0,008
-457,270	-200,000	-0,011	0,192
-456,255	347,750	0,049	-0,070
-455,241	-34,321	-0,104	0,041
-454,226	123,507	-0,073	-0,066
-453,211	-146,902	-0,145	-0,009
-452,197	-73,253	0,065	0,017
-451,182	800,000	-0,056	-0,174
-450,168	440,435	0,068	0,107
-449,153	-121,936	-0,167	0,020
-448,138	-90,366	-0,072	-0,015
-447,124	75,996	0,051	0,039
-446,109	354,527	0,052	0,075
-445,095	-200,000	0,005	-0,077
-444,080	197,807	-0,014	-0,015
-443,065	800,000	-0,022	0,069
-442,051	-152,584	0,128	-0,006
-441,036	-40,721	-0,083	0,031
-440,022	-200,000	-0,009	-0,033
-439,007	380,706	-0,023	0,034
-437,992	145,525	0,108	0,105
-436,978	49,569	0,064	-0,044
-435,963	800,000	0,039	-0,104
-434,949	29,424	-0,112	0,068
-433,934	-23,177	0,059	-0,025
-432,919	-200,000	-0,004	-0,189
-431,905	-200,000	-0,023	-0,076
-430,890	282,042	-0,100	0,129
-429,876	39,677	0,218	0,141
-428,861	-133,527	-0,160	-0,014
-427,846	-24,353	0,031	0,013
-426,832	-67,853	0,078	-0,022
-425,817	-107,113	-0,079	-0,012
-424,803	109,964	-0,067	0,058
-423,788	-117,742	0,091	0,012
-422,773	-24,198	0,062	0,026
-421,759	-200,000	-0,011	0,057
-420,744	89,534	0,091	-0,073
-419,730	429,156	0,071	0,111
-418,715	-200,000	-0,029	-0,241
-417,701	-20,637	0,082	-0,036
-416,686	126,334	-0,090	0,082
-415,671	-200,000	-0,005	-0,110
-414,657	-200,000	-0,005	0,035
-413,642	800,000	-0,032	0,067
-412,628	125,189	-0,071	-0,064
-411,613	59,947	-0,088	-0,062
-410,598	-200,000	0,006	0,093
-409,584	-200,000	0,010	0,137
-408,569	176,181	0,061	0,064
-407,555	800,000	-0,052	0,129
-406,540	-108,145	-0,064	-0,010
-405,525	800,000	0,042	0,102
-404,511	-10,944	-0,030	-0,014
-403,496	129,420	-0,064	-0,059
-402,482	248,409	0,057	0,069
-401,467	-21,324	-0,087	-0,038
-400,452	119,795	0,048	-0,043
-399,438	234,619	-0,053	0,063
-398,423	-127,392	-0,075	0,008
-397,409	-200,000	0,005	0,085
-396,394	734,589	0,031	-0,060
-395,379	-200,000	0,009	-0,045
-394,365	51,058	0,086	-0,058
-393,350	800,000	0,090	0,219
-392,336	175,338	0,060	0,063
-391,321	231,478	0,088	-0,104
-390,306	-18,331	-0,076	-0,034
-389,292	470,094	-0,064	0,103
-388,277	-200,000	0,011	-0,141
-387,263	187,189	-0,109	0,117
-386,248	47,385	0,176	0,118
-385,233	92,859	-0,080	0,065
-384,219	21,415	0,080	-0,047
-383,204	-158,412	0,095	-0,004
-382,190	132,298	-0,144	-0,133
-381,175	-200,000	-0,010	-0,035
-380,160	575,565	0,048	0,084
-379,146	800,000	0,069	0,167
-378,131	-200,000	0,025	0,190
-377,117	-173,099	-0,039	0,001
-376,102	-200,000	-0,005	-0,039
-375,088	-19,505	0,029	-0,013
-374,073	-75,546	0,071	0,018
-373,058	6,412	0,083	0,044
-372,044	156,430	-0,088	0,088
-371,029	-200,000	-0,031	0,122
-370,015	118,941	0,090	0,080
-369,000	557,714	-0,025	-0,044
-367,985	121,557	0,094	0,084
-366,971	-5,921	0,034	-0,017
-365,956	44,347	0,083	-0,054
-364,942	-177,358	0,087	0,001
-363,927	-59,507	-0,088	-0,027
-362,912	800,000	-0,019	-0,040
-361,898	-59,675	-0,073	-0,022
-360,883	-89,885	-0,065	-0,014
-359,869	372,092	-0,042	-0,061
-358,854	-88,266	-0,066	0,014
-357,839	478,632	-0,026	-0,043
-356,825	-37,911	0,102	-0,039
-355,810	-90,497	0,063	-0,013
-354,796	-131,486	-0,188	-0,018
-353,781	91,091	0,095	-0,077
-352,766	-42,037	-0,151	-0,055
-351,752	61,835	0,051	0,036
-350,737	-148,878	0,138	0,008
-349,723	-130,621	0,158	0,015
-348,708	112,008	-0,086	0,075
-347,693	-78,549	-0,042	0,010
-346,679	-200,000	-0,007	-0,088
-345,664	562,101	-0,029	-0,050
-344,650	-200,000	-0,021	-0,083
-343,635	-25,415	0,102	0,043
-342,620	-159,246	0,062	0,002
-341,606	174,499	-0,069	0,072
-340,591	276,073	-0,036	0,046
-339,577	800,000	0,048	-0,122
-338,562	-200,000	0,008	0,036
-337,548	177,133	0,017	0,017
-336,533	-200,000	0,028	0,096
-335,518	204,699	0,054	-0,060
-334,504	-200,000	-0,010	0,034
-333,489	495,208	0,033	0,055
-332,475	-200,000	-0,015	-0,163
-331,460	271,132	-0,119	-0,150
-330,445	-200,000	-0,018	-0,113
-329,431	172,393	-0,042	0,043
-328,416	-200,000	0,019	0,098
-327,402	27,531	-0,071	-0,042
-326,387	800,000	-0,017	-0,045
-325,372	-200,000	-0,001	-0,111
-324,358	800,000	-0,029	-0,067
-323,343	-200,000	0,004	0,044
-322,329	-200,000	0,009	-0,040
-321,314	173,775	0,087	0,090
-320,299	389,131	0,079	-0,117
-319,285	313,093	0,049	-0,066
-318,270	-200,000	-0,014	-0,047
-317,256	-200,000	0,001	-0,024
-316,241	8,923	0,108	-0,058
-315,226	319,394	0,040	0,055
-314,212	14,160	-0,089	-0,050
-313,197	123,592	0,107	0,096
-312,183	56,951	-0,061	0,042
-311,168	-127,765	0,100	0,010
-310,153	-96,185	-0,102	-0,019
-309,139	-37,785	0,041	-0,016
-308,124	800,000	-0,091	0,194
-307,110	-139,944	0,132	-0,010
-306,095	-144,905	0,164	0,011
-305,080	-123,179	-0,082	0,009
-304,066	315,593	-0,021	-0,028
-303,051	-200,000	-0,037	-0,152
-302,037	0,047	-0,037	-0,019
-301,022	677,940	-0,038	0,071
-300,008	-200,000	0,022	-0,091
-298,993	279,062	0,132	0,169
-297,978	-200,000	-0,030	0,112
-296,964	-200,000	0,024	-0,093
-295,949	-109,219	-0,191	-0,029
-294,935	-51,255	-0,119	-0,040
-293,920	220,354	0,073	-0,084
-292,905	116,184	0,065	-0,057
-291,891	-200,000	0,021	0,139
-290,876	204,695	0,094	0,105
-289,862	-200,000	0,028	-0,157
-288,847	-141,607	0,020	-0,001
-287,832	-90,336	-0,082	0,017
-286,818	547,699	0,027	0,046
-285,803	-58,814	0,012	0,004
-284,789	68,342	0,021	-0,015
-283,774	93,360	-0,137	0,111
-282,759	-48,707	-0,081	-0,028
-281,745	-200,000	-0,004	0,019
-280,730	-23,777	0,035	-0,015
-279,716	-200,000	-0,025	-0,106
-278,701	376,881	-0,013	-0,019
-277,686	248,025	0,042	0,051
-276,672	-200,000	0,009	-0,042
-275,657	-200,000	-0,019	0,098
-274,643	-200,000	-0,003	-0,019
-273,628	-73,359	-0,089	0,023
-272,613	800,000	0,024	-0,069
-271,599	87,818	0,085	-0,068
-270,584	-108,255	0,020	-0,003
-269,570	-27,789	0,123	-0,051
-268,555	800,000	0,030	-0,070
-267,540	-200,000	-0,004	0,045
-266,526	-62,708	-0,055	-0,016
-265,511	110,277	-0,093	-0,080
-264,497	356,781	0,067	-0,095
-263,482	-200,000	0,032	-0,191
-262,467	85,851	-0,008	0,006
-261,453	-4,585	0,045	-0,022
-260,438	-110,241	-0,130	-0,019
-259,424	62,926	0,026	0,019
-258,409	133,882	0,077	-0,072
-257,395	30,553	0,125	-0,076
-256,380	163,317	-0,048	0,048
-255,365	800,000	0,015	0,039
-254,351	219,011	0,070	0,080
-253,336	800,000	0,015	0,045
-252,322	84,788	0,097	-0,076
-251,307	69,885	-0,142	-0,105
-250,292	800,000	-0,027	0,078
-249,278	47,323	0,059	0,039
-248,263	138,634	-0,068	0,064
-247,249	376,013	0,053	-0,077
-246,234	-110,271	-0,076	0,011
-245,219	-157,716	0,113	0,005
-244,205	-60,692	-0,020	-0,006
-243,190	-181,507	0,033	-0,000
-242,176	7,620	-0,035	0,019
-241,161	800,000	0,025	0,075
-240,146	-124,703	-0,019	-0,002
-239,132	800,000	-0,053	-0,119
-238,117	-125,420	-0,085	0,009
-237,103	417,333	-0,030	-0,046
-236,088	-200,000	0,001	0,017
-235,073	7,959	-0,061	0,032
-234,059	-8,373	-0,083	0,040
-233,044	88,199	0,083	0,066
-232,030	-200,000	0,011	-0,128
-231,015	8,405	-0,054	-0,029
-230,000	66,215	0,074	-0,054
-228,986	100,877	-0,097	0,081
-227,971	255,294	-0,053	0,065
-226,957	167,954	-0,048	0,049
-225,942	12,793	-0,123	0,068
-224,927	800,000	-0,011	-0,026
-223,913	-24,417	-0,145	0,061
-222,898	800,000	-0,018	0,053
-221,884	123,447	0,068	-0,061
-220,869	-89,240	0,090	-0,019
-219,855	-133,727	0,224	0,020
-218,840	-200,000	-0,019	0,150
-217,825	443,445	0,056	0,087
-216,811	-1,826	0,066	0,033
-215,796	-200,000	0,010	-0,056
-214,782	-86,389	-0,044	0,010
-213,767	-131,986	0,063	-0,006
-212,752	-42,569	0,049	0,018
-211,738	117,301	0,043	0,038
-210,723	168,428	0,123	0,125
-209,709	78,907	-0,121	-0,092
-208,694	800,000	-0,090	0,178
-207,679	13,502	-0,034	0,019
-206,665	-200,000	0,011	-0,064
-205,650	-200,000	0,000	0,039
-204,636	-68,913	0,150	-0,041
-203,621	87,615	-0,119	0,094
-202,606	800,000	-0,016	0,038
-201,592	-58,114	0,108	0,033
-200,577	241,147	-0,040	-0,048
-199,563	61,142	0,123	0,087
-198,548	183,284	0,117	0,124
-197,533	497,604	-0,018	0,030
-196,519	-116,293	0,127	-0,017
-195,504	445,360	0,034	0,053
-194,490	616,934	-0,087	0,156
-193,475	-200,000	-0,006	0,065
-192,460	-32,910	-0,138	0,054
-191,446	800,000	0,057	0,124
-190,431	-108,707	0,116	0,017
-189,417	-36,039	-0,048	-0,018
-188,402	-200,000	0,001	0,014
-187,387	-145,152	-0,126	-0,008
-186,373	217,454	-0,020	0,023
-185,358	138,686	-0,071	0,066
-184,344	-69,147	-0,060	0,016
-183,329	193,941	0,109	-0,118
-182,315	323,822	0,090	-0,122
-181,300	800,000	0,019	0,040
-180,285	-44,729	-0,083	0,029
-179,271	-200,000	0,015	-0,071
-178,256	-16,064	-0,112	0,051
-177,242	-200,000	-0,027	-0,102
-176,227	800,000	-0,034	-0,071
-175,212	214,295	-0,047	0,053
-174,198	47,406	0,095	-0,063
-173,183	800,000	-0,035	0,090
-172,169	800,000	-0,025	0,062
-171,154	211,462	0,017	0,020
-170,139	-200,000	-0,019	0,079
-169,125	12,312	-0,069	0,038
-168,110	800,000	0,058	0,135
-167,096	-200,000	-0,036	-0,179
-166,081	447,277	0,011	-0,017
-165,066	390,888	-0,065	0,096
-164,052	-200,000	-0,047	0,172
-163,037	-53,443	0,106	0,034
-162,023	301,480	0,057	-0,076
-161,008	800,000	0,017	-0,035
-159,993	-200,000	-0,016	-0,100
-158,979	662,191	-0,068	0,125
-157,964	-54,084	-0,067	-0,022
-156,950	-200,000	0,007	0,057
-155,935	-200,000	-0,010	0,185
-154,920	-85,157	0,084	-0,019
-153,906	-200,000	0,002	0,084
-152,891	-200,000	-0,016	-0,068
-151,877	800,000	-0,059	0,167
-150,862	196,417	-0,086	0,094
-149,847	800,000	-0,035	0,082
-148,833	800,000	-0,094	0,209
-147,818	249,311	-0,025	0,030
-146,804	13,886	-0,091	-0,050
-145,789	10,526	0,116	-0,063
-144,775	295,063	0,037	0,048
-143,760	17,454	0,036	0,020
-142,745	-135,873	-0,132	-0,011
-141,731	-23,386	0,091	0,039
-140,716	-130,014	-0,010	-0,001
-139,702	-200,000	0,001	0,080
-138,687	-200,000	0,044	0,202
-137,672	-137,262	0,036	0,003
-136,658	212,976	0,025	0,028
-135,643	-24,522	-0,143	-0,060
-134,629	-43,043	-0,205	-0,074
-133,614	-120,163	0,202	-0,024
-132,599	-200,000	0,052	0,210
-131,585	-18,846	0,129	-0,057
-130,570	79,107	0,023	-0,018
-129,556	160,350	0,026	-0,026
-128,541	-55,720	-0,050	0,016
-127,526	437,210	0,042	0,065
-126,512	800,000	0,022	0,046
-125,497	93,703	0,066	0,053
-124,483	6,222	0,069	-0,036
-123,468	32,679	-0,093	0,057
-122,453	-76,176	0,167	-0,042
-121,439	238,775	-0,051	0,060
-120,424	399,543	-0,079	0,118
-119,410	-38,508	-0,078	-0,029
-118,395	-200,000	-0,005	0,075
-117,380	800,000	-0,043	0,113
-116,366	39,170	0,052	0,033
-115,351	-200,000	0,001	-0,071
-114,337	4,048	-0,054	0,028
-113,322	187,767	0,081	-0,086
-112,307	800,000	-0,014	0,030
-111,293	591,363	-0,034	-0,060
-110,278	-149,131	0,020	-0,001
-109,264	281,316	0,080	-0,102
-108,249	356,084	0,005	-0,007
-107,234	-200,000	-0,011	-0,153
-106,220	8,713	-0,090	-0,048
-105,205	452,965	-0,051	-0,081
-104,191	-49,780	0,038	0,013
-103,176	45,962	0,105	0,069
-102,162	236,879	-0,079	0,094
-101,147	800,000	0,015	-0,046
-100,132	-200,000	-0,003	-0,075
-99,118	-182,588	0,061	-0,001
-98,103	-81,810	-0,120	-0,028
-97,089	800,000	0,030	0,067
-96,074	-200,000	0,006	0,172
-95,059	594,991	0,028	0,049
-94,045	44,282	-0,106	-0,069
-93,030	203,344	0,059	-0,065
-92,016	25,022	-0,119	0,070
-91,001	-200,000	0,028	-0,159
-89,986	-108,096	0,126	0,019
-88,972	-170,023	0,026	0,001
-87,957	508,403	0,044	0,073
-86,943	640,229	-0,038	0,069
-85,928	108,490	-0,033	-0,028
-84,913	-21,473	-0,094	-0,041
-83,899	-107,175	0,157	-0,024
-82,884	96,754	-0,020	0,016
-81,870	-200,000	-0,024	0,132
-80,855	-200,000	0,000	0,035
-79,840	-200,000	0,025	-0,112
-78,826	457,868	-0,060	-0,095
-77,811	-12,706	-0,106	-0,049
-76,797	95,478	0,051	0,041
-75,782	800,000	-0,011	0,031
-74,767	-94,786	0,136	0,026
-73,753	37,317	-0,065	-0,041
-72,738	-200,000	0,032	-0,125
-71,724	-200,000	0,015	-0,089
-70,709	-86,357	-0,052	0,011
-69,694	-120,468	-0,075	0,009
-68,680	264,349	0,012	0,015
-67,665	61,074	0,035	0,024
-66,651	-200,000	-0,012	-0,057
-65,636	201,783	-0,107	0,117
-64,622	-200,000	-0,011	-0,037
-63,607	-61,949	-0,052	0,015
-62,592	800,000	-0,021	0,050
-61,578	-200,000	0,013	0,044
-60,563	1,622	0,199	-0,101
-59,549	-8,062	-0,077	0,037
-58,534	-83,380	-1,501	-0,339
-57,519	426,476	-1,470	-2,257
-56,505	-200,000	-0,514	-4,379
-55,490	119,227	0,945	0,830
-54,476	800,000	4,810	11,260
-53,461	-200,000	17,800	284,913
-52,446	800,000	721,617	2233,842
-51,432	565,180	1636,596	2826,285
-50,417	81,032	1659,851	1270,071
-49,403	23,723	1533,970	894,121
-48,388	17,742	1457,182	820,467
-47,373	18,279	1446,810	817,176
-46,359	17,861	1437,582	809,936
-45,344	16,016	1432,798	798,421
-44,330	15,898	1430,993	796,823
-43,315	15,948	1429,099	795,974
-42,300	15,984	1427,320	795,120
-41,286	16,006	1426,441	794,704
-40,271	15,955	1424,949	793,600
-39,257	15,976	1423,702	792,971
-38,242	15,993	1422,446	792,321
-37,227	16,011	1421,195	791,678
-36,213	16,007	1419,831	790,869
-35,198	15,991	1418,755	790,161
-34,184	15,954	1417,875	789,468
-33,169	15,903	1416,635	788,504
-32,154	15,978	1415,599	788,250
-31,140	15,997	1414,029	787,435
-30,125	16,049	1412,938	787,042
-29,111	16,003	1411,908	786,219
-28,096	15,964	1410,774	785,375
-27,082	15,911	1409,721	784,507
-26,067	15,919	1408,494	783,829
-25,052	15,878	1407,773	783,205
-24,038	15,890	1406,702	782,635
-23,023	15,850	1405,607	781,808
-22,009	15,880	1404,583	781,350
-20,994	15,855	1403,577	780,641
-19,979	15,856	1402,775	780,170
-18,965	15,820	1401,766	779,411
-17,950	15,828	1400,948	778,961
-16,936	15,828	1399,778	778,277
-15,921	15,814	1398,640	777,549
-14,906	15,808	1397,396	776,802
-13,892	15,815	1396,622	776,373
-12,877	15,832	1395,728	775,924
-11,863	15,803	1394,973	775,340
-10,848	15,811	1393,943	774,772
-9,833	15,801	1393,160	774,261
-8,819	15,770	1391,983	773,431
-7,804	15,693	1391,251	772,637
-6,790	15,719	1390,156	772,117
-5,775	15,697	1389,208	771,458
-4,760	15,708	1388,246	770,944
-3,746	15,667	1387,707	770,425
-2,731	15,677	1386,839	769,959
-1,717	15,699	1385,732	769,417
-0,702	15,714	1383,977	768,481
0,313	19,426	1304,378	741,457
1,327	35,650	706,928	439,491
2,342	54,700	125,290	85,555
3,356	4,685	16,648	8,642
4,371	9,578	3,098	1,659
5,386	22,889	0,455	0,264
6,400	81,311	0,168	0,128
7,415	256,022	-0,189	-0,230
8,429	50,151	-0,286	-0,191
9,444	21,167	-0,323	-0,185
10,459	162,455	-0,307	-0,305
11,473	199,963	-0,270	-0,294
12,488	-26,138	-0,297	-0,123
13,502	2,722	-0,400	-0,205
14,517	377,324	-0,276	-0,400
15,531	172,495	-0,295	-0,301
16,546	48,057	-0,422	-0,279
17,561	-23,720	-0,350	-0,148
18,575	-10,129	-0,271	-0,127
19,590	252,774	-0,216	-0,262
20,604	-37,604	-0,346	-0,130
21,619	-7,056	-0,465	-0,223
22,634	46,787	-0,393	-0,258
23,648	113,157	-0,539	-0,462
24,663	73,098	-0,436	-0,322
25,677	91,361	-0,392	-0,311
26,692	150,207	-0,281	-0,269
27,707	13,245	-0,479	-0,262
28,721	-35,848	-0,391	-0,149
29,736	92,674	-0,411	-0,328
30,750	50,876	-0,394	-0,264
31,765	53,460	-0,510	-0,346
32,780	-31,663	-0,473	-0,187
33,794	142,888	-0,300	-0,282
34,809	169,537	-0,300	-0,303
35,823	-5,263	-0,478	-0,232
36,838	120,977	-0,377	-0,332
37,853	72,685	-0,344	-0,253
38,867	156,062	-0,322	-0,314
39,882	26,609	-0,312	-0,184
40,896	87,673	-0,339	-0,265
41,911	111,605	-0,243	-0,207
42,926	172,641	-0,374	-0,380
43,940	233,664	-0,374	-0,435
44,955	151,430	-0,286	-0,276
45,969	88,701	-0,430	-0,338
46,984	31,065	-0,364	-0,220
47,999	22,490	-0,382	-0,220
49,013	79,491	-0,372	-0,282
50,028	129,629	-0,294	-0,266
51,042	133,260	-0,383	-0,350
52,057	50,604	-0,339	-0,226
53,071	17,229	-0,396	-0,221
54,086	-45,212	-0,519	-0,181
55,101	-18,422	-0,346	-0,152
56,115	-36,354	-0,367	-0,139
57,130	81,697	-0,412	-0,314
58,144	67,117	-0,425	-0,305
59,159	153,445	-0,328	-0,317
60,174	34,642	-0,388	-0,238
61,188	54,213	-0,388	-0,263
62,203	44,734	-0,380	-0,246
63,217	58,776	-0,391	-0,271
64,232	72,939	-0,255	-0,187
65,247	96,405	-0,323	-0,260
66,261	67,141	-0,375	-0,269
67,276	24,672	-0,354	-0,206
68,290	129,905	-0,331	-0,299
69,305	30,551	-0,202	-0,122
70,320	99,671	-0,278	-0,226
71,334	212,464	-0,275	-0,307
72,349	42,425	-0,293	-0,187
73,363	33,024	-0,418	-0,254
74,378	80,124	-0,378	-0,287
75,393	37,551	-0,333	-0,208
76,407	356,608	-0,239	-0,337
77,422	64,280	-0,301	-0,213
78,436	12,123	-0,260	-0,141
79,451	82,837	-0,284	-0,217
80,466	47,124	-0,313	-0,205
81,480	66,794	-0,235	-0,168
82,495	-27,914	-0,379	-0,154
83,509	38,921	-0,333	-0,209
84,524	-64,840	-0,313	-0,089
85,539	498,312	-0,110	-0,179
86,553	325,375	-0,196	-0,265
87,568	-6,726	-0,302	-0,144
88,582	97,167	-0,226	-0,182
89,597	191,138	-0,170	-0,181
90,611	115,139	-0,279	-0,240
91,626	322,850	-0,213	-0,286
92,641	112,976	-0,183	-0,156
93,655	-15,456	-0,405	-0,181
94,670	26,001	-0,357	-0,209
95,684	153,458	-0,191	-0,184
96,699	90,931	-0,259	-0,204
97,714	23,531	-0,252	-0,145
98,728	56,692	-0,147	-0,101
99,743	286,807	-0,280	-0,357
100,757	50,148	-0,232	-0,154
101,772	-3,455	-0,207	-0,101
102,787	32,083	-0,285	-0,172
103,801	230,172	-0,231	-0,266
104,816	-160,143	-0,253	0,009
105,830	83,980	-0,274	-0,210
106,845	88,414	-0,197	-0,153
107,860	-41,146	-0,362	-0,131
108,874	33,302	-0,409	-0,249
109,889	119,600	-0,272	-0,237
110,903	115,240	-0,207	-0,177
111,918	34,317	-0,320	-0,196
112,933	-59,179	-0,335	-0,101
113,947	2,032	-0,214	-0,108
114,962	-5,487	-0,275	-0,132
115,976	22,918	-0,228	-0,131
116,991	205,183	-0,213	-0,233
118,006	19,869	-0,209	-0,118
119,020	800,000	-0,169	-0,331
120,035	414,845	-0,070	-0,104
121,049	-30,890	-0,260	-0,103
122,064	191,715	-0,247	-0,261
123,079	-37,122	-0,305	-0,114
124,093	-51,451	-0,370	-0,120
125,108	74,716	-0,301	-0,222
126,122	393,052	-0,138	-0,201
127,137	15,275	-0,263	-0,144
128,151	221,218	-0,206	-0,232
129,166	418,425	-0,206	-0,310
130,181	75,558	-0,248	-0,184
131,195	23,598	-0,392	-0,226
132,210	314,449	-0,201	-0,265
133,224	63,373	-0,256	-0,180
134,239	100,845	-0,218	-0,178
135,254	-200,000	-0,032	-0,116
136,268	22,296	-0,240	-0,137
137,283	-17,164	-0,297	-0,131
138,297	91,017	-0,273	-0,215
139,312	755,872	-0,156	-0,296
140,327	76,330	-0,187	-0,139
141,341	26,709	-0,304	-0,178
142,356	21,998	-0,165	-0,094
143,370	14,319	-0,238	-0,129
144,385	147,286	-0,302	-0,285
145,400	-82,962	-0,348	-0,078
146,414	440,769	-0,230	-0,353
147,429	94,521	-0,211	-0,167
148,443	349,560	-0,120	-0,166
149,458	-163,720	-0,218	-0,007
150,473	-200,000	0,037	-0,196
151,487	12,560	-0,281	-0,151
152,502	-82,498	-0,215	-0,049
153,516	15,321	-0,253	-0,139
154,531	82,138	-0,352	-0,266
155,546	800,000	-0,110	-0,230
156,560	63,895	-0,238	-0,167
157,575	103,386	-0,141	-0,115
158,589	179,546	-0,163	-0,167
159,604	407,778	-0,176	-0,261
160,619	40,070	-0,253	-0,159
161,633	148,878	-0,182	-0,172
162,648	12,604	-0,134	-0,072
163,662	100,347	-0,195	-0,158
164,677	10,040	-0,228	-0,121
165,692	66,128	-0,356	-0,253
166,706	224,389	-0,232	-0,262
167,721	73,994	-0,225	-0,165
168,735	47,991	-0,320	-0,209
169,750	80,943	-0,248	-0,187
170,764	-15,130	-0,291	-0,130
171,779	-8,627	-0,163	-0,076
172,794	9,057	-0,208	-0,109
173,808	17,536	-0,309	-0,171
174,823	27,572	-0,396	-0,232
175,837	-200,000	-0,060	-0,310
176,852	11,181	-0,229	-0,122
177,867	-20,836	-0,198	-0,085
178,881	-29,711	-0,260	-0,103
179,896	-14,962	-0,188	-0,084
180,910	58,766	-0,247	-0,169
181,925	800,000	-0,183	-0,363
182,940	151,464	-0,179	-0,170
183,954	63,865	-0,231	-0,162
184,969	800,000	-0,159	-0,316
185,983	-42,732	-0,196	-0,069
186,998	213,581	-0,175	-0,193
188,013	618,962	-0,143	-0,252
189,027	184,461	-0,186	-0,192
190,042	-57,653	-0,293	-0,089
191,056	-90,916	-0,321	-0,064
192,071	133,984	-0,144	-0,130
193,086	191,828	-0,158	-0,166
194,100	-117,991	-0,145	-0,018
195,115	800,000	-0,104	-0,203
196,129	-11,605	-0,234	-0,107
197,144	10,257	-0,166	-0,088
198,159	70,155	-0,255	-0,183
199,173	97,306	-0,109	-0,087
200,188	-33,010	-0,214	0,082
201,202	86,019	-0,302	-0,232
202,217	180,898	-0,198	-0,203
203,232	-52,901	-0,200	-0,064
204,246	126,262	-0,276	-0,243
205,261	58,348	-0,112	-0,077
206,275	246,195	-0,237	-0,279
207,290	19,125	-0,204	-0,114
208,304	-71,632	-0,096	-0,025
209,319	-21,066	-0,158	-0,067
210,334	155,950	-0,210	-0,202
211,348	-50,416	-0,251	-0,082
212,363	60,913	-0,257	-0,177
213,377	800,000	-0,068	-0,188
214,392	749,148	-0,091	-0,171
215,407	198,602	-0,119	-0,127
216,421	49,704	-0,240	-0,157
217,436	-67,657	-0,263	0,071
218,450	163,475	-0,150	-0,147
219,465	140,306	-0,286	-0,262
220,480	31,634	-0,183	-0,109
221,494	173,898	-0,157	-0,158
222,509	-200,000	-0,031	-0,107
223,523	153,132	-0,124	-0,118
224,538	25,663	-0,209	-0,121
225,553	88,679	-0,172	-0,133
226,567	227,129	-0,178	-0,201
227,582	-200,000	-0,065	-0,284
228,596	460,693	-0,037	-0,057
229,611	85,127	-0,168	-0,128
230,626	-27,672	-0,139	-0,056
231,640	-12,887	-0,253	-0,114
232,655	126,262	-0,178	-0,156
233,669	209,193	-0,185	-0,202
234,684	-18,529	-0,157	-0,068
235,699	25,533	-0,109	-0,063
236,713	12,496	-0,188	-0,101
237,728	29,704	-0,100	0,059
238,742	-147,855	-0,135	-0,008
239,757	463,294	-0,100	-0,156
240,772	93,711	-0,195	-0,153
241,786	-32,308	-0,195	-0,075
242,801	40,087	-0,263	-0,164
243,815	212,101	-0,173	-0,189
244,830	47,131	-0,133	-0,086
245,844	-0,918	-0,187	-0,092
246,859	18,298	-0,217	-0,120
247,874	302,870	-0,199	-0,257
248,888	-88,899	-0,245	-0,050
249,903	106,688	-0,235	-0,193
250,917	213,030	-0,114	-0,125
251,932	183,848	-0,075	0,077
252,947	-148,273	-0,271	-0,015
253,961	7,529	-0,232	-0,120
254,976	-11,688	-0,185	-0,084
255,990	-74,919	-0,280	-0,069
257,005	101,283	-0,219	-0,177
258,020	42,650	-0,120	-0,076
259,034	169,971	-0,272	-0,269
260,049	151,738	-0,186	-0,176
261,063	255,683	-0,168	-0,200
262,078	159,150	-0,146	-0,141
263,093	154,091	-0,068	-0,064
264,107	129,343	-0,102	-0,090
265,122	73,581	-0,121	-0,088
266,136	230,526	-0,122	-0,138
267,151	-13,342	-0,133	-0,060
268,166	45,025	-0,243	-0,154
269,180	247,171	-0,134	-0,157
270,195	800,000	-0,059	-0,132
271,209	119,642	-0,238	-0,204
272,224	670,541	-0,088	-0,158
273,239	-20,922	-0,054	-0,023
274,253	-200,000	0,002	-0,142
275,268	-78,892	-0,234	-0,055
276,282	71,807	-0,243	-0,175
277,297	-72,282	-0,121	0,031
278,312	125,006	-0,164	-0,143
279,326	346,512	-0,111	-0,152
280,341	413,472	-0,129	-0,190
281,355	-107,412	-0,185	0,028
282,370	-156,088	-0,129	-0,006
283,384	162,406	-0,122	-0,118
284,399	633,698	-0,135	-0,238
285,414	-59,219	-0,183	-0,054
286,428	118,134	-0,137	-0,117
287,443	-14,449	-0,129	-0,057
288,457	800,000	-0,045	-0,118
289,472	-49,097	-0,086	0,028
290,487	-113,287	-0,289	-0,039
291,501	83,640	-0,231	-0,174
292,516	380,124	-0,142	-0,201
293,530	130,247	-0,082	-0,072
294,545	-166,266	-0,158	0,005
295,560	10,373	-0,105	-0,055
296,574	800,000	-0,062	0,119
297,589	70,834	-0,181	-0,129
298,603	617,785	-0,085	-0,148
299,618	11,933	-0,206	-0,109
300,633	-139,848	-0,199	0,014
301,647	17,509	-0,158	-0,087
302,662	-91,089	-0,111	0,022
303,676	737,654	-0,049	-0,091
304,691	-114,236	-0,057	-0,008
305,706	306,781	-0,093	-0,120
306,720	-200,000	-0,045	-0,200
307,735	-200,000	-0,002	-0,084
308,749	-200,000	0,018	-0,140
309,764	-11,926	-0,202	-0,091
310,779	-107,483	-0,142	-0,021
311,793	274,093	-0,167	-0,204
312,808	322,680	-0,155	-0,204
313,822	7,892	-0,148	-0,076
314,837	-127,243	-0,069	-0,007
315,852	176,142	-0,104	-0,104
316,866	494,024	-0,068	-0,108
317,881	119,593	-0,140	-0,119
318,895	452,962	-0,099	-0,151
319,910	159,276	-0,263	-0,252
320,925	529,994	-0,124	-0,202
321,939	-200,000	-0,006	-0,264
322,954	-144,288	-0,098	-0,006
323,968	-200,000	-0,001	0,119
324,983	-0,033	-0,134	-0,065
325,997	-150,660	0,012	0,001
327,012	68,393	-0,063	-0,044
328,027	351,941	-0,117	-0,160
329,041	132,363	-0,244	-0,216
330,056	-200,000	0,003	-0,112
331,070	724,506	-0,083	-0,154
332,085	-200,000	-0,041	-0,143
333,100	-36,691	-0,129	-0,047
334,114	443,100	-0,079	-0,119
335,129	21,660	-0,247	-0,138
336,143	-10,878	-0,111	-0,050
337,158	166,709	-0,183	-0,178
338,173	110,741	-0,199	-0,165
339,187	-75,667	-0,183	-0,044
340,202	-79,837	-0,075	0,017
341,216	800,000	-0,070	-0,134
342,231	-24,863	-0,318	-0,129
343,246	-95,789	-0,143	0,026
344,260	-43,247	-0,098	-0,034
345,275	-200,000	-0,051	-0,195
346,289	-162,401	-0,181	-0,006
347,304	421,756	-0,118	-0,175
348,319	311,603	-0,185	-0,239
349,333	94,849	-0,275	-0,215
350,348	-96,941	-0,181	0,032
351,362	-97,420	-0,193	-0,034
352,377	151,016	-0,140	-0,131
353,392	-15,128	-0,131	-0,058
354,406	484,499	-0,071	-0,112
355,421	209,973	1311,702	1416,458
356,435	161,629	1472,080	1416,984
