DTS Sentinel unit serial number:	SN410029Multiplexer serial number:	ORYXHardware model number:	OX2-SRSoftware version number:	ORYX F/W v4,00 Oryx Data Collector v3.7.2.0data status	okinstallation	B3 Nyhavnadifferential loss correction	single-endedforward channel	channel 1reverse channel	N/Adate	2023/11/30time	07:27:30forward acquisition time	300,00reverse acquisition time	0,00gamma	499,1914k internal	0,3210k external	0,3210temperature offset calibration	1,0000default loss term (dB/km)	0,3820temperature slope calibration	1,0000multiplexer offset coefficient	1,0000multiplexer slope coefficient	1,0000fibre end	0,00T internal ref (°C)	10,00T ext. ref 1 (°C)	-5,74T ext. ref 2 (°C)	-5,84length (m)	temperature (°C)	Stokes	anti-Stokes-744,400	300,744	-0,235	-0,315
-743,385	-200,000	0,046	0,308
-742,371	800,000	-0,122	-0,250
-741,356	-200,000	0,051	0,404
-740,342	308,457	-0,156	-0,211
-739,327	-200,000	0,012	0,273
-738,312	133,148	-0,211	-0,198
-737,298	-200,000	0,005	0,320
-736,283	268,196	-0,134	-0,171
-735,269	-200,000	0,007	0,300
-734,254	85,734	-0,115	-0,092
-733,239	502,273	-0,092	0,155
-732,225	189,085	-0,122	-0,133
-731,210	142,439	0,128	0,123
-730,196	-200,000	-0,003	-0,122
-729,181	26,494	-0,060	0,037
-728,167	113,374	-0,095	-0,083
-727,152	-200,000	-0,015	-0,052
-726,137	73,178	-0,055	0,042
-725,123	3,870	0,162	-0,086
-724,108	800,000	0,041	-0,129
-723,094	-122,981	-0,190	-0,022
-722,079	800,000	-0,043	-0,090
-721,064	408,780	-0,118	-0,182
-720,050	-146,281	-0,160	-0,010
-719,035	13,592	-0,105	-0,059
-718,021	-200,000	-0,009	0,098
-717,006	-49,140	-0,133	-0,046
-715,991	91,343	-0,109	-0,089
-714,977	0,353	0,162	-0,084
-713,962	800,000	0,035	-0,076
-712,948	130,433	-0,065	0,060
-711,933	70,085	0,124	-0,092
-710,918	316,713	0,015	-0,020
-709,904	236,097	-0,035	-0,043
-708,889	257,822	-0,038	-0,047
-707,875	-88,719	-0,124	0,026
-706,860	-108,258	0,154	-0,024
-705,845	-161,660	0,035	-0,001
-704,831	7,603	0,063	-0,034
-703,816	-115,939	-0,096	0,013
-702,802	582,568	-0,018	-0,032
-701,787	800,000	-0,037	-0,108
-700,772	-27,973	-0,085	-0,035
-699,758	323,015	-0,036	-0,050
-698,743	-104,741	0,064	-0,011
-697,729	12,863	-0,040	0,022
-696,714	-88,824	0,158	-0,034
-695,699	73,795	0,012	-0,009
-694,685	69,184	0,142	-0,105
-693,670	351,481	0,039	-0,055
-692,656	800,000	-0,018	-0,053
-691,641	-128,236	-0,078	0,008
-690,627	474,319	-0,076	-0,124
-689,612	-147,489	-0,037	-0,002
-688,597	356,894	0,034	0,049
-687,583	-111,213	-0,177	-0,026
-686,568	-200,000	0,008	-0,090
-685,554	10,878	-0,029	-0,016
-684,539	-200,000	0,002	-0,139
-683,524	-92,472	0,100	0,020
-682,510	-63,550	-0,016	-0,005
-681,495	193,654	-0,048	-0,052
-680,481	-41,606	-0,113	-0,042
-679,466	800,000	-0,004	0,012
-678,451	-63,342	-0,101	-0,030
-677,437	-200,000	-0,023	0,129
-676,422	21,075	-0,020	0,012
-675,408	-167,224	0,042	0,001
-674,393	375,180	-0,037	0,055
-673,378	123,512	0,078	-0,071
-672,364	-200,000	-0,004	0,036
-671,349	-36,958	-0,090	0,035
-670,335	345,870	-0,042	-0,060
-669,320	145,672	0,129	0,125
-668,305	86,222	0,034	0,027
-667,291	-117,146	-0,099	0,013
-666,276	182,561	-0,056	-0,060
-665,262	800,000	0,041	-0,109
-664,247	-64,350	-0,045	0,013
-663,232	800,000	0,051	-0,110
-662,218	301,623	0,065	0,087
-661,203	-70,414	-0,101	0,028
-660,189	128,585	0,041	0,038
-659,174	-200,000	0,000	0,042
-658,159	203,699	-0,075	-0,085
-657,145	-200,000	-0,011	-0,100
-656,130	800,000	-0,046	-0,130
-655,116	800,000	-0,004	-0,009
-654,101	357,207	0,061	0,088
-653,086	-91,210	0,074	-0,015
-652,072	800,000	-0,048	0,143
-651,057	75,154	-0,023	-0,018
-650,043	800,000	0,030	-0,089
-649,028	280,827	0,063	-0,081
-648,014	-68,046	-0,065	0,018
-646,999	-200,000	-0,010	-0,056
-645,984	176,059	-0,063	-0,066
-644,970	-200,000	-0,030	-0,118
-643,955	-9,219	-0,185	-0,089
-642,941	521,933	-0,093	-0,159
-641,926	655,256	-0,056	-0,105
-640,911	-200,000	-0,040	-0,139
-639,897	800,000	-0,023	-0,063
-638,882	-200,000	0,017	-0,058
-637,868	299,610	-0,031	-0,041
-636,853	-162,188	0,065	0,002
-635,838	-124,223	-0,098	-0,011
-634,824	-200,000	-0,001	-0,063
-633,809	-135,654	0,062	0,005
-632,795	86,358	0,073	0,058
-631,780	-60,828	-0,090	0,027
-630,765	-56,974	0,062	-0,020
-629,751	4,880	-0,089	0,047
-628,736	42,636	-0,115	-0,076
-627,722	637,085	0,047	-0,087
-626,707	413,444	-0,033	-0,051
-625,692	-200,000	-0,050	0,205
-624,678	295,703	-0,071	0,094
-623,663	10,944	0,146	-0,080
-622,649	454,118	-0,043	-0,069
-621,634	217,133	0,049	0,057
-620,619	800,000	0,042	-0,133
-619,605	-51,999	-0,041	-0,014
-618,590	-45,671	0,129	0,046
-617,576	22,519	0,082	0,048
-616,561	20,221	-0,017	-0,010
-615,546	229,942	0,067	-0,080
-614,532	-179,908	-0,152	0,002
-613,517	-200,000	-0,019	0,089
-612,503	-120,406	-0,139	-0,017
-611,488	128,365	-0,073	0,067
-610,474	209,365	-0,035	0,040
-609,459	273,621	-0,025	-0,032
-608,444	493,660	0,024	-0,040
-607,430	-127,939	-0,197	0,020
-606,415	-80,801	0,061	-0,014
-605,401	43,088	0,046	0,030
-604,386	366,160	-0,033	-0,048
-603,371	54,827	-0,095	-0,066
-602,357	-21,261	0,045	0,020
-601,342	-65,905	-0,042	-0,012
-600,328	800,000	-0,024	-0,057
-599,313	-200,000	0,018	0,110
-598,298	-200,000	-0,027	-0,094
-597,284	-161,542	-0,085	-0,003
-596,269	-93,605	0,081	0,016
-595,255	-200,000	0,000	0,013
-594,240	800,000	-0,062	0,128
-593,225	234,326	-0,038	0,045
-592,211	217,216	-0,085	-0,098
-591,196	-59,547	-0,112	0,034
-590,182	108,392	0,085	0,073
-589,167	800,000	-0,038	0,103
-588,152	160,856	-0,116	0,117
-587,138	478,323	-0,056	-0,092
-586,123	800,000	-0,061	-0,139
-585,109	800,000	-0,081	-0,232
-584,094	-200,000	0,000	-0,026
-583,079	-200,000	0,004	-0,087
-582,065	-41,025	0,039	-0,015
-581,050	-185,721	0,015	0,000
-580,036	70,750	0,047	0,035
-579,021	-42,750	-0,115	0,042
-578,006	800,000	-0,042	0,132
-576,992	-85,351	0,103	-0,023
-575,977	764,453	-0,048	0,095
-574,963	105,821	0,056	0,048
-573,948	-97,349	0,014	-0,003
-572,934	-200,000	0,026	-0,082
-571,919	-2,718	-0,083	0,042
-570,904	-200,000	-0,017	-0,065
-569,890	339,177	0,015	-0,021
-568,875	-200,000	0,006	-0,032
-567,861	85,196	0,082	-0,065
-566,846	42,639	0,033	-0,022
-565,831	-103,667	-0,042	0,007
-564,817	-34,126	-0,074	0,029
-563,802	9,364	-0,068	0,037
-562,788	-44,461	0,044	0,016
-561,773	-38,808	0,066	0,025
-560,758	181,453	-0,034	0,036
-559,744	-88,365	-0,050	0,011
-558,729	150,544	0,106	0,103
-557,715	258,427	0,004	0,005
-556,700	57,094	-0,057	0,040
-555,685	-139,354	-0,059	-0,005
-554,671	-200,000	0,006	-0,118
-553,656	-200,000	0,011	-0,059
-552,642	-90,375	-0,048	0,010
-551,627	133,852	-0,079	-0,073
-550,612	-175,569	-0,121	0,002
-549,598	-200,000	0,007	-0,090
-548,583	-200,000	-0,011	-0,060
-547,569	800,000	-0,044	0,139
-546,554	388,277	-0,033	0,049
-545,539	231,360	-0,045	0,053
-544,525	-106,073	0,075	-0,012
-543,510	526,673	-0,069	-0,117
-542,496	689,930	0,018	-0,035
-541,481	-108,962	-0,190	-0,029
-540,466	-181,102	0,219	0,003
-539,452	96,582	0,107	0,088
-538,437	800,000	-0,055	-0,137
-537,423	-43,238	-0,083	0,030
-536,408	9,901	-0,004	0,002
-535,393	66,328	0,026	-0,019
-534,379	7,623	-0,101	-0,054
-533,364	-103,515	-0,104	-0,017
-532,350	177,754	0,078	0,082
-531,335	-51,742	0,097	-0,032
-530,321	8,326	0,066	-0,036
-529,306	2,894	-0,106	0,055
-528,291	-97,003	-0,081	0,015
-527,277	-200,000	0,017	0,145
-526,262	-69,795	-0,099	0,027
-525,248	-23,972	0,033	0,014
-524,233	-84,934	0,093	0,021
-523,218	-55,112	-0,052	-0,017
-522,204	-200,000	0,006	-0,131
-521,189	-200,000	0,014	0,064
-520,175	-119,252	-0,061	-0,008
-519,160	44,259	-0,074	0,049
-518,145	-67,292	0,051	-0,014
-517,131	226,748	-0,044	0,052
-516,116	-200,000	0,006	-0,049
-515,102	518,284	0,026	-0,044
-514,087	146,612	0,054	-0,052
-513,072	-200,000	0,010	-0,134
-512,058	-200,000	0,015	0,058
-511,043	2,360	-0,034	-0,017
-510,029	232,432	0,061	-0,072
-509,014	153,652	0,076	0,075
-507,999	51,645	0,083	-0,057
-506,985	30,331	0,084	-0,052
-505,970	-46,272	0,054	0,019
-504,956	-42,717	-0,115	-0,042
-503,941	-200,000	-0,007	-0,063
-502,926	3,836	0,053	-0,028
-501,912	-200,000	0,006	0,130
-500,897	487,877	0,065	0,107
-499,883	800,000	0,073	0,150
-498,868	718,994	0,027	-0,052
-497,853	-141,851	0,126	0,009
-496,839	-152,967	0,101	-0,005
-495,824	-200,000	0,001	0,111
-494,810	-200,000	-0,006	0,098
-493,795	-9,901	0,058	0,027
-492,781	-200,000	0,027	0,096
-491,766	-200,000	-0,024	0,083
-490,751	-200,000	0,038	-0,159
-489,737	161,492	-0,079	0,080
-488,722	-79,083	-0,072	0,018
-487,708	-130,544	0,030	0,003
-486,693	58,969	-0,044	0,031
-485,678	196,619	-0,070	0,077
-484,664	-117,107	-0,068	0,009
-483,649	-128,791	0,173	0,017
-482,635	800,000	0,026	0,060
-481,620	718,244	0,050	0,096
-480,605	-29,004	-0,037	-0,015
-479,591	-200,000	-0,006	0,079
-478,576	72,603	-0,020	-0,015
-477,562	-52,328	0,039	0,013
-476,547	-41,571	-0,159	0,058
-475,532	-46,059	-0,026	-0,009
-474,518	-200,000	0,005	-0,059
-473,503	-200,000	0,055	0,183
-472,489	-41,843	0,161	0,059
-471,474	-200,000	0,004	0,095
-470,459	-200,000	-0,055	-0,177
-469,445	711,348	0,017	-0,032
-468,430	202,941	-0,032	0,036
-467,416	43,419	0,033	-0,022
-466,401	-36,171	0,079	0,030
-465,386	51,260	-0,067	-0,046
-464,372	-200,000	0,008	0,169
-463,357	-200,000	0,015	0,087
-462,343	-50,406	0,036	-0,012
-461,328	800,000	0,064	-0,143
-460,313	62,457	-0,047	0,034
-459,299	578,770	0,047	0,084
-458,284	-142,684	0,054	-0,004
-457,270	497,101	-0,110	0,182
-456,255	21,263	-0,046	-0,027
-455,241	91,783	-0,091	0,073
-454,226	-200,000	0,017	-0,074
-453,211	-60,322	0,067	-0,020
-452,197	-47,037	-0,081	-0,028
-451,182	-200,000	-0,001	-0,077
-450,168	-200,000	-0,011	0,043
-449,153	305,234	-0,082	-0,110
-448,138	-200,000	0,002	0,022
-447,124	330,590	-0,093	-0,129
-446,109	-23,485	0,063	-0,027
-445,095	-29,268	0,047	-0,019
-444,080	-75,148	0,058	-0,015
-443,065	101,816	-0,068	-0,057
-442,051	108,412	-0,064	-0,055
-441,036	66,401	-0,108	-0,079
-440,022	3,278	-0,134	-0,069
-439,007	800,000	0,030	0,075
-437,992	-200,000	-0,002	0,063
-436,978	15,990	0,176	0,099
-435,963	-200,000	-0,007	0,121
-434,949	-15,882	-0,077	0,035
-433,934	534,201	-0,050	0,085
-432,919	431,363	-0,027	0,043
-431,905	-200,000	0,030	-0,109
-430,890	-133,324	-0,045	0,004
-429,876	800,000	-0,050	0,125
-428,861	25,398	0,122	0,072
-427,846	-200,000	-0,003	-0,082
-426,832	-36,139	0,087	0,033
-425,817	-109,420	-0,066	0,010
-424,803	499,649	-0,052	-0,085
-423,788	-35,098	0,070	-0,027
-422,773	48,359	-0,030	0,020
-421,759	-65,500	0,155	-0,044
-420,744	23,279	0,079	0,046
-419,730	800,000	0,019	-0,057
-418,715	800,000	-0,022	-0,053
-417,701	136,311	0,066	-0,061
-416,686	7,018	-0,075	-0,040
-415,671	-96,854	0,106	0,020
-414,657	402,787	-0,039	-0,058
-413,642	-200,000	-0,014	0,084
-412,628	426,739	-0,070	0,108
-411,613	-38,321	0,102	0,038
-410,598	785,373	0,044	-0,087
-409,584	171,439	0,120	0,124
-408,569	-200,000	0,002	0,070
-407,555	800,000	0,040	0,110
-406,540	8,378	-0,122	0,065
-405,525	136,594	0,097	-0,091
-404,511	29,006	-0,115	0,070
-403,496	199,326	0,030	-0,032
-402,482	-200,000	-0,008	0,125
-401,467	800,000	0,026	0,059
-400,452	-105,550	0,031	-0,005
-399,438	-98,016	-0,130	0,024
-398,423	331,233	0,021	0,030
-397,409	-200,000	-0,008	-0,046
-396,394	800,000	-0,075	-0,160
-395,379	-200,000	0,017	-0,119
-394,365	-200,000	-0,013	0,096
-393,350	-200,000	0,009	-0,066
-392,336	-200,000	-0,023	0,139
-391,321	107,010	0,020	0,017
-390,306	411,254	0,082	0,125
-389,292	-200,000	0,019	0,120
-388,277	16,750	-0,088	-0,050
-387,263	-158,917	0,062	-0,002
-386,248	83,930	0,004	-0,003
-385,233	-74,243	0,065	0,017
-384,219	259,419	-0,088	-0,108
-383,204	800,000	-0,070	-0,142
-382,190	643,571	0,050	-0,092
-381,175	-0,429	0,067	-0,034
-380,160	388,022	0,034	-0,050
-379,146	101,577	0,101	0,084
-378,131	56,748	-0,018	-0,013
-377,117	-138,932	-0,091	0,007
-376,102	581,286	0,027	0,048
-375,088	257,898	-0,028	-0,035
-374,073	19,444	0,117	-0,067
-373,058	129,143	0,074	-0,068
-372,044	-200,000	0,017	0,086
-371,029	-48,407	0,180	0,062
-370,015	-200,000	-0,022	0,151
-369,000	214,196	0,022	-0,025
-367,985	155,175	0,145	-0,143
-366,971	330,761	-0,054	0,075
-365,956	-14,560	0,082	0,038
-364,942	417,148	-0,038	0,059
-363,927	111,396	0,057	0,049
-362,912	-200,000	0,024	0,122
-361,898	-32,571	0,001	-0,000
-360,883	-66,549	0,138	-0,039
-359,869	-200,000	0,005	-0,080
-358,854	433,660	0,036	0,057
-357,839	-200,000	0,001	0,006
-356,825	437,512	-0,104	0,162
-355,810	-200,000	-0,045	0,181
-354,796	100,200	-0,036	-0,030
-353,781	23,017	-0,005	-0,003
-352,766	181,699	-0,083	0,087
-351,752	394,498	0,018	0,027
-350,737	-200,000	0,004	0,054
-349,723	465,885	0,053	-0,085
-348,708	369,933	-0,034	0,049
-347,693	-72,111	0,040	0,010
-346,679	-200,000	0,002	-0,068
-345,664	-109,434	-0,100	0,015
-344,650	265,381	0,066	-0,082
-343,635	130,863	0,165	-0,151
-342,620	90,399	-0,064	0,051
-341,606	518,399	0,048	-0,080
-340,591	800,000	-0,025	-0,067
-339,577	13,307	0,060	-0,033
-338,562	16,146	-0,044	-0,025
-337,548	-50,484	0,029	-0,010
-336,533	247,064	0,052	-0,062
-335,518	344,259	0,079	0,111
-334,504	51,010	-0,022	0,015
-333,489	-63,090	-0,137	-0,040
-332,475	-64,872	0,089	0,026
-331,460	2,990	0,021	0,011
-330,445	-200,000	0,002	-0,049
-329,431	508,708	-0,026	-0,044
-328,416	800,000	-0,029	-0,089
-327,402	-200,000	-0,005	0,110
-326,387	-200,000	0,021	0,169
-325,372	727,375	0,045	-0,086
-324,358	-200,000	0,002	-0,094
-323,343	294,764	-0,130	-0,170
-322,329	212,799	0,068	0,077
-321,314	-30,683	-0,065	-0,026
-320,299	-83,352	0,132	-0,030
-319,285	103,935	0,086	0,072
-318,270	182,025	0,052	-0,055
-317,256	800,000	0,040	-0,121
-316,241	56,604	-0,056	-0,039
-315,226	-97,487	-0,129	-0,024
-314,212	529,832	0,069	0,117
-313,197	-200,000	0,004	0,083
-312,183	65,184	-0,032	0,023
-311,168	-168,622	0,031	-0,001
-310,153	87,715	-0,014	-0,011
-309,139	-200,000	-0,015	-0,077
-308,124	800,000	0,078	-0,242
-307,110	179,581	0,070	0,073
-306,095	800,000	0,041	0,097
-305,080	314,384	0,037	0,049
-304,066	68,506	0,083	0,061
-303,051	17,125	-0,117	-0,066
-302,037	267,983	0,026	-0,033
-301,022	205,028	-0,036	-0,040
-300,008	31,677	0,051	0,031
-298,993	-105,564	0,062	0,010
-297,978	5,531	0,148	0,078
-296,964	52,755	-0,039	-0,026
-295,949	96,837	-0,053	-0,043
-294,935	800,000	0,017	0,040
-293,920	-62,244	0,100	0,029
-292,905	46,514	0,034	-0,022
-291,891	-200,000	0,042	0,167
-290,876	88,529	0,046	0,036
-289,862	499,073	0,072	0,119
-288,847	59,021	-0,108	-0,076
-287,832	-168,862	-0,040	-0,001
-286,818	-200,000	-0,008	-0,097
-285,803	77,275	-0,038	-0,029
-284,789	81,108	0,028	0,022
-283,774	104,273	0,053	0,044
-282,759	-160,557	-0,045	-0,002
-281,745	72,783	-0,077	-0,057
-280,730	-61,798	-0,154	-0,046
-279,716	571,934	0,054	-0,095
-278,701	800,000	-0,016	0,034
-277,686	-200,000	0,020	0,126
-276,672	-32,182	0,020	0,008
-275,657	-123,646	-0,116	0,013
-274,643	-200,000	-0,008	-0,123
-273,628	105,306	0,054	-0,045
-272,613	-30,915	0,156	0,063
-271,599	-200,000	-0,012	0,135
-270,584	456,698	0,034	-0,054
-269,570	800,000	0,003	0,007
-268,555	-97,091	0,030	-0,006
-267,540	124,834	0,049	-0,044
-266,526	-200,000	0,014	-0,069
-265,511	-200,000	0,005	-0,025
-264,497	516,403	-0,010	-0,016
-263,482	481,731	0,039	0,063
-262,467	136,568	-0,131	0,122
-261,453	158,164	-0,064	-0,064
-260,438	577,527	0,041	0,072
-259,424	-115,069	-0,060	-0,008
-258,409	285,427	0,053	-0,068
-257,395	89,273	0,032	0,025
-256,380	542,455	-0,045	0,076
-255,365	119,851	0,124	0,109
-254,351	27,257	0,046	0,028
-253,336	34,771	-0,128	0,079
-252,322	-64,997	-0,116	0,033
-251,307	153,496	0,111	-0,109
-250,292	31,360	0,198	-0,121
-249,278	-200,000	-0,002	-0,022
-248,263	64,111	0,061	0,044
-247,249	224,246	0,060	0,069
-246,234	800,000	0,057	0,149
-245,219	-66,947	0,049	-0,014
-244,205	-9,047	0,062	-0,029
-243,190	-96,850	0,015	0,003
-242,176	-167,787	0,088	0,002
-241,161	125,657	0,088	-0,079
-240,146	800,000	-0,025	0,072
-239,132	-200,000	-0,015	-0,063
-238,117	800,000	0,019	-0,041
-237,103	-200,000	0,018	-0,105
-236,088	800,000	-0,025	-0,052
-235,073	-115,439	0,092	0,012
-234,059	349,341	0,058	0,081
-233,044	221,558	-0,037	0,042
-232,030	7,233	-0,077	0,041
-231,015	-192,519	-0,122	0,001
-230,000	483,437	0,022	-0,035
-228,986	-7,695	-0,065	-0,031
-227,971	800,000	0,044	0,135
-226,957	-107,452	0,128	-0,020
-225,942	-86,633	-0,057	-0,012
-224,927	470,708	0,067	0,108
-223,913	727,195	-0,029	-0,055
-222,898	-87,990	-0,185	0,039
-221,884	566,534	-0,043	0,075
-220,869	122,069	0,043	0,038
-219,855	45,551	0,033	0,021
-218,840	-150,263	-0,115	0,006
-217,825	800,000	-0,070	-0,149
-216,811	206,123	0,009	0,009
-215,796	227,226	-0,008	0,009
-214,782	-200,000	-0,007	-0,182
-213,767	-9,106	-0,089	-0,042
-212,752	246,933	-0,068	0,082
-211,738	220,270	-0,025	0,029
-210,723	516,896	-0,037	-0,063
-209,709	426,685	-0,048	-0,074
-208,694	-200,000	-0,012	-0,175
-207,679	-51,700	-0,050	-0,016
-206,665	144,665	-0,006	0,006
-205,650	-93,917	-0,104	0,020
-204,636	141,101	-0,072	-0,068
-203,621	800,000	0,068	0,150
-202,606	-67,990	-0,037	0,010
-201,592	800,000	-0,022	-0,069
-200,577	188,613	-0,021	0,022
-199,563	549,147	0,033	-0,057
-198,548	-29,796	0,106	0,043
-197,533	77,334	0,078	0,059
-196,519	168,075	-0,074	-0,075
-195,504	-200,000	0,010	-0,090
-194,490	334,873	-0,127	-0,175
-193,475	800,000	0,003	0,008
-192,460	800,000	-0,011	-0,024
-191,446	-200,000	0,010	-0,042
-190,431	126,315	-0,013	0,011
-189,417	401,194	0,051	-0,076
-188,402	67,924	-0,103	0,075
-187,387	5,418	-0,080	-0,042
-186,373	-89,845	-0,109	-0,022
-185,358	-177,114	-0,060	-0,001
-184,344	13,525	0,158	0,087
-183,329	41,215	-0,097	0,062
-182,315	-58,347	0,047	0,014
-181,300	-200,000	0,009	-0,037
-180,285	-200,000	0,000	-0,052
-179,271	477,482	0,072	-0,115
-178,256	-11,110	-0,082	0,038
-177,242	543,915	-0,006	0,010
-176,227	415,519	0,074	0,112
-175,212	-83,188	-0,036	0,008
-174,198	-200,000	-0,011	-0,078
-173,183	-200,000	0,012	-0,051
-172,169	17,775	0,049	0,027
-171,154	307,783	0,084	0,111
-170,139	-90,650	0,083	-0,017
-169,125	15,242	-0,009	-0,005
-168,110	136,905	0,066	0,061
-167,096	187,890	0,041	0,044
-166,081	-147,880	-0,187	-0,011
-165,066	-187,145	0,051	0,000
-164,052	32,329	0,044	0,027
-163,037	800,000	-0,008	-0,018
-162,023	-200,000	-0,010	0,138
-161,008	32,532	0,168	0,102
-159,993	299,339	-0,113	-0,147
-158,979	-200,000	-0,015	-0,206
-157,964	-200,000	0,001	-0,100
-156,950	335,620	0,049	-0,067
-155,935	506,058	-0,055	0,091
-154,920	800,000	0,016	-0,049
-153,906	158,748	-0,050	0,049
-152,891	-8,010	0,164	0,078
-151,877	30,130	-0,130	0,078
-150,862	29,560	-0,119	0,072
-149,847	190,515	0,086	0,092
-148,833	-200,000	0,018	-0,113
-147,818	-90,902	0,100	-0,020
-146,804	255,017	0,054	-0,066
-145,789	-75,857	-0,095	-0,024
-144,775	-3,973	-0,065	-0,032
-143,760	800,000	0,026	-0,056
-142,745	128,968	-0,042	-0,038
-141,731	74,754	0,110	-0,082
-140,716	65,007	0,160	0,114
-139,702	-200,000	0,002	0,147
-138,687	62,493	0,093	0,066
-137,672	-54,522	-0,115	0,037
-136,658	-22,769	0,115	-0,049
-135,643	60,209	-0,031	-0,021
-134,629	-63,941	0,051	0,015
-133,614	171,191	0,101	0,102
-132,599	547,848	0,109	0,186
-131,585	250,465	0,128	0,155
-130,570	800,000	-0,035	-0,103
-129,556	555,724	-0,056	0,096
-128,541	800,000	0,007	0,016
-127,526	800,000	-0,028	0,059
-126,512	-200,000	0,036	0,144
-125,497	-190,311	0,075	0,001
-124,483	0,287	0,071	-0,036
-123,468	-24,417	-0,044	-0,018
-122,453	-14,073	-0,063	0,029
-121,439	800,000	0,037	-0,078
-120,424	-200,000	0,011	-0,044
-119,410	-200,000	-0,015	-0,136
-118,395	-200,000	0,022	-0,120
-117,380	91,024	0,139	0,111
-116,366	-200,000	0,002	0,070
-115,351	211,673	0,031	0,035
-114,337	241,308	-0,066	0,078
-113,322	-2,702	-0,150	0,074
-112,307	100,661	0,064	0,053
-111,293	506,588	0,013	0,022
-110,278	250,813	-0,069	0,083
-109,264	-200,000	0,022	0,079
-108,249	-87,397	-0,121	-0,026
-107,234	68,430	0,059	-0,043
-106,220	-200,000	-0,013	-0,042
-105,205	-32,951	-0,012	0,005
-104,191	-63,751	0,028	-0,008
-103,176	210,515	0,152	0,169
-102,162	-137,628	-0,145	0,011
-101,147	77,223	-0,106	-0,079
-100,132	328,351	-0,087	-0,119
-99,118	-115,448	0,172	0,023
-98,103	-113,316	-0,118	-0,016
-97,089	800,000	0,071	0,161
-96,074	-56,906	-0,097	-0,030
-95,059	800,000	-0,042	-0,091
-94,045	144,349	-0,081	-0,077
-93,030	-66,876	-0,083	-0,023
-92,016	-12,006	-0,068	0,031
-91,001	-100,579	0,224	-0,039
-89,986	-157,809	0,043	0,002
-88,972	113,296	0,121	-0,104
-87,957	-87,292	0,067	-0,014
-86,943	761,098	0,038	-0,073
-85,928	178,149	0,054	-0,055
-84,913	79,329	-0,044	-0,033
-83,899	30,902	0,113	0,068
-82,884	800,000	0,038	-0,103
-81,870	-162,930	0,162	-0,005
-80,855	568,240	-0,053	0,091
-79,840	-200,000	0,002	-0,009
-78,826	195,969	-0,009	0,009
-77,811	157,745	0,057	-0,056
-76,797	-164,376	0,118	-0,004
-75,782	-21,209	0,057	-0,024
-74,767	89,369	0,105	0,083
-73,753	-200,000	0,006	-0,094
-72,738	277,579	0,076	0,095
-71,724	-58,135	0,091	-0,028
-70,709	-106,928	-0,049	-0,008
-69,694	113,395	0,099	0,085
-68,680	344,030	0,017	0,023
-67,665	-13,988	0,111	0,050
-66,651	-103,738	0,077	0,013
-65,636	17,027	0,073	0,041
-64,622	800,000	0,029	-0,070
-63,607	800,000	0,043	-0,090
-62,592	202,950	0,021	-0,023
-61,578	-200,000	-0,024	0,091
-60,563	93,944	0,143	-0,114
-59,549	188,897	-0,137	0,145
-58,534	56,852	-1,960	-1,346
-57,519	537,470	-1,212	-2,042
-56,505	-200,000	-0,396	-4,485
-55,490	800,000	0,775	1,757
-54,476	800,000	5,075	11,328
-53,461	-200,000	21,542	342,526
-52,446	800,000	761,747	2365,357
-51,432	559,002	1664,125	2846,421
-50,417	73,403	1661,293	1225,996
-49,403	17,881	1534,806	860,463
-48,388	11,849	1458,533	788,519
-47,373	19,440	1449,818	820,212
-46,359	15,373	1438,806	794,611
-45,344	10,150	1434,807	767,494
-44,330	10,059	1432,985	766,056
-43,315	10,086	1430,913	765,045
-42,300	10,074	1429,190	764,038
-41,286	10,078	1428,212	763,506
-40,271	10,031	1426,790	762,489
-39,257	10,023	1425,585	761,779
-38,242	10,055	1424,671	761,412
-37,227	10,064	1423,626	760,865
-36,213	10,074	1422,046	760,035
-35,198	10,026	1421,142	759,297
-34,184	10,149	1420,211	759,349
-33,169	10,067	1418,690	758,122
-32,154	10,105	1417,769	757,777
-31,140	10,128	1416,397	757,123
-30,125	10,111	1415,410	756,483
-29,111	10,078	1414,232	755,671
-28,096	10,124	1412,798	755,089
-27,082	9,988	1412,055	754,026
-26,067	10,029	1410,743	753,486
-25,052	10,079	1409,624	753,090
-24,038	10,043	1408,835	752,474
-23,023	10,026	1407,881	751,851
-22,009	10,089	1406,710	751,491
-20,994	10,027	1405,733	750,653
-19,979	10,000	1405,012	750,109
-18,965	9,982	1404,072	749,493
-17,950	9,991	1403,188	749,037
-16,936	10,002	1402,258	748,561
-15,921	9,882	1401,395	747,513
-14,906	9,929	1400,408	747,176
-13,892	9,986	1399,157	746,740
-12,877	9,967	1398,482	746,266
-11,863	9,923	1397,973	745,760
-10,848	9,912	1396,800	745,052
-9,833	9,900	1395,848	744,456
-8,819	9,840	1395,173	743,792
-7,804	9,834	1394,329	743,285
-6,790	9,927	1393,015	742,982
-5,775	9,893	1392,036	742,276
-4,760	9,886	1390,947	741,633
-3,746	9,863	1390,098	741,046
-2,731	9,853	1389,355	740,572
-1,717	9,827	1388,482	739,958
-0,702	9,850	1386,597	739,029
0,313	13,937	1299,493	711,291
1,327	30,322	689,600	414,576
2,342	47,111	119,274	78,156
3,356	0,214	16,533	8,291
4,371	16,402	3,530	1,960
5,386	67,740	0,889	0,640
6,400	-200,000	0,076	0,500
7,415	8,484	-0,278	-0,147
8,429	-7,328	-0,292	-0,139
9,444	154,223	-0,308	-0,298
10,459	-54,409	-0,250	-0,079
11,473	46,088	-0,154	-0,100
12,488	-50,465	-0,320	-0,106
13,502	169,841	-0,228	-0,230
14,517	19,274	-0,290	-0,163
15,531	-22,834	-0,471	-0,199
16,546	800,000	-0,127	-0,320
17,561	-55,570	-0,325	-0,102
18,575	-136,118	-0,208	-0,017
19,590	131,148	-0,185	-0,168
20,604	-141,107	-0,192	0,014
21,619	8,162	-0,463	-0,244
22,634	195,671	-0,428	-0,459
23,648	1,743	-0,421	-0,213
24,663	66,873	-0,356	-0,255
25,677	66,307	-0,309	-0,220
26,692	-55,579	-0,236	-0,074
27,707	-14,335	-0,415	-0,187
28,721	142,309	-0,381	-0,356
29,736	17,139	-0,457	-0,255
30,750	40,235	-0,391	-0,247
31,765	202,426	-0,314	-0,341
32,780	214,538	-0,325	-0,363
33,794	5,865	-0,319	-0,165
34,809	146,905	-0,316	-0,299
35,823	50,348	-0,358	-0,238
36,838	161,562	-0,399	-0,393
37,853	99,668	-0,437	-0,356
38,867	66,732	-0,454	-0,325
39,882	98,456	-0,280	-0,227
40,896	140,774	-0,232	-0,215
41,911	-6,295	-0,238	-0,114
42,926	15,213	-0,471	-0,259
43,940	97,439	-0,364	-0,294
44,955	12,696	-0,430	-0,233
45,969	124,729	-0,396	-0,351
46,984	120,043	-0,306	-0,267
47,999	311,949	-0,305	-0,403
49,013	-53,799	-0,356	-0,113
50,028	10,825	-0,415	-0,222
51,042	106,774	-0,355	-0,296
52,057	117,181	-0,409	-0,353
53,071	-57,581	-0,360	-0,110
54,086	334,725	-0,219	-0,299
55,101	526,488	-0,216	-0,359
56,115	42,332	-0,290	-0,185
57,130	76,767	-0,357	-0,266
58,144	-47,250	-0,283	-0,096
59,159	225,206	-0,344	-0,391
60,174	74,611	-0,367	-0,271
61,188	266,281	-0,248	-0,304
62,203	82,335	-0,267	-0,203
63,217	-49,375	-0,278	-0,092
64,232	163,746	-0,234	-0,232
65,247	92,724	-0,370	-0,293
66,261	43,387	-0,401	-0,256
67,276	15,830	-0,326	-0,179
68,290	48,107	-0,327	-0,214
69,305	594,506	-0,150	-0,261
70,320	4,110	-0,412	-0,211
71,334	37,050	-0,311	-0,193
72,349	81,867	-0,318	-0,241
73,363	183,491	-0,267	-0,277
74,378	171,193	-0,206	-0,208
75,393	52,176	-0,336	-0,224
76,407	-77,961	-0,352	-0,085
77,422	51,505	-0,215	-0,143
78,436	-149,473	-0,307	0,017
79,451	40,821	-0,308	-0,194
80,466	-52,276	-0,333	-0,108
81,480	56,354	-0,309	-0,210
82,495	185,049	-0,235	-0,245
83,509	165,632	-0,236	-0,234
84,524	113,616	-0,261	-0,222
85,539	243,114	-0,268	-0,315
86,553	-116,648	-0,274	0,035
87,568	133,685	-0,227	-0,206
88,582	319,391	-0,217	-0,289
89,597	128,453	-0,171	-0,153
90,611	106,485	-0,251	-0,208
91,626	433,524	-0,172	-0,262
92,641	585,736	-0,141	-0,243
93,655	54,992	-0,156	-0,106
94,670	15,757	-0,362	-0,198
95,684	161,831	-0,317	-0,311
96,699	280,521	-0,212	-0,266
97,714	-99,665	-0,219	-0,038
98,728	-8,975	-0,262	-0,122
99,743	-1,258	-0,295	-0,145
100,757	16,792	-0,354	-0,196
101,772	-61,479	-0,359	-0,105
102,787	147,087	-0,205	-0,193
103,801	67,455	-0,322	-0,230
104,816	3,307	-0,278	-0,141
105,830	61,769	-0,132	-0,092
106,845	7,367	-0,353	-0,184
107,860	180,991	-0,261	-0,268
108,874	-174,136	-0,182	-0,004
109,889	160,039	-0,270	-0,263
110,903	80,046	-0,214	-0,160
111,918	-122,252	-0,217	-0,024
112,933	72,773	-0,370	-0,269
113,947	240,000	-0,237	-0,276
114,962	-120,453	-0,229	0,027
115,976	118,813	-0,176	-0,152
116,991	91,991	-0,277	-0,218
118,006	28,035	-0,134	-0,079
119,020	-31,444	-0,321	-0,125
120,035	-30,759	-0,240	-0,094
121,049	265,576	-0,137	-0,168
122,064	269,812	-0,165	-0,202
123,079	104,370	-0,252	-0,207
124,093	60,920	-0,194	-0,134
125,108	86,254	-0,276	-0,212
126,122	-13,062	-0,390	-0,176
127,137	-122,021	-0,150	-0,017
128,151	-27,652	-0,178	-0,072
129,166	-34,192	-0,220	-0,084
130,181	-12,546	-0,197	-0,089
131,195	30,278	-0,212	-0,126
132,210	121,672	-0,315	-0,274
133,224	649,871	-0,075	-0,135
134,239	324,574	-0,181	-0,241
135,254	-200,000	-0,064	-0,260
136,268	555,279	-0,108	-0,181
137,283	82,718	-0,222	-0,168
138,297	-36,596	-0,307	-0,115
139,312	20,422	-0,317	-0,178
140,327	299,105	-0,219	-0,282
141,341	185,642	-0,154	-0,160
142,356	220,735	-0,098	-0,110
143,370	-49,093	-0,171	-0,057
144,385	47,895	-0,160	-0,104
145,400	300,645	-0,270	-0,348
146,414	691,679	-0,192	-0,352
147,429	104,557	-0,199	-0,163
148,443	-39,365	-0,172	-0,062
149,458	168,532	-0,153	-0,152
150,473	-18,492	-0,358	-0,155
151,487	165,610	-0,212	-0,209
152,502	19,758	-0,288	-0,161
153,516	-0,938	-0,323	-0,158
154,531	-13,132	-0,238	-0,107
155,546	99,973	-0,136	-0,110
156,560	-4,211	-0,131	-0,063
157,575	28,756	-0,178	-0,105
158,589	112,137	-0,222	-0,186
159,604	127,092	-0,290	-0,256
160,619	285,214	-0,202	-0,254
161,633	18,465	-0,308	-0,170
162,648	45,522	-0,160	-0,103
163,662	136,276	-0,178	-0,161
164,677	42,390	-0,216	-0,136
165,692	800,000	-0,080	-0,205
166,706	-36,939	-0,337	-0,125
167,721	-33,557	-0,223	-0,085
168,735	7,249	-0,256	-0,132
169,750	125,947	-0,160	-0,140
170,764	102,131	-0,182	-0,147
171,779	176,229	-0,223	-0,225
172,794	309,179	-0,165	-0,215
173,808	44,366	-0,242	-0,154
174,823	800,000	-0,145	-0,288
175,837	-21,254	-0,294	-0,124
176,852	1,445	-0,267	-0,133
177,867	-56,929	-0,215	-0,066
178,881	-10,306	-0,245	-0,112
179,896	20,732	-0,170	-0,095
180,910	23,728	-0,234	-0,134
181,925	147,534	-0,237	-0,222
182,940	-4,284	-0,250	-0,120
183,954	16,183	-0,229	-0,125
184,969	-69,532	-0,203	-0,054
185,983	122,430	-0,182	-0,158
186,998	199,729	-0,101	-0,108
188,013	41,397	-0,196	-0,123
189,027	400,931	-0,140	-0,205
190,042	-40,832	-0,333	-0,119
191,056	250,830	-0,092	-0,109
192,071	-121,702	-0,331	-0,038
193,086	-85,807	-0,095	0,020
194,100	-72,028	-0,268	-0,069
195,115	14,516	-0,214	-0,116
196,129	-63,332	-0,298	-0,085
197,144	-76,422	-0,243	-0,059
198,159	173,313	-0,306	-0,307
199,173	609,437	-0,090	-0,156
200,188	332,612	-0,163	-0,219
201,202	-200,000	-0,086	-0,265
202,217	93,374	-0,215	-0,169
203,232	-87,725	-0,342	-0,071
204,246	88,440	-0,187	-0,144
205,261	61,278	-0,219	-0,150
206,275	205,556	-0,178	-0,192
207,290	87,795	-0,237	-0,182
208,304	-54,876	-0,175	-0,054
209,319	165,807	-0,139	-0,137
210,334	215,445	-0,180	-0,199
211,348	5,013	-0,170	-0,086
212,363	-82,263	-0,075	-0,017
213,377	542,846	-0,114	-0,189
214,392	121,263	-0,176	-0,152
215,407	444,425	-0,099	-0,151
216,421	290,098	-0,126	-0,159
217,436	-46,707	-0,209	-0,070
218,450	-68,266	-0,263	-0,070
219,465	67,589	-0,146	-0,103
220,480	14,360	-0,192	-0,103
221,494	-58,078	-0,232	-0,070
222,509	-30,791	-0,217	-0,084
223,523	72,769	-0,123	-0,089
224,538	-96,814	-0,201	-0,036
225,553	76,016	-0,221	-0,162
226,567	-94,745	-0,253	0,047
227,582	35,895	-0,291	-0,177
228,596	-40,545	-0,202	0,072
229,611	18,151	-0,244	-0,134
230,626	764,588	-0,092	-0,174
231,640	-200,000	-0,032	-0,131
232,655	105,968	-0,134	-0,110
233,669	132,211	-0,214	-0,190
234,684	255,068	-0,180	-0,213
235,699	-43,458	-0,220	-0,076
236,713	-27,716	-0,098	0,039
237,728	-140,866	-0,272	0,019
238,742	55,838	-0,168	-0,112
239,757	-83,280	-0,196	-0,043
240,772	800,000	-0,094	-0,204
241,786	65,709	-0,241	-0,168
242,801	-126,242	-0,249	0,025
243,815	254,374	-0,088	-0,104
244,830	13,126	-0,172	-0,091
245,844	60,950	-0,243	-0,166
246,859	-47,015	-0,247	-0,083
247,874	-2,564	-0,328	-0,158
248,888	106,094	-0,207	-0,170
249,903	-7,379	-0,253	-0,118
250,917	-29,773	-0,131	-0,051
251,932	800,000	-0,083	-0,207
252,947	-55,330	-0,164	-0,051
253,961	18,729	-0,153	-0,084
254,976	274,562	-0,175	-0,214
255,990	46,724	-0,219	-0,140
257,005	485,014	-0,111	-0,175
258,020	-20,366	-0,074	0,031
259,034	183,555	-0,099	-0,101
260,049	-139,460	-0,209	-0,015
261,063	-200,000	-0,039	-0,144
262,078	41,269	-0,196	-0,122
263,093	105,109	-0,284	-0,231
264,107	-200,000	-0,034	-0,114
265,122	-97,547	-0,221	-0,039
266,136	-84,138	-0,242	-0,052
267,151	97,082	-0,134	-0,106
268,166	185,300	-0,135	-0,138
269,180	258,776	-0,156	-0,186
270,195	116,026	-0,162	-0,137
271,209	-55,491	-0,156	-0,048
272,224	-28,761	-0,193	-0,076
273,239	-105,583	-0,206	0,032
274,253	342,368	-0,144	-0,194
275,268	-109,143	-0,177	-0,026
276,282	39,466	-0,133	-0,082
277,297	800,000	-0,075	-0,172
278,312	25,437	-0,176	-0,101
279,326	49,311	-0,160	-0,103
280,341	-27,653	-0,224	-0,089
281,355	197,079	-0,155	-0,163
282,370	-11,498	-0,251	-0,113
283,384	150,532	-0,147	-0,138
284,399	101,378	-0,289	-0,232
285,414	477,800	-0,070	-0,109
286,428	21,163	-0,152	-0,085
287,443	356,384	-0,131	-0,179
288,457	27,923	-0,076	-0,044
289,472	800,000	-0,071	-0,156
290,487	-18,341	-0,181	-0,077
291,501	-66,519	-0,166	-0,045
292,516	25,625	-0,252	-0,144
293,530	197,340	-0,137	-0,144
294,545	426,445	-0,105	-0,157
295,560	800,000	-0,047	-0,130
296,574	137,345	0,043	0,039
297,589	18,265	-0,099	-0,054
298,603	102,392	-0,142	-0,114
299,618	800,000	-0,041	-0,091
300,633	691,906	-0,114	-0,206
301,647	800,000	0,029	-0,060
302,662	-41,858	-0,077	0,027
303,676	-59,261	-0,088	-0,026
304,691	189,494	-0,137	-0,141
305,706	-82,108	-0,165	-0,037
306,720	111,517	-0,163	-0,135
307,735	-138,091	-0,160	-0,012
308,749	-10,969	-0,127	-0,057
309,764	-77,569	-0,217	-0,051
310,779	314,381	-0,096	-0,124
311,793	800,000	-0,058	-0,140
312,808	389,714	-0,151	-0,216
313,822	33,659	-0,182	-0,108
314,837	100,447	-0,243	-0,194
315,852	264,649	-0,084	-0,101
316,866	-200,000	-0,030	-0,213
317,881	-151,942	-0,225	-0,011
318,895	-200,000	-0,030	-0,096
319,910	-117,155	-0,145	-0,018
320,925	-5,565	-0,155	-0,073
321,939	211,059	-0,202	-0,218
322,954	-53,111	-0,189	0,059
323,968	-84,469	-0,133	0,029
324,983	800,000	-0,060	-0,133
325,997	-7,334	-0,029	0,014
327,012	153,254	-0,112	-0,106
328,027	-57,717	-0,108	-0,032
329,041	-200,000	-0,027	-0,165
330,056	800,000	-0,053	-0,159
331,070	13,767	-0,138	-0,074
332,085	224,374	-0,032	0,036
333,100	630,833	-0,138	-0,240
334,114	39,234	-0,200	-0,122
335,129	800,000	-0,067	-0,145
336,143	-200,000	0,020	-0,157
337,158	33,933	-0,197	-0,117
338,173	204,846	-0,070	-0,074
339,187	140,014	-0,090	-0,081
340,202	134,606	-0,151	-0,134
341,216	-73,992	0,048	-0,012
342,231	-200,000	0,040	-0,207
343,246	114,821	-0,121	-0,101
344,260	384,759	-0,042	-0,060
345,275	180,115	-0,066	-0,066
346,289	-200,000	0,001	0,021
347,304	-80,722	-0,069	0,015
348,319	136,617	-0,146	-0,131
349,333	800,000	-0,123	-0,296
350,348	360,795	-0,081	-0,111
351,362	94,347	-0,077	-0,059
352,377	800,000	-0,074	-0,144
353,392	-65,614	-0,084	-0,023
354,406	277,490	-0,098	-0,120
355,421	206,892	1310,467	1398,535
356,435	159,132	1470,642	1399,004
