DTS Sentinel unit serial number:	SN410029Multiplexer serial number:	ORYXHardware model number:	OX2-SRSoftware version number:	ORYX F/W v4,00 Oryx Data Collector v3.7.2.0data status	okinstallation	B3 Nyhavnadifferential loss correction	single-endedforward channel	channel 1reverse channel	N/Adate	2023/11/29time	05:02:30forward acquisition time	300,00reverse acquisition time	0,00gamma	499,1914k internal	0,3211k external	0,3211temperature offset calibration	1,0000default loss term (dB/km)	0,3820temperature slope calibration	1,0000multiplexer offset coefficient	1,0000multiplexer slope coefficient	1,0000fibre end	0,00T internal ref (°C)	9,19T ext. ref 1 (°C)	-6,27T ext. ref 2 (°C)	-6,39length (m)	temperature (°C)	Stokes	anti-Stokes-744,400	645,229	-0,135	-0,251
-743,385	-200,000	0,048	0,411
-742,371	-1,395	-0,341	-0,174
-741,356	-200,000	0,060	0,340
-740,342	-200,000	0,012	-0,213
-739,327	677,608	-0,134	0,254
-738,312	246,579	-0,178	-0,218
-737,298	-200,000	0,036	0,220
-736,283	-10,546	-0,249	-0,119
-735,269	-200,000	-0,044	0,371
-734,254	-200,000	-0,022	-0,254
-733,239	172,543	-0,184	0,192
-732,225	800,000	-0,032	-0,075
-731,210	68,312	0,102	0,076
-730,196	-44,224	0,045	0,016
-729,181	800,000	-0,054	0,116
-728,167	-47,211	-0,070	0,025
-727,152	293,511	0,054	0,072
-726,137	-200,000	0,022	-0,074
-725,123	-200,000	-0,004	-0,021
-724,108	-155,149	0,113	-0,005
-723,094	120,529	0,057	-0,051
-722,079	-40,344	-0,067	0,025
-721,064	302,624	0,036	0,048
-720,050	-200,000	0,050	0,230
-719,035	-19,881	0,077	0,034
-718,021	-104,969	0,150	-0,025
-717,006	335,810	0,004	-0,005
-715,991	-17,914	-0,118	-0,053
-714,977	40,145	-0,023	0,015
-713,962	800,000	-0,043	-0,131
-712,948	-74,766	-0,089	-0,023
-711,933	-84,777	0,074	0,017
-710,918	-14,380	-0,056	-0,026
-709,904	-66,602	-0,132	0,038
-708,889	43,617	-0,056	0,037
-707,875	64,586	-0,087	-0,064
-706,860	-134,256	0,087	-0,008
-705,845	-200,000	0,007	0,047
-704,831	-87,935	-0,053	0,011
-703,816	123,805	0,047	0,043
-702,802	2,973	-0,109	-0,057
-701,787	-3,410	0,064	-0,032
-700,772	21,561	-0,153	-0,090
-699,758	-200,000	-0,012	0,088
-698,743	335,738	-0,069	0,098
-697,729	-200,000	0,021	0,084
-696,714	-200,000	0,019	0,066
-695,699	368,090	0,032	0,047
-694,685	-200,000	0,001	-0,042
-693,670	-4,644	-0,130	-0,065
-692,656	344,884	0,003	-0,004
-691,641	800,000	-0,038	-0,120
-690,627	-116,063	-0,049	0,006
-689,612	473,876	-0,078	0,128
-688,597	-6,638	0,094	0,046
-687,583	-0,069	-0,090	0,046
-686,568	119,224	-0,081	-0,073
-685,554	-139,102	-0,127	-0,010
-684,539	81,345	0,088	-0,069
-683,524	-17,296	-0,158	0,072
-682,510	-45,921	-0,063	-0,022
-681,495	-200,000	0,005	-0,061
-680,481	800,000	-0,009	-0,023
-679,466	150,870	-0,021	-0,021
-678,451	-200,000	-0,026	0,115
-677,437	202,777	0,060	0,067
-676,422	50,993	0,051	0,035
-675,408	623,347	0,015	0,028
-674,393	-144,688	-0,135	0,009
-673,378	367,975	-0,114	-0,168
-672,364	-200,000	0,005	-0,105
-671,349	-200,000	0,006	0,113
-670,335	-200,000	-0,007	0,062
-669,320	-45,723	0,144	0,051
-668,305	-200,000	-0,005	0,143
-667,291	243,421	-0,053	-0,065
-666,276	-107,225	-0,069	-0,011
-665,262	98,284	-0,138	0,115
-664,247	-86,357	-0,175	-0,039
-663,232	-108,960	0,056	-0,009
-662,218	-12,088	-0,018	0,008
-661,203	-153,903	0,086	-0,004
-660,189	-90,367	-0,073	0,015
-659,174	-83,261	-0,237	-0,055
-658,159	-128,934	-0,120	-0,012
-657,145	-38,291	-0,075	-0,029
-656,130	213,349	0,087	0,099
-655,116	-200,000	0,003	0,084
-654,101	-80,313	0,108	-0,026
-653,086	57,602	-0,130	0,091
-652,072	213,677	-0,043	0,050
-651,057	-164,415	-0,067	0,002
-650,043	-93,980	0,055	-0,011
-649,028	800,000	-0,045	0,104
-648,014	800,000	-0,029	0,063
-646,999	-200,000	0,018	0,065
-645,984	11,244	-0,065	0,036
-644,970	120,833	-0,133	-0,119
-643,955	-200,000	0,003	-0,025
-642,941	-39,302	0,065	0,025
-641,926	800,000	-0,023	-0,071
-640,911	-20,544	0,169	-0,075
-639,897	23,126	-0,092	-0,055
-638,882	-180,862	-0,105	-0,001
-637,868	-200,000	-0,014	0,053
-636,853	-200,000	0,003	-0,019
-635,838	428,241	-0,057	-0,089
-634,824	-200,000	0,011	-0,049
-633,809	-83,299	-0,041	0,009
-632,795	30,272	-0,029	-0,018
-631,780	485,413	-0,025	0,040
-630,765	-200,000	-0,001	-0,038
-629,751	-132,373	-0,089	0,008
-628,736	-200,000	0,002	-0,051
-627,722	800,000	0,067	-0,204
-626,707	800,000	-0,017	-0,038
-625,692	-200,000	0,017	0,089
-624,678	-200,000	0,037	0,123
-623,663	123,353	-0,037	0,033
-622,649	42,938	0,046	-0,030
-621,634	-200,000	0,005	0,030
-620,619	-200,000	0,014	0,061
-619,605	370,555	0,056	0,083
-618,590	-200,000	0,033	0,127
-617,576	-53,657	-0,032	-0,010
-616,561	581,535	-0,053	-0,094
-615,546	9,463	0,055	-0,030
-614,532	105,246	-0,120	-0,102
-613,517	-38,724	0,007	-0,003
-612,503	214,066	0,073	-0,083
-611,488	-200,000	-0,006	-0,033
-610,474	-200,000	-0,021	-0,097
-609,459	-200,000	-0,009	0,072
-608,444	354,264	-0,017	-0,024
-607,430	331,210	0,092	-0,128
-606,415	430,107	-0,116	0,181
-605,401	61,193	0,119	-0,085
-604,386	-200,000	-0,051	0,187
-603,371	-90,856	0,082	-0,017
-602,357	-200,000	0,013	0,060
-601,342	-54,242	0,115	0,037
-600,328	377,108	-0,020	-0,029
-599,313	129,960	-0,024	-0,022
-598,298	-200,000	0,042	-0,151
-597,284	800,000	0,064	0,161
-596,269	800,000	0,017	0,040
-595,255	-109,746	0,049	-0,007
-594,240	800,000	0,016	0,047
-593,225	57,815	0,079	-0,056
-592,211	-200,000	-0,011	0,107
-591,196	225,333	-0,050	0,059
-590,182	57,662	-0,134	0,094
-589,167	-200,000	0,046	0,189
-588,152	-200,000	-0,026	0,082
-587,138	88,163	-0,059	-0,047
-586,123	-116,798	-0,059	0,008
-585,109	84,910	-0,028	0,022
-584,094	-101,318	0,031	-0,005
-583,079	-97,969	0,052	-0,010
-582,065	-200,000	0,031	0,106
-581,050	-167,519	-0,126	0,004
-580,036	545,631	-0,024	-0,041
-579,021	-200,000	0,015	0,048
-578,006	163,831	-0,097	0,098
-576,992	-18,973	0,116	0,052
-575,977	197,730	-0,159	0,175
-574,963	-200,000	0,039	0,128
-573,948	100,494	-0,055	-0,046
-572,934	27,274	-0,108	0,065
-571,919	130,458	-0,048	-0,044
-570,904	-70,292	-0,195	-0,053
-569,890	-200,000	0,007	0,035
-568,875	469,785	0,046	-0,075
-567,861	-10,986	0,032	0,015
-566,846	-200,000	0,000	0,112
-565,831	-135,004	0,113	-0,010
-564,817	112,770	-0,145	-0,127
-563,802	-73,783	-0,076	0,020
-562,788	-200,000	0,006	0,064
-561,773	655,565	0,008	0,015
-560,758	-200,000	0,006	0,063
-559,744	56,553	0,148	0,103
-558,729	446,379	-0,081	0,128
-557,715	-200,000	0,000	0,072
-556,700	195,065	0,037	0,040
-555,685	-66,666	-0,077	-0,022
-554,671	800,000	-0,045	0,097
-553,656	-133,352	0,098	-0,009
-552,642	800,000	-0,006	-0,018
-551,627	-200,000	0,004	0,047
-550,612	-200,000	-0,001	0,088
-549,598	-200,000	-0,019	0,104
-548,583	-200,000	-0,020	-0,076
-547,569	-200,000	-0,006	-0,127
-546,554	8,683	0,062	0,033
-545,539	800,000	0,039	-0,093
-544,525	63,162	0,077	-0,056
-543,510	116,474	0,089	-0,078
-542,496	800,000	0,047	-0,119
-541,481	-200,000	-0,004	-0,103
-540,466	-200,000	0,028	0,155
-539,452	113,313	-0,065	-0,057
-538,437	-5,381	0,102	-0,050
-537,423	239,982	0,047	0,056
-536,408	241,652	0,036	0,043
-535,393	-74,598	0,119	0,031
-534,379	248,701	-0,114	0,139
-533,364	512,870	-0,052	0,088
-532,350	495,729	-0,054	0,089
-531,335	-22,514	0,068	-0,030
-530,321	-200,000	0,001	0,026
-529,306	-200,000	-0,021	-0,078
-528,291	-57,009	-0,082	0,026
-527,277	411,277	0,010	-0,015
-526,262	-121,803	-0,057	0,007
-525,248	-200,000	0,049	-0,159
-524,233	800,000	0,021	-0,050
-523,218	368,886	-0,085	0,124
-522,204	290,150	0,085	0,111
-521,189	800,000	0,045	-0,102
-520,175	-63,796	-0,033	0,010
-519,160	-200,000	0,021	0,078
-518,145	800,000	0,027	0,074
-517,131	120,988	0,019	0,017
-516,116	800,000	0,069	0,158
-515,102	508,149	-0,071	0,118
-514,087	-127,404	-0,123	0,013
-513,072	-200,000	0,008	0,083
-512,058	201,916	0,049	-0,054
-511,043	446,696	0,125	0,197
-510,029	-43,754	-0,104	-0,037
-509,014	158,398	-0,096	-0,096
-507,999	-143,410	0,147	-0,010
-506,985	-200,000	0,007	0,161
-505,970	194,152	-0,032	0,035
-504,956	1,276	-0,077	0,040
-503,941	-37,895	0,134	0,051
-502,926	449,724	-0,089	-0,141
-501,912	800,000	0,032	-0,075
-500,897	-98,184	0,141	-0,026
-499,883	54,924	0,081	0,056
-498,868	-200,000	-0,002	-0,017
-497,853	-200,000	-0,027	-0,138
-496,839	800,000	0,034	-0,079
-495,824	-62,311	0,032	-0,010
-494,810	800,000	0,032	0,091
-493,795	-9,901	-0,072	0,034
-492,781	-184,685	0,069	0,001
-491,766	-27,847	-0,103	-0,043
-490,751	-170,243	-0,044	0,001
-489,737	800,000	0,051	0,146
-488,722	-200,000	0,006	-0,048
-487,708	-200,000	0,012	0,079
-486,693	253,571	0,071	0,087
-485,678	-200,000	-0,017	0,075
-484,664	-21,588	0,087	-0,038
-483,649	392,197	0,050	-0,075
-482,635	-62,792	-0,051	0,015
-481,620	118,244	0,068	0,061
-480,605	77,939	0,052	0,040
-479,591	-43,221	-0,118	0,043
-478,576	10,102	0,030	0,016
-477,562	180,566	0,040	-0,042
-476,547	-200,000	0,012	-0,087
-475,532	-46,303	0,065	-0,023
-474,518	800,000	0,023	-0,054
-473,503	-200,000	0,016	0,129
-472,489	800,000	0,017	0,042
-471,474	-52,657	-0,069	-0,023
-470,459	178,151	0,036	-0,037
-469,445	-36,844	0,093	0,036
-468,430	-18,696	0,037	0,017
-467,416	276,338	-0,056	-0,072
-466,401	-83,652	0,047	0,011
-465,386	84,075	0,106	-0,083
-464,372	-200,000	0,031	0,106
-463,357	25,577	-0,116	0,069
-462,343	627,071	-0,027	-0,050
-461,328	-141,550	-0,129	0,009
-460,313	-200,000	-0,001	-0,054
-459,299	-200,000	-0,021	0,083
-458,284	89,093	-0,062	0,049
-457,270	-200,000	0,022	0,192
-456,255	116,288	0,040	0,035
-455,241	800,000	-0,021	-0,053
-454,226	-38,677	-0,077	-0,029
-453,211	391,668	-0,057	0,085
-452,197	-25,701	0,146	-0,062
-451,182	703,458	0,062	0,118
-450,168	-157,612	-0,154	-0,006
-449,153	-200,000	0,005	-0,021
-448,138	153,507	-0,055	-0,054
-447,124	-12,933	0,099	0,046
-446,109	-200,000	-0,012	0,047
-445,095	62,188	0,103	0,074
-444,080	262,543	0,020	-0,024
-443,065	104,276	-0,084	0,071
-442,051	800,000	0,022	-0,045
-441,036	-59,907	0,090	-0,028
-440,022	-200,000	-0,013	0,112
-439,007	248,527	-0,039	0,047
-437,992	-14,349	-0,062	-0,028
-436,978	-200,000	-0,006	-0,094
-435,963	51,393	0,118	0,080
-434,949	800,000	-0,052	-0,122
-433,934	40,158	0,138	-0,089
-432,919	-200,000	0,001	-0,238
-431,905	-200,000	0,026	-0,126
-430,890	257,917	0,090	0,112
-429,876	140,915	0,005	-0,004
-428,861	114,616	0,072	0,063
-427,846	-110,193	-0,040	-0,006
-426,832	-58,455	-0,032	0,010
-425,817	-100,530	-0,146	-0,026
-424,803	44,363	0,062	0,041
-423,788	-152,324	0,160	0,008
-422,773	6,583	-0,142	-0,076
-421,759	199,664	-0,024	-0,026
-420,744	-200,000	-0,005	-0,056
-419,730	-75,480	0,029	-0,007
-418,715	-109,825	-0,111	-0,017
-417,701	-200,000	0,005	-0,066
-416,686	527,186	-0,041	0,070
-415,671	-89,026	0,054	-0,011
-414,657	-200,000	-0,001	0,138
-413,642	-49,647	0,038	0,013
-412,628	50,252	-0,136	0,092
-411,613	-200,000	0,003	-0,065
-410,598	63,169	0,051	-0,037
-409,584	-200,000	0,027	-0,108
-408,569	-200,000	0,034	0,120
-407,555	356,393	0,073	0,105
-406,540	509,375	-0,060	-0,100
-405,525	-31,591	-0,041	0,017
-404,511	-161,043	-0,103	-0,004
-403,496	-8,407	-0,129	-0,062
-402,482	-183,767	0,037	-0,000
-401,467	-200,000	0,000	0,055
-400,452	38,762	0,128	0,081
-399,438	-200,000	0,004	0,018
-398,423	-160,322	-0,140	0,005
-397,409	-200,000	0,012	-0,054
-396,394	-200,000	0,001	-0,014
-395,379	-200,000	0,018	0,059
-394,365	-200,000	0,005	0,108
-393,350	343,423	0,024	-0,034
-392,336	-200,000	0,016	0,225
-391,321	-158,416	-0,068	-0,003
-390,306	-200,000	-0,016	-0,285
-389,292	-79,385	-0,133	-0,032
-388,277	-28,032	0,099	-0,041
-387,263	715,511	-0,034	-0,065
-386,248	-109,544	0,109	0,016
-385,233	-200,000	0,012	-0,167
-384,219	800,000	-0,034	-0,096
-383,204	149,796	-0,093	-0,090
-382,190	262,455	-0,088	-0,109
-381,175	-122,661	0,031	0,004
-380,160	-200,000	0,020	-0,073
-379,146	175,279	0,092	0,095
-378,131	7,086	0,129	-0,069
-377,117	36,978	-0,076	0,048
-376,102	-134,656	-0,121	-0,010
-375,088	-17,374	-0,098	-0,044
-374,073	145,503	0,063	-0,060
-373,058	110,510	-0,044	-0,038
-372,044	-64,998	-0,080	0,023
-371,029	691,757	0,051	-0,096
-370,015	265,539	-0,151	-0,188
-369,000	-200,000	-0,009	-0,136
-367,985	800,000	0,034	-0,105
-366,971	217,568	-0,040	-0,045
-365,956	-130,392	-0,033	-0,003
-364,942	139,335	0,006	-0,005
-363,927	-200,000	0,021	-0,088
-362,912	-66,732	-0,103	-0,029
-361,898	800,000	0,056	-0,172
-360,883	251,236	-0,034	-0,042
-359,869	566,698	-0,067	-0,117
-358,854	-6,323	-0,137	0,067
-357,839	536,088	0,032	-0,055
-356,825	298,641	-0,040	-0,053
-355,810	800,000	-0,034	-0,078
-354,796	800,000	-0,041	-0,090
-353,781	-14,871	-0,186	-0,085
-352,766	800,000	0,029	0,060
-351,752	800,000	0,024	0,069
-350,737	-200,000	-0,010	-0,031
-349,723	800,000	-0,014	0,030
-348,708	-11,052	0,054	0,025
-347,693	211,077	-0,053	-0,060
-346,679	800,000	-0,040	-0,081
-345,664	100,751	-0,132	-0,109
-344,650	563,959	-0,009	-0,015
-343,635	354,393	-0,011	-0,015
-342,620	-28,548	0,145	-0,059
-341,606	432,408	0,034	-0,053
-340,591	450,459	0,112	-0,177
-339,577	-84,822	-0,100	0,022
-338,562	-69,243	-0,088	-0,024
-337,548	-60,705	-0,159	-0,048
-336,533	-200,000	-0,006	-0,063
-335,518	-200,000	0,003	-0,065
-334,504	800,000	0,016	0,044
-333,489	116,772	0,098	-0,086
-332,475	800,000	0,022	0,046
-331,460	14,772	-0,040	0,022
-330,445	-15,084	0,059	0,027
-329,431	-99,897	0,157	-0,028
-328,416	-91,581	-0,133	-0,027
-327,402	248,411	-0,011	0,013
-326,387	-50,147	0,008	0,003
-325,372	273,037	0,077	-0,098
-324,358	520,188	-0,069	-0,116
-323,343	800,000	0,018	0,047
-322,329	-200,000	0,002	0,018
-321,314	-200,000	-0,018	-0,058
-320,299	-79,991	-0,091	0,022
-319,285	-200,000	-0,014	0,149
-318,270	-200,000	0,028	0,171
-317,256	-200,000	0,005	0,078
-316,241	-200,000	0,046	0,153
-315,226	-83,281	0,150	0,034
-314,212	2,728	0,141	0,073
-313,197	-64,207	-0,111	0,032
-312,183	-200,000	0,001	0,017
-311,168	445,821	-0,024	0,037
-310,153	-13,829	0,081	0,037
-309,139	-200,000	0,023	0,103
-308,124	-117,230	0,011	-0,001
-307,110	-182,332	0,133	0,002
-306,095	800,000	0,028	0,080
-305,080	264,536	0,107	-0,134
-304,066	70,456	0,068	0,050
-303,051	140,528	-0,089	0,084
-302,037	444,211	0,100	-0,157
-301,022	46,756	0,011	0,008
-300,008	800,000	0,028	0,066
-298,993	-52,073	0,164	0,054
-297,978	465,798	-0,059	0,095
-296,964	800,000	-0,029	-0,062
-295,949	-200,000	0,025	-0,104
-294,935	185,980	-0,095	-0,100
-293,920	-29,092	0,054	-0,022
-292,905	-72,822	0,020	-0,005
-291,891	16,277	0,072	0,040
-290,876	800,000	0,005	0,009
-289,862	-142,184	-0,075	0,005
-288,847	314,053	-0,080	-0,108
-287,832	117,296	0,029	0,025
-286,818	35,977	0,066	-0,041
-285,803	800,000	0,060	0,145
-284,789	-53,307	0,079	0,025
-283,774	628,980	-0,036	0,066
-282,759	-173,427	0,148	0,003
-281,745	102,175	-0,085	-0,070
-280,730	-83,269	-0,188	0,043
-279,716	-200,000	-0,023	-0,128
-278,701	313,407	0,057	-0,076
-277,686	-19,538	0,093	0,041
-276,672	261,803	0,012	-0,014
-275,657	44,055	-0,025	-0,016
-274,643	-200,000	-0,005	0,034
-273,628	217,028	-0,028	-0,032
-272,613	-75,830	-0,184	0,046
-271,599	-141,611	0,096	-0,007
-270,584	-200,000	0,009	0,088
-269,570	-50,486	0,034	0,011
-268,555	800,000	-0,013	0,030
-267,540	-152,393	-0,068	-0,003
-266,526	151,362	0,049	0,048
-265,511	-200,000	0,003	0,025
-264,497	-26,810	0,028	0,011
-263,482	4,090	-0,115	0,060
-262,467	-200,000	-0,001	-0,059
-261,453	-200,000	-0,037	-0,120
-260,438	150,847	-0,108	-0,104
-259,424	800,000	-0,021	-0,048
-258,409	155,294	-0,085	-0,083
-257,395	190,312	-0,044	0,047
-256,380	585,845	0,088	0,154
-255,365	-200,000	-0,007	-0,174
-254,351	3,448	0,046	0,024
-253,336	-94,489	-0,057	0,011
-252,322	227,353	-0,025	-0,029
-251,307	-200,000	0,001	0,063
-250,292	484,521	0,062	-0,100
-249,278	-16,105	-0,011	-0,005
-248,263	-6,816	0,018	0,009
-247,249	-200,000	-0,021	0,103
-246,234	-200,000	-0,028	-0,093
-245,219	0,240	0,137	0,069
-244,205	320,587	0,004	0,006
-243,190	382,383	0,064	-0,094
-242,176	800,000	0,089	0,211
-241,161	-24,302	0,101	-0,043
-240,146	477,651	0,043	-0,070
-239,132	34,054	-0,043	-0,027
-238,117	546,178	-0,094	-0,161
-237,103	-27,486	0,061	0,025
-236,088	0,081	0,113	-0,057
-235,073	143,061	0,092	-0,087
-234,059	125,361	-0,062	0,056
-233,044	-200,000	-0,002	-0,111
-232,030	76,870	0,006	-0,004
-231,015	-98,389	-0,072	-0,013
-230,000	-83,764	-0,093	0,021
-228,986	-168,964	-0,071	0,002
-227,971	800,000	0,009	0,024
-226,957	800,000	0,053	0,137
-225,942	777,899	-0,036	0,070
-224,927	-200,000	0,026	0,091
-223,913	800,000	-0,072	-0,146
-222,898	327,409	-0,051	-0,070
-221,884	-200,000	-0,011	-0,088
-220,869	-154,567	0,178	-0,008
-219,855	-200,000	0,026	0,119
-218,840	800,000	0,063	0,165
-217,825	78,096	0,083	-0,063
-216,811	132,430	-0,068	0,062
-215,796	-15,055	-0,092	-0,042
-214,782	194,564	-0,117	-0,126
-213,767	-38,244	0,049	0,018
-212,752	51,099	-0,022	-0,015
-211,738	-200,000	0,002	0,033
-210,723	-200,000	0,016	0,121
-209,709	-34,362	0,016	-0,006
-208,694	387,625	-0,095	-0,141
-207,679	72,950	0,104	0,077
-206,665	49,830	-0,083	0,055
-205,650	220,483	0,006	0,007
-204,636	-200,000	-0,002	0,057
-203,621	800,000	-0,034	0,084
-202,606	800,000	0,008	-0,017
-201,592	-179,964	-0,117	-0,002
-200,577	283,107	-0,142	0,181
-199,563	378,600	0,032	-0,046
-198,548	-200,000	0,014	-0,202
-197,533	800,000	0,052	-0,138
-196,519	-87,663	-0,167	0,035
-195,504	-200,000	0,022	0,136
-194,490	-114,971	-0,065	-0,009
-193,475	141,061	-0,083	-0,078
-192,460	-200,000	0,011	-0,047
-191,446	-32,616	-0,142	0,056
-190,431	381,336	0,066	0,097
-189,417	-200,000	0,093	-0,000
-188,402	46,733	-0,124	0,082
-187,387	338,033	0,023	0,032
-186,373	-86,237	-0,040	0,009
-185,358	-76,182	0,035	0,009
-184,344	118,000	-0,018	0,016
-183,329	120,474	0,106	0,094
-182,315	-45,367	0,045	0,016
-181,300	800,000	0,054	-0,151
-180,285	800,000	0,017	-0,036
-179,271	2,337	-0,052	-0,027
-178,256	62,359	0,024	0,017
-177,242	-9,524	0,188	-0,088
-176,227	136,479	0,053	0,049
-175,212	605,112	-0,022	-0,039
-174,198	94,795	0,070	0,056
-173,183	82,155	-0,044	-0,034
-172,169	121,290	-0,033	-0,029
-171,154	-200,000	0,008	0,099
-170,139	772,683	0,027	-0,052
-169,125	-129,356	0,041	0,004
-168,110	267,441	0,122	0,151
-167,096	567,993	0,012	-0,021
-166,081	-200,000	-0,023	-0,116
-165,066	800,000	-0,028	-0,082
-164,052	-60,246	-0,077	-0,023
-163,037	-132,597	-0,083	0,007
-162,023	-156,116	0,115	-0,005
-161,008	-84,791	0,130	-0,029
-159,993	-180,738	0,113	-0,002
-158,979	53,889	0,038	0,026
-157,964	69,362	-0,078	-0,057
-156,950	1,357	-0,033	0,017
-155,935	-200,000	0,003	0,019
-154,920	317,685	0,112	-0,151
-153,906	69,844	0,041	-0,030
-152,891	358,964	-0,051	-0,072
-151,877	-200,000	0,051	0,000
-150,862	-45,285	0,129	0,045
-149,847	-68,426	-0,036	0,010
-148,833	-200,000	-0,003	-0,025
-147,818	800,000	-0,022	0,059
-146,804	-157,755	0,076	0,003
-145,789	-154,032	-0,034	-0,002
-144,775	-128,815	-0,115	0,011
-143,760	-200,000	-0,006	-0,057
-142,745	-200,000	-0,009	-0,220
-141,731	249,433	-0,039	0,047
-140,716	-79,314	0,032	0,008
-139,702	35,696	0,150	0,093
-138,687	44,312	-0,084	0,054
-137,672	683,712	-0,019	0,036
-136,658	74,369	-0,157	-0,117
-135,643	-200,000	-0,035	-0,130
-134,629	-80,940	-0,066	-0,015
-133,614	-200,000	-0,021	0,113
-132,599	115,100	0,140	0,121
-131,585	-200,000	0,011	-0,055
-130,570	68,375	0,122	0,088
-129,556	507,024	-0,030	-0,049
-128,541	165,526	-0,065	-0,066
-127,526	-200,000	-0,012	-0,092
-126,512	-200,000	-0,011	-0,053
-125,497	-139,111	-0,085	0,006
-124,483	-128,154	0,055	0,006
-123,468	163,592	0,053	0,053
-122,453	136,598	0,021	0,020
-121,439	-31,237	0,067	-0,027
-120,424	327,252	0,053	0,072
-119,410	109,029	-0,007	-0,006
-118,395	64,878	0,027	0,019
-117,380	-104,355	-0,148	-0,024
-116,366	800,000	0,028	0,069
-115,351	457,202	-0,068	0,107
-114,337	30,511	-0,069	0,042
-113,322	-200,000	-0,010	-0,058
-112,307	2,832	-0,012	0,006
-111,293	180,160	0,056	-0,058
-110,278	333,322	0,144	0,197
-109,264	17,173	-0,104	0,058
-108,249	-200,000	0,026	0,169
-107,234	-200,000	-0,008	-0,102
-106,220	3,242	0,133	0,068
-105,205	12,901	-0,181	0,099
-104,191	400,085	0,007	0,010
-103,176	244,943	-0,038	-0,046
-102,162	204,251	-0,010	0,011
-101,147	-55,490	-0,054	0,017
-100,132	-71,837	0,027	-0,007
-99,118	800,000	0,013	-0,039
-98,103	215,772	0,020	-0,023
-97,089	259,328	0,082	0,100
-96,074	734,853	0,009	0,016
-95,059	-45,599	0,045	-0,016
-94,045	800,000	-0,058	-0,128
-93,030	515,029	-0,093	-0,154
-92,016	-65,625	0,053	-0,015
-91,001	712,057	0,016	0,030
-89,986	532,327	0,050	-0,084
-88,972	-35,442	0,058	0,022
-87,957	-42,059	-0,039	0,014
-86,943	-164,001	-0,177	-0,006
-85,928	-59,537	-0,231	-0,070
-84,913	-135,604	0,062	0,005
-83,899	-200,000	0,008	-0,052
-82,884	800,000	-0,036	-0,072
-81,870	-59,880	-0,045	-0,013
-80,855	187,692	0,097	0,102
-79,840	-200,000	0,007	-0,055
-78,826	-200,000	0,011	0,047
-77,811	287,104	0,062	-0,079
-76,797	32,548	-0,089	-0,054
-75,782	508,986	0,089	-0,147
-74,767	425,036	-0,045	0,069
-73,753	-200,000	-0,017	0,127
-72,738	415,133	-0,074	0,112
-71,724	223,212	-0,032	0,037
-70,709	-86,030	-0,067	-0,015
-69,694	567,576	-0,061	0,105
-68,680	-89,148	-0,064	-0,013
-67,665	65,194	0,041	0,029
-66,651	48,003	-0,052	0,034
-65,636	800,000	0,061	0,144
-64,622	-36,758	-0,122	-0,046
-63,607	800,000	0,026	-0,059
-62,592	217,167	-0,098	0,110
-61,578	367,777	0,062	0,088
-60,563	-200,000	0,004	-0,050
-59,549	-200,000	-0,017	0,265
-58,534	75,989	-1,992	-1,486
-57,519	464,663	-1,178	-1,866
-56,505	-200,000	-0,306	-4,332
-55,490	800,000	0,819	1,801
-54,476	800,000	5,214	11,245
-53,461	-200,000	21,818	338,352
-52,446	800,000	760,962	2311,156
-51,432	537,803	1656,139	2788,021
-50,417	70,031	1652,781	1202,284
-49,403	16,871	1527,014	850,795
-48,388	11,001	1451,373	780,373
-47,373	19,066	1442,973	814,367
-46,359	14,398	1431,999	786,039
-45,344	9,340	1427,929	759,784
-44,330	9,260	1426,080	758,393
-43,315	9,241	1424,320	757,337
-42,300	9,236	1422,795	756,468
-41,286	9,276	1421,246	755,806
-40,271	9,239	1420,156	755,023
-39,257	9,185	1419,095	754,170
-38,242	9,273	1417,961	753,956
-37,227	9,232	1416,857	753,146
-36,213	9,283	1415,422	752,593
-35,198	9,289	1414,183	751,932
-34,184	9,311	1413,154	751,457
-33,169	9,224	1411,751	750,273
-32,154	9,312	1410,753	750,125
-31,140	9,297	1409,491	749,356
-30,125	9,316	1408,576	748,929
-29,111	9,286	1407,402	748,132
-28,096	9,258	1406,349	747,416
-27,082	9,187	1405,108	746,391
-26,067	9,228	1403,882	745,904
-25,052	9,242	1402,790	745,357
-24,038	9,188	1402,092	744,706
-23,023	9,219	1400,974	744,227
-22,009	9,274	1399,826	743,844
-20,994	9,239	1399,053	743,239
-19,979	9,226	1398,102	742,644
-18,965	9,197	1397,194	742,000
-17,950	9,149	1396,078	741,157
-16,936	9,162	1395,337	740,793
-15,921	9,072	1394,432	739,867
-14,906	9,108	1393,440	739,474
-13,892	9,168	1392,395	739,168
-12,877	9,129	1391,788	738,639
-11,863	9,082	1391,038	737,995
-10,848	9,114	1389,975	737,548
-9,833	9,117	1389,059	737,046
-8,819	9,055	1388,119	736,230
-7,804	8,991	1387,284	735,463
-6,790	9,036	1386,098	735,013
-5,775	9,059	1384,961	734,490
-4,760	9,044	1384,290	734,032
-3,746	9,053	1383,002	733,365
-2,731	9,099	1382,364	733,207
-1,717	9,060	1381,516	732,551
-0,702	9,057	1379,682	731,533
0,313	12,953	1292,047	702,832
1,327	28,930	683,720	407,840
2,342	44,804	117,839	76,330
3,356	0,942	16,428	8,276
4,371	6,967	3,601	1,886
5,386	34,854	1,189	0,732
6,400	567,852	0,303	0,521
7,415	-176,106	-0,297	0,005
8,429	73,218	-0,233	-0,171
9,444	1,702	-0,303	-0,153
10,459	-0,996	-0,306	-0,152
11,473	11,176	-0,357	-0,192
12,488	-113,112	-0,314	0,043
13,502	-77,571	-0,275	-0,067
14,517	-127,523	-0,370	-0,037
15,531	73,792	-0,400	-0,295
16,546	180,180	-0,287	-0,297
17,561	135,803	-0,324	-0,298
18,575	-36,393	-0,140	-0,053
19,590	639,747	-0,130	-0,234
20,604	22,365	-0,258	-0,148
21,619	65,288	-0,437	-0,311
22,634	83,015	-0,414	-0,317
23,648	50,570	-0,385	-0,256
24,663	45,960	-0,394	-0,256
25,677	201,637	-0,298	-0,324
26,692	10,282	-0,315	-0,168
27,707	23,806	-0,207	-0,120
28,721	-30,306	-0,445	-0,177
29,736	0,368	-0,507	-0,254
30,750	43,387	-0,333	-0,214
31,765	52,632	-0,358	-0,240
32,780	90,817	-0,400	-0,315
33,794	47,406	-0,388	-0,254
34,809	192,464	-0,385	-0,409
35,823	49,766	-0,286	-0,189
36,838	-42,225	-0,300	-0,107
37,853	152,675	-0,438	-0,421
38,867	169,051	-0,422	-0,423
39,882	6,928	-0,327	-0,171
40,896	-8,184	-0,277	-0,131
41,911	74,569	-0,305	-0,225
42,926	52,603	-0,347	-0,233
43,940	59,645	-0,417	-0,288
44,955	208,186	-0,313	-0,345
45,969	180,311	-0,267	-0,275
46,984	268,764	-0,288	-0,355
47,999	201,647	-0,253	-0,274
49,013	109,936	-0,268	-0,226
50,028	86,616	-0,335	-0,259
51,042	14,019	-0,387	-0,211
52,057	259,519	-0,238	-0,289
53,071	50,278	-0,411	-0,272
54,086	0,110	-0,445	-0,222
55,101	157,294	-0,343	-0,333
56,115	-65,806	-0,312	-0,087
57,130	-51,954	-0,429	-0,139
58,144	-58,924	-0,416	-0,126
59,159	98,701	-0,405	-0,328
60,174	49,279	-0,412	-0,272
61,188	248,577	-0,239	-0,285
62,203	-118,042	-0,498	-0,062
63,217	-111,013	-0,388	-0,055
64,232	2,209	-0,328	-0,166
65,247	-11,615	-0,358	-0,164
66,261	256,024	-0,349	-0,421
67,276	2,075	-0,344	-0,174
68,290	63,124	-0,299	-0,209
69,305	378,891	-0,158	-0,227
70,320	-0,228	-0,373	-0,185
71,334	-6,734	-0,302	-0,144
72,349	173,544	-0,309	-0,312
73,363	106,942	-0,196	-0,163
74,378	19,475	-0,313	-0,176
75,393	85,342	-0,338	-0,260
76,407	-38,503	-0,303	-0,112
77,422	64,393	-0,215	-0,151
78,436	139,152	-0,350	-0,322
79,451	21,834	-0,226	-0,129
80,466	-53,410	-0,369	-0,118
81,480	63,694	-0,343	-0,241
82,495	-114,109	-0,379	-0,051
83,509	36,053	-0,194	-0,119
84,524	56,670	-0,274	-0,186
85,539	-82,065	-0,303	-0,069
86,553	-87,725	-0,259	-0,054
87,568	-23,644	-0,281	-0,118
88,582	-35,915	-0,380	-0,143
89,597	-83,475	-0,429	-0,095
90,611	37,655	-0,267	-0,166
91,626	-111,397	-0,242	-0,034
92,641	16,502	-0,295	-0,163
93,655	218,529	-0,234	-0,262
94,670	-70,348	-0,212	-0,056
95,684	117,740	-0,275	-0,236
96,699	179,517	-0,206	-0,211
97,714	-51,888	-0,201	-0,065
98,728	-78,179	-0,146	0,035
99,743	-38,644	-0,312	-0,114
100,757	271,138	-0,141	-0,174
101,772	-32,619	-0,197	-0,076
102,787	-26,475	-0,223	-0,091
103,801	-7,690	-0,226	-0,106
104,816	-152,236	-0,289	-0,014
105,830	88,614	-0,208	-0,161
106,845	1,569	-0,336	-0,168
107,860	224,280	-0,200	-0,226
108,874	124,666	-0,248	-0,219
109,889	91,659	-0,254	-0,199
110,903	127,323	-0,291	-0,258
111,918	177,705	-0,228	-0,232
112,933	141,751	-0,201	-0,186
113,947	550,319	-0,161	-0,271
114,962	177,094	-0,209	-0,213
115,976	-11,253	-0,331	-0,152
116,991	177,447	-0,231	-0,235
118,006	120,231	-0,300	-0,260
119,020	103,655	-0,237	-0,194
120,035	-0,268	-0,241	-0,119
121,049	375,384	-0,088	-0,125
122,064	800,000	-0,140	-0,296
123,079	307,651	-0,201	-0,262
124,093	-25,732	-0,253	-0,104
125,108	201,106	-0,270	-0,290
126,122	42,901	-0,242	-0,154
127,137	-87,730	-0,202	-0,042
128,151	5,948	-0,181	-0,093
129,166	-96,322	-0,289	0,053
130,181	43,892	-0,254	-0,162
131,195	8,754	-0,267	-0,140
132,210	285,929	-0,162	-0,204
133,224	-200,000	-0,053	-0,194
134,239	-97,707	-0,182	-0,032
135,254	-151,539	-0,273	-0,014
136,268	9,271	-0,260	-0,137
137,283	-26,722	-0,270	-0,110
138,297	116,520	-0,358	-0,306
139,312	148,076	-0,235	-0,221
140,327	67,629	-0,321	-0,228
141,341	27,680	-0,293	-0,172
142,356	-48,325	-0,196	-0,065
143,370	59,454	-0,191	-0,131
144,385	-32,785	-0,214	-0,082
145,400	71,384	-0,127	-0,091
146,414	183,836	-0,201	-0,207
147,429	357,942	-0,207	-0,288
148,443	230,254	-0,201	-0,229
149,458	-200,000	-0,053	-0,220
150,473	77,936	-0,302	-0,224
151,487	-90,140	-0,245	-0,049
152,502	32,859	-0,350	-0,210
153,516	249,403	-0,092	-0,109
154,531	66,848	-0,291	-0,206
155,546	84,852	-0,273	-0,208
156,560	94,594	-0,232	-0,183
157,575	124,627	-0,169	-0,148
158,589	63,899	-0,306	-0,214
159,604	11,426	-0,315	-0,168
160,619	144,208	-0,273	-0,253
161,633	140,624	-0,234	-0,215
162,648	69,022	-0,192	-0,137
163,662	63,591	-0,204	-0,142
164,677	-106,773	-0,217	0,033
165,692	-84,366	-0,112	0,025
166,706	62,659	-0,285	-0,198
167,721	-33,880	-0,326	-0,124
168,735	57,052	-0,242	-0,164
169,750	30,385	-0,300	-0,178
170,764	17,468	-0,100	-0,055
171,779	-74,357	-0,203	-0,051
172,794	-50,710	-0,214	-0,070
173,808	-7,283	-0,294	-0,138
174,823	394,156	-0,171	-0,248
175,837	52,359	-0,361	-0,239
176,852	-9,386	-0,227	-0,105
177,867	-173,867	-0,210	-0,004
178,881	800,000	-0,085	-0,202
179,896	0,259	-0,242	-0,119
180,910	-156,382	-0,230	-0,010
181,925	-62,257	-0,094	-0,027
182,940	102,658	-0,268	-0,218
183,954	296,016	-0,199	-0,254
184,969	181,119	-0,215	-0,219
185,983	85,486	-0,177	-0,135
186,998	41,162	-0,148	-0,092
188,013	649,055	-0,122	-0,217
189,027	43,847	-0,281	-0,179
190,042	-31,446	-0,254	-0,099
191,056	40,439	-0,299	-0,186
192,071	87,215	-0,187	-0,143
193,086	-42,855	-0,083	-0,029
194,100	-2,577	-0,101	-0,049
195,115	232,439	-0,155	-0,177
196,129	241,245	-0,187	-0,216
197,144	177,955	-0,103	-0,105
198,159	112,304	-0,057	-0,048
199,173	-92,508	-0,154	-0,030
200,188	374,194	-0,136	-0,192
201,202	-75,335	-0,270	-0,066
202,217	-91,276	-0,203	0,040
203,232	800,000	-0,106	-0,254
204,246	221,794	-0,231	-0,258
205,261	624,837	-0,212	-0,371
206,275	-1,436	-0,167	-0,081
207,290	800,000	-0,058	-0,135
208,304	135,979	-0,194	-0,175
209,319	36,022	-0,144	-0,088
210,334	21,433	-0,153	-0,086
211,348	60,980	-0,235	-0,161
212,363	9,154	-0,283	-0,148
213,377	273,120	-0,173	-0,212
214,392	65,762	-0,234	-0,164
215,407	-143,082	-0,134	-0,009
216,421	55,906	-0,113	-0,076
217,436	-53,623	-0,179	-0,056
218,450	65,324	-0,159	-0,111
219,465	197,218	-0,114	-0,121
220,480	-146,763	-0,143	0,008
221,494	800,000	-0,042	-0,103
222,509	-123,461	-0,268	-0,029
223,523	35,194	-0,158	-0,096
224,538	21,902	-0,173	-0,097
225,553	-9,076	-0,170	-0,078
226,567	14,281	-0,276	-0,149
227,582	122,496	-0,229	-0,198
228,596	792,394	-0,089	-0,171
229,611	119,050	-0,235	-0,201
230,626	110,375	-0,130	-0,108
231,640	59,006	-0,090	-0,061
232,655	-69,239	-0,104	-0,028
233,669	172,124	-0,175	-0,174
234,684	19,174	-0,197	-0,109
235,699	196,371	-0,098	-0,103
236,713	-150,717	-0,207	0,011
237,728	-129,511	-0,100	0,009
238,742	394,168	-0,108	-0,155
239,757	-62,127	-0,278	-0,079
240,772	190,272	-0,175	-0,182
241,786	72,745	-0,280	-0,202
242,801	274,834	-0,113	-0,138
243,815	276,702	-0,139	-0,171
244,830	387,923	-0,116	-0,166
245,844	800,000	-0,036	-0,087
246,859	375,798	-0,144	-0,203
247,874	220,579	-0,194	-0,215
248,888	181,645	-0,125	-0,127
249,903	7,399	-0,167	-0,086
250,917	10,738	-0,204	-0,107
251,932	-3,589	-0,163	-0,078
252,947	38,796	-0,120	-0,074
253,961	-62,907	-0,199	-0,056
254,976	7,538	-0,152	-0,078
255,990	52,837	-0,209	-0,138
257,005	800,000	-0,071	-0,186
258,020	-48,529	-0,245	0,081
259,034	-120,417	-0,184	0,021
260,049	110,013	-0,232	-0,192
261,063	100,433	-0,187	-0,149
262,078	90,770	-0,203	-0,157
263,093	245,532	-0,063	-0,074
264,107	709,017	-0,088	-0,161
265,122	45,785	0,044	-0,028
266,136	-64,075	-0,186	-0,052
267,151	-92,111	-0,111	0,021
268,166	800,000	-0,075	-0,153
269,180	191,769	-0,198	-0,206
270,195	29,654	-0,238	-0,139
271,209	-8,069	-0,207	0,096
272,224	28,239	-0,031	0,018
273,239	-96,882	-0,209	0,037
274,253	103,078	-0,169	0,136
275,268	123,404	-0,168	-0,145
276,282	-200,000	-0,026	-0,130
277,297	-48,815	-0,230	-0,075
278,312	345,778	-0,070	-0,095
279,326	-127,572	-0,160	0,016
280,341	-70,902	-0,089	0,023
281,355	65,961	-0,093	-0,065
282,370	-200,000	-0,043	-0,137
283,384	-17,659	-0,178	-0,077
284,399	-10,139	-0,137	-0,063
285,414	428,536	-0,107	-0,160
286,428	-33,070	-0,256	-0,097
287,443	227,623	-0,095	-0,107
288,457	150,335	-0,148	-0,139
289,472	-56,351	-0,196	-0,059
290,487	119,864	-0,138	-0,117
291,501	192,244	-0,097	-0,100
292,516	-200,000	-0,025	-0,131
293,530	57,946	-0,189	-0,127
294,545	-200,000	0,009	-0,057
295,560	228,583	-0,135	-0,152
296,574	106,514	-0,142	-0,116
297,589	144,172	-0,168	-0,154
298,603	7,977	-0,188	-0,096
299,618	120,889	-0,081	-0,069
300,633	-37,098	-0,101	-0,037
301,647	-138,915	-0,132	-0,010
302,662	24,501	-0,126	-0,071
303,676	344,442	-0,148	-0,200
304,691	-200,000	-0,030	-0,239
305,706	80,448	-0,243	-0,180
306,720	-194,119	-0,115	-0,001
307,735	198,406	-0,113	-0,118
308,749	75,672	-0,067	-0,049
309,764	-7,640	-0,136	-0,063
310,779	465,133	-0,129	-0,198
311,793	-70,701	-0,238	-0,061
312,808	800,000	-0,110	-0,211
313,822	220,585	-0,135	-0,149
314,837	-47,707	-0,210	-0,069
315,852	197,738	-0,164	-0,172
316,866	800,000	-0,075	-0,179
317,881	-200,000	-0,051	-0,163
318,895	-101,934	-0,179	-0,029
319,910	48,845	-0,158	-0,101
320,925	171,281	-0,102	-0,101
321,939	-82,620	0,021	0,005
322,954	-113,279	-0,065	0,009
323,968	17,845	-0,131	-0,071
324,983	241,985	-0,182	-0,209
325,997	12,842	-0,138	-0,073
327,012	-59,868	-0,224	-0,065
328,027	53,380	-0,179	-0,118
329,041	-200,000	-0,015	-0,102
330,056	559,664	-0,047	-0,079
331,070	-162,126	-0,147	-0,005
332,085	800,000	-0,103	-0,210
333,100	-137,672	-0,067	-0,005
334,114	60,777	-0,169	-0,115
335,129	-154,456	-0,196	-0,009
336,143	11,992	-0,141	-0,074
337,158	624,316	-0,042	-0,073
338,173	73,506	-0,070	-0,050
339,187	-132,840	-0,088	-0,008
340,202	445,311	-0,072	-0,108
341,216	-122,305	-0,284	-0,031
342,231	0,971	-0,191	-0,093
343,246	82,376	-0,109	-0,081
344,260	87,148	-0,158	-0,120
345,275	117,197	-0,163	-0,137
346,289	-154,133	-0,016	0,001
347,304	-60,978	-0,147	-0,042
348,319	800,000	-0,078	-0,174
349,333	35,100	-0,097	-0,058
350,348	-25,804	-0,122	-0,049
351,362	68,633	-0,162	-0,113
352,377	-65,767	-0,095	-0,026
353,392	245,598	-0,174	-0,201
354,406	-83,192	-0,092	0,020
355,421	206,728	1307,640	1394,690
356,435	159,003	1467,462	1395,165
