DTS Sentinel unit serial number:	SN410029Multiplexer serial number:	ORYXHardware model number:	OX2-SRSoftware version number:	ORYX F/W v4,00 Oryx Data Collector v3.7.2.0data status	okinstallation	B3 Nyhavnadifferential loss correction	single-endedforward channel	channel 1reverse channel	N/Adate	2023/12/03time	16:12:30forward acquisition time	300,00reverse acquisition time	0,00gamma	499,1914k internal	0,3197k external	0,3197temperature offset calibration	1,0000default loss term (dB/km)	0,3820temperature slope calibration	1,0000multiplexer offset coefficient	1,0000multiplexer slope coefficient	1,0000fibre end	0,00T internal ref (°C)	15,45T ext. ref 1 (°C)	-0,07T ext. ref 2 (°C)	-0,09length (m)	temperature (°C)	Stokes	anti-Stokes-744,400	187,727	-0,292	-0,318
-743,385	-200,000	0,060	0,250
-742,371	294,147	-0,154	-0,206
-741,356	-200,000	0,071	0,429
-740,342	-200,000	-0,018	-0,157
-739,327	-200,000	0,038	0,274
-738,312	86,583	-0,164	-0,132
-737,298	800,000	0,082	0,236
-736,283	-200,000	-0,040	-0,279
-735,269	-200,000	0,040	0,384
-734,254	-200,000	-0,075	-0,288
-733,239	-80,073	-0,183	0,044
-732,225	-200,000	0,023	-0,307
-731,210	-200,000	0,004	0,152
-730,196	393,946	0,069	0,105
-729,181	-175,180	0,079	-0,002
-728,167	612,513	0,062	0,114
-727,152	157,032	-0,035	-0,036
-726,137	-143,790	-0,150	-0,010
-725,123	-200,000	-0,020	0,142
-724,108	261,314	0,011	-0,013
-723,094	-137,097	-0,197	0,016
-722,079	-72,349	-0,086	-0,023
-721,064	320,805	0,086	-0,119
-720,050	-137,822	0,122	0,010
-719,035	19,183	-0,118	-0,069
-718,021	-59,954	-0,046	-0,014
-717,006	-200,000	-0,003	-0,050
-715,991	584,504	-0,075	0,135
-714,977	-122,299	-0,064	-0,007
-713,962	202,625	-0,057	-0,064
-712,948	-118,516	0,025	-0,003
-711,933	-110,829	-0,106	0,016
-710,918	651,058	-0,027	0,051
-709,904	-54,915	0,105	-0,034
-708,889	152,593	-0,087	-0,086
-707,875	312,016	0,057	-0,078
-706,860	444,992	-0,048	-0,076
-705,845	-200,000	0,026	-0,127
-704,831	587,219	0,032	0,058
-703,816	176,830	-0,056	0,059
-702,802	78,910	-0,018	-0,014
-701,787	-200,000	0,016	-0,101
-700,772	34,373	-0,081	0,051
-699,758	-157,010	0,042	-0,002
-698,743	73,932	-0,075	0,058
-697,729	-165,234	0,100	-0,003
-696,714	233,720	-0,102	-0,122
-695,699	-33,832	-0,092	-0,037
-694,685	194,579	0,070	0,078
-693,670	-200,000	0,000	-0,163
-692,656	-125,669	-0,185	0,020
-691,641	436,317	0,004	-0,007
-690,627	-31,393	0,105	-0,043
-689,612	62,436	0,021	0,015
-688,597	-200,000	0,022	-0,102
-687,583	800,000	-0,016	0,041
-686,568	-28,105	-0,179	-0,075
-685,554	-200,000	0,005	-0,035
-684,539	800,000	0,038	0,086
-683,524	237,820	-0,063	0,076
-682,510	-25,579	0,151	0,064
-681,495	800,000	0,068	0,186
-680,481	-128,900	-0,057	0,006
-679,466	-91,028	0,098	0,020
-678,451	800,000	0,017	-0,046
-677,437	-93,865	-0,198	-0,039
-676,422	78,379	-0,056	-0,043
-675,408	-200,000	0,003	0,048
-674,393	800,000	0,023	-0,057
-673,378	314,397	0,067	0,092
-672,364	-63,429	0,074	0,022
-671,349	-70,128	-0,322	-0,088
-670,335	-200,000	-0,005	-0,019
-669,320	48,283	-0,024	0,016
-668,305	95,245	0,053	0,044
-667,291	-200,000	-0,000	-0,028
-666,276	-200,000	-0,005	-0,137
-665,262	678,908	-0,083	-0,158
-664,247	112,362	-0,136	-0,120
-663,232	-200,000	-0,005	-0,147
-662,218	-200,000	0,015	0,069
-661,203	34,417	-0,070	-0,044
-660,189	149,566	-0,057	0,056
-659,174	2,588	-0,032	0,017
-658,159	124,359	0,029	-0,027
-657,145	-123,534	0,039	0,004
-656,130	-200,000	0,009	0,067
-655,116	800,000	0,047	-0,115
-654,101	-200,000	-0,002	-0,053
-653,086	490,618	-0,044	0,074
-652,072	-200,000	0,012	0,111
-651,057	-139,155	-0,081	-0,006
-650,043	140,248	-0,038	-0,036
-649,028	-92,216	-0,157	-0,032
-648,014	-200,000	-0,005	0,055
-646,999	216,191	0,035	-0,041
-645,984	5,092	0,025	-0,013
-644,970	258,268	0,026	-0,032
-643,955	-200,000	0,032	-0,107
-642,941	14,550	-0,123	-0,070
-641,926	0,804	0,097	-0,050
-640,911	641,076	0,027	-0,050
-639,897	643,736	-0,017	0,032
-638,882	800,000	0,060	0,158
-637,868	-159,673	-0,163	-0,006
-636,853	800,000	0,020	-0,042
-635,838	-8,925	-0,101	0,049
-634,824	301,071	-0,051	0,068
-633,809	0,782	0,105	0,055
-632,795	800,000	-0,042	0,093
-631,780	323,940	-0,031	0,043
-630,765	-200,000	0,007	0,067
-629,751	800,000	0,047	-0,114
-628,736	-78,502	-0,032	-0,008
-627,722	107,849	0,063	0,054
-626,707	800,000	-0,009	0,025
-625,692	-88,384	0,116	-0,025
-624,678	-153,398	0,111	-0,006
-623,663	119,929	-0,110	0,099
-622,649	-200,000	0,006	-0,153
-621,634	-67,983	0,077	-0,022
-620,619	-26,727	-0,068	-0,029
-619,605	-141,266	-0,053	0,004
-618,590	-50,829	0,036	0,012
-617,576	415,749	0,034	-0,053
-616,561	772,710	0,043	-0,085
-615,546	800,000	-0,023	0,065
-614,532	-75,629	-0,045	0,012
-613,517	-200,000	0,023	-0,114
-612,503	800,000	-0,014	-0,040
-611,488	-4,844	0,040	0,020
-610,474	-200,000	0,011	0,183
-609,459	5,997	0,092	0,049
-608,444	398,640	-0,039	-0,059
-607,430	432,114	0,033	-0,053
-606,415	-34,794	0,067	0,027
-605,401	147,734	-0,087	-0,085
-604,386	25,963	0,092	0,056
-603,371	-200,000	-0,014	0,059
-602,357	-57,365	-0,090	0,029
-601,342	-195,727	-0,094	-0,000
-600,328	-200,000	0,010	0,068
-599,313	-39,158	-0,075	0,028
-598,298	-85,748	0,139	0,031
-597,284	800,000	-0,064	0,201
-596,269	-200,000	-0,012	0,131
-595,255	800,000	0,028	0,067
-594,240	235,371	0,038	0,045
-593,225	-200,000	-0,059	-0,206
-592,211	104,445	-0,097	-0,082
-591,196	800,000	-0,011	0,029
-590,182	227,126	-0,034	-0,040
-589,167	133,110	0,116	-0,109
-588,152	55,685	0,182	-0,127
-587,138	-162,665	0,067	0,002
-586,123	236,678	-0,039	-0,047
-585,109	-133,229	0,029	0,003
-584,094	-128,833	-0,122	0,012
-583,079	800,000	-0,030	-0,079
-582,065	399,259	0,100	0,152
-581,050	800,000	0,012	-0,037
-580,036	-58,761	0,145	-0,045
-579,021	30,687	-0,024	-0,015
-578,006	709,634	-0,057	-0,110
-576,992	-58,199	-0,097	0,030
-575,977	-200,000	-0,032	-0,174
-574,963	-122,738	0,073	0,008
-573,948	-200,000	0,011	0,043
-572,934	92,732	-0,064	-0,053
-571,919	29,255	-0,031	-0,019
-570,904	-200,000	0,012	-0,079
-569,890	76,476	0,054	-0,041
-568,875	139,276	0,052	0,050
-567,861	-97,548	-0,091	0,017
-566,846	-81,150	0,053	-0,013
-565,831	-156,949	0,126	0,006
-564,817	-118,326	-0,165	-0,021
-563,802	118,177	0,074	0,066
-562,788	-77,369	-0,028	0,007
-561,773	-200,000	-0,035	0,165
-560,758	225,599	0,065	0,076
-559,744	43,288	0,101	0,067
-558,729	86,470	0,030	-0,024
-557,715	-200,000	-0,003	-0,057
-556,700	322,737	-0,043	-0,060
-555,685	73,040	0,037	0,028
-554,671	-200,000	-0,026	0,088
-553,656	200,224	-0,050	0,055
-552,642	499,331	0,113	0,190
-551,627	272,142	-0,079	0,101
-550,612	68,219	0,041	-0,030
-549,598	363,366	-0,045	0,065
-548,583	800,000	-0,022	-0,062
-547,569	161,877	0,004	0,004
-546,554	79,840	-0,067	0,052
-545,539	293,766	0,078	0,103
-544,525	403,311	0,148	0,225
-543,510	527,684	-0,066	0,114
-542,496	-86,209	0,029	0,006
-541,481	-41,566	-0,042	0,016
-540,466	-123,085	-0,074	-0,008
-539,452	496,519	0,024	0,041
-538,437	12,357	0,063	0,035
-537,423	191,313	0,024	-0,026
-536,408	-109,600	-0,048	-0,007
-535,393	800,000	0,040	-0,097
-534,379	-125,593	-0,082	0,009
-533,364	-102,815	-0,098	0,017
-532,350	39,552	-0,107	-0,069
-531,335	-200,000	0,027	0,088
-530,321	183,304	-0,039	0,041
-529,306	-200,000	0,012	0,086
-528,291	800,000	-0,036	0,097
-527,277	-108,299	-0,041	0,006
-526,262	-102,479	0,078	-0,013
-525,248	800,000	0,041	0,104
-524,233	-86,828	0,095	0,021
-523,218	-51,205	-0,114	0,038
-522,204	-131,070	0,176	0,017
-521,189	-200,000	0,001	-0,057
-520,175	-200,000	0,001	-0,014
-519,160	-200,000	0,008	0,090
-518,145	16,931	0,011	-0,007
-517,131	282,873	0,019	-0,025
-516,116	-200,000	-0,015	0,075
-515,102	-88,199	-0,065	-0,014
-514,087	56,714	0,036	-0,026
-513,072	294,485	-0,077	-0,102
-512,058	-200,000	-0,019	0,083
-511,043	2,719	0,038	0,020
-510,029	-50,137	0,129	0,044
-509,014	98,189	0,144	-0,119
-507,999	205,436	0,042	0,047
-506,985	-87,693	-0,057	-0,012
-505,970	800,000	0,068	-0,146
-504,956	800,000	0,035	-0,098
-503,941	626,520	0,023	-0,042
-502,926	-200,000	0,007	0,029
-501,912	-55,229	0,043	0,014
-500,897	112,470	0,052	0,046
-499,883	-59,493	-0,060	0,018
-498,868	105,225	-0,113	-0,096
-497,853	714,811	-0,008	-0,015
-496,839	-51,725	-0,014	0,005
-495,824	7,758	0,146	0,079
-494,810	484,184	0,030	0,050
-493,795	800,000	0,029	-0,083
-492,781	-200,000	-0,016	-0,095
-491,766	543,414	-0,049	-0,084
-490,751	-40,226	0,031	0,012
-489,737	215,855	0,062	0,071
-488,722	-61,046	0,042	-0,013
-487,708	73,142	0,094	-0,071
-486,693	581,896	0,084	0,149
-485,678	-148,904	-0,167	0,010
-484,664	-200,000	-0,039	-0,247
-483,649	-200,000	0,011	-0,144
-482,635	-200,000	0,003	-0,030
-481,620	800,000	-0,019	-0,044
-480,605	-200,000	-0,021	0,155
-479,591	202,851	0,062	0,069
-478,576	-82,596	0,119	-0,028
-477,562	131,852	0,039	0,036
-476,547	-200,000	-0,013	0,116
-475,532	-200,000	-0,013	0,082
-474,518	-11,355	0,021	0,010
-473,503	59,115	0,141	0,100
-472,489	84,223	0,089	-0,070
-471,474	247,004	-0,057	-0,070
-470,459	800,000	-0,012	-0,035
-469,445	-200,000	0,022	-0,097
-468,430	106,429	0,019	0,016
-467,416	98,443	0,057	-0,047
-466,401	455,077	-0,014	-0,022
-465,386	94,698	-0,072	-0,059
-464,372	10,771	0,024	-0,013
-463,357	-33,431	-0,043	-0,017
-462,343	259,999	-0,032	-0,040
-461,328	-200,000	0,001	0,138
-460,313	-200,000	0,006	-0,029
-459,299	247,602	0,076	-0,092
-458,284	-200,000	-0,011	0,057
-457,270	62,874	-0,159	0,114
-456,255	800,000	-0,022	-0,065
-455,241	225,456	0,049	0,057
-454,226	-7,677	0,037	-0,018
-453,211	210,293	-0,075	-0,084
-452,197	-86,693	0,099	0,022
-451,182	-200,000	-0,016	-0,152
-450,168	-200,000	0,010	0,121
-449,153	224,163	0,085	-0,099
-448,138	159,266	-0,075	0,075
-447,124	-200,000	-0,008	0,089
-446,109	-200,000	-0,097	0,000
-445,095	315,024	0,098	0,134
-444,080	-200,000	0,033	0,179
-443,065	174,837	-0,039	0,041
-442,051	47,344	-0,036	0,024
-441,036	496,617	0,098	-0,163
-440,022	426,683	-0,043	-0,067
-439,007	-200,000	-0,013	-0,139
-437,992	800,000	0,018	-0,051
-436,978	-200,000	-0,004	0,139
-435,963	88,814	-0,124	-0,100
-434,949	-15,430	0,047	0,022
-433,934	118,603	0,074	-0,066
-432,919	-62,288	-0,107	-0,032
-431,905	581,088	-0,056	-0,099
-430,890	79,052	0,139	-0,107
-429,876	-200,000	0,008	0,152
-428,861	6,996	0,139	-0,074
-427,846	-149,041	-0,080	0,005
-426,832	-200,000	0,010	0,089
-425,817	647,638	-0,029	0,054
-424,803	800,000	-0,050	-0,124
-423,788	30,711	0,081	0,050
-422,773	-64,615	0,091	0,026
-421,759	-200,000	0,021	-0,099
-420,744	144,223	0,004	-0,004
-419,730	-200,000	0,015	0,053
-418,715	-45,958	-0,120	0,042
-417,701	-158,635	-0,096	-0,004
-416,686	800,000	-0,011	0,028
-415,671	800,000	0,007	0,022
-414,657	280,621	0,051	0,066
-413,642	462,207	-0,036	-0,058
-412,628	-49,494	-0,069	-0,024
-411,613	62,914	0,089	-0,064
-410,598	-200,000	-0,044	-0,168
-409,584	-56,898	0,031	0,010
-408,569	800,000	0,014	0,038
-407,555	-200,000	0,003	0,057
-406,540	-200,000	0,020	-0,063
-405,525	-200,000	0,058	-0,192
-404,511	27,731	-0,148	-0,089
-403,496	83,433	0,107	-0,084
-402,482	165,345	-0,041	-0,042
-401,467	35,744	-0,019	-0,012
-400,452	673,454	-0,029	0,055
-399,438	-91,015	-0,159	-0,033
-398,423	-45,743	0,049	-0,017
-397,409	-200,000	0,025	0,086
-396,394	-23,478	-0,099	-0,043
-395,379	243,890	0,071	0,086
-394,365	-200,000	0,012	0,082
-393,350	156,997	0,024	-0,024
-392,336	-200,000	-0,011	0,049
-391,321	800,000	0,035	-0,090
-390,306	-200,000	0,014	-0,053
-389,292	-18,236	0,105	-0,047
-388,277	-117,484	0,148	-0,019
-387,263	64,926	-0,084	-0,061
-386,248	-200,000	-0,008	0,025
-385,233	18,221	-0,080	-0,046
-384,219	-182,697	0,088	-0,001
-383,204	800,000	-0,005	-0,010
-382,190	-23,039	0,075	-0,032
-381,175	800,000	-0,032	-0,075
-380,160	402,730	0,039	0,059
-379,146	-200,000	0,025	0,114
-378,131	800,000	0,096	0,237
-377,117	-129,667	-0,106	-0,010
-376,102	-143,538	-0,060	-0,004
-375,088	70,023	-0,069	-0,051
-374,073	-21,101	-0,074	-0,033
-373,058	-46,824	0,049	-0,017
-372,044	-45,969	-0,069	0,024
-371,029	-88,373	0,083	-0,018
-370,015	-200,000	0,025	-0,091
-369,000	50,312	-0,072	-0,049
-367,985	12,891	-0,095	0,053
-366,971	100,355	0,080	0,067
-365,956	307,490	-0,085	0,114
-364,942	-56,799	-0,025	0,008
-363,927	402,560	-0,046	-0,070
-362,912	-200,000	0,001	0,007
-361,898	-124,940	0,118	0,013
-360,883	277,269	-0,017	0,021
-359,869	16,900	-0,082	-0,047
-358,854	281,713	0,108	0,140
-357,839	-8,159	0,119	0,057
-356,825	476,404	-0,073	-0,118
-355,810	-200,000	0,018	0,093
-354,796	-200,000	-0,008	-0,044
-353,781	102,909	-0,060	0,050
-352,766	800,000	-0,042	-0,092
-351,752	67,647	0,084	0,061
-350,737	-106,047	0,239	-0,038
-349,723	-117,008	-0,030	0,004
-348,708	-109,360	-0,039	-0,006
-347,693	100,255	-0,034	-0,028
-346,679	84,725	0,058	0,045
-345,664	800,000	-0,050	-0,153
-344,650	800,000	0,014	-0,043
-343,635	-53,000	0,084	-0,027
-342,620	81,804	0,106	-0,082
-341,606	-17,848	0,054	-0,024
-340,591	-200,000	-0,008	0,115
-339,577	29,488	-0,060	-0,036
-338,562	302,365	0,064	0,085
-337,548	-200,000	-0,003	-0,010
-336,533	-54,221	0,151	0,049
-335,518	-200,000	0,010	-0,056
-334,504	199,198	0,081	0,089
-333,489	-9,921	-0,102	-0,049
-332,475	-140,903	-0,065	-0,005
-331,460	-19,785	0,077	0,034
-330,445	-101,687	0,105	-0,018
-329,431	3,164	-0,103	0,053
-328,416	-74,039	0,057	-0,015
-327,402	42,687	-0,040	-0,026
-326,387	-116,911	0,107	0,014
-325,372	-50,084	-0,076	0,026
-324,358	800,000	0,048	-0,123
-323,343	-200,000	-0,014	-0,070
-322,329	217,778	-0,068	-0,078
-321,314	636,329	0,038	-0,069
-320,299	20,689	0,040	0,023
-319,285	785,198	0,025	0,049
-318,270	-73,625	-0,149	0,039
-317,256	-200,000	-0,038	-0,135
-316,241	-97,745	-0,049	-0,009
-315,226	-156,042	-0,110	-0,005
-314,212	800,000	0,056	0,129
-313,197	800,000	-0,044	0,108
-312,183	-200,000	-0,008	0,028
-311,168	106,055	-0,073	0,062
-310,153	-200,000	-0,016	-0,101
-309,139	800,000	-0,064	-0,152
-308,124	-142,605	0,188	-0,013
-307,110	800,000	-0,037	0,089
-306,095	-59,763	0,053	-0,016
-305,080	-200,000	-0,007	-0,059
-304,066	160,821	-0,101	-0,101
-303,051	-200,000	0,026	-0,118
-302,037	800,000	0,038	0,083
-301,022	651,886	-0,075	0,138
-300,008	583,879	0,041	0,072
-298,993	369,576	0,128	0,186
-297,978	-86,511	-0,048	0,010
-296,964	-116,969	0,019	0,002
-295,949	-200,000	0,017	-0,081
-294,935	-106,359	-0,054	-0,009
-293,920	-200,000	-0,021	0,127
-292,905	77,428	0,174	0,132
-291,891	-200,000	-0,050	0,174
-290,876	-200,000	0,026	0,111
-289,862	-200,000	0,031	0,124
-288,847	274,774	-0,012	-0,015
-287,832	-200,000	-0,009	0,221
-286,818	-173,234	0,049	0,001
-285,803	75,118	0,110	0,083
-284,789	-200,000	0,024	0,127
-283,774	-109,019	0,110	-0,017
-282,759	173,967	0,078	-0,080
-281,745	-200,000	-0,040	-0,217
-280,730	-168,851	-0,297	-0,008
-279,716	172,090	-0,013	-0,013
-278,701	750,754	0,068	0,131
-277,686	800,000	-0,011	0,027
-276,672	-85,271	-0,080	-0,018
-275,657	286,662	0,023	0,030
-274,643	328,526	-0,109	-0,150
-273,628	-200,000	-0,006	-0,109
-272,613	800,000	0,051	-0,157
-271,599	368,716	0,083	0,120
-270,584	-200,000	0,020	-0,082
-269,570	2,483	0,035	0,018
-268,555	76,078	-0,010	-0,008
-267,540	-46,995	-0,040	-0,014
-266,526	451,767	-0,041	0,064
-265,511	800,000	-0,019	0,041
-264,497	-200,000	-0,010	0,081
-263,482	451,914	0,043	-0,068
-262,467	64,826	-0,067	0,048
-261,453	-160,241	0,065	0,002
-260,438	40,666	-0,029	-0,019
-259,424	46,213	-0,032	-0,021
-258,409	301,478	-0,096	-0,127
-257,395	109,098	0,044	0,038
-256,380	-200,000	0,004	0,023
-255,365	19,633	0,088	-0,050
-254,351	800,000	-0,033	0,099
-253,336	208,891	-0,107	0,119
-252,322	-200,000	-0,042	-0,175
-251,307	225,769	-0,069	-0,080
-250,292	-200,000	-0,037	-0,153
-249,278	-36,242	-0,083	0,032
-248,263	752,956	-0,056	0,108
-247,249	411,034	0,049	0,075
-246,234	-149,725	-0,196	-0,011
-245,219	80,605	-0,087	-0,067
-244,205	-200,000	-0,012	-0,137
-243,190	111,354	-0,054	-0,046
-242,176	66,580	-0,125	-0,091
-241,161	284,944	-0,073	0,095
-240,146	-200,000	-0,005	0,041
-239,132	98,212	0,080	0,066
-238,117	78,615	0,095	-0,073
-237,103	326,558	-0,088	-0,121
-236,088	-103,876	-0,200	-0,033
-235,073	-53,262	0,090	-0,029
-234,059	-124,654	0,129	0,014
-233,044	-51,037	-0,058	-0,019
-232,030	-200,000	0,020	0,097
-231,015	-200,000	0,017	-0,168
-230,000	-200,000	-0,000	0,001
-228,986	447,397	-0,064	-0,101
-227,971	-200,000	-0,011	-0,078
-226,957	-200,000	0,013	0,055
-225,942	-200,000	-0,002	0,116
-224,927	800,000	0,048	0,111
-223,913	-200,000	-0,003	-0,050
-222,898	-153,782	-0,108	-0,005
-221,884	-92,488	0,070	-0,014
-220,869	-183,579	-0,234	0,003
-219,855	90,720	0,076	0,061
-218,840	145,199	0,069	0,066
-217,825	248,604	0,040	-0,048
-216,811	-50,823	-0,086	-0,029
-215,796	-36,120	-0,208	0,080
-214,782	800,000	-0,042	0,099
-213,767	-156,817	0,089	0,004
-212,752	271,547	-0,065	0,082
-211,738	483,317	0,035	-0,056
-210,723	-200,000	0,005	0,075
-209,709	496,953	0,028	0,047
-208,694	531,796	-0,055	-0,093
-207,679	800,000	-0,060	-0,124
-206,665	116,371	-0,069	-0,060
-205,650	160,401	0,061	-0,061
-204,636	800,000	-0,028	-0,075
-203,621	110,797	-0,056	0,048
-202,606	800,000	-0,019	0,040
-201,592	525,339	-0,043	-0,073
-200,577	-200,000	0,013	-0,093
-199,563	505,777	0,081	0,134
-198,548	-41,224	-0,074	-0,027
-197,533	-45,618	0,101	-0,035
-196,519	-31,133	0,066	-0,026
-195,504	-89,461	-0,082	-0,017
-194,490	800,000	-0,052	-0,110
-193,475	-200,000	0,009	-0,063
-192,460	-200,000	0,013	-0,074
-191,446	-200,000	-0,002	0,087
-190,431	647,376	0,024	0,044
-189,417	800,000	0,030	0,089
-188,402	425,768	0,054	-0,084
-187,387	37,788	-0,115	-0,072
-186,373	57,778	-0,150	0,105
-185,358	-92,721	0,174	0,035
-184,344	-129,510	0,061	0,006
-183,329	-106,662	0,006	0,001
-182,315	-71,180	0,144	0,038
-181,300	-85,322	0,087	-0,019
-180,285	800,000	-0,036	-0,106
-179,271	-21,583	0,055	0,024
-178,256	-53,492	-0,056	-0,018
-177,242	-200,000	-0,029	0,209
-176,227	159,321	-0,096	-0,095
-175,212	217,258	0,007	0,008
-174,198	-200,000	-0,001	-0,017
-173,183	-148,281	0,009	0,000
-172,169	6,091	-0,053	-0,028
-171,154	-200,000	-0,006	-0,066
-170,139	-200,000	-0,006	0,053
-169,125	-200,000	0,007	0,063
-168,110	94,733	-0,056	0,046
-167,096	1,354	0,076	0,039
-166,081	800,000	-0,064	-0,131
-165,066	262,438	-0,029	0,036
-164,052	-200,000	-0,033	-0,127
-163,037	18,772	-0,056	-0,032
-162,023	-200,000	-0,017	-0,277
-161,008	-200,000	-0,005	0,144
-159,993	-162,792	-0,006	0,000
-158,979	-14,021	-0,041	-0,019
-157,964	-55,864	-0,047	0,015
-156,950	800,000	0,053	-0,133
-155,935	800,000	-0,030	0,084
-154,920	-0,839	0,085	-0,042
-153,906	-200,000	-0,037	0,168
-152,891	782,952	-0,038	0,074
-151,877	-142,620	0,101	0,007
-150,862	800,000	-0,042	-0,084
-149,847	-83,991	-0,072	-0,016
-148,833	-200,000	-0,003	-0,116
-147,818	-200,000	0,005	0,019
-146,804	800,000	0,022	0,064
-145,789	-63,669	0,111	0,032
-144,775	800,000	0,008	0,023
-143,760	-200,000	-0,001	-0,057
-142,745	-200,000	0,013	-0,077
-141,731	69,349	0,025	0,018
-140,716	-200,000	0,013	-0,061
-139,702	-15,624	0,041	0,019
-138,687	800,000	0,031	0,064
-137,672	152,844	0,026	0,025
-136,658	-116,250	-0,097	0,013
-135,643	-200,000	-0,001	-0,049
-134,629	21,196	0,090	-0,052
-133,614	-109,985	-0,086	-0,013
-132,599	-200,000	0,014	-0,081
-131,585	-21,092	0,082	-0,036
-130,570	-200,000	0,021	-0,105
-129,556	-24,806	-0,034	-0,014
-128,541	129,849	-0,073	0,067
-127,526	11,700	0,089	0,048
-126,512	278,258	0,084	-0,106
-125,497	136,157	0,041	-0,038
-124,483	800,000	-0,049	-0,107
-123,468	123,358	0,068	-0,060
-122,453	28,686	-0,148	0,089
-121,439	151,799	-0,090	-0,087
-120,424	-200,000	-0,012	-0,127
-119,410	-80,909	0,057	-0,013
-118,395	800,000	0,027	-0,079
-117,380	800,000	0,052	0,126
-116,366	52,750	0,035	-0,024
-115,351	-200,000	0,005	-0,037
-114,337	367,336	0,018	0,026
-113,322	-196,899	-0,119	0,001
-112,307	-63,557	0,073	0,021
-111,293	-123,605	0,055	0,006
-110,278	-200,000	-0,004	0,170
-109,264	-27,679	0,017	-0,007
-108,249	131,493	0,060	0,055
-107,234	-200,000	0,023	-0,084
-106,220	-200,000	0,025	-0,107
-105,205	75,998	-0,093	-0,070
-104,191	527,875	0,054	-0,091
-103,176	-15,840	0,032	-0,014
-102,162	294,126	0,022	0,028
-101,147	-115,295	-0,160	-0,021
-100,132	-61,220	-0,210	-0,063
-99,118	77,528	-0,085	-0,064
-98,103	-80,402	-0,107	-0,025
-97,089	-62,645	0,191	-0,056
-96,074	162,745	-0,021	0,021
-95,059	-200,000	0,008	0,058
-94,045	482,106	-0,097	0,157
-93,030	-138,668	-0,075	-0,006
-92,016	800,000	0,045	0,098
-91,001	355,586	-0,031	-0,044
-89,986	-200,000	-0,000	-0,082
-88,972	-200,000	-0,021	0,107
-87,957	20,010	0,042	0,024
-86,943	-200,000	0,000	-0,027
-85,928	119,189	-0,050	0,044
-84,913	-200,000	-0,014	0,050
-83,899	-200,000	-0,011	0,073
-82,884	-200,000	0,024	-0,078
-81,870	-200,000	0,011	0,069
-80,855	532,601	0,058	0,098
-79,840	-200,000	0,007	0,168
-78,826	-200,000	-0,003	-0,041
-77,811	-8,897	-0,094	0,045
-76,797	-200,000	0,026	-0,174
-75,782	800,000	0,048	0,113
-74,767	660,660	0,096	0,177
-73,753	-200,000	0,046	0,158
-72,738	19,524	0,076	0,043
-71,724	300,680	-0,011	0,015
-70,709	223,687	0,110	-0,126
-69,694	606,306	-0,031	0,054
-68,680	-200,000	-0,020	0,107
-67,665	-200,000	-0,049	0,168
-66,651	800,000	0,033	0,093
-65,636	259,742	0,036	0,044
-64,622	385,813	-0,028	0,041
-63,607	-200,000	-0,002	0,012
-62,592	800,000	0,017	0,040
-61,578	-200,000	0,009	-0,051
-60,563	777,027	0,016	0,031
-59,549	-22,960	-0,127	-0,054
-58,534	-34,080	-1,370	-0,531
-57,519	394,401	-1,568	-2,324
-56,505	-200,000	-0,523	-4,560
-55,490	167,984	1,053	1,063
-54,476	800,000	4,661	10,994
-53,461	-200,000	17,956	286,189
-52,446	800,000	725,485	2228,446
-51,432	557,664	1640,598	2815,458
-50,417	79,989	1662,964	1266,033
-49,403	23,310	1536,825	892,888
-48,388	17,296	1460,224	819,284
-47,373	18,013	1450,007	816,968
-46,359	17,533	1440,638	809,365
-45,344	15,604	1435,848	797,439
-44,330	15,503	1434,007	795,901
-43,315	15,565	1431,984	795,044
-42,300	15,540	1430,472	794,053
-41,286	15,557	1429,601	793,621
-40,271	15,551	1428,174	792,769
-39,257	15,522	1426,983	791,939
-38,242	15,569	1425,745	791,440
-37,227	15,618	1424,223	790,799
-36,213	15,561	1423,225	789,944
-35,198	15,557	1422,021	789,223
-34,184	15,572	1421,062	788,733
-33,169	15,527	1419,842	787,809
-32,154	15,582	1418,596	787,349
-31,140	15,640	1417,167	786,794
-30,125	15,632	1416,140	786,155
-29,111	15,559	1415,344	785,340
-28,096	15,524	1414,164	784,490
-27,082	15,472	1412,985	783,559
-26,067	15,544	1411,683	783,144
-25,052	15,506	1410,779	782,434
-24,038	15,476	1409,847	781,745
-23,023	15,459	1409,009	781,170
-22,009	15,420	1407,666	780,213
-20,994	15,408	1407,097	779,810
-19,979	15,434	1406,144	779,375
-18,965	15,421	1404,997	778,648
-17,950	15,402	1404,132	778,045
-16,936	15,420	1403,080	777,518
-15,921	15,378	1401,812	776,586
-14,906	15,398	1400,929	776,159
-13,892	15,341	1400,362	775,549
-12,877	15,379	1399,286	775,102
-11,863	15,393	1398,198	774,534
-10,848	15,363	1397,342	773,890
-9,833	15,340	1396,459	773,263
-8,819	15,293	1395,451	772,457
-7,804	15,270	1394,738	771,922
-6,790	15,286	1393,503	771,282
-5,775	15,280	1392,566	770,706
-4,760	15,267	1391,801	770,192
-3,746	15,314	1390,984	769,926
-2,731	15,239	1390,218	769,126
-1,717	15,262	1389,218	768,646
-0,702	15,335	1387,159	767,816
0,313	19,116	1307,248	741,083
1,327	35,741	707,113	439,422
2,342	55,010	125,034	85,427
3,356	3,885	16,545	8,536
4,371	14,185	3,064	1,686
5,386	8,716	0,652	0,347
6,400	-200,000	0,032	0,101
7,415	23,748	-0,308	-0,179
8,429	-115,516	-0,371	-0,049
9,444	-54,292	-0,379	-0,121
10,459	136,188	-0,283	-0,262
11,473	63,603	-0,308	-0,219
12,488	34,023	-0,303	-0,186
13,502	94,989	-0,277	-0,223
14,517	86,997	-0,325	-0,254
15,531	236,625	-0,328	-0,385
16,546	57,887	-0,387	-0,267
17,561	34,390	-0,445	-0,274
18,575	98,101	-0,134	-0,109
19,590	100,803	-0,280	-0,230
20,604	115,559	-0,236	-0,204
21,619	99,268	-0,354	-0,289
22,634	39,498	-0,500	-0,316
23,648	32,759	-0,405	-0,248
24,663	294,370	-0,249	-0,322
25,677	229,382	-0,303	-0,350
26,692	74,850	-0,350	-0,261
27,707	21,662	-0,387	-0,222
28,721	44,034	-0,394	-0,255
29,736	-5,973	-0,521	-0,251
30,750	-29,168	-0,288	-0,116
31,765	54,284	-0,374	-0,254
32,780	-51,242	-0,341	-0,112
33,794	144,797	-0,308	-0,291
34,809	74,796	-0,354	-0,263
35,823	161,458	-0,305	-0,302
36,838	206,096	-0,325	-0,358
37,853	306,541	-0,288	-0,379
38,867	76,083	-0,428	-0,320
39,882	800,000	-0,139	-0,325
40,896	80,359	-0,385	-0,292
41,911	63,415	-0,283	-0,200
42,926	203,840	-0,240	-0,263
43,940	103,208	-0,297	-0,246
44,955	82,398	-0,331	-0,253
45,969	15,248	-0,415	-0,229
46,984	28,673	-0,446	-0,266
47,999	-32,251	-0,286	-0,112
49,013	5,691	-0,395	-0,205
50,028	-91,136	-0,290	-0,058
51,042	124,405	-0,295	-0,262
52,057	224,358	-0,299	-0,341
53,071	8,002	-0,426	-0,225
54,086	183,209	-0,230	-0,240
55,101	47,208	-0,333	-0,218
56,115	35,860	-0,262	-0,162
57,130	-7,676	-0,323	-0,153
58,144	78,162	-0,261	-0,196
59,159	12,404	-0,417	-0,226
60,174	99,799	-0,414	-0,338
61,188	-5,824	-0,416	-0,200
62,203	41,256	-0,335	-0,213
63,217	371,726	-0,205	-0,294
64,232	110,617	-0,250	-0,211
65,247	324,422	-0,246	-0,332
66,261	107,832	-0,365	-0,306
67,276	120,773	-0,308	-0,270
68,290	171,858	-0,333	-0,337
69,305	87,041	-0,261	-0,203
70,320	66,940	-0,234	-0,168
71,334	-5,757	-0,384	-0,185
72,349	372,335	-0,156	-0,223
73,363	-4,527	-0,399	-0,194
74,378	107,651	-0,290	-0,243
75,393	-46,783	-0,417	-0,143
76,407	80,625	-0,212	-0,161
77,422	89,003	-0,316	-0,247
78,436	88,547	-0,404	-0,316
79,451	181,800	-0,257	-0,266
80,466	27,557	-0,314	-0,186
81,480	271,795	-0,274	-0,340
82,495	8,225	-0,389	-0,205
83,509	60,533	-0,212	-0,147
84,524	114,252	-0,162	-0,139
85,539	27,005	-0,303	-0,178
86,553	-103,679	-0,311	-0,051
87,568	319,053	-0,193	-0,258
88,582	33,733	-0,281	-0,171
89,597	146,962	-0,209	-0,198
90,611	32,857	-0,131	-0,080
91,626	-48,666	-0,245	-0,082
92,641	-72,241	-0,180	-0,046
93,655	13,620	-0,305	-0,166
94,670	41,965	-0,206	-0,131
95,684	-16,571	-0,299	-0,133
96,699	92,562	-0,234	-0,186
97,714	376,609	-0,194	-0,279
98,728	157,823	-0,262	-0,255
99,743	34,432	-0,265	-0,162
100,757	-44,157	-0,210	-0,074
101,772	147,883	-0,250	-0,236
102,787	-84,735	-0,329	-0,072
103,801	-32,602	-0,260	-0,101
104,816	-152,520	-0,325	0,016
105,830	-3,534	-0,325	-0,158
106,845	250,264	-0,190	-0,227
107,860	-118,330	-0,411	-0,051
108,874	-13,392	-0,252	-0,114
109,889	-105,357	-0,340	-0,054
110,903	164,956	-0,207	-0,205
111,918	101,034	-0,236	-0,193
112,933	104,597	-0,221	-0,182
113,947	-1,158	-0,199	-0,098
114,962	69,113	-0,250	-0,180
115,976	162,190	-0,359	-0,353
116,991	114,723	-0,316	-0,270
118,006	38,534	-0,304	-0,190
119,020	-70,725	-0,234	-0,061
120,035	40,667	-0,242	-0,152
121,049	20,372	-0,155	-0,087
122,064	-135,783	-0,275	0,022
123,079	-10,158	-0,365	-0,169
124,093	15,801	-0,145	-0,080
125,108	155,187	-0,265	-0,255
126,122	180,161	-0,222	-0,228
127,137	-5,203	-0,190	-0,091
128,151	800,000	-0,087	-0,173
129,166	42,764	-0,197	-0,125
130,181	315,810	-0,178	-0,235
131,195	541,747	-0,132	-0,222
132,210	-47,710	-0,322	-0,109
133,224	-61,006	-0,245	-0,072
134,239	-24,340	-0,283	-0,117
135,254	-79,518	-0,162	-0,038
136,268	161,399	-0,199	-0,195
137,283	-1,008	-0,243	-0,120
138,297	31,182	-0,266	-0,160
139,312	-200,000	-0,077	-0,247
140,327	114,232	-0,234	-0,199
141,341	110,210	-0,224	-0,188
142,356	309,681	-0,195	-0,256
143,370	-78,490	-0,226	-0,054
144,385	145,395	-0,238	-0,223
145,400	68,594	-0,323	-0,231
146,414	120,853	-0,385	-0,335
147,429	59,753	-0,215	-0,148
148,443	-32,628	-0,277	-0,107
149,458	24,264	-0,258	-0,149
150,473	29,042	-0,232	-0,137
151,487	178,141	-0,225	-0,230
152,502	41,294	-0,353	-0,223
153,516	32,532	-0,152	-0,092
154,531	301,609	-0,197	-0,255
155,546	397,194	-0,179	-0,262
156,560	12,589	-0,342	-0,184
157,575	-23,873	-0,143	-0,060
158,589	19,012	-0,230	-0,128
159,604	-113,022	-0,120	-0,016
160,619	133,620	-0,177	-0,160
161,633	-23,606	-0,300	-0,125
162,648	23,095	-0,209	-0,120
163,662	17,380	-0,293	-0,162
164,677	-2,787	-0,212	-0,103
165,692	291,043	-0,157	-0,199
166,706	-5,138	-0,265	-0,127
167,721	104,045	-0,264	-0,216
168,735	-114,786	-0,182	-0,024
169,750	461,711	-0,178	-0,279
170,764	329,031	-0,215	-0,289
171,779	145,806	-0,177	-0,165
172,794	185,686	-0,148	-0,154
173,808	104,206	-0,207	-0,170
174,823	74,703	-0,253	-0,186
175,837	266,470	-0,216	-0,264
176,852	154,868	-0,224	-0,215
177,867	136,317	-0,271	-0,246
178,881	-91,967	-0,265	-0,052
179,896	-65,434	-0,260	-0,072
180,910	79,354	-0,281	-0,210
181,925	96,106	-0,225	-0,180
182,940	158,791	-0,162	-0,157
183,954	229,934	-0,137	-0,156
184,969	-150,920	-0,304	-0,016
185,983	-200,000	-0,028	-0,127
186,998	263,871	-0,172	-0,209
188,013	-23,649	-0,203	-0,084
189,027	305,541	-0,138	-0,180
190,042	93,454	-0,243	-0,192
191,056	240,675	-0,189	-0,220
192,071	35,732	-0,311	-0,190
193,086	154,174	-0,060	-0,057
194,100	-45,982	-0,292	-0,100
195,115	130,657	-0,131	-0,117
196,129	25,289	-0,182	-0,105
197,144	131,944	-0,262	-0,235
198,159	-94,471	-0,144	-0,027
199,173	800,000	-0,187	-0,370
200,188	52,829	-0,114	-0,076
201,202	253,440	-0,146	-0,174
202,217	-35,408	-0,179	-0,067
203,232	-10,135	-0,259	-0,119
204,246	72,431	-0,276	-0,200
205,261	-42,454	-0,234	-0,083
206,275	800,000	-0,073	-0,176
207,290	-200,000	-0,027	-0,237
208,304	277,351	-0,064	-0,080
209,319	-122,404	-0,245	0,027
210,334	-49,086	-0,308	-0,102
211,348	171,526	-0,166	-0,166
212,363	121,041	-0,205	-0,177
213,377	78,076	-0,131	-0,097
214,392	-126,972	-0,131	0,013
215,407	18,345	-0,211	-0,117
216,421	82,875	-0,173	-0,131
217,436	39,616	-0,138	-0,086
218,450	-55,953	-0,263	-0,081
219,465	83,964	-0,318	-0,241
220,480	22,019	-0,145	-0,082
221,494	50,773	-0,147	-0,097
222,509	272,106	-0,117	-0,144
223,523	111,172	-0,151	-0,127
224,538	127,327	-0,247	-0,218
225,553	169,040	-0,254	-0,252
226,567	131,339	-0,204	-0,182
227,582	155,582	-0,265	-0,254
228,596	422,631	-0,170	-0,254
229,611	-71,059	-0,278	-0,072
230,626	800,000	-0,087	-0,194
231,640	72,911	-0,206	-0,149
232,655	-0,259	-0,259	-0,128
233,669	-20,782	-0,150	-0,063
234,684	86,762	-0,165	-0,126
235,699	64,899	-0,157	-0,110
236,713	628,924	-0,087	-0,154
237,728	-45,099	-0,213	-0,073
238,742	-80,607	-0,195	0,045
239,757	179,280	-0,261	-0,265
240,772	12,251	-0,249	-0,132
241,786	123,831	-0,161	-0,141
242,801	282,074	-0,199	-0,248
243,815	94,927	-0,160	-0,126
244,830	187,382	-0,179	-0,185
245,844	369,395	-0,148	-0,208
246,859	4,577	-0,134	-0,068
247,874	167,172	-0,161	-0,158
248,888	153,572	-0,194	-0,184
249,903	-30,609	-0,278	-0,109
250,917	15,346	-0,191	-0,104
251,932	3,796	-0,133	0,067
252,947	-183,230	-0,224	0,003
253,961	94,247	-0,235	-0,184
254,976	75,877	-0,169	-0,124
255,990	468,844	-0,151	-0,236
257,005	-16,825	-0,102	-0,044
258,020	-76,483	-0,119	-0,029
259,034	800,000	-0,050	-0,142
260,049	-3,174	-0,207	-0,100
261,063	-49,695	-0,179	-0,059
262,078	203,428	-0,216	-0,231
263,093	282,851	-0,128	-0,159
264,107	66,973	-0,080	-0,056
265,122	-86,267	-0,087	-0,018
266,136	224,317	-0,117	-0,131
267,151	151,812	-0,160	-0,151
268,166	183,456	-0,137	-0,140
269,180	-200,000	-0,024	-0,197
270,195	575,809	-0,163	-0,276
271,209	174,249	-0,270	-0,270
272,224	-40,931	-0,264	-0,094
273,239	187,105	-0,205	-0,211
274,253	218,072	-0,146	-0,162
275,268	382,454	-0,077	-0,110
276,282	70,928	-0,160	-0,115
277,297	119,762	-0,240	-0,205
278,312	-8,025	-0,276	-0,128
279,326	418,147	-0,072	-0,107
280,341	-200,000	-0,006	-0,118
281,355	143,934	-0,071	-0,066
282,370	-38,775	-0,089	-0,032
283,384	151,527	-0,189	-0,178
284,399	203,181	-0,294	-0,315
285,414	15,255	-0,141	-0,076
286,428	10,308	-0,158	-0,083
287,443	72,946	-0,040	0,029
288,457	800,000	0,063	-0,147
289,472	-200,000	0,010	-0,203
290,487	84,580	-0,220	-0,166
291,501	73,200	-0,182	-0,132
292,516	168,579	-0,206	-0,203
293,530	-80,137	-0,219	-0,050
294,545	-41,558	-0,166	-0,059
295,560	-30,286	-0,070	0,027
296,574	491,299	0,034	-0,054
297,589	-5,057	-0,251	-0,119
298,603	139,760	-0,171	-0,155
299,618	38,975	-0,205	-0,126
300,633	122,310	-0,107	-0,092
301,647	-161,473	-0,197	0,007
302,662	-48,977	-0,204	0,067
303,676	-200,000	-0,046	-0,222
304,691	-133,428	-0,367	-0,031
305,706	-15,268	-0,273	-0,120
306,720	113,882	-0,162	-0,135
307,735	79,850	-0,164	-0,121
308,749	126,101	-0,135	-0,118
309,764	109,890	-0,217	-0,180
310,779	-45,005	-0,182	-0,062
311,793	-5,537	-0,254	-0,120
312,808	158,007	-0,146	-0,140
313,822	743,048	-0,130	-0,243
314,837	62,255	-0,232	-0,159
315,852	2,884	-0,125	0,062
316,866	-76,661	-0,240	0,058
317,881	9,106	-0,133	-0,069
318,895	30,898	-0,167	-0,099
319,910	756,009	-0,069	-0,129
320,925	-12,308	-0,196	-0,088
321,939	-200,000	-0,011	-0,035
322,954	8,984	-0,112	-0,058
323,968	-200,000	-0,014	-0,076
324,983	-200,000	-0,017	-0,090
325,997	800,000	-0,105	-0,230
327,012	-50,614	-0,137	-0,044
328,027	118,790	-0,154	-0,131
329,041	156,404	-0,090	0,086
330,056	-104,845	-0,114	0,018
331,070	265,248	-0,198	-0,239
332,085	41,073	-0,190	-0,118
333,100	-188,078	-0,139	-0,001
334,114	24,705	-0,139	-0,079
335,129	-51,104	-0,126	-0,040
336,143	230,299	-0,092	-0,103
337,158	-140,172	-0,191	0,014
338,173	525,110	-0,078	-0,127
339,187	174,417	-0,179	-0,178
340,202	95,483	-0,154	-0,121
341,216	136,800	-0,235	-0,211
342,231	800,000	-0,102	-0,212
343,246	81,761	-0,256	-0,191
344,260	-200,000	0,045	-0,141
345,275	-99,665	-0,134	-0,023
346,289	94,907	-0,064	-0,050
347,304	-139,844	-0,175	-0,013
348,319	-86,098	-0,113	0,024
349,333	-7,772	-0,157	-0,073
350,348	132,162	-0,187	-0,165
351,362	44,688	-0,042	-0,027
352,377	-200,000	0,008	-0,030
353,392	167,171	-0,109	-0,106
354,406	800,000	-0,061	-0,151
355,421	210,317	1313,555	1418,236
356,435	161,903	1474,156	1418,742
