DTS Sentinel unit serial number:	SN410029Multiplexer serial number:	ORYXHardware model number:	OX2-SRSoftware version number:	ORYX F/W v4,00 Oryx Data Collector v3.7.2.0data status	okinstallation	B3 Nyhavnadifferential loss correction	single-endedforward channel	channel 1reverse channel	N/Adate	2023/12/01time	19:47:30forward acquisition time	300,00reverse acquisition time	0,00gamma	499,1914k internal	0,3199k external	0,3199temperature offset calibration	1,0000default loss term (dB/km)	0,3820temperature slope calibration	1,0000multiplexer offset coefficient	1,0000multiplexer slope coefficient	1,0000fibre end	0,00T internal ref (°C)	15,61T ext. ref 1 (°C)	1,40T ext. ref 2 (°C)	1,39length (m)	temperature (°C)	Stokes	anti-Stokes-744,400	141,279	-0,246	-0,237
-743,385	-200,000	0,112	0,459
-742,371	187,037	-0,282	-0,306
-741,356	659,768	0,144	0,271
-740,342	800,000	-0,065	-0,185
-739,327	800,000	0,103	0,228
-738,312	223,243	-0,217	-0,255
-737,298	-200,000	0,048	0,182
-736,283	-200,000	-0,048	-0,258
-735,269	-200,000	0,047	0,234
-734,254	-20,042	-0,274	-0,122
-733,239	143,547	-0,198	0,192
-732,225	614,830	-0,124	-0,227
-731,210	72,539	0,117	0,089
-730,196	800,000	0,023	-0,051
-729,181	14,958	-0,039	-0,022
-728,167	-59,190	0,032	-0,010
-727,152	-98,478	-0,062	0,011
-726,137	-5,420	0,026	0,013
-725,123	234,236	-0,017	0,020
-724,108	-177,153	-0,080	-0,001
-723,094	800,000	-0,051	0,105
-722,079	800,000	-0,022	0,048
-721,064	-81,645	0,135	-0,032
-720,050	-179,846	0,114	-0,002
-719,035	-200,000	-0,009	-0,052
-718,021	800,000	-0,055	0,162
-717,006	-155,222	-0,136	0,006
-715,991	31,334	-0,088	-0,055
-714,977	800,000	0,078	-0,159
-713,962	272,273	0,051	-0,066
-712,948	194,814	-0,035	-0,039
-711,933	-200,000	-0,007	0,112
-710,918	37,135	0,067	-0,043
-709,904	-200,000	0,012	0,055
-708,889	-178,531	-0,056	0,001
-707,875	-200,000	0,012	-0,060
-706,860	103,279	0,115	0,098
-705,845	638,166	-0,002	0,005
-704,831	-15,146	0,088	0,041
-703,816	8,208	-0,015	0,008
-702,802	-71,901	-0,120	0,032
-701,787	-200,000	-0,030	-0,121
-700,772	137,675	-0,063	0,060
-699,758	-141,980	-0,077	0,005
-698,743	98,858	0,027	0,023
-697,729	0,196	-0,048	0,025
-696,714	724,642	-0,040	-0,079
-695,699	1,387	-0,016	-0,008
-694,685	147,505	-0,067	-0,066
-693,670	-26,467	-0,022	-0,009
-692,656	23,400	-0,047	-0,028
-691,641	-200,000	-0,002	0,064
-690,627	-200,000	0,010	-0,060
-689,612	-102,404	0,012	-0,002
-688,597	-108,484	-0,095	0,015
-687,583	195,500	-0,117	-0,129
-686,568	-182,771	-0,046	-0,001
-685,554	-68,196	-0,083	0,023
-684,539	-12,745	0,037	-0,017
-683,524	-183,298	0,114	-0,001
-682,510	79,876	-0,094	0,073
-681,495	-200,000	-0,003	-0,034
-680,481	800,000	-0,069	0,168
-679,466	-200,000	0,013	-0,104
-678,451	-74,701	-0,114	-0,030
-677,437	59,641	-0,111	0,079
-676,422	163,757	0,024	0,025
-675,408	-65,440	0,125	-0,036
-674,393	-31,950	0,120	-0,048
-673,378	96,512	-0,110	0,091
-672,364	289,533	-0,074	-0,097
-671,349	800,000	0,053	-0,152
-670,335	-200,000	-0,022	0,086
-669,320	-125,057	0,071	0,008
-668,305	-94,978	0,119	-0,023
-667,291	-5,081	-0,068	-0,034
-666,276	-155,732	-0,077	-0,004
-665,262	-121,685	-0,116	-0,014
-664,247	800,000	-0,025	-0,053
-663,232	101,457	0,026	-0,022
-662,218	-200,000	0,010	-0,035
-661,203	143,322	-0,128	0,124
-660,189	80,332	-0,066	0,052
-659,174	-13,545	-0,081	-0,038
-658,159	155,218	-0,091	-0,091
-657,145	-200,000	0,001	-0,101
-656,130	-59,692	0,015	-0,005
-655,116	-7,922	-0,030	-0,015
-654,101	-200,000	0,015	-0,065
-653,086	117,559	-0,037	-0,033
-652,072	-152,241	-0,158	-0,008
-651,057	258,160	-0,152	-0,190
-650,043	265,145	-0,044	-0,056
-649,028	-200,000	-0,004	-0,095
-648,014	-200,000	-0,009	0,135
-646,999	606,870	0,051	-0,092
-645,984	-111,953	-0,111	0,016
-644,970	71,480	0,127	-0,096
-643,955	79,975	0,076	-0,059
-642,941	-35,611	-0,118	0,046
-641,926	122,749	-0,136	-0,123
-640,911	14,208	-0,095	-0,054
-639,897	34,103	-0,097	-0,061
-638,882	-139,790	-0,070	0,005
-637,868	129,551	0,022	0,020
-636,853	-2,863	-0,103	-0,052
-635,838	85,812	-0,124	-0,099
-634,824	7,701	0,071	-0,039
-633,809	800,000	0,069	-0,170
-632,795	-75,220	0,069	0,018
-631,780	-200,000	0,006	-0,037
-630,765	132,743	-0,022	-0,020
-629,751	38,256	0,036	-0,023
-628,736	409,956	-0,086	-0,133
-627,722	-200,000	-0,008	-0,116
-626,707	800,000	0,024	0,071
-625,692	140,093	-0,059	-0,056
-624,678	-30,772	-0,099	0,040
-623,663	16,615	0,154	0,088
-622,649	323,196	-0,079	0,109
-621,634	-200,000	-0,002	-0,048
-620,619	800,000	-0,035	0,072
-619,605	800,000	-0,038	-0,091
-618,590	57,191	0,053	-0,037
-617,576	452,033	0,031	-0,050
-616,561	-200,000	0,018	0,074
-615,546	-101,676	-0,109	-0,019
-614,532	-200,000	0,007	-0,126
-613,517	800,000	0,047	0,096
-612,503	155,713	-0,064	-0,064
-611,488	-103,174	0,123	0,021
-610,474	-162,955	0,015	0,001
-609,459	-25,914	-0,148	-0,063
-608,444	184,006	0,043	0,046
-607,430	21,771	-0,087	-0,051
-606,415	98,819	-0,047	-0,039
-605,401	-50,934	-0,022	-0,007
-604,386	-102,719	0,127	0,022
-603,371	185,559	0,071	0,076
-602,357	-11,190	0,044	0,021
-601,342	19,521	0,070	-0,041
-600,328	-0,770	0,141	-0,072
-599,313	181,327	-0,026	0,028
-598,298	-179,919	0,022	-0,000
-597,284	32,249	0,085	0,053
-596,269	-200,000	-0,034	0,179
-595,255	267,961	0,067	0,085
-594,240	744,896	-0,043	0,085
-593,225	-200,000	-0,040	-0,200
-592,211	-105,484	-0,125	-0,020
-591,196	19,161	0,138	-0,080
-590,182	267,028	0,059	0,075
-589,167	145,620	0,032	0,031
-588,152	-112,087	-0,151	0,022
-587,138	99,176	0,073	0,061
-586,123	675,482	-0,087	-0,164
-585,109	71,316	-0,091	-0,068
-584,094	235,872	-0,051	-0,061
-583,079	-200,000	-0,031	-0,106
-582,065	-20,424	0,115	0,051
-581,050	-177,061	-0,125	-0,002
-580,036	81,925	-0,074	0,058
-579,021	178,438	-0,043	0,046
-578,006	-200,000	-0,009	-0,126
-576,992	-200,000	0,005	-0,151
-575,977	-11,920	0,076	0,036
-574,963	800,000	-0,036	0,100
-573,948	28,072	0,071	0,044
-572,934	-200,000	-0,019	0,117
-571,919	-9,336	-0,142	0,068
-570,904	800,000	0,017	-0,035
-569,890	-9,407	0,025	-0,012
-568,875	-82,447	-0,182	0,042
-567,861	-200,000	0,009	0,037
-566,846	191,645	-0,062	0,068
-565,831	321,168	-0,111	-0,154
-564,817	-149,254	-0,064	0,004
-563,802	-200,000	-0,048	-0,191
-562,788	-29,957	0,026	0,011
-561,773	-61,910	-0,113	0,034
-560,758	32,648	0,087	-0,054
-559,744	-200,000	0,018	0,160
-558,729	-200,000	-0,003	-0,065
-557,715	488,626	-0,105	0,174
-556,700	-200,000	0,004	-0,050
-555,685	9,266	-0,033	-0,018
-554,671	619,353	-0,016	0,028
-553,656	800,000	0,023	-0,055
-552,642	-200,000	-0,031	0,188
-551,627	-42,404	-0,059	-0,022
-550,612	-200,000	0,018	0,075
-549,598	800,000	-0,037	0,080
-548,583	-200,000	0,023	-0,105
-547,569	653,939	0,056	-0,104
-546,554	-49,768	0,054	-0,018
-545,539	-200,000	-0,011	-0,071
-544,525	800,000	0,052	0,119
-543,510	99,440	-0,038	0,032
-542,496	-200,000	0,019	-0,118
-541,481	-144,658	0,145	-0,010
-540,466	-74,498	-0,037	0,010
-539,452	268,275	0,096	-0,122
-538,437	-87,431	0,111	-0,024
-537,423	-80,924	0,148	0,035
-536,408	800,000	-0,012	-0,036
-535,393	-113,081	0,046	0,006
-534,379	-3,958	-0,132	0,066
-533,364	800,000	-0,034	-0,093
-532,350	231,177	0,049	0,058
-531,335	-43,080	-0,091	0,033
-530,321	-200,000	0,014	0,197
-529,306	-62,602	0,095	0,028
-528,291	800,000	-0,026	-0,066
-527,277	38,559	-0,062	-0,040
-526,262	800,000	0,077	-0,190
-525,248	-200,000	0,001	-0,108
-524,233	227,835	0,029	-0,034
-523,218	104,968	-0,016	0,014
-522,204	-92,063	0,148	-0,030
-521,189	800,000	-0,040	0,124
-520,175	-95,811	-0,078	-0,015
-519,160	-200,000	0,010	0,080
-518,145	-200,000	0,008	-0,079
-517,131	214,355	0,091	0,104
-516,116	-200,000	0,001	-0,015
-515,102	-31,515	-0,020	-0,008
-514,087	673,151	0,017	-0,033
-513,072	800,000	-0,059	-0,134
-512,058	-200,000	0,025	-0,092
-511,043	-68,207	0,034	0,010
-510,029	66,133	0,059	0,043
-509,014	74,480	-0,090	-0,068
-507,999	20,311	-0,064	-0,037
-506,985	602,240	0,053	-0,095
-505,970	-176,918	-0,112	0,002
-504,956	-71,309	-0,072	0,019
-503,941	-200,000	0,034	-0,111
-502,926	61,848	-0,100	-0,072
-501,912	-186,771	-0,049	-0,000
-500,897	800,000	-0,049	0,099
-499,883	800,000	0,022	0,052
-498,868	37,199	0,046	-0,029
-497,853	800,000	0,006	0,015
-496,839	27,846	0,042	0,025
-495,824	-50,545	0,163	0,055
-494,810	-200,000	-0,011	0,118
-493,795	-51,719	0,063	0,021
-492,781	-153,045	-0,106	-0,005
-491,766	-200,000	-0,003	-0,081
-490,751	800,000	0,061	-0,150
-489,737	52,560	-0,075	0,051
-488,722	141,935	0,068	-0,065
-487,708	-200,000	0,006	0,027
-486,693	34,221	0,011	0,007
-485,678	435,986	-0,041	0,065
-484,664	200,392	-0,030	-0,033
-483,649	-124,033	-0,169	-0,019
-482,635	-83,907	-0,065	0,015
-481,620	-200,000	0,022	-0,109
-480,605	10,282	0,158	-0,086
-479,591	405,649	0,054	-0,082
-478,576	800,000	-0,037	-0,107
-477,562	-200,000	0,003	-0,122
-476,547	576,679	0,082	-0,145
-475,532	-15,016	-0,029	-0,013
-474,518	-81,303	0,156	-0,037
-473,503	-200,000	0,002	-0,094
-472,489	467,476	0,041	0,067
-471,474	-144,602	-0,069	0,004
-470,459	-58,657	-0,116	-0,036
-469,445	-0,471	-0,059	0,030
-468,430	-18,592	-0,088	-0,039
-467,416	39,652	0,121	0,078
-466,401	12,679	-0,088	0,049
-465,386	371,153	0,014	0,021
-464,372	-200,000	0,002	-0,065
-463,357	800,000	-0,003	0,009
-462,343	-200,000	0,008	0,134
-461,328	370,793	0,071	-0,104
-460,313	-200,000	0,001	-0,025
-459,299	275,830	0,114	-0,146
-458,284	37,648	-0,162	0,103
-457,270	-200,000	-0,037	0,162
-456,255	-30,374	-0,063	0,026
-455,241	-50,861	-0,153	-0,051
-454,226	-200,000	-0,006	-0,128
-453,211	-200,000	0,033	0,138
-452,197	120,540	0,034	-0,031
-451,182	-200,000	0,022	0,176
-450,168	448,577	-0,056	0,088
-449,153	237,036	0,050	-0,060
-448,138	-101,385	-0,159	0,028
-447,124	15,003	-0,082	-0,046
-446,109	-200,000	0,019	-0,073
-445,095	-200,000	-0,004	0,038
-444,080	538,302	0,039	0,067
-443,065	-21,949	-0,039	0,017
-442,051	-64,064	-0,104	-0,030
-441,036	-200,000	-0,007	-0,028
-440,022	-25,271	0,064	0,027
-439,007	-65,409	0,196	-0,056
-437,992	-200,000	-0,020	0,096
-436,978	573,267	-0,072	0,127
-435,963	322,439	0,056	-0,076
-434,949	-97,973	-0,140	-0,026
-433,934	-74,228	0,048	-0,012
-432,919	12,548	-0,053	-0,029
-431,905	270,812	-0,067	-0,085
-430,890	-200,000	-0,004	-0,032
-429,876	54,846	-0,020	0,014
-428,861	442,011	0,060	0,095
-427,846	143,780	-0,029	-0,028
-426,832	225,959	-0,047	-0,055
-425,817	91,375	0,040	-0,032
-424,803	110,163	-0,019	-0,016
-423,788	-33,568	-0,029	-0,012
-422,773	800,000	0,034	0,070
-421,759	501,960	0,112	-0,186
-420,744	276,953	0,041	0,053
-419,730	800,000	0,031	-0,099
-418,715	800,000	0,026	-0,060
-417,701	316,305	-0,038	-0,052
-416,686	32,304	0,040	-0,025
-415,671	247,920	0,038	-0,046
-414,657	-2,301	-0,082	0,041
-413,642	-200,000	-0,001	0,136
-412,628	800,000	-0,038	0,076
-411,613	124,509	0,029	0,026
-410,598	87,685	-0,164	-0,131
-409,584	93,766	0,096	-0,078
-408,569	112,799	0,053	0,046
-407,555	-200,000	-0,007	0,095
-406,540	-62,778	0,099	0,029
-405,525	148,836	-0,073	0,071
-404,511	800,000	0,022	0,055
-403,496	-200,000	-0,013	-0,052
-402,482	-122,979	0,013	0,001
-401,467	-200,000	-0,004	0,017
-400,452	132,446	0,061	-0,057
-399,438	-29,301	0,064	-0,026
-398,423	-68,570	-0,100	-0,028
-397,409	-200,000	0,028	-0,122
-396,394	800,000	-0,039	0,083
-395,379	800,000	-0,037	0,080
-394,365	-200,000	-0,010	-0,072
-393,350	800,000	-0,036	0,088
-392,336	-200,000	0,024	0,118
-391,321	-200,000	0,021	0,074
-390,306	-200,000	0,002	-0,033
-389,292	16,257	0,119	0,067
-388,277	-74,128	-0,076	0,020
-387,263	375,815	-0,015	0,022
-386,248	400,657	0,048	0,073
-385,233	-200,000	-0,006	0,069
-384,219	658,611	-0,049	-0,092
-383,204	431,525	0,031	0,049
-382,190	-150,184	-0,096	-0,005
-381,175	592,502	-0,023	-0,041
-380,160	-200,000	-0,015	0,096
-379,146	100,611	0,019	0,016
-378,131	-200,000	-0,000	0,054
-377,117	-200,000	0,001	-0,098
-376,102	800,000	0,056	-0,129
-375,088	776,072	-0,038	-0,075
-374,073	8,048	0,073	-0,039
-373,058	-137,658	0,024	0,002
-372,044	254,054	-0,044	0,054
-371,029	143,909	0,040	0,038
-370,015	-156,355	0,156	0,007
-369,000	-0,758	-0,086	0,044
-367,985	-80,877	-0,135	-0,032
-366,971	-150,730	0,066	0,004
-365,956	703,308	-0,074	0,141
-364,942	-200,000	-0,021	0,140
-363,927	-158,599	0,084	0,003
-362,912	-78,185	0,058	-0,014
-361,898	-200,000	-0,034	0,000
-360,883	756,974	-0,076	-0,148
-359,869	-72,926	0,062	0,016
-358,854	-101,599	0,108	-0,019
-357,839	26,534	0,109	0,065
-356,825	-49,086	0,134	0,046
-355,810	-58,723	-0,122	-0,038
-354,796	-200,000	-0,026	-0,087
-353,781	-200,000	-0,007	-0,042
-352,766	188,297	-0,004	-0,005
-351,752	187,669	0,033	0,036
-350,737	96,575	0,135	0,111
-349,723	97,935	0,116	0,096
-348,708	95,969	0,058	-0,047
-347,693	94,942	0,071	-0,058
-346,679	2,802	0,111	0,058
-345,664	-3,741	-0,020	0,010
-344,650	54,224	0,035	-0,024
-343,635	152,389	0,061	-0,060
-342,620	110,173	0,109	0,094
-341,606	518,619	0,012	-0,021
-340,591	800,000	0,062	0,127
-339,577	121,772	-0,085	-0,076
-338,562	21,950	-0,142	-0,083
-337,548	318,480	-0,087	-0,118
-336,533	-200,000	0,013	0,100
-335,518	173,044	-0,140	0,144
-334,504	574,300	0,036	0,063
-333,489	-200,000	0,010	0,044
-332,475	-98,179	-0,192	-0,035
-331,460	-164,150	0,081	-0,003
-330,445	98,814	-0,131	0,109
-329,431	800,000	-0,024	0,055
-328,416	6,343	-0,074	-0,039
-327,402	190,408	0,022	-0,024
-326,387	279,735	-0,082	-0,106
-325,372	53,466	0,007	0,005
-324,358	-35,996	0,150	0,058
-323,343	-200,000	-0,002	0,010
-322,329	800,000	-0,026	-0,079
-321,314	28,256	-0,039	0,024
-320,299	-200,000	-0,001	0,154
-319,285	159,406	0,067	-0,067
-318,270	-102,253	-0,110	0,019
-317,256	-33,371	0,023	0,009
-316,241	-200,000	0,006	-0,041
-315,226	169,752	0,036	0,037
-314,212	499,464	0,075	0,124
-313,197	-84,581	0,151	0,034
-312,183	-200,000	-0,027	0,106
-311,168	6,019	-0,086	0,046
-310,153	-47,761	-0,087	-0,030
-309,139	-46,240	-0,099	0,035
-308,124	-139,790	0,072	0,005
-307,110	0,790	0,164	0,084
-306,095	32,754	0,039	-0,024
-305,080	800,000	0,032	-0,098
-304,066	10,190	-0,137	-0,075
-303,051	296,422	-0,038	-0,050
-302,037	77,448	-0,102	-0,078
-301,022	-11,242	-0,085	-0,040
-300,008	-200,000	-0,019	-0,121
-298,993	3,935	-0,029	0,015
-297,978	631,639	0,031	-0,057
-296,964	-144,068	0,030	0,002
-295,949	60,343	-0,010	-0,007
-294,935	214,105	-0,068	-0,077
-293,920	3,429	-0,069	0,036
-292,905	800,000	0,037	0,117
-291,891	70,297	0,068	-0,050
-290,876	-200,000	-0,022	0,085
-289,862	-132,618	-0,055	0,005
-288,847	515,081	-0,035	-0,058
-287,832	325,365	-0,062	-0,085
-286,818	-101,435	-0,114	0,020
-285,803	189,818	0,111	0,119
-284,789	-12,898	-0,051	-0,024
-283,774	66,632	0,105	-0,076
-282,759	94,833	-0,014	-0,011
-281,745	-160,817	0,011	0,000
-280,730	800,000	-0,015	-0,032
-279,716	586,321	-0,018	-0,033
-278,701	9,920	0,134	0,072
-277,686	79,996	-0,069	-0,053
-276,672	525,585	0,068	-0,114
-275,657	-200,000	-0,031	0,110
-274,643	-84,247	-0,154	-0,035
-273,628	79,870	0,103	-0,079
-272,613	-95,170	-0,055	0,010
-271,599	29,327	0,117	0,071
-270,584	-49,796	0,094	-0,032
-269,570	-41,376	0,049	0,018
-268,555	-200,000	-0,002	0,039
-267,540	255,918	-0,080	0,099
-266,526	-85,820	-0,138	0,030
-265,511	80,671	0,083	0,064
-264,497	-121,141	-0,079	-0,009
-263,482	-200,000	0,048	0,282
-262,467	-200,000	-0,003	0,124
-261,453	-200,000	0,017	-0,055
-260,438	-112,393	-0,139	0,020
-259,424	447,235	0,028	-0,044
-258,409	151,215	0,035	0,034
-257,395	-158,789	0,186	-0,007
-256,380	395,745	0,100	0,149
-255,365	359,537	-0,035	-0,050
-254,351	800,000	-0,034	0,098
-253,336	42,960	-0,073	-0,047
-252,322	-29,946	-0,147	0,059
-251,307	-200,000	0,016	0,056
-250,292	-166,054	-0,100	0,003
-249,278	275,981	0,064	0,081
-248,263	-64,199	0,122	0,035
-247,249	49,256	0,062	0,041
-246,234	800,000	0,036	0,094
-245,219	75,682	-0,096	0,072
-244,205	-200,000	0,000	-0,003
-243,190	-200,000	-0,003	0,043
-242,176	120,915	0,109	-0,097
-241,161	399,427	0,048	0,073
-240,146	-112,236	0,086	0,012
-239,132	100,550	0,044	-0,036
-238,117	800,000	0,074	-0,196
-237,103	-200,000	0,038	-0,213
-236,088	433,816	-0,043	-0,066
-235,073	139,592	-0,083	-0,078
-234,059	183,203	0,045	0,048
-233,044	-200,000	0,030	0,140
-232,030	-89,021	0,044	-0,009
-231,015	793,812	0,062	-0,123
-230,000	-46,695	-0,028	0,010
-228,986	-200,000	0,016	0,237
-227,971	-200,000	-0,021	0,068
-226,957	612,800	0,067	0,120
-225,942	165,072	0,068	0,068
-224,927	371,767	-0,112	-0,163
-223,913	143,892	0,046	0,044
-222,898	507,490	0,041	-0,068
-221,884	-163,386	-0,089	0,003
-220,869	465,334	0,032	0,051
-219,855	321,822	-0,055	0,075
-218,840	800,000	-0,045	-0,120
-217,825	793,688	-0,040	-0,080
-216,811	301,723	0,079	0,104
-215,796	-21,389	-0,039	0,017
-214,782	-136,117	-0,072	0,006
-213,767	56,036	0,119	-0,083
-212,752	-200,000	0,012	0,062
-211,738	-200,000	0,042	0,136
-210,723	-183,125	0,106	-0,001
-209,709	-15,681	0,023	-0,011
-208,694	-200,000	-0,000	-0,028
-207,679	346,879	0,010	-0,013
-206,665	-10,648	-0,044	0,021
-205,650	58,143	-0,035	0,024
-204,636	-200,000	-0,001	0,086
-203,621	53,464	-0,070	0,048
-202,606	364,343	-0,082	-0,118
-201,592	-200,000	0,015	0,062
-200,577	164,345	-0,016	0,016
-199,563	-200,000	0,003	-0,081
-198,548	-200,000	0,017	0,122
-197,533	-156,739	0,091	-0,004
-196,519	-145,604	0,075	0,005
-195,504	-200,000	-0,008	0,058
-194,490	800,000	-0,037	0,099
-193,475	679,717	0,037	-0,068
-192,460	708,294	0,036	0,067
-191,446	151,825	0,118	0,114
-190,431	272,694	0,035	-0,044
-189,417	-138,537	0,078	-0,006
-188,402	-92,351	-0,159	0,032
-187,387	800,000	-0,035	-0,074
-186,373	800,000	0,077	-0,174
-185,358	-145,835	0,035	-0,002
-184,344	180,597	0,131	-0,137
-183,329	10,569	0,083	0,045
-182,315	-200,000	-0,013	0,123
-181,300	394,960	0,027	0,040
-180,285	-49,948	-0,104	-0,035
-179,271	-7,737	0,045	0,022
-178,256	-200,000	-0,006	0,098
-177,242	-27,958	0,103	-0,042
-176,227	585,287	0,058	0,101
-175,212	-200,000	0,035	0,161
-174,198	311,775	0,052	-0,070
-173,183	-200,000	-0,037	-0,258
-172,169	-200,000	0,017	-0,065
-171,154	800,000	-0,061	-0,177
-170,139	29,133	0,032	-0,019
-169,125	800,000	0,011	-0,032
-168,110	6,763	0,029	-0,016
-167,096	407,229	-0,167	0,251
-166,081	800,000	-0,047	0,120
-165,066	172,615	0,103	-0,105
-164,052	800,000	-0,064	-0,150
-163,037	-170,378	-0,113	0,003
-162,023	-57,097	0,090	0,028
-161,008	-159,367	0,015	0,001
-159,993	565,850	-0,099	0,172
-158,979	17,217	0,067	0,038
-157,964	-68,261	-0,094	0,026
-156,950	104,548	-0,086	0,072
-155,935	154,172	0,096	-0,093
-154,920	372,694	0,013	-0,019
-153,906	-200,000	-0,000	0,029
-152,891	-51,543	0,156	0,051
-151,877	-43,762	-0,094	-0,034
-150,862	272,541	-0,035	-0,044
-149,847	800,000	0,037	-0,074
-148,833	18,918	-0,054	-0,031
-147,818	-117,032	0,099	0,013
-146,804	-166,087	-0,115	0,003
-145,789	-200,000	-0,004	0,191
-144,775	-200,000	0,002	0,088
-143,760	68,349	-0,048	-0,035
-142,745	-200,000	-0,031	-0,125
-141,731	138,417	-0,049	0,046
-140,716	282,157	-0,049	-0,063
-139,702	731,134	0,059	0,113
-138,687	158,924	0,065	0,064
-137,672	-200,000	0,012	0,113
-136,658	156,591	-0,043	-0,042
-135,643	42,903	0,148	0,096
-134,629	-200,000	-0,035	0,122
-133,614	-200,000	0,025	0,096
-132,599	1,245	0,022	0,011
-131,585	-120,182	-0,087	0,010
-130,570	-200,000	-0,005	-0,087
-129,556	58,320	-0,059	-0,041
-128,541	-200,000	-0,035	-0,173
-127,526	-72,555	-0,122	-0,032
-126,512	-143,857	-0,061	-0,004
-125,497	63,537	-0,050	-0,036
-124,483	325,731	0,092	0,125
-123,468	-0,831	0,113	-0,056
-122,453	-200,000	0,005	0,020
-121,439	-55,624	-0,045	0,014
-120,424	-129,673	-0,011	0,001
-119,410	-115,648	0,106	0,014
-118,395	42,937	0,051	-0,033
-117,380	112,261	0,140	-0,121
-116,366	800,000	-0,011	0,023
-115,351	454,621	-0,126	-0,199
-114,337	-200,000	-0,022	-0,072
-113,322	140,956	0,108	-0,101
-112,307	279,392	-0,047	0,060
-111,293	-88,906	-0,058	-0,012
-110,278	-32,688	0,065	0,026
-109,264	73,624	0,114	-0,085
-108,249	-102,070	-0,067	-0,011
-107,234	-200,000	-0,009	-0,137
-106,220	-30,434	0,069	0,028
-105,205	800,000	0,038	-0,109
-104,191	800,000	0,018	0,046
-103,176	487,015	0,018	-0,030
-102,162	-200,000	-0,015	-0,053
-101,147	18,546	-0,072	0,041
-100,132	-200,000	-0,030	-0,133
-99,118	786,920	0,049	-0,096
-98,103	319,630	-0,038	0,051
-97,089	1,092	0,056	0,029
-96,074	-200,000	0,023	-0,096
-95,059	-200,000	0,011	0,142
-94,045	266,261	-0,021	0,027
-93,030	-81,347	0,043	-0,010
-92,016	800,000	0,005	-0,015
-91,001	64,938	-0,014	-0,010
-89,986	117,070	0,056	0,049
-88,972	-200,000	-0,002	0,069
-87,957	-200,000	-0,032	0,172
-86,943	-64,146	0,146	0,042
-85,928	416,754	0,038	0,058
-84,913	244,442	0,084	-0,100
-83,899	-16,710	-0,108	0,048
-82,884	800,000	0,040	0,104
-81,870	55,287	0,087	-0,060
-80,855	603,241	-0,035	0,061
-79,840	-4,491	0,072	0,035
-78,826	800,000	-0,029	0,073
-77,811	800,000	0,034	0,099
-76,797	96,827	-0,067	0,054
-75,782	344,251	0,029	-0,040
-74,767	-200,000	0,020	-0,167
-73,753	324,634	-0,056	0,076
-72,738	-78,405	0,090	0,022
-71,724	94,098	0,031	0,025
-70,709	142,808	-0,075	-0,071
-69,694	-200,000	0,026	0,103
-68,680	90,149	0,124	0,098
-67,665	101,320	-0,021	0,017
-66,651	125,020	0,148	0,132
-65,636	-200,000	-0,009	-0,105
-64,622	-200,000	-0,018	-0,088
-63,607	-157,453	0,099	-0,004
-62,592	-142,104	-0,095	-0,007
-61,578	62,058	0,150	-0,106
-60,563	-143,263	0,029	0,002
-59,549	14,020	-0,154	0,085
-58,534	-63,191	-1,489	-0,432
-57,519	422,550	-1,469	-2,242
-56,505	-200,000	-0,417	-4,280
-55,490	205,991	0,778	0,859
-54,476	800,000	4,783	11,129
-53,461	-200,000	17,864	285,319
-52,446	800,000	722,046	2231,772
-51,432	562,942	1636,001	2816,623
-50,417	80,644	1659,280	1265,813
-49,403	23,479	1533,232	891,149
-48,388	17,448	1456,970	817,724
-47,373	18,129	1446,585	815,130
-46,359	17,667	1437,228	807,624
-45,344	15,683	1432,492	795,497
-44,330	15,674	1430,422	794,270
-43,315	15,674	1428,583	793,219
-42,300	15,703	1427,218	792,565
-41,286	15,708	1426,006	791,887
-40,271	15,691	1424,589	790,985
-39,257	15,672	1423,527	790,276
-38,242	15,775	1422,003	789,887
-37,227	15,702	1420,894	788,895
-36,213	15,729	1419,371	788,143
-35,198	15,719	1418,410	787,532
-34,184	15,753	1417,416	787,108
-33,169	15,688	1416,323	786,165
-32,154	15,784	1415,019	785,859
-31,140	15,718	1413,814	784,850
-30,125	15,741	1412,638	784,276
-29,111	15,705	1411,506	783,444
-28,096	15,703	1410,444	782,817
-27,082	15,671	1409,153	781,918
-26,067	15,643	1408,163	781,206
-25,052	15,644	1407,043	780,562
-24,038	15,602	1406,423	779,990
-23,023	15,625	1405,216	779,396
-22,009	15,607	1404,231	778,733
-20,994	15,580	1403,379	778,104
-19,979	15,622	1402,332	777,688
-18,965	15,594	1401,194	776,898
-17,950	15,559	1400,334	776,228
-16,936	15,547	1399,416	775,632
-15,921	15,614	1398,273	775,278
-14,906	15,538	1397,208	774,305
-13,892	15,547	1396,322	773,825
-12,877	15,556	1395,490	773,376
-11,863	15,520	1394,569	772,666
-10,848	15,521	1393,698	772,159
-9,833	15,513	1392,705	771,541
-8,819	15,484	1391,720	770,832
-7,804	15,420	1391,071	770,144
-6,790	15,430	1389,849	769,484
-5,775	15,448	1388,655	768,873
-4,760	15,426	1388,076	768,422
-3,746	15,447	1387,216	768,011
-2,731	15,433	1386,455	767,495
-1,717	15,448	1385,454	766,983
-0,702	15,423	1383,677	765,851
0,313	19,206	1304,264	739,356
1,327	35,506	706,564	438,290
2,342	54,514	125,207	85,299
3,356	3,999	16,527	8,529
4,371	17,819	3,127	1,758
5,386	102,429	0,357	0,295
6,400	60,052	-0,114	0,079
7,415	-128,297	-0,201	0,020
8,429	24,224	-0,288	-0,168
9,444	13,248	-0,447	-0,244
10,459	107,942	-0,304	-0,256
11,473	174,920	-0,231	-0,236
12,488	153,156	-0,238	-0,230
13,502	-128,431	-0,217	-0,022
14,517	364,205	-0,121	-0,173
15,531	252,604	-0,351	-0,423
16,546	75,832	-0,337	-0,252
17,561	-35,938	-0,361	-0,138
18,575	111,717	-0,267	-0,228
19,590	338,527	-0,152	-0,210
20,604	184,655	-0,214	-0,224
21,619	92,938	-0,415	-0,331
22,634	135,076	-0,398	-0,365
23,648	86,980	-0,396	-0,309
24,663	-46,162	-0,354	-0,123
25,677	73,960	-0,261	-0,193
26,692	8,069	-0,253	-0,134
27,707	21,391	-0,379	-0,217
28,721	9,722	-0,442	-0,236
29,736	8,289	-0,386	-0,204
30,750	11,659	-0,421	-0,228
31,765	173,888	-0,364	-0,371
32,780	26,660	-0,381	-0,225
33,794	113,696	-0,295	-0,253
34,809	249,818	-0,288	-0,346
35,823	7,314	-0,446	-0,234
36,838	103,060	-0,376	-0,311
37,853	308,555	-0,308	-0,407
38,867	74,224	-0,280	-0,207
39,882	-14,144	-0,440	-0,200
40,896	25,349	-0,400	-0,234
41,911	265,548	-0,208	-0,257
42,926	92,821	-0,342	-0,273
43,940	22,373	-0,346	-0,199
44,955	53,728	-0,402	-0,272
45,969	114,306	-0,338	-0,290
46,984	178,231	-0,328	-0,337
47,999	159,795	-0,233	-0,229
49,013	43,367	-0,348	-0,224
50,028	68,521	-0,366	-0,264
51,042	63,613	-0,285	-0,201
52,057	154,423	-0,408	-0,395
53,071	178,639	-0,334	-0,345
54,086	216,383	-0,222	-0,249
55,101	90,445	-0,381	-0,301
56,115	223,917	-0,197	-0,225
57,130	118,326	-0,319	-0,277
58,144	9,837	-0,460	-0,245
59,159	77,922	-0,344	-0,258
60,174	91,192	-0,392	-0,310
61,188	412,371	-0,315	-0,473
62,203	-14,230	-0,325	-0,147
63,217	315,107	-0,220	-0,293
64,232	87,317	-0,268	-0,208
65,247	69,611	-0,347	-0,251
66,261	69,395	-0,387	-0,280
67,276	109,683	-0,398	-0,336
68,290	-23,521	-0,444	-0,187
69,305	10,228	-0,323	-0,172
70,320	-40,536	-0,288	-0,105
71,334	25,345	-0,334	-0,195
72,349	-26,216	-0,444	-0,183
73,363	42,846	-0,379	-0,242
74,378	129,939	-0,306	-0,276
75,393	263,218	-0,263	-0,322
76,407	140,547	-0,349	-0,324
77,422	52,659	-0,385	-0,258
78,436	80,516	-0,237	-0,180
79,451	22,569	-0,340	-0,195
80,466	11,063	-0,286	-0,153
81,480	-17,287	-0,367	-0,162
82,495	-59,964	-0,355	-0,106
83,509	-47,582	-0,275	-0,093
84,524	-19,872	-0,188	-0,081
85,539	120,223	-0,249	-0,217
86,553	33,741	-0,180	-0,110
87,568	412,245	-0,151	-0,226
88,582	139,020	-0,260	-0,241
89,597	9,228	-0,306	-0,162
90,611	380,579	-0,204	-0,295
91,626	2,076	-0,308	-0,156
92,641	69,347	-0,267	-0,193
93,655	132,788	-0,351	-0,318
94,670	75,833	-0,284	-0,211
95,684	97,459	-0,344	-0,278
96,699	169,437	-0,359	-0,360
97,714	229,754	-0,290	-0,333
98,728	38,613	-0,314	-0,196
99,743	82,007	-0,268	-0,203
100,757	99,007	-0,281	-0,227
101,772	13,879	-0,315	-0,171
102,787	164,791	-0,303	-0,301
103,801	671,368	-0,196	-0,359
104,816	-7,345	-0,282	-0,134
105,830	19,318	-0,215	-0,121
106,845	18,377	-0,346	-0,194
107,860	-175,266	-0,355	-0,007
108,874	370,475	-0,213	-0,304
109,889	247,722	-0,274	-0,325
110,903	140,896	-0,184	-0,171
111,918	-50,741	-0,330	-0,108
112,933	-19,746	-0,188	-0,081
113,947	-200,000	-0,062	-0,222
114,962	79,828	-0,253	-0,190
115,976	62,268	-0,224	-0,157
116,991	67,622	-0,266	-0,191
118,006	229,882	-0,110	-0,127
119,020	191,941	-0,258	-0,273
120,035	123,125	-0,173	-0,152
121,049	189,431	-0,128	-0,135
122,064	800,000	-0,154	-0,332
123,079	184,286	-0,189	-0,196
124,093	88,342	-0,331	-0,258
125,108	-120,490	-0,201	-0,024
126,122	64,854	-0,278	-0,196
127,137	152,829	-0,158	-0,151
128,151	-155,377	-0,225	-0,010
129,166	66,130	-0,099	-0,070
130,181	166,896	-0,245	-0,244
131,195	249,729	-0,259	-0,308
132,210	167,828	-0,253	-0,252
133,224	-200,000	-0,051	-0,246
134,239	800,000	-0,101	-0,207
135,254	402,705	-0,184	-0,272
136,268	-42,499	-0,278	-0,099
137,283	-200,000	-0,002	-0,225
138,297	502,329	-0,219	-0,356
139,312	597,684	-0,135	-0,236
140,327	47,800	-0,182	-0,118
141,341	-200,000	0,017	-0,257
142,356	130,782	-0,250	-0,224
143,370	20,825	-0,215	-0,121
144,385	-13,288	-0,272	-0,123
145,400	129,168	-0,329	-0,294
146,414	413,323	-0,254	-0,379
147,429	432,013	-0,267	-0,406
148,443	67,326	-0,362	-0,258
149,458	368,735	-0,124	-0,176
150,473	20,717	-0,232	-0,131
151,487	11,037	-0,184	-0,098
152,502	74,072	-0,258	-0,189
153,516	26,815	-0,392	-0,229
154,531	18,471	-0,240	-0,134
155,546	204,137	-0,167	-0,181
156,560	100,906	-0,195	-0,158
157,575	-149,912	-0,238	-0,013
158,589	713,922	-0,096	-0,179
159,604	56,306	-0,337	-0,228
160,619	5,997	-0,356	-0,184
161,633	-65,974	-0,471	-0,131
162,648	77,576	-0,254	-0,189
163,662	223,034	-0,175	-0,198
164,677	22,733	-0,150	-0,085
165,692	331,496	-0,196	-0,264
166,706	351,354	-0,188	-0,261
167,721	81,085	-0,408	-0,307
168,735	72,232	-0,304	-0,221
169,750	346,981	-0,188	-0,258
170,764	800,000	-0,094	-0,210
171,779	-88,480	-0,260	-0,054
172,794	18,007	-0,263	-0,146
173,808	151,067	-0,281	-0,267
174,823	70,314	-0,272	-0,196
175,837	174,790	-0,229	-0,231
176,852	28,218	-0,231	-0,136
177,867	321,895	-0,104	-0,138
178,881	-200,000	-0,054	-0,173
179,896	413,624	-0,140	-0,209
180,910	345,380	-0,170	-0,234
181,925	-142,342	-0,294	-0,020
182,940	9,648	-0,408	-0,215
183,954	173,962	-0,257	-0,259
184,969	63,037	-0,109	-0,076
185,983	377,962	-0,166	-0,237
186,998	83,040	-0,235	-0,178
188,013	157,077	-0,149	-0,144
189,027	-40,962	-0,205	-0,074
190,042	-9,774	-0,216	-0,100
191,056	557,478	-0,086	-0,144
192,071	58,434	-0,230	-0,157
193,086	12,096	-0,193	-0,103
194,100	-110,713	-0,199	-0,028
195,115	-53,341	-0,185	-0,059
196,129	-81,956	-0,225	-0,051
197,144	724,288	-0,142	-0,264
198,159	191,712	-0,193	-0,203
199,173	-76,692	-0,211	-0,051
200,188	-58,487	-0,229	-0,069
201,202	13,839	-0,264	-0,142
202,217	268,009	-0,188	-0,229
203,232	800,000	-0,113	-0,228
204,246	8,372	-0,228	-0,119
205,261	800,000	-0,092	-0,255
206,275	-45,714	-0,141	-0,048
207,290	-200,000	-0,015	-0,110
208,304	94,288	-0,111	-0,088
209,319	-95,853	-0,217	0,040
210,334	-107,524	-0,166	-0,025
211,348	59,327	-0,344	-0,236
212,363	129,811	-0,288	-0,256
213,377	39,697	-0,222	-0,138
214,392	363,505	-0,148	-0,207
215,407	33,300	-0,106	-0,064
216,421	-3,992	-0,185	0,089
217,436	-200,000	-0,024	-0,120
218,450	-50,996	-0,240	-0,078
219,465	-200,000	-0,216	0,001
220,480	607,147	-0,102	-0,177
221,494	800,000	-0,038	-0,094
222,509	800,000	-0,051	-0,117
223,523	478,704	-0,163	-0,258
224,538	99,176	-0,205	-0,164
225,553	695,861	-0,127	-0,232
226,567	-1,239	-0,167	-0,082
227,582	-13,268	-0,206	-0,092
228,596	-89,092	-0,221	-0,045
229,611	800,000	-0,059	-0,147
230,626	-21,725	-0,191	-0,081
231,640	-17,181	-0,070	-0,030
232,655	800,000	-0,079	-0,172
233,669	96,102	-0,241	-0,191
234,684	217,707	-0,182	-0,201
235,699	-68,733	-0,103	-0,028
236,713	800,000	-0,110	-0,312
237,728	120,291	-0,163	-0,140
238,742	-74,269	-0,126	-0,031
239,757	158,205	-0,115	-0,110
240,772	-18,134	-0,304	-0,132
241,786	60,486	-0,228	-0,156
242,801	111,587	-0,114	-0,095
243,815	-9,110	-0,111	-0,051
244,830	-106,754	-0,104	-0,016
245,844	627,727	-0,158	-0,278
246,859	124,059	-0,259	-0,226
247,874	315,655	-0,139	-0,183
248,888	352,547	-0,168	-0,231
249,903	-200,000	-0,063	-0,231
250,917	122,989	-0,070	-0,061
251,932	40,510	-0,182	-0,113
252,947	-96,377	-0,172	-0,031
253,961	-120,380	-0,138	-0,016
254,976	15,181	-0,168	-0,091
255,990	800,000	-0,077	-0,162
257,005	77,264	-0,186	-0,137
258,020	421,695	-0,091	-0,136
259,034	67,135	-0,215	-0,152
260,049	-200,000	-0,054	-0,165
261,063	7,583	-0,281	-0,145
262,078	-45,367	-0,193	-0,066
263,093	-60,255	-0,309	-0,091
264,107	-170,217	-0,172	-0,004
265,122	-7,878	-0,211	-0,098
266,136	-23,280	-0,100	-0,041
267,151	251,314	-0,147	-0,173
268,166	-71,205	-0,207	-0,053
269,180	418,323	-0,135	-0,201
270,195	-200,000	-0,188	0,000
271,209	-171,976	-0,180	0,004
272,224	-52,064	-0,173	-0,055
273,239	-200,000	-0,005	0,059
274,253	-11,519	-0,263	-0,119
275,268	101,457	-0,152	-0,123
276,282	800,000	-0,085	-0,196
277,297	-23,857	-0,242	-0,100
278,312	519,395	-0,142	-0,231
279,326	-4,588	-0,234	-0,111
280,341	-21,812	-0,218	-0,091
281,355	-160,903	-0,150	-0,005
282,370	-137,756	-0,218	0,017
283,384	229,901	-0,108	-0,122
284,399	-18,088	-0,234	-0,101
285,414	-79,326	-0,153	-0,035
286,428	115,874	-0,179	-0,151
287,443	800,000	-0,069	-0,148
288,457	-124,187	-0,130	-0,014
289,472	-100,751	-0,385	-0,065
290,487	144,028	-0,247	-0,227
291,501	14,501	-0,131	-0,070
292,516	293,491	-0,111	-0,140
293,530	91,861	-0,193	-0,150
294,545	-112,327	-0,159	-0,022
295,560	574,810	-0,084	-0,142
296,574	523,030	-0,064	-0,105
297,589	-90,653	-0,122	-0,024
298,603	185,691	-0,149	-0,153
299,618	-200,000	-0,056	-0,201
300,633	-200,000	-0,031	-0,199
301,647	27,077	-0,109	-0,063
302,662	22,549	-0,138	0,078
303,676	274,505	-0,075	-0,091
304,691	63,548	-0,192	-0,132
305,706	85,254	-0,174	-0,131
306,720	32,850	-0,208	-0,124
307,735	176,353	-0,125	-0,126
308,749	409,418	-0,070	-0,103
309,764	800,000	-0,048	-0,111
310,779	458,489	-0,063	-0,097
311,793	-200,000	-0,033	-0,112
312,808	-71,205	-0,230	-0,059
313,822	92,430	-0,167	-0,129
314,837	-38,165	-0,148	-0,054
315,852	189,657	-0,145	-0,150
316,866	280,688	-0,072	-0,089
317,881	281,254	-0,071	-0,088
318,895	125,431	-0,107	-0,093
319,910	-200,000	-0,012	-0,129
320,925	-200,000	-0,004	-0,124
321,939	605,487	-0,129	-0,221
322,954	-200,000	-0,041	-0,130
323,968	-200,000	-0,021	-0,119
324,983	407,330	-0,140	-0,204
325,997	-182,911	-0,130	-0,002
327,012	89,536	-0,052	-0,040
328,027	-44,614	-0,193	-0,066
329,041	-51,337	-0,173	-0,055
330,056	392,921	-0,180	-0,258
331,070	-71,716	-0,069	-0,018
332,085	-7,058	-0,044	0,020
333,100	238,005	-0,122	-0,139
334,114	440,682	-0,100	-0,150
335,129	223,960	-0,181	-0,202
336,143	-200,000	-0,039	-0,212
337,158	-62,898	-0,168	0,048
338,173	-200,000	-0,009	-0,121
339,187	800,000	0,032	0,097
340,202	177,161	-0,030	-0,030
341,216	800,000	-0,038	-0,089
342,231	-190,778	-0,176	0,001
343,246	113,506	-0,091	-0,075
344,260	26,344	-0,116	-0,067
345,275	-200,000	-0,028	-0,087
346,289	181,621	-0,152	-0,154
347,304	800,000	-0,063	-0,128
348,319	148,695	-0,177	-0,165
349,333	-200,000	-0,019	-0,080
350,348	60,367	-0,073	-0,050
351,362	706,265	-0,098	-0,178
352,377	-45,258	-0,100	-0,034
353,392	-30,701	-0,208	-0,080
354,406	-58,468	-0,209	0,062
355,421	209,333	1313,722	1414,621
356,435	161,104	1474,369	1415,141
