DTS Sentinel unit serial number:	SN410029Multiplexer serial number:	ORYXHardware model number:	OX2-SRSoftware version number:	ORYX F/W v4,00 Oryx Data Collector v3.7.2.0data status	okinstallation	B3 Nyhavnadifferential loss correction	single-endedforward channel	channel 1reverse channel	N/Adate	2023/11/30time	21:07:30forward acquisition time	300,00reverse acquisition time	0,00gamma	499,1914k internal	0,3209k external	0,3209temperature offset calibration	1,0000default loss term (dB/km)	0,3820temperature slope calibration	1,0000multiplexer offset coefficient	1,0000multiplexer slope coefficient	1,0000fibre end	0,00T internal ref (°C)	10,81T ext. ref 1 (°C)	-4,47T ext. ref 2 (°C)	-4,61length (m)	temperature (°C)	Stokes	anti-Stokes-744,400	-200,000	-0,094	-0,316
-743,385	287,842	-0,094	0,124
-742,371	-200,000	-0,029	-0,213
-741,356	767,084	-0,138	0,274
-740,342	356,270	-0,133	-0,192
-739,327	-200,000	0,003	0,125
-738,312	574,864	-0,219	-0,390
-737,298	-200,000	0,030	0,363
-736,283	412,751	-0,138	-0,213
-735,269	-200,000	0,069	0,303
-734,254	-41,306	-0,231	-0,086
-733,239	182,480	-0,082	0,088
-732,225	-200,000	-0,016	-0,239
-731,210	264,455	0,104	0,132
-730,196	-11,596	0,105	-0,050
-729,181	385,012	-0,031	-0,046
-728,167	-102,099	-0,030	-0,005
-727,152	-108,137	-0,010	-0,001
-726,137	356,944	-0,074	0,107
-725,123	-200,000	-0,007	-0,184
-724,108	-180,830	-0,084	0,001
-723,094	296,954	-0,054	-0,072
-722,079	358,446	-0,097	-0,140
-721,064	-200,000	0,018	-0,151
-720,050	-200,000	-0,019	-0,086
-719,035	137,539	-0,048	-0,045
-718,021	39,358	-0,134	-0,087
-717,006	60,946	-0,074	0,053
-715,991	4,507	-0,079	-0,042
-714,977	-85,235	-0,037	0,008
-713,962	-23,956	-0,073	-0,032
-712,948	800,000	0,035	-0,077
-711,933	542,636	0,106	-0,184
-710,918	-7,458	0,043	-0,021
-709,904	800,000	-0,007	-0,016
-708,889	509,546	-0,081	-0,137
-707,875	-46,364	0,031	-0,011
-706,860	198,030	-0,062	-0,069
-705,845	606,767	0,030	0,054
-704,831	19,856	0,059	-0,034
-703,816	-119,527	0,125	0,015
-702,802	-108,260	0,114	-0,018
-701,787	-24,573	-0,218	-0,094
-700,772	16,645	-0,090	-0,051
-699,758	101,102	-0,155	-0,131
-698,743	615,221	-0,013	-0,023
-697,729	250,541	0,040	-0,050
-696,714	800,000	-0,029	0,061
-695,699	138,902	-0,040	-0,038
-694,685	-200,000	-0,023	-0,311
-693,670	800,000	-0,024	0,061
-692,656	107,022	-0,026	0,023
-691,641	33,071	0,047	-0,029
-690,627	195,981	0,056	-0,061
-689,612	-118,800	-0,185	0,023
-688,597	-36,972	-0,064	0,025
-687,583	800,000	-0,018	-0,043
-686,568	255,915	-0,085	-0,105
-685,554	-200,000	-0,029	-0,128
-684,539	-139,807	0,034	-0,003
-683,524	-172,739	-0,058	-0,001
-682,510	-200,000	0,002	0,080
-681,495	198,369	-0,051	0,057
-680,481	800,000	0,028	0,077
-679,466	-200,000	-0,032	-0,128
-678,451	800,000	0,048	-0,151
-677,437	-200,000	-0,033	0,116
-676,422	37,127	0,024	0,015
-675,408	-27,180	-0,147	-0,062
-674,393	-200,000	0,008	0,055
-673,378	-130,152	-0,118	-0,012
-672,364	800,000	-0,069	-0,167
-671,349	228,279	-0,102	-0,120
-670,335	592,951	0,052	-0,094
-669,320	-200,000	-0,046	-0,159
-668,305	57,911	0,142	0,101
-667,291	285,013	-0,100	0,131
-666,276	633,308	-0,046	-0,085
-665,262	800,000	-0,011	0,031
-664,247	-149,139	-0,076	-0,004
-663,232	501,800	0,029	0,049
-662,218	800,000	-0,011	-0,032
-661,203	106,295	0,033	0,028
-660,189	-34,968	-0,095	-0,037
-659,174	-154,212	0,013	-0,001
-658,159	-200,000	-0,028	-0,123
-657,145	-200,000	0,016	-0,060
-656,130	32,708	-0,080	-0,050
-655,116	-200,000	0,017	0,000
-654,101	-200,000	-0,009	0,114
-653,086	-143,897	0,032	-0,002
-652,072	131,266	-0,127	-0,118
-651,057	-36,076	-0,088	0,034
-650,043	441,007	0,028	-0,044
-649,028	323,820	-0,064	-0,088
-648,014	-200,000	0,003	0,054
-646,999	379,890	0,029	0,043
-645,984	-200,000	-0,021	-0,114
-644,970	81,896	0,027	-0,021
-643,955	458,654	-0,083	-0,134
-642,941	764,028	-0,058	-0,114
-641,926	-83,476	-0,024	0,005
-640,911	-56,764	0,120	0,038
-639,897	-27,487	-0,099	-0,042
-638,882	20,335	-0,132	-0,077
-637,868	-100,210	0,017	-0,003
-636,853	-200,000	0,001	0,086
-635,838	606,406	0,048	-0,087
-634,824	28,413	-0,158	0,096
-633,809	341,485	0,086	0,122
-632,795	800,000	0,066	0,149
-631,780	331,487	0,024	0,033
-630,765	-3,471	-0,071	-0,036
-629,751	355,819	0,054	-0,079
-628,736	800,000	0,050	-0,147
-627,722	150,142	-0,069	-0,068
-626,707	-46,310	-0,015	0,005
-625,692	-45,548	0,218	0,078
-624,678	-200,000	-0,006	0,031
-623,663	587,006	-0,057	-0,102
-622,649	-200,000	0,006	0,062
-621,634	-70,840	-0,141	0,038
-620,619	800,000	-0,023	0,046
-619,605	42,014	-0,072	0,047
-618,590	9,894	0,038	0,021
-617,576	281,336	-0,067	-0,086
-616,561	156,680	-0,028	-0,028
-615,546	573,251	0,066	-0,117
-614,532	83,959	0,082	0,065
-613,517	-200,000	0,021	0,091
-612,503	-24,276	-0,093	-0,040
-611,488	500,419	0,059	-0,098
-610,474	-200,000	0,008	0,033
-609,459	-39,520	0,190	-0,071
-608,444	800,000	-0,035	0,105
-607,430	-169,575	-0,113	-0,003
-606,415	325,125	-0,096	-0,132
-605,401	254,751	0,022	-0,027
-604,386	-121,704	-0,058	0,007
-603,371	-200,000	-0,002	0,011
-602,357	800,000	0,031	0,073
-601,342	67,438	-0,144	0,106
-600,328	398,880	-0,032	0,048
-599,313	-200,000	-0,023	-0,095
-598,298	-72,709	0,218	0,058
-597,284	-200,000	-0,010	-0,110
-596,269	314,605	0,109	-0,149
-595,255	32,841	-0,139	0,087
-594,240	-200,000	0,010	0,040
-593,225	66,987	-0,070	-0,051
-592,211	-200,000	-0,052	0,207
-591,196	-200,000	0,000	-0,113
-590,182	800,000	-0,021	0,063
-589,167	12,064	0,080	0,044
-588,152	73,225	0,051	0,039
-587,138	600,132	-0,050	0,091
-586,123	-200,000	-0,018	-0,061
-585,109	219,864	-0,095	-0,110
-584,094	-200,000	0,020	-0,114
-583,079	-46,020	0,074	0,026
-582,065	-103,615	0,172	-0,029
-581,050	-200,000	0,036	0,183
-580,036	-71,787	0,085	0,023
-579,021	-200,000	-0,035	-0,201
-578,006	-63,136	-0,008	0,003
-576,992	-200,000	-0,025	0,106
-575,977	706,587	-0,105	0,201
-574,963	-63,684	0,019	-0,006
-573,948	-23,041	0,060	0,026
-572,934	-170,338	0,048	0,001
-571,919	-200,000	0,004	0,079
-570,904	121,781	-0,099	-0,089
-569,890	-143,553	0,086	-0,006
-568,875	305,356	0,045	0,061
-567,861	-125,627	0,162	0,018
-566,846	800,000	-0,047	0,110
-565,831	-59,104	-0,250	0,077
-564,817	38,704	-0,087	-0,056
-563,802	800,000	-0,040	-0,118
-562,788	-200,000	0,005	-0,105
-561,773	127,509	-0,052	-0,047
-560,758	800,000	0,092	0,271
-559,744	135,434	-0,071	0,067
-558,729	34,863	-0,045	0,028
-557,715	85,624	0,161	-0,127
-556,700	-110,500	-0,110	-0,016
-555,685	-41,766	-0,037	0,014
-554,671	-133,767	-0,179	-0,016
-553,656	-200,000	0,006	0,057
-552,642	-49,746	-0,107	0,037
-551,627	-44,176	0,069	0,025
-550,612	69,806	-0,021	0,016
-549,598	13,213	0,058	-0,032
-548,583	-200,000	-0,000	0,013
-547,569	22,742	0,059	-0,035
-546,554	424,514	0,058	0,090
-545,539	-200,000	0,003	-0,058
-544,525	139,292	-0,089	0,084
-543,510	155,545	0,074	0,074
-542,496	-29,028	-0,183	0,075
-541,481	102,997	-0,060	-0,050
-540,466	-61,747	0,118	-0,035
-539,452	-37,170	-0,127	-0,049
-538,437	-200,000	0,003	-0,090
-537,423	517,130	0,044	0,075
-536,408	53,228	-0,061	-0,042
-535,393	218,574	0,134	-0,154
-534,379	800,000	-0,049	-0,155
-533,364	17,078	0,029	-0,017
-532,350	-65,838	-0,158	-0,045
-531,335	222,235	0,041	0,047
-530,321	-200,000	0,022	0,175
-529,306	17,326	-0,087	-0,050
-528,291	-15,418	-0,026	-0,012
-527,277	95,505	0,030	0,025
-526,262	800,000	0,035	0,074
-525,248	516,330	0,087	-0,147
-524,233	800,000	-0,031	0,085
-523,218	-200,000	0,001	-0,012
-522,204	-200,000	0,012	-0,069
-521,189	-200,000	0,020	-0,082
-520,175	784,847	0,043	-0,086
-519,160	-35,857	-0,065	-0,025
-518,145	359,311	0,039	-0,056
-517,131	-58,608	0,126	-0,039
-516,116	-194,212	0,131	-0,001
-515,102	70,603	0,108	0,080
-514,087	-101,332	-0,096	-0,017
-513,072	-20,103	-0,154	0,068
-512,058	-56,211	0,211	-0,067
-511,043	546,303	0,073	-0,126
-510,029	-76,431	0,135	-0,034
-509,014	-89,575	0,052	0,011
-507,999	377,327	0,045	0,066
-506,985	96,078	0,037	-0,031
-505,970	-200,000	-0,009	-0,176
-504,956	86,086	0,043	-0,034
-503,941	-200,000	-0,014	-0,097
-502,926	-129,254	0,142	-0,014
-501,912	-200,000	0,002	0,164
-500,897	69,354	-0,045	0,033
-499,883	145,603	-0,042	0,040
-498,868	-200,000	0,013	-0,207
-497,853	-141,655	-0,127	-0,009
-496,839	800,000	-0,048	-0,108
-495,824	357,384	0,076	-0,110
-494,810	-163,025	0,012	-0,000
-493,795	-55,086	0,041	0,013
-492,781	-18,882	0,111	0,049
-491,766	-200,000	0,019	-0,095
-490,751	-197,659	-0,156	0,001
-489,737	98,897	-0,051	0,042
-488,722	-147,377	0,257	-0,015
-487,708	-137,675	-0,133	0,011
-486,693	-200,000	-0,019	0,090
-485,678	-172,294	0,053	0,001
-484,664	-89,797	-0,091	0,019
-483,649	800,000	-0,039	0,114
-482,635	174,186	0,076	0,079
-481,620	553,506	0,052	0,089
-480,605	683,453	0,032	0,060
-479,591	-73,915	-0,037	0,010
-478,576	-106,453	-0,075	-0,012
-477,562	-56,700	0,149	-0,047
-476,547	31,880	-0,161	-0,100
-475,532	-11,472	0,109	0,051
-474,518	800,000	0,017	0,048
-473,503	49,654	0,033	0,023
-472,489	-200,000	-0,000	0,194
-471,474	31,104	-0,026	-0,016
-470,459	166,816	-0,008	-0,008
-469,445	25,551	-0,146	-0,087
-468,430	-200,000	-0,008	-0,095
-467,416	-0,983	0,056	0,028
-466,401	-200,000	-0,011	0,090
-465,386	415,518	0,054	0,083
-464,372	-200,000	-0,015	-0,180
-463,357	557,550	-0,087	0,152
-462,343	38,966	-0,129	-0,083
-461,328	-69,160	-0,058	-0,016
-460,313	-200,000	-0,016	0,169
-459,299	399,293	0,048	0,072
-458,284	390,630	0,035	-0,052
-457,270	-200,000	0,020	-0,089
-456,255	42,692	0,089	-0,058
-455,241	-81,677	0,033	-0,008
-454,226	800,000	-0,049	-0,135
-453,211	800,000	-0,048	-0,099
-452,197	-200,000	-0,010	0,059
-451,182	100,791	0,022	0,018
-450,168	-75,141	-0,096	0,025
-449,153	173,044	0,060	-0,062
-448,138	76,254	-0,038	0,029
-447,124	97,657	0,040	0,033
-446,109	-119,642	-0,064	-0,008
-445,095	204,970	0,098	0,110
-444,080	154,495	0,033	0,033
-443,065	-200,000	-0,006	0,176
-442,051	98,927	-0,136	-0,113
-441,036	159,605	0,083	-0,083
-440,022	-3,063	-0,108	-0,054
-439,007	4,928	0,104	0,054
-437,992	-131,413	-0,073	0,007
-436,978	586,901	0,037	0,066
-435,963	372,150	0,055	0,081
-434,949	-62,357	-0,040	-0,012
-433,934	800,000	-0,012	-0,036
-432,919	-75,715	-0,045	0,011
-431,905	249,153	0,023	-0,029
-430,890	299,418	-0,083	0,110
-429,876	-113,821	0,062	-0,009
-428,861	-200,000	0,016	0,067
-427,846	-146,533	-0,078	0,005
-426,832	237,195	-0,016	-0,019
-425,817	790,388	-0,061	-0,120
-424,803	-51,624	-0,107	0,036
-423,788	-119,543	0,149	0,018
-422,773	577,425	-0,019	-0,033
-421,759	251,499	0,074	-0,091
-420,744	75,614	0,037	0,028
-419,730	-200,000	-0,020	-0,146
-418,715	-200,000	-0,034	0,000
-417,701	-200,000	-0,009	-0,085
-416,686	260,531	-0,056	0,069
-415,671	138,370	-0,048	-0,045
-414,657	204,857	0,038	0,042
-413,642	104,574	-0,085	0,072
-412,628	800,000	-0,050	0,122
-411,613	429,880	-0,011	0,017
-410,598	204,677	0,108	-0,120
-409,584	463,130	-0,038	-0,061
-408,569	-200,000	0,041	0,137
-407,555	800,000	0,046	0,096
-406,540	488,745	0,006	-0,009
-405,525	-112,017	-0,027	0,004
-404,511	800,000	-0,009	-0,021
-403,496	-72,053	-0,124	-0,033
-402,482	537,148	-0,078	-0,133
-401,467	-148,875	0,085	-0,005
-400,452	800,000	-0,022	0,060
-399,438	-4,549	0,090	-0,044
-398,423	-200,000	-0,011	0,087
-397,409	800,000	-0,034	-0,094
-396,394	24,159	-0,107	-0,063
-395,379	-29,546	0,003	-0,001
-394,365	187,707	0,022	0,024
-393,350	-20,586	0,082	0,036
-392,336	41,863	0,108	-0,070
-391,321	-84,803	0,081	-0,018
-390,306	404,944	-0,040	-0,060
-389,292	325,764	-0,077	0,106
-388,277	-94,816	-0,069	0,013
-387,263	-200,000	-0,017	0,081
-386,248	262,107	-0,072	0,089
-385,233	103,742	-0,114	0,096
-384,219	-103,221	0,174	0,029
-383,204	102,403	0,116	0,097
-382,190	800,000	-0,041	-0,094
-381,175	-43,702	-0,148	0,053
-380,160	649,324	0,074	0,136
-379,146	-200,000	-0,018	0,102
-378,131	-41,288	0,053	-0,019
-377,117	154,062	0,052	-0,051
-376,102	-65,211	-0,112	0,032
-375,088	-200,000	-0,029	-0,127
-374,073	140,625	-0,052	-0,049
-373,058	-200,000	-0,017	0,059
-372,044	-84,360	0,092	-0,021
-371,029	296,656	0,097	0,127
-370,015	-60,075	0,068	-0,021
-369,000	181,992	-0,118	-0,125
-367,985	92,440	-0,056	-0,045
-366,971	800,000	0,033	-0,071
-365,956	-115,853	0,084	-0,011
-364,942	635,844	-0,010	-0,019
-363,927	800,000	-0,029	0,061
-362,912	-50,087	0,147	-0,050
-361,898	800,000	0,064	-0,128
-360,883	800,000	-0,037	-0,089
-359,869	-49,792	-0,061	-0,021
-358,854	800,000	0,035	0,101
-357,839	-200,000	0,000	-0,035
-356,825	-200,000	0,011	0,096
-355,810	-200,000	-0,031	0,155
-354,796	-49,195	0,039	0,013
-353,781	-200,000	-0,006	0,026
-352,766	800,000	0,022	0,062
-351,752	-200,000	-0,012	0,044
-350,737	-200,000	0,001	0,084
-349,723	-200,000	-0,002	-0,010
-348,708	56,096	-0,137	0,095
-347,693	105,631	0,044	0,037
-346,679	127,512	0,088	-0,080
-345,664	-200,000	-0,062	0,236
-344,650	-200,000	-0,006	-0,046
-343,635	74,632	-0,057	0,043
-342,620	-200,000	-0,014	0,044
-341,606	-200,000	-0,010	0,152
-340,591	-200,000	0,021	0,162
-339,577	202,197	-0,102	-0,112
-338,562	639,777	0,063	-0,115
-337,548	-48,291	0,149	0,051
-336,533	159,086	0,046	-0,046
-335,518	-102,370	-0,038	-0,006
-334,504	-200,000	-0,007	-0,027
-333,489	550,102	0,011	0,019
-332,475	28,654	-0,058	-0,035
-331,460	-200,000	0,022	-0,107
-330,445	50,104	-0,045	-0,030
-329,431	98,020	0,057	-0,047
-328,416	504,101	0,011	0,019
-327,402	373,594	-0,086	-0,126
-326,387	-200,000	0,011	-0,128
-325,372	45,801	-0,056	-0,037
-324,358	295,230	-0,072	-0,095
-323,343	510,433	0,083	0,138
-322,329	-20,355	0,067	0,029
-321,314	-133,920	0,055	-0,005
-320,299	115,751	0,051	-0,044
-319,285	799,047	0,046	0,090
-318,270	-200,000	0,016	-0,087
-317,256	28,806	-0,010	-0,006
-316,241	-63,243	0,047	-0,014
-315,226	-133,818	0,097	-0,009
-314,212	-62,211	-0,120	-0,035
-313,197	40,545	0,100	-0,064
-312,183	578,006	0,062	0,108
-311,168	66,264	0,045	0,032
-310,153	-147,969	-0,191	0,011
-309,139	-13,731	-0,130	0,060
-308,124	-200,000	-0,011	0,039
-307,110	-28,907	0,090	-0,037
-306,095	-44,750	-0,030	-0,011
-305,080	-131,219	-0,059	-0,005
-304,066	800,000	-0,047	-0,097
-303,051	800,000	-0,091	-0,202
-302,037	7,538	-0,050	-0,026
-301,022	800,000	0,025	-0,070
-300,008	-200,000	0,001	0,003
-298,993	800,000	-0,050	0,153
-297,978	472,476	0,017	-0,027
-296,964	-22,046	-0,101	-0,044
-295,949	289,138	-0,117	-0,152
-294,935	-200,000	0,032	-0,151
-293,920	-200,000	-0,043	0,142
-292,905	-200,000	0,020	0,133
-291,891	82,404	-0,082	-0,063
-290,876	224,575	-0,012	-0,013
-289,862	48,013	-0,100	0,067
-288,847	691,050	-0,060	-0,113
-287,832	592,965	-0,073	-0,129
-286,818	-162,443	-0,146	-0,005
-285,803	72,533	0,056	-0,042
-284,789	800,000	0,028	-0,078
-283,774	800,000	0,020	0,044
-282,759	800,000	-0,041	0,090
-281,745	-140,767	-0,033	-0,002
-280,730	26,380	-0,096	-0,057
-279,716	-200,000	0,014	-0,043
-278,701	23,257	0,041	0,024
-277,686	-63,585	0,095	0,028
-276,672	-200,000	-0,000	0,089
-275,657	-70,113	-0,062	-0,017
-274,643	-92,614	-0,223	-0,044
-273,628	800,000	-0,055	0,122
-272,613	122,622	-0,158	-0,141
-271,599	59,420	0,064	0,045
-270,584	-121,432	0,140	0,016
-269,570	61,760	-0,133	0,094
-268,555	-113,353	0,151	-0,021
-267,540	171,720	-0,079	-0,081
-266,526	-129,393	-0,056	-0,005
-265,511	-200,000	-0,017	-0,061
-264,497	233,854	0,093	-0,110
-263,482	278,409	-0,055	-0,070
-262,467	-200,000	0,003	0,054
-261,453	-47,077	0,097	0,033
-260,438	417,167	0,062	0,094
-259,424	-93,606	-0,088	0,017
-258,409	-167,301	-0,088	-0,002
-257,395	-200,000	-0,055	0,195
-256,380	-84,163	0,175	0,039
-255,365	-64,758	0,040	0,011
-254,351	-200,000	0,022	0,109
-253,336	145,909	-0,106	0,101
-252,322	100,082	-0,082	-0,068
-251,307	800,000	0,017	0,036
-250,292	800,000	-0,071	0,151
-249,278	-200,000	0,017	0,058
-248,263	358,661	-0,017	-0,024
-247,249	-132,723	0,130	-0,012
-246,234	-200,000	-0,011	-0,085
-245,219	800,000	0,058	-0,120
-244,205	-200,000	-0,005	0,055
-243,190	688,046	-0,044	-0,083
-242,176	635,376	0,070	0,126
-241,161	-200,000	-0,007	0,058
-240,146	800,000	-0,035	0,097
-239,132	22,592	0,139	-0,081
-238,117	-197,858	-0,263	0,001
-237,103	301,265	0,053	-0,070
-236,088	-200,000	0,001	0,020
-235,073	-200,000	-0,001	0,018
-234,059	-96,070	0,116	0,022
-233,044	800,000	0,036	0,100
-232,030	-93,432	0,010	-0,002
-231,015	-83,992	0,024	0,005
-230,000	-200,000	0,025	-0,151
-228,986	-76,861	0,071	-0,017
-227,971	329,895	0,073	0,100
-226,957	-200,000	-0,015	0,165
-225,942	52,600	0,023	-0,015
-224,927	-200,000	-0,003	0,015
-223,913	120,530	0,049	-0,043
-222,898	-14,296	-0,104	0,047
-221,884	-49,647	0,044	0,015
-220,869	569,346	-0,029	-0,050
-219,855	-200,000	0,046	-0,172
-218,840	-200,000	-0,012	0,139
-217,825	68,984	0,035	-0,026
-216,811	-82,444	-0,144	-0,033
-215,796	800,000	-0,025	0,055
-214,782	-34,621	0,051	0,020
-213,767	197,657	0,027	0,029
-212,752	1,202	0,094	-0,048
-211,738	-34,586	-0,102	0,040
-210,723	226,549	0,029	-0,034
-209,709	207,078	0,075	-0,083
-208,694	12,603	0,115	-0,063
-207,679	-200,000	-0,006	-0,136
-206,665	30,843	0,150	-0,091
-205,650	800,000	0,021	0,046
-204,636	800,000	0,060	0,128
-203,621	-82,155	-0,073	0,017
-202,606	-74,937	-0,100	0,025
-201,592	-82,609	0,058	-0,013
-200,577	82,351	-0,056	0,043
-199,563	150,456	0,034	-0,032
-198,548	-78,669	-0,064	0,015
-197,533	302,548	0,031	0,041
-196,519	-78,577	0,009	0,002
-195,504	91,353	0,017	0,013
-194,490	-200,000	0,031	-0,112
-193,475	11,476	0,069	0,037
-192,460	-19,056	0,077	0,034
-191,446	110,527	0,064	-0,055
-190,431	-200,000	-0,005	0,022
-189,417	-200,000	-0,005	-0,024
-188,402	123,410	-0,030	0,026
-187,387	-82,473	0,018	0,004
-186,373	800,000	0,022	0,055
-185,358	-40,282	-0,043	-0,016
-184,344	-61,445	-0,036	0,011
-183,329	549,978	-0,037	-0,063
-182,315	-200,000	0,009	0,154
-181,300	13,761	0,105	0,058
-180,285	-83,735	0,065	0,015
-179,271	-200,000	0,012	-0,156
-178,256	-200,000	-0,020	0,180
-177,242	242,183	0,053	-0,063
-176,227	-200,000	-0,008	0,120
-175,212	243,855	0,042	0,050
-174,198	-200,000	-0,009	-0,075
-173,183	106,085	0,107	-0,090
-172,169	135,587	-0,111	-0,103
-171,154	781,019	0,034	-0,067
-170,139	165,106	0,046	-0,047
-169,125	664,642	-0,029	-0,053
-168,110	-25,970	0,019	-0,008
-167,096	314,444	0,035	-0,047
-166,081	509,423	-0,011	0,017
-165,066	175,062	-0,083	0,086
-164,052	-143,089	0,072	0,005
-163,037	355,169	0,054	0,077
-162,023	-95,950	0,189	0,035
-161,008	-35,185	0,115	0,044
-159,993	-158,151	0,035	0,001
-158,979	800,000	0,047	0,136
-157,964	40,954	-0,081	-0,052
-156,950	-53,759	-0,036	-0,012
-155,935	301,712	0,068	-0,090
-154,920	267,330	0,047	-0,059
-153,906	-98,905	-0,107	0,019
-152,891	567,476	0,088	-0,152
-151,877	-200,000	0,023	0,077
-150,862	-76,960	-0,069	-0,017
-149,847	-181,788	0,115	0,002
-148,833	224,712	-0,062	0,072
-147,818	800,000	-0,011	0,032
-146,804	800,000	-0,046	0,108
-145,789	403,187	0,090	0,134
-144,775	449,406	0,017	-0,027
-143,760	145,622	0,062	-0,059
-142,745	-38,173	0,065	-0,024
-141,731	-58,693	-0,133	-0,040
-140,716	570,789	0,044	-0,076
-139,702	-77,001	0,098	-0,024
-138,687	-96,800	0,025	0,005
-137,672	96,789	-0,045	0,037
-136,658	-25,178	0,097	-0,040
-135,643	60,384	0,061	-0,043
-134,629	-10,775	-0,049	-0,023
-133,614	92,815	0,099	0,079
-132,599	-200,000	0,024	0,081
-131,585	28,626	0,073	0,044
-130,570	167,546	-0,093	-0,094
-129,556	-200,000	0,038	0,182
-128,541	-200,000	0,032	-0,113
-127,526	-200,000	-0,020	0,075
-126,512	-13,783	-0,039	-0,018
-125,497	61,875	-0,061	0,043
-124,483	800,000	-0,065	0,129
-123,468	-200,000	-0,011	0,115
-122,453	282,442	-0,054	-0,068
-121,439	-200,000	-0,040	0,134
-120,424	-114,578	-0,084	-0,011
-119,410	377,671	-0,027	0,039
-118,395	238,231	-0,051	0,060
-117,380	-138,339	-0,091	-0,007
-116,366	800,000	-0,078	0,213
-115,351	-200,000	0,036	-0,180
-114,337	800,000	0,034	-0,069
-113,322	-200,000	-0,019	-0,107
-112,307	378,670	-0,033	0,048
-111,293	586,047	0,015	-0,026
-110,278	800,000	0,017	-0,041
-109,264	-121,371	-0,078	-0,009
-108,249	-96,133	0,027	-0,005
-107,234	58,925	-0,119	-0,083
-106,220	-55,062	-0,197	-0,062
-105,205	150,962	-0,068	0,065
-104,191	15,860	0,048	0,027
-103,176	-16,656	0,109	-0,049
-102,162	-200,000	0,032	0,126
-101,147	-148,453	-0,091	0,005
-100,132	1,316	-0,107	-0,054
-99,118	249,046	0,067	0,081
-98,103	-138,105	0,084	0,006
-97,089	800,000	-0,016	0,044
-96,074	-200,000	-0,002	0,041
-95,059	51,736	-0,107	0,072
-94,045	68,289	0,044	0,032
-93,030	144,648	0,023	0,022
-92,016	800,000	-0,053	-0,146
-91,001	212,418	0,061	-0,068
-89,986	266,583	0,007	0,009
-88,972	-54,424	0,101	-0,032
-87,957	-81,356	0,201	0,046
-86,943	256,437	0,026	0,032
-85,928	800,000	-0,041	-0,092
-84,913	-52,017	-0,198	0,065
-83,899	-28,481	0,048	-0,020
-82,884	-74,372	0,152	0,038
-81,870	800,000	0,052	-0,116
-80,855	-8,532	0,104	0,049
-79,840	117,608	-0,097	0,084
-78,826	-200,000	0,001	0,017
-77,811	-80,581	0,056	-0,013
-76,797	-110,546	-0,072	-0,010
-75,782	800,000	-0,005	-0,014
-74,767	134,261	0,055	-0,051
-73,753	-200,000	-0,011	0,125
-72,738	-200,000	0,012	-0,056
-71,724	-41,091	-0,122	0,044
-70,709	-185,938	-0,086	0,001
-69,694	-200,000	0,017	-0,108
-68,680	-200,000	0,014	0,082
-67,665	296,420	-0,028	-0,036
-66,651	101,072	-0,015	-0,013
-65,636	157,328	0,023	0,022
-64,622	1,959	-0,172	-0,088
-63,607	-200,000	0,025	-0,180
-62,592	64,261	0,045	0,032
-61,578	-200,000	-0,022	0,124
-60,563	-64,662	-0,103	0,029
-59,549	271,055	0,090	0,112
-58,534	40,030	-1,926	-1,220
-57,519	408,412	-1,340	-2,010
-56,505	-200,000	-0,361	-4,360
-55,490	366,053	0,875	1,250
-54,476	800,000	5,222	11,673
-53,461	-200,000	20,882	333,576
-52,446	800,000	758,197	2333,572
-51,432	552,021	1663,573	2832,693
-50,417	73,659	1665,830	1231,353
-49,403	18,692	1539,016	867,442
-48,388	12,617	1462,148	794,655
-47,373	19,222	1452,925	821,395
-46,359	15,911	1442,229	799,525
-45,344	10,937	1438,007	773,414
-44,330	10,866	1436,331	772,142
-43,315	10,875	1434,188	771,001
-42,300	10,824	1432,533	769,838
-41,286	10,845	1431,292	769,240
-40,271	10,832	1430,057	768,483
-39,257	10,848	1428,846	767,878
-38,242	10,875	1427,616	767,318
-37,227	10,885	1426,631	766,802
-36,213	10,885	1425,286	766,050
-35,198	10,894	1424,144	765,447
-34,184	10,951	1423,325	765,248
-33,169	10,835	1422,019	763,965
-32,154	10,910	1420,961	763,722
-31,140	10,900	1419,579	762,902
-30,125	10,917	1418,692	762,477
-29,111	10,941	1417,394	761,861
-28,096	10,924	1416,391	761,211
-27,082	10,852	1415,211	760,208
-26,067	10,825	1414,163	759,487
-25,052	10,868	1413,018	759,043
-24,038	10,914	1411,944	758,653
-23,023	10,854	1410,930	757,797
-22,009	10,833	1409,880	757,103
-20,994	10,841	1408,773	756,517
-19,979	10,830	1408,014	756,027
-18,965	10,789	1407,173	755,355
-17,950	10,757	1406,288	754,702
-16,936	10,724	1405,599	754,149
-15,921	10,749	1404,342	753,557
-14,906	10,735	1403,431	752,974
-13,892	10,795	1402,152	752,539
-12,877	10,715	1401,648	751,868
-11,863	10,728	1400,791	751,436
-10,848	10,741	1399,860	750,967
-9,833	10,687	1399,124	750,293
-8,819	10,673	1398,138	749,667
-7,804	10,643	1397,228	749,014
-6,790	10,660	1396,226	748,523
-5,775	10,676	1395,178	748,007
-4,760	10,670	1394,405	747,532
-3,746	10,665	1393,292	746,884
-2,731	10,659	1392,585	746,450
-1,717	10,618	1391,871	745,848
-0,702	10,602	1390,020	744,753
0,313	14,552	1303,202	716,386
1,327	30,628	693,315	417,741
2,342	47,443	120,512	79,140
3,356	1,482	16,496	8,347
4,371	-10,253	3,491	1,629
5,386	23,735	0,807	0,468
6,400	800,000	0,149	0,452
7,415	172,662	-0,181	-0,184
8,429	7,052	-0,274	-0,144
9,444	134,848	-0,279	-0,256
10,459	446,640	-0,100	-0,156
11,473	553,603	-0,188	-0,320
12,488	20,526	-0,236	-0,134
13,502	72,522	-0,278	-0,204
14,517	73,413	-0,272	-0,201
15,531	231,683	-0,308	-0,356
16,546	31,330	-0,419	-0,253
17,561	530,631	-0,162	-0,271
18,575	-34,253	-0,239	-0,092
19,590	517,345	-0,159	-0,263
20,604	-60,945	-0,078	-0,023
21,619	90,277	-0,361	-0,284
22,634	82,282	-0,471	-0,360
23,648	99,152	-0,438	-0,356
24,663	95,674	-0,322	-0,259
25,677	400,701	-0,235	-0,348
26,692	189,538	-0,225	-0,238
27,707	-27,502	-0,288	-0,117
28,721	160,334	-0,299	-0,294
29,736	103,969	-0,390	-0,323
30,750	-48,568	-0,511	-0,172
31,765	152,966	-0,343	-0,330
32,780	-5,035	-0,416	-0,201
33,794	234,647	-0,346	-0,403
34,809	-1,887	-0,366	-0,180
35,823	69,243	-0,360	-0,260
36,838	59,169	-0,412	-0,285
37,853	97,884	-0,295	-0,239
38,867	155,390	-0,388	-0,376
39,882	62,596	-0,413	-0,290
40,896	64,127	-0,368	-0,260
41,911	28,612	-0,317	-0,189
42,926	-31,167	-0,248	-0,098
43,940	55,554	-0,562	-0,382
44,955	-3,928	-0,292	-0,142
45,969	-16,478	-0,314	-0,139
46,984	8,311	-0,417	-0,220
47,999	37,860	-0,291	-0,181
49,013	166,499	-0,307	-0,306
50,028	-26,365	-0,321	-0,132
51,042	71,576	-0,361	-0,263
52,057	10,744	-0,358	-0,191
53,071	47,659	-0,348	-0,228
54,086	8,598	-0,456	-0,241
55,101	135,169	-0,328	-0,300
56,115	78,534	-0,334	-0,251
57,130	-9,541	-0,374	-0,175
58,144	-9,122	-0,357	-0,167
59,159	-18,643	-0,444	-0,193
60,174	40,194	-0,315	-0,199
61,188	47,690	-0,319	-0,209
62,203	-52,471	-0,279	-0,090
63,217	27,302	-0,378	-0,222
64,232	19,358	-0,387	-0,217
65,247	281,333	-0,214	-0,269
66,261	2,327	-0,489	-0,248
67,276	18,077	-0,296	-0,165
68,290	46,567	-0,314	-0,204
69,305	-1,895	-0,352	-0,173
70,320	36,656	-0,194	-0,120
71,334	138,756	-0,282	-0,260
72,349	38,252	-0,320	-0,200
73,363	67,443	-0,377	-0,270
74,378	74,353	-0,259	-0,191
75,393	114,374	-0,359	-0,307
76,407	291,816	-0,208	-0,266
77,422	-10,988	-0,269	-0,124
78,436	22,934	-0,241	-0,138
79,451	75,150	-0,205	-0,152
80,466	8,996	-0,372	-0,196
81,480	53,371	-0,299	-0,201
82,495	-200,000	-0,097	-0,359
83,509	-33,927	-0,323	-0,124
84,524	16,920	-0,277	-0,153
85,539	168,983	-0,184	-0,184
86,553	-84,106	-0,378	-0,083
87,568	-29,888	-0,395	-0,157
88,582	33,182	-0,362	-0,220
89,597	23,781	-0,284	-0,164
90,611	120,110	-0,218	-0,189
91,626	-10,025	-0,277	-0,128
92,641	30,009	-0,212	-0,126
93,655	11,470	-0,255	-0,136
94,670	50,530	-0,243	-0,161
95,684	41,318	-0,252	-0,159
96,699	118,846	-0,226	-0,196
97,714	28,631	-0,190	-0,112
98,728	-153,940	-0,223	-0,010
99,743	48,091	-0,231	-0,151
100,757	-21,526	-0,251	-0,107
101,772	201,940	-0,236	-0,255
102,787	195,356	-0,265	-0,282
103,801	178,589	-0,172	-0,176
104,816	107,753	-0,310	-0,258
105,830	109,160	-0,205	-0,171
106,845	19,122	-0,187	-0,105
107,860	-81,398	-0,284	-0,065
108,874	44,987	-0,304	-0,195
109,889	277,251	-0,231	-0,288
110,903	-7,342	-0,281	-0,132
111,918	1,164	-0,258	-0,129
112,933	800,000	-0,114	-0,251
113,947	-91,156	-0,320	-0,064
114,962	-85,660	-0,245	-0,053
115,976	-83,068	-0,380	-0,085
116,991	-22,539	-0,403	-0,170
118,006	13,795	-0,424	-0,229
119,020	95,217	-0,205	-0,163
120,035	-57,759	-0,278	-0,085
121,049	-31,700	-0,303	-0,118
122,064	-24,970	-0,270	-0,112
123,079	70,174	-0,276	-0,199
124,093	29,362	-0,299	-0,177
125,108	10,317	-0,232	-0,123
126,122	93,232	-0,244	-0,193
127,137	-6,231	-0,189	-0,090
128,151	238,187	-0,175	-0,204
129,166	57,599	-0,267	-0,182
130,181	71,883	-0,270	-0,196
131,195	-51,854	-0,306	-0,099
132,210	63,116	-0,163	-0,114
133,224	569,291	-0,144	-0,245
134,239	-80,070	-0,224	-0,052
135,254	104,770	-0,175	-0,144
136,268	26,745	-0,169	-0,099
137,283	-48,876	-0,292	-0,097
138,297	346,173	-0,248	-0,341
139,312	58,696	-0,308	-0,211
140,327	-44,103	-0,271	-0,094
141,341	109,884	-0,183	-0,153
142,356	146,089	-0,241	-0,226
143,370	25,898	-0,253	-0,147
144,385	-14,901	-0,339	-0,151
145,400	152,015	-0,181	-0,172
146,414	-1,747	-0,419	-0,205
147,429	-68,878	-0,258	-0,069
148,443	-85,233	-0,195	-0,042
149,458	-84,965	-0,208	-0,045
150,473	-59,193	-0,220	-0,066
151,487	180,814	-0,242	-0,248
152,502	55,882	-0,304	-0,205
153,516	366,772	-0,126	-0,177
154,531	-46,597	-0,377	-0,128
155,546	800,000	-0,072	-0,139
156,560	350,237	-0,214	-0,295
157,575	37,313	-0,234	-0,144
158,589	472,784	-0,119	-0,188
159,604	70,368	-0,371	-0,267
160,619	137,899	-0,288	-0,263
161,633	132,681	-0,182	-0,163
162,648	-150,573	-0,220	-0,012
163,662	194,588	-0,188	-0,199
164,677	239,870	-0,179	-0,207
165,692	90,293	-0,248	-0,193
166,706	120,069	-0,256	-0,221
167,721	125,346	-0,208	-0,183
168,735	191,733	-0,279	-0,293
169,750	800,000	-0,101	-0,205
170,764	124,839	-0,161	-0,141
171,779	106,475	-0,134	-0,110
172,794	22,553	-0,236	-0,134
173,808	572,467	-0,189	-0,321
174,823	800,000	-0,086	-0,192
175,837	387,107	-0,145	-0,210
176,852	67,696	-0,244	-0,173
177,867	158,455	-0,108	-0,104
178,881	24,349	-0,275	-0,158
179,896	126,411	-0,255	-0,224
180,910	227,229	-0,277	-0,313
181,925	101,898	-0,222	-0,180
182,940	171,103	-0,177	-0,177
183,954	183,770	-0,165	-0,170
184,969	264,423	-0,152	-0,184
185,983	-71,654	-0,161	-0,041
186,998	307,599	-0,162	-0,211
188,013	630,536	-0,052	-0,092
189,027	120,306	-0,249	-0,215
190,042	-72,322	-0,319	-0,081
191,056	11,615	-0,121	-0,064
192,071	-37,133	-0,216	-0,080
193,086	3,864	-0,176	-0,089
194,100	64,864	-0,172	-0,120
195,115	-68,399	-0,102	-0,027
196,129	107,122	-0,140	-0,115
197,144	784,550	-0,103	-0,197
198,159	21,285	-0,249	-0,140
199,173	-64,879	-0,263	-0,073
200,188	100,349	-0,239	-0,192
201,202	-130,737	-0,255	-0,023
202,217	800,000	-0,127	-0,273
203,232	90,514	-0,256	-0,198
204,246	-47,588	-0,160	-0,054
205,261	205,157	-0,216	-0,232
206,275	169,837	-0,166	-0,165
207,290	644,266	-0,095	-0,169
208,304	-109,255	-0,140	-0,020
209,319	79,401	-0,172	-0,128
210,334	21,654	-0,093	-0,052
211,348	-19,429	-0,217	-0,093
212,363	34,994	-0,149	-0,090
213,377	625,665	-0,125	-0,220
214,392	74,942	-0,138	-0,101
215,407	189,923	-0,157	-0,163
216,421	682,504	-0,065	-0,118
217,436	50,176	-0,261	-0,170
218,450	265,792	-0,189	-0,229
219,465	126,982	-0,224	-0,197
220,480	202,107	-0,139	-0,148
221,494	268,864	-0,180	-0,219
222,509	83,569	-0,219	-0,165
223,523	418,352	-0,126	-0,187
224,538	262,445	-0,151	-0,181
225,553	9,480	-0,197	-0,103
226,567	118,678	-0,250	-0,214
227,582	-8,044	-0,207	-0,096
228,596	-69,323	-0,165	-0,044
229,611	-3,602	-0,184	0,088
230,626	146,700	-0,221	-0,205
231,640	-62,279	-0,268	0,077
232,655	550,736	-0,133	-0,222
233,669	243,890	-0,192	-0,223
234,684	246,622	-0,217	-0,253
235,699	-122,024	-0,211	-0,024
236,713	800,000	-0,049	-0,131
237,728	-109,249	-0,180	-0,026
238,742	213,986	-0,213	-0,233
239,757	18,912	-0,286	-0,158
240,772	147,968	-0,225	-0,210
241,786	-11,136	-0,169	-0,077
242,801	-200,000	-0,076	-0,273
243,815	130,576	-0,203	-0,180
244,830	22,070	-0,146	-0,082
245,844	160,666	-0,140	-0,135
246,859	24,264	-0,236	-0,135
247,874	-43,955	-0,285	-0,098
248,888	22,171	-0,159	-0,089
249,903	64,836	-0,221	-0,154
250,917	733,042	-0,114	-0,212
251,932	78,690	-0,161	-0,119
252,947	73,438	-0,124	-0,089
253,961	734,274	-0,171	-0,317
254,976	-26,337	-0,304	-0,123
255,990	542,172	-0,065	-0,108
257,005	619,006	-0,125	-0,219
258,020	264,925	-0,116	-0,140
259,034	-168,647	-0,147	-0,004
260,049	-120,620	-0,202	-0,023
261,063	198,854	-0,113	-0,120
262,078	133,974	-0,143	-0,127
263,093	448,686	-0,138	-0,211
264,107	125,880	-0,163	-0,142
265,122	581,183	-0,193	-0,328
266,136	398,623	-0,085	-0,124
267,151	-0,091	-0,257	-0,126
268,166	-136,189	-0,172	-0,014
269,180	200,555	-0,204	-0,216
270,195	-200,000	-0,004	-0,229
271,209	26,236	-0,274	-0,158
272,224	-63,713	-0,060	0,017
273,239	76,841	-0,161	-0,118
274,253	-69,025	-0,175	-0,046
275,268	-200,000	-0,050	-0,209
276,282	800,000	-0,052	-0,108
277,297	116,261	-0,195	-0,164
278,312	800,000	-0,080	-0,164
279,326	210,228	0,033	-0,036
280,341	-112,661	-0,122	-0,017
281,355	89,133	-0,090	-0,069
282,370	315,920	-0,141	-0,184
283,384	800,000	-0,063	-0,173
284,399	339,015	-0,135	-0,182
285,414	-12,344	-0,243	-0,109
286,428	-113,567	-0,105	0,014
287,443	294,005	-0,094	-0,118
288,457	-75,764	-0,037	-0,009
289,472	194,482	-0,101	-0,105
290,487	208,502	-0,183	-0,197
291,501	-2,537	-0,247	-0,119
292,516	-72,650	-0,175	0,044
293,530	92,280	-0,142	-0,110
294,545	84,613	-0,149	-0,112
295,560	-183,094	-0,101	0,001
296,574	800,000	-0,124	-0,269
297,589	168,088	-0,106	-0,104
298,603	177,144	-0,158	-0,158
299,618	0,143	-0,264	-0,129
300,633	-112,268	-0,150	-0,020
301,647	152,311	-0,041	0,039
302,662	-31,091	-0,101	0,039
303,676	1,096	-0,215	-0,106
304,691	46,237	-0,304	-0,193
305,706	180,000	-0,110	-0,111
306,720	-103,296	-0,196	-0,032
307,735	-66,996	-0,184	-0,050
308,749	488,668	-0,160	-0,252
309,764	-98,519	-0,130	-0,023
310,779	65,071	-0,203	-0,141
311,793	205,787	-0,138	-0,147
312,808	-44,856	-0,132	-0,045
313,822	134,189	-0,140	-0,124
314,837	-200,000	-0,003	-0,095
315,852	-55,787	-0,108	0,033
316,866	219,031	-0,066	-0,072
317,881	134,078	-0,162	-0,144
318,895	79,054	-0,234	-0,172
319,910	83,280	-0,154	-0,115
320,925	119,895	-0,150	-0,127
321,939	800,000	0,023	-0,058
322,954	-63,612	-0,175	-0,049
323,968	-49,455	-0,077	0,025
324,983	-200,000	-0,004	-0,034
325,997	9,958	-0,130	-0,067
327,012	-200,000	-0,004	-0,146
328,027	7,548	-0,120	-0,061
329,041	-47,980	-0,181	-0,060
330,056	550,196	-0,028	-0,046
331,070	22,966	-0,030	0,017
332,085	800,000	-0,036	-0,084
333,100	-147,134	-0,092	-0,005
334,114	299,134	-0,100	-0,127
335,129	32,071	-0,162	-0,095
336,143	77,342	-0,169	-0,123
337,158	-117,401	-0,210	-0,026
338,173	-91,375	-0,123	-0,024
339,187	-26,564	-0,153	0,061
340,202	800,000	-0,055	-0,164
341,216	18,246	-0,194	-0,106
342,231	-79,370	-0,168	-0,039
343,246	73,318	-0,116	-0,083
344,260	-57,256	-0,229	-0,069
345,275	-200,000	0,008	-0,120
346,289	307,354	-0,121	-0,155
347,304	668,810	-0,102	-0,181
348,319	301,332	-0,158	-0,200
349,333	-60,127	-0,201	-0,058
350,348	107,833	-0,104	-0,084
351,362	549,859	-0,133	-0,219
352,377	20,793	-0,114	0,063
353,392	1,330	-0,189	-0,093
354,406	321,357	-0,073	-0,095
355,421	207,845	1313,288	1405,240
356,435	159,905	1473,807	1405,712
