DTS Sentinel unit serial number:	SN410029Multiplexer serial number:	ORYXHardware model number:	OX2-SRSoftware version number:	ORYX F/W v4,00 Oryx Data Collector v3.7.2.0data status	okinstallation	B3 Nyhavnadifferential loss correction	single-endedforward channel	channel 1reverse channel	N/Adate	2023/12/01time	05:22:30forward acquisition time	300,00reverse acquisition time	0,00gamma	499,1914k internal	0,3213k external	0,3213temperature offset calibration	1,0000default loss term (dB/km)	0,3820temperature slope calibration	1,0000multiplexer offset coefficient	1,0000multiplexer slope coefficient	1,0000fibre end	0,00T internal ref (°C)	7,87T ext. ref 1 (°C)	-7,26T ext. ref 2 (°C)	-7,39length (m)	temperature (°C)	Stokes	anti-Stokes-744,400	-200,000	-0,044	-0,227
-743,385	-200,000	-0,026	0,252
-742,371	459,728	-0,105	-0,170
-741,356	-200,000	-0,093	0,370
-740,342	127,055	-0,141	-0,130
-739,327	800,000	0,031	0,063
-738,312	225,222	-0,169	-0,199
-737,298	-156,070	-0,112	0,005
-736,283	361,956	-0,198	-0,289
-735,269	520,752	0,106	0,180
-734,254	-103,359	-0,087	-0,015
-733,239	49,785	-0,248	0,169
-732,225	800,000	-0,086	-0,270
-731,210	15,156	0,148	0,084
-730,196	-200,000	0,010	-0,079
-729,181	26,991	-0,056	0,034
-728,167	800,000	-0,004	0,009
-727,152	800,000	-0,060	-0,121
-726,137	800,000	-0,025	0,068
-725,123	-180,169	0,086	0,001
-724,108	-200,000	-0,005	-0,194
-723,094	143,403	-0,068	-0,066
-722,079	-27,972	-0,137	0,057
-721,064	48,805	0,109	0,074
-720,050	-53,640	-0,125	-0,041
-719,035	-48,251	0,126	-0,044
-718,021	-192,249	-0,070	0,000
-717,006	800,000	-0,036	-0,110
-715,991	245,229	-0,085	-0,104
-714,977	-200,000	-0,006	-0,063
-713,962	-93,419	0,202	-0,040
-712,948	800,000	-0,046	-0,138
-711,933	22,553	0,084	-0,049
-710,918	-200,000	-0,013	-0,059
-709,904	-200,000	-0,105	0,000
-708,889	-200,000	0,009	-0,149
-707,875	26,851	-0,069	-0,042
-706,860	524,562	-0,073	0,125
-705,845	-200,000	0,011	0,057
-704,831	119,814	0,081	0,073
-703,816	192,864	-0,045	-0,049
-702,802	800,000	0,018	0,048
-701,787	53,933	-0,104	-0,073
-700,772	-200,000	-0,010	-0,058
-699,758	3,494	-0,074	-0,039
-698,743	-27,448	0,137	0,058
-697,729	800,000	-0,030	-0,069
-696,714	-200,000	-0,002	0,033
-695,699	-43,279	-0,116	-0,042
-694,685	800,000	0,072	-0,155
-693,670	205,925	0,064	-0,072
-692,656	-114,291	-0,163	0,022
-691,641	800,000	0,008	-0,022
-690,627	-13,237	0,096	-0,045
-689,612	-139,520	0,081	0,006
-688,597	-143,619	-0,068	0,005
-687,583	800,000	0,030	-0,071
-686,568	330,639	-0,125	0,175
-685,554	-33,118	0,022	-0,009
-684,539	159,348	0,090	0,090
-683,524	-102,788	0,159	-0,027
-682,510	119,528	-0,085	-0,076
-681,495	-113,378	-0,103	0,015
-680,481	-126,138	-0,078	0,008
-679,466	263,510	0,044	0,056
-678,451	211,815	-0,061	-0,070
-677,437	-12,304	-0,046	-0,022
-676,422	161,428	-0,014	-0,014
-675,408	-200,000	-0,005	-0,077
-674,393	131,964	-0,075	-0,070
-673,378	371,396	-0,036	-0,053
-672,364	-200,000	-0,008	-0,070
-671,349	11,965	-0,065	0,036
-670,335	-200,000	-0,015	-0,097
-669,320	-45,907	0,081	-0,029
-668,305	-132,089	0,111	-0,010
-667,291	-200,000	-0,017	0,055
-666,276	-200,000	0,000	0,049
-665,262	168,327	0,017	0,017
-664,247	-200,000	0,005	0,046
-663,232	-200,000	-0,024	-0,163
-662,218	777,085	0,050	0,100
-661,203	157,394	-0,095	-0,095
-660,189	-183,605	-0,090	-0,001
-659,174	-93,604	0,059	0,012
-658,159	505,280	-0,041	-0,069
-657,145	-71,372	-0,125	-0,034
-656,130	-200,000	0,006	0,022
-655,116	800,000	0,028	0,063
-654,101	109,570	0,019	-0,017
-653,086	-45,280	0,121	0,043
-652,072	-200,000	-0,015	-0,051
-651,057	800,000	-0,067	0,142
-650,043	-200,000	0,018	-0,064
-649,028	-28,419	-0,042	-0,018
-648,014	-156,759	0,005	-0,000
-646,999	293,316	0,039	0,051
-645,984	131,771	-0,098	-0,091
-644,970	604,468	0,056	-0,100
-643,955	800,000	-0,059	-0,127
-642,941	602,674	-0,057	-0,102
-641,926	-29,178	0,052	-0,022
-640,911	735,520	0,066	0,129
-639,897	-145,639	0,165	0,010
-638,882	342,025	-0,073	0,103
-637,868	155,823	-0,010	-0,010
-636,853	-197,450	-0,107	0,000
-635,838	-94,984	-0,157	-0,030
-634,824	188,465	-0,073	-0,079
-633,809	-129,056	0,058	0,006
-632,795	164,405	0,082	0,083
-631,780	-200,000	-0,017	0,087
-630,765	48,944	0,077	-0,052
-629,751	-200,000	-0,003	-0,211
-628,736	-36,230	-0,137	-0,053
-627,722	95,854	0,068	-0,056
-626,707	154,694	-0,048	-0,047
-625,692	800,000	-0,026	-0,067
-624,678	-200,000	0,009	-0,041
-623,663	-200,000	0,011	0,169
-622,649	3,716	-0,128	-0,067
-621,634	791,900	-0,061	-0,121
-620,619	50,415	-0,052	-0,035
-619,605	125,412	-0,126	0,114
-618,590	320,465	0,031	0,042
-617,576	-200,000	0,037	0,194
-616,561	-200,000	0,015	-0,165
-615,546	-134,389	-0,095	0,008
-614,532	40,207	-0,027	-0,018
-613,517	187,477	-0,090	-0,097
-612,503	-43,287	-0,087	-0,032
-611,488	74,592	0,047	-0,036
-610,474	484,328	0,157	0,258
-609,459	115,000	-0,061	-0,054
-608,444	564,425	0,004	0,007
-607,430	-200,000	-0,031	-0,106
-606,415	-29,387	0,057	-0,023
-605,401	57,785	0,026	-0,019
-604,386	-200,000	-0,007	-0,065
-603,371	-9,506	-0,009	-0,004
-602,357	-39,589	0,008	-0,003
-601,342	-200,000	0,007	0,054
-600,328	-116,742	0,081	-0,011
-599,313	202,623	-0,101	-0,112
-598,298	-61,822	-0,058	-0,017
-597,284	-200,000	0,007	-0,099
-596,269	-200,000	0,023	-0,100
-595,255	-63,241	0,177	0,052
-594,240	-200,000	-0,005	0,089
-593,225	-145,573	-0,219	0,014
-592,211	13,721	-0,029	0,016
-591,196	21,109	-0,159	-0,093
-590,182	-200,000	-0,042	-0,221
-589,167	800,000	0,079	0,197
-588,152	30,875	-0,127	-0,078
-587,138	-200,000	-0,031	-0,107
-586,123	70,954	-0,096	-0,072
-585,109	-22,816	-0,040	-0,017
-584,094	-88,116	0,020	0,004
-583,079	90,225	-0,093	-0,075
-582,065	-200,000	0,020	-0,081
-581,050	800,000	-0,023	0,057
-580,036	-66,165	-0,076	0,022
-579,021	103,940	-0,135	0,114
-578,006	-200,000	-0,008	-0,037
-576,992	-9,167	0,097	-0,046
-575,977	-117,513	-0,015	-0,002
-574,963	-103,802	-0,032	-0,005
-573,948	335,324	-0,017	0,024
-572,934	-141,031	0,125	0,009
-571,919	599,032	0,069	-0,124
-570,904	55,496	-0,067	-0,047
-569,890	-39,195	-0,120	-0,045
-568,875	-103,068	-0,064	0,011
-567,861	181,566	-0,028	-0,029
-566,846	422,792	0,024	0,037
-565,831	800,000	0,059	0,120
-564,817	363,319	-0,041	-0,059
-563,802	-85,059	-0,117	-0,026
-562,788	65,997	-0,155	0,113
-561,773	35,543	0,120	0,076
-560,758	-104,999	-0,136	0,022
-559,744	-93,982	0,047	0,009
-558,729	-200,000	-0,011	0,158
-557,715	-200,000	-0,015	-0,067
-556,700	-200,000	0,024	-0,121
-555,685	438,414	-0,082	-0,129
-554,671	533,689	0,082	-0,140
-553,656	9,990	0,019	0,011
-552,642	800,000	-0,025	0,077
-551,627	-200,000	-0,027	-0,102
-550,612	800,000	0,027	0,070
-549,598	-200,000	-0,044	-0,212
-548,583	172,942	-0,060	-0,062
-547,569	-200,000	-0,011	0,041
-546,554	-71,699	-0,062	0,017
-545,539	800,000	-0,035	0,069
-544,525	-200,000	0,015	-0,054
-543,510	-200,000	0,040	-0,164
-542,496	75,149	0,064	-0,048
-541,481	-200,000	-0,012	0,091
-540,466	-0,939	-0,050	-0,025
-539,452	202,096	0,077	0,085
-538,437	159,922	-0,106	0,106
-537,423	11,647	0,077	0,042
-536,408	-200,000	0,011	0,066
-535,393	75,873	-0,091	0,069
-534,379	-200,000	0,022	-0,083
-533,364	-200,000	0,011	0,105
-532,350	-200,000	0,050	0,175
-531,335	-200,000	0,035	0,153
-530,321	110,163	-0,071	0,061
-529,306	-200,000	-0,001	0,089
-528,291	-200,000	-0,078	0,267
-527,277	800,000	-0,044	-0,093
-526,262	-50,373	0,054	0,018
-525,248	800,000	0,062	0,167
-524,233	529,950	0,071	0,121
-523,218	-88,159	0,028	-0,006
-522,204	-10,671	0,116	0,055
-521,189	-61,794	-0,044	-0,013
-520,175	3,273	-0,137	-0,071
-519,160	446,536	-0,016	0,025
-518,145	126,131	-0,037	-0,034
-517,131	-200,000	0,017	0,192
-516,116	-72,161	0,093	0,024
-515,102	86,949	-0,101	0,080
-514,087	53,305	-0,091	-0,063
-513,072	-103,813	0,084	0,014
-512,058	-19,240	-0,054	-0,024
-511,043	800,000	-0,039	-0,113
-510,029	800,000	-0,030	0,082
-509,014	-200,000	0,007	0,074
-507,999	-3,396	0,081	0,040
-506,985	-166,034	-0,125	-0,004
-505,970	228,375	-0,042	-0,050
-504,956	-200,000	-0,004	-0,132
-503,941	-101,306	-0,073	-0,013
-502,926	15,289	0,085	0,048
-501,912	-149,065	0,038	0,002
-500,897	305,887	0,031	0,041
-499,883	788,711	0,054	-0,108
-498,868	-200,000	0,007	-0,128
-497,853	-200,000	-0,017	-0,070
-496,839	-118,798	-0,088	-0,011
-495,824	401,357	-0,099	-0,149
-494,810	-122,051	0,082	0,010
-493,795	-22,447	0,082	-0,035
-492,781	-65,522	-0,093	-0,027
-491,766	9,739	0,061	0,033
-490,751	44,767	0,081	0,054
-489,737	-51,043	-0,046	-0,015
-488,722	-200,000	0,025	0,139
-487,708	413,662	0,055	-0,084
-486,693	800,000	-0,079	-0,157
-485,678	-200,000	-0,006	-0,029
-484,664	514,385	-0,158	-0,265
-483,649	757,826	-0,004	-0,009
-482,635	43,302	0,084	-0,055
-481,620	800,000	0,019	0,039
-480,605	800,000	0,031	-0,085
-479,591	-200,000	0,034	0,174
-478,576	800,000	0,043	0,095
-477,562	65,676	0,044	-0,032
-476,547	-34,901	-0,142	-0,055
-475,532	-18,139	0,141	0,063
-474,518	244,670	-0,060	0,073
-473,503	-200,000	-0,002	0,044
-472,489	0,653	0,032	-0,016
-471,474	-200,000	-0,011	-0,104
-470,459	154,637	0,060	-0,059
-469,445	-123,677	-0,102	0,011
-468,430	40,725	-0,050	-0,032
-467,416	428,506	-0,037	0,058
-466,401	548,449	0,010	0,017
-465,386	-102,225	0,109	0,019
-464,372	-200,000	-0,001	-0,085
-463,357	800,000	0,046	0,138
-462,343	197,449	-0,024	-0,026
-461,328	-200,000	-0,020	-0,085
-460,313	-145,530	0,090	-0,006
-459,299	19,642	-0,089	0,051
-458,284	208,018	0,091	0,103
-457,270	-200,000	-0,012	0,085
-456,255	4,432	0,068	0,036
-455,241	-200,000	0,006	-0,059
-454,226	800,000	-0,044	0,121
-453,211	16,598	-0,014	0,008
-452,197	47,616	-0,022	-0,015
-451,182	-161,446	0,059	0,002
-450,168	579,873	0,033	0,058
-449,153	363,314	-0,102	-0,147
-448,138	480,036	-0,060	-0,098
-447,124	47,288	-0,087	0,058
-446,109	800,000	-0,036	-0,073
-445,095	-143,429	-0,050	-0,003
-444,080	195,697	-0,047	0,051
-443,065	800,000	0,017	-0,049
-442,051	0,943	-0,048	0,024
-441,036	-200,000	0,009	-0,054
-440,022	-53,231	0,161	-0,053
-439,007	151,724	-0,008	0,008
-437,992	1,644	0,131	0,067
-436,978	-95,129	0,129	0,025
-435,963	-77,438	-0,106	0,026
-434,949	424,122	0,027	-0,042
-433,934	-200,000	0,008	0,070
-432,919	155,316	-0,105	0,104
-431,905	-200,000	-0,019	-0,111
-430,890	250,052	0,094	0,115
-429,876	800,000	-0,067	0,146
-428,861	81,135	0,058	0,045
-427,846	70,759	-0,024	0,018
-426,832	800,000	-0,051	-0,159
-425,817	0,095	-0,142	0,072
-424,803	129,914	0,168	-0,154
-423,788	44,074	0,081	0,053
-422,773	-152,453	0,041	-0,002
-421,759	-200,000	0,040	0,131
-420,744	-4,372	0,057	-0,028
-419,730	800,000	0,014	0,038
-418,715	666,106	-0,056	0,104
-417,701	800,000	-0,021	0,046
-416,686	-200,000	-0,010	0,043
-415,671	800,000	0,024	0,064
-414,657	-200,000	0,008	0,088
-413,642	179,720	0,018	-0,018
-412,628	76,988	0,125	-0,095
-411,613	39,160	-0,048	0,031
-410,598	560,826	-0,063	0,110
-409,584	468,107	0,037	0,060
-408,569	64,571	0,092	-0,067
-407,555	-98,236	0,066	-0,012
-406,540	581,120	-0,098	-0,172
-405,525	800,000	0,036	-0,081
-404,511	97,386	-0,087	0,072
-403,496	-200,000	-0,013	-0,106
-402,482	458,741	0,045	-0,072
-401,467	800,000	0,008	0,025
-400,452	-200,000	0,023	-0,084
-399,438	-200,000	-0,015	0,060
-398,423	-200,000	0,004	0,029
-397,409	24,398	-0,106	-0,062
-396,394	-124,741	0,087	0,009
-395,379	-97,716	-0,093	0,017
-394,365	270,292	0,079	-0,100
-393,350	-200,000	0,010	0,106
-392,336	47,285	0,144	0,096
-391,321	800,000	0,050	0,110
-390,306	-151,130	-0,174	0,009
-389,292	-74,743	0,099	-0,025
-388,277	77,909	-0,081	0,062
-387,263	-200,000	0,002	0,123
-386,248	-200,000	0,034	0,116
-385,233	369,547	-0,045	-0,065
-384,219	-200,000	-0,003	0,067
-383,204	369,825	0,033	0,047
-382,190	-73,758	-0,100	-0,026
-381,175	27,130	0,063	-0,038
-380,160	-200,000	-0,005	0,067
-379,146	-200,000	0,035	0,157
-378,131	77,190	0,106	-0,080
-377,117	359,065	-0,108	-0,154
-376,102	-200,000	-0,008	-0,071
-375,088	-58,659	0,089	-0,027
-374,073	115,903	0,064	0,056
-373,058	-200,000	0,008	-0,119
-372,044	293,810	-0,062	0,081
-371,029	102,368	0,067	-0,056
-370,015	800,000	0,015	-0,031
-369,000	-90,694	0,062	-0,013
-367,985	469,409	-0,064	-0,103
-366,971	3,916	0,071	-0,037
-365,956	-8,963	0,066	0,031
-364,942	-200,000	0,048	0,156
-363,927	779,241	0,059	0,116
-362,912	800,000	-0,038	0,098
-361,898	224,034	-0,037	-0,043
-360,883	-115,113	0,059	0,008
-359,869	-101,591	0,100	-0,017
-358,854	162,742	0,077	-0,077
-357,839	800,000	-0,010	-0,027
-356,825	97,095	0,058	0,048
-355,810	-145,146	0,081	0,005
-354,796	745,492	-0,039	-0,075
-353,781	27,569	0,019	-0,011
-352,766	145,088	-0,021	-0,020
-351,752	227,504	-0,051	0,060
-350,737	-91,108	0,108	0,022
-349,723	41,531	-0,056	-0,036
-348,708	107,238	-0,071	0,060
-347,693	-200,000	0,022	0,083
-346,679	9,333	-0,120	-0,065
-345,664	-47,794	0,069	0,024
-344,650	70,988	-0,027	0,020
-343,635	-200,000	-0,005	0,039
-342,620	800,000	0,042	0,090
-341,606	-41,135	0,153	0,056
-340,591	-200,000	0,002	-0,009
-339,577	-196,112	0,042	0,000
-338,562	160,647	0,031	-0,031
-337,548	76,841	-0,066	0,050
-336,533	-200,000	0,028	0,137
-335,518	-200,000	0,010	0,099
-334,504	198,517	0,078	0,085
-333,489	-200,000	-0,007	-0,161
-332,475	85,335	0,104	-0,081
-331,460	71,739	0,068	-0,050
-330,445	6,372	-0,076	0,040
-329,431	-72,244	-0,035	-0,009
-328,416	49,667	0,142	0,095
-327,402	800,000	-0,022	-0,067
-326,387	720,196	0,026	-0,049
-325,372	-32,250	-0,086	-0,034
-324,358	251,644	-0,044	-0,054
-323,343	-200,000	-0,001	0,068
-322,329	-44,744	0,044	-0,016
-321,314	-29,222	0,162	0,066
-320,299	-200,000	0,009	0,068
-319,285	113,942	-0,108	-0,094
-318,270	144,279	0,047	-0,045
-317,256	498,919	0,027	-0,045
-316,241	-200,000	0,005	0,070
-315,226	329,907	0,034	0,047
-314,212	398,253	-0,030	0,045
-313,197	169,973	0,042	-0,043
-312,183	721,194	-0,018	0,035
-311,168	-23,469	-0,071	0,030
-310,153	302,850	0,049	-0,064
-309,139	513,447	-0,126	-0,210
-308,124	346,740	-0,047	-0,067
-307,110	30,269	0,068	0,041
-306,095	-200,000	-0,003	-0,063
-305,080	128,983	0,075	-0,068
-304,066	-200,000	-0,009	0,068
-303,051	-200,000	0,007	-0,193
-302,037	-200,000	-0,007	-0,024
-301,022	-200,000	-0,005	0,182
-300,008	431,144	0,123	0,191
-298,993	24,270	-0,024	0,014
-297,978	10,706	-0,074	0,040
-296,964	701,091	0,010	0,019
-295,949	-200,000	0,001	-0,026
-294,935	-200,000	0,006	-0,129
-293,920	1,661	-0,053	-0,027
-292,905	54,357	0,127	-0,087
-291,891	104,402	0,034	0,028
-290,876	482,127	0,095	0,154
-289,862	-32,268	0,127	-0,050
-288,847	-200,000	-0,009	-0,030
-287,832	-200,000	0,004	0,041
-286,818	-200,000	0,007	-0,031
-285,803	800,000	0,055	0,111
-284,789	352,553	0,074	0,105
-283,774	-200,000	0,011	0,062
-282,759	-131,933	-0,198	-0,018
-281,745	498,732	-0,037	0,061
-280,730	-159,397	0,113	0,004
-279,716	-58,762	-0,153	-0,047
-278,701	32,712	0,110	-0,068
-277,686	-102,315	-0,072	0,012
-276,672	-98,803	0,130	-0,023
-275,657	800,000	0,031	0,074
-274,643	121,468	0,035	-0,031
-273,628	-200,000	-0,018	-0,152
-272,613	-200,000	-0,006	-0,023
-271,599	-200,000	-0,015	0,055
-270,584	263,096	0,068	0,084
-269,570	78,709	0,065	-0,050
-268,555	800,000	0,039	-0,106
-267,540	88,542	0,045	0,036
-266,526	85,505	0,124	-0,097
-265,511	27,146	0,027	0,016
-264,497	-200,000	-0,030	-0,119
-263,482	-200,000	-0,004	0,122
-262,467	-200,000	-0,012	0,113
-261,453	373,341	-0,021	0,031
-260,438	-200,000	0,022	-0,079
-259,424	153,337	-0,082	-0,079
-258,409	134,548	0,023	0,021
-257,395	170,532	0,105	0,107
-256,380	-200,000	0,014	0,140
-255,365	-26,890	0,061	-0,025
-254,351	64,746	0,050	0,036
-253,336	435,872	-0,006	-0,009
-252,322	16,073	-0,123	0,068
-251,307	800,000	0,033	0,082
-250,292	86,259	0,018	-0,014
-249,278	46,302	0,118	0,078
-248,263	-200,000	-0,046	0,163
-247,249	-200,000	-0,001	0,010
-246,234	211,271	-0,116	-0,130
-245,219	800,000	-0,086	-0,186
-244,205	-45,162	0,034	-0,012
-243,190	-133,666	0,088	0,008
-242,176	63,577	-0,042	-0,030
-241,161	349,462	0,021	0,029
-240,146	123,972	-0,018	0,016
-239,132	-200,000	0,004	0,155
-238,117	491,762	0,008	-0,014
-237,103	-200,000	0,002	0,015
-236,088	800,000	-0,012	0,026
-235,073	300,414	0,082	-0,108
-234,059	94,558	0,065	-0,052
-233,044	-200,000	-0,016	-0,099
-232,030	-90,890	-0,111	-0,022
-231,015	207,516	0,082	-0,091
-230,000	800,000	0,042	-0,122
-228,986	-200,000	0,006	-0,148
-227,971	800,000	-0,019	0,051
-226,957	-17,146	-0,159	-0,071
-225,942	306,616	-0,030	0,040
-224,927	427,849	0,005	-0,007
-223,913	-165,939	-0,087	0,003
-222,898	196,524	0,113	0,122
-221,884	-200,000	-0,023	0,087
-220,869	453,164	0,030	-0,047
-219,855	11,954	-0,062	0,034
-218,840	0,113	0,133	0,067
-217,825	-36,295	-0,016	-0,006
-216,811	-200,000	-0,020	-0,080
-215,796	-56,597	0,040	-0,013
-214,782	-151,140	0,073	-0,004
-213,767	616,333	-0,044	0,079
-212,752	42,729	0,071	0,046
-211,738	-109,298	-0,070	0,010
-210,723	800,000	-0,047	-0,126
-209,709	321,362	0,021	-0,028
-208,694	187,863	-0,067	0,071
-207,679	-84,311	0,084	-0,019
-206,665	-66,546	-0,049	0,014
-205,650	-200,000	-0,008	-0,039
-204,636	766,527	-0,031	-0,061
-203,621	800,000	-0,027	0,064
-202,606	800,000	-0,072	-0,142
-201,592	-71,843	0,022	-0,006
-200,577	-200,000	0,031	-0,102
-199,563	-196,448	0,026	-0,000
-198,548	82,182	0,063	0,048
-197,533	800,000	-0,039	0,119
-196,519	14,200	-0,040	0,022
-195,504	800,000	0,019	0,047
-194,490	10,753	-0,131	-0,070
-193,475	-39,234	0,088	-0,033
-192,460	-23,223	0,037	0,016
-191,446	150,066	0,120	0,116
-190,431	800,000	0,038	0,076
-189,417	-200,000	0,003	-0,057
-188,402	-45,811	0,037	0,013
-187,387	298,160	-0,043	-0,056
-186,373	580,746	0,105	-0,183
-185,358	3,400	0,028	-0,015
-184,344	523,942	0,045	-0,076
-183,329	-200,000	0,035	0,141
-182,315	-47,033	-0,089	0,030
-181,300	185,817	0,038	0,040
-180,285	128,318	0,029	0,026
-179,271	-200,000	0,008	-0,040
-178,256	-76,626	-0,141	-0,035
-177,242	-200,000	0,001	0,045
-176,227	-200,000	0,038	0,150
-175,212	-200,000	0,019	0,181
-174,198	-127,932	-0,061	-0,006
-173,183	62,206	-0,077	-0,054
-172,169	-170,526	0,039	-0,001
-171,154	97,114	0,020	-0,017
-170,139	76,249	0,035	-0,027
-169,125	246,009	-0,048	-0,058
-168,110	-200,000	-0,003	-0,024
-167,096	531,939	0,037	0,062
-166,081	583,134	-0,100	0,175
-165,066	98,833	-0,024	-0,020
-164,052	-200,000	0,009	-0,048
-163,037	-49,638	0,095	-0,032
-162,023	-23,150	-0,109	0,046
-161,008	583,945	-0,073	-0,128
-159,993	120,512	-0,095	-0,084
-158,979	-157,251	-0,041	-0,002
-157,964	171,965	-0,042	-0,043
-156,950	153,285	-0,028	0,027
-155,935	-200,000	0,007	-0,099
-154,920	483,452	-0,013	-0,021
-153,906	-148,044	-0,113	0,007
-152,891	-155,428	0,055	-0,002
-151,877	60,157	0,071	-0,050
-150,862	215,935	-0,102	0,115
-149,847	-200,000	-0,004	-0,190
-148,833	335,759	-0,025	0,034
-147,818	-170,105	-0,019	0,000
-146,804	-84,711	0,151	-0,033
-145,789	-200,000	0,030	0,105
-144,775	-200,000	-0,028	0,118
-143,760	19,774	-0,054	0,031
-142,745	-3,463	-0,032	-0,016
-141,731	325,443	0,054	0,074
-140,716	-200,000	-0,003	0,109
-139,702	156,126	0,079	-0,077
-138,687	-200,000	-0,009	0,064
-137,672	-121,104	-0,027	0,003
-136,658	698,985	0,076	-0,142
-135,643	11,334	-0,075	-0,040
-134,629	264,603	-0,052	-0,064
-133,614	88,791	0,053	0,042
-132,599	-135,020	0,085	-0,007
-131,585	800,000	0,015	0,047
-130,570	12,116	-0,110	0,060
-129,556	-200,000	0,014	-0,090
-128,541	-200,000	0,003	-0,059
-127,526	97,045	-0,070	0,057
-126,512	356,998	0,044	-0,063
-125,497	800,000	0,050	-0,130
-124,483	800,000	-0,039	0,093
-123,468	-82,372	0,024	-0,005
-122,453	-200,000	-0,023	-0,123
-121,439	-200,000	-0,006	0,062
-120,424	15,599	-0,200	-0,111
-119,410	-200,000	0,017	0,128
-118,395	-68,264	0,134	0,037
-117,380	-200,000	0,009	0,097
-116,366	-200,000	-0,006	0,049
-115,351	-5,737	0,086	-0,041
-114,337	-78,797	-0,144	-0,034
-113,322	-30,079	-0,091	-0,036
-112,307	-0,149	-0,080	0,040
-111,293	-19,136	0,085	-0,037
-110,278	84,926	0,089	-0,069
-109,264	-200,000	-0,004	-0,063
-108,249	496,723	0,092	0,150
-107,234	800,000	0,035	-0,073
-106,220	-200,000	-0,002	-0,134
-105,205	-65,952	0,153	-0,043
-104,191	190,292	-0,107	0,114
-103,176	121,071	0,149	0,131
-102,162	-200,000	0,058	0,197
-101,147	779,220	0,044	-0,085
-100,132	-136,295	0,071	-0,006
-99,118	-21,198	-0,219	0,094
-98,103	-103,280	0,240	0,040
-97,089	-25,810	0,080	-0,033
-96,074	296,062	-0,074	0,096
-95,059	-106,102	0,071	-0,011
-94,045	55,580	-0,077	-0,052
-93,030	-4,606	-0,163	-0,079
-92,016	229,717	0,114	-0,132
-91,001	-75,371	0,025	-0,006
-89,986	30,688	0,074	0,045
-88,972	-200,000	0,027	0,111
-87,957	800,000	0,034	0,073
-86,943	76,563	-0,035	-0,026
-85,928	288,705	-0,103	-0,133
-84,913	-115,844	-0,130	0,017
-83,899	536,908	0,047	0,080
-82,884	-200,000	-0,001	-0,028
-81,870	46,845	0,079	0,052
-80,855	-94,871	-0,129	-0,024
-79,840	800,000	-0,085	-0,188
-78,826	122,263	0,072	0,063
-77,811	89,585	-0,052	-0,041
-76,797	249,302	0,060	-0,072
-75,782	-200,000	-0,013	-0,188
-74,767	-37,293	0,079	0,030
-73,753	57,146	0,068	0,047
-72,738	-54,414	0,089	0,028
-71,724	55,704	-0,126	-0,086
-70,709	34,123	0,103	-0,063
-69,694	-200,000	0,023	-0,119
-68,680	-200,000	-0,000	0,040
-67,665	-56,705	-0,079	-0,025
-66,651	252,107	-0,078	0,094
-65,636	28,103	0,070	-0,041
-64,622	-80,074	-0,124	0,029
-63,607	-200,000	0,031	-0,135
-62,592	800,000	-0,088	-0,183
-61,578	-200,000	-0,018	-0,093
-60,563	-200,000	-0,018	-0,106
-59,549	-200,000	0,026	0,090
-58,534	55,218	-2,173	-1,480
-57,519	627,590	-1,002	-1,793
-56,505	-200,000	-0,475	-4,471
-55,490	800,000	0,850	1,708
-54,476	800,000	5,367	11,505
-53,461	-200,000	22,534	347,683
-52,446	800,000	757,340	2287,824
-51,432	531,114	1641,782	2748,536
-50,417	67,522	1640,361	1180,018
-49,403	15,487	1518,376	838,662
-48,388	9,743	1444,736	770,418
-47,373	19,310	1437,545	812,105
-46,359	13,209	1426,109	776,840
-45,344	8,028	1422,089	750,133
-44,330	8,002	1420,052	748,907
-43,315	7,940	1418,271	747,646
-42,300	7,993	1416,311	746,835
-41,286	8,036	1415,357	746,504
-40,271	8,006	1413,792	745,507
-39,257	7,993	1412,884	744,936
-38,242	7,953	1411,704	744,098
-37,227	7,986	1410,563	743,621
-36,213	7,956	1409,212	742,738
-35,198	7,985	1408,178	742,301
-34,184	8,021	1407,143	741,894
-33,169	7,901	1406,046	740,723
-32,154	7,965	1404,959	740,420
-31,140	7,937	1403,894	739,702
-30,125	7,992	1402,499	739,193
-29,111	7,964	1401,361	738,431
-28,096	7,947	1400,202	737,713
-27,082	7,927	1399,074	736,997
-26,067	7,897	1397,941	736,234
-25,052	7,900	1396,938	735,688
-24,038	7,934	1395,891	735,265
-23,023	7,902	1395,055	734,649
-22,009	7,939	1393,908	734,184
-20,994	7,872	1393,117	733,431
-19,979	7,880	1391,991	732,847
-18,965	7,891	1391,007	732,350
-17,950	7,826	1390,187	731,589
-16,936	7,823	1389,395	731,128
-15,921	7,816	1388,267	730,470
-14,906	7,825	1387,323	729,988
-13,892	7,856	1386,256	729,542
-12,877	7,801	1385,717	728,976
-11,863	7,760	1385,069	728,417
-10,848	7,807	1383,874	727,975
-9,833	7,723	1382,997	727,099
-8,819	7,753	1382,036	726,702
-7,804	7,680	1381,287	725,943
-6,790	7,728	1380,192	725,559
-5,775	7,756	1379,153	725,114
-4,760	7,710	1378,301	724,424
-3,746	7,744	1377,315	724,033
-2,731	7,714	1376,573	723,479
-1,717	7,756	1375,524	723,092
-0,702	7,700	1373,918	721,962
0,313	11,662	1283,867	692,578
1,327	27,367	675,906	399,553
2,342	42,104	116,109	74,172
3,356	-1,138	16,517	8,202
4,371	10,259	3,874	2,071
5,386	-2,215	1,403	0,691
6,400	-200,000	0,179	0,582
7,415	-68,457	-0,271	0,074
8,429	-39,065	-0,307	-0,113
9,444	236,132	-0,234	-0,273
10,459	-12,945	-0,269	-0,123
11,473	168,827	-0,253	-0,255
12,488	131,638	-0,227	-0,206
13,502	24,807	-0,429	-0,250
14,517	-129,060	-0,195	0,019
15,531	240,047	-0,310	-0,364
16,546	90,555	-0,347	-0,274
17,561	3,332	-0,396	-0,202
18,575	-91,799	-0,260	0,051
19,590	56,236	-0,244	-0,166
20,604	-75,167	-0,155	-0,039
21,619	-15,446	-0,440	-0,197
22,634	289,060	-0,387	-0,494
23,648	114,913	-0,465	-0,399
24,663	36,886	-0,430	-0,267
25,677	-0,204	-0,282	-0,140
26,692	-5,125	-0,425	-0,205
27,707	178,261	-0,242	-0,249
28,721	-1,479	-0,516	-0,255
29,736	91,803	-0,331	-0,262
30,750	164,878	-0,393	-0,390
31,765	95,591	-0,263	-0,211
32,780	-13,721	-0,303	-0,137
33,794	287,318	-0,329	-0,419
34,809	70,350	-0,326	-0,237
35,823	144,569	-0,297	-0,279
36,838	59,874	-0,391	-0,271
37,853	22,802	-0,502	-0,289
38,867	196,178	-0,272	-0,291
39,882	248,460	-0,253	-0,301
40,896	168,458	-0,235	-0,236
41,911	11,854	-0,228	-0,123
42,926	42,709	-0,445	-0,284
43,940	76,914	-0,282	-0,210
44,955	94,034	-0,290	-0,231
45,969	169,960	-0,245	-0,246
46,984	-96,380	-0,372	-0,068
47,999	-25,776	-0,364	-0,150
49,013	4,345	-0,344	-0,176
50,028	23,085	-0,243	-0,139
51,042	257,994	-0,219	-0,265
52,057	47,437	-0,390	-0,255
53,071	3,330	-0,356	-0,181
54,086	42,293	-0,343	-0,218
55,101	56,627	-0,331	-0,226
56,115	15,505	-0,407	-0,223
57,130	-55,713	-0,377	-0,118
58,144	167,165	-0,286	-0,285
59,159	152,282	-0,344	-0,330
60,174	-53,810	-0,441	-0,140
61,188	16,207	-0,357	-0,197
62,203	329,104	-0,246	-0,333
63,217	251,800	-0,186	-0,222
64,232	132,784	-0,347	-0,314
65,247	-11,167	-0,256	-0,118
66,261	15,781	-0,344	-0,189
67,276	5,889	-0,304	-0,157
68,290	239,819	-0,173	-0,203
69,305	-60,483	-0,362	-0,107
70,320	112,102	-0,213	-0,181
71,334	128,898	-0,219	-0,196
72,349	155,402	-0,232	-0,224
73,363	208,861	-0,293	-0,322
74,378	48,764	-0,390	-0,256
75,393	205,533	-0,310	-0,338
76,407	39,225	-0,266	-0,167
77,422	-83,449	-0,267	0,059
78,436	-8,571	-0,358	-0,168
79,451	121,176	-0,175	-0,153
80,466	134,617	-0,270	-0,246
81,480	-31,706	-0,381	-0,149
82,495	506,579	-0,147	-0,240
83,509	-58,121	-0,259	-0,079
84,524	-6,410	-0,231	-0,110
85,539	-77,769	-0,325	-0,078
86,553	-94,245	-0,294	0,056
87,568	-5,013	-0,325	-0,156
88,582	38,135	-0,221	-0,137
89,597	80,045	-0,351	-0,263
90,611	45,095	-0,193	-0,124
91,626	79,051	-0,259	-0,194
92,641	68,622	-0,222	-0,159
93,655	-90,379	-0,291	-0,059
94,670	-48,775	-0,253	-0,085
95,684	149,241	-0,342	-0,323
96,699	-50,844	-0,413	-0,135
97,714	57,693	-0,265	-0,181
98,728	-67,597	-0,323	-0,088
99,743	-16,312	-0,302	-0,134
100,757	95,896	-0,219	-0,175
101,772	234,854	-0,186	-0,215
102,787	150,534	-0,270	-0,257
103,801	439,673	-0,197	-0,301
104,816	54,723	-0,326	-0,220
105,830	127,587	-0,265	-0,236
106,845	-18,014	-0,169	-0,074
107,860	94,273	-0,199	-0,158
108,874	42,569	-0,374	-0,237
109,889	19,357	-0,259	-0,145
110,903	393,045	-0,159	-0,232
111,918	14,368	-0,285	-0,155
112,933	-38,555	-0,257	-0,094
113,947	-42,276	-0,384	-0,136
114,962	266,541	-0,224	-0,273
115,976	54,997	-0,308	-0,207
116,991	87,025	-0,268	-0,206
118,006	25,271	-0,309	-0,179
119,020	-118,440	-0,213	-0,026
120,035	-62,069	-0,188	-0,054
121,049	244,403	-0,106	-0,124
122,064	191,433	-0,174	-0,183
123,079	-10,409	-0,354	-0,163
124,093	48,430	-0,321	-0,210
125,108	154,959	-0,312	-0,300
126,122	7,081	-0,267	-0,139
127,137	-13,038	-0,337	-0,152
128,151	231,993	-0,246	-0,282
129,166	71,129	-0,256	-0,185
130,181	97,218	-0,183	-0,146
131,195	51,853	-0,244	-0,161
132,210	173,002	-0,358	-0,360
133,224	-14,732	-0,188	-0,084
134,239	265,172	-0,123	-0,150
135,254	-80,096	-0,296	-0,069
136,268	132,658	-0,278	-0,250
137,283	197,087	-0,155	-0,165
138,297	490,784	-0,217	-0,347
139,312	-54,799	-0,284	-0,089
140,327	52,212	-0,234	-0,155
141,341	53,695	-0,260	-0,174
142,356	57,866	-0,209	-0,142
143,370	800,000	-0,097	-0,223
144,385	38,805	-0,266	-0,165
145,400	295,918	-0,223	-0,285
146,414	17,980	-0,360	-0,199
147,429	18,627	-0,249	-0,138
148,443	168,001	-0,188	-0,187
149,458	11,756	-0,177	-0,094
150,473	126,820	-0,201	-0,177
151,487	-131,570	-0,236	0,021
152,502	248,966	-0,145	-0,171
153,516	110,915	-0,270	-0,226
154,531	291,354	-0,273	-0,346
155,546	222,561	-0,172	-0,193
156,560	334,129	-0,182	-0,245
157,575	-5,231	-0,265	-0,126
158,589	22,100	-0,278	-0,157
159,604	61,256	-0,301	-0,208
160,619	-44,879	-0,383	-0,132
161,633	477,251	-0,178	-0,281
162,648	338,441	-0,133	-0,180
163,662	-142,798	-0,153	-0,010
164,677	181,354	-0,191	-0,196
165,692	86,120	-0,210	-0,161
166,706	-10,853	-0,296	-0,135
167,721	23,483	-0,224	-0,128
168,735	-15,923	-0,417	-0,184
169,750	138,479	-0,167	-0,152
170,764	-11,085	-0,210	-0,096
171,779	-39,290	-0,232	-0,084
172,794	136,442	-0,275	-0,249
173,808	-17,552	-0,184	-0,080
174,823	-74,315	-0,351	-0,087
175,837	117,942	-0,243	-0,207
176,852	266,787	-0,180	-0,219
177,867	262,970	-0,129	-0,156
178,881	37,247	-0,155	-0,095
179,896	48,850	-0,165	-0,107
180,910	100,929	-0,121	-0,098
181,925	115,986	-0,289	-0,245
182,940	135,535	-0,196	-0,177
183,954	164,829	-0,227	-0,223
184,969	91,974	-0,236	-0,184
185,983	-200,000	-0,081	-0,248
186,998	58,164	-0,215	-0,146
188,013	680,157	-0,117	-0,212
189,027	186,697	-0,156	-0,161
190,042	92,581	-0,210	-0,164
191,056	-39,328	-0,300	-0,109
192,071	204,525	-0,160	-0,172
193,086	149,620	-0,114	-0,107
194,100	-46,608	-0,169	-0,057
195,115	84,635	-0,214	-0,162
196,129	263,148	-0,176	-0,212
197,144	398,727	-0,211	-0,307
198,159	464,790	-0,170	-0,264
199,173	195,938	-0,186	-0,196
200,188	53,819	-0,181	-0,120
201,202	442,308	-0,134	-0,203
202,217	530,973	-0,100	-0,165
203,232	-41,343	-0,305	-0,108
204,246	66,291	-0,239	-0,168
205,261	800,000	-0,164	-0,326
206,275	-68,581	-0,153	-0,041
207,290	-200,000	-0,032	-0,162
208,304	254,971	-0,155	-0,185
209,319	-132,267	-0,142	0,013
210,334	306,025	-0,152	-0,197
211,348	11,789	-0,289	-0,153
212,363	528,787	-0,173	-0,283
213,377	800,000	-0,146	-0,365
214,392	532,664	-0,086	-0,141
215,407	189,668	-0,186	-0,193
216,421	-7,204	-0,207	-0,097
217,436	56,091	-0,177	-0,119
218,450	68,218	-0,235	-0,166
219,465	235,260	-0,148	-0,170
220,480	-200,000	0,021	-0,131
221,494	150,684	-0,161	-0,151
222,509	669,490	-0,107	-0,192
223,523	158,172	-0,171	-0,164
224,538	85,088	-0,176	-0,133
225,553	502,705	-0,127	-0,204
226,567	23,272	-0,191	-0,108
227,582	800,000	-0,128	-0,273
228,596	567,574	-0,167	-0,282
229,611	276,636	-0,169	-0,207
230,626	-73,183	-0,128	-0,032
231,640	-20,533	-0,198	-0,084
232,655	154,514	-0,198	-0,188
233,669	800,000	-0,076	-0,219
234,684	-67,305	-0,151	-0,041
235,699	-8,610	-0,176	-0,081
236,713	-17,036	-0,162	-0,070
237,728	561,360	-0,074	-0,123
238,742	-43,320	-0,179	-0,062
239,757	-76,713	-0,263	-0,063
240,772	-71,118	-0,273	-0,070
241,786	451,703	-0,131	-0,201
242,801	75,287	-0,219	-0,159
243,815	-4,772	-0,200	-0,095
244,830	800,000	-0,065	-0,144
245,844	-118,133	-0,188	0,023
246,859	800,000	-0,060	-0,183
247,874	197,478	-0,138	-0,145
248,888	550,517	-0,156	-0,260
249,903	94,759	-0,238	-0,186
250,917	-145,611	-0,183	-0,011
251,932	220,354	-0,119	-0,132
252,947	526,536	-0,072	-0,118
253,961	96,958	-0,180	-0,142
254,976	390,220	-0,136	-0,196
255,990	368,889	-0,205	-0,287
257,005	119,668	-0,172	-0,147
258,020	510,151	-0,059	-0,095
259,034	402,839	-0,100	-0,146
260,049	244,776	-0,245	-0,284
261,063	224,701	-0,128	-0,143
262,078	19,916	-0,195	-0,108
263,093	98,614	-0,218	-0,173
264,107	116,447	-0,140	-0,118
265,122	-200,000	0,002	-0,103
266,136	-149,117	-0,152	0,008
267,151	-18,115	-0,160	-0,069
268,166	13,870	-0,253	-0,135
269,180	79,173	-0,135	-0,100
270,195	172,477	-0,217	-0,215
271,209	-51,330	-0,133	-0,043
272,224	734,728	-0,064	-0,118
273,239	800,000	-0,081	-0,159
274,253	800,000	-0,040	-0,104
275,268	281,330	-0,112	-0,138
276,282	237,539	-0,182	-0,208
277,297	800,000	-0,087	-0,256
278,312	376,074	-0,142	-0,199
279,326	113,023	-0,194	-0,162
280,341	-77,494	-0,153	-0,036
281,355	397,819	-0,084	-0,121
282,370	-109,520	-0,133	-0,019
283,384	144,659	-0,135	-0,124
284,399	358,713	-0,131	-0,181
285,414	-89,362	-0,167	0,033
286,428	98,229	-0,118	-0,093
287,443	800,000	-0,041	-0,086
288,457	-87,592	-0,124	-0,025
289,472	-33,565	-0,243	0,092
290,487	72,050	-0,244	-0,175
291,501	-184,273	-0,126	0,001
292,516	-62,581	-0,282	-0,080
293,530	59,749	-0,057	-0,039
294,545	-17,986	-0,168	-0,072
295,560	44,309	-0,141	-0,089
296,574	800,000	-0,089	-0,178
297,589	-200,000	-0,017	-0,130
298,603	46,170	-0,261	-0,166
299,618	-95,228	-0,177	-0,033
300,633	20,968	-0,099	-0,055
301,647	-95,451	-0,208	-0,038
302,662	-15,762	-0,115	-0,050
303,676	-18,858	-0,256	-0,109
304,691	-145,118	-0,145	-0,009
305,706	-200,000	-0,038	-0,136
306,720	185,619	-0,173	-0,177
307,735	30,559	-0,052	-0,031
308,749	49,025	-0,148	-0,095
309,764	-154,379	-0,117	0,005
310,779	109,493	-0,107	-0,088
311,793	206,995	-0,141	-0,151
312,808	187,381	-0,194	-0,198
313,822	85,566	-0,258	-0,194
314,837	-7,596	-0,203	-0,094
315,852	753,982	-0,076	-0,142
316,866	-45,725	-0,125	0,042
317,881	800,000	-0,085	-0,168
318,895	-161,426	-0,102	-0,004
319,910	29,448	-0,213	-0,124
320,925	93,313	-0,097	-0,075
321,939	-200,000	0,019	-0,091
322,954	7,960	-0,206	-0,106
323,968	129,052	-0,151	-0,132
324,983	-200,000	-0,015	-0,073
325,997	368,729	-0,161	-0,224
327,012	-58,050	-0,234	-0,070
328,027	94,756	-0,125	-0,098
329,041	24,845	-0,163	-0,092
330,056	27,149	-0,196	-0,112
331,070	197,413	-0,104	-0,109
332,085	-31,002	-0,248	0,095
333,100	-114,760	-0,159	0,021
334,114	800,000	-0,088	-0,179
335,129	468,636	-0,148	-0,229
336,143	-29,367	-0,176	-0,069
337,158	435,306	-0,024	-0,037
338,173	-171,655	-0,098	-0,002
339,187	-166,763	-0,188	0,005
340,202	95,139	-0,206	-0,160
341,216	37,431	-0,140	-0,085
342,231	-200,000	-0,034	-0,334
343,246	-6,995	-0,217	-0,101
344,260	-20,750	-0,164	0,069
345,275	-13,478	-0,234	-0,103
346,289	-55,672	-0,135	0,041
347,304	-168,666	-0,186	-0,005
348,319	-44,426	-0,159	-0,054
349,333	148,842	-0,130	-0,120
350,348	-200,000	-0,064	-0,218
351,362	77,544	-0,092	-0,067
352,377	62,010	-0,113	0,077
353,392	-200,000	-0,006	-0,184
354,406	-21,556	-0,090	0,037
355,421	206,445	1309,578	1395,291
356,435	158,768	1469,612	1395,723
