DTS Sentinel unit serial number:	SN410029Multiplexer serial number:	ORYXHardware model number:	OX2-SRSoftware version number:	ORYX F/W v4,00 Oryx Data Collector v3.7.2.0data status	okinstallation	B3 Nyhavnadifferential loss correction	single-endedforward channel	channel 1reverse channel	N/Adate	2023/12/04time	01:02:30forward acquisition time	300,00reverse acquisition time	0,00gamma	499,1914k internal	0,3204k external	0,3204temperature offset calibration	1,0000default loss term (dB/km)	0,3820temperature slope calibration	1,0000multiplexer offset coefficient	1,0000multiplexer slope coefficient	1,0000fibre end	0,00T internal ref (°C)	12,55T ext. ref 1 (°C)	-2,71T ext. ref 2 (°C)	-2,75length (m)	temperature (°C)	Stokes	anti-Stokes-744,400	800,000	-0,195	-0,408
-743,385	-200,000	-0,007	0,123
-742,371	105,142	-0,214	-0,183
-741,356	576,542	0,202	0,360
-740,342	147,981	-0,128	-0,125
-739,327	-200,000	0,020	0,265
-738,312	-1,066	-0,235	-0,120
-737,298	201,260	-0,168	0,188
-736,283	800,000	-0,107	-0,221
-735,269	-200,000	-0,039	0,259
-734,254	289,742	-0,165	-0,218
-733,239	-9,734	-0,234	0,113
-732,225	44,456	-0,120	-0,080
-731,210	259,643	0,074	0,093
-730,196	-94,671	-0,110	0,021
-729,181	54,608	-0,074	-0,052
-728,167	-200,000	0,008	-0,152
-727,152	592,828	-0,075	0,135
-726,137	-59,764	0,115	-0,036
-725,123	-149,277	-0,106	0,006
-724,108	-95,165	-0,159	-0,031
-723,094	726,046	-0,037	-0,072
-722,079	95,107	-0,116	-0,096
-721,064	-200,000	0,017	-0,064
-720,050	24,349	0,017	0,010
-719,035	-122,137	-0,108	0,013
-718,021	-165,408	0,021	0,001
-717,006	800,000	0,031	-0,070
-715,991	78,770	-0,166	-0,129
-714,977	58,343	-0,065	-0,046
-713,962	177,901	-0,085	0,090
-712,948	-200,000	0,009	0,036
-711,933	142,478	-0,054	-0,052
-710,918	110,107	-0,080	-0,070
-709,904	-200,000	0,015	-0,061
-708,889	-200,000	-0,005	0,062
-707,875	23,898	0,031	-0,019
-706,860	-200,000	0,005	0,026
-705,845	150,240	0,104	0,102
-704,831	41,825	0,050	0,033
-703,816	-58,645	0,010	-0,003
-702,802	-174,426	0,041	0,001
-701,787	90,418	-0,090	-0,073
-700,772	-113,819	-0,033	-0,005
-699,758	-75,239	0,022	0,006
-698,743	322,523	0,030	0,041
-697,729	87,341	0,134	0,108
-696,714	-200,000	-0,037	0,145
-695,699	-110,474	-0,135	0,020
-694,685	337,432	-0,098	-0,139
-693,670	78,546	-0,106	0,082
-692,656	-200,000	-0,012	-0,052
-691,641	-200,000	0,010	0,080
-690,627	149,298	0,074	0,073
-689,612	-100,426	0,137	0,024
-688,597	137,570	-0,038	-0,036
-687,583	98,827	-0,098	-0,082
-686,568	66,457	0,093	-0,068
-685,554	-66,572	-0,156	0,044
-684,539	622,717	0,033	-0,060
-683,524	-200,000	0,002	0,064
-682,510	-42,103	0,048	-0,018
-681,495	-66,383	-0,006	-0,002
-680,481	-200,000	-0,008	0,079
-679,466	800,000	-0,016	-0,049
-678,451	83,619	-0,140	-0,110
-677,437	-200,000	0,008	0,101
-676,422	-200,000	-0,012	0,137
-675,408	-200,000	0,015	0,143
-674,393	-200,000	-0,005	-0,051
-673,378	-186,224	-0,095	-0,001
-672,364	-159,639	-0,064	-0,003
-671,349	-200,000	-0,080	-0,282
-670,335	98,075	0,094	0,078
-669,320	8,081	0,097	0,053
-668,305	122,794	-0,109	0,099
-667,291	198,245	-0,052	-0,058
-666,276	505,007	-0,046	-0,078
-665,262	-68,838	-0,134	-0,037
-664,247	-200,000	0,037	0,127
-663,232	-18,519	-0,055	-0,025
-662,218	34,181	-0,088	0,055
-661,203	-39,055	0,109	-0,041
-660,189	-152,998	0,055	0,003
-659,174	-42,651	-0,144	0,053
-658,159	800,000	0,087	0,179
-657,145	639,838	0,014	-0,027
-656,130	419,394	-0,066	-0,103
-655,116	-200,000	0,031	0,223
-654,101	-200,000	-0,010	0,152
-653,086	189,210	-0,073	0,079
-652,072	289,155	0,041	-0,054
-651,057	-38,166	-0,150	0,057
-650,043	-96,979	-0,094	-0,018
-649,028	60,238	-0,125	0,090
-648,014	128,340	0,017	0,016
-646,999	-42,052	-0,147	0,054
-645,984	65,746	0,070	0,052
-644,970	-153,270	-0,052	-0,003
-643,955	800,000	-0,017	0,036
-642,941	-97,640	-0,218	-0,040
-641,926	528,496	-0,028	-0,049
-640,911	-41,029	0,092	0,034
-639,897	736,588	-0,041	0,080
-638,882	-200,000	-0,013	-0,105
-637,868	674,728	-0,015	-0,029
-636,853	-0,988	-0,113	0,058
-635,838	503,328	-0,026	-0,044
-634,824	383,071	0,045	-0,067
-633,809	464,034	-0,017	-0,027
-632,795	-200,000	-0,017	-0,084
-631,780	58,022	0,075	-0,053
-630,765	800,000	0,011	-0,034
-629,751	-44,253	0,018	-0,007
-628,736	741,782	0,023	-0,044
-627,722	37,700	0,077	0,049
-626,707	-200,000	0,010	0,142
-625,692	320,270	-0,069	0,095
-624,678	-53,410	0,173	0,057
-623,663	-137,092	0,053	-0,004
-622,649	286,910	0,066	-0,087
-621,634	395,975	0,003	-0,005
-620,619	49,774	-0,101	-0,069
-619,605	-200,000	0,011	-0,106
-618,590	800,000	0,025	0,064
-617,576	-200,000	-0,002	0,037
-616,561	323,140	0,053	-0,073
-615,546	106,791	0,009	-0,008
-614,532	-200,000	-0,023	-0,193
-613,517	-40,531	0,035	0,013
-612,503	-200,000	-0,003	0,044
-611,488	-95,209	0,067	0,013
-610,474	180,461	0,047	0,050
-609,459	448,651	-0,040	0,064
-608,444	5,511	-0,074	0,039
-607,430	254,647	-0,059	-0,073
-606,415	-108,146	-0,136	-0,021
-605,401	-36,205	0,106	0,041
-604,386	157,469	-0,084	0,084
-603,371	-20,037	-0,030	0,013
-602,357	-200,000	0,009	-0,040
-601,342	-200,000	-0,016	-0,110
-600,328	800,000	0,086	-0,175
-599,313	-151,265	-0,048	0,003
-598,298	514,501	-0,053	0,090
-597,284	-200,000	0,002	0,029
-596,269	87,711	0,100	-0,080
-595,255	800,000	-0,025	-0,067
-594,240	18,080	-0,114	0,066
-593,225	-55,134	-0,046	-0,015
-592,211	800,000	-0,054	-0,126
-591,196	-200,000	0,018	-0,184
-590,182	-200,000	-0,034	0,138
-589,167	55,820	0,214	0,150
-588,152	347,486	0,057	0,082
-587,138	44,245	-0,050	0,033
-586,123	-124,908	0,025	0,003
-585,109	-5,529	0,142	-0,070
-584,094	165,897	-0,018	0,019
-583,079	-74,021	-0,041	-0,011
-582,065	15,046	-0,108	0,061
-581,050	90,297	-0,092	-0,075
-580,036	-3,307	0,007	-0,003
-579,021	-132,867	-0,135	0,012
-578,006	109,799	-0,061	-0,053
-576,992	-157,906	-0,084	0,004
-575,977	-200,000	-0,009	0,072
-574,963	-200,000	-0,033	0,118
-573,948	800,000	0,067	0,168
-572,934	407,478	-0,048	-0,074
-571,919	567,443	-0,024	-0,042
-570,904	-200,000	-0,043	-0,181
-569,890	800,000	-0,036	-0,076
-568,875	735,678	0,020	-0,039
-567,861	-39,695	0,140	0,052
-566,846	800,000	0,030	-0,071
-565,831	-51,044	-0,106	0,036
-564,817	2,349	-0,067	0,035
-563,802	-149,184	-0,143	-0,008
-562,788	800,000	0,069	0,202
-561,773	83,805	0,070	0,055
-560,758	97,927	-0,062	0,051
-559,744	-30,622	-0,123	-0,050
-558,729	-200,000	-0,006	0,020
-557,715	-200,000	0,023	-0,144
-556,700	-43,479	0,074	-0,027
-555,685	800,000	-0,063	-0,147
-554,671	-200,000	0,020	-0,093
-553,656	800,000	0,013	-0,036
-552,642	280,803	-0,013	0,016
-551,627	-200,000	0,007	0,033
-550,612	-116,491	-0,036	0,005
-549,598	87,888	0,094	-0,075
-548,583	-17,626	0,073	-0,033
-547,569	800,000	-0,059	0,172
-546,554	-200,000	0,021	0,121
-545,539	109,748	-0,053	-0,045
-544,525	202,965	-0,106	-0,118
-543,510	580,096	0,024	-0,042
-542,496	-76,905	-0,037	-0,009
-541,481	334,899	-0,125	-0,175
-540,466	81,145	-0,026	-0,020
-539,452	-57,054	-0,021	-0,006
-538,437	-200,000	0,003	0,084
-537,423	135,340	-0,052	-0,049
-536,408	91,932	-0,024	-0,020
-535,393	124,699	0,154	-0,140
-534,379	-55,458	-0,167	-0,054
-533,364	-62,658	0,106	0,032
-532,350	-200,000	-0,018	0,083
-531,335	800,000	-0,040	0,085
-530,321	-200,000	-0,005	0,047
-529,306	-200,000	0,007	0,023
-528,291	322,685	-0,041	-0,057
-527,277	84,817	0,037	0,029
-526,262	0,934	0,093	0,048
-525,248	-167,895	-0,133	-0,004
-524,233	800,000	0,027	0,086
-523,218	-200,000	0,011	0,055
-522,204	258,391	0,010	-0,013
-521,189	471,491	0,123	-0,200
-520,175	-2,939	-0,012	0,006
-519,160	-10,713	0,066	0,031
-518,145	214,540	-0,077	0,088
-517,131	-102,268	0,108	0,018
-516,116	591,309	0,037	-0,067
-515,102	-148,103	0,118	-0,007
-514,087	-200,000	-0,013	-0,155
-513,072	-200,000	-0,029	0,130
-512,058	800,000	-0,021	-0,064
-511,043	-54,040	0,115	0,037
-510,029	542,365	-0,053	0,092
-509,014	93,599	0,091	-0,074
-507,999	-200,000	-0,017	-0,122
-506,985	189,167	0,076	-0,082
-505,970	-200,000	-0,005	-0,081
-504,956	-200,000	0,015	0,065
-503,941	-200,000	0,004	0,064
-502,926	-57,688	0,120	-0,038
-501,912	-200,000	0,031	0,101
-500,897	-200,000	0,021	0,083
-499,883	281,769	0,083	0,107
-498,868	-160,504	-0,066	0,002
-497,853	-10,178	-0,178	0,085
-496,839	78,729	-0,093	-0,072
-495,824	-56,367	0,078	0,025
-494,810	800,000	-0,076	0,155
-493,795	334,860	0,096	-0,134
-492,781	-147,236	0,034	-0,002
-491,766	800,000	0,020	-0,056
-490,751	-96,235	-0,113	0,021
-489,737	800,000	0,032	-0,079
-488,722	26,188	0,039	0,023
-487,708	58,215	-0,042	0,030
-486,693	-200,000	0,015	0,067
-485,678	73,864	-0,045	-0,034
-484,664	800,000	0,066	0,133
-483,649	800,000	0,025	-0,078
-482,635	8,376	-0,009	0,005
-481,620	-200,000	0,001	0,166
-480,605	-25,107	0,076	-0,032
-479,591	239,700	0,017	0,020
-478,576	334,562	0,096	-0,135
-477,562	-92,642	-0,086	-0,017
-476,547	35,004	0,090	-0,057
-475,532	-104,036	-0,119	-0,020
-474,518	-200,000	-0,013	-0,084
-473,503	800,000	-0,024	-0,066
-472,489	-200,000	0,004	0,074
-471,474	-51,660	0,124	-0,041
-470,459	-65,989	-0,024	-0,007
-469,445	427,084	-0,125	-0,194
-468,430	-200,000	0,038	-0,122
-467,416	-27,031	0,083	0,035
-466,401	35,396	-0,098	0,062
-465,386	16,350	0,057	-0,032
-464,372	-132,054	-0,025	0,002
-463,357	-200,000	0,008	-0,151
-462,343	452,273	0,086	-0,138
-461,328	440,847	0,026	0,040
-460,313	-200,000	0,007	0,031
-459,299	-200,000	0,013	-0,188
-458,284	-107,351	-0,018	0,003
-457,270	784,466	-0,054	0,106
-456,255	-8,798	0,027	0,013
-455,241	-136,635	-0,220	0,018
-454,226	267,438	-0,029	-0,037
-453,211	425,710	-0,019	-0,029
-452,197	69,895	0,017	0,012
-451,182	-34,451	0,130	-0,051
-450,168	-130,529	0,088	0,008
-449,153	-200,000	0,018	-0,125
-448,138	217,298	-0,033	0,038
-447,124	138,367	-0,056	0,052
-446,109	-4,631	0,037	0,018
-445,095	-78,265	-0,077	-0,019
-444,080	24,613	0,060	0,035
-443,065	800,000	0,050	0,139
-442,051	800,000	-0,018	-0,045
-441,036	20,871	-0,069	-0,040
-440,022	546,185	-0,036	-0,061
-439,007	80,876	-0,110	0,085
-437,992	800,000	0,011	-0,029
-436,978	-200,000	0,016	0,116
-435,963	-200,000	0,020	0,131
-434,949	24,397	0,081	0,048
-433,934	17,800	0,057	0,032
-432,919	800,000	0,034	0,072
-431,905	185,577	-0,056	0,059
-430,890	-200,000	-0,005	0,082
-429,876	-62,541	0,149	-0,044
-428,861	-27,866	0,070	-0,029
-427,846	168,533	-0,055	0,056
-426,832	23,710	-0,138	-0,081
-425,817	143,472	0,076	-0,073
-424,803	-200,000	0,043	-0,176
-423,788	800,000	0,005	-0,014
-422,773	-48,488	0,096	-0,033
-421,759	-200,000	0,032	0,156
-420,744	-200,000	0,012	-0,046
-419,730	175,066	0,041	-0,042
-418,715	237,144	0,085	-0,101
-417,701	-200,000	-0,002	0,086
-416,686	-10,432	0,124	-0,059
-415,671	-114,661	-0,052	-0,007
-414,657	-200,000	0,001	0,015
-413,642	621,727	-0,074	0,134
-412,628	-156,889	-0,024	0,001
-411,613	-65,791	-0,024	-0,007
-410,598	-48,187	0,046	0,016
-409,584	10,072	-0,053	-0,029
-408,569	242,783	0,100	0,121
-407,555	800,000	0,044	0,088
-406,540	800,000	-0,066	-0,161
-405,525	-106,000	0,072	-0,012
-404,511	-79,633	-0,078	-0,019
-403,496	-47,427	-0,043	-0,015
-402,482	-200,000	0,004	-0,054
-401,467	-6,547	0,057	0,028
-400,452	800,000	0,001	-0,003
-399,438	-156,895	0,072	0,003
-398,423	-14,597	0,068	0,031
-397,409	-200,000	0,029	-0,119
-396,394	384,717	0,028	0,042
-395,379	800,000	-0,054	0,130
-394,365	-69,175	0,162	-0,044
-393,350	23,765	0,098	-0,058
-392,336	426,768	-0,103	0,160
-391,321	-200,000	-0,015	0,079
-390,306	310,258	0,013	0,018
-389,292	-27,148	-0,141	-0,059
-388,277	-24,395	-0,035	0,015
-387,263	538,184	0,041	-0,070
-386,248	-114,963	0,192	0,026
-385,233	105,066	-0,030	-0,025
-384,219	53,775	0,067	0,046
-383,204	-200,000	-0,045	-0,152
-382,190	-200,000	-0,025	-0,126
-381,175	-72,355	-0,061	-0,016
-380,160	-75,899	-0,041	0,010
-379,146	800,000	0,060	-0,161
-378,131	331,244	-0,035	-0,049
-377,117	399,051	0,088	-0,132
-376,102	-200,000	-0,007	-0,068
-375,088	140,784	-0,039	-0,037
-374,073	800,000	0,074	-0,174
-373,058	-129,258	0,138	0,014
-372,044	-200,000	0,047	0,170
-371,029	425,589	0,083	0,128
-370,015	293,238	-0,040	0,052
-369,000	-93,136	0,141	0,028
-367,985	-200,000	0,005	-0,087
-366,971	429,543	-0,030	-0,047
-365,956	305,480	-0,034	0,046
-364,942	48,917	0,058	0,039
-363,927	488,224	0,063	0,103
-362,912	59,943	-0,084	0,059
-361,898	-200,000	-0,018	-0,082
-360,883	53,092	-0,089	0,061
-359,869	-200,000	0,014	0,057
-358,854	74,208	-0,054	-0,040
-357,839	107,080	-0,080	0,068
-356,825	800,000	-0,038	0,089
-355,810	800,000	0,070	0,208
-354,796	-200,000	-0,052	0,216
-353,781	5,487	-0,078	-0,041
-352,766	800,000	-0,032	-0,099
-351,752	126,735	0,081	-0,073
-350,737	-200,000	-0,004	0,041
-349,723	16,333	-0,030	-0,017
-348,708	-200,000	0,015	0,117
-347,693	21,412	-0,038	0,022
-346,679	71,294	-0,231	-0,171
-345,664	-91,559	-0,156	-0,031
-344,650	800,000	0,048	0,116
-343,635	-159,776	0,127	-0,005
-342,620	172,536	-0,116	0,120
-341,606	220,671	0,041	0,047
-340,591	480,565	-0,050	-0,082
-339,577	38,116	-0,141	-0,090
-338,562	-103,780	-0,092	-0,015
-337,548	-164,356	0,008	-0,000
-336,533	-90,422	0,079	-0,016
-335,518	-60,242	0,071	0,021
-334,504	-90,646	0,068	-0,014
-333,489	506,900	0,059	-0,099
-332,475	60,833	-0,020	0,014
-331,460	800,000	-0,018	0,043
-330,445	-62,721	-0,046	-0,014
-329,431	-64,914	0,097	-0,028
-328,416	-200,000	0,007	-0,034
-327,402	3,394	-0,061	-0,032
-326,387	-90,925	-0,124	0,025
-325,372	-130,951	-0,087	-0,008
-324,358	-200,000	-0,010	-0,094
-323,343	-200,000	0,003	0,127
-322,329	-200,000	-0,011	0,151
-321,314	-58,827	0,040	0,012
-320,299	800,000	-0,012	-0,027
-319,285	37,962	0,051	0,032
-318,270	-96,967	-0,081	0,015
-317,256	-1,683	0,116	-0,058
-316,241	800,000	-0,030	-0,080
-315,226	-46,045	-0,110	-0,039
-314,212	-12,530	0,052	0,024
-313,197	-143,155	0,099	-0,007
-312,183	-37,598	0,053	-0,020
-311,168	182,952	-0,036	0,038
-310,153	-200,000	-0,004	-0,042
-309,139	800,000	0,021	-0,043
-308,124	497,179	-0,026	-0,043
-307,110	105,825	-0,060	0,051
-306,095	-200,000	0,009	0,067
-305,080	56,375	0,092	0,064
-304,066	325,739	-0,088	0,121
-303,051	-2,591	-0,047	-0,023
-302,037	800,000	0,036	0,083
-301,022	21,938	0,101	0,059
-300,008	300,514	-0,079	0,104
-298,993	-53,153	0,079	-0,026
-297,978	-200,000	-0,003	0,126
-296,964	-200,000	-0,006	-0,024
-295,949	90,157	-0,058	0,046
-294,935	-143,611	0,056	0,004
-293,920	94,494	-0,051	-0,042
-292,905	321,205	-0,048	0,065
-291,891	-200,000	0,011	0,143
-290,876	502,278	-0,031	-0,052
-289,862	800,000	-0,071	-0,160
-288,847	143,980	0,113	-0,107
-287,832	665,049	-0,067	0,124
-286,818	465,116	0,038	0,060
-285,803	-200,000	0,012	0,051
-284,789	15,936	0,079	0,044
-283,774	363,822	0,032	-0,046
-282,759	638,705	0,019	0,035
-281,745	800,000	-0,022	-0,052
-280,730	-200,000	0,011	-0,075
-279,716	195,065	0,086	0,094
-278,701	530,423	-0,072	-0,122
-277,686	-91,702	0,042	-0,009
-276,672	-25,157	-0,049	0,021
-275,657	-200,000	-0,003	0,074
-274,643	-200,000	-0,007	-0,022
-273,628	800,000	-0,069	-0,178
-272,613	358,979	-0,066	0,095
-271,599	-130,611	0,109	0,010
-270,584	-26,781	0,066	0,027
-269,570	-200,000	0,027	-0,103
-268,555	269,477	0,047	0,059
-267,540	638,786	-0,050	-0,092
-266,526	-200,000	-0,013	0,046
-265,511	208,752	0,081	-0,090
-264,497	703,891	0,050	0,094
-263,482	-200,000	0,017	-0,073
-262,467	-200,000	-0,003	0,014
-261,453	-142,062	-0,046	-0,003
-260,438	-117,436	0,076	0,010
-259,424	-80,348	0,117	-0,028
-258,409	259,562	-0,003	-0,004
-257,395	96,599	-0,009	-0,008
-256,380	-84,572	-0,039	-0,009
-255,365	91,558	0,073	0,059
-254,351	-68,527	-0,042	0,011
-253,336	35,999	-0,035	-0,022
-252,322	-10,235	0,058	0,027
-251,307	-200,000	0,004	-0,126
-250,292	107,419	0,061	-0,052
-249,278	520,872	0,019	0,032
-248,263	52,578	0,125	0,085
-247,249	-50,092	0,075	0,025
-246,234	-51,129	-0,157	0,052
-245,219	800,000	0,018	-0,044
-244,205	-76,748	-0,081	-0,020
-243,190	-93,520	-0,133	0,026
-242,176	-24,140	0,061	0,026
-241,161	800,000	0,039	0,092
-240,146	-89,902	0,012	0,002
-239,132	49,510	0,036	0,024
-238,117	448,164	-0,045	0,071
-237,103	-200,000	0,020	-0,085
-236,088	306,952	0,032	0,043
-235,073	43,313	0,107	0,070
-234,059	-200,000	0,019	0,096
-233,044	-200,000	0,009	0,124
-232,030	18,321	-0,086	-0,049
-231,015	199,880	-0,041	0,045
-230,000	-85,272	-0,120	0,026
-228,986	-57,228	0,034	-0,011
-227,971	165,694	0,076	0,077
-226,957	10,680	0,041	0,022
-225,942	-26,516	-0,131	0,054
-224,927	-138,143	-0,137	-0,011
-223,913	-42,908	-0,071	-0,026
-222,898	800,000	0,079	-0,160
-221,884	-12,005	-0,134	-0,062
-220,869	-200,000	-0,006	0,142
-219,855	-21,330	-0,131	0,057
-218,840	498,574	0,071	-0,117
-217,825	-200,000	0,004	-0,034
-216,811	7,868	-0,044	0,023
-215,796	395,214	-0,019	0,028
-214,782	800,000	-0,032	-0,070
-213,767	-200,000	-0,031	0,111
-212,752	-50,858	0,112	0,037
-211,738	-27,883	0,100	-0,041
-210,723	800,000	0,035	0,070
-209,709	-200,000	-0,005	-0,041
-208,694	632,395	-0,038	-0,069
-207,679	-200,000	0,002	-0,053
-206,665	178,160	0,041	-0,043
-205,650	369,276	0,056	0,081
-204,636	-200,000	0,018	0,072
-203,621	-200,000	-0,012	0,049
-202,606	-200,000	0,004	0,122
-201,592	29,460	-0,033	0,020
-200,577	-200,000	-0,044	0,175
-199,563	137,690	-0,031	-0,029
-198,548	-200,000	0,023	0,077
-197,533	233,842	0,075	0,088
-196,519	88,945	-0,020	-0,016
-195,504	523,018	-0,094	-0,158
-194,490	21,691	0,046	-0,027
-193,475	731,848	0,058	-0,110
-192,460	158,639	0,100	-0,099
-191,446	-148,712	0,063	-0,004
-190,431	800,000	-0,033	0,099
-189,417	-200,000	0,014	0,167
-188,402	-24,072	-0,039	-0,017
-187,387	-166,098	-0,108	0,003
-186,373	-200,000	-0,010	-0,146
-185,358	-200,000	0,003	-0,065
-184,344	800,000	0,042	0,113
-183,329	-62,409	-0,072	0,021
-182,315	15,022	-0,060	0,034
-181,300	-200,000	-0,026	0,166
-180,285	611,876	0,133	-0,238
-179,271	104,790	-0,076	-0,064
-178,256	-105,944	0,046	-0,007
-177,242	126,396	0,049	0,044
-176,227	122,908	-0,028	0,025
-175,212	800,000	0,057	0,120
-174,198	-200,000	0,008	0,119
-173,183	17,296	-0,110	-0,062
-172,169	103,273	-0,061	-0,051
-171,154	372,475	-0,010	-0,014
-170,139	664,620	0,049	0,090
-169,125	71,287	-0,079	-0,058
-168,110	302,769	0,055	-0,072
-167,096	486,480	0,073	-0,119
-166,081	-65,847	-0,116	-0,033
-165,066	339,325	0,128	-0,178
-164,052	800,000	-0,029	0,058
-163,037	622,267	-0,078	0,139
-162,023	-82,858	-0,028	-0,006
-161,008	376,642	0,114	0,165
-159,993	559,343	-0,040	-0,070
-158,979	188,222	-0,073	-0,077
-157,964	51,080	-0,074	-0,050
-156,950	283,121	0,081	-0,103
-155,935	800,000	0,060	-0,179
-154,920	-179,979	0,075	-0,001
-153,906	-101,614	-0,029	0,005
-152,891	800,000	-0,027	0,077
-151,877	-97,399	0,058	0,011
-150,862	-200,000	-0,002	-0,041
-149,847	-200,000	0,015	-0,101
-148,833	9,358	-0,038	0,021
-147,818	60,925	0,056	-0,039
-146,804	-83,612	0,098	0,022
-145,789	-33,151	-0,055	0,021
-144,775	234,683	-0,028	-0,032
-143,760	202,559	-0,064	-0,071
-142,745	-200,000	0,022	0,085
-141,731	-200,000	-0,004	-0,063
-140,716	-200,000	0,017	0,090
-139,702	-147,189	0,103	-0,006
-138,687	193,391	-0,019	-0,021
-137,672	-156,114	-0,061	-0,003
-136,658	458,777	-0,029	-0,045
-135,643	117,592	0,040	-0,035
-134,629	-200,000	0,003	-0,064
-133,614	-200,000	0,008	0,027
-132,599	-200,000	-0,007	-0,054
-131,585	5,949	0,150	0,078
-130,570	106,701	-0,055	-0,046
-129,556	36,623	0,049	-0,031
-128,541	-200,000	0,017	-0,056
-127,526	-15,883	-0,134	-0,060
-126,512	-130,124	0,089	-0,008
-125,497	-4,073	0,118	0,058
-124,483	141,259	0,065	-0,061
-123,468	-123,596	0,179	-0,020
-122,453	187,918	0,017	0,018
-121,439	-148,089	-0,090	0,005
-120,424	800,000	-0,020	-0,045
-119,410	-200,000	-0,011	-0,052
-118,395	24,139	0,105	-0,061
-117,380	800,000	0,057	0,130
-116,366	264,017	-0,047	-0,058
-115,351	800,000	0,028	0,062
-114,337	-76,570	0,084	0,021
-113,322	173,805	-0,088	-0,090
-112,307	21,893	0,047	-0,027
-111,293	-32,729	0,146	-0,057
-110,278	-200,000	0,018	0,114
-109,264	-200,000	-0,005	0,021
-108,249	280,680	0,033	0,041
-107,234	35,258	-0,045	-0,028
-106,220	-159,058	0,068	0,003
-105,205	-10,284	-0,118	-0,055
-104,191	7,063	0,089	0,047
-103,176	-197,001	-0,074	-0,000
-102,162	-64,256	0,061	-0,018
-101,147	-200,000	-0,006	0,068
-100,132	-200,000	-0,024	0,115
-99,118	-127,851	-0,063	0,006
-98,103	-200,000	-0,021	-0,077
-97,089	800,000	0,046	0,139
-96,074	-112,286	-0,168	-0,024
-95,059	-200,000	0,003	-0,055
-94,045	271,455	-0,065	-0,081
-93,030	-200,000	0,032	-0,115
-92,016	679,251	0,085	0,158
-91,001	60,960	0,086	-0,060
-89,986	87,180	-0,116	0,091
-88,972	-200,000	0,001	0,073
-87,957	210,376	-0,057	0,063
-86,943	-200,000	0,007	-0,033
-85,928	138,785	0,019	0,018
-84,913	241,000	-0,122	-0,145
-83,899	251,749	0,067	-0,081
-82,884	800,000	0,027	0,084
-81,870	74,593	0,137	0,102
-80,855	471,761	0,090	0,144
-79,840	212,489	0,060	-0,067
-78,826	121,064	-0,109	-0,096
-77,811	203,223	-0,127	-0,139
-76,797	-45,344	0,005	-0,002
-75,782	-200,000	0,030	0,138
-74,767	800,000	-0,053	0,127
-73,753	-20,758	0,112	-0,049
-72,738	800,000	-0,043	0,130
-71,724	68,507	-0,122	-0,088
-70,709	-200,000	0,003	-0,109
-69,694	354,835	-0,076	-0,108
-68,680	22,408	0,095	-0,055
-67,665	-86,202	-0,065	0,014
-66,651	-91,427	-0,072	-0,014
-65,636	-200,000	-0,007	-0,031
-64,622	-90,175	0,009	0,002
-63,607	135,448	0,041	0,038
-62,592	800,000	-0,045	-0,123
-61,578	800,000	-0,013	0,031
-60,563	-15,528	-0,070	0,032
-59,549	800,000	-0,046	0,109
-58,534	0,389	-1,685	-0,849
-57,519	510,586	-1,283	-2,120
-56,505	-200,000	-0,563	-4,575
-55,490	302,892	0,933	1,225
-54,476	800,000	5,023	11,573
-53,461	-200,000	19,814	326,232
-52,446	800,000	749,346	2324,626
-51,432	557,177	1660,968	2843,204
-50,417	76,102	1671,921	1250,253
-49,403	20,425	1544,953	880,961
-48,388	14,445	1467,215	807,536
-47,373	18,250	1457,303	820,434
-46,359	16,476	1446,820	805,998
-45,344	12,682	1442,414	785,338
-44,330	12,594	1440,525	783,855
-43,315	12,579	1438,818	782,822
-42,300	12,590	1437,172	781,950
-41,286	12,661	1435,628	781,421
-40,271	12,608	1434,309	780,416
-39,257	12,561	1433,310	779,619
-38,242	12,625	1431,970	779,161
-37,227	12,649	1430,835	778,629
-36,213	12,673	1429,368	777,912
-35,198	12,657	1428,115	777,127
-34,184	12,685	1427,180	776,719
-33,169	12,646	1425,737	775,716
-32,154	12,654	1424,802	775,217
-31,140	12,698	1423,520	774,694
-30,125	12,696	1422,289	773,987
-29,111	12,648	1421,387	773,239
-28,096	12,657	1420,228	772,618
-27,082	12,594	1419,136	771,695
-26,067	12,640	1417,912	771,217
-25,052	12,598	1417,062	770,527
-24,038	12,613	1415,825	769,896
-23,023	12,594	1414,910	769,277
-22,009	12,572	1413,906	768,595
-20,994	12,565	1413,036	768,058
-19,979	12,557	1412,201	767,539
-18,965	12,487	1411,383	766,736
-17,950	12,517	1410,350	766,284
-16,936	12,523	1409,388	765,758
-15,921	12,470	1408,347	764,914
-14,906	12,514	1407,464	764,612
-13,892	12,470	1406,589	763,900
-12,877	12,484	1405,767	763,489
-11,863	12,448	1404,908	762,822
-10,848	12,472	1403,969	762,393
-9,833	12,464	1402,793	761,691
-8,819	12,399	1402,234	761,053
-7,804	12,346	1401,549	760,403
-6,790	12,368	1400,347	759,825
-5,775	12,398	1399,170	759,295
-4,760	12,364	1398,169	758,562
-3,746	12,464	1397,057	758,392
-2,731	12,338	1396,437	757,442
-1,717	12,398	1395,391	757,121
-0,702	12,405	1393,486	756,092
0,313	16,322	1309,165	728,446
1,327	32,640	700,869	427,528
2,342	50,190	122,414	81,583
3,356	3,644	16,566	8,515
4,371	1,627	3,133	1,589
5,386	-20,952	0,676	0,291
6,400	-200,000	0,091	0,315
7,415	-138,561	-0,246	-0,019
8,429	-79,914	-0,355	-0,084
9,444	456,606	-0,265	-0,417
10,459	55,434	-0,188	-0,128
11,473	120,528	-0,210	-0,185
12,488	-22,744	-0,272	-0,115
13,502	-140,962	-0,351	-0,025
14,517	128,776	-0,262	-0,236
15,531	244,655	-0,228	-0,271
16,546	186,131	-0,274	-0,289
17,561	269,775	-0,288	-0,358
18,575	-8,824	-0,251	-0,118
19,590	271,741	-0,176	-0,220
20,604	-1,172	-0,199	-0,099
21,619	-28,993	-0,418	-0,168
22,634	103,565	-0,413	-0,342
23,648	114,572	-0,456	-0,392
24,663	85,627	-0,438	-0,340
25,677	-30,898	-0,366	-0,145
26,692	20,179	-0,316	-0,180
27,707	-40,924	-0,413	-0,150
28,721	115,994	-0,373	-0,322
29,736	40,926	-0,358	-0,227
30,750	63,176	-0,370	-0,261
31,765	83,518	-0,402	-0,308
32,780	136,915	-0,366	-0,337
33,794	9,803	-0,388	-0,207
34,809	218,140	-0,340	-0,383
35,823	92,225	-0,341	-0,271
36,838	116,198	-0,366	-0,316
37,853	45,722	-0,321	-0,209
38,867	1,875	-0,405	-0,205
39,882	711,401	-0,195	-0,365
40,896	43,168	-0,553	-0,355
41,911	103,296	-0,298	-0,246
42,926	13,743	-0,487	-0,266
43,940	27,050	-0,367	-0,216
44,955	123,787	-0,321	-0,284
45,969	70,023	-0,265	-0,193
46,984	38,291	-0,343	-0,215
47,999	67,323	-0,255	-0,183
49,013	31,686	-0,447	-0,270
50,028	16,696	-0,271	-0,151
51,042	-92,925	-0,409	-0,080
52,057	257,217	-0,260	-0,315
53,071	14,769	-0,405	-0,222
54,086	101,608	-0,330	-0,271
55,101	240,666	-0,306	-0,360
56,115	102,250	-0,286	-0,235
57,130	119,357	-0,315	-0,274
58,144	322,291	-0,299	-0,402
59,159	-18,008	-0,508	-0,223
60,174	203,197	-0,284	-0,309
61,188	-61,406	-0,394	-0,116
62,203	-8,250	-0,393	-0,185
63,217	10,089	-0,347	-0,185
64,232	86,632	-0,359	-0,278
65,247	111,242	-0,359	-0,304
66,261	-116,871	-0,277	-0,035
67,276	91,015	-0,454	-0,357
68,290	155,807	-0,290	-0,281
69,305	13,151	-0,240	-0,130
70,320	-51,939	-0,359	-0,117
71,334	-84,561	-0,338	-0,074
72,349	7,838	-0,283	-0,149
73,363	58,644	-0,340	-0,234
74,378	209,923	-0,245	-0,271
75,393	197,195	-0,270	-0,290
76,407	-25,796	-0,371	-0,153
77,422	-56,269	-0,390	-0,121
78,436	-75,499	-0,269	-0,067
79,451	99,027	-0,350	-0,284
80,466	-77,973	-0,356	-0,086
81,480	13,398	-0,375	-0,204
82,495	-31,893	-0,442	-0,173
83,509	99,513	-0,216	-0,175
84,524	-23,778	-0,407	-0,170
85,539	-5,572	-0,236	-0,113
86,553	294,865	-0,196	-0,252
87,568	114,079	-0,307	-0,262
88,582	170,239	-0,287	-0,288
89,597	26,305	-0,395	-0,231
90,611	186,720	-0,255	-0,267
91,626	9,972	-0,248	-0,132
92,641	-59,031	-0,230	-0,069
93,655	-52,131	-0,164	-0,053
94,670	195,662	-0,181	-0,193
95,684	46,139	-0,295	-0,191
96,699	140,180	-0,207	-0,191
97,714	22,259	-0,236	-0,135
98,728	-33,416	-0,422	-0,163
99,743	-28,853	-0,261	0,105
100,757	42,465	-0,369	-0,234
101,772	-0,405	-0,453	-0,225
102,787	135,031	-0,294	-0,268
103,801	3,749	-0,298	-0,152
104,816	54,043	-0,297	-0,200
105,830	73,213	-0,182	-0,133
106,845	800,000	-0,170	-0,335
107,860	281,975	-0,231	-0,290
108,874	279,925	-0,212	-0,265
109,889	33,662	-0,372	-0,226
110,903	306,373	-0,203	-0,265
111,918	282,145	-0,215	-0,270
112,933	168,947	-0,294	-0,294
113,947	-150,128	-0,273	-0,015
114,962	33,985	-0,348	-0,212
115,976	168,445	-0,228	-0,227
116,991	66,686	-0,317	-0,225
118,006	46,316	-0,356	-0,230
119,020	46,492	-0,226	-0,146
120,035	-16,053	-0,165	-0,073
121,049	-38,237	-0,366	-0,135
122,064	22,189	-0,206	-0,117
123,079	248,599	-0,250	-0,297
124,093	-12,797	-0,288	-0,131
125,108	-37,535	-0,396	-0,147
126,122	281,261	-0,132	-0,165
127,137	-104,957	-0,263	-0,042
128,151	154,092	-0,043	-0,042
129,166	218,995	-0,234	-0,262
130,181	-34,678	-0,300	-0,114
131,195	118,745	-0,311	-0,269
132,210	338,560	-0,188	-0,257
133,224	146,299	-0,315	-0,296
134,239	7,418	-0,263	-0,137
135,254	16,607	-0,274	-0,151
136,268	69,717	-0,347	-0,250
137,283	175,132	-0,264	-0,267
138,297	80,815	-0,232	-0,175
139,312	31,732	-0,309	-0,185
140,327	-61,641	-0,233	-0,068
141,341	108,413	-0,277	-0,231
142,356	36,539	-0,250	-0,154
143,370	146,512	-0,226	-0,212
144,385	221,432	-0,187	-0,210
145,400	76,529	-0,347	-0,256
146,414	121,972	-0,265	-0,231
147,429	-67,706	-0,313	-0,085
148,443	-55,351	-0,223	-0,070
149,458	179,540	-0,232	-0,238
150,473	-109,055	-0,225	-0,033
151,487	-1,382	-0,279	-0,137
152,502	94,997	-0,305	-0,242
153,516	35,928	-0,276	-0,169
154,531	-138,543	-0,156	0,012
155,546	145,528	-0,241	-0,225
156,560	2,025	-0,198	-0,099
157,575	19,019	-0,253	-0,141
158,589	-54,365	-0,251	-0,079
159,604	129,715	-0,204	-0,182
160,619	77,121	-0,261	-0,193
161,633	295,567	-0,199	-0,255
162,648	47,014	-0,198	-0,128
163,662	103,567	-0,274	-0,224
164,677	-79,527	-0,291	-0,068
165,692	57,622	-0,229	-0,156
166,706	-102,001	-0,167	0,028
167,721	-112,315	-0,330	-0,046
168,735	28,426	-0,265	-0,156
169,750	68,570	-0,291	-0,207
170,764	-94,648	-0,282	0,053
171,779	748,995	-0,108	-0,204
172,794	-145,092	-0,145	0,009
173,808	-148,864	-0,292	0,016
174,823	169,588	-0,162	-0,162
175,837	-150,574	-0,219	-0,011
176,852	153,067	-0,264	-0,251
177,867	751,041	-0,118	-0,222
178,881	250,234	-0,195	-0,231
179,896	216,952	-0,230	-0,255
180,910	12,810	-0,321	-0,172
181,925	-91,137	-0,282	-0,056
182,940	281,771	-0,139	-0,173
183,954	164,626	-0,248	-0,244
184,969	36,065	-0,320	-0,196
185,983	265,994	-0,159	-0,193
186,998	359,958	-0,065	-0,090
188,013	-30,344	-0,218	-0,086
189,027	285,319	-0,163	-0,205
190,042	53,483	-0,307	-0,205
191,056	-43,174	-0,324	-0,113
192,071	-58,901	-0,220	-0,066
193,086	67,121	-0,206	-0,146
194,100	228,643	-0,150	-0,170
195,115	207,233	-0,214	-0,232
196,129	109,397	-0,266	-0,222
197,144	131,812	-0,285	-0,255
198,159	91,861	-0,138	-0,108
199,173	-32,744	-0,274	-0,105
200,188	-119,414	-0,214	-0,026
201,202	-92,378	-0,321	-0,062
202,217	313,705	0,096	-0,126
203,232	29,997	-0,246	-0,146
204,246	69,890	-0,274	-0,196
205,261	800,000	-0,144	-0,293
206,275	106,147	-0,240	-0,197
207,290	-79,347	-0,210	-0,049
208,304	95,093	-0,175	-0,138
209,319	408,216	-0,090	-0,132
210,334	-17,918	-0,219	-0,095
211,348	57,380	-0,268	-0,181
212,363	67,510	-0,243	-0,172
213,377	-59,118	-0,220	-0,065
214,392	30,437	-0,224	-0,133
215,407	426,165	-0,084	-0,126
216,421	-29,977	-0,170	-0,067
217,436	206,962	-0,124	-0,134
218,450	196,815	-0,201	-0,213
219,465	131,009	-0,275	-0,245
220,480	63,427	-0,114	-0,079
221,494	2,707	-0,154	-0,077
222,509	-200,000	-0,037	-0,117
223,523	643,302	-0,115	-0,205
224,538	119,556	-0,183	-0,157
225,553	134,917	-0,151	-0,136
226,567	93,230	-0,140	-0,110
227,582	132,300	-0,161	-0,144
228,596	46,515	-0,253	-0,163
229,611	135,617	-0,210	-0,190
230,626	14,502	-0,161	-0,087
231,640	-94,197	-0,132	-0,025
232,655	-167,700	-0,296	0,008
233,669	58,066	-0,276	-0,187
234,684	50,956	-0,249	-0,163
235,699	94,848	-0,178	-0,140
236,713	-200,000	-0,030	-0,120
237,728	-69,452	-0,201	-0,053
238,742	16,655	-0,178	-0,097
239,757	53,689	-0,289	-0,192
240,772	36,736	-0,204	-0,125
241,786	-4,296	-0,278	-0,133
242,801	-96,140	-0,081	0,015
243,815	715,076	-0,111	-0,204
244,830	624,805	-0,088	-0,154
245,844	114,787	-0,215	-0,181
246,859	-200,000	-0,072	-0,324
247,874	-55,852	-0,110	-0,034
248,888	-3,609	-0,237	-0,114
249,903	156,946	-0,170	-0,163
250,917	-170,219	-0,268	-0,006
251,932	-36,167	-0,255	-0,095
252,947	-107,057	-0,167	-0,025
253,961	-23,913	-0,214	-0,088
254,976	94,068	-0,191	-0,149
255,990	567,635	-0,166	-0,280
257,005	-122,269	-0,274	0,031
258,020	-191,358	-0,284	0,002
259,034	266,171	-0,092	-0,111
260,049	-24,139	-0,165	-0,068
261,063	-39,181	-0,159	0,058
262,078	83,164	-0,138	-0,104
263,093	178,156	-0,219	-0,221
264,107	-66,996	-0,220	0,060
265,122	-91,710	-0,280	-0,055
266,136	-34,662	-0,158	-0,059
267,151	-8,264	-0,241	-0,112
268,166	-108,390	-0,222	-0,033
269,180	177,330	-0,290	-0,292
270,195	87,032	-0,230	-0,175
271,209	221,609	-0,087	-0,097
272,224	13,149	-0,188	-0,100
273,239	271,056	-0,141	-0,172
274,253	-77,882	-0,228	-0,054
275,268	718,643	-0,071	-0,130
276,282	567,927	-0,132	-0,222
277,297	-23,247	-0,094	-0,039
278,312	166,654	-0,089	-0,087
279,326	189,824	-0,185	-0,191
280,341	326,620	-0,068	0,090
281,355	-23,467	-0,208	-0,086
282,370	46,539	-0,159	-0,101
283,384	800,000	-0,074	-0,211
284,399	800,000	-0,102	-0,217
285,414	113,527	-0,121	-0,101
286,428	-108,894	-0,178	-0,026
287,443	80,807	-0,158	0,117
288,457	63,387	-0,112	-0,077
289,472	288,480	-0,122	-0,153
290,487	-5,717	-0,188	0,088
291,501	144,518	-0,118	-0,108
292,516	-9,255	-0,210	-0,096
293,530	172,383	-0,207	-0,205
294,545	-154,868	-0,092	-0,004
295,560	50,957	-0,086	0,056
296,574	-9,661	-0,215	-0,098
297,589	-31,995	-0,172	-0,066
298,603	413,030	-0,126	-0,185
299,618	-95,320	-0,200	-0,037
300,633	-61,649	-0,218	-0,063
301,647	16,630	-0,121	-0,066
302,662	-90,522	-0,090	-0,018
303,676	44,076	-0,231	-0,145
304,691	131,898	-0,212	-0,188
305,706	475,810	-0,162	-0,253
306,720	124,706	-0,166	-0,143
307,735	381,462	-0,143	-0,203
308,749	73,160	-0,134	-0,096
309,764	-40,655	-0,179	-0,064
310,779	800,000	-0,060	-0,145
311,793	419,790	-0,086	-0,128
312,808	11,816	-0,237	-0,125
313,822	516,333	-0,104	-0,168
314,837	523,251	-0,075	-0,122
315,852	800,000	-0,042	-0,101
316,866	372,069	0,014	0,020
317,881	101,309	-0,102	-0,081
318,895	416,228	-0,102	-0,150
319,910	-32,220	-0,163	0,062
320,925	18,256	-0,176	-0,096
321,939	-25,857	-0,139	-0,056
322,954	82,127	-0,076	-0,056
323,968	5,138	-0,158	-0,080
324,983	-168,246	-0,104	-0,003
325,997	-200,000	-0,018	-0,156
327,012	50,628	-0,087	-0,057
328,027	-101,674	-0,021	0,003
329,041	200,193	-0,134	-0,142
330,056	-108,026	-0,101	-0,015
331,070	-84,118	-0,172	0,037
332,085	-134,810	-0,190	-0,016
333,100	-139,359	-0,164	-0,012
334,114	3,931	-0,149	-0,075
335,129	33,843	-0,111	-0,066
336,143	95,158	-0,181	-0,142
337,158	90,614	-0,143	-0,110
338,173	-158,282	-0,115	0,005
339,187	-88,152	-0,037	-0,007
340,202	-83,022	-0,136	-0,030
341,216	66,961	-0,094	-0,065
342,231	14,879	-0,185	-0,099
343,246	-200,000	-0,070	-0,230
344,260	-3,786	-0,147	-0,070
345,275	66,644	-0,066	-0,046
346,289	-77,069	-0,159	-0,038
347,304	12,628	-0,196	-0,104
348,319	2,962	-0,233	-0,116
349,333	237,625	-0,198	-0,225
350,348	-200,000	-0,023	-0,228
351,362	557,182	-0,135	-0,224
352,377	263,296	-0,103	-0,123
353,392	110,290	-0,132	-0,108
354,406	-200,000	0,012	-0,058
355,421	208,577	1312,210	1408,435
356,435	160,496	1472,600	1408,901
