DTS Sentinel unit serial number:	SN410029Multiplexer serial number:	ORYXHardware model number:	OX2-SRSoftware version number:	ORYX F/W v4,00 Oryx Data Collector v3.7.2.0data status	okinstallation	B3 Nyhavnadifferential loss correction	single-endedforward channel	channel 1reverse channel	N/Adate	2023/12/03time	23:27:30forward acquisition time	300,00reverse acquisition time	0,00gamma	499,1914k internal	0,3202k external	0,3202temperature offset calibration	1,0000default loss term (dB/km)	0,3820temperature slope calibration	1,0000multiplexer offset coefficient	1,0000multiplexer slope coefficient	1,0000fibre end	0,00T internal ref (°C)	12,91T ext. ref 1 (°C)	-2,37T ext. ref 2 (°C)	-2,38length (m)	temperature (°C)	Stokes	anti-Stokes-744,400	250,165	-0,158	-0,196
-743,385	-200,000	-0,043	0,278
-742,371	718,915	-0,130	-0,252
-741,356	-200,000	0,040	0,295
-740,342	110,117	-0,184	-0,160
-739,327	-200,000	-0,006	0,294
-738,312	181,341	-0,265	-0,284
-737,298	-200,000	0,046	0,425
-736,283	126,217	-0,196	-0,180
-735,269	488,911	0,230	0,383
-734,254	221,647	-0,149	-0,175
-733,239	-19,772	-0,243	0,109
-732,225	-200,000	-0,030	-0,160
-731,210	367,700	0,089	0,131
-730,196	243,787	0,070	-0,086
-729,181	-10,908	0,028	0,013
-728,167	63,363	-0,046	0,034
-727,152	45,769	-0,167	-0,112
-726,137	256,518	-0,122	-0,153
-725,123	800,000	-0,041	0,099
-724,108	50,121	-0,109	-0,075
-723,094	84,802	-0,103	-0,082
-722,079	-41,992	-0,178	0,066
-721,064	8,850	-0,205	-0,112
-720,050	-173,847	-0,058	0,001
-719,035	739,778	0,033	0,064
-718,021	124,520	0,100	-0,092
-717,006	116,114	-0,065	-0,058
-715,991	32,737	-0,155	-0,097
-714,977	-200,000	-0,025	-0,092
-713,962	290,759	-0,037	-0,049
-712,948	800,000	-0,030	0,081
-711,933	100,064	-0,070	0,059
-710,918	511,722	0,011	-0,019
-709,904	-137,324	-0,062	0,005
-708,889	-38,565	-0,160	-0,061
-707,875	800,000	0,062	-0,138
-706,860	800,000	0,008	-0,018
-705,845	-164,427	-0,134	0,004
-704,831	-38,164	-0,081	-0,031
-703,816	800,000	0,048	0,137
-702,802	224,694	-0,008	0,009
-701,787	-200,000	-0,003	0,044
-700,772	334,073	0,047	-0,066
-699,758	800,000	-0,028	0,065
-698,743	-51,259	0,099	-0,033
-697,729	43,668	-0,095	-0,063
-696,714	-8,514	0,105	0,051
-695,699	-70,080	-0,132	0,036
-694,685	168,156	0,089	0,092
-693,670	-200,000	0,000	-0,134
-692,656	-7,674	-0,123	-0,060
-691,641	313,723	0,025	-0,034
-690,627	206,219	-0,047	-0,053
-689,612	-200,000	-0,020	0,076
-688,597	-144,739	-0,084	0,005
-687,583	800,000	0,037	0,081
-686,568	232,259	-0,127	-0,152
-685,554	800,000	0,012	0,026
-684,539	-186,245	-0,082	0,001
-683,524	556,217	0,036	0,062
-682,510	359,374	0,029	-0,043
-681,495	271,194	-0,041	0,052
-680,481	-129,661	0,072	-0,007
-679,466	227,225	-0,081	-0,096
-678,451	136,862	-0,037	-0,035
-677,437	45,844	-0,077	0,052
-676,422	-200,000	0,015	0,091
-675,408	237,551	-0,100	-0,120
-674,393	-200,000	0,005	0,057
-673,378	-200,000	-0,024	-0,210
-672,364	-200,000	-0,021	-0,094
-671,349	-200,000	-0,014	-0,087
-670,335	49,439	-0,029	0,019
-669,320	-200,000	-0,010	0,062
-668,305	11,016	0,062	-0,034
-667,291	-46,103	-0,062	0,022
-666,276	103,360	-0,067	-0,057
-665,262	-139,422	0,074	0,006
-664,247	-74,614	-0,029	-0,008
-663,232	-61,896	0,106	-0,032
-662,218	752,515	0,014	0,027
-661,203	-106,211	-0,069	0,011
-660,189	-23,263	-0,141	-0,061
-659,174	698,134	-0,118	-0,226
-658,159	-200,000	0,026	-0,100
-657,145	331,790	-0,053	-0,074
-656,130	-200,000	-0,004	0,059
-655,116	-194,946	0,133	-0,001
-654,101	-200,000	0,003	0,075
-653,086	-200,000	0,007	-0,050
-652,072	467,865	-0,036	0,058
-651,057	-180,862	-0,093	0,001
-650,043	-63,349	0,101	-0,030
-649,028	800,000	0,011	-0,025
-648,014	-200,000	0,004	-0,054
-646,999	-200,000	0,019	-0,061
-645,984	-143,169	-0,157	-0,011
-644,970	-61,328	-0,005	-0,002
-643,955	19,309	-0,043	-0,025
-642,941	97,850	-0,087	-0,072
-641,926	190,675	0,015	-0,016
-640,911	-60,819	-0,054	-0,017
-639,897	154,850	0,078	-0,077
-638,882	-200,000	0,010	-0,035
-637,868	100,074	-0,124	0,104
-636,853	706,885	0,031	-0,059
-635,838	12,309	-0,063	-0,035
-634,824	217,619	0,113	-0,130
-633,809	-200,000	-0,021	-0,090
-632,795	75,117	-0,090	-0,069
-631,780	189,565	0,015	0,016
-630,765	-146,633	0,030	0,002
-629,751	81,481	-0,051	-0,040
-628,736	-200,000	0,001	0,016
-627,722	78,848	0,105	0,081
-626,707	-58,651	-0,176	0,055
-625,692	-200,000	-0,009	0,073
-624,678	-200,000	-0,026	0,132
-623,663	127,398	-0,029	-0,027
-622,649	12,062	0,037	-0,020
-621,634	410,115	-0,092	-0,142
-620,619	444,184	0,123	-0,195
-619,605	-200,000	0,012	-0,042
-618,590	-4,130	-0,080	0,040
-617,576	-200,000	-0,007	0,091
-616,561	56,262	0,068	-0,048
-615,546	86,559	-0,135	-0,108
-614,532	-32,605	0,111	-0,045
-613,517	27,638	-0,011	-0,007
-612,503	-39,117	-0,099	-0,037
-611,488	-104,877	0,033	0,005
-610,474	-41,185	0,115	-0,043
-609,459	-113,621	0,090	0,013
-608,444	111,269	0,031	0,027
-607,430	-149,537	-0,173	-0,010
-606,415	68,419	-0,047	-0,035
-605,401	468,498	-0,043	-0,071
-604,386	-4,739	-0,184	0,092
-603,371	621,546	-0,009	0,016
-602,357	800,000	-0,057	0,117
-601,342	-78,281	0,043	0,011
-600,328	740,022	-0,007	0,014
-599,313	-74,662	0,125	-0,032
-598,298	191,821	0,037	-0,040
-597,284	-135,410	0,080	-0,007
-596,269	-66,606	-0,099	0,028
-595,255	-200,000	-0,006	-0,040
-594,240	-200,000	-0,037	0,149
-593,225	-200,000	0,006	0,022
-592,211	18,527	-0,043	0,025
-591,196	-200,000	0,002	-0,010
-590,182	-102,668	0,100	0,017
-589,167	125,960	0,056	0,052
-588,152	-200,000	0,027	0,089
-587,138	212,468	-0,053	-0,060
-586,123	-58,995	-0,041	0,013
-585,109	474,752	0,032	-0,052
-584,094	-44,753	-0,021	0,007
-583,079	553,695	0,046	-0,079
-582,065	-200,000	-0,004	0,057
-581,050	-125,484	0,120	-0,013
-580,036	-33,359	-0,049	0,020
-579,021	407,961	-0,041	0,062
-578,006	647,822	-0,105	-0,195
-576,992	-29,023	0,012	0,005
-575,977	189,838	-0,094	0,102
-574,963	-60,809	-0,019	-0,006
-573,948	55,378	-0,118	-0,082
-572,934	27,545	-0,103	0,063
-571,919	-92,155	0,146	0,030
-570,904	-191,523	-0,110	-0,001
-569,890	-200,000	0,027	-0,130
-568,875	-100,774	-0,019	0,003
-567,861	-200,000	0,019	0,097
-566,846	-200,000	0,003	0,028
-565,831	-12,290	0,068	-0,032
-564,817	-152,924	-0,125	-0,006
-563,802	5,494	-0,182	-0,097
-562,788	-200,000	-0,016	0,068
-561,773	800,000	-0,048	0,100
-560,758	422,760	0,086	-0,133
-559,744	285,419	-0,041	0,054
-558,729	-200,000	0,006	0,061
-557,715	390,831	-0,081	-0,122
-556,700	-188,051	-0,022	0,000
-555,685	-116,735	-0,159	-0,021
-554,671	-47,426	-0,072	0,025
-553,656	-200,000	-0,023	0,140
-552,642	-66,107	0,139	0,040
-551,627	-37,938	-0,086	-0,033
-550,612	-200,000	-0,011	0,037
-549,598	-67,954	-0,112	0,031
-548,583	800,000	0,116	0,263
-547,569	295,141	-0,024	0,031
-546,554	-134,283	-0,017	0,001
-545,539	-114,141	0,130	-0,018
-544,525	135,697	-0,046	-0,043
-543,510	-9,776	-0,095	0,046
-542,496	172,431	-0,008	0,008
-541,481	476,666	-0,006	0,009
-540,466	116,022	-0,064	-0,056
-539,452	-116,802	-0,129	-0,017
-538,437	-85,932	0,034	-0,008
-537,423	-170,951	0,055	0,001
-536,408	-200,000	0,036	-0,120
-535,393	-15,349	0,105	0,048
-534,379	-200,000	0,010	-0,055
-533,364	-200,000	0,014	-0,058
-532,350	309,582	-0,034	0,046
-531,335	-65,028	0,157	0,045
-530,321	55,908	-0,014	-0,010
-529,306	39,644	0,085	0,055
-528,291	776,698	-0,052	0,102
-527,277	-200,000	0,001	0,111
-526,262	71,017	-0,087	0,065
-525,248	65,521	0,073	0,053
-524,233	-51,465	0,058	-0,019
-523,218	35,007	-0,104	0,065
-522,204	8,181	0,052	-0,028
-521,189	800,000	-0,022	0,050
-520,175	-200,000	-0,064	-0,267
-519,160	800,000	0,070	-0,180
-518,145	-74,545	-0,125	-0,032
-517,131	-79,947	-0,088	0,021
-516,116	193,002	0,032	-0,035
-515,102	188,262	0,013	0,014
-514,087	-89,893	-0,108	-0,023
-513,072	800,000	-0,046	-0,112
-512,058	212,377	0,070	0,080
-511,043	625,890	0,070	-0,129
-510,029	117,300	-0,061	0,054
-509,014	-200,000	0,018	-0,178
-507,999	800,000	0,076	0,173
-506,985	-200,000	-0,011	0,064
-505,970	-64,772	-0,037	0,011
-504,956	-39,662	0,084	0,032
-503,941	-200,000	-0,002	-0,031
-502,926	718,089	-0,013	0,025
-501,912	-200,000	0,012	0,176
-500,897	-200,000	0,006	-0,082
-499,883	800,000	-0,051	0,125
-498,868	-66,910	0,149	-0,042
-497,853	235,469	-0,012	0,015
-496,839	-200,000	0,009	-0,045
-495,824	800,000	0,067	0,157
-494,810	-200,000	0,014	-0,062
-493,795	160,548	-0,073	0,074
-492,781	-200,000	0,007	0,033
-491,766	-131,172	-0,036	-0,003
-490,751	251,998	0,035	-0,043
-489,737	-1,464	-0,085	0,043
-488,722	14,287	0,148	0,083
-487,708	72,876	0,140	-0,105
-486,693	800,000	-0,029	0,076
-485,678	-112,361	0,126	-0,018
-484,664	-200,000	-0,004	-0,046
-483,649	200,294	-0,029	0,032
-482,635	138,288	0,068	-0,064
-481,620	-200,000	-0,018	0,067
-480,605	800,000	-0,009	0,022
-479,591	-200,000	0,029	0,167
-478,576	-200,000	-0,002	0,031
-477,562	-200,000	0,001	-0,034
-476,547	800,000	0,072	-0,146
-475,532	-200,000	-0,009	0,040
-474,518	-81,973	0,073	-0,017
-473,503	-125,059	-0,108	0,012
-472,489	-109,738	-0,099	0,015
-471,474	107,116	-0,017	-0,014
-470,459	96,320	-0,040	0,033
-469,445	-74,745	0,109	-0,028
-468,430	-128,047	-0,096	0,010
-467,416	-150,704	0,118	0,006
-466,401	292,063	-0,056	0,073
-465,386	-200,000	0,002	-0,039
-464,372	-200,000	0,021	0,086
-463,357	170,468	-0,028	0,028
-462,343	94,606	-0,105	0,086
-461,328	800,000	-0,028	0,068
-460,313	-30,456	0,149	-0,060
-459,299	141,812	0,019	0,018
-458,284	230,348	0,018	-0,021
-457,270	64,424	-0,090	-0,065
-456,255	256,872	-0,069	-0,086
-455,241	-200,000	0,029	-0,111
-454,226	426,706	0,031	-0,049
-453,211	-101,406	0,105	0,018
-452,197	492,334	0,017	-0,028
-451,182	-200,000	0,000	0,140
-450,168	-200,000	0,031	0,138
-449,153	-102,647	0,141	0,024
-448,138	-200,000	-0,015	-0,228
-447,124	-200,000	0,013	-0,148
-446,109	232,688	0,005	0,006
-445,095	-200,000	0,017	0,105
-444,080	-127,940	-0,028	0,003
-443,065	800,000	0,034	-0,092
-442,051	800,000	-0,033	-0,089
-441,036	27,512	0,078	0,047
-440,022	-200,000	0,018	-0,063
-439,007	800,000	0,039	-0,094
-437,992	-200,000	-0,006	0,036
-436,978	-98,414	-0,072	0,013
-435,963	445,865	-0,009	-0,014
-434,949	-200,000	0,016	-0,097
-433,934	-142,089	-0,156	-0,011
-432,919	-200,000	-0,003	-0,043
-431,905	-200,000	0,002	-0,091
-430,890	800,000	0,030	0,066
-429,876	616,236	-0,067	0,121
-428,861	-200,000	0,017	0,138
-427,846	-69,680	0,085	0,023
-426,832	-134,768	-0,044	-0,004
-425,817	212,171	0,061	0,069
-424,803	398,221	-0,041	0,062
-423,788	-105,965	-0,053	0,008
-422,773	-200,000	-0,004	0,013
-421,759	619,393	-0,066	0,120
-420,744	800,000	0,037	0,093
-419,730	358,173	0,061	-0,088
-418,715	-200,000	-0,013	-0,052
-417,701	-121,121	0,061	0,007
-416,686	457,070	-0,052	-0,082
-415,671	-200,000	-0,041	0,200
-414,657	-68,119	-0,071	-0,020
-413,642	97,349	0,072	0,059
-412,628	305,727	-0,059	0,079
-411,613	-31,564	0,039	0,016
-410,598	26,393	0,113	-0,068
-409,584	341,850	-0,038	-0,053
-408,569	3,673	0,201	-0,105
-407,555	-110,060	0,069	-0,010
-406,540	-200,000	-0,019	-0,113
-405,525	-132,132	-0,056	-0,005
-404,511	56,164	0,055	-0,038
-403,496	800,000	-0,013	0,033
-402,482	170,609	-0,039	-0,040
-401,467	765,592	-0,033	0,064
-400,452	-200,000	-0,010	0,213
-399,438	-50,824	-0,098	0,033
-398,423	-200,000	0,007	-0,031
-397,409	800,000	0,024	0,050
-396,394	-35,999	-0,117	-0,045
-395,379	508,290	0,039	-0,066
-394,365	311,915	0,092	-0,124
-393,350	156,188	-0,076	0,076
-392,336	-51,002	0,065	-0,022
-391,321	-200,000	0,008	0,112
-390,306	284,513	-0,059	-0,077
-389,292	-44,364	0,055	0,020
-388,277	109,491	-0,055	-0,047
-387,263	18,560	0,162	-0,093
-386,248	-27,726	0,051	0,021
-385,233	-12,225	0,048	-0,023
-384,219	800,000	0,021	-0,055
-383,204	90,393	-0,072	0,058
-382,190	261,273	-0,051	0,063
-381,175	168,459	-0,093	0,095
-380,160	800,000	0,016	-0,049
-379,146	-200,000	0,049	0,157
-378,131	-200,000	0,015	0,050
-377,117	40,749	0,061	-0,039
-376,102	-96,229	-0,015	-0,003
-375,088	-9,732	-0,115	-0,055
-374,073	214,319	0,032	0,037
-373,058	71,223	-0,049	-0,036
-372,044	-183,515	0,037	-0,000
-371,029	-2,411	-0,030	0,015
-370,015	120,183	0,186	0,165
-369,000	-32,169	-0,157	0,063
-367,985	-200,000	-0,022	-0,271
-366,971	24,017	0,063	0,037
-365,956	144,703	-0,049	0,047
-364,942	-200,000	0,002	-0,055
-363,927	213,946	0,054	-0,061
-362,912	11,102	-0,048	-0,026
-361,898	283,732	0,108	-0,140
-360,883	250,810	-0,065	0,079
-359,869	-22,498	-0,115	0,050
-358,854	21,153	0,179	0,104
-357,839	-200,000	-0,000	0,154
-356,825	-101,182	0,088	-0,015
-355,810	-142,475	-0,083	-0,006
-354,796	583,514	-0,023	-0,040
-353,781	-200,000	-0,007	0,198
-352,766	563,849	0,060	-0,104
-351,752	57,495	0,069	0,048
-350,737	-200,000	0,001	-0,010
-349,723	141,840	0,047	-0,044
-348,708	-200,000	0,012	0,081
-347,693	-140,836	-0,053	0,004
-346,679	97,126	-0,060	-0,049
-345,664	-176,726	-0,019	-0,000
-344,650	325,275	-0,082	0,113
-343,635	-10,967	-0,028	0,013
-342,620	-153,399	0,136	-0,007
-341,606	-200,000	0,009	-0,064
-340,591	-200,000	-0,046	-0,147
-339,577	531,593	-0,037	-0,063
-338,562	15,111	0,038	-0,021
-337,548	-200,000	-0,009	-0,064
-336,533	217,250	-0,047	-0,053
-335,518	141,474	0,110	0,105
-334,504	-125,396	-0,080	-0,009
-333,489	103,879	0,072	-0,060
-332,475	114,710	0,050	-0,043
-331,460	440,481	0,045	0,070
-330,445	93,323	-0,053	0,043
-329,431	-107,300	0,114	0,018
-328,416	794,082	0,055	0,110
-327,402	-36,868	0,126	-0,048
-326,387	-200,000	-0,023	0,103
-325,372	148,252	0,066	-0,064
-324,358	-54,553	0,087	0,028
-323,343	45,802	-0,098	0,065
-322,329	800,000	-0,033	0,081
-321,314	643,625	0,043	0,079
-320,299	19,077	-0,065	0,037
-319,285	800,000	-0,062	-0,128
-318,270	-200,000	0,049	-0,165
-317,256	722,571	0,007	-0,014
-316,241	497,393	-0,046	-0,075
-315,226	800,000	0,050	0,100
-314,212	-131,458	0,119	0,011
-313,197	-200,000	-0,010	0,061
-312,183	348,429	-0,051	0,072
-311,168	-200,000	-0,009	-0,053
-310,153	291,051	-0,024	-0,032
-309,139	151,144	-0,112	-0,109
-308,124	200,181	0,079	0,087
-307,110	-107,866	-0,018	-0,003
-306,095	-75,343	0,089	-0,023
-305,080	-200,000	0,020	-0,164
-304,066	800,000	0,023	0,074
-303,051	183,776	-0,033	0,035
-302,037	-77,097	-0,048	-0,012
-301,022	128,536	0,121	-0,110
-300,008	-84,931	-0,135	0,030
-298,993	685,484	-0,052	-0,098
-297,978	-94,372	-0,025	0,005
-296,964	236,220	-0,023	-0,027
-295,949	246,427	0,061	0,074
-294,935	221,581	0,109	-0,125
-293,920	-200,000	-0,031	0,143
-292,905	497,091	-0,069	0,115
-291,891	352,772	0,057	0,082
-290,876	-97,116	-0,152	0,028
-289,862	261,902	-0,006	-0,008
-288,847	-108,160	-0,081	-0,012
-287,832	-200,000	0,015	-0,100
-286,818	800,000	0,013	0,035
-285,803	20,588	-0,068	-0,039
-284,789	-200,000	-0,005	0,067
-283,774	271,736	-0,072	-0,091
-282,759	87,515	0,052	-0,041
-281,745	-97,649	-0,027	-0,005
-280,730	-200,000	-0,017	-0,130
-279,716	-200,000	-0,008	-0,057
-278,701	-42,846	-0,147	0,053
-277,686	241,257	0,060	0,071
-276,672	-12,624	-0,020	0,009
-275,657	138,667	-0,031	0,029
-274,643	-53,149	-0,090	0,029
-273,628	92,427	-0,094	-0,075
-272,613	116,898	0,067	0,059
-271,599	-33,320	0,068	0,027
-270,584	197,416	0,108	0,118
-269,570	800,000	-0,053	0,153
-268,555	115,391	0,116	-0,101
-267,540	-200,000	0,001	-0,085
-266,526	317,671	-0,021	-0,028
-265,511	-200,000	-0,013	0,057
-264,497	-15,256	0,037	-0,017
-263,482	25,343	0,112	0,067
-262,467	800,000	0,069	0,210
-261,453	409,565	-0,018	0,028
-260,438	26,265	-0,028	0,017
-259,424	118,797	-0,105	-0,093
-258,409	-200,000	0,003	-0,216
-257,395	-200,000	-0,012	-0,078
-256,380	72,176	0,150	0,112
-255,365	-8,462	-0,028	0,014
-254,351	-129,699	0,174	0,017
-253,336	800,000	-0,023	-0,067
-252,322	38,934	-0,212	-0,135
-251,307	174,540	0,089	-0,092
-250,292	-72,310	0,060	0,016
-249,278	-155,891	0,069	0,003
-248,263	-200,000	0,015	0,070
-247,249	-200,000	-0,020	0,069
-246,234	416,989	-0,058	0,089
-245,219	279,077	-0,090	-0,115
-244,205	-112,506	-0,147	-0,021
-243,190	17,688	-0,044	0,025
-242,176	800,000	0,038	-0,095
-241,161	-200,000	0,007	-0,038
-240,146	-200,000	-0,011	-0,081
-239,132	800,000	0,046	-0,108
-238,117	387,887	0,038	-0,056
-237,103	262,151	0,023	0,029
-236,088	-44,218	-0,072	-0,026
-235,073	57,302	0,029	-0,020
-234,059	-96,769	0,053	-0,010
-233,044	-109,295	0,048	0,007
-232,030	-200,000	0,020	-0,159
-231,015	-200,000	0,011	-0,055
-230,000	277,915	0,048	-0,061
-228,986	-200,000	0,030	-0,165
-227,971	523,801	-0,042	0,070
-226,957	-200,000	0,013	-0,041
-225,942	800,000	0,052	0,110
-224,927	6,579	0,047	-0,025
-223,913	293,680	-0,079	-0,103
-222,898	436,746	-0,029	-0,044
-221,884	-169,019	-0,186	0,005
-220,869	117,411	-0,071	0,062
-219,855	-200,000	-0,031	0,124
-218,840	313,911	0,094	0,126
-217,825	285,043	0,030	0,039
-216,811	-1,143	-0,038	0,019
-215,796	-155,285	-0,062	-0,003
-214,782	-200,000	-0,016	0,054
-213,767	-190,062	-0,058	-0,000
-212,752	-200,000	-0,014	0,171
-211,738	268,874	0,061	0,076
-210,723	800,000	0,056	0,133
-209,709	41,771	-0,036	0,023
-208,694	119,472	0,032	-0,028
-207,679	411,117	-0,044	0,066
-206,665	129,838	-0,109	0,099
-205,650	-160,381	0,101	-0,004
-204,636	-98,704	0,133	-0,024
-203,621	-77,362	-0,098	-0,024
-202,606	800,000	-0,037	-0,104
-201,592	800,000	0,033	-0,095
-200,577	-200,000	0,024	-0,102
-199,563	27,193	-0,107	-0,064
-198,548	36,607	0,113	0,071
-197,533	800,000	-0,060	0,143
-196,519	447,629	0,077	-0,120
-195,504	31,736	0,129	-0,079
-194,490	-31,134	0,097	0,039
-193,475	800,000	-0,019	0,053
-192,460	-45,061	0,095	0,033
-191,446	120,246	0,053	-0,046
-190,431	-200,000	0,018	-0,088
-189,417	-13,907	0,079	0,036
-188,402	2,536	0,047	0,024
-187,387	-148,099	-0,046	0,003
-186,373	326,982	-0,064	-0,088
-185,358	-32,621	-0,034	-0,013
-184,344	-44,733	0,068	0,024
-183,329	374,123	0,035	0,050
-182,315	800,000	-0,012	-0,037
-181,300	80,894	0,039	0,030
-180,285	-122,522	0,060	0,007
-179,271	-34,010	-0,057	0,022
-178,256	15,242	-0,020	-0,011
-177,242	17,919	-0,026	-0,015
-176,227	-55,743	0,041	0,013
-175,212	800,000	0,041	-0,092
-174,198	-200,000	-0,003	-0,061
-173,183	0,423	-0,020	-0,010
-172,169	-171,581	-0,083	-0,002
-171,154	-53,374	0,120	0,039
-170,139	329,734	-0,063	-0,086
-169,125	-96,036	0,081	-0,015
-168,110	-62,393	-0,047	0,014
-167,096	-200,000	0,025	0,137
-166,081	-105,015	-0,054	-0,009
-165,066	78,714	0,009	0,007
-164,052	112,236	0,054	-0,046
-163,037	800,000	0,030	-0,066
-162,023	26,967	0,132	0,078
-161,008	63,956	-0,124	0,089
-159,993	-54,895	0,080	-0,026
-158,979	389,550	-0,056	0,082
-157,964	-200,000	0,009	-0,049
-156,950	83,357	-0,109	-0,084
-155,935	800,000	-0,016	0,044
-154,920	-91,429	0,127	-0,026
-153,906	-54,180	0,069	0,022
-152,891	128,491	-0,086	0,078
-151,877	-200,000	0,010	0,035
-150,862	93,729	0,051	-0,041
-149,847	-32,275	0,076	-0,030
-148,833	-171,331	-0,032	0,001
-147,818	233,029	0,103	-0,120
-146,804	-4,209	-0,020	-0,010
-145,789	800,000	0,069	-0,159
-144,775	488,346	-0,020	-0,033
-143,760	-200,000	0,004	0,044
-142,745	-200,000	-0,010	-0,101
-141,731	189,038	0,037	-0,039
-140,716	-166,482	-0,081	0,002
-139,702	800,000	0,022	0,051
-138,687	482,798	0,021	0,033
-137,672	267,823	0,024	-0,030
-136,658	36,771	-0,082	-0,052
-135,643	331,941	0,027	0,037
-134,629	800,000	0,056	-0,133
-133,614	81,958	0,063	0,049
-132,599	-200,000	-0,012	0,089
-131,585	83,602	0,201	0,156
-130,570	-116,731	-0,159	0,020
-129,556	-28,568	0,094	-0,038
-128,541	-200,000	0,008	0,057
-127,526	79,557	0,081	0,062
-126,512	800,000	0,044	0,108
-125,497	-200,000	0,037	0,133
-124,483	120,396	0,075	0,066
-123,468	-200,000	-0,004	-0,022
-122,453	-117,255	-0,069	0,009
-121,439	487,898	-0,058	-0,095
-120,424	248,244	-0,047	-0,056
-119,410	367,520	-0,052	-0,075
-118,395	-200,000	0,011	0,083
-117,380	59,196	0,036	-0,025
-116,366	-139,753	-0,141	0,010
-115,351	157,308	-0,072	-0,070
-114,337	139,108	-0,033	0,030
-113,322	-12,802	0,032	-0,015
-112,307	-200,000	0,024	0,095
-111,293	-200,000	-0,005	-0,053
-110,278	288,639	-0,041	0,053
-109,264	800,000	-0,021	0,047
-108,249	90,966	-0,074	-0,059
-107,234	-83,343	0,047	-0,011
-106,220	-57,853	-0,042	-0,013
-105,205	689,002	0,049	0,091
-104,191	-106,932	0,187	0,029
-103,176	-18,095	-0,018	0,008
-102,162	800,000	0,025	0,057
-101,147	-200,000	-0,010	0,073
-100,132	-200,000	0,033	0,166
-99,118	507,189	-0,042	-0,069
-98,103	-200,000	0,008	0,047
-97,089	154,755	0,053	0,051
-96,074	-73,488	-0,069	-0,018
-95,059	290,830	0,108	0,140
-94,045	-200,000	0,002	-0,126
-93,030	800,000	0,030	-0,082
-92,016	-200,000	-0,001	-0,101
-91,001	-144,209	0,060	0,004
-89,986	-200,000	-0,004	-0,072
-88,972	800,000	-0,029	0,079
-87,957	-121,626	-0,127	0,015
-86,943	17,962	-0,075	0,042
-85,928	800,000	-0,026	-0,068
-84,913	-74,271	-0,078	-0,020
-83,899	-200,000	-0,002	0,057
-82,884	800,000	0,019	0,037
-81,870	800,000	-0,029	-0,063
-80,855	355,947	-0,086	0,122
-79,840	-50,114	0,055	0,018
-78,826	234,644	-0,069	-0,081
-77,811	114,616	-0,071	-0,061
-76,797	488,767	-0,022	0,036
-75,782	-0,547	0,030	0,015
-74,767	25,192	0,030	0,018
-73,753	120,053	0,068	0,060
-72,738	-139,106	-0,051	-0,004
-71,724	119,060	-0,095	-0,084
-70,709	184,061	0,033	-0,034
-69,694	-64,287	-0,044	-0,013
-68,680	-150,612	0,048	-0,003
-67,665	307,594	-0,024	0,032
-66,651	-96,815	0,084	0,015
-65,636	4,565	0,103	0,054
-64,622	800,000	-0,026	-0,069
-63,607	-200,000	0,005	-0,073
-62,592	-200,000	-0,038	-0,144
-61,578	-172,056	0,049	-0,001
-60,563	-61,057	0,020	-0,006
-59,549	-99,650	0,161	0,028
-58,534	6,726	-1,691	-0,888
-57,519	442,609	-1,262	-1,964
-56,505	-200,000	-0,581	-4,535
-55,490	339,856	0,928	1,285
-54,476	800,000	4,835	11,285
-53,461	-200,000	19,417	324,735
-52,446	-200,000	744,534	2334,050
-51,432	567,466	1657,363	2859,716
-50,417	77,406	1671,182	1257,124
-49,403	20,886	1544,545	883,613
-48,388	14,726	1467,160	809,366
-47,373	18,120	1457,141	820,210
-46,359	16,583	1446,656	806,909
-45,344	13,003	1442,510	787,408
-44,330	12,916	1440,687	785,962
-43,315	13,003	1438,648	785,235
-42,300	12,973	1436,956	784,137
-41,286	12,985	1435,635	783,443
-40,271	12,932	1434,584	782,584
-39,257	12,915	1433,089	781,659
-38,242	12,964	1431,756	781,135
-37,227	13,001	1430,469	780,576
-36,213	12,983	1429,157	779,745
-35,198	12,988	1427,982	779,095
-34,184	13,009	1427,200	778,737
-33,169	12,991	1425,737	777,825
-32,154	13,050	1424,614	777,458
-31,140	13,022	1423,481	776,676
-30,125	13,064	1422,222	776,157
-29,111	13,012	1421,261	775,358
-28,096	13,042	1419,982	774,770
-27,082	12,911	1419,184	773,686
-26,067	12,918	1418,033	773,062
-25,052	12,932	1416,730	772,387
-24,038	12,900	1416,080	771,852
-23,023	12,947	1414,805	771,347
-22,009	12,909	1413,913	770,650
-20,994	12,872	1413,005	769,950
-19,979	12,907	1412,067	769,573
-18,965	12,891	1411,109	768,944
-17,950	12,892	1410,172	768,410
-16,936	12,872	1409,255	767,786
-15,921	12,832	1408,235	767,012
-14,906	12,859	1407,214	766,550
-13,892	12,887	1406,313	766,159
-12,877	12,835	1405,510	765,449
-11,863	12,818	1404,656	764,875
-10,848	12,854	1403,567	764,422
-9,833	12,813	1402,965	763,869
-8,819	12,784	1402,000	763,180
-7,804	12,753	1401,251	762,599
-6,790	12,763	1400,130	762,002
-5,775	12,766	1399,043	761,398
-4,760	12,803	1397,979	760,958
-3,746	12,729	1397,240	760,183
-2,731	12,728	1396,537	759,768
-1,717	12,737	1395,411	759,165
-0,702	12,703	1393,608	757,998
0,313	16,574	1309,730	730,294
1,327	32,824	702,138	428,984
2,342	50,418	122,953	82,081
3,356	0,749	16,614	8,384
4,371	-5,230	3,271	1,585
5,386	0,748	0,566	0,285
6,400	-200,000	-0,101	0,354
7,415	109,285	-0,188	-0,159
8,429	103,994	-0,271	-0,225
9,444	177,473	-0,308	-0,318
10,459	47,159	-0,215	-0,141
11,473	80,985	-0,286	-0,218
12,488	-92,580	-0,261	-0,051
13,502	19,178	-0,434	-0,246
14,517	-154,776	-0,238	0,011
15,531	-21,378	-0,449	-0,193
16,546	83,419	-0,343	-0,264
17,561	800,000	-0,158	-0,456
18,575	-77,363	-0,329	-0,080
19,590	34,796	-0,313	-0,193
20,604	121,934	-0,257	-0,227
21,619	-38,588	-0,523	-0,194
22,634	90,104	-0,539	-0,425
23,648	365,171	-0,277	-0,394
24,663	121,529	-0,493	-0,433
25,677	403,944	-0,285	-0,425
26,692	90,759	-0,370	-0,293
27,707	87,810	-0,392	-0,306
28,721	78,307	-0,355	-0,267
29,736	61,205	-0,440	-0,308
30,750	57,461	-0,391	-0,269
31,765	114,862	-0,408	-0,351
32,780	17,916	-0,492	-0,276
33,794	460,828	-0,173	-0,273
34,809	-18,118	-0,348	-0,153
35,823	0,102	-0,456	-0,228
36,838	122,416	-0,315	-0,278
37,853	85,437	-0,494	-0,382
38,867	237,049	-0,337	-0,395
39,882	314,284	-0,284	-0,378
40,896	296,419	-0,213	-0,276
41,911	-31,135	-0,404	-0,160
42,926	-34,712	-0,489	-0,187
43,940	101,308	-0,371	-0,304
44,955	52,783	-0,371	-0,249
45,969	81,640	-0,271	-0,206
46,984	89,108	-0,397	-0,311
47,999	800,000	-0,155	-0,320
49,013	408,215	-0,126	-0,188
50,028	76,171	-0,409	-0,305
51,042	129,778	-0,315	-0,284
52,057	192,335	-0,265	-0,282
53,071	-32,887	-0,360	-0,140
54,086	26,736	-0,358	-0,211
55,101	11,323	-0,277	-0,149
56,115	14,722	-0,446	-0,245
57,130	6,941	-0,456	-0,238
58,144	-74,697	-0,351	-0,088
59,159	-6,014	-0,362	-0,173
60,174	-40,343	-0,561	-0,204
61,188	83,167	-0,355	-0,272
62,203	-56,286	-0,294	-0,091
63,217	-50,289	-0,262	-0,087
64,232	80,416	-0,328	-0,248
65,247	12,467	-0,372	-0,201
66,261	-24,131	-0,351	-0,147
67,276	394,360	-0,255	-0,375
68,290	-86,565	-0,442	-0,095
69,305	-44,726	-0,312	-0,109
70,320	17,996	-0,201	-0,112
71,334	-30,936	-0,344	-0,136
72,349	-27,022	-0,362	-0,148
73,363	101,993	-0,363	-0,298
74,378	51,958	-0,340	-0,227
75,393	246,140	-0,200	-0,237
76,407	-2,634	-0,309	-0,152
77,422	12,746	-0,411	-0,222
78,436	65,820	-0,292	-0,207
79,451	-45,437	-0,275	-0,095
80,466	-56,658	-0,375	-0,116
81,480	89,720	-0,253	-0,198
82,495	79,569	-0,252	-0,190
83,509	104,189	-0,226	-0,186
84,524	174,804	-0,244	-0,248
85,539	-42,592	-0,305	-0,108
86,553	70,313	-0,214	-0,155
87,568	108,531	-0,231	-0,193
88,582	-27,507	-0,313	-0,127
89,597	2,010	-0,288	-0,146
90,611	53,560	-0,340	-0,228
91,626	-86,159	-0,284	-0,061
92,641	-85,786	-0,255	-0,055
93,655	170,669	-0,252	-0,254
94,670	482,356	-0,208	-0,332
95,684	-26,536	-0,264	-0,108
96,699	229,993	-0,171	-0,196
97,714	-11,785	-0,373	-0,171
98,728	-28,431	-0,196	-0,079
99,743	38,625	-0,271	-0,169
100,757	-65,961	-0,377	-0,105
101,772	1,189	-0,363	-0,182
102,787	412,092	-0,313	-0,468
103,801	55,057	-0,225	-0,152
104,816	-117,506	-0,219	-0,027
105,830	72,697	-0,276	-0,202
106,845	138,568	-0,190	-0,175
107,860	-36,330	-0,395	-0,149
108,874	79,721	-0,222	-0,167
109,889	123,171	-0,327	-0,287
110,903	164,585	-0,361	-0,357
111,918	-0,642	-0,308	-0,152
112,933	309,779	-0,163	-0,214
113,947	237,695	-0,188	-0,219
114,962	59,298	-0,229	-0,158
115,976	38,830	-0,192	-0,120
116,991	-58,372	-0,227	-0,069
118,006	333,276	-0,151	-0,204
119,020	1,470	-0,420	-0,211
120,035	72,646	-0,299	-0,218
121,049	43,959	-0,212	-0,136
122,064	382,038	-0,255	-0,368
123,079	-17,387	-0,222	-0,097
124,093	1,421	-0,139	-0,070
125,108	418,288	-0,168	-0,252
126,122	98,680	-0,321	-0,259
127,137	224,501	-0,097	-0,110
128,151	266,376	-0,150	-0,184
129,166	78,017	-0,236	-0,176
130,181	68,491	-0,187	-0,134
131,195	78,599	-0,309	-0,231
132,210	34,538	-0,265	-0,162
133,224	637,531	-0,157	-0,281
134,239	283,964	-0,133	-0,168
135,254	-96,367	-0,298	-0,055
136,268	114,590	-0,268	-0,228
137,283	82,500	-0,375	-0,284
138,297	407,927	-0,197	-0,292
139,312	4,171	-0,391	-0,199
140,327	177,162	-0,241	-0,246
141,341	94,644	-0,191	-0,151
142,356	135,654	-0,187	-0,170
143,370	143,561	-0,289	-0,269
144,385	140,549	-0,258	-0,238
145,400	-16,485	-0,374	-0,165
146,414	259,480	-0,260	-0,314
147,429	436,115	-0,200	-0,306
148,443	126,185	-0,205	-0,181
149,458	130,288	-0,255	-0,228
150,473	139,571	-0,186	-0,171
151,487	206,613	-0,253	-0,276
152,502	138,976	-0,240	-0,220
153,516	37,865	-0,292	-0,180
154,531	14,121	-0,309	-0,168
155,546	25,540	-0,255	-0,148
156,560	65,818	-0,274	-0,193
157,575	-150,206	-0,236	-0,013
158,589	660,582	-0,136	-0,245
159,604	61,410	-0,251	-0,174
160,619	123,219	-0,339	-0,296
161,633	175,430	-0,226	-0,228
162,648	80,971	-0,261	-0,197
163,662	154,369	-0,246	-0,235
164,677	-61,508	-0,373	-0,109
165,692	127,190	-0,252	-0,223
166,706	-39,868	-0,237	-0,086
167,721	-14,801	-0,275	-0,122
168,735	800,000	-0,094	-0,272
169,750	441,323	-0,157	-0,240
170,764	177,712	-0,165	-0,168
171,779	576,294	-0,049	-0,083
172,794	447,084	-0,145	-0,223
173,808	61,579	-0,273	-0,189
174,823	-49,901	-0,236	-0,078
175,837	239,208	-0,205	-0,238
176,852	205,116	-0,207	-0,224
177,867	41,278	-0,269	-0,169
178,881	4,856	-0,150	-0,076
179,896	131,029	-0,175	-0,157
180,910	800,000	-0,125	-0,281
181,925	205,484	-0,235	-0,255
182,940	144,429	-0,291	-0,270
183,954	270,996	-0,109	-0,134
184,969	225,940	-0,175	-0,198
185,983	252,959	-0,194	-0,231
186,998	476,083	-0,160	-0,253
188,013	-66,544	-0,139	-0,038
189,027	23,497	-0,212	-0,121
190,042	526,370	-0,095	-0,156
191,056	89,565	-0,194	-0,150
192,071	-200,000	-0,071	-0,227
193,086	439,907	-0,150	-0,228
194,100	186,041	-0,158	-0,164
195,115	68,585	-0,200	-0,143
196,129	276,592	-0,237	-0,294
197,144	432,778	-0,199	-0,301
198,159	264,323	-0,134	-0,162
199,173	249,129	-0,128	-0,151
200,188	34,750	-0,128	-0,078
201,202	7,138	-0,181	-0,094
202,217	140,467	-0,145	-0,133
203,232	34,079	-0,204	-0,123
204,246	231,930	-0,162	-0,185
205,261	99,914	-0,234	-0,189
206,275	-84,863	-0,096	-0,021
207,290	-37,651	-0,142	-0,052
208,304	176,092	-0,187	-0,189
209,319	121,591	-0,179	-0,155
210,334	140,059	-0,264	-0,242
211,348	112,884	-0,233	-0,196
212,363	70,290	-0,153	-0,110
213,377	377,216	-0,139	-0,198
214,392	34,207	-0,195	-0,117
215,407	68,159	-0,268	-0,190
216,421	-156,648	-0,255	0,011
217,436	46,644	-0,218	-0,140
218,450	800,000	-0,181	-0,381
219,465	135,172	-0,175	-0,158
220,480	105,879	-0,220	-0,181
221,494	62,358	-0,120	-0,083
222,509	38,649	-0,223	-0,138
223,523	-87,688	-0,186	-0,039
224,538	89,265	-0,186	-0,143
225,553	765,533	-0,149	-0,281
226,567	59,681	-0,181	-0,124
227,582	8,127	-0,257	-0,133
228,596	-90,438	-0,265	-0,053
229,611	-25,125	-0,233	-0,095
230,626	-23,021	-0,109	0,045
231,640	203,014	-0,082	0,087
232,655	-53,111	-0,196	-0,062
233,669	359,801	-0,223	-0,311
234,684	96,477	-0,191	-0,151
235,699	127,639	-0,107	-0,094
236,713	-162,656	-0,281	0,009
237,728	-59,103	-0,132	-0,039
238,742	60,231	-0,210	-0,144
239,757	-16,879	-0,242	-0,106
240,772	-103,083	-0,231	-0,037
241,786	-143,109	-0,137	-0,009
242,801	152,050	-0,284	-0,268
243,815	263,989	-0,135	-0,163
244,830	-55,236	-0,203	-0,063
245,844	242,648	-0,119	0,138
246,859	8,504	-0,318	-0,165
247,874	76,558	-0,162	-0,119
248,888	18,985	-0,302	-0,167
249,903	-78,689	-0,190	0,045
250,917	113,406	-0,075	-0,063
251,932	25,210	-0,204	-0,117
252,947	163,376	-0,107	-0,104
253,961	25,773	-0,160	-0,092
254,976	101,497	-0,206	-0,166
255,990	-7,952	-0,239	-0,111
257,005	24,674	-0,089	-0,051
258,020	-200,000	-0,024	-0,228
259,034	-93,053	-0,269	-0,051
260,049	19,690	-0,234	-0,130
261,063	18,565	-0,144	-0,079
262,078	-60,596	-0,233	-0,068
263,093	119,603	-0,087	-0,075
264,107	59,528	-0,318	-0,216
265,122	800,000	-0,070	-0,163
266,136	208,651	-0,096	-0,104
267,151	499,272	-0,105	-0,168
268,166	-110,431	-0,182	-0,026
269,180	64,654	-0,207	-0,144
270,195	-3,188	-0,298	-0,143
271,209	176,737	-0,111	-0,112
272,224	-13,625	-0,132	0,059
273,239	-90,777	-0,205	-0,040
274,253	-130,232	-0,167	-0,016
275,268	491,473	-0,130	-0,206
276,282	636,141	-0,148	-0,260
277,297	284,692	-0,128	-0,160
278,312	-15,953	-0,133	-0,058
279,326	104,995	-0,165	-0,134
280,341	-112,225	-0,182	-0,025
281,355	43,768	-0,105	-0,066
282,370	122,352	-0,238	-0,206
283,384	594,118	-0,121	-0,207
284,399	413,275	-0,120	-0,177
285,414	800,000	-0,056	-0,166
286,428	-200,000	-0,013	-0,088
287,443	-104,096	-0,138	0,022
288,457	737,111	-0,074	-0,138
289,472	19,688	-0,149	-0,082
290,487	25,193	-0,104	-0,060
291,501	64,529	-0,163	-0,113
292,516	75,939	-0,230	-0,168
293,530	573,793	-0,106	-0,179
294,545	205,961	-0,141	-0,151
295,560	-61,776	-0,183	-0,052
296,574	-135,909	-0,140	-0,011
297,589	96,426	-0,130	-0,103
298,603	800,000	-0,124	-0,250
299,618	-61,000	-0,227	-0,066
300,633	44,507	-0,105	-0,067
301,647	-145,550	-0,245	0,015
302,662	-26,435	-0,078	-0,031
303,676	-123,066	-0,158	-0,017
304,691	-200,000	-0,029	-0,141
305,706	-200,000	-0,053	-0,169
306,720	-33,269	-0,290	-0,110
307,735	377,147	-0,127	-0,179
308,749	-145,194	-0,215	0,013
309,764	40,540	-0,126	-0,078
310,779	-64,924	-0,166	-0,046
311,793	-13,177	-0,134	0,060
312,808	9,807	-0,204	-0,106
313,822	27,767	-0,089	-0,051
314,837	495,941	-0,120	-0,191
315,852	-119,874	-0,227	0,027
316,866	800,000	-0,046	-0,111
317,881	36,943	-0,207	-0,126
318,895	123,760	-0,127	-0,110
319,910	-84,824	-0,112	-0,024
320,925	-98,477	-0,170	0,030
321,939	104,465	-0,200	-0,162
322,954	-106,684	-0,098	-0,015
323,968	492,869	-0,079	0,125
324,983	-200,000	-0,003	0,079
325,997	89,348	-0,144	-0,110
327,012	282,999	-0,138	-0,171
328,027	422,526	-0,094	-0,139
329,041	-200,000	-0,092	-0,300
330,056	156,452	-0,106	-0,101
331,070	-200,000	-0,065	-0,201
332,085	21,445	-0,141	-0,079
333,100	-200,000	-0,005	-0,117
334,114	63,529	-0,151	-0,104
335,129	-48,909	-0,235	-0,077
336,143	18,624	-0,082	-0,045
337,158	68,758	-0,147	-0,104
338,173	-56,831	-0,049	0,015
339,187	-200,000	-0,042	-0,148
340,202	-9,512	-0,155	-0,071
341,216	121,024	-0,177	-0,151
342,231	193,459	-0,071	-0,073
343,246	579,826	-0,107	-0,181
344,260	-20,586	-0,067	-0,028
345,275	13,223	-0,081	-0,043
346,289	-200,000	-0,043	-0,136
347,304	-48,057	-0,131	-0,043
348,319	83,090	-0,087	-0,065
349,333	-52,373	-0,188	-0,059
350,348	616,939	-0,073	-0,126
351,362	-104,299	-0,100	0,016
352,377	-22,577	-0,160	-0,066
353,392	-42,126	-0,179	-0,063
354,406	731,364	-0,117	-0,215
355,421	208,439	1312,940	1409,652
356,435	160,384	1473,428	1410,129
