DTS Sentinel unit serial number:	SN410029Multiplexer serial number:	ORYXHardware model number:	OX2-SRSoftware version number:	ORYX F/W v4,00 Oryx Data Collector v3.7.2.0data status	okinstallation	B3 Nyhavnadifferential loss correction	single-endedforward channel	channel 1reverse channel	N/Adate	2023/12/04time	23:12:30forward acquisition time	300,00reverse acquisition time	0,00gamma	499,1914k internal	0,3200k external	0,3200temperature offset calibration	1,0000default loss term (dB/km)	0,3820temperature slope calibration	1,0000multiplexer offset coefficient	1,0000multiplexer slope coefficient	1,0000fibre end	0,00T internal ref (°C)	14,27T ext. ref 1 (°C)	-1,03T ext. ref 2 (°C)	-1,05length (m)	temperature (°C)	Stokes	anti-Stokes-744,400	794,757	-0,202	-0,407
-743,385	457,996	-0,088	0,143
-742,371	800,000	-0,126	-0,262
-741,356	-200,000	0,011	0,225
-740,342	105,028	-0,148	-0,127
-739,327	-200,000	0,064	0,359
-738,312	145,289	-0,198	-0,193
-737,298	-200,000	-0,009	0,176
-736,283	307,084	-0,176	-0,240
-735,269	800,000	0,082	0,216
-734,254	186,113	-0,203	-0,219
-733,239	23,435	-0,128	0,077
-732,225	75,018	-0,323	-0,247
-731,210	9,339	0,187	-0,102
-730,196	-200,000	-0,018	-0,096
-729,181	226,455	-0,099	-0,117
-728,167	800,000	0,047	-0,148
-727,152	-37,421	-0,078	0,030
-726,137	800,000	-0,035	0,070
-725,123	-200,000	0,021	-0,110
-724,108	574,209	-0,054	-0,095
-723,094	-103,430	-0,070	0,012
-722,079	473,354	-0,115	-0,190
-721,064	35,668	-0,124	0,079
-720,050	47,193	0,064	0,043
-719,035	800,000	0,011	0,030
-718,021	-36,985	-0,038	0,015
-717,006	800,000	-0,061	-0,168
-715,991	-55,512	-0,042	0,014
-714,977	-97,197	0,083	0,016
-713,962	145,243	0,051	0,049
-712,948	-200,000	-0,041	-0,154
-711,933	800,000	-0,026	0,067
-710,918	5,261	-0,092	-0,049
-709,904	-200,000	0,029	-0,205
-708,889	214,760	-0,091	-0,105
-707,875	129,810	-0,082	-0,076
-706,860	-157,992	-0,066	0,003
-705,845	-36,940	0,112	0,043
-704,831	-5,484	0,042	-0,021
-703,816	-100,048	-0,172	-0,031
-702,802	-16,831	-0,065	-0,030
-701,787	77,984	-0,111	-0,086
-700,772	-200,000	-0,028	-0,166
-699,758	-16,614	0,058	0,026
-698,743	17,903	0,087	-0,050
-697,729	800,000	-0,041	-0,088
-696,714	736,120	-0,066	-0,129
-695,699	48,435	-0,042	-0,028
-694,685	203,032	-0,062	-0,070
-693,670	170,038	-0,119	-0,124
-692,656	-200,000	-0,003	-0,055
-691,641	356,847	-0,022	-0,033
-690,627	-200,000	-0,041	0,135
-689,612	-85,390	0,080	-0,018
-688,597	-200,000	-0,003	-0,034
-687,583	-69,504	-0,099	-0,027
-686,568	800,000	-0,037	-0,101
-685,554	-54,112	0,075	-0,025
-684,539	800,000	-0,050	-0,105
-683,524	-75,317	-0,075	-0,019
-682,510	800,000	-0,008	-0,015
-681,495	49,481	0,060	0,041
-680,481	-17,408	-0,162	-0,074
-679,466	278,242	0,029	0,038
-678,451	-200,000	-0,000	-0,103
-677,437	800,000	0,025	-0,068
-676,422	-31,686	-0,035	0,014
-675,408	132,304	-0,077	-0,072
-674,393	40,571	0,118	-0,077
-673,378	220,446	-0,097	-0,113
-672,364	188,645	-0,078	-0,085
-671,349	-32,147	0,056	-0,023
-670,335	-200,000	0,003	0,122
-669,320	77,210	0,026	-0,020
-668,305	-51,520	0,092	-0,031
-667,291	800,000	-0,021	-0,065
-666,276	800,000	0,023	0,063
-665,262	-5,408	-0,050	-0,025
-664,247	136,633	-0,066	0,062
-663,232	276,375	0,050	0,064
-662,218	800,000	0,044	-0,095
-661,203	192,091	0,112	0,122
-660,189	-102,156	-0,092	-0,016
-659,174	800,000	0,019	-0,044
-658,159	745,091	0,031	-0,060
-657,145	-200,000	-0,004	-0,051
-656,130	-186,052	0,111	0,001
-655,116	225,669	0,026	0,030
-654,101	-12,401	-0,016	0,008
-653,086	61,228	-0,159	-0,114
-652,072	126,854	-0,074	-0,068
-651,057	85,678	-0,095	0,076
-650,043	92,554	-0,062	-0,050
-649,028	-39,570	-0,118	0,045
-648,014	-74,397	0,160	0,042
-646,999	-200,000	0,004	-0,101
-645,984	21,007	-0,128	-0,075
-644,970	-200,000	0,007	0,049
-643,955	223,589	-0,109	-0,128
-642,941	-200,000	-0,004	-0,049
-641,926	-140,367	-0,063	-0,005
-640,911	127,204	-0,080	0,073
-639,897	12,572	-0,105	0,059
-638,882	67,115	0,046	0,034
-637,868	-200,000	-0,013	-0,048
-636,853	800,000	-0,026	-0,057
-635,838	800,000	-0,042	-0,117
-634,824	800,000	-0,055	-0,118
-633,809	-200,000	-0,029	0,197
-632,795	-200,000	-0,014	0,065
-631,780	-200,000	-0,028	-0,164
-630,765	800,000	0,014	-0,035
-629,751	282,656	0,048	-0,062
-628,736	-200,000	0,020	-0,150
-627,722	-200,000	-0,008	-0,035
-626,707	-200,000	0,018	0,065
-625,692	800,000	0,019	-0,051
-624,678	800,000	0,035	0,094
-623,663	211,480	-0,019	-0,021
-622,649	113,196	0,096	-0,084
-621,634	106,658	-0,059	-0,051
-620,619	-200,000	-0,005	0,095
-619,605	800,000	-0,026	-0,059
-618,590	53,379	0,061	0,042
-617,576	-100,720	-0,127	-0,023
-616,561	-101,949	0,079	-0,014
-615,546	-200,000	-0,042	-0,239
-614,532	-200,000	-0,019	-0,102
-613,517	-200,000	-0,007	-0,094
-612,503	792,460	-0,051	-0,103
-611,488	-200,000	0,024	-0,090
-610,474	-92,166	-0,177	-0,036
-609,459	-92,706	0,090	0,018
-608,444	121,165	0,068	0,062
-607,430	800,000	0,051	-0,139
-606,415	-36,224	-0,054	0,021
-605,401	-74,088	0,082	-0,021
-604,386	-32,136	0,112	0,045
-603,371	102,883	-0,097	0,082
-602,357	37,670	0,050	-0,032
-601,342	537,046	-0,055	-0,096
-600,328	-2,879	0,033	-0,016
-599,313	-200,000	-0,049	-0,192
-598,298	-169,405	-0,021	-0,001
-597,284	726,001	-0,018	-0,034
-596,269	320,074	0,049	-0,068
-595,255	-200,000	-0,004	0,033
-594,240	-200,000	-0,001	0,035
-593,225	287,066	-0,029	-0,039
-592,211	800,000	0,056	-0,126
-591,196	-154,520	-0,140	-0,007
-590,182	-67,752	0,115	0,032
-589,167	-69,242	-0,152	0,042
-588,152	-49,001	-0,074	0,026
-587,138	224,214	-0,043	-0,051
-586,123	53,717	-0,117	-0,081
-585,109	45,737	-0,033	-0,022
-584,094	800,000	-0,015	-0,046
-583,079	282,154	-0,052	-0,067
-582,065	-53,467	0,088	0,029
-581,050	407,389	0,068	-0,103
-580,036	223,992	0,041	-0,048
-579,021	62,657	0,021	0,015
-578,006	-53,021	0,058	0,019
-576,992	498,052	0,071	0,118
-575,977	-90,377	0,091	-0,019
-574,963	526,238	0,057	0,097
-573,948	-10,041	0,062	0,030
-572,934	336,865	0,051	-0,072
-571,919	19,496	-0,052	-0,030
-570,904	416,567	0,018	-0,028
-569,890	107,581	-0,065	-0,056
-568,875	-77,515	-0,007	-0,002
-567,861	-200,000	0,002	0,017
-566,846	-79,343	0,085	0,021
-565,831	-200,000	0,022	0,105
-564,817	-16,843	0,023	0,010
-563,802	800,000	0,036	-0,083
-562,788	161,749	-0,114	0,115
-561,773	800,000	0,057	-0,135
-560,758	-106,307	-0,096	0,015
-559,744	-200,000	0,017	0,080
-558,729	-53,043	-0,076	-0,025
-557,715	-102,720	-0,099	0,017
-556,700	130,109	0,100	0,092
-555,685	175,867	-0,041	-0,043
-554,671	28,969	-0,054	-0,033
-553,656	-200,000	-0,030	0,109
-552,642	16,738	0,070	0,040
-551,627	-9,838	-0,052	0,025
-550,612	-200,000	0,001	0,020
-549,598	800,000	0,005	-0,011
-548,583	-87,310	0,082	-0,018
-547,569	-47,586	-0,086	0,030
-546,554	-23,052	-0,084	0,037
-545,539	-200,000	-0,010	0,120
-544,525	-158,960	-0,050	0,002
-543,510	-200,000	0,000	-0,057
-542,496	6,867	-0,145	0,078
-541,481	496,989	-0,037	-0,061
-540,466	-85,634	0,099	-0,022
-539,452	679,136	-0,028	-0,053
-538,437	-93,699	0,019	-0,004
-537,423	15,532	0,090	0,051
-536,408	-200,000	0,017	-0,113
-535,393	-71,020	-0,020	-0,005
-534,379	321,626	-0,002	-0,003
-533,364	24,727	0,051	0,031
-532,350	-42,475	0,120	-0,044
-531,335	-200,000	0,001	0,087
-530,321	-200,000	-0,011	0,211
-529,306	32,562	-0,028	0,017
-528,291	237,478	0,097	0,116
-527,277	409,432	0,054	-0,083
-526,262	-38,050	-0,093	0,035
-525,248	206,903	0,100	-0,112
-524,233	118,458	-0,040	0,035
-523,218	800,000	0,019	0,057
-522,204	-142,135	0,029	0,002
-521,189	247,653	-0,116	-0,142
-520,175	306,396	-0,145	-0,195
-519,160	396,062	0,084	-0,127
-518,145	527,997	-0,067	-0,114
-517,131	647,824	0,038	0,071
-516,116	-200,000	0,014	-0,145
-515,102	-200,000	-0,001	-0,025
-514,087	-200,000	0,005	-0,124
-513,072	466,986	-0,033	-0,053
-512,058	800,000	-0,025	0,059
-511,043	207,998	0,022	-0,025
-510,029	-200,000	-0,017	0,093
-509,014	113,526	-0,070	0,062
-507,999	-93,089	0,114	-0,023
-506,985	-200,000	-0,016	-0,159
-505,970	499,952	-0,017	0,029
-504,956	180,722	-0,056	-0,059
-503,941	-200,000	0,004	0,013
-502,926	109,718	0,120	0,104
-501,912	800,000	0,061	0,132
-500,897	218,975	0,063	0,072
-499,883	800,000	-0,021	-0,050
-498,868	-113,170	-0,072	0,010
-497,853	-200,000	-0,011	-0,069
-496,839	279,700	-0,080	-0,103
-495,824	-69,244	0,056	0,016
-494,810	800,000	-0,042	-0,116
-493,795	-200,000	-0,022	0,112
-492,781	-45,023	-0,033	-0,012
-491,766	641,373	0,094	-0,174
-490,751	676,342	-0,082	-0,154
-489,737	-200,000	-0,010	0,137
-488,722	-200,000	-0,025	0,093
-487,708	-85,718	0,114	0,025
-486,693	-50,382	-0,041	-0,014
-485,678	169,015	-0,021	-0,022
-484,664	626,411	-0,075	-0,138
-483,649	24,175	-0,066	-0,039
-482,635	800,000	-0,031	0,088
-481,620	545,151	-0,031	-0,054
-480,605	-28,537	0,126	-0,052
-479,591	366,766	-0,100	0,146
-478,576	-200,000	-0,003	-0,040
-477,562	386,017	0,043	0,064
-476,547	-81,651	-0,074	0,017
-475,532	33,187	-0,028	0,017
-474,518	200,478	0,092	0,102
-473,503	-39,142	0,092	0,035
-472,489	-200,000	0,014	-0,167
-471,474	155,927	0,132	0,131
-470,459	800,000	0,017	-0,052
-469,445	-200,000	-0,001	-0,003
-468,430	800,000	0,073	-0,191
-467,416	33,332	0,111	-0,069
-466,401	48,763	-0,071	0,048
-465,386	-200,000	0,003	-0,071
-464,372	800,000	0,031	0,098
-463,357	-115,112	-0,048	0,006
-462,343	-34,966	0,082	-0,032
-461,328	-71,755	-0,134	0,036
-460,313	-50,966	0,171	0,058
-459,299	71,947	0,088	-0,066
-458,284	-200,000	0,002	0,189
-457,270	-200,000	0,023	0,130
-456,255	109,085	-0,051	0,044
-455,241	-35,133	-0,054	-0,021
-454,226	398,414	0,026	-0,039
-453,211	115,419	0,098	0,086
-452,197	123,130	0,181	0,163
-451,182	40,511	0,059	0,038
-450,168	-69,232	0,107	0,029
-449,153	188,488	0,044	0,047
-448,138	515,005	0,087	0,147
-447,124	-79,638	-0,065	-0,016
-446,109	128,365	-0,039	0,036
-445,095	346,499	-0,059	0,083
-444,080	-104,445	-0,032	-0,005
-443,065	302,312	0,011	0,015
-442,051	174,932	-0,102	0,106
-441,036	68,259	-0,073	-0,054
-440,022	317,691	-0,101	-0,138
-439,007	22,942	-0,113	0,066
-437,992	-118,282	0,179	0,023
-436,978	171,942	0,017	0,018
-435,963	108,879	-0,064	-0,055
-434,949	121,032	0,074	-0,066
-433,934	388,438	-0,036	-0,054
-432,919	-200,000	-0,001	-0,088
-431,905	16,555	-0,023	0,013
-430,890	12,869	0,132	-0,073
-429,876	78,860	-0,044	0,034
-428,861	161,498	0,129	0,129
-427,846	-200,000	-0,003	0,110
-426,832	-23,009	-0,161	-0,069
-425,817	-41,162	-0,047	-0,017
-424,803	-200,000	0,003	0,049
-423,788	-126,946	0,094	-0,010
-422,773	-200,000	0,020	-0,070
-421,759	125,776	0,073	-0,067
-420,744	-200,000	0,022	0,187
-419,730	-200,000	0,005	0,049
-418,715	-109,484	-0,008	0,001
-417,701	-200,000	-0,013	0,113
-416,686	-89,402	0,080	-0,017
-415,671	-200,000	0,022	0,076
-414,657	10,217	0,069	-0,038
-413,642	-200,000	0,031	0,124
-412,628	260,663	0,013	-0,017
-411,613	87,966	0,035	-0,028
-410,598	395,450	-0,026	-0,039
-409,584	-200,000	-0,015	0,093
-408,569	-45,540	-0,074	0,026
-407,555	-89,968	0,104	0,022
-406,540	82,675	0,102	-0,080
-405,525	334,390	-0,047	0,066
-404,511	800,000	-0,006	-0,017
-403,496	-200,000	0,012	-0,243
-402,482	296,398	-0,055	0,073
-401,467	-108,789	-0,099	0,015
-400,452	-200,000	-0,004	-0,097
-399,438	631,816	0,063	0,116
-398,423	-200,000	-0,017	-0,129
-397,409	-185,853	0,083	-0,001
-396,394	-158,348	-0,062	0,003
-395,379	515,464	-0,070	-0,118
-394,365	320,930	0,068	0,093
-393,350	800,000	0,046	-0,122
-392,336	80,826	-0,063	0,048
-391,321	-200,000	0,021	-0,128
-390,306	45,593	-0,099	0,066
-389,292	800,000	-0,056	-0,119
-388,277	-160,691	-0,088	0,003
-387,263	800,000	0,043	0,114
-386,248	87,713	0,097	0,077
-385,233	-200,000	0,007	0,039
-384,219	-200,000	0,009	-0,034
-383,204	-200,000	-0,015	-0,068
-382,190	129,310	0,106	-0,097
-381,175	215,931	0,064	-0,073
-380,160	-200,000	0,007	0,033
-379,146	-200,000	0,015	0,053
-378,131	800,000	-0,048	0,145
-377,117	-66,692	-0,133	0,038
-376,102	536,997	-0,011	0,018
-375,088	-200,000	0,006	-0,059
-374,073	-200,000	0,008	0,037
-373,058	-200,000	-0,033	0,110
-372,044	333,019	0,085	0,118
-371,029	-200,000	0,022	0,088
-370,015	46,734	-0,074	0,050
-369,000	164,127	-0,026	-0,026
-367,985	-128,997	-0,196	0,019
-366,971	434,507	0,024	-0,037
-365,956	-200,000	-0,020	0,182
-364,942	800,000	-0,012	-0,038
-363,927	-144,610	0,125	-0,008
-362,912	-200,000	-0,022	-0,071
-361,898	-200,000	0,081	0,000
-360,883	-36,260	0,104	-0,040
-359,869	-200,000	-0,010	0,044
-358,854	-200,000	-0,014	-0,094
-357,839	581,048	-0,043	-0,075
-356,825	-90,239	0,060	-0,012
-355,810	249,309	-0,031	-0,037
-354,796	305,697	0,098	-0,131
-353,781	32,962	-0,099	0,061
-352,766	-75,675	0,172	-0,043
-351,752	1,520	0,148	0,076
-350,737	-109,748	-0,073	-0,011
-349,723	-200,000	0,003	0,182
-348,708	-200,000	-0,027	0,175
-347,693	39,149	0,071	0,046
-346,679	348,204	-0,038	-0,053
-345,664	464,004	0,102	-0,163
-344,650	800,000	0,080	0,179
-343,635	449,101	0,030	0,047
-342,620	800,000	0,037	0,111
-341,606	-63,784	-0,184	0,054
-340,591	-5,816	0,093	0,046
-339,577	-200,000	-0,025	-0,110
-338,562	-135,777	-0,063	-0,005
-337,548	800,000	0,037	-0,077
-336,533	8,777	-0,032	0,017
-335,518	509,423	0,035	0,059
-334,504	-200,000	-0,005	0,117
-333,489	-142,738	0,042	0,003
-332,475	6,818	-0,063	-0,033
-331,460	-100,988	0,131	0,023
-330,445	137,919	-0,073	0,068
-329,431	782,336	0,106	0,209
-328,416	26,938	-0,094	0,056
-327,402	800,000	0,033	0,101
-326,387	-200,000	-0,002	-0,100
-325,372	12,716	-0,138	-0,076
-324,358	800,000	0,029	-0,074
-323,343	11,532	-0,035	-0,019
-322,329	-200,000	-0,002	-0,073
-321,314	-25,508	0,034	-0,015
-320,299	-200,000	-0,001	0,005
-319,285	-151,605	-0,078	0,004
-318,270	190,036	0,061	-0,065
-317,256	22,263	-0,133	-0,078
-316,241	209,749	-0,033	-0,037
-315,226	24,452	0,126	-0,075
-314,212	6,810	0,041	0,022
-313,197	138,159	0,075	0,070
-312,183	800,000	0,076	-0,156
-311,168	-200,000	0,031	-0,133
-310,153	-93,540	-0,012	0,002
-309,139	404,233	-0,068	-0,102
-308,124	800,000	0,041	-0,104
-307,110	800,000	-0,006	-0,013
-306,095	-200,000	0,028	0,107
-305,080	-200,000	0,013	-0,150
-304,066	-200,000	0,006	0,027
-303,051	317,644	-0,050	-0,068
-302,037	358,146	-0,057	-0,082
-301,022	157,325	0,042	-0,042
-300,008	-118,806	0,144	-0,018
-298,993	-107,154	0,079	0,012
-297,978	-200,000	-0,026	0,091
-296,964	-200,000	0,010	-0,090
-295,949	354,437	-0,091	-0,129
-294,935	2,019	0,058	-0,030
-293,920	-6,993	0,102	-0,049
-292,905	320,069	0,070	-0,096
-291,891	249,223	-0,048	-0,059
-290,876	-150,816	0,128	-0,007
-289,862	302,492	0,081	-0,107
-288,847	-200,000	-0,014	0,046
-287,832	13,528	-0,100	-0,055
-286,818	344,512	0,068	0,095
-285,803	-172,004	0,047	-0,001
-284,789	800,000	-0,036	0,112
-283,774	-200,000	-0,023	-0,150
-282,759	-200,000	-0,005	-0,171
-281,745	75,754	0,097	-0,073
-280,730	-200,000	-0,006	-0,233
-279,716	331,263	0,030	-0,041
-278,701	-111,093	0,174	-0,025
-277,686	208,360	-0,040	0,044
-276,672	-200,000	0,010	-0,054
-275,657	757,810	-0,011	-0,021
-274,643	180,762	-0,086	0,090
-273,628	-200,000	-0,031	-0,144
-272,613	-71,967	0,130	-0,034
-271,599	22,992	-0,032	0,019
-270,584	-200,000	0,048	0,169
-269,570	303,022	0,075	0,099
-268,555	-200,000	-0,012	0,079
-267,540	800,000	-0,018	0,040
-266,526	-200,000	0,003	-0,026
-265,511	262,931	-0,074	0,092
-264,497	-200,000	0,022	0,088
-263,482	-63,184	0,134	0,039
-262,467	367,084	0,017	-0,024
-261,453	-200,000	0,012	0,157
-260,438	279,385	-0,088	0,112
-259,424	-200,000	-0,009	0,110
-258,409	171,295	0,065	-0,067
-257,395	-75,135	0,131	-0,033
-256,380	-76,625	-0,171	0,043
-255,365	-200,000	-0,011	0,075
-254,351	-54,968	-0,023	-0,007
-253,336	-200,000	0,015	-0,193
-252,322	800,000	-0,046	-0,098
-251,307	-113,565	-0,173	0,024
-250,292	800,000	0,095	-0,196
-249,278	-200,000	0,001	0,096
-248,263	295,462	0,029	0,038
-247,249	-200,000	-0,012	0,084
-246,234	800,000	0,022	0,062
-245,219	41,958	-0,147	-0,095
-244,205	-200,000	0,010	-0,086
-243,190	800,000	0,042	-0,100
-242,176	543,198	0,044	0,075
-241,161	-200,000	-0,043	0,217
-240,146	49,702	-0,060	0,040
-239,132	-145,768	0,086	0,005
-238,117	-200,000	0,008	0,146
-237,103	114,953	-0,114	-0,099
-236,088	-200,000	0,012	0,040
-235,073	-200,000	-0,021	0,110
-234,059	-26,317	-0,086	0,036
-233,044	800,000	0,016	0,045
-232,030	800,000	-0,053	0,132
-231,015	-115,952	-0,040	-0,005
-230,000	684,311	-0,023	-0,044
-228,986	-97,377	-0,060	-0,011
-227,971	79,873	-0,078	-0,060
-226,957	-200,000	-0,012	0,141
-225,942	-14,686	-0,067	0,031
-224,927	-200,000	-0,022	0,216
-223,913	14,054	-0,051	-0,028
-222,898	-200,000	-0,036	-0,138
-221,884	-200,000	0,025	-0,104
-220,869	800,000	-0,052	0,130
-219,855	-200,000	0,011	0,089
-218,840	478,515	-0,041	0,066
-217,825	-9,495	-0,075	0,036
-216,811	-148,131	-0,056	-0,003
-215,796	-200,000	0,010	-0,065
-214,782	-71,237	0,046	0,012
-213,767	-42,830	-0,123	0,044
-212,752	-200,000	0,014	-0,070
-211,738	185,009	0,036	0,038
-210,723	0,805	-0,072	-0,037
-209,709	133,563	-0,039	0,036
-208,694	89,553	-0,074	0,059
-207,679	800,000	0,054	-0,124
-206,665	134,121	-0,012	-0,011
-205,650	126,488	0,078	0,070
-204,636	-200,000	-0,028	0,124
-203,621	-8,814	0,114	0,054
-202,606	7,294	0,102	0,054
-201,592	285,884	-0,043	-0,055
-200,577	-135,070	-0,085	-0,007
-199,563	81,740	-0,130	-0,100
-198,548	235,284	0,074	0,087
-197,533	352,154	0,059	0,083
-196,519	-36,917	-0,078	0,030
-195,504	279,284	-0,068	0,086
-194,490	-89,327	-0,045	0,009
-193,475	-147,203	-0,031	-0,002
-192,460	800,000	0,026	-0,078
-191,446	800,000	-0,039	-0,082
-190,431	-95,328	-0,067	-0,013
-189,417	232,677	0,051	0,060
-188,402	-19,161	-0,089	0,039
-187,387	-200,000	-0,021	-0,177
-186,373	800,000	-0,044	-0,117
-185,358	800,000	0,046	0,114
-184,344	800,000	-0,064	0,145
-183,329	-44,814	-0,028	-0,010
-182,315	-9,170	-0,148	0,070
-181,300	-200,000	0,005	0,100
-180,285	60,471	-0,011	0,008
-179,271	-147,860	-0,080	-0,005
-178,256	-200,000	-0,001	-0,023
-177,242	776,567	0,057	0,111
-176,227	54,278	0,182	-0,124
-175,212	-84,376	0,124	0,028
-174,198	-10,995	-0,091	0,043
-173,183	476,328	0,020	-0,033
-172,169	384,603	-0,059	-0,087
-171,154	746,251	-0,026	-0,050
-170,139	-200,000	-0,009	0,049
-169,125	110,498	0,063	-0,054
-168,110	-200,000	0,005	-0,067
-167,096	35,859	-0,084	0,052
-166,081	116,798	0,024	0,021
-165,066	800,000	-0,012	-0,029
-164,052	800,000	0,036	0,108
-163,037	427,638	-0,029	0,045
-162,023	-200,000	-0,008	0,056
-161,008	-200,000	0,021	0,115
-159,993	-200,000	-0,045	0,193
-158,979	195,498	0,065	-0,070
-157,964	359,788	0,046	0,065
-156,950	168,547	0,073	0,074
-155,935	537,910	0,036	0,061
-154,920	50,637	-0,016	0,011
-153,906	-61,200	-0,125	-0,037
-152,891	784,628	0,056	0,110
-151,877	431,727	0,076	0,118
-150,862	73,258	-0,102	0,076
-149,847	-41,032	-0,058	-0,021
-148,833	-200,000	0,026	-0,134
-147,818	11,728	0,046	-0,025
-146,804	380,482	-0,053	0,078
-145,789	800,000	-0,027	0,075
-144,775	-200,000	0,010	0,096
-143,760	7,933	-0,068	-0,036
-142,745	-200,000	-0,016	0,069
-141,731	800,000	-0,088	0,216
-140,716	5,429	0,137	0,072
-139,702	196,511	0,122	0,132
-138,687	-106,311	-0,130	-0,020
-137,672	-72,502	-0,037	-0,010
-136,658	145,581	0,056	0,053
-135,643	800,000	-0,056	0,147
-134,629	75,044	-0,075	0,056
-133,614	-200,000	0,011	0,119
-132,599	102,455	0,044	0,036
-131,585	-200,000	0,012	0,106
-130,570	-200,000	0,016	-0,142
-129,556	800,000	-0,041	-0,107
-128,541	-141,374	0,024	0,002
-127,526	-200,000	-0,001	0,049
-126,512	110,255	-0,022	-0,019
-125,497	158,719	0,014	-0,014
-124,483	116,526	-0,067	0,058
-123,468	-143,197	0,122	0,008
-122,453	-69,501	-0,072	-0,019
-121,439	135,085	-0,055	-0,051
-120,424	49,235	0,052	-0,035
-119,410	-96,041	0,080	-0,015
-118,395	-200,000	0,007	0,107
-117,380	-200,000	0,017	0,060
-116,366	98,619	-0,086	0,071
-115,351	-14,787	-0,053	-0,024
-114,337	-111,262	-0,154	-0,022
-113,322	800,000	0,034	-0,082
-112,307	-200,000	0,001	-0,040
-111,293	800,000	-0,025	0,071
-110,278	-99,936	0,027	0,005
-109,264	414,123	0,052	0,079
-108,249	143,711	0,027	0,026
-107,234	4,358	0,083	0,043
-106,220	-171,348	0,164	-0,004
-105,205	-200,000	-0,012	0,039
-104,191	-200,000	0,058	0,192
-103,176	247,069	0,071	0,085
-102,162	29,340	-0,114	0,068
-101,147	-200,000	-0,007	0,062
-100,132	-147,453	-0,072	-0,004
-99,118	162,819	-0,044	0,044
-98,103	-200,000	0,055	0,000
-97,089	-153,587	0,152	-0,007
-96,074	-0,848	-0,064	-0,032
-95,059	657,800	0,097	0,177
-94,045	-200,000	-0,015	0,093
-93,030	-76,133	-0,174	-0,043
-92,016	-200,000	0,005	0,089
-91,001	-200,000	-0,028	-0,127
-89,986	109,508	0,080	-0,068
-88,972	-19,229	0,021	0,009
-87,957	271,157	-0,051	0,063
-86,943	275,263	-0,060	-0,076
-85,928	-130,971	-0,057	0,005
-84,913	800,000	-0,053	-0,152
-83,899	454,309	-0,081	0,127
-82,884	-14,499	-0,063	-0,029
-81,870	800,000	0,041	0,104
-80,855	690,731	0,003	0,006
-79,840	-200,000	-0,046	0,164
-78,826	157,149	0,101	0,099
-77,811	800,000	0,020	-0,057
-76,797	53,982	0,012	-0,008
-75,782	-74,103	-0,054	0,014
-74,767	-73,799	0,146	0,037
-73,753	800,000	-0,010	0,029
-72,738	-150,098	-0,072	0,004
-71,724	-200,000	0,008	0,069
-70,709	128,619	0,043	-0,039
-69,694	800,000	-0,034	-0,077
-68,680	-171,757	-0,067	0,002
-67,665	-15,807	0,055	0,025
-66,651	153,386	0,032	0,031
-65,636	800,000	-0,010	-0,024
-64,622	-182,097	-0,108	0,001
-63,607	-200,000	-0,009	-0,062
-62,592	-200,000	0,019	-0,075
-61,578	-9,894	-0,074	0,035
-60,563	-90,043	0,114	-0,023
-59,549	-200,000	-0,001	0,108
-58,534	-46,751	-1,599	-0,551
-57,519	431,092	-1,388	-2,136
-56,505	-200,000	-0,650	-4,642
-55,490	202,547	0,931	1,019
-54,476	800,000	4,889	11,485
-53,461	-200,000	18,526	302,464
-52,446	800,000	735,139	2279,806
-51,432	563,391	1651,317	2842,752
-50,417	78,831	1669,452	1263,839
-49,403	22,212	1542,613	889,790
-48,388	16,175	1465,135	815,783
-47,373	17,759	1455,253	817,897
-46,359	16,923	1445,469	808,361
-45,344	14,379	1441,099	793,705
-44,330	14,334	1439,030	792,321
-43,315	14,328	1437,165	791,232
-42,300	14,339	1435,678	790,437
-41,286	14,371	1434,550	789,936
-40,271	14,415	1433,014	789,269
-39,257	14,387	1431,808	788,438
-38,242	14,364	1430,806	787,745
-37,227	14,349	1429,669	787,019
-36,213	14,400	1428,153	786,395
-35,198	14,407	1426,939	785,726
-34,184	14,444	1426,129	785,424
-33,169	14,381	1424,668	784,291
-32,154	14,419	1423,587	783,846
-31,140	14,397	1422,421	783,066
-30,125	14,399	1421,290	782,422
-29,111	14,343	1420,133	781,493
-28,096	14,383	1418,923	780,983
-27,082	14,300	1417,958	780,029
-26,067	14,303	1416,762	779,355
-25,052	14,321	1415,760	778,856
-24,038	14,276	1414,967	778,181
-23,023	14,255	1413,823	777,422
-22,009	14,304	1412,826	777,071
-20,994	14,293	1411,995	776,532
-19,979	14,238	1411,084	775,740
-18,965	14,269	1410,204	775,373
-17,950	14,254	1409,136	774,683
-16,936	14,171	1408,434	773,877
-15,921	14,193	1407,237	773,295
-14,906	14,220	1406,283	772,865
-13,892	14,257	1405,199	772,412
-12,877	14,229	1404,413	771,817
-11,863	14,156	1403,714	771,061
-10,848	14,194	1402,681	770,642
-9,833	14,153	1401,666	769,861
-8,819	14,076	1401,069	769,146
-7,804	14,109	1400,133	768,754
-6,790	14,162	1398,786	768,232
-5,775	14,091	1397,807	767,335
-4,760	14,087	1397,044	766,868
-3,746	14,089	1396,145	766,349
-2,731	14,129	1395,280	766,030
-1,717	14,096	1394,417	765,373
-0,702	14,098	1392,623	764,368
0,313	18,000	1310,555	737,389
1,327	34,357	705,719	434,953
2,342	52,914	123,880	83,732
3,356	2,574	16,567	8,466
4,371	-0,939	3,167	1,581
5,386	-53,577	0,627	0,202
6,400	-200,000	0,040	0,160
7,415	180,009	-0,245	-0,254
8,429	8,748	-0,340	-0,181
9,444	57,148	-0,337	-0,232
10,459	30,309	-0,204	-0,123
11,473	63,358	-0,136	-0,096
12,488	42,759	-0,253	-0,163
13,502	3,452	-0,467	-0,240
14,517	-52,251	-0,358	-0,117
15,531	39,134	-0,290	-0,183
16,546	39,360	-0,432	-0,273
17,561	52,251	-0,407	-0,274
18,575	-114,567	-0,227	-0,030
19,590	75,860	-0,353	-0,263
20,604	-7,242	-0,263	-0,125
21,619	55,251	-0,544	-0,371
22,634	72,925	-0,338	-0,249
23,648	236,281	-0,355	-0,415
24,663	101,542	-0,367	-0,302
25,677	155,147	-0,267	-0,260
26,692	165,007	-0,284	-0,283
27,707	14,665	-0,267	-0,147
28,721	-49,271	-0,445	-0,149
29,736	53,669	-0,429	-0,290
30,750	114,633	-0,383	-0,330
31,765	-85,461	-0,351	-0,077
32,780	136,707	-0,279	-0,257
33,794	191,129	-0,215	-0,229
34,809	89,575	-0,393	-0,309
35,823	48,041	-0,366	-0,241
36,838	135,547	-0,302	-0,278
37,853	47,040	-0,390	-0,255
38,867	-47,163	-0,577	-0,197
39,882	285,009	-0,219	-0,279
40,896	-18,214	-0,334	-0,147
41,911	27,866	-0,291	-0,172
42,926	9,937	-0,459	-0,245
43,940	34,803	-0,308	-0,190
44,955	292,690	-0,276	-0,356
45,969	211,559	-0,284	-0,316
46,984	178,872	-0,329	-0,339
47,999	194,396	-0,281	-0,301
49,013	93,837	-0,270	-0,215
50,028	72,193	-0,340	-0,249
51,042	-71,276	-0,419	-0,110
52,057	85,145	-0,336	-0,259
53,071	93,968	-0,412	-0,329
54,086	124,179	-0,313	-0,277
55,101	154,800	-0,346	-0,335
56,115	48,963	-0,464	-0,306
57,130	83,416	-0,303	-0,233
58,144	152,284	-0,400	-0,385
59,159	6,464	-0,516	-0,269
60,174	-7,538	-0,403	-0,191
61,188	166,939	-0,216	-0,216
62,203	186,615	-0,302	-0,317
63,217	198,655	-0,303	-0,327
64,232	-21,784	-0,346	-0,148
65,247	67,521	-0,399	-0,287
66,261	111,082	-0,266	-0,225
67,276	81,087	-0,312	-0,237
68,290	-13,550	-0,334	-0,152
69,305	133,122	-0,257	-0,234
70,320	123,516	-0,295	-0,260
71,334	430,082	-0,205	-0,314
72,349	-7,688	-0,383	-0,182
73,363	105,579	-0,251	-0,209
74,378	247,746	-0,197	-0,235
75,393	186,036	-0,307	-0,322
76,407	67,607	-0,328	-0,235
77,422	-23,308	-0,363	-0,153
78,436	185,350	-0,134	-0,140
79,451	192,242	-0,292	-0,310
80,466	17,001	-0,482	-0,268
81,480	88,102	-0,309	-0,241
82,495	177,533	-0,233	-0,239
83,509	139,998	-0,238	-0,221
84,524	240,997	-0,165	-0,194
85,539	192,668	-0,302	-0,321
86,553	-60,215	-0,260	-0,077
87,568	228,751	-0,185	-0,213
88,582	81,328	-0,239	-0,181
89,597	-36,502	-0,355	-0,134
90,611	89,640	-0,270	-0,211
91,626	56,349	-0,142	-0,097
92,641	44,655	-0,397	-0,256
93,655	87,844	-0,263	-0,205
94,670	210,365	-0,236	-0,260
95,684	63,684	-0,161	-0,113
96,699	2,042	-0,289	-0,146
97,714	320,205	-0,151	-0,202
98,728	-63,103	-0,260	-0,075
99,743	208,581	-0,161	-0,177
100,757	-45,371	-0,398	-0,138
101,772	1,141	-0,250	-0,126
102,787	11,882	-0,349	-0,188
103,801	19,252	-0,356	-0,200
104,816	127,920	-0,214	-0,191
105,830	-6,252	-0,289	-0,138
106,845	81,575	-0,177	-0,134
107,860	183,345	-0,191	-0,198
108,874	758,394	-0,141	-0,270
109,889	66,084	-0,296	-0,210
110,903	41,396	-0,348	-0,220
111,918	145,910	-0,283	-0,266
112,933	47,409	-0,242	-0,158
113,947	2,051	-0,262	-0,132
114,962	800,000	-0,142	-0,327
115,976	-25,826	-0,317	-0,130
116,991	327,732	-0,143	-0,192
118,006	9,836	-0,275	-0,146
119,020	174,335	-0,228	-0,231
120,035	-126,505	-0,227	0,023
121,049	102,226	-0,219	-0,179
122,064	362,674	-0,184	-0,260
123,079	-63,245	-0,262	-0,075
124,093	22,606	-0,330	-0,189
125,108	166,458	-0,316	-0,313
126,122	-59,963	-0,327	-0,097
127,137	46,347	-0,215	-0,139
128,151	61,090	-0,213	-0,148
129,166	645,648	-0,090	-0,162
130,181	57,001	-0,389	-0,265
131,195	-90,579	-0,351	-0,070
132,210	229,792	-0,175	-0,200
133,224	484,295	-0,192	-0,306
134,239	-22,557	-0,174	-0,073
135,254	34,100	-0,201	-0,122
136,268	43,324	-0,295	-0,188
137,283	114,510	-0,252	-0,215
138,297	74,601	-0,252	-0,185
139,312	275,663	-0,198	-0,246
140,327	62,265	-0,240	-0,167
141,341	5,339	-0,234	-0,120
142,356	145,454	-0,203	-0,190
143,370	-11,599	-0,294	-0,134
144,385	319,134	-0,198	-0,263
145,400	128,572	-0,206	-0,183
146,414	73,969	-0,357	-0,261
147,429	63,198	-0,335	-0,234
148,443	31,639	-0,202	-0,121
149,458	274,279	-0,113	-0,140
150,473	-54,870	-0,163	-0,051
151,487	107,661	-0,149	-0,124
152,502	218,250	-0,170	-0,190
153,516	-4,518	-0,336	-0,161
154,531	-40,312	-0,444	-0,160
155,546	208,686	-0,187	-0,205
156,560	208,783	-0,212	-0,232
157,575	-33,175	-0,228	-0,088
158,589	60,266	-0,145	-0,100
159,604	-52,098	-0,183	-0,059
160,619	83,651	-0,312	-0,237
161,633	54,003	-0,307	-0,206
162,648	67,056	-0,312	-0,221
163,662	323,715	-0,107	-0,142
164,677	13,402	-0,259	-0,140
165,692	35,140	-0,173	-0,105
166,706	-28,311	-0,223	-0,089
167,721	5,276	-0,316	-0,162
168,735	196,873	-0,104	-0,111
169,750	-2,091	-0,280	-0,137
170,764	19,079	-0,327	-0,182
171,779	-45,808	-0,199	-0,068
172,794	-6,323	-0,230	-0,109
173,808	132,803	-0,211	-0,190
174,823	112,979	-0,237	-0,200
175,837	-53,622	-0,291	-0,092
176,852	48,740	-0,164	-0,107
177,867	562,593	-0,174	-0,295
178,881	-10,999	-0,290	-0,133
179,896	128,137	-0,250	-0,222
180,910	93,918	-0,151	-0,119
181,925	-2,502	-0,175	-0,085
182,940	253,970	-0,196	-0,234
183,954	5,330	-0,193	-0,099
184,969	33,463	-0,301	-0,182
185,983	-59,328	-0,221	-0,066
186,998	-27,544	-0,194	-0,078
188,013	-63,397	-0,167	0,047
189,027	141,913	-0,104	-0,096
190,042	47,944	-0,258	-0,168
191,056	35,587	-0,225	-0,137
192,071	68,871	-0,201	-0,143
193,086	93,271	-0,156	-0,123
194,100	23,432	-0,199	-0,114
195,115	369,666	-0,096	-0,136
196,129	800,000	-0,096	-0,253
197,144	81,300	-0,194	-0,146
198,159	249,184	-0,141	-0,167
199,173	562,310	-0,182	-0,308
200,188	88,548	-0,291	-0,225
201,202	19,231	-0,234	-0,130
202,217	-139,297	-0,272	-0,020
203,232	128,812	-0,275	-0,244
204,246	153,367	-0,257	-0,245
205,261	198,919	-0,170	-0,181
206,275	800,000	-0,115	-0,229
207,290	91,742	-0,133	-0,104
208,304	-94,610	-0,095	-0,018
209,319	102,764	-0,194	-0,158
210,334	800,000	-0,156	-0,364
211,348	123,888	-0,203	-0,177
212,363	262,498	-0,198	-0,240
213,377	-42,446	-0,198	-0,070
214,392	461,909	-0,091	-0,141
215,407	38,609	-0,285	-0,176
216,421	268,582	-0,090	-0,110
217,436	800,000	-0,121	-0,335
218,450	96,700	-0,267	-0,212
219,465	135,660	-0,194	-0,176
220,480	-5,179	-0,181	-0,086
221,494	211,020	-0,090	-0,099
222,509	-65,896	-0,202	-0,056
223,523	39,272	-0,173	0,107
224,538	-25,594	-0,109	-0,044
225,553	37,292	-0,192	-0,118
226,567	9,224	-0,264	-0,138
227,582	-0,484	-0,193	-0,095
228,596	233,281	-0,098	-0,112
229,611	-16,548	-0,128	-0,056
230,626	-28,260	-0,309	-0,123
231,640	-78,583	-0,142	-0,033
232,655	7,639	-0,324	-0,168
233,669	-17,498	-0,226	-0,098
234,684	35,036	-0,196	-0,119
235,699	355,526	-0,150	-0,207
236,713	-47,960	-0,313	-0,104
237,728	216,270	-0,118	-0,131
238,742	-82,165	-0,113	-0,025
239,757	-36,519	-0,245	-0,091
240,772	198,675	-0,202	-0,214
241,786	160,633	-0,236	-0,228
242,801	145,299	-0,205	-0,191
243,815	289,939	-0,163	-0,206
244,830	-95,259	-0,165	-0,030
245,844	90,665	-0,204	-0,158
246,859	208,190	-0,202	-0,219
247,874	23,341	-0,264	-0,150
248,888	111,471	-0,243	-0,203
249,903	68,545	-0,212	-0,150
250,917	116,540	-0,192	-0,163
251,932	95,989	-0,166	-0,131
252,947	128,431	-0,115	-0,101
253,961	-40,722	-0,124	-0,044
254,976	161,013	-0,153	-0,148
255,990	-130,328	-0,275	-0,025
257,005	-48,210	-0,213	-0,071
258,020	123,848	-0,229	-0,199
259,034	-159,460	-0,198	-0,007
260,049	25,322	-0,216	-0,124
261,063	800,000	-0,103	-0,224
262,078	-92,197	-0,165	-0,032
263,093	-3,851	-0,192	-0,092
264,107	160,922	-0,148	-0,143
265,122	154,901	-0,219	-0,209
266,136	-18,151	-0,079	-0,034
267,151	300,310	-0,204	-0,260
268,166	128,472	-0,147	-0,130
269,180	105,925	-0,230	-0,188
270,195	-57,109	-0,195	-0,059
271,209	-22,883	-0,244	-0,101
272,224	-172,035	-0,276	-0,006
273,239	800,000	-0,059	-0,116
274,253	-72,092	-0,179	-0,046
275,268	800,000	-0,046	-0,094
276,282	800,000	-0,082	-0,207
277,297	600,878	-0,095	-0,164
278,312	-142,545	-0,163	-0,011
279,326	800,000	-0,063	-0,169
280,341	-17,618	-0,179	-0,077
281,355	-29,495	-0,198	-0,078
282,370	96,745	-0,157	-0,124
283,384	75,439	-0,173	-0,126
284,399	15,158	-0,223	-0,121
285,414	309,303	-0,112	-0,145
286,428	42,268	-0,179	0,112
287,443	-101,959	-0,125	0,021
288,457	145,499	-0,060	-0,056
289,472	40,611	-0,212	-0,132
290,487	48,999	-0,171	-0,111
291,501	55,086	-0,182	-0,121
292,516	222,652	-0,138	-0,153
293,530	-12,244	-0,176	-0,079
294,545	-121,788	-0,141	0,016
295,560	800,000	-0,095	-0,194
296,574	427,794	-0,116	-0,173
297,589	33,774	-0,119	-0,071
298,603	218,004	-0,109	-0,120
299,618	-0,607	-0,163	0,080
300,633	149,488	-0,141	-0,132
301,647	-167,800	-0,164	-0,004
302,662	473,440	-0,075	0,118
303,676	146,600	-0,123	-0,114
304,691	-31,065	-0,135	-0,052
305,706	563,431	-0,189	-0,316
306,720	-200,000	0,000	-0,162
307,735	-116,689	-0,114	0,014
308,749	314,840	-0,035	-0,046
309,764	-125,455	-0,129	-0,013
310,779	213,455	-0,102	-0,111
311,793	-200,000	-0,054	-0,188
312,808	167,515	-0,217	-0,212
313,822	4,003	-0,166	-0,083
314,837	-200,000	-0,020	-0,066
315,852	-37,247	-0,142	0,052
316,866	-82,771	-0,179	-0,039
317,881	-146,841	-0,157	0,009
318,895	228,359	-0,156	-0,175
319,910	-190,058	-0,183	0,001
320,925	29,257	-0,128	-0,075
321,939	-200,000	-0,064	-0,223
322,954	-200,000	0,001	-0,094
323,968	-200,000	-0,007	-0,070
324,983	-131,788	-0,217	-0,019
325,997	424,909	-0,107	-0,159
327,012	623,643	-0,112	-0,194
328,027	88,677	-0,249	-0,190
329,041	-151,711	-0,148	0,007
330,056	-200,000	-0,001	-0,053
331,070	-200,000	0,007	-0,120
332,085	398,044	-0,081	-0,117
333,100	-84,993	-0,234	-0,050
334,114	26,194	-0,207	-0,118
335,129	-102,206	-0,220	-0,036
336,143	800,000	-0,069	-0,182
337,158	800,000	-0,045	-0,122
338,173	-108,125	-0,179	0,026
339,187	4,143	-0,126	0,063
340,202	194,287	-0,115	-0,120
341,216	800,000	-0,071	-0,186
342,231	800,000	-0,060	-0,168
343,246	800,000	-0,099	-0,280
344,260	800,000	-0,054	-0,111
345,275	-70,202	-0,050	0,013
346,289	23,171	-0,201	-0,113
347,304	-122,284	-0,119	-0,013
348,319	54,038	-0,121	-0,080
349,333	180,500	-0,198	-0,200
350,348	106,030	-0,158	-0,128
351,362	-151,197	-0,171	0,009
352,377	-200,000	0,013	0,124
353,392	-36,136	-0,166	-0,061
354,406	29,400	-0,116	-0,068
355,421	208,564	1316,018	1414,182
356,435	160,482	1476,905	1414,668
