DTS Sentinel unit serial number:	SN410029Multiplexer serial number:	ORYXHardware model number:	OX2-SRSoftware version number:	ORYX F/W v4,00 Oryx Data Collector v3.7.2.0data status	okinstallation	B3 Nyhavnadifferential loss correction	single-endedforward channel	channel 1reverse channel	N/Adate	2023/11/29time	10:12:31forward acquisition time	300,00reverse acquisition time	0,00gamma	499,1914k internal	0,3212k external	0,3212temperature offset calibration	1,0000default loss term (dB/km)	0,3820temperature slope calibration	1,0000multiplexer offset coefficient	1,0000multiplexer slope coefficient	1,0000fibre end	0,00T internal ref (°C)	9,36T ext. ref 1 (°C)	-5,54T ext. ref 2 (°C)	-5,67length (m)	temperature (°C)	Stokes	anti-Stokes-744,400	-200,000	-0,054	-0,268
-743,385	-200,000	-0,011	0,243
-742,371	378,381	-0,109	-0,162
-741,356	-200,000	-0,003	0,232
-740,342	180,556	-0,229	-0,244
-739,327	800,000	-0,101	0,220
-738,312	58,235	-0,252	-0,179
-737,298	-200,000	-0,025	0,201
-736,283	-200,000	-0,056	-0,300
-735,269	-200,000	0,023	0,260
-734,254	110,751	-0,207	-0,180
-733,239	287,239	-0,167	0,219
-732,225	-121,980	-0,056	0,007
-731,210	800,000	0,045	0,112
-730,196	86,789	-0,073	-0,058
-729,181	-15,990	-0,047	-0,022
-728,167	17,447	-0,018	-0,011
-727,152	116,860	-0,085	-0,075
-726,137	375,760	-0,069	-0,103
-725,123	800,000	-0,042	-0,109
-724,108	-200,000	0,045	-0,150
-723,094	-200,000	0,003	0,021
-722,079	-77,433	-0,058	-0,015
-721,064	140,405	-0,051	-0,049
-720,050	-19,675	0,064	0,028
-719,035	-111,334	-0,186	0,027
-718,021	68,966	0,114	-0,084
-717,006	202,863	-0,051	0,057
-715,991	29,521	-0,166	-0,102
-714,977	-47,724	-0,088	0,031
-713,962	-46,006	0,047	-0,017
-712,948	111,470	0,039	-0,034
-711,933	17,653	-0,175	-0,101
-710,918	-33,328	-0,112	-0,045
-709,904	131,510	-0,112	-0,105
-708,889	800,000	-0,099	-0,207
-707,875	-27,840	-0,040	0,017
-706,860	-200,000	-0,021	-0,098
-705,845	367,338	0,047	-0,068
-704,831	800,000	-0,022	-0,060
-703,816	-162,549	-0,104	0,004
-702,802	395,613	0,037	0,056
-701,787	213,437	-0,048	-0,054
-700,772	800,000	0,035	0,102
-699,758	89,716	0,040	0,033
-698,743	-156,996	0,032	0,001
-697,729	-200,000	-0,001	-0,095
-696,714	97,491	-0,072	0,060
-695,699	363,318	-0,013	-0,019
-694,685	-18,746	-0,089	0,040
-693,670	800,000	0,053	-0,168
-692,656	257,614	-0,116	-0,145
-691,641	-84,187	-0,080	0,018
-690,627	224,083	0,015	0,018
-689,612	-64,304	-0,188	-0,055
-688,597	-63,886	0,137	-0,040
-687,583	800,000	-0,060	-0,134
-686,568	635,393	0,098	-0,181
-685,554	-34,652	-0,142	-0,056
-684,539	121,884	-0,154	-0,139
-683,524	379,437	-0,102	0,151
-682,510	800,000	0,050	0,119
-681,495	-113,630	-0,090	0,013
-680,481	16,181	-0,084	-0,048
-679,466	800,000	-0,036	-0,110
-678,451	545,871	-0,034	0,060
-677,437	42,127	0,081	0,053
-676,422	-22,948	0,124	0,054
-675,408	67,850	-0,056	0,042
-674,393	438,010	-0,054	0,086
-673,378	-15,918	-0,082	0,037
-672,364	-200,000	-0,035	-0,118
-671,349	-200,000	0,001	-0,165
-670,335	800,000	0,013	-0,041
-669,320	183,540	-0,070	0,075
-668,305	-200,000	0,025	-0,153
-667,291	102,449	-0,129	-0,109
-666,276	-119,601	-0,108	0,013
-665,262	-88,307	0,167	0,036
-664,247	74,859	0,074	-0,056
-663,232	-200,000	-0,001	-0,061
-662,218	-112,400	0,057	-0,008
-661,203	-42,536	0,155	0,057
-660,189	321,269	-0,034	-0,046
-659,174	37,407	-0,145	0,093
-658,159	-32,588	-0,042	0,017
-657,145	365,923	0,032	-0,047
-656,130	393,637	-0,061	-0,093
-655,116	-101,709	0,134	0,023
-654,101	158,510	0,056	0,056
-653,086	-200,000	0,023	-0,079
-652,072	800,000	-0,003	0,009
-651,057	-114,612	-0,120	-0,016
-650,043	800,000	0,026	-0,072
-649,028	-24,490	0,101	-0,043
-648,014	-200,000	-0,006	0,102
-646,999	285,307	0,074	-0,097
-645,984	-61,686	-0,083	0,025
-644,970	-49,522	-0,073	-0,025
-643,955	-148,046	-0,097	0,006
-642,941	-180,668	-0,080	0,001
-641,926	19,265	-0,089	-0,051
-640,911	-43,540	0,029	0,010
-639,897	-36,530	0,055	0,021
-638,882	-100,230	-0,044	0,008
-637,868	-200,000	0,013	-0,094
-636,853	574,228	-0,070	-0,123
-635,838	-200,000	0,005	-0,083
-634,824	-152,138	-0,094	0,005
-633,809	800,000	-0,053	0,132
-632,795	271,594	0,068	0,087
-631,780	-92,838	0,063	0,013
-630,765	-200,000	-0,029	-0,162
-629,751	-200,000	0,011	-0,189
-628,736	218,446	-0,105	-0,121
-627,722	-176,272	0,129	-0,002
-626,707	125,591	-0,037	0,034
-625,692	545,699	0,019	0,033
-624,678	-132,879	0,052	-0,005
-623,663	280,794	-0,075	-0,097
-622,649	-200,000	0,003	0,171
-621,634	343,915	0,062	0,088
-620,619	-20,501	-0,094	-0,042
-619,605	-95,727	-0,123	-0,024
-618,590	23,789	0,010	-0,006
-617,576	-184,218	-0,103	0,001
-616,561	-200,000	0,007	0,035
-615,546	-14,924	0,113	-0,052
-614,532	-14,793	0,095	-0,044
-613,517	-44,075	-0,114	-0,041
-612,503	586,726	0,065	0,116
-611,488	-200,000	-0,002	0,113
-610,474	-200,000	-0,017	0,074
-609,459	-22,227	-0,135	0,059
-608,444	800,000	-0,044	-0,133
-607,430	-175,485	-0,113	0,002
-606,415	-64,988	-0,058	-0,017
-605,401	216,980	0,083	-0,095
-604,386	800,000	-0,029	-0,067
-603,371	-108,722	0,105	-0,016
-602,357	235,585	-0,070	0,084
-601,342	327,546	0,091	-0,127
-600,328	483,948	0,029	-0,047
-599,313	42,521	-0,022	-0,015
-598,298	-83,382	0,185	-0,042
-597,284	800,000	-0,040	0,088
-596,269	800,000	-0,018	0,045
-595,255	244,979	-0,073	-0,088
-594,240	-185,413	-0,114	-0,001
-593,225	15,971	0,048	0,027
-592,211	495,817	-0,070	-0,117
-591,196	136,309	-0,055	-0,052
-590,182	201,610	0,047	0,053
-589,167	-89,599	-0,082	0,017
-588,152	-45,065	-0,087	0,031
-587,138	-98,029	0,046	-0,009
-586,123	-200,000	0,020	0,090
-585,109	-132,371	-0,070	0,006
-584,094	-200,000	-0,018	0,065
-583,079	59,412	-0,057	-0,040
-582,065	-109,554	0,191	-0,029
-581,050	332,949	-0,042	0,058
-580,036	585,463	-0,051	-0,091
-579,021	800,000	-0,044	-0,105
-578,006	-200,000	0,011	-0,131
-576,992	-200,000	0,013	0,098
-575,977	-200,000	-0,040	0,139
-574,963	-200,000	-0,006	0,020
-573,948	-137,387	-0,159	0,013
-572,934	45,893	0,074	0,049
-571,919	800,000	0,022	-0,049
-570,904	800,000	-0,041	-0,098
-569,890	-38,156	-0,098	-0,037
-568,875	-136,812	0,016	-0,001
-567,861	-200,000	-0,030	0,117
-566,846	-104,545	0,049	-0,008
-565,831	-18,523	-0,146	-0,065
-564,817	120,352	-0,088	0,079
-563,802	44,904	-0,025	-0,017
-562,788	50,980	-0,068	-0,046
-561,773	125,229	0,037	-0,033
-560,758	-64,166	0,044	0,013
-559,744	-45,283	0,126	0,045
-558,729	117,767	-0,086	-0,076
-557,715	-103,481	-0,108	-0,018
-556,700	617,952	0,026	0,047
-555,685	-148,705	0,168	-0,010
-554,671	-72,434	-0,092	0,024
-553,656	-36,647	0,060	-0,023
-552,642	796,945	-0,019	0,037
-551,627	63,864	0,062	-0,045
-550,612	-200,000	0,008	-0,061
-549,598	53,880	-0,042	-0,029
-548,583	76,018	-0,036	-0,027
-547,569	-200,000	-0,006	-0,111
-546,554	14,716	0,088	0,049
-545,539	338,070	-0,119	0,167
-544,525	-38,333	0,101	-0,038
-543,510	-115,860	-0,206	-0,027
-542,496	60,765	-0,097	-0,069
-541,481	-110,034	0,007	-0,001
-540,466	-3,862	-0,099	-0,049
-539,452	-9,933	0,132	0,063
-538,437	-36,944	0,117	0,045
-537,423	389,599	-0,045	-0,067
-536,408	139,052	-0,041	-0,039
-535,393	254,072	-0,113	-0,140
-534,379	615,452	-0,031	-0,057
-533,364	74,055	-0,096	-0,072
-532,350	216,084	-0,069	0,079
-531,335	510,413	0,068	0,115
-530,321	15,497	0,026	0,014
-529,306	-200,000	0,007	0,044
-528,291	-200,000	-0,004	-0,032
-527,277	-156,441	-0,058	0,003
-526,262	-24,163	-0,044	-0,019
-525,248	-36,562	0,059	-0,023
-524,233	33,951	0,006	0,003
-523,218	-120,904	-0,034	-0,004
-522,204	-200,000	0,036	0,135
-521,189	-200,000	-0,047	-0,171
-520,175	406,662	-0,073	0,111
-519,160	-9,114	0,116	0,056
-518,145	-71,907	0,025	-0,007
-517,131	-35,936	0,073	-0,028
-516,116	800,000	0,050	0,128
-515,102	-145,670	0,064	-0,004
-514,087	-109,166	0,064	-0,010
-513,072	-45,548	-0,028	-0,010
-512,058	47,846	-0,080	0,054
-511,043	-73,164	0,044	-0,012
-510,029	800,000	-0,054	-0,141
-509,014	-46,715	0,055	-0,019
-507,999	-200,000	-0,020	-0,086
-506,985	-200,000	0,013	0,043
-505,970	308,016	0,062	0,083
-504,956	26,280	-0,081	-0,048
-503,941	-200,000	-0,007	0,047
-502,926	22,260	0,096	-0,056
-501,912	-9,395	0,126	0,060
-500,897	-79,896	0,057	-0,014
-499,883	-174,653	0,087	0,002
-498,868	800,000	-0,046	-0,107
-497,853	59,499	0,023	-0,016
-496,839	58,795	-0,034	-0,024
-495,824	800,000	-0,034	-0,069
-494,810	-140,778	-0,090	0,007
-493,795	64,594	-0,065	-0,047
-492,781	-174,491	0,052	0,001
-491,766	-200,000	0,028	0,109
-490,751	800,000	0,066	-0,142
-489,737	75,047	-0,091	-0,069
-488,722	-200,000	0,042	0,176
-487,708	46,889	0,130	0,087
-486,693	-92,253	-0,070	0,014
-485,678	88,207	0,114	-0,091
-484,664	-114,649	-0,067	0,009
-483,649	-200,000	-0,052	-0,204
-482,635	405,457	-0,025	0,038
-481,620	-200,000	-0,014	0,084
-480,605	259,041	0,063	0,079
-479,591	86,769	0,034	-0,027
-478,576	-88,170	-0,043	-0,009
-477,562	629,798	0,027	-0,049
-476,547	557,691	-0,057	-0,099
-475,532	-11,996	-0,049	0,023
-474,518	120,207	-0,014	-0,012
-473,503	-200,000	-0,002	0,047
-472,489	-200,000	-0,004	0,174
-471,474	178,346	0,040	-0,041
-470,459	414,187	0,038	0,058
-469,445	800,000	-0,028	-0,086
-468,430	-200,000	0,011	-0,139
-467,416	-61,232	0,064	-0,019
-466,401	177,773	-0,043	0,045
-465,386	-200,000	0,014	0,067
-464,372	-200,000	-0,020	-0,068
-463,357	-200,000	0,026	-0,137
-462,343	-200,000	0,016	-0,061
-461,328	800,000	0,027	-0,060
-460,313	800,000	0,041	0,097
-459,299	5,748	0,106	0,056
-458,284	-21,310	0,044	-0,019
-457,270	36,859	0,092	0,058
-456,255	506,812	-0,098	-0,163
-455,241	-25,506	0,038	-0,016
-454,226	-69,580	0,056	-0,015
-453,211	-118,868	0,076	0,009
-452,197	642,097	-0,076	0,139
-451,182	145,108	-0,116	0,111
-450,168	-70,746	0,057	0,015
-449,153	28,308	-0,006	0,004
-448,138	776,836	-0,069	-0,135
-447,124	-200,000	-0,022	-0,101
-446,109	800,000	0,025	-0,068
-445,095	98,077	0,034	-0,028
-444,080	-23,491	-0,035	-0,015
-443,065	599,001	0,048	0,086
-442,051	207,773	-0,057	-0,063
-441,036	-200,000	0,025	0,105
-440,022	704,633	-0,085	-0,162
-439,007	-200,000	0,014	-0,073
-437,992	302,113	-0,021	0,028
-436,978	-126,153	0,035	0,004
-435,963	-200,000	-0,051	0,191
-434,949	-105,262	-0,126	-0,020
-433,934	-200,000	0,019	-0,103
-432,919	-200,000	0,000	-0,006
-431,905	32,173	0,080	-0,049
-430,890	294,359	0,026	-0,034
-429,876	29,745	0,143	0,087
-428,861	-60,798	0,099	-0,030
-427,846	-200,000	-0,008	0,161
-426,832	177,723	0,081	-0,085
-425,817	35,600	-0,150	-0,094
-424,803	11,752	-0,013	-0,007
-423,788	800,000	0,018	-0,046
-422,773	153,265	0,095	0,093
-421,759	-61,628	-0,065	-0,019
-420,744	241,584	0,082	0,098
-419,730	-200,000	-0,010	0,057
-418,715	-200,000	0,010	-0,083
-417,701	800,000	-0,047	-0,118
-416,686	800,000	-0,056	0,165
-415,671	-200,000	0,008	0,044
-414,657	-171,458	-0,056	0,001
-413,642	-200,000	0,007	-0,052
-412,628	347,673	-0,094	-0,133
-411,613	-200,000	0,003	-0,134
-410,598	-7,035	-0,127	0,062
-409,584	-200,000	0,007	0,052
-408,569	309,221	0,038	-0,051
-407,555	-200,000	0,014	0,091
-406,540	228,012	0,130	0,152
-405,525	-165,792	0,088	0,003
-404,511	-142,499	0,111	-0,008
-403,496	-200,000	-0,025	-0,146
-402,482	46,548	0,139	0,092
-401,467	374,382	0,097	0,142
-400,452	800,000	-0,020	-0,057
-399,438	800,000	-0,070	0,170
-398,423	-19,915	0,015	-0,006
-397,409	130,723	0,031	0,029
-396,394	-200,000	0,046	-0,182
-395,379	800,000	0,033	-0,084
-394,365	10,952	0,073	0,040
-393,350	-200,000	-0,001	0,097
-392,336	54,862	-0,065	-0,045
-391,321	686,538	-0,088	-0,164
-390,306	-5,399	-0,054	-0,026
-389,292	-200,000	-0,008	-0,043
-388,277	-200,000	0,031	-0,129
-387,263	-200,000	-0,018	-0,061
-386,248	-200,000	-0,008	0,074
-385,233	759,790	-0,022	0,043
-384,219	-56,927	0,019	0,006
-383,204	-200,000	-0,024	0,116
-382,190	73,969	-0,053	0,040
-381,175	351,396	-0,041	-0,058
-380,160	-200,000	0,016	0,104
-379,146	431,846	0,059	0,092
-378,131	9,246	0,111	0,060
-377,117	-100,309	0,045	0,008
-376,102	42,063	0,063	-0,041
-375,088	134,186	-0,094	-0,087
-374,073	764,321	0,025	-0,049
-373,058	-54,408	0,104	0,033
-372,044	-132,504	-0,170	0,015
-371,029	-200,000	0,037	0,128
-370,015	432,725	-0,135	0,209
-369,000	-200,000	-0,018	0,085
-367,985	-200,000	-0,010	0,037
-366,971	-68,070	-0,100	0,028
-365,956	-200,000	-0,028	0,183
-364,942	-200,000	-0,025	0,167
-363,927	125,553	0,154	0,139
-362,912	800,000	-0,053	0,143
-361,898	125,313	0,111	0,100
-360,883	-82,487	-0,105	0,024
-359,869	233,533	-0,045	-0,053
-358,854	-200,000	0,000	0,083
-357,839	-200,000	-0,019	0,113
-356,825	-151,437	0,099	0,005
-355,810	42,163	-0,082	0,053
-354,796	506,309	-0,038	0,062
-353,781	128,370	-0,071	-0,065
-352,766	800,000	-0,056	-0,156
-351,752	-92,446	0,076	-0,015
-350,737	504,302	0,028	0,047
-349,723	8,823	0,084	0,045
-348,708	259,833	0,096	0,119
-347,693	800,000	-0,021	-0,046
-346,679	800,000	0,031	0,080
-345,664	298,188	-0,079	-0,104
-344,650	-200,000	-0,008	0,044
-343,635	17,436	-0,054	-0,030
-342,620	-46,423	0,027	0,009
-341,606	-123,367	-0,186	-0,021
-340,591	-117,712	0,109	0,014
-339,577	800,000	0,014	-0,027
-338,562	-200,000	-0,016	-0,100
-337,548	-25,004	-0,142	-0,060
-336,533	-13,995	-0,110	-0,050
-335,518	-43,879	0,178	0,063
-334,504	800,000	-0,055	0,125
-333,489	-83,431	-0,168	0,038
-332,475	800,000	0,029	0,067
-331,460	-76,988	0,072	-0,018
-330,445	800,000	-0,023	0,072
-329,431	-200,000	-0,010	0,132
-328,416	264,560	-0,009	0,011
-327,402	-17,342	0,034	-0,015
-326,387	1,119	0,107	-0,054
-325,372	-200,000	-0,004	0,029
-324,358	-132,427	0,141	0,013
-323,343	-124,810	0,067	0,007
-322,329	800,000	-0,031	0,091
-321,314	95,666	0,082	-0,067
-320,299	800,000	0,030	0,092
-319,285	-200,000	0,012	0,040
-318,270	317,739	-0,047	-0,063
-317,256	-200,000	-0,034	-0,143
-316,241	261,411	0,050	0,061
-315,226	-42,325	-0,097	0,035
-314,212	-200,000	-0,020	0,172
-313,197	-200,000	-0,017	0,118
-312,183	-76,018	-0,093	0,023
-311,168	-123,044	-0,124	-0,014
-310,153	-200,000	-0,023	-0,083
-309,139	-200,000	0,003	-0,080
-308,124	800,000	-0,026	0,055
-307,110	528,012	0,062	0,105
-306,095	800,000	0,030	0,080
-305,080	310,286	-0,089	0,119
-304,066	469,157	0,045	-0,073
-303,051	160,612	0,051	0,051
-302,037	-193,165	-0,100	0,001
-301,022	800,000	0,021	0,045
-300,008	189,870	0,062	0,066
-298,993	-91,753	0,109	-0,022
-297,978	-18,934	0,137	-0,061
-296,964	16,097	-0,111	-0,062
-295,949	-200,000	0,019	0,068
-294,935	-65,947	0,122	-0,034
-293,920	-122,035	0,070	-0,008
-292,905	-196,477	0,022	-0,000
-291,891	-42,235	-0,045	-0,016
-290,876	-135,694	0,084	-0,007
-289,862	-143,667	0,048	-0,003
-288,847	-33,855	-0,105	-0,041
-287,832	-200,000	0,005	-0,068
-286,818	61,915	-0,068	0,048
-285,803	395,717	0,061	0,090
-284,789	379,387	-0,025	0,036
-283,774	800,000	-0,058	0,170
-282,759	-49,880	0,078	0,026
-281,745	5,961	-0,078	0,041
-280,730	-200,000	0,033	-0,161
-279,716	-200,000	0,006	0,123
-278,701	-110,729	-0,083	0,012
-277,686	-200,000	0,045	0,161
-276,672	-200,000	-0,026	-0,125
-275,657	800,000	0,105	-0,234
-274,643	287,898	0,033	-0,043
-273,628	28,235	-0,095	0,057
-272,613	690,171	0,027	-0,050
-271,599	706,494	-0,019	-0,037
-270,584	579,038	-0,040	0,070
-269,570	-8,231	-0,105	0,050
-268,555	800,000	-0,040	-0,104
-267,540	-153,259	-0,116	-0,006
-266,526	90,273	0,063	-0,050
-265,511	-200,000	-0,011	-0,099
-264,497	800,000	-0,042	-0,125
-263,482	-200,000	0,024	0,078
-262,467	-39,609	0,100	0,037
-261,453	254,187	-0,042	-0,052
-260,438	24,112	0,077	0,045
-259,424	-140,682	-0,058	0,004
-258,409	-90,611	0,070	-0,014
-257,395	-200,000	-0,006	-0,101
-256,380	-91,340	0,100	-0,020
-255,365	157,592	0,052	0,051
-254,351	34,226	0,031	-0,019
-253,336	9,791	-0,060	0,032
-252,322	92,417	-0,024	0,019
-251,307	31,455	0,092	0,056
-250,292	8,554	-0,116	-0,062
-249,278	6,147	0,055	-0,029
-248,263	-200,000	-0,002	0,032
-247,249	80,512	-0,047	-0,036
-246,234	-158,304	-0,157	0,006
-245,219	-76,050	0,140	-0,035
-244,205	-49,472	-0,143	-0,048
-243,190	221,982	0,039	-0,045
-242,176	-83,098	0,025	0,006
-241,161	30,986	-0,018	0,011
-240,146	800,000	-0,012	0,032
-239,132	-11,325	0,102	-0,048
-238,117	800,000	-0,052	-0,120
-237,103	412,495	0,060	-0,090
-236,088	518,126	0,040	-0,067
-235,073	-91,184	0,154	0,031
-234,059	-124,495	-0,107	-0,012
-233,044	-131,431	-0,074	0,007
-232,030	321,636	-0,040	-0,054
-231,015	-200,000	0,022	-0,125
-230,000	512,038	-0,048	-0,080
-228,986	-55,067	-0,106	-0,034
-227,971	-51,270	-0,061	0,020
-226,957	-27,014	0,071	0,029
-225,942	689,218	0,063	0,118
-224,927	800,000	-0,053	-0,134
-223,913	-200,000	-0,017	-0,148
-222,898	-153,130	-0,063	0,003
-221,884	-200,000	0,004	-0,018
-220,869	800,000	0,032	-0,063
-219,855	-35,511	0,086	-0,033
-218,840	244,473	0,045	0,054
-217,825	170,355	0,030	0,030
-216,811	800,000	0,015	0,040
-215,796	-200,000	0,026	-0,107
-214,782	16,261	-0,130	-0,073
-213,767	228,990	-0,120	0,140
-212,752	234,710	0,023	0,027
-211,738	370,012	0,028	0,040
-210,723	-200,000	-0,000	0,028
-209,709	150,879	0,093	-0,089
-208,694	800,000	-0,051	0,120
-207,679	800,000	-0,072	0,190
-206,665	-200,000	-0,013	-0,098
-205,650	-178,152	0,085	-0,001
-204,636	70,476	0,044	0,032
-203,621	-200,000	-0,013	0,120
-202,606	-116,864	0,076	0,010
-201,592	327,089	0,124	0,169
-200,577	-21,418	0,132	-0,057
-199,563	-200,000	0,041	0,194
-198,548	-153,604	0,183	0,009
-197,533	-200,000	-0,011	0,073
-196,519	-200,000	0,020	0,108
-195,504	-200,000	-0,006	-0,054
-194,490	800,000	-0,042	-0,108
-193,475	471,632	-0,043	0,068
-192,460	179,085	0,100	-0,103
-191,446	-200,000	-0,038	-0,133
-190,431	-200,000	0,010	-0,108
-189,417	800,000	-0,038	-0,076
-188,402	174,369	-0,098	-0,101
-187,387	800,000	-0,006	-0,012
-186,373	382,406	-0,016	-0,024
-185,358	-200,000	0,014	-0,057
-184,344	-87,288	0,097	0,021
-183,329	0,903	0,064	0,033
-182,315	800,000	0,008	-0,020
-181,300	-200,000	-0,014	-0,102
-180,285	-107,948	-0,184	-0,028
-179,271	-200,000	-0,006	-0,035
-178,256	782,718	0,046	0,089
-177,242	-1,488	0,173	0,086
-176,227	-106,680	0,167	0,026
-175,212	315,467	0,064	-0,086
-174,198	800,000	-0,018	-0,050
-173,183	800,000	0,026	-0,063
-172,169	-73,388	-0,065	0,017
-171,154	-67,473	-0,056	0,015
-170,139	-54,033	0,150	0,048
-169,125	-167,721	-0,067	-0,002
-168,110	-170,035	0,047	0,001
-167,096	-92,762	0,115	0,023
-166,081	-135,898	-0,079	-0,007
-165,066	-111,346	-0,051	0,007
-164,052	-200,000	0,015	0,061
-163,037	-61,297	-0,079	0,023
-162,023	131,382	0,131	0,119
-161,008	311,392	0,026	0,035
-159,993	-63,557	0,076	0,022
-158,979	330,715	0,033	-0,046
-157,964	44,755	-0,116	-0,075
-156,950	-16,594	-0,009	-0,004
-155,935	-152,117	-0,031	-0,002
-154,920	800,000	0,027	0,071
-153,906	553,730	0,044	-0,075
-152,891	153,914	-0,006	0,006
-151,877	25,591	-0,071	-0,042
-150,862	-147,203	-0,046	0,003
-149,847	-54,375	0,127	-0,041
-148,833	800,000	0,046	0,143
-147,818	-200,000	-0,012	-0,159
-146,804	-200,000	0,021	-0,099
-145,789	800,000	-0,005	0,015
-144,775	-200,000	0,008	-0,122
-143,760	168,733	-0,043	-0,043
-142,745	98,216	0,123	0,100
-141,731	133,199	-0,087	0,080
-140,716	144,925	-0,100	-0,094
-139,702	-41,115	0,038	-0,014
-138,687	292,390	0,038	-0,049
-137,672	800,000	0,026	0,059
-136,658	-160,217	-0,120	-0,005
-135,643	-83,858	-0,112	0,025
-134,629	79,534	-0,086	0,065
-133,614	714,568	-0,039	0,074
-132,599	800,000	0,062	0,131
-131,585	376,934	-0,044	-0,064
-130,570	331,392	0,010	-0,013
-129,556	-134,270	-0,060	-0,005
-128,541	122,114	-0,093	-0,083
-127,526	233,437	0,079	-0,092
-126,512	496,576	0,020	-0,033
-125,497	-200,000	-0,006	-0,032
-124,483	100,135	0,111	-0,091
-123,468	156,795	0,065	0,063
-122,453	510,099	-0,013	-0,022
-121,439	800,000	0,018	-0,050
-120,424	181,210	-0,098	-0,102
-119,410	154,253	-0,029	0,028
-118,395	800,000	0,061	0,189
-117,380	-103,805	0,017	0,003
-116,366	-132,184	-0,052	-0,005
-115,351	235,008	-0,034	-0,040
-114,337	45,525	-0,070	-0,045
-113,322	319,918	0,027	0,036
-112,307	135,463	0,140	0,129
-111,293	25,782	-0,094	-0,055
-110,278	-113,552	0,150	0,021
-109,264	-200,000	-0,061	-0,201
-108,249	557,669	-0,048	-0,082
-107,234	-200,000	-0,024	0,142
-106,220	-104,503	-0,119	0,019
-105,205	1,109	-0,048	0,024
-104,191	450,714	-0,051	0,079
-103,176	99,347	0,087	0,071
-102,162	-85,978	0,115	-0,025
-101,147	800,000	-0,016	0,047
-100,132	27,442	-0,069	-0,041
-99,118	800,000	-0,026	-0,066
-98,103	-200,000	-0,036	0,150
-97,089	-200,000	0,016	0,072
-96,074	626,669	0,030	0,054
-95,059	-6,215	-0,098	-0,047
-94,045	98,376	0,022	-0,018
-93,030	-200,000	0,015	-0,060
-92,016	800,000	-0,045	-0,091
-91,001	-8,200	0,165	-0,078
-89,986	-105,857	0,096	0,015
-88,972	-200,000	0,047	0,165
-87,957	-56,334	0,107	0,033
-86,943	14,581	-0,097	0,053
-85,928	-200,000	0,015	-0,053
-84,913	173,676	0,151	-0,154
-83,899	258,622	-0,036	0,044
-82,884	12,584	0,107	-0,058
-81,870	9,959	-0,084	0,045
-80,855	75,225	0,052	0,039
-79,840	51,938	0,054	-0,036
-78,826	-82,667	0,082	0,019
-77,811	38,126	-0,068	-0,043
-76,797	422,944	0,045	0,068
-75,782	38,708	-0,111	-0,070
-74,767	-152,784	0,121	-0,006
-73,753	-200,000	0,005	0,026
-72,738	-200,000	0,036	0,127
-71,724	-85,678	-0,032	-0,007
-70,709	800,000	0,037	0,104
-69,694	254,540	-0,065	0,079
-68,680	91,502	-0,078	-0,062
-67,665	414,896	0,019	0,029
-66,651	75,727	0,116	0,086
-65,636	-179,934	0,103	0,002
-64,622	-102,709	-0,091	0,015
-63,607	-61,679	-0,114	0,034
-62,592	-116,908	0,126	-0,016
-61,578	-77,560	-0,095	0,023
-60,563	-90,609	0,038	-0,008
-59,549	780,509	-0,071	0,138
-58,534	54,359	-2,115	-1,435
-57,519	436,792	-1,265	-1,951
-56,505	-200,000	-0,359	-4,377
-55,490	678,160	0,782	1,442
-54,476	800,000	5,175	11,538
-53,461	-200,000	21,843	342,069
-52,446	800,000	762,528	2334,522
-51,432	545,018	1659,664	2808,608
-50,417	71,012	1656,194	1209,532
-49,403	17,094	1529,834	853,324
-48,388	11,159	1453,833	782,304
-47,373	19,285	1445,421	816,630
-46,359	14,638	1434,618	788,460
-45,344	9,503	1430,453	761,754
-44,330	9,403	1428,659	760,293
-43,315	9,390	1426,803	759,213
-42,300	9,431	1425,045	758,442
-41,286	9,473	1423,745	757,920
-40,271	9,369	1422,701	756,839
-39,257	9,378	1421,269	756,093
-38,242	9,449	1420,227	755,843
-37,227	9,405	1419,167	755,039
-36,213	9,437	1417,768	754,416
-35,198	9,462	1416,803	753,992
-34,184	9,495	1415,629	753,492
-33,169	9,410	1414,368	752,391
-32,154	9,421	1413,405	751,899
-31,140	9,459	1412,126	751,369
-30,125	9,496	1410,919	750,870
-29,111	9,469	1409,583	750,003
-28,096	9,428	1408,749	749,336
-27,082	9,384	1407,415	748,393
-26,067	9,339	1406,412	747,619
-25,052	9,405	1405,338	747,327
-24,038	9,381	1404,560	746,769
-23,023	9,381	1403,494	746,174
-22,009	9,347	1402,452	745,431
-20,994	9,377	1401,346	744,953
-19,979	9,394	1400,585	744,600
-18,965	9,406	1399,392	743,994
-17,950	9,341	1398,646	743,265
-16,936	9,321	1398,010	742,802
-15,921	9,283	1396,779	741,945
-14,906	9,277	1396,041	741,492
-13,892	9,324	1394,780	741,014
-12,877	9,309	1394,093	740,548
-11,863	9,306	1393,159	740,012
-10,848	9,278	1392,395	739,445
-9,833	9,272	1391,296	738,807
-8,819	9,221	1390,656	738,198
-7,804	9,208	1389,501	737,495
-6,790	9,175	1388,692	736,888
-5,775	9,219	1387,353	736,349
-4,760	9,249	1386,512	736,012
-3,746	9,199	1385,837	735,394
-2,731	9,238	1384,799	734,995
-1,717	9,237	1383,875	734,468
-0,702	9,181	1382,297	733,344
0,313	13,371	1294,607	705,879
1,327	29,830	685,731	410,971
2,342	46,791	118,196	77,296
3,356	1,619	16,454	8,325
4,371	5,103	3,612	1,870
5,386	-17,369	1,209	0,534
6,400	751,971	0,260	0,498
7,415	-58,759	-0,266	-0,081
8,429	87,256	-0,195	-0,152
9,444	63,305	-0,273	-0,193
10,459	33,991	-0,333	-0,204
11,473	103,953	-0,244	-0,202
12,488	-0,615	-0,338	-0,168
13,502	172,025	-0,237	-0,240
14,517	133,890	-0,308	-0,281
15,531	-73,152	-0,267	-0,068
16,546	50,987	-0,346	-0,230
17,561	796,704	-0,223	-0,435
18,575	-6,127	-0,353	-0,169
19,590	15,820	-0,212	-0,117
20,604	272,122	-0,173	-0,215
21,619	106,939	-0,450	-0,376
22,634	151,922	-0,420	-0,403
23,648	153,406	-0,406	-0,392
24,663	70,679	-0,402	-0,293
25,677	200,258	-0,255	-0,276
26,692	800,000	-0,174	-0,350
27,707	-31,638	-0,433	-0,170
28,721	99,013	-0,409	-0,332
29,736	48,615	-0,343	-0,226
30,750	45,975	-0,300	-0,195
31,765	172,855	-0,322	-0,326
32,780	50,221	-0,367	-0,243
33,794	93,035	-0,279	-0,221
34,809	49,865	-0,387	-0,256
35,823	-68,590	-0,543	-0,147
36,838	39,731	-0,428	-0,269
37,853	-6,687	-0,461	-0,220
38,867	414,160	-0,202	-0,303
39,882	106,387	-0,257	-0,214
40,896	77,270	-0,401	-0,299
41,911	15,855	-0,359	-0,198
42,926	-9,265	-0,482	-0,226
43,940	136,217	-0,374	-0,342
44,955	236,790	-0,344	-0,401
45,969	94,344	-0,314	-0,250
46,984	800,000	-0,210	-0,438
47,999	-28,547	-0,272	-0,110
49,013	10,279	-0,338	-0,180
50,028	116,142	-0,250	-0,215
51,042	219,891	-0,340	-0,383
52,057	100,926	-0,348	-0,284
53,071	16,496	-0,241	-0,133
54,086	94,355	-0,397	-0,316
55,101	36,240	-0,328	-0,202
56,115	-61,327	-0,395	-0,116
57,130	100,851	-0,268	-0,219
58,144	84,020	-0,301	-0,231
59,159	15,171	-0,369	-0,202
60,174	198,675	-0,357	-0,383
61,188	86,001	-0,436	-0,336
62,203	-5,515	-0,307	-0,147
63,217	111,217	-0,265	-0,224
64,232	-32,582	-0,301	-0,117
65,247	54,803	-0,319	-0,215
66,261	161,628	-0,431	-0,423
67,276	100,089	-0,273	-0,222
68,290	-102,482	-0,197	0,033
69,305	-45,498	-0,345	-0,119
70,320	-125,269	-0,222	-0,024
71,334	106,574	-0,226	-0,188
72,349	-89,092	-0,427	-0,088
73,363	20,082	-0,361	-0,204
74,378	89,475	-0,276	-0,215
75,393	-65,003	-0,336	-0,094
76,407	42,339	-0,308	-0,195
77,422	518,581	-0,155	-0,254
78,436	-54,745	-0,348	-0,109
79,451	150,845	-0,281	-0,267
80,466	-190,298	-0,418	-0,003
81,480	44,882	-0,300	-0,193
82,495	66,220	-0,351	-0,249
83,509	91,318	-0,256	-0,201
84,524	-143,864	-0,179	0,012
85,539	420,708	-0,158	-0,237
86,553	-104,425	-0,411	-0,066
87,568	52,287	-0,311	-0,207
88,582	-28,589	-0,243	-0,097
89,597	-91,467	-0,371	-0,073
90,611	-7,003	-0,154	-0,073
91,626	-57,982	-0,360	-0,109
92,641	87,354	-0,181	-0,140
93,655	-138,505	-0,308	-0,023
94,670	-1,989	-0,364	-0,178
95,684	74,555	-0,307	-0,225
96,699	-95,837	-0,249	-0,046
97,714	390,538	-0,129	-0,188
98,728	44,542	-0,182	-0,117
99,743	-17,095	-0,354	-0,155
100,757	129,364	-0,210	-0,187
101,772	156,214	-0,239	-0,231
102,787	-37,892	-0,469	-0,174
103,801	196,175	-0,210	-0,224
104,816	54,783	-0,104	-0,070
105,830	-19,095	-0,340	-0,147
106,845	169,013	-0,151	-0,151
107,860	2,728	-0,251	-0,127
108,874	37,084	-0,285	-0,176
109,889	-75,728	-0,324	-0,080
110,903	-129,110	-0,309	-0,030
111,918	74,367	-0,251	-0,184
112,933	-23,199	-0,189	-0,079
113,947	-16,575	-0,337	-0,149
114,962	18,991	-0,177	-0,099
115,976	-65,134	-0,322	-0,090
116,991	201,191	-0,349	-0,376
118,006	18,365	-0,216	-0,120
119,020	108,139	-0,214	-0,178
120,035	-41,928	-0,264	-0,094
121,049	18,757	-0,242	-0,135
122,064	117,637	-0,104	-0,089
123,079	47,370	-0,255	-0,165
124,093	-39,046	-0,436	-0,159
125,108	359,885	-0,270	-0,378
126,122	91,715	-0,177	-0,138
127,137	-93,418	-0,266	-0,051
128,151	64,768	-0,341	-0,239
129,166	13,110	-0,304	-0,163
130,181	-33,008	-0,264	-0,102
131,195	-33,632	-0,252	-0,097
132,210	53,992	-0,212	-0,142
133,224	-172,271	-0,222	-0,005
134,239	6,762	-0,273	-0,141
135,254	800,000	-0,042	-0,114
136,268	-13,947	-0,163	-0,073
137,283	-40,510	-0,424	-0,153
138,297	162,637	-0,257	-0,252
139,312	-43,340	-0,257	-0,090
140,327	4,877	-0,331	-0,169
141,341	374,047	-0,165	-0,235
142,356	97,521	-0,246	-0,197
143,370	-12,296	-0,255	-0,116
144,385	82,934	-0,202	-0,153
145,400	94,853	-0,220	-0,174
146,414	301,086	-0,206	-0,265
147,429	202,873	-0,269	-0,290
148,443	50,447	-0,191	-0,126
149,458	154,882	-0,171	-0,164
150,473	-187,140	-0,311	0,003
151,487	0,110	-0,249	-0,123
152,502	235,920	-0,203	-0,234
153,516	20,279	-0,233	-0,130
154,531	-1,822	-0,241	-0,118
155,546	90,398	-0,303	-0,236
156,560	73,752	-0,166	-0,121
157,575	578,247	-0,098	-0,168
158,589	72,654	-0,185	-0,134
159,604	81,245	-0,198	-0,148
160,619	47,111	-0,288	-0,186
161,633	-200,000	-0,086	-0,313
162,648	544,910	-0,147	-0,245
163,662	-65,002	-0,336	-0,094
164,677	39,389	-0,220	-0,137
165,692	11,234	-0,214	-0,114
166,706	147,807	-0,220	-0,206
167,721	78,474	-0,359	-0,267
168,735	437,167	-0,197	-0,299
169,750	-32,067	-0,204	-0,079
170,764	39,446	-0,292	-0,181
171,779	-5,642	-0,205	-0,097
172,794	-200,000	-0,330	0,001
173,808	67,553	-0,121	-0,086
174,823	800,000	-0,206	-0,442
175,837	-20,945	-0,326	-0,138
176,852	22,689	-0,324	-0,184
177,867	8,083	-0,276	-0,143
178,881	233,682	-0,154	-0,177
179,896	-147,277	-0,284	-0,017
180,910	86,721	-0,217	-0,166
181,925	79,142	-0,255	-0,189
182,940	172,035	-0,211	-0,210
183,954	339,203	-0,134	-0,182
184,969	23,387	-0,253	-0,144
185,983	-92,434	-0,175	-0,034
186,998	190,767	-0,196	-0,205
188,013	53,247	-0,170	-0,113
189,027	800,000	-0,140	-0,275
190,042	202,585	-0,209	-0,224
191,056	-31,054	-0,313	-0,122
192,071	186,642	-0,020	0,021
193,086	120,732	-0,148	-0,128
194,100	-60,496	-0,209	-0,061
195,115	128,100	-0,199	-0,176
196,129	130,214	-0,226	-0,200
197,144	177,335	-0,284	-0,287
198,159	69,223	-0,231	-0,165
199,173	320,799	-0,227	-0,299
200,188	594,775	-0,139	-0,240
201,202	-109,288	-0,332	-0,048
202,217	15,741	-0,185	-0,101
203,232	199,620	-0,170	-0,181
204,246	116,601	-0,210	-0,178
205,261	92,920	-0,216	-0,169
206,275	78,404	-0,254	-0,188
207,290	159,848	-0,140	-0,135
208,304	762,102	-0,053	-0,100
209,319	59,400	-0,273	-0,186
210,334	-37,300	-0,242	-0,089
211,348	-65,004	-0,296	-0,082
212,363	-39,347	-0,224	-0,081
213,377	-74,354	-0,194	-0,048
214,392	-4,533	-0,244	-0,116
215,407	18,794	-0,286	-0,158
216,421	-150,891	-0,149	0,008
217,436	748,271	-0,080	-0,150
218,450	253,608	-0,201	-0,238
219,465	190,021	-0,206	-0,214
220,480	74,854	-0,118	-0,086
221,494	445,919	-0,161	-0,246
222,509	-44,287	-0,195	-0,067
223,523	-126,524	-0,171	-0,017
224,538	-27,256	-0,214	-0,086
225,553	111,863	-0,209	-0,174
226,567	-200,000	-0,066	-0,297
227,582	90,656	-0,295	-0,228
228,596	-2,055	-0,239	-0,115
229,611	664,707	-0,108	-0,193
230,626	12,118	-0,228	-0,121
231,640	94,620	-0,185	-0,146
232,655	56,240	-0,244	-0,163
233,669	166,501	-0,262	-0,257
234,684	-146,735	-0,145	0,009
235,699	620,940	-0,141	-0,245
236,713	-114,686	-0,169	-0,022
237,728	-1,150	-0,132	-0,064
238,742	-150,442	-0,194	-0,010
239,757	-86,676	-0,203	-0,043
240,772	38,743	-0,197	-0,121
241,786	201,815	-0,088	-0,094
242,801	-79,679	-0,152	-0,035
243,815	232,081	-0,172	-0,196
244,830	82,187	-0,242	-0,181
245,844	800,000	-0,117	-0,284
246,859	12,849	-0,120	-0,064
247,874	-26,223	-0,226	-0,091
248,888	-91,191	-0,243	-0,048
249,903	123,117	-0,117	-0,101
250,917	109,372	-0,159	-0,131
251,932	462,398	-0,132	-0,204
252,947	-33,030	-0,108	-0,041
253,961	577,452	-0,152	-0,257
254,976	220,462	-0,134	-0,148
255,990	525,317	-0,090	-0,146
257,005	96,336	-0,200	-0,158
258,020	116,940	-0,186	-0,157
259,034	41,090	-0,171	-0,106
260,049	119,679	-0,099	-0,084
261,063	-15,419	-0,109	0,048
262,078	683,862	-0,176	-0,318
263,093	409,160	-0,159	-0,233
264,107	141,977	-0,180	-0,164
265,122	67,450	-0,118	-0,083
266,136	342,939	-0,105	-0,142
267,151	27,437	-0,119	-0,069
268,166	44,450	-0,204	-0,129
269,180	216,563	-0,157	-0,172
270,195	72,940	-0,084	-0,060
271,209	-200,000	0,000	-0,085
272,224	800,000	-0,069	-0,195
273,239	-188,973	-0,228	0,002
274,253	-23,614	-0,196	0,081
275,268	-165,131	-0,188	-0,006
276,282	712,200	-0,098	-0,179
277,297	48,646	-0,164	-0,106
278,312	146,514	-0,155	-0,143
279,326	-200,000	0,015	-0,163
280,341	98,448	-0,151	-0,120
281,355	-69,710	-0,034	0,009
282,370	50,676	-0,107	-0,070
283,384	-33,425	-0,357	-0,135
284,399	272,415	-0,181	-0,221
285,414	-142,070	-0,223	-0,015
286,428	518,355	-0,151	-0,244
287,443	35,525	-0,158	-0,095
288,457	800,000	-0,098	-0,210
289,472	-22,908	-0,108	-0,044
290,487	-22,602	-0,180	-0,074
291,501	18,859	-0,225	-0,123
292,516	92,263	-0,151	-0,117
293,530	-123,880	-0,218	0,023
294,545	-113,926	-0,231	0,030
295,560	-200,000	0,006	-0,146
296,574	-12,532	-0,261	-0,117
297,589	98,190	-0,079	-0,062
298,603	48,695	-0,262	-0,169
299,618	149,714	-0,159	-0,148
300,633	44,285	-0,199	-0,125
301,647	453,991	-0,046	-0,071
302,662	-200,000	-0,014	-0,110
303,676	399,999	-0,124	-0,180
304,691	276,223	-0,143	-0,175
305,706	-125,200	-0,227	-0,024
306,720	-69,251	-0,288	0,075
307,735	41,635	-0,190	-0,118
308,749	-7,574	-0,199	-0,092
309,764	60,457	-0,124	-0,084
310,779	417,044	-0,048	-0,070
311,793	-158,380	-0,127	0,005
312,808	800,000	-0,091	-0,243
313,822	86,892	-0,182	-0,138
314,837	-200,000	-0,046	-0,143
315,852	223,876	-0,084	-0,094
316,866	120,420	-0,091	-0,077
317,881	-95,627	-0,128	0,023
318,895	-77,526	-0,199	-0,047
319,910	-59,539	-0,111	-0,033
320,925	-200,000	-0,007	-0,122
321,939	331,131	-0,077	-0,102
322,954	102,911	-0,111	-0,089
323,968	67,839	-0,045	-0,031
324,983	281,955	-0,035	0,043
325,997	800,000	-0,092	-0,174
327,012	112,754	-0,190	-0,158
328,027	-200,000	-0,005	-0,055
329,041	565,778	-0,044	-0,074
330,056	800,000	-0,038	-0,104
331,070	5,233	-0,143	-0,072
332,085	800,000	-0,098	-0,244
333,100	-63,385	-0,107	-0,030
334,114	229,451	-0,134	-0,150
335,129	113,490	-0,152	-0,126
336,143	-104,201	-0,131	0,021
337,158	110,709	-0,040	-0,033
338,173	35,412	-0,085	-0,051
339,187	743,834	-0,100	-0,185
340,202	-28,188	-0,119	-0,047
341,216	800,000	-0,057	-0,149
342,231	253,031	-0,154	-0,180
343,246	-126,447	-0,113	-0,011
344,260	114,778	-0,085	-0,071
345,275	90,114	-0,162	-0,124
346,289	-142,536	-0,090	-0,006
347,304	67,634	-0,053	-0,037
348,319	800,000	-0,120	-0,240
349,333	488,494	-0,053	-0,084
350,348	135,854	-0,159	-0,141
351,362	98,166	-0,076	-0,060
352,377	52,361	-0,131	-0,085
353,392	-46,155	-0,251	-0,084
354,406	-28,693	-0,148	-0,058
355,421	209,042	1305,035	1398,601
356,435	160,880	1464,544	1399,089
