DTS Sentinel unit serial number:	SN410029Multiplexer serial number:	ORYXHardware model number:	OX2-SRSoftware version number:	ORYX F/W v4,00 Oryx Data Collector v3.7.2.0data status	okinstallation	B3 Nyhavnadifferential loss correction	single-endedforward channel	channel 1reverse channel	N/Adate	2023/12/04time	17:57:30forward acquisition time	300,00reverse acquisition time	0,00gamma	499,1914k internal	0,3200k external	0,3200temperature offset calibration	1,0000default loss term (dB/km)	0,3820temperature slope calibration	1,0000multiplexer offset coefficient	1,0000multiplexer slope coefficient	1,0000fibre end	0,00T internal ref (°C)	15,02T ext. ref 1 (°C)	-0,09T ext. ref 2 (°C)	-0,10length (m)	temperature (°C)	Stokes	anti-Stokes-744,400	488,926	-0,123	-0,206
-743,385	-200,000	0,060	0,213
-742,371	55,131	-0,294	-0,206
-741,356	-200,000	-0,039	0,382
-740,342	301,347	-0,228	-0,308
-739,327	359,076	-0,178	0,260
-738,312	348,428	-0,201	-0,290
-737,298	-200,000	-0,015	0,141
-736,283	800,000	-0,123	-0,257
-735,269	-200,000	0,047	0,308
-734,254	40,679	-0,137	-0,089
-733,239	-120,542	-0,326	0,040
-732,225	85,513	-0,240	-0,191
-731,210	-200,000	0,062	0,216
-730,196	800,000	0,034	-0,090
-729,181	-123,399	-0,101	-0,012
-728,167	50,921	0,064	-0,044
-727,152	-89,742	-0,109	0,023
-726,137	-200,000	0,006	0,047
-725,123	-140,915	-0,019	-0,001
-724,108	-80,126	0,183	0,044
-723,094	504,115	0,021	0,035
-722,079	7,784	0,070	0,038
-721,064	249,255	0,015	-0,019
-720,050	400,875	0,063	-0,097
-719,035	-64,288	-0,075	0,022
-718,021	-78,606	-0,016	-0,004
-717,006	150,578	-0,152	-0,151
-715,991	-40,764	-0,110	-0,041
-714,977	-200,000	-0,001	-0,011
-713,962	-157,702	0,037	0,002
-712,948	4,940	0,092	0,049
-711,933	408,159	0,064	-0,098
-710,918	-84,800	-0,040	-0,009
-709,904	-200,000	0,011	-0,086
-708,889	-158,579	-0,131	-0,005
-707,875	360,364	-0,025	-0,036
-706,860	800,000	0,024	-0,049
-705,845	147,802	-0,061	-0,060
-704,831	81,798	0,066	-0,052
-703,816	788,927	0,005	-0,010
-702,802	72,845	-0,126	0,096
-701,787	170,747	-0,134	-0,139
-700,772	-128,759	-0,066	-0,007
-699,758	-30,444	0,055	0,022
-698,743	800,000	-0,022	-0,065
-697,729	122,755	-0,131	0,119
-696,714	67,205	0,111	0,082
-695,699	738,835	-0,065	-0,127
-694,685	800,000	0,057	0,169
-693,670	-58,785	0,013	-0,004
-692,656	800,000	-0,037	0,114
-691,641	7,697	0,080	0,043
-690,627	-200,000	-0,001	0,123
-689,612	-55,983	0,030	0,010
-688,597	-5,604	-0,011	0,006
-687,583	-89,366	-0,131	-0,028
-686,568	-127,646	-0,118	-0,012
-685,554	-200,000	0,007	-0,090
-684,539	-200,000	0,012	0,158
-683,524	286,738	0,045	0,058
-682,510	800,000	-0,065	0,135
-681,495	-121,907	0,131	0,015
-680,481	-88,268	-0,156	-0,034
-679,466	583,876	-0,056	-0,100
-678,451	-7,774	0,042	0,021
-677,437	323,769	-0,065	-0,091
-676,422	800,000	0,013	-0,028
-675,408	-6,144	-0,115	0,057
-674,393	-200,000	-0,001	-0,036
-673,378	323,447	-0,050	-0,070
-672,364	-55,358	0,046	-0,015
-671,349	533,767	0,031	-0,053
-670,335	333,423	-0,076	-0,107
-669,320	-23,296	-0,053	0,023
-668,305	-200,000	-0,004	0,145
-667,291	-200,000	0,040	0,156
-666,276	79,379	-0,061	-0,047
-665,262	177,225	0,063	-0,067
-664,247	800,000	-0,027	0,061
-663,232	93,995	-0,027	-0,022
-662,218	800,000	0,069	-0,141
-661,203	800,000	0,056	-0,120
-660,189	95,151	-0,061	0,051
-659,174	10,060	-0,101	-0,055
-658,159	800,000	-0,083	-0,227
-657,145	294,610	-0,024	0,032
-656,130	800,000	-0,031	0,077
-655,116	418,432	0,080	-0,125
-654,101	-41,159	-0,079	-0,029
-653,086	800,000	0,091	-0,185
-652,072	624,105	-0,069	-0,126
-651,057	64,073	-0,042	0,031
-650,043	-200,000	-0,026	-0,087
-649,028	29,592	0,001	-0,001
-648,014	107,648	0,114	0,098
-646,999	-1,984	-0,049	-0,025
-645,984	-200,000	0,014	-0,082
-644,970	-1,548	-0,087	-0,045
-643,955	-18,833	-0,208	-0,094
-642,941	800,000	0,045	-0,133
-641,926	-200,000	0,020	0,092
-640,911	800,000	0,042	0,119
-639,897	97,721	0,071	0,059
-638,882	-200,000	0,007	0,065
-637,868	115,002	0,049	-0,043
-636,853	102,985	-0,086	-0,073
-635,838	-20,233	0,119	-0,053
-634,824	61,354	-0,142	-0,102
-633,809	-200,000	0,017	-0,134
-632,795	1,062	-0,046	0,024
-631,780	32,341	0,080	0,050
-630,765	800,000	0,018	-0,047
-629,751	-109,071	-0,042	0,006
-628,736	134,564	0,055	0,052
-627,722	-111,102	-0,083	-0,012
-626,707	328,602	-0,026	-0,036
-625,692	-200,000	-0,020	-0,119
-624,678	-200,000	0,006	0,104
-623,663	251,814	-0,038	0,047
-622,649	59,420	0,072	-0,051
-621,634	-37,960	-0,019	-0,007
-620,619	101,925	0,154	-0,130
-619,605	282,406	0,059	-0,076
-618,590	19,038	-0,040	-0,023
-617,576	-200,000	0,022	-0,090
-616,561	-200,000	0,038	0,170
-615,546	453,016	-0,054	-0,087
-614,532	-146,472	-0,100	-0,006
-613,517	-200,000	-0,014	0,084
-612,503	148,611	0,059	-0,057
-611,488	-89,697	0,038	0,008
-610,474	66,614	-0,022	-0,016
-609,459	364,689	-0,060	0,088
-608,444	16,778	0,086	-0,049
-607,430	-200,000	-0,002	-0,094
-606,415	169,068	-0,141	-0,146
-605,401	800,000	0,012	0,037
-604,386	-66,459	0,071	-0,020
-603,371	-43,785	0,074	0,027
-602,357	48,097	0,037	-0,025
-601,342	116,056	-0,076	-0,067
-600,328	185,485	-0,095	-0,102
-599,313	-142,596	-0,121	-0,008
-598,298	95,239	-0,024	-0,020
-597,284	-200,000	-0,013	-0,075
-596,269	191,286	-0,058	0,063
-595,255	-26,135	0,081	-0,034
-594,240	-72,836	-0,017	-0,004
-593,225	800,000	-0,040	-0,109
-592,211	800,000	-0,037	-0,092
-591,196	-44,193	-0,118	0,043
-590,182	50,011	0,030	0,021
-589,167	800,000	0,016	-0,050
-588,152	-59,103	-0,110	0,034
-587,138	154,311	0,048	0,048
-586,123	-23,886	-0,140	-0,060
-585,109	159,104	-0,073	-0,073
-584,094	-44,672	-0,182	0,065
-583,079	-200,000	-0,007	0,026
-582,065	800,000	-0,040	0,092
-581,050	49,982	-0,064	0,043
-580,036	8,575	0,069	-0,038
-579,021	-57,557	0,097	-0,031
-578,006	-54,076	-0,036	-0,012
-576,992	234,451	-0,076	0,091
-575,977	-29,958	0,051	-0,021
-574,963	-200,000	0,037	0,243
-573,948	242,057	0,027	0,033
-572,934	800,000	0,069	-0,138
-571,919	162,668	-0,069	-0,070
-570,904	-131,104	-0,078	-0,007
-569,890	668,375	0,019	-0,036
-568,875	-11,643	-0,114	-0,054
-567,861	-200,000	-0,034	0,206
-566,846	613,970	0,048	-0,087
-565,831	269,333	-0,032	-0,041
-564,817	-200,000	-0,021	-0,136
-563,802	390,258	-0,056	-0,085
-562,788	90,741	0,046	-0,037
-561,773	-25,825	0,109	0,046
-560,758	60,586	-0,067	0,048
-559,744	800,000	-0,028	0,069
-558,729	309,478	-0,090	0,122
-557,715	223,225	0,028	-0,033
-556,700	-200,000	0,003	-0,057
-555,685	-200,000	-0,022	-0,088
-554,671	800,000	-0,032	-0,065
-553,656	-200,000	0,015	-0,128
-552,642	158,434	0,071	0,072
-551,627	800,000	-0,026	0,083
-550,612	147,030	-0,042	-0,041
-549,598	-50,437	0,014	-0,005
-548,583	-78,702	0,098	-0,024
-547,569	89,567	-0,063	-0,051
-546,554	3,007	0,136	0,071
-545,539	800,000	-0,033	0,090
-544,525	239,784	-0,064	-0,078
-543,510	-200,000	0,020	-0,096
-542,496	-72,744	-0,083	-0,022
-541,481	800,000	-0,053	-0,108
-540,466	59,186	-0,046	-0,033
-539,452	-200,000	-0,011	0,063
-538,437	-200,000	-0,031	0,103
-537,423	597,005	0,016	0,029
-536,408	800,000	-0,069	0,145
-535,393	-200,000	0,022	-0,152
-534,379	57,391	-0,053	0,037
-533,364	-90,027	0,050	-0,011
-532,350	800,000	-0,040	0,094
-531,335	-200,000	0,035	-0,117
-530,321	-200,000	0,023	0,098
-529,306	147,533	0,061	-0,060
-528,291	226,652	0,073	-0,085
-527,277	-62,355	-0,091	-0,027
-526,262	165,909	-0,074	-0,076
-525,248	-115,730	-0,032	0,004
-524,233	800,000	0,023	0,071
-523,218	-108,234	0,194	0,030
-522,204	-200,000	0,005	0,046
-521,189	12,349	0,096	-0,053
-520,175	510,877	-0,049	-0,082
-519,160	-200,000	-0,012	-0,100
-518,145	544,317	-0,036	0,063
-517,131	-158,771	0,156	0,006
-516,116	216,967	0,091	0,105
-515,102	-200,000	0,002	-0,067
-514,087	136,900	-0,060	0,056
-513,072	-184,788	-0,140	0,002
-512,058	163,386	0,066	-0,067
-511,043	-200,000	-0,005	0,042
-510,029	-64,041	-0,079	-0,023
-509,014	134,475	0,066	-0,062
-507,999	379,152	-0,089	-0,132
-506,985	644,830	0,011	0,021
-505,970	-74,499	-0,082	-0,021
-504,956	34,237	-0,028	0,018
-503,941	800,000	0,033	0,090
-502,926	-200,000	-0,001	0,008
-501,912	-108,919	-0,072	-0,011
-500,897	-200,000	0,011	-0,037
-499,883	224,486	-0,094	-0,109
-498,868	234,637	-0,135	-0,160
-497,853	-2,072	0,130	0,066
-496,839	-200,000	-0,019	0,147
-495,824	58,424	-0,071	0,050
-494,810	-200,000	0,018	0,122
-493,795	-137,400	-0,051	0,004
-492,781	52,009	-0,060	0,041
-491,766	8,884	-0,114	0,062
-490,751	-200,000	-0,014	-0,116
-489,737	-200,000	-0,001	-0,080
-488,722	-137,708	0,183	0,015
-487,708	800,000	-0,031	-0,062
-486,693	144,894	0,097	0,093
-485,678	90,284	-0,085	0,068
-484,664	-200,000	-0,001	-0,034
-483,649	800,000	0,033	0,086
-482,635	-109,261	-0,157	0,024
-481,620	94,460	0,011	0,009
-480,605	31,217	0,068	-0,042
-479,591	-49,945	0,123	-0,042
-478,576	365,177	-0,021	0,030
-477,562	-105,772	-0,088	-0,014
-476,547	205,389	-0,029	0,033
-475,532	136,627	-0,074	-0,070
-474,518	-146,299	0,049	-0,003
-473,503	-0,465	-0,063	0,032
-472,489	574,451	0,072	-0,127
-471,474	800,000	0,022	-0,066
-470,459	800,000	-0,022	0,051
-469,445	-200,000	-0,037	-0,125
-468,430	39,322	-0,031	-0,020
-467,416	320,877	-0,078	-0,106
-466,401	800,000	0,068	0,145
-465,386	43,645	0,140	-0,092
-464,372	87,923	-0,110	-0,088
-463,357	9,388	-0,054	0,029
-462,343	-51,711	0,079	-0,026
-461,328	-21,216	0,037	0,016
-460,313	800,000	0,024	-0,055
-459,299	-200,000	0,002	0,048
-458,284	-62,215	0,053	0,016
-457,270	0,416	0,065	-0,033
-456,255	34,082	-0,148	0,093
-455,241	-151,521	-0,107	0,006
-454,226	30,813	-0,027	-0,017
-453,211	105,758	0,060	0,051
-452,197	-200,000	0,036	0,145
-451,182	-200,000	-0,011	0,146
-450,168	244,298	-0,091	0,110
-449,153	130,694	0,016	-0,014
-448,138	-200,000	0,004	0,057
-447,124	-200,000	0,029	-0,131
-446,109	86,994	-0,060	0,048
-445,095	275,253	0,166	0,212
-444,080	28,428	-0,066	0,040
-443,065	413,498	0,029	0,045
-442,051	800,000	0,038	0,119
-441,036	53,459	-0,104	0,072
-440,022	-200,000	-0,009	-0,163
-439,007	289,871	0,076	0,099
-437,992	272,872	0,043	0,055
-436,978	-5,191	0,068	-0,033
-435,963	-36,677	0,030	-0,012
-434,949	-200,000	-0,006	-0,098
-433,934	-200,000	0,006	-0,026
-432,919	800,000	0,021	-0,050
-431,905	800,000	0,044	0,104
-430,890	-185,179	0,020	0,000
-429,876	227,379	0,030	0,035
-428,861	73,932	-0,013	0,010
-427,846	757,918	0,038	0,074
-426,832	-83,833	-0,055	0,013
-425,817	-200,000	0,007	0,029
-424,803	-200,000	0,012	-0,043
-423,788	-200,000	-0,010	0,159
-422,773	-38,710	0,085	-0,032
-421,759	-200,000	0,006	-0,143
-420,744	-155,809	0,002	-0,000
-419,730	-200,000	0,000	-0,091
-418,715	-111,962	-0,113	0,016
-417,701	134,279	-0,026	-0,024
-416,686	-72,464	0,124	-0,033
-415,671	-80,434	0,091	0,022
-414,657	-200,000	0,019	0,147
-413,642	28,916	-0,038	0,023
-412,628	6,807	-0,065	-0,035
-411,613	8,722	-0,086	-0,046
-410,598	-81,711	0,034	-0,008
-409,584	-120,469	0,236	-0,028
-408,569	20,157	0,081	-0,047
-407,555	-187,033	0,095	-0,001
-406,540	-88,743	-0,083	0,017
-405,525	-149,989	-0,117	-0,006
-404,511	-24,842	-0,064	0,027
-403,496	800,000	0,023	0,068
-402,482	19,944	0,205	-0,118
-401,467	524,883	0,037	-0,062
-400,452	3,052	0,113	0,059
-399,438	-200,000	-0,045	0,195
-398,423	44,336	-0,088	0,058
-397,409	-200,000	-0,007	-0,027
-396,394	-146,101	-0,059	-0,004
-395,379	362,327	0,030	-0,043
-394,365	18,952	0,042	-0,024
-393,350	-200,000	-0,013	-0,061
-392,336	-126,252	-0,027	0,003
-391,321	517,663	-0,011	-0,019
-390,306	-200,000	-0,027	-0,142
-389,292	-136,604	0,084	-0,007
-388,277	-5,960	-0,055	-0,027
-387,263	-143,434	0,050	0,003
-386,248	54,716	0,100	-0,069
-385,233	71,647	0,103	0,077
-384,219	-67,706	0,070	0,020
-383,204	-73,300	-0,044	0,012
-382,190	33,448	-0,074	-0,046
-381,175	-116,990	0,088	-0,011
-380,160	-122,911	-0,045	-0,005
-379,146	204,257	0,078	-0,086
-378,131	314,653	-0,113	0,153
-377,117	280,722	-0,087	0,112
-376,102	-108,144	-0,205	0,032
-375,088	800,000	-0,046	-0,120
-374,073	-64,787	-0,061	-0,018
-373,058	800,000	0,064	-0,154
-372,044	800,000	0,038	0,107
-371,029	-72,929	-0,097	-0,025
-370,015	128,180	-0,104	-0,095
-369,000	412,724	0,031	-0,047
-367,985	400,225	-0,072	-0,109
-366,971	229,633	0,071	0,083
-365,956	-85,072	-0,165	0,037
-364,942	-103,035	0,165	-0,028
-363,927	-52,925	0,097	-0,032
-362,912	330,842	-0,054	0,074
-361,898	139,706	-0,070	0,066
-360,883	75,106	-0,048	0,036
-359,869	593,938	0,083	-0,148
-358,854	72,009	0,078	0,058
-357,839	91,463	-0,104	-0,084
-356,825	-200,000	-0,007	0,047
-355,810	-112,627	-0,047	-0,007
-354,796	-53,375	-0,060	-0,020
-353,781	-18,132	-0,102	-0,046
-352,766	3,101	-0,056	-0,029
-351,752	-153,424	-0,064	-0,003
-350,737	130,253	0,073	0,067
-349,723	170,206	0,083	0,085
-348,708	333,448	0,078	0,108
-347,693	800,000	0,035	0,087
-346,679	119,452	-0,032	0,028
-345,664	-155,603	-0,174	0,008
-344,650	-200,000	-0,019	0,074
-343,635	-200,000	-0,031	-0,113
-342,620	-200,000	0,061	0,195
-341,606	94,660	-0,045	-0,037
-340,591	-100,169	-0,080	-0,014
-339,577	179,146	0,089	0,093
-338,562	639,954	0,030	0,056
-337,548	-20,775	-0,118	-0,052
-336,533	-78,544	0,110	0,027
-335,518	408,643	0,090	0,137
-334,504	-200,000	-0,003	0,073
-333,489	57,617	-0,038	0,027
-332,475	-200,000	0,001	0,038
-331,460	126,768	-0,051	-0,046
-330,445	718,005	-0,012	0,023
-329,431	-200,000	0,010	-0,094
-328,416	259,390	0,019	0,023
-327,402	-81,695	0,027	0,006
-326,387	249,536	-0,053	0,064
-325,372	800,000	-0,016	-0,031
-324,358	34,213	-0,119	0,074
-323,343	-70,742	-0,091	-0,025
-322,329	800,000	0,047	-0,144
-321,314	-200,000	-0,013	0,052
-320,299	127,083	-0,028	0,026
-319,285	-20,665	0,073	0,032
-318,270	-119,108	-0,093	-0,011
-317,256	-200,000	0,033	-0,119
-316,241	-200,000	0,006	0,023
-315,226	-200,000	0,023	-0,105
-314,212	800,000	0,039	0,107
-313,197	800,000	0,067	0,163
-312,183	-112,774	-0,093	0,013
-311,168	-100,441	0,052	-0,009
-310,153	52,310	0,047	-0,032
-309,139	-200,000	-0,001	0,045
-308,124	141,134	0,019	0,018
-307,110	-200,000	0,007	0,111
-306,095	-190,875	0,052	0,000
-305,080	800,000	0,040	0,114
-304,066	800,000	0,005	0,010
-303,051	657,995	-0,022	-0,040
-302,037	-122,948	0,067	0,008
-301,022	430,754	-0,019	0,029
-300,008	-53,264	0,034	-0,011
-298,993	-200,000	-0,008	0,044
-297,978	71,550	0,085	-0,063
-296,964	-200,000	-0,005	-0,105
-295,949	-142,786	-0,161	-0,011
-294,935	-1,355	0,050	-0,025
-293,920	163,149	0,049	0,050
-292,905	-127,251	0,158	0,016
-291,891	480,835	0,013	0,021
-290,876	-200,000	-0,025	0,115
-289,862	250,260	-0,061	0,075
-288,847	-160,770	0,125	-0,005
-287,832	800,000	0,051	-0,106
-286,818	165,870	-0,045	-0,045
-285,803	-13,852	-0,034	-0,016
-284,789	-118,865	0,089	0,011
-283,774	129,415	0,037	0,034
-282,759	150,992	-0,121	0,118
-281,745	22,059	0,058	0,034
-280,730	290,999	0,054	-0,070
-279,716	800,000	-0,087	-0,178
-278,701	-60,092	0,143	-0,043
-277,686	800,000	-0,081	-0,176
-276,672	62,304	0,107	0,076
-275,657	776,138	-0,060	0,118
-274,643	-200,000	0,035	-0,142
-273,628	-23,816	-0,126	-0,054
-272,613	-135,170	-0,045	-0,004
-271,599	800,000	-0,046	0,095
-270,584	-200,000	0,002	0,103
-269,570	-52,043	0,038	-0,013
-268,555	-200,000	-0,004	-0,020
-267,540	-30,026	-0,101	-0,041
-266,526	-103,872	-0,052	-0,009
-265,511	-200,000	-0,024	-0,157
-264,497	800,000	0,026	-0,057
-263,482	168,870	0,087	-0,088
-262,467	189,382	0,069	-0,074
-261,453	-20,029	-0,099	0,044
-260,438	-91,495	0,080	0,016
-259,424	44,928	-0,053	-0,035
-258,409	-200,000	-0,023	-0,096
-257,395	73,862	0,045	-0,034
-256,380	-40,904	0,127	0,047
-255,365	-200,000	-0,019	-0,082
-254,351	-200,000	0,003	0,013
-253,336	275,453	-0,015	-0,019
-252,322	-46,846	0,117	-0,040
-251,307	160,697	0,102	-0,101
-250,292	-19,767	-0,107	-0,047
-249,278	-126,092	0,146	0,015
-248,263	-200,000	0,002	0,112
-247,249	-200,000	-0,013	0,067
-246,234	54,045	-0,078	0,054
-245,219	-200,000	-0,005	0,123
-244,205	-99,982	-0,114	0,020
-243,190	-82,022	-0,078	-0,018
-242,176	-27,834	0,055	-0,022
-241,161	100,797	0,091	-0,075
-240,146	-21,071	0,051	-0,022
-239,132	-200,000	-0,005	0,037
-238,117	788,097	-0,069	0,137
-237,103	800,000	-0,014	-0,036
-236,088	-5,310	-0,069	0,034
-235,073	-105,874	0,133	-0,021
-234,059	-19,739	0,131	0,057
-233,044	168,131	-0,072	0,073
-232,030	800,000	0,059	-0,134
-231,015	-200,000	-0,020	-0,084
-230,000	800,000	0,046	0,107
-228,986	232,965	-0,028	-0,032
-227,971	-43,510	-0,034	0,012
-226,957	319,166	0,075	0,102
-225,942	6,663	0,021	0,011
-224,927	-32,269	0,023	-0,009
-223,913	-108,539	-0,194	0,029
-222,898	352,572	-0,027	-0,039
-221,884	-42,839	0,129	-0,047
-220,869	-107,307	0,140	0,022
-219,855	9,931	0,090	-0,048
-218,840	79,080	0,042	0,032
-217,825	36,572	-0,041	0,025
-216,811	-74,362	-0,089	-0,023
-215,796	-200,000	0,002	0,081
-214,782	-106,342	-0,113	0,018
-213,767	663,981	0,060	0,111
-212,752	600,702	-0,044	0,078
-211,738	-200,000	0,059	0,197
-210,723	-136,177	-0,085	-0,007
-209,709	800,000	0,056	-0,138
-208,694	800,000	0,010	-0,022
-207,679	-200,000	-0,018	-0,109
-206,665	68,319	0,094	0,068
-205,650	21,262	0,157	0,091
-204,636	-200,000	0,034	0,117
-203,621	82,049	0,135	-0,104
-202,606	-153,749	-0,064	-0,003
-201,592	-45,913	0,120	0,042
-200,577	-200,000	-0,013	-0,100
-199,563	-200,000	-0,000	0,030
-198,548	-152,302	-0,093	-0,005
-197,533	-200,000	-0,012	-0,055
-196,519	-72,305	0,027	-0,007
-195,504	-89,476	0,064	-0,013
-194,490	-111,518	-0,118	-0,017
-193,475	68,445	-0,058	-0,042
-192,460	800,000	0,035	0,088
-191,446	472,544	0,045	-0,072
-190,431	337,786	-0,062	-0,087
-189,417	99,346	-0,068	-0,056
-188,402	67,595	-0,111	0,081
-187,387	-16,046	0,017	-0,008
-186,373	83,120	0,096	-0,075
-185,358	581,645	-0,009	0,016
-184,344	-124,973	0,137	0,015
-183,329	22,800	0,014	-0,008
-182,315	-155,620	-0,066	-0,003
-181,300	94,852	0,082	0,067
-180,285	282,547	0,063	0,081
-179,271	-44,225	0,069	-0,025
-178,256	-9,542	0,088	-0,042
-177,242	453,854	-0,047	-0,074
-176,227	-88,673	0,061	-0,013
-175,212	459,600	0,047	0,075
-174,198	800,000	-0,056	-0,136
-173,183	3,419	0,016	0,008
-172,169	800,000	0,007	-0,020
-171,154	-62,508	0,096	-0,028
-170,139	-105,319	0,115	0,019
-169,125	59,542	-0,103	0,072
-168,110	458,976	-0,086	0,136
-167,096	800,000	0,046	0,105
-166,081	-200,000	-0,033	0,128
-165,066	572,887	0,062	-0,108
-164,052	-200,000	0,002	-0,076
-163,037	422,301	0,066	0,100
-162,023	353,616	0,034	0,048
-161,008	-200,000	0,001	0,011
-159,993	-200,000	-0,004	0,116
-158,979	546,440	0,041	-0,070
-157,964	-200,000	0,019	-0,096
-156,950	-127,029	-0,114	-0,012
-155,935	33,068	0,019	0,012
-154,920	-200,000	0,022	0,098
-153,906	204,695	0,008	0,008
-152,891	800,000	-0,058	0,134
-151,877	322,270	-0,075	-0,102
-150,862	-97,842	-0,087	0,016
-149,847	-200,000	0,004	-0,121
-148,833	201,471	-0,034	-0,037
-147,818	800,000	-0,045	0,101
-146,804	-200,000	-0,001	0,073
-145,789	800,000	-0,015	0,043
-144,775	100,532	-0,070	0,058
-143,760	-92,956	0,112	-0,022
-142,745	500,894	-0,065	0,106
-141,731	-200,000	-0,008	-0,061
-140,716	-200,000	0,022	-0,089
-139,702	520,489	-0,049	0,082
-138,687	800,000	0,011	0,032
-137,672	-4,221	-0,104	0,051
-136,658	258,341	-0,106	-0,130
-135,643	453,604	-0,017	-0,026
-134,629	350,445	-0,069	0,097
-133,614	800,000	0,022	-0,059
-132,599	497,369	0,031	0,051
-131,585	35,396	0,069	0,043
-130,570	20,474	-0,029	0,017
-129,556	8,292	-0,054	-0,029
-128,541	-200,000	0,006	-0,045
-127,526	420,027	-0,069	0,105
-126,512	760,319	0,007	-0,014
-125,497	58,947	0,040	0,028
-124,483	-200,000	-0,003	0,035
-123,468	186,953	-0,039	0,042
-122,453	157,425	-0,032	-0,032
-121,439	-12,646	-0,168	-0,077
-120,424	-200,000	0,005	-0,113
-119,410	63,711	0,060	0,043
-118,395	800,000	0,068	0,160
-117,380	-200,000	0,003	0,130
-116,366	60,764	-0,030	0,021
-115,351	31,966	-0,060	0,037
-114,337	800,000	-0,026	0,060
-113,322	112,436	-0,122	-0,105
-112,307	-200,000	-0,007	0,044
-111,293	-111,566	0,219	0,031
-110,278	-200,000	0,020	-0,079
-109,264	-54,618	-0,069	0,022
-108,249	800,000	-0,029	0,076
-107,234	800,000	-0,047	-0,105
-106,220	-100,826	-0,096	0,017
-105,205	-200,000	-0,006	0,040
-104,191	421,601	0,132	-0,201
-103,176	800,000	0,051	0,138
-102,162	-33,691	0,116	0,045
-101,147	-200,000	-0,001	-0,029
-100,132	-103,622	-0,085	0,014
-99,118	-132,134	0,039	-0,004
-98,103	-64,276	-0,123	0,035
-97,089	-45,036	0,086	0,030
-96,074	-200,000	0,044	0,170
-95,059	-200,000	-0,009	0,063
-94,045	51,443	-0,113	0,076
-93,030	800,000	-0,061	-0,147
-92,016	-42,773	-0,171	0,061
-91,001	-200,000	0,004	-0,044
-89,986	-36,032	0,063	-0,024
-88,972	-46,174	0,047	-0,016
-87,957	800,000	-0,035	0,071
-86,943	78,097	-0,080	0,061
-85,928	78,744	-0,073	-0,055
-84,913	-13,878	-0,087	-0,040
-83,899	-173,158	0,092	0,002
-82,884	-200,000	0,006	-0,024
-81,870	219,866	-0,135	0,153
-80,855	800,000	0,042	0,108
-79,840	-4,763	0,052	-0,025
-78,826	288,951	0,035	0,045
-77,811	-200,000	-0,017	-0,077
-76,797	134,633	0,073	-0,067
-75,782	-200,000	-0,010	0,083
-74,767	-200,000	0,007	0,077
-73,753	447,885	0,039	0,061
-72,738	66,435	0,031	-0,023
-71,724	190,962	-0,085	-0,091
-70,709	-193,376	-0,044	-0,000
-69,694	-2,686	-0,174	-0,086
-68,680	43,972	0,113	0,073
-67,665	-99,017	-0,057	-0,010
-66,651	800,000	0,053	0,115
-65,636	388,049	-0,087	0,128
-64,622	800,000	0,020	0,049
-63,607	-133,815	-0,041	-0,004
-62,592	118,139	-0,066	0,058
-61,578	-200,000	0,052	0,167
-60,563	-5,314	-0,076	-0,037
-59,549	-200,000	-0,024	0,091
-58,534	-74,146	-1,710	-0,435
-57,519	330,568	-1,480	-2,024
-56,505	-200,000	-0,652	-4,655
-55,490	135,384	0,947	0,873
-54,476	800,000	4,825	11,332
-53,461	-200,000	18,135	287,977
-52,446	800,000	728,033	2228,789
-51,432	554,190	1643,615	2810,857
-50,417	79,211	1665,281	1262,646
-49,403	22,931	1539,050	891,413
-48,388	16,838	1462,660	817,650
-47,373	17,854	1452,434	816,792
-46,359	17,244	1443,093	808,591
-45,344	15,128	1438,292	795,762
-44,330	15,085	1436,315	794,433
-43,315	15,114	1434,415	793,488
-42,300	15,051	1433,025	792,386
-41,286	15,160	1431,815	792,206
-40,271	15,110	1430,642	791,290
-39,257	15,077	1429,498	790,469
-38,242	15,141	1427,996	789,910
-37,227	15,145	1426,757	789,210
-36,213	15,157	1425,551	788,568
-35,198	15,120	1424,396	787,725
-34,184	15,134	1423,602	787,322
-33,169	15,080	1422,286	786,304
-32,154	15,134	1421,037	785,840
-31,140	15,128	1419,832	785,114
-30,125	15,156	1418,868	784,683
-29,111	15,126	1417,663	783,843
-28,096	15,130	1416,544	783,211
-27,082	15,077	1415,436	782,317
-26,067	15,045	1414,219	781,463
-25,052	15,047	1413,218	780,891
-24,038	15,000	1412,272	780,117
-23,023	15,050	1411,043	779,640
-22,009	15,055	1410,044	779,079
-20,994	15,020	1409,339	778,496
-19,979	14,978	1408,394	777,746
-18,965	14,999	1407,389	777,261
-17,950	14,944	1406,450	776,453
-16,936	15,015	1405,464	776,210
-15,921	14,952	1404,328	775,258
-14,906	14,980	1403,432	774,863
-13,892	14,988	1402,449	774,326
-12,877	15,028	1401,651	774,041
-11,863	14,932	1400,935	773,169
-10,848	14,933	1400,007	772,632
-9,833	14,950	1398,890	772,061
-8,819	14,898	1398,051	771,325
-7,804	14,855	1397,126	770,585
-6,790	14,878	1395,975	770,027
-5,775	14,843	1395,261	769,439
-4,760	14,879	1394,210	768,999
-3,746	14,873	1393,386	768,486
-2,731	14,849	1392,631	767,929
-1,717	14,845	1391,731	767,383
-0,702	14,888	1389,759	766,460
0,313	18,623	1308,563	738,987
1,327	34,743	706,452	436,304
2,342	53,143	124,570	84,292
3,356	7,017	16,659	8,762
4,371	-1,860	3,063	1,520
5,386	28,018	0,607	0,361
6,400	800,000	-0,023	0,070
7,415	42,179	-0,263	-0,169
8,429	-32,225	-0,262	-0,103
9,444	-16,231	-0,337	-0,151
10,459	122,111	-0,198	-0,175
11,473	-92,127	-0,315	-0,062
12,488	-110,700	-0,218	-0,031
13,502	190,351	-0,355	-0,378
14,517	312,697	-0,274	-0,365
15,531	-11,256	-0,427	-0,198
16,546	91,795	-0,319	-0,253
17,561	19,458	-0,430	-0,244
18,575	381,752	-0,140	-0,204
19,590	-58,982	-0,349	-0,106
20,604	24,479	-0,241	-0,140
21,619	69,820	-0,395	-0,287
22,634	92,338	-0,405	-0,322
23,648	194,202	-0,392	-0,420
24,663	327,411	-0,341	-0,463
25,677	317,383	-0,313	-0,420
26,692	191,071	-0,287	-0,305
27,707	23,823	-0,378	-0,219
28,721	23,421	-0,390	-0,226
29,736	67,813	-0,442	-0,319
30,750	144,244	-0,379	-0,358
31,765	259,174	-0,308	-0,376
32,780	184,304	-0,310	-0,324
33,794	-13,832	-0,371	-0,169
34,809	278,652	-0,312	-0,394
35,823	70,933	-0,423	-0,309
36,838	75,668	-0,315	-0,234
37,853	118,555	-0,365	-0,318
38,867	55,100	-0,377	-0,257
39,882	95,333	-0,273	-0,220
40,896	92,876	-0,327	-0,261
41,911	-33,206	-0,287	-0,111
42,926	42,695	-0,276	-0,177
43,940	188,629	-0,325	-0,344
44,955	49,842	-0,331	-0,219
45,969	136,454	-0,421	-0,387
46,984	207,964	-0,281	-0,310
47,999	-54,948	-0,281	-0,089
49,013	-127,798	-0,339	-0,034
50,028	5,149	-0,234	-0,121
51,042	-3,686	-0,355	-0,173
52,057	108,296	-0,365	-0,307
53,071	46,162	-0,458	-0,298
54,086	-55,272	-0,384	-0,121
55,101	38,749	-0,378	-0,237
56,115	-0,292	-0,275	-0,137
57,130	57,377	-0,411	-0,282
58,144	174,539	-0,397	-0,404
59,159	57,125	-0,482	-0,331
60,174	13,376	-0,414	-0,225
61,188	-15,896	-0,369	-0,165
62,203	4,022	-0,222	-0,114
63,217	17,249	-0,303	-0,169
64,232	-6,337	-0,334	-0,160
65,247	59,122	-0,417	-0,289
66,261	113,738	-0,292	-0,250
67,276	40,122	-0,251	-0,158
68,290	364,491	-0,271	-0,385
69,305	171,327	-0,307	-0,310
70,320	-96,468	-0,163	-0,030
71,334	12,906	-0,293	-0,159
72,349	19,053	-0,289	-0,163
73,363	94,693	-0,337	-0,269
74,378	-9,708	-0,346	-0,161
75,393	83,315	-0,265	-0,203
76,407	-69,672	-0,208	-0,055
77,422	-31,553	-0,283	-0,111
78,436	88,517	-0,278	-0,217
79,451	-43,852	-0,371	-0,130
80,466	189,433	-0,287	-0,302
81,480	180,845	-0,254	-0,262
82,495	83,628	-0,264	-0,202
83,509	-53,559	-0,354	-0,113
84,524	-18,401	-0,357	-0,156
85,539	76,460	-0,265	-0,197
86,553	-14,113	-0,399	-0,180
87,568	47,027	-0,390	-0,254
88,582	52,350	-0,330	-0,221
89,597	38,528	-0,289	-0,181
90,611	-93,997	-0,251	-0,048
91,626	-11,834	-0,160	-0,073
92,641	10,148	-0,308	-0,164
93,655	59,023	-0,358	-0,247
94,670	86,409	-0,303	-0,234
95,684	28,806	-0,324	-0,192
96,699	-27,434	-0,347	-0,141
97,714	189,820	-0,183	-0,193
98,728	0,692	-0,292	-0,146
99,743	-20,918	-0,201	-0,086
100,757	51,804	-0,377	-0,251
101,772	84,120	-0,260	-0,199
102,787	-75,342	-0,425	-0,106
103,801	43,412	-0,408	-0,261
104,816	42,857	-0,305	-0,195
105,830	74,910	-0,305	-0,225
106,845	-132,240	-0,240	0,021
107,860	-9,436	-0,253	-0,118
108,874	18,529	-0,342	-0,191
109,889	31,930	-0,290	-0,175
110,903	111,427	-0,275	-0,233
111,918	79,588	-0,229	-0,172
112,933	-86,651	-0,278	-0,059
113,947	143,519	-0,200	-0,187
114,962	19,601	-0,210	-0,118
115,976	35,509	-0,281	-0,173
116,991	-70,169	-0,290	-0,077
118,006	265,035	-0,266	-0,325
119,020	-54,621	-0,303	-0,096
120,035	55,394	-0,246	-0,167
121,049	-131,740	-0,254	-0,023
122,064	79,676	-0,292	-0,219
123,079	77,855	-0,232	-0,173
124,093	235,381	-0,227	-0,263
125,108	49,429	-0,396	-0,260
126,122	97,126	-0,223	-0,179
127,137	184,471	-0,157	-0,163
128,151	-5,148	-0,299	-0,144
129,166	441,851	-0,148	-0,228
130,181	189,010	-0,199	-0,209
131,195	352,348	-0,122	-0,170
132,210	408,576	-0,182	-0,270
133,224	-33,050	-0,314	-0,121
134,239	72,937	-0,235	-0,172
135,254	207,704	-0,149	-0,163
136,268	42,540	-0,166	-0,105
137,283	13,057	-0,184	-0,100
138,297	306,511	-0,261	-0,341
139,312	19,711	-0,375	-0,211
140,327	195,202	-0,291	-0,309
141,341	123,734	-0,243	-0,213
142,356	88,649	-0,172	-0,134
143,370	164,242	-0,169	-0,167
144,385	327,095	-0,181	-0,243
145,400	101,885	-0,269	-0,219
146,414	256,514	-0,190	-0,229
147,429	54,811	-0,301	-0,203
148,443	42,440	-0,306	-0,194
149,458	-35,512	-0,174	-0,066
150,473	446,346	-0,180	-0,277
151,487	16,781	-0,199	-0,109
152,502	124,424	-0,303	-0,266
153,516	-16,812	-0,307	-0,135
154,531	141,805	-0,203	-0,188
155,546	-39,038	-0,193	-0,071
156,560	22,118	-0,176	-0,100
157,575	153,073	-0,151	-0,144
158,589	92,929	-0,234	-0,185
159,604	-11,324	-0,222	-0,102
160,619	404,399	-0,100	-0,148
161,633	-13,267	-0,384	-0,173
162,648	5,765	-0,319	-0,164
163,662	142,357	-0,200	-0,185
164,677	-83,216	-0,381	-0,085
165,692	58,630	-0,195	-0,133
166,706	-135,642	-0,284	-0,023
167,721	-3,222	-0,306	-0,148
168,735	-41,826	-0,299	-0,106
169,750	407,339	-0,186	-0,274
170,764	197,580	-0,189	-0,202
171,779	-0,586	-0,272	-0,134
172,794	-30,572	-0,248	-0,098
173,808	-75,158	-0,226	-0,056
174,823	800,000	-0,131	-0,365
175,837	16,955	-0,326	-0,180
176,852	347,035	-0,141	-0,194
177,867	162,637	-0,129	-0,126
178,881	800,000	-0,066	-0,128
179,896	188,664	-0,159	-0,166
180,910	59,075	-0,317	-0,217
181,925	-28,740	-0,352	-0,140
182,940	207,095	-0,186	-0,202
183,954	220,768	-0,194	-0,217
184,969	122,234	-0,203	-0,177
185,983	-39,950	-0,220	-0,080
186,998	-37,817	-0,114	-0,042
188,013	5,508	-0,270	-0,139
189,027	24,536	-0,273	-0,157
190,042	161,055	-0,287	-0,280
191,056	57,197	-0,306	-0,208
192,071	311,964	-0,209	-0,274
193,086	61,208	-0,285	-0,196
194,100	-163,357	-0,245	0,008
195,115	-29,660	-0,190	-0,075
196,129	-76,075	-0,262	-0,064
197,144	-53,041	-0,373	-0,119
198,159	112,388	-0,290	-0,244
199,173	226,769	-0,128	-0,145
200,188	-172,075	-0,177	0,004
201,202	13,334	-0,215	-0,116
202,217	55,356	-0,289	-0,194
203,232	228,693	-0,115	-0,131
204,246	222,900	-0,250	-0,281
205,261	-76,836	-0,219	-0,053
206,275	60,155	-0,128	-0,088
207,290	177,784	-0,158	-0,160
208,304	84,986	-0,228	-0,174
209,319	800,000	-0,109	-0,263
210,334	165,314	-0,266	-0,262
211,348	209,750	-0,302	-0,329
212,363	171,451	-0,155	-0,154
213,377	-153,729	-0,126	0,006
214,392	58,669	-0,168	-0,114
215,407	288,807	-0,208	-0,262
216,421	266,831	-0,159	-0,193
217,436	126,503	-0,219	-0,192
218,450	81,666	-0,141	-0,106
219,465	295,974	-0,178	-0,227
220,480	-200,000	0,013	-0,135
221,494	-12,945	-0,162	-0,073
222,509	-69,193	-0,222	-0,059
223,523	215,383	-0,139	-0,153
224,538	2,375	-0,138	-0,069
225,553	335,957	-0,160	-0,216
226,567	120,542	-0,247	-0,213
227,582	-17,175	-0,180	-0,078
228,596	311,557	-0,060	-0,078
229,611	-96,380	-0,178	-0,032
230,626	-38,413	-0,132	0,048
231,640	444,357	-0,177	-0,270
232,655	329,737	-0,144	-0,193
233,669	73,275	-0,254	-0,184
234,684	158,034	-0,145	-0,140
235,699	314,823	-0,113	-0,148
236,713	50,553	-0,152	0,099
237,728	28,458	-0,195	-0,114
238,742	-200,000	-0,059	-0,252
239,757	172,971	-0,170	-0,170
240,772	193,421	-0,185	-0,194
241,786	515,053	-0,091	-0,147
242,801	187,603	-0,143	-0,148
243,815	-80,879	-0,142	-0,032
244,830	187,807	-0,231	-0,239
245,844	222,614	-0,152	-0,169
246,859	181,007	-0,130	-0,132
247,874	75,226	-0,205	-0,150
248,888	-105,614	-0,205	-0,032
249,903	29,650	-0,270	-0,159
250,917	-29,441	-0,231	-0,091
251,932	734,071	-0,077	-0,143
252,947	-78,253	-0,202	-0,048
253,961	121,845	-0,232	-0,201
254,976	139,730	-0,231	-0,210
255,990	51,570	-0,231	-0,152
257,005	20,684	-0,212	-0,119
258,020	800,000	-0,035	-0,072
259,034	295,513	-0,168	-0,213
260,049	-34,781	-0,131	-0,049
261,063	-49,458	-0,194	-0,063
262,078	204,979	-0,156	-0,168
263,093	-11,703	-0,288	-0,130
264,107	-130,723	-0,182	-0,017
265,122	-49,453	-0,216	-0,071
266,136	290,143	-0,142	-0,179
267,151	-136,417	-0,129	-0,010
268,166	-42,863	-0,164	-0,057
269,180	31,767	-0,171	-0,101
270,195	136,847	-0,232	-0,210
271,209	146,326	-0,114	-0,106
272,224	388,343	-0,122	-0,175
273,239	241,544	-0,029	-0,034
274,253	32,996	-0,205	-0,123
275,268	118,239	-0,102	-0,087
276,282	251,689	-0,169	-0,199
277,297	32,875	-0,128	-0,076
278,312	-41,512	-0,177	-0,063
279,326	340,950	-0,129	-0,174
280,341	123,666	-0,157	-0,136
281,355	270,536	-0,112	-0,136
282,370	186,125	-0,205	-0,211
283,384	-91,821	-0,258	-0,050
284,399	37,452	-0,115	-0,070
285,414	36,240	-0,180	-0,109
286,428	30,257	-0,098	-0,058
287,443	800,000	0,014	-0,032
288,457	72,641	-0,241	-0,173
289,472	46,475	-0,172	-0,110
290,487	185,935	-0,187	-0,192
291,501	211,227	-0,145	-0,158
292,516	92,281	-0,139	-0,108
293,530	-90,312	-0,162	-0,032
294,545	800,000	-0,101	-0,211
295,560	402,571	-0,093	-0,135
296,574	2,925	-0,167	-0,083
297,589	236,097	-0,100	-0,115
298,603	800,000	-0,054	-0,116
299,618	795,309	-0,092	-0,176
300,633	409,994	-0,103	-0,151
301,647	340,314	-0,057	-0,077
302,662	39,934	-0,163	-0,101
303,676	-95,991	-0,018	0,003
304,691	-76,551	-0,104	-0,025
305,706	81,843	-0,175	-0,130
306,720	271,727	-0,175	-0,213
307,735	-125,156	-0,223	-0,023
308,749	800,000	-0,028	-0,066
309,764	-12,270	-0,119	-0,053
310,779	302,197	-0,082	-0,105
311,793	-92,018	-0,245	-0,047
312,808	325,541	-0,088	-0,116
313,822	-125,310	-0,188	-0,020
314,837	-89,290	-0,159	-0,032
315,852	-200,000	-0,017	-0,149
316,866	52,831	-0,199	-0,131
317,881	321,752	-0,066	-0,087
318,895	70,261	-0,150	-0,107
319,910	-105,880	-0,103	-0,016
320,925	-156,990	-0,189	-0,008
321,939	249,489	-0,075	-0,087
322,954	-30,046	-0,267	-0,104
323,968	521,533	0,069	-0,113
324,983	725,994	-0,080	-0,147
325,997	213,234	-0,122	-0,132
327,012	91,843	-0,173	-0,134
328,027	-30,013	-0,166	-0,065
329,041	-200,000	-0,062	-0,216
330,056	3,714	-0,074	-0,037
331,070	-121,661	-0,130	-0,015
332,085	176,271	-0,171	-0,171
333,100	-105,584	-0,218	-0,034
334,114	277,468	-0,098	-0,120
335,129	3,833	-0,152	-0,076
336,143	18,170	-0,205	-0,112
337,158	-200,000	-0,058	-0,190
338,173	90,238	-0,081	-0,062
339,187	90,683	-0,144	-0,111
340,202	34,671	-0,135	-0,081
341,216	-200,000	-0,056	-0,212
342,231	-196,162	-0,211	0,001
343,246	165,762	-0,085	-0,082
344,260	646,594	-0,132	-0,233
345,275	95,999	-0,122	0,095
346,289	154,074	0,049	0,046
347,304	-200,000	0,014	-0,153
348,319	191,917	-0,158	-0,163
349,333	256,695	-0,104	-0,123
350,348	-132,418	-0,210	0,018
351,362	122,994	-0,207	-0,178
352,377	-17,859	-0,132	-0,057
353,392	-200,000	-0,024	-0,128
354,406	412,783	-0,044	-0,064
355,421	209,316	1317,740	1418,362
356,435	161,101	1478,831	1418,878
