DTS Sentinel unit serial number:	SN410029Multiplexer serial number:	ORYXHardware model number:	OX2-SRSoftware version number:	ORYX F/W v4,00 Oryx Data Collector v3.7.2.0data status	okinstallation	B3 Nyhavnadifferential loss correction	single-endedforward channel	channel 1reverse channel	N/Adate	2023/11/29time	19:27:30forward acquisition time	300,00reverse acquisition time	0,00gamma	499,1914k internal	0,3209k external	0,3209temperature offset calibration	1,0000default loss term (dB/km)	0,3820temperature slope calibration	1,0000multiplexer offset coefficient	1,0000multiplexer slope coefficient	1,0000fibre end	0,00T internal ref (°C)	10,94T ext. ref 1 (°C)	-4,33T ext. ref 2 (°C)	-4,43length (m)	temperature (°C)	Stokes	anti-Stokes-744,400	209,319	-0,096	-0,110
-743,385	-200,000	0,051	0,171
-742,371	493,478	-0,176	-0,295
-741,356	-200,000	-0,067	0,226
-740,342	282,145	-0,119	-0,156
-739,327	-200,000	-0,062	0,238
-738,312	392,452	-0,211	-0,319
-737,298	-200,000	-0,082	0,346
-736,283	232,603	-0,213	-0,254
-735,269	-200,000	0,101	0,424
-734,254	-23,758	-0,238	-0,103
-733,239	-30,083	-0,092	0,038
-732,225	800,000	-0,089	-0,205
-731,210	-200,000	0,005	0,112
-730,196	-200,000	-0,013	0,064
-729,181	-200,000	-0,030	-0,153
-728,167	-200,000	-0,029	-0,093
-727,152	74,725	0,033	0,025
-726,137	-200,000	-0,019	-0,060
-725,123	800,000	-0,105	-0,226
-724,108	800,000	-0,032	-0,081
-723,094	-4,495	-0,129	-0,064
-722,079	207,898	-0,091	-0,104
-721,064	800,000	-0,019	-0,046
-720,050	800,000	0,069	-0,176
-719,035	800,000	-0,034	0,080
-718,021	-200,000	0,011	0,149
-717,006	608,301	-0,046	0,084
-715,991	-200,000	-0,033	-0,126
-714,977	-24,256	0,012	0,005
-713,962	110,908	-0,128	-0,112
-712,948	-200,000	0,004	-0,137
-711,933	800,000	-0,031	0,067
-710,918	-49,569	-0,113	0,039
-709,904	-52,314	-0,119	-0,040
-708,889	800,000	-0,044	-0,106
-707,875	-47,920	-0,026	-0,009
-706,860	46,439	0,022	0,015
-705,845	800,000	-0,047	0,121
-704,831	65,018	-0,121	0,088
-703,816	49,135	-0,064	-0,044
-702,802	-200,000	0,022	-0,175
-701,787	-85,878	-0,061	-0,014
-700,772	-200,000	0,008	0,050
-699,758	-113,276	-0,097	-0,014
-698,743	-104,798	-0,049	-0,008
-697,729	-13,543	0,193	0,090
-696,714	-1,601	-0,132	0,067
-695,699	93,752	-0,079	-0,065
-694,685	-89,769	-0,097	-0,020
-693,670	-200,000	0,029	-0,142
-692,656	-200,000	-0,036	-0,125
-691,641	-200,000	-0,007	-0,119
-690,627	800,000	0,030	0,077
-689,612	51,867	0,021	-0,014
-688,597	-86,877	0,041	-0,009
-687,583	327,704	0,056	-0,078
-686,568	138,376	-0,146	-0,139
-685,554	334,221	-0,109	-0,153
-684,539	343,170	0,041	0,058
-683,524	99,021	0,089	0,074
-682,510	-200,000	-0,011	-0,136
-681,495	800,000	-0,045	-0,101
-680,481	-130,545	0,033	0,003
-679,466	800,000	0,015	0,045
-678,451	-100,839	-0,144	-0,025
-677,437	-200,000	-0,021	-0,131
-676,422	22,089	0,073	-0,043
-675,408	-200,000	0,023	-0,130
-674,393	93,069	0,071	0,058
-673,378	-71,927	-0,154	-0,041
-672,364	-71,544	-0,017	0,005
-671,349	536,656	-0,018	0,031
-670,335	-200,000	0,029	0,104
-669,320	800,000	0,012	0,031
-668,305	186,857	-0,023	0,024
-667,291	167,278	-0,009	-0,009
-666,276	-53,691	-0,091	-0,030
-665,262	-27,885	0,013	-0,005
-664,247	-200,000	-0,001	-0,024
-663,232	176,276	-0,082	-0,087
-662,218	-24,723	0,129	0,055
-661,203	304,833	0,114	0,154
-660,189	-144,480	0,075	0,005
-659,174	-20,471	-0,049	-0,022
-658,159	217,257	0,033	-0,038
-657,145	95,907	-0,138	-0,114
-656,130	-200,000	-0,033	0,109
-655,116	135,710	0,076	0,072
-654,101	2,228	0,036	-0,019
-653,086	800,000	-0,033	0,073
-652,072	2,063	-0,104	-0,054
-651,057	240,791	0,077	-0,093
-650,043	-74,922	-0,052	-0,013
-649,028	-200,000	0,002	0,041
-648,014	-127,271	0,060	0,006
-646,999	800,000	0,021	-0,051
-645,984	-200,000	-0,015	-0,114
-644,970	-37,956	-0,157	-0,060
-643,955	-200,000	-0,032	0,151
-642,941	221,355	-0,078	0,091
-641,926	12,187	0,114	-0,063
-640,911	-131,368	0,077	-0,007
-639,897	178,020	-0,093	0,098
-638,882	-157,906	0,009	0,000
-637,868	-200,000	-0,006	-0,021
-636,853	129,807	-0,029	-0,027
-635,838	800,000	-0,017	-0,035
-634,824	22,847	0,059	-0,035
-633,809	66,420	0,150	0,110
-632,795	-166,383	-0,081	-0,002
-631,780	174,116	0,042	-0,044
-630,765	647,275	-0,065	0,120
-629,751	800,000	-0,076	-0,165
-628,736	226,521	-0,042	-0,050
-627,722	-187,729	0,111	0,001
-626,707	-39,248	0,084	0,032
-625,692	-119,474	-0,104	-0,013
-624,678	26,629	0,185	-0,112
-623,663	-68,229	-0,049	-0,014
-622,649	330,285	-0,045	-0,063
-621,634	-200,000	-0,016	-0,051
-620,619	321,786	0,078	-0,107
-619,605	800,000	0,024	0,049
-618,590	60,282	-0,042	-0,030
-617,576	227,842	0,050	0,059
-616,561	-171,978	-0,074	0,002
-615,546	56,832	-0,083	-0,058
-614,532	-4,668	0,109	-0,054
-613,517	526,098	0,022	-0,038
-612,503	567,725	-0,046	-0,081
-611,488	-146,978	0,189	-0,011
-610,474	360,016	0,025	-0,036
-609,459	87,485	-0,091	0,072
-608,444	-129,570	-0,082	-0,008
-607,430	795,376	-0,052	-0,104
-606,415	50,688	-0,092	-0,062
-605,401	-173,421	0,058	0,001
-604,386	-153,114	0,075	0,004
-603,371	-3,977	-0,078	-0,039
-602,357	19,092	0,099	0,057
-601,342	165,443	-0,092	-0,094
-600,328	-66,586	-0,097	-0,027
-599,313	-68,892	-0,105	-0,029
-598,298	-90,023	0,059	0,012
-597,284	68,352	0,023	0,017
-596,269	-200,000	0,009	0,040
-595,255	-200,000	-0,002	0,015
-594,240	800,000	0,041	-0,082
-593,225	-141,876	0,101	-0,007
-592,211	-200,000	0,009	-0,059
-591,196	-162,814	0,067	0,002
-590,182	-200,000	0,006	-0,042
-589,167	109,039	-0,099	-0,086
-588,152	167,433	0,042	0,043
-587,138	-200,000	0,010	0,104
-586,123	-23,477	-0,075	-0,033
-585,109	800,000	-0,053	-0,111
-584,094	-7,820	-0,048	-0,023
-583,079	433,462	0,078	0,123
-582,065	-200,000	0,004	0,192
-581,050	800,000	0,027	0,062
-580,036	267,921	0,016	0,020
-579,021	108,871	0,034	-0,029
-578,006	341,897	-0,033	-0,046
-576,992	-81,334	-0,047	0,011
-575,977	-69,000	0,090	-0,025
-574,963	-169,283	-0,052	-0,001
-573,948	32,663	0,056	-0,035
-572,934	-170,798	-0,100	-0,002
-571,919	442,714	0,056	-0,089
-570,904	35,292	0,029	0,019
-569,890	-82,797	-0,136	-0,031
-568,875	118,440	0,100	0,089
-567,861	618,533	0,160	0,290
-566,846	800,000	-0,019	0,049
-565,831	-136,264	-0,122	0,010
-564,817	-200,000	-0,023	-0,130
-563,802	-10,075	-0,125	-0,059
-562,788	-30,756	-0,067	-0,027
-561,773	-40,217	0,102	-0,038
-560,758	-200,000	0,004	-0,112
-559,744	-200,000	-0,008	0,093
-558,729	-200,000	-0,007	0,071
-557,715	-200,000	-0,001	-0,034
-556,700	800,000	-0,041	-0,098
-555,685	-200,000	-0,021	-0,096
-554,671	-26,370	0,099	-0,042
-553,656	456,441	-0,087	0,139
-552,642	185,617	0,079	0,084
-551,627	472,243	-0,038	0,062
-550,612	-200,000	0,024	-0,112
-549,598	-99,676	-0,100	-0,018
-548,583	-51,984	-0,079	0,026
-547,569	800,000	0,040	-0,092
-546,554	4,657	0,122	0,064
-545,539	-82,217	-0,071	0,016
-544,525	15,859	0,156	0,088
-543,510	-64,981	-0,139	0,040
-542,496	163,147	-0,013	0,013
-541,481	-123,439	-0,212	0,024
-540,466	-200,000	0,005	-0,042
-539,452	-200,000	0,016	0,069
-538,437	179,986	0,111	0,117
-537,423	406,770	-0,057	0,087
-536,408	-107,624	0,056	-0,009
-535,393	-52,803	-0,070	-0,023
-534,379	736,287	0,042	-0,082
-533,364	-66,480	0,106	0,030
-532,350	-17,251	0,068	0,031
-531,335	661,923	0,010	0,019
-530,321	54,334	-0,146	-0,101
-529,306	595,710	-0,065	-0,116
-528,291	17,585	-0,071	-0,041
-527,277	-200,000	-0,027	-0,139
-526,262	-134,160	0,082	0,007
-525,248	-62,421	0,151	0,045
-524,233	-125,969	-0,109	0,012
-523,218	65,990	0,102	0,074
-522,204	-24,501	-0,033	0,014
-521,189	60,670	-0,084	0,060
-520,175	52,497	-0,133	-0,091
-519,160	-200,000	-0,005	0,034
-518,145	66,770	0,091	0,066
-517,131	216,293	-0,022	0,025
-516,116	194,212	-0,077	0,084
-515,102	-43,575	-0,072	-0,026
-514,087	139,938	0,090	-0,086
-513,072	-200,000	0,011	0,086
-512,058	-25,061	0,126	0,054
-511,043	-200,000	-0,001	-0,058
-510,029	-107,302	-0,046	-0,007
-509,014	-105,112	-0,009	-0,001
-507,999	-200,000	0,018	0,119
-506,985	114,610	0,076	0,066
-505,970	122,329	-0,034	0,031
-504,956	151,307	-0,014	-0,014
-503,941	800,000	0,044	-0,107
-502,926	-200,000	-0,001	0,116
-501,912	136,148	0,131	-0,123
-500,897	-117,464	0,024	0,003
-499,883	-60,244	-0,106	-0,032
-498,868	-32,409	-0,057	0,023
-497,853	-177,999	-0,242	-0,004
-496,839	32,889	-0,089	-0,055
-495,824	65,122	0,151	0,110
-494,810	45,577	0,032	-0,021
-493,795	-37,984	-0,087	0,033
-492,781	95,007	0,038	0,031
-491,766	-200,000	0,062	-0,251
-490,751	-144,570	-0,080	-0,005
-489,737	800,000	-0,019	-0,051
-488,722	-71,667	0,031	0,008
-487,708	-111,416	0,068	0,010
-486,693	210,365	0,094	0,106
-485,678	-64,710	-0,138	-0,040
-484,664	165,953	0,109	-0,111
-483,649	656,589	0,042	-0,077
-482,635	141,139	0,040	0,038
-481,620	-200,000	0,064	0,000
-480,605	-200,000	-0,042	0,148
-479,591	96,995	0,022	0,018
-478,576	800,000	0,013	0,038
-477,562	48,785	-0,054	0,036
-476,547	22,047	-0,041	0,024
-475,532	-9,156	-0,097	0,047
-474,518	350,448	0,032	-0,045
-473,503	-41,580	0,145	0,053
-472,489	335,755	-0,051	0,071
-471,474	4,763	0,128	0,067
-470,459	1,936	0,021	0,011
-469,445	-25,985	-0,068	-0,029
-468,430	191,011	-0,027	0,030
-467,416	-200,000	-0,007	-0,116
-466,401	-200,000	0,044	-0,144
-465,386	-200,000	0,023	0,134
-464,372	-192,852	-0,109	-0,001
-463,357	800,000	-0,013	0,032
-462,343	-123,966	0,059	-0,007
-461,328	-72,417	0,104	0,027
-460,313	-200,000	-0,002	0,009
-459,299	356,772	-0,029	0,042
-458,284	-200,000	-0,004	0,137
-457,270	64,823	-0,091	0,066
-456,255	-200,000	0,003	-0,076
-455,241	93,119	-0,125	-0,101
-454,226	800,000	-0,015	-0,040
-453,211	-200,000	-0,003	0,072
-452,197	92,966	0,025	0,020
-451,182	278,558	-0,078	-0,100
-450,168	174,885	0,054	0,057
-449,153	129,603	-0,072	-0,066
-448,138	404,656	0,019	0,028
-447,124	523,804	0,035	0,058
-446,109	-23,579	0,092	0,040
-445,095	46,728	0,068	0,046
-444,080	-200,000	-0,019	0,109
-443,065	377,894	0,036	0,054
-442,051	-200,000	-0,024	-0,123
-441,036	-200,000	-0,024	-0,080
-440,022	63,300	-0,200	-0,144
-439,007	53,992	-0,061	-0,042
-437,992	479,419	0,028	0,046
-436,978	46,813	0,050	0,034
-435,963	-200,000	0,022	-0,170
-434,949	-32,495	-0,175	0,070
-433,934	-44,085	0,032	0,012
-432,919	-170,085	-0,132	-0,003
-431,905	-175,465	-0,025	-0,000
-430,890	-103,558	-0,022	0,004
-429,876	121,641	-0,071	0,064
-428,861	155,348	-0,037	0,037
-427,846	779,704	-0,054	0,107
-426,832	-200,000	-0,006	-0,072
-425,817	-168,361	0,069	-0,002
-424,803	683,483	0,007	-0,014
-423,788	25,846	0,128	0,076
-422,773	-19,497	0,100	-0,044
-421,759	309,779	-0,085	0,115
-420,744	610,795	0,059	0,105
-419,730	-61,513	0,077	-0,023
-418,715	-14,606	-0,013	0,006
-417,701	8,951	-0,074	0,040
-416,686	-32,647	0,024	-0,009
-415,671	470,806	-0,060	0,097
-414,657	93,095	0,077	0,062
-413,642	-47,640	-0,276	-0,095
-412,628	-94,831	0,081	0,015
-411,613	-200,000	-0,004	0,097
-410,598	25,662	0,056	-0,033
-409,584	-66,517	0,145	0,041
-408,569	260,835	0,080	-0,099
-407,555	-97,153	0,114	-0,021
-406,540	29,555	-0,038	-0,023
-405,525	267,841	0,052	0,066
-404,511	137,730	0,043	0,040
-403,496	384,616	0,012	0,018
-402,482	243,771	0,138	0,166
-401,467	-77,029	0,097	-0,024
-400,452	-9,496	-0,089	0,042
-399,438	357,327	0,032	-0,045
-398,423	4,043	0,089	-0,046
-397,409	65,980	-0,089	-0,064
-396,394	-24,197	-0,042	-0,018
-395,379	-41,815	-0,081	-0,030
-394,365	-37,970	-0,079	0,030
-393,350	33,655	0,147	0,091
-392,336	-200,000	-0,031	0,128
-391,321	48,443	0,096	-0,064
-390,306	-200,000	0,010	-0,083
-389,292	800,000	-0,053	-0,151
-388,277	800,000	0,003	0,010
-387,263	-56,121	0,112	0,035
-386,248	-27,595	-0,098	-0,040
-385,233	-89,789	-0,051	-0,011
-384,219	-105,950	-0,096	-0,015
-383,204	-22,115	0,098	-0,042
-382,190	189,052	-0,126	-0,135
-381,175	-111,323	0,015	-0,002
-380,160	-138,674	0,180	-0,014
-379,146	800,000	0,033	-0,071
-378,131	-83,318	-0,076	0,017
-377,117	-13,206	-0,100	-0,046
-376,102	-102,182	-0,015	0,003
-375,088	800,000	0,064	-0,192
-374,073	64,445	-0,042	-0,030
-373,058	-103,298	0,148	-0,025
-372,044	-200,000	-0,025	0,114
-371,029	-192,125	0,087	-0,001
-370,015	800,000	-0,050	0,123
-369,000	-200,000	0,001	-0,109
-367,985	32,921	0,092	-0,057
-366,971	328,754	-0,079	0,109
-365,956	27,972	0,163	0,098
-364,942	112,152	0,030	-0,026
-363,927	747,603	-0,061	-0,118
-362,912	-200,000	-0,019	-0,119
-361,898	76,204	0,050	0,038
-360,883	325,386	-0,070	-0,096
-359,869	-200,000	-0,008	-0,088
-358,854	-200,000	-0,023	0,099
-357,839	-200,000	0,038	0,139
-356,825	800,000	0,059	-0,151
-355,810	600,080	-0,077	0,138
-354,796	246,482	-0,035	-0,042
-353,781	-200,000	-0,003	-0,025
-352,766	4,777	-0,087	-0,045
-351,752	-21,969	0,073	-0,031
-350,737	-7,092	0,021	0,010
-349,723	-200,000	0,017	0,111
-348,708	33,437	0,080	0,050
-347,693	93,664	-0,048	0,039
-346,679	-7,590	0,060	0,029
-345,664	52,403	0,118	-0,080
-344,650	587,492	0,037	-0,065
-343,635	-81,689	-0,040	-0,009
-342,620	-200,000	0,045	0,149
-341,606	126,374	-0,059	-0,053
-340,591	-112,390	-0,203	0,029
-339,577	58,662	-0,090	-0,063
-338,562	-1,478	0,078	-0,039
-337,548	-57,589	-0,006	-0,002
-336,533	76,776	0,088	-0,066
-335,518	18,658	0,022	0,012
-334,504	-200,000	0,001	-0,181
-333,489	-28,462	-0,138	-0,056
-332,475	800,000	-0,083	-0,187
-331,460	-200,000	-0,012	-0,093
-330,445	364,674	-0,020	-0,028
-329,431	-200,000	-0,008	-0,034
-328,416	163,163	0,079	0,080
-327,402	-200,000	-0,001	0,131
-326,387	-9,543	-0,144	-0,068
-325,372	-53,034	0,225	0,073
-324,358	34,906	-0,074	-0,046
-323,343	-106,214	0,074	-0,012
-322,329	-47,184	-0,077	-0,027
-321,314	423,738	0,048	0,074
-320,299	-200,000	-0,002	0,119
-319,285	-2,186	-0,065	0,032
-318,270	-200,000	0,011	0,049
-317,256	54,172	-0,062	0,043
-316,241	-80,448	0,059	0,014
-315,226	494,250	-0,046	-0,075
-314,212	65,212	-0,036	0,026
-313,197	800,000	0,045	-0,121
-312,183	71,701	0,058	0,043
-311,168	-36,092	-0,143	-0,055
-310,153	-94,859	-0,119	0,023
-309,139	631,357	-0,052	-0,095
-308,124	129,020	0,138	0,126
-307,110	-68,040	-0,148	0,041
-306,095	800,000	-0,033	0,079
-305,080	-85,727	0,006	0,001
-304,066	95,291	-0,127	0,103
-303,051	-42,893	0,044	0,016
-302,037	-200,000	0,003	-0,015
-301,022	410,083	0,040	-0,061
-300,008	23,620	0,078	0,046
-298,993	-200,000	-0,002	0,124
-297,978	215,112	-0,032	0,037
-296,964	39,468	-0,099	-0,063
-295,949	-32,103	0,044	0,018
-294,935	-98,337	-0,083	-0,015
-293,920	-200,000	0,017	-0,078
-292,905	-200,000	-0,002	-0,055
-291,891	272,345	-0,029	-0,037
-290,876	103,999	0,068	-0,057
-289,862	-29,423	-0,019	0,008
-288,847	800,000	-0,038	-0,106
-287,832	800,000	-0,025	-0,050
-286,818	92,151	0,150	0,120
-285,803	-200,000	0,002	-0,010
-284,789	-67,187	0,039	-0,011
-283,774	-87,897	-0,143	0,030
-282,759	215,662	0,039	-0,045
-281,745	800,000	0,033	0,098
-280,730	247,625	-0,090	-0,108
-279,716	-54,898	0,018	-0,006
-278,701	-200,000	0,014	0,081
-277,686	172,902	-0,086	0,088
-276,672	-200,000	-0,021	0,107
-275,657	800,000	-0,052	0,145
-274,643	-200,000	-0,009	-0,081
-273,628	-153,984	0,051	-0,002
-272,613	-130,045	-0,096	0,009
-271,599	294,477	-0,027	0,035
-270,584	-200,000	-0,006	0,059
-269,570	72,476	-0,074	0,055
-268,555	155,569	0,101	0,099
-267,540	456,374	0,062	-0,099
-266,526	-200,000	0,016	0,055
-265,511	-146,887	0,017	0,001
-264,497	-110,281	-0,018	-0,003
-263,482	-113,248	0,120	-0,017
-262,467	-200,000	-0,018	0,089
-261,453	132,870	0,022	-0,020
-260,438	-42,735	0,057	-0,021
-259,424	326,211	0,025	0,035
-258,409	-200,000	-0,096	0,000
-257,395	-200,000	0,029	0,140
-256,380	800,000	-0,040	0,098
-255,365	61,899	0,062	-0,044
-254,351	-134,235	-0,038	0,003
-253,336	-95,753	-0,077	-0,015
-252,322	0,205	0,037	0,019
-251,307	701,938	0,017	-0,032
-250,292	30,910	0,084	0,051
-249,278	-186,066	0,046	-0,000
-248,263	800,000	0,015	-0,040
-247,249	-200,000	-0,013	-0,074
-246,234	-136,077	-0,204	-0,017
-245,219	800,000	-0,012	-0,030
-244,205	117,480	-0,107	0,093
-243,190	-200,000	0,021	0,086
-242,176	-68,498	0,060	-0,016
-241,161	46,884	0,075	-0,050
-240,146	800,000	0,032	0,077
-239,132	800,000	0,024	-0,058
-238,117	736,490	-0,008	0,016
-237,103	-200,000	-0,013	0,109
-236,088	251,687	0,098	-0,118
-235,073	800,000	0,009	-0,026
-234,059	-200,000	0,005	0,165
-233,044	-61,970	-0,073	-0,022
-232,030	251,273	0,037	-0,045
-231,015	800,000	0,060	-0,136
-230,000	176,459	-0,068	-0,070
-228,986	800,000	-0,008	-0,018
-227,971	515,807	0,039	0,065
-226,957	-200,000	0,014	0,082
-225,942	91,763	0,063	0,050
-224,927	16,035	0,059	-0,033
-223,913	-200,000	-0,071	-0,297
-222,898	-200,000	-0,014	-0,110
-221,884	-63,450	0,069	-0,020
-220,869	-49,763	-0,142	-0,048
-219,855	280,195	-0,068	0,086
-218,840	-69,485	-0,067	0,018
-217,825	-96,551	-0,078	0,015
-216,811	800,000	0,016	-0,034
-215,796	552,483	0,015	-0,026
-214,782	-128,715	-0,028	0,003
-213,767	324,817	-0,047	0,064
-212,752	674,300	0,083	0,155
-211,738	285,936	-0,034	-0,044
-210,723	718,804	0,006	-0,011
-209,709	251,584	-0,048	-0,058
-208,694	-53,600	0,089	-0,029
-207,679	800,000	-0,052	0,142
-206,665	-23,305	0,157	-0,067
-205,650	-36,304	0,079	-0,030
-204,636	-73,511	-0,113	0,029
-203,621	-101,896	0,081	-0,014
-202,606	-44,645	-0,037	0,013
-201,592	611,556	-0,065	0,116
-200,577	-77,378	-0,160	0,039
-199,563	381,485	-0,033	0,049
-198,548	37,391	0,030	-0,019
-197,533	-200,000	0,039	-0,152
-196,519	508,027	0,107	0,178
-195,504	-200,000	0,002	0,102
-194,490	-200,000	0,001	-0,096
-193,475	309,614	-0,102	-0,136
-192,460	800,000	0,043	-0,119
-191,446	-200,000	-0,018	-0,114
-190,431	-121,676	0,108	0,012
-189,417	493,376	0,046	-0,075
-188,402	447,217	0,036	-0,057
-187,387	-26,406	0,068	0,028
-186,373	-200,000	-0,045	-0,158
-185,358	76,950	0,054	0,041
-184,344	292,844	0,059	0,077
-183,329	4,059	-0,077	0,040
-182,315	800,000	-0,024	0,072
-181,300	25,058	0,163	-0,096
-180,285	14,459	0,042	-0,023
-179,271	-117,951	0,021	-0,003
-178,256	445,545	0,090	0,142
-177,242	11,835	0,166	0,090
-176,227	800,000	-0,012	-0,034
-175,212	9,291	0,074	-0,040
-174,198	113,076	0,084	0,072
-173,183	-168,532	-0,100	0,003
-172,169	-98,593	-0,209	-0,038
-171,154	-188,307	0,068	-0,001
-170,139	-198,919	-0,154	-0,001
-169,125	-200,000	0,019	-0,061
-168,110	-152,303	0,132	0,007
-167,096	-200,000	-0,001	-0,058
-166,081	56,561	0,049	-0,034
-165,066	94,678	0,085	0,069
-164,052	-65,328	0,085	-0,024
-163,037	-200,000	-0,029	0,164
-162,023	-3,780	0,097	0,047
-161,008	346,042	-0,072	0,101
-159,993	178,773	-0,091	0,095
-158,979	522,322	-0,011	0,018
-157,964	404,396	-0,051	-0,076
-156,950	-200,000	0,028	-0,098
-155,935	-96,375	0,090	-0,017
-154,920	800,000	-0,027	-0,078
-153,906	-54,159	-0,067	0,021
-152,891	800,000	0,036	0,084
-151,877	-200,000	0,006	-0,022
-150,862	192,105	0,039	-0,042
-149,847	-90,653	-0,149	-0,030
-148,833	800,000	0,067	-0,166
-147,818	-116,953	0,118	-0,015
-146,804	-36,397	-0,074	-0,028
-145,789	-120,299	-0,046	-0,006
-144,775	-85,681	-0,140	-0,031
-143,760	-200,000	-0,003	-0,055
-142,745	455,257	0,026	-0,041
-141,731	106,395	0,033	-0,027
-140,716	66,029	-0,118	-0,085
-139,702	392,498	0,088	0,131
-138,687	-131,549	0,046	0,004
-137,672	139,344	-0,114	0,107
-136,658	-38,682	0,054	0,020
-135,643	-89,842	-0,132	-0,027
-134,629	45,902	-0,062	0,041
-133,614	-200,000	-0,001	0,016
-132,599	28,645	0,017	0,010
-131,585	112,078	-0,034	0,029
-130,570	336,097	0,031	-0,043
-129,556	-61,005	-0,019	0,006
-128,541	-9,430	-0,097	-0,046
-127,526	8,299	-0,043	-0,023
-126,512	30,168	0,105	0,064
-125,497	800,000	-0,054	0,142
-124,483	-38,335	0,082	0,031
-123,468	-200,000	0,000	-0,052
-122,453	206,203	0,097	-0,107
-121,439	721,953	-0,113	-0,213
-120,424	-96,687	-0,029	-0,005
-119,410	144,630	0,053	0,050
-118,395	-99,233	-0,105	-0,019
-117,380	-200,000	-0,002	0,058
-116,366	102,937	-0,020	0,016
-115,351	226,912	-0,056	-0,064
-114,337	239,785	-0,038	-0,045
-113,322	321,220	0,039	-0,053
-112,307	-200,000	-0,031	-0,100
-111,293	-200,000	-0,006	0,122
-110,278	269,547	0,105	0,130
-109,264	278,224	-0,022	0,028
-108,249	-200,000	-0,044	0,146
-107,234	144,489	-0,055	-0,052
-106,220	800,000	-0,050	0,107
-105,205	27,792	0,121	0,072
-104,191	79,038	-0,069	0,052
-103,176	-145,245	0,140	0,009
-102,162	800,000	-0,044	0,107
-101,147	800,000	-0,068	0,143
-100,132	-48,822	0,040	-0,013
-99,118	-40,742	0,045	-0,016
-98,103	-12,777	0,040	-0,018
-97,089	260,967	-0,062	0,076
-96,074	-36,614	0,099	0,037
-95,059	109,541	0,055	0,046
-94,045	-200,000	0,007	0,067
-93,030	-200,000	0,040	-0,222
-92,016	99,711	-0,066	-0,054
-91,001	-200,000	0,022	-0,166
-89,986	-150,826	0,021	-0,001
-88,972	287,147	0,125	0,160
-87,957	800,000	0,041	0,100
-86,943	404,724	-0,047	-0,070
-85,928	-76,650	0,083	-0,020
-84,913	800,000	-0,064	-0,167
-83,899	36,348	0,069	0,043
-82,884	800,000	0,075	0,169
-81,870	800,000	0,035	0,093
-80,855	-200,000	-0,027	-0,162
-79,840	-77,428	-0,063	0,015
-78,826	-200,000	0,015	-0,060
-77,811	17,350	-0,135	-0,075
-76,797	-200,000	0,004	0,064
-75,782	-38,670	-0,075	0,028
-74,767	-200,000	-0,021	-0,130
-73,753	-200,000	0,004	0,028
-72,738	211,225	-0,060	-0,067
-71,724	-106,109	-0,087	-0,014
-70,709	-200,000	0,011	-0,106
-69,694	59,761	0,036	0,025
-68,680	800,000	-0,027	0,062
-67,665	29,144	0,056	-0,033
-66,651	-200,000	-0,008	0,047
-65,636	2,028	-0,148	-0,075
-64,622	-152,893	0,067	0,003
-63,607	-0,014	-0,144	-0,072
-62,592	252,658	-0,070	-0,085
-61,578	39,439	0,029	0,018
-60,563	-117,344	0,152	0,019
-59,549	-200,000	-0,002	0,106
-58,534	30,764	-1,860	-1,122
-57,519	454,586	-1,291	-2,028
-56,505	-200,000	-0,318	-4,406
-55,490	424,464	0,950	1,448
-54,476	800,000	4,932	11,239
-53,461	-200,000	20,885	329,529
-52,446	800,000	757,030	2323,258
-51,432	550,252	1662,239	2826,050
-50,417	73,565	1664,336	1229,467
-49,403	18,798	1537,534	866,935
-48,388	12,769	1460,476	794,292
-47,373	19,045	1451,170	819,357
-46,359	15,937	1440,526	798,510
-45,344	11,078	1436,386	773,024
-44,330	10,985	1434,462	771,514
-43,315	10,994	1432,508	770,476
-42,300	11,001	1430,833	769,577
-41,286	10,954	1429,739	768,735
-40,271	10,982	1428,242	768,034
-39,257	10,973	1427,027	767,307
-38,242	10,976	1426,001	766,739
-37,227	11,029	1424,822	766,324
-36,213	11,032	1423,718	765,715
-35,198	11,007	1422,487	764,904
-34,184	11,026	1421,618	764,498
-33,169	10,989	1420,236	763,549
-32,154	11,025	1419,385	763,230
-31,140	11,046	1418,023	762,568
-30,125	11,116	1416,826	762,222
-29,111	11,094	1415,761	761,515
-28,096	11,030	1414,729	760,631
-27,082	11,004	1413,312	759,718
-26,067	10,960	1412,326	758,950
-25,052	10,956	1411,315	758,358
-24,038	11,001	1410,433	758,065
-23,023	10,991	1409,227	757,340
-22,009	10,998	1408,363	756,879
-20,994	10,974	1407,152	756,086
-19,979	10,951	1406,213	755,442
-18,965	10,958	1405,317	754,965
-17,950	10,960	1404,434	754,468
-16,936	10,920	1403,800	753,913
-15,921	10,863	1402,869	753,114
-14,906	10,838	1401,925	752,463
-13,892	10,861	1400,969	752,028
-12,877	10,915	1399,941	751,695
-11,863	10,885	1399,431	751,254
-10,848	10,868	1398,275	750,521
-9,833	10,810	1397,520	749,819
-8,819	10,774	1396,590	749,122
-7,804	10,783	1395,756	748,690
-6,790	10,786	1394,876	748,200
-5,775	10,821	1393,802	747,755
-4,760	10,820	1392,673	747,115
-3,746	10,833	1391,702	746,628
-2,731	10,782	1391,051	746,010
-1,717	10,784	1390,266	745,568
-0,702	10,762	1388,154	744,309
0,313	14,787	1301,690	716,393
1,327	30,862	693,241	418,120
2,342	47,856	120,271	79,121
3,356	4,478	16,326	8,423
4,371	3,727	3,524	1,809
5,386	4,389	0,935	0,482
6,400	-200,000	0,053	0,369
7,415	-90,310	-0,165	-0,033
8,429	25,333	-0,315	-0,184
9,444	389,735	-0,203	-0,298
10,459	92,249	-0,308	-0,244
11,473	-12,765	-0,345	-0,158
12,488	146,577	-0,205	-0,194
13,502	-37,536	-0,342	-0,128
14,517	-43,751	-0,186	-0,066
15,531	1,058	-0,491	-0,247
16,546	58,527	-0,284	-0,196
17,561	74,836	-0,276	-0,204
18,575	-109,880	-0,103	0,015
19,590	169,285	-0,303	-0,305
20,604	2,084	-0,305	-0,155
21,619	116,124	-0,305	-0,263
22,634	46,349	-0,409	-0,267
23,648	124,390	-0,415	-0,368
24,663	205,429	-0,351	-0,385
25,677	-53,233	-0,471	-0,151
26,692	-11,931	-0,408	-0,188
27,707	-83,473	-0,381	-0,085
28,721	37,932	-0,315	-0,197
29,736	40,588	-0,481	-0,304
30,750	33,782	-0,496	-0,303
31,765	33,844	-0,332	-0,203
32,780	48,865	-0,449	-0,296
33,794	17,341	-0,354	-0,197
34,809	232,000	-0,334	-0,386
35,823	107,613	-0,373	-0,312
36,838	45,259	-0,390	-0,253
37,853	287,822	-0,274	-0,349
38,867	280,868	-0,329	-0,415
39,882	66,887	-0,343	-0,245
40,896	293,490	-0,212	-0,273
41,911	-83,210	-0,338	-0,076
42,926	-53,815	-0,557	-0,178
43,940	-36,295	-0,279	-0,105
44,955	230,763	-0,261	-0,301
45,969	19,381	-0,361	-0,203
46,984	142,493	-0,294	-0,274
47,999	60,967	-0,320	-0,223
49,013	96,780	-0,296	-0,238
50,028	-2,520	-0,322	-0,158
51,042	9,407	-0,335	-0,178
52,057	178,183	-0,336	-0,345
53,071	129,370	-0,380	-0,341
54,086	210,637	-0,238	-0,263
55,101	-23,872	-0,423	-0,177
56,115	100,855	-0,287	-0,234
57,130	37,180	-0,252	-0,156
58,144	78,008	-0,251	-0,188
59,159	40,715	-0,423	-0,268
60,174	-0,951	-0,390	-0,193
61,188	306,353	-0,325	-0,425
62,203	5,229	-0,424	-0,219
63,217	98,525	-0,308	-0,249
64,232	0,862	-0,508	-0,254
65,247	233,012	-0,189	-0,218
66,261	81,580	-0,336	-0,255
67,276	-34,424	-0,299	-0,114
68,290	45,135	-0,196	-0,127
69,305	9,612	-0,339	-0,180
70,320	-52,890	-0,337	-0,108
71,334	43,701	-0,296	-0,190
72,349	-33,810	-0,360	-0,138
73,363	116,754	-0,215	-0,185
74,378	44,128	-0,392	-0,251
75,393	13,942	-0,338	-0,184
76,407	-64,353	-0,404	-0,115
77,422	145,129	-0,157	-0,147
78,436	-106,406	-0,405	-0,063
79,451	51,209	-0,265	-0,176
80,466	41,119	-0,135	-0,085
81,480	-63,116	-0,291	-0,084
82,495	26,992	-0,327	-0,192
83,509	-15,798	-0,296	-0,132
84,524	142,984	-0,209	-0,195
85,539	-77,720	-0,435	-0,105
86,553	0,070	-0,244	-0,122
87,568	192,008	-0,300	-0,318
88,582	152,721	-0,290	-0,278
89,597	125,421	-0,196	-0,173
90,611	142,023	-0,233	-0,217
91,626	104,557	-0,258	-0,212
92,641	45,806	-0,358	-0,232
93,655	-61,456	-0,305	-0,089
94,670	-86,968	-0,338	-0,072
95,684	112,143	-0,376	-0,318
96,699	800,000	-0,134	-0,357
97,714	181,805	-0,231	-0,238
98,728	800,000	-0,142	-0,311
99,743	120,516	-0,292	-0,254
100,757	800,000	-0,198	-0,420
101,772	141,768	-0,319	-0,296
102,787	51,296	-0,255	-0,169
103,801	34,240	-0,325	-0,198
104,816	53,162	-0,239	-0,160
105,830	-73,185	-0,201	-0,051
106,845	-52,523	-0,294	-0,094
107,860	194,717	-0,313	-0,332
108,874	158,441	-0,260	-0,253
109,889	211,226	-0,229	-0,252
110,903	-5,086	-0,333	-0,159
111,918	386,108	-0,166	-0,240
112,933	232,789	-0,085	-0,098
113,947	74,796	-0,198	-0,146
114,962	346,993	-0,246	-0,339
115,976	194,079	-0,173	-0,184
116,991	2,466	-0,311	-0,157
118,006	-8,202	-0,359	-0,168
119,020	397,460	-0,177	-0,259
120,035	183,914	-0,232	-0,240
121,049	800,000	-0,104	-0,229
122,064	-55,595	-0,251	-0,078
123,079	31,172	-0,268	-0,160
124,093	-17,581	-0,243	-0,106
125,108	-40,612	-0,352	-0,127
126,122	63,874	-0,235	-0,164
127,137	15,581	-0,200	-0,110
128,151	375,139	-0,099	-0,141
129,166	18,429	-0,250	-0,139
130,181	95,809	-0,202	-0,161
131,195	-19,861	-0,282	-0,121
132,210	171,239	-0,153	-0,153
133,224	120,148	-0,315	-0,272
134,239	21,617	-0,230	-0,130
135,254	-108,664	-0,201	0,030
136,268	-33,373	-0,213	-0,082
137,283	168,774	-0,167	-0,166
138,297	53,032	-0,189	-0,126
139,312	80,042	-0,362	-0,271
140,327	185,326	-0,244	-0,253
141,341	7,038	-0,182	-0,095
142,356	-15,206	-0,222	-0,099
143,370	44,153	-0,182	-0,116
144,385	127,858	-0,240	-0,213
145,400	-34,977	-0,312	-0,118
146,414	199,862	-0,207	-0,222
147,429	262,312	-0,237	-0,286
148,443	28,243	-0,299	-0,175
149,458	161,213	-0,171	-0,167
150,473	68,328	-0,204	-0,145
151,487	88,837	-0,267	-0,207
152,502	49,594	-0,251	-0,164
153,516	23,556	-0,339	-0,194
154,531	72,261	-0,355	-0,257
155,546	217,493	-0,309	-0,343
156,560	77,234	-0,316	-0,234
157,575	107,795	-0,275	-0,228
158,589	171,666	-0,299	-0,299
159,604	15,386	-0,302	-0,165
160,619	754,254	-0,135	-0,254
161,633	240,598	-0,241	-0,280
162,648	168,896	-0,165	-0,164
163,662	52,454	-0,283	-0,188
164,677	284,175	-0,200	-0,250
165,692	77,507	-0,279	-0,207
166,706	630,932	-0,162	-0,286
167,721	48,263	-0,272	-0,177
168,735	15,786	-0,294	-0,161
169,750	79,035	-0,265	-0,197
170,764	13,780	-0,308	-0,166
171,779	0,517	-0,256	-0,127
172,794	59,737	-0,292	-0,200
173,808	203,860	-0,186	-0,200
174,823	49,839	-0,284	-0,186
175,837	110,553	-0,274	-0,229
176,852	-35,627	-0,269	-0,101
177,867	385,911	-0,123	-0,177
178,881	464,372	-0,133	-0,207
179,896	159,112	-0,190	-0,184
180,910	193,009	-0,189	-0,199
181,925	61,963	-0,213	-0,147
182,940	70,277	-0,294	-0,211
183,954	127,677	-0,230	-0,203
184,969	-200,000	-0,087	-0,298
185,983	123,353	-0,165	-0,143
186,998	115,844	-0,224	-0,191
188,013	41,826	-0,257	-0,161
189,027	800,000	-0,123	-0,281
190,042	210,173	-0,261	-0,285
191,056	85,203	-0,234	-0,178
192,071	-33,488	-0,086	-0,033
193,086	-200,000	0,021	-0,179
194,100	202,050	-0,188	-0,201
195,115	-132,269	-0,135	-0,012
196,129	87,058	-0,218	-0,167
197,144	37,195	-0,263	-0,161
198,159	251,358	-0,227	-0,269
199,173	752,439	-0,089	-0,167
200,188	-86,236	-0,270	-0,057
201,202	650,155	-0,145	-0,258
202,217	23,847	-0,307	-0,175
203,232	180,590	-0,157	-0,160
204,246	800,000	-0,094	-0,201
205,261	308,101	-0,082	-0,106
206,275	217,158	-0,175	-0,193
207,290	-166,442	-0,051	-0,001
208,304	226,134	-0,178	-0,201
209,319	-98,149	-0,210	-0,037
210,334	610,533	-0,120	-0,208
211,348	29,266	-0,236	-0,138
212,363	334,466	-0,100	-0,134
213,377	568,297	-0,151	-0,255
214,392	75,708	-0,256	-0,188
215,407	18,664	-0,226	-0,125
216,421	346,399	-0,137	-0,187
217,436	312,423	-0,123	-0,161
218,450	-55,274	-0,184	-0,057
219,465	-4,733	-0,311	-0,148
220,480	111,804	-0,181	-0,151
221,494	800,000	-0,140	-0,305
222,509	-67,667	-0,331	-0,089
223,523	791,824	-0,093	-0,177
224,538	-83,753	-0,157	-0,034
225,553	54,802	-0,192	-0,128
226,567	116,955	-0,232	-0,197
227,582	341,064	-0,151	-0,204
228,596	-53,802	-0,172	-0,054
229,611	-43,198	-0,140	-0,049
230,626	153,759	-0,130	-0,123
231,640	-58,829	-0,238	-0,071
232,655	-89,330	-0,261	-0,053
233,669	142,796	-0,112	-0,103
234,684	-64,022	-0,190	-0,053
235,699	-196,745	-0,137	0,001
236,713	688,673	-0,060	-0,109
237,728	-29,887	-0,141	-0,055
238,742	-200,000	-0,071	-0,288
239,757	800,000	-0,126	-0,283
240,772	172,101	-0,239	-0,238
241,786	29,754	-0,133	-0,078
242,801	-41,859	-0,348	-0,123
243,815	97,556	-0,194	-0,154
244,830	62,569	-0,178	-0,123
245,844	-52,006	-0,210	-0,067
246,859	-64,913	-0,242	-0,067
247,874	139,389	-0,139	-0,127
248,888	171,688	-0,148	-0,147
249,903	246,076	-0,192	-0,223
250,917	347,458	-0,147	-0,200
251,932	-4,410	-0,209	-0,099
252,947	101,190	-0,192	-0,154
253,961	229,701	-0,123	-0,139
254,976	308,979	-0,206	-0,266
255,990	104,361	-0,248	-0,201
257,005	-11,122	-0,230	-0,104
258,020	-200,000	0,014	-0,055
259,034	45,300	-0,171	-0,108
260,049	-112,675	-0,375	-0,051
261,063	140,590	-0,203	-0,185
262,078	88,274	-0,233	-0,179
263,093	85,451	-0,121	-0,091
264,107	391,488	-0,133	-0,191
265,122	108,268	-0,020	-0,017
266,136	-170,745	-0,220	-0,005
267,151	382,298	-0,142	-0,201
268,166	762,020	-0,113	-0,211
269,180	800,000	-0,064	-0,135
270,195	231,106	-0,147	-0,167
271,209	800,000	-0,075	-0,147
272,224	-13,729	-0,071	-0,031
273,239	-139,192	-0,220	0,016
274,253	-32,887	-0,242	-0,092
275,268	-129,640	-0,249	-0,023
276,282	-158,775	-0,188	-0,007
277,297	347,232	-0,169	-0,230
278,312	132,657	-0,188	-0,167
279,326	-143,639	-0,170	-0,011
280,341	-77,864	-0,119	0,028
281,355	-113,142	-0,138	-0,019
282,370	-200,000	-0,057	-0,213
283,384	800,000	-0,055	-0,118
284,399	91,192	-0,272	-0,210
285,414	-52,992	-0,160	-0,050
286,428	-104,449	-0,103	-0,016
287,443	800,000	0,021	0,060
288,457	-12,314	-0,114	-0,051
289,472	379,172	-0,104	-0,146
290,487	197,829	-0,110	-0,115
291,501	58,403	-0,219	-0,147
292,516	703,609	-0,087	-0,159
293,530	800,000	-0,052	-0,112
294,545	-127,952	-0,129	0,013
295,560	-3,265	-0,104	-0,050
296,574	-57,550	-0,131	0,039
297,589	-115,473	-0,282	-0,036
298,603	-8,202	-0,148	-0,068
299,618	131,627	-0,157	-0,139
300,633	4,158	-0,206	-0,103
301,647	-82,932	-0,240	-0,053
302,662	-64,512	-0,096	-0,026
303,676	38,364	-0,142	-0,087
304,691	44,499	-0,294	-0,186
305,706	800,000	-0,152	-0,316
306,720	800,000	-0,040	-0,077
307,735	-156,729	-0,167	0,007
308,749	305,328	-0,139	-0,177
309,764	-200,000	-0,030	-0,110
310,779	26,525	-0,191	-0,110
311,793	120,122	-0,146	-0,124
312,808	279,791	-0,154	-0,189
313,822	800,000	-0,077	-0,148
314,837	718,252	-0,106	-0,194
315,852	-10,848	-0,187	-0,084
316,866	573,644	-0,054	0,090
317,881	346,894	-0,096	-0,130
318,895	151,448	-0,186	-0,174
319,910	-200,000	-0,022	-0,102
320,925	226,818	-0,153	-0,170
321,939	192,491	-0,157	-0,162
322,954	-49,579	-0,118	-0,038
323,968	-28,694	-0,070	-0,027
324,983	28,561	-0,198	-0,115
325,997	200,663	-0,096	-0,102
327,012	59,945	-0,138	-0,093
328,027	318,627	-0,165	-0,215
329,041	-56,785	-0,233	-0,070
330,056	-80,081	-0,151	-0,034
331,070	-200,000	-0,003	0,035
332,085	-188,567	-0,059	0,000
333,100	-16,393	-0,189	-0,082
334,114	677,212	-0,164	-0,293
335,129	168,422	-0,086	-0,084
336,143	-69,446	-0,141	-0,037
337,158	324,883	-0,092	-0,121
338,173	149,008	-0,142	-0,132
339,187	15,269	-0,215	-0,115
340,202	205,702	-0,177	-0,188
341,216	448,053	-0,114	-0,173
342,231	3,925	-0,143	-0,072
343,246	281,476	-0,135	-0,166
344,260	45,088	-0,094	-0,059
345,275	104,008	-0,126	-0,101
346,289	-116,075	-0,136	-0,017
347,304	49,362	-0,213	-0,137
348,319	800,000	-0,087	-0,196
349,333	-76,530	-0,197	-0,047
350,348	-70,480	-0,160	0,041
351,362	32,156	-0,114	-0,067
352,377	-170,879	-0,153	-0,004
353,392	-45,261	-0,105	0,036
354,406	139,487	-0,102	-0,092
355,421	206,595	1310,868	1398,520
356,435	158,898	1471,092	1399,014
