DTS Sentinel unit serial number:	SN410029Multiplexer serial number:	ORYXHardware model number:	OX2-SRSoftware version number:	ORYX F/W v4,00 Oryx Data Collector v3.7.2.0data status	okinstallation	B3 Nyhavnadifferential loss correction	single-endedforward channel	channel 1reverse channel	N/Adate	2023/12/03time	07:47:30forward acquisition time	300,00reverse acquisition time	0,00gamma	499,1914k internal	0,3201k external	0,3201temperature offset calibration	1,0000default loss term (dB/km)	0,3820temperature slope calibration	1,0000multiplexer offset coefficient	1,0000multiplexer slope coefficient	1,0000fibre end	0,00T internal ref (°C)	13,31T ext. ref 1 (°C)	-1,64T ext. ref 2 (°C)	-1,65length (m)	temperature (°C)	Stokes	anti-Stokes-744,400	94,926	-0,215	-0,178
-743,385	-200,000	0,018	0,313
-742,371	370,198	-0,185	-0,274
-741,356	-200,000	0,054	0,241
-740,342	139,878	-0,247	-0,237
-739,327	800,000	-0,129	0,347
-738,312	-200,000	-0,065	-0,275
-737,298	800,000	-0,056	0,166
-736,283	482,386	-0,167	-0,277
-735,269	-200,000	0,008	0,317
-734,254	800,000	-0,081	-0,178
-733,239	647,550	-0,091	0,169
-732,225	-200,000	-0,077	-0,267
-731,210	343,803	0,114	0,163
-730,196	-200,000	-0,000	0,036
-729,181	800,000	0,039	0,120
-728,167	-200,000	-0,003	-0,055
-727,152	-200,000	-0,006	-0,136
-726,137	641,603	-0,055	-0,102
-725,123	-32,279	-0,121	0,049
-724,108	96,701	-0,109	-0,091
-723,094	38,430	-0,051	-0,033
-722,079	800,000	-0,042	-0,116
-721,064	54,346	-0,099	-0,070
-720,050	528,516	0,043	0,074
-719,035	800,000	0,023	0,068
-718,021	-164,893	-0,076	-0,002
-717,006	88,519	0,074	-0,060
-715,991	33,995	-0,097	-0,061
-714,977	-200,000	-0,025	-0,100
-713,962	800,000	0,056	-0,118
-712,948	800,000	-0,042	0,120
-711,933	-149,989	0,077	0,004
-710,918	-59,093	0,054	0,017
-709,904	-12,863	0,027	-0,013
-708,889	544,510	-0,089	-0,156
-707,875	-200,000	0,003	-0,052
-706,860	233,202	-0,073	0,087
-705,845	39,021	0,070	0,046
-704,831	-200,000	0,013	-0,096
-703,816	-145,638	-0,112	0,007
-702,802	2,929	0,040	0,021
-701,787	-200,000	0,001	0,018
-700,772	-200,000	-0,003	0,045
-699,758	-135,621	-0,072	-0,006
-698,743	-9,466	0,095	-0,046
-697,729	-200,000	0,032	0,119
-696,714	-200,000	0,027	0,109
-695,699	-200,000	-0,010	0,095
-694,685	193,991	-0,087	-0,096
-693,670	-13,112	-0,234	-0,110
-692,656	-159,993	0,060	-0,002
-691,641	28,995	0,114	-0,070
-690,627	-11,187	0,119	-0,057
-689,612	61,556	-0,063	-0,045
-688,597	-129,622	-0,061	0,006
-687,583	-200,000	-0,012	0,059
-686,568	800,000	-0,080	-0,179
-685,554	-200,000	-0,002	0,012
-684,539	-101,481	-0,028	-0,005
-683,524	-120,514	0,126	0,015
-682,510	-148,845	0,065	-0,004
-681,495	800,000	0,033	0,095
-680,481	47,665	0,061	0,041
-679,466	-200,000	-0,008	-0,101
-678,451	-114,143	-0,091	-0,013
-677,437	-83,635	0,124	-0,029
-676,422	24,130	0,064	-0,038
-675,408	-200,000	0,023	-0,089
-674,393	755,095	-0,030	0,060
-673,378	31,175	-0,067	-0,041
-672,364	459,104	0,069	-0,112
-671,349	132,947	-0,127	-0,119
-670,335	-165,746	0,027	-0,001
-669,320	-95,749	-0,041	0,008
-668,305	292,487	0,025	0,033
-667,291	-200,000	-0,028	0,283
-666,276	90,857	-0,029	0,023
-665,262	-200,000	0,022	-0,185
-664,247	800,000	0,060	-0,163
-663,232	-129,478	0,098	0,010
-662,218	-167,718	0,099	-0,003
-661,203	-139,095	-0,079	0,006
-660,189	-22,517	0,075	-0,033
-659,174	-10,150	-0,143	-0,069
-658,159	-200,000	-0,024	0,079
-657,145	-200,000	-0,020	-0,131
-656,130	800,000	0,035	-0,085
-655,116	-200,000	-0,032	0,174
-654,101	-200,000	0,022	-0,130
-653,086	166,828	0,084	0,086
-652,072	178,377	0,080	-0,085
-651,057	25,393	0,049	0,029
-650,043	248,874	-0,044	-0,055
-649,028	758,349	-0,028	0,054
-648,014	-200,000	-0,008	-0,088
-646,999	-200,000	-0,012	-0,053
-645,984	-64,946	-0,044	0,013
-644,970	-70,906	-0,056	-0,015
-643,955	800,000	-0,032	-0,067
-642,941	232,385	-0,082	-0,097
-641,926	-66,837	-0,109	0,031
-640,911	800,000	0,009	0,020
-639,897	-200,000	0,004	0,046
-638,882	142,057	0,110	0,105
-637,868	-49,706	-0,129	0,044
-636,853	133,670	-0,096	-0,090
-635,838	59,799	-0,060	0,043
-634,824	-200,000	-0,016	0,072
-633,809	-200,000	-0,003	-0,066
-632,795	-158,233	-0,066	-0,003
-631,780	533,660	0,024	-0,041
-630,765	-119,480	-0,053	-0,007
-629,751	800,000	-0,044	-0,116
-628,736	-93,111	-0,106	0,021
-627,722	-117,431	-0,096	-0,012
-626,707	-94,350	-0,059	0,012
-625,692	-200,000	-0,002	0,077
-624,678	419,367	-0,068	0,106
-623,663	-200,000	-0,020	-0,146
-622,649	800,000	0,029	-0,079
-621,634	-200,000	-0,013	0,065
-620,619	695,066	-0,043	-0,082
-619,605	800,000	0,045	0,129
-618,590	82,861	0,179	0,141
-617,576	343,673	0,074	0,106
-616,561	-5,262	0,091	-0,045
-615,546	330,209	0,054	0,075
-614,532	800,000	-0,084	-0,196
-613,517	-200,000	-0,006	-0,120
-612,503	800,000	0,021	-0,047
-611,488	-90,444	0,125	0,026
-610,474	800,000	0,029	0,091
-609,459	20,489	-0,121	0,071
-608,444	-200,000	-0,021	-0,077
-607,430	285,085	-0,082	-0,107
-606,415	-84,375	-0,036	-0,008
-605,401	-200,000	0,005	-0,091
-604,386	-142,504	-0,198	-0,014
-603,371	-200,000	-0,003	-0,052
-602,357	-200,000	0,005	0,037
-601,342	440,150	-0,015	-0,024
-600,328	-78,841	-0,021	-0,005
-599,313	166,172	0,043	-0,044
-598,298	-200,000	-0,010	-0,105
-597,284	-14,422	-0,132	0,061
-596,269	-119,577	0,027	-0,003
-595,255	250,383	-0,045	-0,055
-594,240	-107,069	0,125	0,020
-593,225	800,000	-0,030	-0,082
-592,211	-200,000	-0,023	-0,125
-591,196	20,088	0,043	0,025
-590,182	-200,000	-0,008	-0,036
-589,167	240,752	-0,016	0,019
-588,152	-155,671	0,184	0,008
-587,138	-138,546	0,109	0,009
-586,123	-200,000	-0,008	-0,181
-585,109	37,847	-0,159	0,102
-584,094	670,950	0,027	0,051
-583,079	47,405	0,015	0,010
-582,065	-200,000	-0,044	0,203
-581,050	84,855	-0,073	-0,058
-580,036	-200,000	-0,002	0,015
-579,021	570,942	-0,038	0,066
-578,006	-40,006	-0,036	0,014
-576,992	800,000	0,044	0,092
-575,977	12,973	0,056	-0,031
-574,963	301,851	-0,051	0,068
-573,948	-200,000	0,005	-0,025
-572,934	-200,000	-0,016	-0,117
-571,919	233,318	-0,116	0,138
-570,904	54,065	-0,063	0,044
-569,890	-42,748	-0,131	-0,048
-568,875	68,209	-0,054	-0,040
-567,861	-36,076	0,032	0,013
-566,846	-147,471	0,094	0,006
-565,831	1,147	-0,074	-0,038
-564,817	57,698	-0,156	-0,110
-563,802	228,361	-0,080	-0,095
-562,788	51,552	0,072	-0,050
-561,773	-30,089	-0,097	0,040
-560,758	-128,398	0,105	-0,011
-559,744	-200,000	0,008	0,096
-558,729	283,594	0,029	0,037
-557,715	-200,000	0,000	0,108
-556,700	-200,000	0,036	0,123
-555,685	-130,414	0,077	-0,007
-554,671	-98,449	-0,115	-0,021
-553,656	-42,805	0,002	-0,001
-552,642	-180,770	0,100	0,001
-551,627	-200,000	0,026	0,096
-550,612	253,069	-0,021	-0,026
-549,598	359,667	0,041	0,059
-548,583	140,550	0,036	0,034
-547,569	-116,170	-0,075	0,010
-546,554	800,000	0,015	0,047
-545,539	-200,000	-0,020	0,110
-544,525	-69,879	-0,060	-0,016
-543,510	-200,000	0,012	-0,163
-542,496	78,213	-0,120	-0,093
-541,481	800,000	0,034	0,072
-540,466	-35,777	-0,067	-0,026
-539,452	-105,011	0,056	-0,009
-538,437	800,000	-0,025	0,059
-537,423	800,000	-0,040	0,094
-536,408	342,009	-0,029	0,041
-535,393	244,814	0,021	-0,025
-534,379	-144,510	-0,137	0,009
-533,364	-8,098	0,042	-0,020
-532,350	263,684	0,065	-0,081
-531,335	-19,850	0,100	-0,044
-530,321	326,286	0,041	-0,056
-529,306	800,000	-0,039	-0,085
-528,291	-97,633	-0,130	0,024
-527,277	-200,000	-0,008	-0,048
-526,262	43,274	-0,165	-0,108
-525,248	-34,157	0,053	-0,021
-524,233	518,974	-0,026	0,044
-523,218	6,031	0,136	-0,072
-522,204	-12,105	0,018	0,009
-521,189	69,797	-0,070	0,052
-520,175	35,186	0,050	-0,032
-519,160	-99,203	-0,201	0,036
-518,145	-65,943	-0,126	-0,036
-517,131	800,000	-0,053	0,160
-516,116	-80,016	0,132	0,032
-515,102	120,567	-0,080	0,072
-514,087	-200,000	-0,022	-0,070
-513,072	104,488	-0,061	-0,052
-512,058	3,371	0,100	0,052
-511,043	32,141	-0,076	-0,047
-510,029	-71,011	0,085	0,023
-509,014	-185,443	-0,156	0,002
-507,999	554,449	0,049	0,085
-506,985	12,875	-0,059	0,033
-505,970	-200,000	0,002	-0,084
-504,956	800,000	-0,044	-0,132
-503,941	-102,143	0,197	-0,034
-502,926	-6,913	0,084	0,041
-501,912	-200,000	-0,003	0,060
-500,897	-200,000	-0,002	-0,027
-499,883	190,024	0,082	0,089
-498,868	256,071	-0,042	0,052
-497,853	-95,468	-0,058	-0,011
-496,839	775,183	0,052	-0,103
-495,824	-8,848	-0,047	0,023
-494,810	758,661	-0,028	-0,055
-493,795	800,000	0,020	0,042
-492,781	22,266	0,078	-0,046
-491,766	28,655	0,109	0,066
-490,751	207,918	-0,054	-0,061
-489,737	-16,720	0,033	0,015
-488,722	-200,000	0,006	-0,058
-487,708	273,694	0,050	0,064
-486,693	117,576	0,155	0,137
-485,678	14,549	-0,013	0,007
-484,664	-200,000	0,023	-0,077
-483,649	800,000	-0,074	-0,167
-482,635	-200,000	0,018	-0,150
-481,620	-200,000	0,011	0,094
-480,605	100,001	0,088	0,074
-479,591	85,507	0,084	-0,067
-478,576	-94,150	-0,024	0,005
-477,562	800,000	-0,035	-0,088
-476,547	-160,963	-0,051	0,002
-475,532	148,886	0,045	-0,044
-474,518	-200,000	0,015	0,053
-473,503	800,000	0,067	-0,143
-472,489	-128,393	-0,050	0,005
-471,474	395,710	0,061	-0,093
-470,459	262,670	0,047	0,059
-469,445	-200,000	-0,004	-0,057
-468,430	800,000	0,074	0,163
-467,416	-200,000	0,024	0,079
-466,401	63,683	0,112	0,081
-465,386	800,000	0,015	0,045
-464,372	-200,000	-0,019	-0,065
-463,357	-200,000	-0,019	0,075
-462,343	-106,736	-0,100	-0,016
-461,328	-111,931	0,065	-0,009
-460,313	800,000	-0,043	0,119
-459,299	-200,000	0,024	0,132
-458,284	-60,619	0,108	0,033
-457,270	-200,000	-0,028	-0,125
-456,255	800,000	0,020	0,054
-455,241	289,817	-0,114	-0,150
-454,226	-90,261	-0,049	-0,010
-453,211	-63,881	0,088	-0,026
-452,197	-112,136	0,125	-0,018
-451,182	-200,000	-0,002	0,142
-450,168	800,000	0,038	-0,083
-449,153	25,241	0,127	0,076
-448,138	-200,000	-0,011	0,068
-447,124	-63,034	-0,114	0,034
-446,109	10,513	0,085	0,047
-445,095	-25,371	0,076	0,032
-444,080	392,601	0,030	0,045
-443,065	-155,168	-0,137	-0,006
-442,051	-200,000	0,010	0,089
-441,036	163,327	0,058	-0,058
-440,022	2,801	-0,063	0,033
-439,007	-117,015	0,085	0,011
-437,992	225,216	0,167	-0,195
-436,978	-127,039	0,073	-0,008
-435,963	43,670	0,083	0,054
-434,949	800,000	-0,036	-0,082
-433,934	264,993	-0,077	-0,097
-432,919	192,653	0,108	-0,117
-431,905	-47,254	-0,109	-0,038
-430,890	-200,000	0,027	0,135
-429,876	-200,000	0,006	0,093
-428,861	-61,505	0,136	-0,041
-427,846	-103,595	-0,102	-0,017
-426,832	107,171	-0,085	-0,073
-425,817	-128,283	-0,017	0,002
-424,803	74,862	0,034	0,026
-423,788	800,000	0,020	-0,040
-422,773	494,078	0,023	0,038
-421,759	687,436	-0,046	0,086
-420,744	74,910	-0,074	0,056
-419,730	-44,090	-0,126	-0,045
-418,715	-200,000	-0,035	-0,117
-417,701	-121,660	-0,092	-0,011
-416,686	271,015	0,076	-0,096
-415,671	-122,715	0,142	-0,016
-414,657	-144,989	0,123	-0,008
-413,642	-200,000	0,023	-0,082
-412,628	-24,830	0,040	-0,017
-411,613	134,205	0,113	-0,105
-410,598	543,421	0,030	-0,052
-409,584	-200,000	0,006	-0,067
-408,569	-146,453	0,122	-0,008
-407,555	-200,000	0,009	-0,135
-406,540	69,344	-0,104	-0,077
-405,525	-13,245	0,165	0,077
-404,511	-54,289	-0,099	-0,032
-403,496	-9,028	0,072	-0,034
-402,482	800,000	0,031	0,082
-401,467	-200,000	-0,009	0,146
-400,452	-64,823	0,140	-0,040
-399,438	326,755	0,037	0,052
-398,423	555,738	-0,004	-0,006
-397,409	311,633	0,034	0,046
-396,394	-200,000	0,063	-0,205
-395,379	-5,182	-0,018	0,009
-394,365	305,461	0,052	0,070
-393,350	191,008	0,042	0,046
-392,336	387,410	0,081	0,121
-391,321	-200,000	-0,001	-0,038
-390,306	53,152	0,025	-0,017
-389,292	144,842	-0,112	0,108
-388,277	93,821	0,032	0,026
-387,263	-200,000	0,004	0,064
-386,248	800,000	0,070	0,190
-385,233	-200,000	-0,005	0,051
-384,219	-200,000	0,008	-0,031
-383,204	35,311	0,061	-0,038
-382,190	-200,000	-0,019	-0,111
-381,175	412,070	0,022	-0,034
-380,160	-200,000	0,007	0,081
-379,146	-1,323	0,092	-0,046
-378,131	800,000	-0,015	0,033
-377,117	800,000	0,046	0,096
-376,102	-16,106	0,066	-0,030
-375,088	106,912	-0,120	-0,102
-374,073	76,490	-0,072	0,055
-373,058	-96,857	0,041	-0,008
-372,044	-18,544	-0,122	0,054
-371,029	-104,471	0,115	-0,019
-370,015	106,836	0,027	0,023
-369,000	433,634	0,060	-0,094
-367,985	441,392	0,057	-0,089
-366,971	298,040	-0,047	0,062
-365,956	189,445	0,014	0,015
-364,942	-200,000	-0,005	0,110
-363,927	370,014	0,025	0,037
-362,912	-200,000	0,018	-0,134
-361,898	-152,093	-0,195	-0,010
-360,883	800,000	-0,064	-0,139
-359,869	-0,469	-0,062	-0,031
-358,854	40,292	0,038	0,024
-357,839	-200,000	0,003	-0,041
-356,825	-200,000	0,003	0,029
-355,810	35,446	-0,113	0,071
-354,796	-64,283	-0,050	0,014
-353,781	128,635	0,039	-0,035
-352,766	-47,067	0,074	0,026
-351,752	-200,000	0,037	0,138
-350,737	-163,464	-0,063	0,002
-349,723	800,000	-0,025	0,073
-348,708	-200,000	0,010	0,057
-347,693	268,017	0,043	-0,054
-346,679	-52,969	-0,076	0,025
-345,664	-200,000	-0,024	-0,116
-344,650	-200,000	0,029	-0,125
-343,635	800,000	0,036	0,108
-342,620	164,319	0,037	0,038
-341,606	-200,000	0,012	0,258
-340,591	42,039	0,057	0,037
-339,577	365,461	-0,044	0,063
-338,562	800,000	-0,018	-0,050
-337,548	93,742	0,108	0,088
-336,533	516,013	0,011	-0,018
-335,518	87,708	-0,041	-0,033
-334,504	-200,000	-0,006	0,115
-333,489	800,000	-0,015	0,033
-332,475	44,138	0,079	-0,051
-331,460	-128,044	-0,072	-0,007
-330,445	334,925	0,074	0,103
-329,431	486,153	0,026	-0,043
-328,416	66,402	0,041	0,030
-327,402	146,097	-0,067	-0,064
-326,387	-200,000	0,008	0,177
-325,372	-169,672	-0,139	-0,004
-324,358	-82,578	-0,048	-0,011
-323,343	708,380	-0,018	0,035
-322,329	-200,000	-0,010	-0,070
-321,314	800,000	-0,014	-0,044
-320,299	74,913	0,059	0,044
-319,285	-114,571	0,119	-0,016
-318,270	603,317	-0,047	-0,084
-317,256	127,751	-0,008	-0,007
-316,241	-23,936	0,125	-0,053
-315,226	-61,702	0,115	0,034
-314,212	113,031	0,128	0,111
-313,197	402,519	-0,038	0,057
-312,183	-200,000	-0,025	-0,117
-311,168	-200,000	0,007	-0,028
-310,153	-73,194	0,120	-0,031
-309,139	-200,000	0,032	-0,116
-308,124	174,892	-0,050	-0,051
-307,110	-200,000	-0,009	-0,095
-306,095	84,110	0,065	0,051
-305,080	-133,919	-0,046	0,004
-304,066	-200,000	0,015	-0,114
-303,051	297,686	0,034	-0,044
-302,037	800,000	0,030	-0,064
-301,022	349,234	0,042	0,059
-300,008	-47,772	-0,043	-0,015
-298,993	85,325	0,062	-0,048
-297,978	151,511	0,106	0,104
-296,964	447,460	-0,080	-0,126
-295,949	127,432	-0,135	-0,122
-294,935	-200,000	-0,000	-0,080
-293,920	-13,665	0,082	-0,038
-292,905	-200,000	-0,008	0,149
-291,891	-42,077	-0,077	0,028
-290,876	-56,027	0,111	0,035
-289,862	159,886	0,072	0,071
-288,847	0,837	-0,086	-0,044
-287,832	-200,000	0,036	-0,177
-286,818	-200,000	-0,034	-0,136
-285,803	800,000	0,052	0,111
-284,789	-120,928	-0,118	0,014
-283,774	247,624	0,037	0,045
-282,759	700,219	-0,069	0,130
-281,745	-91,345	-0,201	0,041
-280,730	800,000	-0,059	-0,137
-279,716	800,000	0,025	-0,063
-278,701	276,452	0,085	0,108
-277,686	-200,000	-0,015	0,090
-276,672	-48,606	0,113	0,038
-275,657	147,603	-0,016	-0,015
-274,643	-60,063	-0,057	0,017
-273,628	800,000	-0,012	0,036
-272,613	177,770	0,063	0,066
-271,599	-200,000	-0,011	-0,124
-270,584	-15,281	0,135	0,062
-269,570	800,000	-0,028	-0,060
-268,555	800,000	0,035	-0,092
-267,540	143,247	-0,031	-0,030
-266,526	-176,234	0,034	-0,001
-265,511	462,615	-0,041	-0,066
-264,497	43,885	0,112	-0,073
-263,482	-200,000	0,003	-0,024
-262,467	-200,000	0,015	0,202
-261,453	238,100	-0,085	0,101
-260,438	726,545	-0,018	-0,035
-259,424	-122,853	-0,087	-0,010
-258,409	-200,000	0,011	-0,053
-257,395	-200,000	0,023	-0,182
-256,380	464,548	-0,038	0,061
-255,365	461,164	0,079	0,126
-254,351	121,554	0,032	-0,029
-253,336	-200,000	0,014	0,062
-252,322	149,115	-0,071	-0,069
-251,307	-200,000	0,009	-0,045
-250,292	800,000	0,024	0,047
-249,278	800,000	-0,031	0,090
-248,263	72,027	0,141	0,105
-247,249	-200,000	0,038	-0,127
-246,234	-200,000	0,008	0,092
-245,219	5,652	-0,102	-0,053
-244,205	155,985	-0,078	-0,077
-243,190	-6,731	0,122	-0,059
-242,176	-172,977	0,069	-0,001
-241,161	-120,214	0,096	0,012
-240,146	172,683	-0,067	0,069
-239,132	62,384	-0,022	0,016
-238,117	-79,511	-0,104	0,025
-237,103	298,347	-0,055	0,072
-236,088	-200,000	-0,016	0,141
-235,073	70,675	0,049	-0,036
-234,059	-12,501	-0,086	0,040
-233,044	-123,341	-0,102	0,012
-232,030	247,800	-0,018	0,021
-231,015	32,389	0,049	-0,030
-230,000	800,000	-0,041	-0,090
-228,986	56,937	-0,028	0,019
-227,971	254,010	0,046	0,056
-226,957	-137,897	-0,090	0,007
-225,942	-35,797	0,046	0,018
-224,927	296,743	0,100	-0,131
-223,913	-200,000	0,017	-0,128
-222,898	800,000	-0,042	-0,112
-221,884	186,296	-0,078	-0,083
-220,869	276,413	0,046	0,058
-219,855	3,591	-0,024	-0,013
-218,840	191,370	0,034	0,037
-217,825	-200,000	0,059	0,000
-216,811	-126,582	-0,185	0,019
-215,796	-200,000	-0,000	0,008
-214,782	-200,000	-0,025	0,097
-213,767	163,993	0,080	-0,081
-212,752	573,185	-0,021	0,036
-211,738	-57,403	0,098	0,030
-210,723	-45,294	-0,038	-0,013
-209,709	-29,548	-0,184	0,075
-208,694	464,404	-0,020	-0,032
-207,679	3,444	0,058	-0,030
-206,665	34,596	0,034	0,021
-205,650	-145,515	-0,089	-0,006
-204,636	-200,000	-0,000	0,016
-203,621	617,497	-0,073	0,131
-202,606	2,625	-0,222	0,114
-201,592	192,000	-0,126	-0,135
-200,577	269,933	-0,049	0,061
-199,563	-200,000	-0,000	0,157
-198,548	800,000	-0,025	0,071
-197,533	-139,803	0,108	0,008
-196,519	-39,054	0,062	-0,023
-195,504	133,237	-0,018	0,016
-194,490	162,911	0,090	-0,090
-193,475	-107,618	-0,110	-0,017
-192,460	-104,405	0,147	0,024
-191,446	-200,000	-0,003	0,111
-190,431	-200,000	0,021	0,131
-189,417	-5,179	0,108	-0,052
-188,402	-200,000	-0,004	0,023
-187,387	-56,457	-0,008	0,003
-186,373	-200,000	-0,127	0,000
-185,358	-13,540	-0,065	-0,030
-184,344	-200,000	0,027	0,100
-183,329	60,168	-0,084	0,059
-182,315	800,000	-0,092	0,198
-181,300	-200,000	-0,004	-0,093
-180,285	155,804	0,089	-0,088
-179,271	-166,419	-0,190	0,006
-178,256	-44,697	0,075	0,027
-177,242	138,836	0,044	0,041
-176,227	-101,020	-0,116	0,020
-175,212	200,372	0,081	0,088
-174,198	-132,948	0,054	0,005
-173,183	501,192	0,077	-0,127
-172,169	-200,000	-0,008	-0,154
-171,154	-200,000	0,010	-0,075
-170,139	607,311	0,014	-0,024
-169,125	800,000	-0,015	0,034
-168,110	-200,000	0,003	0,075
-167,096	2,248	0,081	-0,041
-166,081	595,522	-0,072	-0,127
-165,066	-33,603	0,079	-0,031
-164,052	728,033	0,019	0,037
-163,037	436,201	0,054	0,084
-162,023	800,000	0,007	0,015
-161,008	146,577	0,096	0,092
-159,993	-200,000	-0,007	-0,120
-158,979	767,170	-0,039	-0,076
-157,964	328,679	-0,056	-0,077
-156,950	73,261	-0,123	-0,092
-155,935	-110,126	-0,078	0,011
-154,920	-200,000	-0,002	-0,032
-153,906	117,051	0,128	0,112
-152,891	77,696	-0,083	0,063
-151,877	103,826	-0,054	0,045
-150,862	-200,000	-0,032	-0,128
-149,847	225,270	-0,029	-0,034
-148,833	800,000	-0,017	0,035
-147,818	-200,000	0,009	0,071
-146,804	129,397	0,056	-0,051
-145,789	556,948	0,055	-0,094
-144,775	337,377	0,029	-0,041
-143,760	-118,823	-0,210	-0,026
-142,745	444,850	0,050	0,079
-141,731	516,526	-0,075	0,125
-140,716	-96,782	0,055	0,010
-139,702	374,131	0,035	0,051
-138,687	-164,517	-0,124	0,004
-137,672	-118,320	0,103	0,013
-136,658	41,987	-0,126	0,081
-135,643	97,934	-0,082	0,067
-134,629	-103,694	0,066	0,011
-133,614	-3,598	-0,109	-0,053
-132,599	-200,000	0,004	0,123
-131,585	-118,502	0,011	-0,001
-130,570	53,270	-0,101	0,068
-129,556	-54,330	0,090	-0,029
-128,541	-196,195	-0,129	-0,001
-127,526	461,346	0,044	-0,069
-126,512	132,607	0,157	0,144
-125,497	-28,947	0,116	0,047
-124,483	351,182	0,059	-0,083
-123,468	-82,847	-0,101	0,023
-122,453	-31,551	0,064	0,025
-121,439	800,000	-0,017	-0,046
-120,424	795,415	0,060	-0,117
-119,410	-111,017	0,116	-0,017
-118,395	-200,000	0,033	0,169
-117,380	800,000	-0,053	0,119
-116,366	386,743	-0,019	0,027
-115,351	-200,000	0,008	-0,090
-114,337	800,000	0,027	-0,070
-113,322	-125,899	0,020	-0,002
-112,307	800,000	0,075	0,176
-111,293	600,360	-0,020	0,036
-110,278	709,313	-0,041	0,078
-109,264	-17,577	-0,024	-0,011
-108,249	61,631	-0,090	-0,064
-107,234	-200,000	-0,000	0,080
-106,220	-166,673	-0,042	0,001
-105,205	70,266	0,114	-0,083
-104,191	-94,696	0,122	0,023
-103,176	388,535	0,064	0,094
-102,162	154,980	-0,094	0,091
-101,147	-104,510	0,024	0,004
-100,132	-182,900	-0,081	0,001
-99,118	372,706	0,067	-0,097
-98,103	-6,758	0,123	0,059
-97,089	646,160	0,048	0,088
-96,074	-154,401	-0,022	-0,001
-95,059	716,778	-0,041	-0,077
-94,045	468,873	-0,040	0,064
-93,030	178,753	-0,046	0,047
-92,016	-200,000	-0,023	-0,118
-91,001	800,000	0,047	-0,099
-89,986	-200,000	0,096	0,000
-88,972	99,386	0,033	-0,027
-87,957	53,859	0,068	0,046
-86,943	-200,000	0,018	-0,079
-85,928	149,109	-0,043	0,041
-84,913	-200,000	-0,028	-0,120
-83,899	128,477	-0,032	-0,029
-82,884	-66,720	0,051	-0,014
-81,870	66,236	0,048	-0,035
-80,855	-200,000	0,005	0,077
-79,840	26,693	0,083	0,049
-78,826	-7,421	-0,046	0,022
-77,811	-54,332	-0,161	0,051
-76,797	-200,000	-0,012	0,045
-75,782	160,415	0,114	0,113
-74,767	-27,054	-0,055	-0,023
-73,753	458,932	0,079	-0,124
-72,738	51,199	0,072	-0,048
-71,724	506,019	0,042	0,070
-70,709	106,528	-0,039	-0,033
-69,694	800,000	-0,070	0,188
-68,680	772,142	0,041	-0,080
-67,665	-29,888	0,073	-0,029
-66,651	-109,232	0,090	0,013
-65,636	-200,000	-0,002	0,008
-64,622	-141,008	-0,103	-0,007
-63,607	-77,479	-0,072	-0,018
-62,592	800,000	0,044	-0,093
-61,578	-136,053	-0,131	0,011
-60,563	-200,000	0,001	0,018
-59,549	764,630	0,055	0,106
-58,534	-48,577	-1,750	-0,593
-57,519	442,588	-1,392	-2,166
-56,505	-200,000	-0,451	-4,652
-55,490	225,984	0,981	1,128
-54,476	800,000	4,894	11,578
-53,461	-200,000	19,277	320,064
-52,446	-200,000	740,582	2334,542
-51,432	573,907	1655,322	2869,714
-50,417	78,279	1671,201	1261,855
-49,403	21,285	1544,082	885,566
-48,388	15,182	1466,330	811,298
-47,373	17,945	1456,699	819,288
-46,359	16,704	1446,461	807,548
-45,344	13,466	1441,830	789,419
-44,330	13,411	1439,839	788,036
-43,315	13,420	1438,208	787,153
-42,300	13,369	1436,558	785,974
-41,286	13,377	1435,251	785,266
-40,271	13,331	1434,042	784,354
-39,257	13,334	1432,633	783,568
-38,242	13,368	1431,428	783,040
-37,227	13,416	1430,235	782,583
-36,213	13,399	1428,682	781,621
-35,198	13,419	1427,731	781,168
-34,184	13,423	1426,941	780,721
-33,169	13,428	1425,365	779,855
-32,154	13,407	1424,309	779,146
-31,140	13,398	1423,126	778,422
-30,125	13,428	1422,020	777,930
-29,111	13,393	1421,021	777,189
-28,096	13,431	1419,666	776,595
-27,082	13,363	1418,886	775,814
-26,067	13,291	1417,614	774,750
-25,052	13,350	1416,488	774,383
-24,038	13,334	1415,518	773,749
-23,023	13,306	1414,539	773,048
-22,009	13,300	1413,635	772,495
-20,994	13,310	1412,733	772,018
-19,979	13,288	1411,728	771,335
-18,965	13,288	1410,656	770,718
-17,950	13,298	1409,800	770,269
-16,936	13,283	1408,992	769,727
-15,921	13,242	1407,840	768,873
-14,906	13,232	1406,992	768,336
-13,892	13,282	1405,930	767,955
-12,877	13,294	1405,014	767,485
-11,863	13,268	1404,075	766,819
-10,848	13,273	1403,333	766,404
-9,833	13,257	1402,380	765,780
-8,819	13,185	1401,582	764,979
-7,804	13,147	1400,654	764,263
-6,790	13,143	1399,665	763,675
-5,775	13,185	1398,656	763,292
-4,760	13,135	1397,858	762,593
-3,746	13,136	1396,772	761,973
-2,731	13,128	1395,815	761,384
-1,717	13,130	1395,246	761,055
-0,702	13,123	1393,101	759,821
0,313	16,988	1309,939	732,357
1,327	33,359	703,728	431,269
2,342	50,750	123,415	82,537
3,356	0,284	16,713	8,409
4,371	17,798	3,181	1,786
5,386	-28,531	0,539	0,219
6,400	-200,000	-0,023	0,207
7,415	-4,632	-0,295	-0,144
8,429	26,411	-0,429	-0,253
9,444	14,773	-0,353	-0,194
10,459	-185,057	-0,285	-0,003
11,473	149,536	-0,289	-0,277
12,488	163,166	-0,199	-0,198
13,502	5,173	-0,465	-0,242
14,517	108,234	-0,341	-0,287
15,531	-14,502	-0,428	-0,194
16,546	151,988	-0,314	-0,303
17,561	310,044	-0,327	-0,433
18,575	206,111	-0,189	-0,208
19,590	562,730	-0,206	-0,353
20,604	-27,294	-0,207	-0,085
21,619	78,394	-0,427	-0,322
22,634	120,528	-0,389	-0,341
23,648	321,817	-0,296	-0,398
24,663	213,246	-0,352	-0,393
25,677	92,276	-0,302	-0,240
26,692	-11,902	-0,453	-0,209
27,707	30,831	-0,359	-0,217
28,721	77,542	-0,458	-0,344
29,736	95,934	-0,340	-0,274
30,750	74,450	-0,438	-0,325
31,765	171,487	-0,352	-0,357
32,780	102,306	-0,341	-0,281
33,794	16,794	-0,345	-0,192
34,809	-65,731	-0,399	-0,112
35,823	-31,876	-0,311	-0,122
36,838	-17,973	-0,441	-0,194
37,853	167,423	-0,423	-0,425
38,867	121,070	-0,375	-0,329
39,882	6,679	-0,318	-0,166
40,896	36,747	-0,333	-0,207
41,911	47,115	-0,295	-0,193
42,926	128,971	-0,335	-0,302
43,940	-32,164	-0,435	-0,170
44,955	181,153	-0,372	-0,385
45,969	29,170	-0,477	-0,285
46,984	71,376	-0,348	-0,255
47,999	156,353	-0,373	-0,363
49,013	169,316	-0,258	-0,260
50,028	25,100	-0,387	-0,225
51,042	16,562	-0,450	-0,250
52,057	24,835	-0,284	-0,165
53,071	101,641	-0,293	-0,241
54,086	-19,761	-0,293	-0,127
55,101	120,595	-0,240	-0,210
56,115	-7,620	-0,362	-0,172
57,130	-57,816	-0,345	-0,106
58,144	136,319	-0,305	-0,280
59,159	-10,783	-0,377	-0,175
60,174	48,265	-0,367	-0,241
61,188	73,247	-0,345	-0,254
62,203	209,158	-0,180	-0,198
63,217	91,155	-0,322	-0,254
64,232	80,446	-0,383	-0,290
65,247	81,883	-0,327	-0,249
66,261	43,234	-0,327	-0,210
67,276	76,212	-0,477	-0,355
68,290	134,526	-0,236	-0,215
69,305	179,918	-0,292	-0,301
70,320	-16,638	-0,315	-0,139
71,334	36,425	-0,349	-0,216
72,349	19,262	-0,371	-0,209
73,363	58,922	-0,275	-0,190
74,378	5,015	-0,503	-0,259
75,393	120,201	-0,344	-0,300
76,407	277,436	-0,172	-0,216
77,422	-70,497	-0,379	-0,100
78,436	16,499	-0,326	-0,180
79,451	-7,965	-0,301	-0,142
80,466	53,120	-0,317	-0,213
81,480	133,107	-0,300	-0,272
82,495	-0,960	-0,255	-0,126
83,509	71,205	-0,284	-0,206
84,524	79,713	-0,132	-0,099
85,539	90,700	-0,241	-0,189
86,553	72,388	-0,273	-0,199
87,568	82,669	-0,305	-0,232
88,582	23,562	-0,410	-0,236
89,597	-19,193	-0,306	-0,133
90,611	68,903	-0,312	-0,225
91,626	179,428	-0,255	-0,262
92,641	12,146	-0,102	-0,055
93,655	-32,667	-0,219	-0,085
94,670	227,742	-0,143	-0,163
95,684	306,532	-0,245	-0,321
96,699	-32,585	-0,425	-0,165
97,714	31,109	-0,206	-0,124
98,728	49,249	-0,313	-0,206
99,743	800,000	-0,138	-0,288
100,757	335,499	-0,159	-0,217
101,772	119,777	-0,297	-0,258
102,787	-7,708	-0,253	-0,119
103,801	-6,664	-0,313	-0,149
104,816	-38,854	-0,312	-0,115
105,830	152,263	-0,278	-0,267
106,845	-29,467	-0,223	-0,089
107,860	17,871	-0,259	-0,144
108,874	52,219	-0,361	-0,241
109,889	31,410	-0,308	-0,185
110,903	3,128	-0,234	-0,119
111,918	142,462	-0,236	-0,219
112,933	-9,899	-0,284	-0,132
113,947	65,072	-0,184	-0,130
114,962	-41,539	-0,387	-0,139
115,976	12,406	-0,303	-0,163
116,991	56,152	-0,254	-0,172
118,006	-54,908	-0,266	-0,083
119,020	-38,351	-0,274	-0,101
120,035	45,151	-0,286	-0,184
121,049	120,059	-0,170	-0,148
122,064	613,615	-0,138	-0,243
123,079	385,750	-0,147	-0,212
124,093	-45,941	-0,380	-0,131
125,108	132,276	-0,278	-0,251
126,122	129,158	-0,258	-0,231
127,137	-56,322	-0,327	-0,101
128,151	81,693	-0,192	-0,145
129,166	-29,615	-0,317	-0,126
130,181	137,327	-0,203	-0,185
131,195	-6,182	-0,162	-0,077
132,210	51,863	-0,292	-0,194
133,224	800,000	-0,150	-0,365
134,239	-90,032	-0,203	-0,041
135,254	40,903	-0,211	-0,133
136,268	263,699	-0,154	-0,187
137,283	154,458	-0,256	-0,246
138,297	68,270	-0,276	-0,197
139,312	70,353	-0,213	-0,154
140,327	56,272	-0,338	-0,229
141,341	134,174	-0,173	-0,157
142,356	22,665	-0,340	-0,194
143,370	12,072	-0,250	-0,134
144,385	452,059	-0,199	-0,308
145,400	702,092	-0,168	-0,310
146,414	40,120	-0,163	-0,102
147,429	15,843	-0,182	-0,100
148,443	64,497	-0,257	-0,181
149,458	784,427	-0,107	-0,206
150,473	147,670	-0,185	-0,174
151,487	-26,935	-0,313	-0,127
152,502	-4,159	-0,304	-0,146
153,516	160,299	-0,263	-0,256
154,531	259,037	-0,210	-0,253
155,546	45,574	-0,261	-0,168
156,560	478,036	-0,098	-0,156
157,575	-26,963	-0,275	-0,111
158,589	-79,225	-0,239	-0,056
159,604	409,185	-0,163	-0,242
160,619	40,509	-0,362	-0,227
161,633	399,260	-0,222	-0,326
162,648	39,327	-0,353	-0,220
163,662	-90,318	-0,218	-0,044
164,677	80,413	-0,238	-0,178
165,692	288,164	-0,167	-0,212
166,706	800,000	-0,102	-0,224
167,721	206,447	-0,275	-0,299
168,735	-71,799	-0,294	-0,076
169,750	-71,212	-0,187	-0,048
170,764	183,733	-0,165	-0,170
171,779	-65,899	-0,237	-0,066
172,794	-49,078	-0,191	-0,063
173,808	39,208	-0,281	-0,175
174,823	-18,646	-0,306	-0,132
175,837	380,239	-0,197	-0,282
176,852	-61,672	-0,271	-0,079
177,867	108,124	-0,213	-0,177
178,881	-14,975	-0,122	-0,054
179,896	82,733	-0,154	-0,117
180,910	438,001	-0,145	-0,221
181,925	133,754	-0,220	-0,198
182,940	42,945	-0,332	-0,210
183,954	223,257	-0,195	-0,219
184,969	-5,139	-0,239	-0,114
185,983	27,282	-0,138	-0,081
186,998	108,699	-0,157	-0,130
188,013	30,189	-0,219	-0,130
189,027	406,859	-0,161	-0,238
190,042	269,195	-0,263	-0,321
191,056	490,805	-0,140	-0,223
192,071	800,000	-0,082	-0,244
193,086	90,408	-0,204	-0,159
194,100	-200,000	-0,022	-0,175
195,115	800,000	-0,177	-0,358
196,129	800,000	-0,101	-0,222
197,144	56,705	-0,359	-0,243
198,159	-4,110	-0,254	-0,122
199,173	58,490	-0,259	-0,177
200,188	47,562	-0,190	-0,123
201,202	-25,176	-0,175	-0,072
202,217	800,000	-0,090	-0,224
203,232	-9,529	-0,176	-0,081
204,246	-125,490	-0,338	-0,035
205,261	105,236	-0,207	-0,170
206,275	61,297	-0,235	-0,162
207,290	317,065	-0,192	-0,253
208,304	4,639	-0,098	-0,050
209,319	-60,951	-0,150	-0,044
210,334	58,680	-0,279	-0,190
211,348	351,696	-0,083	-0,114
212,363	-43,354	-0,193	-0,067
213,377	102,241	-0,234	-0,190
214,392	-31,358	-0,104	-0,040
215,407	-70,586	-0,250	0,065
216,421	-6,676	-0,194	-0,091
217,436	217,000	-0,204	-0,226
218,450	341,582	-0,104	-0,142
219,465	39,871	-0,331	-0,206
220,480	555,483	-0,128	-0,214
221,494	128,234	-0,168	-0,148
222,509	-200,000	0,026	-0,095
223,523	58,512	-0,162	-0,110
224,538	-102,815	-0,274	-0,045
225,553	800,000	-0,092	-0,229
226,567	60,459	-0,256	-0,176
227,582	800,000	-0,136	-0,298
228,596	167,824	-0,201	-0,198
229,611	259,533	-0,187	-0,225
230,626	55,920	-0,194	-0,130
231,640	396,684	-0,121	-0,176
232,655	-100,842	-0,222	-0,038
233,669	156,680	-0,182	-0,175
234,684	-65,044	-0,260	-0,072
235,699	147,276	-0,108	-0,100
236,713	-200,000	-0,031	-0,177
237,728	252,683	-0,236	-0,279
238,742	28,771	-0,215	-0,126
239,757	384,523	-0,107	-0,153
240,772	8,893	-0,239	-0,124
241,786	345,883	-0,106	-0,144
242,801	-76,120	-0,218	-0,053
243,815	234,849	-0,127	-0,145
244,830	8,674	-0,144	-0,075
245,844	190,282	-0,165	-0,172
246,859	560,217	-0,108	-0,182
247,874	-36,730	-0,199	-0,073
248,888	62,759	-0,210	-0,145
249,903	275,651	-0,117	-0,144
250,917	318,946	-0,142	-0,186
251,932	549,621	-0,105	-0,175
252,947	87,946	-0,180	-0,138
253,961	540,702	-0,083	-0,137
254,976	282,181	-0,148	-0,184
255,990	359,180	-0,098	-0,136
257,005	394,335	-0,148	-0,213
258,020	135,111	-0,176	-0,158
259,034	-69,303	-0,136	-0,036
260,049	207,827	-0,148	-0,160
261,063	26,766	-0,080	-0,046
262,078	195,509	-0,167	-0,176
263,093	166,031	-0,118	-0,116
264,107	409,735	-0,147	-0,216
265,122	66,191	-0,084	-0,059
266,136	-21,971	-0,222	-0,093
267,151	-82,437	-0,184	-0,041
268,166	-12,543	-0,185	-0,083
269,180	21,105	-0,180	-0,100
270,195	305,882	-0,104	-0,134
271,209	2,545	-0,210	-0,105
272,224	-54,147	-0,141	-0,044
273,239	465,171	-0,040	-0,062
274,253	-53,599	-0,175	0,055
275,268	-85,060	-0,106	-0,023
276,282	128,322	-0,193	-0,170
277,297	157,457	-0,175	-0,168
278,312	640,631	-0,107	-0,189
279,326	-177,107	-0,197	-0,003
280,341	-64,734	-0,125	-0,035
281,355	-124,129	-0,176	-0,019
282,370	-72,251	-0,127	-0,032
283,384	562,710	-0,126	-0,212
284,399	-52,086	-0,206	-0,066
285,414	27,158	-0,231	-0,134
286,428	800,000	-0,034	-0,084
287,443	-54,361	-0,103	0,032
288,457	61,534	-0,131	-0,090
289,472	-94,283	-0,113	-0,021
290,487	15,859	-0,203	-0,110
291,501	254,490	-0,176	-0,209
292,516	65,336	-0,159	-0,111
293,530	-138,756	-0,211	-0,016
294,545	800,000	-0,053	-0,143
295,560	-200,000	-0,002	-0,174
296,574	-73,121	-0,202	-0,051
297,589	453,571	-0,094	-0,145
298,603	286,286	-0,146	-0,182
299,618	-200,000	-0,228	-0,001
300,633	-200,000	-0,026	-0,114
301,647	800,000	-0,060	-0,119
302,662	578,475	-0,154	-0,261
303,676	800,000	-0,027	-0,058
304,691	75,522	-0,172	-0,125
305,706	-16,952	-0,203	-0,088
306,720	96,213	-0,206	-0,162
307,735	724,902	-0,073	-0,134
308,749	-112,068	-0,197	-0,027
309,764	-200,000	-0,002	-0,041
310,779	239,209	-0,074	-0,085
311,793	-200,000	-0,016	-0,119
312,808	800,000	-0,094	-0,186
313,822	54,927	-0,170	-0,112
314,837	260,265	-0,037	-0,045
315,852	-168,461	-0,145	-0,004
316,866	144,476	-0,121	-0,111
317,881	190,933	-0,121	-0,125
318,895	259,085	-0,149	-0,177
319,910	280,132	-0,139	-0,172
320,925	216,139	-0,121	-0,133
321,939	-16,011	-0,201	-0,087
322,954	800,000	-0,079	-0,159
323,968	85,198	-0,119	-0,090
324,983	-32,598	-0,124	-0,047
325,997	92,165	-0,151	-0,117
327,012	37,443	-0,110	-0,067
328,027	125,508	-0,174	-0,151
329,041	322,137	-0,102	-0,134
330,056	-200,000	-0,021	-0,092
331,070	-128,366	-0,122	-0,012
332,085	68,752	-0,118	-0,083
333,100	-18,573	-0,084	-0,036
334,114	18,772	-0,152	-0,083
335,129	589,613	-0,102	-0,174
336,143	100,043	-0,200	-0,159
337,158	131,781	-0,100	-0,089
338,173	225,293	0,041	-0,046
339,187	-200,000	-0,010	-0,035
340,202	47,635	-0,136	-0,087
341,216	112,451	-0,139	-0,116
342,231	227,458	-0,161	-0,180
343,246	453,693	-0,133	-0,202
344,260	535,301	-0,075	-0,122
345,275	-137,866	-0,160	-0,012
346,289	-130,486	-0,252	0,023
347,304	-54,171	-0,134	0,042
348,319	213,230	-0,140	-0,152
349,333	371,576	-0,171	-0,238
350,348	332,885	-0,076	-0,101
351,362	-185,324	-0,132	0,001
352,377	-81,827	-0,156	-0,035
353,392	-138,009	-0,081	0,006
354,406	800,000	-0,054	-0,163
355,421	210,829	1313,047	1417,294
356,435	162,321	1473,560	1417,788
