DTS Sentinel unit serial number:	SN410029Multiplexer serial number:	ORYXHardware model number:	OX2-SRSoftware version number:	ORYX F/W v4,00 Oryx Data Collector v3.7.2.0data status	okinstallation	B3 Nyhavnadifferential loss correction	single-endedforward channel	channel 1reverse channel	N/Adate	2023/12/03time	22:52:30forward acquisition time	300,00reverse acquisition time	0,00gamma	499,1914k internal	0,3201k external	0,3201temperature offset calibration	1,0000default loss term (dB/km)	0,3820temperature slope calibration	1,0000multiplexer offset coefficient	1,0000multiplexer slope coefficient	1,0000fibre end	0,00T internal ref (°C)	13,07T ext. ref 1 (°C)	-2,23T ext. ref 2 (°C)	-2,25length (m)	temperature (°C)	Stokes	anti-Stokes-744,400	-200,000	-0,084	-0,379
-743,385	-200,000	0,065	0,356
-742,371	141,970	-0,172	-0,165
-741,356	451,252	0,103	0,166
-740,342	226,823	-0,121	-0,143
-739,327	-200,000	-0,026	0,208
-738,312	387,604	-0,118	-0,178
-737,298	-200,000	-0,043	0,333
-736,283	-68,654	-0,389	-0,109
-735,269	800,000	-0,086	0,182
-734,254	-17,594	-0,186	-0,084
-733,239	180,080	-0,184	0,196
-732,225	80,158	-0,137	-0,107
-731,210	162,260	-0,069	-0,070
-730,196	-44,756	-0,083	0,030
-729,181	137,922	0,027	0,026
-728,167	-6,140	0,095	-0,047
-727,152	458,139	-0,052	-0,085
-726,137	-200,000	-0,004	-0,116
-725,123	-101,506	-0,107	0,019
-724,108	800,000	-0,021	-0,053
-723,094	-200,000	-0,007	-0,091
-722,079	95,817	-0,149	-0,123
-721,064	12,251	-0,121	0,068
-720,050	25,906	-0,146	0,088
-719,035	-160,583	0,055	-0,002
-718,021	-200,000	-0,003	-0,041
-717,006	36,850	-0,064	0,041
-715,991	-159,179	-0,156	-0,006
-714,977	523,844	-0,083	-0,142
-713,962	101,727	-0,127	-0,108
-712,948	-39,071	0,038	-0,015
-711,933	622,783	0,015	-0,027
-710,918	608,807	-0,014	0,025
-709,904	88,229	-0,170	-0,137
-708,889	-30,574	-0,142	-0,058
-707,875	-200,000	0,025	-0,119
-706,860	-57,833	-0,103	0,033
-705,845	-7,930	-0,129	0,063
-704,831	-45,109	-0,096	0,035
-703,816	-200,000	0,015	0,077
-702,802	800,000	-0,048	-0,112
-701,787	610,947	-0,014	-0,025
-700,772	-156,420	-0,054	-0,002
-699,758	27,734	-0,122	-0,075
-698,743	347,719	0,081	-0,115
-697,729	150,026	0,045	0,044
-696,714	-96,416	0,126	0,024
-695,699	-112,585	-0,175	0,025
-694,685	-113,278	-0,149	0,021
-693,670	122,299	-0,106	-0,096
-692,656	153,012	-0,054	-0,054
-691,641	29,459	-0,113	-0,070
-690,627	62,341	0,102	0,074
-689,612	-166,798	0,015	-0,000
-688,597	447,828	0,034	0,055
-687,583	-200,000	-0,014	0,110
-686,568	800,000	-0,061	-0,142
-685,554	-10,299	-0,159	-0,076
-684,539	171,312	-0,087	0,091
-683,524	131,301	-0,064	0,060
-682,510	441,781	-0,068	-0,108
-681,495	-200,000	0,041	0,178
-680,481	-28,371	0,023	-0,010
-679,466	19,859	-0,144	-0,084
-678,451	138,072	0,089	-0,085
-677,437	-200,000	-0,019	-0,066
-676,422	156,854	0,112	0,112
-675,408	163,352	0,010	0,010
-674,393	800,000	-0,081	0,172
-673,378	800,000	-0,039	-0,105
-672,364	-200,000	0,044	-0,176
-671,349	-200,000	0,012	-0,044
-670,335	436,836	0,076	0,120
-669,320	218,231	-0,108	0,126
-668,305	-200,000	0,019	0,089
-667,291	-159,741	0,066	-0,003
-666,276	-200,000	0,041	-0,148
-665,262	-33,147	-0,155	0,062
-664,247	757,538	-0,022	0,044
-663,232	-200,000	-0,019	-0,260
-662,218	-200,000	-0,172	-0,000
-661,203	-160,777	0,109	0,004
-660,189	-68,518	0,184	0,051
-659,174	783,753	0,057	-0,113
-658,159	12,167	0,046	-0,026
-657,145	-97,840	-0,094	-0,017
-656,130	-200,000	-0,049	-0,176
-655,116	381,407	-0,110	0,165
-654,101	594,104	-0,048	0,086
-653,086	-30,669	-0,041	0,017
-652,072	-2,118	0,044	0,022
-651,057	-29,724	-0,006	-0,002
-650,043	-200,000	-0,011	-0,081
-649,028	800,000	0,048	-0,143
-648,014	800,000	0,069	-0,147
-646,999	115,961	0,123	0,109
-645,984	7,419	0,085	0,046
-644,970	68,535	-0,041	-0,030
-643,955	-87,534	-0,018	-0,004
-642,941	-200,000	-0,041	-0,179
-641,926	-200,000	-0,004	-0,041
-640,911	478,623	0,046	0,075
-639,897	-200,000	0,025	0,100
-638,882	528,937	-0,043	-0,074
-637,868	520,234	0,059	0,100
-636,853	123,163	-0,100	-0,091
-635,838	155,140	-0,083	-0,082
-634,824	-200,000	-0,006	-0,037
-633,809	-82,455	0,076	-0,018
-632,795	-10,949	-0,053	0,025
-631,780	800,000	-0,038	0,116
-630,765	-200,000	0,019	-0,064
-629,751	-150,828	-0,119	0,006
-628,736	-200,000	-0,042	-0,175
-627,722	-17,258	-0,081	-0,037
-626,707	21,288	0,055	-0,033
-625,692	800,000	0,007	-0,020
-624,678	-88,209	-0,075	0,016
-623,663	272,174	0,068	0,087
-622,649	-200,000	-0,006	-0,183
-621,634	800,000	-0,038	-0,087
-620,619	-200,000	0,000	0,036
-619,605	800,000	-0,035	-0,108
-618,590	79,355	-0,107	0,083
-617,576	800,000	0,028	0,070
-616,561	274,809	0,040	0,051
-615,546	800,000	0,010	-0,029
-614,532	-200,000	-0,029	-0,178
-613,517	-200,000	-0,009	0,120
-612,503	156,534	0,038	-0,038
-611,488	-200,000	-0,059	0,199
-610,474	-200,000	0,012	-0,045
-609,459	-155,579	0,133	-0,006
-608,444	-113,892	0,102	0,014
-607,430	-133,356	-0,210	0,019
-606,415	45,258	-0,166	0,110
-605,401	-200,000	-0,007	-0,078
-604,386	800,000	-0,008	-0,018
-603,371	-200,000	-0,018	0,081
-602,357	117,895	0,057	0,050
-601,342	-200,000	-0,003	-0,063
-600,328	800,000	-0,067	-0,150
-599,313	65,562	-0,171	0,125
-598,298	457,876	-0,037	-0,060
-597,284	602,413	-0,079	0,143
-596,269	310,818	0,029	-0,039
-595,255	409,136	-0,038	-0,059
-594,240	-200,000	0,034	-0,124
-593,225	259,624	0,027	0,034
-592,211	769,894	0,050	-0,100
-591,196	-86,817	-0,112	-0,025
-590,182	800,000	0,025	0,078
-589,167	175,620	-0,052	0,055
-588,152	45,742	0,068	-0,045
-587,138	637,307	-0,054	-0,099
-586,123	298,391	-0,083	-0,111
-585,109	-200,000	0,001	-0,044
-584,094	310,321	0,091	-0,124
-583,079	-200,000	0,026	-0,085
-582,065	800,000	-0,056	-0,149
-581,050	-200,000	-0,019	0,136
-580,036	271,416	0,052	0,066
-579,021	-112,338	-0,094	-0,013
-578,006	-101,959	0,082	0,014
-576,992	301,122	-0,102	-0,137
-575,977	258,746	0,080	0,099
-574,963	176,214	0,030	-0,031
-573,948	-8,047	-0,081	-0,039
-572,934	800,000	-0,077	0,189
-571,919	-39,390	-0,050	-0,019
-570,904	573,583	-0,064	-0,112
-569,890	800,000	-0,030	0,070
-568,875	-200,000	0,022	-0,093
-567,861	752,235	-0,067	-0,132
-566,846	800,000	-0,032	-0,086
-565,831	729,586	0,044	-0,086
-564,817	-200,000	-0,023	-0,088
-563,802	-200,000	-0,014	0,088
-562,788	-151,310	-0,151	-0,008
-561,773	-41,280	0,079	-0,029
-560,758	-47,498	0,171	0,060
-559,744	800,000	-0,044	0,092
-558,729	104,521	0,083	0,071
-557,715	32,533	-0,075	-0,047
-556,700	428,804	0,022	0,034
-555,685	189,518	0,058	0,063
-554,671	800,000	-0,013	-0,029
-553,656	-200,000	-0,008	0,056
-552,642	800,000	-0,012	0,035
-551,627	-200,000	0,038	0,165
-550,612	-13,344	0,104	0,048
-549,598	81,475	-0,043	-0,033
-548,583	-157,161	-0,104	-0,004
-547,569	-87,625	-0,140	-0,030
-546,554	-200,000	-0,014	0,082
-545,539	-200,000	-0,011	-0,046
-544,525	-148,083	-0,024	-0,001
-543,510	7,159	-0,091	-0,049
-542,496	220,948	-0,071	-0,082
-541,481	-154,593	-0,053	-0,002
-540,466	-44,620	-0,056	-0,020
-539,452	-85,562	0,209	0,047
-538,437	-200,000	0,018	0,108
-537,423	650,011	0,075	0,140
-536,408	61,119	0,072	-0,051
-535,393	268,554	0,061	0,077
-534,379	262,936	-0,063	0,079
-533,364	-33,718	0,055	0,022
-532,350	-200,000	-0,007	-0,029
-531,335	-132,525	0,052	-0,005
-530,321	-46,919	0,110	0,039
-529,306	-112,267	-0,071	0,010
-528,291	-200,000	-0,003	-0,068
-527,277	-200,000	-0,006	-0,025
-526,262	180,036	-0,040	-0,042
-525,248	-200,000	-0,015	0,063
-524,233	26,324	-0,023	0,014
-523,218	301,551	0,054	0,072
-522,204	-61,451	-0,158	0,047
-521,189	8,407	0,115	-0,062
-520,175	-200,000	-0,012	-0,066
-519,160	-200,000	-0,006	0,110
-518,145	-88,983	0,191	-0,040
-517,131	12,434	0,089	0,050
-516,116	-200,000	0,016	0,079
-515,102	-200,000	0,003	0,158
-514,087	-15,377	0,076	-0,035
-513,072	-79,849	0,069	-0,017
-512,058	-46,282	0,061	-0,022
-511,043	-190,781	-0,058	0,000
-510,029	-41,442	0,037	-0,014
-509,014	143,126	0,080	0,076
-507,999	52,401	-0,123	0,085
-506,985	-200,000	0,008	0,070
-505,970	-200,000	0,001	-0,042
-504,956	185,333	-0,102	-0,109
-503,941	-200,000	0,009	0,145
-502,926	613,793	0,033	-0,060
-501,912	409,597	0,075	0,114
-500,897	-44,365	-0,114	0,041
-499,883	-31,568	-0,158	0,064
-498,868	52,842	-0,165	-0,114
-497,853	-200,000	0,027	-0,097
-496,839	800,000	0,054	-0,144
-495,824	-186,887	0,052	0,001
-494,810	-200,000	-0,029	0,123
-493,795	-200,000	-0,026	-0,101
-492,781	51,626	0,008	-0,006
-491,766	109,472	0,043	-0,037
-490,751	800,000	-0,026	0,079
-489,737	-200,000	-0,018	-0,105
-488,722	7,613	-0,033	0,018
-487,708	457,188	0,042	-0,067
-486,693	-112,382	0,054	0,008
-485,678	-78,652	-0,014	0,003
-484,664	-200,000	0,039	-0,205
-483,649	800,000	0,027	-0,085
-482,635	61,619	-0,077	-0,055
-481,620	76,411	0,081	0,062
-480,605	137,994	-0,058	0,054
-479,591	-200,000	0,029	0,182
-478,576	-200,000	0,026	0,116
-477,562	102,111	0,052	0,044
-476,547	-30,230	-0,049	0,020
-475,532	52,328	0,054	-0,037
-474,518	374,869	0,058	0,085
-473,503	246,452	0,056	0,068
-472,489	-89,771	-0,058	0,012
-471,474	137,886	-0,053	0,050
-470,459	469,512	-0,030	-0,048
-469,445	109,694	-0,022	0,019
-468,430	-70,874	-0,057	0,015
-467,416	55,340	0,019	0,013
-466,401	372,154	0,029	0,042
-465,386	-200,000	0,027	0,095
-464,372	513,084	0,042	-0,071
-463,357	643,879	-0,059	-0,109
-462,343	-71,934	-0,106	-0,028
-461,328	-200,000	0,020	-0,070
-460,313	61,452	0,047	0,033
-459,299	-52,500	0,071	-0,023
-458,284	-4,914	0,098	0,048
-457,270	800,000	0,055	0,130
-456,255	7,445	0,066	-0,035
-455,241	41,858	0,013	-0,008
-454,226	-31,411	0,062	0,025
-453,211	-200,000	0,020	-0,070
-452,197	160,670	0,044	0,044
-451,182	-18,445	0,083	0,037
-450,168	36,900	0,090	-0,057
-449,153	85,141	-0,140	-0,111
-448,138	-39,432	-0,111	-0,042
-447,124	397,880	0,058	0,088
-446,109	94,626	-0,123	-0,101
-445,095	-200,000	-0,007	0,070
-444,080	460,588	-0,056	0,091
-443,065	466,162	-0,021	0,033
-442,051	-80,360	-0,120	0,029
-441,036	88,776	-0,117	0,094
-440,022	-173,963	-0,063	0,001
-439,007	-200,000	0,000	-0,092
-437,992	528,589	-0,038	0,065
-436,978	800,000	0,024	0,072
-435,963	-200,000	-0,025	0,134
-434,949	800,000	0,057	-0,164
-433,934	-74,917	-0,076	-0,019
-432,919	-95,436	-0,057	0,011
-431,905	-1,265	0,045	0,023
-430,890	800,000	-0,015	-0,046
-429,876	-200,000	-0,007	0,036
-428,861	-55,231	-0,095	0,031
-427,846	8,867	0,024	0,013
-426,832	-200,000	-0,026	-0,134
-425,817	370,501	-0,028	0,041
-424,803	-200,000	0,000	-0,053
-423,788	318,792	-0,019	0,025
-422,773	-83,323	0,120	0,027
-421,759	-21,853	0,105	-0,046
-420,744	401,996	-0,069	-0,104
-419,730	-70,804	0,119	-0,032
-418,715	-132,047	-0,122	-0,011
-417,701	-70,636	-0,117	0,032
-416,686	-42,125	-0,060	0,022
-415,671	-30,829	-0,032	0,013
-414,657	369,258	-0,057	0,083
-413,642	240,578	-0,037	-0,045
-412,628	-119,825	0,083	0,010
-411,613	800,000	-0,045	0,099
-410,598	46,968	-0,079	0,053
-409,584	706,563	0,066	0,125
-408,569	35,203	0,048	0,030
-407,555	-200,000	0,016	-0,083
-406,540	800,000	-0,020	0,042
-405,525	22,320	-0,081	-0,047
-404,511	-200,000	0,000	-0,079
-403,496	13,321	0,115	-0,064
-402,482	-80,949	-0,014	0,003
-401,467	-200,000	-0,018	-0,080
-400,452	505,927	-0,034	0,056
-399,438	360,068	0,018	0,026
-398,423	-123,428	-0,128	-0,014
-397,409	-100,126	0,068	-0,012
-396,394	800,000	0,017	-0,054
-395,379	546,944	-0,071	0,122
-394,365	58,743	0,011	-0,008
-393,350	-46,374	-0,067	-0,024
-392,336	30,802	0,025	0,016
-391,321	-45,672	0,033	-0,012
-390,306	-7,271	-0,080	-0,039
-389,292	-10,534	-0,105	0,050
-388,277	-55,941	0,058	0,018
-387,263	800,000	0,040	0,107
-386,248	38,876	0,151	0,096
-385,233	800,000	-0,007	-0,021
-384,219	-120,281	-0,128	-0,015
-383,204	767,645	0,068	-0,133
-382,190	-7,136	0,020	-0,010
-381,175	-200,000	0,031	0,150
-380,160	-151,299	0,095	-0,005
-379,146	17,133	0,066	0,037
-378,131	58,600	0,074	0,052
-377,117	286,545	-0,098	0,128
-376,102	800,000	-0,013	-0,028
-375,088	451,638	-0,104	-0,165
-374,073	791,291	-0,064	0,127
-373,058	280,433	0,051	-0,066
-372,044	-200,000	-0,001	-0,060
-371,029	160,224	-0,022	0,022
-370,015	137,185	0,096	0,090
-369,000	183,755	-0,065	-0,069
-367,985	71,136	-0,084	-0,062
-366,971	-200,000	0,015	-0,095
-365,956	-200,000	-0,030	0,115
-364,942	8,731	0,153	0,082
-363,927	800,000	0,049	0,118
-362,912	243,866	0,048	-0,058
-361,898	-200,000	0,048	-0,175
-360,883	7,328	-0,116	-0,062
-359,869	265,339	0,121	-0,151
-358,854	-117,915	0,151	0,019
-357,839	397,550	0,044	0,066
-356,825	-200,000	-0,002	0,053
-355,810	246,142	0,038	-0,046
-354,796	-200,000	0,001	-0,029
-353,781	340,536	-0,080	-0,112
-352,766	-200,000	-0,018	-0,113
-351,752	-10,576	0,079	0,037
-350,737	-79,448	0,106	-0,025
-349,723	80,416	0,096	-0,074
-348,708	-157,174	0,159	-0,007
-347,693	800,000	-0,056	0,132
-346,679	103,392	-0,112	-0,094
-345,664	800,000	0,039	-0,087
-344,650	-61,893	-0,154	-0,046
-343,635	-32,398	-0,062	0,025
-342,620	-31,937	-0,098	0,039
-341,606	-200,000	-0,002	0,015
-340,591	98,062	-0,104	0,085
-339,577	-200,000	-0,006	-0,117
-338,562	-200,000	0,005	0,025
-337,548	215,487	0,077	-0,087
-336,533	-97,479	0,049	0,009
-335,518	-97,921	-0,140	-0,026
-334,504	800,000	-0,033	0,090
-333,489	465,480	0,043	0,070
-332,475	-200,000	-0,003	-0,025
-331,460	-186,763	0,085	0,001
-330,445	-85,789	-0,133	-0,029
-329,431	95,265	0,117	0,096
-328,416	800,000	0,057	0,117
-327,402	-16,020	0,143	0,065
-326,387	-47,155	0,113	-0,039
-325,372	283,888	-0,101	-0,131
-324,358	-160,939	-0,059	-0,002
-323,343	268,049	0,081	0,102
-322,329	245,704	0,097	0,117
-321,314	-200,000	-0,001	0,102
-320,299	132,245	0,094	0,087
-319,285	394,006	-0,057	0,085
-318,270	-200,000	-0,005	0,021
-317,256	800,000	0,010	-0,030
-316,241	-116,858	0,218	0,028
-315,226	199,791	0,050	-0,055
-314,212	-200,000	0,002	0,141
-313,197	-190,274	0,160	-0,001
-312,183	-200,000	-0,004	0,044
-311,168	-88,609	-0,166	0,035
-310,153	800,000	-0,055	-0,161
-309,139	151,689	-0,101	-0,098
-308,124	634,629	0,021	-0,039
-307,110	132,813	0,076	-0,070
-306,095	-200,000	0,005	0,020
-305,080	356,978	-0,032	0,046
-304,066	337,115	0,099	0,138
-303,051	345,973	0,039	0,054
-302,037	-200,000	-0,016	-0,129
-301,022	-200,000	0,025	0,210
-300,008	556,547	-0,079	0,137
-298,993	8,350	0,103	0,055
-297,978	-200,000	-0,002	-0,085
-296,964	227,125	-0,065	-0,076
-295,949	-200,000	0,021	-0,087
-294,935	-155,697	-0,057	0,003
-293,920	19,359	-0,102	0,058
-292,905	6,432	0,085	0,045
-291,891	800,000	-0,072	0,162
-290,876	-103,415	0,188	0,031
-289,862	86,578	0,098	-0,077
-288,847	-200,000	0,040	-0,155
-287,832	-134,485	0,054	-0,005
-286,818	-200,000	0,024	-0,149
-285,803	-200,000	-0,017	-0,060
-284,789	-77,760	0,076	0,019
-283,774	124,083	-0,100	0,090
-282,759	800,000	-0,045	-0,104
-281,745	-1,613	-0,099	-0,049
-280,730	-82,884	0,098	0,022
-279,716	-148,826	-0,074	-0,004
-278,701	-200,000	0,013	-0,121
-277,686	-200,000	0,011	-0,091
-276,672	123,486	-0,019	-0,017
-275,657	-200,000	0,011	-0,099
-274,643	800,000	0,052	-0,125
-273,628	-200,000	-0,027	-0,108
-272,613	160,104	0,056	-0,055
-271,599	-200,000	-0,013	-0,077
-270,584	800,000	0,039	0,120
-269,570	800,000	0,021	0,056
-268,555	-33,182	-0,090	0,035
-267,540	-73,087	-0,086	0,022
-266,526	-32,314	0,093	0,037
-265,511	88,359	-0,189	-0,150
-264,497	-200,000	-0,010	0,061
-263,482	-13,420	0,113	-0,052
-262,467	800,000	0,052	0,157
-261,453	800,000	-0,002	0,007
-260,438	73,835	0,005	0,003
-259,424	550,282	-0,043	-0,073
-258,409	-200,000	-0,009	-0,080
-257,395	-112,463	0,144	0,020
-256,380	-11,582	0,063	0,029
-255,365	-130,441	0,075	0,007
-254,351	800,000	0,007	-0,022
-253,336	111,803	-0,057	-0,049
-252,322	-12,261	-0,182	-0,084
-251,307	-200,000	0,027	0,098
-250,292	-200,000	0,017	0,112
-249,278	277,189	-0,084	0,107
-248,263	115,754	0,032	-0,028
-247,249	-180,513	0,218	-0,003
-246,234	-63,366	0,068	0,020
-245,219	-96,026	-0,049	0,009
-244,205	-84,114	-0,065	-0,015
-243,190	160,006	-0,060	0,060
-242,176	-78,506	-0,085	-0,021
-241,161	74,974	0,031	0,023
-240,146	800,000	0,041	0,118
-239,132	214,267	-0,065	0,074
-238,117	-200,000	-0,023	-0,148
-237,103	383,672	0,043	-0,064
-236,088	-200,000	-0,001	-0,073
-235,073	86,496	0,073	0,057
-234,059	331,950	0,039	0,054
-233,044	-142,266	-0,090	0,006
-232,030	-200,000	-0,006	0,052
-231,015	-156,131	-0,083	0,004
-230,000	-200,000	0,011	-0,145
-228,986	-200,000	0,014	0,050
-227,971	-34,179	-0,070	-0,027
-226,957	-59,202	0,183	0,056
-225,942	-200,000	-0,029	0,138
-224,927	70,557	-0,127	0,094
-223,913	277,895	-0,085	-0,108
-222,898	-120,396	0,074	0,009
-221,884	221,688	0,029	-0,034
-220,869	-118,830	0,035	-0,004
-219,855	178,173	0,082	-0,085
-218,840	-200,000	-0,003	0,020
-217,825	40,164	-0,075	0,048
-216,811	800,000	-0,036	0,094
-215,796	-200,000	0,005	-0,065
-214,782	105,210	0,054	-0,046
-213,767	407,718	0,128	0,194
-212,752	-31,915	0,071	0,028
-211,738	-200,000	-0,018	0,116
-210,723	570,847	0,043	-0,075
-209,709	-40,537	-0,187	0,069
-208,694	634,568	-0,028	-0,051
-207,679	53,400	0,046	-0,031
-206,665	-77,580	0,138	-0,034
-205,650	352,762	-0,047	0,066
-204,636	-200,000	-0,010	-0,042
-203,621	-200,000	-0,004	0,018
-202,606	800,000	0,041	-0,115
-201,592	155,688	-0,090	-0,088
-200,577	-200,000	-0,010	-0,058
-199,563	-200,000	0,022	-0,074
-198,548	-112,989	0,112	0,016
-197,533	-199,956	0,042	-0,000
-196,519	232,062	-0,092	0,108
-195,504	-200,000	0,004	0,039
-194,490	-29,600	-0,181	0,073
-193,475	-200,000	0,031	-0,118
-192,460	42,604	0,114	-0,074
-191,446	-200,000	-0,038	0,134
-190,431	237,195	0,016	0,019
-189,417	800,000	-0,031	-0,063
-188,402	-200,000	-0,038	-0,161
-187,387	-200,000	-0,005	-0,108
-186,373	-126,187	0,057	0,006
-185,358	-42,109	-0,058	-0,021
-184,344	-200,000	-0,015	0,064
-183,329	15,366	0,085	-0,047
-182,315	68,574	-0,021	-0,016
-181,300	17,732	0,023	0,013
-180,285	169,582	-0,082	-0,083
-179,271	346,033	0,015	0,021
-178,256	-200,000	0,006	-0,052
-177,242	-163,743	0,103	-0,003
-176,227	44,398	0,094	-0,062
-175,212	-139,928	0,029	0,002
-174,198	-200,000	-0,010	0,078
-173,183	-90,285	-0,109	0,022
-172,169	98,543	-0,101	-0,083
-171,154	-200,000	-0,001	-0,023
-170,139	-200,000	0,015	0,181
-169,125	799,469	0,057	0,113
-168,110	424,265	-0,055	0,084
-167,096	-200,000	-0,009	0,124
-166,081	125,293	-0,030	0,027
-165,066	216,770	-0,136	-0,154
-164,052	-96,319	0,145	-0,027
-163,037	-70,027	-0,050	0,013
-162,023	-113,889	0,077	-0,010
-161,008	10,705	-0,078	0,042
-159,993	-9,654	0,054	-0,026
-158,979	-200,000	-0,041	-0,177
-157,964	109,762	0,065	0,056
-156,950	543,508	0,083	-0,142
-155,935	309,345	0,039	0,052
-154,920	111,436	0,053	0,045
-153,906	800,000	-0,132	0,285
-152,891	-8,431	0,069	-0,033
-151,877	-34,758	0,122	-0,047
-150,862	-200,000	-0,018	-0,119
-149,847	800,000	-0,013	0,027
-148,833	-44,217	0,135	0,048
-147,818	-200,000	0,011	0,074
-146,804	-16,105	0,017	-0,008
-145,789	21,132	-0,045	0,026
-144,775	194,522	-0,027	-0,029
-143,760	220,152	-0,082	0,094
-142,745	436,195	-0,030	-0,046
-141,731	567,022	0,080	-0,138
-140,716	-139,597	0,184	-0,014
-139,702	-200,000	0,007	-0,076
-138,687	800,000	-0,043	-0,106
-137,672	-121,048	-0,024	-0,003
-136,658	603,992	0,048	0,084
-135,643	-49,977	-0,116	-0,039
-134,629	-99,159	-0,107	0,019
-133,614	398,965	0,083	0,124
-132,599	-200,000	0,023	0,154
-131,585	800,000	-0,046	0,114
-130,570	309,263	-0,034	-0,046
-129,556	-86,776	-0,061	0,013
-128,541	-200,000	0,021	-0,091
-127,526	381,983	0,112	-0,164
-126,512	-71,829	0,024	0,006
-125,497	-74,125	0,088	-0,022
-124,483	-6,981	0,121	-0,058
-123,468	-58,024	-0,024	-0,007
-122,453	422,896	0,062	0,095
-121,439	-159,038	-0,118	-0,005
-120,424	-200,000	-0,003	0,107
-119,410	274,545	-0,096	0,121
-118,395	113,219	0,145	0,125
-117,380	-200,000	-0,008	-0,076
-116,366	-135,609	-0,072	-0,006
-115,351	117,880	-0,010	0,009
-114,337	312,328	-0,051	-0,068
-113,322	-200,000	0,005	-0,023
-112,307	-28,217	-0,104	-0,042
-111,293	198,026	0,038	-0,041
-110,278	2,571	0,071	-0,036
-109,264	800,000	-0,037	-0,081
-108,249	20,975	-0,068	-0,039
-107,234	99,413	-0,096	-0,079
-106,220	-54,794	0,160	-0,051
-105,205	157,879	-0,046	0,045
-104,191	116,904	-0,049	0,042
-103,176	800,000	-0,050	0,117
-102,162	-123,486	0,055	-0,006
-101,147	-107,317	-0,066	0,010
-100,132	150,529	0,084	-0,081
-99,118	-123,569	0,008	-0,001
-98,103	65,206	-0,102	0,073
-97,089	-1,602	-0,114	0,057
-96,074	61,834	0,178	0,126
-95,059	800,000	-0,021	0,050
-94,045	119,185	-0,113	-0,099
-93,030	132,543	-0,067	-0,061
-92,016	-57,934	-0,063	0,019
-91,001	-200,000	-0,005	0,050
-89,986	177,042	-0,062	0,065
-88,972	192,952	0,036	0,038
-87,957	800,000	-0,038	0,098
-86,943	240,089	-0,054	0,064
-85,928	-200,000	0,005	-0,136
-84,913	-30,835	-0,075	0,030
-83,899	726,516	0,077	-0,146
-82,884	-59,451	0,056	-0,017
-81,870	-85,509	0,133	0,029
-80,855	468,672	0,080	0,128
-79,840	-200,000	-0,006	-0,079
-78,826	799,661	-0,042	-0,083
-77,811	132,705	-0,043	-0,040
-76,797	-200,000	-0,006	0,064
-75,782	56,153	-0,044	-0,030
-74,767	-37,659	-0,092	0,035
-73,753	-101,608	-0,165	0,028
-72,738	-156,252	-0,163	-0,007
-71,724	55,615	0,097	-0,067
-70,709	415,119	-0,098	-0,148
-69,694	266,942	-0,037	-0,045
-68,680	800,000	-0,057	0,145
-67,665	800,000	0,049	0,099
-66,651	-11,145	0,055	-0,025
-65,636	-65,205	-0,177	-0,050
-64,622	-200,000	-0,002	-0,095
-63,607	196,218	0,040	0,043
-62,592	-166,154	0,073	-0,002
-61,578	592,310	-0,047	0,082
-60,563	800,000	0,017	0,052
-59,549	-82,492	0,083	0,019
-58,534	-14,015	-1,721	-0,784
-57,519	405,485	-1,363	-2,042
-56,505	-200,000	-0,521	-4,568
-55,490	225,570	1,025	1,177
-54,476	800,000	4,919	11,221
-53,461	-200,000	19,437	322,397
-52,446	-200,000	743,291	2333,646
-51,432	569,563	1656,961	2864,119
-50,417	77,750	1671,195	1259,273
-49,403	20,990	1544,763	884,534
-48,388	14,929	1466,998	810,508
-47,373	18,002	1457,450	820,065
-46,359	16,581	1447,100	807,394
-45,344	13,161	1442,551	788,428
-44,330	13,117	1440,402	787,012
-43,315	13,088	1438,797	785,962
-42,300	13,095	1437,230	785,108
-41,286	13,137	1435,853	784,526
-40,271	13,114	1434,565	783,684
-39,257	13,102	1433,186	782,841
-38,242	13,210	1431,740	782,533
-37,227	13,166	1430,627	781,686
-36,213	13,144	1429,197	780,769
-35,198	13,147	1428,133	780,169
-34,184	13,184	1427,079	779,740
-33,169	13,121	1426,100	778,875
-32,154	13,204	1424,733	778,491
-31,140	13,217	1423,328	777,752
-30,125	13,153	1422,710	777,080
-29,111	13,181	1421,424	776,482
-28,096	13,196	1420,056	775,775
-27,082	13,118	1419,283	774,952
-26,067	13,092	1418,130	774,170
-25,052	13,082	1417,045	773,499
-24,038	13,052	1416,018	772,769
-23,023	13,081	1414,877	772,252
-22,009	13,091	1413,942	771,754
-20,994	13,083	1412,958	771,150
-19,979	13,069	1412,100	770,583
-18,965	13,058	1411,168	769,994
-17,950	13,010	1410,284	769,255
-16,936	13,070	1409,254	768,944
-15,921	12,997	1408,236	768,018
-14,906	12,999	1407,285	767,478
-13,892	13,010	1406,537	767,093
-12,877	13,024	1405,568	766,596
-11,863	13,017	1404,761	766,092
-10,848	12,999	1403,687	765,393
-9,833	12,974	1402,948	764,846
-8,819	12,923	1402,151	764,140
-7,804	12,867	1401,432	763,460
-6,790	12,928	1400,090	762,980
-5,775	12,905	1399,121	762,319
-4,760	12,929	1397,902	761,734
-3,746	12,890	1397,169	761,124
-2,731	12,874	1396,501	760,654
-1,717	12,910	1395,599	760,302
-0,702	12,874	1393,621	759,025
0,313	16,822	1309,893	731,683
1,327	33,266	702,542	430,371
2,342	51,506	122,951	82,531
3,356	1,624	16,638	8,447
4,371	6,158	3,120	1,632
5,386	-19,130	0,567	0,248
6,400	-200,000	0,016	0,181
7,415	345,045	-0,170	-0,237
8,429	41,915	-0,304	-0,195
9,444	-37,374	-0,440	-0,165
10,459	196,482	-0,308	-0,332
11,473	-200,000	-0,093	-0,304
12,488	9,059	-0,316	-0,168
13,502	59,965	-0,238	-0,166
14,517	148,778	-0,256	-0,245
15,531	0,800	-0,456	-0,230
16,546	185,544	-0,251	-0,264
17,561	89,913	-0,265	-0,209
18,575	-5,793	-0,250	-0,120
19,590	212,612	-0,199	-0,222
20,604	-82,255	-0,166	0,038
21,619	15,867	-0,373	-0,207
22,634	-22,117	-0,562	-0,240
23,648	81,516	-0,441	-0,336
24,663	1,217	-0,477	-0,241
25,677	93,179	-0,338	-0,270
26,692	-4,203	-0,367	-0,179
27,707	89,495	-0,348	-0,274
28,721	-3,829	-0,465	-0,227
29,736	5,733	-0,357	-0,186
30,750	67,757	-0,469	-0,338
31,765	108,979	-0,261	-0,220
32,780	78,998	-0,407	-0,307
33,794	103,395	-0,411	-0,340
34,809	81,106	-0,364	-0,277
35,823	9,589	-0,467	-0,249
36,838	35,467	-0,346	-0,214
37,853	27,895	-0,297	-0,176
38,867	202,578	-0,345	-0,376
39,882	69,026	-0,394	-0,285
40,896	156,077	-0,408	-0,397
41,911	50,759	-0,310	-0,207
42,926	104,854	-0,270	-0,225
43,940	34,982	-0,307	-0,189
44,955	79,970	-0,278	-0,210
45,969	74,075	-0,460	-0,340
46,984	31,266	-0,415	-0,251
47,999	173,992	-0,317	-0,323
49,013	136,112	-0,188	-0,172
50,028	-47,387	-0,340	-0,116
51,042	18,191	-0,393	-0,220
52,057	67,290	-0,386	-0,277
53,071	170,096	-0,295	-0,298
54,086	122,569	-0,338	-0,297
55,101	79,962	-0,388	-0,293
56,115	78,896	-0,171	-0,129
57,130	101,516	-0,285	-0,234
58,144	135,383	-0,252	-0,231
59,159	25,802	-0,471	-0,275
60,174	20,039	-0,432	-0,245
61,188	122,242	-0,371	-0,326
62,203	57,598	-0,365	-0,251
63,217	105,237	-0,290	-0,241
64,232	-36,791	-0,290	-0,109
65,247	-105,678	-0,454	-0,072
66,261	392,976	-0,224	-0,329
67,276	126,831	-0,378	-0,337
68,290	-80,645	-0,354	-0,082
69,305	-73,721	-0,318	-0,081
70,320	50,471	-0,327	-0,217
71,334	210,068	-0,170	-0,188
72,349	4,074	-0,275	-0,141
73,363	15,773	-0,445	-0,245
74,378	36,502	-0,325	-0,201
75,393	12,739	-0,344	-0,186
76,407	-20,382	-0,319	-0,137
77,422	21,452	-0,403	-0,230
78,436	-27,584	-0,201	-0,082
79,451	32,155	-0,336	-0,203
80,466	89,206	-0,302	-0,236
81,480	246,789	-0,193	-0,229
82,495	36,462	-0,265	-0,164
83,509	-15,490	-0,308	-0,137
84,524	139,602	-0,167	-0,154
85,539	203,644	-0,172	-0,187
86,553	-27,004	-0,297	-0,121
87,568	164,067	-0,246	-0,243
88,582	28,006	-0,374	-0,221
89,597	128,471	-0,342	-0,306
90,611	-42,574	-0,278	-0,099
91,626	22,331	-0,294	-0,168
92,641	60,300	-0,348	-0,241
93,655	56,680	-0,239	-0,163
94,670	42,515	-0,353	-0,225
95,684	21,386	-0,406	-0,231
96,699	336,779	-0,079	-0,108
97,714	65,176	-0,346	-0,245
98,728	145,241	-0,240	-0,226
99,743	33,449	-0,258	-0,157
100,757	42,423	-0,259	-0,165
101,772	76,759	-0,262	-0,195
102,787	69,009	-0,347	-0,250
103,801	25,055	-0,341	-0,198
104,816	129,140	-0,187	-0,167
105,830	800,000	-0,076	-0,154
106,845	146,121	-0,244	-0,230
107,860	27,705	-0,364	-0,214
108,874	176,100	-0,253	-0,258
109,889	82,914	-0,301	-0,230
110,903	96,773	-0,258	-0,207
111,918	-25,097	-0,181	-0,075
112,933	195,732	-0,171	-0,183
113,947	-60,130	-0,285	-0,085
114,962	325,511	-0,108	-0,145
115,976	-65,676	-0,284	-0,079
116,991	-67,716	-0,414	-0,113
118,006	-32,606	-0,195	-0,075
119,020	466,188	-0,164	-0,258
120,035	157,066	-0,338	-0,328
121,049	-60,667	-0,264	-0,078
122,064	-85,293	-0,361	-0,078
123,079	63,351	-0,271	-0,190
124,093	263,714	-0,314	-0,383
125,108	95,044	-0,241	-0,192
126,122	-200,000	-0,302	0,000
127,137	-69,856	-0,239	-0,063
128,151	208,075	-0,246	-0,269
129,166	-41,058	-0,244	-0,088
130,181	-9,965	-0,378	-0,175
131,195	114,178	-0,215	-0,183
132,210	118,587	-0,201	-0,174
133,224	279,154	-0,199	-0,249
134,239	77,052	-0,287	-0,213
135,254	-28,488	-0,187	-0,075
136,268	6,865	-0,155	-0,080
137,283	58,988	-0,245	-0,169
138,297	39,681	-0,263	-0,165
139,312	-24,929	-0,420	-0,173
140,327	2,087	-0,277	-0,140
141,341	-62,294	-0,181	-0,052
142,356	-55,989	-0,264	-0,082
143,370	149,894	-0,181	-0,172
144,385	-27,296	-0,355	-0,144
145,400	138,602	-0,240	-0,220
146,414	627,449	-0,179	-0,318
147,429	499,662	-0,149	-0,241
148,443	6,304	-0,240	-0,124
149,458	795,899	-0,112	-0,217
150,473	651,512	-0,093	-0,168
151,487	-23,465	-0,238	-0,099
152,502	-15,941	-0,214	-0,095
153,516	698,751	-0,175	-0,323
154,531	5,636	-0,298	-0,153
155,546	1,050	-0,276	-0,138
156,560	216,783	-0,162	-0,180
157,575	55,176	-0,293	-0,197
158,589	-57,905	-0,299	-0,091
159,604	282,857	-0,201	-0,252
160,619	-52,000	-0,355	-0,114
161,633	91,929	-0,215	-0,169
162,648	-32,544	-0,339	-0,131
163,662	270,921	-0,189	-0,232
164,677	33,553	-0,317	-0,192
165,692	196,950	-0,094	-0,100
166,706	232,477	-0,214	-0,246
167,721	92,298	-0,295	-0,231
168,735	102,950	-0,325	-0,265
169,750	56,743	-0,235	-0,160
170,764	76,300	-0,153	-0,113
171,779	130,354	-0,177	-0,158
172,794	-44,120	-0,205	0,071
173,808	-78,639	-0,113	-0,027
174,823	19,952	-0,320	-0,179
175,837	644,145	-0,184	-0,329
176,852	-81,568	-0,278	-0,063
177,867	143,709	-0,153	-0,142
178,881	-40,639	-0,214	-0,077
179,896	-60,008	-0,161	-0,047
180,910	217,107	-0,189	-0,210
181,925	-41,683	-0,191	-0,068
182,940	17,731	-0,205	-0,113
183,954	139,331	-0,301	-0,276
184,969	311,967	-0,164	-0,215
185,983	99,158	-0,155	-0,125
186,998	-8,625	-0,127	0,059
188,013	143,593	-0,177	-0,164
189,027	45,378	-0,293	-0,188
190,042	185,585	-0,210	-0,218
191,056	188,743	-0,237	-0,247
192,071	292,575	-0,122	-0,155
193,086	-66,570	-0,210	-0,058
194,100	270,236	-0,219	-0,269
195,115	-18,352	-0,193	-0,083
196,129	113,134	-0,164	-0,138
197,144	15,544	-0,301	-0,164
198,159	186,467	-0,166	-0,172
199,173	228,513	-0,112	-0,127
200,188	141,495	-0,195	-0,180
201,202	-24,322	-0,176	-0,073
202,217	149,045	-0,187	-0,176
203,232	87,245	-0,182	-0,140
204,246	800,000	-0,127	-0,280
205,261	283,571	-0,202	-0,252
206,275	242,555	-0,206	-0,240
207,290	-29,595	-0,245	-0,097
208,304	-18,108	-0,211	-0,091
209,319	-200,000	0,003	-0,083
210,334	134,097	-0,228	-0,205
211,348	12,680	-0,299	-0,160
212,363	196,370	-0,240	-0,254
213,377	-32,276	-0,212	-0,082
214,392	-200,000	-0,024	-0,088
215,407	800,000	-0,068	-0,171
216,421	134,173	-0,160	-0,144
217,436	96,213	-0,183	-0,145
218,450	293,872	-0,089	-0,113
219,465	15,844	-0,250	-0,136
220,480	-64,844	-0,192	-0,054
221,494	-57,422	-0,253	-0,077
222,509	-8,113	-0,193	-0,090
223,523	-19,414	-0,243	-0,104
224,538	800,000	-0,074	-0,148
225,553	238,192	-0,180	-0,207
226,567	-200,000	-0,052	-0,214
227,582	3,617	-0,255	-0,129
228,596	-37,370	-0,298	-0,110
229,611	-4,558	-0,155	-0,074
230,626	-93,750	-0,219	-0,041
231,640	75,534	-0,118	-0,086
232,655	198,665	-0,168	-0,178
233,669	239,042	-0,196	-0,226
234,684	64,425	-0,221	-0,154
235,699	239,596	-0,155	-0,180
236,713	-4,473	-0,189	-0,090
237,728	120,780	-0,129	-0,112
238,742	-153,256	-0,144	-0,007
239,757	12,351	-0,168	-0,089
240,772	88,285	-0,176	-0,135
241,786	-116,196	-0,347	-0,044
242,801	209,545	-0,108	-0,117
243,815	-1,527	-0,243	-0,118
244,830	631,798	-0,104	-0,184
245,844	124,482	-0,135	-0,118
246,859	53,653	-0,228	-0,151
247,874	214,450	-0,179	-0,196
248,888	800,000	-0,075	-0,199
249,903	-182,048	-0,203	0,003
250,917	342,858	-0,077	-0,104
251,932	154,857	-0,108	-0,103
252,947	-58,526	-0,190	-0,057
253,961	-2,060	-0,291	-0,141
254,976	637,527	-0,127	-0,223
255,990	800,000	-0,146	-0,281
257,005	-44,591	-0,216	-0,074
258,020	67,052	-0,240	-0,169
259,034	233,773	-0,058	-0,066
260,049	14,635	-0,185	-0,099
261,063	508,733	-0,171	-0,276
262,078	800,000	-0,120	-0,272
263,093	239,181	-0,092	-0,106
264,107	155,974	-0,152	-0,145
265,122	289,788	-0,120	-0,151
266,136	114,501	-0,143	0,120
267,151	-27,845	-0,155	-0,062
268,166	140,985	-0,090	-0,083
269,180	-144,368	-0,119	0,008
270,195	98,604	-0,246	-0,196
271,209	-200,000	-0,057	-0,207
272,224	125,955	-0,122	-0,106
273,239	173,277	-0,146	-0,145
274,253	215,337	-0,201	-0,220
275,268	110,732	-0,126	-0,105
276,282	227,414	-0,191	-0,215
277,297	-5,055	-0,133	-0,063
278,312	-27,818	-0,255	-0,102
279,326	60,199	-0,074	-0,050
280,341	544,482	-0,069	-0,114
281,355	29,426	-0,091	-0,053
282,370	-136,017	-0,132	0,011
283,384	162,806	-0,136	-0,132
284,399	130,882	-0,193	-0,171
285,414	-27,145	-0,227	-0,091
286,428	23,204	-0,241	-0,136
287,443	652,151	-0,094	-0,167
288,457	98,718	-0,204	-0,162
289,472	-200,000	0,048	-0,237
290,487	-200,000	-0,090	-0,287
291,501	800,000	-0,096	-0,236
292,516	800,000	-0,038	-0,097
293,530	800,000	-0,071	-0,138
294,545	-7,634	-0,177	-0,082
295,560	-39,593	-0,187	-0,067
296,574	-81,269	-0,238	0,054
297,589	800,000	-0,055	-0,133
298,603	-13,943	-0,195	-0,087
299,618	294,817	-0,187	-0,236
300,633	-23,210	-0,219	-0,090
301,647	-77,568	-0,122	-0,029
302,662	250,895	-0,171	-0,200
303,676	104,381	-0,123	-0,100
304,691	135,061	-0,135	-0,121
305,706	636,470	-0,096	-0,169
306,720	552,903	-0,073	-0,121
307,735	-93,341	-0,137	-0,026
308,749	-200,000	-0,034	-0,192
309,764	-200,000	0,013	-0,067
310,779	22,836	-0,138	-0,078
311,793	-108,415	-0,169	-0,025
312,808	-150,720	-0,264	-0,014
313,822	86,059	-0,056	-0,043
314,837	384,341	-0,109	-0,155
315,852	-200,000	-0,008	-0,144
316,866	31,948	-0,185	-0,109
317,881	67,174	-0,042	-0,029
318,895	-153,217	-0,274	-0,013
319,910	-200,000	-0,013	-0,105
320,925	128,711	-0,200	-0,176
321,939	16,457	-0,146	0,079
322,954	164,933	-0,083	-0,080
323,968	-200,000	-0,277	0,000
324,983	-200,000	-0,022	-0,137
325,997	142,502	-0,140	-0,128
327,012	702,163	-0,147	-0,267
328,027	115,959	-0,243	-0,204
329,041	460,020	-0,075	-0,116
330,056	292,027	-0,024	-0,030
331,070	21,949	-0,157	-0,088
332,085	-80,289	-0,115	0,026
333,100	-13,754	-0,133	-0,059
334,114	-83,779	-0,126	-0,027
335,129	-200,000	-0,036	-0,263
336,143	-10,223	-0,117	-0,053
337,158	-200,000	-0,021	-0,188
338,173	800,000	-0,043	-0,118
339,187	72,579	-0,041	-0,029
340,202	276,850	-0,081	-0,099
341,216	23,804	-0,142	-0,080
342,231	134,590	-0,078	-0,070
343,246	-200,000	-0,078	-0,301
344,260	400,592	-0,118	-0,171
345,275	-200,000	0,003	-0,299
346,289	800,000	-0,044	0,097
347,304	-46,322	-0,187	-0,063
348,319	84,628	-0,042	-0,032
349,333	83,750	-0,116	-0,086
350,348	-188,509	-0,108	-0,001
351,362	277,146	-0,071	-0,087
352,377	31,055	-0,145	-0,085
353,392	-151,603	-0,232	-0,012
354,406	125,755	-0,185	-0,160
355,421	208,809	1313,650	1411,965
356,435	160,679	1474,256	1412,455
