DTS Sentinel unit serial number:	SN410029Multiplexer serial number:	ORYXHardware model number:	OX2-SRSoftware version number:	ORYX F/W v4,00 Oryx Data Collector v3.7.2.0data status	okinstallation	B3 Nyhavnadifferential loss correction	single-endedforward channel	channel 1reverse channel	N/Adate	2023/12/01time	17:22:30forward acquisition time	300,00reverse acquisition time	0,00gamma	499,1914k internal	0,3204k external	0,3204temperature offset calibration	1,0000default loss term (dB/km)	0,3820temperature slope calibration	1,0000multiplexer offset coefficient	1,0000multiplexer slope coefficient	1,0000fibre end	0,00T internal ref (°C)	14,06T ext. ref 1 (°C)	0,19T ext. ref 2 (°C)	0,17length (m)	temperature (°C)	Stokes	anti-Stokes-744,400	528,040	-0,169	-0,292
-743,385	-200,000	-0,044	0,365
-742,371	396,273	-0,148	-0,226
-741,356	328,902	0,145	0,203
-740,342	-200,000	-0,039	-0,162
-739,327	-200,000	-0,005	0,167
-738,312	800,000	-0,115	-0,260
-737,298	800,000	-0,091	0,254
-736,283	800,000	-0,103	-0,270
-735,269	-200,000	0,094	0,318
-734,254	129,277	-0,321	-0,298
-733,239	70,021	-0,156	0,117
-732,225	-200,000	-0,013	-0,075
-731,210	-19,715	0,059	0,026
-730,196	99,088	0,025	-0,021
-729,181	-24,190	0,047	-0,020
-728,167	633,772	-0,039	-0,072
-727,152	83,437	0,021	0,017
-726,137	108,947	-0,064	0,055
-725,123	214,577	-0,022	0,026
-724,108	-45,312	-0,100	0,036
-723,094	-200,000	0,007	-0,104
-722,079	244,652	0,036	-0,044
-721,064	-200,000	-0,012	-0,086
-720,050	-18,133	0,034	0,015
-719,035	-61,317	-0,182	-0,055
-718,021	479,523	-0,064	-0,105
-717,006	59,198	-0,170	-0,121
-715,991	142,396	-0,145	-0,140
-714,977	-99,967	0,064	-0,011
-713,962	-200,000	-0,009	-0,074
-712,948	448,685	-0,017	0,026
-711,933	-86,738	0,069	-0,015
-710,918	-200,000	-0,005	-0,036
-709,904	17,245	-0,104	0,060
-708,889	-200,000	0,011	-0,081
-707,875	-51,596	-0,062	-0,021
-706,860	-176,409	0,137	0,003
-705,845	-153,661	-0,197	-0,010
-704,831	21,545	0,057	0,034
-703,816	-150,516	0,096	-0,005
-702,802	-137,455	0,072	0,006
-701,787	-92,545	-0,212	-0,043
-700,772	-200,000	0,007	-0,056
-699,758	-200,000	0,009	-0,058
-698,743	-200,000	-0,002	0,112
-697,729	-200,000	0,031	0,145
-696,714	-200,000	-0,007	0,060
-695,699	268,874	0,035	-0,045
-694,685	-159,091	-0,095	0,004
-693,670	-200,000	-0,001	-0,318
-692,656	-92,165	0,140	-0,028
-691,641	-79,355	0,119	0,029
-690,627	800,000	-0,027	0,072
-689,612	-38,393	-0,068	-0,026
-688,597	447,449	0,042	0,067
-687,583	-200,000	-0,013	0,077
-686,568	-22,627	-0,115	-0,050
-685,554	-66,658	0,086	-0,024
-684,539	372,026	-0,007	-0,011
-683,524	-200,000	0,004	0,069
-682,510	-84,535	-0,136	0,031
-681,495	11,307	0,060	0,033
-680,481	-200,000	-0,007	-0,069
-679,466	13,911	-0,068	-0,038
-678,451	-200,000	-0,013	-0,053
-677,437	322,715	0,070	0,097
-676,422	-121,119	0,101	-0,012
-675,408	-200,000	0,004	0,113
-674,393	27,903	-0,153	-0,093
-673,378	-130,248	-0,100	0,010
-672,364	-120,758	-0,133	0,016
-671,349	800,000	-0,011	0,034
-670,335	-68,823	-0,019	-0,005
-669,320	800,000	-0,051	-0,151
-668,305	-177,266	-0,035	-0,001
-667,291	-46,457	-0,052	-0,019
-666,276	428,325	-0,064	0,101
-665,262	-181,188	0,089	-0,001
-664,247	800,000	-0,055	-0,124
-663,232	166,723	-0,025	-0,026
-662,218	-200,000	-0,003	-0,087
-661,203	98,707	-0,135	0,113
-660,189	194,697	-0,048	0,053
-659,174	564,900	-0,062	0,109
-658,159	33,694	0,062	0,039
-657,145	440,487	-0,007	-0,011
-656,130	-152,544	-0,056	0,003
-655,116	211,626	-0,019	-0,021
-654,101	-200,000	0,001	0,038
-653,086	-163,227	0,167	-0,006
-652,072	800,000	-0,031	-0,073
-651,057	123,134	-0,020	-0,018
-650,043	-200,000	-0,001	-0,117
-649,028	-101,912	0,063	0,011
-648,014	-200,000	-0,012	-0,042
-646,999	-69,326	-0,125	-0,034
-645,984	3,173	0,033	-0,017
-644,970	-94,937	0,021	0,004
-643,955	215,997	-0,079	-0,091
-642,941	37,055	-0,034	0,022
-641,926	-1,464	-0,059	-0,030
-640,911	-60,511	-0,027	0,008
-639,897	-8,828	-0,102	-0,049
-638,882	216,306	-0,013	0,015
-637,868	205,003	-0,091	-0,102
-636,853	6,756	-0,123	-0,066
-635,838	-46,818	0,067	0,024
-634,824	-200,000	0,017	-0,093
-633,809	555,050	0,074	0,130
-632,795	-187,157	-0,084	0,001
-631,780	-144,071	-0,023	0,002
-630,765	-172,796	-0,076	0,002
-629,751	117,679	-0,044	-0,039
-628,736	47,749	-0,149	-0,100
-627,722	237,286	0,103	-0,124
-626,707	-117,125	-0,014	0,002
-625,692	-96,107	0,121	0,023
-624,678	-200,000	0,014	-0,061
-623,663	-48,693	-0,101	0,035
-622,649	317,528	-0,034	-0,046
-621,634	-200,000	-0,002	-0,058
-620,619	-200,000	-0,033	-0,152
-619,605	341,624	0,028	-0,040
-618,590	800,000	-0,030	-0,067
-617,576	-200,000	-0,021	0,172
-616,561	-200,000	0,002	0,161
-615,546	800,000	0,039	-0,086
-614,532	101,520	-0,181	-0,152
-613,517	-37,569	0,040	-0,015
-612,503	-76,411	0,191	0,048
-611,488	21,418	-0,024	0,014
-610,474	-67,041	0,075	-0,021
-609,459	408,540	0,046	-0,070
-608,444	-34,090	-0,054	-0,021
-607,430	800,000	-0,025	-0,075
-606,415	-200,000	0,022	0,087
-605,401	-79,617	0,090	0,022
-604,386	-74,936	0,064	0,016
-603,371	800,000	-0,036	0,106
-602,357	800,000	-0,021	0,049
-601,342	148,294	-0,153	-0,149
-600,328	394,048	-0,083	0,126
-599,313	662,333	0,024	-0,045
-598,298	3,896	-0,029	-0,015
-597,284	669,474	0,044	-0,083
-596,269	-37,702	0,104	0,040
-595,255	-5,771	0,091	-0,045
-594,240	-23,074	-0,134	0,058
-593,225	-26,508	-0,061	-0,026
-592,211	-200,000	-0,031	-0,108
-591,196	-83,429	0,012	0,003
-590,182	349,660	0,056	0,080
-589,167	-200,000	-0,003	0,092
-588,152	601,008	0,043	0,078
-587,138	150,614	0,082	0,080
-586,123	800,000	-0,040	-0,103
-585,109	-200,000	0,000	0,039
-584,094	220,802	0,064	0,074
-583,079	-82,432	0,097	0,022
-582,065	-32,628	0,117	0,047
-581,050	-200,000	-0,028	0,130
-580,036	91,164	0,057	-0,046
-579,021	-200,000	-0,022	0,125
-578,006	-9,781	-0,195	0,093
-576,992	-3,055	-0,098	0,049
-575,977	196,450	0,051	0,056
-574,963	-200,000	0,016	0,179
-573,948	227,450	-0,093	0,109
-572,934	-60,348	-0,047	-0,014
-571,919	17,803	-0,092	-0,053
-570,904	-38,359	0,102	0,039
-569,890	-49,921	0,078	0,026
-568,875	-108,326	0,054	-0,008
-567,861	151,948	0,031	-0,031
-566,846	427,308	0,057	0,090
-565,831	186,114	-0,041	0,044
-564,817	272,253	-0,056	0,071
-563,802	202,989	-0,064	-0,071
-562,788	-200,000	-0,010	-0,233
-561,773	144,522	0,070	-0,068
-560,758	-200,000	0,002	0,067
-559,744	-10,039	0,106	-0,051
-558,729	752,381	-0,038	-0,075
-557,715	-200,000	-0,001	-0,021
-556,700	299,049	-0,128	-0,170
-555,685	-31,629	-0,172	-0,069
-554,671	20,686	0,053	0,031
-553,656	435,169	-0,036	-0,056
-552,642	128,308	0,112	0,103
-551,627	98,112	-0,021	-0,017
-550,612	-149,616	-0,142	-0,008
-549,598	468,502	-0,065	-0,105
-548,583	234,103	0,063	0,075
-547,569	800,000	-0,026	0,060
-546,554	800,000	-0,033	-0,081
-545,539	58,860	-0,069	0,049
-544,525	16,559	-0,041	-0,023
-543,510	248,000	-0,031	0,038
-542,496	-187,668	-0,172	-0,002
-541,481	-200,000	-0,029	-0,109
-540,466	-107,914	-0,023	-0,004
-539,452	155,750	0,096	0,095
-538,437	480,945	0,084	0,138
-537,423	77,402	-0,081	-0,062
-536,408	-200,000	0,025	0,122
-535,393	-200,000	0,045	-0,160
-534,379	174,563	-0,072	-0,075
-533,364	73,313	0,103	-0,078
-532,350	800,000	0,051	0,134
-531,335	-200,000	0,015	0,083
-530,321	-200,000	-0,006	-0,046
-529,306	30,585	-0,078	-0,048
-528,291	647,897	-0,044	0,082
-527,277	331,434	-0,014	-0,020
-526,262	253,291	-0,109	-0,135
-525,248	-105,766	0,065	-0,010
-524,233	-200,000	-0,037	0,141
-523,218	183,313	0,100	0,106
-522,204	-200,000	0,012	-0,141
-521,189	241,992	-0,098	-0,118
-520,175	-200,000	0,014	-0,104
-519,160	269,682	0,045	-0,057
-518,145	13,933	0,021	-0,012
-517,131	-200,000	-0,025	0,103
-516,116	800,000	0,037	0,116
-515,102	205,919	0,033	-0,036
-514,087	-22,705	-0,048	-0,021
-513,072	-200,000	0,024	-0,117
-512,058	-200,000	-0,040	-0,143
-511,043	119,983	0,048	-0,043
-510,029	114,225	0,092	0,081
-509,014	-47,917	0,086	0,030
-507,999	495,449	-0,008	0,013
-506,985	-200,000	0,003	-0,034
-505,970	23,371	-0,107	-0,063
-504,956	-147,321	0,157	0,009
-503,941	-58,378	-0,017	-0,005
-502,926	9,917	0,028	0,015
-501,912	-200,000	-0,036	-0,145
-500,897	-200,000	-0,002	-0,019
-499,883	53,895	0,031	0,021
-498,868	800,000	-0,041	-0,102
-497,853	677,352	-0,057	-0,108
-496,839	56,402	-0,036	-0,025
-495,824	293,989	0,059	0,077
-494,810	20,469	0,051	0,030
-493,795	-21,372	0,072	-0,032
-492,781	800,000	0,012	-0,035
-491,766	601,220	-0,096	-0,172
-490,751	143,616	0,085	0,082
-489,737	800,000	0,032	0,092
-488,722	628,200	-0,047	0,087
-487,708	-17,952	0,077	0,035
-486,693	-89,222	-0,040	0,008
-485,678	-200,000	0,017	-0,099
-484,664	-0,169	-0,070	-0,036
-483,649	-18,766	-0,113	-0,050
-482,635	-200,000	0,012	-0,175
-481,620	176,504	0,061	0,064
-480,605	-200,000	-0,018	0,117
-479,591	800,000	0,030	-0,086
-478,576	66,734	-0,061	-0,044
-477,562	305,901	0,091	-0,123
-476,547	-86,938	0,076	0,016
-475,532	-200,000	0,005	-0,037
-474,518	69,784	0,058	-0,043
-473,503	300,657	0,049	0,066
-472,489	800,000	-0,076	0,152
-471,474	718,037	0,055	0,106
-470,459	-47,872	-0,085	0,030
-469,445	-59,083	0,095	-0,029
-468,430	5,123	-0,062	0,033
-467,416	-200,000	0,016	0,054
-466,401	3,381	0,131	-0,069
-465,386	-180,610	0,155	-0,002
-464,372	323,430	0,059	0,081
-463,357	-200,000	-0,013	-0,168
-462,343	-200,000	-0,004	-0,110
-461,328	219,153	-0,080	-0,092
-460,313	47,620	-0,050	-0,034
-459,299	-200,000	0,023	0,131
-458,284	142,682	0,198	0,189
-457,270	51,424	0,062	0,042
-456,255	579,974	0,100	0,177
-455,241	153,243	-0,097	0,095
-454,226	-200,000	0,024	0,076
-453,211	-136,291	-0,045	0,004
-452,197	-200,000	-0,016	-0,088
-451,182	-200,000	-0,001	0,027
-450,168	181,759	-0,043	-0,046
-449,153	-200,000	-0,030	0,224
-448,138	134,922	-0,086	-0,081
-447,124	250,213	0,069	-0,085
-446,109	-152,156	0,031	-0,002
-445,095	115,022	0,028	-0,025
-444,080	-7,281	-0,141	0,068
-443,065	-200,000	0,013	0,111
-442,051	89,199	0,047	-0,037
-441,036	463,194	0,015	-0,024
-440,022	47,653	-0,073	0,049
-439,007	-174,012	-0,085	0,002
-437,992	411,084	0,078	0,120
-436,978	800,000	-0,061	0,149
-435,963	-200,000	-0,014	0,125
-434,949	50,809	-0,075	-0,051
-433,934	-200,000	0,013	-0,078
-432,919	548,175	-0,017	-0,029
-431,905	-55,590	-0,116	0,037
-430,890	-200,000	0,005	0,065
-429,876	0,785	0,022	0,011
-428,861	-114,715	0,063	-0,009
-427,846	800,000	0,053	0,132
-426,832	86,503	0,028	-0,022
-425,817	-200,000	-0,014	0,093
-424,803	-200,000	0,023	-0,093
-423,788	-122,130	0,056	-0,007
-422,773	115,485	0,063	-0,055
-421,759	-21,910	0,150	0,065
-420,744	-151,339	-0,075	0,004
-419,730	-200,000	0,017	-0,207
-418,715	239,007	-0,109	-0,130
-417,701	140,821	-0,074	-0,070
-416,686	620,471	0,108	-0,196
-415,671	-71,838	0,174	0,046
-414,657	273,660	0,040	0,051
-413,642	-200,000	-0,004	0,055
-412,628	566,802	-0,040	-0,070
-411,613	9,576	-0,098	0,053
-410,598	80,522	-0,040	0,031
-409,584	88,664	0,072	0,057
-408,569	-200,000	0,023	0,080
-407,555	-126,890	-0,067	0,007
-406,540	800,000	0,022	-0,049
-405,525	-181,540	-0,099	0,001
-404,511	556,901	0,070	0,121
-403,496	-200,000	-0,013	-0,080
-402,482	-200,000	-0,024	0,122
-401,467	-200,000	0,015	0,090
-400,452	-112,618	0,115	0,016
-399,438	297,279	-0,073	-0,096
-398,423	126,395	0,075	-0,068
-397,409	25,597	-0,087	-0,052
-396,394	800,000	-0,007	-0,017
-395,379	48,530	-0,129	-0,086
-394,365	36,650	0,095	-0,060
-393,350	-200,000	0,006	0,044
-392,336	467,362	0,061	0,098
-391,321	800,000	-0,038	0,077
-390,306	800,000	-0,025	-0,077
-389,292	108,414	0,015	-0,013
-388,277	398,541	-0,045	-0,067
-387,263	-200,000	0,053	0,232
-386,248	-200,000	0,007	0,071
-385,233	-53,124	-0,045	0,015
-384,219	-172,660	-0,198	0,004
-383,204	-200,000	0,065	-0,213
-382,190	54,977	0,103	-0,071
-381,175	-62,170	0,079	0,024
-380,160	-170,610	-0,052	-0,001
-379,146	-200,000	-0,021	0,076
-378,131	-90,210	0,114	0,023
-377,117	800,000	-0,057	-0,163
-376,102	40,088	0,071	0,045
-375,088	303,718	-0,057	0,075
-374,073	-200,000	0,009	-0,108
-373,058	-61,292	0,078	-0,023
-372,044	-82,149	-0,062	-0,014
-371,029	46,609	0,100	0,067
-370,015	646,235	-0,070	-0,129
-369,000	-200,000	0,016	-0,103
-367,985	333,150	-0,051	-0,071
-366,971	800,000	0,029	0,082
-365,956	135,324	0,049	-0,046
-364,942	-200,000	-0,026	-0,198
-363,927	-44,873	0,057	-0,020
-362,912	117,251	-0,023	0,020
-361,898	-200,000	-0,007	-0,156
-360,883	-200,000	0,022	-0,112
-359,869	-114,757	-0,088	-0,012
-358,854	800,000	-0,021	-0,045
-357,839	12,191	-0,099	0,054
-356,825	-200,000	-0,007	0,087
-355,810	-22,744	0,081	-0,035
-354,796	-106,177	-0,121	-0,019
-353,781	-200,000	-0,021	-0,079
-352,766	-36,715	-0,096	0,037
-351,752	27,514	-0,042	-0,025
-350,737	183,921	0,071	0,076
-349,723	-110,214	0,170	0,025
-348,708	119,046	0,013	-0,012
-347,693	-1,279	-0,024	-0,012
-346,679	800,000	-0,017	-0,047
-345,664	387,032	0,028	0,041
-344,650	153,763	-0,048	-0,047
-343,635	117,671	-0,075	0,066
-342,620	591,005	0,032	-0,057
-341,606	-102,342	-0,010	0,002
-340,591	-200,000	0,009	0,029
-339,577	-170,109	-0,116	-0,003
-338,562	-200,000	0,006	-0,109
-337,548	108,315	-0,024	-0,020
-336,533	-200,000	-0,006	-0,071
-335,518	325,675	0,036	-0,050
-334,504	132,086	0,118	-0,109
-333,489	-200,000	-0,015	-0,072
-332,475	800,000	-0,054	0,130
-331,460	443,584	-0,024	-0,037
-330,445	90,569	-0,024	0,019
-329,431	-200,000	-0,005	0,109
-328,416	9,091	0,111	-0,060
-327,402	88,468	-0,062	0,049
-326,387	800,000	-0,069	-0,141
-325,372	800,000	0,017	-0,050
-324,358	389,577	0,076	-0,112
-323,343	-121,857	0,059	-0,007
-322,329	780,428	0,062	-0,123
-321,314	378,514	-0,063	0,093
-320,299	-200,000	0,001	-0,029
-319,285	292,581	0,058	0,076
-318,270	497,970	-0,044	-0,072
-317,256	-82,795	0,082	-0,019
-316,241	0,949	0,062	-0,032
-315,226	-18,027	-0,018	0,008
-314,212	347,502	0,051	0,071
-313,197	167,283	-0,034	-0,034
-312,183	107,892	-0,076	0,065
-311,168	43,760	0,076	-0,049
-310,153	-200,000	0,000	-0,006
-309,139	-200,000	-0,002	-0,030
-308,124	196,251	-0,031	0,034
-307,110	-128,714	0,087	-0,009
-306,095	800,000	-0,014	-0,039
-305,080	800,000	-0,026	-0,053
-304,066	-200,000	-0,009	-0,122
-303,051	-42,416	0,114	-0,041
-302,037	-200,000	-0,002	-0,034
-301,022	117,490	0,028	0,025
-300,008	187,849	0,063	0,067
-298,993	-102,229	-0,068	-0,012
-297,978	-52,043	0,096	0,032
-296,964	800,000	0,044	0,103
-295,949	-200,000	0,007	-0,081
-294,935	-111,847	-0,126	-0,018
-293,920	100,002	0,065	0,054
-292,905	338,410	-0,080	-0,112
-291,891	115,135	0,080	-0,070
-290,876	-200,000	0,026	0,090
-289,862	44,914	0,153	-0,100
-288,847	324,970	0,092	-0,126
-287,832	800,000	0,025	-0,066
-286,818	-122,268	-0,063	0,007
-285,803	-200,000	-0,010	0,064
-284,789	-200,000	0,112	-0,000
-283,774	-134,331	-0,059	0,005
-282,759	800,000	-0,043	0,122
-281,745	16,274	-0,026	0,015
-280,730	311,307	0,034	0,046
-279,716	391,851	-0,109	-0,162
-278,701	432,058	0,022	0,034
-277,686	-200,000	0,032	0,165
-276,672	56,031	0,084	0,058
-275,657	-200,000	0,001	-0,192
-274,643	286,550	-0,004	-0,005
-273,628	-200,000	0,006	0,114
-272,613	800,000	0,048	0,107
-271,599	800,000	0,030	0,091
-270,584	161,089	0,082	0,082
-269,570	-200,000	0,042	0,144
-268,555	-109,007	0,095	-0,014
-267,540	680,081	-0,015	0,028
-266,526	-19,515	-0,085	-0,037
-265,511	-80,759	-0,063	-0,015
-264,497	-188,498	0,084	-0,001
-263,482	-93,111	0,095	-0,019
-262,467	427,222	-0,109	0,169
-261,453	-200,000	-0,017	0,146
-260,438	1,792	-0,161	-0,082
-259,424	-200,000	0,031	0,114
-258,409	-175,957	-0,074	-0,001
-257,395	-102,884	0,029	0,005
-256,380	-200,000	-0,003	-0,048
-255,365	132,143	0,036	-0,033
-254,351	-200,000	-0,017	0,095
-253,336	459,132	-0,038	-0,060
-252,322	-200,000	-0,030	-0,130
-251,307	73,537	-0,024	-0,018
-250,292	24,154	-0,028	-0,017
-249,278	63,603	0,127	0,090
-248,263	200,808	-0,087	-0,096
-247,249	23,695	0,168	-0,098
-246,234	11,511	-0,096	0,052
-245,219	-111,372	-0,121	0,017
-244,205	800,000	0,040	0,092
-243,190	-153,867	-0,026	-0,001
-242,176	-80,919	0,047	0,011
-241,161	-200,000	-0,003	0,095
-240,146	-200,000	0,002	-0,062
-239,132	-78,658	0,047	-0,011
-238,117	-147,213	-0,142	-0,009
-237,103	490,215	-0,058	-0,095
-236,088	272,132	0,006	-0,008
-235,073	800,000	0,023	-0,054
-234,059	-157,948	0,061	0,003
-233,044	4,391	0,076	0,040
-232,030	-200,000	-0,002	0,038
-231,015	67,622	-0,053	-0,039
-230,000	800,000	-0,023	-0,056
-228,986	-97,265	0,173	-0,032
-227,971	73,935	0,080	0,060
-226,957	-81,565	0,065	-0,015
-225,942	800,000	0,042	0,105
-224,927	-200,000	0,011	0,046
-223,913	335,483	0,016	0,022
-222,898	-48,183	-0,104	0,036
-221,884	443,415	0,094	0,147
-220,869	290,667	-0,052	0,067
-219,855	-109,122	-0,044	-0,007
-218,840	800,000	-0,008	-0,022
-217,825	-85,022	0,172	0,038
-216,811	-82,607	-0,107	-0,024
-215,796	800,000	-0,011	0,028
-214,782	682,314	0,039	-0,073
-213,767	800,000	0,027	0,067
-212,752	-200,000	0,039	0,174
-211,738	454,567	-0,033	0,053
-210,723	110,281	-0,110	0,094
-209,709	29,606	-0,095	0,057
-208,694	-137,753	-0,108	-0,008
-207,679	800,000	-0,086	-0,185
-206,665	800,000	-0,050	0,137
-205,650	76,746	-0,081	0,061
-204,636	540,713	0,092	0,156
-203,621	248,478	0,150	0,181
-202,606	357,873	0,013	-0,018
-201,592	-200,000	-0,027	-0,100
-200,577	-200,000	-0,007	0,109
-199,563	-200,000	-0,025	0,132
-198,548	-18,564	0,102	-0,045
-197,533	-200,000	0,019	0,064
-196,519	-129,522	0,127	0,012
-195,504	-121,334	-0,106	-0,012
-194,490	5,062	0,057	-0,030
-193,475	800,000	0,046	-0,123
-192,460	800,000	-0,029	0,081
-191,446	228,481	0,037	-0,043
-190,431	-170,168	-0,133	0,003
-189,417	337,895	-0,027	0,038
-188,402	800,000	0,035	0,095
-187,387	-200,000	-0,014	0,099
-186,373	-112,911	0,121	-0,017
-185,358	-200,000	-0,026	0,167
-184,344	48,018	0,025	-0,016
-183,329	63,947	0,121	0,086
-182,315	-200,000	-0,047	0,000
-181,300	-200,000	0,003	-0,039
-180,285	432,013	-0,040	-0,062
-179,271	-17,917	-0,061	-0,027
-178,256	-200,000	0,030	0,099
-177,242	-85,380	0,074	-0,016
-176,227	464,673	0,067	0,106
-175,212	800,000	-0,019	0,056
-174,198	-89,301	0,066	0,014
-173,183	232,722	-0,092	-0,108
-172,169	800,000	-0,058	-0,146
-171,154	77,836	0,006	-0,005
-170,139	285,645	0,074	-0,095
-169,125	491,419	0,074	0,121
-168,110	800,000	0,064	0,155
-167,096	800,000	-0,040	-0,111
-166,081	168,386	-0,168	-0,170
-165,066	15,607	-0,056	0,031
-164,052	800,000	-0,019	0,042
-163,037	-80,136	-0,071	0,017
-162,023	-200,000	-0,006	0,131
-161,008	800,000	-0,017	-0,053
-159,993	-91,953	-0,070	0,014
-158,979	-200,000	-0,009	-0,096
-157,964	-38,767	-0,131	-0,049
-156,950	800,000	-0,030	0,084
-155,935	-126,640	-0,133	0,014
-154,920	800,000	0,047	-0,120
-153,906	800,000	0,051	0,126
-152,891	-162,233	-0,033	-0,001
-151,877	-69,239	-0,121	-0,033
-150,862	254,013	0,111	-0,135
-149,847	-200,000	0,006	-0,045
-148,833	88,097	-0,097	0,076
-147,818	-200,000	-0,005	0,086
-146,804	-106,406	0,141	0,022
-145,789	156,608	0,054	0,053
-144,775	217,709	-0,093	-0,105
-143,760	800,000	0,001	0,004
-142,745	235,899	-0,111	-0,131
-141,731	-127,299	0,056	-0,006
-140,716	-200,000	0,009	0,063
-139,702	-14,014	0,069	0,032
-138,687	800,000	-0,034	-0,079
-137,672	-72,098	-0,151	0,039
-136,658	-25,296	-0,080	-0,033
-135,643	-47,299	-0,149	0,051
-134,629	-86,763	0,122	0,026
-133,614	102,181	0,041	0,034
-132,599	800,000	-0,044	0,116
-131,585	-200,000	0,008	0,092
-130,570	-178,596	-0,103	0,002
-129,556	151,050	0,036	0,035
-128,541	-6,576	-0,207	-0,100
-127,526	19,326	-0,233	-0,132
-126,512	205,504	0,019	0,021
-125,497	781,376	0,051	0,100
-124,483	-105,457	0,093	-0,015
-123,468	-115,302	-0,087	-0,012
-122,453	-10,882	-0,035	0,016
-121,439	276,433	0,017	0,022
-120,424	800,000	0,064	0,139
-119,410	-65,504	-0,053	0,015
-118,395	28,806	0,151	0,091
-117,380	800,000	-0,031	-0,096
-116,366	307,600	0,100	0,133
-115,351	197,335	-0,120	-0,130
-114,337	54,144	0,032	-0,022
-113,322	16,287	0,053	-0,030
-112,307	-200,000	-0,007	0,159
-111,293	642,947	0,050	0,092
-110,278	388,789	0,046	0,068
-109,264	-94,156	-0,104	-0,020
-108,249	-74,928	-0,111	-0,028
-107,234	90,726	0,043	0,034
-106,220	61,849	-0,066	-0,047
-105,205	418,319	-0,021	-0,033
-104,191	392,351	0,038	0,057
-103,176	554,610	-0,081	0,138
-102,162	-154,755	-0,052	0,002
-101,147	800,000	0,042	-0,096
-100,132	407,860	-0,070	-0,105
-99,118	800,000	0,023	-0,057
-98,103	-200,000	-0,009	0,090
-97,089	-30,595	0,046	-0,018
-96,074	443,494	0,059	0,092
-95,059	306,689	0,053	-0,070
-94,045	800,000	0,030	-0,064
-93,030	-122,822	-0,129	0,015
-92,016	24,149	0,136	0,080
-91,001	782,135	-0,049	-0,096
-89,986	235,407	0,084	0,099
-88,972	800,000	-0,005	0,012
-87,957	10,522	0,155	0,084
-86,943	-129,825	-0,092	-0,009
-85,928	160,258	0,044	0,044
-84,913	-200,000	-0,005	0,044
-83,899	-200,000	0,009	-0,126
-82,884	194,386	-0,051	-0,055
-81,870	-22,134	0,164	0,070
-80,855	-29,695	-0,235	0,094
-79,840	-200,000	0,009	0,080
-78,826	161,653	-0,046	0,046
-77,811	-54,148	-0,074	-0,024
-76,797	489,539	-0,020	-0,032
-75,782	140,777	0,054	-0,051
-74,767	-6,965	0,056	-0,027
-73,753	270,038	0,052	0,065
-72,738	276,483	-0,027	-0,034
-71,724	-55,341	-0,047	-0,015
-70,709	397,234	0,053	-0,079
-69,694	800,000	0,066	-0,175
-68,680	679,884	0,071	-0,131
-67,665	-200,000	0,046	0,159
-66,651	443,421	0,041	0,064
-65,636	129,956	-0,032	0,029
-64,622	-79,363	-0,066	0,016
-63,607	-200,000	-0,005	-0,049
-62,592	-200,000	0,008	-0,052
-61,578	-52,512	0,079	-0,026
-60,563	-200,000	-0,018	-0,071
-59,549	800,000	-0,009	-0,026
-58,534	-32,812	-1,613	-0,631
-57,519	346,203	-1,470	-2,050
-56,505	-200,000	-0,287	-4,460
-55,490	130,282	0,948	0,859
-54,476	800,000	4,884	11,584
-53,461	-200,000	18,578	300,912
-52,446	800,000	732,763	2260,545
-51,432	557,009	1647,309	2818,995
-50,417	78,220	1665,404	1255,941
-49,403	22,002	1538,615	885,200
-48,388	15,932	1461,626	811,533
-47,373	17,875	1451,805	815,395
-46,359	16,971	1441,633	805,335
-45,344	14,168	1437,159	789,442
-44,330	14,072	1435,461	788,019
-43,315	14,138	1433,610	787,287
-42,300	14,147	1431,869	786,340
-41,286	14,160	1430,777	785,775
-40,271	14,123	1429,398	784,808
-39,257	14,133	1428,116	784,121
-38,242	14,178	1426,940	783,657
-37,227	14,222	1425,630	783,113
-36,213	14,193	1424,345	782,242
-35,198	14,154	1423,218	781,407
-34,184	14,187	1422,446	781,109
-33,169	14,141	1421,016	780,076
-32,154	14,149	1419,982	779,515
-31,140	14,171	1418,751	778,908
-30,125	14,173	1417,582	778,246
-29,111	14,133	1416,511	777,440
-28,096	14,169	1415,445	776,993
-27,082	14,064	1414,473	775,936
-26,067	14,082	1413,233	775,311
-25,052	14,095	1412,259	774,807
-24,038	14,089	1411,360	774,254
-23,023	14,080	1410,239	773,564
-22,009	14,046	1409,369	772,896
-20,994	14,047	1408,345	772,313
-19,979	14,077	1407,363	771,884
-18,965	14,026	1406,520	771,153
-17,950	13,984	1405,681	770,463
-16,936	14,052	1404,576	770,144
-15,921	14,060	1403,290	769,447
-14,906	14,003	1402,508	768,720
-13,892	13,992	1401,697	768,195
-12,877	13,997	1400,969	767,789
-11,863	13,990	1400,044	767,218
-10,848	13,959	1399,196	766,578
-9,833	13,970	1397,997	765,942
-8,819	13,909	1397,433	765,324
-7,804	13,878	1396,335	764,546
-6,790	13,907	1395,271	764,070
-5,775	13,952	1394,117	763,615
-4,760	13,924	1393,359	763,041
-3,746	13,913	1392,334	762,397
-2,731	13,895	1391,545	761,852
-1,717	13,883	1390,671	761,289
-0,702	13,869	1389,114	760,338
0,313	17,863	1307,150	733,870
1,327	34,411	703,749	433,266
2,342	52,550	123,666	83,331
3,356	0,995	16,487	8,327
4,371	3,879	3,146	1,619
5,386	63,490	0,493	0,349
6,400	-200,000	0,031	0,112
7,415	-26,657	-0,200	-0,082
8,429	49,954	-0,448	-0,298
9,444	-36,926	-0,305	-0,115
10,459	65,447	-0,313	-0,223
11,473	94,780	-0,281	-0,225
12,488	27,662	-0,299	-0,177
13,502	-0,460	-0,334	-0,167
14,517	119,267	-0,216	-0,189
15,531	34,107	-0,499	-0,307
16,546	-9,347	-0,378	-0,177
17,561	520,921	-0,266	-0,442
18,575	-110,793	-0,247	-0,036
19,590	152,723	-0,314	-0,303
20,604	136,937	-0,159	-0,146
21,619	162,648	-0,332	-0,328
22,634	158,786	-0,355	-0,348
23,648	154,197	-0,391	-0,379
24,663	208,287	-0,315	-0,348
25,677	98,123	-0,377	-0,306
26,692	4,145	-0,381	-0,196
27,707	75,398	-0,316	-0,235
28,721	83,245	-0,339	-0,260
29,736	57,897	-0,438	-0,301
30,750	51,381	-0,335	-0,224
31,765	122,757	-0,406	-0,358
32,780	155,429	-0,308	-0,299
33,794	16,103	-0,376	-0,208
34,809	128,991	-0,287	-0,258
35,823	89,942	-0,389	-0,306
36,838	186,059	-0,264	-0,277
37,853	153,750	-0,335	-0,323
38,867	33,842	-0,471	-0,288
39,882	205,576	-0,207	-0,227
40,896	138,512	-0,407	-0,377
41,911	29,822	-0,470	-0,281
42,926	80,014	-0,367	-0,277
43,940	24,911	-0,390	-0,227
44,955	65,486	-0,350	-0,249
45,969	168,020	-0,240	-0,240
46,984	47,073	-0,331	-0,216
47,999	188,710	-0,268	-0,282
49,013	60,364	-0,352	-0,245
50,028	166,515	-0,262	-0,262
51,042	-38,251	-0,381	-0,141
52,057	72,586	-0,299	-0,220
53,071	-27,744	-0,206	-0,084
54,086	23,168	-0,312	-0,180
55,101	98,426	-0,301	-0,244
56,115	84,724	-0,326	-0,251
57,130	-62,137	-0,439	-0,128
58,144	129,666	-0,333	-0,300
59,159	-4,672	-0,471	-0,228
60,174	97,345	-0,359	-0,290
61,188	68,336	-0,331	-0,238
62,203	103,750	-0,265	-0,219
63,217	-1,459	-0,312	-0,154
64,232	-15,275	-0,246	-0,110
65,247	126,346	-0,222	-0,197
66,261	-21,418	-0,435	-0,186
67,276	10,214	-0,386	-0,206
68,290	62,405	-0,343	-0,240
69,305	-75,932	-0,300	-0,074
70,320	95,969	-0,409	-0,328
71,334	-58,627	-0,322	-0,097
72,349	99,006	-0,318	-0,258
73,363	-0,860	-0,453	-0,225
74,378	272,309	-0,325	-0,403
75,393	35,116	-0,272	-0,167
76,407	23,355	-0,315	-0,181
77,422	182,085	-0,325	-0,336
78,436	60,969	-0,284	-0,197
79,451	57,226	-0,241	-0,165
80,466	-17,828	-0,389	-0,171
81,480	162,870	-0,180	-0,178
82,495	308,200	-0,309	-0,406
83,509	74,309	-0,290	-0,213
84,524	10,511	-0,296	-0,158
85,539	240,340	-0,265	-0,311
86,553	-123,466	-0,301	-0,033
87,568	125,553	-0,163	-0,144
88,582	28,388	-0,330	-0,195
89,597	73,017	-0,167	-0,122
90,611	336,769	-0,200	-0,273
91,626	21,052	-0,232	-0,131
92,641	22,072	-0,376	-0,214
93,655	-159,551	-0,245	-0,009
94,670	19,600	-0,285	-0,160
95,684	-6,383	-0,254	-0,121
96,699	229,868	-0,255	-0,293
97,714	-200,000	-0,088	-0,308
98,728	106,910	-0,271	-0,225
99,743	389,666	-0,145	-0,211
100,757	-73,265	-0,409	-0,104
101,772	123,371	-0,153	-0,134
102,787	-19,205	-0,283	-0,123
103,801	-2,219	-0,362	-0,177
104,816	133,680	-0,231	-0,209
105,830	-41,448	-0,369	-0,132
106,845	20,202	-0,300	-0,169
107,860	56,884	-0,245	-0,167
108,874	-28,323	-0,269	-0,108
109,889	-63,712	-0,366	-0,104
110,903	-83,513	-0,254	-0,056
111,918	-39,348	-0,204	-0,075
112,933	110,365	-0,167	-0,140
113,947	-30,615	-0,311	-0,123
114,962	297,185	-0,169	-0,218
115,976	800,000	-0,149	-0,327
116,991	16,092	-0,376	-0,207
118,006	125,941	-0,239	-0,211
119,020	254,537	-0,209	-0,250
120,035	42,993	-0,261	-0,166
121,049	320,155	-0,162	-0,215
122,064	122,186	-0,170	-0,149
123,079	100,787	-0,203	-0,165
124,093	232,678	-0,285	-0,327
125,108	235,035	-0,278	-0,321
126,122	283,659	-0,176	-0,222
127,137	137,190	-0,276	-0,252
128,151	303,726	-0,170	-0,221
129,166	95,435	-0,176	-0,140
130,181	265,698	-0,228	-0,278
131,195	498,318	-0,162	-0,262
132,210	291,134	-0,236	-0,300
133,224	138,783	-0,204	-0,187
134,239	67,984	-0,257	-0,183
135,254	264,449	-0,095	-0,115
136,268	7,363	-0,311	-0,162
137,283	24,445	-0,234	-0,135
138,297	509,187	-0,144	-0,234
139,312	27,260	-0,218	-0,128
140,327	72,474	-0,276	-0,201
141,341	634,527	-0,123	-0,220
142,356	-31,648	-0,285	-0,111
143,370	83,331	-0,136	-0,103
144,385	-10,851	-0,310	-0,143
145,400	61,343	-0,336	-0,233
146,414	81,192	-0,326	-0,245
147,429	121,603	-0,308	-0,268
148,443	178,484	-0,185	-0,189
149,458	-79,602	-0,202	0,047
150,473	-121,623	-0,170	0,019
151,487	2,169	-0,313	-0,157
152,502	139,645	-0,248	-0,227
153,516	40,926	-0,307	-0,193
154,531	119,849	-0,228	-0,197
155,546	91,199	-0,213	-0,167
156,560	218,025	-0,089	-0,099
157,575	-92,801	-0,266	-0,051
158,589	183,753	-0,131	-0,135
159,604	-42,178	-0,333	-0,118
160,619	195,524	-0,190	-0,201
161,633	226,961	-0,241	-0,273
162,648	131,474	-0,250	-0,224
163,662	61,126	-0,212	-0,146
164,677	-200,000	-0,043	-0,222
165,692	107,085	-0,187	-0,154
166,706	-123,058	-0,319	-0,035
167,721	314,309	-0,210	-0,276
168,735	27,739	-0,204	-0,119
169,750	236,543	-0,205	-0,236
170,764	80,197	-0,217	-0,163
171,779	-156,934	-0,130	0,005
172,794	74,566	-0,151	-0,110
173,808	634,796	-0,120	-0,213
174,823	32,649	-0,227	-0,136
175,837	7,708	-0,273	-0,142
176,852	44,180	-0,264	-0,169
177,867	-80,319	-0,297	-0,068
178,881	-96,966	-0,202	-0,036
179,896	-169,492	-0,198	-0,005
180,910	76,515	-0,233	-0,172
181,925	136,456	-0,288	-0,261
182,940	204,123	-0,248	-0,267
183,954	-7,043	-0,370	-0,174
184,969	182,964	-0,191	-0,197
185,983	-85,370	-0,162	-0,035
186,998	-23,151	-0,247	-0,103
188,013	106,234	-0,275	-0,227
189,027	472,688	-0,140	-0,220
190,042	21,873	-0,182	-0,103
191,056	137,078	-0,087	-0,079
192,071	196,781	-0,199	-0,211
193,086	26,122	-0,171	-0,099
194,100	-69,094	-0,156	-0,041
195,115	130,155	-0,282	-0,250
196,129	508,854	-0,133	-0,216
197,144	140,055	-0,212	-0,194
198,159	104,886	-0,275	-0,225
199,173	361,936	-0,179	-0,250
200,188	263,429	-0,107	-0,129
201,202	-90,140	-0,196	-0,039
202,217	4,593	-0,232	-0,118
203,232	234,240	-0,111	-0,127
204,246	29,210	-0,193	-0,113
205,261	32,941	-0,272	-0,163
206,275	-16,522	-0,242	0,106
207,290	-90,356	-0,235	-0,047
208,304	-152,808	-0,291	0,014
209,319	107,996	-0,167	-0,138
210,334	-40,181	-0,220	-0,079
211,348	64,253	-0,235	-0,164
212,363	20,237	-0,154	-0,086
213,377	132,297	-0,210	-0,188
214,392	-200,000	-0,035	-0,272
215,407	613,764	-0,074	-0,130
216,421	-4,447	-0,156	-0,074
217,436	510,157	-0,101	-0,163
218,450	-200,000	-0,030	-0,117
219,465	241,850	-0,186	-0,216
220,480	551,321	-0,112	-0,187
221,494	320,203	-0,163	-0,215
222,509	9,093	-0,219	-0,114
223,523	114,203	-0,132	-0,111
224,538	-14,436	-0,170	-0,076
225,553	165,489	-0,202	-0,198
226,567	-47,254	-0,297	-0,100
227,582	516,829	-0,145	-0,235
228,596	-79,965	-0,091	0,021
229,611	-6,186	-0,200	-0,094
230,626	-28,867	-0,085	-0,034
231,640	-17,154	-0,250	-0,109
232,655	62,713	-0,159	-0,110
233,669	0,126	-0,261	-0,128
234,684	642,493	-0,147	-0,260
235,699	19,045	-0,190	-0,105
236,713	682,156	-0,084	-0,152
237,728	147,969	-0,164	-0,153
238,742	264,377	-0,146	-0,176
239,757	111,521	-0,179	-0,149
240,772	697,671	-0,106	-0,195
241,786	390,757	-0,113	-0,163
242,801	-128,003	-0,106	0,010
243,815	-57,753	-0,210	-0,063
244,830	37,124	-0,166	-0,102
245,844	-24,688	-0,169	-0,069
246,859	354,907	-0,189	-0,261
247,874	421,253	-0,105	-0,157
248,888	800,000	-0,147	-0,307
249,903	800,000	-0,102	-0,214
250,917	-129,834	-0,124	-0,012
251,932	800,000	-0,071	-0,170
252,947	-59,006	-0,335	-0,099
253,961	800,000	-0,143	-0,319
254,976	367,498	-0,111	-0,156
255,990	800,000	-0,112	-0,298
257,005	800,000	-0,096	-0,239
258,020	5,293	-0,173	-0,088
259,034	-84,583	-0,238	-0,051
260,049	-131,272	-0,280	-0,025
261,063	-200,000	0,019	-0,059
262,078	-200,000	-0,068	-0,209
263,093	396,734	-0,073	-0,106
264,107	265,803	-0,173	-0,208
265,122	-154,519	-0,123	-0,006
266,136	23,553	-0,180	-0,102
267,151	191,173	-0,103	-0,107
268,166	88,885	-0,188	-0,145
269,180	6,530	-0,207	-0,106
270,195	-39,730	-0,231	-0,083
271,209	800,000	-0,113	-0,221
272,224	48,940	-0,272	-0,176
273,239	89,149	-0,129	-0,099
274,253	0,917	-0,042	-0,021
275,268	-83,808	-0,188	-0,041
276,282	164,909	-0,099	-0,096
277,297	449,031	-0,121	-0,185
278,312	44,604	-0,177	-0,112
279,326	170,500	-0,192	-0,190
280,341	-200,000	0,011	-0,062
281,355	66,656	-0,103	-0,072
282,370	148,817	-0,109	-0,101
283,384	210,687	-0,154	-0,167
284,399	311,214	-0,215	-0,279
285,414	-43,276	-0,259	-0,090
286,428	31,906	-0,189	-0,112
287,443	-139,134	-0,171	0,013
288,457	136,709	-0,180	-0,162
289,472	-49,799	-0,101	0,033
290,487	200,643	-0,204	-0,216
291,501	800,000	-0,083	-0,251
292,516	-200,000	-0,023	-0,080
293,530	-106,390	-0,119	0,018
294,545	-80,771	-0,148	-0,034
295,560	16,407	-0,172	-0,093
296,574	272,234	-0,109	-0,132
297,589	-48,776	-0,252	-0,083
298,603	800,000	-0,058	-0,114
299,618	161,989	-0,170	-0,164
300,633	286,438	-0,070	0,087
301,647	-200,000	-0,009	-0,084
302,662	-200,000	-0,043	-0,148
303,676	-24,733	-0,195	-0,079
304,691	751,449	-0,055	-0,103
305,706	118,647	-0,138	-0,118
306,720	353,723	-0,118	-0,162
307,735	-200,000	0,016	-0,212
308,749	-34,302	-0,053	0,020
309,764	222,710	-0,099	-0,110
310,779	20,534	-0,161	-0,089
311,793	-136,420	-0,131	-0,010
312,808	250,356	-0,077	-0,090
313,822	-129,038	-0,174	-0,016
314,837	477,072	-0,079	-0,123
315,852	-102,708	-0,132	0,021
316,866	-57,338	-0,184	-0,055
317,881	-176,397	-0,271	-0,005
318,895	182,302	-0,113	-0,115
319,910	24,473	-0,058	-0,033
320,925	273,270	-0,091	-0,111
321,939	145,613	-0,126	-0,116
322,954	-171,431	-0,147	-0,003
323,968	-27,394	-0,088	-0,035
324,983	109,444	-0,157	-0,129
325,997	340,019	-0,131	-0,176
327,012	27,314	-0,153	-0,088
328,027	233,797	-0,201	-0,228
329,041	-165,273	-0,301	-0,009
330,056	-130,966	-0,224	-0,020
331,070	162,219	-0,170	-0,164
332,085	166,825	-0,122	-0,119
333,100	100,583	-0,220	-0,175
334,114	800,000	-0,044	-0,129
335,129	223,843	-0,174	-0,194
336,143	608,242	-0,119	-0,205
337,158	14,178	-0,043	0,023
338,173	-131,437	-0,174	-0,016
339,187	-200,000	-0,027	-0,117
340,202	-158,359	-0,133	0,005
341,216	-200,000	-0,008	-0,079
342,231	134,370	-0,190	-0,169
343,246	-200,000	-0,083	-0,321
344,260	-200,000	-0,015	-0,139
345,275	129,725	-0,078	-0,068
346,289	40,905	-0,163	0,100
347,304	-80,795	-0,199	-0,045
348,319	-46,518	-0,194	-0,065
349,333	717,764	-0,098	-0,179
350,348	245,819	-0,070	-0,081
351,362	269,777	-0,045	-0,054
352,377	-35,452	-0,110	0,041
353,392	209,905	-0,078	-0,084
354,406	197,998	-0,197	-0,206
355,421	208,033	1313,569	1408,000
356,435	160,052	1474,180	1408,508
