DTS Sentinel unit serial number:	SN410029Multiplexer serial number:	ORYXHardware model number:	OX2-SRSoftware version number:	ORYX F/W v4,00 Oryx Data Collector v3.7.2.0data status	okinstallation	B3 Nyhavnadifferential loss correction	single-endedforward channel	channel 1reverse channel	N/Adate	2023/12/02time	11:27:30forward acquisition time	300,00reverse acquisition time	0,00gamma	499,1914k internal	0,3198k external	0,3198temperature offset calibration	1,0000default loss term (dB/km)	0,3820temperature slope calibration	1,0000multiplexer offset coefficient	1,0000multiplexer slope coefficient	1,0000fibre end	0,00T internal ref (°C)	14,06T ext. ref 1 (°C)	-1,37T ext. ref 2 (°C)	-1,40length (m)	temperature (°C)	Stokes	anti-Stokes-744,400	193,548	-0,232	-0,256
-743,385	-200,000	0,047	0,158
-742,371	393,450	-0,152	-0,231
-741,356	-200,000	0,055	0,410
-740,342	60,363	-0,256	-0,184
-739,327	-200,000	0,035	0,367
-738,312	800,000	-0,059	-0,180
-737,298	-200,000	-0,094	0,308
-736,283	9,061	-0,307	-0,168
-735,269	-200,000	0,026	0,387
-734,254	115,948	-0,155	-0,138
-733,239	128,923	-0,108	0,100
-732,225	800,000	-0,091	-0,253
-731,210	-200,000	0,007	0,131
-730,196	-142,494	0,054	-0,004
-729,181	-6,638	-0,119	-0,059
-728,167	800,000	-0,045	-0,108
-727,152	-117,799	-0,110	-0,014
-726,137	70,454	-0,118	-0,088
-725,123	-200,000	0,005	-0,185
-724,108	-59,103	-0,051	-0,016
-723,094	137,794	0,107	-0,102
-722,079	-11,674	-0,031	0,015
-721,064	-200,000	-0,008	-0,027
-720,050	-193,728	-0,067	0,000
-719,035	-200,000	0,005	0,049
-718,021	-89,025	0,022	0,005
-717,006	79,256	-0,066	0,052
-715,991	23,313	0,092	-0,055
-714,977	-13,104	-0,100	-0,047
-713,962	-114,085	0,181	0,025
-712,948	-151,311	-0,081	-0,004
-711,933	-93,497	0,048	0,010
-710,918	43,497	-0,177	-0,117
-709,904	-113,792	-0,091	0,013
-708,889	-200,000	-0,049	-0,184
-707,875	-200,000	-0,006	-0,262
-706,860	-200,000	-0,008	-0,154
-705,845	-130,856	0,217	0,021
-704,831	182,440	-0,077	0,083
-703,816	108,703	0,080	0,069
-702,802	-200,000	-0,041	-0,134
-701,787	-151,701	0,026	0,001
-700,772	-45,463	-0,110	0,039
-699,758	392,468	0,040	0,061
-698,743	554,825	0,039	0,069
-697,729	-18,913	-0,059	0,027
-696,714	-200,000	0,021	0,072
-695,699	-67,572	-0,079	-0,022
-694,685	104,056	-0,099	-0,084
-693,670	-64,539	0,038	0,011
-692,656	-45,428	-0,072	-0,026
-691,641	236,082	-0,042	-0,051
-690,627	-96,091	-0,076	-0,014
-689,612	-5,984	-0,083	-0,041
-688,597	-200,000	0,013	-0,055
-687,583	9,228	0,055	0,030
-686,568	800,000	-0,021	-0,044
-685,554	-121,521	0,133	-0,016
-684,539	-200,000	-0,000	0,057
-683,524	132,937	0,031	-0,029
-682,510	264,712	0,032	0,040
-681,495	130,913	-0,048	0,045
-680,481	800,000	-0,042	-0,097
-679,466	-40,191	-0,150	-0,057
-678,451	124,829	0,071	-0,065
-677,437	-25,460	0,105	-0,045
-676,422	155,429	0,136	0,136
-675,408	433,561	0,047	0,075
-674,393	800,000	-0,025	0,067
-673,378	56,522	0,023	-0,016
-672,364	517,970	-0,077	-0,132
-671,349	-52,431	-0,108	-0,036
-670,335	-200,000	-0,013	-0,077
-669,320	80,916	-0,123	0,097
-668,305	-132,172	-0,083	-0,008
-667,291	-12,897	0,047	0,022
-666,276	-200,000	0,002	0,099
-665,262	-42,318	-0,144	-0,053
-664,247	219,170	-0,078	-0,090
-663,232	-200,000	-0,017	0,110
-662,218	28,327	0,072	-0,044
-661,203	228,737	0,092	0,109
-660,189	141,245	0,079	0,075
-659,174	101,344	-0,025	0,021
-658,159	161,024	0,057	-0,058
-657,145	-56,636	0,064	0,020
-656,130	-200,000	0,035	0,115
-655,116	-200,000	-0,006	0,097
-654,101	-189,838	0,186	0,001
-653,086	504,720	-0,026	0,044
-652,072	-200,000	-0,004	0,092
-651,057	680,397	-0,023	-0,044
-650,043	-85,208	0,046	0,010
-649,028	381,644	-0,053	0,079
-648,014	-200,000	0,003	-0,116
-646,999	-200,000	-0,003	0,197
-645,984	-69,641	0,096	0,026
-644,970	-200,000	0,029	-0,162
-643,955	150,378	-0,038	-0,038
-642,941	144,188	-0,032	0,031
-641,926	66,124	0,038	-0,028
-640,911	-200,000	0,006	0,050
-639,897	-12,917	-0,078	-0,037
-638,882	-134,130	-0,060	0,005
-637,868	-51,832	0,166	-0,056
-636,853	-106,010	0,026	-0,004
-635,838	-61,117	0,034	-0,010
-634,824	800,000	-0,080	-0,166
-633,809	399,055	-0,026	-0,039
-632,795	138,884	0,120	0,114
-631,780	533,535	-0,046	0,080
-630,765	-31,690	-0,050	-0,020
-629,751	492,477	-0,015	-0,025
-628,736	20,012	-0,037	0,022
-627,722	340,161	-0,018	-0,025
-626,707	295,380	0,090	-0,119
-625,692	-200,000	0,002	0,166
-624,678	-200,000	0,005	0,025
-623,663	89,514	-0,056	-0,045
-622,649	-200,000	-0,020	-0,076
-621,634	-200,000	-0,046	-0,222
-620,619	800,000	0,066	0,136
-619,605	800,000	-0,031	0,066
-618,590	-16,829	0,055	-0,025
-617,576	300,793	0,012	0,016
-616,561	-200,000	0,006	-0,053
-615,546	-80,492	0,056	0,013
-614,532	64,153	-0,058	0,042
-613,517	-68,584	-0,047	0,013
-612,503	800,000	0,022	-0,067
-611,488	282,077	0,052	-0,068
-610,474	-200,000	0,021	0,180
-609,459	592,242	-0,033	-0,060
-608,444	160,311	0,064	-0,064
-607,430	800,000	-0,059	-0,160
-606,415	205,470	-0,078	-0,088
-605,401	7,044	-0,030	-0,016
-604,386	-200,000	-0,015	0,075
-603,371	649,979	0,103	0,192
-602,357	-128,759	-0,081	-0,008
-601,342	-200,000	-0,004	-0,096
-600,328	133,974	-0,078	-0,073
-599,313	-200,000	-0,013	-0,090
-598,298	800,000	0,017	-0,054
-597,284	-21,061	-0,025	0,011
-596,269	-9,811	0,104	0,050
-595,255	179,177	-0,133	-0,141
-594,240	800,000	-0,017	-0,038
-593,225	112,362	-0,096	-0,084
-592,211	177,911	0,009	0,010
-591,196	800,000	-0,037	-0,078
-590,182	-200,000	0,012	0,128
-589,167	34,828	0,145	-0,091
-588,152	-100,399	-0,185	-0,033
-587,138	56,286	0,050	-0,035
-586,123	-62,073	-0,121	-0,036
-585,109	-200,000	-0,003	-0,115
-584,094	-113,946	0,024	-0,003
-583,079	-116,437	0,167	0,022
-582,065	-200,000	-0,053	0,000
-581,050	465,606	-0,089	0,145
-580,036	433,014	0,063	0,099
-579,021	55,671	-0,129	0,090
-578,006	311,233	0,013	0,018
-576,992	136,696	-0,170	-0,161
-575,977	800,000	0,033	0,069
-574,963	512,579	0,073	0,124
-573,948	138,220	-0,053	0,051
-572,934	-120,503	0,096	0,012
-571,919	297,945	0,016	0,022
-570,904	204,986	0,053	0,060
-569,890	30,543	-0,209	-0,129
-568,875	-200,000	0,006	0,093
-567,861	800,000	-0,016	0,048
-566,846	-200,000	-0,008	0,037
-565,831	35,473	-0,097	-0,062
-564,817	-200,000	-0,003	0,042
-563,802	740,909	-0,001	0,002
-562,788	-47,876	-0,123	-0,043
-561,773	-200,000	0,018	0,145
-560,758	-136,738	0,078	-0,006
-559,744	-125,154	0,018	-0,002
-558,729	17,716	-0,141	0,081
-557,715	-108,209	-0,033	0,005
-556,700	800,000	0,025	-0,064
-555,685	324,003	-0,036	-0,050
-554,671	800,000	-0,028	-0,059
-553,656	-76,718	0,107	-0,027
-552,642	-64,571	0,132	-0,038
-551,627	24,602	-0,164	0,098
-550,612	-200,000	0,004	-0,075
-549,598	-200,000	0,018	-0,104
-548,583	-68,701	0,086	-0,024
-547,569	800,000	0,067	-0,179
-546,554	-200,000	0,017	0,094
-545,539	121,088	0,037	0,033
-544,525	-179,676	-0,143	-0,002
-543,510	-200,000	0,025	0,125
-542,496	-137,026	-0,096	0,008
-541,481	32,181	-0,055	-0,034
-540,466	-200,000	0,001	-0,126
-539,452	-200,000	-0,013	-0,098
-538,437	193,038	-0,031	0,033
-537,423	-42,650	-0,044	0,016
-536,408	-200,000	0,008	-0,045
-535,393	292,914	-0,042	-0,055
-534,379	180,726	0,094	-0,100
-533,364	-200,000	0,017	-0,145
-532,350	73,626	0,056	0,042
-531,335	-200,000	-0,009	0,124
-530,321	139,789	0,014	-0,013
-529,306	-200,000	-0,005	0,024
-528,291	-28,005	-0,207	-0,086
-527,277	131,655	-0,091	-0,084
-526,262	800,000	-0,027	-0,066
-525,248	-200,000	-0,032	0,115
-524,233	516,045	0,098	0,166
-523,218	413,754	-0,034	-0,052
-522,204	800,000	-0,025	-0,056
-521,189	569,843	-0,045	-0,078
-520,175	3,474	-0,120	-0,063
-519,160	-28,844	0,093	-0,038
-518,145	112,122	-0,104	-0,091
-517,131	95,523	-0,017	0,014
-516,116	-6,583	-0,100	-0,049
-515,102	-200,000	0,014	0,060
-514,087	269,045	-0,069	0,088
-513,072	800,000	-0,043	-0,116
-512,058	800,000	0,013	0,040
-511,043	9,039	0,122	0,066
-510,029	323,693	0,050	0,070
-509,014	800,000	-0,018	0,046
-507,999	483,406	0,028	-0,047
-506,985	800,000	-0,029	-0,066
-505,970	588,813	-0,061	-0,108
-504,956	800,000	-0,045	-0,103
-503,941	102,036	0,187	0,157
-502,926	-162,081	-0,071	-0,003
-501,912	-200,000	0,028	-0,107
-500,897	-196,370	0,142	-0,001
-499,883	-200,000	-0,027	0,097
-498,868	123,615	0,023	-0,021
-497,853	-200,000	0,013	-0,114
-496,839	-200,000	-0,010	-0,044
-495,824	-200,000	-0,023	-0,116
-494,810	106,979	-0,053	-0,045
-493,795	464,390	-0,064	-0,103
-492,781	44,817	0,098	-0,065
-491,766	-97,365	-0,050	-0,009
-490,751	-200,000	0,015	-0,057
-489,737	6,981	0,065	0,035
-488,722	695,350	0,059	0,112
-487,708	-200,000	0,021	0,105
-486,693	101,818	0,067	-0,057
-485,678	-44,553	0,033	-0,012
-484,664	800,000	-0,052	-0,104
-483,649	1,271	0,057	-0,029
-482,635	-150,153	-0,049	0,003
-481,620	-136,346	0,098	-0,008
-480,605	423,298	-0,075	-0,116
-479,591	-83,691	0,101	0,023
-478,576	-29,537	-0,084	0,035
-477,562	-55,742	-0,136	-0,044
-476,547	723,993	-0,033	-0,063
-475,532	6,203	0,056	-0,030
-474,518	-42,524	-0,018	0,007
-473,503	-41,178	0,193	-0,071
-472,489	534,088	-0,060	0,102
-471,474	-43,300	0,082	-0,030
-470,459	180,815	0,031	0,033
-469,445	174,764	-0,058	0,061
-468,430	63,800	0,012	0,009
-467,416	-140,534	0,098	-0,007
-466,401	-200,000	-0,006	0,045
-465,386	-18,967	0,051	0,023
-464,372	0,529	0,093	-0,048
-463,357	297,431	-0,057	0,076
-462,343	800,000	-0,046	-0,114
-461,328	-120,273	-0,070	-0,009
-460,313	800,000	0,024	-0,061
-459,299	282,582	0,038	-0,049
-458,284	-200,000	0,002	0,047
-457,270	-200,000	-0,002	0,068
-456,255	-106,022	0,021	0,003
-455,241	800,000	-0,035	-0,074
-454,226	-143,102	-0,070	-0,005
-453,211	-44,994	0,122	-0,043
-452,197	84,806	0,084	0,066
-451,182	33,589	0,039	0,024
-450,168	106,031	-0,082	0,070
-449,153	153,701	-0,051	-0,050
-448,138	-45,733	-0,111	0,039
-447,124	800,000	-0,029	0,072
-446,109	111,796	0,116	0,101
-445,095	213,887	0,030	0,034
-444,080	800,000	0,055	0,159
-443,065	258,517	-0,127	-0,158
-442,051	800,000	-0,038	0,077
-441,036	800,000	0,034	0,068
-440,022	-191,080	-0,123	-0,001
-439,007	40,555	-0,028	-0,018
-437,992	163,038	-0,031	-0,031
-436,978	800,000	-0,075	0,167
-435,963	800,000	0,030	0,060
-434,949	-86,811	0,181	-0,039
-433,934	685,423	-0,044	-0,082
-432,919	-106,254	-0,061	-0,010
-431,905	668,365	0,021	0,040
-430,890	19,748	-0,050	0,029
-429,876	91,909	0,068	0,055
-428,861	-6,532	0,041	0,020
-427,846	10,879	-0,027	0,015
-426,832	234,374	0,080	0,095
-425,817	800,000	0,053	-0,129
-424,803	-62,831	-0,036	0,011
-423,788	-107,902	0,051	0,008
-422,773	190,055	0,069	0,074
-421,759	-200,000	-0,031	-0,102
-420,744	110,861	0,030	-0,026
-419,730	-200,000	0,001	0,009
-418,715	591,415	-0,045	-0,080
-417,701	103,470	0,033	0,027
-416,686	100,367	0,052	-0,044
-415,671	53,621	0,100	0,069
-414,657	58,126	0,079	0,056
-413,642	423,571	-0,022	0,034
-412,628	97,710	-0,075	-0,062
-411,613	-28,080	-0,124	-0,051
-410,598	800,000	-0,034	0,099
-409,584	326,785	0,041	-0,057
-408,569	-200,000	0,004	0,069
-407,555	179,403	0,067	0,071
-406,540	375,912	0,094	-0,138
-405,525	-111,754	0,146	-0,021
-404,511	233,442	-0,049	-0,057
-403,496	-65,947	0,076	-0,022
-402,482	247,049	0,013	-0,016
-401,467	-83,422	-0,081	0,019
-400,452	-109,925	0,101	0,015
-399,438	800,000	0,042	0,115
-398,423	-200,000	0,009	0,095
-397,409	411,671	0,021	0,032
-396,394	318,601	-0,042	0,057
-395,379	100,979	0,127	-0,106
-394,365	800,000	-0,030	-0,088
-393,350	-160,204	-0,028	0,001
-392,336	-200,000	0,023	0,107
-391,321	800,000	0,036	-0,076
-390,306	276,450	-0,085	-0,108
-389,292	-39,734	-0,080	-0,030
-388,277	387,577	0,074	0,111
-387,263	-47,162	-0,097	-0,034
-386,248	800,000	0,055	0,121
-385,233	94,673	-0,156	-0,127
-384,219	192,865	0,060	-0,065
-383,204	800,000	-0,048	0,106
-382,190	-200,000	-0,006	0,081
-381,175	277,811	-0,088	-0,112
-380,160	400,636	-0,026	0,040
-379,146	30,357	0,170	-0,104
-378,131	800,000	-0,080	0,177
-377,117	11,226	0,069	-0,038
-376,102	-25,113	-0,150	-0,064
-375,088	140,995	-0,113	0,108
-374,073	608,914	-0,068	-0,122
-373,058	-200,000	0,017	-0,059
-372,044	18,993	0,085	0,049
-371,029	-147,379	0,028	0,002
-370,015	343,940	-0,050	0,071
-369,000	390,203	0,038	0,057
-367,985	800,000	-0,067	-0,155
-366,971	61,462	0,007	-0,005
-365,956	49,638	-0,112	-0,076
-364,942	199,274	-0,032	0,035
-363,927	-200,000	0,014	0,069
-362,912	-200,000	-0,002	0,039
-361,898	112,551	0,094	-0,082
-360,883	161,131	0,045	-0,046
-359,869	-103,508	-0,109	-0,018
-358,854	-60,990	0,015	0,005
-357,839	-200,000	-0,039	-0,179
-356,825	-200,000	0,026	0,097
-355,810	61,715	0,095	0,068
-354,796	-46,918	-0,025	-0,009
-353,781	279,430	-0,061	-0,078
-352,766	-200,000	0,032	-0,118
-351,752	100,282	0,073	-0,061
-350,737	-200,000	-0,015	0,139
-349,723	654,990	0,054	0,099
-348,708	77,139	0,105	0,080
-347,693	-200,000	0,015	0,087
-346,679	143,743	-0,047	0,045
-345,664	58,151	-0,021	-0,015
-344,650	800,000	0,035	-0,086
-343,635	235,583	0,058	-0,069
-342,620	-200,000	-0,001	-0,158
-341,606	-200,000	-0,013	0,055
-340,591	-200,000	0,047	0,151
-339,577	-200,000	-0,008	-0,054
-338,562	-200,000	-0,017	-0,057
-337,548	-200,000	0,005	-0,047
-336,533	70,594	-0,127	0,094
-335,518	283,004	0,065	0,084
-334,504	536,484	-0,038	0,065
-333,489	-18,453	-0,073	-0,033
-332,475	68,414	0,093	-0,068
-331,460	-200,000	-0,014	-0,170
-330,445	71,324	-0,058	-0,043
-329,431	-200,000	-0,005	-0,154
-328,416	211,047	0,059	-0,066
-327,402	86,262	0,077	-0,061
-326,387	-121,240	0,048	-0,006
-325,372	-29,446	0,176	-0,072
-324,358	-200,000	0,015	0,048
-323,343	-200,000	0,004	-0,029
-322,329	-139,895	0,049	0,004
-321,314	-200,000	0,005	0,040
-320,299	-200,000	0,010	0,073
-319,285	-29,479	-0,135	0,055
-318,270	-27,101	-0,145	-0,060
-317,256	800,000	-0,024	0,067
-316,241	34,243	-0,037	-0,023
-315,226	-3,737	0,038	-0,019
-314,212	-140,102	0,035	0,003
-313,197	800,000	-0,024	0,074
-312,183	542,586	-0,075	-0,129
-311,168	151,069	-0,043	-0,042
-310,153	-200,000	0,008	-0,197
-309,139	-162,827	0,132	0,005
-308,124	387,665	0,033	0,049
-307,110	-77,267	0,053	-0,013
-306,095	800,000	0,047	0,120
-305,080	-200,000	0,062	0,226
-304,066	3,550	0,077	0,040
-303,051	346,564	-0,051	-0,072
-302,037	287,250	-0,052	0,067
-301,022	63,674	-0,096	-0,069
-300,008	800,000	0,036	0,086
-298,993	355,485	-0,100	0,143
-297,978	-28,658	0,036	0,015
-296,964	-109,631	0,029	-0,004
-295,949	184,320	0,079	-0,084
-294,935	-200,000	0,005	-0,099
-293,920	-200,000	-0,007	-0,121
-292,905	800,000	0,080	0,182
-291,891	157,058	0,117	0,115
-290,876	246,892	-0,082	0,099
-289,862	-31,563	0,063	0,025
-288,847	-106,658	0,060	0,009
-287,832	-200,000	0,017	-0,069
-286,818	427,914	-0,047	0,074
-285,803	154,001	-0,065	0,064
-284,789	-67,778	-0,014	0,004
-283,774	101,217	-0,042	0,035
-282,759	469,972	-0,074	-0,120
-281,745	-200,000	-0,013	0,051
-280,730	-200,000	0,022	-0,070
-279,716	-200,000	0,011	0,110
-278,701	-28,300	0,174	0,071
-277,686	-44,746	0,047	0,017
-276,672	215,174	0,100	0,113
-275,657	213,422	0,070	0,079
-274,643	403,539	-0,018	-0,026
-273,628	-14,457	-0,166	0,076
-272,613	-120,133	0,058	-0,007
-271,599	30,591	-0,015	-0,009
-270,584	37,040	0,028	0,018
-269,570	-125,825	-0,049	-0,005
-268,555	-168,866	0,122	0,003
-267,540	-200,000	0,041	-0,182
-266,526	-69,959	-0,100	0,027
-265,511	800,000	-0,020	0,044
-264,497	532,176	0,027	0,046
-263,482	-200,000	0,019	0,124
-262,467	-200,000	-0,038	0,148
-261,453	800,000	-0,035	-0,097
-260,438	-200,000	-0,023	-0,095
-259,424	32,068	-0,129	-0,080
-258,409	-200,000	-0,005	-0,056
-257,395	140,932	0,062	-0,058
-256,380	349,097	0,099	0,140
-255,365	-54,031	0,140	0,045
-254,351	-11,885	-0,084	0,039
-253,336	-129,353	0,099	0,010
-252,322	-200,000	-0,008	-0,097
-251,307	800,000	0,042	-0,083
-250,292	-37,922	0,026	-0,010
-249,278	-200,000	-0,023	0,090
-248,263	-200,000	-0,022	0,099
-247,249	335,297	0,043	-0,060
-246,234	-142,410	-0,107	0,007
-245,219	-200,000	-0,003	-0,049
-244,205	6,281	-0,119	-0,063
-243,190	-67,742	0,107	0,030
-242,176	126,640	-0,083	0,075
-241,161	-63,969	0,079	-0,023
-240,146	131,353	-0,050	-0,046
-239,132	120,024	0,014	-0,012
-238,117	152,058	0,112	0,109
-237,103	256,077	-0,060	-0,074
-236,088	800,000	0,021	-0,047
-235,073	800,000	0,018	-0,051
-234,059	-88,565	0,097	0,020
-233,044	10,424	-0,108	0,058
-232,030	3,779	0,036	-0,019
-231,015	-60,911	0,032	0,010
-230,000	-200,000	-0,026	-0,082
-228,986	-80,921	0,100	-0,024
-227,971	-39,952	0,068	0,025
-226,957	226,334	0,055	0,064
-225,942	-200,000	-0,002	0,050
-224,927	800,000	-0,043	-0,099
-223,913	137,891	-0,019	-0,018
-222,898	800,000	0,010	-0,022
-221,884	-200,000	-0,002	0,036
-220,869	-200,000	-0,005	-0,103
-219,855	-200,000	0,000	0,052
-218,840	-200,000	0,011	0,126
-217,825	-200,000	0,005	0,025
-216,811	-18,465	-0,113	-0,050
-215,796	-24,669	-0,110	0,047
-214,782	757,060	-0,030	-0,058
-213,767	-68,583	-0,117	0,032
-212,752	-57,966	0,066	0,020
-211,738	479,321	0,037	0,060
-210,723	800,000	0,087	0,217
-209,709	286,969	-0,015	-0,019
-208,694	20,879	-0,123	0,071
-207,679	440,098	-0,032	-0,049
-206,665	-200,000	-0,012	-0,139
-205,650	-96,087	-0,038	0,007
-204,636	54,371	0,035	0,024
-203,621	28,377	0,111	0,067
-202,606	658,140	0,060	0,110
-201,592	-62,174	-0,022	-0,006
-200,577	-200,000	0,001	-0,049
-199,563	-62,526	-0,065	-0,019
-198,548	-52,263	-0,064	0,021
-197,533	800,000	0,062	-0,149
-196,519	395,575	0,052	0,078
-195,504	-200,000	0,032	0,128
-194,490	142,972	-0,151	-0,143
-193,475	-200,000	0,010	-0,061
-192,460	-10,827	0,081	-0,038
-191,446	-32,933	-0,100	-0,039
-190,431	538,430	0,066	0,112
-189,417	478,436	-0,015	0,024
-188,402	336,802	0,081	-0,113
-187,387	188,290	-0,113	0,121
-186,373	-80,495	-0,157	0,037
-185,358	355,328	-0,057	-0,081
-184,344	800,000	-0,021	0,053
-183,329	800,000	-0,036	0,088
-182,315	800,000	0,059	0,157
-181,300	92,320	0,018	0,014
-180,285	262,493	-0,092	0,114
-179,271	-96,000	-0,052	0,010
-178,256	-163,599	-0,034	-0,001
-177,242	279,982	0,054	0,068
-176,227	-36,387	0,053	-0,020
-175,212	-200,000	0,042	0,140
-174,198	-48,796	-0,074	0,025
-173,183	765,780	0,016	0,031
-172,169	-43,033	0,074	-0,026
-171,154	195,466	0,031	-0,033
-170,139	62,839	0,050	0,036
-169,125	216,449	-0,050	0,056
-168,110	-200,000	-0,004	0,168
-167,096	141,489	-0,073	0,069
-166,081	-200,000	-0,005	-0,100
-165,066	-200,000	-0,018	-0,111
-164,052	-200,000	-0,018	-0,113
-163,037	414,805	-0,107	0,162
-162,023	-140,507	0,109	-0,008
-161,008	237,512	0,078	0,093
-159,993	-30,358	-0,006	0,002
-158,979	-121,806	0,066	-0,008
-157,964	285,467	0,026	-0,034
-156,950	-103,778	0,093	-0,015
-155,935	102,779	-0,065	0,054
-154,920	800,000	-0,025	0,052
-153,906	-67,310	0,075	-0,021
-152,891	-126,250	0,094	-0,010
-151,877	-200,000	-0,022	-0,095
-150,862	-70,515	-0,184	-0,049
-149,847	645,886	-0,062	-0,113
-148,833	-82,903	-0,076	-0,017
-147,818	-200,000	0,003	0,037
-146,804	143,569	-0,019	-0,018
-145,789	119,880	0,180	0,159
-144,775	800,000	-0,004	0,011
-143,760	-94,607	-0,031	-0,006
-142,745	125,102	-0,085	-0,076
-141,731	-200,000	0,014	0,145
-140,716	800,000	0,032	0,080
-139,702	800,000	0,018	-0,047
-138,687	800,000	0,019	0,040
-137,672	-108,966	0,032	-0,005
-136,658	387,828	0,028	-0,042
-135,643	464,298	-0,027	-0,043
-134,629	604,376	0,081	-0,144
-133,614	-63,805	0,063	-0,018
-132,599	-200,000	-0,004	0,124
-131,585	38,078	-0,068	-0,043
-130,570	-200,000	-0,021	0,103
-129,556	50,368	-0,117	0,078
-128,541	133,451	-0,063	-0,058
-127,526	168,189	0,124	-0,126
-126,512	19,726	0,128	0,073
-125,497	-104,258	-0,067	0,011
-124,483	219,183	0,098	0,111
-123,468	52,167	-0,109	0,074
-122,453	-200,000	0,024	0,101
-121,439	-200,000	0,000	0,071
-120,424	673,924	0,021	-0,039
-119,410	-200,000	0,013	0,080
-118,395	-200,000	0,009	0,195
-117,380	-200,000	0,013	0,154
-116,366	124,104	-0,090	0,081
-115,351	800,000	0,046	-0,134
-114,337	463,564	0,004	0,006
-113,322	-29,567	0,135	0,055
-112,307	190,666	-0,095	-0,102
-111,293	412,169	0,126	0,191
-110,278	516,624	0,061	0,101
-109,264	188,157	-0,033	-0,035
-108,249	-128,754	-0,162	0,016
-107,234	42,384	-0,015	-0,010
-106,220	-33,500	-0,202	0,079
-105,205	-200,000	-0,002	0,086
-104,191	8,573	0,057	-0,030
-103,176	152,996	0,054	0,052
-102,162	-200,000	-0,111	-0,000
-101,147	299,125	0,019	-0,024
-100,132	-200,000	0,016	-0,108
-99,118	800,000	0,026	-0,060
-98,103	51,869	0,074	0,050
-97,089	-106,262	0,081	0,013
-96,074	210,360	-0,112	0,125
-95,059	149,946	0,034	-0,033
-94,045	45,151	-0,112	-0,073
-93,030	-102,670	0,159	0,027
-92,016	-26,523	-0,029	0,012
-91,001	-50,273	0,102	-0,034
-89,986	81,108	-0,088	0,067
-88,972	-200,000	0,006	-0,042
-87,957	-200,000	-0,015	0,130
-86,943	-50,940	0,122	0,040
-85,928	-18,956	-0,202	-0,089
-84,913	800,000	0,014	0,035
-83,899	-200,000	-0,014	0,125
-82,884	800,000	-0,037	0,102
-81,870	-160,213	-0,092	-0,003
-80,855	233,582	0,070	0,082
-79,840	-98,152	0,038	0,007
-78,826	74,508	0,065	0,048
-77,811	196,505	-0,130	-0,141
-76,797	541,561	0,049	-0,083
-75,782	171,801	-0,084	0,085
-74,767	121,946	-0,022	0,019
-73,753	800,000	0,023	-0,048
-72,738	442,010	0,022	-0,034
-71,724	-177,971	-0,145	-0,002
-70,709	147,136	0,062	0,059
-69,694	800,000	-0,058	-0,181
-68,680	800,000	0,033	-0,074
-67,665	-200,000	0,006	0,054
-66,651	122,253	0,109	-0,097
-65,636	800,000	-0,017	-0,049
-64,622	582,736	-0,063	0,111
-63,607	27,901	-0,162	-0,096
-62,592	-200,000	-0,022	0,134
-61,578	-200,000	-0,004	0,021
-60,563	-58,061	0,065	0,020
-59,549	-200,000	0,019	0,168
-58,534	-27,234	-1,517	-0,623
-57,519	376,884	-1,434	-2,082
-56,505	-200,000	-0,525	-4,525
-55,490	197,339	0,838	0,907
-54,476	800,000	5,025	11,288
-53,461	-200,000	18,982	306,812
-52,446	800,000	738,167	2302,124
-51,432	568,383	1654,349	2859,725
-50,417	78,784	1669,780	1264,578
-49,403	22,000	1542,393	889,098
-48,388	15,900	1465,484	815,112
-47,373	17,829	1455,309	818,741
-46,359	16,898	1445,611	808,788
-45,344	14,148	1441,051	793,033
-44,330	14,096	1439,132	791,695
-43,315	14,100	1437,386	790,719
-42,300	14,131	1435,714	789,920
-41,286	14,152	1434,460	789,299
-40,271	14,139	1433,284	788,555
-39,257	14,124	1431,752	787,612
-38,242	14,149	1430,613	787,071
-37,227	14,163	1429,382	786,432
-36,213	14,189	1427,942	785,730
-35,198	14,162	1426,964	785,033
-34,184	14,211	1426,034	784,722
-33,169	14,108	1424,831	783,539
-32,154	14,184	1423,612	783,202
-31,140	14,168	1422,222	782,327
-30,125	14,198	1420,927	781,729
-29,111	14,183	1420,145	781,196
-28,096	14,157	1418,898	780,357
-27,082	14,104	1417,894	779,521
-26,067	14,090	1416,770	778,809
-25,052	14,139	1415,585	778,356
-24,038	14,105	1414,785	777,724
-23,023	14,055	1413,814	776,923
-22,009	14,081	1412,707	776,410
-20,994	14,057	1411,784	775,756
-19,979	14,052	1411,179	775,370
-18,965	13,975	1410,144	774,411
-17,950	14,025	1409,063	774,019
-16,936	14,031	1408,168	773,525
-15,921	13,993	1406,974	772,659
-14,906	13,987	1406,117	772,133
-13,892	14,003	1405,247	771,696
-12,877	13,931	1404,483	770,910
-11,863	14,021	1403,311	770,658
-10,848	13,978	1402,522	769,993
-9,833	13,958	1401,742	769,439
-8,819	13,935	1400,647	768,704
-7,804	13,931	1399,824	768,200
-6,790	13,931	1398,685	767,545
-5,775	13,882	1397,792	766,796
-4,760	13,860	1396,911	766,183
-3,746	13,914	1395,909	765,853
-2,731	13,949	1395,067	765,522
-1,717	13,890	1394,229	764,761
-0,702	13,874	1392,485	763,700
0,313	17,655	1310,589	736,335
1,327	34,031	705,220	434,146
2,342	52,119	123,886	83,473
3,356	4,322	16,609	8,590
4,371	-7,466	3,341	1,595
5,386	62,112	0,433	0,306
6,400	-200,000	-0,030	0,186
7,415	-60,596	-0,406	-0,121
8,429	164,365	-0,225	-0,224
9,444	-8,569	-0,360	-0,171
10,459	4,411	-0,269	-0,139
11,473	1,829	-0,297	-0,151
12,488	108,445	-0,158	-0,133
13,502	44,121	-0,406	-0,263
14,517	174,600	-0,271	-0,278
15,531	231,510	-0,354	-0,411
16,546	137,457	-0,201	-0,187
17,561	96,244	-0,419	-0,338
18,575	231,784	-0,151	0,175
19,590	100,679	-0,323	-0,265
20,604	11,740	-0,281	-0,152
21,619	78,088	-0,515	-0,388
22,634	153,370	-0,488	-0,473
23,648	167,903	-0,355	-0,358
24,663	141,852	-0,260	-0,244
25,677	-62,368	-0,326	-0,095
26,692	59,395	-0,311	-0,216
27,707	21,525	-0,366	-0,210
28,721	212,121	-0,371	-0,414
29,736	4,310	-0,384	-0,198
30,750	114,771	-0,307	-0,265
31,765	178,628	-0,281	-0,291
32,780	151,069	-0,413	-0,397
33,794	131,776	-0,362	-0,329
34,809	162,888	-0,278	-0,276
35,823	94,705	-0,383	-0,308
36,838	154,229	-0,421	-0,408
37,853	312,594	-0,311	-0,414
38,867	122,897	-0,383	-0,338
39,882	258,184	-0,224	-0,272
40,896	92,948	-0,300	-0,239
41,911	-17,531	-0,318	-0,140
42,926	81,977	-0,272	-0,208
43,940	127,583	-0,327	-0,293
44,955	-21,183	-0,493	-0,212
45,969	119,918	-0,446	-0,390
46,984	149,735	-0,232	-0,222
47,999	442,480	-0,173	-0,268
49,013	244,017	-0,131	-0,155
50,028	39,406	-0,403	-0,254
51,042	144,960	-0,298	-0,281
52,057	47,226	-0,371	-0,243
53,071	66,678	-0,315	-0,225
54,086	7,464	-0,332	-0,174
55,101	-86,976	-0,296	-0,063
56,115	-48,366	-0,376	-0,127
57,130	179,858	-0,359	-0,371
58,144	49,712	-0,342	-0,227
59,159	112,341	-0,351	-0,299
60,174	-13,746	-0,491	-0,223
61,188	84,723	-0,268	-0,207
62,203	230,470	-0,251	-0,290
63,217	-84,188	-0,328	-0,073
64,232	7,607	-0,258	-0,135
65,247	144,808	-0,354	-0,334
66,261	100,330	-0,286	-0,234
67,276	-51,145	-0,386	-0,127
68,290	51,245	-0,269	-0,179
69,305	-65,146	-0,311	-0,088
70,320	14,896	-0,249	-0,137
71,334	148,048	-0,284	-0,270
72,349	800,000	-0,101	-0,204
73,363	171,262	-0,255	-0,257
74,378	69,426	-0,348	-0,252
75,393	-6,636	-0,283	-0,135
76,407	105,786	-0,328	-0,273
77,422	157,925	-0,215	-0,210
78,436	1,824	-0,290	-0,147
79,451	-42,568	-0,334	-0,119
80,466	329,766	-0,192	-0,261
81,480	118,443	-0,253	-0,220
82,495	185,862	-0,281	-0,294
83,509	19,420	-0,318	-0,179
84,524	-25,722	-0,377	-0,156
85,539	326,359	-0,180	-0,243
86,553	37,850	-0,204	-0,127
87,568	192,599	-0,244	-0,259
88,582	-2,022	-0,377	-0,186
89,597	-43,145	-0,336	-0,119
90,611	-109,398	-0,222	-0,033
91,626	-67,014	-0,180	0,050
92,641	26,128	-0,298	-0,174
93,655	-15,306	-0,447	-0,200
94,670	102,148	-0,237	-0,194
95,684	55,139	-0,230	-0,156
96,699	15,037	-0,336	-0,184
97,714	800,000	-0,113	-0,222
98,728	81,616	-0,223	-0,169
99,743	29,224	-0,250	-0,149
100,757	292,327	-0,205	-0,262
101,772	138,662	-0,265	-0,244
102,787	217,428	-0,247	-0,276
103,801	230,556	-0,237	-0,273
104,816	-200,000	-0,226	0,000
105,830	31,525	-0,248	-0,149
106,845	11,678	-0,251	-0,135
107,860	-80,013	-0,379	-0,089
108,874	133,267	-0,355	-0,322
109,889	33,504	-0,421	-0,256
110,903	-17,444	-0,170	-0,075
111,918	78,466	-0,251	-0,188
112,933	169,381	-0,216	-0,217
113,947	163,836	-0,175	-0,173
114,962	255,041	-0,133	-0,159
115,976	403,582	-0,130	-0,192
116,991	228,201	-0,202	-0,231
118,006	52,145	-0,361	-0,241
119,020	53,259	-0,279	-0,187
120,035	119,404	-0,250	-0,216
121,049	152,365	-0,151	-0,145
122,064	209,651	-0,194	-0,213
123,079	-16,341	-0,253	-0,112
124,093	384,192	-0,248	-0,358
125,108	-25,772	-0,255	-0,105
126,122	200,033	-0,234	-0,252
127,137	82,220	-0,276	-0,210
128,151	67,520	-0,225	-0,161
129,166	-93,399	-0,350	-0,067
130,181	-37,882	-0,363	-0,134
131,195	292,680	-0,257	-0,329
132,210	12,851	-0,248	-0,134
133,224	102,238	-0,346	-0,283
134,239	-31,881	-0,208	-0,081
135,254	-106,229	-0,334	0,052
136,268	0,979	-0,265	-0,133
137,283	40,824	-0,187	-0,118
138,297	133,122	-0,341	-0,308
139,312	10,914	-0,252	-0,134
140,327	54,105	-0,211	-0,142
141,341	85,063	-0,158	-0,121
142,356	237,129	-0,131	-0,152
143,370	98,369	-0,209	-0,168
144,385	62,241	-0,290	-0,202
145,400	7,013	-0,315	-0,164
146,414	200,042	-0,292	-0,314
147,429	30,311	-0,329	-0,196
148,443	119,696	-0,186	-0,161
149,458	11,718	-0,160	-0,086
150,473	61,798	-0,214	-0,149
151,487	42,022	-0,255	-0,162
152,502	63,666	-0,308	-0,216
153,516	19,912	-0,326	-0,183
154,531	800,000	-0,090	-0,246
155,546	-25,214	-0,256	-0,106
156,560	270,578	-0,181	-0,222
157,575	132,112	-0,175	-0,158
158,589	-61,772	-0,287	-0,084
159,604	71,636	-0,176	-0,128
160,619	66,706	-0,372	-0,264
161,633	-62,809	-0,222	-0,064
162,648	84,950	-0,257	-0,197
163,662	364,536	-0,202	-0,285
164,677	-200,000	-0,004	-0,256
165,692	156,508	-0,225	-0,217
166,706	-44,933	-0,221	-0,076
167,721	152,121	-0,273	-0,260
168,735	122,450	-0,331	-0,289
169,750	114,975	-0,219	-0,187
170,764	100,894	-0,275	-0,223
171,779	-93,229	-0,233	-0,045
172,794	109,114	-0,197	-0,164
173,808	180,778	-0,194	-0,199
174,823	30,745	-0,286	-0,170
175,837	186,246	-0,341	-0,354
176,852	-33,058	-0,237	-0,091
177,867	8,569	-0,308	-0,161
178,881	800,000	-0,085	-0,168
179,896	107,509	-0,184	-0,153
180,910	63,876	-0,272	-0,190
181,925	142,840	-0,182	-0,168
182,940	-14,493	-0,239	-0,107
183,954	-141,288	-0,157	-0,011
184,969	24,441	-0,178	-0,102
185,983	20,040	-0,159	-0,089
186,998	-21,667	-0,217	-0,092
188,013	119,154	-0,191	-0,165
189,027	172,894	-0,143	-0,143
190,042	-36,372	-0,225	-0,084
191,056	232,701	-0,126	-0,144
192,071	354,016	-0,135	-0,188
193,086	311,878	-0,172	-0,225
194,100	96,411	-0,119	-0,095
195,115	169,393	-0,251	-0,250
196,129	2,304	-0,234	-0,117
197,144	39,512	-0,177	-0,110
198,159	203,700	-0,140	-0,151
199,173	57,828	-0,253	-0,172
200,188	50,626	-0,181	-0,119
201,202	271,868	-0,110	-0,136
202,217	232,865	-0,202	-0,231
203,232	-77,247	-0,198	-0,048
204,246	-41,697	-0,303	-0,108
205,261	-78,777	-0,179	-0,042
206,275	10,285	-0,133	-0,070
207,290	219,525	-0,142	-0,158
208,304	200,468	-0,099	-0,106
209,319	-94,816	-0,186	-0,035
210,334	71,006	-0,208	-0,150
211,348	198,323	-0,143	-0,153
212,363	303,974	-0,250	-0,323
213,377	26,787	-0,201	-0,117
214,392	214,610	-0,100	-0,110
215,407	-78,918	-0,224	-0,053
216,421	-95,892	-0,211	-0,039
217,436	67,318	-0,186	-0,132
218,450	599,076	-0,119	-0,205
219,465	157,829	-0,213	-0,205
220,480	181,298	-0,150	-0,153
221,494	111,542	-0,212	-0,178
222,509	221,294	-0,120	-0,134
223,523	384,244	-0,112	-0,161
224,538	126,014	-0,201	-0,176
225,553	221,232	-0,161	-0,180
226,567	151,054	-0,186	-0,176
227,582	60,731	-0,127	-0,087
228,596	-17,124	-0,235	-0,103
229,611	30,117	-0,206	-0,122
230,626	368,578	-0,101	-0,142
231,640	233,917	-0,091	-0,104
232,655	161,650	-0,139	-0,135
233,669	318,751	-0,165	-0,217
234,684	161,695	-0,246	-0,239
235,699	69,461	-0,278	-0,199
236,713	62,617	-0,231	-0,160
237,728	-12,415	-0,125	-0,056
238,742	110,173	-0,140	-0,117
239,757	93,153	-0,148	-0,116
240,772	310,096	-0,119	-0,155
241,786	67,441	-0,252	-0,178
242,801	764,160	-0,197	-0,373
243,815	105,217	-0,152	-0,124
244,830	-59,764	-0,229	-0,068
245,844	800,000	-0,084	-0,229
246,859	535,024	-0,189	-0,311
247,874	154,925	-0,211	-0,201
248,888	23,179	-0,221	-0,125
249,903	58,187	-0,146	-0,099
250,917	54,281	-0,228	-0,152
251,932	49,116	-0,160	-0,104
252,947	800,000	-0,070	-0,144
253,961	79,239	-0,252	-0,187
254,976	95,042	-0,338	-0,266
255,990	48,346	-0,162	-0,105
257,005	533,640	-0,093	-0,153
258,020	800,000	-0,070	-0,211
259,034	800,000	-0,060	-0,181
260,049	477,429	-0,170	-0,267
261,063	134,582	-0,120	-0,107
262,078	731,051	-0,089	-0,165
263,093	76,599	-0,177	-0,130
264,107	-5,829	-0,209	-0,099
265,122	178,608	-0,087	-0,088
266,136	245,905	-0,126	-0,147
267,151	108,513	-0,202	-0,167
268,166	-82,485	-0,151	0,034
269,180	-27,074	-0,258	-0,103
270,195	92,488	-0,308	-0,240
271,209	100,614	-0,252	-0,202
272,224	680,833	-0,120	-0,217
273,239	-113,637	-0,124	-0,017
274,253	-78,012	-0,134	-0,032
275,268	57,172	-0,179	-0,120
276,282	800,000	-0,105	-0,297
277,297	-200,000	-0,039	-0,244
278,312	119,062	-0,150	-0,128
279,326	81,707	-0,117	-0,087
280,341	46,283	-0,219	-0,140
281,355	800,000	-0,081	-0,184
282,370	-200,000	0,012	-0,177
283,384	72,198	-0,121	-0,087
284,399	382,717	-0,121	-0,173
285,414	800,000	-0,103	-0,198
286,428	130,919	-0,101	0,089
287,443	55,764	-0,220	-0,147
288,457	97,863	-0,116	-0,092
289,472	800,000	-0,096	-0,229
290,487	387,292	-0,093	-0,133
291,501	2,283	-0,159	-0,079
292,516	329,377	-0,131	-0,174
293,530	195,299	-0,128	-0,134
294,545	-36,374	-0,085	0,032
295,560	112,123	-0,097	-0,081
296,574	26,660	-0,287	-0,165
297,589	314,007	-0,126	-0,164
298,603	-87,801	-0,301	-0,062
299,618	160,412	-0,218	-0,210
300,633	800,000	-0,073	-0,190
301,647	-149,794	-0,152	0,008
302,662	228,256	0,052	-0,058
303,676	-61,472	-0,086	-0,025
304,691	55,405	-0,147	-0,098
305,706	27,479	-0,153	-0,089
306,720	112,762	-0,138	-0,115
307,735	757,233	-0,062	-0,116
308,749	-23,714	-0,227	-0,094
309,764	278,413	-0,076	-0,093
310,779	-31,608	-0,137	-0,053
311,793	2,462	-0,189	-0,094
312,808	57,390	-0,225	-0,151
313,822	-41,619	-0,188	-0,066
314,837	231,355	-0,126	-0,142
315,852	8,420	-0,196	-0,101
316,866	128,359	-0,207	-0,182
317,881	193,200	-0,134	-0,139
318,895	-200,000	-0,092	-0,354
319,910	-200,000	-0,056	-0,175
320,925	-21,594	-0,252	-0,105
321,939	245,137	-0,156	-0,181
322,954	-82,906	-0,145	-0,032
323,968	18,741	-0,124	-0,068
324,983	-49,575	-0,178	-0,058
325,997	-107,210	-0,093	-0,014
327,012	68,307	-0,136	-0,096
328,027	136,820	-0,139	-0,125
329,041	-123,605	-0,222	-0,024
330,056	295,541	-0,117	-0,148
331,070	180,986	-0,078	-0,079
332,085	28,983	-0,067	0,039
333,100	-107,593	-0,208	-0,031
334,114	-87,057	-0,162	-0,034
335,129	305,953	-0,052	-0,067
336,143	64,282	-0,192	-0,133
337,158	393,393	-0,143	-0,205
338,173	14,863	-0,070	0,037
339,187	119,662	-0,160	-0,136
340,202	-200,000	-0,046	-0,144
341,216	335,961	-0,151	-0,202
342,231	418,381	-0,161	-0,238
343,246	348,858	-0,124	-0,169
344,260	800,000	-0,072	-0,175
345,275	-84,277	-0,133	-0,029
346,289	117,229	-0,166	-0,140
347,304	1,105	-0,129	0,063
348,319	80,737	-0,189	-0,140
349,333	81,207	-0,134	-0,099
350,348	-124,955	-0,119	0,012
351,362	136,779	-0,059	-0,053
352,377	800,000	-0,038	0,075
353,392	26,020	-0,128	-0,073
354,406	-118,076	-0,148	-0,018
355,421	209,517	1311,138	1412,641
356,435	161,258	1471,428	1413,138
