DTS Sentinel unit serial number:	SN410029Multiplexer serial number:	ORYXHardware model number:	OX2-SRSoftware version number:	ORYX F/W v4,00 Oryx Data Collector v3.7.2.0data status	okinstallation	B3 Nyhavnadifferential loss correction	single-endedforward channel	channel 1reverse channel	N/Adate	2023/11/30time	12:32:30forward acquisition time	300,00reverse acquisition time	0,00gamma	499,1914k internal	0,3212k external	0,3212temperature offset calibration	1,0000default loss term (dB/km)	0,3820temperature slope calibration	1,0000multiplexer offset coefficient	1,0000multiplexer slope coefficient	1,0000fibre end	0,00T internal ref (°C)	9,74T ext. ref 1 (°C)	-4,34T ext. ref 2 (°C)	-4,40length (m)	temperature (°C)	Stokes	anti-Stokes-744,400	80,865	-0,276	-0,215
-743,385	-200,000	0,026	0,242
-742,371	800,000	-0,132	-0,278
-741,356	-200,000	-0,021	0,365
-740,342	76,078	-0,145	-0,111
-739,327	-200,000	0,037	0,251
-738,312	80,830	-0,178	-0,139
-737,298	800,000	-0,101	0,271
-736,283	502,058	-0,081	-0,136
-735,269	-200,000	0,029	0,304
-734,254	666,336	-0,222	-0,417
-733,239	47,084	-0,121	0,082
-732,225	-200,000	-0,026	-0,323
-731,210	12,386	0,053	-0,030
-730,196	-200,000	-0,005	-0,087
-729,181	-200,000	0,006	-0,075
-728,167	-134,112	-0,167	-0,015
-727,152	565,955	0,009	0,016
-726,137	450,256	0,051	0,082
-725,123	-6,818	-0,158	-0,077
-724,108	453,433	-0,064	-0,103
-723,094	800,000	0,065	-0,187
-722,079	-200,000	-0,021	0,083
-721,064	-18,193	-0,098	-0,044
-720,050	98,408	0,048	-0,040
-719,035	-22,310	-0,097	-0,042
-718,021	-112,894	-0,048	-0,007
-717,006	-95,826	-0,214	0,041
-715,991	-93,326	0,062	0,012
-714,977	-87,308	-0,077	-0,017
-713,962	49,830	0,012	0,008
-712,948	-200,000	-0,012	-0,113
-711,933	402,633	-0,043	0,066
-710,918	20,556	-0,107	-0,062
-709,904	-155,962	-0,125	-0,006
-708,889	29,070	0,053	0,032
-707,875	-28,831	0,069	0,029
-706,860	19,607	-0,073	0,042
-705,845	-200,000	0,016	0,071
-704,831	-101,494	0,066	0,012
-703,816	92,819	0,058	-0,048
-702,802	-200,000	-0,024	-0,077
-701,787	-20,670	-0,091	-0,040
-700,772	-200,000	0,028	-0,172
-699,758	734,303	0,058	0,113
-698,743	-140,459	-0,045	-0,003
-697,729	-200,000	0,003	0,031
-696,714	-173,428	-0,135	0,003
-695,699	356,062	-0,096	-0,139
-694,685	276,104	-0,176	-0,227
-693,670	800,000	-0,038	-0,084
-692,656	295,771	-0,082	0,109
-691,641	95,882	-0,048	-0,039
-690,627	174,170	0,104	0,109
-689,612	-200,000	0,121	0,000
-688,597	-70,903	-0,024	0,007
-687,583	800,000	-0,083	-0,185
-686,568	800,000	-0,037	-0,107
-685,554	79,488	-0,081	-0,063
-684,539	-123,244	0,090	-0,010
-683,524	800,000	-0,044	-0,124
-682,510	17,229	-0,088	-0,050
-681,495	800,000	0,027	-0,054
-680,481	-200,000	-0,013	-0,119
-679,466	-200,000	-0,001	0,006
-678,451	-18,760	-0,057	-0,026
-677,437	-87,331	0,111	-0,024
-676,422	800,000	-0,044	0,114
-675,408	800,000	-0,033	-0,092
-674,393	-165,127	-0,052	-0,002
-673,378	760,541	-0,048	-0,095
-672,364	-200,000	-0,010	-0,225
-671,349	-149,702	-0,069	0,004
-670,335	-200,000	0,008	-0,204
-669,320	800,000	-0,023	0,055
-668,305	-106,380	0,042	0,007
-667,291	304,716	0,046	-0,062
-666,276	75,049	-0,074	0,056
-665,262	110,290	0,073	-0,064
-664,247	18,654	0,131	-0,075
-663,232	-14,001	0,079	-0,037
-662,218	-73,357	0,039	-0,010
-661,203	-200,000	0,004	-0,067
-660,189	538,377	-0,003	0,004
-659,174	691,802	-0,039	-0,075
-658,159	90,280	-0,042	-0,034
-657,145	-153,755	-0,051	0,002
-656,130	-200,000	0,007	-0,074
-655,116	-153,045	-0,033	-0,002
-654,101	-171,743	-0,127	-0,003
-653,086	98,848	-0,057	0,048
-652,072	345,102	-0,045	-0,064
-651,057	-200,000	-0,006	-0,170
-650,043	800,000	-0,057	-0,155
-649,028	-200,000	-0,018	-0,134
-648,014	39,329	-0,056	-0,036
-646,999	-200,000	0,000	-0,140
-645,984	136,566	0,048	0,045
-644,970	389,163	-0,065	-0,097
-643,955	-200,000	0,031	-0,233
-642,941	-106,119	0,041	-0,007
-641,926	67,676	0,120	-0,089
-640,911	800,000	0,023	-0,047
-639,897	33,287	0,073	-0,045
-638,882	611,100	-0,038	-0,069
-637,868	-131,436	-0,092	-0,009
-636,853	800,000	0,082	-0,172
-635,838	-87,143	-0,195	-0,042
-634,824	800,000	0,047	-0,137
-633,809	-181,441	0,049	-0,001
-632,795	800,000	0,001	0,003
-631,780	138,305	0,065	-0,062
-630,765	800,000	-0,025	-0,074
-629,751	-73,558	0,069	-0,018
-628,736	-200,000	-0,016	-0,142
-627,722	132,628	0,097	-0,090
-626,707	-200,000	-0,019	0,102
-625,692	-200,000	-0,012	0,063
-624,678	-42,253	-0,238	0,087
-623,663	800,000	-0,016	-0,033
-622,649	42,840	-0,122	-0,080
-621,634	-34,477	0,066	-0,026
-620,619	-200,000	-0,021	-0,115
-619,605	800,000	0,049	0,107
-618,590	800,000	-0,023	-0,059
-617,576	113,407	0,093	0,082
-616,561	-200,000	-0,030	-0,104
-615,546	-42,527	-0,051	-0,019
-614,532	-98,704	0,075	-0,014
-613,517	800,000	-0,035	-0,108
-612,503	-14,793	-0,097	-0,045
-611,488	65,339	-0,020	0,014
-610,474	43,443	-0,116	0,076
-609,459	-125,238	0,134	0,015
-608,444	64,263	-0,055	-0,040
-607,430	800,000	0,050	-0,158
-606,415	85,931	0,128	-0,101
-605,401	-6,418	0,067	0,033
-604,386	103,746	0,025	-0,021
-603,371	127,597	0,058	-0,053
-602,357	-29,397	0,065	0,027
-601,342	189,093	0,007	0,008
-600,328	800,000	-0,036	0,080
-599,313	246,236	-0,041	-0,050
-598,298	-9,521	-0,030	-0,014
-597,284	137,944	0,034	0,032
-596,269	-33,388	0,029	0,012
-595,255	291,944	-0,036	0,047
-594,240	379,071	-0,048	-0,071
-593,225	137,282	-0,077	0,073
-592,211	-200,000	-0,001	0,012
-591,196	-183,507	0,029	-0,000
-590,182	-40,053	0,118	0,044
-589,167	330,970	-0,077	0,107
-588,152	-9,443	-0,037	0,018
-587,138	1,340	0,071	-0,037
-586,123	-147,832	-0,037	-0,002
-585,109	-100,656	-0,054	0,009
-584,094	-10,859	0,101	-0,048
-583,079	304,167	-0,067	-0,090
-582,065	69,076	0,123	-0,091
-581,050	531,262	-0,046	0,078
-580,036	-34,514	-0,109	0,043
-579,021	-200,000	-0,008	0,060
-578,006	288,437	-0,049	-0,064
-576,992	255,292	-0,026	-0,032
-575,977	63,878	-0,018	-0,013
-574,963	-157,518	0,137	0,006
-573,948	-200,000	0,004	0,042
-572,934	800,000	0,060	-0,145
-571,919	800,000	0,032	-0,075
-570,904	-200,000	0,017	-0,102
-569,890	-20,169	0,049	0,022
-568,875	316,445	0,057	0,078
-567,861	-72,476	-0,072	0,019
-566,846	-62,133	0,224	0,067
-565,831	-34,288	-0,112	0,044
-564,817	549,411	-0,086	0,148
-563,802	-200,000	0,002	-0,167
-562,788	68,576	0,096	-0,071
-561,773	543,185	-0,018	0,032
-560,758	89,720	0,084	0,067
-559,744	-200,000	-0,017	0,097
-558,729	-59,516	0,094	-0,029
-557,715	-200,000	-0,007	0,057
-556,700	59,333	-0,146	0,104
-555,685	800,000	-0,000	-0,001
-554,671	84,145	-0,036	-0,029
-553,656	-200,000	-0,001	0,151
-552,642	-200,000	-0,001	-0,101
-551,627	-200,000	0,013	0,061
-550,612	-105,101	0,052	-0,008
-549,598	-75,299	-0,082	0,021
-548,583	99,303	-0,060	-0,050
-547,569	708,652	0,075	-0,143
-546,554	180,728	-0,065	0,068
-545,539	364,582	-0,049	0,072
-544,525	364,632	-0,089	0,130
-543,510	512,424	-0,130	-0,218
-542,496	476,767	-0,113	-0,185
-541,481	-200,000	-0,001	-0,133
-540,466	-200,000	-0,009	0,046
-539,452	-200,000	0,006	-0,059
-538,437	-200,000	-0,011	0,086
-537,423	-116,233	0,057	0,008
-536,408	800,000	0,036	-0,079
-535,393	-121,949	-0,090	-0,010
-534,379	429,797	0,085	0,132
-533,364	270,145	0,058	-0,074
-532,350	582,826	0,035	0,063
-531,335	-90,113	-0,104	0,022
-530,321	-200,000	-0,007	-0,077
-529,306	-93,065	-0,130	-0,026
-528,291	95,457	-0,052	-0,042
-527,277	-19,592	-0,021	0,009
-526,262	303,748	-0,029	0,039
-525,248	-200,000	-0,001	-0,054
-524,233	800,000	0,131	0,265
-523,218	800,000	0,036	-0,100
-522,204	450,827	0,016	0,025
-521,189	-200,000	0,001	0,041
-520,175	103,912	-0,017	-0,014
-519,160	-45,580	-0,115	-0,041
-518,145	85,722	0,080	-0,064
-517,131	-26,128	0,049	-0,020
-516,116	386,939	0,036	-0,054
-515,102	-200,000	0,011	-0,125
-514,087	800,000	-0,016	0,035
-513,072	800,000	-0,037	0,084
-512,058	468,736	-0,018	0,029
-511,043	-143,864	0,121	0,008
-510,029	36,574	0,040	0,025
-509,014	366,793	-0,028	0,041
-507,999	249,423	-0,020	-0,024
-506,985	-12,359	0,081	-0,038
-505,970	66,977	-0,092	-0,067
-504,956	-200,000	0,004	-0,067
-503,941	-115,678	0,052	-0,007
-502,926	-200,000	-0,014	0,214
-501,912	-77,116	0,074	-0,018
-500,897	-95,574	0,088	-0,017
-499,883	180,621	-0,095	0,100
-498,868	229,082	0,066	-0,078
-497,853	-200,000	-0,020	-0,127
-496,839	36,788	-0,122	0,077
-495,824	241,890	0,089	-0,107
-494,810	72,474	0,059	0,044
-493,795	1,346	0,142	0,073
-492,781	-40,228	0,063	-0,023
-491,766	-136,376	-0,124	0,010
-490,751	-200,000	0,035	-0,137
-489,737	-87,629	-0,127	0,027
-488,722	-24,495	0,019	-0,008
-487,708	-170,797	0,200	0,005
-486,693	800,000	0,093	0,254
-485,678	379,899	0,104	0,154
-484,664	70,727	0,047	-0,035
-483,649	-52,074	0,034	0,011
-482,635	-34,004	-0,037	-0,015
-481,620	-200,000	-0,019	0,127
-480,605	-79,240	0,045	-0,011
-479,591	208,898	0,038	0,042
-478,576	-123,515	0,037	0,004
-477,562	-72,343	-0,086	-0,023
-476,547	-200,000	-0,007	0,054
-475,532	-52,536	-0,085	-0,028
-474,518	215,508	-0,040	-0,046
-473,503	-181,230	0,033	-0,000
-472,489	-200,000	0,019	0,126
-471,474	440,191	0,040	0,063
-470,459	440,341	0,022	-0,034
-469,445	-83,101	-0,117	0,027
-468,430	138,295	0,068	0,064
-467,416	25,367	-0,170	-0,101
-466,401	284,093	-0,027	0,035
-465,386	-200,000	-0,001	0,037
-464,372	58,119	-0,242	0,170
-463,357	-200,000	-0,003	-0,065
-462,343	-140,159	0,108	0,008
-461,328	-58,531	-0,054	0,017
-460,313	-113,233	-0,051	0,007
-459,299	246,097	-0,041	0,050
-458,284	800,000	-0,037	0,076
-457,270	75,993	0,007	-0,005
-456,255	-200,000	-0,023	0,095
-455,241	-43,958	-0,030	0,011
-454,226	-200,000	-0,018	-0,082
-453,211	0,286	0,029	0,015
-452,197	-119,074	0,183	-0,023
-451,182	-200,000	0,001	0,162
-450,168	-15,835	-0,068	0,031
-449,153	27,408	-0,047	0,028
-448,138	-6,336	-0,089	0,043
-447,124	-85,853	0,032	0,007
-446,109	95,364	0,019	-0,015
-445,095	172,564	-0,038	0,039
-444,080	8,653	0,201	0,108
-443,065	800,000	-0,046	-0,112
-442,051	315,166	-0,059	0,080
-441,036	-119,178	-0,071	0,009
-440,022	800,000	-0,024	0,054
-439,007	-200,000	-0,018	0,102
-437,992	-200,000	0,037	0,124
-436,978	-200,000	0,007	0,134
-435,963	62,261	0,072	0,052
-434,949	104,641	0,092	-0,078
-433,934	737,481	0,030	0,059
-432,919	3,653	-0,047	0,024
-431,905	-200,000	-0,020	-0,073
-430,890	-158,720	-0,057	-0,002
-429,876	-95,870	0,206	-0,039
-428,861	419,381	-0,027	-0,041
-427,846	800,000	0,018	0,038
-426,832	60,462	-0,141	-0,100
-425,817	779,176	-0,045	-0,089
-424,803	115,666	-0,040	0,035
-423,788	199,325	0,105	-0,116
-422,773	-89,691	0,059	0,012
-421,759	-200,000	-0,008	-0,069
-420,744	122,507	0,052	0,046
-419,730	-200,000	-0,015	0,131
-418,715	800,000	-0,073	-0,159
-417,701	800,000	-0,008	0,021
-416,686	132,908	-0,038	-0,035
-415,671	547,568	0,077	-0,132
-414,657	783,626	0,064	0,125
-413,642	-16,351	0,075	0,034
-412,628	-25,872	-0,086	-0,036
-411,613	48,967	0,079	-0,053
-410,598	59,663	-0,047	-0,033
-409,584	-200,000	-0,024	-0,189
-408,569	227,831	-0,082	-0,095
-407,555	112,933	0,104	0,090
-406,540	-200,000	0,015	0,052
-405,525	363,606	-0,037	0,053
-404,511	287,510	-0,041	-0,053
-403,496	80,288	-0,104	0,080
-402,482	-200,000	0,015	-0,099
-401,467	-132,598	0,065	0,006
-400,452	800,000	0,034	0,089
-399,438	35,262	0,051	-0,032
-398,423	-64,025	-0,095	0,028
-397,409	-200,000	-0,026	0,145
-396,394	-200,000	0,005	-0,043
-395,379	753,425	0,035	0,067
-394,365	-31,123	0,106	0,043
-393,350	119,346	-0,038	-0,034
-392,336	170,375	0,024	0,025
-391,321	800,000	0,039	-0,106
-390,306	169,996	-0,073	-0,075
-389,292	81,964	-0,033	-0,026
-388,277	-200,000	-0,018	-0,079
-387,263	-200,000	0,020	0,172
-386,248	50,954	-0,028	-0,019
-385,233	-12,033	-0,066	-0,031
-384,219	336,791	-0,148	-0,207
-383,204	-200,000	-0,019	-0,098
-382,190	800,000	-0,068	-0,212
-381,175	693,636	0,051	-0,096
-380,160	-200,000	0,008	0,100
-379,146	-200,000	-0,001	-0,066
-378,131	-200,000	-0,020	-0,106
-377,117	800,000	-0,024	-0,053
-376,102	497,535	-0,098	-0,162
-375,088	-48,011	-0,210	-0,072
-374,073	-200,000	0,002	-0,120
-373,058	-200,000	0,003	0,017
-372,044	171,103	0,038	-0,039
-371,029	139,186	-0,060	0,056
-370,015	-98,347	-0,080	0,014
-369,000	-22,076	-0,033	0,014
-367,985	245,222	-0,036	-0,044
-366,971	-200,000	-0,009	-0,061
-365,956	419,956	-0,054	-0,083
-364,942	-171,085	0,133	-0,003
-363,927	-93,371	0,082	-0,016
-362,912	-200,000	0,014	0,081
-361,898	-88,326	0,112	0,024
-360,883	-200,000	-0,009	-0,070
-359,869	63,956	0,150	-0,107
-358,854	17,925	-0,067	0,038
-357,839	-82,998	0,086	0,020
-356,825	-83,833	0,142	-0,032
-355,810	-200,000	-0,011	-0,079
-354,796	-105,732	-0,123	0,020
-353,781	91,012	-0,079	-0,063
-352,766	-200,000	0,031	-0,233
-351,752	-200,000	-0,008	-0,123
-350,737	301,389	0,077	0,102
-349,723	-81,416	0,076	0,018
-348,708	-18,092	0,088	-0,039
-347,693	-8,101	0,018	-0,009
-346,679	154,279	-0,064	-0,063
-345,664	800,000	-0,019	-0,052
-344,650	-52,175	-0,088	0,029
-343,635	624,254	0,031	0,056
-342,620	800,000	0,020	0,060
-341,606	-200,000	0,005	0,087
-340,591	-200,000	-0,011	0,053
-339,577	-200,000	0,004	0,025
-338,562	292,802	-0,064	0,083
-337,548	-112,974	-0,108	0,015
-336,533	-200,000	-0,007	0,063
-335,518	-74,130	0,125	-0,032
-334,504	-8,015	-0,073	0,035
-333,489	-92,977	-0,083	0,016
-332,475	-32,613	0,034	0,013
-331,460	-4,519	-0,031	0,015
-330,445	-132,904	-0,131	0,012
-329,431	-200,000	-0,004	0,056
-328,416	-200,000	0,009	0,074
-327,402	-34,307	0,058	-0,023
-326,387	-68,142	0,158	-0,044
-325,372	-200,000	-0,024	0,000
-324,358	357,932	0,046	0,066
-323,343	375,232	-0,063	-0,092
-322,329	204,579	-0,004	-0,005
-321,314	-160,725	-0,114	-0,004
-320,299	800,000	0,065	0,146
-319,285	526,058	0,046	0,077
-318,270	541,430	-0,107	-0,182
-317,256	105,304	0,055	-0,046
-316,241	-138,559	-0,126	-0,010
-315,226	131,512	0,042	-0,038
-314,212	-62,040	0,043	0,013
-313,197	510,417	0,083	0,138
-312,183	731,063	0,023	0,043
-311,168	770,220	-0,068	0,132
-310,153	42,602	-0,061	0,039
-309,139	109,434	-0,112	-0,096
-308,124	-49,420	-0,076	0,026
-307,110	-16,200	0,100	0,045
-306,095	-74,883	-0,070	-0,018
-305,080	800,000	-0,030	0,085
-304,066	-110,587	-0,193	-0,028
-303,051	-30,448	-0,109	-0,044
-302,037	367,741	0,049	-0,071
-301,022	-200,000	0,012	0,072
-300,008	-108,499	0,128	0,019
-298,993	15,327	0,030	-0,017
-297,978	260,163	0,040	-0,050
-296,964	-38,906	-0,095	-0,035
-295,949	-151,295	0,071	-0,004
-294,935	35,794	0,075	-0,047
-293,920	-69,534	-0,067	-0,018
-292,905	800,000	-0,029	0,059
-291,891	800,000	0,029	0,083
-290,876	481,603	0,061	0,098
-289,862	399,488	0,064	0,096
-288,847	32,672	-0,111	-0,068
-287,832	26,409	-0,058	-0,034
-286,818	97,151	-0,040	0,033
-285,803	-29,204	0,125	0,051
-284,789	504,291	-0,058	0,096
-283,774	450,964	0,036	0,057
-282,759	-200,000	0,000	0,064
-281,745	-200,000	-0,007	-0,031
-280,730	800,000	0,050	-0,122
-279,716	-134,230	-0,150	-0,013
-278,701	642,033	0,053	0,097
-277,686	487,405	0,011	-0,018
-276,672	-85,470	0,043	0,009
-275,657	217,107	0,038	-0,043
-274,643	-63,451	-0,114	0,033
-273,628	800,000	0,005	-0,013
-272,613	-200,000	-0,030	0,099
-271,599	-200,000	0,003	0,061
-270,584	800,000	0,040	-0,095
-269,570	-61,909	-0,014	0,004
-268,555	-200,000	-0,032	0,111
-267,540	608,581	0,018	0,032
-266,526	800,000	-0,040	-0,084
-265,511	-2,910	0,097	-0,048
-264,497	-97,738	-0,035	-0,006
-263,482	69,782	-0,055	0,040
-262,467	-200,000	-0,003	-0,013
-261,453	-200,000	0,031	0,103
-260,438	-200,000	-0,014	0,159
-259,424	447,389	-0,055	0,086
-258,409	-200,000	0,001	0,020
-257,395	275,129	-0,025	0,032
-256,380	531,526	-0,019	0,031
-255,365	780,358	0,024	0,046
-254,351	-45,570	0,110	-0,039
-253,336	455,916	-0,114	0,181
-252,322	-200,000	-0,026	-0,202
-251,307	-200,000	-0,003	-0,112
-250,292	-151,853	0,173	-0,009
-249,278	109,090	0,140	0,119
-248,263	800,000	-0,015	-0,047
-247,249	-98,403	-0,063	0,011
-246,234	156,328	-0,078	-0,077
-245,219	726,267	0,096	-0,182
-244,205	-200,000	0,022	-0,172
-243,190	198,019	-0,058	-0,063
-242,176	46,281	0,091	-0,060
-241,161	596,942	-0,073	0,129
-240,146	-4,452	0,030	-0,015
-239,132	-200,000	0,006	0,036
-238,117	114,534	-0,049	-0,042
-237,103	-200,000	-0,013	-0,086
-236,088	-200,000	-0,009	0,083
-235,073	293,399	0,043	0,056
-234,059	377,186	0,119	0,173
-233,044	742,054	0,013	-0,025
-232,030	153,559	-0,032	0,031
-231,015	0,108	-0,014	-0,007
-230,000	-136,461	0,086	0,007
-228,986	19,947	-0,146	-0,083
-227,971	-200,000	0,001	0,232
-226,957	800,000	0,032	0,073
-225,942	599,815	-0,066	0,116
-224,927	-36,061	-0,118	0,045
-223,913	800,000	0,035	-0,073
-222,898	-200,000	0,015	-0,087
-221,884	46,359	0,078	0,051
-220,869	549,722	0,048	0,082
-219,855	66,777	0,071	0,051
-218,840	165,688	-0,109	-0,110
-217,825	264,250	0,058	0,072
-216,811	-200,000	0,024	-0,091
-215,796	-72,106	-0,024	-0,006
-214,782	800,000	0,063	-0,151
-213,767	-128,870	-0,064	0,006
-212,752	-200,000	0,018	0,074
-211,738	483,255	0,058	0,094
-210,723	-143,891	0,065	0,004
-209,709	800,000	0,022	0,060
-208,694	-200,000	0,023	0,077
-207,679	-200,000	-0,021	-0,073
-206,665	706,171	0,092	0,174
-205,650	51,665	0,018	0,012
-204,636	800,000	-0,041	0,094
-203,621	426,931	-0,031	0,048
-202,606	-10,174	0,147	0,069
-201,592	20,092	-0,069	0,040
-200,577	771,797	-0,017	-0,033
-199,563	-200,000	-0,007	-0,081
-198,548	-14,853	0,099	-0,045
-197,533	-67,693	-0,081	0,022
-196,519	-90,683	0,087	0,018
-195,504	-181,482	-0,054	0,001
-194,490	800,000	0,042	-0,110
-193,475	235,593	0,055	-0,064
-192,460	25,591	-0,103	0,061
-191,446	225,706	-0,015	-0,018
-190,431	375,554	0,023	0,033
-189,417	246,229	0,089	0,106
-188,402	-91,661	-0,105	0,021
-187,387	-200,000	-0,019	-0,087
-186,373	-13,686	-0,060	-0,028
-185,358	-200,000	0,004	0,105
-184,344	81,532	0,101	0,077
-183,329	-200,000	0,011	-0,072
-182,315	180,857	-0,068	0,071
-181,300	319,051	-0,021	-0,028
-180,285	436,674	-0,074	-0,114
-179,271	179,860	0,084	-0,087
-178,256	209,784	-0,079	0,088
-177,242	53,329	0,030	0,020
-176,227	547,928	-0,080	0,136
-175,212	800,000	-0,015	-0,044
-174,198	800,000	-0,056	0,121
-173,183	314,207	0,059	0,079
-172,169	-99,003	0,063	-0,011
-171,154	-200,000	-0,008	-0,105
-170,139	75,014	0,087	-0,065
-169,125	21,370	0,107	0,062
-168,110	-7,437	-0,146	0,070
-167,096	82,250	-0,122	0,094
-166,081	-200,000	-0,006	-0,060
-165,066	-57,399	-0,053	0,016
-164,052	-160,430	0,110	-0,004
-163,037	28,988	0,033	-0,020
-162,023	37,660	0,079	-0,049
-161,008	-136,976	-0,063	0,005
-159,993	-200,000	0,021	0,112
-158,979	96,536	0,050	0,041
-157,964	-92,961	0,080	-0,016
-156,950	-200,000	-0,004	0,071
-155,935	79,508	0,092	0,070
-154,920	-200,000	0,014	0,084
-153,906	-25,987	0,092	-0,038
-152,891	-72,126	-0,040	0,011
-151,877	44,120	-0,142	-0,092
-150,862	-200,000	-0,056	-0,221
-149,847	-76,085	0,147	0,036
-148,833	-2,700	0,033	-0,016
-147,818	680,486	0,058	-0,108
-146,804	81,213	0,096	0,073
-145,789	-6,683	0,139	0,067
-144,775	604,370	-0,043	0,077
-143,760	157,567	0,006	0,006
-142,745	-64,616	-0,140	0,040
-141,731	-200,000	-0,024	-0,114
-140,716	28,283	-0,068	-0,041
-139,702	-200,000	0,034	-0,182
-138,687	-139,567	-0,029	0,002
-137,672	800,000	-0,037	0,102
-136,658	800,000	-0,007	-0,019
-135,643	-200,000	-0,001	-0,054
-134,629	153,320	0,083	0,080
-133,614	-115,897	0,075	-0,010
-132,599	328,372	0,056	-0,076
-131,585	800,000	0,051	0,156
-130,570	81,561	-0,077	-0,059
-129,556	60,145	0,047	-0,033
-128,541	399,906	0,065	-0,096
-127,526	45,869	-0,026	0,017
-126,512	21,235	-0,028	-0,016
-125,497	19,379	0,047	0,026
-124,483	207,599	-0,066	0,072
-123,468	-159,634	-0,115	0,004
-122,453	800,000	0,029	-0,070
-121,439	206,247	0,057	0,063
-120,424	3,760	-0,102	-0,052
-119,410	-200,000	0,016	-0,052
-118,395	132,217	0,053	0,048
-117,380	331,739	0,106	0,145
-116,366	-200,000	0,020	-0,067
-115,351	275,021	0,018	-0,022
-114,337	-200,000	0,005	-0,067
-113,322	360,267	-0,074	-0,106
-112,307	434,791	0,121	-0,186
-111,293	381,340	-0,055	-0,080
-110,278	800,000	-0,043	0,100
-109,264	141,024	0,050	0,047
-108,249	800,000	0,024	0,066
-107,234	-200,000	0,008	0,046
-106,220	295,295	0,041	0,053
-105,205	-166,561	0,119	0,003
-104,191	-12,706	-0,036	0,016
-103,176	27,004	0,083	0,049
-102,162	69,470	-0,092	-0,067
-101,147	-142,673	-0,095	0,006
-100,132	-88,796	-0,094	0,020
-99,118	-200,000	0,033	-0,127
-98,103	50,841	0,142	0,095
-97,089	-58,620	0,057	-0,017
-96,074	7,145	0,116	0,061
-95,059	-119,521	-0,051	-0,006
-94,045	-8,916	-0,021	-0,010
-93,030	-78,763	0,099	0,024
-92,016	383,361	0,064	-0,093
-91,001	-110,306	0,066	0,010
-89,986	208,467	0,083	-0,092
-88,972	800,000	0,035	-0,090
-87,957	-107,992	0,126	-0,019
-86,943	29,903	0,091	0,054
-85,928	-94,871	-0,132	-0,025
-84,913	440,856	-0,043	-0,067
-83,899	-119,525	-0,171	-0,021
-82,884	21,957	0,083	-0,048
-81,870	42,610	-0,019	0,012
-80,855	-24,346	0,109	0,046
-79,840	49,033	-0,100	-0,066
-78,826	26,961	0,130	0,077
-77,811	29,589	0,065	-0,039
-76,797	-103,716	0,088	-0,014
-75,782	625,152	0,083	0,149
-74,767	35,459	-0,021	0,013
-73,753	294,176	-0,029	0,037
-72,738	120,329	0,023	-0,021
-71,724	-72,289	-0,121	-0,031
-70,709	-72,270	0,035	0,009
-69,694	-20,890	-0,018	-0,008
-68,680	-200,000	0,001	0,078
-67,665	243,063	0,068	-0,081
-66,651	214,591	-0,022	0,025
-65,636	228,138	0,076	0,088
-64,622	-200,000	0,002	0,037
-63,607	-200,000	-0,007	-0,158
-62,592	800,000	0,013	-0,030
-61,578	800,000	0,026	0,073
-60,563	-20,619	-0,072	0,031
-59,549	116,326	-0,059	-0,051
-58,534	36,025	-2,104	-1,304
-57,519	647,987	-1,151	-2,085
-56,505	-200,000	-0,342	-4,350
-55,490	539,473	0,892	1,503
-54,476	800,000	5,222	11,222
-53,461	-200,000	21,548	346,332
-52,446	800,000	763,659	2365,020
-51,432	556,021	1665,147	2840,167
-50,417	72,803	1661,680	1222,415
-49,403	17,621	1534,961	858,665
-48,388	11,564	1458,705	786,710
-47,373	19,554	1449,959	820,300
-46,359	15,149	1439,166	793,222
-45,344	9,855	1434,965	765,667
-44,330	9,807	1433,010	764,364
-43,315	9,770	1431,226	763,208
-42,300	9,732	1429,556	762,103
-41,286	9,815	1428,297	761,800
-40,271	9,753	1427,026	760,798
-39,257	9,783	1425,869	760,290
-38,242	9,826	1424,778	759,884
-37,227	9,812	1423,570	759,144
-36,213	9,824	1422,238	758,460
-35,198	9,861	1421,112	758,002
-34,184	9,840	1420,293	757,438
-33,169	9,770	1418,870	756,320
-32,154	9,808	1417,832	755,915
-31,140	9,853	1416,464	755,368
-30,125	9,861	1415,424	754,819
-29,111	9,804	1414,394	753,973
-28,096	9,822	1413,039	753,305
-27,082	9,772	1411,893	752,427
-26,067	9,757	1410,815	751,753
-25,052	9,736	1409,879	751,128
-24,038	9,791	1408,783	750,770
-23,023	9,759	1408,146	750,254
-22,009	9,766	1406,946	749,616
-20,994	9,782	1405,805	749,053
-19,979	9,837	1404,955	748,826
-18,965	9,730	1404,069	747,827
-17,950	9,727	1403,070	747,251
-16,936	9,709	1402,188	746,664
-15,921	9,654	1401,289	745,904
-14,906	9,687	1400,447	745,579
-13,892	9,698	1399,602	745,149
-12,877	9,694	1398,543	744,536
-11,863	9,690	1397,837	744,114
-10,848	9,627	1396,897	743,290
-9,833	9,618	1396,019	742,755
-8,819	9,560	1395,215	742,025
-7,804	9,578	1394,305	741,595
-6,790	9,571	1393,012	740,845
-5,775	9,610	1391,953	740,433
-4,760	9,566	1391,261	739,834
-3,746	9,588	1390,372	739,434
-2,731	9,585	1389,530	738,944
-1,717	9,569	1388,468	738,274
-0,702	9,595	1386,766	737,458
0,313	13,685	1299,044	709,494
1,327	29,988	689,330	413,391
2,342	46,375	119,439	77,933
3,356	-0,781	16,604	8,266
4,371	-3,517	3,591	1,755
5,386	-2,766	1,050	0,516
6,400	-200,000	0,163	0,586
7,415	-95,364	-0,342	-0,064
8,429	123,988	-0,202	-0,179
9,444	328,325	-0,230	-0,312
10,459	-10,580	-0,336	-0,156
11,473	-22,941	-0,322	-0,136
12,488	-37,138	-0,333	-0,125
13,502	224,464	-0,227	-0,259
14,517	36,764	-0,298	-0,185
15,531	100,366	-0,309	-0,253
16,546	-26,521	-0,287	-0,118
17,561	277,380	-0,268	-0,336
18,575	282,803	-0,158	-0,201
19,590	82,109	-0,130	-0,099
20,604	-41,654	-0,376	-0,135
21,619	103,342	-0,328	-0,271
22,634	158,037	-0,314	-0,306
23,648	40,928	-0,394	-0,250
24,663	49,492	-0,406	-0,268
25,677	-4,753	-0,281	-0,136
26,692	162,463	-0,248	-0,245
27,707	54,836	-0,365	-0,247
28,721	-13,622	-0,413	-0,187
29,736	118,123	-0,336	-0,291
30,750	249,547	-0,340	-0,407
31,765	70,629	-0,308	-0,224
32,780	265,703	-0,315	-0,387
33,794	59,233	-0,321	-0,222
34,809	285,547	-0,273	-0,346
35,823	163,094	-0,267	-0,264
36,838	157,499	-0,410	-0,399
37,853	265,784	-0,259	-0,318
38,867	32,814	-0,348	-0,211
39,882	78,716	-0,341	-0,256
40,896	122,493	-0,358	-0,314
41,911	-96,582	-0,347	-0,064
42,926	128,369	-0,333	-0,298
43,940	81,290	-0,271	-0,206
44,955	54,007	-0,329	-0,222
45,969	209,472	-0,347	-0,382
46,984	42,981	-0,413	-0,264
47,999	167,548	-0,206	-0,206
49,013	143,472	-0,282	-0,264
50,028	182,865	-0,223	-0,231
51,042	46,358	-0,305	-0,198
52,057	68,740	-0,346	-0,249
53,071	120,114	-0,261	-0,227
54,086	209,076	-0,256	-0,282
55,101	-108,525	-0,403	-0,060
56,115	164,553	-0,239	-0,237
57,130	168,293	-0,200	-0,200
58,144	18,416	-0,454	-0,254
59,159	-4,291	-0,337	-0,163
60,174	1,477	-0,286	-0,144
61,188	142,564	-0,354	-0,330
62,203	90,350	-0,283	-0,222
63,217	16,544	-0,251	-0,139
64,232	199,561	-0,330	-0,356
65,247	127,494	-0,267	-0,237
66,261	67,301	-0,457	-0,327
67,276	70,681	-0,387	-0,281
68,290	34,357	-0,410	-0,250
69,305	125,343	-0,269	-0,238
70,320	-2,178	-0,281	-0,138
71,334	-43,321	-0,409	-0,144
72,349	97,448	-0,363	-0,292
73,363	257,622	-0,229	-0,276
74,378	39,114	-0,323	-0,202
75,393	85,163	-0,366	-0,281
76,407	36,922	-0,276	-0,171
77,422	52,523	-0,263	-0,176
78,436	16,741	-0,249	-0,138
79,451	359,876	-0,174	-0,244
80,466	-1,447	-0,292	-0,144
81,480	134,404	-0,277	-0,251
82,495	-62,261	-0,454	-0,131
83,509	31,089	-0,164	-0,098
84,524	-15,337	-0,256	-0,114
85,539	27,534	-0,264	-0,155
86,553	29,688	-0,463	-0,275
87,568	-127,365	-0,302	-0,030
88,582	-20,431	-0,307	-0,131
89,597	118,068	-0,270	-0,233
90,611	48,467	-0,191	-0,125
91,626	5,918	-0,331	-0,171
92,641	142,640	-0,208	-0,193
93,655	80,844	-0,231	-0,174
94,670	522,981	-0,214	-0,354
95,684	65,677	-0,313	-0,221
96,699	83,810	-0,217	-0,165
97,714	84,088	-0,286	-0,218
98,728	115,975	-0,291	-0,249
99,743	77,326	-0,220	-0,164
100,757	-29,105	-0,307	-0,123
101,772	-48,907	-0,269	-0,090
102,787	239,893	-0,261	-0,304
103,801	-17,485	-0,397	-0,174
104,816	9,670	-0,246	-0,130
105,830	67,145	-0,173	-0,123
106,845	-78,022	-0,335	-0,080
107,860	0,640	-0,236	-0,118
108,874	-45,033	-0,326	-0,113
109,889	71,038	-0,242	-0,175
110,903	73,943	-0,354	-0,259
111,918	-45,969	-0,257	-0,088
112,933	72,165	-0,239	-0,174
113,947	24,819	-0,181	-0,105
114,962	260,953	-0,288	-0,349
115,976	13,869	-0,257	-0,139
116,991	-124,173	-0,315	-0,034
118,006	44,532	-0,124	-0,079
119,020	54,922	-0,244	-0,164
120,035	34,863	-0,191	-0,116
121,049	150,770	-0,143	-0,135
122,064	-29,075	-0,186	-0,074
123,079	-4,241	-0,292	-0,140
124,093	-200,000	-0,069	-0,252
125,108	-27,506	-0,200	-0,081
126,122	127,989	-0,302	-0,268
127,137	112,795	-0,197	-0,166
128,151	-44,869	-0,206	-0,071
129,166	404,065	-0,117	-0,173
130,181	98,714	-0,213	-0,171
131,195	-31,202	-0,323	-0,126
132,210	17,390	-0,372	-0,205
133,224	209,526	-0,265	-0,290
134,239	12,498	-0,242	-0,130
135,254	-121,257	-0,229	0,026
136,268	26,884	-0,348	-0,203
137,283	216,056	-0,152	-0,169
138,297	606,718	-0,132	-0,230
139,312	-31,864	-0,245	-0,095
140,327	252,745	-0,168	-0,200
141,341	268,964	-0,215	-0,263
142,356	68,672	-0,238	-0,170
143,370	-0,008	-0,373	-0,185
144,385	114,124	-0,231	-0,195
145,400	66,910	-0,286	-0,203
146,414	41,561	-0,357	-0,225
147,429	242,524	-0,231	-0,270
148,443	8,713	-0,334	-0,175
149,458	27,694	-0,241	-0,141
150,473	-49,470	-0,261	-0,086
151,487	800,000	-0,136	-0,286
152,502	300,366	-0,185	-0,238
153,516	3,115	-0,285	-0,144
154,531	98,036	-0,321	-0,257
155,546	-47,493	-0,256	-0,086
156,560	273,034	-0,186	-0,229
157,575	-41,122	-0,163	-0,058
158,589	195,922	-0,218	-0,230
159,604	110,474	-0,221	-0,185
160,619	156,980	-0,321	-0,309
161,633	64,896	-0,151	-0,106
162,648	143,574	-0,217	-0,201
163,662	1,430	-0,307	-0,153
164,677	45,830	-0,327	-0,210
165,692	219,816	-0,195	-0,217
166,706	58,275	-0,166	-0,113
167,721	193,282	-0,265	-0,278
168,735	-45,224	-0,257	-0,088
169,750	283,850	-0,251	-0,315
170,764	214,136	-0,155	-0,170
171,779	-15,047	-0,194	-0,086
172,794	137,110	-0,095	-0,086
173,808	176,239	-0,188	-0,189
174,823	67,945	-0,319	-0,226
175,837	-39,510	-0,322	-0,117
176,852	281,067	-0,166	-0,207
177,867	-116,356	-0,150	0,019
178,881	-60,568	-0,122	-0,036
179,896	800,000	-0,032	-0,064
180,910	-108,284	-0,267	-0,040
181,925	-65,685	-0,186	-0,051
182,940	103,601	-0,203	-0,165
183,954	30,798	-0,212	-0,126
184,969	83,430	-0,172	-0,130
185,983	144,717	-0,255	-0,236
186,998	6,868	-0,233	-0,120
188,013	82,573	-0,242	-0,182
189,027	366,769	-0,181	-0,254
190,042	209,854	-0,192	-0,209
191,056	288,086	-0,268	-0,337
192,071	212,762	-0,243	-0,266
193,086	168,513	-0,045	-0,045
194,100	43,382	-0,170	-0,107
195,115	-79,005	-0,212	-0,050
196,129	7,807	-0,251	-0,130
197,144	175,887	-0,226	-0,227
198,159	72,525	-0,191	-0,138
199,173	87,949	-0,248	-0,191
200,188	-47,785	-0,140	-0,047
201,202	138,801	-0,154	-0,141
202,217	-120,925	-0,248	-0,029
203,232	-15,345	-0,308	-0,136
204,246	300,869	-0,218	-0,280
205,261	800,000	-0,148	-0,304
206,275	12,630	-0,167	-0,089
207,290	-200,000	-0,031	-0,118
208,304	161,351	-0,097	-0,094
209,319	62,714	-0,179	-0,124
210,334	-90,821	-0,318	-0,063
211,348	143,747	-0,224	-0,207
212,363	106,067	-0,204	-0,167
213,377	58,281	-0,217	-0,147
214,392	-68,419	-0,266	-0,071
215,407	-200,000	-0,014	-0,142
216,421	18,943	-0,212	-0,117
217,436	98,219	-0,222	-0,177
218,450	192,143	-0,201	-0,210
219,465	800,000	-0,080	-0,232
220,480	382,958	-0,158	-0,225
221,494	800,000	-0,094	-0,234
222,509	8,861	-0,219	-0,114
223,523	-200,000	-0,017	-0,179
224,538	-29,974	-0,246	-0,097
225,553	-3,560	-0,260	-0,124
226,567	83,609	-0,191	-0,144
227,582	795,036	-0,059	-0,113
228,596	156,143	-0,172	-0,164
229,611	22,749	-0,117	-0,066
230,626	63,355	-0,251	-0,174
231,640	107,699	-0,192	-0,158
232,655	136,509	-0,210	-0,189
233,669	287,359	-0,237	-0,296
234,684	-28,835	-0,266	-0,105
235,699	39,490	-0,183	-0,113
236,713	88,677	-0,181	-0,139
237,728	-13,292	-0,260	-0,116
238,742	-200,000	-0,058	-0,178
239,757	33,393	-0,205	-0,123
240,772	36,821	-0,293	-0,178
241,786	69,667	-0,193	-0,137
242,801	50,210	-0,238	-0,155
243,815	800,000	-0,091	-0,188
244,830	-93,654	-0,084	-0,016
245,844	140,726	-0,104	0,095
246,859	61,769	-0,194	-0,133
247,874	164,895	-0,207	-0,202
248,888	-14,280	-0,291	-0,129
249,903	140,274	-0,117	-0,107
250,917	141,273	-0,176	-0,161
251,932	-56,091	-0,179	-0,055
252,947	-102,065	-0,200	-0,033
253,961	112,146	-0,216	-0,180
254,976	283,632	-0,161	-0,200
255,990	800,000	-0,134	-0,356
257,005	-139,700	-0,064	0,005
258,020	-200,000	0,006	-0,084
259,034	20,142	-0,097	-0,054
260,049	-31,311	-0,083	-0,032
261,063	787,559	-0,114	-0,216
262,078	158,677	-0,135	-0,129
263,093	-147,590	-0,231	-0,013
264,107	-1,463	-0,216	-0,105
265,122	-141,743	-0,146	0,010
266,136	-63,184	-0,175	-0,049
267,151	179,548	-0,100	-0,101
268,166	-54,425	-0,206	-0,064
269,180	245,197	-0,192	-0,222
270,195	800,000	-0,187	-0,361
271,209	205,333	-0,160	-0,171
272,224	49,060	-0,232	-0,150
273,239	800,000	-0,062	-0,125
274,253	800,000	-0,077	-0,188
275,268	63,599	-0,211	-0,145
276,282	-63,019	-0,282	-0,080
277,297	-37,377	-0,197	-0,072
278,312	55,941	-0,153	-0,102
279,326	-141,755	-0,234	-0,016
280,341	-84,182	-0,167	0,036
281,355	222,699	-0,167	-0,185
282,370	-17,980	-0,208	-0,089
283,384	55,308	-0,114	-0,076
284,399	-200,000	-0,051	-0,159
285,414	99,487	-0,183	-0,146
286,428	13,849	-0,094	-0,050
287,443	-200,000	0,002	-0,073
288,457	-104,777	-0,170	-0,027
289,472	112,022	-0,134	-0,111
290,487	-13,566	-0,165	-0,073
291,501	86,029	-0,264	-0,199
292,516	363,653	-0,114	-0,157
293,530	190,919	-0,168	-0,173
294,545	509,104	-0,158	-0,253
295,560	95,610	-0,135	-0,106
296,574	-200,000	-0,062	-0,189
297,589	-59,307	-0,128	0,038
298,603	708,066	-0,161	-0,293
299,618	113,938	-0,201	-0,168
300,633	125,712	-0,189	-0,164
301,647	800,000	-0,056	-0,115
302,662	12,619	-0,199	-0,105
303,676	-134,007	-0,256	0,021
304,691	-53,446	-0,233	-0,073
305,706	18,582	-0,205	-0,112
306,720	100,039	-0,193	-0,153
307,735	295,068	-0,163	-0,205
308,749	800,000	-0,088	-0,254
309,764	-109,575	-0,020	-0,003
310,779	800,000	-0,048	-0,113
311,793	351,591	-0,128	-0,174
312,808	229,363	-0,112	-0,125
313,822	-200,000	-0,029	-0,235
314,837	301,469	-0,126	-0,160
315,852	402,242	-0,125	-0,180
316,866	165,598	-0,098	-0,095
317,881	331,294	-0,135	-0,179
318,895	-36,965	-0,156	0,057
319,910	190,230	-0,214	-0,221
320,925	75,572	-0,230	-0,166
321,939	208,178	-0,233	-0,250
322,954	-49,703	-0,034	0,011
323,968	-105,135	-0,186	0,029
324,983	198,808	-0,089	-0,094
325,997	-170,423	-0,171	-0,004
327,012	217,091	-0,176	-0,193
328,027	800,000	-0,113	-0,260
329,041	169,203	-0,231	-0,226
330,056	800,000	-0,051	-0,111
331,070	-69,777	-0,150	-0,039
332,085	53,701	-0,204	-0,134
333,100	210,500	-0,051	-0,055
334,114	800,000	-0,114	-0,223
335,129	-77,237	-0,162	-0,038
336,143	81,997	-0,171	-0,126
337,158	210,388	-0,018	-0,019
338,173	-1,732	-0,240	-0,115
339,187	67,412	-0,113	-0,079
340,202	-73,998	-0,251	-0,062
341,216	210,762	-0,127	-0,137
342,231	242,196	-0,160	-0,184
343,246	195,974	-0,180	-0,187
344,260	339,395	-0,066	-0,089
345,275	-200,000	-0,006	-0,178
346,289	37,406	-0,112	-0,068
347,304	54,830	-0,175	-0,116
348,319	267,996	-0,179	-0,215
349,333	183,705	-0,188	-0,191
350,348	-200,000	-0,060	-0,233
351,362	130,980	-0,023	0,020
352,377	448,556	-0,139	-0,209
353,392	-200,000	-0,014	-0,097
354,406	68,746	-0,131	-0,092
355,421	208,959	1309,777	1403,123
356,435	160,808	1469,868	1403,596
