DTS Sentinel unit serial number:	SN410029Multiplexer serial number:	ORYXHardware model number:	OX2-SRSoftware version number:	ORYX F/W v4,00 Oryx Data Collector v3.7.2.0data status	okinstallation	B3 Nyhavnadifferential loss correction	single-endedforward channel	channel 1reverse channel	N/Adate	2023/12/01time	14:52:30forward acquisition time	300,00reverse acquisition time	0,00gamma	499,1914k internal	0,3211k external	0,3211temperature offset calibration	1,0000default loss term (dB/km)	0,3820temperature slope calibration	1,0000multiplexer offset coefficient	1,0000multiplexer slope coefficient	1,0000fibre end	0,00T internal ref (°C)	11,23T ext. ref 1 (°C)	-2,16T ext. ref 2 (°C)	-2,24length (m)	temperature (°C)	Stokes	anti-Stokes-744,400	-200,000	-0,094	-0,335
-743,385	-200,000	-0,085	0,350
-742,371	-200,000	-0,049	-0,234
-741,356	-200,000	0,010	0,264
-740,342	1,828	-0,232	-0,121
-739,327	-200,000	-0,007	0,233
-738,312	162,847	-0,213	-0,217
-737,298	228,499	-0,164	0,194
-736,283	800,000	-0,088	-0,182
-735,269	-200,000	0,010	0,157
-734,254	148,937	-0,293	-0,287
-733,239	-109,791	-0,149	0,022
-732,225	228,941	-0,113	-0,134
-731,210	-200,000	-0,038	0,183
-730,196	183,479	-0,033	-0,036
-729,181	243,857	-0,068	-0,082
-728,167	-59,001	0,049	0,015
-727,152	62,902	0,089	0,065
-726,137	510,290	-0,055	0,092
-725,123	-200,000	-0,002	-0,216
-724,108	589,699	-0,080	-0,144
-723,094	244,356	-0,136	-0,166
-722,079	800,000	-0,036	0,078
-721,064	800,000	0,027	-0,079
-720,050	-31,866	-0,139	-0,056
-719,035	-189,745	-0,075	-0,001
-718,021	41,097	-0,005	-0,003
-717,006	-144,936	-0,094	-0,006
-715,991	800,000	-0,059	-0,138
-714,977	-200,000	0,017	-0,136
-713,962	-135,990	-0,114	0,010
-712,948	18,369	0,082	-0,047
-711,933	427,892	-0,037	-0,057
-710,918	-153,437	0,099	0,005
-709,904	800,000	-0,070	-0,173
-708,889	-48,926	-0,166	-0,057
-707,875	800,000	0,040	-0,087
-706,860	254,142	-0,020	0,025
-705,845	64,887	0,072	-0,053
-704,831	-20,387	-0,077	0,034
-703,816	-154,088	0,044	-0,002
-702,802	-55,943	-0,097	-0,031
-701,787	800,000	-0,098	-0,298
-700,772	-200,000	0,034	-0,157
-699,758	-12,384	-0,051	-0,024
-698,743	95,874	0,085	0,070
-697,729	-200,000	0,006	0,021
-696,714	-75,528	-0,074	-0,019
-695,699	800,000	-0,053	0,134
-694,685	675,278	-0,070	-0,133
-693,670	-3,125	0,110	0,055
-692,656	172,321	-0,090	-0,093
-691,641	171,442	0,029	0,030
-690,627	497,606	0,087	0,145
-689,612	-38,897	0,006	-0,002
-688,597	-200,000	0,033	-0,107
-687,583	110,293	0,026	0,022
-686,568	587,322	-0,032	0,057
-685,554	-112,319	-0,037	-0,005
-684,539	214,338	-0,076	0,087
-683,524	279,742	0,044	0,057
-682,510	-200,000	-0,004	0,049
-681,495	81,239	-0,077	-0,060
-680,481	-19,997	-0,082	-0,036
-679,466	-200,000	0,018	-0,058
-678,451	-200,000	0,013	0,069
-677,437	-4,944	0,044	0,022
-676,422	263,357	0,104	0,131
-675,408	-47,355	-0,171	0,060
-674,393	-147,893	-0,095	0,006
-673,378	176,292	-0,127	-0,134
-672,364	-200,000	0,005	-0,170
-671,349	800,000	-0,039	-0,098
-670,335	20,582	-0,154	-0,090
-669,320	183,895	0,055	-0,059
-668,305	800,000	-0,027	-0,084
-667,291	-5,315	-0,149	-0,074
-666,276	15,962	0,139	-0,079
-665,262	-85,553	0,052	-0,012
-664,247	-200,000	0,004	0,132
-663,232	-200,000	-0,009	0,076
-662,218	-200,000	0,044	0,151
-661,203	306,082	0,129	0,174
-660,189	800,000	-0,063	-0,161
-659,174	-23,027	-0,057	-0,025
-658,159	-128,297	0,023	0,002
-657,145	-32,328	-0,050	0,020
-656,130	501,902	0,050	-0,083
-655,116	-93,276	0,071	0,014
-654,101	-6,276	0,062	-0,030
-653,086	-81,935	-0,081	-0,019
-652,072	-67,041	-0,082	-0,023
-651,057	118,829	-0,059	0,053
-650,043	-142,257	-0,151	0,011
-649,028	-127,006	0,027	0,003
-648,014	14,241	0,127	0,072
-646,999	-200,000	0,001	-0,023
-645,984	33,024	0,118	-0,074
-644,970	97,999	-0,099	0,083
-643,955	64,679	0,045	0,032
-642,941	138,484	-0,097	-0,092
-641,926	434,780	0,051	-0,081
-640,911	-200,000	0,002	0,038
-639,897	295,320	-0,027	-0,035
-638,882	335,716	0,080	-0,112
-637,868	800,000	0,067	0,160
-636,853	-12,013	-0,056	0,026
-635,838	79,695	-0,236	-0,183
-634,824	-119,218	0,040	-0,005
-633,809	-200,000	-0,002	0,101
-632,795	440,270	-0,012	-0,019
-631,780	83,735	0,087	-0,069
-630,765	-200,000	-0,023	0,134
-629,751	-108,992	0,075	0,011
-628,736	-39,815	-0,112	-0,042
-627,722	181,012	0,067	0,072
-626,707	-200,000	-0,007	-0,044
-625,692	-100,590	0,112	0,020
-624,678	-200,000	-0,011	-0,141
-623,663	-200,000	-0,008	-0,148
-622,649	800,000	-0,041	-0,087
-621,634	57,496	-0,140	0,098
-620,619	287,404	0,027	0,036
-619,605	-54,253	-0,095	-0,031
-618,590	-200,000	0,002	0,008
-617,576	257,592	-0,095	-0,118
-616,561	-200,000	0,010	0,061
-615,546	-142,786	-0,065	0,004
-614,532	-37,391	-0,005	0,002
-613,517	-200,000	-0,007	-0,086
-612,503	-101,297	-0,042	0,007
-611,488	800,000	0,048	0,108
-610,474	-200,000	-0,012	-0,046
-609,459	27,676	0,169	0,103
-608,444	5,480	-0,133	-0,071
-607,430	-2,392	-0,098	0,050
-606,415	800,000	0,015	0,046
-605,401	573,371	0,066	-0,116
-604,386	-3,544	0,099	-0,050
-603,371	-200,000	-0,003	0,034
-602,357	84,089	-0,016	0,012
-601,342	641,713	0,024	0,044
-600,328	365,495	-0,032	-0,047
-599,313	17,505	0,025	-0,014
-598,298	-93,997	0,065	-0,013
-597,284	-66,908	-0,135	0,038
-596,269	800,000	0,031	0,075
-595,255	76,044	0,115	0,088
-594,240	-120,042	0,027	0,003
-593,225	15,657	-0,094	-0,053
-592,211	518,913	-0,036	-0,060
-591,196	-200,000	-0,000	-0,052
-590,182	192,803	0,022	-0,024
-589,167	-200,000	0,021	0,072
-588,152	-65,109	0,153	0,044
-587,138	-10,324	-0,175	0,083
-586,123	-200,000	0,008	-0,054
-585,109	611,119	-0,058	-0,105
-584,094	56,677	-0,186	-0,130
-583,079	-127,216	0,091	-0,009
-582,065	70,029	0,105	0,078
-581,050	80,631	-0,116	0,090
-580,036	114,082	0,012	0,011
-579,021	-200,000	-0,014	-0,054
-578,006	-200,000	0,021	-0,214
-576,992	800,000	0,037	-0,085
-575,977	-200,000	0,034	-0,229
-574,963	559,231	0,023	-0,040
-573,948	-200,000	0,002	0,137
-572,934	-200,000	0,029	-0,124
-571,919	-149,054	-0,223	-0,013
-570,904	-200,000	-0,010	0,146
-569,890	12,345	-0,117	0,065
-568,875	414,719	0,078	0,120
-567,861	509,824	-0,015	0,025
-566,846	-84,993	0,115	-0,026
-565,831	-195,419	0,097	-0,001
-564,817	-200,000	0,014	-0,115
-563,802	-200,000	-0,007	-0,033
-562,788	-26,903	-0,078	-0,032
-561,773	-174,532	-0,089	-0,002
-560,758	169,407	0,062	0,064
-559,744	-136,937	0,148	-0,012
-558,729	800,000	-0,035	0,072
-557,715	108,284	-0,124	0,106
-556,700	-76,154	0,054	-0,014
-555,685	743,031	0,011	-0,022
-554,671	287,838	-0,088	-0,115
-553,656	800,000	0,026	0,056
-552,642	-154,976	-0,080	-0,004
-551,627	-26,950	0,046	0,019
-550,612	-200,000	0,001	-0,081
-549,598	-142,424	-0,189	0,013
-548,583	510,737	-0,011	0,019
-547,569	100,051	-0,124	0,103
-546,554	-200,000	0,034	0,115
-545,539	-10,766	-0,040	0,019
-544,525	800,000	0,025	0,070
-543,510	-200,000	-0,000	0,029
-542,496	35,731	-0,040	-0,025
-541,481	-200,000	0,004	-0,071
-540,466	-60,770	-0,122	0,037
-539,452	-200,000	0,016	0,094
-538,437	-174,246	-0,040	-0,001
-537,423	177,673	0,033	-0,034
-536,408	-200,000	-0,025	-0,089
-535,393	679,951	-0,031	-0,058
-534,379	130,242	0,059	-0,055
-533,364	43,773	0,084	-0,055
-532,350	-72,136	0,011	-0,003
-531,335	436,713	0,010	-0,016
-530,321	-200,000	-0,016	0,063
-529,306	-155,207	-0,060	-0,003
-528,291	-20,118	-0,082	0,036
-527,277	307,869	-0,039	-0,052
-526,262	-200,000	0,007	-0,080
-525,248	800,000	0,043	0,117
-524,233	106,021	0,105	0,089
-523,218	174,081	-0,126	0,131
-522,204	-176,809	-0,088	-0,002
-521,189	0,579	-0,022	-0,011
-520,175	800,000	-0,045	-0,139
-519,160	-200,000	-0,007	-0,027
-518,145	-200,000	0,003	-0,107
-517,131	290,340	0,068	0,089
-516,116	293,088	0,037	-0,049
-515,102	-26,053	-0,115	0,048
-514,087	345,098	0,020	-0,029
-513,072	-200,000	0,003	-0,111
-512,058	125,969	-0,040	-0,037
-511,043	213,051	0,105	0,119
-510,029	-40,265	-0,037	-0,014
-509,014	-200,000	0,045	0,178
-507,999	35,770	0,116	-0,073
-506,985	71,364	-0,134	-0,099
-505,970	98,120	-0,057	0,047
-504,956	-200,000	-0,001	0,058
-503,941	-72,760	0,087	0,023
-502,926	-127,199	-0,086	0,009
-501,912	498,509	0,021	0,034
-500,897	-74,190	-0,052	0,013
-499,883	-147,895	0,041	0,002
-498,868	387,523	-0,011	0,016
-497,853	3,624	0,029	0,015
-496,839	-200,000	-0,059	-0,212
-495,824	-1,002	-0,009	-0,005
-494,810	152,869	-0,076	-0,075
-493,795	39,075	0,061	-0,039
-492,781	647,782	-0,030	-0,055
-491,766	-109,298	-0,106	0,016
-490,751	-200,000	0,015	-0,052
-489,737	190,831	0,078	-0,085
-488,722	800,000	0,012	-0,025
-487,708	106,989	0,061	-0,052
-486,693	-200,000	0,005	0,079
-485,678	-145,310	-0,092	0,006
-484,664	47,374	-0,019	0,013
-483,649	-200,000	-0,017	-0,130
-482,635	-71,896	0,071	-0,019
-481,620	65,001	-0,085	0,062
-480,605	67,741	0,089	0,065
-479,591	299,118	-0,097	0,128
-478,576	-93,657	0,046	0,009
-477,562	-200,000	-0,001	-0,105
-476,547	97,049	-0,067	-0,055
-475,532	-80,931	0,052	-0,012
-474,518	-151,221	-0,091	-0,005
-473,503	-101,544	0,112	0,019
-472,489	800,000	0,038	0,120
-471,474	-200,000	-0,012	0,108
-470,459	377,044	0,063	-0,093
-469,445	800,000	-0,025	0,054
-468,430	-15,633	-0,061	-0,028
-467,416	12,699	0,058	-0,032
-466,401	-22,324	-0,043	-0,018
-465,386	800,000	0,047	0,103
-464,372	-43,880	0,164	-0,059
-463,357	800,000	0,029	-0,072
-462,343	-40,697	-0,107	0,039
-461,328	209,518	0,054	-0,061
-460,313	36,928	0,077	0,049
-459,299	-8,025	0,088	0,043
-458,284	-200,000	-0,015	0,071
-457,270	765,229	0,049	0,096
-456,255	-97,587	0,074	0,014
-455,241	-200,000	-0,015	-0,112
-454,226	-200,000	0,033	-0,124
-453,211	-200,000	0,019	-0,114
-452,197	-200,000	0,042	-0,150
-451,182	-59,539	0,029	-0,009
-450,168	-200,000	0,006	-0,085
-449,153	-61,604	0,079	-0,023
-448,138	-107,780	0,052	-0,008
-447,124	-58,078	0,103	-0,032
-446,109	-147,041	-0,078	-0,005
-445,095	95,008	0,143	0,117
-444,080	574,509	0,076	0,134
-443,065	800,000	0,036	0,088
-442,051	27,863	-0,034	0,021
-441,036	-200,000	-0,007	0,038
-440,022	800,000	0,038	-0,077
-439,007	108,884	-0,073	-0,063
-437,992	79,984	0,049	0,038
-436,978	-133,758	0,100	0,009
-435,963	-200,000	-0,039	-0,138
-434,949	-171,969	-0,102	0,002
-433,934	800,000	-0,031	-0,082
-432,919	-200,000	0,023	-0,174
-431,905	-200,000	-0,037	0,134
-430,890	-200,000	-0,002	0,109
-429,876	618,749	0,036	-0,065
-428,861	-94,209	0,149	0,029
-427,846	5,959	-0,130	-0,069
-426,832	800,000	-0,009	0,021
-425,817	90,373	0,102	-0,082
-424,803	800,000	-0,023	-0,052
-423,788	404,326	0,049	0,074
-422,773	-8,873	-0,040	0,019
-421,759	198,141	0,103	0,113
-420,744	-73,943	-0,050	0,013
-419,730	-76,937	-0,196	0,049
-418,715	800,000	0,032	-0,064
-417,701	-200,000	0,014	-0,073
-416,686	2,661	0,113	-0,059
-415,671	176,843	-0,031	0,032
-414,657	372,184	-0,052	-0,077
-413,642	222,550	0,041	-0,047
-412,628	-34,381	-0,094	-0,037
-411,613	212,379	-0,033	-0,037
-410,598	171,711	-0,036	-0,037
-409,584	-56,382	-0,019	-0,006
-408,569	-9,823	0,098	0,046
-407,555	700,457	-0,018	-0,034
-406,540	81,361	-0,028	0,022
-405,525	-51,378	-0,061	0,020
-404,511	800,000	0,057	-0,151
-403,496	800,000	0,035	-0,079
-402,482	-5,421	0,011	0,005
-401,467	412,796	0,031	0,048
-400,452	-200,000	0,007	-0,046
-399,438	-200,000	-0,014	0,044
-398,423	262,656	-0,019	0,023
-397,409	-25,628	-0,103	-0,043
-396,394	-72,500	-0,187	0,049
-395,379	251,680	0,033	-0,040
-394,365	-200,000	-0,025	-0,082
-393,350	163,239	-0,062	-0,062
-392,336	93,759	-0,050	-0,040
-391,321	-112,744	0,087	-0,012
-390,306	111,400	-0,115	0,100
-389,292	77,396	-0,186	-0,141
-388,277	639,397	0,028	-0,052
-387,263	178,620	0,040	0,041
-386,248	40,667	-0,115	0,074
-385,233	-27,376	0,087	0,036
-384,219	141,964	-0,057	-0,054
-383,204	-100,250	-0,195	0,034
-382,190	-138,177	0,028	-0,002
-381,175	75,074	0,037	-0,028
-380,160	-200,000	0,035	0,135
-379,146	-74,553	0,126	0,032
-378,131	-200,000	0,010	0,071
-377,117	-35,333	0,165	0,064
-376,102	658,553	-0,053	0,098
-375,088	-200,000	-0,001	0,002
-374,073	-200,000	0,001	-0,083
-373,058	-109,252	-0,054	0,008
-372,044	-200,000	-0,014	-0,089
-371,029	5,669	0,186	0,098
-370,015	-19,849	0,047	0,020
-369,000	800,000	-0,007	-0,017
-367,985	800,000	0,050	-0,109
-366,971	19,195	-0,048	0,028
-365,956	-126,914	0,097	-0,010
-364,942	285,202	0,046	0,059
-363,927	59,701	0,061	-0,043
-362,912	-112,932	0,078	0,011
-361,898	130,354	-0,050	-0,046
-360,883	34,612	-0,034	0,021
-359,869	-120,336	-0,058	0,007
-358,854	175,270	-0,073	-0,076
-357,839	-200,000	0,010	0,051
-356,825	-200,000	0,003	0,030
-355,810	-200,000	-0,037	0,117
-354,796	-102,939	0,068	0,011
-353,781	266,848	-0,043	-0,054
-352,766	-9,551	-0,062	0,030
-351,752	-200,000	-0,008	0,177
-350,737	-200,000	-0,010	0,182
-349,723	-128,510	-0,082	0,008
-348,708	-200,000	0,016	0,076
-347,693	-57,502	0,092	-0,029
-346,679	190,240	0,026	0,028
-345,664	570,439	-0,043	-0,075
-344,650	-54,173	0,121	-0,039
-343,635	800,000	0,026	-0,077
-342,620	-200,000	0,025	0,119
-341,606	-200,000	-0,015	0,064
-340,591	52,439	-0,055	0,037
-339,577	-37,784	-0,160	0,061
-338,562	79,293	0,077	-0,058
-337,548	117,657	-0,118	0,104
-336,533	80,496	0,035	-0,027
-335,518	-162,831	0,201	0,007
-334,504	-200,000	0,006	0,053
-333,489	-35,465	-0,129	0,050
-332,475	91,048	-0,055	0,044
-331,460	37,634	0,104	-0,066
-330,445	30,905	0,110	-0,067
-329,431	-55,364	-0,077	-0,025
-328,416	-8,966	0,186	0,089
-327,402	-200,000	-0,001	-0,049
-326,387	-73,645	-0,079	0,020
-325,372	-49,155	0,059	0,020
-324,358	-49,849	-0,083	0,028
-323,343	18,130	0,098	-0,056
-322,329	343,063	0,016	-0,023
-321,314	271,811	0,059	-0,075
-320,299	800,000	0,013	-0,035
-319,285	800,000	-0,059	0,157
-318,270	-180,285	0,079	-0,001
-317,256	161,989	-0,103	-0,103
-316,241	165,206	0,064	0,064
-315,226	57,318	-0,059	0,041
-314,212	144,184	0,086	0,081
-313,197	-200,000	-0,017	0,100
-312,183	544,840	-0,086	0,147
-311,168	31,906	-0,126	-0,077
-310,153	-120,223	-0,115	-0,014
-309,139	-192,348	-0,123	0,001
-308,124	156,987	0,110	0,108
-307,110	-200,000	0,106	-0,000
-306,095	101,720	0,130	0,108
-305,080	-200,000	0,003	0,173
-304,066	177,150	0,033	0,034
-303,051	800,000	-0,027	-0,066
-302,037	-200,000	0,014	-0,162
-301,022	-19,641	-0,054	-0,024
-300,008	-19,863	0,042	0,018
-298,993	88,258	0,073	0,058
-297,978	432,947	0,073	-0,113
-296,964	697,526	0,023	0,043
-295,949	-200,000	-0,007	-0,117
-294,935	-200,000	-0,002	-0,036
-293,920	18,007	0,102	-0,058
-292,905	674,269	0,034	0,062
-291,891	-200,000	0,161	0,000
-290,876	3,567	-0,128	0,066
-289,862	-16,256	-0,097	-0,044
-288,847	-200,000	-0,002	-0,102
-287,832	23,467	-0,078	0,046
-286,818	118,336	-0,040	-0,035
-285,803	274,172	0,034	-0,043
-284,789	181,910	0,090	-0,095
-283,774	800,000	-0,034	0,071
-282,759	-200,000	-0,011	-0,098
-281,745	-68,266	-0,137	-0,038
-280,730	800,000	0,046	-0,138
-279,716	-200,000	0,011	-0,147
-278,701	-18,339	-0,065	0,029
-277,686	-149,619	-0,058	-0,003
-276,672	100,331	0,034	0,028
-275,657	-140,463	0,017	0,001
-274,643	-100,277	-0,076	-0,013
-273,628	-158,558	-0,111	0,004
-272,613	-16,356	-0,132	-0,059
-271,599	-30,528	-0,090	0,036
-270,584	800,000	0,071	0,152
-269,570	-200,000	0,013	0,056
-268,555	300,275	-0,021	-0,028
-267,540	-200,000	0,011	-0,043
-266,526	239,039	0,057	0,068
-265,511	-9,575	0,072	-0,034
-264,497	-200,000	-0,011	0,045
-263,482	-17,275	0,163	-0,073
-262,467	-40,934	-0,128	0,047
-261,453	800,000	-0,027	0,061
-260,438	659,677	-0,061	-0,113
-259,424	-45,023	-0,028	0,010
-258,409	-9,280	0,090	0,043
-257,395	330,665	-0,065	-0,090
-256,380	800,000	0,052	-0,124
-255,365	800,000	-0,026	-0,056
-254,351	791,193	0,093	0,182
-253,336	-7,544	0,074	-0,036
-252,322	77,123	-0,058	0,043
-251,307	-200,000	0,043	-0,150
-250,292	263,845	-0,015	-0,018
-249,278	-43,614	0,128	-0,046
-248,263	202,133	0,027	0,030
-247,249	-200,000	-0,003	-0,027
-246,234	-131,037	-0,153	0,014
-245,219	72,311	0,042	0,031
-244,205	437,336	-0,043	-0,066
-243,190	-118,463	-0,035	-0,004
-242,176	-80,082	-0,102	-0,024
-241,161	-83,858	0,085	0,019
-240,146	800,000	0,061	0,135
-239,132	-200,000	0,012	-0,047
-238,117	179,198	-0,014	0,015
-237,103	9,217	-0,119	0,064
-236,088	-91,773	0,037	0,008
-235,073	239,975	0,095	-0,112
-234,059	-200,000	0,015	-0,084
-233,044	-127,271	0,149	-0,015
-232,030	-200,000	-0,006	0,071
-231,015	60,310	-0,088	-0,062
-230,000	800,000	0,070	-0,177
-228,986	800,000	0,092	-0,201
-227,971	179,004	0,063	0,066
-226,957	-200,000	0,019	0,109
-225,942	40,977	-0,118	0,075
-224,927	-25,756	-0,057	-0,024
-223,913	-115,952	0,019	0,003
-222,898	800,000	-0,010	-0,020
-221,884	-200,000	-0,011	-0,104
-220,869	-177,310	0,187	-0,003
-219,855	-200,000	-0,040	0,137
-218,840	800,000	-0,020	0,043
-217,825	-116,409	-0,160	0,021
-216,811	800,000	0,030	-0,075
-215,796	-92,631	-0,102	-0,020
-214,782	-144,996	-0,024	0,002
-213,767	-200,000	-0,018	-0,104
-212,752	-18,447	-0,075	-0,033
-211,738	-92,788	0,102	0,020
-210,723	-200,000	0,029	0,134
-209,709	-5,810	0,049	0,024
-208,694	-1,934	-0,176	-0,088
-207,679	748,627	-0,039	0,074
-206,665	26,199	-0,017	-0,010
-205,650	-94,938	0,127	0,024
-204,636	-154,973	0,096	-0,004
-203,621	-159,019	-0,122	-0,005
-202,606	756,670	-0,037	0,072
-201,592	423,595	0,048	-0,073
-200,577	203,218	-0,044	0,048
-199,563	800,000	-0,032	-0,087
-198,548	-139,153	0,071	0,005
-197,533	100,256	0,074	-0,061
-196,519	22,066	-0,084	0,048
-195,504	161,695	0,064	0,063
-194,490	800,000	0,051	0,135
-193,475	546,072	0,036	0,061
-192,460	401,392	0,072	0,107
-191,446	-200,000	0,012	-0,062
-190,431	-200,000	-0,007	0,036
-189,417	-58,758	-0,104	-0,032
-188,402	-45,670	0,160	0,056
-187,387	-82,601	0,123	0,028
-186,373	-200,000	0,007	-0,074
-185,358	275,694	0,046	0,058
-184,344	800,000	-0,014	-0,037
-183,329	157,242	0,104	0,102
-182,315	-167,617	-0,073	-0,002
-181,300	-108,540	-0,157	-0,024
-180,285	-44,575	0,038	-0,013
-179,271	100,294	-0,073	-0,060
-178,256	-65,460	-0,047	-0,013
-177,242	75,223	0,101	0,075
-176,227	800,000	-0,074	0,153
-175,212	-46,648	0,067	-0,023
-174,198	800,000	-0,053	0,109
-173,183	-200,000	-0,004	0,066
-172,169	-200,000	-0,008	0,145
-171,154	-105,932	-0,058	0,009
-170,139	-84,390	-0,080	0,018
-169,125	117,565	0,191	0,166
-168,110	-184,856	-0,095	-0,001
-167,096	-133,512	0,173	-0,015
-166,081	198,801	-0,119	-0,129
-165,066	800,000	-0,058	-0,135
-164,052	115,893	-0,065	-0,056
-163,037	800,000	-0,017	0,051
-162,023	-3,941	0,101	0,049
-161,008	-147,768	0,023	-0,001
-159,993	800,000	-0,041	0,101
-158,979	114,207	-0,051	0,044
-157,964	65,729	0,106	0,076
-156,950	800,000	0,036	0,100
-155,935	800,000	-0,009	-0,024
-154,920	-200,000	0,004	0,070
-153,906	-200,000	-0,009	0,119
-152,891	169,862	0,036	0,036
-151,877	-200,000	0,017	-0,067
-150,862	-93,241	0,049	-0,010
-149,847	154,733	0,026	0,025
-148,833	94,651	0,075	-0,060
-147,818	352,021	0,073	-0,103
-146,804	176,122	0,072	0,074
-145,789	-91,753	-0,021	0,004
-144,775	800,000	-0,013	-0,029
-143,760	-200,000	0,043	-0,161
-142,745	55,624	0,133	-0,091
-141,731	36,885	0,040	0,025
-140,716	102,408	0,108	0,089
-139,702	-200,000	0,012	0,039
-138,687	-9,841	-0,037	0,018
-137,672	588,849	0,044	-0,077
-136,658	111,532	-0,139	0,119
-135,643	128,119	-0,122	-0,110
-134,629	-88,955	-0,043	-0,009
-133,614	3,887	-0,038	-0,020
-132,599	136,280	-0,061	-0,057
-131,585	-200,000	-0,002	0,035
-130,570	-59,747	-0,047	0,014
-129,556	97,814	-0,013	-0,010
-128,541	24,059	-0,069	0,040
-127,526	-51,731	-0,114	-0,037
-126,512	-200,000	-0,028	-0,108
-125,497	800,000	0,035	0,074
-124,483	-8,680	0,110	-0,052
-123,468	-200,000	0,034	-0,110
-122,453	-15,201	-0,065	0,029
-121,439	-200,000	-0,020	-0,131
-120,424	243,368	-0,024	0,028
-119,410	184,194	0,104	-0,109
-118,395	-35,371	0,017	-0,006
-117,380	-2,545	-0,086	-0,043
-116,366	-27,003	-0,072	-0,030
-115,351	800,000	-0,062	0,157
-114,337	193,237	-0,063	0,068
-113,322	800,000	-0,040	-0,093
-112,307	-200,000	0,024	-0,099
-111,293	-200,000	-0,005	0,041
-110,278	-200,000	-0,006	-0,064
-109,264	-200,000	-0,025	0,101
-108,249	0,504	-0,102	-0,051
-107,234	-110,683	-0,084	0,012
-106,220	543,248	-0,063	0,106
-105,205	-95,817	0,124	-0,023
-104,191	51,152	0,114	-0,077
-103,176	-86,786	0,015	0,003
-102,162	25,876	-0,087	-0,051
-101,147	729,851	0,051	-0,097
-100,132	-94,248	-0,055	-0,011
-99,118	199,372	-0,080	0,087
-98,103	-200,000	0,039	-0,228
-97,089	-84,186	-0,081	0,018
-96,074	-79,046	0,229	0,055
-95,059	83,881	-0,039	-0,030
-94,045	-200,000	0,009	-0,077
-93,030	707,000	-0,087	-0,164
-92,016	45,225	-0,132	-0,086
-91,001	36,473	0,017	-0,010
-89,986	82,198	-0,029	0,022
-88,972	-200,000	-0,023	0,077
-87,957	-2,926	0,079	-0,039
-86,943	-89,107	-0,139	0,029
-85,928	-96,878	-0,072	-0,013
-84,913	626,965	-0,075	-0,135
-83,899	-145,031	0,061	-0,004
-82,884	-200,000	-0,005	0,043
-81,870	-30,945	-0,032	-0,013
-80,855	619,584	0,018	-0,032
-79,840	-200,000	-0,007	-0,107
-78,826	800,000	0,015	0,041
-77,811	135,921	-0,117	-0,108
-76,797	101,966	0,063	0,052
-75,782	800,000	0,017	-0,051
-74,767	178,144	0,068	-0,070
-73,753	87,841	-0,100	0,079
-72,738	-200,000	0,024	-0,095
-71,724	351,121	0,036	0,051
-70,709	-93,651	-0,013	-0,003
-69,694	25,960	0,047	-0,028
-68,680	118,274	0,067	0,058
-67,665	759,988	-0,067	0,128
-66,651	800,000	0,027	0,058
-65,636	800,000	0,008	-0,022
-64,622	50,113	-0,048	-0,032
-63,607	-106,002	-0,254	-0,040
-62,592	-200,000	-0,025	0,119
-61,578	349,720	0,073	0,102
-60,563	800,000	0,019	0,045
-59,549	-200,000	-0,035	-0,122
-58,534	2,365	-1,992	-1,014
-57,519	345,383	-1,358	-1,888
-56,505	-200,000	-0,383	-4,567
-55,490	479,039	0,897	1,440
-54,476	800,000	4,867	11,110
-53,461	-200,000	20,527	330,258
-52,446	800,000	753,755	2316,866
-51,432	551,578	1659,343	2822,017
-50,417	73,930	1664,958	1230,981
-49,403	19,147	1538,191	868,501
-48,388	13,078	1460,933	795,513
-47,373	18,913	1451,636	818,446
-46,359	16,097	1440,790	798,895
-45,344	11,326	1436,889	773,970
-44,330	11,273	1434,616	772,462
-43,315	11,236	1433,016	771,395
-42,300	11,291	1431,085	770,586
-41,286	11,308	1429,876	769,984
-40,271	11,234	1428,770	769,006
-39,257	11,273	1427,446	768,448
-38,242	11,304	1426,187	767,888
-37,227	11,266	1425,146	767,115
-36,213	11,260	1423,893	766,381
-35,198	11,392	1422,472	766,213
-34,184	11,361	1421,594	765,561
-33,169	11,267	1420,366	764,425
-32,154	11,345	1419,239	764,156
-31,140	11,393	1418,043	763,710
-30,125	11,392	1416,995	763,109
-29,111	11,325	1416,025	762,241
-28,096	11,294	1414,846	761,432
-27,082	11,273	1413,690	760,681
-26,067	11,305	1412,474	760,147
-25,052	11,315	1411,395	759,580
-24,038	11,291	1410,421	758,917
-23,023	11,225	1409,707	758,191
-22,009	11,260	1408,414	757,629
-20,994	11,248	1407,343	756,969
-19,979	11,267	1406,509	756,577
-18,965	11,225	1405,471	755,792
-17,950	11,234	1404,659	755,370
-16,936	11,197	1403,821	754,716
-15,921	11,133	1403,152	754,030
-14,906	11,170	1401,946	753,524
-13,892	11,167	1401,055	753,001
-12,877	11,167	1400,306	752,566
-11,863	11,159	1399,285	751,951
-10,848	11,158	1398,330	751,402
-9,833	11,123	1397,620	750,829
-8,819	11,112	1396,527	750,161
-7,804	11,034	1395,956	749,464
-6,790	11,072	1394,954	749,072
-5,775	11,106	1393,564	748,453
-4,760	11,116	1392,825	748,072
-3,746	11,074	1391,982	747,398
-2,731	11,104	1390,954	746,952
-1,717	11,084	1390,166	746,410
-0,702	11,070	1388,252	745,288
0,313	15,186	1302,681	718,187
1,327	31,411	694,922	420,100
2,342	48,296	120,992	79,713
3,356	2,945	16,565	8,455
4,371	13,166	3,396	1,849
5,386	18,097	0,829	0,465
6,400	-200,000	-0,070	0,362
7,415	60,160	-0,285	-0,199
8,429	-37,579	-0,237	-0,089
9,444	248,046	-0,209	-0,250
10,459	84,368	-0,253	-0,195
11,473	-27,100	-0,467	-0,191
12,488	-148,203	-0,367	-0,021
13,502	66,318	-0,349	-0,250
14,517	100,924	-0,247	-0,202
15,531	3,300	-0,237	-0,121
16,546	46,017	-0,335	-0,218
17,561	59,762	-0,447	-0,310
18,575	-78,739	-0,210	-0,050
19,590	117,268	-0,173	-0,150
20,604	-24,043	-0,291	-0,122
21,619	187,991	-0,346	-0,365
22,634	40,210	-0,411	-0,260
23,648	320,532	-0,332	-0,444
24,663	139,495	-0,410	-0,380
25,677	116,070	-0,352	-0,303
26,692	-108,060	-0,369	-0,056
27,707	187,767	-0,231	-0,243
28,721	308,353	-0,333	-0,439
29,736	100,372	-0,390	-0,318
30,750	52,079	-0,496	-0,332
31,765	79,483	-0,343	-0,259
32,780	60,188	-0,380	-0,264
33,794	128,744	-0,364	-0,327
34,809	8,884	-0,364	-0,192
35,823	124,640	-0,329	-0,291
36,838	88,887	-0,420	-0,328
37,853	235,371	-0,392	-0,455
38,867	82,788	-0,375	-0,286
39,882	144,528	-0,324	-0,304
40,896	62,997	-0,298	-0,210
41,911	167,918	-0,228	-0,228
42,926	126,198	-0,380	-0,338
43,940	196,539	-0,264	-0,283
44,955	282,327	-0,247	-0,313
45,969	-2,385	-0,455	-0,223
46,984	129,655	-0,331	-0,297
47,999	-54,012	-0,444	-0,141
49,013	186,390	-0,211	-0,221
50,028	-56,008	-0,400	-0,124
51,042	-17,831	-0,346	-0,152
52,057	24,773	-0,400	-0,232
53,071	105,306	-0,258	-0,214
54,086	75,525	-0,171	-0,127
55,101	64,999	-0,425	-0,301
56,115	96,146	-0,302	-0,242
57,130	24,304	-0,334	-0,193
58,144	136,679	-0,248	-0,227
59,159	159,431	-0,280	-0,274
60,174	82,114	-0,375	-0,285
61,188	-87,254	-0,476	-0,101
62,203	46,721	-0,294	-0,191
63,217	800,000	-0,171	-0,391
64,232	78,349	-0,280	-0,209
65,247	137,363	-0,297	-0,273
66,261	-72,833	-0,453	-0,116
67,276	-1,893	-0,527	-0,259
68,290	59,585	-0,350	-0,242
69,305	-2,289	-0,345	-0,169
70,320	-137,519	-0,520	0,041
71,334	26,723	-0,324	-0,189
72,349	523,719	-0,151	-0,249
73,363	62,792	-0,427	-0,299
74,378	105,757	-0,290	-0,241
75,393	676,647	-0,145	-0,266
76,407	-62,745	-0,352	-0,102
77,422	-26,665	-0,262	-0,107
78,436	5,109	-0,275	-0,141
79,451	166,428	-0,209	-0,208
80,466	26,135	-0,349	-0,203
81,480	45,626	-0,432	-0,279
82,495	2,912	-0,305	-0,155
83,509	-8,348	-0,271	-0,127
84,524	79,901	-0,251	-0,189
85,539	800,000	-0,112	-0,331
86,553	31,173	-0,423	-0,253
87,568	-49,501	-0,276	-0,092
88,582	39,817	-0,348	-0,218
89,597	100,471	-0,245	-0,199
90,611	172,503	-0,213	-0,214
91,626	-124,632	-0,164	0,018
92,641	86,049	-0,309	-0,238
93,655	-7,753	-0,261	-0,123
94,670	27,821	-0,317	-0,186
95,684	127,800	-0,367	-0,327
96,699	67,090	-0,238	-0,169
97,714	-30,164	-0,348	-0,138
98,728	-15,766	-0,363	-0,161
99,743	19,190	-0,266	-0,149
100,757	-19,705	-0,357	-0,154
101,772	-5,186	-0,198	-0,095
102,787	6,869	-0,317	-0,164
103,801	-4,060	-0,286	-0,138
104,816	-37,680	-0,352	-0,131
105,830	130,725	-0,143	-0,128
106,845	136,417	-0,193	-0,176
107,860	-69,429	-0,273	-0,073
108,874	-77,797	-0,298	-0,071
109,889	13,565	-0,208	-0,112
110,903	469,049	-0,181	-0,286
111,918	76,025	-0,214	-0,158
112,933	-196,134	-0,262	0,001
113,947	102,878	-0,239	-0,195
114,962	-17,435	-0,228	-0,100
115,976	208,683	-0,246	-0,269
116,991	96,490	-0,279	-0,223
118,006	161,424	-0,331	-0,324
119,020	45,097	-0,231	-0,148
120,035	-26,761	-0,253	-0,103
121,049	25,945	-0,203	-0,118
122,064	37,705	-0,250	-0,155
123,079	14,648	-0,445	-0,242
124,093	26,140	-0,277	-0,161
125,108	86,776	-0,309	-0,238
126,122	12,384	-0,238	-0,128
127,137	-83,755	-0,117	-0,026
128,151	-10,163	-0,274	-0,126
129,166	235,067	-0,297	-0,343
130,181	58,731	-0,222	-0,152
131,195	88,787	-0,271	-0,210
132,210	-27,290	-0,294	-0,119
133,224	-122,697	-0,320	-0,036
134,239	9,095	-0,166	-0,087
135,254	800,000	-0,092	-0,217
136,268	800,000	-0,097	-0,205
137,283	29,998	-0,303	-0,180
138,297	371,004	-0,159	-0,225
139,312	331,659	-0,186	-0,250
140,327	800,000	-0,156	-0,307
141,341	24,536	-0,223	-0,128
142,356	-41,510	-0,242	-0,086
143,370	40,456	-0,257	-0,161
144,385	36,303	-0,213	-0,131
145,400	-193,977	-0,220	0,001
146,414	-30,943	-0,279	-0,109
147,429	83,223	-0,306	-0,231
148,443	-17,656	-0,248	-0,108
149,458	143,070	-0,172	-0,160
150,473	150,505	-0,196	-0,185
151,487	80,421	-0,274	-0,205
152,502	22,876	-0,284	-0,161
153,516	65,377	-0,281	-0,198
154,531	166,518	-0,257	-0,253
155,546	-111,352	-0,287	-0,040
156,560	49,647	-0,237	-0,155
157,575	284,335	-0,116	-0,145
158,589	85,944	-0,219	-0,167
159,604	-88,764	-0,294	-0,060
160,619	-188,774	-0,292	0,002
161,633	-36,027	-0,220	-0,082
162,648	366,455	-0,211	-0,297
163,662	-41,330	-0,373	-0,133
164,677	35,792	-0,209	-0,128
165,692	444,414	-0,147	-0,226
166,706	-100,650	-0,149	0,025
167,721	37,822	-0,231	-0,142
168,735	-14,233	-0,230	-0,103
169,750	-194,261	-0,247	-0,001
170,764	-200,000	-0,184	0,000
171,779	174,904	-0,184	-0,185
172,794	132,289	-0,229	-0,205
173,808	119,297	-0,239	-0,205
174,823	-59,462	-0,328	-0,097
175,837	-12,257	-0,189	-0,085
176,852	111,597	-0,244	-0,205
177,867	-38,754	-0,175	-0,064
178,881	142,437	-0,259	-0,239
179,896	104,735	-0,227	-0,186
180,910	143,529	-0,239	-0,221
181,925	6,809	-0,398	-0,205
182,940	123,610	-0,198	-0,172
183,954	205,907	-0,154	-0,166
184,969	101,018	-0,249	-0,201
185,983	65,803	-0,227	-0,160
186,998	141,447	-0,177	-0,163
188,013	94,108	-0,149	-0,117
189,027	26,738	-0,220	-0,128
190,042	210,313	-0,128	-0,140
191,056	245,707	-0,192	-0,224
192,071	-15,770	-0,267	-0,118
193,086	41,811	-0,120	-0,075
194,100	108,697	-0,090	0,074
195,115	125,095	-0,074	0,065
196,129	6,098	-0,242	-0,124
197,144	163,079	-0,248	-0,241
198,159	-4,025	-0,306	-0,147
199,173	-31,240	-0,245	-0,095
200,188	-28,541	-0,215	-0,086
201,202	123,542	-0,171	-0,149
202,217	-73,124	-0,174	0,044
203,232	10,959	-0,286	-0,151
204,246	130,363	-0,183	-0,163
205,261	207,512	-0,094	-0,102
206,275	189,639	-0,202	-0,210
207,290	64,484	-0,273	-0,190
208,304	312,679	-0,127	-0,166
209,319	43,537	-0,120	-0,076
210,334	35,595	-0,194	-0,118
211,348	120,457	-0,137	-0,118
212,363	96,710	-0,280	-0,222
213,377	155,154	-0,151	-0,144
214,392	265,164	-0,154	-0,186
215,407	130,520	-0,179	-0,158
216,421	608,381	-0,124	-0,214
217,436	129,919	-0,145	-0,128
218,450	176,192	-0,219	-0,221
219,465	39,931	-0,344	-0,213
220,480	-20,383	-0,180	-0,076
221,494	-22,989	-0,198	-0,082
222,509	800,000	-0,078	-0,219
223,523	380,101	-0,069	-0,098
224,538	91,638	-0,242	-0,188
225,553	800,000	-0,086	-0,258
226,567	259,655	-0,089	-0,106
227,582	-200,000	-0,070	-0,217
228,596	-50,216	-0,144	-0,047
229,611	277,619	-0,153	-0,188
230,626	0,923	-0,141	-0,070
231,640	212,637	-0,259	-0,282
232,655	-35,634	-0,115	-0,043
233,669	574,174	-0,137	-0,231
234,684	144,631	-0,189	-0,175
235,699	-71,703	-0,185	-0,047
236,713	-91,916	-0,131	0,025
237,728	-2,061	-0,193	-0,093
238,742	-167,172	-0,081	-0,002
239,757	800,000	-0,061	-0,152
240,772	5,019	-0,183	-0,093
241,786	196,967	-0,084	-0,088
242,801	165,280	-0,227	-0,221
243,815	4,347	-0,156	-0,079
244,830	218,024	-0,132	-0,146
245,844	-67,961	-0,208	-0,056
246,859	-15,251	-0,279	-0,123
247,874	-181,441	-0,241	0,003
248,888	-146,926	-0,277	-0,016
249,903	548,704	-0,150	-0,249
250,917	9,463	-0,146	-0,076
251,932	2,196	-0,180	-0,089
252,947	109,558	-0,195	-0,161
253,961	147,552	-0,206	-0,192
254,976	135,915	-0,123	0,110
255,990	82,937	-0,100	-0,075
257,005	230,877	-0,103	-0,117
258,020	-28,348	-0,186	-0,074
259,034	-200,000	-0,252	-0,001
260,049	-35,216	-0,222	-0,083
261,063	-66,759	-0,196	-0,053
262,078	76,112	-0,208	-0,151
263,093	16,356	-0,135	-0,073
264,107	800,000	-0,122	-0,254
265,122	83,584	-0,140	0,105
266,136	52,251	-0,168	-0,110
267,151	-21,623	-0,280	0,117
268,166	28,689	-0,071	-0,041
269,180	85,659	-0,236	-0,179
270,195	380,898	-0,159	-0,225
271,209	-113,374	-0,162	-0,022
272,224	21,909	-0,223	-0,125
273,239	198,498	-0,072	-0,075
274,253	417,820	-0,081	-0,120
275,268	-28,033	-0,303	-0,120
276,282	86,522	-0,117	-0,089
277,297	21,121	-0,261	-0,146
278,312	-200,000	-0,021	-0,168
279,326	800,000	-0,059	-0,160
280,341	89,788	-0,211	-0,162
281,355	800,000	-0,088	-0,183
282,370	252,567	-0,142	-0,166
283,384	43,220	-0,037	0,023
284,399	4,686	-0,236	-0,119
285,414	89,077	-0,120	-0,092
286,428	139,519	-0,146	-0,133
287,443	800,000	-0,016	-0,038
288,457	-69,322	-0,335	-0,088
289,472	-114,799	-0,077	0,010
290,487	-65,677	-0,134	0,037
291,501	200,097	-0,259	-0,274
292,516	415,302	-0,075	-0,110
293,530	325,680	-0,165	-0,218
294,545	-132,996	-0,241	0,021
295,560	-47,299	-0,202	0,067
296,574	135,240	-0,149	-0,133
297,589	85,803	-0,149	-0,112
298,603	378,553	-0,188	-0,264
299,618	241,745	-0,208	-0,239
300,633	206,130	-0,091	-0,097
301,647	-123,768	-0,060	0,006
302,662	45,245	-0,095	-0,060
303,676	282,658	-0,083	-0,103
304,691	238,079	-0,186	-0,212
305,706	70,850	-0,242	-0,172
306,720	-141,440	-0,182	-0,012
307,735	13,317	-0,110	0,058
308,749	800,000	-0,049	-0,122
309,764	1,086	-0,069	0,034
310,779	-54,293	-0,272	-0,084
311,793	119,311	-0,224	-0,190
312,808	2,802	-0,164	-0,082
313,822	480,270	-0,106	-0,166
314,837	-25,113	-0,154	-0,062
315,852	-12,276	-0,139	-0,062
316,866	502,773	-0,079	-0,126
317,881	91,630	-0,307	-0,237
318,895	-200,000	-0,046	-0,204
319,910	101,131	-0,139	-0,111
320,925	-53,048	-0,250	-0,078
321,939	800,000	-0,042	-0,089
322,954	-55,739	-0,214	-0,065
323,968	44,783	-0,108	-0,068
324,983	-99,207	-0,192	0,033
325,997	16,542	-0,183	-0,099
327,012	-96,976	-0,126	-0,022
328,027	-31,485	-0,137	-0,053
329,041	-195,128	-0,099	-0,001
330,056	-26,102	-0,167	-0,067
331,070	-200,000	0,015	-0,136
332,085	800,000	0,026	-0,052
333,100	800,000	0,036	-0,085
334,114	45,329	-0,034	-0,021
335,129	113,850	-0,164	-0,137
336,143	198,206	-0,065	-0,068
337,158	-13,095	-0,051	0,023
338,173	-113,830	-0,083	0,011
339,187	10,324	-0,136	-0,071
340,202	17,990	-0,159	-0,087
341,216	339,118	-0,139	-0,186
342,231	-135,897	-0,195	-0,016
343,246	24,477	-0,197	-0,111
344,260	224,746	-0,068	-0,075
345,275	223,081	-0,152	-0,167
346,289	-55,408	-0,158	0,048
347,304	173,508	-0,089	-0,088
348,319	-126,270	-0,242	0,024
349,333	265,303	-0,022	-0,027
350,348	355,454	-0,094	-0,128
351,362	-83,438	-0,226	-0,049
352,377	301,121	-0,097	-0,123
353,392	-79,684	-0,129	-0,030
354,406	-51,356	-0,167	-0,053
355,421	208,666	1313,061	1406,212
356,435	160,568	1473,570	1406,691
