DTS Sentinel unit serial number:	SN410029Multiplexer serial number:	ORYXHardware model number:	OX2-SRSoftware version number:	ORYX F/W v4,00 Oryx Data Collector v3.7.2.0data status	okinstallation	B3 Nyhavnadifferential loss correction	single-endedforward channel	channel 1reverse channel	N/Adate	2023/11/29time	08:02:30forward acquisition time	300,00reverse acquisition time	0,00gamma	499,1914k internal	0,3212k external	0,3212temperature offset calibration	1,0000default loss term (dB/km)	0,3820temperature slope calibration	1,0000multiplexer offset coefficient	1,0000multiplexer slope coefficient	1,0000fibre end	0,00T internal ref (°C)	8,87T ext. ref 1 (°C)	-6,33T ext. ref 2 (°C)	-6,43length (m)	temperature (°C)	Stokes	anti-Stokes-744,400	277,529	-0,214	-0,277
-743,385	-200,000	0,047	0,193
-742,371	-200,000	-0,073	-0,263
-741,356	-200,000	-0,059	0,213
-740,342	91,932	-0,178	-0,145
-739,327	-200,000	-0,000	0,297
-738,312	297,002	-0,213	-0,283
-737,298	494,097	-0,109	0,182
-736,283	800,000	-0,099	-0,258
-735,269	-200,000	0,001	0,148
-734,254	267,637	-0,149	-0,189
-733,239	-20,933	-0,204	0,090
-732,225	746,472	-0,133	-0,261
-731,210	-9,794	0,243	0,117
-730,196	800,000	0,035	0,073
-729,181	-154,409	-0,152	-0,007
-728,167	-132,550	-0,039	0,004
-727,152	116,723	0,043	-0,039
-726,137	311,887	0,020	-0,027
-725,123	-77,710	-0,117	-0,029
-724,108	148,709	0,077	-0,075
-723,094	-92,404	-0,033	0,007
-722,079	-119,820	-0,146	-0,018
-721,064	800,000	-0,038	0,105
-720,050	-200,000	-0,020	0,064
-719,035	800,000	-0,010	-0,024
-718,021	38,119	-0,112	-0,072
-717,006	-151,662	-0,088	0,005
-715,991	783,777	-0,092	-0,183
-714,977	-155,593	0,097	-0,004
-713,962	-85,772	-0,065	0,014
-712,948	32,411	0,081	0,051
-711,933	65,194	-0,073	0,053
-710,918	28,463	-0,026	-0,016
-709,904	54,522	-0,120	-0,083
-708,889	-200,000	0,003	0,032
-707,875	255,567	-0,076	-0,095
-706,860	800,000	-0,042	-0,091
-705,845	48,432	0,126	0,085
-704,831	-41,828	0,152	0,056
-703,816	-99,696	-0,107	0,019
-702,802	141,623	0,068	-0,065
-701,787	-200,000	-0,023	-0,132
-700,772	382,058	0,095	-0,142
-699,758	775,506	0,010	-0,020
-698,743	612,414	0,071	-0,129
-697,729	800,000	0,067	-0,194
-696,714	800,000	0,044	-0,092
-695,699	-2,486	-0,141	0,071
-694,685	458,361	0,035	-0,057
-693,670	676,220	-0,022	-0,041
-692,656	73,396	-0,103	0,078
-691,641	-200,000	-0,007	-0,034
-690,627	-23,871	0,082	0,036
-689,612	800,000	0,039	0,114
-688,597	-117,921	-0,145	0,019
-687,583	-140,055	-0,109	0,008
-686,568	800,000	0,006	-0,017
-685,554	570,398	-0,079	0,140
-684,539	135,835	0,067	0,063
-683,524	0,055	-0,030	0,015
-682,510	800,000	0,043	0,101
-681,495	800,000	0,018	0,054
-680,481	42,896	-0,083	-0,055
-679,466	-200,000	-0,013	-0,102
-678,451	39,110	-0,063	0,040
-677,437	98,885	-0,036	0,030
-676,422	146,513	-0,059	0,057
-675,408	120,356	0,060	0,054
-674,393	-161,080	0,044	-0,002
-673,378	-10,622	-0,066	0,031
-672,364	800,000	-0,028	-0,085
-671,349	800,000	-0,008	-0,016
-670,335	800,000	0,025	0,060
-669,320	148,022	0,065	0,064
-668,305	800,000	0,035	0,093
-667,291	629,239	-0,036	-0,067
-666,276	-200,000	-0,011	-0,149
-665,262	-20,940	-0,068	-0,030
-664,247	600,014	0,016	-0,029
-663,232	-10,381	0,106	-0,051
-662,218	249,503	0,064	0,079
-661,203	-153,470	0,077	0,004
-660,189	131,889	-0,052	0,048
-659,174	800,000	-0,018	-0,057
-658,159	43,273	-0,085	-0,056
-657,145	-200,000	-0,049	-0,188
-656,130	257,695	0,037	-0,046
-655,116	192,312	-0,023	-0,026
-654,101	794,673	0,042	0,084
-653,086	-200,000	0,012	0,073
-652,072	-200,000	0,005	0,047
-651,057	800,000	0,039	0,091
-650,043	235,697	0,033	-0,040
-649,028	-200,000	-0,027	-0,110
-648,014	748,402	0,045	-0,088
-646,999	208,754	-0,029	-0,033
-645,984	800,000	0,085	0,190
-644,970	37,133	-0,136	-0,087
-643,955	800,000	0,005	0,016
-642,941	56,274	-0,089	-0,062
-641,926	-200,000	-0,000	-0,068
-640,911	299,688	0,041	-0,055
-639,897	4,872	0,019	-0,010
-638,882	800,000	0,023	0,057
-637,868	800,000	-0,017	0,036
-636,853	-24,726	-0,054	0,023
-635,838	124,795	0,065	-0,059
-634,824	136,636	-0,025	-0,023
-633,809	-200,000	0,013	0,089
-632,795	189,171	0,030	0,033
-631,780	147,896	0,036	0,036
-630,765	-22,450	0,022	0,009
-629,751	-113,134	-0,119	0,017
-628,736	-15,630	0,098	0,045
-627,722	-170,496	-0,127	0,003
-626,707	-129,170	0,052	-0,005
-625,692	179,199	0,079	-0,083
-624,678	-24,318	-0,102	0,044
-623,663	-158,144	-0,141	-0,006
-622,649	569,760	-0,060	-0,107
-621,634	95,621	-0,142	-0,117
-620,619	-200,000	0,027	-0,117
-619,605	-24,751	0,095	0,041
-618,590	45,415	0,014	0,009
-617,576	-83,686	0,099	-0,023
-616,561	529,979	-0,063	-0,108
-615,546	-200,000	-0,025	-0,097
-614,532	204,349	-0,013	-0,015
-613,517	800,000	0,007	-0,021
-612,503	-200,000	-0,005	-0,102
-611,488	-200,000	0,004	0,031
-610,474	24,787	-0,156	0,093
-609,459	-130,397	0,088	0,009
-608,444	432,298	-0,089	-0,139
-607,430	170,167	0,158	-0,163
-606,415	-18,629	-0,021	-0,009
-605,401	-84,372	-0,123	-0,028
-604,386	-42,770	0,092	-0,033
-603,371	800,000	0,036	-0,078
-602,357	-72,978	0,077	0,020
-601,342	186,699	-0,059	0,063
-600,328	40,940	-0,044	0,028
-599,313	-50,587	-0,049	-0,017
-598,298	-200,000	0,016	0,064
-597,284	319,193	-0,030	0,041
-596,269	183,188	-0,028	-0,029
-595,255	-200,000	-0,038	-0,158
-594,240	-6,459	-0,011	-0,005
-593,225	-18,353	0,082	-0,037
-592,211	800,000	-0,057	-0,143
-591,196	37,831	0,046	-0,029
-590,182	800,000	0,087	-0,175
-589,167	-5,676	0,041	0,020
-588,152	-200,000	0,011	0,067
-587,138	-200,000	-0,011	-0,042
-586,123	-200,000	-0,008	-0,090
-585,109	-200,000	-0,032	-0,110
-584,094	225,536	0,049	0,058
-583,079	800,000	0,029	-0,090
-582,065	356,017	0,090	-0,130
-581,050	-200,000	-0,030	-0,136
-580,036	-122,181	0,158	-0,018
-579,021	-200,000	-0,008	0,045
-578,006	-200,000	0,006	-0,053
-576,992	122,900	0,061	0,055
-575,977	-200,000	0,021	0,070
-574,963	-200,000	0,008	0,228
-573,948	351,665	0,092	-0,132
-572,934	-200,000	0,000	-0,052
-571,919	800,000	-0,033	0,075
-570,904	382,493	0,037	0,055
-569,890	-11,990	0,051	-0,024
-568,875	-154,000	0,189	-0,009
-567,861	-129,835	0,049	-0,005
-566,846	800,000	0,033	-0,083
-565,831	50,129	-0,084	-0,057
-564,817	-149,872	-0,154	0,009
-563,802	784,556	0,021	-0,041
-562,788	83,240	0,058	-0,045
-561,773	-60,611	-0,107	0,032
-560,758	-74,937	-0,086	-0,022
-559,744	-27,586	0,080	-0,033
-558,729	66,244	0,067	-0,049
-557,715	213,770	-0,049	0,056
-556,700	800,000	0,011	-0,033
-555,685	30,876	-0,070	0,043
-554,671	-127,365	0,128	-0,013
-553,656	58,844	0,056	-0,040
-552,642	225,628	0,122	0,142
-551,627	-180,350	0,095	0,001
-550,612	-85,625	-0,109	-0,024
-549,598	-58,351	-0,131	0,041
-548,583	-124,469	-0,083	0,009
-547,569	-121,288	-0,143	0,017
-546,554	800,000	0,018	0,051
-545,539	-133,005	-0,030	0,003
-544,525	800,000	0,022	0,055
-543,510	-115,714	-0,150	0,020
-542,496	-94,625	-0,104	-0,020
-541,481	-200,000	0,014	-0,112
-540,466	18,055	-0,101	-0,058
-539,452	13,205	-0,026	0,014
-538,437	-200,000	0,009	0,080
-537,423	800,000	0,050	0,103
-536,408	49,190	-0,049	-0,033
-535,393	-87,389	0,095	-0,021
-534,379	1,005	-0,037	0,019
-533,364	-52,907	0,131	-0,043
-532,350	108,122	0,161	-0,138
-531,335	22,786	0,045	-0,026
-530,321	-73,864	0,162	0,042
-529,306	-52,188	-0,231	-0,076
-528,291	113,091	-0,123	-0,107
-527,277	442,410	-0,024	-0,038
-526,262	258,917	-0,059	0,074
-525,248	32,407	-0,046	0,029
-524,233	-20,462	0,166	0,073
-523,218	800,000	0,052	-0,113
-522,204	800,000	-0,052	0,107
-521,189	-200,000	-0,037	-0,140
-520,175	-200,000	-0,003	0,037
-519,160	-71,383	-0,043	0,011
-518,145	-55,264	-0,054	0,017
-517,131	-200,000	-0,004	-0,058
-516,116	-200,000	-0,012	-0,044
-515,102	-183,432	-0,045	-0,001
-514,087	51,318	-0,087	-0,060
-513,072	107,478	0,100	-0,085
-512,058	-73,119	0,077	0,020
-511,043	45,372	0,042	0,028
-510,029	800,000	0,022	-0,047
-509,014	356,690	-0,048	0,069
-507,999	114,514	0,098	0,086
-506,985	-158,380	0,095	0,004
-505,970	-200,000	-0,042	-0,196
-504,956	296,900	-0,040	-0,052
-503,941	-200,000	-0,002	0,098
-502,926	83,775	0,097	0,076
-501,912	-200,000	0,024	0,101
-500,897	126,907	0,052	0,047
-499,883	59,567	0,028	-0,019
-498,868	-200,000	-0,001	-0,121
-497,853	457,814	0,108	0,174
-496,839	800,000	0,070	0,147
-495,824	18,033	0,120	0,069
-494,810	-95,314	0,169	-0,032
-493,795	72,415	0,106	0,079
-492,781	21,819	-0,097	0,056
-491,766	-200,000	0,032	0,119
-490,751	800,000	0,020	-0,041
-489,737	-73,416	0,206	0,054
-488,722	-25,373	0,103	0,044
-487,708	203,281	0,020	0,023
-486,693	255,757	-0,084	0,103
-485,678	439,955	-0,033	-0,052
-484,664	114,646	0,060	0,053
-483,649	-102,167	0,076	-0,013
-482,635	659,454	0,049	-0,092
-481,620	-142,666	-0,125	0,009
-480,605	-38,147	0,096	0,036
-479,591	514,781	0,032	-0,053
-478,576	141,891	0,097	-0,092
-477,562	-200,000	0,010	-0,047
-476,547	800,000	-0,041	0,127
-475,532	-90,474	-0,112	0,023
-474,518	-200,000	0,028	0,155
-473,503	-106,453	0,210	-0,033
-472,489	-200,000	0,022	0,087
-471,474	-200,000	0,003	-0,090
-470,459	-167,493	0,100	-0,003
-469,445	-200,000	-0,017	0,085
-468,430	244,351	-0,051	0,062
-467,416	28,917	0,110	0,067
-466,401	-200,000	0,011	-0,074
-465,386	-41,790	-0,036	0,013
-464,372	71,444	0,049	0,037
-463,357	103,290	-0,056	-0,047
-462,343	153,062	-0,135	0,132
-461,328	-200,000	-0,019	0,133
-460,313	-52,230	0,030	-0,010
-459,299	800,000	-0,024	0,052
-458,284	-41,139	-0,028	0,010
-457,270	317,036	-0,087	0,118
-456,255	95,290	-0,019	0,016
-455,241	17,485	0,032	-0,018
-454,226	-31,025	-0,196	-0,079
-453,211	56,610	-0,105	0,073
-452,197	21,044	0,112	0,065
-451,182	-38,893	-0,047	-0,018
-450,168	477,919	-0,046	-0,075
-449,153	-200,000	-0,004	0,061
-448,138	133,447	-0,034	0,032
-447,124	43,767	0,082	0,053
-446,109	-46,474	0,049	-0,017
-445,095	-200,000	-0,059	0,299
-444,080	-200,000	0,027	0,128
-443,065	250,088	-0,022	0,027
-442,051	43,459	0,030	0,020
-441,036	-200,000	-0,022	-0,137
-440,022	73,818	0,101	-0,075
-439,007	800,000	-0,031	-0,062
-437,992	-42,219	-0,100	0,036
-436,978	-114,972	-0,023	-0,003
-435,963	15,866	0,047	-0,027
-434,949	-200,000	0,020	0,075
-433,934	-200,000	0,016	-0,145
-432,919	49,677	-0,057	-0,038
-431,905	420,207	0,101	-0,155
-430,890	-115,695	-0,130	0,017
-429,876	187,136	-0,015	0,016
-428,861	-79,292	0,024	0,006
-427,846	-44,633	-0,016	-0,006
-426,832	-200,000	-0,019	-0,099
-425,817	-200,000	-0,030	-0,095
-424,803	526,317	0,046	-0,078
-423,788	307,335	-0,045	-0,060
-422,773	-123,564	0,179	0,020
-421,759	-24,775	-0,041	0,017
-420,744	-177,557	-0,064	-0,001
-419,730	-200,000	0,004	-0,031
-418,715	135,566	0,050	0,047
-417,701	-200,000	-0,019	0,093
-416,686	355,497	-0,027	0,039
-415,671	-200,000	0,024	0,124
-414,657	800,000	0,064	0,175
-413,642	333,136	-0,116	-0,161
-412,628	309,988	0,083	0,112
-411,613	264,970	-0,078	0,098
-410,598	-29,042	0,010	-0,004
-409,584	125,631	0,032	-0,029
-408,569	60,227	-0,059	0,042
-407,555	-200,000	0,002	0,012
-406,540	729,325	-0,028	0,053
-405,525	-116,354	-0,082	-0,011
-404,511	800,000	0,071	-0,155
-403,496	-200,000	0,005	-0,216
-402,482	800,000	0,024	-0,072
-401,467	-4,246	0,049	0,024
-400,452	-200,000	0,010	-0,046
-399,438	-143,622	0,048	0,003
-398,423	153,177	0,112	-0,110
-397,409	59,786	-0,055	0,039
-396,394	-9,476	0,207	0,098
-395,379	11,642	-0,139	0,076
-394,365	-200,000	0,003	0,093
-393,350	70,128	-0,071	0,053
-392,336	232,414	-0,097	-0,115
-391,321	-131,180	0,120	0,011
-390,306	-180,524	-0,113	-0,002
-389,292	71,468	0,050	-0,037
-388,277	648,150	-0,103	0,189
-387,263	145,376	0,117	0,112
-386,248	110,899	0,061	-0,052
-385,233	800,000	-0,052	0,151
-384,219	800,000	-0,037	-0,097
-383,204	-25,379	-0,086	-0,036
-382,190	732,956	-0,003	-0,006
-381,175	800,000	-0,051	0,126
-380,160	-53,035	-0,117	0,038
-379,146	-123,719	0,026	0,003
-378,131	-200,000	0,005	0,038
-377,117	125,484	0,041	-0,037
-376,102	-90,103	-0,078	0,016
-375,088	717,468	0,018	-0,034
-374,073	311,644	-0,077	0,103
-373,058	-200,000	0,039	0,000
-372,044	219,515	-0,053	-0,060
-371,029	86,899	0,066	0,052
-370,015	-124,607	-0,067	-0,007
-369,000	-200,000	-0,007	-0,055
-367,985	-24,981	-0,053	0,022
-366,971	-69,912	0,105	-0,028
-365,956	-200,000	0,028	-0,169
-364,942	255,910	0,022	-0,027
-363,927	605,748	0,008	-0,015
-362,912	250,248	-0,016	0,019
-361,898	369,684	-0,068	-0,099
-360,883	-53,230	-0,119	-0,039
-359,869	127,572	0,015	0,014
-358,854	-123,133	0,126	-0,014
-357,839	8,520	0,085	-0,046
-356,825	380,310	-0,087	0,128
-355,810	-200,000	-0,022	0,161
-354,796	533,254	0,011	-0,019
-353,781	27,959	-0,031	-0,018
-352,766	125,548	-0,024	0,022
-351,752	349,248	0,070	-0,099
-350,737	45,737	0,055	-0,036
-349,723	345,880	0,058	0,082
-348,708	112,604	0,108	-0,094
-347,693	609,866	-0,079	-0,142
-346,679	-88,613	-0,188	-0,040
-345,664	-50,802	-0,096	-0,032
-344,650	800,000	0,030	-0,081
-343,635	-11,483	0,050	0,023
-342,620	53,930	0,111	0,076
-341,606	164,364	0,104	-0,104
-340,591	566,796	-0,037	-0,065
-339,577	157,483	-0,057	-0,056
-338,562	415,432	-0,082	0,125
-337,548	429,267	0,035	0,053
-336,533	389,678	0,040	0,060
-335,518	-44,311	-0,217	-0,077
-334,504	-200,000	0,025	0,124
-333,489	288,183	0,042	0,054
-332,475	48,386	0,060	0,040
-331,460	712,794	-0,075	-0,142
-330,445	-117,772	-0,108	0,014
-329,431	-200,000	-0,043	0,152
-328,416	800,000	0,061	-0,168
-327,402	-200,000	-0,015	-0,078
-326,387	129,610	0,117	0,107
-325,372	-124,871	-0,059	-0,006
-324,358	406,859	-0,109	-0,165
-323,343	42,306	0,119	-0,077
-322,329	-33,718	-0,108	-0,042
-321,314	-200,000	-0,011	-0,044
-320,299	63,811	0,031	0,022
-319,285	131,285	0,099	-0,090
-318,270	51,878	-0,111	-0,075
-317,256	-107,966	0,056	-0,009
-316,241	-90,001	0,132	0,027
-315,226	58,099	-0,021	0,015
-314,212	-200,000	0,000	-0,008
-313,197	73,632	0,052	-0,039
-312,183	26,133	0,036	0,022
-311,168	-161,317	-0,137	0,005
-310,153	800,000	0,028	-0,086
-309,139	255,967	0,089	-0,108
-308,124	800,000	-0,036	-0,086
-307,110	188,068	-0,045	0,048
-306,095	457,210	0,006	0,010
-305,080	-52,080	-0,071	0,023
-304,066	764,809	0,009	-0,017
-303,051	800,000	-0,003	0,010
-302,037	-78,674	-0,088	0,021
-301,022	179,192	0,068	-0,071
-300,008	542,518	0,078	0,134
-298,993	166,875	-0,127	0,129
-297,978	800,000	-0,039	-0,118
-296,964	160,573	0,119	-0,119
-295,949	784,745	-0,095	-0,186
-294,935	-101,852	-0,112	-0,019
-293,920	-200,000	-0,016	0,172
-292,905	-195,395	0,081	0,000
-291,891	38,890	-0,086	0,055
-290,876	-200,000	0,001	0,051
-289,862	-14,863	0,019	0,009
-288,847	56,456	-0,054	-0,037
-287,832	24,619	0,063	-0,037
-286,818	-200,000	-0,001	-0,038
-285,803	-142,857	0,109	-0,007
-284,789	10,146	0,060	0,032
-283,774	-200,000	-0,044	0,155
-282,759	-134,695	0,090	-0,008
-281,745	19,530	-0,140	0,080
-280,730	81,047	-0,093	0,072
-279,716	33,034	0,136	-0,084
-278,701	-44,730	0,064	0,023
-277,686	532,629	-0,076	0,129
-276,672	-54,087	0,154	0,050
-275,657	-200,000	0,004	-0,115
-274,643	800,000	-0,028	-0,083
-273,628	-71,132	-0,115	0,031
-272,613	-200,000	0,042	-0,148
-271,599	39,638	0,046	0,029
-270,584	140,629	-0,010	0,009
-269,570	-200,000	0,021	0,141
-268,555	489,894	-0,041	0,066
-267,540	-57,289	0,033	-0,010
-266,526	53,347	-0,073	-0,050
-265,511	-200,000	-0,015	-0,131
-264,497	800,000	-0,033	-0,100
-263,482	800,000	-0,033	-0,081
-262,467	75,197	0,072	-0,054
-261,453	-0,369	0,100	0,050
-260,438	16,176	0,083	-0,047
-259,424	30,640	-0,133	-0,081
-258,409	510,226	-0,004	0,007
-257,395	336,395	0,060	0,082
-256,380	-82,272	-0,074	0,017
-255,365	-200,000	0,015	0,067
-254,351	-200,000	0,009	0,067
-253,336	800,000	-0,064	0,167
-252,322	-200,000	-0,015	0,047
-251,307	-101,091	-0,019	-0,003
-250,292	-7,871	-0,131	-0,063
-249,278	-0,888	0,061	0,031
-248,263	38,361	0,132	-0,083
-247,249	-16,054	0,130	0,059
-246,234	22,835	-0,090	0,052
-245,219	-75,895	-0,124	0,031
-244,205	121,264	-0,067	0,059
-243,190	-200,000	-0,019	0,065
-242,176	-31,226	-0,098	0,039
-241,161	-17,395	-0,128	0,057
-240,146	-142,327	0,119	-0,008
-239,132	-105,305	-0,084	-0,014
-238,117	60,942	-0,042	-0,030
-237,103	-79,529	0,017	-0,004
-236,088	213,060	-0,064	0,072
-235,073	493,103	0,088	0,144
-234,059	800,000	-0,038	-0,078
-233,044	800,000	-0,025	-0,062
-232,030	800,000	0,062	0,144
-231,015	72,692	0,052	-0,038
-230,000	178,235	-0,014	-0,014
-228,986	235,322	0,038	0,045
-227,971	800,000	-0,046	0,124
-226,957	156,215	0,049	0,048
-225,942	321,954	0,085	0,115
-224,927	-200,000	0,012	0,052
-223,913	260,689	0,100	-0,123
-222,898	-200,000	0,012	-0,200
-221,884	-0,022	0,051	0,026
-220,869	364,620	0,028	-0,041
-219,855	-200,000	-0,016	-0,072
-218,840	-29,601	-0,091	0,037
-217,825	19,117	-0,029	-0,017
-216,811	-200,000	0,018	0,074
-215,796	800,000	-0,046	-0,117
-214,782	119,049	0,108	-0,094
-213,767	-200,000	-0,005	0,072
-212,752	92,725	-0,091	0,073
-211,738	423,968	-0,023	-0,035
-210,723	61,149	-0,050	0,035
-209,709	-167,062	-0,050	-0,001
-208,694	114,478	-0,100	0,086
-207,679	800,000	0,033	0,091
-206,665	800,000	0,029	0,061
-205,650	-39,942	-0,093	0,034
-204,636	248,351	0,073	0,088
-203,621	49,989	0,093	-0,062
-202,606	-10,168	-0,145	-0,068
-201,592	-200,000	0,024	-0,192
-200,577	-200,000	0,038	-0,125
-199,563	426,860	-0,010	-0,015
-198,548	384,047	0,069	0,101
-197,533	-10,358	0,047	0,022
-196,519	272,396	-0,054	0,067
-195,504	258,651	0,151	-0,185
-194,490	636,150	0,047	-0,084
-193,475	25,609	-0,112	0,066
-192,460	11,407	0,027	0,015
-191,446	131,714	0,048	0,044
-190,431	-200,000	0,015	0,067
-189,417	34,324	-0,134	0,083
-188,402	-200,000	0,015	0,087
-187,387	321,000	-0,009	-0,012
-186,373	453,443	0,049	-0,077
-185,358	-111,557	-0,140	-0,020
-184,344	159,235	0,074	0,073
-183,329	-200,000	-0,018	0,087
-182,315	399,024	-0,128	0,191
-181,300	800,000	0,021	-0,042
-180,285	118,181	0,047	-0,041
-179,271	66,507	-0,071	-0,051
-178,256	-200,000	0,029	-0,097
-177,242	-105,695	0,098	0,016
-176,227	-144,406	-0,135	0,009
-175,212	-200,000	-0,002	0,033
-174,198	-30,457	-0,118	0,047
-173,183	-200,000	-0,019	0,090
-172,169	262,263	0,036	-0,045
-171,154	-200,000	-0,013	-0,053
-170,139	-80,075	0,178	0,042
-169,125	-200,000	-0,020	0,076
-168,110	-101,819	0,112	-0,019
-167,096	800,000	0,024	-0,052
-166,081	800,000	-0,048	0,117
-165,066	-200,000	0,026	0,128
-164,052	-200,000	0,029	-0,144
-163,037	4,067	-0,058	-0,030
-162,023	278,587	0,105	0,133
-161,008	-72,979	-0,094	0,024
-159,993	-126,734	-0,091	0,009
-158,979	-111,476	-0,101	0,014
-157,964	-152,219	-0,127	-0,006
-156,950	44,253	0,010	-0,007
-155,935	0,375	0,077	0,039
-154,920	-200,000	-0,013	0,107
-153,906	772,824	0,023	-0,044
-152,891	800,000	-0,031	0,075
-151,877	-157,422	0,036	-0,002
-150,862	-87,249	-0,098	0,021
-149,847	233,402	-0,026	-0,031
-148,833	800,000	0,024	0,059
-147,818	800,000	-0,043	0,105
-146,804	-200,000	-0,012	0,119
-145,789	233,412	-0,075	0,087
-144,775	-200,000	0,006	-0,132
-143,760	-200,000	-0,061	0,196
-142,745	186,706	0,118	0,125
-141,731	-200,000	-0,008	-0,082
-140,716	-200,000	-0,032	0,116
-139,702	7,187	0,083	0,044
-138,687	75,713	-0,134	-0,100
-137,672	201,892	0,097	-0,106
-136,658	76,839	0,046	0,035
-135,643	800,000	0,028	-0,073
-134,629	-200,000	-0,003	-0,050
-133,614	-36,571	-0,025	-0,009
-132,599	800,000	-0,023	0,045
-131,585	-111,659	0,082	0,012
-130,570	-200,000	0,007	-0,022
-129,556	190,466	-0,115	-0,123
-128,541	800,000	0,050	-0,104
-127,526	-60,767	0,056	-0,017
-126,512	-200,000	-0,005	0,050
-125,497	800,000	0,072	0,146
-124,483	-200,000	0,001	-0,035
-123,468	-200,000	-0,009	-0,078
-122,453	-122,565	-0,110	-0,013
-121,439	117,449	-0,163	-0,142
-120,424	-200,000	0,024	-0,097
-119,410	-21,837	-0,126	0,054
-118,395	-132,587	0,277	-0,025
-117,380	95,033	-0,033	-0,026
-116,366	-119,673	-0,081	-0,010
-115,351	-75,579	0,144	0,036
-114,337	790,706	-0,026	-0,051
-113,322	233,187	-0,036	-0,042
-112,307	-73,066	0,130	-0,034
-111,293	-148,256	0,153	-0,009
-110,278	306,417	-0,048	0,063
-109,264	439,638	-0,037	-0,058
-108,249	24,760	-0,073	0,042
-107,234	246,217	-0,064	0,077
-106,220	711,276	-0,022	-0,041
-105,205	439,377	-0,041	0,063
-104,191	-110,543	0,136	-0,020
-103,176	-200,000	0,011	0,111
-102,162	-200,000	-0,016	-0,224
-101,147	800,000	0,047	0,098
-100,132	249,487	-0,134	-0,161
-99,118	78,737	0,092	0,069
-98,103	800,000	-0,007	0,016
-97,089	-32,738	-0,183	0,072
-96,074	443,967	0,059	0,091
-95,059	560,732	0,048	-0,083
-94,045	-36,122	-0,141	0,054
-93,030	95,310	0,033	0,026
-92,016	367,918	-0,041	0,059
-91,001	313,294	0,066	-0,088
-89,986	-200,000	0,019	0,065
-88,972	34,199	0,108	-0,067
-87,957	-137,406	-0,210	-0,017
-86,943	-153,861	0,034	0,002
-85,928	52,038	-0,046	-0,031
-84,913	-200,000	-0,008	-0,147
-83,899	-108,100	-0,055	0,008
-82,884	1,494	0,053	-0,027
-81,870	-190,415	0,143	0,001
-80,855	-100,949	0,009	0,002
-79,840	26,879	0,060	0,036
-78,826	-200,000	-0,032	-0,105
-77,811	-200,000	0,003	-0,059
-76,797	-18,270	0,055	-0,024
-75,782	122,085	-0,158	-0,139
-74,767	110,544	0,051	0,043
-73,753	-72,333	0,002	0,001
-72,738	-41,125	-0,040	0,014
-71,724	800,000	0,030	-0,087
-70,709	119,777	-0,079	0,069
-69,694	-200,000	-0,007	0,167
-68,680	292,733	0,044	0,056
-67,665	-183,347	0,163	-0,002
-66,651	7,312	-0,058	0,030
-65,636	-200,000	0,001	0,123
-64,622	-126,372	-0,140	0,015
-63,607	-148,527	0,034	0,002
-62,592	-200,000	-0,031	-0,152
-61,578	-87,486	0,051	-0,011
-60,563	-200,000	-0,014	0,058
-59,549	-200,000	-0,015	0,156
-58,534	45,888	-2,073	-1,351
-57,519	621,271	-1,136	-2,025
-56,505	-200,000	-0,308	-4,487
-55,490	514,845	0,921	1,522
-54,476	800,000	5,253	11,479
-53,461	-200,000	21,969	336,963
-52,446	800,000	758,576	2292,752
-51,432	532,541	1651,878	2769,250
-50,417	69,092	1650,046	1195,324
-49,403	16,523	1525,004	847,784
-48,388	10,711	1449,511	777,846
-47,373	19,034	1441,484	813,246
-46,359	14,094	1430,124	783,444
-45,344	9,012	1426,344	757,262
-44,330	8,954	1424,489	755,973
-43,315	8,926	1422,669	754,845
-42,300	8,940	1420,909	753,947
-41,286	8,986	1419,817	753,556
-40,271	8,946	1418,432	752,602
-39,257	8,916	1417,488	751,929
-38,242	8,947	1416,078	751,296
-37,227	8,975	1415,106	750,886
-36,213	8,947	1413,749	750,002
-35,198	8,967	1412,533	749,424
-34,184	9,009	1411,548	749,067
-33,169	8,857	1410,471	747,753
-32,154	8,969	1409,350	747,654
-31,140	8,931	1408,052	746,757
-30,125	8,936	1407,040	746,212
-29,111	8,930	1405,726	745,459
-28,096	8,977	1404,415	744,954
-27,082	8,885	1403,386	743,950
-26,067	8,879	1402,221	743,272
-25,052	8,907	1401,195	742,830
-24,038	8,927	1400,166	742,349
-23,023	8,888	1399,600	741,838
-22,009	8,890	1398,194	741,075
-20,994	8,908	1397,030	740,509
-19,979	8,869	1396,419	739,975
-18,965	8,899	1395,446	739,569
-17,950	8,871	1394,413	738,861
-16,936	8,842	1393,642	738,290
-15,921	8,813	1392,591	737,568
-14,906	8,807	1391,871	737,134
-13,892	8,935	1390,444	736,941
-12,877	8,851	1389,918	736,242
-11,863	8,792	1389,286	735,604
-10,848	8,819	1388,122	735,088
-9,833	8,792	1387,270	734,481
-8,819	8,736	1386,446	733,757
-7,804	8,709	1385,698	733,206
-6,790	8,769	1384,185	732,656
-5,775	8,750	1383,235	732,034
-4,760	8,723	1382,476	731,481
-3,746	8,767	1381,549	731,161
-2,731	8,762	1380,605	730,612
-1,717	8,748	1379,949	730,170
-0,702	8,778	1377,834	729,161
0,313	12,793	1289,678	700,746
1,327	28,776	681,961	406,384
2,342	45,085	117,378	76,124
3,356	-0,357	16,540	8,260
4,371	-8,841	3,680	1,732
5,386	1,165	1,252	0,631
6,400	396,649	0,319	0,471
7,415	31,500	-0,179	-0,108
8,429	144,354	-0,210	-0,198
9,444	-11,129	-0,373	-0,172
10,459	9,675	-0,182	-0,097
11,473	110,647	-0,270	-0,229
12,488	117,943	-0,271	-0,236
13,502	66,255	-0,205	-0,147
14,517	8,888	-0,324	-0,171
15,531	158,050	-0,273	-0,267
16,546	60,870	-0,304	-0,212
17,561	23,633	-0,516	-0,298
18,575	127,109	-0,221	-0,197
19,590	555,929	-0,194	-0,330
20,604	5,779	-0,221	-0,114
21,619	147,299	-0,309	-0,293
22,634	-11,000	-0,428	-0,198
23,648	111,738	-0,433	-0,368
24,663	64,935	-0,431	-0,306
25,677	452,724	-0,284	-0,443
26,692	170,110	-0,349	-0,352
27,707	76,417	-0,305	-0,227
28,721	70,995	-0,319	-0,232
29,736	23,734	-0,337	-0,195
30,750	122,486	-0,417	-0,367
31,765	44,856	-0,357	-0,231
32,780	65,493	-0,244	-0,173
33,794	6,468	-0,309	-0,161
34,809	161,600	-0,161	-0,159
35,823	252,465	-0,308	-0,370
36,838	347,715	-0,279	-0,387
37,853	67,875	-0,448	-0,322
38,867	130,721	-0,428	-0,386
39,882	177,934	-0,302	-0,310
40,896	225,391	-0,243	-0,277
41,911	-62,343	-0,349	-0,102
42,926	95,360	-0,245	-0,196
43,940	32,985	-0,345	-0,209
44,955	98,208	-0,374	-0,302
45,969	303,988	-0,234	-0,306
46,984	124,128	-0,288	-0,255
47,999	245,586	-0,265	-0,314
49,013	18,116	-0,347	-0,194
50,028	231,377	-0,266	-0,306
51,042	112,693	-0,302	-0,257
52,057	48,929	-0,401	-0,264
53,071	55,870	-0,458	-0,311
54,086	124,445	-0,196	-0,173
55,101	113,244	-0,315	-0,269
56,115	-17,447	-0,287	-0,126
57,130	134,402	-0,243	-0,221
58,144	43,094	-0,381	-0,244
59,159	21,837	-0,409	-0,233
60,174	193,564	-0,255	-0,271
61,188	227,634	-0,322	-0,368
62,203	71,209	-0,344	-0,250
63,217	70,664	-0,213	-0,155
64,232	67,754	-0,282	-0,202
65,247	8,368	-0,272	-0,143
66,261	265,218	-0,243	-0,297
67,276	113,928	-0,310	-0,264
68,290	50,892	-0,324	-0,215
69,305	6,588	-0,313	-0,163
70,320	-4,293	-0,377	-0,182
71,334	99,361	-0,378	-0,306
72,349	-31,633	-0,345	-0,135
73,363	3,612	-0,347	-0,177
74,378	-4,603	-0,385	-0,186
75,393	230,095	-0,140	-0,160
76,407	-39,619	-0,342	-0,125
77,422	-129,504	-0,292	-0,028
78,436	57,427	-0,240	-0,164
79,451	77,042	-0,352	-0,262
80,466	231,151	-0,267	-0,307
81,480	-4,135	-0,386	-0,187
82,495	57,240	-0,361	-0,246
83,509	192,188	-0,173	-0,183
84,524	-20,550	-0,221	-0,094
85,539	-37,295	-0,333	-0,124
86,553	-136,130	-0,235	0,019
87,568	-89,111	-0,385	-0,079
88,582	-76,358	-0,244	-0,060
89,597	19,551	-0,302	-0,170
90,611	12,769	-0,387	-0,208
91,626	83,794	-0,236	-0,180
92,641	-51,991	-0,219	-0,071
93,655	-54,052	-0,410	-0,130
94,670	167,422	-0,291	-0,290
95,684	202,689	-0,214	-0,231
96,699	86,342	-0,284	-0,219
97,714	174,831	-0,192	-0,194
98,728	-46,395	-0,229	-0,078
99,743	-140,172	-0,299	-0,022
100,757	8,693	-0,186	-0,098
101,772	68,893	-0,291	-0,209
102,787	96,565	-0,303	-0,242
103,801	277,754	-0,263	-0,328
104,816	156,227	-0,138	-0,133
105,830	15,017	-0,377	-0,206
106,845	-23,184	-0,143	-0,060
107,860	95,792	-0,199	-0,159
108,874	231,986	-0,238	-0,273
109,889	-51,849	-0,418	-0,135
110,903	-1,039	-0,291	-0,143
111,918	-4,872	-0,302	-0,145
112,933	-20,594	-0,351	-0,150
113,947	162,978	-0,186	-0,182
114,962	-65,853	-0,331	-0,092
115,976	158,177	-0,223	-0,216
116,991	-11,462	-0,326	-0,149
118,006	3,217	-0,370	-0,187
119,020	298,114	-0,214	-0,275
120,035	54,984	-0,160	-0,107
121,049	-5,721	-0,352	-0,167
122,064	-98,884	-0,180	-0,032
123,079	19,767	-0,266	-0,149
124,093	-38,470	-0,320	-0,117
125,108	78,243	-0,171	-0,128
126,122	214,523	-0,214	-0,237
127,137	337,769	-0,181	-0,246
128,151	22,249	-0,266	-0,151
129,166	159,491	-0,164	-0,160
130,181	73,705	-0,188	-0,137
131,195	254,352	-0,206	-0,246
132,210	187,621	-0,111	-0,116
133,224	87,119	-0,281	-0,217
134,239	178,504	-0,178	-0,181
135,254	-137,974	-0,298	-0,023
136,268	800,000	-0,129	-0,333
137,283	184,067	-0,223	-0,230
138,297	228,761	-0,224	-0,255
139,312	15,692	-0,230	-0,126
140,327	460,339	-0,206	-0,321
141,341	6,038	-0,178	-0,092
142,356	296,975	-0,152	-0,194
143,370	121,804	-0,229	-0,199
144,385	132,446	-0,233	-0,209
145,400	31,251	-0,206	-0,123
146,414	-83,801	-0,304	-0,067
147,429	540,756	-0,109	-0,181
148,443	5,505	-0,203	-0,104
149,458	36,084	-0,236	-0,144
150,473	226,824	-0,137	-0,155
151,487	-1,104	-0,222	-0,109
152,502	274,983	-0,169	-0,209
153,516	99,935	-0,283	-0,228
154,531	80,298	-0,365	-0,273
155,546	-122,905	-0,210	-0,023
156,560	239,063	-0,117	-0,136
157,575	531,952	-0,166	-0,275
158,589	-1,636	-0,360	-0,176
159,604	-21,710	-0,320	-0,135
160,619	800,000	-0,052	-0,141
161,633	239,248	-0,216	-0,250
162,648	412,678	-0,106	-0,158
163,662	-187,509	-0,121	-0,001
164,677	-57,998	-0,304	-0,092
165,692	199,612	-0,179	-0,191
166,706	-16,313	-0,202	-0,089
167,721	228,850	-0,258	-0,293
168,735	-54,570	-0,192	-0,060
169,750	43,478	-0,212	-0,134
170,764	-51,051	-0,155	-0,050
171,779	18,912	-0,168	-0,093
172,794	239,526	-0,230	-0,266
173,808	25,374	-0,255	-0,147
174,823	55,406	-0,272	-0,183
175,837	800,000	-0,146	-0,321
176,852	120,838	-0,121	-0,105
177,867	26,310	-0,278	-0,161
178,881	-14,277	-0,114	-0,051
179,896	145,533	-0,148	-0,138
180,910	66,507	-0,268	-0,189
181,925	196,169	-0,208	-0,220
182,940	47,253	-0,224	-0,145
183,954	162,780	-0,205	-0,200
184,969	125,906	-0,207	-0,181
185,983	-43,537	-0,324	-0,113
186,998	26,170	-0,168	-0,097
188,013	-71,421	-0,245	-0,063
189,027	57,254	-0,268	-0,181
190,042	118,756	-0,235	-0,201
191,056	211,113	-0,158	-0,172
192,071	161,904	-0,244	-0,237
193,086	-200,000	-0,032	-0,131
194,100	-68,109	-0,145	-0,039
195,115	33,017	-0,223	-0,134
196,129	135,825	-0,150	-0,136
197,144	800,000	-0,084	-0,217
198,159	364,839	-0,119	-0,167
199,173	271,743	-0,151	-0,185
200,188	213,770	-0,122	-0,134
201,202	-79,575	-0,225	-0,052
202,217	274,373	-0,114	-0,140
203,232	149,228	-0,140	-0,131
204,246	133,615	-0,193	-0,173
205,261	6,371	-0,183	-0,094
206,275	390,392	-0,160	-0,231
207,290	3,181	-0,159	-0,080
208,304	661,489	-0,043	-0,077
209,319	-15,545	-0,318	-0,140
210,334	220,718	-0,160	-0,177
211,348	13,173	-0,188	-0,101
212,363	-11,787	-0,134	0,061
213,377	138,432	-0,180	-0,164
214,392	-111,339	-0,018	0,003
215,407	45,381	-0,206	-0,131
216,421	-147,575	-0,196	0,011
217,436	60,844	-0,067	-0,046
218,450	93,212	-0,185	-0,144
219,465	-14,798	-0,300	-0,133
220,480	423,288	-0,176	-0,262
221,494	36,423	-0,187	-0,114
222,509	-35,895	-0,315	-0,117
223,523	800,000	-0,093	-0,204
224,538	159,953	-0,174	-0,167
225,553	313,827	-0,207	-0,270
226,567	192,839	-0,198	-0,207
227,582	-23,162	-0,152	-0,063
228,596	-200,000	-0,049	-0,154
229,611	17,315	-0,265	-0,145
230,626	210,208	-0,222	-0,241
231,640	328,978	-0,176	-0,235
232,655	89,699	-0,297	-0,229
233,669	238,778	-0,214	-0,246
234,684	27,164	-0,128	-0,074
235,699	398,006	-0,086	-0,124
236,713	-134,287	-0,125	0,010
237,728	207,779	-0,162	-0,175
238,742	471,386	-0,105	-0,164
239,757	97,433	-0,159	-0,126
240,772	94,625	-0,169	-0,133
241,786	800,000	-0,117	-0,296
242,801	-115,277	-0,269	-0,035
243,815	-7,638	-0,169	0,078
244,830	-76,578	-0,205	0,049
245,844	1,556	-0,224	-0,111
246,859	-0,482	-0,292	-0,143
247,874	403,429	-0,169	-0,246
248,888	526,293	-0,124	-0,203
249,903	-200,000	-0,114	0,000
250,917	-127,956	-0,193	-0,019
251,932	270,392	-0,173	-0,210
252,947	-111,489	-0,105	0,015
253,961	94,971	-0,150	-0,117
254,976	-62,509	-0,293	-0,083
255,990	3,321	-0,181	-0,091
257,005	73,488	-0,178	-0,129
258,020	237,078	-0,104	-0,120
259,034	-27,969	-0,192	-0,076
260,049	-9,510	-0,162	-0,074
261,063	-29,287	-0,153	-0,060
262,078	800,000	-0,138	-0,286
263,093	257,632	-0,207	-0,246
264,107	800,000	-0,090	-0,229
265,122	522,856	-0,134	-0,217
266,136	-65,825	-0,188	0,052
267,151	-105,790	-0,109	0,017
268,166	-72,725	-0,237	-0,060
269,180	-29,732	-0,155	-0,060
270,195	-150,156	-0,134	-0,007
271,209	283,237	-0,099	-0,122
272,224	-200,000	-0,028	-0,237
273,239	800,000	-0,081	-0,160
274,253	228,461	-0,133	-0,149
275,268	-97,218	-0,157	-0,028
276,282	263,960	-0,073	-0,088
277,297	157,975	-0,164	-0,157
278,312	188,443	-0,189	-0,194
279,326	-48,552	-0,212	-0,070
280,341	77,711	-0,154	-0,113
281,355	139,354	-0,133	-0,121
282,370	331,083	-0,167	-0,222
283,384	389,095	-0,164	-0,234
284,399	32,144	-0,250	-0,148
285,414	-57,277	-0,144	-0,043
286,428	35,971	-0,158	-0,095
287,443	800,000	-0,110	-0,253
288,457	428,034	-0,122	-0,181
289,472	-35,534	-0,177	-0,066
290,487	155,006	-0,191	-0,181
291,501	172,335	-0,262	-0,259
292,516	31,200	-0,262	-0,154
293,530	-200,000	-0,000	-0,173
294,545	110,963	-0,116	-0,096
295,560	-50,688	-0,114	0,037
296,574	-65,101	-0,181	-0,050
297,589	-200,000	-0,055	-0,219
298,603	639,021	-0,060	-0,106
299,618	319,358	-0,084	-0,109
300,633	-118,648	-0,230	-0,028
301,647	-200,000	-0,036	-0,134
302,662	45,700	-0,171	-0,109
303,676	250,813	-0,090	-0,105
304,691	-131,510	-0,167	-0,015
305,706	-64,479	-0,152	-0,042
306,720	306,325	-0,181	-0,232
307,735	800,000	-0,126	-0,242
308,749	66,517	-0,198	-0,138
309,764	322,235	0,054	-0,070
310,779	800,000	-0,077	-0,149
311,793	138,722	-0,081	-0,073
312,808	32,318	-0,207	-0,122
313,822	256,478	-0,193	-0,227
314,837	524,954	-0,114	-0,185
315,852	213,500	-0,139	-0,150
316,866	173,061	-0,104	-0,103
317,881	222,388	-0,161	-0,178
318,895	47,861	-0,072	-0,046
319,910	-14,087	-0,151	-0,067
320,925	-170,281	-0,127	0,003
321,939	31,446	-0,185	-0,109
322,954	141,613	-0,132	-0,120
323,968	-200,000	0,005	-0,211
324,983	143,830	-0,096	-0,088
325,997	-101,926	-0,169	-0,028
327,012	-36,119	-0,122	-0,045
328,027	208,337	-0,096	-0,103
329,041	91,648	-0,171	-0,131
330,056	-24,618	-0,165	-0,067
331,070	-93,022	-0,011	-0,002
332,085	-27,467	-0,176	-0,070
333,100	190,822	-0,173	-0,178
334,114	116,273	-0,143	-0,120
335,129	800,000	-0,033	-0,073
336,143	-113,466	-0,211	0,028
337,158	152,377	-0,038	0,035
338,173	67,520	-0,047	-0,033
339,187	-199,617	-0,029	0,000
340,202	167,700	-0,109	-0,106
341,216	-69,236	-0,161	-0,042
342,231	-82,148	-0,043	-0,010
343,246	4,213	-0,251	-0,126
344,260	702,014	-0,076	-0,138
345,275	-77,365	-0,198	-0,047
346,289	800,000	-0,039	0,083
347,304	-7,149	-0,101	-0,047
348,319	-147,652	-0,223	0,013
349,333	-98,275	-0,170	-0,029
350,348	542,946	-0,076	-0,124
351,362	245,625	-0,136	-0,157
352,377	350,447	-0,129	-0,175
353,392	330,363	-0,079	-0,104
354,406	-200,000	0,003	-0,053
355,421	206,562	1305,535	1391,723
356,435	158,870	1465,085	1392,190
