DTS Sentinel unit serial number:	SN410029Multiplexer serial number:	ORYXHardware model number:	OX2-SRSoftware version number:	ORYX F/W v4,00 Oryx Data Collector v3.7.2.0data status	okinstallation	B3 Nyhavnadifferential loss correction	single-endedforward channel	channel 1reverse channel	N/Adate	2023/12/02time	09:22:30forward acquisition time	300,00reverse acquisition time	0,00gamma	499,1914k internal	0,3195k external	0,3195temperature offset calibration	1,0000default loss term (dB/km)	0,3820temperature slope calibration	1,0000multiplexer offset coefficient	1,0000multiplexer slope coefficient	1,0000fibre end	0,00T internal ref (°C)	15,12T ext. ref 1 (°C)	-0,31T ext. ref 2 (°C)	-0,32length (m)	temperature (°C)	Stokes	anti-Stokes-744,400	158,951	-0,241	-0,245
-743,385	-200,000	-0,054	0,224
-742,371	800,000	-0,055	-0,128
-741,356	-200,000	0,035	0,289
-740,342	178,892	-0,140	-0,149
-739,327	-200,000	0,025	0,185
-738,312	14,282	-0,433	-0,245
-737,298	-200,000	0,038	0,325
-736,283	800,000	-0,051	-0,145
-735,269	-200,000	-0,147	0,523
-734,254	129,131	-0,230	-0,213
-733,239	-200,000	-0,014	0,228
-732,225	20,180	-0,258	-0,151
-731,210	-200,000	0,061	0,205
-730,196	800,000	0,006	-0,015
-729,181	-61,927	-0,111	0,033
-728,167	800,000	0,005	0,012
-727,152	-200,000	-0,007	0,038
-726,137	56,522	-0,160	-0,113
-725,123	62,374	-0,057	-0,041
-724,108	-75,563	-0,048	-0,012
-723,094	110,969	-0,095	-0,084
-722,079	-42,574	-0,038	0,014
-721,064	356,424	-0,045	-0,066
-720,050	546,591	-0,056	0,099
-719,035	263,458	-0,055	0,070
-718,021	573,107	0,065	-0,116
-717,006	48,869	-0,118	-0,080
-715,991	-141,930	-0,250	-0,018
-714,977	-129,927	-0,094	-0,009
-713,962	-88,117	0,072	0,016
-712,948	-144,664	-0,041	-0,003
-711,933	-200,000	-0,010	-0,040
-710,918	43,988	-0,040	0,027
-709,904	-59,218	-0,175	0,055
-708,889	346,125	0,045	-0,065
-707,875	97,367	-0,107	-0,089
-706,860	484,076	0,078	-0,130
-705,845	30,215	0,045	0,028
-704,831	693,177	0,065	-0,125
-703,816	659,675	-0,071	0,134
-702,802	193,645	-0,111	0,122
-701,787	-9,158	0,042	-0,020
-700,772	47,766	-0,119	0,080
-699,758	-105,739	-0,117	0,019
-698,743	347,297	0,112	-0,160
-697,729	-70,923	-0,186	0,051
-696,714	-19,698	-0,114	-0,051
-695,699	238,331	-0,087	-0,105
-694,685	-200,000	-0,032	-0,164
-693,670	800,000	-0,045	-0,095
-692,656	13,081	0,052	-0,029
-691,641	-60,485	-0,148	0,045
-690,627	380,868	-0,031	-0,046
-689,612	-200,000	0,035	-0,124
-688,597	-26,659	-0,090	0,038
-687,583	-84,418	-0,101	-0,023
-686,568	243,056	-0,015	-0,018
-685,554	-58,242	0,122	0,038
-684,539	800,000	0,054	-0,142
-683,524	5,811	0,132	-0,071
-682,510	-37,085	-0,128	0,050
-681,495	668,599	0,066	-0,125
-680,481	-200,000	-0,016	0,073
-679,466	32,887	-0,063	0,039
-678,451	-200,000	0,008	-0,043
-677,437	-121,571	-0,062	-0,007
-676,422	-109,965	0,048	-0,007
-675,408	274,814	0,075	0,096
-674,393	28,023	-0,044	0,027
-673,378	200,765	-0,073	-0,082
-672,364	800,000	0,062	-0,162
-671,349	800,000	-0,070	0,156
-670,335	57,683	0,148	-0,105
-669,320	0,861	0,116	-0,060
-668,305	211,408	0,073	0,084
-667,291	800,000	-0,054	-0,129
-666,276	-102,822	-0,082	-0,014
-665,262	77,420	0,022	-0,017
-664,247	-200,000	-0,010	-0,076
-663,232	-175,961	0,068	-0,001
-662,218	-200,000	-0,002	0,031
-661,203	800,000	-0,038	0,079
-660,189	-47,328	0,033	-0,011
-659,174	547,652	-0,043	-0,075
-658,159	-200,000	0,016	-0,068
-657,145	250,777	-0,068	0,085
-656,130	268,477	0,055	-0,070
-655,116	324,326	-0,046	0,064
-654,101	-200,000	0,003	0,154
-653,086	-7,420	-0,061	-0,030
-652,072	445,486	0,010	-0,017
-651,057	-124,421	-0,157	-0,018
-650,043	257,089	-0,066	-0,083
-649,028	74,048	0,098	0,075
-648,014	-73,839	-0,039	0,010
-646,999	479,446	-0,063	0,103
-645,984	567,172	-0,043	0,077
-644,970	-2,162	-0,066	-0,033
-643,955	-163,752	0,046	-0,002
-642,941	800,000	-0,024	-0,075
-641,926	92,923	0,088	-0,072
-640,911	-13,961	0,087	0,041
-639,897	-200,000	0,014	-0,108
-638,882	157,376	0,096	-0,096
-637,868	36,788	-0,092	0,059
-636,853	-200,000	-0,002	0,044
-635,838	-45,882	-0,123	-0,044
-634,824	16,632	0,071	-0,041
-633,809	-200,000	-0,027	0,124
-632,795	-56,490	-0,023	-0,007
-631,780	-103,540	-0,081	0,014
-630,765	-56,105	-0,090	-0,029
-629,751	-200,000	0,020	-0,112
-628,736	-129,767	-0,064	0,006
-627,722	578,727	0,038	0,068
-626,707	-200,000	0,005	0,041
-625,692	-28,937	-0,045	-0,019
-624,678	5,866	0,045	-0,024
-623,663	-200,000	-0,027	-0,120
-622,649	-162,513	-0,114	0,004
-621,634	-77,324	-0,101	-0,025
-620,619	107,496	0,081	0,070
-619,605	281,677	0,026	-0,034
-618,590	319,050	0,070	0,096
-617,576	-47,070	0,093	0,033
-616,561	394,848	-0,034	0,052
-615,546	797,559	-0,021	0,042
-614,532	800,000	0,054	-0,139
-613,517	-200,000	-0,009	0,057
-612,503	-84,131	0,087	0,020
-611,488	-19,796	0,163	-0,073
-610,474	-200,000	-0,011	0,046
-609,459	-33,002	0,111	0,044
-608,444	-137,104	-0,111	0,009
-607,430	535,776	-0,061	-0,105
-606,415	24,201	0,090	-0,054
-605,401	-200,000	0,024	-0,114
-604,386	147,243	0,083	0,081
-603,371	-200,000	0,006	0,114
-602,357	-87,327	-0,099	0,021
-601,342	1,741	0,077	-0,040
-600,328	423,985	-0,050	-0,079
-599,313	-60,003	-0,096	-0,029
-598,298	-200,000	-0,025	-0,160
-597,284	380,238	0,067	-0,100
-596,269	-47,588	0,086	0,030
-595,255	-88,696	-0,167	-0,036
-594,240	84,025	0,053	0,042
-593,225	241,618	-0,074	-0,090
-592,211	-140,695	0,057	-0,004
-591,196	198,228	0,058	-0,065
-590,182	748,510	0,035	0,068
-589,167	-39,399	0,081	-0,031
-588,152	38,483	-0,141	0,091
-587,138	695,936	-0,123	0,235
-586,123	-200,000	0,014	0,075
-585,109	-200,000	-0,049	0,171
-584,094	394,295	-0,050	0,075
-583,079	-22,815	-0,070	0,031
-582,065	-89,179	-0,102	-0,022
-581,050	482,266	0,023	-0,038
-580,036	21,805	-0,167	-0,098
-579,021	557,668	0,049	0,085
-578,006	-144,336	0,059	0,004
-576,992	485,724	0,042	0,070
-575,977	-137,284	0,041	-0,003
-574,963	-96,596	-0,130	-0,025
-573,948	257,498	-0,035	0,043
-572,934	128,008	-0,137	0,126
-571,919	-45,276	-0,072	0,026
-570,904	249,266	0,091	-0,111
-569,890	-200,000	0,018	-0,098
-568,875	153,582	-0,025	0,025
-567,861	800,000	-0,040	0,106
-566,846	292,878	0,076	-0,100
-565,831	800,000	-0,036	-0,083
-564,817	-22,340	-0,049	0,021
-563,802	-200,000	-0,003	0,028
-562,788	82,262	0,101	0,079
-561,773	800,000	0,021	0,061
-560,758	-200,000	0,041	0,143
-559,744	690,074	0,092	0,175
-558,729	-200,000	-0,016	0,052
-557,715	800,000	0,042	0,088
-556,700	-96,676	0,067	-0,013
-555,685	556,068	-0,039	-0,068
-554,671	800,000	0,014	-0,029
-553,656	-200,000	-0,006	-0,031
-552,642	-40,468	0,108	0,040
-551,627	800,000	-0,055	0,156
-550,612	130,773	-0,081	0,075
-549,598	-95,853	0,017	-0,003
-548,583	334,184	-0,037	-0,052
-547,569	800,000	0,020	-0,052
-546,554	800,000	0,076	0,166
-545,539	629,187	-0,014	0,025
-544,525	-200,000	-0,011	-0,108
-543,510	44,668	0,076	-0,050
-542,496	-200,000	-0,002	0,082
-541,481	-200,000	-0,021	-0,127
-540,466	58,992	0,104	-0,074
-539,452	-173,299	0,181	0,004
-538,437	800,000	-0,050	0,125
-537,423	-200,000	-0,011	0,052
-536,408	-111,173	-0,126	-0,018
-535,393	325,578	0,036	0,051
-534,379	62,454	-0,131	-0,095
-533,364	251,187	-0,114	-0,141
-532,350	169,111	0,113	0,116
-531,335	472,429	-0,066	0,108
-530,321	-85,400	-0,061	0,014
-529,306	131,627	0,096	0,089
-528,291	-9,437	-0,091	-0,044
-527,277	-31,904	0,026	-0,010
-526,262	23,071	0,089	-0,053
-525,248	475,157	0,052	0,085
-524,233	-137,420	0,238	-0,019
-523,218	800,000	-0,027	-0,065
-522,204	6,741	-0,091	0,049
-521,189	5,431	-0,025	0,014
-520,175	-115,231	0,017	0,002
-519,160	-200,000	-0,020	-0,198
-518,145	800,000	0,029	-0,077
-517,131	236,229	0,057	0,068
-516,116	308,583	-0,054	0,074
-515,102	800,000	0,028	-0,074
-514,087	-68,882	-0,194	-0,054
-513,072	-200,000	-0,011	-0,075
-512,058	235,773	0,042	-0,050
-511,043	800,000	0,037	0,085
-510,029	-200,000	-0,018	-0,138
-509,014	-96,212	0,117	0,022
-507,999	232,748	0,068	-0,080
-506,985	800,000	-0,042	0,118
-505,970	191,992	0,094	-0,102
-504,956	-95,459	-0,107	-0,021
-503,941	225,895	0,050	-0,059
-502,926	-90,672	0,122	0,025
-501,912	800,000	-0,057	0,120
-500,897	-27,559	0,086	-0,036
-499,883	317,208	0,069	0,094
-498,868	800,000	0,016	-0,047
-497,853	-200,000	-0,024	-0,139
-496,839	-59,723	0,077	-0,024
-495,824	-3,550	0,092	-0,046
-494,810	-200,000	0,025	-0,081
-493,795	800,000	0,018	-0,048
-492,781	79,398	0,047	-0,036
-491,766	-16,524	-0,117	-0,053
-490,751	196,021	-0,025	0,027
-489,737	144,896	-0,077	0,074
-488,722	466,829	0,080	0,130
-487,708	-200,000	-0,013	-0,131
-486,693	-200,000	0,005	0,137
-485,678	-200,000	0,005	0,175
-484,664	170,168	0,040	-0,042
-483,649	-18,259	-0,019	-0,009
-482,635	-200,000	0,015	-0,092
-481,620	800,000	0,071	0,169
-480,605	-1,351	-0,057	0,029
-479,591	171,328	-0,040	0,041
-478,576	-13,880	0,025	-0,012
-477,562	-67,584	-0,078	0,022
-476,547	61,328	0,036	-0,025
-475,532	53,288	-0,104	-0,072
-474,518	-200,000	0,011	0,084
-473,503	800,000	0,021	0,044
-472,489	800,000	-0,041	-0,090
-471,474	-200,000	0,021	-0,084
-470,459	-200,000	-0,019	0,068
-469,445	-200,000	0,000	0,048
-468,430	-54,862	-0,030	-0,010
-467,416	-33,373	0,131	0,052
-466,401	-120,824	-0,019	0,002
-465,386	800,000	0,045	0,125
-464,372	-3,800	-0,017	-0,009
-463,357	101,520	-0,071	0,059
-462,343	-131,700	-0,144	0,013
-461,328	392,958	-0,043	-0,064
-460,313	145,512	-0,036	-0,034
-459,299	-83,363	0,050	-0,011
-458,284	-63,569	0,084	-0,025
-457,270	-11,582	0,098	0,046
-456,255	27,213	-0,184	-0,111
-455,241	800,000	-0,011	0,029
-454,226	-200,000	0,005	0,095
-453,211	656,623	0,050	-0,093
-452,197	-83,082	0,103	-0,024
-451,182	106,946	0,043	-0,037
-450,168	-102,319	0,032	-0,006
-449,153	-2,588	-0,088	-0,044
-448,138	-68,536	-0,086	-0,024
-447,124	145,093	-0,074	0,072
-446,109	-200,000	-0,012	-0,057
-445,095	-50,025	0,074	-0,025
-444,080	-104,760	-0,047	0,008
-443,065	800,000	0,059	-0,130
-442,051	-200,000	0,004	0,020
-441,036	331,101	-0,080	-0,112
-440,022	-200,000	0,001	-0,109
-439,007	800,000	-0,015	0,035
-437,992	-57,708	-0,036	0,011
-436,978	7,325	0,025	0,014
-435,963	800,000	0,024	0,068
-434,949	-200,000	-0,026	0,090
-433,934	-161,304	0,050	-0,002
-432,919	-200,000	-0,020	-0,140
-431,905	-200,000	0,032	0,123
-430,890	-200,000	-0,012	-0,044
-429,876	800,000	0,043	0,103
-428,861	258,629	-0,075	0,093
-427,846	-93,033	-0,127	0,025
-426,832	81,193	-0,051	0,039
-425,817	-200,000	-0,035	-0,170
-424,803	-111,313	-0,113	0,016
-423,788	275,877	0,115	0,147
-422,773	-84,637	-0,018	0,004
-421,759	-20,221	0,087	0,038
-420,744	800,000	0,020	-0,054
-419,730	-200,000	0,019	0,126
-418,715	234,566	-0,086	-0,102
-417,701	-113,564	-0,132	0,018
-416,686	29,101	-0,074	-0,045
-415,671	-200,000	0,014	0,101
-414,657	-30,767	-0,097	0,039
-413,642	60,113	0,164	0,117
-412,628	-53,311	-0,115	0,038
-411,613	604,214	0,083	-0,149
-410,598	-143,735	-0,215	-0,014
-409,584	-200,000	-0,009	0,062
-408,569	-109,993	0,219	0,033
-407,555	800,000	-0,012	-0,025
-406,540	-80,050	-0,079	-0,019
-405,525	-120,725	-0,030	0,004
-404,511	144,092	0,042	0,040
-403,496	731,666	0,056	-0,108
-402,482	-200,000	0,035	-0,166
-401,467	315,512	0,047	-0,064
-400,452	-200,000	-0,004	-0,022
-399,438	800,000	0,012	0,023
-398,423	594,785	-0,037	-0,065
-397,409	-73,050	-0,132	0,034
-396,394	23,340	0,014	0,008
-395,379	-200,000	-0,001	0,128
-394,365	273,199	0,157	0,200
-393,350	-54,806	0,068	0,022
-392,336	-177,294	-0,073	0,001
-391,321	258,113	0,033	-0,041
-390,306	-200,000	-0,013	-0,195
-389,292	25,051	-0,036	0,022
-388,277	-200,000	0,001	0,036
-387,263	12,094	0,086	-0,047
-386,248	27,592	0,048	0,029
-385,233	-99,185	0,099	-0,018
-384,219	385,296	-0,052	0,077
-383,204	64,653	-0,046	-0,033
-382,190	280,203	-0,054	0,070
-381,175	-36,537	0,068	-0,026
-380,160	593,802	-0,050	0,088
-379,146	-200,000	0,000	0,042
-378,131	-172,584	-0,067	0,001
-377,117	-69,471	0,081	0,022
-376,102	372,186	-0,072	-0,105
-375,088	800,000	-0,050	0,101
-374,073	330,543	-0,073	0,101
-373,058	800,000	0,035	0,100
-372,044	135,879	0,154	0,144
-371,029	208,409	-0,047	-0,053
-370,015	-190,527	0,134	-0,001
-369,000	26,189	0,108	-0,065
-367,985	800,000	-0,018	0,039
-366,971	-200,000	-0,007	-0,061
-365,956	-19,092	0,071	-0,031
-364,942	-200,000	0,005	-0,102
-363,927	-113,856	0,073	0,010
-362,912	-44,897	-0,088	0,031
-361,898	800,000	-0,017	0,046
-360,883	800,000	0,040	-0,103
-359,869	-20,962	-0,049	0,021
-358,854	-132,398	0,064	-0,006
-357,839	311,840	0,064	-0,086
-356,825	-58,358	-0,120	-0,037
-355,810	295,070	0,054	-0,071
-354,796	-200,000	-0,009	0,117
-353,781	413,721	0,053	-0,082
-352,766	800,000	-0,033	-0,065
-351,752	800,000	-0,016	-0,039
-350,737	-3,393	0,064	0,032
-349,723	395,031	0,091	0,137
-348,708	-200,000	0,027	-0,137
-347,693	800,000	-0,045	-0,113
-346,679	-81,685	-0,056	0,013
-345,664	287,685	0,081	-0,105
-344,650	-39,709	-0,124	0,046
-343,635	222,573	-0,083	0,096
-342,620	453,288	-0,025	0,040
-341,606	155,300	0,036	-0,035
-340,591	26,222	-0,150	0,090
-339,577	-56,625	0,054	0,017
-338,562	-114,960	0,111	0,015
-337,548	-173,762	0,090	-0,002
-336,533	-135,822	-0,094	-0,008
-335,518	-35,147	0,022	0,008
-334,504	40,683	0,072	0,047
-333,489	55,401	0,104	0,072
-332,475	537,851	-0,062	-0,106
-331,460	140,512	-0,127	-0,120
-330,445	-91,274	0,089	-0,018
-329,431	-28,416	0,038	-0,016
-328,416	-189,124	0,027	0,000
-327,402	-200,000	-0,029	0,115
-326,387	618,290	-0,039	-0,070
-325,372	800,000	-0,055	-0,112
-324,358	98,780	-0,020	0,017
-323,343	-122,119	-0,131	-0,015
-322,329	800,000	0,064	-0,200
-321,314	-131,348	0,109	-0,010
-320,299	800,000	0,054	0,122
-319,285	-200,000	0,031	0,185
-318,270	-200,000	-0,013	-0,071
-317,256	-82,133	0,060	-0,014
-316,241	-200,000	0,010	-0,071
-315,226	-41,495	-0,088	-0,032
-314,212	-200,000	0,009	0,041
-313,197	646,821	-0,073	0,135
-312,183	434,223	-0,029	0,045
-311,168	-10,469	0,078	0,037
-310,153	268,811	-0,080	0,100
-309,139	153,861	0,155	-0,152
-308,124	142,421	-0,032	0,030
-307,110	-37,289	0,137	-0,052
-306,095	-127,536	0,028	0,003
-305,080	-200,000	-0,019	0,096
-304,066	384,435	0,043	0,064
-303,051	800,000	0,015	0,036
-302,037	-49,538	-0,092	0,031
-301,022	-44,555	0,061	0,022
-300,008	293,851	0,084	0,110
-298,993	800,000	-0,044	-0,105
-297,978	-200,000	-0,019	0,093
-296,964	800,000	0,043	0,093
-295,949	173,251	-0,031	-0,032
-294,935	800,000	0,020	0,042
-293,920	-94,716	0,154	0,030
-292,905	334,731	0,060	0,083
-291,891	263,268	0,073	0,090
-290,876	-43,455	0,149	0,053
-289,862	70,044	0,018	-0,014
-288,847	-3,448	-0,029	-0,015
-287,832	-23,722	-0,065	-0,028
-286,818	193,642	-0,074	-0,080
-285,803	-200,000	-0,026	-0,112
-284,789	574,253	0,033	0,058
-283,774	98,312	0,074	-0,061
-282,759	118,996	0,062	0,055
-281,745	-7,572	-0,029	-0,014
-280,730	-200,000	0,013	-0,085
-279,716	-138,979	0,100	0,008
-278,701	-136,765	0,014	0,001
-277,686	-200,000	0,000	0,036
-276,672	800,000	-0,048	0,104
-275,657	-10,376	0,050	0,024
-274,643	-49,380	0,117	-0,040
-273,628	69,009	-0,083	0,061
-272,613	152,452	-0,038	0,037
-271,599	-3,068	0,037	-0,018
-270,584	-200,000	-0,001	-0,058
-269,570	252,493	0,095	-0,116
-268,555	-75,301	0,118	0,030
-267,540	800,000	-0,066	-0,154
-266,526	-134,202	-0,042	0,004
-265,511	187,042	-0,086	-0,092
-264,497	-148,073	-0,079	0,005
-263,482	-117,150	-0,088	0,011
-262,467	-1,808	0,079	-0,040
-261,453	-200,000	-0,042	-0,205
-260,438	800,000	-0,029	-0,061
-259,424	-200,000	-0,018	-0,175
-258,409	800,000	-0,027	0,055
-257,395	-156,657	-0,035	0,002
-256,380	800,000	0,061	0,167
-255,365	59,507	-0,041	-0,029
-254,351	43,405	-0,032	-0,021
-253,336	243,274	-0,057	-0,069
-252,322	-200,000	-0,026	0,098
-251,307	-130,843	0,018	-0,002
-250,292	70,147	0,109	-0,080
-249,278	-200,000	-0,006	0,149
-248,263	800,000	-0,043	0,102
-247,249	-200,000	-0,009	0,072
-246,234	-25,479	0,088	0,037
-245,219	374,933	-0,084	-0,123
-244,205	-200,000	-0,028	-0,121
-243,190	-101,997	-0,094	0,016
-242,176	-141,068	0,128	-0,009
-241,161	800,000	-0,018	0,054
-240,146	-200,000	-0,015	-0,064
-239,132	318,003	-0,038	-0,052
-238,117	191,627	-0,037	-0,040
-237,103	800,000	-0,029	-0,063
-236,088	800,000	-0,056	0,140
-235,073	-64,459	-0,035	-0,010
-234,059	124,008	-0,028	0,025
-233,044	-49,294	0,078	0,027
-232,030	83,641	-0,051	-0,040
-231,015	521,435	0,038	-0,064
-230,000	-62,048	0,054	0,016
-228,986	195,710	-0,066	-0,072
-227,971	-14,165	0,144	-0,066
-226,957	487,801	-0,080	0,131
-225,942	800,000	-0,018	0,047
-224,927	735,123	0,031	-0,059
-223,913	-200,000	0,038	-0,147
-222,898	-25,555	-0,032	0,014
-221,884	-19,921	0,120	-0,053
-220,869	73,433	0,068	0,050
-219,855	98,424	0,074	0,061
-218,840	-200,000	0,010	-0,047
-217,825	-93,132	0,062	0,012
-216,811	29,015	-0,059	-0,036
-215,796	-200,000	-0,039	-0,158
-214,782	-153,745	0,088	0,004
-213,767	313,456	-0,059	0,080
-212,752	800,000	0,029	0,080
-211,738	-200,000	-0,018	-0,072
-210,723	-200,000	-0,018	0,069
-209,709	-40,594	-0,030	0,011
-208,694	800,000	-0,011	-0,024
-207,679	-60,143	-0,128	0,039
-206,665	-200,000	0,007	0,115
-205,650	-79,854	0,171	0,041
-204,636	-161,637	0,102	-0,004
-203,621	527,593	0,115	0,194
-202,606	800,000	0,016	0,040
-201,592	800,000	-0,077	-0,178
-200,577	-69,039	-0,121	-0,033
-199,563	-54,731	-0,096	0,031
-198,548	-108,905	-0,075	0,011
-197,533	-57,856	0,074	-0,023
-196,519	-55,535	-0,103	0,033
-195,504	162,323	-0,020	0,020
-194,490	-200,000	-0,004	-0,101
-193,475	-178,776	-0,104	-0,002
-192,460	-200,000	0,014	-0,151
-191,446	86,345	0,049	0,038
-190,431	-92,248	0,097	-0,019
-189,417	-0,601	0,038	0,019
-188,402	54,249	-0,074	-0,051
-187,387	171,923	-0,123	-0,126
-186,373	703,743	-0,031	-0,058
-185,358	800,000	-0,020	0,057
-184,344	509,153	-0,042	-0,071
-183,329	-200,000	-0,006	0,050
-182,315	104,347	-0,075	-0,063
-181,300	71,023	0,051	-0,038
-180,285	-64,397	0,036	-0,010
-179,271	-138,799	-0,093	0,007
-178,256	166,548	0,062	0,063
-177,242	-200,000	-0,006	-0,104
-176,227	-83,301	-0,064	-0,014
-175,212	-35,957	-0,057	-0,022
-174,198	81,714	-0,040	0,031
-173,183	-116,067	-0,106	0,014
-172,169	460,846	-0,066	-0,105
-171,154	151,115	-0,030	-0,029
-170,139	-69,508	-0,127	0,034
-169,125	642,041	0,066	-0,120
-168,110	66,205	-0,053	-0,038
-167,096	800,000	-0,059	0,139
-166,081	-18,365	0,087	0,039
-165,066	800,000	0,028	-0,071
-164,052	800,000	-0,010	-0,024
-163,037	-151,135	-0,050	-0,003
-162,023	34,844	0,059	0,037
-161,008	-200,000	-0,020	-0,131
-159,993	-147,648	0,020	0,001
-158,979	-92,829	-0,034	0,007
-157,964	0,602	0,115	-0,058
-156,950	-68,465	-0,218	-0,060
-155,935	337,274	-0,049	0,068
-154,920	-46,038	0,084	0,029
-153,906	-200,000	0,024	0,115
-152,891	-59,409	-0,055	0,017
-151,877	800,000	-0,063	0,129
-150,862	-182,892	-0,032	0,000
-149,847	-20,756	-0,091	0,040
-148,833	575,020	0,059	-0,104
-147,818	-35,706	-0,134	0,051
-146,804	-59,818	0,169	0,051
-145,789	286,079	-0,043	-0,055
-144,775	417,647	-0,052	0,080
-143,760	-55,467	-0,049	0,016
-142,745	800,000	-0,048	-0,118
-141,731	-200,000	-0,014	-0,098
-140,716	85,025	0,091	0,071
-139,702	-19,902	-0,033	0,014
-138,687	800,000	0,018	-0,055
-137,672	42,829	0,085	0,055
-136,658	38,838	0,043	-0,027
-135,643	99,323	-0,077	0,064
-134,629	71,950	0,058	-0,043
-133,614	-175,232	-0,073	0,001
-132,599	764,236	-0,023	0,044
-131,585	-200,000	-0,031	0,099
-130,570	67,433	-0,043	-0,031
-129,556	206,142	-0,097	-0,108
-128,541	391,344	-0,062	-0,091
-127,526	-15,274	-0,092	0,042
-126,512	-62,731	-0,121	-0,036
-125,497	34,869	0,016	-0,010
-124,483	-200,000	0,004	0,026
-123,468	264,010	-0,083	-0,103
-122,453	26,156	-0,020	-0,012
-121,439	800,000	0,004	0,011
-120,424	242,252	0,061	0,073
-119,410	-200,000	0,015	0,083
-118,395	-3,822	0,160	0,079
-117,380	42,193	0,043	0,028
-116,366	-200,000	-0,004	0,016
-115,351	264,088	-0,038	-0,047
-114,337	253,200	-0,021	0,025
-113,322	800,000	-0,016	0,043
-112,307	71,701	0,051	0,037
-111,293	642,075	0,044	0,079
-110,278	-4,056	-0,037	0,018
-109,264	-17,126	0,102	-0,045
-108,249	664,403	-0,075	-0,137
-107,234	800,000	-0,026	0,057
-106,220	30,089	-0,035	-0,021
-105,205	127,529	0,026	-0,024
-104,191	304,235	0,078	0,104
-103,176	-200,000	-0,009	0,084
-102,162	24,879	-0,133	0,078
-101,147	27,620	-0,142	-0,085
-100,132	-14,755	-0,127	-0,058
-99,118	476,032	0,035	0,056
-98,103	-61,124	0,179	-0,053
-97,089	-74,726	-0,110	0,028
-96,074	-144,621	0,046	-0,003
-95,059	427,213	0,099	0,152
-94,045	800,000	-0,049	0,139
-93,030	-33,022	-0,091	-0,036
-92,016	800,000	0,034	-0,097
-91,001	800,000	0,070	-0,186
-89,986	-12,785	0,053	0,024
-88,972	-154,587	0,107	0,005
-87,957	318,139	0,048	-0,064
-86,943	33,956	0,044	-0,027
-85,928	96,730	-0,045	-0,037
-84,913	-111,375	-0,203	-0,029
-83,899	-62,292	0,091	0,027
-82,884	-178,516	0,040	-0,001
-81,870	-200,000	-0,003	0,173
-80,855	-129,399	0,037	-0,004
-79,840	-200,000	-0,009	-0,079
-78,826	93,415	-0,127	-0,102
-77,811	-200,000	-0,007	-0,049
-76,797	83,151	0,046	-0,036
-75,782	36,277	-0,135	0,085
-74,767	-113,383	-0,121	0,017
-73,753	-200,000	0,027	0,098
-72,738	-99,549	-0,092	-0,016
-71,724	-200,000	-0,048	-0,157
-70,709	-200,000	-0,027	-0,119
-69,694	800,000	0,086	-0,175
-68,680	-200,000	0,011	0,118
-67,665	181,427	0,078	0,081
-66,651	-83,670	-0,107	0,024
-65,636	610,154	0,031	0,055
-64,622	579,054	-0,048	0,083
-63,607	61,971	-0,084	-0,059
-62,592	255,746	0,071	-0,086
-61,578	156,047	0,118	-0,115
-60,563	497,576	0,038	0,062
-59,549	-200,000	0,024	0,093
-58,534	-48,317	-1,608	-0,547
-57,519	400,486	-1,533	-2,288
-56,505	-200,000	-0,585	-4,553
-55,490	166,125	0,942	0,947
-54,476	800,000	4,968	11,343
-53,461	-200,000	18,297	286,519
-52,446	800,000	727,304	2226,569
-51,432	555,993	1642,796	2816,911
-50,417	79,302	1663,962	1263,798
-49,403	22,986	1537,688	892,096
-48,388	16,959	1461,034	818,421
-47,373	17,975	1450,970	817,649
-46,359	17,356	1441,535	809,337
-45,344	15,265	1436,593	796,544
-44,330	15,127	1434,934	794,934
-43,315	15,154	1433,175	794,054
-42,300	15,182	1431,468	793,212
-41,286	15,205	1430,485	792,745
-40,271	15,220	1429,112	792,025
-39,257	15,209	1427,677	791,147
-38,242	15,205	1426,431	790,405
-37,227	15,259	1425,173	789,930
-36,213	15,212	1424,014	789,037
-35,198	15,198	1422,939	788,340
-34,184	15,234	1421,943	787,927
-33,169	15,203	1420,552	786,979
-32,154	15,231	1419,642	786,579
-31,140	15,253	1418,270	785,890
-30,125	15,228	1417,193	785,145
-29,111	15,254	1415,993	784,569
-28,096	15,228	1414,954	783,841
-27,082	15,168	1413,804	782,890
-26,067	15,180	1412,685	782,295
-25,052	15,165	1411,580	781,585
-24,038	15,166	1410,716	781,079
-23,023	15,121	1409,664	780,256
-22,009	15,151	1408,407	779,669
-20,994	15,076	1407,936	779,024
-19,979	15,111	1406,748	778,501
-18,965	15,116	1405,876	778,009
-17,950	15,061	1404,734	777,088
-16,936	15,135	1403,855	776,918
-15,921	15,072	1402,709	775,962
-14,906	15,080	1401,827	775,478
-13,892	15,086	1401,045	775,042
-12,877	15,073	1400,122	774,441
-11,863	15,064	1399,071	773,785
-10,848	15,057	1398,275	773,284
-9,833	15,010	1397,340	772,518
-8,819	14,943	1396,522	771,724
-7,804	14,944	1395,566	771,171
-6,790	14,969	1394,682	770,767
-5,775	14,941	1393,551	769,981
-4,760	14,964	1392,726	769,600
-3,746	14,979	1391,841	769,152
-2,731	14,933	1391,175	768,539
-1,717	14,910	1390,142	767,830
-0,702	14,892	1388,406	766,759
0,313	18,760	1307,792	740,135
1,327	35,150	706,946	438,130
2,342	53,758	124,697	84,734
3,356	3,224	16,682	8,573
4,371	-3,423	3,084	1,516
5,386	-108,891	0,584	0,087
6,400	-31,797	-0,144	0,057
7,415	223,793	-0,242	-0,277
8,429	119,330	-0,345	-0,303
9,444	-37,408	-0,321	-0,121
10,459	-197,558	-0,256	0,001
11,473	62,659	-0,219	-0,155
12,488	800,000	-0,120	-0,254
13,502	12,442	-0,477	-0,260
14,517	31,839	-0,394	-0,240
15,531	92,455	-0,332	-0,265
16,546	-40,962	-0,381	-0,139
17,561	86,908	-0,361	-0,282
18,575	62,347	-0,243	-0,172
19,590	52,815	-0,193	-0,130
20,604	146,102	-0,170	-0,162
21,619	103,377	-0,357	-0,296
22,634	-32,720	-0,560	-0,219
23,648	195,210	-0,306	-0,329
24,663	27,529	-0,404	-0,240
25,677	60,028	-0,272	-0,190
26,692	93,153	-0,393	-0,314
27,707	45,792	-0,375	-0,245
28,721	-149,275	-0,535	-0,030
29,736	-26,497	-0,339	-0,140
30,750	-2,421	-0,410	-0,203
31,765	87,120	-0,375	-0,293
32,780	67,985	-0,338	-0,244
33,794	19,575	-0,432	-0,245
34,809	338,854	-0,124	-0,171
35,823	-73,601	-0,460	-0,118
36,838	138,306	-0,383	-0,355
37,853	83,699	-0,384	-0,296
38,867	124,164	-0,438	-0,389
39,882	64,074	-0,395	-0,280
40,896	92,359	-0,397	-0,316
41,911	-23,170	-0,331	-0,140
42,926	97,927	-0,319	-0,259
43,940	107,186	-0,306	-0,257
44,955	20,423	-0,450	-0,256
45,969	115,581	-0,315	-0,272
46,984	102,525	-0,319	-0,263
47,999	7,934	-0,341	-0,180
49,013	-39,408	-0,334	-0,123
50,028	67,899	-0,323	-0,233
51,042	7,559	-0,424	-0,223
52,057	308,890	-0,299	-0,396
53,071	72,114	-0,301	-0,221
54,086	133,691	-0,296	-0,270
55,101	51,229	-0,377	-0,252
56,115	79,029	-0,259	-0,195
57,130	124,929	-0,265	-0,236
58,144	180,220	-0,289	-0,299
59,159	9,021	-0,432	-0,229
60,174	337,849	-0,294	-0,404
61,188	-32,127	-0,261	-0,103
62,203	265,208	-0,152	-0,187
63,217	-5,021	-0,248	-0,120
64,232	-11,306	-0,433	-0,200
65,247	398,871	-0,319	-0,472
66,261	-4,594	-0,406	-0,197
67,276	147,953	-0,344	-0,327
68,290	57,541	-0,296	-0,203
69,305	135,246	-0,278	-0,254
70,320	18,380	-0,283	-0,159
71,334	38,198	-0,310	-0,194
72,349	462,510	-0,192	-0,303
73,363	-55,985	-0,274	-0,085
74,378	66,483	-0,299	-0,214
75,393	36,952	-0,345	-0,215
76,407	-82,046	-0,370	-0,084
77,422	253,788	-0,188	-0,227
78,436	-108,833	-0,317	0,047
79,451	-41,672	-0,422	-0,152
80,466	0,100	-0,380	-0,190
81,480	51,988	-0,429	-0,287
82,495	-13,624	-0,258	-0,117
83,509	106,381	-0,242	-0,201
84,524	556,226	-0,186	-0,317
85,539	40,837	-0,330	-0,209
86,553	18,722	-0,212	-0,119
87,568	-56,568	-0,373	-0,115
88,582	55,343	-0,349	-0,237
89,597	107,630	-0,241	-0,201
90,611	-22,869	-0,274	-0,116
91,626	14,819	-0,199	-0,109
92,641	57,393	-0,172	-0,118
93,655	-31,246	-0,377	-0,148
94,670	-36,160	-0,287	-0,108
95,684	30,110	-0,273	-0,164
96,699	106,984	-0,295	-0,247
97,714	66,898	-0,269	-0,193
98,728	-7,048	-0,161	-0,077
99,743	151,861	-0,296	-0,283
100,757	-171,877	-0,425	-0,010
101,772	49,628	-0,273	-0,180
102,787	314,970	-0,215	-0,286
103,801	35,084	-0,374	-0,230
104,816	-29,834	-0,215	-0,086
105,830	-89,010	-0,307	-0,063
106,845	-52,005	-0,165	-0,053
107,860	158,344	-0,235	-0,229
108,874	53,777	-0,311	-0,210
109,889	647,888	-0,141	-0,254
110,903	-11,236	-0,261	-0,120
111,918	265,543	-0,132	-0,162
112,933	126,932	-0,335	-0,298
113,947	167,658	-0,143	-0,143
114,962	91,398	-0,184	-0,145
115,976	150,713	-0,282	-0,269
116,991	90,111	-0,231	-0,181
118,006	300,130	-0,173	-0,225
119,020	219,772	-0,219	-0,246
120,035	375,013	-0,123	-0,176
121,049	-44,437	-0,313	-0,109
122,064	-49,518	-0,305	-0,101
123,079	-6,466	-0,360	-0,171
124,093	28,479	-0,232	-0,137
125,108	9,673	-0,228	-0,121
126,122	55,699	-0,240	-0,163
127,137	48,927	-0,297	-0,195
128,151	36,747	-0,297	-0,184
129,166	-102,843	-0,223	-0,037
130,181	-45,845	-0,193	-0,066
131,195	-87,019	-0,367	-0,078
132,210	85,445	-0,203	-0,156
133,224	187,199	-0,318	-0,333
134,239	-5,602	-0,270	-0,129
135,254	94,479	-0,155	-0,123
136,268	-68,230	-0,300	-0,081
137,283	37,329	-0,219	-0,136
138,297	285,487	-0,167	-0,211
139,312	-100,703	-0,272	-0,047
140,327	2,169	-0,251	-0,127
141,341	54,194	-0,123	-0,083
142,356	35,872	-0,232	-0,143
143,370	-145,968	-0,346	0,021
144,385	8,424	-0,191	-0,100
145,400	123,448	-0,260	-0,228
146,414	81,991	-0,262	-0,199
147,429	144,713	-0,294	-0,275
148,443	198,095	-0,231	-0,248
149,458	70,211	-0,191	-0,138
150,473	-28,505	-0,229	-0,092
151,487	63,443	-0,172	-0,120
152,502	-56,344	-0,324	-0,100
153,516	18,772	-0,345	-0,193
154,531	54,709	-0,350	-0,236
155,546	120,036	-0,238	-0,206
156,560	83,398	-0,203	-0,154
157,575	92,644	-0,175	-0,138
158,589	800,000	-0,089	-0,190
159,604	58,341	-0,235	-0,161
160,619	37,249	-0,273	-0,169
161,633	66,126	-0,267	-0,189
162,648	-27,824	-0,301	-0,121
163,662	62,556	-0,234	-0,163
164,677	-86,324	-0,272	0,058
165,692	391,558	-0,093	-0,136
166,706	-37,475	-0,289	-0,107
167,721	64,587	-0,237	-0,166
168,735	312,852	-0,173	-0,227
169,750	267,321	-0,205	-0,251
170,764	-124,430	-0,209	-0,022
171,779	101,389	-0,152	-0,124
172,794	176,453	-0,259	-0,263
173,808	8,220	-0,217	-0,113
174,823	-54,618	-0,353	-0,111
175,837	4,051	-0,371	-0,189
176,852	405,055	-0,146	-0,216
177,867	45,202	-0,143	-0,092
178,881	-158,719	-0,248	0,010
179,896	-13,781	-0,298	-0,134
180,910	36,542	-0,133	-0,082
181,925	177,409	-0,233	-0,237
182,940	112,956	-0,252	-0,213
183,954	-42,276	-0,224	-0,080
184,969	144,046	-0,244	-0,227
185,983	19,417	-0,133	-0,075
186,998	-39,851	-0,145	-0,053
188,013	20,794	-0,292	-0,165
189,027	112,947	-0,277	-0,234
190,042	-75,476	-0,365	-0,090
191,056	26,181	-0,246	-0,143
192,071	-18,953	-0,169	-0,073
193,086	277,587	-0,206	-0,256
194,100	87,129	-0,191	-0,147
195,115	2,895	-0,258	-0,130
196,129	800,000	-0,057	-0,166
197,144	-42,643	-0,271	-0,095
198,159	-136,213	-0,098	0,008
199,173	29,925	-0,254	-0,150
200,188	254,338	-0,198	-0,236
201,202	-12,477	-0,058	-0,026
202,217	800,000	-0,116	-0,277
203,232	29,224	-0,271	-0,160
204,246	300,702	-0,181	-0,233
205,261	21,068	-0,276	-0,155
206,275	-78,893	-0,161	-0,038
207,290	112,855	-0,150	-0,127
208,304	-89,697	-0,183	-0,037
209,319	-91,123	-0,210	-0,042
210,334	58,150	-0,220	-0,149
211,348	29,006	-0,254	-0,150
212,363	-22,852	-0,291	-0,122
213,377	51,762	-0,252	-0,167
214,392	269,796	-0,100	-0,122
215,407	-200,000	-0,075	-0,289
216,421	141,757	-0,186	-0,171
217,436	-61,754	-0,232	-0,067
218,450	800,000	-0,066	-0,158
219,465	800,000	-0,098	-0,220
220,480	800,000	-0,088	-0,231
221,494	-148,748	-0,286	0,016
222,509	-45,232	-0,319	-0,110
223,523	246,834	-0,133	-0,157
224,538	-200,000	-0,077	-0,251
225,553	-70,687	-0,226	-0,059
226,567	430,949	-0,128	-0,193
227,582	-4,305	-0,241	-0,115
228,596	297,043	-0,169	-0,216
229,611	227,886	-0,157	-0,177
230,626	-58,124	-0,127	-0,038
231,640	34,031	-0,237	-0,143
232,655	-22,990	-0,298	-0,124
233,669	23,142	-0,271	-0,154
234,684	-17,779	-0,181	-0,079
235,699	11,601	-0,263	-0,140
236,713	161,473	-0,187	-0,182
237,728	-119,746	-0,138	-0,016
238,742	-85,417	-0,147	-0,032
239,757	113,224	-0,254	-0,214
240,772	100,261	-0,197	-0,159
241,786	226,483	-0,177	-0,200
242,801	129,570	-0,155	-0,137
243,815	-139,231	-0,108	-0,008
244,830	58,159	-0,172	-0,117
245,844	74,699	-0,249	-0,182
246,859	89,023	-0,118	-0,091
247,874	-52,787	-0,207	-0,066
248,888	534,053	-0,135	-0,222
249,903	175,350	-0,187	-0,188
250,917	-63,965	-0,164	-0,046
251,932	-15,222	-0,191	-0,085
252,947	-110,312	-0,164	-0,023
253,961	54,545	-0,171	-0,114
254,976	-37,961	-0,263	-0,096
255,990	67,077	-0,200	-0,141
257,005	33,636	-0,163	-0,098
258,020	133,481	-0,174	-0,156
259,034	800,000	-0,034	-0,065
260,049	-123,586	-0,255	-0,028
261,063	123,578	-0,104	-0,090
262,078	301,750	-0,205	-0,264
263,093	-8,964	-0,219	-0,101
264,107	-50,597	-0,176	-0,057
265,122	21,650	-0,092	-0,052
266,136	167,197	-0,124	0,122
267,151	-46,832	-0,245	-0,082
268,166	-39,458	-0,256	-0,093
269,180	201,877	-0,184	-0,197
270,195	354,915	-0,171	-0,237
271,209	427,966	-0,136	-0,203
272,224	285,209	-0,108	-0,135
273,239	-58,010	-0,222	-0,067
274,253	-89,924	-0,189	-0,038
275,268	-200,000	-0,038	-0,194
276,282	62,438	-0,151	-0,104
277,297	177,284	-0,149	-0,150
278,312	-159,315	-0,048	-0,002
279,326	-32,918	-0,148	0,056
280,341	800,000	-0,112	-0,224
281,355	-13,405	-0,139	-0,062
282,370	800,000	-0,062	-0,178
283,384	83,722	-0,195	-0,147
284,399	564,659	-0,148	-0,249
285,414	95,655	-0,097	-0,076
286,428	-200,000	-0,103	0,000
287,443	16,616	-0,116	-0,063
288,457	-2,014	-0,172	0,083
289,472	-96,846	-0,210	0,038
290,487	30,284	-0,178	-0,105
291,501	-98,152	-0,252	-0,044
292,516	157,861	-0,220	-0,210
293,530	24,226	-0,065	-0,037
294,545	-66,317	-0,082	0,022
295,560	38,477	-0,101	-0,062
296,574	200,966	-0,176	-0,187
297,589	212,072	-0,156	-0,169
298,603	-45,377	-0,236	-0,081
299,618	-97,995	-0,248	-0,044
300,633	-1,855	-0,176	-0,085
301,647	-87,990	-0,178	0,037
302,662	-59,842	-0,202	-0,059
303,676	656,130	0,008	0,015
304,691	187,431	-0,255	-0,263
305,706	83,373	-0,168	-0,126
306,720	89,896	-0,193	-0,149
307,735	249,534	-0,131	-0,154
308,749	-200,000	-0,032	-0,240
309,764	116,940	-0,135	-0,115
310,779	-200,000	-0,007	0,024
311,793	217,971	-0,142	-0,157
312,808	-179,610	-0,303	0,004
313,822	395,165	-0,117	-0,169
314,837	18,918	-0,181	-0,100
315,852	-173,874	-0,121	-0,002
316,866	64,613	-0,062	0,043
317,881	-45,604	-0,150	-0,051
318,895	-48,462	-0,208	0,069
319,910	144,884	-0,166	-0,153
320,925	-200,000	-0,011	-0,185
321,939	800,000	-0,082	-0,172
322,954	87,964	-0,148	-0,113
323,968	-117,472	-0,182	-0,022
324,983	150,507	-0,186	-0,174
325,997	-10,203	-0,116	-0,053
327,012	86,314	-0,117	-0,089
328,027	20,327	-0,133	-0,074
329,041	191,442	-0,182	-0,189
330,056	-12,076	-0,216	-0,097
331,070	-102,651	-0,175	-0,029
332,085	-52,228	-0,139	0,044
333,100	-104,108	-0,075	-0,012
334,114	-200,000	-0,138	-0,000
335,129	-13,241	-0,201	-0,089
336,143	-93,982	-0,049	-0,009
337,158	15,808	-0,074	-0,040
338,173	221,817	-0,033	0,036
339,187	72,281	-0,205	0,147
340,202	-71,634	-0,111	-0,028
341,216	498,630	-0,144	-0,230
342,231	800,000	-0,041	-0,098
343,246	83,942	-0,156	-0,117
344,260	-128,005	-0,222	-0,022
345,275	-55,683	-0,205	-0,063
346,289	205,621	-0,143	-0,153
347,304	-28,447	-0,205	-0,081
348,319	142,269	-0,103	-0,094
349,333	136,428	-0,180	-0,161
350,348	312,528	-0,205	-0,265
351,362	421,781	-0,038	-0,056
352,377	-101,990	-0,102	0,017
353,392	-200,000	0,003	0,107
354,406	-62,496	-0,120	0,034
355,421	208,750	1312,585	1412,986
356,435	160,635	1473,076	1413,503
