DTS Sentinel unit serial number:	SN410029Multiplexer serial number:	ORYXHardware model number:	OX2-SRSoftware version number:	ORYX F/W v4,00 Oryx Data Collector v3.7.2.0data status	okinstallation	B3 Nyhavnadifferential loss correction	single-endedforward channel	channel 1reverse channel	N/Adate	2023/11/29time	05:27:30forward acquisition time	300,00reverse acquisition time	0,00gamma	499,1914k internal	0,3212k external	0,3212temperature offset calibration	1,0000default loss term (dB/km)	0,3820temperature slope calibration	1,0000multiplexer offset coefficient	1,0000multiplexer slope coefficient	1,0000fibre end	0,00T internal ref (°C)	9,11T ext. ref 1 (°C)	-6,28T ext. ref 2 (°C)	-6,41length (m)	temperature (°C)	Stokes	anti-Stokes-744,400	175,018	-0,197	-0,206
-743,385	-200,000	-0,009	0,301
-742,371	87,212	-0,221	-0,177
-741,356	-200,000	0,033	0,246
-740,342	80,845	-0,155	-0,121
-739,327	-200,000	0,034	0,305
-738,312	509,290	-0,215	-0,364
-737,298	800,000	-0,115	0,260
-736,283	41,705	-0,225	-0,148
-735,269	-200,000	-0,048	0,390
-734,254	84,081	-0,319	-0,252
-733,239	-23,075	-0,106	0,046
-732,225	372,095	-0,134	-0,198
-731,210	411,208	0,078	0,121
-730,196	406,426	-0,034	-0,053
-729,181	64,808	-0,194	0,142
-728,167	564,568	-0,015	0,027
-727,152	-200,000	0,009	0,088
-726,137	240,693	-0,083	0,100
-725,123	71,279	0,014	-0,011
-724,108	99,002	-0,057	0,048
-723,094	-116,237	0,045	-0,006
-722,079	198,464	-0,066	-0,074
-721,064	30,841	0,057	0,035
-720,050	100,233	-0,097	-0,081
-719,035	8,624	-0,056	0,030
-718,021	-83,085	-0,142	0,033
-717,006	134,352	-0,094	-0,088
-715,991	800,000	0,019	-0,051
-714,977	10,447	-0,109	0,060
-713,962	168,389	0,067	-0,069
-712,948	162,274	-0,132	-0,134
-711,933	-116,803	-0,053	-0,007
-710,918	12,394	0,094	0,052
-709,904	-69,343	-0,144	0,040
-708,889	95,506	0,038	0,031
-707,875	800,000	0,073	-0,192
-706,860	73,120	-0,021	0,016
-705,845	315,185	-0,056	-0,077
-704,831	-200,000	0,012	0,043
-703,816	-200,000	-0,010	0,108
-702,802	103,852	0,063	-0,054
-701,787	-200,000	-0,045	-0,144
-700,772	-122,997	-0,140	-0,016
-699,758	-15,280	-0,042	0,019
-698,743	800,000	0,035	0,101
-697,729	-200,000	-0,001	0,046
-696,714	-200,000	0,006	-0,175
-695,699	-61,741	-0,011	0,003
-694,685	-30,926	-0,138	0,056
-693,670	90,514	-0,070	-0,056
-692,656	-200,000	-0,005	0,021
-691,641	318,306	0,091	-0,125
-690,627	129,560	-0,043	0,040
-689,612	-200,000	-0,020	-0,093
-688,597	-200,000	0,002	-0,089
-687,583	82,199	-0,084	-0,066
-686,568	204,426	0,089	-0,100
-685,554	-200,000	-0,029	-0,156
-684,539	663,687	0,070	0,130
-683,524	-156,577	0,049	0,002
-682,510	800,000	-0,028	0,083
-681,495	377,088	-0,037	0,055
-680,481	-200,000	-0,026	-0,155
-679,466	800,000	-0,016	-0,049
-678,451	-104,127	0,132	-0,022
-677,437	49,563	0,083	-0,056
-676,422	115,326	-0,065	0,057
-675,408	12,782	-0,037	-0,021
-674,393	298,582	-0,072	-0,096
-673,378	800,000	-0,057	-0,134
-672,364	-200,000	-0,001	-0,061
-671,349	94,160	-0,016	-0,013
-670,335	27,948	-0,035	-0,021
-669,320	-200,000	-0,004	-0,071
-668,305	221,612	0,035	-0,041
-667,291	189,375	0,088	0,095
-666,276	-200,000	-0,020	-0,103
-665,262	-77,142	-0,089	-0,022
-664,247	369,184	-0,046	0,067
-663,232	-200,000	0,000	-0,024
-662,218	-10,376	0,078	0,037
-661,203	-200,000	0,021	-0,160
-660,189	584,213	-0,023	-0,041
-659,174	24,492	-0,032	-0,019
-658,159	-21,501	-0,085	-0,037
-657,145	464,965	-0,031	0,050
-656,130	800,000	-0,067	-0,154
-655,116	-32,820	0,013	0,005
-654,101	-4,064	-0,127	0,064
-653,086	-5,798	0,165	0,081
-652,072	203,213	-0,095	-0,106
-651,057	-33,404	0,042	-0,017
-650,043	-9,927	-0,090	0,043
-649,028	-191,176	-0,058	0,000
-648,014	372,833	0,090	0,133
-646,999	-200,000	-0,012	0,107
-645,984	358,126	-0,011	0,016
-644,970	-59,272	-0,170	0,053
-643,955	-200,000	-0,021	0,075
-642,941	40,591	-0,063	-0,041
-641,926	-115,219	0,135	-0,018
-640,911	-43,919	-0,130	-0,047
-639,897	55,310	-0,081	-0,057
-638,882	216,056	-0,041	0,047
-637,868	-78,830	0,043	-0,011
-636,853	197,859	-0,061	-0,068
-635,838	-58,258	0,051	-0,016
-634,824	-200,000	-0,012	-0,039
-633,809	367,206	-0,058	0,084
-632,795	-200,000	-0,008	0,039
-631,780	43,396	-0,076	0,050
-630,765	177,795	-0,045	0,047
-629,751	654,658	0,029	-0,054
-628,736	-200,000	0,002	-0,077
-627,722	201,378	-0,127	-0,141
-626,707	-9,437	0,028	0,014
-625,692	-200,000	0,018	-0,071
-624,678	-23,379	0,055	-0,024
-623,663	800,000	-0,035	0,110
-622,649	-24,494	-0,158	0,068
-621,634	-45,428	-0,067	-0,024
-620,619	-28,158	0,148	-0,062
-619,605	-200,000	0,004	0,032
-618,590	19,040	-0,073	-0,042
-617,576	205,693	0,040	-0,045
-616,561	-200,000	-0,029	0,195
-615,546	800,000	0,054	0,120
-614,532	-18,190	-0,092	0,041
-613,517	12,333	0,033	-0,019
-612,503	38,542	0,058	0,037
-611,488	149,330	-0,134	-0,131
-610,474	-24,295	0,121	0,052
-609,459	800,000	-0,077	-0,174
-608,444	-59,895	0,080	-0,025
-607,430	-200,000	0,018	-0,072
-606,415	334,026	-0,070	0,098
-605,401	-200,000	0,058	0,000
-604,386	-200,000	0,000	-0,007
-603,371	-200,000	-0,020	0,148
-602,357	80,672	-0,058	0,045
-601,342	430,901	-0,122	-0,192
-600,328	5,751	-0,123	-0,065
-599,313	50,626	-0,054	0,037
-598,298	-67,897	0,057	0,016
-597,284	-85,732	0,056	-0,012
-596,269	-200,000	-0,008	0,090
-595,255	-200,000	0,019	-0,083
-594,240	-200,000	0,024	-0,088
-593,225	-46,729	-0,101	-0,036
-592,211	62,147	0,075	-0,054
-591,196	-200,000	0,001	-0,035
-590,182	48,177	-0,058	0,039
-589,167	709,644	0,069	0,133
-588,152	35,975	-0,099	0,063
-587,138	-200,000	0,008	-0,070
-586,123	800,000	-0,015	0,033
-585,109	-4,978	-0,098	-0,049
-584,094	-36,148	0,136	0,052
-583,079	323,874	-0,026	0,036
-582,065	72,789	0,060	-0,045
-581,050	-103,056	0,090	0,015
-580,036	-167,375	-0,088	-0,002
-579,021	-200,000	0,003	-0,010
-578,006	-131,082	-0,113	0,011
-576,992	320,804	-0,022	-0,030
-575,977	51,340	0,031	0,021
-574,963	-10,339	0,073	-0,035
-573,948	95,289	0,111	0,091
-572,934	-124,656	0,128	-0,014
-571,919	-81,424	-0,085	0,020
-570,904	65,714	0,063	0,046
-569,890	-98,784	-0,070	0,013
-568,875	-171,553	-0,039	0,001
-567,861	-96,836	0,197	-0,037
-566,846	-200,000	0,017	-0,063
-565,831	800,000	0,042	0,098
-564,817	-200,000	-0,023	-0,081
-563,802	-106,729	-0,105	-0,017
-562,788	121,685	0,059	0,053
-561,773	800,000	0,031	0,074
-560,758	-102,687	0,060	-0,010
-559,744	285,314	-0,029	-0,037
-558,729	-200,000	0,015	0,049
-557,715	629,558	0,063	0,115
-556,700	285,425	-0,079	0,103
-555,685	800,000	0,052	0,116
-554,671	-200,000	0,032	-0,151
-553,656	-114,165	-0,074	0,010
-552,642	-6,956	-0,138	-0,067
-551,627	-200,000	-0,063	0,000
-550,612	-200,000	0,039	-0,150
-549,598	72,782	0,164	-0,123
-548,583	-200,000	0,010	-0,041
-547,569	478,621	-0,057	-0,094
-546,554	800,000	-0,037	0,108
-545,539	-200,000	-0,039	-0,130
-544,525	10,826	0,076	0,042
-543,510	229,451	-0,158	-0,186
-542,496	158,129	-0,093	-0,093
-541,481	-103,168	-0,186	-0,031
-540,466	800,000	0,039	-0,103
-539,452	-200,000	0,009	-0,067
-538,437	800,000	-0,043	-0,088
-537,423	-26,101	0,068	0,029
-536,408	800,000	0,022	-0,051
-535,393	-55,733	-0,092	-0,029
-534,379	12,756	-0,114	0,063
-533,364	288,418	0,053	0,069
-532,350	-77,238	-0,028	0,007
-531,335	-60,383	0,153	-0,046
-530,321	13,431	0,075	0,042
-529,306	56,156	-0,032	-0,022
-528,291	641,123	-0,043	-0,079
-527,277	-200,000	0,020	-0,088
-526,262	86,427	0,047	0,037
-525,248	-200,000	-0,010	0,090
-524,233	800,000	-0,036	0,075
-523,218	202,769	0,075	0,083
-522,204	404,367	0,100	0,152
-521,189	17,050	0,115	0,065
-520,175	36,978	-0,099	-0,063
-519,160	-176,370	-0,011	0,000
-518,145	-61,497	-0,030	0,009
-517,131	-72,655	0,038	-0,010
-516,116	-94,612	-0,080	-0,015
-515,102	59,251	-0,101	-0,071
-514,087	-63,399	-0,192	0,056
-513,072	-70,452	0,104	0,028
-512,058	88,762	-0,103	-0,082
-511,043	-78,784	0,160	-0,039
-510,029	800,000	0,042	0,084
-509,014	-200,000	0,000	0,039
-507,999	-140,880	0,116	0,008
-506,985	-44,414	0,012	-0,004
-505,970	-182,959	0,083	-0,001
-504,956	-171,677	-0,074	0,002
-503,941	-103,275	-0,061	0,010
-502,926	482,796	0,147	0,241
-501,912	18,648	0,074	-0,042
-500,897	180,574	-0,087	-0,092
-499,883	-200,000	0,062	0,198
-498,868	-200,000	-0,005	0,022
-497,853	-133,760	-0,063	0,006
-496,839	800,000	-0,028	-0,089
-495,824	-95,237	0,149	0,029
-494,810	-76,706	-0,115	0,029
-493,795	-200,000	0,016	-0,059
-492,781	-98,749	-0,093	-0,017
-491,766	69,722	-0,107	-0,079
-490,751	72,847	0,159	-0,119
-489,737	-113,385	0,128	-0,018
-488,722	137,436	0,118	-0,111
-487,708	-57,714	-0,045	0,014
-486,693	-29,822	-0,116	-0,047
-485,678	800,000	-0,057	-0,134
-484,664	674,651	0,024	0,045
-483,649	78,626	-0,102	-0,078
-482,635	375,442	0,077	-0,113
-481,620	112,096	0,040	0,035
-480,605	328,123	0,047	0,065
-479,591	403,022	0,051	-0,077
-478,576	679,159	0,057	-0,106
-477,562	-200,000	-0,019	-0,082
-476,547	-200,000	0,010	-0,179
-475,532	132,423	-0,019	0,017
-474,518	-200,000	-0,002	0,063
-473,503	373,078	0,057	0,083
-472,489	23,377	-0,099	0,058
-471,474	621,617	0,043	-0,077
-470,459	169,975	0,031	0,032
-469,445	161,694	0,115	-0,115
-468,430	9,116	0,017	0,009
-467,416	282,183	0,060	0,077
-466,401	-92,301	0,067	0,013
-465,386	-39,305	-0,028	-0,010
-464,372	-50,749	-0,161	-0,054
-463,357	800,000	-0,020	-0,053
-462,343	800,000	0,047	0,117
-461,328	170,249	0,048	-0,049
-460,313	800,000	-0,043	0,086
-459,299	-200,000	0,020	0,097
-458,284	-200,000	0,014	-0,129
-457,270	223,765	-0,105	0,122
-456,255	-64,895	-0,106	0,031
-455,241	-200,000	-0,006	-0,090
-454,226	628,883	-0,025	-0,046
-453,211	-18,158	0,066	0,029
-452,197	-200,000	-0,013	-0,123
-451,182	229,165	-0,008	0,010
-450,168	800,000	0,057	0,165
-449,153	-90,206	0,034	-0,007
-448,138	733,854	-0,051	-0,098
-447,124	-200,000	0,000	-0,135
-446,109	126,936	0,017	0,015
-445,095	-148,320	0,070	0,004
-444,080	-200,000	-0,007	0,055
-443,065	64,093	-0,044	0,032
-442,051	517,171	0,067	-0,112
-441,036	-6,037	0,025	-0,012
-440,022	800,000	0,018	-0,041
-439,007	-1,005	0,116	0,059
-437,992	-162,822	0,044	0,001
-436,978	-169,945	-0,109	0,003
-435,963	-86,776	-0,128	-0,028
-434,949	68,009	-0,074	0,054
-433,934	107,582	0,055	-0,047
-432,919	800,000	0,029	0,065
-431,905	7,373	-0,009	-0,005
-430,890	496,768	0,058	-0,096
-429,876	361,334	0,023	0,033
-428,861	29,434	0,059	0,036
-427,846	-63,374	-0,116	0,034
-426,832	-200,000	-0,010	-0,115
-425,817	-200,000	0,017	0,067
-424,803	86,205	-0,132	0,104
-423,788	-8,854	-0,015	0,007
-422,773	-48,330	0,061	0,021
-421,759	-200,000	-0,010	-0,054
-420,744	254,282	-0,044	0,054
-419,730	-16,841	-0,049	0,022
-418,715	-200,000	-0,011	-0,078
-417,701	73,838	-0,161	-0,121
-416,686	-200,000	-0,006	0,085
-415,671	800,000	0,031	0,069
-414,657	563,729	0,072	0,125
-413,642	-89,746	-0,081	-0,017
-412,628	-200,000	0,020	-0,077
-411,613	-78,066	-0,045	-0,011
-410,598	-131,844	0,108	0,010
-409,584	95,595	0,055	0,045
-408,569	800,000	0,051	0,124
-407,555	432,544	0,041	0,063
-406,540	-200,000	0,002	0,102
-405,525	-23,554	-0,101	-0,043
-404,511	-200,000	0,005	-0,082
-403,496	19,965	-0,053	0,031
-402,482	79,396	0,078	-0,060
-401,467	-200,000	-0,019	-0,083
-400,452	194,113	-0,084	0,091
-399,438	6,876	0,068	0,036
-398,423	102,609	-0,053	-0,045
-397,409	-9,331	-0,036	0,017
-396,394	196,396	-0,103	0,112
-395,379	-200,000	0,007	0,022
-394,365	-48,401	-0,041	-0,014
-393,350	157,942	-0,034	-0,034
-392,336	178,247	0,096	0,100
-391,321	-132,972	-0,160	-0,014
-390,306	-60,089	-0,061	0,019
-389,292	800,000	0,026	0,060
-388,277	-1,607	0,039	-0,020
-387,263	550,133	-0,005	0,008
-386,248	46,864	-0,133	0,088
-385,233	-64,280	0,055	-0,016
-384,219	-106,779	0,119	0,019
-383,204	-83,620	-0,086	0,019
-382,190	-200,000	-0,010	-0,041
-381,175	699,352	-0,065	-0,123
-380,160	800,000	0,062	-0,146
-379,146	800,000	-0,006	-0,013
-378,131	-200,000	0,012	0,050
-377,117	800,000	-0,015	-0,039
-376,102	40,961	-0,073	0,047
-375,088	-96,289	0,048	-0,009
-374,073	50,639	-0,041	0,027
-373,058	-200,000	-0,007	0,161
-372,044	-41,360	0,146	0,053
-371,029	-200,000	-0,035	0,194
-370,015	139,346	0,116	0,110
-369,000	800,000	-0,042	-0,106
-367,985	66,485	-0,095	-0,069
-366,971	-28,873	-0,038	-0,016
-365,956	-133,348	0,113	-0,010
-364,942	421,982	0,045	-0,069
-363,927	-25,338	0,059	0,025
-362,912	-141,543	-0,073	-0,005
-361,898	-200,000	-0,007	-0,086
-360,883	800,000	-0,019	-0,047
-359,869	384,238	-0,047	0,069
-358,854	226,180	-0,072	0,084
-357,839	17,750	-0,042	0,024
-356,825	-87,461	0,137	0,029
-355,810	552,581	-0,061	-0,105
-354,796	-200,000	0,010	-0,031
-353,781	-200,000	0,005	0,115
-352,766	-127,095	0,085	-0,009
-351,752	100,052	0,066	0,054
-350,737	800,000	0,033	-0,079
-349,723	-200,000	0,000	-0,088
-348,708	1,035	0,060	0,031
-347,693	-25,822	-0,133	-0,056
-346,679	-200,000	0,040	-0,133
-345,664	-200,000	0,000	0,032
-344,650	800,000	-0,127	-0,263
-343,635	-91,732	0,025	0,005
-342,620	-46,995	0,148	0,051
-341,606	800,000	0,036	0,073
-340,591	15,705	-0,069	0,039
-339,577	-106,939	0,049	-0,008
-338,562	800,000	0,033	-0,090
-337,548	98,423	-0,024	0,020
-336,533	5,288	0,107	0,056
-335,518	-43,995	0,351	0,125
-334,504	-121,956	0,087	0,010
-333,489	-182,539	0,005	0,000
-332,475	-140,592	0,056	0,004
-331,460	97,944	0,025	-0,020
-330,445	214,995	-0,090	0,102
-329,431	10,562	-0,048	0,026
-328,416	-131,677	0,138	0,013
-327,402	-200,000	-0,008	0,055
-326,387	800,000	-0,034	0,089
-325,372	800,000	0,043	-0,108
-324,358	-200,000	-0,001	-0,079
-323,343	-48,742	0,082	-0,028
-322,329	-200,000	-0,009	-0,108
-321,314	-200,000	0,006	0,027
-320,299	-60,591	0,013	0,004
-319,285	-200,000	0,003	-0,073
-318,270	166,408	0,067	-0,068
-317,256	127,369	-0,132	-0,119
-316,241	547,210	-0,030	-0,052
-315,226	800,000	-0,022	0,045
-314,212	-58,018	0,046	0,014
-313,197	7,187	-0,103	-0,055
-312,183	-200,000	-0,006	0,044
-311,168	275,983	0,071	-0,090
-310,153	305,087	-0,044	0,058
-309,139	-15,357	0,130	-0,059
-308,124	-200,000	0,023	0,118
-307,110	-173,083	0,053	-0,001
-306,095	-200,000	0,028	0,142
-305,080	-200,000	0,055	0,176
-304,066	177,632	0,071	-0,074
-303,051	-200,000	-0,021	-0,142
-302,037	132,195	-0,092	-0,084
-301,022	-137,894	-0,056	-0,004
-300,008	-102,670	0,066	0,011
-298,993	4,032	-0,049	0,025
-297,978	-200,000	-0,031	-0,155
-296,964	103,024	0,092	0,077
-295,949	89,236	0,014	-0,011
-294,935	-200,000	-0,053	-0,168
-293,920	-6,676	-0,043	-0,021
-292,905	-200,000	0,008	-0,117
-291,891	-200,000	-0,016	0,079
-290,876	444,495	-0,011	-0,018
-289,862	-91,699	0,111	0,022
-288,847	-200,000	-0,047	0,154
-287,832	-0,117	-0,037	-0,019
-286,818	677,898	0,008	-0,014
-285,803	52,885	-0,135	0,092
-284,789	-11,798	0,166	0,077
-283,774	109,550	-0,042	-0,036
-282,759	476,985	-0,047	0,076
-281,745	218,454	0,062	-0,071
-280,730	-200,000	0,021	-0,081
-279,716	58,925	0,047	0,033
-278,701	-200,000	0,007	0,099
-277,686	-146,360	-0,084	0,005
-276,672	687,868	0,041	0,077
-275,657	132,346	-0,021	0,019
-274,643	-66,607	-0,153	0,043
-273,628	-141,877	0,112	0,008
-272,613	-68,297	0,086	-0,024
-271,599	518,375	-0,012	0,020
-270,584	85,132	-0,072	-0,056
-269,570	61,037	0,103	0,073
-268,555	117,602	-0,119	0,104
-267,540	800,000	0,022	-0,058
-266,526	-3,887	-0,055	-0,027
-265,511	-25,395	0,033	0,014
-264,497	34,457	0,049	-0,030
-263,482	800,000	0,078	0,213
-262,467	-154,382	-0,109	0,005
-261,453	380,850	0,034	-0,049
-260,438	-103,136	-0,205	0,034
-259,424	-200,000	-0,015	0,140
-258,409	-52,880	-0,129	-0,042
-257,395	800,000	0,024	-0,075
-256,380	-36,646	0,047	-0,018
-255,365	41,120	0,078	0,050
-254,351	-125,906	-0,049	0,005
-253,336	206,589	-0,097	0,108
-252,322	128,374	0,029	-0,026
-251,307	-100,707	-0,109	0,019
-250,292	134,636	0,034	-0,031
-249,278	313,223	-0,035	-0,047
-248,263	207,978	-0,055	0,061
-247,249	-96,857	-0,032	-0,006
-246,234	-172,226	0,099	0,002
-245,219	-20,919	0,042	-0,018
-244,205	254,371	0,043	-0,053
-243,190	-200,000	-0,013	-0,120
-242,176	20,424	0,161	-0,092
-241,161	800,000	0,038	-0,110
-240,146	-5,186	0,048	-0,023
-239,132	800,000	-0,042	-0,120
-238,117	-200,000	-0,017	-0,126
-237,103	800,000	-0,080	-0,192
-236,088	162,542	0,099	-0,099
-235,073	-65,640	-0,181	-0,051
-234,059	-83,348	-0,141	0,032
-233,044	-200,000	-0,116	-0,000
-232,030	-125,545	-0,093	-0,010
-231,015	114,269	-0,049	-0,043
-230,000	800,000	0,029	-0,078
-228,986	-200,000	0,000	0,038
-227,971	201,339	0,020	0,022
-226,957	-81,290	-0,125	-0,029
-225,942	-79,967	0,224	-0,053
-224,927	-78,990	0,105	0,025
-223,913	451,399	-0,111	0,175
-222,898	52,948	0,061	0,041
-221,884	-41,223	-0,068	-0,025
-220,869	-200,000	-0,026	0,116
-219,855	-1,769	0,153	0,076
-218,840	170,971	0,049	0,050
-217,825	-23,883	-0,039	-0,017
-216,811	-200,000	-0,018	0,073
-215,796	-200,000	0,024	-0,089
-214,782	129,994	0,072	-0,066
-213,767	114,773	0,059	0,051
-212,752	-156,615	-0,048	-0,002
-211,738	128,704	0,033	0,030
-210,723	-176,780	0,128	0,002
-209,709	-105,653	-0,057	-0,009
-208,694	-108,935	-0,040	-0,006
-207,679	-38,847	-0,123	-0,046
-206,665	-32,253	0,045	0,018
-205,650	-30,289	0,168	-0,067
-204,636	554,077	0,002	-0,003
-203,621	14,609	0,018	-0,010
-202,606	451,975	-0,077	0,121
-201,592	73,710	-0,210	0,156
-200,577	-200,000	0,003	-0,065
-199,563	466,799	0,060	0,096
-198,548	-16,444	0,072	-0,032
-197,533	800,000	-0,020	0,054
-196,519	91,653	0,194	0,154
-195,504	-96,577	-0,107	-0,020
-194,490	-200,000	-0,002	0,056
-193,475	84,561	-0,076	0,059
-192,460	10,431	0,096	-0,052
-191,446	-16,580	-0,104	-0,047
-190,431	6,215	0,131	0,069
-189,417	-58,215	-0,075	0,023
-188,402	-124,282	-0,034	-0,004
-187,387	800,000	-0,078	-0,176
-186,373	462,870	0,034	0,054
-185,358	119,209	-0,022	0,019
-184,344	-61,140	0,057	-0,017
-183,329	-200,000	0,007	0,066
-182,315	330,285	0,090	-0,123
-181,300	800,000	0,054	0,113
-180,285	215,390	0,055	-0,062
-179,271	58,658	-0,069	0,048
-178,256	34,839	0,107	0,066
-177,242	117,678	0,046	0,040
-176,227	18,066	0,146	0,082
-175,212	453,029	0,042	0,066
-174,198	-116,477	-0,112	0,014
-173,183	-200,000	-0,006	0,091
-172,169	70,214	-0,095	-0,070
-171,154	-101,241	-0,086	-0,015
-170,139	460,017	-0,024	0,038
-169,125	108,382	0,112	0,094
-168,110	800,000	0,016	-0,035
-167,096	-72,783	-0,060	0,016
-166,081	339,758	0,046	0,064
-165,066	161,351	0,094	-0,093
-164,052	178,767	0,072	0,075
-163,037	542,053	0,048	0,081
-162,023	40,071	0,044	0,028
-161,008	800,000	-0,044	0,136
-159,993	-20,183	0,030	0,013
-158,979	-96,823	-0,084	-0,015
-157,964	653,106	0,091	-0,166
-156,950	800,000	0,026	-0,075
-155,935	-86,824	-0,060	0,013
-154,920	-200,000	0,004	-0,043
-153,906	25,011	-0,068	0,040
-152,891	51,967	-0,038	-0,025
-151,877	800,000	-0,055	-0,112
-150,862	-37,609	-0,020	-0,008
-149,847	174,765	0,074	-0,076
-148,833	-116,444	-0,067	-0,009
-147,818	252,736	0,044	0,053
-146,804	-1,313	0,082	-0,041
-145,789	-200,000	-0,012	0,042
-144,775	211,688	0,071	-0,080
-143,760	155,993	-0,070	0,068
-142,745	103,421	-0,074	-0,062
-141,731	-200,000	-0,136	-0,000
-140,716	-135,152	0,054	-0,004
-139,702	-60,039	0,104	-0,031
-138,687	7,321	-0,111	-0,058
-137,672	-200,000	0,018	-0,076
-136,658	241,431	-0,055	0,065
-135,643	475,825	-0,037	0,059
-134,629	800,000	0,002	-0,006
-133,614	-10,495	0,060	0,028
-132,599	800,000	0,073	-0,168
-131,585	185,096	-0,084	0,089
-130,570	300,559	-0,023	-0,030
-129,556	-200,000	0,016	0,081
-128,541	6,603	0,090	0,047
-127,526	538,191	-0,017	-0,029
-126,512	800,000	0,016	0,037
-125,497	-66,227	0,102	-0,029
-124,483	-50,147	-0,069	-0,023
-123,468	-64,966	0,068	-0,019
-122,453	592,816	-0,038	-0,066
-121,439	259,971	-0,085	-0,104
-120,424	800,000	-0,029	0,080
-119,410	93,516	0,099	0,079
-118,395	100,679	0,106	0,087
-117,380	-200,000	-0,047	0,192
-116,366	800,000	-0,055	0,160
-115,351	54,974	-0,103	0,070
-114,337	126,699	0,094	-0,084
-113,322	-200,000	-0,017	0,060
-112,307	-200,000	0,025	0,110
-111,293	601,056	0,044	0,077
-110,278	107,730	-0,050	0,042
-109,264	358,003	-0,030	0,043
-108,249	-146,939	0,124	0,007
-107,234	-200,000	0,007	0,075
-106,220	0,096	-0,173	0,087
-105,205	-66,105	-0,116	0,033
-104,191	800,000	-0,009	0,022
-103,176	800,000	0,015	-0,045
-102,162	21,300	-0,091	0,052
-101,147	-200,000	0,044	0,209
-100,132	-200,000	0,010	-0,044
-99,118	225,516	-0,080	0,092
-98,103	188,388	0,096	0,102
-97,089	-20,855	0,071	0,030
-96,074	-133,703	-0,034	-0,003
-95,059	800,000	0,015	0,036
-94,045	-46,768	0,117	0,040
-93,030	-108,554	0,068	-0,010
-92,016	800,000	-0,029	-0,088
-91,001	339,735	-0,009	0,013
-89,986	-200,000	-0,006	0,028
-88,972	-21,446	0,045	0,020
-87,957	-200,000	-0,014	-0,104
-86,943	-200,000	0,024	0,088
-85,928	509,796	-0,058	-0,095
-84,913	9,195	0,074	0,040
-83,899	-149,800	0,175	0,010
-82,884	248,126	-0,086	-0,103
-81,870	-200,000	0,023	0,119
-80,855	321,166	-0,032	0,043
-79,840	-200,000	-0,007	0,121
-78,826	-200,000	0,035	-0,165
-77,811	-42,296	-0,142	-0,051
-76,797	800,000	0,010	-0,032
-75,782	-60,647	-0,113	-0,034
-74,767	-200,000	0,026	0,099
-73,753	-200,000	0,012	0,071
-72,738	-16,874	-0,133	0,059
-71,724	679,747	0,034	-0,062
-70,709	800,000	-0,049	0,143
-69,694	-200,000	-0,056	0,194
-68,680	247,822	-0,069	-0,083
-67,665	308,966	0,041	0,054
-66,651	-40,356	-0,095	0,035
-65,636	-68,031	-0,050	0,014
-64,622	237,771	0,059	0,069
-63,607	574,559	0,064	-0,110
-62,592	483,042	-0,041	-0,065
-61,578	-200,000	-0,026	0,170
-60,563	800,000	-0,026	0,065
-59,549	-200,000	-0,012	0,104
-58,534	29,041	-1,994	-1,191
-57,519	687,273	-1,096	-2,032
-56,505	-200,000	-0,276	-4,297
-55,490	408,672	1,120	1,678
-54,476	800,000	5,072	11,267
-53,461	-200,000	21,853	337,740
-52,446	800,000	760,209	2305,042
-51,432	536,285	1654,581	2781,756
-50,417	69,712	1651,626	1199,632
-49,403	16,797	1526,345	849,915
-48,388	10,956	1450,751	779,699
-47,373	19,050	1442,466	813,879
-46,359	14,273	1431,604	785,105
-45,344	9,235	1427,582	758,982
-44,330	9,155	1425,612	757,525
-43,315	9,146	1423,760	756,470
-42,300	9,202	1421,984	755,762
-41,286	9,206	1420,715	755,077
-40,271	9,209	1419,518	754,425
-39,257	9,178	1418,475	753,695
-38,242	9,226	1417,271	753,250
-37,227	9,154	1416,316	752,372
-36,213	9,226	1414,666	751,805
-35,198	9,217	1413,522	751,124
-34,184	9,206	1412,910	750,718
-33,169	9,121	1411,312	749,441
-32,154	9,196	1410,415	749,289
-31,140	9,210	1409,145	748,650
-30,125	9,203	1408,092	748,028
-29,111	9,194	1406,815	747,277
-28,096	9,228	1405,693	746,811
-27,082	9,137	1404,460	745,699
-26,067	9,136	1403,506	745,156
-25,052	9,142	1402,212	744,471
-24,038	9,182	1401,424	744,208
-23,023	9,147	1400,516	743,532
-22,009	9,134	1399,387	742,846
-20,994	9,103	1398,461	742,180
-19,979	9,144	1397,376	741,763
-18,965	9,171	1396,501	741,397
-17,950	9,087	1395,699	740,551
-16,936	9,060	1394,912	739,977
-15,921	9,037	1393,915	739,314
-14,906	9,042	1393,000	738,821
-13,892	9,075	1391,826	738,322
-12,877	9,091	1391,060	737,964
-11,863	9,087	1390,162	737,438
-10,848	9,035	1389,129	736,619
-9,833	8,982	1388,615	736,073
-8,819	8,969	1387,796	735,552
-7,804	8,976	1386,593	734,915
-6,790	8,924	1385,641	734,142
-5,775	8,950	1384,643	733,704
-4,760	8,978	1383,527	733,213
-3,746	8,966	1382,755	732,720
-2,731	8,974	1381,709	732,172
-1,717	8,950	1380,996	731,656
-0,702	8,997	1379,209	730,893
0,313	12,923	1291,167	702,117
1,327	28,756	682,796	406,840
2,342	44,655	117,649	76,139
3,356	-0,922	16,571	8,243
4,371	13,169	3,506	1,909
5,386	16,955	1,188	0,662
6,400	636,145	0,301	0,542
7,415	-69,612	-0,174	0,046
8,429	-34,643	-0,264	-0,101
9,444	30,807	-0,430	-0,259
10,459	9,348	-0,250	-0,133
11,473	278,248	-0,243	-0,306
12,488	-4,281	-0,397	-0,193
13,502	-4,856	-0,255	-0,123
14,517	-0,344	-0,339	-0,169
15,531	24,575	-0,369	-0,215
16,546	82,502	-0,309	-0,236
17,561	143,985	-0,361	-0,339
18,575	-104,761	-0,279	-0,045
19,590	66,897	-0,215	-0,154
20,604	-66,609	-0,201	-0,056
21,619	31,452	-0,460	-0,278
22,634	182,422	-0,372	-0,387
23,648	31,434	-0,392	-0,236
24,663	-77,623	-0,331	-0,080
25,677	225,115	-0,240	-0,273
26,692	2,826	-0,326	-0,166
27,707	-101,189	-0,353	-0,060
28,721	55,531	-0,389	-0,265
29,736	113,485	-0,394	-0,336
30,750	13,785	-0,480	-0,262
31,765	269,536	-0,354	-0,438
32,780	101,518	-0,279	-0,229
33,794	35,607	-0,305	-0,188
34,809	42,023	-0,417	-0,266
35,823	128,418	-0,277	-0,248
36,838	31,756	-0,453	-0,274
37,853	8,648	-0,492	-0,260
38,867	118,153	-0,336	-0,291
39,882	-26,552	-0,456	-0,187
40,896	45,565	-0,322	-0,208
41,911	152,732	-0,305	-0,293
42,926	353,955	-0,292	-0,408
43,940	-75,592	-0,464	-0,115
44,955	48,334	-0,333	-0,219
45,969	55,431	-0,402	-0,273
46,984	205,947	-0,265	-0,290
47,999	182,007	-0,214	-0,221
49,013	190,430	-0,334	-0,352
50,028	82,545	-0,262	-0,200
51,042	46,211	-0,449	-0,291
52,057	18,379	-0,421	-0,235
53,071	146,080	-0,330	-0,311
54,086	75,807	-0,411	-0,304
55,101	35,431	-0,331	-0,204
56,115	26,698	-0,481	-0,282
57,130	80,613	-0,315	-0,238
58,144	91,559	-0,347	-0,273
59,159	43,412	-0,254	-0,163
60,174	38,534	-0,365	-0,228
61,188	1,061	-0,395	-0,198
62,203	21,179	-0,222	-0,126
63,217	10,842	-0,300	-0,160
64,232	79,191	-0,251	-0,188
65,247	27,204	-0,389	-0,228
66,261	295,587	-0,317	-0,408
67,276	316,483	-0,247	-0,328
68,290	76,627	-0,230	-0,171
69,305	105,151	-0,253	-0,209
70,320	24,618	-0,280	-0,162
71,334	192,216	-0,220	-0,233
72,349	122,173	-0,251	-0,220
73,363	377,693	-0,199	-0,285
74,378	70,842	-0,403	-0,292
75,393	-40,197	-0,336	-0,122
76,407	127,491	-0,194	-0,173
77,422	800,000	-0,096	-0,230
78,436	57,486	-0,158	-0,108
79,451	-31,793	-0,358	-0,140
80,466	-87,171	-0,239	-0,050
81,480	-1,342	-0,344	-0,170
82,495	159,484	-0,345	-0,337
83,509	-98,558	-0,328	-0,058
84,524	145,601	-0,265	-0,249
85,539	257,611	-0,227	-0,274
86,553	7,227	-0,251	-0,131
87,568	146,531	-0,232	-0,218
88,582	140,381	-0,248	-0,229
89,597	-88,972	-0,311	-0,064
90,611	78,806	-0,318	-0,238
91,626	52,095	-0,327	-0,217
92,641	-104,229	-0,134	-0,022
93,655	51,260	-0,252	-0,167
94,670	36,968	-0,355	-0,219
95,684	86,616	-0,329	-0,254
96,699	41,981	-0,265	-0,168
97,714	-7,968	-0,341	-0,160
98,728	117,657	-0,277	-0,238
99,743	38,933	-0,252	-0,157
100,757	31,511	-0,250	-0,150
101,772	131,749	-0,264	-0,237
102,787	8,603	-0,317	-0,166
103,801	3,936	-0,319	-0,162
104,816	50,153	-0,150	-0,099
105,830	-43,576	-0,363	-0,127
106,845	-34,833	-0,196	-0,074
107,860	79,095	-0,247	-0,185
108,874	68,533	-0,201	-0,144
109,889	28,724	-0,455	-0,268
110,903	257,192	-0,324	-0,390
111,918	383,325	-0,217	-0,312
112,933	4,506	-0,247	-0,126
113,947	-50,304	-0,260	-0,085
114,962	-20,289	-0,279	-0,119
115,976	-6,735	-0,307	-0,145
116,991	168,208	-0,307	-0,305
118,006	88,507	-0,192	-0,149
119,020	5,400	-0,377	-0,194
120,035	112,671	-0,225	-0,190
121,049	-47,496	-0,223	-0,075
122,064	-38,812	-0,250	0,092
123,079	62,013	-0,266	-0,185
124,093	-37,056	-0,339	-0,126
125,108	167,229	-0,204	-0,202
126,122	41,526	-0,259	-0,163
127,137	129,694	-0,282	-0,252
128,151	32,589	-0,271	-0,163
129,166	-123,213	-0,235	-0,026
130,181	407,430	-0,139	-0,206
131,195	162,342	-0,241	-0,236
132,210	17,695	-0,341	-0,189
133,224	337,302	-0,142	-0,193
134,239	-110,951	-0,238	-0,034
135,254	-154,810	-0,373	0,017
136,268	296,767	-0,100	-0,128
137,283	231,921	-0,132	-0,152
138,297	234,353	-0,218	-0,251
139,312	295,899	-0,162	-0,208
140,327	286,783	-0,196	-0,247
141,341	15,414	-0,331	-0,181
142,356	130,178	-0,168	-0,150
143,370	-56,330	-0,319	-0,098
144,385	239,033	-0,178	-0,206
145,400	28,562	-0,371	-0,218
146,414	223,430	-0,310	-0,349
147,429	99,664	-0,246	-0,198
148,443	231,107	-0,226	-0,259
149,458	-46,385	-0,236	-0,080
150,473	-77,604	-0,234	-0,056
151,487	140,082	-0,217	-0,199
152,502	-27,022	-0,266	-0,108
153,516	306,268	-0,262	-0,340
154,531	152,351	-0,303	-0,288
155,546	-165,711	-0,207	-0,006
156,560	546,032	-0,154	-0,257
157,575	-57,445	-0,228	-0,069
158,589	65,247	-0,304	-0,214
159,604	248,234	-0,217	-0,255
160,619	-6,391	-0,342	-0,162
161,633	291,159	-0,159	-0,202
162,648	-11,248	-0,288	-0,132
163,662	120,186	-0,176	-0,152
164,677	42,518	-0,237	-0,149
165,692	29,310	-0,207	-0,122
166,706	-46,370	-0,222	-0,075
167,721	800,000	-0,075	-0,196
168,735	81,657	-0,337	-0,253
169,750	-6,769	-0,308	-0,145
170,764	-151,983	-0,216	0,011
171,779	800,000	-0,093	-0,189
172,794	57,456	-0,127	-0,086
173,808	-9,081	-0,210	-0,097
174,823	250,772	-0,272	-0,322
175,837	511,690	-0,177	-0,288
176,852	313,163	-0,161	-0,210
177,867	11,321	-0,107	-0,057
178,881	237,979	-0,057	-0,065
179,896	48,001	-0,189	-0,122
180,910	213,476	-0,146	-0,161
181,925	224,143	-0,242	-0,272
182,940	323,077	-0,213	-0,283
183,954	-38,938	-0,240	-0,087
184,969	-200,000	-0,025	-0,190
185,983	-0,130	-0,178	-0,088
186,998	186,979	-0,173	-0,179
188,013	-50,479	-0,212	-0,069
189,027	274,431	-0,213	-0,263
190,042	-87,349	-0,241	-0,050
191,056	-1,120	-0,292	-0,143
192,071	134,615	-0,212	-0,191
193,086	-15,193	-0,227	-0,100
194,100	-9,280	-0,106	0,049
195,115	209,941	-0,110	-0,120
196,129	214,210	-0,167	-0,184
197,144	104,069	-0,138	-0,113
198,159	56,242	-0,235	-0,158
199,173	411,928	-0,129	-0,191
200,188	282,095	-0,106	-0,132
201,202	46,901	-0,255	-0,164
202,217	30,603	-0,264	-0,156
203,232	57,207	-0,257	-0,173
204,246	61,778	-0,291	-0,200
205,261	44,482	-0,194	-0,123
206,275	-44,509	-0,156	-0,054
207,290	68,184	-0,207	-0,146
208,304	-20,007	-0,241	-0,102
209,319	-67,276	-0,087	0,024
210,334	-1,936	-0,311	-0,151
211,348	-41,493	-0,387	-0,137
212,363	-88,752	-0,200	-0,041
213,377	-44,330	-0,151	-0,052
214,392	127,285	-0,025	0,022
215,407	-42,998	-0,174	-0,061
216,421	-34,509	-0,194	-0,073
217,436	-58,779	-0,145	-0,043
218,450	442,331	-0,181	-0,276
219,465	-10,965	-0,077	0,035
220,480	57,239	-0,280	-0,189
221,494	-72,182	-0,246	-0,063
222,509	253,245	-0,186	-0,220
223,523	-18,466	-0,233	-0,100
224,538	328,305	-0,069	-0,092
225,553	800,000	-0,141	-0,307
226,567	800,000	-0,117	-0,260
227,582	55,088	-0,136	-0,090
228,596	252,283	-0,143	-0,169
229,611	34,928	-0,094	-0,057
230,626	163,106	-0,189	-0,184
231,640	153,006	-0,183	-0,173
232,655	289,915	-0,234	-0,294
233,669	126,455	-0,204	-0,178
234,684	-55,448	-0,214	-0,066
235,699	-117,832	-0,296	-0,036
236,713	648,690	-0,105	-0,186
237,728	-200,000	-0,014	-0,172
238,742	93,984	-0,196	-0,153
239,757	-53,598	-0,167	-0,052
240,772	116,226	-0,369	-0,312
241,786	40,067	-0,165	-0,102
242,801	339,118	-0,132	-0,178
243,815	141,260	-0,195	-0,179
244,830	-117,732	-0,203	0,025
245,844	-0,479	-0,174	-0,085
246,859	-67,099	-0,270	-0,073
247,874	138,855	-0,217	-0,197
248,888	185,963	-0,160	-0,164
249,903	-57,120	-0,259	-0,078
250,917	800,000	-0,072	-0,175
251,932	239,423	-0,085	-0,098
252,947	-151,555	-0,201	0,010
253,961	217,732	-0,188	-0,207
254,976	-41,752	-0,159	-0,056
255,990	-41,877	-0,221	-0,078
257,005	-91,112	-0,089	-0,017
258,020	-181,213	-0,177	0,002
259,034	27,188	-0,070	-0,041
260,049	22,617	-0,129	-0,072
261,063	147,196	-0,283	-0,262
262,078	277,279	-0,158	-0,195
263,093	373,034	-0,123	-0,173
264,107	78,793	-0,171	-0,126
265,122	75,582	-0,115	-0,084
266,136	800,000	-0,059	-0,177
267,151	248,783	-0,084	-0,098
268,166	66,411	-0,178	-0,124
269,180	141,958	-0,178	-0,163
270,195	-62,767	-0,209	0,059
271,209	154,304	-0,133	-0,125
272,224	10,157	-0,151	-0,079
273,239	-120,332	-0,090	0,010
274,253	-52,722	-0,265	-0,084
275,268	65,859	-0,230	-0,160
276,282	-54,500	-0,183	-0,057
277,297	-156,988	-0,135	-0,006
278,312	639,656	-0,098	-0,172
279,326	218,397	-0,109	-0,120
280,341	7,327	-0,052	0,027
281,355	-133,383	-0,136	-0,012
282,370	94,098	-0,192	-0,149
283,384	63,438	-0,232	-0,160
284,399	-28,469	-0,120	-0,048
285,414	-200,000	-0,089	-0,303
286,428	115,457	-0,181	-0,152
287,443	64,175	-0,160	-0,111
288,457	512,904	-0,126	-0,203
289,472	151,265	-0,090	-0,084
290,487	575,206	-0,128	-0,216
291,501	30,641	-0,125	-0,073
292,516	10,779	-0,158	-0,083
293,530	19,723	-0,145	-0,080
294,545	270,681	-0,094	-0,114
295,560	-93,349	-0,237	-0,045
296,574	-74,480	-0,226	0,055
297,589	-94,341	-0,123	-0,023
298,603	33,908	-0,172	-0,103
299,618	173,081	-0,207	-0,206
300,633	259,541	-0,138	-0,164
301,647	115,810	-0,097	-0,081
302,662	173,171	-0,187	-0,185
303,676	-25,613	-0,060	-0,024
304,691	116,629	-0,141	-0,119
305,706	667,171	-0,178	-0,318
306,720	-15,193	-0,251	-0,110
307,735	116,903	-0,144	-0,122
308,749	-67,674	-0,185	-0,049
309,764	-120,642	-0,228	0,026
310,779	205,483	-0,191	-0,204
311,793	12,543	-0,182	-0,096
312,808	74,336	-0,127	-0,092
313,822	297,346	-0,098	-0,124
314,837	-16,064	-0,171	-0,074
315,852	31,416	-0,095	-0,056
316,866	-13,910	-0,149	-0,066
317,881	227,210	-0,181	-0,202
318,895	129,293	-0,106	-0,093
319,910	-88,976	-0,213	-0,043
320,925	800,000	-0,083	-0,170
321,939	242,593	-0,164	-0,189
322,954	-123,619	-0,202	-0,022
323,968	7,774	-0,177	-0,091
324,983	-200,000	-0,029	-0,258
325,997	23,006	-0,015	0,008
327,012	9,669	-0,104	-0,054
328,027	30,389	-0,107	-0,063
329,041	38,097	-0,150	-0,091
330,056	191,320	-0,081	-0,084
331,070	154,215	-0,097	-0,091
332,085	800,000	-0,034	-0,066
333,100	14,757	-0,173	-0,092
334,114	-37,654	-0,149	-0,054
335,129	800,000	-0,121	-0,242
336,143	322,692	-0,160	-0,209
337,158	573,260	0,056	-0,095
338,173	89,103	-0,045	-0,034
339,187	14,690	-0,190	-0,102
340,202	-108,090	-0,110	-0,016
341,216	-85,498	-0,107	-0,023
342,231	-74,491	-0,175	0,043
343,246	216,578	-0,129	-0,140
344,260	341,497	-0,052	-0,070
345,275	-200,000	-0,026	-0,087
346,289	-139,488	-0,193	-0,014
347,304	53,715	-0,135	-0,088
348,319	665,589	-0,078	-0,138
349,333	-50,897	-0,158	-0,050
350,348	249,804	-0,114	-0,132
351,362	87,287	-0,134	-0,101
352,377	800,000	-0,084	-0,239
353,392	-200,000	0,005	-0,039
354,406	232,799	-0,118	-0,132
355,421	208,600	1307,662	1400,147
356,435	160,518	1467,487	1400,616
