DTS Sentinel unit serial number:	SN410029Multiplexer serial number:	ORYXHardware model number:	OX2-SRSoftware version number:	ORYX F/W v4,00 Oryx Data Collector v3.7.2.0data status	okinstallation	B3 Nyhavnadifferential loss correction	single-endedforward channel	channel 1reverse channel	N/Adate	2023/11/29time	06:32:30forward acquisition time	300,00reverse acquisition time	0,00gamma	499,1914k internal	0,3211k external	0,3211temperature offset calibration	1,0000default loss term (dB/km)	0,3820temperature slope calibration	1,0000multiplexer offset coefficient	1,0000multiplexer slope coefficient	1,0000fibre end	0,00T internal ref (°C)	8,93T ext. ref 1 (°C)	-6,41T ext. ref 2 (°C)	-6,52length (m)	temperature (°C)	Stokes	anti-Stokes-744,400	19,465	-0,330	-0,192
-743,385	-200,000	0,005	0,223
-742,371	115,420	-0,247	-0,219
-741,356	-200,000	-0,053	0,195
-740,342	-200,000	-0,101	-0,377
-739,327	-200,000	0,089	0,306
-738,312	368,495	-0,156	-0,229
-737,298	157,486	-0,203	0,204
-736,283	525,964	-0,143	-0,246
-735,269	-200,000	-0,027	0,212
-734,254	-64,203	-0,114	-0,033
-733,239	28,632	-0,172	0,105
-732,225	-200,000	0,031	-0,238
-731,210	258,221	0,149	0,186
-730,196	203,932	0,053	0,060
-729,181	-200,000	0,006	0,077
-728,167	-13,618	-0,123	0,058
-727,152	-200,000	-0,024	-0,135
-726,137	800,000	-0,021	0,045
-725,123	-200,000	-0,004	-0,117
-724,108	-200,000	0,021	-0,142
-723,094	332,494	-0,090	-0,126
-722,079	-200,000	-0,011	-0,150
-721,064	-46,304	0,079	-0,028
-720,050	800,000	0,022	-0,067
-719,035	-200,000	-0,029	-0,116
-718,021	78,867	0,074	-0,057
-717,006	-200,000	0,001	0,004
-715,991	-200,000	-0,015	-0,113
-714,977	-23,342	-0,102	-0,044
-713,962	351,371	0,110	-0,158
-712,948	-166,492	0,012	0,000
-711,933	-200,000	-0,053	0,183
-710,918	366,194	-0,067	0,098
-709,904	191,066	-0,016	0,017
-708,889	-108,871	-0,210	-0,032
-707,875	362,053	-0,045	0,066
-706,860	582,465	0,028	0,050
-705,845	84,851	0,080	-0,064
-704,831	638,893	-0,038	0,070
-703,816	-110,006	-0,162	-0,024
-702,802	272,916	-0,084	-0,108
-701,787	-44,181	-0,139	0,050
-700,772	-200,000	-0,014	-0,152
-699,758	800,000	-0,066	0,167
-698,743	-200,000	0,003	-0,033
-697,729	14,644	-0,065	0,037
-696,714	632,024	-0,034	0,062
-695,699	201,790	0,045	0,050
-694,685	72,324	-0,094	-0,070
-693,670	-40,884	-0,093	-0,035
-692,656	180,528	0,068	0,072
-691,641	54,522	0,124	0,087
-690,627	-106,071	-0,140	-0,023
-689,612	-58,337	0,028	0,009
-688,597	263,569	-0,096	-0,120
-687,583	185,644	-0,068	-0,073
-686,568	131,229	-0,043	0,040
-685,554	115,005	0,112	-0,098
-684,539	-53,000	0,066	0,022
-683,524	117,327	0,025	-0,022
-682,510	-101,862	0,055	-0,010
-681,495	640,653	0,039	-0,073
-680,481	-200,000	0,003	-0,069
-679,466	-3,361	-0,155	-0,078
-678,451	-200,000	-0,038	-0,185
-677,437	-139,128	0,097	-0,007
-676,422	256,944	0,098	-0,122
-675,408	-56,576	-0,118	0,038
-674,393	-200,000	0,031	-0,138
-673,378	23,045	-0,064	0,038
-672,364	-5,022	-0,043	0,021
-671,349	800,000	0,047	-0,094
-670,335	342,904	-0,072	0,102
-669,320	800,000	0,054	-0,114
-668,305	64,021	-0,027	0,020
-667,291	185,730	0,034	0,037
-666,276	79,827	-0,075	0,058
-665,262	535,172	0,052	0,090
-664,247	-115,814	0,118	-0,016
-663,232	42,060	-0,126	-0,083
-662,218	42,146	0,061	-0,040
-661,203	476,044	-0,066	0,108
-660,189	313,521	0,093	0,126
-659,174	651,016	-0,035	-0,065
-658,159	-154,850	-0,128	-0,006
-657,145	-200,000	-0,011	-0,068
-656,130	249,328	-0,062	-0,077
-655,116	388,409	0,023	-0,035
-654,101	-84,772	-0,245	-0,055
-653,086	-16,776	0,102	0,046
-652,072	-1,437	-0,141	-0,072
-651,057	61,386	0,030	0,022
-650,043	-200,000	-0,012	0,097
-649,028	-63,834	0,111	-0,033
-648,014	800,000	0,019	0,044
-646,999	-200,000	-0,003	0,058
-645,984	-11,111	-0,028	0,013
-644,970	-200,000	0,000	0,010
-643,955	307,839	-0,101	-0,137
-642,941	17,088	-0,086	-0,049
-641,926	19,069	-0,072	-0,041
-640,911	800,000	0,029	0,082
-639,897	-73,863	0,061	0,016
-638,882	24,081	0,047	0,028
-637,868	-200,000	-0,024	0,096
-636,853	-17,201	-0,068	-0,031
-635,838	171,681	-0,086	-0,089
-634,824	183,498	-0,090	-0,096
-633,809	-122,094	-0,060	0,007
-632,795	-200,000	-0,005	-0,090
-631,780	415,638	-0,025	-0,039
-630,765	800,000	0,017	-0,046
-629,751	-200,000	-0,005	0,038
-628,736	20,833	-0,184	-0,107
-627,722	48,390	-0,095	-0,064
-626,707	-200,000	-0,001	-0,194
-625,692	800,000	0,011	-0,031
-624,678	-49,665	0,041	0,014
-623,663	167,582	0,036	0,037
-622,649	86,866	0,019	-0,015
-621,634	800,000	-0,044	-0,106
-620,619	86,386	-0,092	-0,073
-619,605	28,290	-0,130	-0,079
-618,590	16,236	-0,098	0,056
-617,576	557,207	-0,035	-0,062
-616,561	800,000	0,043	-0,095
-615,546	-142,128	-0,080	0,006
-614,532	-10,638	-0,094	-0,045
-613,517	-200,000	0,009	0,134
-612,503	800,000	-0,014	-0,042
-611,488	-200,000	0,021	0,072
-610,474	-66,476	-0,059	-0,017
-609,459	-200,000	0,005	0,126
-608,444	210,940	0,079	-0,089
-607,430	800,000	-0,027	-0,058
-606,415	-200,000	-0,019	-0,193
-605,401	-200,000	0,007	-0,148
-604,386	42,365	0,047	-0,030
-603,371	-77,929	0,097	-0,024
-602,357	369,926	0,120	-0,175
-601,342	-154,771	-0,162	0,008
-600,328	295,278	-0,126	-0,167
-599,313	-122,148	-0,130	0,015
-598,298	589,998	-0,065	-0,117
-597,284	-124,763	0,150	-0,016
-596,269	800,000	0,075	0,166
-595,255	800,000	-0,051	0,140
-594,240	206,658	-0,020	-0,023
-593,225	152,910	-0,084	-0,083
-592,211	-27,804	-0,082	0,034
-591,196	198,510	-0,071	0,079
-590,182	-200,000	-0,006	-0,044
-589,167	-200,000	0,014	-0,250
-588,152	223,521	-0,017	-0,020
-587,138	150,829	-0,059	-0,058
-586,123	800,000	0,048	-0,128
-585,109	800,000	0,046	-0,133
-584,094	-200,000	-0,002	0,071
-583,079	-200,000	-0,027	-0,099
-582,065	-200,000	-0,010	0,102
-581,050	-200,000	-0,031	0,103
-580,036	-16,450	-0,070	-0,032
-579,021	-6,293	-0,139	-0,068
-578,006	165,136	-0,060	-0,061
-576,992	-102,563	-0,057	-0,010
-575,977	-200,000	0,006	-0,033
-574,963	-61,859	0,163	0,049
-573,948	-119,962	-0,019	-0,002
-572,934	-11,010	0,061	-0,029
-571,919	-200,000	-0,020	-0,130
-570,904	87,579	-0,086	-0,069
-569,890	164,747	0,056	-0,057
-568,875	291,071	-0,081	-0,107
-567,861	422,088	-0,036	0,056
-566,846	-200,000	0,008	-0,039
-565,831	-200,000	-0,030	-0,105
-564,817	332,832	-0,035	-0,048
-563,802	99,869	0,101	-0,084
-562,788	64,989	0,085	-0,062
-561,773	-200,000	-0,025	0,130
-560,758	-200,000	-0,004	0,064
-559,744	249,672	0,026	0,032
-558,729	398,821	-0,026	0,039
-557,715	-200,000	0,016	-0,065
-556,700	465,913	0,041	-0,066
-555,685	800,000	0,024	0,075
-554,671	-200,000	0,015	-0,053
-553,656	-200,000	0,018	-0,073
-552,642	-101,832	-0,072	0,012
-551,627	223,724	0,022	0,025
-550,612	800,000	0,052	-0,113
-549,598	22,753	-0,049	0,029
-548,583	-62,987	-0,104	0,031
-547,569	-200,000	0,002	-0,129
-546,554	-200,000	-0,016	-0,052
-545,539	49,014	0,115	-0,077
-544,525	-130,834	-0,104	0,010
-543,510	-19,112	-0,007	-0,003
-542,496	66,792	0,158	-0,116
-541,481	800,000	0,016	-0,032
-540,466	-63,663	-0,097	-0,028
-539,452	-200,000	0,003	0,049
-538,437	38,891	0,148	0,095
-537,423	800,000	0,044	0,106
-536,408	33,664	-0,039	-0,024
-535,393	-38,710	-0,091	0,034
-534,379	-200,000	-0,005	-0,181
-533,364	22,848	0,125	0,073
-532,350	-38,515	0,066	-0,025
-531,335	302,598	0,046	-0,062
-530,321	-137,023	0,083	0,007
-529,306	639,395	0,044	-0,081
-528,291	257,117	-0,032	0,040
-527,277	-97,607	-0,153	-0,028
-526,262	765,528	0,060	0,117
-525,248	800,000	-0,032	-0,076
-524,233	-74,796	0,076	0,020
-523,218	-200,000	0,007	0,043
-522,204	-40,982	-0,060	0,022
-521,189	112,934	-0,117	-0,102
-520,175	-82,537	0,058	-0,013
-519,160	800,000	0,010	-0,026
-518,145	800,000	0,022	0,066
-517,131	-200,000	-0,001	0,037
-516,116	-35,291	0,073	-0,028
-515,102	639,734	-0,032	0,060
-514,087	-81,076	0,133	-0,031
-513,072	282,845	0,055	-0,071
-512,058	42,471	0,062	-0,040
-511,043	66,229	0,070	0,051
-510,029	54,136	0,094	-0,065
-509,014	-200,000	-0,043	0,141
-507,999	-200,000	-0,012	0,090
-506,985	-42,890	-0,099	-0,036
-505,970	-161,909	-0,073	0,003
-504,956	-200,000	-0,004	-0,059
-503,941	-81,087	0,105	0,025
-502,926	-136,824	0,162	0,013
-501,912	-86,499	-0,033	0,007
-500,897	403,602	0,013	-0,020
-499,883	-123,475	-0,064	0,007
-498,868	-200,000	0,019	-0,088
-497,853	485,542	-0,027	-0,045
-496,839	324,304	0,025	-0,034
-495,824	554,566	0,076	0,132
-494,810	-200,000	0,006	0,031
-493,795	-200,000	-0,013	0,076
-492,781	-154,139	0,035	0,002
-491,766	-1,481	0,094	0,047
-490,751	-47,302	0,063	0,022
-489,737	-200,000	-0,035	0,129
-488,722	152,694	0,047	0,046
-487,708	800,000	-0,037	0,088
-486,693	-78,195	0,138	0,034
-485,678	-145,907	0,025	-0,002
-484,664	80,436	-0,123	-0,095
-483,649	-200,000	-0,012	-0,187
-482,635	-146,654	0,094	-0,006
-481,620	-75,016	0,104	-0,027
-480,605	-200,000	-0,001	0,103
-479,591	-133,646	-0,036	0,003
-478,576	-200,000	0,015	0,069
-477,562	-200,000	-0,029	-0,162
-476,547	728,102	-0,073	-0,141
-475,532	65,480	0,080	-0,058
-474,518	-14,531	0,107	-0,049
-473,503	85,497	0,150	0,118
-472,489	630,482	0,021	-0,039
-471,474	610,828	-0,066	0,118
-470,459	95,776	-0,171	-0,140
-469,445	47,398	0,143	-0,096
-468,430	800,000	0,015	0,034
-467,416	-55,648	0,123	0,039
-466,401	-200,000	0,023	0,075
-465,386	-200,000	-0,008	-0,035
-464,372	-200,000	-0,017	-0,054
-463,357	147,122	0,036	-0,035
-462,343	-200,000	-0,008	-0,167
-461,328	-37,653	0,068	0,026
-460,313	-200,000	-0,007	-0,112
-459,299	800,000	-0,045	0,095
-458,284	-160,090	0,066	0,003
-457,270	-200,000	0,008	-0,069
-456,255	22,258	-0,111	0,065
-455,241	54,188	0,225	-0,155
-454,226	346,282	-0,092	-0,130
-453,211	273,741	-0,062	0,079
-452,197	800,000	-0,034	0,070
-451,182	-200,000	-0,015	0,062
-450,168	162,309	-0,077	-0,078
-449,153	24,766	-0,067	0,039
-448,138	-30,391	-0,131	0,053
-447,124	82,092	-0,080	-0,062
-446,109	601,823	0,035	0,063
-445,095	-35,893	-0,025	-0,010
-444,080	800,000	-0,050	0,125
-443,065	-117,068	0,092	0,012
-442,051	-137,077	-0,134	-0,011
-441,036	13,319	-0,088	0,049
-440,022	-158,058	0,059	-0,002
-439,007	335,545	-0,097	-0,135
-437,992	-143,705	-0,070	0,005
-436,978	161,773	0,082	0,082
-435,963	-72,867	-0,064	-0,017
-434,949	162,018	0,147	0,147
-433,934	245,091	-0,096	-0,115
-432,919	-200,000	-0,002	-0,055
-431,905	404,137	-0,093	-0,140
-430,890	301,003	0,043	-0,057
-429,876	-94,722	0,115	0,022
-428,861	129,027	-0,066	-0,061
-427,846	800,000	0,038	-0,093
-426,832	129,517	-0,046	-0,042
-425,817	528,035	-0,022	-0,037
-424,803	-200,000	0,030	-0,121
-423,788	-200,000	-0,007	0,072
-422,773	46,742	0,120	0,080
-421,759	-12,776	0,129	0,060
-420,744	-200,000	-0,017	-0,068
-419,730	-121,165	-0,014	-0,002
-418,715	238,339	0,052	-0,062
-417,701	-200,000	-0,013	-0,068
-416,686	-174,226	0,100	-0,002
-415,671	800,000	0,029	0,078
-414,657	-66,439	0,109	0,031
-413,642	250,009	0,128	0,156
-412,628	-39,106	-0,112	-0,042
-411,613	-40,149	0,004	-0,002
-410,598	15,873	-0,066	0,037
-409,584	96,346	-0,059	-0,048
-408,569	85,039	0,024	0,018
-407,555	216,916	0,044	-0,051
-406,540	214,012	-0,051	0,058
-405,525	-200,000	0,007	0,066
-404,511	-200,000	-0,062	0,000
-403,496	-200,000	0,008	-0,088
-402,482	608,646	0,021	0,037
-401,467	800,000	-0,055	0,153
-400,452	174,337	0,046	0,047
-399,438	293,666	-0,014	-0,018
-398,423	218,312	0,075	-0,085
-397,409	-180,863	-0,142	0,002
-396,394	-200,000	-0,011	-0,084
-395,379	800,000	-0,037	-0,085
-394,365	502,498	0,063	0,104
-393,350	158,141	-0,054	0,054
-392,336	-96,260	0,083	-0,016
-391,321	-55,496	-0,081	-0,026
-390,306	-138,288	-0,051	-0,004
-389,292	82,025	-0,139	-0,107
-388,277	-200,000	-0,019	0,065
-387,263	62,688	-0,102	-0,073
-386,248	-151,144	0,056	0,003
-385,233	76,489	0,123	0,093
-384,219	800,000	0,049	-0,113
-383,204	237,128	-0,024	-0,029
-382,190	439,837	-0,079	-0,123
-381,175	350,278	-0,053	0,076
-380,160	-200,000	0,014	-0,073
-379,146	767,335	0,027	0,053
-378,131	-200,000	-0,008	0,146
-377,117	800,000	-0,015	-0,039
-376,102	-91,286	-0,080	-0,016
-375,088	162,531	0,059	-0,059
-374,073	-94,197	-0,091	-0,018
-373,058	202,838	0,051	0,057
-372,044	-200,000	0,034	0,114
-371,029	-200,000	-0,029	0,156
-370,015	328,011	-0,108	0,149
-369,000	-85,575	0,164	-0,036
-367,985	117,932	-0,081	0,071
-366,971	-40,152	0,116	0,043
-365,956	-200,000	0,002	0,048
-364,942	800,000	-0,079	0,212
-363,927	-200,000	0,047	0,166
-362,912	109,930	0,041	0,035
-361,898	152,659	-0,045	-0,044
-360,883	-200,000	-0,009	-0,170
-359,869	-200,000	0,005	-0,060
-358,854	156,789	0,121	0,119
-357,839	205,889	0,102	0,113
-356,825	-159,045	0,050	0,002
-355,810	302,091	-0,040	0,053
-354,796	559,866	-0,013	-0,023
-353,781	-200,000	0,010	0,063
-352,766	800,000	0,027	0,077
-351,752	-151,442	0,179	0,009
-350,737	421,001	0,012	0,019
-349,723	800,000	-0,033	0,069
-348,708	217,461	-0,100	0,114
-347,693	197,654	-0,047	0,051
-346,679	-148,279	-0,105	-0,006
-345,664	503,867	0,092	-0,153
-344,650	-200,000	-0,001	-0,061
-343,635	27,175	-0,047	0,028
-342,620	49,667	0,180	-0,121
-341,606	371,342	-0,049	0,071
-340,591	-95,435	0,087	0,017
-339,577	-200,000	0,004	0,237
-338,562	-75,425	0,054	0,014
-337,548	-26,288	-0,186	0,078
-336,533	-200,000	-0,018	-0,105
-335,518	346,507	-0,030	-0,042
-334,504	108,906	0,079	0,068
-333,489	-200,000	0,032	-0,172
-332,475	171,621	-0,060	-0,061
-331,460	-200,000	-0,010	-0,189
-330,445	-68,749	0,155	-0,042
-329,431	-200,000	-0,003	0,065
-328,416	-200,000	-0,034	0,111
-327,402	-124,125	0,074	-0,008
-326,387	174,348	0,117	0,121
-325,372	252,004	-0,051	0,062
-324,358	800,000	-0,025	-0,056
-323,343	231,387	-0,099	-0,116
-322,329	136,431	0,106	0,099
-321,314	-98,260	0,065	0,012
-320,299	365,377	0,033	-0,047
-319,285	22,327	0,086	0,050
-318,270	-200,000	0,026	-0,209
-317,256	99,323	0,042	-0,035
-316,241	397,168	0,103	0,154
-315,226	2,374	0,122	0,063
-314,212	22,343	0,108	0,063
-313,197	208,086	0,048	-0,054
-312,183	-200,000	0,013	0,050
-311,168	800,000	-0,038	-0,081
-310,153	-94,687	0,063	-0,012
-309,139	258,612	0,110	0,136
-308,124	-69,503	-0,058	0,016
-307,110	800,000	-0,022	0,057
-306,095	-76,036	0,079	-0,020
-305,080	58,242	-0,068	0,047
-304,066	676,130	0,018	-0,033
-303,051	238,407	-0,112	-0,133
-302,037	-156,839	-0,046	-0,002
-301,022	-57,057	-0,087	0,027
-300,008	800,000	-0,045	0,116
-298,993	25,515	0,183	0,108
-297,978	623,120	-0,026	-0,047
-296,964	152,287	0,081	0,079
-295,949	-200,000	-0,016	-0,083
-294,935	-200,000	0,028	0,092
-293,920	31,663	0,044	-0,027
-292,905	776,825	0,029	-0,057
-291,891	-200,000	0,004	0,122
-290,876	186,952	0,065	0,069
-289,862	-200,000	-0,005	0,064
-288,847	38,209	-0,102	-0,065
-287,832	268,246	-0,040	-0,050
-286,818	-93,295	-0,023	0,005
-285,803	-200,000	-0,021	0,067
-284,789	28,557	0,139	0,084
-283,774	90,490	-0,133	-0,106
-282,759	211,487	0,055	0,061
-281,745	800,000	0,011	-0,025
-280,730	434,551	0,040	0,062
-279,716	10,945	0,059	0,032
-278,701	-48,353	-0,003	-0,001
-277,686	-9,304	-0,071	-0,034
-276,672	-200,000	0,011	0,069
-275,657	263,903	-0,082	-0,101
-274,643	379,945	0,044	-0,064
-273,628	229,550	-0,032	0,037
-272,613	-200,000	-0,003	0,032
-271,599	-200,000	-0,004	0,106
-270,584	28,991	-0,024	0,015
-269,570	-200,000	-0,019	0,073
-268,555	800,000	-0,044	0,091
-267,540	333,926	0,080	0,110
-266,526	-134,598	-0,089	-0,008
-265,511	-200,000	-0,017	-0,085
-264,497	580,251	0,095	0,165
-263,482	298,641	0,100	0,131
-262,467	-200,000	0,027	0,099
-261,453	-200,000	-0,007	0,129
-260,438	-200,000	-0,003	-0,013
-259,424	11,489	0,114	0,062
-258,409	-175,848	-0,193	0,004
-257,395	229,131	-0,058	0,067
-256,380	205,362	-0,032	-0,035
-255,365	-62,651	-0,042	-0,012
-254,351	75,667	0,147	-0,110
-253,336	60,451	-0,063	-0,044
-252,322	-104,073	-0,113	0,019
-251,307	-200,000	-0,004	0,023
-250,292	-83,267	0,174	-0,039
-249,278	-200,000	-0,036	0,188
-248,263	314,313	-0,086	0,115
-247,249	800,000	0,043	0,094
-246,234	-95,361	-0,060	0,011
-245,219	19,644	0,155	0,088
-244,205	-200,000	0,023	-0,120
-243,190	-19,444	-0,084	-0,037
-242,176	-114,577	0,129	0,017
-241,161	-163,133	0,091	-0,003
-240,146	800,000	-0,034	0,080
-239,132	461,523	0,026	-0,041
-238,117	9,241	-0,069	-0,037
-237,103	-143,565	0,015	-0,001
-236,088	-200,000	0,036	0,144
-235,073	-200,000	0,016	0,118
-234,059	58,799	0,023	0,016
-233,044	32,549	-0,174	0,107
-232,030	536,519	0,028	-0,048
-231,015	622,814	0,038	0,069
-230,000	309,941	-0,074	-0,099
-228,986	-14,008	-0,135	0,062
-227,971	-127,676	0,038	0,004
-226,957	-200,000	0,035	0,177
-225,942	800,000	-0,021	0,058
-224,927	92,921	0,063	0,051
-223,913	-67,626	-0,083	-0,023
-222,898	290,734	-0,067	-0,087
-221,884	-124,301	-0,145	-0,016
-220,869	-160,328	0,001	0,000
-219,855	623,863	-0,079	-0,142
-218,840	-56,788	0,101	-0,031
-217,825	800,000	0,043	-0,087
-216,811	40,753	0,055	-0,035
-215,796	-200,000	-0,019	-0,137
-214,782	-68,825	0,106	-0,029
-213,767	-200,000	0,015	0,092
-212,752	-200,000	0,027	0,088
-211,738	800,000	0,038	0,099
-210,723	129,823	0,053	0,048
-209,709	-200,000	-0,029	0,140
-208,694	497,805	0,038	-0,063
-207,679	541,505	0,032	-0,054
-206,665	-200,000	0,025	0,120
-205,650	580,484	-0,033	0,057
-204,636	-84,889	0,012	0,003
-203,621	-200,000	-0,026	-0,166
-202,606	-200,000	-0,005	-0,096
-201,592	-141,401	0,140	-0,010
-200,577	-200,000	0,005	0,027
-199,563	-87,985	-0,124	0,026
-198,548	145,674	-0,073	0,069
-197,533	-43,020	-0,072	-0,026
-196,519	19,194	0,095	-0,054
-195,504	352,821	-0,124	-0,176
-194,490	153,703	0,028	0,027
-193,475	-0,824	0,164	-0,082
-192,460	0,082	-0,130	0,065
-191,446	-200,000	-0,013	0,050
-190,431	27,454	-0,142	0,085
-189,417	-200,000	0,013	0,164
-188,402	57,016	0,104	0,072
-187,387	197,322	-0,044	-0,048
-186,373	37,770	-0,058	0,037
-185,358	800,000	0,004	-0,009
-184,344	-200,000	0,011	0,048
-183,329	360,348	-0,025	0,036
-182,315	-200,000	-0,012	0,081
-181,300	-55,711	-0,189	0,060
-180,285	-200,000	0,017	-0,093
-179,271	-36,839	0,058	-0,022
-178,256	-200,000	0,015	0,153
-177,242	-200,000	-0,019	0,082
-176,227	223,677	-0,036	-0,042
-175,212	272,889	-0,045	-0,056
-174,198	-10,184	0,132	-0,062
-173,183	-200,000	-0,006	-0,030
-172,169	418,817	-0,073	0,111
-171,154	800,000	0,024	0,070
-170,139	-165,430	0,062	0,002
-169,125	87,202	-0,085	0,067
-168,110	298,291	-0,023	0,030
-167,096	-200,000	0,046	-0,146
-166,081	-140,321	-0,082	-0,006
-165,066	34,752	-0,065	0,040
-164,052	435,011	0,028	0,044
-163,037	307,867	-0,047	0,063
-162,023	54,134	-0,103	-0,070
-161,008	-200,000	0,015	-0,087
-159,993	-200,000	0,006	-0,025
-158,979	27,511	0,083	-0,050
-157,964	395,125	-0,043	-0,064
-156,950	-200,000	-0,021	-0,083
-155,935	800,000	-0,025	0,063
-154,920	-200,000	-0,016	0,143
-153,906	-17,947	0,015	-0,007
-152,891	-106,597	0,008	0,001
-151,877	21,117	0,026	0,015
-150,862	800,000	-0,058	-0,174
-149,847	72,028	0,113	0,083
-148,833	-200,000	0,000	0,004
-147,818	184,516	-0,034	0,036
-146,804	-85,445	0,161	-0,035
-145,789	31,425	-0,048	-0,029
-144,775	19,625	-0,039	0,022
-143,760	-68,849	-0,090	-0,025
-142,745	-150,654	-0,032	-0,002
-141,731	-200,000	-0,011	0,062
-140,716	162,947	0,037	-0,037
-139,702	-147,486	-0,173	-0,010
-138,687	-127,897	0,135	-0,014
-137,672	-200,000	-0,009	-0,060
-136,658	42,237	0,170	0,109
-135,643	638,435	0,017	0,031
-134,629	-200,000	0,030	-0,116
-133,614	462,533	-0,017	0,027
-132,599	-77,405	0,150	-0,037
-131,585	800,000	-0,020	-0,057
-130,570	336,990	-0,029	0,040
-129,556	108,079	-0,126	-0,107
-128,541	-16,386	-0,047	0,021
-127,526	-168,218	-0,143	-0,004
-126,512	-114,661	0,176	0,024
-125,497	100,161	-0,045	-0,037
-124,483	-200,000	0,014	0,050
-123,468	-200,000	0,010	0,042
-122,453	358,732	0,023	-0,032
-121,439	-132,484	-0,057	0,005
-120,424	-52,921	-0,058	-0,019
-119,410	-83,023	-0,205	-0,046
-118,395	-200,000	-0,004	0,068
-117,380	-59,643	-0,114	0,034
-116,366	-200,000	-0,013	0,054
-115,351	103,674	0,066	0,055
-114,337	-79,293	-0,041	-0,010
-113,322	-200,000	-0,123	0,000
-112,307	12,637	-0,089	0,048
-111,293	-29,221	-0,044	0,018
-110,278	-53,674	0,039	-0,013
-109,264	260,651	-0,051	-0,063
-108,249	-157,157	-0,093	0,004
-107,234	291,807	-0,012	0,015
-106,220	800,000	-0,043	-0,090
-105,205	108,699	-0,061	0,052
-104,191	118,494	0,071	0,062
-103,176	-183,534	0,132	0,002
-102,162	5,285	0,069	-0,036
-101,147	167,145	-0,072	-0,072
-100,132	43,783	-0,057	0,037
-99,118	-149,248	-0,089	0,005
-98,103	-123,248	-0,134	0,015
-97,089	10,807	0,076	-0,041
-96,074	131,168	0,052	-0,048
-95,059	70,435	0,092	0,067
-94,045	-32,896	0,034	0,013
-93,030	192,066	-0,023	-0,024
-92,016	82,239	0,035	0,027
-91,001	-200,000	0,020	-0,073
-89,986	284,265	0,042	-0,054
-88,972	-38,568	0,173	0,064
-87,957	-200,000	0,006	0,110
-86,943	-94,348	-0,082	-0,016
-85,928	-200,000	0,029	0,160
-84,913	-74,416	-0,025	0,006
-83,899	800,000	0,033	0,064
-82,884	567,932	0,060	0,104
-81,870	-7,616	0,049	0,023
-80,855	160,917	-0,033	0,033
-79,840	-200,000	0,025	-0,117
-78,826	51,050	0,001	-0,001
-77,811	31,370	-0,050	0,030
-76,797	-200,000	-0,003	-0,087
-75,782	101,398	0,036	-0,029
-74,767	13,939	-0,025	-0,014
-73,753	-186,609	-0,047	0,000
-72,738	800,000	-0,017	-0,045
-71,724	-52,826	-0,036	0,012
-70,709	-91,121	-0,113	0,023
-69,694	487,361	0,025	0,040
-68,680	228,808	-0,004	0,005
-67,665	-131,713	0,162	0,015
-66,651	800,000	-0,085	0,200
-65,636	168,662	-0,018	-0,018
-64,622	3,772	-0,076	-0,039
-63,607	164,863	-0,052	0,052
-62,592	-200,000	-0,000	0,078
-61,578	-179,568	-0,117	0,002
-60,563	-93,793	0,133	0,026
-59,549	-30,303	-0,104	0,042
-58,534	58,054	-2,049	-1,415
-57,519	448,827	-1,159	-1,809
-56,505	-200,000	-0,306	-4,388
-55,490	800,000	0,771	1,558
-54,476	800,000	5,206	11,376
-53,461	-200,000	22,001	337,113
-52,446	800,000	759,082	2295,628
-51,432	532,930	1652,736	2771,951
-50,417	69,151	1650,595	1196,207
-49,403	16,581	1525,246	848,344
-48,388	10,788	1449,694	778,437
-47,373	19,007	1441,837	813,445
-46,359	14,136	1430,396	783,915
-45,344	9,037	1426,670	757,674
-44,330	9,019	1424,684	756,502
-43,315	8,971	1423,040	755,372
-42,300	8,965	1421,132	754,303
-41,286	9,035	1419,820	753,906
-40,271	8,972	1418,741	753,004
-39,257	8,997	1417,424	752,396
-38,242	9,019	1416,519	751,987
-37,227	8,977	1415,438	751,189
-36,213	9,046	1413,862	750,644
-35,198	9,014	1412,565	749,779
-34,184	9,079	1411,737	749,615
-33,169	8,952	1410,550	748,355
-32,154	9,043	1409,342	748,113
-31,140	9,005	1408,289	747,347
-30,125	9,014	1407,194	746,776
-29,111	9,003	1405,829	745,972
-28,096	9,020	1404,705	745,426
-27,082	8,956	1403,526	744,474
-26,067	8,951	1402,417	743,830
-25,052	8,969	1401,397	743,343
-24,038	9,017	1400,314	742,965
-23,023	8,962	1399,606	742,302
-22,009	8,944	1398,510	741,606
-20,994	8,933	1397,530	741,009
-19,979	8,988	1396,454	740,661
-18,965	8,938	1395,543	739,918
-17,950	8,961	1394,600	739,495
-16,936	8,893	1393,838	738,749
-15,921	8,835	1392,859	737,932
-14,906	8,891	1391,842	737,623
-13,892	8,972	1390,799	737,413
-12,877	8,930	1390,318	736,937
-11,863	8,866	1389,459	736,156
-10,848	8,878	1388,363	735,601
-9,833	8,812	1387,638	734,882
-8,819	8,769	1386,777	734,200
-7,804	8,746	1385,803	733,549
-6,790	8,741	1384,803	732,968
-5,775	8,777	1383,774	732,561
-4,760	8,786	1382,756	732,035
-3,746	8,781	1381,953	731,556
-2,731	8,855	1380,749	731,227
-1,717	8,808	1380,093	730,636
-0,702	8,795	1378,461	729,683
0,313	12,790	1289,991	701,012
1,327	28,639	681,965	406,145
2,342	44,505	117,317	75,879
3,356	-2,299	16,476	8,121
4,371	3,918	3,793	1,949
5,386	0,705	1,076	0,541
6,400	725,309	0,318	0,601
7,415	172,253	-0,184	-0,186
8,429	108,923	-0,352	-0,297
9,444	4,330	-0,316	-0,163
10,459	-7,434	-0,361	-0,171
11,473	58,911	-0,256	-0,177
12,488	-104,149	-0,249	-0,040
13,502	138,661	-0,321	-0,297
14,517	121,993	-0,307	-0,270
15,531	43,151	-0,354	-0,227
16,546	182,406	-0,216	-0,224
17,561	75,174	-0,333	-0,247
18,575	-31,991	-0,177	-0,070
19,590	170,316	-0,280	-0,282
20,604	-15,063	-0,287	-0,129
21,619	20,670	-0,405	-0,230
22,634	235,536	-0,309	-0,360
23,648	97,154	-0,415	-0,335
24,663	73,389	-0,441	-0,325
25,677	45,187	-0,386	-0,250
26,692	108,816	-0,386	-0,325
27,707	-44,692	-0,437	-0,153
28,721	66,309	-0,306	-0,218
29,736	243,099	-0,268	-0,316
30,750	1,053	-0,332	-0,167
31,765	141,943	-0,345	-0,322
32,780	38,976	-0,206	-0,129
33,794	-12,666	-0,455	-0,208
34,809	-60,199	-0,383	-0,114
35,823	200,514	-0,259	-0,280
36,838	36,614	-0,437	-0,270
37,853	361,058	-0,221	-0,312
38,867	89,496	-0,270	-0,211
39,882	35,370	-0,444	-0,274
40,896	103,396	-0,311	-0,256
41,911	60,229	-0,345	-0,240
42,926	21,033	-0,349	-0,199
43,940	189,875	-0,315	-0,332
44,955	87,944	-0,367	-0,286
45,969	-33,105	-0,359	-0,139
46,984	-39,962	-0,427	-0,156
47,999	-27,676	-0,167	-0,068
49,013	54,404	-0,321	-0,217
50,028	-10,313	-0,386	-0,179
51,042	-46,169	-0,451	-0,155
52,057	185,635	-0,248	-0,259
53,071	350,946	-0,311	-0,434
54,086	66,514	-0,354	-0,252
55,101	-111,762	-0,350	-0,049
56,115	-27,727	-0,321	-0,130
57,130	81,006	-0,249	-0,188
58,144	-107,782	-0,420	-0,064
59,159	34,593	-0,433	-0,265
60,174	255,275	-0,230	-0,277
61,188	115,181	-0,254	-0,217
62,203	50,672	-0,318	-0,211
63,217	-36,405	-0,376	-0,141
64,232	266,493	-0,173	-0,213
65,247	-29,753	-0,397	-0,158
66,261	112,495	-0,390	-0,331
67,276	204,172	-0,323	-0,351
68,290	-24,771	-0,436	-0,181
69,305	84,011	-0,365	-0,280
70,320	-46,095	-0,246	-0,085
71,334	33,292	-0,311	-0,188
72,349	-59,498	-0,339	-0,101
73,363	-39,033	-0,301	-0,110
74,378	-162,158	-0,319	-0,011
75,393	246,043	-0,170	-0,201
76,407	-26,706	-0,312	-0,127
77,422	263,587	-0,136	-0,166
78,436	151,569	-0,183	-0,175
79,451	-133,990	-0,300	0,026
80,466	45,219	-0,387	-0,250
81,480	-2,715	-0,399	-0,195
82,495	37,254	-0,329	-0,204
83,509	-19,153	-0,241	-0,105
84,524	146,127	-0,223	-0,209
85,539	40,825	-0,431	-0,272
86,553	-29,369	-0,302	-0,120
87,568	76,252	-0,322	-0,239
88,582	-6,217	-0,302	-0,144
89,597	-34,904	-0,371	-0,141
90,611	24,853	-0,190	-0,110
91,626	74,007	-0,191	-0,140
92,641	-121,997	-0,287	0,033
93,655	-20,708	-0,301	-0,129
94,670	-61,654	-0,361	-0,105
95,684	25,386	-0,327	-0,190
96,699	89,439	-0,270	-0,210
97,714	61,939	-0,277	-0,193
98,728	46,702	-0,324	-0,210
99,743	54,858	-0,280	-0,189
100,757	483,243	-0,101	-0,161
101,772	8,520	-0,254	-0,133
102,787	88,797	-0,283	-0,220
103,801	785,796	-0,160	-0,309
104,816	84,958	-0,310	-0,238
105,830	589,114	-0,093	-0,160
106,845	166,570	-0,199	-0,198
107,860	7,933	-0,214	-0,112
108,874	215,028	-0,260	-0,288
109,889	158,699	-0,347	-0,337
110,903	-24,584	-0,441	-0,182
111,918	146,654	-0,189	-0,177
112,933	-127,959	-0,161	0,016
113,947	-34,635	-0,378	-0,144
114,962	61,083	-0,205	-0,142
115,976	-67,683	-0,354	-0,096
116,991	7,096	-0,304	-0,158
118,006	98,816	-0,219	-0,176
119,020	800,000	-0,131	-0,263
120,035	-24,219	-0,301	-0,125
121,049	-18,500	-0,355	-0,154
122,064	91,443	-0,196	-0,154
123,079	-65,579	-0,230	-0,064
124,093	3,387	-0,297	-0,150
125,108	212,478	-0,306	-0,338
126,122	49,904	-0,227	-0,149
127,137	-36,857	-0,213	-0,079
128,151	-40,239	-0,193	-0,070
129,166	673,951	-0,167	-0,304
130,181	70,055	-0,299	-0,215
131,195	140,960	-0,228	-0,211
132,210	28,835	-0,171	-0,101
133,224	-34,731	-0,350	-0,133
134,239	297,186	-0,149	-0,192
135,254	-49,155	-0,296	-0,098
136,268	20,840	-0,211	-0,119
137,283	63,176	-0,208	-0,145
138,297	110,145	-0,203	-0,169
139,312	192,894	-0,259	-0,273
140,327	-30,136	-0,307	-0,121
141,341	800,000	-0,120	-0,272
142,356	104,698	-0,191	-0,157
143,370	590,336	-0,137	-0,236
144,385	-13,770	-0,213	-0,095
145,400	-4,682	-0,290	-0,139
146,414	3,875	-0,345	-0,175
147,429	145,320	-0,149	-0,139
148,443	230,667	-0,144	-0,164
149,458	112,931	-0,123	-0,104
150,473	-29,626	-0,191	-0,076
151,487	-10,694	-0,280	-0,128
152,502	371,982	-0,169	-0,240
153,516	20,912	-0,321	-0,180
154,531	254,084	-0,120	-0,143
155,546	47,318	-0,189	-0,122
156,560	407,926	-0,086	-0,127
157,575	36,651	-0,069	-0,043
158,589	122,434	-0,328	-0,285
159,604	-8,843	-0,229	-0,106
160,619	329,279	-0,162	-0,218
161,633	171,268	-0,282	-0,281
162,648	800,000	-0,090	-0,205
163,662	91,190	-0,169	-0,132
164,677	-107,278	-0,165	-0,025
165,692	90,402	-0,199	-0,155
166,706	-27,329	-0,167	-0,067
167,721	63,032	-0,336	-0,233
168,735	0,261	-0,339	-0,167
169,750	77,581	-0,223	-0,165
170,764	499,785	-0,130	-0,208
171,779	-55,725	-0,179	-0,055
172,794	270,299	-0,208	-0,254
173,808	-27,127	-0,167	-0,067
174,823	80,132	-0,204	-0,153
175,837	457,717	-0,202	-0,313
176,852	-200,000	-0,058	-0,233
177,867	-93,946	-0,137	-0,026
178,881	-200,000	-0,034	-0,228
179,896	800,000	-0,078	-0,177
180,910	73,688	-0,282	-0,205
181,925	180,169	-0,218	-0,222
182,940	671,908	-0,153	-0,276
183,954	-28,174	-0,196	-0,078
184,969	-28,498	-0,192	-0,076
185,983	-33,648	-0,237	-0,090
186,998	60,861	-0,177	-0,121
188,013	153,876	-0,250	-0,238
189,027	-14,291	-0,284	-0,127
190,042	-74,380	-0,151	-0,038
191,056	800,000	-0,107	-0,237
192,071	-132,645	-0,165	0,014
193,086	-111,048	-0,069	-0,010
194,100	11,557	-0,170	-0,090
195,115	233,119	-0,169	-0,193
196,129	435,360	-0,203	-0,307
197,144	139,364	-0,188	-0,172
198,159	146,391	-0,222	-0,207
199,173	-157,675	-0,238	0,010
200,188	800,000	-0,030	-0,071
201,202	-87,032	-0,156	-0,033
202,217	-129,567	-0,261	-0,025
203,232	285,084	-0,162	-0,202
204,246	80,976	-0,247	-0,185
205,261	528,609	-0,104	-0,171
206,275	119,349	-0,167	-0,143
207,290	-200,000	-0,037	-0,190
208,304	-139,440	-0,226	-0,016
209,319	190,268	-0,080	-0,083
210,334	49,005	-0,163	-0,106
211,348	126,522	-0,231	-0,202
212,363	395,356	-0,143	-0,207
213,377	151,017	-0,175	-0,165
214,392	800,000	-0,102	-0,216
215,407	57,583	-0,173	-0,117
216,421	800,000	0,055	-0,134
217,436	116,483	-0,163	-0,138
218,450	800,000	-0,067	-0,197
219,465	-200,000	-0,062	-0,259
220,480	10,812	-0,278	-0,146
221,494	-51,788	-0,280	-0,090
222,509	499,974	-0,081	-0,130
223,523	179,532	-0,143	-0,145
224,538	100,176	-0,151	-0,121
225,553	156,514	-0,221	-0,211
226,567	800,000	-0,097	-0,190
227,582	200,626	-0,124	-0,132
228,596	56,733	-0,140	-0,094
229,611	-36,114	-0,142	-0,053
230,626	98,033	-0,130	0,103
231,640	79,145	-0,150	-0,111
232,655	77,661	-0,312	-0,229
233,669	624,821	-0,166	-0,290
234,684	29,714	-0,098	-0,058
235,699	-175,581	-0,115	-0,002
236,713	29,207	-0,210	-0,123
237,728	-19,520	-0,151	-0,064
238,742	-114,331	-0,245	-0,032
239,757	45,157	-0,246	-0,156
240,772	735,223	-0,081	-0,151
241,786	-143,695	-0,146	-0,009
242,801	-47,267	-0,145	-0,049
243,815	-51,528	-0,097	-0,031
244,830	225,915	-0,167	-0,187
245,844	7,619	-0,196	-0,101
246,859	148,667	-0,225	-0,210
247,874	103,097	-0,236	-0,191
248,888	129,502	-0,282	-0,249
249,903	378,714	-0,121	-0,172
250,917	-200,000	-0,015	-0,093
251,932	135,076	-0,174	-0,156
252,947	146,155	-0,134	-0,124
253,961	31,644	-0,182	-0,108
254,976	17,566	-0,240	-0,131
255,990	490,409	-0,142	-0,225
257,005	357,701	-0,216	-0,298
258,020	141,501	-0,172	-0,157
259,034	105,617	-0,170	-0,139
260,049	269,921	-0,143	-0,173
261,063	-175,842	-0,256	-0,005
262,078	-190,608	-0,189	0,001
263,093	608,620	-0,153	-0,265
264,107	87,012	-0,264	-0,201
265,122	468,860	-0,030	-0,046
266,136	-31,110	-0,194	-0,075
267,151	-106,895	-0,086	-0,013
268,166	-111,332	-0,241	-0,034
269,180	-94,920	-0,203	-0,037
270,195	800,000	-0,072	-0,193
271,209	89,469	-0,225	-0,173
272,224	24,427	-0,161	-0,092
273,239	-74,368	-0,185	-0,046
274,253	-195,469	-0,122	0,001
275,268	-77,482	-0,178	-0,042
276,282	-200,000	-0,023	-0,090
277,297	285,761	-0,196	-0,244
278,312	83,805	-0,220	-0,165
279,326	5,737	-0,176	-0,089
280,341	377,323	-0,049	-0,069
281,355	126,910	-0,125	-0,109
282,370	150,858	-0,212	-0,199
283,384	96,430	-0,210	-0,165
284,399	86,588	-0,213	-0,161
285,414	143,347	-0,125	-0,115
286,428	-200,000	-0,027	-0,173
287,443	800,000	-0,039	-0,114
288,457	800,000	-0,084	-0,169
289,472	-117,181	-0,124	-0,015
290,487	-8,101	-0,277	-0,128
291,501	142,897	-0,171	-0,157
292,516	228,063	-0,179	-0,201
293,530	800,000	-0,100	-0,213
294,545	800,000	-0,048	-0,141
295,560	-37,244	-0,190	0,069
296,574	800,000	-0,086	-0,166
297,589	221,857	-0,199	-0,220
298,603	-103,622	-0,170	0,027
299,618	249,037	-0,105	-0,123
300,633	-82,090	-0,153	-0,034
301,647	-8,253	-0,127	-0,059
302,662	-5,235	-0,135	-0,063
303,676	-92,934	-0,077	-0,015
304,691	-111,719	-0,207	-0,029
305,706	-33,755	-0,222	-0,084
306,720	241,617	-0,110	-0,126
307,735	84,061	-0,133	-0,100
308,749	-200,000	-0,005	-0,109
309,764	392,180	-0,066	-0,094
310,779	-25,928	-0,121	-0,049
311,793	83,214	-0,084	-0,063
312,808	-184,141	-0,093	0,001
313,822	174,218	-0,142	-0,141
314,837	-200,000	-0,016	-0,082
315,852	-66,292	-0,133	-0,036
316,866	-157,767	-0,222	-0,009
317,881	127,233	-0,097	-0,085
318,895	-15,698	-0,109	-0,047
319,910	-146,132	-0,201	-0,012
320,925	58,108	-0,144	-0,096
321,939	-16,196	-0,230	-0,100
322,954	44,339	-0,143	-0,090
323,968	464,912	-0,112	-0,173
324,983	800,000	-0,066	-0,159
325,997	-114,900	-0,187	-0,024
327,012	73,706	-0,179	-0,128
328,027	-39,129	-0,217	-0,078
329,041	-8,595	-0,286	-0,131
330,056	-58,011	-0,112	0,033
331,070	-133,152	-0,218	-0,019
332,085	193,668	-0,191	-0,198
333,100	-95,836	-0,136	-0,025
334,114	-49,839	-0,257	-0,083
335,129	61,312	-0,116	-0,079
336,143	34,281	-0,068	-0,040
337,158	800,000	-0,093	-0,203
338,173	800,000	-0,045	0,119
339,187	-144,641	-0,107	-0,007
340,202	437,173	-0,094	-0,140
341,216	-166,983	-0,080	-0,002
342,231	74,104	-0,158	-0,114
343,246	-24,745	-0,206	-0,083
344,260	-123,980	-0,118	-0,013
345,275	-148,078	-0,011	0,001
346,289	800,000	-0,049	-0,115
347,304	66,079	-0,146	-0,101
348,319	206,727	-0,187	-0,200
349,333	800,000	-0,127	-0,247
350,348	394,827	-0,135	-0,194
351,362	-200,000	-0,056	-0,339
352,377	800,000	-0,047	0,127
353,392	800,000	-0,041	-0,084
354,406	226,437	-0,093	-0,103
355,421	207,200	1306,639	1395,045
356,435	159,382	1466,339	1395,508
