DTS Sentinel unit serial number:	SN410029Multiplexer serial number:	ORYXHardware model number:	OX2-SRSoftware version number:	ORYX F/W v4,00 Oryx Data Collector v3.7.2.0data status	okinstallation	B3 Nyhavnadifferential loss correction	single-endedforward channel	channel 1reverse channel	N/Adate	2023/11/29time	19:02:30forward acquisition time	300,00reverse acquisition time	0,00gamma	499,1914k internal	0,3209k external	0,3209temperature offset calibration	1,0000default loss term (dB/km)	0,3820temperature slope calibration	1,0000multiplexer offset coefficient	1,0000multiplexer slope coefficient	1,0000fibre end	0,00T internal ref (°C)	11,02T ext. ref 1 (°C)	-4,25T ext. ref 2 (°C)	-4,37length (m)	temperature (°C)	Stokes	anti-Stokes-744,400	474,585	-0,201	-0,331
-743,385	-200,000	-0,009	0,166
-742,371	-200,000	-0,028	-0,190
-741,356	-200,000	0,057	0,238
-740,342	77,518	-0,097	-0,075
-739,327	-200,000	0,012	0,324
-738,312	33,528	-0,151	-0,095
-737,298	800,000	-0,084	0,184
-736,283	800,000	-0,065	-0,156
-735,269	-200,000	0,053	0,287
-734,254	-200,000	-0,067	-0,238
-733,239	-19,771	-0,162	0,072
-732,225	-200,000	-0,040	-0,262
-731,210	-107,502	0,065	0,010
-730,196	-200,000	-0,005	-0,071
-729,181	13,340	0,016	0,009
-728,167	78,988	0,041	-0,032
-727,152	-43,031	0,059	0,021
-726,137	351,541	0,071	-0,102
-725,123	530,501	-0,060	0,103
-724,108	258,568	0,065	-0,081
-723,094	800,000	0,012	-0,026
-722,079	47,041	-0,108	-0,073
-721,064	69,444	0,146	-0,109
-720,050	-65,654	-0,058	-0,017
-719,035	-200,000	0,001	0,077
-718,021	-101,261	0,017	0,003
-717,006	-143,109	-0,085	0,006
-715,991	214,374	-0,114	-0,132
-714,977	-31,686	-0,086	0,035
-713,962	76,364	-0,033	-0,025
-712,948	401,022	0,044	0,067
-711,933	-144,911	-0,042	-0,003
-710,918	265,098	0,098	0,124
-709,904	-15,374	0,059	0,027
-708,889	-200,000	-0,011	-0,063
-707,875	-99,692	-0,186	-0,033
-706,860	-45,302	0,086	0,031
-705,845	-200,000	0,018	-0,094
-704,831	144,744	0,035	0,033
-703,816	800,000	0,064	0,147
-702,802	232,814	-0,089	0,106
-701,787	235,399	-0,039	0,047
-700,772	57,412	-0,057	-0,041
-699,758	26,477	0,086	0,052
-698,743	64,042	-0,082	0,059
-697,729	305,944	0,053	-0,072
-696,714	-200,000	0,047	0,166
-695,699	-31,786	-0,102	0,041
-694,685	-200,000	-0,020	-0,071
-693,670	-200,000	-0,006	-0,033
-692,656	79,176	-0,093	-0,072
-691,641	68,198	0,054	-0,040
-690,627	-69,517	-0,080	0,022
-689,612	-12,822	0,215	0,101
-688,597	-200,000	-0,036	0,120
-687,583	800,000	-0,037	0,093
-686,568	90,870	-0,122	0,099
-685,554	411,380	0,064	0,098
-684,539	800,000	-0,015	-0,037
-683,524	269,400	0,089	0,114
-682,510	165,342	0,087	-0,089
-681,495	7,033	-0,164	-0,088
-680,481	302,601	0,022	0,030
-679,466	-26,097	0,068	0,029
-678,451	223,797	-0,088	-0,103
-677,437	-200,000	0,001	-0,004
-676,422	800,000	0,041	-0,102
-675,408	800,000	-0,020	0,046
-674,393	257,021	0,034	-0,042
-673,378	-162,651	-0,022	-0,001
-672,364	-151,453	-0,133	0,007
-671,349	-123,054	-0,042	-0,005
-670,335	245,269	0,036	0,044
-669,320	-56,146	0,067	-0,022
-668,305	800,000	-0,026	-0,055
-667,291	191,755	-0,025	-0,027
-666,276	-0,822	0,060	-0,031
-665,262	77,608	-0,101	-0,078
-664,247	190,254	-0,118	-0,128
-663,232	43,972	0,055	-0,036
-662,218	422,086	-0,004	0,006
-661,203	106,996	-0,050	-0,043
-660,189	-70,813	0,191	-0,052
-659,174	-200,000	-0,000	0,029
-658,159	181,971	-0,133	-0,141
-657,145	-118,707	0,052	-0,006
-656,130	539,203	0,074	-0,128
-655,116	226,916	0,103	-0,121
-654,101	-200,000	-0,036	0,150
-653,086	800,000	0,028	-0,072
-652,072	800,000	-0,029	-0,068
-651,057	800,000	0,021	-0,049
-650,043	-89,399	-0,064	-0,013
-649,028	-200,000	-0,028	-0,105
-648,014	83,266	-0,076	0,060
-646,999	48,612	0,131	-0,089
-645,984	-200,000	-0,003	-0,050
-644,970	235,487	-0,073	0,087
-643,955	171,683	0,092	-0,095
-642,941	-88,870	-0,080	0,017
-641,926	-105,791	0,025	0,004
-640,911	277,033	0,035	-0,045
-639,897	800,000	-0,034	0,084
-638,882	-22,118	0,101	0,044
-637,868	461,487	-0,118	-0,190
-636,853	-120,632	-0,117	0,014
-635,838	-113,983	-0,086	-0,012
-634,824	-200,000	-0,013	0,048
-633,809	-200,000	0,016	0,103
-632,795	-200,000	0,039	0,133
-631,780	193,977	0,104	0,114
-630,765	800,000	-0,065	-0,164
-629,751	210,534	-0,020	0,023
-628,736	413,329	-0,087	-0,135
-627,722	-41,711	-0,241	-0,089
-626,707	800,000	0,047	-0,107
-625,692	-90,859	0,084	-0,017
-624,678	0,591	0,034	-0,017
-623,663	506,268	-0,046	0,077
-622,649	-27,919	0,076	0,032
-621,634	-200,000	0,002	-0,078
-620,619	320,654	-0,048	0,066
-619,605	-200,000	-0,026	0,107
-618,590	-1,577	-0,070	-0,036
-617,576	800,000	-0,050	-0,118
-616,561	240,407	0,060	0,073
-615,546	-85,598	-0,078	-0,017
-614,532	1,938	-0,079	0,041
-613,517	196,834	0,073	-0,081
-612,503	189,140	0,033	-0,036
-611,488	72,819	-0,078	0,059
-610,474	-200,000	0,025	0,135
-609,459	407,338	0,079	0,121
-608,444	-135,381	-0,183	0,016
-607,430	-200,000	0,035	-0,139
-606,415	-200,000	0,007	-0,142
-605,401	-200,000	0,006	0,257
-604,386	278,824	-0,066	-0,085
-603,371	-16,341	0,106	-0,048
-602,357	-200,000	-0,016	0,109
-601,342	-200,000	0,011	-0,067
-600,328	639,201	-0,031	-0,057
-599,313	-200,000	0,023	-0,125
-598,298	4,353	-0,036	-0,019
-597,284	134,006	-0,130	0,122
-596,269	-114,016	-0,061	-0,008
-595,255	-51,535	-0,025	0,008
-594,240	-200,000	0,019	-0,159
-593,225	-200,000	-0,002	0,052
-592,211	-137,908	0,105	0,008
-591,196	800,000	0,014	0,036
-590,182	-200,000	-0,020	-0,131
-589,167	-143,363	0,103	-0,007
-588,152	-15,270	0,047	0,022
-587,138	37,843	-0,174	-0,111
-586,123	-200,000	-0,018	-0,134
-585,109	-166,515	-0,095	-0,003
-584,094	-200,000	0,029	0,191
-583,079	558,187	-0,046	0,080
-582,065	-77,989	-0,051	-0,013
-581,050	299,317	-0,068	0,090
-580,036	-200,000	-0,061	-0,202
-579,021	435,421	0,013	-0,021
-578,006	-200,000	0,006	-0,114
-576,992	-200,000	-0,013	-0,049
-575,977	43,028	0,064	0,042
-574,963	-4,107	0,092	0,046
-573,948	146,049	-0,079	0,077
-572,934	-200,000	-0,026	0,109
-571,919	-200,000	0,002	-0,022
-570,904	-200,000	-0,001	0,043
-569,890	-168,887	0,118	0,003
-568,875	-145,292	0,040	0,003
-567,861	800,000	0,022	0,064
-566,846	-13,482	-0,124	0,058
-565,831	-131,166	-0,041	-0,004
-564,817	163,335	-0,032	0,033
-563,802	-27,046	0,173	0,072
-562,788	-200,000	-0,002	-0,189
-561,773	-200,000	-0,032	-0,114
-560,758	800,000	0,044	-0,108
-559,744	85,236	0,086	0,068
-558,729	-83,005	-0,045	-0,010
-557,715	-121,261	0,025	-0,003
-556,700	-200,000	-0,021	-0,125
-555,685	800,000	0,054	-0,134
-554,671	515,251	0,047	0,079
-553,656	-200,000	-0,006	0,039
-552,642	-64,566	0,082	0,024
-551,627	-174,051	-0,053	-0,001
-550,612	583,424	-0,010	0,018
-549,598	-50,790	-0,099	-0,033
-548,583	-89,344	0,084	-0,018
-547,569	-200,000	0,018	-0,062
-546,554	54,998	0,081	0,056
-545,539	292,402	-0,084	0,110
-544,525	-118,701	0,112	0,014
-543,510	14,241	-0,086	0,048
-542,496	-178,235	0,013	-0,000
-541,481	-200,000	0,008	-0,090
-540,466	480,833	0,050	-0,081
-539,452	331,844	0,051	0,071
-538,437	-200,000	0,044	0,141
-537,423	23,827	-0,050	-0,029
-536,408	145,670	0,113	-0,109
-535,393	800,000	-0,020	-0,051
-534,379	732,448	0,041	-0,079
-533,364	-200,000	-0,021	-0,084
-532,350	-122,595	0,059	0,007
-531,335	136,607	-0,087	0,082
-530,321	43,718	0,031	-0,020
-529,306	-200,000	0,003	0,056
-528,291	330,260	-0,042	0,058
-527,277	-60,527	0,127	-0,038
-526,262	-90,703	-0,081	0,017
-525,248	-101,936	0,075	0,013
-524,233	800,000	-0,037	0,116
-523,218	-117,560	0,165	0,021
-522,204	-97,161	0,102	-0,019
-521,189	-19,819	-0,141	-0,062
-520,175	-46,402	-0,074	-0,026
-519,160	800,000	-0,111	0,245
-518,145	-200,000	-0,008	-0,049
-517,131	800,000	0,060	0,152
-516,116	13,104	0,082	0,046
-515,102	-153,491	0,090	0,004
-514,087	98,995	-0,015	-0,012
-513,072	800,000	-0,041	0,106
-512,058	-200,000	-0,055	-0,179
-511,043	195,463	-0,131	-0,144
-510,029	-70,860	0,054	-0,014
-509,014	-200,000	0,010	-0,064
-507,999	-200,000	-0,003	-0,015
-506,985	492,016	-0,024	-0,040
-505,970	224,168	-0,052	-0,061
-504,956	800,000	0,018	-0,038
-503,941	122,035	-0,083	-0,074
-502,926	-200,000	0,002	0,010
-501,912	-200,000	0,010	0,138
-500,897	220,263	-0,021	-0,024
-499,883	77,451	-0,068	-0,052
-498,868	800,000	-0,073	-0,145
-497,853	630,644	-0,043	0,079
-496,839	-200,000	-0,010	0,074
-495,824	248,477	-0,011	0,013
-494,810	289,412	0,054	0,070
-493,795	788,639	-0,054	-0,107
-492,781	-74,246	0,032	-0,008
-491,766	800,000	-0,042	0,086
-490,751	-44,046	-0,122	-0,044
-489,737	-46,712	0,131	0,046
-488,722	119,361	0,052	-0,047
-487,708	49,030	-0,107	-0,072
-486,693	-17,150	-0,067	0,030
-485,678	208,399	-0,042	-0,047
-484,664	401,632	-0,010	-0,015
-483,649	305,636	0,056	-0,075
-482,635	55,268	-0,052	-0,036
-481,620	444,734	0,102	-0,161
-480,605	-27,670	-0,036	0,015
-479,591	515,380	-0,046	-0,078
-478,576	-98,264	0,087	0,016
-477,562	-111,656	-0,065	-0,009
-476,547	-78,250	-0,109	0,027
-475,532	-105,221	-0,112	-0,018
-474,518	-200,000	-0,019	-0,071
-473,503	-122,290	0,145	-0,017
-472,489	-200,000	0,003	-0,106
-471,474	44,245	-0,137	0,090
-470,459	800,000	0,021	-0,066
-469,445	56,935	-0,053	0,037
-468,430	157,865	-0,130	-0,130
-467,416	185,574	-0,019	0,021
-466,401	-189,230	0,103	0,001
-465,386	154,914	0,051	-0,050
-464,372	338,584	0,045	0,064
-463,357	-200,000	-0,011	0,120
-462,343	91,461	-0,157	0,127
-461,328	7,709	0,012	-0,006
-460,313	-172,937	-0,040	-0,001
-459,299	728,175	0,071	0,137
-458,284	-200,000	-0,039	0,180
-457,270	-9,774	0,059	0,028
-456,255	789,752	-0,010	-0,019
-455,241	10,124	-0,066	0,036
-454,226	384,200	0,003	-0,004
-453,211	-200,000	0,001	0,100
-452,197	-130,922	0,187	-0,018
-451,182	69,787	0,038	0,028
-450,168	-13,954	-0,028	-0,013
-449,153	800,000	-0,029	-0,075
-448,138	-59,064	-0,109	0,034
-447,124	7,812	0,020	0,010
-446,109	223,281	0,124	0,144
-445,095	634,726	0,049	0,089
-444,080	-200,000	0,031	0,170
-443,065	10,704	0,059	0,032
-442,051	800,000	0,016	0,045
-441,036	-200,000	0,023	-0,079
-440,022	213,272	-0,093	-0,105
-439,007	738,973	0,056	-0,109
-437,992	-200,000	0,007	0,031
-436,978	-80,279	-0,129	0,031
-435,963	59,383	-0,045	0,032
-434,949	800,000	0,034	-0,068
-433,934	-89,491	0,118	0,025
-432,919	24,522	0,110	0,065
-431,905	-45,489	-0,014	0,005
-430,890	-200,000	0,005	0,114
-429,876	-200,000	0,019	0,100
-428,861	272,970	-0,056	-0,072
-427,846	401,273	-0,070	0,106
-426,832	-200,000	-0,016	0,076
-425,817	-200,000	-0,024	0,113
-424,803	-200,000	0,005	0,120
-423,788	800,000	0,017	-0,046
-422,773	800,000	0,056	0,118
-421,759	168,449	0,045	0,046
-420,744	100,718	-0,040	-0,034
-419,730	485,240	-0,036	-0,059
-418,715	229,987	-0,080	-0,094
-417,701	330,842	0,072	-0,100
-416,686	800,000	0,023	0,050
-415,671	174,958	0,091	0,094
-414,657	16,145	-0,048	0,027
-413,642	446,255	0,080	0,127
-412,628	116,269	0,048	-0,043
-411,613	-200,000	-0,008	-0,087
-410,598	-200,000	0,036	0,135
-409,584	607,713	0,049	-0,087
-408,569	372,811	0,040	0,059
-407,555	-99,349	0,082	-0,015
-406,540	307,953	-0,040	-0,054
-405,525	-44,743	-0,147	0,052
-404,511	-200,000	0,016	-0,056
-403,496	153,203	-0,038	0,038
-402,482	800,000	-0,045	-0,126
-401,467	172,916	0,013	0,013
-400,452	166,064	-0,031	-0,031
-399,438	800,000	0,012	-0,029
-398,423	-74,721	-0,177	-0,045
-397,409	59,764	-0,046	0,033
-396,394	-200,000	-0,044	-0,184
-395,379	87,972	0,055	0,044
-394,365	76,654	0,126	-0,096
-393,350	-163,589	0,078	0,003
-392,336	-200,000	0,011	-0,045
-391,321	800,000	0,037	0,080
-390,306	431,992	-0,058	-0,090
-389,292	-31,444	0,057	0,023
-388,277	-200,000	0,011	0,257
-387,263	661,748	-0,035	0,065
-386,248	-200,000	-0,001	0,171
-385,233	744,953	-0,038	0,073
-384,219	5,742	0,083	0,044
-383,204	-20,247	-0,077	-0,034
-382,190	8,050	-0,057	0,030
-381,175	7,433	-0,116	0,062
-380,160	-200,000	0,010	0,226
-379,146	-200,000	-0,010	0,157
-378,131	-9,975	0,130	0,062
-377,117	800,000	0,025	-0,056
-376,102	460,370	-0,074	-0,118
-375,088	139,673	-0,142	-0,134
-374,073	-3,512	0,064	-0,032
-373,058	-200,000	0,004	0,035
-372,044	0,134	-0,027	0,014
-371,029	133,426	-0,037	0,035
-370,015	-16,721	-0,063	-0,029
-369,000	-200,000	-0,016	0,059
-367,985	233,630	-0,094	-0,110
-366,971	-139,261	0,081	0,006
-365,956	108,041	0,019	0,016
-364,942	800,000	-0,029	-0,077
-363,927	-156,090	0,207	-0,009
-362,912	-57,838	-0,108	0,034
-361,898	-19,532	-0,131	-0,058
-360,883	27,138	-0,078	-0,047
-359,869	800,000	-0,019	-0,051
-358,854	115,285	0,044	0,039
-357,839	800,000	0,048	0,124
-356,825	-96,825	0,084	0,016
-355,810	-7,724	-0,063	0,030
-354,796	684,979	0,068	0,127
-353,781	-200,000	0,004	-0,045
-352,766	691,906	-0,037	0,070
-351,752	145,166	0,144	0,138
-350,737	-200,000	-0,006	0,038
-349,723	-200,000	-0,015	0,054
-348,708	-200,000	-0,004	0,021
-347,693	800,000	0,008	-0,023
-346,679	-45,764	0,110	-0,039
-345,664	49,796	-0,092	0,062
-344,650	-200,000	-0,025	-0,081
-343,635	-48,602	0,080	0,027
-342,620	39,050	0,089	0,057
-341,606	174,325	-0,016	0,017
-340,591	-135,022	-0,165	0,014
-339,577	32,696	0,032	-0,019
-338,562	509,813	-0,052	-0,087
-337,548	-95,340	0,123	0,023
-336,533	-161,630	0,153	0,005
-335,518	-200,000	-0,014	0,108
-334,504	47,780	0,108	-0,072
-333,489	27,313	-0,040	-0,024
-332,475	-200,000	0,006	-0,027
-331,460	329,723	-0,017	-0,024
-330,445	89,328	0,154	-0,123
-329,431	-110,038	0,124	0,018
-328,416	372,819	0,038	-0,056
-327,402	150,659	0,066	-0,064
-326,387	-200,000	0,020	0,150
-325,372	184,321	-0,095	-0,100
-324,358	-110,040	0,070	-0,010
-323,343	53,692	0,111	-0,076
-322,329	-8,026	0,099	-0,048
-321,314	-50,674	-0,045	0,015
-320,299	183,037	-0,034	-0,036
-319,285	-69,384	-0,079	-0,021
-318,270	800,000	-0,030	-0,060
-317,256	-10,671	-0,049	-0,023
-316,241	-200,000	-0,043	0,159
-315,226	-24,145	0,151	0,064
-314,212	-29,935	-0,047	-0,019
-313,197	-200,000	-0,005	0,027
-312,183	24,046	0,139	0,082
-311,168	62,559	-0,154	-0,109
-310,153	-166,256	0,036	0,001
-309,139	105,557	-0,161	-0,135
-308,124	391,604	-0,043	0,063
-307,110	-200,000	0,004	0,068
-306,095	-200,000	0,017	0,162
-305,080	-58,535	0,028	0,009
-304,066	193,149	-0,083	-0,090
-303,051	800,000	-0,028	-0,066
-302,037	-200,000	0,030	-0,178
-301,022	800,000	0,022	0,044
-300,008	-33,990	-0,053	0,021
-298,993	461,735	0,054	-0,086
-297,978	-9,476	0,045	-0,022
-296,964	129,742	-0,005	0,004
-295,949	98,661	0,038	-0,031
-294,935	-9,770	-0,048	-0,023
-293,920	108,595	0,061	-0,052
-292,905	69,124	0,074	0,054
-291,891	-44,299	-0,075	0,027
-290,876	-55,318	0,130	-0,041
-289,862	234,984	-0,061	-0,072
-288,847	134,852	-0,097	-0,090
-287,832	104,797	0,018	-0,015
-286,818	-15,746	-0,073	-0,033
-285,803	217,780	0,082	0,093
-284,789	800,000	-0,036	-0,085
-283,774	-200,000	0,008	0,047
-282,759	800,000	-0,009	0,019
-281,745	800,000	-0,060	-0,163
-280,730	800,000	0,033	-0,083
-279,716	24,139	-0,052	-0,031
-278,701	-58,191	0,165	-0,051
-277,686	-59,808	-0,105	-0,032
-276,672	-102,037	-0,048	-0,008
-275,657	-200,000	-0,028	0,097
-274,643	33,830	-0,048	0,030
-273,628	-200,000	0,015	-0,063
-272,613	227,215	0,046	-0,053
-271,599	-200,000	-0,009	0,036
-270,584	-87,626	0,107	-0,023
-269,570	6,993	-0,017	-0,009
-268,555	112,982	0,036	0,031
-267,540	-200,000	0,011	-0,112
-266,526	10,121	-0,035	0,019
-265,511	174,870	-0,038	-0,039
-264,497	193,925	0,085	-0,092
-263,482	800,000	0,074	0,147
-262,467	-200,000	0,029	0,116
-261,453	-149,769	-0,041	-0,002
-260,438	83,184	-0,056	0,043
-259,424	737,641	-0,059	-0,113
-258,409	599,467	0,054	-0,097
-257,395	800,000	0,030	-0,075
-256,380	-200,000	-0,011	0,063
-255,365	110,862	0,049	0,042
-254,351	-200,000	0,023	-0,074
-253,336	-200,000	-0,003	0,056
-252,322	-200,000	-0,002	-0,017
-251,307	800,000	-0,056	-0,126
-250,292	-72,711	0,110	-0,029
-249,278	-133,120	0,095	0,008
-248,263	-157,592	0,049	-0,002
-247,249	133,241	0,108	-0,099
-246,234	-200,000	0,018	0,070
-245,219	-200,000	-0,002	-0,023
-244,205	18,442	-0,090	-0,051
-243,190	800,000	0,047	0,124
-242,176	-4,476	0,011	-0,005
-241,161	-200,000	-0,039	0,149
-240,146	-200,000	-0,012	0,102
-239,132	79,288	-0,150	0,114
-238,117	-85,081	0,045	-0,010
-237,103	-120,100	-0,055	0,007
-236,088	-55,357	-0,013	-0,004
-235,073	131,728	0,116	-0,106
-234,059	136,645	-0,029	0,027
-233,044	-81,231	0,039	-0,009
-232,030	-200,000	-0,003	0,046
-231,015	-200,000	0,006	0,057
-230,000	-50,547	-0,107	-0,036
-228,986	650,180	-0,023	-0,042
-227,971	-39,406	0,147	0,055
-226,957	281,710	0,126	0,161
-225,942	19,725	0,056	-0,032
-224,927	-109,373	0,145	0,022
-223,913	-200,000	0,016	0,105
-222,898	-200,000	-0,016	-0,093
-221,884	-200,000	0,006	-0,037
-220,869	330,282	-0,021	-0,029
-219,855	-24,122	-0,052	-0,022
-218,840	800,000	0,040	0,108
-217,825	-55,582	-0,087	-0,027
-216,811	456,907	-0,080	-0,127
-215,796	-200,000	0,053	-0,216
-214,782	-71,358	-0,170	-0,045
-213,767	795,467	0,071	0,140
-212,752	148,920	-0,104	0,100
-211,738	-113,524	0,170	-0,023
-210,723	-200,000	-0,010	0,076
-209,709	-131,370	-0,132	0,012
-208,694	-159,713	-0,155	-0,006
-207,679	403,790	-0,017	0,026
-206,665	5,611	0,067	0,035
-205,650	-141,238	-0,059	0,004
-204,636	-200,000	0,039	-0,138
-203,621	633,142	-0,015	-0,027
-202,606	-200,000	0,005	-0,053
-201,592	638,539	-0,063	-0,113
-200,577	-200,000	-0,009	-0,197
-199,563	-200,000	0,008	0,025
-198,548	152,213	0,097	0,094
-197,533	800,000	-0,041	-0,117
-196,519	-35,374	0,175	-0,067
-195,504	525,443	0,047	-0,079
-194,490	800,000	-0,026	-0,068
-193,475	116,544	-0,033	-0,029
-192,460	-200,000	-0,033	-0,143
-191,446	242,621	-0,039	-0,047
-190,431	-200,000	-0,003	-0,029
-189,417	255,981	0,039	0,048
-188,402	255,974	-0,087	-0,106
-187,387	-200,000	0,010	0,108
-186,373	-200,000	0,003	0,088
-185,358	304,204	-0,034	-0,045
-184,344	-200,000	-0,000	0,146
-183,329	161,066	0,103	0,102
-182,315	18,862	0,056	0,032
-181,300	-200,000	0,005	-0,019
-180,285	800,000	0,028	-0,076
-179,271	800,000	-0,024	0,059
-178,256	-200,000	-0,037	0,173
-177,242	-200,000	-0,006	0,110
-176,227	-57,054	0,085	-0,026
-175,212	-138,218	-0,102	0,008
-174,198	-57,588	-0,114	0,035
-173,183	47,566	-0,034	-0,023
-172,169	800,000	0,032	-0,090
-171,154	800,000	-0,054	-0,165
-170,139	-200,000	-0,003	-0,089
-169,125	393,861	0,148	0,220
-168,110	-58,888	0,138	0,042
-167,096	14,597	-0,059	0,032
-166,081	-200,000	0,012	0,062
-165,066	116,057	-0,050	-0,043
-164,052	-39,967	-0,121	-0,045
-163,037	800,000	0,023	-0,048
-162,023	-27,695	0,025	0,010
-161,008	162,537	0,098	-0,098
-159,993	-200,000	0,023	-0,090
-158,979	288,729	0,044	0,057
-157,964	125,046	0,042	-0,037
-156,950	103,253	-0,046	0,038
-155,935	800,000	0,030	0,078
-154,920	800,000	0,022	0,067
-153,906	31,701	0,095	0,058
-152,891	300,851	-0,159	0,209
-151,877	15,907	-0,114	-0,063
-150,862	-20,437	-0,101	-0,044
-149,847	73,763	0,047	0,035
-148,833	-33,232	-0,060	0,024
-147,818	129,260	-0,077	0,070
-146,804	-108,045	0,141	0,021
-145,789	-107,077	-0,030	0,005
-144,775	-119,612	-0,025	0,003
-143,760	-80,732	-0,107	0,025
-142,745	65,578	-0,053	0,038
-141,731	800,000	0,044	-0,107
-140,716	-200,000	0,006	0,111
-139,702	-74,067	0,091	-0,023
-138,687	414,768	-0,035	0,053
-137,672	-129,079	0,061	0,006
-136,658	388,339	0,059	0,087
-135,643	-63,398	0,052	-0,015
-134,629	-200,000	0,012	-0,049
-133,614	800,000	0,031	0,073
-132,599	-199,880	-0,062	0,000
-131,585	-1,384	0,039	0,020
-130,570	800,000	0,037	0,091
-129,556	91,181	-0,056	0,044
-128,541	-200,000	-0,041	-0,148
-127,526	23,011	0,101	0,059
-126,512	-200,000	-0,001	-0,072
-125,497	800,000	0,048	0,114
-124,483	-200,000	0,004	0,108
-123,468	-91,465	-0,096	0,019
-122,453	-95,062	-0,033	0,006
-121,439	-37,696	0,054	-0,020
-120,424	800,000	0,006	0,018
-119,410	727,196	0,034	-0,064
-118,395	361,861	-0,098	0,140
-117,380	63,274	0,157	0,111
-116,366	94,815	-0,018	0,015
-115,351	665,580	-0,055	0,102
-114,337	800,000	0,040	0,116
-113,322	672,542	0,027	-0,050
-112,307	161,274	-0,022	0,022
-111,293	493,684	0,015	0,025
-110,278	12,023	-0,100	0,054
-109,264	-85,893	0,039	0,009
-108,249	143,569	-0,098	0,093
-107,234	186,905	-0,022	-0,023
-106,220	-200,000	0,015	0,069
-105,205	512,579	-0,053	-0,088
-104,191	-65,637	-0,048	0,013
-103,176	-93,666	0,055	-0,011
-102,162	-200,000	0,006	0,058
-101,147	741,429	0,063	-0,121
-100,132	585,395	-0,055	-0,096
-99,118	-200,000	-0,006	-0,025
-98,103	-26,373	-0,050	-0,021
-97,089	-92,696	0,173	0,034
-96,074	334,685	0,048	0,066
-95,059	-193,485	0,111	-0,001
-94,045	327,735	0,029	0,039
-93,030	800,000	-0,030	-0,073
-92,016	-79,556	-0,149	-0,035
-91,001	-92,630	-0,104	0,020
-89,986	267,599	0,068	0,084
-88,972	-94,526	0,084	0,016
-87,957	-58,791	-0,111	-0,034
-86,943	-9,675	0,053	-0,025
-85,928	-112,902	-0,131	-0,018
-84,913	372,748	-0,048	-0,070
-83,899	632,813	-0,082	-0,147
-82,884	72,484	0,189	0,139
-81,870	61,123	-0,145	0,101
-80,855	800,000	-0,066	0,188
-79,840	76,579	-0,041	-0,031
-78,826	-200,000	-0,006	0,060
-77,811	-162,264	-0,047	-0,002
-76,797	64,988	-0,088	0,063
-75,782	365,716	-0,052	-0,074
-74,767	800,000	0,046	0,094
-73,753	-200,000	0,001	-0,067
-72,738	294,472	-0,108	0,139
-71,724	-200,000	-0,015	-0,066
-70,709	65,559	0,072	-0,052
-69,694	-200,000	-0,039	0,136
-68,680	-200,000	0,040	0,143
-67,665	-200,000	-0,012	0,063
-66,651	-110,223	-0,105	0,015
-65,636	-63,389	-0,103	-0,030
-64,622	-200,000	-0,001	0,116
-63,607	48,393	-0,079	-0,052
-62,592	-200,000	-0,009	0,044
-61,578	800,000	0,045	0,102
-60,563	-137,971	0,095	-0,007
-59,549	-200,000	-0,028	0,203
-58,534	64,724	-1,731	-1,232
-57,519	373,881	-1,449	-2,089
-56,505	-200,000	-0,209	-4,419
-55,490	253,118	1,022	1,234
-54,476	800,000	5,097	11,229
-53,461	-200,000	20,811	329,465
-52,446	800,000	756,574	2322,068
-51,432	550,342	1661,932	2825,833
-50,417	73,723	1664,336	1230,327
-49,403	18,865	1537,428	867,251
-48,388	12,896	1460,232	794,808
-47,373	19,027	1451,164	819,298
-46,359	15,975	1440,476	798,697
-45,344	11,154	1436,166	773,301
-44,330	11,058	1434,420	771,870
-43,315	11,086	1432,407	770,890
-42,300	11,105	1430,490	769,918
-41,286	11,062	1429,552	769,180
-40,271	11,081	1428,065	768,441
-39,257	11,055	1426,956	767,691
-38,242	11,145	1425,862	767,496
-37,227	11,099	1424,725	766,636
-36,213	11,085	1423,451	765,852
-35,198	11,096	1422,357	765,287
-34,184	11,104	1421,346	764,750
-33,169	11,057	1420,149	763,856
-32,154	11,129	1419,057	763,576
-31,140	11,147	1417,772	762,938
-30,125	11,193	1416,864	762,639
-29,111	11,136	1415,529	761,620
-28,096	11,123	1414,551	761,001
-27,082	11,078	1413,218	760,044
-26,067	11,088	1412,095	759,458
-25,052	11,091	1411,119	758,916
-24,038	11,080	1410,098	758,283
-23,023	11,068	1409,169	757,699
-22,009	11,055	1408,192	757,085
-20,994	11,020	1407,049	756,273
-19,979	11,017	1406,283	755,819
-18,965	11,017	1405,257	755,235
-17,950	10,985	1404,406	754,601
-16,936	10,981	1403,680	754,163
-15,921	10,990	1402,309	753,439
-14,906	10,966	1401,784	753,014
-13,892	10,989	1400,751	752,537
-12,877	10,960	1399,834	751,881
-11,863	10,975	1398,955	751,445
-10,848	10,912	1398,096	750,662
-9,833	10,906	1397,285	750,170
-8,819	10,849	1396,342	749,368
-7,804	10,850	1395,557	748,921
-6,790	10,871	1394,688	748,522
-5,775	10,876	1393,556	747,908
-4,760	10,859	1392,699	747,343
-3,746	10,859	1391,621	746,734
-2,731	10,884	1390,618	746,282
-1,717	10,844	1390,040	745,758
-0,702	10,831	1388,050	744,599
0,313	14,789	1301,762	716,472
1,327	30,967	693,187	418,343
2,342	48,106	120,236	79,197
3,356	2,098	16,518	8,390
4,371	8,987	3,453	1,833
5,386	-15,339	0,954	0,429
6,400	-200,000	0,066	0,562
7,415	115,097	-0,222	-0,191
8,429	87,003	-0,255	-0,199
9,444	141,763	-0,290	-0,271
10,459	236,210	-0,192	-0,224
11,473	42,440	-0,205	-0,131
12,488	28,942	-0,186	-0,111
13,502	22,881	-0,312	-0,180
14,517	-36,348	-0,335	-0,127
15,531	69,869	-0,346	-0,251
16,546	272,762	-0,226	-0,282
17,561	87,178	-0,301	-0,235
18,575	-58,577	-0,129	-0,039
19,590	152,446	-0,200	-0,193
20,604	41,143	-0,069	-0,044
21,619	-41,194	-0,549	-0,199
22,634	55,302	-0,332	-0,226
23,648	119,430	-0,326	-0,284
24,663	135,552	-0,373	-0,342
25,677	-12,156	-0,446	-0,205
26,692	164,726	-0,258	-0,256
27,707	-6,504	-0,347	-0,166
28,721	9,752	-0,296	-0,158
29,736	57,982	-0,344	-0,237
30,750	232,298	-0,368	-0,425
31,765	103,390	-0,332	-0,274
32,780	46,382	-0,321	-0,209
33,794	228,061	-0,265	-0,304
34,809	-22,779	-0,508	-0,215
35,823	-10,905	-0,447	-0,207
36,838	5,857	-0,386	-0,200
37,853	-30,512	-0,368	-0,146
38,867	201,223	-0,316	-0,342
39,882	53,614	-0,316	-0,213
40,896	129,030	-0,226	-0,203
41,911	-1,486	-0,404	-0,200
42,926	-32,169	-0,397	-0,155
43,940	-13,545	-0,321	-0,145
44,955	159,288	-0,266	-0,260
45,969	146,376	-0,262	-0,248
46,984	115,457	-0,281	-0,241
47,999	207,424	-0,287	-0,315
49,013	16,235	-0,417	-0,231
50,028	-16,999	-0,356	-0,157
51,042	185,752	-0,269	-0,282
52,057	112,797	-0,408	-0,347
53,071	-2,046	-0,369	-0,182
54,086	72,464	-0,326	-0,238
55,101	-20,737	-0,317	-0,136
56,115	11,019	-0,363	-0,194
57,130	148,923	-0,252	-0,239
58,144	121,232	-0,391	-0,342
59,159	149,781	-0,260	-0,248
60,174	26,441	-0,433	-0,253
61,188	10,465	-0,423	-0,226
62,203	80,981	-0,244	-0,184
63,217	-4,532	-0,379	-0,183
64,232	-31,964	-0,294	-0,115
65,247	450,785	-0,227	-0,352
66,261	165,644	-0,319	-0,317
67,276	232,069	-0,289	-0,333
68,290	-3,688	-0,411	-0,199
69,305	-32,224	-0,255	-0,099
70,320	5,128	-0,208	-0,107
71,334	-61,258	-0,258	-0,076
72,349	-33,610	-0,338	-0,130
73,363	-144,386	-0,354	-0,023
74,378	79,279	-0,320	-0,241
75,393	-7,309	-0,379	-0,180
76,407	27,432	-0,228	-0,134
77,422	195,746	-0,224	-0,239
78,436	2,908	-0,290	-0,147
79,451	229,953	-0,179	-0,205
80,466	-3,940	-0,436	-0,211
81,480	32,338	-0,383	-0,231
82,495	205,403	-0,272	-0,296
83,509	-95,056	-0,302	-0,057
84,524	45,385	-0,294	-0,190
85,539	-30,338	-0,228	-0,090
86,553	-36,468	-0,368	-0,138
87,568	239,544	-0,279	-0,326
88,582	111,282	-0,272	-0,230
89,597	26,992	-0,281	-0,165
90,611	265,840	-0,218	-0,268
91,626	-36,124	-0,310	-0,117
92,641	20,156	-0,290	-0,164
93,655	-178,694	-0,332	-0,005
94,670	89,212	-0,285	-0,222
95,684	51,635	-0,362	-0,241
96,699	179,495	-0,198	-0,203
97,714	7,417	-0,267	-0,139
98,728	-40,936	-0,299	-0,108
99,743	-200,000	-0,073	-0,260
100,757	208,935	-0,256	-0,281
101,772	258,239	-0,186	-0,224
102,787	12,459	-0,281	-0,151
103,801	-3,930	-0,331	-0,160
104,816	-147,249	-0,264	-0,015
105,830	-68,916	-0,293	-0,078
106,845	-43,624	-0,293	-0,103
107,860	75,504	-0,259	-0,191
108,874	496,441	-0,143	-0,230
109,889	-80,070	-0,429	-0,100
110,903	2,592	-0,359	-0,181
111,918	6,075	-0,273	-0,141
112,933	255,645	-0,158	-0,190
113,947	42,858	-0,173	-0,110
114,962	-90,821	-0,321	-0,064
115,976	5,156	-0,309	-0,159
116,991	442,590	-0,137	-0,210
118,006	13,515	-0,199	-0,107
119,020	-12,200	-0,214	-0,097
120,035	-32,122	-0,212	-0,082
121,049	4,938	-0,254	-0,130
122,064	55,307	-0,100	-0,067
123,079	-5,624	-0,252	-0,120
124,093	29,506	-0,293	-0,173
125,108	129,772	-0,161	-0,144
126,122	-30,249	-0,233	-0,092
127,137	319,578	-0,113	-0,149
128,151	234,540	-0,181	-0,209
129,166	800,000	-0,103	-0,216
130,181	-7,235	-0,210	-0,099
131,195	108,070	-0,274	-0,227
132,210	68,708	-0,285	-0,204
133,224	-122,291	-0,241	0,027
134,239	-88,139	-0,324	0,067
135,254	-156,573	-0,226	0,010
136,268	224,330	-0,135	-0,153
137,283	-48,608	-0,175	-0,058
138,297	1,445	-0,306	-0,153
139,312	184,711	-0,223	-0,231
140,327	101,566	-0,277	-0,225
141,341	131,408	-0,256	-0,229
142,356	260,080	-0,237	-0,286
143,370	-82,191	-0,300	-0,068
144,385	-59,663	-0,283	-0,084
145,400	90,810	-0,129	-0,101
146,414	271,167	-0,233	-0,287
147,429	19,778	-0,387	-0,216
148,443	320,249	-0,187	-0,248
149,458	11,223	-0,191	-0,102
150,473	-2,984	-0,204	-0,099
151,487	-153,846	-0,267	-0,013
152,502	55,556	-0,262	-0,176
153,516	122,856	-0,267	-0,232
154,531	282,493	-0,194	-0,242
155,546	222,579	-0,125	-0,140
156,560	-68,917	-0,128	-0,034
157,575	49,221	-0,181	-0,118
158,589	27,877	-0,222	-0,130
159,604	-66,374	-0,257	-0,071
160,619	143,540	-0,266	-0,247
161,633	66,637	-0,236	-0,167
162,648	800,000	-0,131	-0,278
163,662	208,073	-0,167	-0,182
164,677	584,626	-0,131	-0,224
165,692	89,551	-0,155	-0,120
166,706	-114,835	-0,263	-0,034
167,721	-34,219	-0,253	-0,096
168,735	89,687	-0,260	-0,202
169,750	800,000	-0,046	-0,092
170,764	197,688	-0,175	-0,186
171,779	-15,897	-0,185	-0,082
172,794	246,891	-0,098	-0,116
173,808	-7,928	-0,157	-0,074
174,823	48,799	-0,214	-0,139
175,837	161,157	-0,199	-0,193
176,852	-200,000	-0,063	-0,293
177,867	68,360	-0,215	-0,153
178,881	-98,433	-0,256	-0,045
179,896	-139,088	-0,251	0,019
180,910	256,526	-0,197	-0,236
181,925	388,019	-0,121	-0,175
182,940	209,638	-0,157	-0,172
183,954	-143,766	-0,247	0,016
184,969	-149,456	-0,249	-0,014
185,983	-0,898	-0,232	-0,114
186,998	-109,252	-0,246	-0,036
188,013	-64,909	-0,220	-0,061
189,027	65,377	-0,347	-0,244
190,042	52,747	-0,191	-0,126
191,056	-10,134	-0,191	0,088
192,071	298,976	-0,140	-0,180
193,086	-53,974	-0,264	-0,083
194,100	137,482	-0,171	-0,155
195,115	-64,170	-0,125	-0,035
196,129	-91,087	-0,148	-0,029
197,144	454,721	-0,193	-0,298
198,159	800,000	-0,094	-0,269
199,173	78,978	-0,202	-0,149
200,188	-103,808	-0,187	-0,030
201,202	86,914	-0,190	-0,146
202,217	60,710	-0,177	-0,121
203,232	800,000	-0,151	-0,297
204,246	45,342	-0,291	-0,186
205,261	130,788	-0,183	-0,163
206,275	-32,590	-0,193	-0,074
207,290	-111,653	-0,169	-0,023
208,304	-36,658	-0,112	0,042
209,319	232,321	-0,127	-0,145
210,334	-13,720	-0,127	-0,057
211,348	35,439	-0,208	-0,126
212,363	1,140	-0,216	-0,107
213,377	23,259	-0,143	-0,081
214,392	83,404	-0,184	-0,139
215,407	12,615	-0,204	-0,109
216,421	-117,157	-0,215	-0,027
217,436	-200,000	-0,056	-0,226
218,450	249,787	-0,176	-0,208
219,465	74,128	-0,225	-0,163
220,480	800,000	-0,059	-0,169
221,494	-49,130	-0,187	-0,062
222,509	263,980	-0,181	-0,218
223,523	139,917	-0,205	-0,188
224,538	-70,698	-0,216	-0,056
225,553	-3,621	-0,189	-0,090
226,567	-20,934	-0,116	-0,049
227,582	552,874	-0,156	-0,260
228,596	373,403	-0,158	-0,222
229,611	800,000	-0,060	-0,134
230,626	-151,011	-0,084	-0,004
231,640	143,774	-0,181	-0,167
232,655	-16,811	-0,259	-0,113
233,669	800,000	-0,122	-0,261
234,684	162,889	-0,094	-0,091
235,699	800,000	-0,045	-0,118
236,713	-155,208	-0,215	0,010
237,728	-23,899	-0,207	-0,085
238,742	577,722	-0,073	-0,124
239,757	355,735	-0,178	-0,245
240,772	11,145	-0,218	-0,115
241,786	621,550	-0,087	-0,151
242,801	39,286	-0,131	-0,081
243,815	347,470	-0,123	-0,168
244,830	754,649	-0,108	-0,202
245,844	-10,877	-0,239	-0,109
246,859	25,368	-0,175	-0,100
247,874	92,422	-0,186	-0,145
248,888	-23,002	-0,298	-0,124
249,903	10,209	-0,143	-0,075
250,917	67,184	-0,112	-0,079
251,932	-182,117	-0,221	0,003
252,947	-127,540	-0,203	-0,020
253,961	-59,830	-0,233	-0,068
254,976	31,240	-0,158	-0,093
255,990	50,695	-0,152	-0,099
257,005	403,692	-0,172	-0,250
258,020	129,134	-0,141	-0,124
259,034	84,011	-0,175	-0,132
260,049	-12,321	-0,150	-0,068
261,063	41,456	-0,149	-0,093
262,078	385,517	-0,128	-0,183
263,093	-105,547	-0,241	-0,037
264,107	660,241	-0,141	-0,251
265,122	800,000	-0,092	-0,199
266,136	800,000	-0,071	-0,160
267,151	-68,384	-0,142	0,038
268,166	48,833	-0,175	-0,113
269,180	-152,113	-0,173	-0,009
270,195	130,683	-0,159	-0,140
271,209	186,357	-0,171	-0,176
272,224	-200,000	-0,037	-0,204
273,239	-43,184	-0,171	0,059
274,253	202,015	-0,112	-0,119
275,268	286,462	-0,143	-0,178
276,282	48,141	-0,219	-0,141
277,297	72,440	-0,165	-0,118
278,312	293,341	-0,104	-0,131
279,326	-73,302	-0,137	-0,034
280,341	33,632	-0,216	-0,129
281,355	663,208	-0,103	-0,183
282,370	-80,206	-0,136	0,031
283,384	-88,840	-0,279	-0,056
284,399	-13,177	-0,216	-0,096
285,414	-93,799	-0,126	-0,024
286,428	-95,425	-0,124	0,023
287,443	-44,214	-0,157	0,054
288,457	-12,741	-0,172	0,077
289,472	45,825	-0,169	-0,108
290,487	48,710	-0,292	-0,188
291,501	134,647	-0,098	-0,088
292,516	68,111	-0,167	-0,117
293,530	86,173	-0,138	-0,104
294,545	71,481	-0,204	-0,145
295,560	334,700	-0,032	0,043
296,574	-135,866	-0,090	0,007
297,589	-200,000	-0,016	-0,072
298,603	-49,507	-0,164	-0,053
299,618	102,168	-0,177	-0,142
300,633	301,548	-0,145	-0,184
301,647	-200,000	0,040	-0,160
302,662	82,980	-0,102	-0,076
303,676	256,172	-0,076	-0,090
304,691	78,869	-0,075	-0,055
305,706	69,096	-0,123	-0,087
306,720	800,000	-0,080	-0,185
307,735	62,367	-0,157	-0,108
308,749	-46,964	-0,072	-0,024
309,764	-103,726	-0,198	0,032
310,779	-109,263	-0,161	-0,023
311,793	-46,075	-0,224	-0,075
312,808	262,168	-0,171	-0,204
313,822	105,794	-0,101	-0,082
314,837	-110,240	-0,130	0,018
315,852	800,000	0,021	0,043
316,866	12,930	-0,061	-0,032
317,881	0,425	-0,173	-0,085
318,895	73,758	-0,137	-0,099
319,910	45,859	-0,091	-0,058
320,925	119,034	-0,229	-0,194
321,939	-200,000	-0,031	-0,099
322,954	-200,000	0,018	-0,160
323,968	181,140	-0,115	-0,116
324,983	-144,993	-0,098	0,006
325,997	-48,154	-0,153	-0,050
327,012	-72,396	-0,152	-0,038
328,027	-3,634	-0,173	-0,082
329,041	-200,000	-0,012	-0,119
330,056	-200,000	0,012	-0,053
331,070	800,000	-0,046	-0,111
332,085	-200,000	0,001	-0,149
333,100	222,466	-0,069	-0,076
334,114	275,715	-0,145	-0,177
335,129	800,000	-0,103	-0,204
336,143	800,000	-0,053	-0,149
337,158	800,000	-0,088	-0,212
338,173	637,664	-0,091	-0,160
339,187	800,000	-0,025	-0,071
340,202	-85,770	-0,111	-0,023
341,216	800,000	-0,115	-0,249
342,231	-8,124	-0,218	-0,100
343,246	335,587	-0,152	-0,203
344,260	508,717	-0,092	-0,148
345,275	-163,183	-0,077	-0,002
346,289	-164,615	-0,160	-0,005
347,304	-200,000	-0,005	-0,070
348,319	93,284	-0,053	-0,041
349,333	648,050	-0,090	-0,158
350,348	53,748	-0,204	-0,134
351,362	89,102	-0,020	-0,015
352,377	81,021	-0,069	-0,051
353,392	-70,555	-0,078	-0,020
354,406	800,000	-0,043	-0,122
355,421	206,170	1310,586	1396,988
356,435	158,554	1470,766	1397,475
