DTS Sentinel unit serial number:	SN410029Multiplexer serial number:	ORYXHardware model number:	OX2-SRSoftware version number:	ORYX F/W v4,00 Oryx Data Collector v3.7.2.0data status	okinstallation	B3 Nyhavnadifferential loss correction	single-endedforward channel	channel 1reverse channel	N/Adate	2023/12/03time	04:42:30forward acquisition time	300,00reverse acquisition time	0,00gamma	499,1914k internal	0,3201k external	0,3201temperature offset calibration	1,0000default loss term (dB/km)	0,3820temperature slope calibration	1,0000multiplexer offset coefficient	1,0000multiplexer slope coefficient	1,0000fibre end	0,00T internal ref (°C)	13,31T ext. ref 1 (°C)	-1,81T ext. ref 2 (°C)	-1,83length (m)	temperature (°C)	Stokes	anti-Stokes-744,400	171,837	-0,289	-0,303
-743,385	-200,000	0,052	0,433
-742,371	180,510	-0,111	-0,118
-741,356	-200,000	0,037	0,286
-740,342	291,780	-0,160	-0,213
-739,327	-200,000	0,032	0,179
-738,312	-200,000	-0,050	-0,164
-737,298	-200,000	-0,029	0,316
-736,283	800,000	-0,086	-0,221
-735,269	-200,000	-0,006	0,342
-734,254	-2,059	-0,261	-0,133
-733,239	109,080	-0,166	0,144
-732,225	-200,000	0,027	-0,295
-731,210	-53,473	0,046	-0,015
-730,196	-106,538	0,048	0,008
-729,181	-41,147	0,085	-0,032
-728,167	-200,000	0,005	-0,079
-727,152	800,000	-0,047	-0,142
-726,137	271,919	0,009	-0,011
-725,123	-32,702	-0,068	-0,028
-724,108	-38,264	-0,149	-0,057
-723,094	800,000	0,027	-0,082
-722,079	-72,714	-0,175	-0,046
-721,064	800,000	0,037	-0,101
-720,050	-120,597	-0,129	-0,016
-719,035	287,220	0,018	0,023
-718,021	-8,973	-0,117	-0,057
-717,006	37,066	-0,117	-0,075
-715,991	365,987	-0,034	0,050
-714,977	800,000	0,038	-0,095
-713,962	411,149	0,050	-0,078
-712,948	127,797	-0,122	0,113
-711,933	-56,518	-0,083	0,026
-710,918	-80,449	-0,125	0,030
-709,904	-36,705	-0,064	0,025
-708,889	-55,305	-0,085	-0,028
-707,875	20,508	-0,108	-0,063
-706,860	109,736	0,117	0,102
-705,845	100,876	-0,066	0,056
-704,831	700,933	-0,002	0,004
-703,816	-50,982	0,139	0,047
-702,802	142,208	-0,045	-0,043
-701,787	186,044	-0,038	-0,041
-700,772	-200,000	0,006	0,030
-699,758	195,454	0,087	0,096
-698,743	-200,000	0,002	0,081
-697,729	-129,410	0,041	0,004
-696,714	131,360	-0,046	0,043
-695,699	800,000	-0,025	-0,067
-694,685	-200,000	-0,024	0,165
-693,670	-148,124	-0,117	0,007
-692,656	109,879	0,094	0,082
-691,641	189,427	0,079	-0,086
-690,627	800,000	0,028	-0,077
-689,612	134,269	-0,152	-0,143
-688,597	71,883	-0,063	-0,047
-687,583	517,548	0,047	-0,080
-686,568	800,000	0,054	-0,160
-685,554	800,000	-0,096	-0,223
-684,539	800,000	0,050	-0,116
-683,524	-39,769	-0,052	-0,020
-682,510	93,083	0,122	0,100
-681,495	-200,000	0,004	-0,200
-680,481	800,000	-0,049	-0,123
-679,466	536,686	-0,081	-0,140
-678,451	-106,585	0,125	-0,020
-677,437	-200,000	0,005	-0,130
-676,422	-135,886	0,082	0,007
-675,408	-47,940	0,080	-0,028
-674,393	-200,000	0,029	0,145
-673,378	-200,000	-0,016	-0,096
-672,364	-179,520	-0,159	0,002
-671,349	-200,000	0,017	-0,238
-670,335	84,456	0,041	-0,033
-669,320	-200,000	0,007	0,025
-668,305	-200,000	-0,018	0,097
-667,291	-200,000	-0,035	0,118
-666,276	-39,203	-0,068	-0,026
-665,262	95,650	0,081	0,067
-664,247	-143,001	0,014	0,001
-663,232	77,872	-0,085	-0,065
-662,218	800,000	0,023	0,071
-661,203	-200,000	0,003	0,101
-660,189	92,074	0,030	0,024
-659,174	30,705	-0,078	-0,049
-658,159	72,921	0,043	0,033
-657,145	800,000	0,032	0,074
-656,130	-120,496	0,115	0,014
-655,116	-107,586	-0,079	0,012
-654,101	-2,536	-0,059	0,030
-653,086	-82,407	-0,023	0,005
-652,072	168,281	-0,015	0,016
-651,057	289,534	0,086	-0,113
-650,043	800,000	-0,038	-0,116
-649,028	-61,199	-0,169	-0,051
-648,014	-84,171	-0,114	0,026
-646,999	-200,000	0,013	-0,065
-645,984	-200,000	0,009	0,205
-644,970	38,164	-0,007	0,005
-643,955	800,000	-0,019	-0,056
-642,941	-200,000	-0,032	-0,122
-641,926	-15,806	-0,107	0,049
-640,911	396,106	-0,017	0,026
-639,897	800,000	0,050	0,149
-638,882	47,945	-0,061	0,041
-637,868	64,130	0,122	0,089
-636,853	380,885	-0,047	-0,070
-635,838	800,000	-0,039	-0,095
-634,824	189,795	-0,075	-0,082
-633,809	800,000	-0,032	-0,080
-632,795	-200,000	0,003	-0,059
-631,780	-9,172	-0,039	0,019
-630,765	-200,000	-0,017	0,068
-629,751	-200,000	0,011	-0,052
-628,736	37,451	0,058	-0,037
-627,722	-32,678	-0,054	0,022
-626,707	-151,589	-0,052	0,003
-625,692	-183,375	0,095	0,001
-624,678	141,633	-0,026	-0,025
-623,663	800,000	-0,019	-0,043
-622,649	-111,115	0,077	0,011
-621,634	193,645	0,038	-0,042
-620,619	-200,000	-0,015	-0,093
-619,605	-21,253	0,097	0,043
-618,590	800,000	0,015	-0,048
-617,576	800,000	0,061	0,174
-616,561	-11,909	-0,062	0,029
-615,546	800,000	-0,016	-0,036
-614,532	-38,039	-0,069	0,026
-613,517	-200,000	0,000	-0,147
-612,503	-132,571	-0,050	0,005
-611,488	800,000	0,013	-0,030
-610,474	-99,469	0,050	0,009
-609,459	-200,000	0,006	0,040
-608,444	-73,134	-0,075	-0,020
-607,430	201,257	0,034	-0,038
-606,415	-38,526	-0,076	-0,029
-605,401	-200,000	-0,006	-0,095
-604,386	131,633	0,048	-0,044
-603,371	-200,000	-0,003	0,047
-602,357	-119,131	-0,172	-0,021
-601,342	101,531	-0,092	0,078
-600,328	-200,000	0,005	-0,098
-599,313	175,181	-0,058	-0,061
-598,298	257,904	-0,024	0,030
-597,284	99,509	-0,061	-0,051
-596,269	-200,000	-0,027	-0,100
-595,255	-170,511	0,054	-0,001
-594,240	-58,584	-0,160	-0,050
-593,225	-110,433	-0,172	0,026
-592,211	800,000	0,015	-0,045
-591,196	69,274	-0,060	-0,044
-590,182	-30,105	0,038	-0,016
-589,167	-64,482	0,138	0,040
-588,152	800,000	0,019	-0,045
-587,138	800,000	-0,024	-0,061
-586,123	119,090	0,004	0,004
-585,109	53,884	-0,084	0,059
-584,094	103,143	0,011	0,010
-583,079	30,708	0,124	0,076
-582,065	-133,646	0,158	0,014
-581,050	-200,000	-0,024	0,078
-580,036	-200,000	-0,011	0,053
-579,021	-91,348	-0,057	0,012
-578,006	-158,266	-0,125	-0,005
-576,992	-164,394	0,026	0,001
-575,977	-27,603	0,061	0,025
-574,963	46,815	0,068	-0,045
-573,948	-200,000	0,014	0,138
-572,934	179,160	-0,099	-0,105
-571,919	-200,000	-0,032	-0,144
-570,904	-200,000	0,016	-0,085
-569,890	-200,000	0,016	-0,165
-568,875	218,006	0,070	-0,081
-567,861	-172,162	-0,058	0,001
-566,846	458,193	-0,020	0,033
-565,831	49,757	0,051	0,035
-564,817	-200,000	-0,044	-0,187
-563,802	168,332	-0,188	-0,194
-562,788	-162,300	0,062	-0,002
-561,773	329,985	0,126	-0,176
-560,758	356,133	0,028	0,041
-559,744	694,691	-0,034	0,064
-558,729	433,428	0,072	-0,114
-557,715	257,255	0,044	-0,054
-556,700	-189,968	-0,085	-0,001
-555,685	-180,083	-0,042	-0,001
-554,671	-71,025	0,040	0,011
-553,656	-75,108	0,154	-0,039
-552,642	-200,000	0,019	0,068
-551,627	181,342	-0,080	0,085
-550,612	10,127	-0,177	-0,097
-549,598	658,931	-0,028	0,052
-548,583	-200,000	0,003	0,166
-547,569	599,036	-0,022	-0,039
-546,554	-200,000	-0,002	0,075
-545,539	-173,664	0,062	0,001
-544,525	238,030	-0,044	0,053
-543,510	800,000	-0,028	0,063
-542,496	-200,000	-0,002	-0,009
-541,481	782,931	0,046	-0,092
-540,466	43,705	0,148	0,098
-539,452	131,035	0,055	-0,051
-538,437	-200,000	0,001	-0,042
-537,423	164,170	-0,078	0,079
-536,408	800,000	0,012	0,030
-535,393	-173,726	0,170	0,004
-534,379	800,000	-0,064	-0,152
-533,364	-200,000	0,028	-0,115
-532,350	-63,743	0,077	-0,023
-531,335	14,642	0,082	-0,046
-530,321	223,734	0,108	0,126
-529,306	20,651	-0,058	0,033
-528,291	-119,833	-0,126	0,015
-527,277	464,688	-0,076	-0,124
-526,262	17,599	-0,028	0,016
-525,248	-117,716	-0,050	-0,006
-524,233	304,258	-0,051	-0,068
-523,218	800,000	0,048	-0,103
-522,204	189,959	-0,115	0,124
-521,189	42,195	0,085	-0,055
-520,175	-107,343	-0,106	-0,017
-519,160	-101,981	0,084	0,014
-518,145	-143,019	-0,143	-0,010
-517,131	-200,000	0,018	-0,061
-516,116	-200,000	-0,002	0,139
-515,102	-100,218	-0,122	0,022
-514,087	76,607	-0,085	-0,065
-513,072	-176,594	-0,071	-0,001
-512,058	-82,128	0,077	-0,018
-511,043	-71,210	0,069	-0,019
-510,029	-116,742	0,155	-0,020
-509,014	800,000	-0,106	0,217
-507,999	-200,000	-0,017	0,061
-506,985	771,435	-0,057	-0,113
-505,970	-23,732	0,128	-0,055
-504,956	244,334	0,038	0,046
-503,941	-200,000	-0,002	-0,041
-502,926	677,159	0,037	0,070
-501,912	121,785	0,040	0,036
-500,897	-200,000	0,001	0,031
-499,883	-200,000	-0,012	0,081
-498,868	14,187	-0,066	0,037
-497,853	-104,535	0,070	-0,012
-496,839	-130,248	-0,115	0,011
-495,824	800,000	-0,035	-0,089
-494,810	87,796	-0,129	0,103
-493,795	349,459	-0,086	0,122
-492,781	-20,466	0,049	-0,022
-491,766	-7,166	-0,023	-0,011
-490,751	800,000	-0,062	-0,163
-489,737	-200,000	-0,002	-0,070
-488,722	-97,216	0,088	0,016
-487,708	3,583	-0,155	0,081
-486,693	-200,000	0,058	0,000
-485,678	-200,000	-0,023	0,118
-484,664	-13,263	0,098	0,046
-483,649	-56,876	-0,060	-0,019
-482,635	-200,000	-0,026	-0,148
-481,620	-200,000	0,032	0,117
-480,605	206,764	0,111	0,125
-479,591	-200,000	-0,030	0,099
-478,576	-200,000	-0,005	0,079
-477,562	-200,000	0,007	-0,147
-476,547	-47,158	0,046	0,016
-475,532	-53,664	0,014	0,005
-474,518	-21,972	-0,034	0,015
-473,503	800,000	0,037	0,079
-472,489	-146,706	0,138	0,008
-471,474	-36,474	0,119	-0,046
-470,459	240,578	0,042	-0,050
-469,445	-200,000	-0,018	0,109
-468,430	-200,000	0,002	-0,082
-467,416	-114,321	0,108	-0,015
-466,401	242,121	0,019	0,023
-465,386	-77,527	0,225	-0,056
-464,372	142,058	-0,116	-0,111
-463,357	-200,000	-0,033	-0,169
-462,343	800,000	0,033	-0,091
-461,328	-200,000	-0,007	-0,066
-460,313	-200,000	-0,016	-0,057
-459,299	-200,000	-0,045	0,156
-458,284	272,847	0,029	0,037
-457,270	-200,000	-0,012	-0,098
-456,255	-200,000	0,013	0,093
-455,241	229,812	0,119	-0,140
-454,226	-18,989	-0,182	-0,081
-453,211	-111,375	-0,141	-0,020
-452,197	800,000	0,068	0,147
-451,182	221,502	0,096	0,111
-450,168	-200,000	-0,001	0,065
-449,153	104,788	-0,127	-0,107
-448,138	201,833	0,076	0,085
-447,124	-130,666	-0,188	-0,018
-446,109	214,895	0,069	0,079
-445,095	-55,630	-0,103	-0,033
-444,080	800,000	0,085	0,172
-443,065	-200,000	-0,002	0,084
-442,051	380,512	-0,041	-0,060
-441,036	26,212	-0,024	-0,014
-440,022	-200,000	0,014	-0,092
-439,007	-28,946	-0,160	-0,066
-437,992	-73,124	0,051	-0,013
-436,978	-200,000	-0,014	0,080
-435,963	-116,727	0,063	-0,008
-434,949	-104,189	-0,006	0,001
-433,934	-29,064	0,084	-0,034
-432,919	-200,000	-0,018	-0,083
-431,905	424,518	-0,037	-0,057
-430,890	-79,392	0,064	0,016
-429,876	-80,032	-0,130	-0,031
-428,861	655,820	-0,038	0,070
-427,846	255,751	-0,094	-0,116
-426,832	73,705	-0,060	0,045
-425,817	-200,000	-0,020	0,143
-424,803	-200,000	-0,001	-0,027
-423,788	-111,268	-0,087	0,013
-422,773	-200,000	0,009	0,094
-421,759	-100,292	0,084	0,015
-420,744	2,700	0,047	-0,024
-419,730	-200,000	-0,005	-0,021
-418,715	800,000	-0,063	-0,152
-417,701	-9,652	-0,134	0,064
-416,686	-77,677	0,072	-0,018
-415,671	-200,000	-0,001	-0,039
-414,657	141,922	-0,057	0,055
-413,642	64,656	0,027	-0,020
-412,628	-200,000	-0,019	-0,061
-411,613	-200,000	-0,020	0,088
-410,598	89,519	0,034	-0,028
-409,584	-102,254	0,112	-0,019
-408,569	800,000	0,038	0,095
-407,555	155,609	0,054	0,053
-406,540	-200,000	0,009	0,154
-405,525	548,405	-0,013	-0,023
-404,511	-65,636	-0,016	0,005
-403,496	-200,000	0,018	-0,065
-402,482	96,018	0,047	0,039
-401,467	-136,154	0,093	0,008
-400,452	144,715	0,088	0,085
-399,438	-200,000	0,001	0,252
-398,423	-200,000	-0,010	-0,043
-397,409	800,000	0,035	-0,093
-396,394	775,738	-0,103	-0,202
-395,379	-200,000	-0,011	-0,121
-394,365	-141,666	0,100	0,007
-393,350	10,573	0,150	0,082
-392,336	424,039	0,132	0,205
-391,321	163,994	-0,151	0,153
-390,306	-200,000	-0,004	-0,051
-389,292	222,294	-0,043	0,049
-388,277	-200,000	0,007	0,102
-387,263	-47,582	0,033	0,011
-386,248	45,081	-0,055	-0,036
-385,233	-21,550	0,107	-0,047
-384,219	800,000	-0,033	-0,084
-383,204	800,000	0,045	-0,120
-382,190	248,247	0,066	-0,081
-381,175	-200,000	-0,017	-0,086
-380,160	-200,000	-0,011	0,087
-379,146	800,000	0,017	0,040
-378,131	18,948	0,059	0,034
-377,117	76,593	0,107	-0,081
-376,102	-127,909	-0,152	0,016
-375,088	-4,240	0,071	0,035
-374,073	246,561	-0,039	-0,047
-373,058	-93,047	-0,046	-0,009
-372,044	-26,084	0,037	-0,015
-371,029	-59,429	-0,078	-0,024
-370,015	20,179	0,148	0,086
-369,000	-200,000	0,006	0,026
-367,985	159,314	-0,091	-0,090
-366,971	-45,340	0,064	0,022
-365,956	313,980	0,052	-0,070
-364,942	-105,628	0,114	0,018
-363,927	800,000	-0,062	0,153
-362,912	-200,000	0,027	0,097
-361,898	-97,842	-0,132	0,024
-360,883	800,000	-0,072	-0,223
-359,869	800,000	0,034	-0,085
-358,854	230,640	0,060	-0,071
-357,839	-49,594	-0,069	0,024
-356,825	-92,677	0,081	0,016
-355,810	18,865	0,075	0,043
-354,796	260,780	-0,104	-0,129
-353,781	-3,528	-0,122	-0,060
-352,766	366,797	0,038	0,055
-351,752	800,000	-0,046	-0,116
-350,737	-200,000	0,014	0,124
-349,723	-90,873	0,107	-0,022
-348,708	-87,528	0,156	0,034
-347,693	800,000	-0,014	0,040
-346,679	-61,361	0,033	-0,010
-345,664	632,608	-0,040	-0,073
-344,650	-72,013	0,108	0,029
-343,635	627,604	0,061	0,111
-342,620	800,000	0,046	0,111
-341,606	11,130	0,124	0,068
-340,591	-167,988	-0,075	0,002
-339,577	26,937	-0,108	-0,065
-338,562	-156,799	0,088	0,004
-337,548	-200,000	-0,006	0,139
-336,533	-200,000	-0,017	0,078
-335,518	-200,000	0,001	0,046
-334,504	421,507	0,105	0,162
-333,489	77,933	0,102	0,078
-332,475	-118,833	-0,079	0,010
-331,460	-44,401	-0,046	-0,016
-330,445	-200,000	-0,019	0,151
-329,431	52,160	0,078	0,053
-328,416	298,594	-0,037	0,048
-327,402	1,932	-0,001	-0,001
-326,387	61,681	0,022	-0,016
-325,372	114,826	-0,056	-0,049
-324,358	-21,360	0,108	0,047
-323,343	100,187	-0,030	-0,025
-322,329	-131,067	0,055	0,005
-321,314	-124,182	0,090	0,010
-320,299	-20,265	0,060	0,026
-319,285	-101,208	0,027	0,005
-318,270	-200,000	0,002	-0,074
-317,256	-128,499	0,054	0,005
-316,241	-200,000	0,008	-0,150
-315,226	800,000	-0,030	0,083
-314,212	39,361	0,062	-0,040
-313,197	297,757	-0,149	-0,196
-312,183	-200,000	0,013	0,076
-311,168	176,611	0,029	0,030
-310,153	-200,000	-0,001	-0,054
-309,139	-200,000	-0,013	-0,093
-308,124	-200,000	0,018	0,066
-307,110	196,908	0,023	-0,025
-306,095	-200,000	-0,001	-0,052
-305,080	-200,000	0,005	0,061
-304,066	-76,112	0,097	0,024
-303,051	-41,659	-0,064	-0,023
-302,037	-23,304	-0,050	-0,021
-301,022	34,695	0,044	0,027
-300,008	800,000	-0,039	-0,107
-298,993	97,620	0,096	0,079
-297,978	-184,955	-0,080	0,001
-296,964	-12,821	-0,031	0,014
-295,949	-26,821	-0,137	-0,057
-294,935	-185,406	-0,012	-0,000
-293,920	220,258	0,044	-0,050
-292,905	800,000	0,036	-0,106
-291,891	212,258	-0,004	0,004
-290,876	17,185	-0,073	-0,041
-289,862	67,084	-0,099	-0,072
-288,847	100,590	-0,064	0,053
-287,832	14,328	-0,156	-0,087
-286,818	-148,121	-0,075	-0,004
-285,803	162,324	0,061	-0,062
-284,789	164,820	0,016	-0,016
-283,774	-200,000	0,029	0,141
-282,759	-80,048	0,110	-0,026
-281,745	800,000	0,052	0,112
-280,730	-139,563	-0,170	-0,013
-279,716	42,540	0,091	0,059
-278,701	409,122	-0,035	-0,053
-277,686	-153,061	0,075	0,004
-276,672	-200,000	0,060	0,194
-275,657	-146,355	-0,132	0,008
-274,643	-149,124	-0,054	-0,003
-273,628	105,202	-0,068	0,058
-272,613	87,273	0,044	0,034
-271,599	270,254	0,028	0,035
-270,584	85,695	0,139	0,109
-269,570	-200,000	-0,043	0,152
-268,555	-68,289	0,106	-0,029
-267,540	243,391	-0,023	0,027
-266,526	116,066	0,090	-0,079
-265,511	-75,905	0,123	-0,031
-264,497	-27,271	0,033	0,014
-263,482	800,000	-0,033	-0,098
-262,467	-42,058	0,048	-0,017
-261,453	541,903	-0,035	0,060
-260,438	800,000	-0,111	-0,270
-259,424	-184,642	-0,156	0,002
-258,409	13,786	0,086	0,047
-257,395	29,391	-0,040	-0,024
-256,380	-200,000	0,042	-0,165
-255,365	800,000	0,061	0,144
-254,351	99,921	-0,059	-0,049
-253,336	800,000	-0,050	0,098
-252,322	800,000	0,030	-0,091
-251,307	186,657	-0,070	0,075
-250,292	73,494	0,034	0,025
-249,278	60,275	0,123	0,087
-248,263	-200,000	0,049	0,175
-247,249	175,621	-0,052	-0,054
-246,234	-200,000	-0,003	-0,109
-245,219	122,684	0,183	-0,163
-244,205	-51,065	-0,101	0,033
-243,190	-79,935	-0,016	0,004
-242,176	-163,557	0,099	-0,003
-241,161	-200,000	-0,032	0,157
-240,146	46,797	0,116	0,077
-239,132	-200,000	0,004	0,055
-238,117	10,441	0,058	-0,031
-237,103	332,168	-0,048	-0,066
-236,088	270,232	0,053	0,067
-235,073	-82,911	-0,059	-0,013
-234,059	-66,865	0,070	-0,020
-233,044	539,981	-0,050	0,085
-232,030	-200,000	-0,019	-0,076
-231,015	-53,951	-0,079	0,026
-230,000	27,215	-0,147	-0,088
-228,986	-41,245	0,128	0,047
-227,971	-47,964	-0,151	0,052
-226,957	335,821	0,028	-0,039
-225,942	-200,000	0,009	0,031
-224,927	153,391	-0,139	0,136
-223,913	-90,651	0,026	0,005
-222,898	20,739	-0,162	-0,093
-221,884	23,219	0,054	-0,032
-220,869	281,298	-0,007	-0,009
-219,855	204,018	-0,045	-0,050
-218,840	46,572	0,041	-0,027
-217,825	-200,000	-0,007	0,129
-216,811	-38,847	-0,127	0,048
-215,796	-17,995	-0,068	0,030
-214,782	-200,000	0,013	-0,099
-213,767	308,680	-0,093	-0,123
-212,752	-65,333	0,095	-0,027
-211,738	800,000	0,044	-0,116
-210,723	340,374	0,017	-0,024
-209,709	-111,066	-0,066	0,009
-208,694	800,000	0,045	0,112
-207,679	-200,000	-0,015	0,053
-206,665	-63,618	-0,016	0,005
-205,650	800,000	0,049	0,115
-204,636	-34,762	0,153	0,059
-203,621	783,569	0,029	-0,057
-202,606	108,509	0,065	0,055
-201,592	-15,803	-0,071	-0,032
-200,577	125,263	-0,038	-0,034
-199,563	225,559	0,075	0,087
-198,548	46,803	-0,150	0,099
-197,533	-200,000	0,026	-0,119
-196,519	291,279	0,023	-0,029
-195,504	-200,000	-0,027	-0,125
-194,490	-95,522	0,042	-0,008
-193,475	229,908	-0,079	-0,092
-192,460	-200,000	-0,015	-0,142
-191,446	-200,000	0,045	0,175
-190,431	41,726	0,114	0,074
-189,417	46,189	0,096	0,063
-188,402	-98,749	-0,059	0,011
-187,387	-85,781	-0,076	0,017
-186,373	-144,093	-0,127	0,008
-185,358	-164,804	0,092	0,003
-184,344	-100,361	0,136	0,024
-183,329	-200,000	-0,002	-0,032
-182,315	316,173	0,029	-0,039
-181,300	195,226	0,061	-0,066
-180,285	-117,501	-0,115	-0,015
-179,271	-156,976	-0,035	0,001
-178,256	-39,775	0,043	0,016
-177,242	-168,822	0,024	0,001
-176,227	800,000	-0,056	-0,132
-175,212	-76,446	0,171	-0,042
-174,198	21,043	-0,073	-0,042
-173,183	0,494	0,021	0,011
-172,169	-44,049	-0,075	0,027
-171,154	-148,584	0,048	-0,003
-170,139	800,000	-0,013	0,031
-169,125	5,321	0,058	-0,030
-168,110	34,025	0,036	0,022
-167,096	-88,812	-0,099	0,021
-166,081	501,019	0,041	-0,067
-165,066	431,748	-0,039	-0,060
-164,052	358,014	0,041	0,058
-163,037	47,492	0,077	0,051
-162,023	-200,000	-0,047	0,179
-161,008	-146,978	-0,010	0,001
-159,993	43,565	0,105	-0,068
-158,979	38,693	-0,111	0,070
-157,964	800,000	-0,023	0,070
-156,950	-200,000	0,020	-0,106
-155,935	-200,000	-0,042	0,134
-154,920	-90,390	0,134	-0,027
-153,906	-4,446	-0,028	0,014
-152,891	-200,000	0,031	0,124
-151,877	535,033	-0,103	-0,175
-150,862	265,919	0,060	-0,075
-149,847	-200,000	-0,008	-0,146
-148,833	-43,694	-0,083	-0,029
-147,818	-200,000	0,029	0,168
-146,804	225,135	-0,026	-0,030
-145,789	-115,715	0,047	-0,006
-144,775	71,545	-0,098	0,072
-143,760	-154,985	-0,137	0,006
-142,745	295,759	-0,051	-0,066
-141,731	95,294	-0,034	0,027
-140,716	800,000	-0,025	0,060
-139,702	800,000	-0,054	0,139
-138,687	158,869	-0,091	0,089
-137,672	-78,551	-0,116	0,028
-136,658	-122,806	-0,113	-0,013
-135,643	-132,880	0,145	0,013
-134,629	-200,000	-0,049	0,209
-133,614	176,949	0,071	0,074
-132,599	261,208	0,091	0,112
-131,585	120,482	0,062	-0,055
-130,570	-200,000	0,027	-0,141
-129,556	800,000	-0,041	-0,094
-128,541	40,307	-0,099	0,063
-127,526	171,013	-0,009	0,009
-126,512	800,000	0,022	0,056
-125,497	-200,000	0,003	0,144
-124,483	-123,051	0,047	-0,005
-123,468	-48,827	-0,061	-0,021
-122,453	90,864	-0,025	-0,020
-121,439	324,656	-0,083	-0,113
-120,424	162,344	-0,037	0,037
-119,410	17,153	0,120	0,068
-118,395	296,249	-0,042	0,055
-117,380	17,612	-0,031	0,018
-116,366	160,380	0,119	0,118
-115,351	-200,000	0,016	-0,064
-114,337	-14,247	0,087	-0,040
-113,322	-88,542	-0,118	0,025
-112,307	-124,250	0,138	-0,015
-111,293	-200,000	-0,004	-0,047
-110,278	59,014	0,094	0,066
-109,264	-72,318	0,104	-0,027
-108,249	-200,000	0,013	-0,055
-107,234	-155,349	-0,081	0,004
-106,220	-153,301	0,133	0,006
-105,205	-175,860	-0,034	-0,001
-104,191	-123,897	0,151	-0,017
-103,176	800,000	-0,053	0,120
-102,162	-141,397	0,108	0,008
-101,147	163,875	-0,074	0,074
-100,132	-200,000	0,003	-0,036
-99,118	513,527	0,031	-0,052
-98,103	216,260	0,035	-0,039
-97,089	39,261	0,068	0,043
-96,074	41,927	0,075	-0,048
-95,059	633,542	-0,042	0,075
-94,045	69,909	-0,086	0,062
-93,030	-200,000	0,007	-0,028
-92,016	-200,000	-0,023	-0,102
-91,001	-200,000	-0,027	0,123
-89,986	-200,000	-0,003	-0,071
-88,972	206,545	0,106	-0,117
-87,957	-41,887	0,019	-0,007
-86,943	-200,000	-0,008	-0,052
-85,928	479,162	0,019	0,031
-84,913	-93,310	-0,131	-0,025
-83,899	85,997	0,064	0,050
-82,884	800,000	0,055	0,113
-81,870	800,000	0,058	0,144
-80,855	239,897	0,064	-0,076
-79,840	-105,598	-0,105	0,017
-78,826	-112,833	-0,127	0,018
-77,811	74,384	-0,070	-0,052
-76,797	57,414	-0,124	-0,086
-75,782	-200,000	-0,016	0,070
-74,767	-123,128	0,034	-0,004
-73,753	122,547	-0,058	-0,051
-72,738	-46,937	-0,020	-0,007
-71,724	275,560	-0,127	0,160
-70,709	-8,373	0,081	-0,038
-69,694	62,814	0,079	-0,056
-68,680	-200,000	-0,000	0,127
-67,665	-18,779	-0,020	-0,009
-66,651	-200,000	-0,001	-0,052
-65,636	207,575	-0,030	-0,034
-64,622	-200,000	-0,021	-0,083
-63,607	-200,000	-0,025	-0,122
-62,592	-68,518	-0,134	-0,037
-61,578	-118,776	0,147	-0,018
-60,563	-134,654	-0,099	0,008
-59,549	382,119	0,056	0,082
-58,534	-15,611	-1,595	-0,718
-57,519	413,502	-1,339	-2,024
-56,505	-200,000	-0,517	-4,511
-55,490	135,184	1,034	0,952
-54,476	800,000	5,082	11,395
-53,461	-200,000	19,190	320,759
-52,446	-200,000	740,590	2335,931
-51,432	573,638	1655,756	2870,291
-50,417	78,309	1671,604	1262,471
-49,403	21,328	1544,502	886,137
-48,388	15,181	1466,901	811,711
-47,373	18,044	1457,199	820,153
-46,359	16,744	1447,286	808,301
-45,344	13,474	1442,172	789,747
-44,330	13,370	1440,409	788,251
-43,315	13,347	1438,651	787,145
-42,300	13,371	1436,939	786,294
-41,286	13,400	1435,763	785,755
-40,271	13,326	1434,304	784,574
-39,257	13,332	1433,352	784,051
-38,242	13,379	1431,996	783,502
-37,227	13,406	1430,718	782,903
-36,213	13,408	1429,295	782,102
-35,198	13,398	1428,344	781,501
-34,184	13,467	1427,121	781,128
-33,169	13,386	1425,830	780,007
-32,154	13,461	1424,792	779,762
-31,140	13,433	1423,623	778,962
-30,125	13,464	1422,410	778,410
-29,111	13,437	1421,143	777,562
-28,096	13,416	1420,251	776,942
-27,082	13,393	1418,958	776,094
-26,067	13,348	1418,081	775,372
-25,052	13,339	1416,803	774,603
-24,038	13,324	1415,847	773,978
-23,023	13,352	1414,803	773,505
-22,009	13,300	1413,975	772,781
-20,994	13,291	1413,011	772,179
-19,979	13,304	1412,055	771,690
-18,965	13,258	1411,265	771,007
-17,950	13,268	1410,298	770,496
-16,936	13,251	1409,505	769,953
-15,921	13,265	1408,144	769,245
-14,906	13,245	1407,402	768,718
-13,892	13,262	1406,289	768,159
-12,877	13,207	1405,590	767,487
-11,863	13,229	1404,652	767,048
-10,848	13,235	1403,825	766,596
-9,833	13,197	1402,716	765,781
-8,819	13,189	1401,989	765,315
-7,804	13,122	1401,338	764,619
-6,790	13,120	1400,203	763,959
-5,775	13,166	1398,990	763,480
-4,760	13,166	1397,896	762,855
-3,746	13,140	1397,210	762,330
-2,731	13,130	1396,429	761,827
-1,717	13,101	1395,603	761,212
-0,702	13,071	1393,566	759,931
0,313	16,936	1310,569	732,579
1,327	33,267	704,214	431,412
2,342	51,164	123,430	82,720
3,356	2,299	16,680	8,506
4,371	15,753	3,302	1,832
5,386	-2,839	0,668	0,329
6,400	398,526	0,125	0,186
7,415	-46,020	-0,281	-0,097
8,429	-95,827	-0,206	-0,038
9,444	58,051	-0,350	-0,242
10,459	15,709	-0,279	-0,155
11,473	49,013	-0,331	-0,219
12,488	125,234	-0,222	-0,197
13,502	47,612	-0,244	-0,161
14,517	-18,600	-0,412	-0,181
15,531	15,078	-0,348	-0,192
16,546	177,658	-0,320	-0,330
17,561	91,226	-0,463	-0,367
18,575	-19,529	-0,209	-0,091
19,590	139,759	-0,260	-0,242
20,604	-36,970	-0,259	-0,098
21,619	290,093	-0,306	-0,394
22,634	87,940	-0,457	-0,358
23,648	25,118	-0,556	-0,325
24,663	94,823	-0,359	-0,288
25,677	34,907	-0,336	-0,207
26,692	-79,781	-0,380	-0,090
27,707	-35,489	-0,465	-0,178
28,721	30,813	-0,351	-0,212
29,736	-39,977	-0,473	-0,173
30,750	177,724	-0,218	-0,224
31,765	27,073	-0,300	-0,177
32,780	320,760	-0,261	-0,351
33,794	5,838	-0,396	-0,206
34,809	92,333	-0,423	-0,336
35,823	-23,146	-0,382	-0,161
36,838	-30,149	-0,407	-0,162
37,853	80,775	-0,413	-0,314
38,867	-13,320	-0,444	-0,203
39,882	107,683	-0,372	-0,312
40,896	136,540	-0,248	-0,228
41,911	26,044	-0,328	-0,193
42,926	258,738	-0,167	-0,203
43,940	176,776	-0,288	-0,296
44,955	173,342	-0,335	-0,340
45,969	165,270	-0,294	-0,293
46,984	60,203	-0,395	-0,275
47,999	225,156	-0,345	-0,394
49,013	32,757	-0,253	-0,154
50,028	-14,830	-0,427	-0,192
51,042	-22,517	-0,414	-0,176
52,057	-1,679	-0,369	-0,182
53,071	131,817	-0,315	-0,286
54,086	-70,551	-0,421	-0,111
55,101	6,068	-0,366	-0,191
56,115	-58,730	-0,398	-0,121
57,130	72,608	-0,371	-0,272
58,144	-110,820	-0,345	-0,050
59,159	-29,423	-0,427	-0,171
60,174	76,224	-0,385	-0,287
61,188	-12,731	-0,488	-0,223
62,203	-79,449	-0,290	-0,068
63,217	36,046	-0,347	-0,215
64,232	-10,945	-0,425	-0,197
65,247	161,994	-0,315	-0,310
66,261	147,152	-0,346	-0,328
67,276	215,926	-0,326	-0,365
68,290	-8,696	-0,348	-0,164
69,305	85,717	-0,320	-0,248
70,320	-53,048	-0,302	-0,097
71,334	-45,251	-0,215	-0,075
72,349	117,121	-0,192	-0,166
73,363	144,838	-0,354	-0,333
74,378	-195,407	-0,252	0,001
75,393	-80,637	-0,357	-0,083
76,407	99,411	-0,269	-0,218
77,422	66,121	-0,210	-0,150
78,436	93,696	-0,296	-0,236
79,451	-13,062	-0,228	-0,104
80,466	58,390	-0,323	-0,222
81,480	166,404	-0,358	-0,356
82,495	-37,135	-0,266	-0,099
83,509	87,465	-0,243	-0,189
84,524	153,168	-0,231	-0,222
85,539	-150,452	-0,442	-0,023
86,553	-45,383	-0,170	-0,059
87,568	107,672	-0,372	-0,311
88,582	132,885	-0,291	-0,264
89,597	-16,230	-0,267	-0,119
90,611	105,848	-0,211	-0,176
91,626	-3,863	-0,245	-0,119
92,641	-109,750	-0,324	-0,047
93,655	29,889	-0,278	-0,166
94,670	74,929	-0,243	-0,180
95,684	41,165	-0,382	-0,242
96,699	10,799	-0,241	-0,129
97,714	-8,105	-0,239	-0,113
98,728	221,115	-0,311	-0,351
99,743	-16,643	-0,251	-0,111
100,757	-31,551	-0,370	-0,145
101,772	-28,056	-0,366	-0,148
102,787	112,217	-0,238	-0,202
103,801	100,396	-0,297	-0,241
104,816	166,907	-0,281	-0,280
105,830	2,530	-0,229	-0,116
106,845	153,235	-0,106	-0,102
107,860	-5,613	-0,276	-0,132
108,874	363,073	-0,150	-0,211
109,889	-3,114	-0,296	-0,144
110,903	-41,912	-0,317	-0,113
111,918	-71,678	-0,330	-0,086
112,933	9,899	-0,255	-0,135
113,947	62,255	-0,245	-0,171
114,962	-108,279	-0,170	-0,025
115,976	-17,454	-0,217	-0,095
116,991	74,075	-0,229	-0,168
118,006	23,382	-0,344	-0,198
119,020	112,555	-0,284	-0,241
120,035	110,561	-0,195	-0,164
121,049	10,044	-0,280	-0,149
122,064	94,609	-0,310	-0,246
123,079	156,331	-0,270	-0,261
124,093	404,202	-0,280	-0,414
125,108	79,755	-0,308	-0,231
126,122	351,048	-0,164	-0,228
127,137	-15,539	-0,280	-0,125
128,151	483,181	-0,207	-0,331
129,166	109,640	-0,203	-0,170
130,181	147,492	-0,224	-0,211
131,195	280,604	-0,254	-0,318
132,210	363,468	-0,239	-0,337
133,224	94,402	-0,176	-0,139
134,239	94,729	-0,211	-0,168
135,254	127,633	-0,153	-0,136
136,268	-89,290	-0,270	-0,055
137,283	219,720	-0,154	-0,173
138,297	132,800	-0,190	-0,171
139,312	102,942	-0,348	-0,284
140,327	-34,928	-0,183	-0,069
141,341	-14,328	-0,193	-0,087
142,356	697,986	-0,128	-0,237
143,370	213,886	-0,207	-0,229
144,385	-67,483	-0,287	-0,078
145,400	103,340	-0,293	-0,240
146,414	85,351	-0,260	-0,199
147,429	294,176	-0,253	-0,324
148,443	93,314	-0,254	-0,201
149,458	-41,817	-0,200	-0,071
150,473	-38,053	-0,313	-0,115
151,487	29,199	-0,152	-0,090
152,502	148,500	-0,325	-0,307
153,516	106,269	-0,285	-0,236
154,531	68,400	-0,401	-0,287
155,546	800,000	-0,067	-0,178
156,560	108,803	-0,162	-0,136
157,575	-49,402	-0,151	0,050
158,589	1,598	-0,245	-0,122
159,604	126,657	-0,216	-0,191
160,619	110,404	-0,289	-0,243
161,633	64,261	-0,198	-0,139
162,648	186,870	-0,145	-0,151
163,662	800,000	-0,111	-0,235
164,677	12,783	-0,221	-0,119
165,692	584,438	-0,143	-0,247
166,706	313,812	-0,219	-0,288
167,721	71,912	-0,197	-0,142
168,735	-60,136	-0,232	-0,069
169,750	-12,344	-0,216	-0,098
170,764	71,405	-0,163	-0,118
171,779	-75,130	-0,217	-0,054
172,794	102,720	-0,271	-0,221
173,808	-61,624	-0,331	-0,096
174,823	64,739	-0,295	-0,207
175,837	244,280	-0,198	-0,232
176,852	-53,585	-0,263	-0,083
177,867	180,796	-0,185	-0,190
178,881	202,056	-0,192	-0,206
179,896	686,181	-0,113	-0,207
180,910	-47,843	-0,333	-0,112
181,925	-125,933	-0,267	-0,028
182,940	-123,069	-0,288	-0,032
183,954	94,691	-0,235	-0,186
184,969	239,211	-0,175	-0,203
185,983	140,888	-0,142	-0,131
186,998	-62,293	-0,213	-0,061
188,013	744,285	-0,115	-0,217
189,027	407,319	-0,166	-0,244
190,042	191,224	-0,218	-0,229
191,056	161,516	-0,164	-0,160
192,071	503,246	-0,158	-0,256
193,086	-200,000	-0,052	-0,173
194,100	40,637	-0,082	-0,051
195,115	352,200	-0,211	-0,292
196,129	-66,221	-0,314	-0,086
197,144	131,528	-0,241	-0,216
198,159	88,451	-0,256	-0,198
199,173	-9,926	-0,270	-0,124
200,188	62,660	-0,129	-0,089
201,202	684,280	-0,117	-0,214
202,217	-93,496	-0,134	-0,026
203,232	228,071	-0,155	-0,176
204,246	-78,709	-0,245	-0,058
205,261	35,947	-0,308	-0,188
206,275	-128,265	-0,149	-0,015
207,290	-33,350	-0,164	-0,063
208,304	10,285	-0,129	-0,068
209,319	421,404	-0,176	-0,262
210,334	68,411	-0,150	-0,106
211,348	4,515	-0,263	-0,134
212,363	-56,633	-0,305	-0,093
213,377	2,803	-0,153	-0,077
214,392	10,148	-0,223	-0,117
215,407	42,612	-0,185	-0,117
216,421	342,684	-0,088	-0,120
217,436	116,742	-0,209	-0,178
218,450	100,902	-0,217	-0,175
219,465	-44,383	-0,449	-0,155
220,480	36,407	-0,208	-0,127
221,494	-0,158	-0,245	-0,121
222,509	-29,449	-0,298	-0,118
223,523	75,809	-0,153	-0,112
224,538	162,756	-0,258	-0,251
225,553	37,304	-0,241	-0,148
226,567	-76,480	-0,248	-0,060
227,582	74,014	-0,212	-0,154
228,596	782,487	-0,079	-0,151
229,611	-200,000	-0,061	-0,284
230,626	71,584	-0,152	-0,109
231,640	434,983	-0,043	-0,065
232,655	-132,968	-0,367	-0,032
233,669	-200,000	-0,062	-0,220
234,684	597,766	-0,116	-0,201
235,699	114,267	-0,205	-0,173
236,713	-200,000	-0,031	-0,104
237,728	-49,529	-0,215	-0,071
238,742	57,662	-0,240	-0,163
239,757	144,617	-0,085	-0,079
240,772	175,843	-0,228	-0,230
241,786	432,768	-0,092	-0,139
242,801	298,560	-0,107	-0,136
243,815	131,924	-0,191	-0,170
244,830	-57,317	-0,098	-0,030
245,844	58,219	-0,191	-0,129
246,859	-46,128	-0,180	-0,061
247,874	-47,896	-0,281	-0,094
248,888	445,003	-0,155	-0,237
249,903	230,492	-0,175	-0,199
250,917	-49,030	-0,186	-0,061
251,932	5,657	-0,135	-0,069
252,947	-110,373	-0,144	-0,021
253,961	-22,749	-0,252	-0,105
254,976	69,933	-0,208	-0,148
255,990	17,969	-0,169	-0,093
257,005	308,934	-0,110	-0,142
258,020	204,857	-0,128	-0,137
259,034	-180,297	-0,166	0,002
260,049	457,783	-0,052	-0,080
261,063	142,033	-0,170	-0,156
262,078	311,932	-0,107	-0,139
263,093	484,720	-0,085	-0,135
264,107	-77,408	-0,294	-0,070
265,122	-93,650	-0,195	-0,037
266,136	260,253	-0,178	-0,213
267,151	78,797	-0,156	-0,115
268,166	275,339	-0,189	-0,233
269,180	-46,580	-0,191	-0,064
270,195	53,499	-0,302	-0,200
271,209	14,343	-0,087	-0,047
272,224	-57,291	-0,159	-0,048
273,239	-135,348	-0,112	-0,009
274,253	-46,522	-0,177	-0,059
275,268	-174,926	-0,284	0,005
276,282	-136,841	-0,171	0,013
277,297	-38,224	-0,219	-0,080
278,312	-65,881	-0,238	-0,065
279,326	-165,596	-0,129	-0,004
280,341	207,613	-0,117	-0,127
281,355	-80,184	-0,132	-0,030
282,370	-80,238	-0,268	-0,061
283,384	123,164	-0,207	-0,179
284,399	-200,000	-0,032	-0,150
285,414	3,333	-0,181	-0,090
286,428	-176,880	-0,214	-0,004
287,443	301,359	-0,056	-0,072
288,457	321,621	-0,055	-0,072
289,472	-54,712	-0,191	-0,059
290,487	93,314	-0,172	-0,134
291,501	-61,562	-0,258	-0,074
292,516	-100,036	-0,235	0,040
293,530	164,217	-0,126	-0,122
294,545	406,270	-0,068	-0,099
295,560	21,672	-0,185	0,104
296,574	223,777	-0,104	-0,116
297,589	350,738	-0,121	-0,166
298,603	114,365	-0,157	-0,132
299,618	79,741	-0,048	-0,036
300,633	-63,148	-0,175	-0,050
301,647	14,122	-0,144	-0,077
302,662	-200,000	-0,004	-0,084
303,676	-22,916	-0,050	0,020
304,691	-91,783	-0,098	-0,019
305,706	381,714	-0,136	-0,193
306,720	79,876	-0,188	-0,139
307,735	-200,000	-0,090	-0,295
308,749	-200,000	-0,006	-0,136
309,764	221,621	-0,084	-0,093
310,779	23,209	-0,216	-0,122
311,793	-122,356	-0,101	-0,011
312,808	-118,834	-0,141	-0,017
313,822	-41,382	-0,102	0,036
314,837	351,296	-0,109	-0,148
315,852	800,000	-0,077	-0,162
316,866	-23,773	-0,189	-0,078
317,881	305,286	-0,046	-0,060
318,895	800,000	-0,100	-0,199
319,910	-132,264	-0,289	0,025
320,925	63,443	-0,146	-0,101
321,939	-63,685	-0,109	-0,031
322,954	149,888	-0,063	-0,059
323,968	308,214	-0,111	0,143
324,983	-200,000	-0,047	-0,311
325,997	22,757	-0,167	-0,094
327,012	322,284	-0,103	-0,135
328,027	278,197	-0,060	-0,074
329,041	311,541	-0,227	-0,293
330,056	37,427	-0,158	-0,096
331,070	-25,757	-0,066	0,026
332,085	176,895	-0,095	-0,095
333,100	-117,281	-0,153	0,019
334,114	104,986	-0,166	-0,134
335,129	205,148	-0,121	-0,129
336,143	337,104	-0,048	0,065
337,158	23,842	-0,154	-0,087
338,173	275,501	-0,117	-0,143
339,187	-200,000	-0,026	0,099
340,202	800,000	-0,072	-0,157
341,216	164,431	-0,189	-0,184
342,231	8,346	-0,085	-0,044
343,246	75,391	-0,197	-0,142
344,260	477,231	-0,063	-0,099
345,275	208,185	-0,137	-0,147
346,289	-89,888	-0,121	-0,024
347,304	98,037	-0,113	-0,089
348,319	-74,150	-0,110	-0,027
349,333	-140,654	-0,042	0,003
350,348	39,888	-0,171	-0,105
351,362	57,868	-0,087	-0,059
352,377	800,000	-0,011	0,034
353,392	-110,886	-0,157	0,022
354,406	800,000	-0,031	0,076
355,421	208,532	1313,812	1411,341
356,435	160,462	1474,417	1411,836
