DTS Sentinel unit serial number:	SN410029Multiplexer serial number:	ORYXHardware model number:	OX2-SRSoftware version number:	ORYX F/W v4,00 Oryx Data Collector v3.7.2.0data status	okinstallation	B3 Nyhavnadifferential loss correction	single-endedforward channel	channel 1reverse channel	N/Adate	2023/12/01time	22:17:30forward acquisition time	300,00reverse acquisition time	0,00gamma	499,1914k internal	0,3196k external	0,3196temperature offset calibration	1,0000default loss term (dB/km)	0,3820temperature slope calibration	1,0000multiplexer offset coefficient	1,0000multiplexer slope coefficient	1,0000fibre end	0,00T internal ref (°C)	15,90T ext. ref 1 (°C)	0,84T ext. ref 2 (°C)	0,83length (m)	temperature (°C)	Stokes	anti-Stokes-744,400	67,892	-0,381	-0,283
-743,385	-200,000	-0,008	0,452
-742,371	108,091	-0,139	-0,120
-741,356	335,378	0,220	0,311
-740,342	37,922	-0,204	-0,132
-739,327	-200,000	-0,064	0,303
-738,312	308,093	-0,189	-0,258
-737,298	800,000	-0,110	0,297
-736,283	225,400	-0,184	-0,217
-735,269	-200,000	0,014	0,382
-734,254	440,068	-0,194	-0,309
-733,239	102,943	-0,142	0,121
-732,225	106,288	-0,163	-0,140
-731,210	-49,856	0,199	0,069
-730,196	93,583	-0,071	-0,058
-729,181	94,095	0,026	-0,021
-728,167	417,926	0,097	-0,152
-727,152	800,000	0,083	0,181
-726,137	-180,366	-0,107	-0,002
-725,123	268,268	-0,097	-0,125
-724,108	-200,000	0,011	-0,084
-723,094	255,138	0,071	0,089
-722,079	-25,583	-0,130	-0,056
-721,064	1,141	-0,063	0,033
-720,050	205,206	-0,070	-0,079
-719,035	71,392	0,103	-0,077
-718,021	-84,701	-0,105	-0,024
-717,006	-101,755	-0,085	-0,015
-715,991	195,092	-0,094	-0,104
-714,977	67,839	-0,199	-0,148
-713,962	-156,069	0,171	-0,008
-712,948	420,779	0,076	-0,118
-711,933	135,875	0,045	0,043
-710,918	-75,195	-0,159	0,041
-709,904	-200,000	0,000	-0,010
-708,889	91,831	0,047	-0,038
-707,875	-127,180	-0,192	-0,020
-706,860	438,837	-0,082	-0,131
-705,845	54,298	0,037	0,026
-704,831	-200,000	-0,022	0,078
-703,816	3,859	-0,049	0,026
-702,802	45,374	0,040	-0,027
-701,787	-41,968	-0,090	-0,033
-700,772	800,000	-0,065	0,168
-699,758	-119,700	-0,089	-0,011
-698,743	27,915	0,095	0,058
-697,729	-172,994	-0,170	-0,004
-696,714	664,189	-0,011	0,021
-695,699	-28,695	0,035	0,014
-694,685	622,765	0,049	-0,089
-693,670	51,839	-0,060	0,042
-692,656	164,329	-0,069	0,070
-691,641	-200,000	-0,015	-0,083
-690,627	30,837	0,145	0,090
-689,612	-200,000	-0,006	-0,052
-688,597	-31,665	-0,023	-0,009
-687,583	91,415	-0,072	-0,059
-686,568	21,996	-0,098	-0,058
-685,554	-114,926	0,061	-0,008
-684,539	476,747	-0,103	0,169
-683,524	67,005	-0,026	-0,019
-682,510	55,634	0,191	0,134
-681,495	120,931	-0,048	0,043
-680,481	-87,758	0,037	0,008
-679,466	-28,425	-0,083	-0,035
-678,451	404,912	0,070	-0,108
-677,437	-50,680	0,129	-0,044
-676,422	313,242	-0,076	0,104
-675,408	29,115	-0,077	-0,047
-674,393	-200,000	-0,013	0,125
-673,378	-17,706	-0,101	-0,046
-672,364	-10,339	-0,099	-0,048
-671,349	-72,185	0,168	0,045
-670,335	204,811	-0,071	0,080
-669,320	-200,000	0,001	0,090
-668,305	-200,000	0,000	-0,093
-667,291	-200,000	-0,000	0,051
-666,276	-200,000	0,001	-0,025
-665,262	-200,000	0,001	-0,081
-664,247	-77,920	-0,096	0,024
-663,232	150,713	-0,053	-0,053
-662,218	240,314	0,098	-0,119
-661,203	337,409	0,034	0,049
-660,189	800,000	-0,027	0,063
-659,174	-200,000	0,008	0,072
-658,159	20,749	-0,082	-0,048
-657,145	109,049	-0,116	-0,100
-656,130	-200,000	-0,006	-0,157
-655,116	-120,097	0,021	-0,003
-654,101	-6,753	-0,060	0,030
-653,086	32,187	0,106	0,066
-652,072	136,103	-0,139	-0,131
-651,057	-84,518	0,065	0,015
-650,043	-45,991	-0,121	-0,043
-649,028	-200,000	-0,025	-0,139
-648,014	-124,529	-0,087	-0,010
-646,999	162,174	0,069	-0,070
-645,984	-40,886	-0,084	-0,031
-644,970	163,135	0,039	-0,040
-643,955	-46,636	-0,126	0,045
-642,941	800,000	-0,036	-0,087
-641,926	105,287	0,036	0,030
-640,911	-200,000	-0,003	0,030
-639,897	61,818	0,111	0,080
-638,882	-84,979	-0,038	-0,009
-637,868	-200,000	0,019	-0,082
-636,853	-200,000	0,026	-0,137
-635,838	-30,270	0,102	-0,042
-634,824	499,969	-0,083	-0,140
-633,809	-200,000	-0,002	-0,103
-632,795	-54,978	0,111	0,036
-631,780	-200,000	-0,023	0,072
-630,765	-200,000	0,021	0,073
-629,751	43,694	-0,039	-0,026
-628,736	-197,943	-0,036	0,000
-627,722	-200,000	0,018	0,081
-626,707	-83,323	-0,074	-0,017
-625,692	-179,271	-0,172	0,003
-624,678	136,323	-0,099	0,093
-623,663	314,027	-0,031	0,042
-622,649	-96,775	-0,089	0,017
-621,634	-68,742	-0,060	-0,017
-620,619	208,315	0,052	-0,058
-619,605	-157,570	-0,104	0,004
-618,590	-149,456	0,219	-0,012
-617,576	34,540	-0,141	0,089
-616,561	386,762	0,084	0,127
-615,546	-200,000	-0,020	-0,185
-614,532	24,905	-0,014	-0,009
-613,517	-68,827	-0,110	0,031
-612,503	99,542	-0,056	-0,047
-611,488	-200,000	-0,016	0,062
-610,474	-200,000	0,005	0,042
-609,459	800,000	0,033	-0,090
-608,444	-200,000	0,005	-0,119
-607,430	161,244	-0,080	-0,081
-606,415	332,529	-0,045	-0,063
-605,401	37,697	0,093	-0,060
-604,386	-200,000	-0,019	-0,067
-603,371	34,785	-0,081	-0,051
-602,357	-200,000	0,006	0,110
-601,342	67,116	-0,118	-0,087
-600,328	370,523	-0,068	0,101
-599,313	25,313	-0,029	-0,017
-598,298	-91,520	0,098	0,020
-597,284	301,858	0,017	0,022
-596,269	800,000	-0,035	0,090
-595,255	45,018	-0,084	0,056
-594,240	-137,441	-0,076	-0,006
-593,225	213,312	-0,075	-0,086
-592,211	-91,224	-0,165	0,034
-591,196	175,559	-0,089	0,094
-590,182	319,502	-0,022	0,031
-589,167	-0,590	0,187	0,096
-588,152	-99,737	0,075	0,013
-587,138	31,115	0,064	0,040
-586,123	-98,061	-0,079	-0,015
-585,109	-141,602	-0,135	0,010
-584,094	75,239	-0,051	-0,039
-583,079	-112,682	0,076	-0,011
-582,065	94,387	-0,021	-0,017
-581,050	-179,911	-0,079	-0,001
-580,036	800,000	0,006	0,020
-579,021	94,464	-0,082	-0,067
-578,006	800,000	-0,057	-0,116
-576,992	-102,510	-0,035	-0,006
-575,977	-33,618	-0,015	0,006
-574,963	-116,894	0,113	0,015
-573,948	800,000	-0,053	0,108
-572,934	-200,000	0,006	0,100
-571,919	601,418	-0,093	-0,168
-570,904	-200,000	-0,020	0,067
-569,890	800,000	0,071	-0,168
-568,875	104,002	0,118	0,100
-567,861	238,912	0,042	-0,051
-566,846	-125,100	0,052	0,006
-565,831	800,000	-0,046	0,097
-564,817	-141,270	-0,057	0,004
-563,802	403,101	-0,034	-0,052
-562,788	678,643	-0,058	0,109
-561,773	-150,779	0,135	0,007
-560,758	332,803	0,032	-0,045
-559,744	-200,000	-0,016	-0,056
-558,729	26,648	0,034	0,020
-557,715	126,972	-0,076	0,070
-556,700	-95,820	-0,145	-0,028
-555,685	-200,000	-0,039	-0,188
-554,671	-200,000	0,002	-0,014
-553,656	-110,865	0,073	-0,011
-552,642	91,712	-0,032	-0,026
-551,627	-200,000	0,009	0,082
-550,612	799,652	0,063	0,125
-549,598	-81,764	-0,059	0,014
-548,583	-200,000	-0,048	-0,158
-547,569	-1,430	-0,058	0,030
-546,554	-104,225	-0,149	0,025
-545,539	158,745	0,009	-0,009
-544,525	-13,342	-0,098	-0,046
-543,510	164,505	0,028	0,029
-542,496	-200,000	-0,007	-0,090
-541,481	-173,232	0,052	0,001
-540,466	252,004	-0,034	-0,042
-539,452	-97,285	0,138	0,026
-538,437	318,815	0,041	0,056
-537,423	181,925	0,090	0,096
-536,408	800,000	-0,088	-0,218
-535,393	-132,580	-0,087	0,008
-534,379	169,047	0,057	-0,059
-533,364	-119,326	0,006	-0,001
-532,350	156,988	0,042	0,042
-531,335	-74,315	0,084	0,022
-530,321	-39,508	0,071	0,027
-529,306	800,000	-0,092	-0,229
-528,291	-200,000	-0,024	-0,083
-527,277	-149,864	-0,120	-0,007
-526,262	19,681	0,107	-0,062
-525,248	800,000	-0,051	-0,140
-524,233	-150,297	-0,091	0,005
-523,218	-200,000	-0,001	-0,104
-522,204	-7,595	-0,140	-0,068
-521,189	-200,000	-0,008	0,031
-520,175	226,705	0,041	-0,048
-519,160	-200,000	-0,034	-0,139
-518,145	610,124	-0,031	-0,057
-517,131	800,000	0,063	0,139
-516,116	-70,705	0,032	-0,009
-515,102	-52,030	-0,115	0,038
-514,087	800,000	-0,020	-0,049
-513,072	-48,131	0,066	-0,023
-512,058	-45,945	-0,066	0,023
-511,043	800,000	0,054	-0,146
-510,029	-61,591	0,168	0,050
-509,014	-200,000	0,005	0,153
-507,999	-200,000	0,014	-0,067
-506,985	-200,000	0,009	-0,054
-505,970	18,681	-0,131	-0,075
-504,956	-200,000	-0,007	-0,114
-503,941	-200,000	-0,014	0,093
-502,926	-62,317	0,070	-0,021
-501,912	87,662	0,049	0,039
-500,897	296,526	-0,093	0,124
-499,883	369,190	0,072	-0,106
-498,868	-200,000	0,042	-0,158
-497,853	186,623	-0,069	-0,074
-496,839	-200,000	0,004	0,041
-495,824	-18,346	-0,067	0,030
-494,810	-5,921	-0,067	0,033
-493,795	-200,000	-0,012	-0,043
-492,781	-200,000	0,001	-0,017
-491,766	-132,471	-0,179	0,016
-490,751	187,842	0,097	0,104
-489,737	285,821	0,053	-0,069
-488,722	800,000	0,028	0,086
-487,708	-52,836	0,100	0,033
-486,693	-200,000	-0,007	-0,066
-485,678	-92,593	-0,118	0,024
-484,664	280,540	0,072	-0,093
-483,649	-68,819	-0,057	-0,016
-482,635	521,858	0,045	0,076
-481,620	-67,592	0,051	0,014
-480,605	-100,812	0,018	0,003
-479,591	-200,000	-0,003	-0,107
-478,576	-200,000	0,029	-0,120
-477,562	269,098	-0,055	-0,070
-476,547	-200,000	-0,025	-0,151
-475,532	-200,000	-0,001	-0,080
-474,518	-99,244	0,052	-0,009
-473,503	800,000	0,029	-0,061
-472,489	800,000	0,027	-0,072
-471,474	413,195	-0,022	0,034
-470,459	28,217	0,022	0,013
-469,445	-4,493	0,075	-0,037
-468,430	800,000	-0,053	0,118
-467,416	780,982	-0,068	-0,134
-466,401	-200,000	0,027	0,133
-465,386	800,000	0,009	-0,023
-464,372	-78,864	0,092	0,022
-463,357	102,892	0,037	-0,032
-462,343	37,314	-0,095	-0,061
-461,328	-22,629	0,049	0,021
-460,313	87,494	0,040	-0,032
-459,299	255,170	0,096	0,118
-458,284	314,515	-0,029	-0,039
-457,270	130,390	-0,050	0,046
-456,255	-72,496	-0,045	-0,012
-455,241	-128,033	0,140	0,014
-454,226	-27,459	-0,013	-0,006
-453,211	-1,435	0,065	-0,033
-452,197	-200,000	0,008	-0,060
-451,182	800,000	0,021	-0,044
-450,168	-200,000	-0,002	0,051
-449,153	272,296	0,043	0,055
-448,138	144,537	0,057	0,055
-447,124	359,735	0,027	-0,039
-446,109	12,380	0,047	0,026
-445,095	-102,010	0,040	-0,007
-444,080	-200,000	0,020	0,095
-443,065	-119,648	0,171	0,021
-442,051	26,607	-0,087	-0,052
-441,036	-200,000	-0,028	-0,089
-440,022	-55,326	-0,041	0,013
-439,007	-200,000	0,002	-0,023
-437,992	-25,497	-0,029	0,012
-436,978	170,229	0,104	0,108
-435,963	99,063	0,118	-0,098
-434,949	254,292	0,081	-0,100
-433,934	-157,674	-0,091	0,004
-432,919	-200,000	0,000	0,005
-431,905	-69,421	0,111	0,030
-430,890	-107,196	0,043	-0,007
-429,876	-200,000	0,008	0,100
-428,861	18,527	0,040	0,023
-427,846	800,000	-0,044	0,094
-426,832	-200,000	-0,007	0,024
-425,817	-200,000	0,034	0,117
-424,803	-200,000	-0,010	0,151
-423,788	-76,538	0,186	-0,047
-422,773	-20,255	0,043	-0,019
-421,759	236,254	0,093	-0,111
-420,744	37,240	-0,062	0,039
-419,730	-130,425	-0,084	0,008
-418,715	103,886	0,028	-0,024
-417,701	68,636	0,113	-0,083
-416,686	255,934	-0,041	0,050
-415,671	-19,432	0,053	-0,023
-414,657	-54,682	-0,141	0,046
-413,642	-4,539	-0,028	-0,014
-412,628	-76,405	-0,028	0,007
-411,613	-56,258	-0,053	-0,017
-410,598	800,000	0,027	-0,078
-409,584	309,940	0,079	0,106
-408,569	-101,835	0,061	-0,010
-407,555	271,803	0,123	0,157
-406,540	-200,000	0,006	-0,020
-405,525	268,215	0,003	0,004
-404,511	138,590	0,074	-0,070
-403,496	-29,952	-0,030	-0,012
-402,482	144,048	-0,079	0,076
-401,467	513,669	0,050	0,084
-400,452	110,437	-0,043	-0,037
-399,438	97,720	-0,165	0,136
-398,423	-45,830	0,047	0,017
-397,409	100,866	-0,105	0,088
-396,394	1,514	0,161	-0,083
-395,379	-67,448	0,093	-0,026
-394,365	358,321	0,074	0,107
-393,350	226,963	0,041	0,048
-392,336	-151,361	0,113	-0,006
-391,321	27,020	-0,075	-0,045
-390,306	-125,035	-0,109	-0,012
-389,292	288,881	0,074	0,097
-388,277	301,734	0,062	0,082
-387,263	44,722	-0,058	0,038
-386,248	-200,000	0,025	-0,096
-385,233	-16,797	-0,041	0,019
-384,219	122,368	-0,076	0,068
-383,204	-200,000	-0,034	0,179
-382,190	-200,000	-0,017	0,168
-381,175	-200,000	-0,017	-0,109
-380,160	124,295	0,115	-0,104
-379,146	474,201	0,052	-0,085
-378,131	119,559	-0,066	-0,059
-377,117	-200,000	-0,012	0,060
-376,102	-200,000	0,001	0,004
-375,088	146,908	-0,074	0,072
-374,073	-200,000	0,050	-0,165
-373,058	800,000	-0,043	-0,117
-372,044	-78,431	0,191	0,047
-371,029	-5,051	-0,083	-0,041
-370,015	-200,000	-0,009	0,037
-369,000	150,774	-0,057	0,055
-367,985	-200,000	-0,012	0,091
-366,971	-128,358	0,085	0,009
-365,956	-77,470	0,030	-0,007
-364,942	-200,000	-0,002	0,032
-363,927	-39,715	0,030	-0,011
-362,912	313,795	-0,069	0,093
-361,898	-200,000	0,004	-0,092
-360,883	59,145	-0,067	-0,047
-359,869	316,842	0,057	-0,077
-358,854	800,000	-0,025	-0,054
-357,839	-40,237	0,115	-0,043
-356,825	800,000	0,040	0,088
-355,810	800,000	-0,021	0,044
-354,796	-142,358	0,043	-0,003
-353,781	509,173	-0,069	-0,116
-352,766	800,000	0,017	-0,034
-351,752	-200,000	0,034	0,248
-350,737	45,742	0,048	0,032
-349,723	800,000	0,019	-0,057
-348,708	800,000	0,020	0,045
-347,693	31,155	-0,059	0,036
-346,679	-200,000	-0,018	0,099
-345,664	324,080	-0,106	-0,145
-344,650	-63,634	0,016	-0,005
-343,635	-179,958	0,108	0,002
-342,620	-200,000	0,031	0,123
-341,606	-136,895	0,118	0,010
-340,591	-72,165	0,119	-0,031
-339,577	-100,415	-0,138	-0,024
-338,562	-4,057	-0,057	0,028
-337,548	-200,000	-0,001	0,173
-336,533	443,256	-0,027	-0,042
-335,518	81,321	0,147	0,114
-334,504	-8,165	0,137	-0,066
-333,489	-166,409	0,077	-0,002
-332,475	13,527	0,072	0,040
-331,460	-200,000	0,005	0,074
-330,445	-32,687	0,039	0,015
-329,431	427,215	-0,031	0,048
-328,416	800,000	0,030	-0,061
-327,402	24,034	-0,052	0,031
-326,387	800,000	-0,013	-0,037
-325,372	800,000	-0,010	-0,030
-324,358	-6,272	-0,157	-0,076
-323,343	-200,000	0,005	0,059
-322,329	800,000	0,087	-0,175
-321,314	-123,080	0,194	-0,022
-320,299	-25,870	0,048	0,020
-319,285	800,000	0,022	-0,057
-318,270	-19,953	-0,086	0,038
-317,256	530,056	-0,059	-0,100
-316,241	17,024	-0,084	0,048
-315,226	-87,532	0,051	-0,011
-314,212	-200,000	-0,016	0,107
-313,197	800,000	-0,079	0,182
-312,183	-124,024	0,028	0,003
-311,168	551,688	-0,070	0,120
-310,153	125,029	0,102	0,092
-309,139	6,377	-0,153	0,081
-308,124	-200,000	-0,025	0,142
-307,110	-34,609	0,141	-0,055
-306,095	183,529	-0,064	0,068
-305,080	-78,958	0,017	-0,004
-304,066	702,472	-0,021	-0,039
-303,051	-200,000	0,026	-0,087
-302,037	-200,000	-0,005	-0,022
-301,022	482,261	0,073	0,119
-300,008	800,000	-0,012	-0,025
-298,993	-200,000	-0,023	0,124
-297,978	118,460	0,038	0,033
-296,964	-98,214	0,095	0,017
-295,949	-200,000	0,005	0,180
-294,935	-140,983	0,055	0,004
-293,920	-200,000	0,002	0,077
-292,905	-144,991	-0,076	0,005
-291,891	800,000	0,014	0,036
-290,876	-185,119	-0,109	-0,001
-289,862	-90,293	-0,083	-0,017
-288,847	12,222	0,059	-0,032
-287,832	-69,190	-0,031	0,008
-286,818	161,922	-0,080	-0,081
-285,803	319,301	0,069	-0,094
-284,789	173,692	-0,071	-0,074
-283,774	240,099	0,035	-0,042
-282,759	-200,000	0,011	-0,051
-281,745	467,040	0,085	-0,137
-280,730	123,654	0,033	0,030
-279,716	-200,000	-0,018	-0,058
-278,701	-200,000	0,008	0,045
-277,686	113,005	0,070	0,060
-276,672	672,401	0,009	0,017
-275,657	23,380	-0,087	0,051
-274,643	-170,259	-0,105	0,003
-273,628	800,000	-0,058	0,143
-272,613	322,957	0,048	0,065
-271,599	269,224	0,071	-0,089
-270,584	392,497	-0,009	-0,013
-269,570	800,000	-0,024	0,049
-268,555	-136,687	-0,074	0,006
-267,540	114,163	0,085	-0,074
-266,526	800,000	-0,036	-0,078
-265,511	-65,342	-0,063	0,018
-264,497	800,000	0,013	0,034
-263,482	800,000	0,026	0,073
-262,467	-8,568	0,013	0,006
-261,453	-200,000	0,018	-0,118
-260,438	-54,973	0,017	0,006
-259,424	-190,174	-0,090	0,001
-258,409	-200,000	0,034	-0,175
-257,395	-23,428	-0,068	0,029
-256,380	-34,670	0,123	0,048
-255,365	499,993	-0,020	0,033
-254,351	179,897	-0,063	0,066
-253,336	503,780	-0,056	-0,093
-252,322	122,609	0,080	-0,072
-251,307	800,000	-0,081	-0,198
-250,292	337,018	-0,119	-0,165
-249,278	620,034	0,066	0,118
-248,263	-200,000	0,000	-0,010
-247,249	-43,136	-0,033	0,012
-246,234	-200,000	0,021	0,110
-245,219	-139,164	-0,089	-0,007
-244,205	-179,424	0,113	-0,002
-243,190	-23,872	0,007	-0,003
-242,176	144,831	-0,028	-0,027
-241,161	800,000	-0,010	0,025
-240,146	-200,000	-0,008	0,177
-239,132	2,657	0,201	-0,104
-238,117	-200,000	-0,019	-0,103
-237,103	562,730	-0,113	-0,195
-236,088	-200,000	0,014	-0,083
-235,073	479,178	0,077	0,125
-234,059	-150,903	0,140	-0,007
-233,044	352,755	-0,098	0,140
-232,030	800,000	0,078	0,171
-231,015	-24,452	-0,079	0,034
-230,000	648,614	-0,071	0,130
-228,986	392,437	0,073	0,108
-227,971	11,723	0,180	0,098
-226,957	-5,837	-0,038	0,018
-225,942	254,334	0,111	0,135
-224,927	-200,000	0,001	0,021
-223,913	-49,364	-0,056	-0,019
-222,898	223,305	-0,037	0,043
-221,884	-200,000	-0,009	-0,047
-220,869	-145,260	0,117	-0,007
-219,855	-200,000	0,000	0,045
-218,840	232,200	0,075	0,088
-217,825	141,067	-0,150	0,142
-216,811	-200,000	-0,011	-0,067
-215,796	-200,000	0,010	-0,178
-214,782	154,329	0,091	0,089
-213,767	-200,000	-0,006	-0,073
-212,752	-55,158	-0,058	-0,018
-211,738	-200,000	-0,022	0,118
-210,723	131,818	0,076	0,070
-209,709	293,090	-0,058	0,075
-208,694	-200,000	0,019	-0,070
-207,679	-120,536	-0,169	-0,020
-206,665	-128,066	0,117	-0,012
-205,650	2,739	0,064	0,033
-204,636	77,745	-0,097	-0,074
-203,621	-39,662	-0,084	-0,031
-202,606	-200,000	-0,013	-0,051
-201,592	-200,000	-0,012	-0,061
-200,577	62,440	-0,084	-0,060
-199,563	31,797	0,133	-0,081
-198,548	337,841	0,034	0,047
-197,533	-200,000	0,011	0,086
-196,519	800,000	0,026	0,064
-195,504	715,721	-0,049	-0,094
-194,490	800,000	0,057	-0,142
-193,475	152,391	-0,119	-0,116
-192,460	-69,244	-0,109	-0,030
-191,446	13,102	0,076	0,042
-190,431	150,196	-0,052	0,050
-189,417	640,597	0,049	0,089
-188,402	-103,684	-0,134	-0,022
-187,387	145,566	-0,084	0,080
-186,373	-200,000	-0,001	-0,034
-185,358	368,824	-0,060	-0,087
-184,344	800,000	0,043	0,131
-183,329	-200,000	0,026	0,083
-182,315	-58,655	-0,047	0,015
-181,300	240,805	0,074	-0,088
-180,285	-200,000	0,021	-0,125
-179,271	-9,933	0,117	-0,055
-178,256	321,668	-0,066	-0,090
-177,242	-88,376	-0,078	0,017
-176,227	-200,000	-0,018	0,093
-175,212	-200,000	0,022	0,138
-174,198	664,655	-0,024	0,045
-173,183	-200,000	0,015	-0,146
-172,169	202,956	-0,101	-0,112
-171,154	86,899	-0,100	-0,079
-170,139	-117,425	0,076	0,010
-169,125	800,000	0,053	0,147
-168,110	800,000	-0,024	-0,070
-167,096	205,287	0,042	-0,046
-166,081	800,000	-0,021	0,058
-165,066	-200,000	-0,013	-0,085
-164,052	374,637	0,040	-0,058
-163,037	-200,000	-0,005	0,070
-162,023	-200,000	0,018	0,070
-161,008	800,000	0,065	0,162
-159,993	-200,000	0,003	-0,099
-158,979	-200,000	0,011	0,092
-157,964	800,000	-0,028	-0,064
-156,950	-200,000	-0,014	0,098
-155,935	-51,524	0,013	0,004
-154,920	167,338	-0,056	0,056
-153,906	81,817	0,169	0,130
-152,891	145,180	-0,057	-0,054
-151,877	-157,718	-0,085	-0,004
-150,862	557,899	0,039	0,068
-149,847	660,738	-0,022	-0,041
-148,833	-177,363	0,076	-0,001
-147,818	800,000	-0,067	0,165
-146,804	407,576	0,026	-0,039
-145,789	-151,918	-0,016	-0,001
-144,775	468,840	0,123	-0,197
-143,760	188,812	-0,065	-0,069
-142,745	87,743	-0,108	-0,085
-141,731	-200,000	0,007	-0,078
-140,716	223,129	0,024	0,027
-139,702	115,112	0,109	0,095
-138,687	-140,658	0,253	0,018
-137,672	-185,281	-0,074	0,001
-136,658	58,972	0,095	0,066
-135,643	612,061	-0,115	0,205
-134,629	203,890	-0,078	0,086
-133,614	-200,000	0,005	-0,078
-132,599	666,536	0,032	0,059
-131,585	-101,419	-0,082	0,014
-130,570	-200,000	0,011	0,079
-129,556	800,000	0,017	0,035
-128,541	-200,000	-0,007	0,059
-127,526	-97,494	0,118	-0,022
-126,512	400,269	0,130	-0,194
-125,497	-37,846	0,206	0,078
-124,483	-200,000	0,034	-0,123
-123,468	289,947	-0,038	0,049
-122,453	-200,000	-0,017	-0,091
-121,439	25,819	-0,035	-0,020
-120,424	211,019	0,039	0,043
-119,410	-200,000	0,010	0,056
-118,395	-51,142	0,145	0,048
-117,380	-148,770	0,164	0,009
-116,366	472,971	0,018	0,029
-115,351	-60,438	-0,065	0,019
-114,337	280,811	-0,094	-0,120
-113,322	320,232	-0,023	-0,031
-112,307	-59,303	-0,103	-0,031
-111,293	-200,000	0,009	0,087
-110,278	166,019	0,108	0,108
-109,264	-33,649	0,063	-0,025
-108,249	800,000	-0,024	-0,063
-107,234	800,000	0,073	-0,146
-106,220	-33,057	0,149	0,058
-105,205	373,821	-0,097	0,141
-104,191	-200,000	0,010	0,051
-103,176	98,828	0,113	0,093
-102,162	94,621	-0,065	0,053
-101,147	-189,004	0,099	-0,001
-100,132	0,128	-0,082	-0,041
-99,118	-85,362	0,058	-0,013
-98,103	-6,002	0,149	-0,072
-97,089	-39,731	0,118	0,044
-96,074	-200,000	-0,002	0,173
-95,059	63,240	0,017	-0,012
-94,045	-132,933	0,075	0,007
-93,030	59,498	0,055	-0,038
-92,016	800,000	-0,038	-0,115
-91,001	-61,767	-0,142	-0,042
-89,986	4,535	0,069	-0,036
-88,972	-40,130	0,138	0,051
-87,957	-103,834	0,133	-0,022
-86,943	79,276	0,080	-0,061
-85,928	45,193	-0,072	-0,047
-84,913	-24,294	-0,083	-0,035
-83,899	55,684	-0,072	0,049
-82,884	22,039	0,108	0,062
-81,870	-78,925	-0,084	-0,020
-80,855	-168,636	0,137	0,004
-79,840	-110,523	0,056	0,008
-78,826	252,922	-0,069	0,083
-77,811	216,836	-0,021	0,023
-76,797	-90,320	-0,106	0,022
-75,782	58,280	0,056	0,039
-74,767	-111,264	0,062	0,009
-73,753	264,656	-0,016	0,020
-72,738	-200,000	0,034	-0,106
-71,724	567,412	-0,044	0,076
-70,709	-200,000	-0,032	-0,123
-69,694	-146,078	-0,051	-0,003
-68,680	41,426	0,166	0,106
-67,665	-43,451	-0,044	-0,016
-66,651	-200,000	-0,001	0,049
-65,636	-16,501	0,110	0,049
-64,622	-35,020	-0,150	0,058
-63,607	516,151	-0,025	-0,042
-62,592	-40,676	0,116	0,043
-61,578	-23,300	0,057	-0,024
-60,563	-200,000	-0,003	0,144
-59,549	237,131	-0,046	0,055
-58,534	-83,482	-1,520	-0,342
-57,519	361,780	-1,496	-2,135
-56,505	-200,000	-0,412	-4,374
-55,490	186,225	0,819	0,865
-54,476	800,000	4,700	11,325
-53,461	-200,000	17,650	282,894
-52,446	800,000	720,532	2227,234
-51,432	563,170	1635,315	2818,173
-50,417	81,061	1658,791	1268,566
-49,403	23,795	1533,179	893,432
-48,388	17,749	1456,597	819,628
-47,373	18,269	1446,191	816,235
-46,359	17,859	1436,689	808,889
-45,344	16,057	1431,955	797,618
-44,330	15,912	1430,062	795,844
-43,315	15,981	1428,272	795,146
-42,300	15,960	1426,703	794,138
-41,286	16,048	1425,314	793,752
-40,271	15,995	1424,223	792,863
-39,257	15,964	1423,030	792,018
-38,242	15,993	1421,816	791,451
-37,227	16,018	1420,316	790,700
-36,213	16,026	1418,955	789,950
-35,198	15,989	1417,858	789,135
-34,184	16,033	1417,016	788,839
-33,169	15,937	1415,896	787,736
-32,154	16,065	1414,588	787,578
-31,140	15,995	1413,377	786,542
-30,125	16,021	1412,163	785,959
-29,111	15,984	1411,190	785,212
-28,096	15,983	1409,875	784,444
-27,082	15,907	1409,002	783,571
-26,067	15,914	1407,766	782,886
-25,052	15,927	1406,732	782,342
-24,038	15,921	1405,759	781,740
-23,023	15,946	1404,714	781,243
-22,009	15,910	1403,704	780,485
-20,994	15,868	1402,851	779,781
-19,979	15,891	1401,878	779,317
-18,965	15,869	1400,813	778,594
-17,950	15,877	1399,850	778,065
-16,936	15,885	1398,986	777,591
-15,921	15,868	1397,746	776,791
-14,906	15,831	1396,785	776,054
-13,892	15,871	1395,776	775,649
-12,877	15,808	1395,029	774,913
-11,863	15,877	1393,902	774,575
-10,848	15,838	1392,968	773,841
-9,833	15,802	1392,294	773,270
-8,819	15,777	1391,317	772,581
-7,804	15,721	1390,229	771,688
-6,790	15,726	1389,259	771,142
-5,775	15,705	1388,439	770,560
-4,760	15,749	1387,442	770,178
-3,746	15,742	1386,676	769,693
-2,731	15,736	1385,837	769,168
-1,717	15,668	1384,929	768,322
-0,702	15,701	1383,003	767,375
0,313	19,417	1303,643	740,510
1,327	35,701	706,739	439,200
2,342	55,124	125,188	85,597
3,356	2,702	16,561	8,481
4,371	12,722	3,060	1,670
5,386	-117,784	0,584	0,074
6,400	-25,331	0,039	0,016
7,415	-25,631	-0,264	-0,110
8,429	84,792	-0,373	-0,289
9,444	19,597	-0,396	-0,225
10,459	77,763	-0,314	-0,237
11,473	-0,496	-0,302	-0,152
12,488	249,495	-0,153	-0,184
13,502	-39,644	-0,387	-0,143
14,517	-11,389	-0,438	-0,203
15,531	-58,494	-0,472	-0,144
16,546	47,621	-0,277	-0,183
17,561	232,229	-0,293	-0,341
18,575	68,027	-0,133	-0,096
19,590	800,000	-0,093	-0,249
20,604	-17,344	-0,309	-0,137
21,619	145,968	-0,294	-0,279
22,634	43,231	-0,417	-0,269
23,648	-17,777	-0,540	-0,239
24,663	71,420	-0,315	-0,231
25,677	46,996	-0,405	-0,266
26,692	657,180	-0,178	-0,325
27,707	1,821	-0,391	-0,199
28,721	46,786	-0,302	-0,198
29,736	70,510	-0,440	-0,321
30,750	14,020	-0,390	-0,214
31,765	88,640	-0,341	-0,268
32,780	204,530	-0,262	-0,288
33,794	55,486	-0,335	-0,229
34,809	71,697	-0,415	-0,304
35,823	237,132	-0,246	-0,288
36,838	198,196	-0,437	-0,473
37,853	47,030	-0,421	-0,276
38,867	309,705	-0,300	-0,397
39,882	117,918	-0,225	-0,196
40,896	-3,526	-0,361	-0,177
41,911	175,860	-0,365	-0,374
42,926	151,925	-0,277	-0,267
43,940	128,393	-0,442	-0,397
44,955	92,096	-0,404	-0,321
45,969	49,170	-0,408	-0,270
46,984	3,153	-0,453	-0,232
47,999	36,364	-0,305	-0,189
49,013	-5,001	-0,440	-0,213
50,028	50,883	-0,302	-0,202
51,042	53,192	-0,273	-0,185
52,057	151,211	-0,316	-0,303
53,071	238,814	-0,327	-0,384
54,086	-43,070	-0,322	-0,114
55,101	72,121	-0,314	-0,230
56,115	60,717	-0,337	-0,236
57,130	5,130	-0,299	-0,155
58,144	152,373	-0,385	-0,371
59,159	73,698	-0,407	-0,300
60,174	65,280	-0,256	-0,182
61,188	170,111	-0,258	-0,261
62,203	278,024	-0,278	-0,350
63,217	168,258	-0,287	-0,288
64,232	150,299	-0,242	-0,232
65,247	2,036	-0,283	-0,144
66,261	65,200	-0,453	-0,323
67,276	23,011	-0,294	-0,170
68,290	-7,304	-0,374	-0,178
69,305	130,734	-0,338	-0,305
70,320	35,686	-0,384	-0,237
71,334	53,162	-0,235	-0,158
72,349	62,457	-0,335	-0,235
73,363	21,643	-0,377	-0,216
74,378	124,849	-0,335	-0,297
75,393	0,960	-0,387	-0,194
76,407	-21,698	-0,271	-0,116
77,422	98,237	-0,253	-0,205
78,436	285,670	-0,306	-0,389
79,451	57,875	-0,377	-0,259
80,466	-15,178	-0,316	-0,142
81,480	129,876	-0,247	-0,222
82,495	533,291	-0,184	-0,308
83,509	73,124	-0,265	-0,195
84,524	-83,009	-0,271	-0,061
85,539	-32,912	-0,472	-0,184
86,553	29,885	-0,339	-0,203
87,568	27,147	-0,276	-0,162
88,582	40,602	-0,265	-0,168
89,597	0,525	-0,309	-0,155
90,611	-103,847	-0,378	-0,061
91,626	370,509	-0,176	-0,251
92,641	62,075	-0,272	-0,190
93,655	306,361	-0,184	-0,241
94,670	92,007	-0,338	-0,267
95,684	168,687	-0,269	-0,270
96,699	253,217	-0,179	-0,215
97,714	4,134	-0,351	-0,180
98,728	-28,082	-0,221	-0,089
99,743	415,491	-0,201	-0,302
100,757	47,473	-0,295	-0,193
101,772	-24,283	-0,298	-0,124
102,787	230,556	-0,210	-0,241
103,801	87,273	-0,281	-0,218
104,816	729,865	-0,129	-0,244
105,830	91,575	-0,237	-0,187
106,845	100,803	-0,259	-0,212
107,860	97,860	-0,310	-0,250
108,874	-50,212	-0,327	-0,108
109,889	62,757	-0,389	-0,273
110,903	-23,075	-0,310	-0,130
111,918	-90,274	-0,266	0,054
112,933	-15,225	-0,269	-0,120
113,947	137,099	-0,167	-0,154
114,962	337,935	-0,090	-0,123
115,976	155,598	-0,242	-0,234
116,991	90,243	-0,260	-0,204
118,006	306,931	-0,190	-0,249
119,020	-21,966	-0,240	-0,102
120,035	415,438	-0,169	-0,253
121,049	344,355	-0,144	-0,199
122,064	222,238	-0,100	-0,113
123,079	19,687	-0,269	-0,152
124,093	-45,969	-0,399	-0,137
125,108	199,819	-0,192	-0,206
126,122	129,413	-0,289	-0,259
127,137	43,176	-0,245	-0,157
128,151	201,757	-0,172	-0,186
129,166	381,622	-0,153	-0,220
130,181	57,344	-0,257	-0,176
131,195	-75,720	-0,322	-0,079
132,210	5,167	-0,253	-0,130
133,224	248,907	-0,152	-0,181
134,239	-200,000	-0,027	-0,117
135,254	302,743	-0,074	-0,097
136,268	-49,930	-0,275	-0,091
137,283	-21,008	-0,249	-0,106
138,297	66,966	-0,204	-0,146
139,312	-17,642	-0,356	-0,156
140,327	98,590	-0,201	-0,162
141,341	435,817	-0,175	-0,267
142,356	34,598	-0,339	-0,207
143,370	-15,904	-0,259	-0,115
144,385	-189,487	-0,267	-0,002
145,400	42,041	-0,301	-0,191
146,414	163,740	-0,271	-0,267
147,429	107,634	-0,294	-0,245
148,443	-72,596	-0,238	-0,061
149,458	-15,128	-0,314	-0,140
150,473	7,501	-0,252	-0,131
151,487	-26,632	-0,236	-0,096
152,502	8,933	-0,288	-0,151
153,516	-136,760	-0,306	-0,024
154,531	127,878	-0,242	-0,215
155,546	22,551	-0,260	-0,148
156,560	46,139	-0,208	-0,135
157,575	-37,500	-0,261	-0,097
158,589	461,469	-0,204	-0,319
159,604	65,363	-0,263	-0,186
160,619	74,374	-0,326	-0,239
161,633	533,484	-0,215	-0,357
162,648	82,935	-0,257	-0,195
163,662	232,153	-0,244	-0,280
164,677	24,853	-0,242	-0,140
165,692	202,760	-0,301	-0,325
166,706	-55,208	-0,311	-0,097
167,721	91,621	-0,202	-0,158
168,735	152,170	-0,186	-0,177
169,750	490,548	-0,111	-0,179
170,764	-35,861	-0,307	-0,116
171,779	107,321	-0,209	-0,174
172,794	88,494	-0,267	-0,207
173,808	323,087	-0,146	-0,194
174,823	3,703	-0,321	-0,163
175,837	55,663	-0,192	-0,129
176,852	40,606	-0,258	-0,162
177,867	-200,000	-0,015	-0,047
178,881	207,776	-0,189	-0,206
179,896	109,119	-0,137	-0,115
180,910	-200,000	-0,063	-0,272
181,925	126,498	-0,219	-0,194
182,940	12,564	-0,155	-0,083
183,954	42,444	-0,248	-0,157
184,969	-133,018	-0,176	0,015
185,983	-116,229	-0,293	0,037
186,998	-113,348	-0,251	-0,034
188,013	201,763	-0,211	-0,227
189,027	182,182	-0,199	-0,205
190,042	120,772	-0,244	-0,212
191,056	105,928	-0,331	-0,273
192,071	-36,212	-0,208	-0,078
193,086	666,614	-0,113	-0,204
194,100	-11,663	-0,254	-0,116
195,115	111,169	-0,187	-0,157
196,129	800,000	-0,092	-0,217
197,144	6,862	-0,340	-0,176
198,159	228,920	-0,188	-0,213
199,173	68,835	-0,231	-0,165
200,188	340,560	-0,152	-0,208
201,202	7,675	-0,227	-0,118
202,217	163,170	-0,159	-0,155
203,232	113,419	-0,290	-0,245
204,246	152,382	-0,310	-0,295
205,261	609,841	-0,143	-0,250
206,275	66,671	-0,297	-0,210
207,290	-200,000	-0,034	-0,168
208,304	560,704	-0,117	-0,197
209,319	242,627	-0,165	-0,192
210,334	256,818	-0,200	-0,239
211,348	476,855	-0,124	-0,196
212,363	-200,000	-0,051	-0,260
213,377	95,647	-0,232	-0,184
214,392	-97,512	-0,229	-0,041
215,407	-116,301	-0,110	0,014
216,421	71,974	-0,179	-0,129
217,436	-51,746	-0,265	-0,085
218,450	482,958	-0,124	-0,197
219,465	156,180	-0,189	-0,181
220,480	60,896	-0,105	-0,073
221,494	334,284	-0,129	-0,174
222,509	116,740	-0,205	-0,175
223,523	-48,551	-0,198	-0,066
224,538	69,389	-0,198	-0,141
225,553	190,473	-0,204	-0,213
226,567	-88,411	-0,108	0,022
227,582	442,201	-0,211	-0,323
228,596	800,000	-0,083	-0,182
229,611	-8,313	-0,130	0,061
230,626	25,410	-0,215	-0,124
231,640	68,981	-0,134	-0,096
232,655	800,000	-0,087	-0,240
233,669	130,907	-0,229	-0,204
234,684	83,055	-0,194	-0,147
235,699	107,127	-0,198	-0,164
236,713	-200,000	-0,033	-0,102
237,728	285,622	-0,198	-0,249
238,742	7,524	-0,188	-0,098
239,757	358,388	-0,208	-0,289
240,772	77,508	-0,162	-0,120
241,786	-96,734	-0,178	0,032
242,801	349,358	-0,179	-0,246
243,815	225,712	-0,112	-0,126
244,830	-136,996	-0,283	0,022
245,844	463,638	-0,096	-0,150
246,859	800,000	-0,144	-0,286
247,874	112,819	-0,229	-0,192
248,888	122,120	-0,216	-0,187
249,903	177,738	-0,177	-0,179
250,917	224,135	-0,165	-0,185
251,932	67,203	-0,139	-0,098
252,947	51,137	-0,133	-0,087
253,961	-74,892	-0,265	-0,065
254,976	308,568	-0,186	-0,241
255,990	-200,000	-0,204	0,000
257,005	324,161	-0,218	-0,289
258,020	-58,145	-0,110	-0,033
259,034	-200,000	0,003	-0,062
260,049	11,362	-0,099	0,052
261,063	1,346	-0,205	-0,102
262,078	768,775	-0,121	-0,229
263,093	754,769	-0,095	-0,178
264,107	730,051	-0,120	-0,223
265,122	-169,392	-0,117	0,003
266,136	0,222	-0,256	-0,126
267,151	241,112	-0,179	-0,207
268,166	296,591	-0,095	-0,120
269,180	-34,567	-0,211	-0,080
270,195	479,346	-0,138	-0,218
271,209	67,694	-0,198	-0,140
272,224	772,852	-0,076	-0,145
273,239	15,770	-0,183	0,099
274,253	-100,432	-0,157	0,027
275,268	50,195	-0,086	-0,056
276,282	-168,556	-0,211	0,005
277,297	686,553	-0,138	-0,251
278,312	27,469	-0,186	-0,108
279,326	-146,252	-0,204	-0,012
280,341	474,147	-0,133	-0,208
281,355	-49,572	-0,170	-0,056
282,370	-115,535	-0,164	-0,021
283,384	409,217	-0,114	-0,167
284,399	211,593	-0,114	-0,124
285,414	-110,982	-0,222	-0,031
286,428	122,093	-0,190	-0,164
287,443	88,830	-0,241	-0,185
288,457	351,116	-0,014	0,019
289,472	-132,666	-0,127	-0,011
290,487	278,193	-0,108	-0,134
291,501	800,000	-0,076	-0,181
292,516	800,000	-0,104	-0,246
293,530	-36,158	-0,102	-0,038
294,545	720,057	-0,130	-0,239
295,560	181,835	-0,111	-0,113
296,574	11,912	-0,144	-0,076
297,589	33,990	-0,225	-0,135
298,603	68,449	-0,139	-0,099
299,618	-200,000	-0,044	-0,204
300,633	-200,000	-0,006	-0,156
301,647	-121,569	-0,104	-0,012
302,662	-5,709	-0,109	0,051
303,676	-175,583	-0,142	-0,003
304,691	338,191	-0,148	-0,199
305,706	151,823	-0,216	-0,203
306,720	72,693	-0,199	-0,143
307,735	-143,718	-0,129	-0,008
308,749	338,306	-0,104	-0,140
309,764	287,790	-0,087	-0,109
310,779	-6,819	-0,152	-0,071
311,793	800,000	-0,109	-0,252
312,808	800,000	-0,038	-0,097
313,822	-32,853	-0,198	-0,075
314,837	98,477	-0,123	-0,098
315,852	368,707	0,049	-0,069
316,866	-14,897	-0,222	-0,098
317,881	232,513	-0,162	-0,184
318,895	233,411	-0,125	-0,142
319,910	141,251	-0,169	-0,154
320,925	40,187	-0,173	-0,107
321,939	115,030	-0,214	-0,180
322,954	-62,202	-0,105	0,030
323,968	-200,000	-0,037	-0,138
324,983	357,001	-0,040	-0,055
325,997	176,753	-0,094	-0,094
327,012	122,869	-0,146	-0,126
328,027	800,000	-0,070	-0,189
329,041	21,630	-0,190	-0,106
330,056	64,708	-0,022	0,015
331,070	11,714	-0,082	0,043
332,085	-112,074	-0,128	-0,018
333,100	36,415	-0,104	0,063
334,114	-28,018	-0,169	-0,067
335,129	187,820	-0,070	-0,072
336,143	-200,000	0,007	0,067
337,158	679,431	-0,036	-0,064
338,173	53,949	-0,112	-0,074
339,187	-119,849	-0,048	-0,006
340,202	702,905	-0,080	-0,145
341,216	375,321	-0,183	-0,257
342,231	-160,149	-0,139	-0,005
343,246	381,201	-0,125	-0,176
344,260	92,269	-0,136	-0,106
345,275	-200,000	-0,002	-0,117
346,289	-165,834	-0,138	0,004
347,304	226,868	-0,153	-0,171
348,319	456,683	-0,060	-0,091
349,333	507,411	-0,147	-0,235
350,348	560,383	-0,134	-0,223
351,362	119,320	-0,134	-0,114
352,377	-105,971	-0,157	-0,024
353,392	-200,000	-0,046	-0,141
354,406	-43,070	-0,106	-0,037
355,421	208,548	1314,621	1414,344
356,435	160,471	1475,370	1414,871
