DTS Sentinel unit serial number:	SN410029Multiplexer serial number:	ORYXHardware model number:	OX2-SRSoftware version number:	ORYX F/W v4,00 Oryx Data Collector v3.7.2.0data status	okinstallation	B3 Nyhavnadifferential loss correction	single-endedforward channel	channel 1reverse channel	N/Adate	2023/12/02time	14:02:30forward acquisition time	300,00reverse acquisition time	0,00gamma	499,1914k internal	0,3198k external	0,3198temperature offset calibration	1,0000default loss term (dB/km)	0,3820temperature slope calibration	1,0000multiplexer offset coefficient	1,0000multiplexer slope coefficient	1,0000fibre end	0,00T internal ref (°C)	14,80T ext. ref 1 (°C)	0,35T ext. ref 2 (°C)	0,35length (m)	temperature (°C)	Stokes	anti-Stokes-744,400	490,936	-0,214	-0,358
-743,385	800,000	-0,103	0,223
-742,371	-75,507	-0,203	-0,052
-741,356	267,843	0,182	0,232
-740,342	87,689	-0,163	-0,131
-739,327	-200,000	-0,058	0,242
-738,312	51,109	-0,278	-0,192
-737,298	-200,000	-0,002	0,302
-736,283	-200,000	-0,064	-0,251
-735,269	-200,000	-0,044	0,257
-734,254	33,482	-0,415	-0,262
-733,239	-63,719	-0,184	-0,055
-732,225	-200,000	0,065	-0,283
-731,210	800,000	0,095	0,239
-730,196	135,542	-0,030	0,029
-729,181	-138,098	-0,207	-0,016
-728,167	-200,000	-0,003	0,035
-727,152	99,113	-0,046	-0,038
-726,137	-89,017	-0,068	0,015
-725,123	-200,000	-0,003	-0,055
-724,108	800,000	0,057	-0,122
-723,094	800,000	-0,026	-0,056
-722,079	-200,000	0,001	-0,191
-721,064	-47,602	0,027	-0,009
-720,050	338,828	-0,040	-0,057
-719,035	47,381	-0,111	0,075
-718,021	-200,000	-0,033	-0,109
-717,006	-200,000	-0,009	0,035
-715,991	-200,000	-0,024	-0,108
-714,977	278,811	-0,072	0,093
-713,962	-200,000	0,021	0,078
-712,948	-50,995	-0,106	-0,036
-711,933	446,371	-0,059	-0,095
-710,918	323,446	-0,050	0,070
-709,904	-200,000	0,007	-0,062
-708,889	-10,394	-0,038	-0,018
-707,875	85,617	-0,034	-0,027
-706,860	-153,763	0,109	0,005
-705,845	-43,116	-0,076	0,028
-704,831	-200,000	0,049	0,273
-703,816	263,573	-0,038	0,048
-702,802	-2,562	-0,098	-0,050
-701,787	-2,408	-0,157	-0,080
-700,772	-200,000	-0,001	-0,090
-699,758	-24,975	0,110	-0,047
-698,743	182,060	-0,038	-0,041
-697,729	341,079	-0,064	-0,091
-696,714	164,308	-0,032	-0,033
-695,699	658,818	0,020	-0,037
-694,685	-18,599	-0,243	0,110
-693,670	-132,528	0,083	0,008
-692,656	-89,581	0,181	0,038
-691,641	-200,000	-0,014	-0,082
-690,627	-36,421	0,219	0,085
-689,612	-19,019	0,107	0,048
-688,597	22,477	-0,054	-0,032
-687,583	-200,000	0,030	-0,097
-686,568	800,000	0,040	-0,124
-685,554	57,536	-0,090	-0,064
-684,539	4,137	0,016	-0,008
-683,524	-200,000	0,001	0,004
-682,510	-200,000	-0,005	0,152
-681,495	405,949	0,055	0,085
-680,481	192,576	-0,040	-0,044
-679,466	800,000	0,013	-0,031
-678,451	404,792	-0,054	-0,083
-677,437	800,000	0,067	-0,153
-676,422	314,881	0,029	-0,040
-675,408	184,323	0,024	0,025
-674,393	-111,525	-0,168	0,025
-673,378	-200,000	0,039	-0,125
-672,364	-118,455	-0,137	-0,017
-671,349	328,661	-0,077	-0,108
-670,335	133,429	-0,042	-0,039
-669,320	245,125	-0,086	0,105
-668,305	484,059	0,030	0,050
-667,291	563,212	0,025	0,044
-666,276	-21,038	-0,032	0,014
-665,262	-110,025	-0,032	0,005
-664,247	112,594	-0,089	0,078
-663,232	-200,000	-0,008	-0,034
-662,218	-200,000	-0,020	0,165
-661,203	-200,000	-0,006	0,085
-660,189	237,017	0,094	0,114
-659,174	51,669	-0,029	0,020
-658,159	-200,000	-0,031	-0,107
-657,145	-200,000	0,015	-0,107
-656,130	-170,592	-0,050	0,001
-655,116	800,000	0,094	0,190
-654,101	146,755	0,090	0,088
-653,086	-200,000	-0,002	0,128
-652,072	-200,000	-0,044	-0,152
-651,057	-98,283	-0,100	0,018
-650,043	-149,552	-0,100	0,006
-649,028	-200,000	-0,013	0,112
-648,014	-14,100	0,091	0,042
-646,999	396,665	0,024	-0,036
-645,984	588,243	-0,027	0,049
-644,970	800,000	-0,004	-0,011
-643,955	-12,257	-0,104	-0,049
-642,941	800,000	-0,022	-0,052
-641,926	-120,615	-0,122	-0,015
-640,911	419,447	-0,046	-0,072
-639,897	-55,002	0,070	0,023
-638,882	581,032	-0,044	0,078
-637,868	800,000	0,013	-0,030
-636,853	-200,000	0,054	-0,215
-635,838	800,000	-0,048	-0,101
-634,824	800,000	-0,037	-0,100
-633,809	-200,000	-0,013	-0,095
-632,795	330,648	0,117	0,163
-631,780	-200,000	-0,005	0,021
-630,765	-10,756	-0,030	-0,014
-629,751	-71,692	-0,062	-0,017
-628,736	800,000	0,036	-0,092
-627,722	87,546	-0,027	-0,022
-626,707	166,114	0,019	0,019
-625,692	97,071	0,088	0,073
-624,678	52,652	-0,129	0,089
-623,663	-200,000	-0,015	-0,078
-622,649	-23,613	-0,150	-0,065
-621,634	108,825	-0,043	0,038
-620,619	-200,000	-0,002	0,055
-619,605	177,865	-0,019	0,020
-618,590	486,927	-0,024	0,039
-617,576	13,862	0,087	0,049
-616,561	-133,093	-0,074	-0,007
-615,546	-72,551	-0,106	0,028
-614,532	800,000	0,032	-0,084
-613,517	-200,000	-0,001	-0,109
-612,503	-139,582	-0,145	-0,011
-611,488	-21,326	-0,080	0,035
-610,474	800,000	0,049	-0,126
-609,459	-172,902	0,065	0,001
-608,444	-77,015	-0,177	-0,045
-607,430	105,994	-0,077	-0,066
-606,415	-200,000	0,012	-0,073
-605,401	-200,000	0,012	-0,073
-604,386	27,713	0,101	0,061
-603,371	-200,000	-0,004	0,016
-602,357	-45,828	-0,089	0,032
-601,342	800,000	-0,031	-0,069
-600,328	-200,000	0,025	-0,118
-599,313	-150,284	0,025	-0,001
-598,298	326,397	-0,028	-0,039
-597,284	441,344	0,075	0,120
-596,269	110,969	0,023	0,020
-595,255	41,896	-0,078	0,051
-594,240	129,674	0,086	-0,079
-593,225	800,000	-0,020	0,047
-592,211	-83,349	-0,050	0,011
-591,196	124,451	-0,058	0,053
-590,182	58,394	0,072	-0,051
-589,167	-19,281	0,103	-0,046
-588,152	281,243	-0,072	-0,093
-587,138	236,392	0,020	0,024
-586,123	-200,000	-0,000	-0,032
-585,109	-200,000	-0,048	-0,191
-584,094	208,939	0,105	-0,120
-583,079	800,000	-0,048	-0,148
-582,065	-113,203	0,035	-0,005
-581,050	-27,856	0,099	0,041
-580,036	800,000	-0,008	0,020
-579,021	-8,322	-0,060	0,029
-578,006	158,431	-0,081	-0,081
-576,992	800,000	0,023	0,068
-575,977	428,801	0,069	0,108
-574,963	223,482	0,074	0,087
-573,948	244,019	0,026	-0,032
-572,934	184,574	0,022	-0,024
-571,919	-124,793	-0,158	0,017
-570,904	30,935	-0,105	-0,065
-569,890	42,339	-0,027	0,018
-568,875	55,799	0,087	0,061
-567,861	-200,000	0,007	-0,057
-566,846	-36,692	-0,050	0,019
-565,831	327,278	0,025	-0,035
-564,817	-140,893	-0,102	0,007
-563,802	-104,797	0,190	-0,031
-562,788	467,633	0,025	-0,040
-561,773	82,130	0,013	-0,010
-560,758	456,168	-0,068	0,110
-559,744	59,969	0,137	0,098
-558,729	16,791	0,040	0,023
-557,715	112,415	0,023	0,020
-556,700	-200,000	0,007	0,074
-555,685	-77,571	-0,062	-0,015
-554,671	-67,568	0,068	0,019
-553,656	-200,000	-0,001	0,010
-552,642	723,999	0,023	0,044
-551,627	-200,000	0,021	-0,068
-550,612	-70,048	-0,089	0,024
-549,598	-1,254	0,035	0,018
-548,583	-62,418	0,029	0,009
-547,569	-53,106	-0,091	-0,030
-546,554	-151,554	0,077	-0,004
-545,539	-68,707	0,045	0,013
-544,525	135,313	0,094	0,088
-543,510	-135,041	0,079	0,007
-542,496	800,000	0,024	0,052
-541,481	118,135	-0,110	-0,098
-540,466	-31,015	0,023	-0,009
-539,452	-61,104	0,077	0,023
-538,437	800,000	0,034	0,101
-537,423	205,583	-0,025	0,028
-536,408	-69,564	0,114	0,031
-535,393	-135,855	-0,253	0,021
-534,379	-47,244	-0,130	-0,046
-533,364	-135,220	0,124	-0,011
-532,350	-96,594	-0,032	0,006
-531,335	-200,000	-0,005	0,031
-530,321	2,854	-0,090	0,047
-529,306	58,777	-0,099	0,070
-528,291	-37,006	-0,130	-0,050
-527,277	6,190	-0,106	-0,057
-526,262	-162,658	-0,088	0,003
-525,248	-200,000	0,026	0,205
-524,233	-31,275	-0,089	0,036
-523,218	-73,955	0,206	-0,054
-522,204	137,914	0,045	0,042
-521,189	-200,000	0,011	0,055
-520,175	168,779	-0,103	-0,106
-519,160	-16,223	-0,029	0,013
-518,145	224,074	-0,049	-0,057
-517,131	12,736	-0,055	0,031
-516,116	408,733	-0,033	0,051
-515,102	-200,000	-0,023	0,158
-514,087	-175,062	-0,084	0,002
-513,072	800,000	-0,040	0,093
-512,058	-200,000	0,005	0,145
-511,043	-11,777	0,054	0,026
-510,029	-200,000	0,006	-0,067
-509,014	-200,000	0,017	-0,107
-507,999	-65,382	0,053	-0,015
-506,985	82,197	-0,097	0,076
-505,970	58,166	-0,088	0,062
-504,956	-104,671	-0,135	-0,022
-503,941	24,755	0,172	-0,102
-502,926	406,580	0,059	0,090
-501,912	95,488	-0,085	0,070
-500,897	182,309	-0,042	0,045
-499,883	800,000	-0,044	0,120
-498,868	8,560	0,108	-0,058
-497,853	434,628	0,030	-0,047
-496,839	-200,000	-0,010	-0,054
-495,824	64,114	0,118	-0,085
-494,810	16,228	0,052	0,029
-493,795	50,115	0,007	-0,005
-492,781	-200,000	0,002	-0,018
-491,766	27,961	0,095	-0,057
-490,751	51,336	-0,158	0,108
-489,737	627,901	-0,041	0,074
-488,722	287,777	0,040	0,052
-487,708	800,000	-0,028	0,063
-486,693	-200,000	-0,008	0,105
-485,678	447,704	0,044	-0,069
-484,664	190,611	-0,075	-0,081
-483,649	253,857	0,042	0,052
-482,635	140,804	0,057	-0,054
-481,620	504,831	0,047	0,078
-480,605	800,000	0,089	0,231
-479,591	-200,000	-0,038	0,126
-478,576	800,000	0,024	-0,049
-477,562	-123,967	-0,112	0,013
-476,547	-57,914	0,069	0,022
-475,532	-200,000	-0,014	-0,052
-474,518	800,000	0,032	0,088
-473,503	22,012	-0,070	0,041
-472,489	184,540	-0,087	0,093
-471,474	-200,000	-0,015	0,127
-470,459	179,041	-0,107	0,113
-469,445	-200,000	0,024	-0,162
-468,430	-147,533	-0,094	-0,006
-467,416	-22,158	0,045	0,020
-466,401	-82,455	0,148	-0,034
-465,386	288,189	0,050	0,065
-464,372	-33,953	0,015	-0,006
-463,357	-75,530	0,070	-0,018
-462,343	-200,000	-0,021	-0,190
-461,328	-72,429	-0,121	-0,032
-460,313	-73,237	-0,237	-0,062
-459,299	-84,010	0,062	-0,014
-458,284	-200,000	0,039	0,133
-457,270	-57,732	0,033	-0,010
-456,255	800,000	0,030	-0,066
-455,241	126,346	-0,066	-0,060
-454,226	793,685	-0,042	0,083
-453,211	-68,381	0,070	-0,019
-452,197	470,880	0,014	0,023
-451,182	-200,000	-0,017	0,066
-450,168	250,034	-0,055	0,067
-449,153	130,846	0,094	0,087
-448,138	-83,624	-0,160	-0,036
-447,124	-46,863	-0,049	0,017
-446,109	-32,719	0,199	-0,079
-445,095	-78,106	-0,139	0,034
-444,080	-200,000	-0,006	0,114
-443,065	-64,846	0,059	-0,017
-442,051	-62,153	-0,172	-0,051
-441,036	-200,000	-0,005	0,039
-440,022	127,621	-0,118	-0,108
-439,007	163,884	0,037	0,037
-437,992	593,795	0,073	-0,130
-436,978	212,912	-0,045	-0,051
-435,963	-92,201	0,108	0,022
-434,949	-122,003	0,075	-0,009
-433,934	-200,000	0,007	-0,128
-432,919	-107,337	0,063	-0,010
-431,905	-200,000	0,027	-0,142
-430,890	121,041	0,038	0,034
-429,876	13,520	0,063	-0,035
-428,861	769,213	0,046	0,090
-427,846	766,053	-0,028	-0,056
-426,832	653,559	0,106	-0,196
-425,817	-200,000	-0,029	-0,192
-424,803	-200,000	0,014	-0,056
-423,788	203,808	0,067	-0,075
-422,773	800,000	0,008	0,023
-421,759	-73,240	0,135	0,035
-420,744	800,000	-0,044	-0,089
-419,730	-147,115	-0,118	0,007
-418,715	-132,504	-0,100	0,009
-417,701	105,679	0,107	0,091
-416,686	-84,769	0,101	-0,023
-415,671	-120,906	0,137	-0,016
-414,657	15,021	0,093	0,052
-413,642	420,441	-0,056	-0,087
-412,628	223,403	0,066	-0,077
-411,613	491,787	0,028	0,046
-410,598	-126,325	0,160	-0,017
-409,584	-200,000	-0,020	0,098
-408,569	800,000	0,026	0,077
-407,555	92,174	-0,063	0,051
-406,540	56,807	-0,011	-0,007
-405,525	722,604	-0,069	-0,133
-404,511	23,802	-0,074	0,043
-403,496	103,716	-0,019	-0,016
-402,482	-18,070	0,112	0,050
-401,467	800,000	-0,011	-0,029
-400,452	14,931	0,103	-0,058
-399,438	-61,550	-0,043	-0,013
-398,423	-96,176	-0,182	0,034
-397,409	-200,000	0,015	-0,081
-396,394	800,000	-0,013	0,031
-395,379	50,547	-0,056	0,038
-394,365	106,322	0,135	-0,115
-393,350	-200,000	0,008	0,025
-392,336	-66,971	-0,046	0,013
-391,321	-115,715	0,080	0,011
-390,306	-109,605	-0,106	-0,016
-389,292	-7,628	-0,045	-0,022
-388,277	178,302	-0,046	0,049
-387,263	-200,000	0,017	0,217
-386,248	142,899	0,025	0,024
-385,233	-65,382	0,071	0,020
-384,219	-200,000	-0,007	-0,032
-383,204	-200,000	0,028	-0,131
-382,190	-137,012	-0,071	0,006
-381,175	-200,000	0,003	-0,055
-380,160	-200,000	-0,000	0,041
-379,146	-124,450	0,120	0,013
-378,131	-200,000	0,004	0,079
-377,117	-8,252	0,085	0,041
-376,102	185,106	-0,055	-0,058
-375,088	479,915	0,069	-0,112
-374,073	-200,000	0,046	-0,217
-373,058	144,876	-0,023	-0,022
-372,044	603,655	0,043	0,078
-371,029	29,607	-0,158	-0,096
-370,015	288,362	0,058	0,076
-369,000	90,573	-0,047	0,037
-367,985	-200,000	0,023	-0,088
-366,971	-91,605	0,148	-0,030
-365,956	550,236	-0,038	0,065
-364,942	-132,754	0,054	0,005
-363,927	-200,000	0,052	0,188
-362,912	800,000	0,050	-0,123
-361,898	431,531	-0,083	-0,130
-360,883	31,972	-0,112	-0,069
-359,869	678,174	-0,055	-0,102
-358,854	-148,517	0,123	0,007
-357,839	-28,773	0,103	0,042
-356,825	-4,312	0,048	-0,024
-355,810	-67,862	-0,088	-0,025
-354,796	-200,000	-0,008	-0,105
-353,781	197,736	0,104	-0,114
-352,766	536,490	0,010	-0,017
-351,752	11,589	-0,082	-0,045
-350,737	36,978	0,119	-0,076
-349,723	-200,000	-0,028	0,092
-348,708	540,319	0,026	-0,044
-347,693	-92,323	0,085	-0,017
-346,679	-34,725	0,131	-0,051
-345,664	-199,701	0,021	0,000
-344,650	78,511	-0,055	0,042
-343,635	192,846	0,105	-0,114
-342,620	100,770	0,112	-0,094
-341,606	480,932	0,025	-0,042
-340,591	-73,978	-0,136	-0,035
-339,577	285,055	-0,057	0,074
-338,562	530,129	0,008	0,014
-337,548	-179,359	-0,089	-0,001
-336,533	64,638	0,126	0,091
-335,518	-126,387	0,128	0,014
-334,504	153,094	0,113	0,111
-333,489	689,124	0,031	-0,058
-332,475	-200,000	-0,008	0,063
-331,460	78,112	-0,071	-0,054
-330,445	-200,000	0,006	0,027
-329,431	-109,328	0,062	0,009
-328,416	22,636	0,136	0,079
-327,402	297,293	0,073	-0,096
-326,387	90,750	0,027	0,022
-325,372	-65,068	-0,122	-0,035
-324,358	800,000	0,022	-0,063
-323,343	-200,000	-0,005	0,048
-322,329	130,174	-0,044	0,040
-321,314	40,571	-0,128	-0,082
-320,299	-132,348	0,123	-0,011
-319,285	-200,000	0,025	0,081
-318,270	800,000	0,037	0,108
-317,256	800,000	-0,021	-0,053
-316,241	129,988	-0,107	-0,098
-315,226	521,194	0,018	0,030
-314,212	360,512	0,047	0,067
-313,197	-200,000	0,012	0,072
-312,183	17,084	0,073	-0,041
-311,168	-200,000	0,035	-0,153
-310,153	-190,972	-0,031	-0,000
-309,139	60,184	0,139	0,098
-308,124	-200,000	-0,061	-0,238
-307,110	-101,477	-0,092	-0,016
-306,095	-200,000	0,004	-0,028
-305,080	-200,000	0,003	0,142
-304,066	-51,288	0,089	-0,030
-303,051	89,564	-0,065	-0,052
-302,037	800,000	-0,032	-0,096
-301,022	-200,000	-0,027	-0,112
-300,008	-200,000	0,001	0,018
-298,993	-200,000	0,037	0,212
-297,978	599,112	0,082	0,145
-296,964	-20,049	0,070	0,031
-295,949	229,578	0,102	-0,119
-294,935	-56,954	0,075	0,024
-293,920	-200,000	-0,037	0,145
-292,905	-5,562	0,156	0,076
-291,891	-1,590	-0,067	0,033
-290,876	-132,619	0,078	-0,007
-289,862	-200,000	-0,005	-0,015
-288,847	386,968	-0,050	-0,074
-287,832	-60,765	-0,070	0,021
-286,818	-75,682	0,041	-0,010
-285,803	-200,000	-0,007	0,037
-284,789	618,242	-0,018	-0,033
-283,774	-200,000	-0,027	0,113
-282,759	800,000	-0,071	0,158
-281,745	390,016	-0,044	0,066
-280,730	-200,000	0,001	0,061
-279,716	-200,000	0,003	0,028
-278,701	30,336	0,112	-0,069
-277,686	-200,000	-0,007	0,056
-276,672	-200,000	0,015	0,067
-275,657	521,339	0,023	0,038
-274,643	328,930	0,053	0,072
-273,628	-113,286	-0,103	-0,014
-272,613	7,309	-0,101	-0,054
-271,599	101,123	0,025	0,020
-270,584	800,000	0,040	0,121
-269,570	49,436	-0,059	-0,040
-268,555	-200,000	-0,000	-0,025
-267,540	-19,151	0,142	-0,063
-266,526	-200,000	0,003	-0,024
-265,511	-27,789	-0,031	-0,013
-264,497	-68,242	0,058	-0,016
-263,482	800,000	-0,070	0,139
-262,467	-34,818	-0,091	-0,035
-261,453	-19,598	-0,137	0,060
-260,438	-54,075	-0,130	-0,042
-259,424	800,000	-0,022	-0,051
-258,409	470,183	0,036	-0,058
-257,395	-34,255	-0,020	-0,008
-256,380	-29,265	0,033	-0,013
-255,365	800,000	-0,032	0,093
-254,351	38,549	-0,063	0,040
-253,336	800,000	-0,096	0,213
-252,322	-22,133	-0,259	0,112
-251,307	293,906	0,040	0,053
-250,292	800,000	-0,033	-0,069
-249,278	800,000	-0,034	0,077
-248,263	35,341	0,059	0,037
-247,249	800,000	-0,064	0,145
-246,234	800,000	0,028	-0,080
-245,219	118,761	0,042	-0,037
-244,205	800,000	-0,062	0,155
-243,190	238,365	-0,048	0,057
-242,176	-13,386	0,104	-0,048
-241,161	-98,030	0,035	0,006
-240,146	-200,000	-0,009	-0,203
-239,132	125,349	-0,141	-0,127
-238,117	800,000	-0,071	0,149
-237,103	-90,840	0,171	-0,035
-236,088	-18,638	0,138	0,061
-235,073	101,655	-0,027	-0,022
-234,059	-52,761	0,068	-0,022
-233,044	-142,615	-0,006	-0,000
-232,030	-200,000	0,007	-0,162
-231,015	252,009	-0,034	-0,041
-230,000	150,239	0,021	-0,020
-228,986	-18,143	-0,061	-0,027
-227,971	108,883	0,037	-0,031
-226,957	-200,000	-0,002	0,235
-225,942	245,766	-0,023	0,027
-224,927	5,169	0,106	-0,056
-223,913	800,000	0,010	0,025
-222,898	-200,000	0,007	-0,130
-221,884	162,023	-0,062	0,062
-220,869	302,428	-0,051	-0,068
-219,855	-39,164	0,063	-0,024
-218,840	800,000	-0,023	0,047
-217,825	45,338	0,107	-0,070
-216,811	-190,629	0,118	-0,001
-215,796	-200,000	-0,026	-0,145
-214,782	26,376	0,122	0,073
-213,767	-28,100	-0,160	0,066
-212,752	155,728	0,108	-0,107
-211,738	31,195	-0,030	-0,018
-210,723	153,182	0,110	0,107
-209,709	536,567	0,038	0,065
-208,694	-200,000	-0,030	0,108
-207,679	-77,132	0,055	-0,014
-206,665	-200,000	0,004	-0,086
-205,650	-200,000	0,003	0,136
-204,636	800,000	0,033	0,082
-203,621	-200,000	-0,003	0,054
-202,606	-20,601	-0,135	-0,059
-201,592	35,460	-0,128	-0,080
-200,577	3,370	-0,129	-0,067
-199,563	171,973	0,082	-0,084
-198,548	-200,000	-0,001	0,083
-197,533	15,213	-0,043	-0,024
-196,519	-5,883	-0,004	0,002
-195,504	800,000	0,036	-0,077
-194,490	-79,651	-0,138	0,033
-193,475	-61,136	-0,118	0,035
-192,460	-74,753	0,108	0,028
-191,446	52,490	0,071	0,048
-190,431	800,000	-0,065	0,131
-189,417	348,054	0,078	0,111
-188,402	-169,245	-0,058	0,001
-187,387	138,781	0,027	-0,025
-186,373	-56,739	-0,056	-0,018
-185,358	379,221	-0,100	-0,147
-184,344	83,167	0,083	0,064
-183,329	-29,093	0,062	-0,025
-182,315	390,186	0,074	-0,110
-181,300	239,845	-0,067	-0,079
-180,285	-200,000	-0,015	-0,053
-179,271	289,447	0,070	0,090
-178,256	-200,000	-0,009	-0,082
-177,242	-108,703	0,111	-0,017
-176,227	-200,000	0,008	-0,228
-175,212	-146,482	0,070	-0,004
-174,198	-200,000	0,012	0,107
-173,183	47,191	-0,118	-0,078
-172,169	719,105	-0,019	-0,036
-171,154	-200,000	0,004	-0,017
-170,139	-200,000	0,042	0,194
-169,125	-200,000	0,001	-0,060
-168,110	-200,000	-0,020	0,075
-167,096	401,252	-0,029	-0,043
-166,081	264,582	0,038	-0,048
-165,066	800,000	-0,042	-0,082
-164,052	-36,413	0,041	0,016
-163,037	800,000	0,066	0,140
-162,023	-105,667	-0,172	0,027
-161,008	49,550	0,010	-0,007
-159,993	550,513	0,085	0,145
-158,979	85,614	-0,047	-0,037
-157,964	-42,907	-0,142	-0,051
-156,950	79,668	-0,172	-0,131
-155,935	308,667	0,028	0,037
-154,920	-44,377	-0,036	-0,013
-153,906	800,000	0,009	0,025
-152,891	590,384	-0,035	0,061
-151,877	-200,000	0,007	0,050
-150,862	110,731	0,068	0,058
-149,847	-32,562	-0,180	0,071
-148,833	-200,000	0,001	-0,025
-147,818	-126,433	0,075	0,008
-146,804	800,000	0,040	0,087
-145,789	-200,000	0,035	0,125
-144,775	-200,000	-0,014	-0,093
-143,760	-59,451	0,025	-0,008
-142,745	27,883	-0,133	-0,079
-141,731	-200,000	0,003	0,071
-140,716	179,018	-0,040	0,041
-139,702	-200,000	0,004	-0,122
-138,687	716,323	0,047	0,088
-137,672	-121,698	-0,214	-0,025
-136,658	-200,000	0,010	-0,154
-135,643	-200,000	-0,054	-0,214
-134,629	-81,630	-0,132	0,031
-133,614	66,906	0,104	0,075
-132,599	298,825	0,084	-0,110
-131,585	-97,804	0,013	0,002
-130,570	148,310	-0,022	0,021
-129,556	114,787	-0,065	0,056
-128,541	-92,576	0,106	-0,021
-127,526	40,797	0,087	0,055
-126,512	200,618	0,049	-0,054
-125,497	-200,000	-0,020	0,065
-124,483	-36,937	0,067	-0,025
-123,468	-47,506	0,098	-0,033
-122,453	232,626	-0,065	-0,076
-121,439	-200,000	-0,006	0,093
-120,424	31,579	-0,038	0,023
-119,410	-200,000	-0,015	0,104
-118,395	151,788	-0,031	0,030
-117,380	-158,519	-0,046	-0,002
-116,366	17,958	0,193	0,109
-115,351	12,145	-0,031	0,017
-114,337	-200,000	-0,011	-0,043
-113,322	379,668	-0,035	-0,051
-112,307	17,133	0,052	0,029
-111,293	36,314	0,088	-0,055
-110,278	800,000	-0,034	-0,087
-109,264	105,213	-0,095	0,080
-108,249	-11,259	-0,035	-0,016
-107,234	800,000	-0,032	-0,065
-106,220	-200,000	-0,018	-0,062
-105,205	149,117	0,081	-0,078
-104,191	502,067	0,070	-0,116
-103,176	167,410	0,125	-0,126
-102,162	-174,996	-0,043	-0,001
-101,147	-54,565	0,118	0,038
-100,132	208,574	-0,013	0,014
-99,118	166,485	-0,017	0,017
-98,103	-191,001	0,040	-0,000
-97,089	800,000	0,053	0,108
-96,074	-51,917	0,138	0,045
-95,059	563,211	-0,051	-0,088
-94,045	270,237	-0,051	0,064
-93,030	253,636	-0,114	-0,139
-92,016	-200,000	-0,001	-0,034
-91,001	-200,000	-0,004	-0,064
-89,986	-200,000	0,060	0,000
-88,972	-200,000	0,027	0,121
-87,957	-78,540	-0,029	-0,007
-86,943	-200,000	0,005	-0,160
-85,928	-130,959	-0,096	0,009
-84,913	-200,000	0,002	-0,077
-83,899	202,907	-0,061	-0,067
-82,884	57,845	0,119	-0,083
-81,870	582,035	0,024	0,043
-80,855	-200,000	-0,025	0,091
-79,840	70,638	0,032	0,023
-78,826	800,000	0,004	0,009
-77,811	800,000	-0,055	-0,120
-76,797	-4,009	0,073	0,036
-75,782	90,658	0,062	-0,050
-74,767	148,963	0,067	-0,064
-73,753	235,031	0,076	0,089
-72,738	447,636	0,051	0,081
-71,724	-200,000	-0,007	-0,050
-70,709	193,605	-0,035	0,038
-69,694	-200,000	0,015	-0,068
-68,680	-200,000	-0,004	0,057
-67,665	403,366	-0,004	0,006
-66,651	800,000	0,060	0,130
-65,636	-200,000	0,015	0,136
-64,622	-70,202	0,044	-0,012
-63,607	-200,000	-0,041	-0,140
-62,592	-117,516	-0,069	0,009
-61,578	-135,953	0,101	0,008
-60,563	110,123	0,098	-0,083
-59,549	-53,601	0,028	-0,009
-58,534	-53,316	-1,549	-0,500
-57,519	360,813	-1,542	-2,196
-56,505	-200,000	-0,575	-4,538
-55,490	141,797	0,836	0,786
-54,476	800,000	4,981	11,401
-53,461	-200,000	18,209	289,947
-52,446	800,000	728,143	2238,625
-51,432	558,662	1644,010	2822,118
-50,417	79,154	1665,176	1262,925
-49,403	22,707	1538,606	890,476
-48,388	16,627	1461,907	816,625
-47,373	17,860	1451,802	816,889
-46,359	17,175	1442,228	808,192
-45,344	14,932	1437,577	794,838
-44,330	14,839	1435,659	793,305
-43,315	14,865	1433,896	792,421
-42,300	14,844	1432,386	791,458
-41,286	14,939	1431,067	791,146
-40,271	14,907	1429,840	790,288
-39,257	14,869	1428,514	789,340
-38,242	14,933	1427,115	788,840
-37,227	14,928	1425,868	788,097
-36,213	14,965	1424,487	787,478
-35,198	14,903	1423,735	786,734
-34,184	14,932	1422,823	786,338
-33,169	14,814	1421,491	785,015
-32,154	14,881	1420,417	784,704
-31,140	14,917	1419,177	784,162
-30,125	14,953	1417,950	783,618
-29,111	14,938	1416,882	782,927
-28,096	14,924	1415,688	782,171
-27,082	14,852	1414,555	781,176
-26,067	14,864	1413,268	780,491
-25,052	14,860	1412,199	779,852
-24,038	14,829	1411,421	779,246
-23,023	14,781	1410,629	778,552
-22,009	14,804	1409,485	777,998
-20,994	14,802	1408,661	777,503
-19,979	14,778	1407,686	776,818
-18,965	14,711	1406,817	775,997
-17,950	14,748	1405,746	775,549
-16,936	14,765	1404,832	775,092
-15,921	14,721	1403,624	774,191
-14,906	14,687	1402,851	773,575
-13,892	14,733	1401,961	773,270
-12,877	14,687	1401,201	772,605
-11,863	14,749	1399,818	772,098
-10,848	14,715	1399,351	771,650
-9,833	14,683	1398,459	770,980
-8,819	14,637	1397,504	770,212
-7,804	14,609	1396,510	769,504
-6,790	14,626	1395,373	768,925
-5,775	14,631	1394,346	768,351
-4,760	14,653	1393,509	767,960
-3,746	14,668	1392,611	767,504
-2,731	14,642	1391,791	766,901
-1,717	14,605	1390,930	766,225
-0,702	14,624	1389,181	765,320
0,313	18,354	1308,196	737,993
1,327	34,595	706,142	435,995
2,342	52,785	124,575	84,197
3,356	2,655	16,603	8,494
4,371	-5,441	3,097	1,500
5,386	160,442	0,443	0,437
6,400	-200,000	-0,023	0,130
7,415	-115,015	-0,333	-0,044
8,429	-29,806	-0,314	-0,126
9,444	-6,627	-0,244	-0,117
10,459	67,464	-0,231	-0,166
11,473	-30,976	-0,383	-0,152
12,488	122,086	-0,201	-0,177
13,502	41,540	-0,416	-0,266
14,517	212,321	-0,180	-0,201
15,531	16,645	-0,356	-0,199
16,546	21,414	-0,387	-0,222
17,561	15,798	-0,418	-0,232
18,575	62,018	-0,227	-0,160
19,590	137,338	-0,247	-0,229
20,604	28,434	-0,262	-0,156
21,619	90,152	-0,381	-0,301
22,634	529,177	-0,271	-0,455
23,648	133,958	-0,364	-0,333
24,663	23,914	-0,390	-0,227
25,677	535,791	-0,212	-0,356
26,692	136,943	-0,358	-0,331
27,707	167,317	-0,312	-0,313
28,721	38,603	-0,343	-0,215
29,736	54,154	-0,453	-0,307
30,750	52,556	-0,408	-0,275
31,765	62,664	-0,343	-0,242
32,780	56,596	-0,408	-0,280
33,794	615,347	-0,192	-0,341
34,809	119,433	-0,345	-0,301
35,823	110,459	-0,319	-0,270
36,838	172,813	-0,356	-0,363
37,853	37,039	-0,526	-0,328
38,867	613,318	-0,195	-0,346
39,882	-13,079	-0,518	-0,237
40,896	-22,136	-0,225	-0,096
41,911	62,835	-0,281	-0,198
42,926	81,298	-0,234	-0,178
43,940	424,633	-0,227	-0,346
44,955	-2,246	-0,371	-0,183
45,969	48,553	-0,432	-0,285
46,984	100,577	-0,176	-0,144
47,999	-0,826	-0,290	-0,144
49,013	-11,279	-0,201	-0,093
50,028	270,383	-0,268	-0,333
51,042	180,102	-0,241	-0,250
52,057	167,621	-0,321	-0,322
53,071	214,029	-0,425	-0,475
54,086	105,653	-0,325	-0,270
55,101	-10,605	-0,427	-0,199
56,115	-12,212	-0,348	-0,160
57,130	21,652	-0,359	-0,206
58,144	-30,252	-0,325	-0,130
59,159	56,283	-0,455	-0,311
60,174	-7,493	-0,467	-0,222
61,188	-24,967	-0,479	-0,199
62,203	12,091	-0,345	-0,186
63,217	148,527	-0,332	-0,316
64,232	58,118	-0,274	-0,189
65,247	-26,965	-0,439	-0,180
66,261	-63,096	-0,417	-0,120
67,276	265,053	-0,218	-0,268
68,290	51,963	-0,387	-0,259
69,305	291,950	-0,224	-0,288
70,320	2,020	-0,349	-0,177
71,334	40,308	-0,293	-0,185
72,349	72,797	-0,286	-0,210
73,363	317,130	-0,279	-0,372
74,378	190,631	-0,254	-0,269
75,393	137,455	-0,345	-0,318
76,407	-20,071	-0,339	-0,147
77,422	746,443	-0,142	-0,271
78,436	26,971	-0,277	-0,163
79,451	0,002	-0,296	-0,148
80,466	40,951	-0,251	-0,159
81,480	133,350	-0,337	-0,307
82,495	85,565	-0,336	-0,260
83,509	87,730	-0,365	-0,284
84,524	-46,529	-0,201	-0,069
85,539	116,248	-0,216	-0,186
86,553	170,324	-0,296	-0,298
87,568	47,400	-0,321	-0,210
88,582	88,377	-0,281	-0,219
89,597	187,053	-0,215	-0,225
90,611	19,374	-0,341	-0,192
91,626	100,162	-0,270	-0,220
92,641	-18,278	-0,265	-0,116
93,655	128,521	-0,251	-0,225
94,670	-33,612	-0,288	-0,111
95,684	-9,957	-0,372	-0,173
96,699	208,495	-0,319	-0,351
97,714	15,552	-0,268	-0,147
98,728	692,234	-0,153	-0,283
99,743	49,119	-0,291	-0,191
100,757	-105,502	-0,321	-0,051
101,772	-72,036	-0,376	-0,097
102,787	103,028	-0,223	-0,183
103,801	129,180	-0,383	-0,343
104,816	125,073	-0,182	-0,161
105,830	57,672	-0,259	-0,177
106,845	54,981	-0,212	-0,143
107,860	54,338	-0,194	-0,131
108,874	185,166	-0,239	-0,249
109,889	100,780	-0,270	-0,220
110,903	-12,456	-0,280	-0,128
111,918	-25,322	-0,338	-0,139
112,933	-13,771	-0,270	-0,122
113,947	-63,425	-0,362	-0,104
114,962	-71,148	-0,176	-0,046
115,976	2,411	-0,305	-0,154
116,991	30,663	-0,229	-0,137
118,006	82,652	-0,285	-0,217
119,020	-100,119	-0,365	-0,063
120,035	12,857	-0,261	-0,141
121,049	41,879	-0,242	-0,153
122,064	89,922	-0,228	-0,178
123,079	-117,763	-0,126	-0,016
124,093	378,432	-0,180	-0,259
125,108	505,233	-0,151	-0,246
126,122	7,634	-0,242	-0,127
127,137	-86,565	-0,268	-0,057
128,151	-24,620	-0,304	-0,126
129,166	66,205	-0,236	-0,168
130,181	108,153	-0,215	-0,179
131,195	102,238	-0,200	-0,164
132,210	43,426	-0,373	-0,238
133,224	40,865	-0,339	-0,214
134,239	18,501	-0,260	-0,145
135,254	135,735	-0,187	-0,170
136,268	441,474	-0,133	-0,205
137,283	-5,731	-0,277	-0,132
138,297	-26,157	-0,248	-0,102
139,312	125,824	-0,207	-0,183
140,327	9,389	-0,306	-0,161
141,341	28,107	-0,260	-0,153
142,356	410,562	-0,184	-0,273
143,370	-11,238	-0,293	-0,135
144,385	212,725	-0,193	-0,213
145,400	82,798	-0,288	-0,219
146,414	158,747	-0,268	-0,260
147,429	66,888	-0,233	-0,166
148,443	231,755	-0,209	-0,240
149,458	75,510	-0,225	-0,166
150,473	-17,448	-0,096	-0,042
151,487	-67,383	-0,334	-0,091
152,502	-46,103	-0,273	-0,093
153,516	39,119	-0,332	-0,207
154,531	239,723	-0,237	-0,276
155,546	71,669	-0,207	-0,150
156,560	399,433	-0,194	-0,284
157,575	135,258	-0,196	-0,178
158,589	-47,548	-0,215	-0,072
159,604	800,000	-0,046	-0,130
160,619	396,554	-0,176	-0,257
161,633	9,848	-0,332	-0,175
162,648	43,812	-0,301	-0,192
163,662	82,707	-0,253	-0,192
164,677	205,958	-0,108	-0,118
165,692	57,718	-0,214	-0,146
166,706	-16,150	-0,321	-0,142
167,721	14,502	-0,130	-0,070
168,735	225,558	-0,255	-0,289
169,750	92,457	-0,213	-0,168
170,764	301,552	-0,140	-0,180
171,779	177,642	-0,186	-0,190
172,794	43,240	-0,246	-0,156
173,808	-39,366	-0,233	-0,085
174,823	0,268	-0,279	-0,139
175,837	183,889	-0,328	-0,339
176,852	216,635	-0,227	-0,253
177,867	176,231	-0,251	-0,254
178,881	-64,304	-0,227	-0,064
179,896	16,284	-0,251	-0,138
180,910	7,920	-0,276	-0,144
181,925	49,794	-0,213	-0,140
182,940	97,880	-0,242	-0,194
183,954	94,123	-0,249	-0,197
184,969	240,094	-0,119	-0,138
185,983	-86,271	-0,215	-0,046
186,998	-125,834	-0,262	-0,027
188,013	46,883	-0,196	-0,127
189,027	77,083	-0,200	-0,148
190,042	221,150	-0,276	-0,309
191,056	70,975	-0,222	-0,160
192,071	-79,452	-0,156	-0,036
193,086	179,949	-0,223	-0,228
194,100	339,650	-0,080	-0,109
195,115	369,139	-0,126	-0,178
196,129	103,208	-0,237	-0,193
197,144	-27,693	-0,291	-0,117
198,159	149,472	-0,179	-0,169
199,173	78,936	-0,110	-0,082
200,188	95,043	-0,230	-0,182
201,202	255,936	-0,077	-0,093
202,217	-124,537	-0,175	-0,019
203,232	0,769	-0,229	-0,114
204,246	141,103	-0,242	-0,223
205,261	122,447	-0,188	-0,163
206,275	86,018	-0,223	-0,171
207,290	195,345	-0,179	-0,189
208,304	132,111	-0,258	-0,231
209,319	23,033	-0,183	-0,104
210,334	-26,954	-0,278	-0,112
211,348	4,413	-0,263	-0,134
212,363	35,818	-0,210	-0,128
213,377	800,000	-0,060	-0,132
214,392	32,826	-0,131	-0,079
215,407	-18,382	-0,202	-0,087
216,421	-6,977	-0,201	-0,095
217,436	12,892	-0,171	-0,091
218,450	367,183	-0,216	-0,305
219,465	-13,940	-0,216	-0,097
220,480	-89,383	-0,228	0,046
221,494	-127,433	-0,208	-0,021
222,509	-159,460	-0,194	0,007
223,523	-25,947	-0,204	-0,083
224,538	139,361	-0,142	-0,130
225,553	115,474	-0,154	-0,131
226,567	86,110	-0,212	-0,162
227,582	94,257	-0,153	-0,121
228,596	499,324	-0,064	-0,103
229,611	-43,478	-0,173	-0,060
230,626	-2,737	-0,017	0,008
231,640	-5,528	-0,153	-0,072
232,655	54,539	-0,224	-0,150
233,669	200,509	-0,195	-0,209
234,684	-2,275	-0,180	-0,087
235,699	234,040	-0,191	-0,219
236,713	-24,212	-0,088	-0,036
237,728	-36,452	-0,168	0,062
238,742	13,812	-0,247	-0,133
239,757	168,527	-0,161	-0,160
240,772	35,857	-0,194	-0,118
241,786	800,000	-0,062	-0,143
242,801	48,767	-0,118	-0,077
243,815	405,918	-0,065	-0,096
244,830	374,955	-0,139	-0,196
245,844	190,853	-0,151	-0,158
246,859	800,000	-0,090	-0,237
247,874	198,421	-0,154	-0,164
248,888	252,607	-0,152	-0,180
249,903	164,206	-0,113	-0,110
250,917	-121,659	-0,213	0,024
251,932	46,112	-0,235	-0,150
252,947	107,169	-0,120	-0,099
253,961	474,016	-0,187	-0,294
254,976	-65,452	-0,276	-0,076
255,990	120,048	-0,162	-0,139
257,005	44,144	-0,183	-0,116
258,020	-42,215	-0,103	-0,036
259,034	376,170	-0,172	-0,244
260,049	219,149	-0,218	-0,241
261,063	392,047	-0,096	-0,139
262,078	365,450	-0,165	-0,231
263,093	130,356	-0,262	-0,232
264,107	79,929	-0,275	-0,205
265,122	-29,906	-0,149	-0,058
266,136	-76,939	-0,161	-0,039
267,151	-30,695	-0,110	-0,043
268,166	220,074	-0,091	-0,101
269,180	800,000	-0,093	-0,201
270,195	90,753	-0,215	-0,167
271,209	-91,718	-0,226	-0,044
272,224	800,000	-0,063	-0,172
273,239	-163,127	-0,189	0,006
274,253	-150,718	-0,109	-0,006
275,268	250,146	-0,111	-0,130
276,282	356,665	-0,132	-0,183
277,297	-75,138	-0,285	-0,070
278,312	69,701	-0,178	-0,126
279,326	397,843	-0,101	-0,146
280,341	205,709	-0,123	-0,133
281,355	184,005	-0,117	-0,120
282,370	129,345	-0,128	-0,113
283,384	443,121	-0,151	-0,229
284,399	262,636	-0,157	-0,189
285,414	-112,922	-0,181	0,024
286,428	-34,493	-0,174	0,065
287,443	78,416	-0,104	-0,077
288,457	-28,954	-0,126	-0,050
289,472	-83,003	-0,038	-0,008
290,487	630,919	-0,213	-0,373
291,501	267,436	-0,266	-0,323
292,516	108,733	-0,248	-0,204
293,530	-10,154	-0,108	0,049
294,545	177,576	-0,153	-0,154
295,560	-200,000	-0,016	-0,109
296,574	-117,321	-0,126	-0,016
297,589	585,959	-0,062	-0,105
298,603	800,000	-0,055	-0,128
299,618	32,340	-0,114	-0,068
300,633	239,063	-0,066	-0,076
301,647	149,295	-0,033	-0,030
302,662	43,532	-0,131	-0,083
303,676	68,087	-0,089	0,062
304,691	350,722	-0,073	-0,100
305,706	-7,636	-0,237	-0,110
306,720	800,000	-0,082	-0,190
307,735	382,667	-0,122	-0,174
308,749	687,632	-0,151	-0,273
309,764	554,432	-0,119	-0,198
310,779	704,754	-0,063	-0,115
311,793	360,469	-0,126	-0,174
312,808	14,271	-0,161	-0,086
313,822	561,657	-0,098	-0,164
314,837	-114,778	-0,164	-0,021
315,852	-83,223	-0,057	0,012
316,866	800,000	-0,085	-0,207
317,881	-50,089	-0,168	0,055
318,895	74,647	-0,165	-0,119
319,910	-69,641	-0,293	-0,077
320,925	98,957	-0,158	-0,126
321,939	69,071	-0,243	-0,172
322,954	82,452	-0,141	-0,105
323,968	-176,901	-0,085	0,001
324,983	-101,854	-0,122	-0,020
325,997	-67,079	-0,099	-0,027
327,012	546,878	-0,083	-0,137
328,027	-200,000	-0,036	-0,222
329,041	-70,078	-0,127	0,033
330,056	716,456	-0,087	-0,159
331,070	89,300	-0,114	-0,087
332,085	-73,174	-0,136	-0,034
333,100	101,114	-0,128	-0,103
334,114	37,433	-0,192	-0,117
335,129	269,539	-0,082	-0,099
336,143	-48,959	-0,090	-0,029
337,158	298,867	-0,077	-0,097
338,173	155,805	-0,164	-0,155
339,187	18,375	-0,154	-0,084
340,202	-162,906	-0,075	-0,002
341,216	800,000	-0,068	-0,159
342,231	-139,925	-0,156	-0,011
343,246	248,571	-0,233	-0,271
344,260	295,809	-0,088	-0,111
345,275	28,353	-0,109	0,063
346,289	91,134	-0,105	-0,081
347,304	-200,000	-0,008	-0,038
348,319	41,312	-0,210	-0,130
349,333	319,830	-0,171	-0,223
350,348	154,340	-0,243	-0,229
351,362	-86,770	-0,132	0,027
352,377	32,308	-0,056	-0,033
353,392	-109,958	-0,123	0,017
354,406	-25,985	-0,178	-0,072
355,421	207,360	1312,619	1407,634
356,435	159,509	1473,109	1408,146
