DTS Sentinel unit serial number:	SN410029Multiplexer serial number:	ORYXHardware model number:	OX2-SRSoftware version number:	ORYX F/W v4,00 Oryx Data Collector v3.7.2.0data status	okinstallation	B3 Nyhavnadifferential loss correction	single-endedforward channel	channel 1reverse channel	N/Adate	2023/12/04time	09:42:30forward acquisition time	300,00reverse acquisition time	0,00gamma	499,1914k internal	0,3203k external	0,3203temperature offset calibration	1,0000default loss term (dB/km)	0,3820temperature slope calibration	1,0000multiplexer offset coefficient	1,0000multiplexer slope coefficient	1,0000fibre end	0,00T internal ref (°C)	13,26T ext. ref 1 (°C)	-1,09T ext. ref 2 (°C)	-1,12length (m)	temperature (°C)	Stokes	anti-Stokes-744,400	147,618	-0,211	-0,206
-743,385	800,000	0,080	0,249
-742,371	617,717	-0,081	-0,149
-741,356	-200,000	0,076	0,296
-740,342	13,385	-0,270	-0,151
-739,327	-200,000	0,008	0,259
-738,312	135,098	-0,229	-0,216
-737,298	-200,000	-0,033	0,221
-736,283	458,385	-0,183	-0,297
-735,269	-200,000	0,074	0,319
-734,254	82,372	-0,142	-0,112
-733,239	-51,029	-0,225	0,076
-732,225	449,338	-0,117	-0,189
-731,210	-72,558	0,036	-0,010
-730,196	-81,773	-0,072	0,017
-729,181	255,635	0,108	0,135
-728,167	-200,000	-0,032	0,106
-727,152	565,570	-0,020	-0,035
-726,137	-112,756	-0,121	0,017
-725,123	195,338	-0,058	0,065
-724,108	58,594	-0,095	-0,067
-723,094	-49,074	-0,109	-0,038
-722,079	-34,052	-0,008	-0,003
-721,064	-39,788	-0,133	-0,050
-720,050	-200,000	0,016	0,071
-719,035	92,471	-0,041	-0,034
-718,021	-200,000	-0,007	0,086
-717,006	-100,988	-0,024	0,004
-715,991	-200,000	0,030	-0,117
-714,977	-85,026	0,043	-0,010
-713,962	-200,000	-0,013	0,090
-712,948	94,666	0,081	0,067
-711,933	6,866	-0,066	-0,036
-710,918	-167,828	0,072	-0,002
-709,904	263,183	-0,071	-0,089
-708,889	-200,000	-0,030	-0,102
-707,875	-79,064	-0,093	-0,023
-706,860	-172,547	0,060	0,001
-705,845	292,715	-0,062	-0,082
-704,831	29,722	0,194	0,120
-703,816	12,851	-0,049	-0,027
-702,802	-54,626	-0,143	-0,047
-701,787	9,487	-0,111	-0,061
-700,772	-63,501	0,040	0,012
-699,758	-200,000	0,001	-0,059
-698,743	-200,000	-0,003	-0,117
-697,729	32,180	0,034	0,021
-696,714	-200,000	-0,001	-0,079
-695,699	-125,067	-0,125	-0,014
-694,685	44,054	-0,067	0,045
-693,670	34,273	0,046	0,029
-692,656	202,444	0,035	-0,039
-691,641	-200,000	0,026	0,096
-690,627	-200,000	0,013	0,054
-689,612	-200,000	0,001	0,012
-688,597	190,767	0,032	0,035
-687,583	-179,345	0,154	0,002
-686,568	-200,000	-0,008	-0,140
-685,554	623,209	-0,032	0,058
-684,539	-200,000	-0,003	0,047
-683,524	-34,162	0,069	0,027
-682,510	-100,806	0,155	0,027
-681,495	800,000	-0,029	0,073
-680,481	478,814	-0,063	0,104
-679,466	800,000	0,009	-0,023
-678,451	-143,672	-0,143	0,010
-677,437	800,000	0,080	-0,202
-676,422	176,933	-0,079	0,083
-675,408	-200,000	0,003	0,070
-674,393	-200,000	-0,040	0,176
-673,378	263,611	-0,048	0,061
-672,364	-93,564	-0,119	0,024
-671,349	-200,000	-0,001	-0,118
-670,335	657,431	0,020	0,038
-669,320	446,144	-0,089	0,142
-668,305	-200,000	0,009	0,078
-667,291	800,000	0,019	0,040
-666,276	6,385	0,050	-0,027
-665,262	-82,332	-0,060	-0,014
-664,247	372,456	0,055	-0,082
-663,232	68,922	0,077	0,058
-662,218	800,000	-0,033	-0,067
-661,203	-47,790	-0,102	0,036
-660,189	120,261	-0,052	-0,046
-659,174	-200,000	-0,018	-0,109
-658,159	-63,279	-0,061	-0,018
-657,145	-143,012	0,022	-0,001
-656,130	188,120	0,065	-0,070
-655,116	-18,694	-0,100	0,045
-654,101	27,978	0,150	0,092
-653,086	259,095	0,114	-0,143
-652,072	-200,000	-0,003	-0,059
-651,057	-105,448	-0,055	0,009
-650,043	219,471	-0,070	-0,082
-649,028	234,767	0,035	-0,042
-648,014	181,797	0,098	0,105
-646,999	624,750	0,018	-0,033
-645,984	439,126	0,054	0,085
-644,970	-106,474	0,101	0,016
-643,955	-0,053	-0,111	-0,057
-642,941	25,244	0,098	-0,059
-641,926	399,935	-0,074	0,112
-640,911	-200,000	0,106	0,000
-639,897	102,935	0,054	-0,046
-638,882	-53,029	0,090	-0,030
-637,868	45,342	0,030	-0,020
-636,853	-200,000	-0,027	-0,096
-635,838	101,110	-0,114	-0,096
-634,824	-47,930	0,030	0,011
-633,809	186,615	0,033	0,035
-632,795	-200,000	-0,001	-0,052
-631,780	-200,000	-0,007	0,060
-630,765	800,000	0,047	0,127
-629,751	-90,093	-0,090	0,019
-628,736	22,677	-0,125	-0,074
-627,722	-162,556	0,125	-0,004
-626,707	648,633	0,055	0,103
-625,692	656,652	-0,060	0,112
-624,678	185,414	-0,028	-0,031
-623,663	76,629	0,070	-0,054
-622,649	142,628	0,035	-0,034
-621,634	166,233	-0,046	-0,047
-620,619	-5,161	-0,070	0,034
-619,605	270,018	-0,033	-0,042
-618,590	-200,000	-0,006	0,054
-617,576	-200,000	0,013	-0,053
-616,561	482,373	-0,016	-0,027
-615,546	324,539	-0,077	-0,107
-614,532	-200,000	-0,018	-0,118
-613,517	-200,000	-0,044	-0,143
-612,503	-200,000	0,012	-0,151
-611,488	-117,306	0,058	-0,008
-610,474	68,904	-0,099	0,073
-609,459	24,391	0,126	0,075
-608,444	800,000	0,023	0,057
-607,430	-200,000	0,017	0,163
-606,415	-68,990	-0,174	-0,048
-605,401	317,193	-0,046	0,063
-604,386	501,633	0,077	0,129
-603,371	-75,989	0,016	0,004
-602,357	800,000	-0,024	-0,063
-601,342	-83,463	0,064	-0,015
-600,328	99,120	-0,131	-0,109
-599,313	-6,978	-0,087	-0,043
-598,298	83,493	0,122	-0,096
-597,284	-153,424	0,054	-0,003
-596,269	573,429	0,030	0,053
-595,255	209,616	-0,064	0,073
-594,240	800,000	-0,063	-0,131
-593,225	-200,000	0,009	-0,069
-592,211	-200,000	0,022	-0,089
-591,196	70,588	0,085	0,064
-590,182	35,304	0,046	0,029
-589,167	21,847	0,084	0,049
-588,152	138,851	0,085	-0,080
-587,138	136,997	0,072	-0,068
-586,123	-130,406	-0,115	0,011
-585,109	279,241	-0,040	-0,052
-584,094	800,000	0,044	-0,123
-583,079	729,942	-0,056	-0,109
-582,065	520,707	-0,050	0,084
-581,050	-107,576	-0,107	-0,017
-580,036	-200,000	-0,014	0,046
-579,021	134,465	-0,098	-0,092
-578,006	-95,664	-0,023	-0,004
-576,992	428,999	-0,051	0,079
-575,977	-200,000	-0,009	-0,131
-574,963	11,576	0,077	0,042
-573,948	-200,000	-0,017	0,158
-572,934	800,000	-0,050	-0,144
-571,919	-78,570	-0,093	0,023
-570,904	-42,889	-0,142	-0,052
-569,890	800,000	-0,030	0,071
-568,875	800,000	0,027	0,084
-567,861	223,820	-0,121	0,141
-566,846	-200,000	0,007	-0,023
-565,831	-79,146	0,139	-0,034
-564,817	-200,000	0,002	-0,016
-563,802	138,332	0,050	-0,047
-562,788	126,160	0,082	-0,074
-561,773	-67,888	0,085	0,024
-560,758	-200,000	-0,014	0,074
-559,744	55,655	0,135	0,094
-558,729	5,100	-0,076	0,040
-557,715	85,328	0,111	-0,088
-556,700	800,000	0,005	0,014
-555,685	132,436	-0,092	-0,085
-554,671	-200,000	0,019	-0,086
-553,656	-200,000	0,012	-0,127
-552,642	-69,373	0,067	0,019
-551,627	-200,000	0,006	0,136
-550,612	92,440	-0,132	-0,108
-549,598	20,883	-0,183	-0,107
-548,583	117,077	0,019	0,017
-547,569	525,648	0,060	0,102
-546,554	-67,490	-0,099	-0,028
-545,539	-200,000	-0,018	0,102
-544,525	-156,190	0,083	0,004
-543,510	604,370	-0,018	-0,032
-542,496	-41,719	-0,100	-0,037
-541,481	551,800	0,145	-0,253
-540,466	-200,000	-0,013	-0,046
-539,452	92,774	0,045	-0,037
-538,437	131,172	0,034	0,031
-537,423	-123,959	-0,115	-0,013
-536,408	-33,542	-0,043	0,017
-535,393	9,336	-0,030	0,017
-534,379	-74,627	0,050	-0,013
-533,364	68,145	-0,103	0,076
-532,350	119,812	-0,074	-0,066
-531,335	190,844	0,111	0,121
-530,321	287,146	0,015	-0,020
-529,306	-91,026	-0,146	-0,030
-528,291	267,156	0,070	-0,088
-527,277	-85,480	-0,065	-0,014
-526,262	-68,121	0,140	-0,039
-525,248	-125,242	-0,141	-0,015
-524,233	609,023	0,089	0,161
-523,218	-200,000	0,014	0,131
-522,204	98,271	-0,039	0,033
-521,189	3,221	-0,192	-0,101
-520,175	-200,000	0,017	-0,117
-519,160	-200,000	0,004	-0,169
-518,145	314,337	0,036	0,049
-517,131	227,302	0,072	0,084
-516,116	119,418	0,107	0,095
-515,102	36,200	0,135	0,086
-514,087	103,238	0,050	0,042
-513,072	800,000	0,061	-0,153
-512,058	-54,397	0,100	0,033
-511,043	-184,129	-0,160	0,002
-510,029	73,368	0,058	0,044
-509,014	636,610	0,030	-0,056
-507,999	-200,000	-0,015	-0,098
-506,985	-109,791	-0,127	-0,019
-505,970	-200,000	-0,004	-0,147
-504,956	800,000	0,019	0,043
-503,941	188,390	0,054	0,058
-502,926	35,998	0,111	0,070
-501,912	-160,907	-0,068	-0,003
-500,897	-89,028	0,103	-0,022
-499,883	-121,307	0,043	0,005
-498,868	302,244	0,063	0,084
-497,853	-14,816	0,086	0,040
-496,839	-200,000	0,006	-0,158
-495,824	190,867	-0,038	0,042
-494,810	800,000	-0,008	0,026
-493,795	-200,000	-0,004	0,023
-492,781	116,209	0,081	-0,071
-491,766	-200,000	0,014	0,054
-490,751	18,925	-0,052	-0,030
-489,737	-200,000	-0,030	-0,132
-488,722	-147,030	0,146	0,009
-487,708	336,102	0,087	0,122
-486,693	507,935	0,070	0,117
-485,678	211,734	-0,066	-0,074
-484,664	-72,870	-0,106	0,028
-483,649	457,680	0,006	0,009
-482,635	11,980	-0,010	-0,006
-481,620	-200,000	0,005	-0,075
-480,605	284,233	-0,027	0,036
-479,591	42,426	-0,130	0,085
-478,576	187,450	0,062	0,067
-477,562	201,789	-0,151	-0,167
-476,547	-200,000	0,050	-0,177
-475,532	414,368	-0,023	-0,035
-474,518	21,537	0,145	0,084
-473,503	-68,453	0,080	-0,022
-472,489	-73,240	0,085	-0,022
-471,474	184,025	0,020	-0,021
-470,459	800,000	0,057	-0,117
-469,445	-200,000	0,024	-0,112
-468,430	58,150	0,062	-0,044
-467,416	-200,000	0,022	0,135
-466,401	-200,000	0,001	-0,011
-465,386	-30,630	0,046	-0,019
-464,372	612,065	0,071	0,128
-463,357	-200,000	0,009	-0,032
-462,343	-79,435	-0,154	0,037
-461,328	288,044	-0,085	-0,111
-460,313	-200,000	-0,034	0,118
-459,299	-200,000	-0,021	0,116
-458,284	270,805	0,038	-0,048
-457,270	41,612	0,098	-0,064
-456,255	-200,000	-0,029	-0,096
-455,241	-200,000	0,005	0,022
-454,226	-200,000	-0,001	0,071
-453,211	4,260	-0,027	-0,014
-452,197	800,000	0,026	0,076
-451,182	-200,000	0,042	0,147
-450,168	800,000	0,029	0,090
-449,153	-182,764	-0,073	-0,001
-448,138	-74,908	-0,189	-0,048
-447,124	-200,000	0,005	-0,093
-446,109	737,569	-0,055	-0,107
-445,095	631,280	0,020	-0,037
-444,080	-163,469	0,109	-0,004
-443,065	23,252	-0,075	-0,044
-442,051	-200,000	0,030	-0,166
-441,036	-80,009	-0,023	-0,006
-440,022	73,182	-0,103	-0,078
-439,007	-200,000	0,030	-0,137
-437,992	1,241	-0,014	-0,007
-436,978	14,035	0,111	0,062
-435,963	301,020	-0,031	0,042
-434,949	-116,757	-0,087	-0,011
-433,934	450,641	0,062	0,099
-432,919	523,271	-0,062	-0,106
-431,905	16,704	0,094	0,053
-430,890	-83,281	0,096	0,022
-429,876	101,801	0,092	0,077
-428,861	-61,007	0,008	0,002
-427,846	93,954	-0,107	-0,087
-426,832	173,421	-0,080	-0,083
-425,817	149,285	-0,098	-0,095
-424,803	-137,982	-0,113	-0,009
-423,788	276,038	0,075	-0,095
-422,773	-21,000	0,096	0,042
-421,759	800,000	-0,021	0,044
-420,744	134,409	-0,025	0,024
-419,730	142,695	-0,072	0,069
-418,715	-119,469	-0,080	0,010
-417,701	-200,000	0,013	-0,087
-416,686	215,449	0,034	-0,039
-415,671	-200,000	0,017	-0,097
-414,657	-146,878	0,044	-0,003
-413,642	-134,234	-0,029	0,003
-412,628	64,472	-0,072	-0,052
-411,613	800,000	-0,039	0,116
-410,598	-54,755	-0,158	-0,051
-409,584	139,317	-0,034	0,032
-408,569	573,244	-0,061	0,107
-407,555	800,000	-0,026	0,059
-406,540	-200,000	-0,022	0,086
-405,525	289,722	-0,016	0,021
-404,511	-200,000	0,041	-0,138
-403,496	264,635	-0,060	0,075
-402,482	115,052	0,087	-0,076
-401,467	512,860	-0,059	0,099
-400,452	386,294	0,064	0,095
-399,438	186,446	-0,034	0,036
-398,423	-200,000	-0,000	-0,037
-397,409	-200,000	0,000	-0,141
-396,394	-200,000	0,039	-0,171
-395,379	-188,174	0,155	-0,001
-394,365	-200,000	-0,005	0,191
-393,350	49,038	0,050	-0,034
-392,336	800,000	-0,036	0,074
-391,321	-33,090	-0,117	0,046
-390,306	-200,000	-0,001	-0,097
-389,292	-200,000	-0,012	0,077
-388,277	270,448	0,057	-0,072
-387,263	-200,000	0,016	0,120
-386,248	-89,808	0,073	-0,015
-385,233	225,139	-0,037	-0,043
-384,219	-200,000	-0,010	0,077
-383,204	800,000	-0,047	-0,096
-382,190	800,000	-0,047	-0,148
-381,175	231,006	0,069	0,081
-380,160	492,974	0,032	0,053
-379,146	-106,938	0,027	-0,004
-378,131	179,413	0,104	0,109
-377,117	-22,170	0,095	-0,041
-376,102	-36,863	-0,062	-0,024
-375,088	800,000	0,023	-0,066
-374,073	-41,602	0,048	0,018
-373,058	-200,000	0,010	-0,058
-372,044	286,945	0,048	-0,062
-371,029	-50,544	0,099	-0,033
-370,015	-155,392	-0,077	0,004
-369,000	31,316	0,050	-0,031
-367,985	-200,000	0,007	-0,166
-366,971	-200,000	-0,038	-0,125
-365,956	14,043	0,067	0,037
-364,942	800,000	0,043	0,122
-363,927	63,966	0,078	0,056
-362,912	800,000	0,017	0,042
-361,898	327,858	-0,061	0,084
-360,883	-200,000	0,013	-0,116
-359,869	-200,000	0,049	-0,172
-358,854	-200,000	-0,028	-0,214
-357,839	-200,000	-0,000	0,030
-356,825	439,691	0,093	0,146
-355,810	-200,000	0,026	0,096
-354,796	-194,842	-0,085	0,000
-353,781	65,608	-0,090	-0,066
-352,766	64,498	-0,072	0,052
-351,752	-200,000	0,105	-0,000
-350,737	-200,000	-0,008	-0,039
-349,723	55,144	0,095	0,065
-348,708	-107,637	-0,122	0,019
-347,693	-188,540	-0,155	0,001
-346,679	-200,000	0,006	-0,135
-345,664	32,733	0,069	-0,042
-344,650	-69,083	-0,089	-0,024
-343,635	-200,000	-0,006	0,204
-342,620	-15,879	-0,034	0,016
-341,606	800,000	0,036	0,104
-340,591	-21,248	0,124	0,054
-339,577	369,347	-0,029	0,042
-338,562	-200,000	0,011	-0,052
-337,548	-130,592	0,039	0,004
-336,533	17,116	0,133	0,075
-335,518	122,286	0,102	0,091
-334,504	763,407	-0,005	0,010
-333,489	-96,644	0,048	0,009
-332,475	339,003	-0,056	-0,078
-331,460	-200,000	-0,003	0,010
-330,445	45,535	-0,073	0,048
-329,431	-92,716	-0,113	0,022
-328,416	-200,000	0,007	0,108
-327,402	-72,463	0,092	0,024
-326,387	14,968	0,051	-0,029
-325,372	-29,416	-0,193	-0,079
-324,358	312,432	-0,145	0,195
-323,343	790,049	0,022	0,044
-322,329	-200,000	-0,014	0,088
-321,314	278,036	-0,102	0,131
-320,299	800,000	-0,006	0,017
-319,285	800,000	0,041	-0,090
-318,270	-200,000	0,004	-0,012
-317,256	107,274	0,034	-0,029
-316,241	-200,000	-0,039	-0,183
-315,226	27,760	0,113	-0,068
-314,212	43,691	0,094	0,061
-313,197	46,882	0,074	-0,049
-312,183	-147,085	0,140	-0,008
-311,168	403,246	0,024	0,036
-310,153	242,530	0,088	0,106
-309,139	-48,014	0,033	-0,011
-308,124	305,656	0,076	0,101
-307,110	-200,000	0,019	0,091
-306,095	59,804	-0,048	0,034
-305,080	304,694	0,028	-0,037
-304,066	-200,000	0,005	-0,032
-303,051	345,525	0,049	-0,068
-302,037	-200,000	-0,003	-0,138
-301,022	335,658	-0,084	-0,117
-300,008	3,393	0,142	-0,074
-298,993	-173,104	-0,023	-0,000
-297,978	-200,000	0,017	0,080
-296,964	36,331	-0,044	-0,028
-295,949	800,000	-0,032	-0,065
-294,935	190,148	-0,133	-0,143
-293,920	-200,000	0,017	0,134
-292,905	425,294	0,088	0,135
-291,891	117,021	-0,081	0,071
-290,876	-21,228	0,053	0,023
-289,862	-103,838	0,141	0,023
-288,847	-50,745	0,084	0,028
-287,832	800,000	-0,028	-0,076
-286,818	237,562	0,051	-0,060
-285,803	262,033	0,098	0,122
-284,789	800,000	-0,051	0,126
-283,774	-134,912	-0,201	0,017
-282,759	-200,000	-0,003	-0,072
-281,745	94,602	0,055	-0,044
-280,730	429,971	0,029	0,045
-279,716	392,462	-0,087	-0,129
-278,701	-200,000	0,025	0,171
-277,686	-25,338	-0,060	0,025
-276,672	800,000	0,018	0,046
-275,657	-73,387	-0,121	-0,031
-274,643	83,735	0,037	-0,029
-273,628	-91,382	-0,064	0,013
-272,613	-172,685	0,066	0,001
-271,599	-200,000	-0,009	0,138
-270,584	783,162	-0,048	0,094
-269,570	94,371	-0,031	-0,025
-268,555	-200,000	-0,008	-0,057
-267,540	9,305	0,067	-0,036
-266,526	-85,880	-0,050	-0,011
-265,511	173,897	0,033	-0,034
-264,497	-54,373	0,085	-0,027
-263,482	49,892	0,160	0,108
-262,467	-200,000	0,016	0,122
-261,453	800,000	0,039	0,097
-260,438	-200,000	0,022	-0,206
-259,424	88,917	-0,082	-0,065
-258,409	133,866	-0,022	0,020
-257,395	90,247	-0,063	0,050
-256,380	-200,000	0,008	-0,057
-255,365	149,004	0,108	0,104
-254,351	-200,000	-0,023	0,133
-253,336	-19,826	0,069	0,030
-252,322	-98,956	-0,150	-0,027
-251,307	75,572	-0,054	-0,041
-250,292	39,568	-0,037	-0,024
-249,278	55,075	-0,155	0,106
-248,263	68,499	-0,091	-0,066
-247,249	39,740	-0,050	-0,032
-246,234	800,000	-0,072	0,157
-245,219	57,957	-0,086	0,060
-244,205	-7,695	0,149	-0,072
-243,190	0,348	-0,101	-0,051
-242,176	-30,434	-0,032	-0,013
-241,161	-156,260	0,238	-0,010
-240,146	16,772	0,180	0,101
-239,132	-69,014	-0,112	-0,030
-238,117	114,105	-0,298	-0,258
-237,103	388,132	-0,054	0,080
-236,088	240,188	-0,074	0,088
-235,073	145,358	-0,129	0,124
-234,059	-200,000	-0,018	0,145
-233,044	-200,000	0,009	0,056
-232,030	-121,323	0,023	-0,003
-231,015	800,000	-0,027	0,058
-230,000	-200,000	-0,003	0,019
-228,986	800,000	0,050	0,115
-227,971	-200,000	0,010	-0,040
-226,957	214,961	0,063	0,071
-225,942	-200,000	0,034	0,133
-224,927	-35,060	-0,151	-0,058
-223,913	33,570	0,134	0,083
-222,898	167,610	-0,057	-0,057
-221,884	638,103	0,041	0,075
-220,869	-139,554	0,082	-0,006
-219,855	-132,829	-0,095	-0,008
-218,840	656,521	0,061	-0,112
-217,825	-200,000	0,015	0,052
-216,811	68,798	-0,170	-0,124
-215,796	-82,486	-0,053	-0,012
-214,782	12,618	0,096	-0,053
-213,767	-200,000	-0,001	-0,021
-212,752	243,125	0,050	0,060
-211,738	249,684	0,122	-0,148
-210,723	-2,887	0,071	0,035
-209,709	-134,712	-0,160	0,014
-208,694	72,263	0,104	-0,077
-207,679	195,612	0,060	0,065
-206,665	-2,979	-0,050	0,025
-205,650	159,348	-0,026	0,026
-204,636	-1,736	0,070	0,035
-203,621	800,000	-0,030	0,066
-202,606	-160,257	-0,118	0,004
-201,592	-11,006	-0,046	-0,022
-200,577	-1,136	0,126	0,063
-199,563	-56,214	-0,045	0,014
-198,548	-24,975	0,010	-0,004
-197,533	-42,501	-0,055	0,020
-196,519	-19,055	0,042	-0,019
-195,504	43,856	-0,067	0,043
-194,490	14,253	-0,042	0,023
-193,475	358,199	-0,142	-0,202
-192,460	118,373	0,033	0,029
-191,446	-70,364	0,092	0,025
-190,431	-200,000	0,014	0,047
-189,417	800,000	0,033	0,070
-188,402	442,197	-0,045	-0,070
-187,387	-200,000	-0,018	-0,098
-186,373	-43,689	-0,049	-0,017
-185,358	7,031	-0,074	0,039
-184,344	128,945	-0,077	-0,070
-183,329	-156,465	0,081	-0,004
-182,315	-200,000	0,030	0,135
-181,300	800,000	-0,029	-0,070
-180,285	17,163	-0,056	0,031
-179,271	22,758	-0,107	-0,062
-178,256	194,360	0,055	-0,060
-177,242	69,133	-0,059	0,043
-176,227	549,767	0,045	0,077
-175,212	115,174	-0,067	0,058
-174,198	-68,291	0,015	-0,004
-173,183	116,462	-0,032	0,028
-172,169	-200,000	0,051	-0,226
-171,154	-185,677	0,108	0,001
-170,139	277,399	-0,019	-0,024
-169,125	62,542	-0,054	0,038
-168,110	338,770	-0,061	-0,084
-167,096	257,285	0,032	0,039
-166,081	-200,000	-0,012	-0,051
-165,066	-8,720	0,090	0,043
-164,052	-200,000	0,002	-0,048
-163,037	-23,076	0,060	0,026
-162,023	50,722	0,053	0,036
-161,008	800,000	0,047	0,105
-159,993	-200,000	-0,055	0,206
-158,979	-45,301	0,027	0,009
-157,964	18,942	-0,052	-0,030
-156,950	377,851	-0,083	0,121
-155,935	800,000	-0,031	0,068
-154,920	800,000	0,027	0,071
-153,906	800,000	-0,027	0,062
-152,891	-200,000	-0,012	-0,104
-151,877	355,660	-0,051	0,072
-150,862	-36,763	-0,035	-0,013
-149,847	44,226	0,080	-0,052
-148,833	-116,264	0,043	-0,006
-147,818	-83,879	0,071	-0,016
-146,804	-200,000	0,003	0,067
-145,789	165,342	0,039	-0,039
-144,775	-9,527	0,109	0,051
-143,760	9,068	0,060	-0,032
-142,745	-10,202	0,045	-0,021
-141,731	486,135	0,050	0,082
-140,716	-200,000	0,029	0,133
-139,702	-58,457	0,192	0,059
-138,687	-80,930	0,044	-0,010
-137,672	153,186	0,073	0,071
-136,658	-134,280	-0,168	-0,014
-135,643	701,176	-0,094	-0,177
-134,629	92,402	0,082	-0,066
-133,614	-200,000	-0,009	0,060
-132,599	-200,000	0,010	-0,061
-131,585	46,821	-0,121	0,080
-130,570	444,714	-0,015	0,024
-129,556	126,127	-0,051	-0,045
-128,541	79,985	-0,056	-0,043
-127,526	800,000	-0,030	-0,069
-126,512	-200,000	-0,011	-0,044
-125,497	79,149	-0,016	-0,012
-124,483	372,001	0,064	0,093
-123,468	-104,238	-0,112	0,018
-122,453	-78,782	-0,041	0,010
-121,439	-200,000	0,010	-0,155
-120,424	-171,520	0,050	-0,001
-119,410	130,607	-0,072	-0,065
-118,395	8,016	0,124	0,066
-117,380	0,189	-0,085	0,043
-116,366	151,579	-0,020	0,020
-115,351	-200,000	-0,055	0,209
-114,337	544,859	0,032	0,054
-113,322	-200,000	0,016	-0,065
-112,307	-200,000	-0,034	0,143
-111,293	28,390	-0,024	0,014
-110,278	-200,000	0,002	0,053
-109,264	50,128	0,153	0,103
-108,249	-67,812	-0,063	0,017
-107,234	-57,111	-0,017	0,005
-106,220	153,258	0,021	-0,021
-105,205	-115,611	0,093	0,012
-104,191	-66,138	0,092	0,026
-103,176	-200,000	-0,018	0,158
-102,162	-200,000	0,018	-0,102
-101,147	-159,005	0,084	-0,003
-100,132	52,330	-0,112	-0,076
-99,118	-200,000	0,016	0,116
-98,103	390,080	0,045	0,066
-97,089	-200,000	0,004	0,062
-96,074	-45,990	0,045	0,016
-95,059	-200,000	0,048	0,160
-94,045	-200,000	-0,008	0,028
-93,030	-126,849	-0,166	-0,017
-92,016	-200,000	0,011	-0,076
-91,001	-13,091	0,131	0,060
-89,986	150,764	0,077	0,074
-88,972	-11,660	-0,055	0,026
-87,957	4,360	-0,078	-0,040
-86,943	-200,000	0,014	-0,045
-85,928	-150,636	-0,058	-0,003
-84,913	-102,797	-0,103	0,017
-83,899	56,640	0,123	-0,084
-82,884	109,035	0,121	0,102
-81,870	192,003	-0,053	-0,057
-80,855	434,841	0,096	0,148
-79,840	-200,000	0,005	-0,078
-78,826	221,640	-0,071	-0,081
-77,811	-66,881	0,064	0,018
-76,797	800,000	-0,030	0,073
-75,782	101,252	0,056	-0,046
-74,767	-140,779	0,210	0,015
-73,753	-200,000	-0,022	0,112
-72,738	800,000	0,024	0,059
-71,724	-200,000	0,023	-0,110
-70,709	35,270	0,101	0,063
-69,694	-129,822	-0,094	0,009
-68,680	-126,727	0,097	0,010
-67,665	-200,000	0,006	0,149
-66,651	59,905	-0,050	-0,035
-65,636	14,609	0,112	0,062
-64,622	103,367	-0,123	-0,102
-63,607	61,299	-0,126	-0,089
-62,592	255,873	0,103	-0,125
-61,578	800,000	-0,050	0,157
-60,563	800,000	-0,032	0,074
-59,549	-90,936	-0,203	-0,041
-58,534	6,937	-1,647	-0,866
-57,519	416,593	-1,262	-1,912
-56,505	-200,000	-0,622	-4,449
-55,490	216,445	1,116	1,258
-54,476	800,000	4,935	11,078
-53,461	-200,000	19,183	319,237
-52,446	-200,000	740,577	2333,227
-51,432	574,048	1655,176	2868,243
-50,417	78,292	1670,671	1260,861
-49,403	21,227	1544,158	884,851
-48,388	15,174	1466,249	810,788
-47,373	17,905	1456,636	818,630
-46,359	16,589	1446,489	806,589
-45,344	13,354	1441,903	788,510
-44,330	13,318	1440,056	787,295
-43,315	13,306	1438,329	786,264
-42,300	13,317	1436,589	785,332
-41,286	13,333	1435,303	784,677
-40,271	13,289	1434,056	783,753
-39,257	13,299	1432,781	783,074
-38,242	13,332	1431,463	782,478
-37,227	13,413	1430,063	782,068
-36,213	13,361	1428,914	781,159
-35,198	13,408	1427,519	780,589
-34,184	13,372	1426,764	779,974
-33,169	13,313	1425,583	779,021
-32,154	13,380	1424,460	778,691
-31,140	13,398	1423,183	778,051
-30,125	13,395	1422,147	777,437
-29,111	13,383	1420,948	776,692
-28,096	13,355	1419,852	775,934
-27,082	13,323	1418,651	775,093
-26,067	13,290	1417,621	774,345
-25,052	13,287	1416,573	773,726
-24,038	13,291	1415,501	773,129
-23,023	13,261	1414,500	772,414
-22,009	13,319	1413,214	771,953
-20,994	13,259	1412,755	771,387
-19,979	13,231	1411,869	770,743
-18,965	13,232	1411,030	770,259
-17,950	13,247	1409,958	769,715
-16,936	13,231	1409,015	769,095
-15,921	13,216	1407,751	768,302
-14,906	13,165	1407,016	767,632
-13,892	13,187	1406,008	767,154
-12,877	13,151	1405,391	766,621
-11,863	13,201	1404,368	766,266
-10,848	13,138	1403,411	765,417
-9,833	13,183	1402,518	765,110
-8,819	13,122	1401,739	764,369
-7,804	13,130	1400,758	763,842
-6,790	13,067	1399,674	762,930
-5,775	13,131	1398,549	762,583
-4,760	13,137	1397,750	762,142
-3,746	13,086	1396,927	761,427
-2,731	13,086	1396,024	760,908
-1,717	13,062	1395,333	760,390
-0,702	13,059	1393,366	759,272
0,313	17,039	1310,088	732,280
1,327	33,575	703,706	431,526
2,342	51,717	123,325	82,813
3,356	4,938	16,609	8,612
4,371	6,874	3,197	1,678
5,386	-10,726	0,524	0,244
6,400	-200,000	0,049	0,354
7,415	111,805	-0,140	-0,120
8,429	4,226	-0,281	-0,145
9,444	107,725	-0,216	-0,182
10,459	-32,244	-0,273	-0,107
11,473	-11,709	-0,271	-0,125
12,488	-15,373	-0,235	-0,106
13,502	26,597	-0,345	-0,204
14,517	-27,799	-0,288	-0,118
15,531	62,584	-0,368	-0,259
16,546	35,807	-0,510	-0,316
17,561	143,157	-0,214	-0,202
18,575	-75,656	-0,210	-0,052
19,590	717,020	-0,167	-0,314
20,604	-35,272	-0,239	-0,091
21,619	76,268	-0,416	-0,311
22,634	21,712	-0,599	-0,343
23,648	165,024	-0,399	-0,397
24,663	-48,621	-0,554	-0,187
25,677	213,545	-0,319	-0,357
26,692	98,207	-0,259	-0,210
27,707	-63,967	-0,429	-0,123
28,721	263,227	-0,263	-0,323
29,736	-13,609	-0,418	-0,190
30,750	132,681	-0,420	-0,382
31,765	141,450	-0,308	-0,287
32,780	38,030	-0,518	-0,324
33,794	61,713	-0,234	-0,164
34,809	159,877	-0,448	-0,441
35,823	12,554	-0,314	-0,170
36,838	206,550	-0,364	-0,401
37,853	152,226	-0,430	-0,413
38,867	169,179	-0,222	-0,224
39,882	279,090	-0,189	-0,238
40,896	150,924	-0,272	-0,261
41,911	111,984	-0,356	-0,303
42,926	51,690	-0,444	-0,297
43,940	60,644	-0,366	-0,255
44,955	-22,003	-0,451	-0,192
45,969	-61,771	-0,428	-0,126
46,984	246,993	-0,235	-0,280
47,999	-53,955	-0,346	-0,110
49,013	101,194	-0,329	-0,270
50,028	-54,397	-0,372	-0,118
51,042	20,100	-0,492	-0,279
52,057	-41,311	-0,441	-0,159
53,071	241,176	-0,242	-0,284
54,086	-18,464	-0,464	-0,203
55,101	-28,390	-0,403	-0,163
56,115	-49,271	-0,310	-0,104
57,130	28,297	-0,291	-0,173
58,144	11,805	-0,363	-0,195
59,159	-17,730	-0,436	-0,192
60,174	-114,846	-0,349	-0,046
61,188	-52,039	-0,279	-0,091
62,203	-20,765	-0,368	-0,158
63,217	81,783	-0,313	-0,238
64,232	152,551	-0,317	-0,305
65,247	1,483	-0,339	-0,171
66,261	3,159	-0,337	-0,172
67,276	84,234	-0,368	-0,283
68,290	-0,037	-0,297	-0,148
69,305	-15,972	-0,243	-0,108
70,320	9,256	-0,234	-0,124
71,334	105,783	-0,274	-0,228
72,349	-1,010	-0,367	-0,182
73,363	-17,915	-0,327	-0,143
74,378	-5,282	-0,386	-0,186
75,393	29,284	-0,311	-0,185
76,407	6,102	-0,252	-0,131
77,422	102,098	-0,294	-0,241
78,436	-93,069	-0,380	-0,074
79,451	178,230	-0,191	-0,196
80,466	-11,703	-0,321	-0,148
81,480	115,289	-0,272	-0,234
82,495	-111,189	-0,383	-0,054
83,509	438,430	-0,182	-0,279
84,524	168,610	-0,279	-0,280
85,539	41,791	-0,298	-0,189
86,553	-65,887	-0,345	-0,096
87,568	-48,903	-0,379	-0,127
88,582	30,941	-0,360	-0,216
89,597	24,765	-0,351	-0,203
90,611	6,150	-0,261	-0,135
91,626	-66,523	-0,262	-0,073
92,641	40,329	-0,252	-0,159
93,655	113,087	-0,317	-0,270
94,670	2,073	-0,407	-0,205
95,684	409,343	-0,248	-0,370
96,699	29,997	-0,350	-0,209
97,714	532,813	-0,215	-0,358
98,728	-25,257	-0,310	-0,128
99,743	436,029	-0,195	-0,298
100,757	122,461	-0,234	-0,205
101,772	196,527	-0,203	-0,217
102,787	104,836	-0,207	-0,171
103,801	-2,653	-0,274	-0,134
104,816	26,111	-0,111	-0,065
105,830	-101,089	-0,423	-0,072
106,845	62,161	-0,256	-0,179
107,860	-156,375	-0,341	-0,015
108,874	-42,806	-0,240	-0,085
109,889	67,146	-0,266	-0,189
110,903	25,351	-0,295	-0,172
111,918	61,810	-0,293	-0,204
112,933	233,821	-0,173	-0,199
113,947	-23,323	-0,178	-0,075
114,962	-99,293	-0,202	-0,035
115,976	-27,531	-0,291	-0,118
116,991	89,997	-0,298	-0,233
118,006	-13,981	-0,256	-0,115
119,020	308,586	-0,122	-0,160
120,035	72,125	-0,251	-0,183
121,049	381,784	-0,120	-0,173
122,064	36,194	-0,343	-0,211
123,079	-116,472	-0,206	-0,026
124,093	30,727	-0,214	-0,128
125,108	198,353	-0,155	-0,166
126,122	-158,931	-0,257	-0,010
127,137	80,779	-0,237	-0,178
128,151	139,814	-0,101	-0,093
129,166	134,335	-0,242	-0,219
130,181	58,814	-0,358	-0,246
131,195	222,198	-0,271	-0,305
132,210	68,497	-0,214	-0,153
133,224	6,469	-0,292	-0,151
134,239	-64,069	-0,197	-0,056
135,254	-17,242	-0,206	-0,091
136,268	800,000	-0,118	-0,254
137,283	-7,819	-0,311	-0,146
138,297	-0,896	-0,266	-0,131
139,312	274,969	-0,298	-0,369
140,327	-23,361	-0,370	-0,155
141,341	-28,789	-0,164	-0,066
142,356	91,248	-0,244	-0,191
143,370	475,170	-0,126	-0,199
144,385	60,727	-0,182	-0,126
145,400	18,955	-0,392	-0,219
146,414	49,556	-0,219	-0,144
147,429	14,433	-0,246	-0,134
148,443	256,764	-0,201	-0,241
149,458	26,524	-0,180	-0,105
150,473	-51,475	-0,191	-0,062
151,487	-200,000	-0,019	-0,062
152,502	80,449	-0,211	-0,158
153,516	-53,994	-0,387	-0,122
154,531	-32,612	-0,332	-0,128
155,546	237,414	-0,223	-0,258
156,560	102,641	-0,133	-0,108
157,575	233,727	-0,144	-0,165
158,589	-30,326	-0,252	-0,099
159,604	4,571	-0,260	-0,133
160,619	122,381	-0,259	-0,226
161,633	144,038	-0,197	-0,183
162,648	2,417	-0,291	-0,146
163,662	-72,252	-0,204	-0,052
164,677	-11,950	-0,196	-0,089
165,692	-79,960	-0,289	-0,067
166,706	-43,680	-0,312	-0,109
167,721	119,739	-0,254	-0,219
168,735	210,467	-0,215	-0,235
169,750	-67,777	-0,204	-0,055
170,764	479,879	-0,128	-0,202
171,779	-54,969	-0,170	-0,053
172,794	-101,406	-0,165	-0,028
173,808	-46,233	-0,269	-0,092
174,823	-122,214	-0,194	-0,022
175,837	396,416	-0,168	-0,244
176,852	94,578	-0,254	-0,201
177,867	5,407	-0,204	-0,104
178,881	48,473	-0,300	-0,195
179,896	202,164	-0,168	-0,181
180,910	53,893	-0,244	-0,163
181,925	53,875	-0,238	-0,159
182,940	437,379	-0,133	-0,202
183,954	121,654	-0,158	-0,137
184,969	277,713	-0,195	-0,242
185,983	349,504	-0,171	-0,236
186,998	218,218	-0,152	-0,169
188,013	167,254	-0,211	-0,208
189,027	130,332	-0,207	-0,184
190,042	140,052	-0,256	-0,235
191,056	-108,469	-0,288	-0,043
192,071	49,659	-0,236	-0,154
193,086	582,984	-0,114	-0,195
194,100	-120,688	-0,200	-0,023
195,115	800,000	-0,155	-0,310
196,129	-41,920	-0,251	-0,089
197,144	93,723	-0,221	-0,174
198,159	-32,130	-0,300	-0,116
199,173	106,131	-0,159	-0,131
200,188	165,506	-0,202	-0,199
201,202	374,314	-0,153	-0,217
202,217	-15,935	-0,077	-0,034
203,232	278,454	-0,100	-0,124
204,246	45,222	-0,197	-0,126
205,261	-3,746	-0,191	-0,092
206,275	-119,579	-0,170	0,020
207,290	74,538	-0,240	-0,175
208,304	352,255	-0,162	-0,224
209,319	55,319	-0,206	-0,138
210,334	121,098	-0,126	-0,109
211,348	7,994	-0,295	-0,153
212,363	127,528	-0,118	-0,104
213,377	351,116	-0,095	-0,131
214,392	-84,420	-0,127	0,028
215,407	241,109	-0,167	-0,194
216,421	108,437	-0,174	-0,144
217,436	800,000	-0,066	-0,156
218,450	100,861	-0,212	-0,171
219,465	117,356	-0,272	-0,232
220,480	173,420	-0,128	-0,128
221,494	201,460	-0,131	-0,140
222,509	-85,259	-0,119	-0,026
223,523	281,508	-0,118	-0,147
224,538	-15,984	-0,251	-0,110
225,553	64,020	-0,224	-0,156
226,567	259,125	-0,252	-0,301
227,582	217,073	-0,096	-0,106
228,596	-71,234	-0,220	-0,057
229,611	285,557	-0,095	-0,120
230,626	145,088	-0,146	-0,135
231,640	256,204	-0,152	-0,181
232,655	322,029	-0,182	-0,240
233,669	247,962	-0,183	-0,215
234,684	-93,542	-0,125	-0,024
235,699	800,000	-0,062	-0,122
236,713	-3,544	-0,118	0,057
237,728	-8,157	-0,165	-0,077
238,742	8,628	-0,252	-0,131
239,757	169,375	-0,228	-0,225
240,772	476,261	-0,234	-0,367
241,786	356,180	-0,227	-0,315
242,801	301,583	-0,190	-0,244
243,815	40,592	-0,119	-0,074
244,830	477,922	-0,127	-0,199
245,844	199,358	-0,118	-0,126
246,859	-75,797	-0,253	-0,062
247,874	283,394	-0,093	-0,116
248,888	38,554	-0,118	-0,073
249,903	429,638	-0,141	-0,212
250,917	-200,000	0,009	-0,131
251,932	-142,414	-0,219	0,015
252,947	756,078	-0,077	-0,146
253,961	2,605	-0,201	-0,100
254,976	33,641	-0,241	-0,144
255,990	-8,663	-0,195	-0,090
257,005	-103,837	-0,177	0,028
258,020	-29,800	-0,179	-0,070
259,034	-164,015	-0,174	-0,005
260,049	-61,006	-0,164	-0,047
261,063	245,213	-0,127	-0,148
262,078	800,000	-0,120	-0,284
263,093	219,008	-0,136	-0,151
264,107	45,460	-0,215	-0,137
265,122	800,000	-0,088	-0,168
266,136	-78,087	-0,087	0,020
267,151	-164,372	-0,113	0,004
268,166	-4,924	-0,112	-0,053
269,180	683,099	-0,115	-0,209
270,195	22,551	-0,211	-0,119
271,209	2,992	-0,166	-0,083
272,224	269,596	-0,144	-0,175
273,239	800,000	-0,063	-0,148
274,253	-93,376	-0,198	0,037
275,268	-60,602	-0,324	-0,094
276,282	21,979	-0,292	-0,164
277,297	55,805	-0,238	-0,159
278,312	26,969	-0,229	-0,132
279,326	-104,189	-0,130	-0,021
280,341	-101,748	-0,113	-0,019
281,355	-7,319	-0,112	0,052
282,370	-1,817	-0,272	-0,132
283,384	-63,797	-0,096	-0,027
284,399	156,099	-0,146	-0,139
285,414	-17,329	-0,095	-0,041
286,428	-171,979	-0,262	0,006
287,443	114,262	-0,130	-0,109
288,457	316,360	-0,157	-0,204
289,472	177,190	-0,118	-0,118
290,487	-6,757	-0,147	-0,069
291,501	-58,166	-0,208	-0,062
292,516	126,007	-0,182	-0,158
293,530	-85,012	-0,208	-0,045
294,545	-45,035	-0,139	-0,047
295,560	184,041	-0,136	-0,139
296,574	-14,745	-0,173	-0,076
297,589	134,994	-0,134	-0,120
298,603	62,833	-0,260	-0,179
299,618	428,948	-0,193	-0,289
300,633	147,218	-0,204	-0,189
301,647	79,137	-0,146	-0,107
302,662	-61,523	-0,080	-0,023
303,676	-200,000	-0,071	-0,266
304,691	-51,646	-0,217	-0,069
305,706	14,370	-0,142	-0,076
306,720	112,780	-0,145	-0,121
307,735	81,010	-0,096	-0,071
308,749	435,449	-0,113	-0,170
309,764	-18,077	-0,138	0,059
310,779	60,013	-0,135	0,092
311,793	-20,653	-0,221	-0,093
312,808	-13,627	-0,097	0,043
313,822	38,575	-0,165	-0,101
314,837	290,908	-0,067	0,084
315,852	-13,887	-0,097	-0,043
316,866	-78,780	-0,197	0,046
317,881	-65,685	-0,187	0,051
318,895	98,120	-0,129	-0,102
319,910	94,812	-0,158	-0,124
320,925	66,920	-0,189	-0,132
321,939	624,990	-0,059	-0,102
322,954	-98,653	-0,069	-0,012
323,968	55,377	-0,090	0,059
324,983	800,000	-0,061	-0,160
325,997	225,157	-0,083	-0,093
327,012	-100,412	-0,174	0,029
328,027	21,374	-0,158	-0,088
329,041	164,801	-0,142	-0,138
330,056	-152,784	-0,156	0,007
331,070	477,541	-0,097	-0,151
332,085	-200,000	-0,007	0,072
333,100	-96,566	-0,184	0,033
334,114	124,139	-0,130	-0,112
335,129	596,894	-0,101	-0,172
336,143	244,349	-0,095	-0,110
337,158	117,771	-0,137	-0,116
338,173	247,947	-0,063	-0,073
339,187	-200,000	-0,040	-0,159
340,202	193,711	-0,099	-0,103
341,216	327,098	-0,134	-0,177
342,231	-200,000	-0,050	-0,270
343,246	279,660	-0,086	-0,106
344,260	-7,891	-0,133	-0,061
345,275	130,757	-0,166	-0,146
346,289	-18,625	-0,044	-0,019
347,304	460,683	-0,071	-0,109
348,319	344,086	0,025	-0,034
349,333	173,273	-0,156	-0,154
350,348	-58,769	-0,184	-0,054
351,362	718,259	0,048	-0,088
352,377	800,000	-0,035	-0,094
353,392	-86,279	-0,095	0,020
354,406	77,967	-0,125	0,092
355,421	208,686	1316,038	1413,284
356,435	160,578	1476,933	1413,763
