DTS Sentinel unit serial number:	SN410029Multiplexer serial number:	ORYXHardware model number:	OX2-SRSoftware version number:	ORYX F/W v4,00 Oryx Data Collector v3.7.2.0data status	okinstallation	B3 Nyhavnadifferential loss correction	single-endedforward channel	channel 1reverse channel	N/Adate	2023/12/01time	15:32:30forward acquisition time	300,00reverse acquisition time	0,00gamma	499,1914k internal	0,3209k external	0,3209temperature offset calibration	1,0000default loss term (dB/km)	0,3820temperature slope calibration	1,0000multiplexer offset coefficient	1,0000multiplexer slope coefficient	1,0000fibre end	0,00T internal ref (°C)	12,12T ext. ref 1 (°C)	-1,31T ext. ref 2 (°C)	-1,36length (m)	temperature (°C)	Stokes	anti-Stokes-744,400	9,338	-0,249	-0,136
-743,385	-200,000	0,068	0,247
-742,371	11,886	-0,121	-0,067
-741,356	-200,000	-0,087	0,320
-740,342	88,861	-0,276	-0,223
-739,327	-200,000	0,038	0,278
-738,312	636,403	-0,153	-0,284
-737,298	-200,000	0,069	0,287
-736,283	-89,878	-0,049	-0,010
-735,269	800,000	0,118	0,332
-734,254	207,960	-0,204	-0,231
-733,239	-200,000	-0,058	0,258
-732,225	8,522	-0,238	-0,129
-731,210	800,000	0,069	0,216
-730,196	371,933	-0,024	-0,035
-729,181	800,000	-0,030	-0,077
-728,167	-62,138	0,050	0,015
-727,152	-200,000	-0,025	-0,118
-726,137	-107,204	-0,086	-0,014
-725,123	128,031	-0,115	-0,106
-724,108	222,164	-0,136	-0,159
-723,094	-138,429	-0,110	-0,009
-722,079	44,746	-0,129	-0,086
-721,064	614,695	0,005	-0,008
-720,050	-141,383	0,152	-0,011
-719,035	-29,333	-0,064	-0,026
-718,021	-200,000	-0,000	-0,097
-717,006	-122,076	-0,005	-0,001
-715,991	291,101	0,060	0,080
-714,977	-22,387	-0,142	-0,062
-713,962	-200,000	0,041	0,000
-712,948	32,298	-0,113	-0,071
-711,933	-153,731	0,022	-0,001
-710,918	-128,439	-0,109	-0,011
-709,904	167,394	-0,053	-0,055
-708,889	51,892	0,060	-0,041
-707,875	800,000	0,074	-0,173
-706,860	-200,000	0,006	0,134
-705,845	-58,795	0,153	-0,048
-704,831	800,000	-0,019	-0,038
-703,816	643,551	-0,099	-0,185
-702,802	-102,917	-0,087	0,015
-701,787	-69,952	-0,068	0,019
-700,772	800,000	-0,023	-0,060
-699,758	-27,567	-0,073	-0,031
-698,743	55,059	0,132	0,092
-697,729	-200,000	-0,008	0,106
-696,714	227,737	0,045	-0,053
-695,699	63,412	-0,117	-0,085
-694,685	157,504	-0,053	-0,054
-693,670	-58,604	0,043	-0,013
-692,656	-200,000	-0,039	-0,131
-691,641	109,626	0,054	-0,047
-690,627	113,747	0,055	0,049
-689,612	-200,000	0,018	0,066
-688,597	-200,000	-0,002	0,110
-687,583	147,199	-0,029	0,029
-686,568	-200,000	0,004	-0,019
-685,554	17,901	0,079	-0,045
-684,539	25,626	-0,047	0,028
-683,524	217,013	-0,045	0,052
-682,510	223,865	-0,052	0,061
-681,495	149,413	0,090	-0,088
-680,481	281,849	-0,033	-0,042
-679,466	800,000	0,025	-0,079
-678,451	-200,000	-0,008	-0,049
-677,437	115,689	-0,063	-0,056
-676,422	-59,648	0,083	-0,026
-675,408	800,000	0,029	0,093
-674,393	-78,496	-0,117	-0,029
-673,378	-200,000	-0,051	-0,196
-672,364	-126,154	0,064	0,007
-671,349	-200,000	-0,016	-0,068
-670,335	83,805	0,058	-0,045
-669,320	30,745	-0,087	-0,054
-668,305	-27,202	-0,058	0,024
-667,291	-29,603	-0,132	-0,054
-666,276	-78,298	0,084	0,021
-665,262	800,000	-0,051	-0,131
-664,247	-7,739	0,079	0,038
-663,232	-171,944	-0,107	-0,002
-662,218	401,712	-0,041	0,062
-661,203	-200,000	0,005	-0,080
-660,189	646,773	0,011	-0,020
-659,174	7,258	-0,047	0,025
-658,159	279,672	-0,014	0,018
-657,145	-55,949	-0,095	-0,030
-656,130	-9,379	0,086	0,041
-655,116	8,674	-0,042	0,023
-654,101	299,062	0,016	-0,021
-653,086	457,750	0,033	0,053
-652,072	188,730	0,016	-0,018
-651,057	-191,770	0,044	-0,000
-650,043	93,712	-0,039	0,032
-649,028	81,804	0,117	-0,091
-648,014	-200,000	0,022	-0,077
-646,999	143,085	0,062	0,060
-645,984	-173,772	0,116	0,002
-644,970	-102,737	-0,159	0,027
-643,955	152,883	-0,109	-0,108
-642,941	-82,538	-0,107	0,025
-641,926	-200,000	-0,013	-0,074
-640,911	-151,407	-0,073	-0,004
-639,897	-200,000	0,011	-0,103
-638,882	-36,121	-0,043	0,017
-637,868	17,546	-0,093	0,054
-636,853	-123,763	-0,147	-0,017
-635,838	-200,000	-0,030	-0,107
-634,824	296,385	-0,048	-0,064
-633,809	259,357	0,038	-0,047
-632,795	-200,000	0,002	-0,122
-631,780	-61,425	-0,100	0,030
-630,765	-9,556	0,082	-0,039
-629,751	257,849	0,052	0,064
-628,736	119,684	-0,096	0,086
-627,722	-6,790	0,057	0,028
-626,707	800,000	-0,025	0,069
-625,692	-24,374	0,057	-0,024
-624,678	-42,504	0,062	0,023
-623,663	383,761	-0,024	-0,035
-622,649	-200,000	0,038	-0,127
-621,634	5,759	-0,092	-0,049
-620,619	-200,000	0,018	-0,147
-619,605	800,000	0,015	0,033
-618,590	81,942	0,030	-0,024
-617,576	77,226	0,025	0,019
-616,561	-200,000	0,032	-0,115
-615,546	-26,309	-0,037	-0,016
-614,532	-50,913	-0,070	0,023
-613,517	800,000	-0,033	0,098
-612,503	768,265	-0,037	-0,073
-611,488	-78,970	-0,064	-0,016
-610,474	207,164	-0,015	0,016
-609,459	800,000	0,040	0,081
-608,444	-200,000	-0,012	-0,058
-607,430	800,000	0,081	-0,189
-606,415	197,047	-0,101	-0,112
-605,401	147,963	-0,055	-0,054
-604,386	-200,000	-0,021	0,077
-603,371	249,192	0,128	-0,157
-602,357	-79,652	-0,078	-0,019
-601,342	800,000	0,013	-0,029
-600,328	-200,000	0,014	-0,051
-599,313	800,000	-0,017	-0,038
-598,298	-65,529	0,037	-0,011
-597,284	446,084	-0,076	0,121
-596,269	-200,000	-0,045	0,246
-595,255	233,358	0,064	-0,077
-594,240	100,439	-0,120	-0,101
-593,225	-200,000	-0,005	-0,027
-592,211	-200,000	0,005	-0,058
-591,196	-80,754	-0,170	-0,040
-590,182	800,000	0,043	0,087
-589,167	198,324	0,038	-0,042
-588,152	-41,914	0,037	-0,014
-587,138	19,668	0,045	-0,026
-586,123	-71,946	-0,102	0,027
-585,109	444,562	-0,115	-0,183
-584,094	-30,964	0,107	-0,044
-583,079	-63,769	-0,041	0,012
-582,065	720,520	0,038	0,073
-581,050	350,939	0,018	-0,026
-580,036	65,087	-0,107	-0,078
-579,021	-149,089	-0,054	-0,003
-578,006	167,734	0,051	0,052
-576,992	117,066	-0,080	0,071
-575,977	-200,000	-0,001	-0,051
-574,963	800,000	-0,023	-0,059
-573,948	265,826	0,082	-0,103
-572,934	-59,463	-0,115	0,035
-571,919	226,606	-0,100	-0,117
-570,904	-60,751	-0,032	0,010
-569,890	127,767	0,029	-0,026
-568,875	-200,000	-0,006	0,065
-567,861	58,476	0,053	-0,038
-566,846	362,594	0,058	0,085
-565,831	800,000	-0,050	0,115
-564,817	-91,907	-0,083	-0,017
-563,802	800,000	-0,069	-0,204
-562,788	-200,000	0,031	-0,118
-561,773	46,613	-0,131	0,088
-560,758	800,000	0,057	-0,155
-559,744	800,000	-0,043	-0,089
-558,729	-200,000	0,018	-0,157
-557,715	-142,124	-0,159	-0,011
-556,700	-11,553	-0,034	-0,016
-555,685	-200,000	-0,001	-0,068
-554,671	-137,074	0,144	0,012
-553,656	-2,529	0,074	-0,037
-552,642	800,000	0,059	-0,123
-551,627	96,013	0,041	0,034
-550,612	-84,776	-0,099	-0,022
-549,598	-200,000	0,006	-0,035
-548,583	800,000	-0,015	0,036
-547,569	135,136	-0,076	-0,071
-546,554	561,550	-0,035	-0,061
-545,539	-200,000	-0,005	0,115
-544,525	165,128	-0,071	0,072
-543,510	-200,000	-0,037	0,124
-542,496	-155,569	-0,094	0,004
-541,481	-200,000	0,004	-0,084
-540,466	-200,000	-0,006	0,101
-539,452	58,451	0,019	-0,013
-538,437	-82,122	0,108	0,025
-537,423	-122,149	-0,021	-0,002
-536,408	800,000	0,013	-0,027
-535,393	144,715	-0,054	0,052
-534,379	-132,097	0,077	-0,007
-533,364	800,000	-0,011	-0,023
-532,350	-61,247	-0,209	-0,063
-531,335	28,151	0,093	0,056
-530,321	249,484	-0,143	0,175
-529,306	-200,000	0,004	0,031
-528,291	800,000	-0,035	-0,071
-527,277	800,000	-0,057	-0,158
-526,262	473,235	0,003	-0,005
-525,248	231,022	-0,161	0,191
-524,233	255,720	0,096	0,119
-523,218	800,000	-0,035	-0,071
-522,204	-62,891	-0,077	0,023
-521,189	800,000	0,024	-0,053
-520,175	800,000	-0,023	-0,070
-519,160	377,563	-0,051	-0,076
-518,145	-200,000	0,022	0,123
-517,131	-200,000	0,015	0,158
-516,116	-53,049	-0,089	0,029
-515,102	-200,000	0,003	0,208
-514,087	-85,553	-0,083	0,019
-513,072	57,967	-0,030	-0,021
-512,058	-128,324	-0,150	-0,015
-511,043	497,214	0,061	-0,102
-510,029	66,674	0,107	-0,078
-509,014	-96,762	0,124	-0,023
-507,999	-160,556	0,136	0,005
-506,985	446,458	-0,030	0,047
-505,970	-44,144	-0,062	-0,022
-504,956	-29,385	-0,090	-0,037
-503,941	211,953	-0,090	0,102
-502,926	157,435	0,044	0,044
-501,912	-119,211	0,049	-0,006
-500,897	109,797	0,030	-0,026
-499,883	453,249	0,037	0,059
-498,868	137,086	0,102	-0,096
-497,853	-12,717	0,047	0,022
-496,839	800,000	0,018	0,047
-495,824	255,744	-0,043	-0,053
-494,810	230,667	0,064	0,076
-493,795	-142,542	0,049	-0,003
-492,781	37,273	-0,115	-0,073
-491,766	259,932	-0,053	0,066
-490,751	3,246	0,053	-0,028
-489,737	52,675	-0,018	0,013
-488,722	487,028	-0,006	0,009
-487,708	9,822	0,096	0,052
-486,693	209,738	-0,070	0,079
-485,678	262,112	-0,117	0,147
-484,664	207,184	-0,011	0,012
-483,649	204,377	0,020	-0,023
-482,635	800,000	0,043	0,117
-481,620	-63,247	0,096	0,028
-480,605	662,201	-0,008	0,015
-479,591	9,524	-0,024	-0,013
-478,576	800,000	-0,026	0,061
-477,562	-200,000	-0,016	0,102
-476,547	153,789	-0,071	-0,070
-475,532	17,578	0,092	-0,052
-474,518	800,000	0,058	-0,126
-473,503	-200,000	-0,002	0,110
-472,489	-71,647	-0,074	-0,020
-471,474	-186,882	-0,150	-0,001
-470,459	528,648	-0,029	-0,050
-469,445	128,909	-0,066	-0,060
-468,430	-14,207	-0,029	0,013
-467,416	-200,000	-0,053	-0,179
-466,401	-132,735	-0,135	-0,012
-465,386	-200,000	-0,021	0,137
-464,372	800,000	-0,022	0,057
-463,357	800,000	0,025	-0,067
-462,343	704,368	0,060	-0,115
-461,328	800,000	-0,013	-0,032
-460,313	1,736	-0,069	-0,036
-459,299	149,957	0,113	0,110
-458,284	90,394	-0,078	0,062
-457,270	283,789	-0,040	-0,052
-456,255	-30,390	-0,074	0,030
-455,241	466,484	-0,080	-0,130
-454,226	-200,000	0,025	0,094
-453,211	198,668	-0,048	-0,053
-452,197	626,922	0,061	-0,111
-451,182	-200,000	0,005	0,054
-450,168	353,856	-0,012	-0,018
-449,153	-200,000	-0,001	0,044
-448,138	800,000	-0,024	-0,057
-447,124	-9,719	-0,144	0,069
-446,109	800,000	-0,034	-0,079
-445,095	6,253	0,106	0,056
-444,080	393,044	0,090	0,134
-443,065	-200,000	0,000	-0,011
-442,051	156,931	-0,076	0,076
-441,036	-124,195	0,045	0,005
-440,022	-200,000	-0,020	-0,121
-439,007	-119,216	0,090	0,011
-437,992	123,047	0,043	0,039
-436,978	637,738	0,038	0,070
-435,963	94,661	0,103	0,084
-434,949	-200,000	-0,015	0,122
-433,934	-11,697	0,194	0,091
-432,919	41,399	-0,114	-0,074
-431,905	-200,000	-0,006	0,159
-430,890	-200,000	-0,004	0,052
-429,876	-18,745	-0,022	-0,010
-428,861	505,767	0,036	-0,060
-427,846	-103,935	-0,135	0,022
-426,832	335,934	0,043	-0,060
-425,817	-86,316	-0,118	0,026
-424,803	800,000	0,055	0,114
-423,788	228,508	-0,050	-0,059
-422,773	59,830	-0,097	0,069
-421,759	158,505	0,064	0,063
-420,744	-100,368	-0,118	0,021
-419,730	81,443	-0,027	0,021
-418,715	-73,082	-0,164	-0,043
-417,701	-200,000	0,006	0,049
-416,686	-200,000	-0,000	0,042
-415,671	-124,443	-0,046	0,005
-414,657	100,825	-0,072	0,060
-413,642	-200,000	0,014	0,238
-412,628	28,648	-0,078	0,047
-411,613	800,000	-0,037	0,103
-410,598	443,359	0,044	-0,069
-409,584	67,441	-0,058	0,042
-408,569	79,417	0,077	0,059
-407,555	65,528	-0,033	-0,024
-406,540	35,027	-0,055	0,034
-405,525	-200,000	0,019	-0,061
-404,511	-95,213	-0,109	-0,021
-403,496	-200,000	0,002	0,037
-402,482	254,158	0,045	-0,055
-401,467	-133,734	0,172	-0,015
-400,452	573,940	0,087	0,153
-399,438	-156,769	0,027	-0,001
-398,423	-174,495	-0,116	-0,002
-397,409	666,886	-0,041	-0,075
-396,394	190,032	0,044	-0,047
-395,379	-38,540	0,101	0,038
-394,365	-200,000	-0,001	0,085
-393,350	-200,000	-0,007	0,090
-392,336	76,737	-0,023	-0,017
-391,321	324,930	-0,032	0,044
-390,306	273,424	0,057	-0,072
-389,292	-200,000	0,024	-0,087
-388,277	212,570	0,016	0,018
-387,263	-66,623	0,092	0,026
-386,248	2,962	0,090	0,046
-385,233	-200,000	0,030	0,097
-384,219	800,000	-0,026	-0,073
-383,204	41,077	0,208	-0,134
-382,190	90,594	-0,019	0,015
-381,175	184,052	-0,045	0,048
-380,160	-200,000	-0,010	0,079
-379,146	-200,000	0,004	0,101
-378,131	800,000	-0,019	0,055
-377,117	51,656	-0,028	0,019
-376,102	-200,000	-0,041	-0,160
-375,088	-108,326	-0,030	0,005
-374,073	89,335	-0,130	0,104
-373,058	138,462	0,187	0,176
-372,044	-29,249	0,090	-0,037
-371,029	78,129	0,059	0,045
-370,015	-20,798	-0,115	0,050
-369,000	-52,623	-0,116	0,038
-367,985	-63,903	-0,086	-0,025
-366,971	123,529	-0,039	-0,035
-365,956	-65,847	0,088	-0,025
-364,942	-131,813	-0,124	0,011
-363,927	-1,746	0,033	-0,017
-362,912	-200,000	0,012	0,040
-361,898	172,315	0,031	0,032
-360,883	-83,759	-0,060	-0,013
-359,869	800,000	0,049	0,118
-358,854	-16,444	-0,029	0,013
-357,839	-136,901	0,156	0,013
-356,825	-200,000	-0,008	0,042
-355,810	-61,081	0,133	0,040
-354,796	51,585	0,082	-0,056
-353,781	209,791	-0,090	-0,101
-352,766	800,000	-0,042	-0,130
-351,752	-200,000	0,013	0,063
-350,737	-50,558	0,123	0,041
-349,723	-0,534	0,079	0,040
-348,708	130,246	-0,093	0,085
-347,693	-130,199	0,119	-0,011
-346,679	-200,000	-0,000	0,109
-345,664	-200,000	-0,017	-0,058
-344,650	-200,000	0,006	-0,124
-343,635	179,368	0,045	-0,047
-342,620	-9,639	0,123	-0,058
-341,606	-3,118	-0,030	-0,015
-340,591	800,000	0,006	-0,016
-339,577	-57,004	-0,010	0,003
-338,562	430,003	-0,056	-0,086
-337,548	800,000	-0,012	0,034
-336,533	9,018	0,036	-0,019
-335,518	138,768	0,099	-0,093
-334,504	-200,000	-0,013	-0,186
-333,489	-51,090	0,053	0,018
-332,475	-200,000	0,001	-0,061
-331,460	-200,000	-0,022	-0,087
-330,445	-200,000	0,025	0,107
-329,431	225,924	0,054	-0,062
-328,416	42,732	-0,036	0,023
-327,402	275,585	0,135	0,171
-326,387	-90,282	-0,016	-0,003
-325,372	800,000	-0,020	0,054
-324,358	19,963	0,124	0,071
-323,343	235,679	-0,052	0,061
-322,329	-200,000	-0,015	0,046
-321,314	-200,000	0,014	-0,120
-320,299	1,142	-0,065	-0,033
-319,285	159,999	0,057	0,057
-318,270	-135,297	0,057	0,005
-317,256	360,311	0,091	0,131
-316,241	516,061	-0,024	-0,039
-315,226	-200,000	-0,052	0,180
-314,212	-30,226	0,068	-0,028
-313,197	-18,716	0,110	0,049
-312,183	-95,081	0,142	-0,027
-311,168	-102,750	0,100	0,017
-310,153	26,404	-0,137	-0,082
-309,139	-151,728	-0,183	0,009
-308,124	800,000	-0,012	-0,039
-307,110	385,376	0,003	0,004
-306,095	-168,560	0,029	0,001
-305,080	-71,977	-0,111	0,029
-304,066	-200,000	-0,008	-0,079
-303,051	-171,307	0,076	0,002
-302,037	254,103	-0,048	0,058
-301,022	461,184	-0,033	-0,053
-300,008	-90,703	0,100	0,020
-298,993	-200,000	-0,000	0,016
-297,978	-200,000	0,002	0,074
-296,964	763,344	0,058	-0,112
-295,949	219,803	0,048	-0,055
-294,935	10,813	-0,046	-0,025
-293,920	-111,883	-0,069	0,010
-292,905	-144,239	0,128	0,008
-291,891	-200,000	-0,007	0,159
-290,876	-109,379	-0,068	-0,010
-289,862	-62,591	-0,069	-0,020
-288,847	5,592	0,119	-0,062
-287,832	198,417	-0,094	-0,103
-286,818	157,175	0,068	-0,067
-285,803	385,451	-0,013	-0,020
-284,789	-162,253	0,017	0,001
-283,774	315,933	0,071	0,096
-282,759	-200,000	0,001	-0,031
-281,745	-200,000	-0,039	-0,176
-280,730	575,187	-0,005	-0,008
-279,716	272,709	-0,032	0,041
-278,701	800,000	0,070	-0,161
-277,686	137,817	0,138	0,129
-276,672	-137,753	0,119	-0,009
-275,657	4,448	-0,126	-0,066
-274,643	-200,000	0,013	-0,056
-273,628	-200,000	0,001	0,009
-272,613	-200,000	0,009	-0,094
-271,599	148,815	0,064	0,062
-270,584	800,000	0,068	0,145
-269,570	800,000	0,020	0,058
-268,555	788,519	-0,032	0,063
-267,540	-78,508	0,038	0,009
-266,526	-106,066	0,049	0,008
-265,511	-111,812	0,047	-0,007
-264,497	800,000	0,038	0,093
-263,482	216,479	-0,048	0,054
-262,467	166,487	0,102	0,103
-261,453	393,821	0,011	0,017
-260,438	360,703	0,022	-0,031
-259,424	-66,643	-0,065	-0,018
-258,409	-200,000	-0,040	-0,181
-257,395	-75,911	0,118	0,030
-256,380	800,000	-0,048	0,146
-255,365	46,174	-0,058	0,038
-254,351	81,428	-0,060	0,046
-253,336	-200,000	0,002	0,041
-252,322	-84,204	-0,097	-0,022
-251,307	5,494	0,069	-0,036
-250,292	800,000	0,031	-0,072
-249,278	179,540	0,081	0,084
-248,263	-200,000	0,019	0,094
-247,249	800,000	-0,043	-0,094
-246,234	-200,000	0,063	-0,206
-245,219	-200,000	-0,017	-0,077
-244,205	800,000	-0,045	-0,091
-243,190	335,649	-0,030	0,042
-242,176	213,576	0,064	0,073
-241,161	-46,972	0,119	-0,041
-240,146	232,024	0,033	-0,039
-239,132	800,000	-0,057	-0,120
-238,117	-200,000	0,007	0,099
-237,103	-200,000	-0,002	-0,020
-236,088	-35,647	0,192	-0,074
-235,073	509,843	0,035	0,058
-234,059	326,131	-0,050	0,069
-233,044	-200,000	-0,001	0,060
-232,030	-131,667	0,207	-0,019
-231,015	-200,000	-0,030	0,117
-230,000	-8,853	0,017	0,008
-228,986	-5,162	0,031	-0,015
-227,971	800,000	0,010	-0,019
-226,957	-134,497	0,022	-0,002
-225,942	-40,366	0,104	0,038
-224,927	105,254	-0,076	0,064
-223,913	-30,183	0,139	-0,056
-222,898	24,565	-0,056	-0,033
-221,884	490,479	-0,117	-0,191
-220,869	508,657	0,049	-0,081
-219,855	102,943	-0,049	0,041
-218,840	165,848	0,019	0,019
-217,825	-54,031	0,136	-0,044
-216,811	85,127	0,120	0,093
-215,796	-142,068	-0,165	-0,012
-214,782	-179,835	0,158	-0,002
-213,767	106,273	0,135	0,114
-212,752	111,222	0,035	-0,030
-211,738	24,404	0,108	0,064
-210,723	-34,161	0,049	-0,019
-209,709	800,000	-0,037	-0,086
-208,694	-200,000	-0,002	0,051
-207,679	-79,645	-0,090	-0,021
-206,665	643,690	-0,056	-0,102
-205,650	59,249	0,115	0,081
-204,636	800,000	0,074	-0,156
-203,621	256,302	-0,087	-0,107
-202,606	-200,000	-0,023	-0,095
-201,592	-200,000	0,016	-0,116
-200,577	-7,290	-0,036	0,017
-199,563	332,235	0,056	0,077
-198,548	-109,230	0,100	0,015
-197,533	64,023	-0,057	-0,040
-196,519	-140,884	0,121	-0,009
-195,504	-86,426	-0,141	-0,030
-194,490	-85,333	-0,057	0,012
-193,475	27,080	-0,068	-0,040
-192,460	-60,459	0,147	-0,044
-191,446	-172,434	-0,095	0,002
-190,431	800,000	0,055	0,153
-189,417	800,000	0,035	0,100
-188,402	178,775	0,079	0,082
-187,387	-114,070	-0,142	0,019
-186,373	482,442	-0,080	-0,130
-185,358	105,857	0,068	-0,057
-184,344	256,706	0,074	-0,090
-183,329	-52,360	0,101	0,033
-182,315	-200,000	0,029	0,112
-181,300	-200,000	0,048	0,222
-180,285	399,139	0,064	-0,096
-179,271	595,092	0,034	-0,060
-178,256	474,444	-0,035	-0,056
-177,242	-33,675	-0,093	0,036
-176,227	781,145	-0,011	-0,022
-175,212	-200,000	0,005	0,102
-174,198	27,272	0,082	0,049
-173,183	800,000	0,014	-0,040
-172,169	75,865	-0,031	-0,023
-171,154	192,268	0,087	0,093
-170,139	-53,816	0,168	-0,054
-169,125	718,543	0,083	-0,156
-168,110	650,166	-0,050	0,092
-167,096	-107,021	-0,102	0,016
-166,081	-200,000	0,051	-0,207
-165,066	-112,047	-0,055	0,008
-164,052	800,000	-0,032	-0,098
-163,037	-200,000	-0,011	0,056
-162,023	67,807	0,133	0,097
-161,008	124,101	-0,061	0,054
-159,993	-42,939	-0,069	0,025
-158,979	263,343	-0,033	0,041
-157,964	-16,662	-0,182	0,082
-156,950	490,160	-0,046	-0,074
-155,935	-200,000	0,010	0,076
-154,920	3,128	-0,047	0,024
-153,906	800,000	-0,024	0,058
-152,891	800,000	0,020	0,046
-151,877	347,918	-0,072	0,101
-150,862	-50,168	-0,173	0,058
-149,847	-58,421	0,100	0,031
-148,833	-200,000	-0,023	0,084
-147,818	-200,000	0,001	-0,089
-146,804	-69,300	-0,047	-0,013
-145,789	-51,392	0,033	0,011
-144,775	29,392	-0,083	-0,050
-143,760	473,503	0,013	-0,021
-142,745	-79,104	-0,140	-0,034
-141,731	31,363	0,118	-0,072
-140,716	292,895	0,034	0,044
-139,702	212,080	0,094	0,105
-138,687	66,619	-0,153	0,110
-137,672	749,009	0,015	-0,029
-136,658	-200,000	-0,013	-0,130
-135,643	-170,567	-0,225	0,005
-134,629	-135,048	-0,053	-0,004
-133,614	-104,395	-0,088	-0,014
-132,599	-200,000	0,018	0,086
-131,585	-200,000	0,002	0,144
-130,570	2,993	0,071	-0,036
-129,556	101,106	-0,019	-0,016
-128,541	-80,656	-0,035	-0,008
-127,526	-11,931	-0,017	0,008
-126,512	71,813	0,012	0,009
-125,497	89,182	0,089	-0,071
-124,483	800,000	0,046	0,139
-123,468	291,574	-0,074	-0,096
-122,453	-37,921	-0,171	-0,064
-121,439	437,631	-0,080	-0,124
-120,424	-61,241	0,141	0,042
-119,410	-29,137	0,017	-0,007
-118,395	-84,702	-0,059	0,013
-117,380	47,636	0,047	-0,031
-116,366	-102,288	0,031	0,005
-115,351	-200,000	-0,017	-0,068
-114,337	432,874	-0,026	-0,041
-113,322	-200,000	0,044	-0,204
-112,307	-58,037	0,083	-0,025
-111,293	377,771	0,049	0,071
-110,278	-200,000	0,005	0,091
-109,264	50,408	0,040	-0,027
-108,249	-200,000	-0,020	-0,132
-107,234	-14,750	0,006	0,003
-106,220	-2,313	0,030	-0,015
-105,205	-8,387	0,057	-0,027
-104,191	-37,018	0,066	-0,025
-103,176	-131,951	0,115	0,010
-102,162	800,000	0,047	0,118
-101,147	800,000	-0,033	-0,082
-100,132	-118,775	0,037	0,005
-99,118	-200,000	0,013	-0,045
-98,103	-64,937	0,082	0,023
-97,089	-200,000	0,055	0,192
-96,074	170,452	0,138	0,140
-95,059	787,110	0,076	0,148
-94,045	19,823	0,032	-0,018
-93,030	-200,000	-0,006	-0,136
-92,016	26,195	-0,151	-0,089
-91,001	-133,024	0,130	-0,012
-89,986	-70,621	0,126	-0,033
-88,972	-22,314	0,102	0,043
-87,957	-33,834	0,102	-0,039
-86,943	743,679	0,022	-0,042
-85,928	-40,941	-0,040	0,014
-84,913	399,872	-0,072	-0,106
-83,899	36,361	0,090	0,056
-82,884	437,836	0,015	-0,023
-81,870	-109,772	0,090	0,013
-80,855	-200,000	-0,011	0,061
-79,840	-200,000	0,006	0,129
-78,826	-8,578	0,095	0,045
-77,811	-55,788	0,124	-0,039
-76,797	-200,000	-0,027	-0,125
-75,782	-200,000	-0,033	0,116
-74,767	68,628	-0,060	0,044
-73,753	30,590	-0,044	0,027
-72,738	-200,000	0,052	-0,194
-71,724	270,596	-0,018	-0,022
-70,709	13,737	-0,037	-0,020
-69,694	271,507	-0,046	0,057
-68,680	393,119	0,057	-0,083
-67,665	-12,583	0,019	0,009
-66,651	174,414	-0,015	0,015
-65,636	800,000	0,079	0,195
-64,622	-96,436	-0,172	-0,032
-63,607	187,977	0,049	-0,051
-62,592	490,087	-0,044	0,072
-61,578	-200,000	-0,002	-0,050
-60,563	-82,206	0,161	0,037
-59,549	-200,000	0,000	-0,023
-58,534	-3,556	-1,710	-0,837
-57,519	404,330	-1,352	-2,018
-56,505	-200,000	-0,391	-4,315
-55,490	312,092	0,979	1,302
-54,476	800,000	4,919	11,184
-53,461	-200,000	19,900	329,658
-52,446	800,000	746,578	2326,146
-51,432	561,016	1655,230	2836,686
-50,417	75,849	1665,392	1242,090
-49,403	20,023	1538,875	874,048
-48,388	13,965	1461,168	800,593
-47,373	18,670	1451,348	817,787
-46,359	16,562	1440,746	801,742
-45,344	12,217	1436,417	778,601
-44,330	12,168	1434,514	777,305
-43,315	12,179	1432,697	776,343
-42,300	12,207	1431,246	775,660
-41,286	12,186	1430,043	774,877
-40,271	12,162	1428,636	773,969
-39,257	12,135	1427,378	773,130
-38,242	12,183	1426,182	772,680
-37,227	12,197	1424,773	771,949
-36,213	12,185	1423,484	771,167
-35,198	12,202	1422,627	770,752
-34,184	12,233	1421,369	770,185
-33,169	12,194	1419,963	769,208
-32,154	12,279	1419,026	769,071
-31,140	12,243	1417,653	768,125
-30,125	12,236	1416,574	767,478
-29,111	12,245	1415,528	766,923
-28,096	12,263	1414,340	766,332
-27,082	12,121	1413,543	765,205
-26,067	12,157	1412,369	764,706
-25,052	12,155	1411,233	764,055
-24,038	12,149	1410,191	763,433
-23,023	12,144	1409,329	762,908
-22,009	12,131	1408,105	762,159
-20,994	12,153	1407,220	761,749
-19,979	12,098	1406,478	761,060
-18,965	12,103	1405,579	760,568
-17,950	12,116	1404,576	760,054
-16,936	12,079	1403,579	759,316
-15,921	12,034	1402,670	758,581
-14,906	12,066	1401,723	758,189
-13,892	12,080	1400,628	757,630
-12,877	12,048	1400,000	757,114
-11,863	12,046	1399,017	756,544
-10,848	11,994	1398,358	755,917
-9,833	12,019	1397,369	755,467
-8,819	11,998	1396,323	754,772
-7,804	11,914	1395,565	753,944
-6,790	11,962	1394,558	753,593
-5,775	11,912	1393,698	752,866
-4,760	11,985	1392,476	752,515
-3,746	11,966	1391,566	751,905
-2,731	11,975	1390,823	751,514
-1,717	11,963	1389,918	750,942
-0,702	11,950	1388,240	749,943
0,313	15,969	1303,973	722,868
1,327	32,171	697,557	423,764
2,342	49,788	121,663	80,798
3,356	-0,036	16,539	8,284
4,371	-2,090	3,320	1,640
5,386	45,083	0,603	0,391
6,400	-200,000	0,029	0,385
7,415	14,030	-0,193	-0,106
8,429	24,020	-0,266	-0,154
9,444	17,557	-0,360	-0,201
10,459	-92,057	-0,457	-0,090
11,473	-3,793	-0,275	-0,134
12,488	-64,364	-0,275	-0,078
13,502	-28,983	-0,339	-0,137
14,517	157,454	-0,350	-0,342
15,531	12,670	-0,328	-0,178
16,546	104,539	-0,357	-0,296
17,561	97,497	-0,357	-0,289
18,575	65,395	-0,247	-0,176
19,590	220,081	-0,143	-0,162
20,604	61,264	-0,226	-0,158
21,619	24,976	-0,406	-0,237
22,634	191,021	-0,413	-0,439
23,648	207,241	-0,337	-0,371
24,663	140,348	-0,330	-0,307
25,677	175,668	-0,240	-0,246
26,692	59,031	-0,212	-0,146
27,707	-92,966	-0,347	-0,068
28,721	112,056	-0,280	-0,238
29,736	110,509	-0,387	-0,327
30,750	195,360	-0,359	-0,384
31,765	322,038	-0,274	-0,368
32,780	77,872	-0,353	-0,265
33,794	22,617	-0,281	-0,161
34,809	3,865	-0,370	-0,190
35,823	-30,324	-0,375	-0,149
36,838	48,482	-0,359	-0,236
37,853	527,069	-0,196	-0,327
38,867	100,246	-0,280	-0,228
39,882	42,895	-0,303	-0,194
40,896	4,071	-0,316	-0,162
41,911	-4,264	-0,402	-0,195
42,926	17,155	-0,357	-0,198
43,940	73,194	-0,356	-0,262
44,955	219,038	-0,260	-0,293
45,969	37,674	-0,376	-0,234
46,984	15,897	-0,309	-0,171
47,999	117,352	-0,215	-0,186
49,013	152,895	-0,167	-0,161
50,028	71,195	-0,320	-0,233
51,042	81,659	-0,313	-0,238
52,057	252,216	-0,321	-0,385
53,071	159,902	-0,378	-0,371
54,086	102,467	-0,275	-0,226
55,101	196,887	-0,259	-0,277
56,115	153,028	-0,288	-0,276
57,130	-26,726	-0,428	-0,175
58,144	-1,016	-0,371	-0,184
59,159	-118,356	-0,311	-0,038
60,174	97,991	-0,360	-0,291
61,188	212,381	-0,285	-0,316
62,203	485,100	-0,100	-0,160
63,217	11,116	-0,279	-0,149
64,232	156,921	-0,366	-0,355
65,247	39,862	-0,370	-0,233
66,261	21,715	-0,357	-0,204
67,276	63,737	-0,356	-0,251
68,290	-84,089	-0,244	-0,054
69,305	7,380	-0,193	-0,101
70,320	-41,921	-0,326	-0,117
71,334	253,498	-0,270	-0,324
72,349	77,373	-0,363	-0,271
73,363	366,629	-0,201	-0,286
74,378	57,465	-0,338	-0,231
75,393	232,848	-0,184	-0,212
76,407	80,888	-0,335	-0,254
77,422	800,000	-0,089	-0,268
78,436	-62,123	-0,271	-0,079
79,451	-22,437	-0,255	-0,108
80,466	19,752	-0,279	-0,157
81,480	148,274	-0,277	-0,262
82,495	251,726	-0,184	-0,220
83,509	-15,099	-0,339	-0,152
84,524	138,936	-0,317	-0,292
85,539	800,000	-0,151	-0,358
86,553	-46,569	-0,283	-0,097
87,568	92,682	-0,325	-0,257
88,582	162,711	-0,245	-0,241
89,597	58,932	-0,302	-0,208
90,611	-101,412	-0,296	-0,050
91,626	24,142	-0,183	-0,106
92,641	75,760	-0,199	-0,147
93,655	-35,194	-0,385	-0,146
94,670	42,728	-0,316	-0,201
95,684	77,009	-0,328	-0,244
96,699	49,910	-0,316	-0,208
97,714	-17,147	-0,333	-0,146
98,728	185,850	-0,190	-0,198
99,743	-90,527	-0,271	0,054
100,757	168,204	-0,190	-0,189
101,772	-39,737	-0,256	-0,093
102,787	64,686	-0,369	-0,260
103,801	66,526	-0,333	-0,237
104,816	178,646	-0,247	-0,252
105,830	181,875	-0,376	-0,387
106,845	-200,000	-0,069	-0,230
107,860	15,611	-0,301	-0,165
108,874	44,368	-0,291	-0,186
109,889	-1,427	-0,370	-0,182
110,903	-1,767	-0,296	-0,145
111,918	45,744	-0,306	-0,197
112,933	90,570	-0,183	-0,143
113,947	329,640	-0,240	-0,324
114,962	33,162	-0,275	-0,166
115,976	164,135	-0,217	-0,214
116,991	48,881	-0,431	-0,282
118,006	219,052	-0,235	-0,263
119,020	85,650	-0,227	-0,174
120,035	157,189	-0,171	-0,165
121,049	66,022	-0,249	-0,176
122,064	-98,192	-0,284	-0,051
123,079	13,198	-0,198	-0,107
124,093	25,774	-0,370	-0,215
125,108	-7,347	-0,312	-0,147
126,122	64,456	-0,241	-0,169
127,137	188,112	-0,126	-0,131
128,151	176,125	-0,237	-0,240
129,166	16,479	-0,164	-0,090
130,181	175,310	-0,193	-0,195
131,195	-0,173	-0,256	-0,127
132,210	-121,824	-0,335	-0,038
133,224	-59,249	-0,342	-0,102
134,239	-105,480	-0,266	-0,042
135,254	-45,468	-0,326	-0,112
136,268	-25,361	-0,369	-0,152
137,283	60,605	-0,199	-0,138
138,297	30,599	-0,236	-0,141
139,312	800,000	-0,139	-0,301
140,327	140,105	-0,221	-0,203
141,341	661,366	-0,139	-0,250
142,356	55,713	-0,095	-0,064
143,370	-153,210	-0,317	-0,015
144,385	418,477	-0,172	-0,257
145,400	361,381	-0,247	-0,346
146,414	-65,588	-0,268	-0,074
147,429	800,000	-0,124	-0,278
148,443	130,996	-0,090	-0,080
149,458	219,896	-0,170	-0,189
150,473	205,624	-0,130	-0,141
151,487	-152,485	-0,133	-0,007
152,502	56,932	-0,283	-0,192
153,516	167,564	-0,224	-0,222
154,531	67,896	-0,228	-0,162
155,546	705,228	-0,141	-0,261
156,560	92,502	-0,160	-0,125
157,575	-4,002	-0,221	-0,106
158,589	273,816	-0,147	-0,182
159,604	141,274	-0,184	-0,170
160,619	78,517	-0,219	-0,163
161,633	32,713	-0,310	-0,186
162,648	-200,000	-0,084	-0,263
163,662	44,863	-0,170	-0,108
164,677	158,649	-0,217	-0,209
165,692	-147,138	-0,149	-0,009
166,706	226,129	-0,127	-0,144
167,721	333,623	-0,128	-0,172
168,735	210,093	-0,202	-0,221
169,750	-44,697	-0,192	-0,066
170,764	22,961	-0,181	-0,103
171,779	-4,656	-0,203	-0,097
172,794	-90,270	-0,174	-0,035
173,808	40,170	-0,174	-0,109
174,823	-2,909	-0,194	-0,094
175,837	316,672	-0,136	-0,179
176,852	-54,304	-0,236	-0,074
177,867	-181,504	-0,216	0,003
178,881	432,596	-0,119	-0,180
179,896	-200,000	0,049	-0,221
180,910	-98,333	-0,144	-0,025
181,925	-18,139	-0,239	-0,103
182,940	40,924	-0,202	-0,126
183,954	155,784	-0,253	-0,242
184,969	77,758	-0,142	-0,105
185,983	28,408	-0,123	-0,072
186,998	195,160	-0,132	-0,139
188,013	-87,019	-0,167	-0,035
189,027	120,032	-0,290	-0,250
190,042	243,089	-0,263	-0,307
191,056	80,874	-0,175	-0,131
192,071	65,240	-0,244	-0,171
193,086	-162,909	-0,205	-0,007
194,100	154,888	-0,148	-0,141
195,115	-64,123	-0,243	-0,068
196,129	-50,736	-0,275	-0,089
197,144	-64,839	-0,244	-0,068
198,159	307,474	-0,164	-0,213
199,173	23,068	-0,166	-0,094
200,188	130,671	-0,158	-0,140
201,202	186,715	-0,139	-0,144
202,217	-93,577	-0,229	-0,044
203,232	40,186	-0,241	-0,150
204,246	167,536	-0,231	-0,228
205,261	286,561	-0,190	-0,239
206,275	-54,841	-0,177	0,055
207,290	-164,435	-0,220	0,007
208,304	216,300	-0,166	-0,183
209,319	800,000	-0,130	-0,265
210,334	-40,132	-0,043	-0,016
211,348	424,898	-0,225	-0,337
212,363	-25,346	-0,189	-0,077
213,377	-139,206	-0,254	0,019
214,392	593,170	-0,130	-0,224
215,407	538,362	-0,080	-0,132
216,421	62,757	-0,170	-0,118
217,436	-114,110	-0,230	-0,030
218,450	673,319	-0,121	-0,219
219,465	258,341	-0,201	-0,240
220,480	-84,519	-0,220	-0,048
221,494	800,000	-0,069	-0,193
222,509	-200,000	-0,031	-0,111
223,523	34,267	-0,245	-0,148
224,538	40,990	-0,198	-0,124
225,553	21,184	-0,318	-0,178
226,567	432,373	-0,167	-0,251
227,582	523,087	-0,142	-0,232
228,596	407,213	-0,128	-0,188
229,611	-40,977	0,020	-0,007
230,626	333,066	-0,096	-0,129
231,640	-29,934	-0,265	-0,104
232,655	310,146	-0,091	-0,118
233,669	432,590	-0,162	-0,244
234,684	138,007	-0,207	-0,188
235,699	230,568	-0,090	-0,102
236,713	80,870	-0,116	-0,087
237,728	368,223	-0,164	-0,229
238,742	800,000	-0,072	-0,185
239,757	9,268	-0,234	-0,122
240,772	64,102	-0,220	-0,152
241,786	-103,455	-0,244	-0,039
242,801	4,775	-0,202	-0,102
243,815	66,147	-0,031	0,022
244,830	150,050	-0,112	-0,105
245,844	1,676	-0,203	-0,101
246,859	127,967	-0,221	-0,194
247,874	597,142	-0,132	-0,227
248,888	-200,000	-0,031	-0,217
249,903	64,821	-0,159	-0,110
250,917	-200,000	-0,011	-0,193
251,932	-120,696	-0,127	-0,015
252,947	117,426	-0,152	-0,129
253,961	418,508	-0,096	-0,142
254,976	-200,000	-0,019	-0,107
255,990	-45,604	-0,242	-0,082
257,005	50,008	-0,139	-0,090
258,020	-59,766	-0,166	-0,049
259,034	-37,892	-0,082	-0,030
260,049	800,000	-0,097	-0,237
261,063	129,166	-0,211	-0,186
262,078	-43,510	-0,148	-0,051
263,093	47,084	-0,231	-0,148
264,107	-49,764	-0,264	-0,086
265,122	221,498	-0,194	-0,215
266,136	238,644	-0,208	-0,239
267,151	-1,066	-0,161	0,078
268,166	-87,739	-0,215	-0,044
269,180	124,189	-0,090	-0,078
270,195	103,514	-0,233	-0,188
271,209	-132,023	-0,118	-0,010
272,224	176,748	-0,128	-0,129
273,239	800,000	-0,054	-0,162
274,253	510,216	-0,139	-0,223
275,268	-42,006	-0,201	-0,071
276,282	-34,678	-0,205	-0,077
277,297	-200,000	-0,016	-0,185
278,312	160,973	-0,145	-0,139
279,326	55,763	-0,130	-0,086
280,341	383,310	-0,102	-0,145
281,355	-83,702	-0,121	-0,026
282,370	92,929	-0,194	-0,151
283,384	239,215	-0,168	-0,193
284,399	126,886	-0,181	-0,158
285,414	-85,544	-0,130	0,028
286,428	-200,000	-0,044	-0,203
287,443	178,004	-0,072	-0,073
288,457	34,131	-0,170	0,102
289,472	-41,862	-0,151	-0,053
290,487	800,000	-0,061	-0,176
291,501	800,000	-0,121	-0,241
292,516	108,812	-0,201	-0,165
293,530	-90,745	-0,265	0,052
294,545	-85,455	-0,140	0,030
295,560	44,090	-0,024	-0,015
296,574	203,499	-0,098	-0,104
297,589	-200,000	0,034	-0,109
298,603	-4,563	-0,155	-0,073
299,618	140,419	-0,141	-0,128
300,633	-200,000	-0,021	-0,082
301,647	800,000	-0,109	-0,215
302,662	-200,000	0,014	-0,162
303,676	-200,000	-0,016	-0,171
304,691	-98,742	-0,212	-0,037
305,706	-0,898	-0,090	0,043
306,720	800,000	-0,074	-0,149
307,735	45,101	-0,132	-0,083
308,749	-85,363	-0,117	-0,025
309,764	-66,783	-0,163	-0,044
310,779	622,505	-0,089	-0,154
311,793	16,204	-0,170	-0,092
312,808	75,615	-0,156	-0,113
313,822	-29,443	-0,164	-0,064
314,837	40,502	-0,041	-0,025
315,852	532,766	-0,068	-0,112
316,866	-9,388	-0,064	-0,029
317,881	-200,000	-0,027	-0,197
318,895	-200,000	-0,061	-0,197
319,910	-72,773	-0,147	-0,037
320,925	-62,455	-0,162	-0,046
321,939	100,002	-0,127	-0,101
322,954	52,164	-0,174	-0,113
323,968	96,282	-0,132	0,103
324,983	0,303	-0,112	0,055
325,997	219,745	-0,207	-0,228
327,012	181,695	-0,115	-0,116
328,027	-120,646	-0,154	-0,018
329,041	149,295	-0,169	-0,157
330,056	27,708	-0,102	-0,059
331,070	800,000	0,041	-0,109
332,085	-108,289	-0,207	0,030
333,100	-165,446	-0,271	-0,008
334,114	89,377	-0,142	-0,109
335,129	800,000	-0,048	-0,126
336,143	128,099	-0,076	-0,066
337,158	24,097	-0,121	-0,068
338,173	800,000	-0,063	-0,129
339,187	11,053	-0,120	-0,063
340,202	-31,851	0,014	0,005
341,216	-200,000	-0,024	-0,076
342,231	-200,000	-0,011	-0,091
343,246	800,000	-0,023	-0,062
344,260	-200,000	0,005	-0,113
345,275	-200,000	0,011	-0,122
346,289	68,096	-0,137	-0,096
347,304	-200,000	0,028	-0,126
348,319	-200,000	-0,003	-0,094
349,333	-63,233	-0,060	-0,017
350,348	439,823	-0,059	-0,088
351,362	245,522	-0,079	-0,091
352,377	800,000	-0,059	-0,113
353,392	140,265	-0,219	-0,198
354,406	51,361	-0,142	-0,092
355,421	209,125	1312,660	1408,319
356,435	160,943	1473,124	1408,815
