DTS Sentinel unit serial number:	SN410029Multiplexer serial number:	ORYXHardware model number:	OX2-SRSoftware version number:	ORYX F/W v4,00 Oryx Data Collector v3.7.2.0data status	okinstallation	B3 Nyhavnadifferential loss correction	single-endedforward channel	channel 1reverse channel	N/Adate	2023/11/29time	09:12:30forward acquisition time	300,00reverse acquisition time	0,00gamma	499,1914k internal	0,3212k external	0,3212temperature offset calibration	1,0000default loss term (dB/km)	0,3820temperature slope calibration	1,0000multiplexer offset coefficient	1,0000multiplexer slope coefficient	1,0000fibre end	0,00T internal ref (°C)	9,05T ext. ref 1 (°C)	-5,57T ext. ref 2 (°C)	-5,71length (m)	temperature (°C)	Stokes	anti-Stokes-744,400	-200,000	0,001	-0,175
-743,385	395,539	0,126	0,191
-742,371	169,266	-0,214	-0,222
-741,356	-200,000	0,065	0,259
-740,342	800,000	-0,094	-0,202
-739,327	-200,000	-0,036	0,181
-738,312	163,046	-0,261	-0,266
-737,298	-200,000	-0,039	0,250
-736,283	800,000	-0,113	-0,346
-735,269	-200,000	-0,049	0,346
-734,254	-200,000	-0,103	-0,387
-733,239	800,000	-0,082	0,209
-732,225	235,461	-0,149	-0,179
-731,210	142,750	0,130	0,125
-730,196	-4,690	-0,027	0,013
-729,181	384,948	0,037	-0,055
-728,167	199,370	0,053	-0,059
-727,152	352,804	-0,055	-0,080
-726,137	29,937	-0,129	-0,079
-725,123	-120,705	-0,104	-0,013
-724,108	203,231	-0,135	-0,151
-723,094	800,000	0,042	-0,086
-722,079	68,897	-0,094	-0,070
-721,064	-59,477	0,055	-0,017
-720,050	-200,000	-0,011	-0,077
-719,035	-98,442	-0,028	0,005
-718,021	630,169	-0,055	-0,101
-717,006	-73,332	-0,137	-0,036
-715,991	52,808	-0,149	-0,103
-714,977	-74,042	-0,148	0,038
-713,962	169,030	-0,068	-0,070
-712,948	361,489	0,016	0,023
-711,933	-200,000	0,014	-0,099
-710,918	508,799	0,029	-0,050
-709,904	-200,000	-0,001	-0,136
-708,889	685,941	-0,096	-0,182
-707,875	800,000	0,043	-0,089
-706,860	318,893	-0,041	-0,056
-705,845	-49,635	0,047	-0,016
-704,831	800,000	0,037	0,090
-703,816	235,112	0,021	-0,025
-702,802	800,000	-0,018	-0,051
-701,787	-86,806	-0,126	0,028
-700,772	-200,000	0,020	0,099
-699,758	800,000	-0,032	-0,076
-698,743	-101,133	-0,069	-0,012
-697,729	81,372	-0,097	0,076
-696,714	800,000	0,011	-0,027
-695,699	800,000	-0,031	0,071
-694,685	694,046	-0,057	0,109
-693,670	596,053	-0,055	0,098
-692,656	454,424	-0,031	-0,050
-691,641	800,000	-0,037	-0,087
-690,627	-40,133	-0,097	0,036
-689,612	661,601	-0,039	0,072
-688,597	-111,482	-0,097	-0,014
-687,583	800,000	0,019	-0,056
-686,568	493,822	-0,033	0,055
-685,554	-200,000	0,033	-0,128
-684,539	101,035	-0,043	0,036
-683,524	-76,234	0,116	0,029
-682,510	-200,000	0,010	0,069
-681,495	407,396	-0,068	0,104
-680,481	-200,000	-0,001	0,013
-679,466	-200,000	-0,017	-0,182
-678,451	232,540	0,054	0,064
-677,437	-200,000	-0,004	-0,093
-676,422	642,425	0,033	0,062
-675,408	107,080	-0,079	0,068
-674,393	-55,254	0,055	-0,018
-673,378	265,560	-0,086	-0,109
-672,364	-200,000	-0,013	0,054
-671,349	-131,589	-0,140	-0,013
-670,335	800,000	0,007	0,017
-669,320	-75,075	0,040	0,010
-668,305	229,131	-0,043	0,050
-667,291	84,407	0,117	-0,092
-666,276	-143,260	-0,092	0,006
-665,262	10,591	-0,130	-0,071
-664,247	49,988	0,055	-0,037
-663,232	-200,000	-0,012	-0,163
-662,218	-75,577	-0,057	0,015
-661,203	43,657	0,084	-0,056
-660,189	-30,786	0,099	-0,040
-659,174	-44,492	-0,166	-0,060
-658,159	125,881	-0,195	-0,178
-657,145	-101,685	-0,087	-0,015
-656,130	46,308	0,071	0,047
-655,116	-29,979	0,051	0,021
-654,101	-200,000	-0,003	-0,011
-653,086	800,000	-0,010	0,029
-652,072	-200,000	0,009	-0,058
-651,057	800,000	-0,039	0,117
-650,043	444,731	0,035	0,056
-649,028	800,000	0,048	0,128
-648,014	800,000	-0,060	0,170
-646,999	104,203	0,097	0,082
-645,984	25,495	-0,110	0,066
-644,970	188,171	-0,020	0,022
-643,955	800,000	-0,047	-0,118
-642,941	430,963	-0,034	0,053
-641,926	23,029	-0,097	0,057
-640,911	-99,346	-0,052	-0,009
-639,897	168,575	-0,056	0,058
-638,882	-200,000	-0,005	0,028
-637,868	62,100	0,077	0,056
-636,853	212,523	-0,113	-0,128
-635,838	-68,294	-0,078	-0,022
-634,824	-200,000	0,030	-0,152
-633,809	216,675	0,029	0,034
-632,795	-139,188	0,082	0,006
-631,780	241,358	0,042	0,051
-630,765	-200,000	0,038	0,212
-629,751	-49,972	-0,108	-0,037
-628,736	-200,000	0,054	-0,240
-627,722	800,000	-0,072	-0,174
-626,707	800,000	0,056	0,125
-625,692	203,032	-0,096	0,107
-624,678	-200,000	0,009	0,069
-623,663	168,816	-0,082	0,084
-622,649	-88,394	0,036	0,008
-621,634	-76,710	-0,140	-0,035
-620,619	800,000	0,024	-0,051
-619,605	-135,957	-0,105	0,009
-618,590	-117,178	0,100	0,013
-617,576	120,971	0,051	-0,046
-616,561	123,957	-0,093	0,084
-615,546	374,989	0,073	-0,108
-614,532	137,085	-0,115	-0,109
-613,517	-137,354	0,054	-0,004
-612,503	3,097	0,043	-0,022
-611,488	-44,004	0,035	0,013
-610,474	-200,000	0,029	0,189
-609,459	-53,147	0,061	-0,020
-608,444	-200,000	-0,024	-0,102
-607,430	-111,189	0,027	-0,004
-606,415	203,626	-0,106	-0,119
-605,401	179,971	0,021	0,023
-604,386	-53,685	0,042	0,014
-603,371	-77,958	0,148	0,036
-602,357	37,617	0,055	-0,035
-601,342	800,000	-0,070	-0,165
-600,328	-49,776	-0,086	0,029
-599,313	714,457	-0,043	0,082
-598,298	800,000	-0,043	-0,109
-597,284	-142,972	0,047	-0,003
-596,269	265,861	0,152	0,191
-595,255	-55,666	0,165	-0,053
-594,240	-23,742	-0,169	0,072
-593,225	-79,762	-0,048	-0,012
-592,211	10,030	-0,086	-0,047
-591,196	137,030	0,045	-0,043
-590,182	-137,402	0,118	0,010
-589,167	222,590	0,029	-0,034
-588,152	-94,533	-0,042	0,008
-587,138	11,544	0,067	-0,037
-586,123	-200,000	-0,036	-0,116
-585,109	309,168	0,036	-0,049
-584,094	139,072	-0,063	0,060
-583,079	-78,541	-0,067	-0,016
-582,065	-39,121	-0,009	-0,003
-581,050	38,867	-0,072	-0,046
-580,036	-200,000	-0,022	-0,098
-579,021	379,215	-0,031	-0,046
-578,006	76,363	0,044	-0,034
-576,992	8,908	-0,113	-0,061
-575,977	196,501	-0,048	-0,053
-574,963	175,076	0,007	-0,007
-573,948	132,903	-0,169	0,157
-572,934	-200,000	-0,038	0,140
-571,919	-200,000	-0,014	-0,077
-570,904	-200,000	-0,001	-0,155
-569,890	499,308	-0,019	-0,032
-568,875	478,943	-0,077	-0,126
-567,861	80,649	0,065	-0,051
-566,846	273,688	-0,017	-0,022
-565,831	744,537	-0,016	-0,030
-564,817	125,111	0,028	-0,026
-563,802	-179,270	-0,208	0,003
-562,788	-7,234	0,083	0,040
-561,773	800,000	0,008	0,020
-560,758	-105,896	-0,056	0,009
-559,744	44,634	-0,068	0,045
-558,729	-200,000	0,008	0,056
-557,715	-7,408	-0,126	0,061
-556,700	29,393	-0,057	0,035
-555,685	-20,693	0,041	0,018
-554,671	800,000	0,067	-0,161
-553,656	-200,000	-0,015	-0,170
-552,642	-200,000	0,007	0,083
-551,627	-60,768	0,054	-0,016
-550,612	254,324	0,042	-0,052
-549,598	536,680	0,028	0,049
-548,583	15,149	-0,099	-0,056
-547,569	38,407	0,097	0,062
-546,554	72,481	0,066	0,049
-545,539	800,000	0,039	0,118
-544,525	-200,000	0,005	0,027
-543,510	-200,000	-0,000	-0,074
-542,496	88,868	-0,107	-0,085
-541,481	388,032	-0,074	-0,110
-540,466	-73,647	0,077	-0,020
-539,452	452,435	-0,067	0,108
-538,437	-157,697	0,047	0,002
-537,423	365,455	-0,152	0,221
-536,408	-109,845	0,140	-0,021
-535,393	248,192	-0,016	0,019
-534,379	-18,135	-0,095	-0,042
-533,364	-72,077	0,055	-0,015
-532,350	-200,000	0,112	0,000
-531,335	171,357	0,033	0,034
-530,321	-200,000	0,031	0,141
-529,306	-177,264	-0,087	0,002
-528,291	-200,000	-0,007	-0,046
-527,277	-140,789	-0,211	-0,015
-526,262	-200,000	0,010	-0,068
-525,248	-200,000	0,014	0,074
-524,233	-79,092	0,081	0,020
-523,218	-200,000	-0,018	0,134
-522,204	251,196	-0,044	-0,054
-521,189	260,839	-0,064	-0,080
-520,175	0,174	0,045	0,023
-519,160	262,454	0,109	-0,136
-518,145	-200,000	0,054	0,214
-517,131	-43,206	0,134	-0,048
-516,116	315,201	0,081	0,110
-515,102	-97,663	-0,068	-0,013
-514,087	369,650	-0,031	0,045
-513,072	-200,000	0,003	-0,087
-512,058	90,369	-0,074	-0,059
-511,043	322,032	0,061	0,083
-510,029	-200,000	0,042	0,148
-509,014	-17,508	-0,226	-0,102
-507,999	-200,000	-0,033	-0,128
-506,985	-200,000	0,016	-0,074
-505,970	124,948	-0,109	-0,099
-504,956	31,142	0,103	-0,063
-503,941	14,639	-0,085	-0,047
-502,926	35,189	0,076	-0,048
-501,912	166,355	0,027	0,027
-500,897	53,909	0,016	-0,011
-499,883	342,853	-0,088	0,124
-498,868	156,554	-0,092	0,091
-497,853	-200,000	-0,007	0,089
-496,839	24,606	0,216	0,128
-495,824	194,984	0,034	0,037
-494,810	-0,220	0,098	0,050
-493,795	88,714	0,069	0,055
-492,781	559,082	0,014	-0,024
-491,766	-200,000	0,012	-0,040
-490,751	-200,000	0,026	0,131
-489,737	326,178	-0,078	-0,107
-488,722	488,377	0,079	0,131
-487,708	-168,214	0,172	0,005
-486,693	-120,085	0,092	-0,011
-485,678	-76,597	0,101	-0,025
-484,664	-125,213	0,064	-0,007
-483,649	-200,000	-0,025	-0,099
-482,635	88,775	0,069	-0,055
-481,620	-62,838	0,113	0,033
-480,605	-66,978	0,098	0,027
-479,591	-57,326	0,062	-0,019
-478,576	110,349	0,030	-0,026
-477,562	-200,000	-0,009	-0,052
-476,547	108,032	-0,139	-0,119
-475,532	114,304	-0,160	0,140
-474,518	68,398	0,096	-0,070
-473,503	-200,000	-0,004	0,092
-472,489	800,000	0,047	-0,096
-471,474	84,114	0,064	0,050
-470,459	-146,859	-0,036	-0,002
-469,445	281,106	0,042	0,055
-468,430	-57,093	-0,048	-0,015
-467,416	800,000	0,082	-0,189
-466,401	54,322	-0,015	0,010
-465,386	-99,021	-0,029	-0,005
-464,372	-47,416	-0,094	0,033
-463,357	-91,160	0,105	-0,021
-462,343	96,424	-0,128	-0,105
-461,328	69,237	-0,069	0,051
-460,313	-200,000	-0,004	-0,042
-459,299	184,544	-0,121	-0,128
-458,284	-200,000	0,017	0,122
-457,270	-200,000	-0,009	0,137
-456,255	165,715	-0,090	-0,091
-455,241	-200,000	0,027	-0,114
-454,226	271,424	-0,029	0,037
-453,211	171,196	0,028	0,029
-452,197	208,130	-0,092	0,103
-451,182	800,000	0,019	0,041
-450,168	72,966	0,002	0,002
-449,153	-19,757	-0,064	0,028
-448,138	-102,754	0,093	-0,016
-447,124	-200,000	-0,016	0,082
-446,109	454,551	-0,019	-0,031
-445,095	-88,259	0,119	0,025
-444,080	-200,000	-0,007	0,094
-443,065	376,649	-0,040	0,058
-442,051	229,716	-0,113	-0,132
-441,036	729,126	-0,059	0,113
-440,022	800,000	-0,021	0,049
-439,007	-200,000	0,014	-0,063
-437,992	-200,000	0,001	0,058
-436,978	703,378	0,089	0,169
-435,963	37,425	-0,110	0,070
-434,949	221,478	0,108	0,125
-433,934	-79,063	-0,060	-0,014
-432,919	436,994	-0,102	-0,160
-431,905	66,552	-0,036	0,026
-430,890	318,744	0,125	0,170
-429,876	62,622	0,139	0,099
-428,861	-131,929	0,124	-0,011
-427,846	64,900	0,059	0,042
-426,832	97,907	-0,060	0,050
-425,817	-200,000	0,014	-0,105
-424,803	-200,000	-0,021	-0,169
-423,788	2,591	-0,089	0,046
-422,773	-200,000	-0,009	0,055
-421,759	-200,000	0,013	0,059
-420,744	-200,000	0,027	0,146
-419,730	-200,000	0,011	0,053
-418,715	70,559	-0,096	0,071
-417,701	477,521	-0,104	-0,168
-416,686	-200,000	-0,008	0,049
-415,671	-200,000	0,020	0,151
-414,657	-200,000	-0,020	0,071
-413,642	-38,836	0,114	-0,043
-412,628	86,092	0,046	0,037
-411,613	800,000	0,003	-0,010
-410,598	-58,879	0,068	-0,021
-409,584	-14,345	-0,072	0,033
-408,569	-200,000	-0,008	0,068
-407,555	24,730	0,082	-0,049
-406,540	94,525	-0,052	0,042
-405,525	16,614	-0,202	-0,114
-404,511	800,000	-0,059	-0,156
-403,496	-200,000	-0,005	-0,133
-402,482	-25,029	0,117	0,050
-401,467	-21,937	0,119	-0,052
-400,452	34,618	-0,032	0,020
-399,438	-200,000	-0,010	0,068
-398,423	800,000	0,020	0,040
-397,409	-88,529	-0,094	-0,020
-396,394	282,339	-0,079	0,101
-395,379	-115,587	0,141	0,019
-394,365	279,130	0,041	0,052
-393,350	-200,000	-0,005	0,022
-392,336	116,190	0,077	0,067
-391,321	301,351	-0,084	-0,112
-390,306	800,000	0,024	0,077
-389,292	315,717	0,064	-0,086
-388,277	188,496	-0,047	-0,050
-387,263	800,000	0,022	0,058
-386,248	77,472	0,082	-0,062
-385,233	53,575	0,052	0,035
-384,219	125,485	-0,087	-0,079
-383,204	-200,000	0,010	-0,097
-382,190	-61,856	-0,084	0,025
-381,175	-89,938	-0,133	-0,027
-380,160	-31,032	0,112	0,045
-379,146	-105,198	-0,080	-0,013
-378,131	-200,000	0,017	0,075
-377,117	-200,000	-0,039	0,163
-376,102	-39,450	0,082	0,030
-375,088	-200,000	0,024	-0,117
-374,073	51,566	-0,172	-0,116
-373,058	-200,000	0,019	0,066
-372,044	-139,141	-0,122	-0,009
-371,029	800,000	0,016	-0,037
-370,015	-200,000	-0,002	-0,050
-369,000	-103,912	-0,126	-0,021
-367,985	-76,980	-0,147	-0,036
-366,971	187,573	0,042	-0,045
-365,956	96,758	-0,059	0,048
-364,942	-3,398	-0,058	0,029
-363,927	800,000	-0,029	0,062
-362,912	-72,126	0,094	0,025
-361,898	800,000	0,047	0,118
-360,883	800,000	0,051	0,104
-359,869	450,161	-0,064	-0,100
-358,854	241,914	0,074	0,089
-357,839	-103,031	-0,023	0,004
-356,825	-156,064	0,197	-0,009
-355,810	800,000	-0,028	0,073
-354,796	272,598	-0,176	0,223
-353,781	17,678	-0,066	-0,037
-352,766	261,394	0,038	-0,048
-351,752	-200,000	-0,000	0,035
-350,737	800,000	0,027	0,054
-349,723	193,916	-0,011	-0,012
-348,708	-75,953	-0,047	0,012
-347,693	207,297	0,085	-0,095
-346,679	-144,455	0,038	-0,002
-345,664	-200,000	-0,097	-0,000
-344,650	-200,000	0,002	-0,025
-343,635	-134,044	0,112	-0,010
-342,620	114,276	0,067	-0,058
-341,606	800,000	0,036	0,089
-340,591	-103,437	-0,092	-0,015
-339,577	-200,000	0,026	-0,156
-338,562	694,900	-0,063	-0,119
-337,548	318,225	0,039	-0,052
-336,533	1,686	-0,058	0,030
-335,518	324,823	0,051	0,070
-334,504	78,261	-0,106	-0,081
-333,489	800,000	0,015	-0,035
-332,475	92,055	-0,019	-0,015
-331,460	800,000	-0,061	-0,134
-330,445	-109,920	0,037	-0,005
-329,431	-124,808	-0,122	-0,013
-328,416	44,868	0,101	0,066
-327,402	-118,876	-0,047	0,006
-326,387	-88,940	0,018	-0,004
-325,372	-95,171	0,034	0,007
-324,358	143,476	-0,157	-0,149
-323,343	494,547	-0,059	0,097
-322,329	800,000	-0,038	-0,082
-321,314	-27,710	0,182	0,075
-320,299	102,349	-0,025	0,020
-319,285	-126,731	0,050	0,005
-318,270	230,953	-0,087	-0,102
-317,256	800,000	0,043	-0,117
-316,241	2,978	-0,101	-0,052
-315,226	-200,000	0,004	-0,123
-314,212	-60,754	0,158	0,047
-313,197	39,041	-0,074	-0,047
-312,183	800,000	0,045	-0,111
-311,168	-151,039	-0,075	-0,004
-310,153	100,399	0,067	-0,055
-309,139	114,296	-0,101	-0,088
-308,124	-200,000	-0,009	-0,066
-307,110	212,836	0,031	-0,035
-306,095	565,762	-0,028	0,048
-305,080	-200,000	0,033	0,116
-304,066	-200,000	0,011	-0,042
-303,051	-147,846	-0,169	-0,010
-302,037	-132,933	0,060	-0,005
-301,022	-117,445	-0,050	-0,006
-300,008	800,000	0,033	0,068
-298,993	104,284	-0,067	0,056
-297,978	-32,006	0,107	-0,043
-296,964	-33,828	0,016	0,006
-295,949	20,605	-0,020	-0,011
-294,935	-200,000	0,022	-0,111
-293,920	800,000	0,007	-0,015
-292,905	136,460	0,037	-0,035
-291,891	92,954	-0,018	0,014
-290,876	101,485	0,044	-0,037
-289,862	800,000	0,027	-0,072
-288,847	-116,453	-0,141	-0,018
-287,832	-95,873	-0,098	-0,018
-286,818	-8,374	0,064	0,030
-285,803	-131,482	-0,044	-0,004
-284,789	-17,461	0,157	0,070
-283,774	-85,704	0,032	0,007
-282,759	50,182	0,106	-0,071
-281,745	48,237	-0,076	-0,050
-280,730	800,000	0,015	-0,039
-279,716	157,507	0,100	-0,099
-278,701	-1,028	-0,125	-0,063
-277,686	-200,000	-0,007	-0,124
-276,672	222,089	0,041	-0,047
-275,657	-27,007	0,037	0,015
-274,643	-200,000	-0,010	-0,182
-273,628	-200,000	-0,007	-0,161
-272,613	-200,000	-0,027	-0,141
-271,599	-9,439	0,103	-0,049
-270,584	-200,000	-0,016	0,077
-269,570	-61,597	0,091	0,027
-268,555	-200,000	0,003	0,090
-267,540	-200,000	-0,017	-0,083
-266,526	396,482	-0,077	-0,115
-265,511	10,058	-0,028	-0,015
-264,497	800,000	0,095	0,202
-263,482	152,726	0,079	0,077
-262,467	-125,404	-0,114	-0,012
-261,453	-81,666	0,059	0,014
-260,438	-161,136	-0,094	-0,003
-259,424	-42,136	0,054	-0,020
-258,409	-134,890	0,056	-0,005
-257,395	800,000	0,075	-0,184
-256,380	-98,205	-0,050	-0,009
-255,365	-115,971	0,058	0,008
-254,351	-200,000	0,016	-0,073
-253,336	179,321	-0,057	-0,060
-252,322	800,000	0,011	0,033
-251,307	284,887	-0,073	-0,094
-250,292	137,401	0,016	-0,015
-249,278	-200,000	0,008	0,055
-248,263	465,730	0,114	-0,183
-247,249	214,619	0,061	0,069
-246,234	-200,000	0,045	-0,141
-245,219	330,648	-0,044	-0,060
-244,205	-156,497	-0,177	0,008
-243,190	-200,000	0,014	0,083
-242,176	235,599	-0,078	-0,092
-241,161	-19,236	-0,032	0,014
-240,146	-40,136	0,058	-0,021
-239,132	-200,000	-0,027	0,110
-238,117	481,820	0,100	-0,161
-237,103	256,839	-0,038	-0,046
-236,088	-90,548	0,120	-0,024
-235,073	244,916	0,029	0,035
-234,059	800,000	0,033	0,079
-233,044	579,414	0,034	0,059
-232,030	-24,643	0,105	-0,044
-231,015	-200,000	-0,004	-0,088
-230,000	434,693	-0,090	-0,139
-228,986	-200,000	0,003	-0,017
-227,971	800,000	0,048	0,100
-226,957	87,345	-0,126	0,099
-225,942	228,533	0,107	0,125
-224,927	319,564	0,029	0,039
-223,913	-200,000	0,001	-0,061
-222,898	207,312	0,057	-0,064
-221,884	475,181	0,047	0,076
-220,869	303,946	0,011	0,015
-219,855	-200,000	0,032	0,125
-218,840	115,665	-0,051	-0,044
-217,825	-200,000	0,000	0,100
-216,811	423,425	-0,074	0,113
-215,796	-56,485	-0,170	0,053
-214,782	-200,000	-0,015	0,065
-213,767	12,559	0,164	0,089
-212,752	137,701	-0,077	0,071
-211,738	-200,000	0,008	0,024
-210,723	-37,224	-0,051	0,019
-209,709	1,664	-0,112	0,057
-208,694	159,269	-0,044	-0,043
-207,679	318,997	0,064	-0,086
-206,665	53,819	0,095	0,064
-205,650	107,921	-0,077	0,065
-204,636	57,349	0,179	0,124
-203,621	-133,717	0,166	0,015
-202,606	-198,236	0,054	-0,000
-201,592	-151,135	0,017	0,001
-200,577	800,000	-0,024	-0,064
-199,563	-12,305	-0,155	-0,072
-198,548	800,000	-0,014	-0,029
-197,533	-200,000	-0,004	0,065
-196,519	-200,000	-0,033	0,136
-195,504	45,754	0,036	-0,023
-194,490	-200,000	0,032	-0,127
-193,475	800,000	-0,048	-0,106
-192,460	-22,634	0,067	0,029
-191,446	90,347	-0,110	-0,087
-190,431	18,613	0,083	0,047
-189,417	-113,242	-0,107	0,015
-188,402	297,900	-0,046	0,060
-187,387	258,314	-0,068	0,083
-186,373	-103,730	0,065	0,011
-185,358	-200,000	0,012	0,075
-184,344	-11,813	0,092	0,043
-183,329	-118,914	0,122	0,015
-182,315	188,060	0,045	0,047
-181,300	-80,533	0,082	-0,019
-180,285	800,000	-0,012	-0,035
-179,271	-200,000	0,002	0,044
-178,256	647,201	0,020	0,037
-177,242	239,300	0,033	-0,039
-176,227	-200,000	-0,005	0,117
-175,212	-109,435	0,091	-0,014
-174,198	80,921	0,030	-0,023
-173,183	-27,683	0,019	-0,008
-172,169	800,000	-0,024	0,070
-171,154	-148,015	-0,090	0,005
-170,139	-89,975	-0,077	-0,016
-169,125	-80,457	0,125	0,029
-168,110	47,264	0,101	0,066
-167,096	800,000	0,049	-0,104
-166,081	-60,216	-0,083	0,025
-165,066	148,036	0,013	-0,012
-164,052	69,745	-0,060	0,044
-163,037	293,251	0,050	0,065
-162,023	-15,776	0,156	0,070
-161,008	-200,000	0,011	0,049
-159,993	800,000	0,032	0,070
-158,979	-30,071	-0,112	-0,045
-157,964	354,180	0,007	-0,010
-156,950	58,341	-0,052	-0,036
-155,935	-88,736	0,069	0,014
-154,920	800,000	0,045	0,117
-153,906	-122,308	0,095	0,011
-152,891	250,561	0,018	0,021
-151,877	77,289	-0,014	0,010
-150,862	-119,972	0,047	0,006
-149,847	-42,273	-0,101	-0,036
-148,833	167,867	-0,048	-0,049
-147,818	-200,000	-0,035	0,176
-146,804	-200,000	0,054	0,190
-145,789	788,220	0,028	-0,054
-144,775	158,775	0,024	0,024
-143,760	-200,000	0,013	0,121
-142,745	-123,048	-0,044	-0,005
-141,731	-39,908	-0,040	-0,015
-140,716	173,174	-0,032	0,033
-139,702	277,078	0,066	-0,083
-138,687	-141,812	0,135	0,009
-137,672	800,000	-0,035	0,079
-136,658	-96,935	-0,099	-0,018
-135,643	-200,000	-0,016	-0,118
-134,629	-151,492	0,116	0,006
-133,614	800,000	0,060	0,157
-132,599	-168,854	-0,106	-0,003
-131,585	-176,202	-0,131	-0,002
-130,570	145,653	0,018	0,017
-129,556	509,609	0,035	-0,058
-128,541	148,262	0,061	-0,059
-127,526	-200,000	-0,029	0,165
-126,512	-56,900	0,112	0,035
-125,497	346,642	-0,034	0,047
-124,483	40,147	0,143	0,091
-123,468	800,000	0,037	0,080
-122,453	7,442	-0,196	0,104
-121,439	-200,000	-0,022	0,070
-120,424	-72,025	0,090	0,023
-119,410	303,900	0,018	0,023
-118,395	40,100	-0,111	0,070
-117,380	89,313	0,032	-0,025
-116,366	164,365	0,024	0,024
-115,351	187,942	-0,092	-0,098
-114,337	783,596	-0,029	-0,057
-113,322	45,809	-0,046	0,030
-112,307	167,124	0,040	-0,041
-111,293	-120,704	0,041	0,005
-110,278	800,000	-0,041	0,107
-109,264	-200,000	-0,017	0,231
-108,249	-158,080	-0,075	0,003
-107,234	48,552	-0,080	-0,053
-106,220	118,334	0,078	-0,068
-105,205	-200,000	0,002	0,050
-104,191	800,000	0,067	0,148
-103,176	-62,064	0,037	0,011
-102,162	9,889	-0,027	-0,014
-101,147	-142,076	-0,048	0,003
-100,132	221,154	-0,165	-0,187
-99,118	-200,000	0,025	0,081
-98,103	391,795	-0,065	-0,096
-97,089	-139,521	0,087	-0,006
-96,074	-99,946	0,160	-0,028
-95,059	-4,488	-0,112	0,055
-94,045	-50,880	0,054	0,018
-93,030	-200,000	-0,015	-0,093
-92,016	-200,000	0,014	0,092
-91,001	116,978	0,078	-0,067
-89,986	74,953	0,087	-0,065
-88,972	-180,113	0,200	0,003
-87,957	-155,341	-0,121	0,005
-86,943	2,594	-0,122	-0,062
-85,928	-58,058	0,094	0,029
-84,913	235,662	-0,086	-0,100
-83,899	-200,000	-0,022	-0,076
-82,884	-7,778	0,087	-0,042
-81,870	-200,000	-0,010	0,077
-80,855	58,811	0,026	-0,018
-79,840	800,000	0,061	0,131
-78,826	400,693	-0,050	0,075
-77,811	195,265	0,074	-0,080
-76,797	295,841	-0,047	-0,060
-75,782	406,961	0,086	0,129
-74,767	93,612	0,085	0,068
-73,753	185,417	-0,062	0,065
-72,738	12,565	0,096	-0,052
-71,724	800,000	-0,054	-0,136
-70,709	-6,518	-0,182	-0,087
-69,694	800,000	0,043	-0,087
-68,680	-80,648	0,083	-0,019
-67,665	313,411	0,023	-0,031
-66,651	-200,000	-0,019	0,082
-65,636	26,355	-0,019	-0,011
-64,622	-158,530	-0,086	0,003
-63,607	800,000	-0,047	-0,129
-62,592	222,724	0,073	-0,083
-61,578	512,580	0,059	0,097
-60,563	-9,021	0,125	0,059
-59,549	-200,000	-0,010	0,137
-58,534	48,296	-2,080	-1,371
-57,519	661,079	-1,090	-1,990
-56,505	-200,000	-0,284	-4,428
-55,490	594,884	0,926	1,623
-54,476	800,000	5,156	11,397
-53,461	-200,000	21,850	338,417
-52,446	800,000	760,239	2304,266
-51,432	535,771	1654,984	2780,619
-50,417	69,654	1652,194	1199,437
-49,403	16,716	1526,670	849,466
-48,388	10,890	1450,979	779,301
-47,373	19,071	1442,695	813,896
-46,359	14,250	1431,764	784,878
-45,344	9,184	1427,538	758,521
-44,330	9,103	1425,968	757,272
-43,315	9,103	1423,963	756,176
-42,300	9,099	1422,275	755,233
-41,286	9,200	1421,014	755,010
-40,271	9,158	1419,668	754,064
-39,257	9,098	1418,615	753,193
-38,242	9,139	1417,597	752,814
-37,227	9,126	1416,502	752,143
-36,213	9,174	1414,882	751,478
-35,198	9,162	1413,851	750,847
-34,184	9,174	1412,799	750,316
-33,169	9,091	1411,573	749,245
-32,154	9,109	1410,673	748,818
-31,140	9,157	1409,282	748,275
-30,125	9,207	1408,008	747,806
-29,111	9,134	1407,129	746,966
-28,096	9,101	1405,695	746,021
-27,082	9,015	1404,878	745,159
-26,067	9,077	1403,634	744,758
-25,052	9,095	1402,553	744,238
-24,038	9,151	1401,460	743,891
-23,023	9,049	1400,842	743,056
-22,009	9,080	1399,534	742,476
-20,994	9,065	1398,569	741,865
-19,979	9,065	1397,654	741,353
-18,965	9,052	1396,695	740,754
-17,950	8,975	1395,895	739,941
-16,936	8,973	1395,062	739,459
-15,921	8,954	1393,937	738,749
-14,906	8,983	1393,104	738,413
-13,892	9,031	1392,054	738,047
-12,877	9,023	1391,173	737,516
-11,863	9,019	1390,461	737,088
-10,848	8,965	1389,590	736,348
-9,833	8,927	1388,605	735,625
-8,819	8,916	1387,749	735,090
-7,804	8,882	1386,956	734,484
-6,790	8,944	1385,656	734,051
-5,775	8,920	1384,557	733,327
-4,760	8,883	1383,926	732,795
-3,746	8,889	1382,878	732,241
-2,731	8,930	1382,046	731,959
-1,717	8,895	1381,115	731,275
-0,702	8,927	1379,389	730,477
0,313	12,855	1291,251	701,688
1,327	28,739	683,453	407,086
2,342	44,632	117,851	76,241
3,356	0,105	16,468	8,247
4,371	5,282	3,741	1,938
5,386	-1,398	1,205	0,597
6,400	800,000	0,300	0,598
7,415	-76,362	-0,227	-0,056
8,429	42,326	-0,304	-0,194
9,444	36,472	-0,282	-0,175
10,459	-65,535	-0,315	-0,088
11,473	25,036	-0,198	-0,115
12,488	-2,819	-0,349	-0,171
13,502	9,955	-0,229	-0,122
14,517	-33,219	-0,343	-0,133
15,531	-47,528	-0,363	-0,123
16,546	158,549	-0,254	-0,249
17,561	200,685	-0,240	-0,260
18,575	-137,294	-0,084	0,007
19,590	-33,586	-0,382	-0,148
20,604	-23,773	-0,182	-0,076
21,619	129,021	-0,420	-0,378
22,634	30,009	-0,581	-0,348
23,648	107,351	-0,432	-0,361
24,663	90,475	-0,390	-0,307
25,677	-16,376	-0,365	-0,162
26,692	-35,581	-0,376	-0,143
27,707	51,786	-0,449	-0,300
28,721	48,948	-0,365	-0,240
29,736	107,666	-0,336	-0,281
30,750	91,584	-0,469	-0,370
31,765	194,528	-0,344	-0,368
32,780	25,251	-0,359	-0,209
33,794	159,372	-0,278	-0,273
34,809	-30,244	-0,249	-0,099
35,823	49,456	-0,238	-0,157
36,838	56,489	-0,339	-0,231
37,853	57,366	-0,372	-0,255
38,867	-2,050	-0,433	-0,213
39,882	43,130	-0,370	-0,237
40,896	245,204	-0,153	-0,181
41,911	-38,493	-0,358	-0,132
42,926	240,254	-0,258	-0,303
43,940	104,773	-0,292	-0,241
44,955	184,522	-0,300	-0,312
45,969	-4,914	-0,305	-0,147
46,984	70,894	-0,299	-0,218
47,999	-49,524	-0,295	-0,098
49,013	96,705	-0,269	-0,216
50,028	-32,771	-0,385	-0,149
51,042	-11,785	-0,273	-0,125
52,057	235,939	-0,199	-0,232
53,071	67,271	-0,271	-0,194
54,086	24,597	-0,224	-0,130
55,101	10,967	-0,263	-0,140
56,115	36,016	-0,293	-0,180
57,130	258,276	-0,239	-0,289
58,144	-9,518	-0,405	-0,189
59,159	8,319	-0,475	-0,250
60,174	10,636	-0,323	-0,172
61,188	106,536	-0,301	-0,250
62,203	80,472	-0,247	-0,187
63,217	7,059	-0,280	-0,146
64,232	340,222	-0,176	-0,241
65,247	20,717	-0,346	-0,196
66,261	12,427	-0,407	-0,219
67,276	37,288	-0,308	-0,191
68,290	2,726	-0,252	-0,128
69,305	800,000	-0,147	-0,290
70,320	144,480	-0,217	-0,203
71,334	79,195	-0,276	-0,207
72,349	-29,495	-0,372	-0,148
73,363	30,388	-0,330	-0,197
74,378	134,807	-0,304	-0,277
75,393	20,034	-0,337	-0,190
76,407	-54,599	-0,255	-0,080
77,422	-95,060	-0,339	-0,064
78,436	-65,204	-0,204	-0,057
79,451	28,518	-0,293	-0,173
80,466	186,377	-0,304	-0,317
81,480	315,844	-0,213	-0,282
82,495	-41,092	-0,286	-0,103
83,509	201,783	-0,120	-0,130
84,524	103,583	-0,189	-0,155
85,539	18,481	-0,321	-0,179
86,553	-21,308	-0,272	-0,116
87,568	305,809	-0,132	-0,172
88,582	-40,625	-0,225	-0,081
89,597	140,802	-0,321	-0,296
90,611	-0,983	-0,253	-0,125
91,626	-17,579	-0,301	-0,132
92,641	58,847	-0,215	-0,148
93,655	-52,547	-0,233	-0,075
94,670	-73,601	-0,198	-0,050
95,684	-144,396	-0,223	0,014
96,699	-95,748	-0,278	-0,051
97,714	178,425	-0,195	-0,199
98,728	-91,768	-0,232	-0,046
99,743	-79,078	-0,333	-0,079
100,757	84,014	-0,310	-0,237
101,772	25,156	-0,371	-0,215
102,787	469,290	-0,136	-0,214
103,801	-27,927	-0,358	-0,144
104,816	15,492	-0,265	-0,145
105,830	75,332	-0,315	-0,232
106,845	522,534	-0,120	-0,198
107,860	24,727	-0,198	-0,114
108,874	-22,050	-0,274	-0,116
109,889	-46,960	-0,216	-0,073
110,903	331,670	-0,264	-0,357
111,918	186,320	-0,334	-0,347
112,933	247,768	-0,195	-0,231
113,947	49,884	-0,167	-0,110
114,962	-107,477	-0,321	-0,049
115,976	800,000	-0,096	-0,223
116,991	166,572	-0,252	-0,250
118,006	-16,955	-0,189	-0,083
119,020	27,998	-0,355	-0,208
120,035	184,919	-0,174	-0,180
121,049	47,545	-0,250	-0,163
122,064	56,797	-0,196	-0,133
123,079	81,317	-0,218	-0,164
124,093	98,825	-0,333	-0,268
125,108	22,155	-0,280	-0,159
126,122	69,502	-0,204	-0,146
127,137	-24,161	-0,230	-0,096
128,151	120,545	-0,139	-0,121
129,166	49,505	-0,168	-0,110
130,181	5,362	-0,292	-0,150
131,195	-126,840	-0,318	-0,032
132,210	21,361	-0,348	-0,196
133,224	105,442	-0,227	-0,187
134,239	119,371	-0,188	-0,162
135,254	-73,258	-0,172	-0,043
136,268	70,595	-0,184	-0,132
137,283	-63,577	-0,359	-0,102
138,297	71,207	-0,285	-0,205
139,312	32,713	-0,189	-0,113
140,327	4,059	-0,225	-0,114
141,341	-54,479	-0,176	-0,055
142,356	-33,034	-0,290	-0,112
143,370	101,719	-0,170	-0,138
144,385	338,937	-0,130	-0,177
145,400	-147,220	-0,193	0,011
146,414	-29,179	-0,284	-0,113
147,429	735,107	-0,211	-0,395
148,443	124,529	-0,220	-0,193
149,458	28,415	-0,174	-0,102
150,473	-30,643	-0,202	-0,079
151,487	115,972	-0,191	-0,163
152,502	-21,181	-0,289	-0,122
153,516	163,983	-0,195	-0,192
154,531	-138,114	-0,250	-0,019
155,546	-86,394	-0,277	-0,059
156,560	148,737	-0,234	-0,220
157,575	-12,321	-0,278	-0,126
158,589	30,245	-0,256	-0,152
159,604	144,237	-0,145	-0,135
160,619	296,986	-0,105	-0,135
161,633	604,018	-0,223	-0,388
162,648	-78,001	-0,286	-0,068
163,662	689,451	-0,085	-0,156
164,677	105,992	-0,245	-0,201
165,692	133,257	-0,127	-0,114
166,706	146,996	-0,190	-0,177
167,721	306,720	-0,184	-0,238
168,735	-55,612	-0,289	-0,089
169,750	73,028	-0,242	-0,176
170,764	239,454	-0,178	-0,206
171,779	-35,515	-0,263	-0,099
172,794	146,350	-0,232	-0,217
173,808	49,702	-0,239	-0,156
174,823	-35,281	-0,277	-0,104
175,837	180,025	-0,202	-0,206
176,852	75,953	-0,321	-0,236
177,867	56,388	-0,175	-0,118
178,881	60,327	-0,097	-0,067
179,896	174,035	-0,154	-0,154
180,910	-117,747	-0,214	-0,026
181,925	104,216	-0,217	-0,177
182,940	168,665	-0,301	-0,298
183,954	197,764	-0,133	-0,141
184,969	-35,259	-0,330	-0,124
185,983	553,702	-0,107	-0,179
186,998	243,952	-0,189	-0,221
188,013	110,189	-0,206	-0,171
189,027	267,638	-0,184	-0,224
190,042	46,174	-0,383	-0,245
191,056	304,588	-0,155	-0,200
192,071	-130,187	-0,206	0,019
193,086	127,053	-0,236	-0,208
194,100	25,587	-0,255	-0,147
195,115	-74,893	-0,105	-0,026
196,129	-4,315	-0,182	-0,087
197,144	178,034	-0,184	-0,187
198,159	22,516	-0,265	-0,150
199,173	207,094	-0,161	-0,174
200,188	-200,000	-0,005	-0,200
201,202	76,568	-0,157	-0,115
202,217	-47,785	-0,182	-0,061
203,232	74,310	-0,147	-0,107
204,246	-36,410	-0,279	-0,104
205,261	76,406	-0,166	-0,121
206,275	800,000	-0,044	-0,122
207,290	148,462	-0,112	-0,104
208,304	197,939	-0,137	-0,145
209,319	66,295	-0,236	-0,166
210,334	137,412	-0,151	-0,137
211,348	70,009	-0,234	-0,167
212,363	-17,406	-0,220	-0,095
213,377	757,721	-0,157	-0,295
214,392	411,382	-0,114	-0,168
215,407	105,810	-0,160	-0,131
216,421	88,454	-0,137	-0,105
217,436	-144,735	-0,228	-0,014
218,450	-41,290	-0,237	-0,084
219,465	199,245	-0,124	-0,131
220,480	-6,832	-0,180	-0,084
221,494	143,199	-0,171	-0,157
222,509	-134,973	-0,119	0,010
223,523	75,496	-0,177	-0,129
224,538	365,648	-0,162	-0,226
225,553	171,213	-0,229	-0,227
226,567	627,736	-0,152	-0,266
227,582	-200,000	0,000	-0,161
228,596	-2,383	-0,116	-0,056
229,611	697,580	-0,134	-0,244
230,626	64,626	-0,149	-0,103
231,640	-104,492	-0,102	0,016
232,655	-200,000	-0,013	-0,064
233,669	408,753	-0,176	-0,257
234,684	-87,027	-0,251	-0,052
235,699	-79,148	-0,136	-0,032
236,713	65,789	-0,127	-0,089
237,728	-200,000	-0,034	-0,133
238,742	-138,251	-0,150	0,011
239,757	68,167	-0,204	-0,144
240,772	174,758	-0,163	-0,163
241,786	-100,737	-0,246	-0,041
242,801	81,230	-0,154	-0,115
243,815	-86,921	-0,108	-0,023
244,830	193,982	-0,104	-0,108
245,844	-118,465	-0,110	-0,013
246,859	-60,933	-0,279	-0,081
247,874	-3,929	-0,203	-0,097
248,888	17,644	-0,155	-0,085
249,903	-200,000	-0,057	-0,200
250,917	320,330	-0,048	-0,063
251,932	35,992	-0,185	-0,112
252,947	255,412	-0,142	-0,168
253,961	527,613	-0,116	-0,189
254,976	393,112	-0,198	-0,286
255,990	65,001	-0,158	-0,110
257,005	51,149	-0,228	-0,149
258,020	105,016	-0,279	-0,227
259,034	-25,285	-0,224	-0,091
260,049	797,383	-0,129	-0,246
261,063	112,468	-0,142	-0,118
262,078	-89,592	-0,309	-0,062
263,093	577,897	-0,120	-0,203
264,107	-5,751	-0,203	-0,096
265,122	-200,000	0,015	-0,157
266,136	-20,163	-0,161	0,068
267,151	-200,000	-0,010	-0,187
268,166	539,319	-0,073	-0,120
269,180	-200,000	-0,005	-0,175
270,195	78,645	-0,228	-0,168
271,209	533,110	-0,062	-0,102
272,224	-156,694	-0,176	-0,007
273,239	-200,000	-0,020	-0,098
274,253	17,516	-0,171	-0,093
275,268	-143,584	-0,162	-0,010
276,282	800,000	-0,039	-0,102
277,297	330,525	-0,140	-0,186
278,312	184,828	-0,185	-0,189
279,326	90,779	-0,144	-0,111
280,341	-89,089	-0,118	0,024
281,355	800,000	-0,029	0,086
282,370	119,632	-0,160	-0,136
283,384	264,155	-0,158	-0,190
284,399	-99,041	-0,287	-0,049
285,414	-200,000	-0,055	-0,217
286,428	7,113	-0,166	-0,085
287,443	-56,618	-0,118	0,036
288,457	-200,000	-0,037	-0,232
289,472	-38,297	-0,088	-0,032
290,487	-6,791	-0,193	-0,090
291,501	119,137	-0,260	-0,221
292,516	69,762	-0,161	-0,114
293,530	77,977	-0,208	-0,152
294,545	-200,000	-0,010	-0,071
295,560	140,043	-0,039	-0,035
296,574	-56,458	-0,125	-0,038
297,589	139,174	-0,085	-0,077
298,603	24,736	-0,186	-0,106
299,618	800,000	-0,111	-0,225
300,633	-27,624	-0,204	-0,081
301,647	42,772	-0,082	0,051
302,662	9,893	-0,139	-0,072
303,676	190,486	-0,063	-0,065
304,691	326,220	-0,088	-0,115
305,706	-200,000	-0,004	-0,148
306,720	-200,000	-0,043	-0,139
307,735	719,436	-0,068	-0,125
308,749	800,000	-0,068	-0,144
309,764	-36,384	-0,145	-0,053
310,779	114,906	-0,110	-0,092
311,793	199,674	-0,135	-0,142
312,808	257,457	-0,111	-0,131
313,822	9,527	-0,136	-0,070
314,837	-66,079	-0,117	0,032
315,852	664,167	-0,066	-0,117
316,866	-200,000	-0,037	-0,119
317,881	-82,082	-0,183	-0,041
318,895	-200,000	-0,081	-0,270
319,910	361,676	-0,106	-0,146
320,925	180,187	-0,116	-0,116
321,939	800,000	-0,048	-0,092
322,954	-200,000	0,034	-0,204
323,968	18,573	-0,097	-0,053
324,983	-36,278	-0,171	0,063
325,997	212,439	-0,197	-0,214
327,012	214,932	-0,126	-0,137
328,027	-26,580	-0,171	-0,068
329,041	137,967	-0,121	-0,108
330,056	800,000	-0,083	-0,176
331,070	-24,051	-0,135	0,055
332,085	-108,155	-0,148	-0,022
333,100	-26,248	-0,294	-0,118
334,114	39,873	-0,107	-0,065
335,129	-20,122	-0,177	-0,074
336,143	-34,304	-0,319	-0,119
337,158	-99,348	-0,260	-0,044
338,173	47,184	-0,095	-0,060
339,187	-6,729	-0,112	-0,052
340,202	158,490	-0,156	-0,148
341,216	-200,000	-0,018	-0,175
342,231	46,608	-0,094	-0,059
343,246	-38,788	-0,069	-0,025
344,260	135,280	-0,093	-0,082
345,275	88,193	-0,127	-0,096
346,289	-46,388	-0,071	0,024
347,304	-66,928	-0,254	0,068
348,319	59,620	-0,193	-0,130
349,333	485,391	-0,135	-0,211
350,348	128,411	-0,085	-0,074
351,362	-47,032	-0,164	-0,054
352,377	-90,119	-0,125	0,025
353,392	-146,984	0,036	0,002
354,406	-129,737	-0,125	-0,012
355,421	209,036	1306,427	1399,770
356,435	160,870	1466,108	1400,242
