DTS Sentinel unit serial number:	SN410029Multiplexer serial number:	ORYXHardware model number:	OX2-SRSoftware version number:	ORYX F/W v4,00 Oryx Data Collector v3.7.2.0data status	okinstallation	B3 Nyhavnadifferential loss correction	single-endedforward channel	channel 1reverse channel	N/Adate	2023/11/28time	20:42:30forward acquisition time	300,00reverse acquisition time	0,00gamma	499,1914k internal	0,3212k external	0,3212temperature offset calibration	1,0000default loss term (dB/km)	0,3820temperature slope calibration	1,0000multiplexer offset coefficient	1,0000multiplexer slope coefficient	1,0000fibre end	0,00T internal ref (°C)	8,05T ext. ref 1 (°C)	-6,48T ext. ref 2 (°C)	-6,62length (m)	temperature (°C)	Stokes	anti-Stokes-744,400	220,819	-0,131	-0,153
-743,385	-200,000	0,062	0,226
-742,371	427,698	-0,168	-0,264
-741,356	-200,000	-0,023	0,331
-740,342	15,626	-0,266	-0,151
-739,327	-200,000	-0,042	0,361
-738,312	800,000	-0,139	-0,298
-737,298	276,980	-0,145	0,187
-736,283	197,017	-0,150	-0,166
-735,269	-200,000	0,042	0,307
-734,254	800,000	-0,120	-0,284
-733,239	-84,920	-0,211	-0,048
-732,225	800,000	-0,077	-0,162
-731,210	611,317	0,121	0,221
-730,196	11,134	0,097	-0,054
-729,181	-50,747	0,019	0,007
-728,167	800,000	0,021	-0,056
-727,152	800,000	0,034	0,094
-726,137	46,882	-0,225	-0,151
-725,123	-147,848	-0,109	-0,006
-724,108	-30,756	-0,083	-0,034
-723,094	400,426	-0,060	-0,091
-722,079	-200,000	0,046	-0,177
-721,064	-200,000	0,028	0,128
-720,050	-83,282	0,057	-0,013
-719,035	-200,000	-0,023	0,155
-718,021	-200,000	-0,003	0,069
-717,006	151,442	-0,034	0,034
-715,991	276,349	-0,088	-0,114
-714,977	-56,581	0,014	-0,004
-713,962	541,245	0,083	-0,144
-712,948	179,554	0,057	-0,061
-711,933	597,738	0,063	0,113
-710,918	-200,000	-0,008	-0,052
-709,904	-82,133	-0,106	-0,025
-708,889	103,809	-0,084	-0,072
-707,875	-39,466	0,137	-0,052
-706,860	59,930	-0,103	0,074
-705,845	-97,668	0,145	-0,027
-704,831	-137,566	-0,167	-0,013
-703,816	-89,939	0,093	-0,020
-702,802	4,459	0,186	-0,099
-701,787	-200,000	0,028	-0,229
-700,772	-200,000	-0,003	-0,108
-699,758	-200,000	-0,013	-0,054
-698,743	800,000	-0,047	0,135
-697,729	-200,000	-0,027	0,110
-696,714	-200,000	-0,012	0,095
-695,699	800,000	0,046	-0,104
-694,685	716,811	-0,042	-0,080
-693,670	380,138	0,047	-0,071
-692,656	-112,388	0,095	-0,014
-691,641	-200,000	0,015	0,151
-690,627	-200,000	-0,009	0,037
-689,612	56,629	0,056	0,039
-688,597	181,714	-0,111	0,119
-687,583	143,863	0,154	-0,149
-686,568	-20,383	-0,073	-0,032
-685,554	38,531	0,083	0,053
-684,539	800,000	0,028	-0,083
-683,524	-109,264	0,070	-0,011
-682,510	93,619	-0,121	-0,099
-681,495	-200,000	0,019	-0,130
-680,481	271,756	0,024	-0,031
-679,466	-122,414	-0,080	-0,009
-678,451	800,000	0,041	0,087
-677,437	-200,000	0,006	-0,087
-676,422	-200,000	-0,012	0,189
-675,408	236,254	0,073	0,088
-674,393	-200,000	-0,030	-0,126
-673,378	732,952	-0,028	-0,055
-672,364	26,227	-0,112	-0,067
-671,349	68,048	0,104	-0,077
-670,335	-81,573	-0,094	-0,022
-669,320	-98,349	0,033	0,006
-668,305	800,000	-0,016	0,051
-667,291	800,000	0,054	-0,127
-666,276	215,535	-0,052	-0,060
-665,262	-200,000	0,014	-0,088
-664,247	-200,000	0,030	-0,101
-663,232	598,957	0,065	-0,118
-662,218	71,567	0,007	-0,005
-661,203	800,000	0,057	0,133
-660,189	524,360	0,050	0,085
-659,174	95,956	0,063	0,052
-658,159	-148,439	-0,126	0,007
-657,145	-29,936	-0,129	-0,053
-656,130	270,040	-0,048	0,061
-655,116	-200,000	0,034	0,123
-654,101	176,913	0,046	0,049
-653,086	800,000	0,040	-0,105
-652,072	127,042	0,005	0,005
-651,057	107,006	-0,038	-0,032
-650,043	118,749	0,071	-0,063
-649,028	165,001	-0,030	0,031
-648,014	213,992	0,074	0,085
-646,999	-113,015	-0,153	-0,022
-645,984	800,000	-0,025	0,076
-644,970	-70,123	-0,049	0,013
-643,955	-76,496	0,128	-0,032
-642,941	-60,769	-0,135	-0,041
-641,926	-200,000	-0,026	-0,088
-640,911	87,177	0,070	0,056
-639,897	-200,000	-0,010	0,045
-638,882	631,914	0,048	0,088
-637,868	-200,000	0,020	-0,098
-636,853	647,960	-0,085	-0,157
-635,838	800,000	-0,015	-0,034
-634,824	-200,000	0,003	0,017
-633,809	800,000	0,046	-0,099
-632,795	34,832	0,104	0,066
-631,780	-138,855	-0,015	0,001
-630,765	-25,288	-0,130	-0,055
-629,751	-60,651	-0,124	0,038
-628,736	-115,758	-0,141	-0,019
-627,722	796,864	-0,025	0,051
-626,707	800,000	-0,051	-0,135
-625,692	78,578	0,079	-0,061
-624,678	269,800	0,066	0,084
-623,663	-26,861	-0,133	-0,056
-622,649	30,245	-0,094	0,058
-621,634	-200,000	0,017	0,080
-620,619	-153,566	0,141	-0,007
-619,605	-78,175	0,028	0,007
-618,590	543,361	0,035	0,061
-617,576	149,531	-0,073	-0,071
-616,561	-119,575	-0,136	-0,017
-615,546	103,136	-0,174	-0,147
-614,532	800,000	0,043	-0,115
-613,517	-200,000	-0,007	-0,032
-612,503	-200,000	0,001	-0,059
-611,488	238,896	0,118	0,141
-610,474	103,813	-0,117	0,099
-609,459	-200,000	0,004	-0,043
-608,444	-111,182	-0,114	0,017
-607,430	-55,045	0,003	0,001
-606,415	800,000	-0,010	-0,029
-605,401	287,697	-0,073	-0,096
-604,386	-200,000	0,019	0,135
-603,371	-112,054	-0,096	0,014
-602,357	279,776	-0,049	0,063
-601,342	-143,679	-0,094	0,006
-600,328	33,179	-0,119	0,074
-599,313	687,766	-0,056	0,106
-598,298	406,024	-0,042	0,064
-597,284	260,766	0,069	0,086
-596,269	61,604	0,119	0,085
-595,255	-200,000	0,028	0,092
-594,240	-200,000	-0,001	-0,040
-593,225	-19,249	-0,086	-0,038
-592,211	800,000	0,008	-0,018
-591,196	64,970	-0,055	-0,040
-590,182	-14,701	0,073	0,033
-589,167	-200,000	-0,004	0,102
-588,152	-200,000	0,017	0,132
-587,138	254,323	0,041	-0,051
-586,123	800,000	-0,029	-0,074
-585,109	-71,714	-0,108	0,029
-584,094	800,000	0,048	0,131
-583,079	-200,000	-0,003	0,055
-582,065	-200,000	0,018	0,133
-581,050	176,962	0,078	0,081
-580,036	57,042	-0,053	-0,037
-579,021	-31,056	0,106	-0,043
-578,006	-46,837	-0,210	0,074
-576,992	-200,000	0,000	-0,054
-575,977	54,608	-0,063	0,044
-574,963	182,831	0,190	0,202
-573,948	-200,000	-0,022	-0,098
-572,934	-200,000	0,028	-0,142
-571,919	-111,954	-0,179	0,026
-570,904	800,000	-0,037	-0,087
-569,890	800,000	-0,055	-0,137
-568,875	-83,002	0,103	-0,024
-567,861	-77,950	-0,030	0,007
-566,846	442,070	-0,042	-0,067
-565,831	742,851	-0,048	0,093
-564,817	-200,000	-0,031	-0,101
-563,802	-34,714	0,020	0,008
-562,788	800,000	0,023	-0,053
-561,773	-200,000	-0,009	0,077
-560,758	182,983	0,130	-0,138
-559,744	707,772	0,050	-0,095
-558,729	800,000	0,037	-0,113
-557,715	93,649	-0,135	-0,110
-556,700	-200,000	0,009	-0,088
-555,685	-74,633	-0,097	0,025
-554,671	-15,313	-0,180	0,083
-553,656	279,010	0,073	0,093
-552,642	21,078	-0,014	-0,008
-551,627	-141,401	-0,108	0,008
-550,612	204,378	0,006	0,006
-549,598	-67,042	0,162	0,046
-548,583	-200,000	0,001	-0,056
-547,569	-200,000	0,006	-0,040
-546,554	180,085	0,141	-0,148
-545,539	-62,244	0,123	-0,037
-544,525	16,762	-0,123	0,070
-543,510	11,098	0,138	-0,075
-542,496	-42,759	0,025	0,009
-541,481	321,280	-0,064	0,088
-540,466	-162,676	-0,053	0,002
-539,452	-200,000	0,015	0,066
-538,437	258,800	-0,015	0,018
-537,423	-159,245	-0,131	0,005
-536,408	223,632	0,081	0,095
-535,393	336,627	-0,032	0,044
-534,379	-200,000	0,012	-0,122
-533,364	-200,000	0,031	-0,152
-532,350	-54,872	0,094	-0,030
-531,335	-94,474	0,082	0,016
-530,321	-15,378	-0,042	0,019
-529,306	800,000	0,024	0,072
-528,291	148,111	-0,124	-0,120
-527,277	800,000	-0,033	-0,097
-526,262	-200,000	0,002	0,058
-525,248	800,000	0,068	0,213
-524,233	247,561	-0,031	0,037
-523,218	454,675	-0,056	0,090
-522,204	19,720	0,088	0,051
-521,189	800,000	0,024	-0,051
-520,175	-107,908	-0,214	0,033
-519,160	92,961	0,021	0,017
-518,145	-104,152	-0,037	0,006
-517,131	283,660	0,076	-0,098
-516,116	-14,715	0,059	0,027
-515,102	102,865	0,068	-0,057
-514,087	-103,914	0,149	0,025
-513,072	177,863	-0,084	0,088
-512,058	653,133	0,042	0,078
-511,043	99,657	-0,126	0,105
-510,029	-12,864	0,058	0,027
-509,014	470,985	-0,023	-0,037
-507,999	417,550	0,029	-0,044
-506,985	452,011	-0,064	-0,103
-505,970	4,840	0,051	0,027
-504,956	800,000	-0,026	0,069
-503,941	-197,357	-0,072	0,000
-502,926	297,371	0,025	0,033
-501,912	171,733	0,101	0,105
-500,897	-200,000	0,012	0,045
-499,883	177,015	-0,066	-0,069
-498,868	0,208	0,053	-0,027
-497,853	-200,000	-0,004	-0,144
-496,839	-155,403	-0,073	0,003
-495,824	37,160	-0,082	0,052
-494,810	473,359	0,077	0,125
-493,795	800,000	0,036	-0,076
-492,781	800,000	-0,018	-0,041
-491,766	-89,930	0,076	-0,016
-490,751	800,000	-0,065	-0,148
-489,737	-141,455	0,070	-0,005
-488,722	49,401	-0,037	0,025
-487,708	340,595	0,080	0,112
-486,693	800,000	0,028	0,063
-485,678	-96,447	-0,113	0,021
-484,664	800,000	0,024	0,074
-483,649	800,000	-0,029	0,087
-482,635	800,000	-0,023	-0,061
-481,620	97,311	-0,104	-0,086
-480,605	-200,000	0,015	-0,130
-479,591	118,210	-0,011	-0,010
-478,576	-200,000	-0,022	-0,107
-477,562	-36,374	0,037	-0,014
-476,547	-200,000	-0,011	0,080
-475,532	-64,822	-0,123	0,035
-474,518	629,355	-0,069	0,126
-473,503	-112,099	-0,067	0,009
-472,489	46,507	0,141	-0,093
-471,474	-123,537	-0,133	-0,015
-470,459	-200,000	0,017	-0,073
-469,445	-13,111	0,016	0,008
-468,430	-76,079	0,033	0,008
-467,416	-200,000	-0,001	-0,104
-466,401	53,758	0,063	-0,043
-465,386	174,035	-0,102	0,106
-464,372	686,644	0,019	-0,035
-463,357	-37,182	0,078	-0,030
-462,343	-153,189	-0,079	0,004
-461,328	800,000	-0,031	-0,090
-460,313	457,635	-0,060	0,097
-459,299	-200,000	0,010	0,143
-458,284	347,381	0,061	0,087
-457,270	476,865	0,061	-0,100
-456,255	35,190	0,090	-0,056
-455,241	-78,559	-0,080	-0,020
-454,226	-26,639	0,171	-0,071
-453,211	800,000	0,054	0,124
-452,197	-200,000	-0,017	0,082
-451,182	-58,622	0,084	-0,026
-450,168	72,880	0,050	0,037
-449,153	107,967	-0,200	-0,171
-448,138	148,634	-0,132	-0,128
-447,124	-61,563	0,064	-0,019
-446,109	-200,000	0,007	-0,124
-445,095	228,983	-0,030	0,035
-444,080	54,265	0,146	-0,100
-443,065	156,118	-0,049	-0,048
-442,051	800,000	0,012	-0,025
-441,036	255,860	-0,086	-0,105
-440,022	800,000	-0,036	0,083
-439,007	124,247	-0,020	-0,018
-437,992	-200,000	0,024	-0,096
-436,978	-118,848	0,077	-0,010
-435,963	-115,007	-0,091	-0,012
-434,949	-163,385	-0,142	0,005
-433,934	800,000	0,068	-0,174
-432,919	-200,000	-0,049	-0,157
-431,905	800,000	-0,079	-0,204
-430,890	-200,000	-0,027	0,112
-429,876	-200,000	-0,015	-0,057
-428,861	-137,351	0,073	0,006
-427,846	-14,749	0,140	-0,064
-426,832	116,486	-0,154	-0,135
-425,817	254,655	-0,030	-0,037
-424,803	-167,378	-0,016	-0,000
-423,788	800,000	0,072	-0,197
-422,773	236,888	0,086	0,103
-421,759	553,250	-0,036	0,062
-420,744	800,000	0,040	0,083
-419,730	-200,000	0,009	-0,119
-418,715	208,315	-0,117	-0,131
-417,701	449,218	0,053	-0,083
-416,686	-200,000	0,001	-0,015
-415,671	-114,534	0,046	-0,006
-414,657	233,759	0,047	0,056
-413,642	265,455	0,018	0,023
-412,628	-200,000	0,013	0,122
-411,613	509,026	-0,094	-0,156
-410,598	188,977	-0,101	0,108
-409,584	11,035	-0,019	0,010
-408,569	-200,000	-0,025	0,101
-407,555	-200,000	-0,003	0,014
-406,540	295,778	-0,039	-0,051
-405,525	-97,295	-0,075	-0,014
-404,511	276,710	-0,033	-0,042
-403,496	-163,137	-0,009	-0,000
-402,482	-6,982	0,036	-0,017
-401,467	800,000	-0,010	-0,028
-400,452	-200,000	-0,040	0,140
-399,438	80,637	0,090	-0,069
-398,423	191,049	-0,043	-0,047
-397,409	-45,451	-0,051	-0,018
-396,394	-68,411	0,124	0,034
-395,379	229,914	-0,085	-0,099
-394,365	-200,000	-0,013	0,072
-393,350	765,635	0,027	0,053
-392,336	-200,000	-0,018	-0,069
-391,321	198,603	0,064	-0,070
-390,306	-49,812	0,051	0,017
-389,292	-200,000	0,118	0,000
-388,277	126,772	0,040	0,036
-387,263	513,708	0,058	-0,097
-386,248	299,796	0,070	0,093
-385,233	-79,821	0,114	-0,027
-384,219	406,673	-0,040	-0,061
-383,204	-200,000	0,010	-0,224
-382,190	111,079	0,067	-0,058
-381,175	-200,000	0,001	-0,002
-380,160	-174,152	0,165	-0,003
-379,146	404,905	-0,068	-0,103
-378,131	-64,837	0,102	0,029
-377,117	800,000	-0,002	-0,007
-376,102	-200,000	-0,028	0,140
-375,088	800,000	-0,046	-0,126
-374,073	470,895	-0,030	-0,049
-373,058	-200,000	-0,026	0,095
-372,044	-44,933	0,088	0,031
-371,029	-200,000	0,009	0,091
-370,015	800,000	0,034	0,081
-369,000	-106,306	-0,113	0,018
-367,985	-6,788	0,060	-0,029
-366,971	-200,000	0,031	0,113
-365,956	-71,623	0,110	-0,029
-364,942	459,142	0,034	0,055
-363,927	800,000	-0,053	0,139
-362,912	-91,984	-0,010	-0,002
-361,898	-56,095	0,181	-0,057
-360,883	-178,216	0,059	-0,001
-359,869	349,878	0,106	-0,150
-358,854	13,472	-0,032	-0,018
-357,839	-111,309	0,156	0,022
-356,825	-200,000	-0,008	0,073
-355,810	-46,770	0,197	-0,069
-354,796	-23,559	-0,057	0,024
-353,781	192,035	-0,078	-0,084
-352,766	-4,454	0,031	-0,015
-351,752	-4,110	0,059	0,029
-350,737	-38,037	-0,068	-0,026
-349,723	800,000	0,027	-0,074
-348,708	378,625	-0,042	0,061
-347,693	271,836	0,098	0,123
-346,679	162,232	-0,158	-0,158
-345,664	15,825	0,040	-0,022
-344,650	-59,649	0,065	-0,020
-343,635	2,649	-0,027	-0,014
-342,620	-200,000	-0,047	0,186
-341,606	257,963	-0,072	0,088
-340,591	-200,000	0,002	0,104
-339,577	-26,131	-0,024	0,010
-338,562	483,411	0,060	-0,098
-337,548	-200,000	-0,004	-0,137
-336,533	-200,000	-0,019	0,141
-335,518	262,699	-0,116	0,143
-334,504	800,000	0,020	0,043
-333,489	199,563	0,058	-0,064
-332,475	4,699	-0,038	0,020
-331,460	-200,000	0,009	0,087
-330,445	196,697	-0,020	0,022
-329,431	47,919	-0,028	-0,019
-328,416	-133,630	-0,114	0,010
-327,402	-200,000	-0,004	0,147
-326,387	-9,940	0,072	0,034
-325,372	581,740	-0,020	0,035
-324,358	-200,000	0,004	-0,074
-323,343	800,000	-0,017	-0,043
-322,329	-200,000	-0,039	-0,136
-321,314	-121,592	-0,066	0,008
-320,299	-75,440	0,081	-0,021
-319,285	41,360	-0,104	0,067
-318,270	-200,000	0,033	0,122
-317,256	194,467	-0,050	0,054
-316,241	-54,796	0,088	-0,028
-315,226	-26,310	0,051	-0,021
-314,212	-120,081	-0,086	0,010
-313,197	-110,312	-0,109	-0,016
-312,183	-33,844	-0,068	-0,027
-311,168	588,251	0,041	-0,072
-310,153	208,978	-0,021	-0,023
-309,139	59,382	0,030	-0,021
-308,124	85,206	0,108	-0,084
-307,110	-117,927	0,064	0,008
-306,095	68,002	0,109	0,080
-305,080	-200,000	-0,004	-0,093
-304,066	-200,000	0,038	-0,167
-303,051	800,000	-0,094	-0,229
-302,037	289,124	-0,066	0,085
-301,022	-35,045	0,041	0,016
-300,008	-79,141	0,107	-0,026
-298,993	-59,019	0,079	0,024
-297,978	800,000	-0,039	0,099
-296,964	7,270	0,079	0,042
-295,949	254,743	-0,035	0,043
-294,935	-115,037	-0,074	-0,010
-293,920	328,604	0,052	0,072
-292,905	313,814	0,046	0,062
-291,891	-145,989	0,042	-0,003
-290,876	-113,591	0,116	-0,016
-289,862	53,443	0,147	-0,100
-288,847	-63,188	0,018	0,005
-287,832	560,806	0,035	0,060
-286,818	-130,966	0,133	0,013
-285,803	-41,580	0,080	0,029
-284,789	-63,634	-0,112	0,032
-283,774	4,498	-0,051	-0,027
-282,759	437,652	-0,106	-0,166
-281,745	-200,000	-0,012	-0,079
-280,730	76,757	-0,110	-0,083
-279,716	-127,462	-0,095	-0,010
-278,701	-17,570	0,062	0,028
-277,686	-200,000	-0,003	0,017
-276,672	147,110	-0,068	0,065
-275,657	86,268	-0,068	0,053
-274,643	53,570	-0,046	0,032
-273,628	800,000	-0,063	0,143
-272,613	-139,814	-0,058	0,004
-271,599	800,000	-0,027	-0,078
-270,584	133,294	0,095	0,088
-269,570	-200,000	-0,017	0,087
-268,555	-200,000	-0,016	-0,072
-267,540	73,836	-0,105	0,078
-266,526	764,855	0,062	0,121
-265,511	69,138	-0,099	-0,072
-264,497	-21,157	0,081	-0,035
-263,482	-49,275	0,119	0,040
-262,467	131,749	0,075	-0,068
-261,453	800,000	0,080	-0,221
-260,438	-200,000	0,000	-0,072
-259,424	-200,000	-0,004	-0,032
-258,409	-200,000	-0,005	-0,175
-257,395	-57,325	-0,069	-0,022
-256,380	-200,000	-0,017	0,185
-255,365	-96,004	-0,143	0,027
-254,351	-2,904	0,094	-0,046
-253,336	-49,944	0,108	-0,036
-252,322	-200,000	-0,009	-0,078
-251,307	800,000	0,019	0,058
-250,292	800,000	0,019	0,044
-249,278	-200,000	-0,014	-0,060
-248,263	-200,000	0,017	-0,066
-247,249	20,846	0,055	0,032
-246,234	-16,011	-0,159	-0,072
-245,219	316,003	0,057	-0,076
-244,205	-65,735	-0,151	0,043
-243,190	239,004	0,091	0,107
-242,176	382,487	0,007	0,010
-241,161	130,580	0,155	0,141
-240,146	60,796	-0,064	0,045
-239,132	-12,963	0,079	-0,036
-238,117	-7,028	-0,065	-0,031
-237,103	52,274	-0,011	-0,007
-236,088	-49,377	-0,174	-0,059
-235,073	179,881	0,127	0,132
-234,059	-200,000	0,005	0,051
-233,044	800,000	-0,071	0,163
-232,030	37,384	0,048	-0,030
-231,015	-43,604	0,065	0,023
-230,000	-25,122	-0,176	0,074
-228,986	-20,089	0,074	0,032
-227,971	345,395	0,023	0,032
-226,957	-200,000	-0,011	-0,079
-225,942	-59,400	0,100	0,030
-224,927	-200,000	0,047	0,170
-223,913	472,853	-0,050	-0,081
-222,898	-200,000	-0,012	-0,155
-221,884	800,000	-0,060	0,155
-220,869	527,933	0,027	0,046
-219,855	800,000	-0,021	0,050
-218,840	-90,126	0,039	-0,008
-217,825	800,000	-0,017	-0,035
-216,811	411,478	-0,041	0,062
-215,796	224,231	-0,070	-0,081
-214,782	23,665	0,095	0,056
-213,767	-20,204	-0,086	-0,037
-212,752	-200,000	0,005	0,144
-211,738	-200,000	-0,012	-0,092
-210,723	786,120	0,052	0,102
-209,709	-80,228	-0,070	-0,016
-208,694	800,000	0,039	-0,118
-207,679	344,790	-0,107	0,150
-206,665	219,353	-0,050	0,057
-205,650	593,897	-0,026	0,045
-204,636	441,874	-0,067	-0,104
-203,621	407,526	-0,048	0,072
-202,606	-91,300	-0,187	0,038
-201,592	4,823	0,120	-0,062
-200,577	800,000	-0,006	-0,015
-199,563	-200,000	0,032	0,282
-198,548	46,229	0,092	-0,060
-197,533	-120,699	0,184	0,022
-196,519	254,196	0,096	0,117
-195,504	-200,000	0,004	-0,077
-194,490	-82,569	-0,032	0,007
-193,475	-200,000	-0,027	0,113
-192,460	-200,000	-0,012	0,065
-191,446	639,967	-0,048	-0,087
-190,431	-176,348	-0,066	0,001
-189,417	800,000	0,029	0,062
-188,402	745,788	0,029	0,056
-187,387	226,814	-0,055	-0,064
-186,373	-200,000	-0,008	-0,096
-185,358	-143,916	-0,026	-0,002
-184,344	33,353	0,135	-0,083
-183,329	283,789	-0,089	0,114
-182,315	-200,000	0,008	0,026
-181,300	65,555	0,129	0,092
-180,285	32,646	-0,037	-0,023
-179,271	94,976	0,045	0,036
-178,256	-200,000	0,005	0,044
-177,242	-150,741	0,065	-0,003
-176,227	800,000	0,036	0,076
-175,212	61,967	-0,056	-0,040
-174,198	55,273	-0,100	0,068
-173,183	-200,000	-0,029	-0,122
-172,169	12,496	0,043	-0,024
-171,154	-26,104	0,028	0,012
-170,139	-137,756	0,173	-0,014
-169,125	-126,381	0,210	0,022
-168,110	800,000	0,036	-0,107
-167,096	187,448	0,085	0,090
-166,081	800,000	-0,033	-0,084
-165,066	589,902	-0,125	0,220
-164,052	800,000	-0,049	0,104
-163,037	279,166	-0,023	-0,029
-162,023	47,360	0,042	0,028
-161,008	166,295	0,105	-0,106
-159,993	-200,000	-0,006	0,036
-158,979	-49,360	0,110	-0,037
-157,964	-99,657	0,077	-0,013
-156,950	184,235	0,089	-0,094
-155,935	194,294	-0,054	0,058
-154,920	-200,000	0,001	0,083
-153,906	-192,609	0,052	0,000
-152,891	255,590	-0,012	0,015
-151,877	140,569	-0,071	0,066
-150,862	800,000	-0,044	0,131
-149,847	-200,000	0,006	0,058
-148,833	110,324	0,092	-0,078
-147,818	-200,000	0,013	0,067
-146,804	800,000	-0,034	0,083
-145,789	-200,000	-0,002	0,048
-144,775	800,000	-0,029	0,057
-143,760	297,684	0,120	0,157
-142,745	800,000	0,040	-0,108
-141,731	636,260	0,028	0,051
-140,716	-200,000	-0,006	0,029
-139,702	76,085	-0,057	-0,043
-138,687	128,858	-0,102	0,093
-137,672	786,781	-0,046	-0,090
-136,658	-128,934	-0,076	-0,007
-135,643	-200,000	-0,011	-0,073
-134,629	-117,250	-0,072	-0,009
-133,614	800,000	-0,038	-0,100
-132,599	-55,137	0,161	-0,051
-131,585	224,066	0,125	0,143
-130,570	-200,000	-0,016	-0,103
-129,556	443,302	-0,065	0,101
-128,541	70,629	-0,091	-0,067
-127,526	-200,000	0,034	0,176
-126,512	460,807	-0,016	0,025
-125,497	-200,000	-0,005	0,108
-124,483	-200,000	0,021	0,218
-123,468	46,169	0,116	-0,076
-122,453	-98,767	-0,091	-0,016
-121,439	-71,034	0,024	0,006
-120,424	313,369	-0,045	0,060
-119,410	-77,663	-0,065	0,016
-118,395	441,739	0,050	-0,078
-117,380	153,382	0,040	0,039
-116,366	-200,000	-0,031	-0,123
-115,351	-200,000	-0,011	-0,039
-114,337	-35,638	-0,158	-0,060
-113,322	800,000	0,033	0,100
-112,307	218,979	0,137	0,156
-111,293	408,549	-0,056	0,084
-110,278	-200,000	0,038	0,123
-109,264	-38,385	-0,109	-0,041
-108,249	198,119	-0,005	0,005
-107,234	-200,000	-0,022	-0,105
-106,220	-200,000	-0,005	-0,095
-105,205	-155,354	-0,007	0,000
-104,191	147,149	-0,039	0,037
-103,176	-90,962	0,125	0,025
-102,162	-107,457	0,101	0,015
-101,147	-200,000	-0,008	-0,067
-100,132	25,863	-0,148	-0,087
-99,118	-43,306	-0,125	-0,044
-98,103	-150,947	0,105	-0,006
-97,089	-149,610	-0,051	0,003
-96,074	27,203	0,156	0,092
-95,059	57,964	0,110	0,076
-94,045	-200,000	-0,017	-0,104
-93,030	17,210	-0,118	-0,066
-92,016	-34,571	0,052	-0,020
-91,001	-200,000	0,009	0,070
-89,986	82,963	0,041	-0,031
-88,972	-101,077	-0,166	0,029
-87,957	-45,211	0,012	-0,004
-86,943	-200,000	-0,001	0,010
-85,928	94,233	-0,098	-0,079
-84,913	211,021	-0,082	-0,092
-83,899	-122,918	-0,075	0,008
-82,884	420,519	0,036	0,055
-81,870	57,670	0,096	0,066
-80,855	342,010	0,078	0,108
-79,840	165,482	-0,138	-0,138
-78,826	800,000	-0,082	-0,187
-77,811	-34,116	0,132	-0,051
-76,797	-98,830	0,008	-0,001
-75,782	-178,093	-0,067	-0,001
-74,767	800,000	-0,038	0,085
-73,753	190,993	0,038	-0,040
-72,738	800,000	-0,043	0,115
-71,724	255,847	-0,057	0,069
-70,709	-2,585	-0,125	0,061
-69,694	217,150	0,076	0,086
-68,680	-200,000	0,018	0,067
-67,665	-40,198	0,043	-0,016
-66,651	800,000	-0,028	0,057
-65,636	-109,024	-0,083	0,012
-64,622	33,796	-0,048	0,029
-63,607	22,526	-0,112	0,065
-62,592	73,566	0,124	-0,091
-61,578	800,000	0,053	-0,161
-60,563	171,946	0,009	-0,009
-59,549	-200,000	0,025	0,088
-58,534	41,151	-2,211	-1,407
-57,519	538,040	-1,140	-1,919
-56,505	-200,000	-0,289	-4,361
-55,490	800,000	0,850	1,775
-54,476	800,000	5,280	11,160
-53,461	-200,000	22,246	344,075
-52,446	800,000	755,981	2292,882
-51,432	534,279	1641,282	2754,628
-50,417	68,022	1639,359	1181,933
-49,403	15,734	1516,296	838,824
-48,388	9,932	1441,997	769,934
-47,373	19,174	1434,648	809,893
-46,359	13,367	1423,092	776,009
-45,344	8,218	1419,286	749,620
-44,330	8,156	1417,268	748,232
-43,315	8,109	1415,564	747,078
-42,300	8,137	1413,681	746,186
-41,286	8,146	1412,390	745,519
-40,271	8,158	1411,037	744,835
-39,257	8,126	1410,165	744,192
-38,242	8,191	1408,844	743,768
-37,227	8,146	1407,892	743,029
-36,213	8,157	1406,465	742,296
-35,198	8,129	1405,424	741,588
-34,184	8,211	1404,244	741,320
-33,169	8,052	1403,180	739,984
-32,154	8,135	1402,286	739,871
-31,140	8,095	1400,897	738,922
-30,125	8,102	1399,927	738,413
-29,111	8,134	1398,711	737,891
-28,096	8,077	1397,490	736,954
-27,082	8,085	1396,171	736,265
-26,067	8,028	1395,435	735,584
-25,052	8,105	1393,884	735,096
-24,038	8,061	1393,155	734,476
-23,023	8,056	1392,419	734,036
-22,009	8,078	1391,209	733,472
-20,994	8,057	1390,523	732,983
-19,979	8,059	1389,412	732,380
-18,965	8,000	1388,413	731,551
-17,950	8,028	1387,550	731,197
-16,936	8,041	1386,588	730,720
-15,921	7,938	1385,754	729,774
-14,906	7,976	1384,752	729,394
-13,892	8,084	1383,518	729,211
-12,877	8,027	1382,844	728,565
-11,863	8,028	1381,865	728,025
-10,848	7,969	1381,192	727,372
-9,833	7,948	1380,204	726,727
-8,819	7,907	1379,359	726,063
-7,804	7,901	1378,432	725,519
-6,790	7,908	1377,386	724,971
-5,775	7,887	1376,412	724,333
-4,760	7,920	1375,609	724,033
-3,746	7,934	1374,656	723,567
-2,731	7,976	1373,413	723,076
-1,717	7,897	1372,895	722,416
-0,702	7,925	1371,139	721,590
0,313	11,925	1282,015	692,754
1,327	27,673	675,541	400,047
2,342	43,319	115,870	74,477
3,356	-1,970	16,507	8,152
4,371	1,681	3,665	1,855
5,386	4,525	1,365	0,704
6,400	800,000	0,234	0,571
7,415	-37,409	-0,211	-0,079
8,429	36,827	-0,333	-0,207
9,444	-15,116	-0,306	-0,137
10,459	-94,855	-0,318	-0,060
11,473	45,477	-0,388	-0,252
12,488	-83,682	-0,293	-0,065
13,502	-95,175	-0,265	-0,050
14,517	-157,183	-0,239	0,010
15,531	42,140	-0,319	-0,204
16,546	98,157	-0,319	-0,259
17,561	-136,334	-0,368	-0,030
18,575	-67,522	-0,082	-0,023
19,590	688,345	-0,144	-0,266
20,604	23,099	-0,214	-0,123
21,619	83,139	-0,412	-0,316
22,634	-23,449	-0,516	-0,217
23,648	53,903	-0,426	-0,288
24,663	67,791	-0,366	-0,263
25,677	83,249	-0,164	-0,126
26,692	144,046	-0,343	-0,322
27,707	19,834	-0,334	-0,189
28,721	-43,687	-0,460	-0,162
29,736	396,911	-0,250	-0,368
30,750	80,429	-0,346	-0,262
31,765	43,192	-0,337	-0,216
32,780	99,135	-0,351	-0,285
33,794	258,875	-0,291	-0,354
34,809	144,154	-0,426	-0,400
35,823	172,770	-0,343	-0,347
36,838	505,954	-0,219	-0,358
37,853	131,603	-0,273	-0,247
38,867	-9,624	-0,381	-0,178
39,882	-33,237	-0,307	-0,119
40,896	-58,133	-0,277	-0,084
41,911	159,481	-0,271	-0,265
42,926	204,492	-0,255	-0,278
43,940	21,833	-0,259	-0,148
44,955	118,164	-0,415	-0,360
45,969	75,151	-0,303	-0,224
46,984	67,160	-0,287	-0,205
47,999	87,093	-0,335	-0,260
49,013	155,064	-0,263	-0,254
50,028	49,174	-0,341	-0,224
51,042	48,371	-0,364	-0,239
52,057	157,616	-0,248	-0,241
53,071	123,358	-0,201	-0,177
54,086	240,804	-0,246	-0,289
55,101	172,623	-0,240	-0,242
56,115	299,681	-0,167	-0,216
57,130	-71,940	-0,358	-0,093
58,144	244,864	-0,275	-0,325
59,159	288,946	-0,245	-0,312
60,174	62,327	-0,359	-0,251
61,188	296,403	-0,351	-0,452
62,203	766,850	-0,113	-0,217
63,217	-89,744	-0,347	-0,071
64,232	126,564	-0,271	-0,240
65,247	101,737	-0,336	-0,274
66,261	-75,442	-0,373	-0,092
67,276	60,537	-0,344	-0,239
68,290	17,245	-0,317	-0,176
69,305	341,322	-0,136	-0,187
70,320	86,554	-0,329	-0,254
71,334	32,318	-0,319	-0,193
72,349	-40,031	-0,300	-0,109
73,363	54,579	-0,366	-0,247
74,378	-33,981	-0,370	-0,142
75,393	-36,313	-0,334	-0,125
76,407	171,603	-0,196	-0,197
77,422	28,316	-0,318	-0,188
78,436	-41,733	-0,337	-0,120
79,451	2,282	-0,297	-0,150
80,466	764,350	-0,113	-0,216
81,480	316,099	-0,209	-0,276
82,495	326,183	-0,195	-0,262
83,509	-61,559	-0,255	-0,075
84,524	800,000	-0,088	-0,257
85,539	162,142	-0,240	-0,236
86,553	24,903	-0,435	-0,252
87,568	-11,305	-0,329	-0,151
88,582	45,295	-0,340	-0,219
89,597	114,655	-0,282	-0,241
90,611	-112,253	-0,276	0,038
91,626	40,299	-0,324	-0,203
92,641	128,968	-0,181	-0,162
93,655	-19,908	-0,268	-0,115
94,670	-22,699	-0,274	-0,115
95,684	-23,854	-0,278	-0,116
96,699	98,034	-0,285	-0,230
97,714	43,324	-0,253	-0,162
98,728	472,974	-0,022	-0,034
99,743	-13,905	-0,295	-0,133
100,757	-53,534	-0,235	-0,075
101,772	385,907	-0,181	-0,261
102,787	273,145	-0,242	-0,300
103,801	353,099	-0,200	-0,278
104,816	137,078	-0,230	-0,210
105,830	112,442	-0,196	-0,166
106,845	-93,758	-0,246	-0,047
107,860	200,790	-0,216	-0,232
108,874	-10,934	-0,298	-0,137
109,889	-63,303	-0,326	-0,093
110,903	77,980	-0,251	-0,187
111,918	-200,000	-0,063	-0,224
112,933	67,839	-0,227	-0,162
113,947	81,139	-0,210	-0,158
114,962	-12,930	-0,238	-0,108
115,976	30,579	-0,302	-0,180
116,991	88,660	-0,201	-0,156
118,006	706,471	-0,221	-0,409
119,020	3,271	-0,315	-0,160
120,035	255,024	-0,185	-0,222
121,049	147,324	-0,196	-0,184
122,064	61,044	-0,337	-0,233
123,079	-73,017	-0,326	-0,083
124,093	207,074	-0,201	-0,219
125,108	167,681	-0,276	-0,274
126,122	-85,983	-0,279	-0,060
127,137	10,232	-0,219	-0,116
128,151	-5,262	-0,277	-0,132
129,166	133,635	-0,169	-0,152
130,181	-75,826	-0,181	-0,044
131,195	458,029	-0,259	-0,403
132,210	75,245	-0,271	-0,199
133,224	60,484	-0,228	-0,157
134,239	94,088	-0,222	-0,175
135,254	-57,477	-0,196	-0,060
136,268	310,375	-0,226	-0,296
137,283	247,384	-0,158	-0,187
138,297	4,093	-0,301	-0,153
139,312	23,290	-0,286	-0,163
140,327	354,085	-0,235	-0,326
141,341	-40,844	-0,326	-0,117
142,356	-88,120	-0,243	0,050
143,370	75,672	-0,183	-0,135
144,385	187,657	-0,180	-0,187
145,400	137,013	-0,291	-0,265
146,414	-10,249	-0,354	-0,163
147,429	62,967	-0,274	-0,190
148,443	-147,759	-0,209	0,012
149,458	-3,804	-0,179	-0,086
150,473	283,394	-0,104	-0,130
151,487	80,368	-0,210	-0,157
152,502	28,805	-0,362	-0,213
153,516	273,798	-0,229	-0,282
154,531	6,030	-0,205	-0,105
155,546	214,197	-0,152	-0,168
156,560	-22,544	-0,157	-0,066
157,575	-113,579	-0,164	-0,022
158,589	57,346	-0,321	-0,217
159,604	76,051	-0,265	-0,194
160,619	14,665	-0,269	-0,146
161,633	10,538	-0,141	-0,075
162,648	69,517	-0,250	-0,179
163,662	-47,765	-0,149	-0,050
164,677	800,000	-0,103	-0,232
165,692	-56,475	-0,184	-0,056
166,706	-27,355	-0,186	-0,075
167,721	79,978	-0,326	-0,243
168,735	15,802	-0,232	-0,126
169,750	268,492	-0,184	-0,224
170,764	-110,113	-0,262	-0,038
171,779	-54,469	-0,292	-0,091
172,794	87,650	-0,221	-0,170
173,808	189,492	-0,223	-0,233
174,823	16,256	-0,323	-0,176
175,837	205,205	-0,178	-0,192
176,852	39,214	-0,274	-0,170
177,867	614,693	-0,095	-0,165
178,881	-45,040	-0,183	-0,063
179,896	173,257	-0,099	-0,099
180,910	98,050	-0,229	-0,183
181,925	-26,364	-0,274	-0,111
182,940	9,523	-0,182	-0,095
183,954	6,018	-0,181	-0,093
184,969	97,151	-0,287	-0,229
185,983	382,733	-0,111	-0,159
186,998	124,322	-0,186	-0,162
188,013	293,709	-0,179	-0,227
189,027	381,274	-0,120	-0,171
190,042	189,826	-0,212	-0,221
191,056	318,119	-0,191	-0,251
192,071	-64,625	-0,141	-0,039
193,086	800,000	-0,097	-0,257
194,100	-110,194	-0,187	0,027
195,115	259,772	-0,210	-0,252
196,129	800,000	-0,039	-0,089
197,144	-31,820	-0,311	-0,120
198,159	-83,740	-0,173	0,038
199,173	497,342	-0,128	-0,205
200,188	229,046	-0,126	-0,143
201,202	66,925	-0,116	-0,082
202,217	26,449	-0,202	-0,117
203,232	30,092	-0,200	-0,118
204,246	8,688	-0,258	-0,134
205,261	319,788	-0,119	-0,156
206,275	800,000	-0,081	-0,165
207,290	582,432	-0,076	-0,130
208,304	614,784	-0,022	-0,038
209,319	97,581	-0,111	-0,088
210,334	-200,000	0,015	-0,148
211,348	149,713	-0,139	-0,131
212,363	-122,084	-0,142	-0,016
213,377	72,423	-0,256	-0,185
214,392	-62,022	-0,118	-0,034
215,407	-16,311	-0,186	-0,082
216,421	249,149	-0,141	-0,166
217,436	-87,865	-0,113	-0,023
218,450	16,169	-0,217	-0,118
219,465	139,480	-0,162	-0,148
220,480	-132,269	-0,100	-0,009
221,494	-61,794	-0,218	-0,063
222,509	-28,454	-0,243	-0,097
223,523	-200,000	-0,007	-0,156
224,538	672,752	-0,034	0,061
225,553	66,762	-0,146	-0,102
226,567	-87,006	-0,112	0,023
227,582	-88,874	-0,275	-0,056
228,596	800,000	-0,034	-0,101
229,611	168,174	-0,152	-0,149
230,626	6,995	-0,279	-0,143
231,640	72,349	-0,252	-0,181
232,655	800,000	-0,141	-0,270
233,669	179,526	-0,325	-0,329
234,684	359,431	-0,101	-0,140
235,699	6,492	-0,222	-0,113
236,713	526,687	-0,106	-0,172
237,728	-83,430	-0,179	0,039
238,742	406,832	-0,063	-0,092
239,757	-65,789	-0,074	-0,020
240,772	231,505	-0,083	-0,094
241,786	161,401	-0,136	-0,131
242,801	61,948	-0,168	-0,115
243,815	404,013	-0,080	-0,116
244,830	-5,381	-0,196	-0,092
245,844	70,520	-0,283	-0,202
246,859	-96,722	-0,135	0,024
247,874	386,022	-0,097	-0,139
248,888	-20,696	-0,193	-0,081
249,903	164,436	-0,180	-0,175
250,917	175,439	-0,182	-0,183
251,932	-97,893	-0,125	-0,022
252,947	147,122	-0,115	0,107
253,961	-147,510	-0,237	-0,014
254,976	-42,799	-0,325	-0,113
255,990	44,239	-0,197	-0,125
257,005	-51,180	-0,117	0,037
258,020	-200,000	-0,044	-0,198
259,034	-200,000	-0,049	-0,167
260,049	102,258	-0,068	-0,055
261,063	-86,893	-0,244	-0,051
262,078	169,483	-0,123	-0,121
263,093	-51,243	-0,221	-0,071
264,107	86,303	-0,134	-0,101
265,122	85,479	-0,123	0,093
266,136	-34,146	-0,175	-0,066
267,151	-89,303	-0,189	-0,038
268,166	437,118	-0,109	-0,164
269,180	388,479	-0,124	-0,178
270,195	800,000	-0,104	-0,227
271,209	-23,214	-0,218	-0,090
272,224	-200,000	0,019	-0,150
273,239	110,779	-0,209	-0,173
274,253	-42,242	-0,285	-0,100
275,268	71,842	-0,113	-0,081
276,282	313,392	-0,238	-0,308
277,297	-105,203	-0,344	-0,054
278,312	-19,496	-0,135	-0,057
279,326	58,266	-0,091	-0,061
280,341	800,000	-0,047	0,103
281,355	-152,727	-0,245	0,012
282,370	83,573	-0,135	-0,101
283,384	55,775	-0,228	-0,152
284,399	-34,676	-0,229	-0,086
285,414	800,000	-0,060	-0,180
286,428	38,398	-0,258	-0,158
287,443	-200,000	-0,030	-0,123
288,457	98,651	-0,092	-0,073
289,472	270,634	-0,075	-0,091
290,487	25,193	-0,147	-0,084
291,501	526,771	-0,119	-0,193
292,516	-2,908	-0,317	-0,152
293,530	-34,608	-0,179	-0,067
294,545	40,337	-0,201	-0,124
295,560	99,430	-0,138	-0,110
296,574	149,554	-0,079	-0,073
297,589	-39,390	-0,086	-0,031
298,603	207,349	-0,094	-0,101
299,618	266,010	-0,124	-0,149
300,633	394,152	-0,141	-0,202
301,647	-163,823	-0,120	0,004
302,662	-40,553	-0,186	-0,066
303,676	-200,000	-0,051	-0,203
304,691	41,203	-0,191	-0,118
305,706	27,369	-0,172	-0,099
306,720	31,648	-0,228	-0,134
307,735	95,667	-0,172	-0,135
308,749	273,672	-0,115	-0,140
309,764	158,856	-0,055	0,052
310,779	-105,429	-0,187	-0,029
311,793	-123,373	-0,195	-0,021
312,808	71,180	-0,180	-0,128
313,822	-6,814	-0,291	-0,135
314,837	-81,564	-0,216	-0,048
315,852	362,665	-0,062	0,085
316,866	800,000	0,060	-0,158
317,881	59,154	-0,238	-0,161
318,895	77,816	-0,110	-0,080
319,910	140,309	-0,094	-0,085
320,925	335,794	-0,167	-0,223
321,939	28,338	-0,115	-0,067
322,954	5,182	-0,124	-0,063
323,968	800,000	-0,051	0,119
324,983	800,000	-0,064	0,144
325,997	-120,107	-0,144	-0,017
327,012	291,784	-0,122	-0,152
328,027	252,220	-0,174	-0,204
329,041	164,531	-0,124	-0,120
330,056	800,000	-0,020	-0,046
331,070	274,570	-0,152	-0,185
332,085	-34,192	-0,120	-0,045
333,100	800,000	-0,051	-0,141
334,114	-123,880	-0,127	-0,014
335,129	364,072	-0,107	-0,148
336,143	800,000	-0,064	-0,175
337,158	-26,320	-0,151	0,060
338,173	76,620	0,049	-0,035
339,187	-200,000	0,015	-0,051
340,202	175,708	-0,061	-0,061
341,216	-82,944	-0,158	0,035
342,231	92,303	-0,081	-0,063
343,246	129,572	-0,149	-0,130
344,260	-113,807	-0,202	-0,027
345,275	623,552	-0,051	-0,089
346,289	399,227	-0,083	0,120
347,304	3,865	-0,087	-0,043
348,319	800,000	-0,098	-0,221
349,333	800,000	-0,071	-0,145
350,348	542,121	-0,056	-0,092
351,362	42,997	-0,173	-0,108
352,377	-114,678	-0,108	-0,014
353,392	-200,000	0,021	-0,064
354,406	208,053	-0,114	-0,122
355,421	206,022	1306,157	1390,486
356,435	158,429	1465,787	1390,946
