DTS Sentinel unit serial number:	SN410029Multiplexer serial number:	ORYXHardware model number:	OX2-SRSoftware version number:	ORYX F/W v4,00 Oryx Data Collector v3.7.2.0data status	okinstallation	B3 Nyhavnadifferential loss correction	single-endedforward channel	channel 1reverse channel	N/Adate	2023/12/05time	03:12:30forward acquisition time	300,00reverse acquisition time	0,00gamma	499,1914k internal	0,3201k external	0,3201temperature offset calibration	1,0000default loss term (dB/km)	0,3820temperature slope calibration	1,0000multiplexer offset coefficient	1,0000multiplexer slope coefficient	1,0000fibre end	0,00T internal ref (°C)	14,06T ext. ref 1 (°C)	-0,66T ext. ref 2 (°C)	-0,69length (m)	temperature (°C)	Stokes	anti-Stokes-744,400	62,528	-0,208	-0,151
-743,385	-200,000	0,033	0,296
-742,371	800,000	-0,063	-0,200
-741,356	-200,000	-0,019	0,289
-740,342	-129,277	-0,193	-0,019
-739,327	-200,000	0,065	0,362
-738,312	236,783	-0,227	-0,273
-737,298	800,000	-0,063	0,131
-736,283	189,557	-0,121	-0,132
-735,269	800,000	0,078	0,195
-734,254	121,936	-0,243	-0,220
-733,239	39,257	-0,303	0,197
-732,225	240,330	-0,126	-0,153
-731,210	-40,829	0,018	0,007
-730,196	-200,000	-0,036	0,145
-729,181	-200,000	-0,012	0,116
-728,167	-40,362	0,057	-0,022
-727,152	93,363	-0,071	-0,059
-726,137	55,512	-0,063	0,044
-725,123	59,846	0,009	0,006
-724,108	-200,000	-0,006	-0,144
-723,094	800,000	-0,014	-0,032
-722,079	-200,000	0,006	-0,058
-721,064	-200,000	0,021	-0,131
-720,050	362,521	-0,014	0,020
-719,035	800,000	0,029	-0,083
-718,021	349,441	-0,095	-0,137
-717,006	109,124	-0,075	-0,066
-715,991	-23,157	-0,144	-0,063
-714,977	162,007	-0,050	0,051
-713,962	77,278	0,055	-0,042
-712,948	145,340	-0,086	-0,083
-711,933	-200,000	0,003	-0,026
-710,918	-84,662	-0,237	-0,054
-709,904	-36,468	-0,048	0,019
-708,889	384,897	0,076	-0,114
-707,875	-111,750	-0,048	-0,007
-706,860	-152,281	0,078	-0,004
-705,845	-200,000	0,009	-0,139
-704,831	-181,020	-0,110	-0,002
-703,816	-200,000	0,025	0,093
-702,802	-124,360	-0,090	0,010
-701,787	-200,000	-0,005	0,032
-700,772	-158,557	-0,112	0,005
-699,758	237,011	-0,024	-0,028
-698,743	434,609	-0,077	0,122
-697,729	733,680	0,049	0,095
-696,714	-87,454	-0,076	0,016
-695,699	-200,000	0,004	0,027
-694,685	332,591	-0,094	0,133
-693,670	-200,000	-0,008	-0,094
-692,656	800,000	0,049	-0,113
-691,641	-200,000	0,028	0,129
-690,627	-200,000	-0,014	0,061
-689,612	-200,000	0,013	0,069
-688,597	-96,264	0,099	0,019
-687,583	-90,696	0,097	0,020
-686,568	678,856	-0,056	-0,106
-685,554	-109,298	-0,148	-0,023
-684,539	-103,523	0,135	-0,023
-683,524	78,912	-0,213	0,165
-682,510	42,872	0,120	-0,079
-681,495	72,133	0,007	-0,006
-680,481	-200,000	-0,024	-0,082
-679,466	-200,000	0,003	0,014
-678,451	-200,000	-0,022	-0,090
-677,437	225,637	-0,049	-0,058
-676,422	-122,252	0,130	0,015
-675,408	-200,000	0,045	-0,155
-674,393	52,941	-0,141	-0,098
-673,378	11,021	0,121	-0,067
-672,364	-200,000	0,012	-0,043
-671,349	-200,000	0,003	-0,097
-670,335	38,151	-0,098	0,063
-669,320	790,056	0,024	0,048
-668,305	-71,278	-0,186	0,050
-667,291	-63,850	-0,078	-0,023
-666,276	97,480	-0,042	-0,035
-665,262	-135,773	-0,071	-0,006
-664,247	338,830	-0,063	0,089
-663,232	-90,853	-0,115	-0,024
-662,218	116,074	0,029	-0,026
-661,203	800,000	-0,029	-0,090
-660,189	46,987	0,076	0,051
-659,174	-139,073	-0,102	0,008
-658,159	800,000	-0,022	-0,068
-657,145	-61,188	-0,105	-0,032
-656,130	631,576	0,045	0,082
-655,116	800,000	0,082	0,177
-654,101	54,077	0,033	-0,023
-653,086	512,169	0,060	0,101
-652,072	61,850	-0,024	0,017
-651,057	-200,000	0,002	-0,127
-650,043	-124,481	-0,222	-0,025
-649,028	-200,000	-0,018	-0,095
-648,014	-200,000	-0,013	-0,080
-646,999	172,176	0,132	-0,137
-645,984	113,410	0,086	0,075
-644,970	96,419	-0,129	-0,107
-643,955	736,363	-0,032	-0,061
-642,941	548,094	-0,048	-0,083
-641,926	-200,000	0,019	-0,116
-640,911	-65,619	0,118	0,034
-639,897	54,255	-0,113	0,079
-638,882	495,379	0,052	0,087
-637,868	64,239	0,059	-0,043
-636,853	-200,000	-0,000	-0,046
-635,838	-96,691	-0,121	0,023
-634,824	-28,960	-0,162	0,067
-633,809	13,711	0,096	-0,054
-632,795	622,451	0,002	-0,004
-631,780	-63,164	0,118	-0,035
-630,765	17,672	-0,099	0,057
-629,751	-90,139	-0,145	-0,030
-628,736	452,813	0,063	-0,102
-627,722	33,729	-0,083	0,052
-626,707	10,438	0,032	0,018
-625,692	14,823	0,150	-0,085
-624,678	-58,335	0,054	0,017
-623,663	32,943	0,096	0,060
-622,649	800,000	0,052	-0,113
-621,634	-28,044	-0,087	-0,036
-620,619	259,535	-0,092	-0,115
-619,605	800,000	-0,012	0,033
-618,590	-200,000	-0,010	-0,037
-617,576	-155,763	0,049	0,002
-616,561	12,013	0,005	0,003
-615,546	57,182	0,056	-0,039
-614,532	-27,738	-0,036	0,015
-613,517	-200,000	0,002	0,024
-612,503	800,000	-0,056	-0,135
-611,488	-40,461	-0,111	0,041
-610,474	-114,972	0,064	0,009
-609,459	-163,534	0,082	0,003
-608,444	737,886	-0,044	-0,086
-607,430	-97,296	-0,092	-0,017
-606,415	-192,580	-0,098	-0,001
-605,401	174,525	0,049	0,051
-604,386	-101,741	-0,053	-0,009
-603,371	18,148	0,070	0,040
-602,357	-66,412	-0,135	0,038
-601,342	-200,000	0,018	0,223
-600,328	136,966	-0,026	-0,025
-599,313	436,985	0,029	-0,046
-598,298	-200,000	-0,012	0,074
-597,284	273,641	0,050	0,065
-596,269	800,000	0,052	0,149
-595,255	-7,254	-0,083	0,041
-594,240	793,139	-0,051	-0,103
-593,225	-77,833	-0,113	-0,028
-592,211	237,031	0,060	-0,072
-591,196	-200,000	0,010	-0,101
-590,182	-34,277	-0,016	-0,006
-589,167	-200,000	0,012	0,061
-588,152	-121,760	-0,100	0,012
-587,138	535,315	-0,056	-0,096
-586,123	409,418	0,076	-0,116
-585,109	63,783	-0,072	-0,052
-584,094	82,618	0,062	-0,049
-583,079	5,764	0,070	-0,037
-582,065	800,000	0,033	0,090
-581,050	800,000	0,073	0,150
-580,036	-200,000	0,001	0,018
-579,021	186,158	-0,144	-0,155
-578,006	90,739	-0,184	-0,149
-576,992	-0,942	-0,018	0,009
-575,977	276,958	-0,088	0,114
-574,963	-122,922	-0,130	-0,015
-573,948	435,807	0,092	0,146
-572,934	32,381	-0,073	0,045
-571,919	333,890	-0,072	-0,101
-570,904	-200,000	-0,020	0,129
-569,890	-68,742	0,039	-0,011
-568,875	-82,068	0,128	0,030
-567,861	488,021	0,109	0,181
-566,846	800,000	0,013	0,029
-565,831	369,420	-0,062	0,091
-564,817	150,522	-0,031	0,031
-563,802	-200,000	0,014	-0,098
-562,788	295,432	-0,089	0,118
-561,773	-134,987	-0,037	0,003
-560,758	58,058	0,094	-0,066
-559,744	-15,352	-0,093	-0,043
-558,729	174,151	-0,033	0,035
-557,715	800,000	0,034	0,067
-556,700	206,407	-0,069	-0,078
-555,685	-65,068	-0,087	-0,025
-554,671	-91,647	-0,101	-0,021
-553,656	-200,000	-0,013	0,101
-552,642	108,553	-0,093	-0,081
-551,627	-76,068	0,047	0,012
-550,612	251,549	-0,043	-0,053
-549,598	147,256	0,018	0,018
-548,583	-200,000	-0,004	-0,105
-547,569	-77,538	-0,160	0,040
-546,554	800,000	-0,039	0,102
-545,539	320,357	0,063	0,086
-544,525	113,591	-0,050	-0,044
-543,510	-48,420	0,114	-0,040
-542,496	361,450	-0,094	-0,137
-541,481	80,995	-0,092	-0,072
-540,466	-96,406	0,099	-0,019
-539,452	800,000	-0,036	0,094
-538,437	-67,741	0,082	0,023
-537,423	327,353	-0,101	0,140
-536,408	-113,390	0,109	0,015
-535,393	406,448	-0,056	-0,086
-534,379	386,652	-0,109	-0,162
-533,364	264,222	0,070	-0,089
-532,350	-200,000	0,002	0,060
-531,335	-200,000	-0,003	0,047
-530,321	800,000	0,049	0,138
-529,306	547,943	-0,010	-0,017
-528,291	-174,640	-0,013	-0,000
-527,277	73,729	-0,085	-0,064
-526,262	-200,000	-0,042	-0,153
-525,248	-200,000	0,014	0,135
-524,233	-26,045	-0,044	0,018
-523,218	-200,000	0,007	0,125
-522,204	201,089	-0,057	0,063
-521,189	-154,205	-0,135	-0,006
-520,175	-200,000	0,006	-0,038
-519,160	-148,551	-0,084	0,005
-518,145	-139,330	-0,067	0,005
-517,131	-200,000	-0,010	0,103
-516,116	198,214	-0,028	-0,031
-515,102	-69,670	0,140	0,038
-514,087	646,180	-0,052	-0,097
-513,072	-200,000	-0,014	-0,115
-512,058	-134,383	-0,092	-0,008
-511,043	160,879	0,089	-0,090
-510,029	-6,844	-0,127	0,062
-509,014	-200,000	-0,020	-0,078
-507,999	595,956	0,054	0,096
-506,985	377,896	-0,036	-0,053
-505,970	11,232	-0,101	0,055
-504,956	-97,568	-0,041	0,008
-503,941	-200,000	0,009	-0,063
-502,926	-87,638	0,120	0,026
-501,912	800,000	0,058	-0,128
-500,897	-200,000	-0,150	0,000
-499,883	-55,665	-0,107	-0,034
-498,868	15,950	-0,042	-0,024
-497,853	199,641	-0,054	0,060
-496,839	-200,000	-0,017	-0,164
-495,824	-200,000	-0,005	0,078
-494,810	-114,359	0,120	-0,016
-493,795	83,574	0,072	-0,057
-492,781	-27,008	0,102	-0,043
-491,766	132,128	-0,055	-0,051
-490,751	158,106	-0,039	-0,039
-489,737	-200,000	0,022	-0,100
-488,722	56,961	0,021	-0,015
-487,708	272,483	-0,044	-0,056
-486,693	267,519	-0,047	0,060
-485,678	144,796	0,109	0,105
-484,664	-136,039	-0,142	-0,012
-483,649	-154,375	0,044	-0,002
-482,635	800,000	-0,069	-0,144
-481,620	-18,842	0,090	0,040
-480,605	-200,000	-0,039	0,152
-479,591	228,077	-0,072	0,084
-478,576	-39,804	-0,021	-0,008
-477,562	800,000	0,026	-0,061
-476,547	-200,000	-0,001	0,025
-475,532	800,000	-0,018	-0,046
-474,518	800,000	-0,029	0,068
-473,503	734,278	0,089	0,172
-472,489	354,568	0,033	-0,047
-471,474	6,198	0,008	0,004
-470,459	-200,000	0,041	-0,147
-469,445	-200,000	0,023	-0,090
-468,430	-153,237	-0,065	-0,003
-467,416	-200,000	0,000	-0,143
-466,401	40,343	0,059	0,038
-465,386	800,000	0,055	0,154
-464,372	-200,000	0,025	-0,127
-463,357	-139,290	0,067	-0,005
-462,343	27,302	-0,114	0,069
-461,328	289,710	-0,056	0,073
-460,313	27,508	0,060	-0,036
-459,299	-95,736	-0,048	0,009
-458,284	-62,849	0,075	0,022
-457,270	-200,000	-0,019	0,122
-456,255	800,000	-0,050	0,130
-455,241	-200,000	-0,035	-0,131
-454,226	-152,441	0,102	0,005
-453,211	178,454	-0,079	0,084
-452,197	-104,027	0,123	-0,020
-451,182	-55,555	0,029	0,009
-450,168	-200,000	-0,000	0,108
-449,153	-200,000	0,017	-0,056
-448,138	511,494	-0,019	0,033
-447,124	-129,094	-0,019	0,002
-446,109	-110,632	0,054	0,008
-445,095	520,638	0,030	0,050
-444,080	800,000	0,013	-0,029
-443,065	51,356	0,054	0,037
-442,051	145,319	-0,052	0,050
-441,036	8,015	-0,053	-0,029
-440,022	-200,000	-0,004	-0,221
-439,007	-200,000	-0,007	-0,112
-437,992	-200,000	0,011	0,190
-436,978	-67,129	-0,059	0,017
-435,963	-200,000	0,003	0,032
-434,949	800,000	0,042	-0,090
-433,934	-165,209	-0,093	-0,003
-432,919	-200,000	-0,021	0,071
-431,905	338,949	-0,044	0,062
-430,890	800,000	0,023	0,056
-429,876	-196,015	-0,020	0,000
-428,861	-200,000	0,001	-0,037
-427,846	-200,000	-0,014	-0,101
-426,832	-76,852	0,101	-0,025
-425,817	336,255	-0,076	0,107
-424,803	-32,761	-0,053	0,021
-423,788	696,853	-0,017	0,032
-422,773	-200,000	-0,021	-0,099
-421,759	800,000	-0,037	0,079
-420,744	-200,000	-0,029	0,102
-419,730	-200,000	-0,017	-0,075
-418,715	-200,000	0,033	-0,115
-417,701	-200,000	0,039	0,136
-416,686	-200,000	-0,014	0,103
-415,671	467,897	-0,033	0,053
-414,657	-121,260	-0,028	-0,003
-413,642	-200,000	0,026	0,103
-412,628	43,417	0,014	0,009
-411,613	143,442	-0,065	-0,062
-410,598	12,560	-0,077	0,042
-409,584	252,223	0,071	0,088
-408,569	-200,000	0,016	-0,067
-407,555	-200,000	-0,005	-0,071
-406,540	443,552	0,028	-0,044
-405,525	-67,293	-0,113	-0,032
-404,511	-124,503	0,030	-0,003
-403,496	179,134	-0,057	-0,060
-402,482	-175,283	-0,148	-0,003
-401,467	-139,458	0,081	0,006
-400,452	136,825	-0,086	-0,080
-399,438	-78,041	0,129	0,032
-398,423	-53,196	-0,057	0,019
-397,409	-200,000	0,007	0,068
-396,394	-200,000	0,047	0,184
-395,379	42,906	-0,112	0,073
-394,365	51,320	-0,107	0,073
-393,350	-200,000	-0,013	0,105
-392,336	-85,845	0,174	0,038
-391,321	-67,463	0,049	0,014
-390,306	426,259	-0,047	-0,072
-389,292	800,000	0,004	0,011
-388,277	-20,514	-0,052	-0,023
-387,263	343,011	-0,020	0,029
-386,248	106,377	-0,112	0,095
-385,233	132,530	-0,052	-0,048
-384,219	-200,000	-0,006	-0,026
-383,204	-69,143	-0,099	-0,027
-382,190	273,211	0,048	-0,061
-381,175	-200,000	0,004	0,132
-380,160	-120,679	0,221	-0,027
-379,146	593,667	0,060	0,106
-378,131	-69,146	0,082	-0,022
-377,117	62,489	0,108	-0,077
-376,102	-125,385	-0,137	0,015
-375,088	56,299	-0,084	0,059
-374,073	-200,000	-0,014	0,130
-373,058	124,214	0,102	0,092
-372,044	59,595	-0,081	0,057
-371,029	108,367	0,099	0,085
-370,015	-200,000	-0,031	0,126
-369,000	78,021	-0,112	-0,086
-367,985	800,000	-0,011	-0,025
-366,971	-19,915	0,019	-0,008
-365,956	-200,000	0,015	0,063
-364,942	-175,916	0,087	0,002
-363,927	-95,557	0,117	0,022
-362,912	-75,546	-0,032	-0,008
-361,898	800,000	-0,035	-0,075
-360,883	159,816	-0,094	0,093
-359,869	-75,818	0,048	-0,012
-358,854	-96,743	0,083	-0,016
-357,839	-200,000	-0,002	-0,039
-356,825	-66,705	-0,107	-0,030
-355,810	800,000	0,052	0,123
-354,796	138,853	0,013	-0,012
-353,781	139,721	0,069	-0,065
-352,766	-62,881	-0,053	-0,016
-351,752	136,571	0,008	0,007
-350,737	-200,000	-0,003	0,071
-349,723	800,000	0,052	-0,144
-348,708	-59,383	-0,084	0,026
-347,693	607,888	0,040	-0,071
-346,679	-200,000	-0,008	-0,034
-345,664	-200,000	0,031	-0,118
-344,650	43,687	0,044	0,029
-343,635	800,000	-0,014	0,043
-342,620	-173,890	0,120	-0,002
-341,606	-12,975	0,111	0,052
-340,591	-200,000	-0,010	-0,073
-339,577	-130,132	-0,180	-0,017
-338,562	800,000	0,069	-0,207
-337,548	-76,220	0,055	0,014
-336,533	150,345	-0,068	-0,066
-335,518	-122,631	0,233	-0,027
-334,504	-200,000	0,047	-0,177
-333,489	471,259	0,031	-0,051
-332,475	-117,956	-0,044	0,006
-331,460	800,000	-0,019	-0,049
-330,445	800,000	-0,003	0,006
-329,431	-47,549	0,088	-0,031
-328,416	56,088	0,074	0,052
-327,402	-170,843	-0,047	-0,001
-326,387	193,502	-0,068	-0,074
-325,372	-72,990	-0,142	0,037
-324,358	800,000	-0,045	-0,098
-323,343	800,000	-0,058	0,140
-322,329	-134,745	0,170	-0,015
-321,314	-200,000	-0,022	-0,073
-320,299	-200,000	0,003	0,114
-319,285	85,946	0,154	0,121
-318,270	-200,000	0,001	-0,085
-317,256	800,000	-0,075	-0,207
-316,241	-156,576	0,070	0,003
-315,226	279,120	0,047	-0,060
-314,212	800,000	-0,039	-0,092
-313,197	107,902	0,120	-0,102
-312,183	800,000	0,053	0,115
-311,168	-200,000	-0,005	-0,022
-310,153	-103,308	0,034	-0,006
-309,139	-200,000	0,002	-0,024
-308,124	800,000	-0,031	0,064
-307,110	232,688	0,102	0,120
-306,095	111,896	-0,070	0,061
-305,080	435,226	0,033	-0,051
-304,066	3,440	0,112	-0,058
-303,051	800,000	0,016	-0,034
-302,037	-34,814	-0,068	0,027
-301,022	-200,000	0,003	-0,042
-300,008	67,702	-0,031	0,022
-298,993	-31,048	0,216	0,087
-297,978	231,536	0,008	-0,009
-296,964	-60,685	0,102	0,031
-295,949	-80,699	0,092	-0,022
-294,935	315,717	-0,021	-0,028
-293,920	-85,464	-0,050	-0,011
-292,905	-41,744	0,053	0,019
-291,891	236,741	0,013	-0,016
-290,876	90,714	0,066	0,053
-289,862	-200,000	-0,003	0,049
-288,847	-59,971	0,074	-0,023
-287,832	800,000	0,030	-0,087
-286,818	-8,040	0,094	0,045
-285,803	-107,638	-0,056	0,009
-284,789	-83,733	0,086	0,019
-283,774	-168,946	0,099	-0,003
-282,759	360,568	0,082	-0,118
-281,745	472,808	0,048	-0,077
-280,730	-94,500	-0,044	-0,009
-279,716	685,126	0,039	-0,073
-278,701	-200,000	-0,007	0,055
-277,686	-66,236	0,058	-0,016
-276,672	-200,000	-0,003	0,044
-275,657	-200,000	0,003	-0,124
-274,643	-10,146	0,025	0,012
-273,628	238,825	-0,035	0,042
-272,613	-200,000	-0,004	-0,081
-271,599	86,634	-0,100	0,079
-270,584	41,789	-0,114	0,073
-269,570	-200,000	0,042	0,168
-268,555	46,508	0,150	0,099
-267,540	40,338	-0,052	-0,033
-266,526	42,161	-0,143	-0,092
-265,511	-140,121	-0,017	-0,001
-264,497	-53,217	0,046	-0,015
-263,482	-173,523	0,103	0,002
-262,467	-200,000	-0,010	0,082
-261,453	187,206	-0,033	-0,035
-260,438	69,896	0,033	0,024
-259,424	264,211	-0,060	-0,075
-258,409	-129,304	-0,062	-0,006
-257,395	-80,045	0,106	-0,025
-256,380	131,703	-0,072	-0,066
-255,365	651,623	-0,014	-0,026
-254,351	-90,194	-0,041	0,008
-253,336	-200,000	-0,029	-0,144
-252,322	-200,000	0,002	-0,170
-251,307	-200,000	-0,021	0,085
-250,292	127,244	0,066	0,059
-249,278	-200,000	0,018	-0,096
-248,263	185,735	0,057	0,061
-247,249	-110,463	0,163	0,024
-246,234	118,549	-0,062	-0,054
-245,219	69,316	0,086	-0,063
-244,205	-200,000	-0,036	-0,133
-243,190	53,219	0,067	0,045
-242,176	87,196	0,072	-0,057
-241,161	-101,888	0,137	0,023
-240,146	11,270	0,103	-0,056
-239,132	-168,050	-0,064	0,002
-238,117	57,950	0,023	0,016
-237,103	-200,000	-0,042	0,188
-236,088	800,000	-0,038	0,089
-235,073	-174,729	0,121	0,002
-234,059	11,130	-0,019	0,010
-233,044	-97,556	0,224	-0,041
-232,030	-200,000	-0,024	-0,095
-231,015	800,000	0,053	-0,116
-230,000	261,821	-0,055	-0,068
-228,986	-191,535	0,048	0,000
-227,971	800,000	0,057	0,126
-226,957	-131,882	0,114	-0,010
-225,942	-57,850	0,102	-0,031
-224,927	291,192	0,008	0,011
-223,913	800,000	0,024	-0,074
-222,898	164,705	0,089	-0,090
-221,884	800,000	0,064	-0,132
-220,869	-200,000	0,032	-0,113
-219,855	-93,085	-0,046	0,009
-218,840	85,046	-0,089	-0,069
-217,825	105,666	-0,145	0,122
-216,811	-200,000	-0,067	0,212
-215,796	-108,122	-0,137	-0,021
-214,782	325,421	-0,031	0,043
-213,767	-200,000	0,015	-0,086
-212,752	446,419	-0,025	0,040
-211,738	-67,520	0,038	-0,011
-210,723	-200,000	0,018	-0,118
-209,709	481,117	0,041	0,067
-208,694	-200,000	0,005	-0,043
-207,679	155,441	-0,020	-0,019
-206,665	-200,000	-0,003	0,016
-205,650	708,567	0,047	0,089
-204,636	169,392	0,154	0,157
-203,621	-200,000	0,007	0,087
-202,606	-200,000	0,030	-0,121
-201,592	800,000	0,037	0,080
-200,577	73,824	-0,136	0,102
-199,563	-109,615	-0,038	0,006
-198,548	-200,000	0,008	-0,065
-197,533	168,067	0,065	0,066
-196,519	-77,473	0,064	0,016
-195,504	-200,000	-0,032	0,127
-194,490	-34,816	-0,126	0,049
-193,475	-70,241	-0,117	-0,031
-192,460	-102,609	0,019	0,003
-191,446	397,389	0,024	0,035
-190,431	59,590	0,046	0,032
-189,417	416,712	0,028	-0,043
-188,402	-26,832	-0,198	-0,082
-187,387	117,968	0,051	-0,044
-186,373	614,831	-0,024	0,044
-185,358	15,791	-0,042	-0,023
-184,344	-96,487	0,097	-0,018
-183,329	293,875	-0,028	-0,037
-182,315	496,543	0,023	-0,037
-181,300	-200,000	0,005	0,018
-180,285	39,151	-0,046	0,029
-179,271	80,115	-0,067	-0,051
-178,256	61,038	0,031	0,022
-177,242	800,000	0,021	0,050
-176,227	800,000	0,030	0,064
-175,212	202,467	-0,089	0,097
-174,198	625,444	0,037	0,066
-173,183	356,648	0,105	0,149
-172,169	-27,708	0,036	0,015
-171,154	-100,463	0,048	-0,008
-170,139	-200,000	-0,021	0,126
-169,125	186,077	0,095	0,100
-168,110	-109,407	0,043	0,006
-167,096	165,476	-0,100	-0,100
-166,081	800,000	0,012	-0,026
-165,066	-15,177	-0,095	0,043
-164,052	-18,991	0,060	0,027
-163,037	15,362	-0,037	0,020
-162,023	-200,000	-0,010	0,044
-161,008	-200,000	0,003	-0,020
-159,993	-26,135	0,066	-0,028
-158,979	191,025	0,030	0,032
-157,964	800,000	-0,018	-0,053
-156,950	488,827	0,030	0,049
-155,935	-20,106	-0,096	0,042
-154,920	800,000	0,023	0,050
-153,906	-200,000	-0,011	0,058
-152,891	-27,037	-0,124	-0,051
-151,877	800,000	0,040	-0,086
-150,862	-149,913	-0,090	-0,005
-149,847	-200,000	0,004	0,055
-148,833	280,684	0,031	-0,039
-147,818	-69,246	0,093	-0,025
-146,804	30,223	-0,139	-0,084
-145,789	411,449	0,031	-0,047
-144,775	-200,000	0,013	0,076
-143,760	800,000	-0,042	0,101
-142,745	-24,648	-0,055	-0,023
-141,731	45,511	-0,099	-0,065
-140,716	-1,578	0,110	0,055
-139,702	-200,000	-0,005	0,063
-138,687	390,992	-0,022	0,033
-137,672	-200,000	0,005	0,097
-136,658	-78,022	-0,068	-0,017
-135,643	6,726	-0,144	-0,076
-134,629	12,078	-0,037	-0,020
-133,614	-200,000	-0,003	0,019
-132,599	-5,849	-0,062	0,030
-131,585	134,424	0,042	-0,039
-130,570	800,000	0,049	-0,119
-129,556	-164,560	0,119	-0,004
-128,541	297,440	-0,017	-0,022
-127,526	-200,000	-0,019	-0,071
-126,512	-13,042	0,066	-0,031
-125,497	800,000	-0,059	0,136
-124,483	302,381	-0,127	0,167
-123,468	334,092	-0,018	0,025
-122,453	-200,000	0,030	-0,100
-121,439	-121,320	-0,057	-0,007
-120,424	-53,021	-0,046	0,015
-119,410	73,356	0,084	0,063
-118,395	-73,837	-0,089	-0,023
-117,380	180,125	0,016	-0,017
-116,366	142,682	0,056	0,053
-115,351	44,914	0,032	-0,021
-114,337	158,925	-0,159	-0,157
-113,322	-200,000	-0,008	-0,092
-112,307	800,000	-0,038	0,077
-111,293	145,564	0,054	0,052
-110,278	59,612	0,069	-0,049
-109,264	330,801	-0,037	-0,050
-108,249	-52,020	-0,048	-0,016
-107,234	151,116	0,123	-0,118
-106,220	800,000	-0,038	0,079
-105,205	372,254	0,058	0,084
-104,191	-67,052	-0,025	-0,007
-103,176	538,912	-0,036	0,062
-102,162	139,921	-0,112	0,105
-101,147	-62,929	0,122	0,036
-100,132	-200,000	-0,036	0,159
-99,118	-200,000	-0,008	0,161
-98,103	762,972	0,026	0,050
-97,089	-100,573	0,041	-0,007
-96,074	248,163	0,028	0,033
-95,059	-76,013	-0,036	-0,009
-94,045	98,507	0,046	0,037
-93,030	-130,685	-0,015	-0,001
-92,016	-200,000	-0,003	-0,107
-91,001	-74,138	0,145	-0,037
-89,986	523,096	0,086	0,144
-88,972	140,576	0,040	0,038
-87,957	3,323	0,089	-0,046
-86,943	468,234	-0,041	0,065
-85,928	-75,014	0,029	0,007
-84,913	348,038	0,138	-0,193
-83,899	-80,491	-0,073	-0,017
-82,884	209,111	-0,043	-0,048
-81,870	458,447	0,018	-0,029
-80,855	-113,902	0,121	-0,016
-79,840	-91,187	0,059	0,012
-78,826	-200,000	-0,008	0,075
-77,811	-162,426	-0,189	-0,007
-76,797	246,499	0,048	0,057
-75,782	343,840	-0,055	-0,077
-74,767	10,676	-0,101	0,055
-73,753	-200,000	-0,039	0,150
-72,738	-151,822	0,171	0,009
-71,724	154,996	0,063	-0,061
-70,709	91,706	0,021	-0,016
-69,694	369,815	-0,025	0,036
-68,680	129,615	-0,022	-0,020
-67,665	263,508	0,120	-0,148
-66,651	60,959	0,069	0,048
-65,636	-110,483	-0,113	-0,016
-64,622	70,334	0,069	0,050
-63,607	531,262	-0,059	-0,100
-62,592	-131,203	-0,019	0,002
-61,578	-200,000	-0,008	0,055
-60,563	-2,249	0,056	-0,028
-59,549	800,000	0,072	0,178
-58,534	-44,201	-1,556	-0,550
-57,519	351,058	-1,430	-2,009
-56,505	-200,000	-0,538	-4,560
-55,490	177,471	1,000	1,033
-54,476	800,000	4,964	11,349
-53,461	-200,000	18,894	306,381
-52,446	800,000	737,178	2297,318
-51,432	567,836	1653,345	2854,147
-50,417	78,923	1670,397	1264,542
-49,403	21,993	1543,131	888,634
-48,388	15,934	1466,084	814,827
-47,373	17,711	1455,854	817,692
-46,359	16,829	1446,169	807,992
-45,344	14,199	1441,691	792,868
-44,330	14,114	1439,574	791,263
-43,315	14,089	1437,939	790,212
-42,300	14,133	1436,176	789,424
-41,286	14,149	1435,083	788,870
-40,271	14,101	1433,775	787,889
-39,257	14,071	1432,728	787,139
-38,242	14,152	1431,264	786,688
-37,227	14,212	1429,973	786,233
-36,213	14,146	1428,812	785,252
-35,198	14,141	1427,591	784,526
-34,184	14,211	1426,714	784,342
-33,169	14,129	1425,286	783,138
-32,154	14,198	1424,131	782,800
-31,140	14,177	1422,908	781,998
-30,125	14,213	1421,785	781,519
-29,111	14,166	1420,648	780,644
-28,096	14,150	1419,546	779,928
-27,082	14,095	1418,471	779,047
-26,067	14,058	1417,605	778,370
-25,052	14,065	1416,433	777,729
-24,038	14,055	1415,288	777,020
-23,023	14,075	1414,453	776,626
-22,009	14,068	1413,458	776,013
-20,994	14,048	1412,460	775,340
-19,979	14,064	1411,533	774,876
-18,965	14,055	1410,820	774,413
-17,950	14,022	1409,777	773,654
-16,936	14,046	1409,002	773,313
-15,921	14,000	1407,686	772,342
-14,906	13,989	1406,832	771,791
-13,892	13,980	1405,937	771,228
-12,877	13,958	1405,007	770,584
-11,863	14,013	1404,011	770,264
-10,848	14,000	1403,060	769,654
-9,833	13,994	1402,203	769,124
-8,819	13,933	1401,418	768,380
-7,804	13,941	1400,304	767,773
-6,790	13,936	1399,289	767,166
-5,775	13,901	1398,216	766,384
-4,760	13,926	1397,426	766,034
-3,746	13,916	1396,617	765,514
-2,731	13,903	1395,905	765,033
-1,717	13,863	1395,101	764,380
-0,702	13,896	1393,203	763,461
0,313	17,651	1311,073	735,883
1,327	34,035	705,492	433,907
2,342	52,104	124,006	83,467
3,356	-0,242	16,672	8,359
4,371	6,981	3,257	1,712
5,386	-33,313	0,622	0,242
6,400	-200,000	-0,017	0,201
7,415	33,932	-0,286	-0,175
8,429	52,603	-0,227	-0,153
9,444	-95,691	-0,421	-0,079
10,459	3,218	-0,150	-0,077
11,473	77,811	-0,248	-0,187
12,488	230,197	-0,221	-0,256
13,502	554,537	-0,178	-0,303
14,517	1,279	-0,476	-0,241
15,531	139,828	-0,270	-0,252
16,546	144,526	-0,332	-0,314
17,561	124,703	-0,385	-0,343
18,575	-47,670	-0,260	-0,089
19,590	-54,297	-0,133	-0,042
20,604	-177,561	-0,301	-0,005
21,619	-107,698	-0,527	-0,080
22,634	58,900	-0,500	-0,347
23,648	160,970	-0,349	-0,345
24,663	143,483	-0,325	-0,305
25,677	11,385	-0,372	-0,201
26,692	-4,077	-0,403	-0,197
27,707	74,293	-0,345	-0,256
28,721	75,473	-0,438	-0,326
29,736	20,925	-0,412	-0,235
30,750	64,627	-0,420	-0,298
31,765	81,112	-0,388	-0,296
32,780	19,924	-0,399	-0,226
33,794	164,525	-0,311	-0,309
34,809	131,102	-0,281	-0,254
35,823	84,318	-0,289	-0,223
36,838	23,451	-0,436	-0,252
37,853	169,752	-0,331	-0,334
38,867	102,106	-0,343	-0,283
39,882	78,208	-0,326	-0,245
40,896	216,207	-0,232	-0,260
41,911	-27,790	-0,338	-0,138
42,926	-4,852	-0,366	-0,177
43,940	23,866	-0,304	-0,176
44,955	276,332	-0,248	-0,311
45,969	195,623	-0,352	-0,378
46,984	74,235	-0,356	-0,263
47,999	-138,233	-0,218	-0,017
49,013	-6,103	-0,443	-0,213
50,028	-45,228	-0,510	-0,177
51,042	205,510	-0,326	-0,357
52,057	166,299	-0,322	-0,321
53,071	35,944	-0,439	-0,271
54,086	55,330	-0,338	-0,230
55,101	67,687	-0,293	-0,211
56,115	-9,118	-0,432	-0,203
57,130	66,426	-0,356	-0,255
58,144	41,364	-0,318	-0,202
59,159	18,275	-0,407	-0,228
60,174	259,598	-0,287	-0,350
61,188	160,472	-0,285	-0,280
62,203	61,710	-0,294	-0,206
63,217	38,311	-0,371	-0,232
64,232	116,967	-0,291	-0,252
65,247	45,273	-0,365	-0,237
66,261	108,968	-0,293	-0,246
67,276	41,061	-0,425	-0,270
68,290	117,289	-0,329	-0,285
69,305	-39,086	-0,238	-0,088
70,320	122,776	-0,211	-0,185
71,334	452,712	-0,259	-0,404
72,349	38,493	-0,331	-0,207
73,363	169,390	-0,188	-0,189
74,378	394,597	-0,290	-0,426
75,393	219,714	-0,239	-0,269
76,407	-11,987	-0,352	-0,161
77,422	32,332	-0,293	-0,178
78,436	-70,853	-0,326	-0,086
79,451	-100,115	-0,328	-0,057
80,466	136,117	-0,271	-0,248
81,480	-24,776	-0,379	-0,157
82,495	4,860	-0,279	-0,144
83,509	57,432	-0,358	-0,245
84,524	181,654	-0,202	-0,209
85,539	134,732	-0,277	-0,253
86,553	-25,458	-0,287	-0,119
87,568	-14,325	-0,219	-0,099
88,582	26,390	-0,360	-0,211
89,597	88,160	-0,323	-0,251
90,611	59,483	-0,230	-0,159
91,626	467,625	-0,100	-0,157
92,641	-38,179	-0,372	-0,138
93,655	229,889	-0,229	-0,263
94,670	52,318	-0,260	-0,174
95,684	144,133	-0,248	-0,232
96,699	355,658	-0,182	-0,255
97,714	-108,829	-0,358	-0,053
98,728	-1,102	-0,272	-0,134
99,743	-86,162	-0,169	-0,036
100,757	97,313	-0,207	-0,167
101,772	23,346	-0,275	-0,158
102,787	21,428	-0,316	-0,179
103,801	-44,129	-0,372	-0,130
104,816	-61,277	-0,359	-0,105
105,830	-168,078	-0,222	-0,006
106,845	52,409	-0,165	-0,110
107,860	-142,415	-0,200	-0,014
108,874	-46,365	-0,298	-0,102
109,889	214,256	-0,225	-0,250
110,903	25,297	-0,271	-0,157
111,918	35,197	-0,274	-0,168
112,933	-107,662	-0,221	0,033
113,947	363,285	-0,135	-0,191
114,962	129,952	-0,186	-0,166
115,976	-9,532	-0,394	-0,183
116,991	25,256	-0,310	-0,180
118,006	78,696	-0,250	-0,187
119,020	584,384	-0,119	-0,206
120,035	63,537	-0,135	-0,095
121,049	159,817	-0,197	-0,192
122,064	16,714	-0,325	-0,179
123,079	-115,161	-0,223	-0,029
124,093	-52,318	-0,268	-0,086
125,108	-49,171	-0,257	-0,085
126,122	144,327	-0,237	-0,222
127,137	18,357	-0,239	-0,133
128,151	23,627	-0,237	-0,136
129,166	340,174	-0,181	-0,248
130,181	232,798	-0,160	-0,184
131,195	48,294	-0,255	-0,166
132,210	182,076	-0,221	-0,228
133,224	162,538	-0,217	-0,213
134,239	-9,712	-0,159	-0,074
135,254	-139,383	-0,285	-0,021
136,268	-103,903	-0,242	-0,039
137,283	74,930	-0,273	-0,201
138,297	104,337	-0,320	-0,263
139,312	155,066	-0,318	-0,306
140,327	56,735	-0,228	-0,155
141,341	99,793	-0,291	-0,235
142,356	-50,457	-0,285	-0,094
143,370	12,441	-0,217	-0,117
144,385	-41,280	-0,323	-0,116
145,400	27,564	-0,230	-0,135
146,414	478,291	-0,240	-0,382
147,429	4,911	-0,310	-0,159
148,443	-86,697	-0,190	-0,040
149,458	585,518	-0,080	-0,138
150,473	284,927	-0,129	-0,163
151,487	-157,895	-0,276	0,011
152,502	-19,388	-0,261	-0,112
153,516	173,415	-0,153	-0,154
154,531	232,956	-0,168	-0,193
155,546	800,000	-0,156	-0,326
156,560	117,942	-0,281	-0,242
157,575	56,510	-0,178	-0,121
158,589	61,207	-0,246	-0,170
159,604	687,799	-0,135	-0,247
160,619	237,417	-0,262	-0,303
161,633	49,976	-0,255	-0,168
162,648	24,955	-0,247	-0,142
163,662	376,721	-0,082	-0,118
164,677	-94,713	-0,214	-0,040
165,692	-44,818	-0,312	-0,108
166,706	247,442	-0,184	-0,217
167,721	150,958	-0,186	-0,177
168,735	-36,114	-0,321	-0,120
169,750	-17,272	-0,201	-0,088
170,764	375,943	-0,146	-0,209
171,779	36,328	-0,212	-0,130
172,794	59,717	-0,191	-0,131
173,808	-76,724	-0,236	-0,057
174,823	239,638	-0,093	-0,108
175,837	100,339	-0,292	-0,236
176,852	153,499	-0,249	-0,237
177,867	111,115	-0,106	-0,089
178,881	87,834	-0,187	-0,144
179,896	-136,974	-0,297	-0,023
180,910	359,352	-0,195	-0,273
181,925	244,147	-0,166	-0,194
182,940	127,296	-0,311	-0,275
183,954	62,990	-0,201	-0,140
184,969	180,821	-0,186	-0,190
185,983	54,410	-0,226	-0,151
186,998	800,000	-0,027	-0,081
188,013	-63,373	-0,213	-0,061
189,027	-100,627	-0,345	-0,059
190,042	121,717	-0,118	-0,103
191,056	130,889	-0,311	-0,278
192,071	264,350	-0,121	-0,147
193,086	-57,581	-0,271	-0,082
194,100	47,678	-0,231	-0,149
195,115	-42,476	-0,223	-0,079
196,129	-92,660	-0,229	-0,044
197,144	240,350	-0,167	-0,194
198,159	54,512	-0,241	-0,161
199,173	147,136	-0,191	-0,179
200,188	342,384	-0,089	-0,122
201,202	295,942	-0,152	-0,194
202,217	12,427	-0,277	-0,148
203,232	-95,788	-0,335	-0,062
204,246	415,422	-0,188	-0,279
205,261	91,646	-0,203	-0,159
206,275	101,132	-0,105	-0,085
207,290	353,523	-0,082	-0,113
208,304	136,345	-0,131	-0,118
209,319	229,732	-0,076	-0,087
210,334	-56,716	-0,159	0,049
211,348	46,252	-0,184	-0,118
212,363	137,909	-0,160	-0,146
213,377	116,434	-0,269	-0,229
214,392	800,000	-0,122	-0,309
215,407	800,000	-0,070	-0,148
216,421	-17,407	-0,249	-0,108
217,436	217,448	-0,156	-0,173
218,450	83,303	-0,255	-0,193
219,465	236,811	-0,177	-0,203
220,480	-9,431	-0,230	-0,106
221,494	-200,000	-0,063	-0,208
222,509	-21,764	-0,138	0,058
223,523	179,950	-0,215	-0,219
224,538	1,457	-0,197	-0,098
225,553	-51,573	-0,192	-0,062
226,567	26,882	-0,354	-0,205
227,582	236,127	-0,202	-0,232
228,596	174,351	-0,146	-0,147
229,611	-8,589	-0,215	-0,100
230,626	422,097	-0,156	-0,233
231,640	-14,275	-0,198	-0,088
232,655	264,473	-0,136	-0,165
233,669	268,139	-0,158	-0,193
234,684	8,868	-0,299	-0,156
235,699	178,233	-0,131	-0,133
236,713	30,555	-0,133	-0,079
237,728	-200,000	-0,025	-0,262
238,742	138,912	-0,167	-0,152
239,757	154,533	-0,207	-0,197
240,772	800,000	-0,137	-0,280
241,786	261,678	-0,162	-0,195
242,801	56,551	-0,165	-0,111
243,815	145,908	-0,195	-0,181
244,830	36,886	-0,195	-0,119
245,844	128,566	-0,259	-0,228
246,859	40,878	-0,279	-0,174
247,874	71,150	-0,145	-0,104
248,888	-119,112	-0,296	0,035
249,903	40,200	-0,149	-0,093
250,917	137,316	-0,154	-0,139
251,932	2,684	-0,237	-0,119
252,947	17,332	-0,215	-0,118
253,961	776,485	-0,120	-0,227
254,976	800,000	-0,096	-0,224
255,990	40,319	-0,156	-0,097
257,005	-156,727	-0,217	-0,009
258,020	800,000	-0,053	-0,157
259,034	760,751	-0,096	-0,181
260,049	17,895	-0,126	-0,069
261,063	-115,361	-0,176	0,023
262,078	329,126	-0,200	-0,266
263,093	42,560	-0,195	-0,122
264,107	-200,000	-0,046	-0,187
265,122	800,000	-0,083	-0,171
266,136	51,286	-0,235	-0,154
267,151	122,007	-0,108	-0,093
268,166	-146,474	-0,321	0,019
269,180	-85,976	-0,169	-0,036
270,195	65,659	-0,230	-0,160
271,209	58,111	-0,137	-0,093
272,224	30,277	-0,184	-0,108
273,239	-80,731	-0,104	-0,024
274,253	111,126	-0,118	-0,098
275,268	-53,546	-0,375	-0,118
276,282	-93,325	-0,146	0,028
277,297	-98,956	-0,063	-0,011
278,312	340,322	-0,119	-0,161
279,326	-148,598	-0,178	-0,010
280,341	-68,681	-0,170	-0,045
281,355	80,071	-0,169	0,125
282,370	188,364	-0,150	-0,155
283,384	-200,000	0,015	-0,229
284,399	591,043	-0,095	-0,163
285,414	245,211	-0,109	-0,127
286,428	-111,650	-0,157	-0,022
287,443	-200,000	0,005	-0,046
288,457	142,823	-0,082	-0,075
289,472	11,494	-0,225	-0,119
290,487	-1,422	-0,157	-0,076
291,501	254,446	-0,108	-0,127
292,516	160,528	-0,068	-0,066
293,530	86,652	-0,060	-0,045
294,545	-42,637	-0,111	-0,039
295,560	-116,217	-0,226	-0,029
296,574	-167,433	-0,196	0,005
297,589	102,691	-0,134	-0,108
298,603	34,645	-0,237	-0,143
299,618	800,000	-0,093	-0,189
300,633	514,486	-0,133	-0,215
301,647	109,014	-0,109	-0,090
302,662	31,946	-0,128	-0,076
303,676	793,976	-0,128	-0,245
304,691	-126,305	-0,118	-0,012
305,706	-82,994	-0,099	-0,022
306,720	578,249	-0,083	-0,140
307,735	123,288	-0,149	-0,129
308,749	370,886	-0,082	-0,114
309,764	-48,234	-0,034	-0,011
310,779	26,582	-0,048	-0,028
311,793	44,179	-0,180	-0,113
312,808	299,560	-0,148	-0,188
313,822	6,595	-0,222	-0,113
314,837	178,099	-0,204	-0,205
315,852	-136,578	-0,212	-0,017
316,866	10,425	-0,070	-0,036
317,881	-73,071	-0,092	-0,023
318,895	-120,437	-0,234	-0,027
319,910	215,408	-0,156	-0,170
320,925	179,831	-0,189	-0,191
321,939	95,262	-0,158	-0,124
322,954	-101,088	-0,133	-0,022
323,968	719,054	0,042	-0,077
324,983	-92,534	-0,121	0,023
325,997	85,827	-0,124	-0,094
327,012	800,000	-0,078	-0,173
328,027	37,819	-0,093	0,057
329,041	-26,140	-0,085	0,034
330,056	644,513	-0,125	-0,221
331,070	66,834	-0,119	-0,083
332,085	398,382	-0,177	-0,256
333,100	13,506	-0,211	-0,112
334,114	-94,362	-0,191	-0,035
335,129	302,439	-0,088	-0,112
336,143	-61,765	-0,120	0,034
337,158	-134,651	-0,203	-0,017
338,173	-103,148	-0,197	-0,032
339,187	-96,717	-0,106	-0,019
340,202	800,000	-0,039	-0,082
341,216	-200,000	0,007	-0,037
342,231	800,000	-0,104	-0,242
343,246	-24,244	-0,157	-0,064
344,260	206,816	-0,063	-0,067
345,275	-129,141	-0,127	-0,012
346,289	526,933	-0,055	-0,090
347,304	-33,196	-0,233	-0,088
348,319	196,956	-0,052	-0,054
349,333	44,580	-0,143	-0,090
350,348	219,599	-0,188	-0,207
351,362	355,303	-0,087	-0,119
352,377	-68,181	-0,094	-0,025
353,392	-128,463	-0,056	-0,005
354,406	341,745	-0,221	-0,298
355,421	207,515	1315,536	1409,935
356,435	159,631	1476,369	1410,419
