DTS Sentinel unit serial number:	SN410029Multiplexer serial number:	ORYXHardware model number:	OX2-SRSoftware version number:	ORYX F/W v4,00 Oryx Data Collector v3.7.2.0data status	okinstallation	B3 Nyhavnadifferential loss correction	single-endedforward channel	channel 1reverse channel	N/Adate	2023/12/02time	19:07:30forward acquisition time	300,00reverse acquisition time	0,00gamma	499,1914k internal	0,3200k external	0,3200temperature offset calibration	1,0000default loss term (dB/km)	0,3820temperature slope calibration	1,0000multiplexer offset coefficient	1,0000multiplexer slope coefficient	1,0000fibre end	0,00T internal ref (°C)	13,44T ext. ref 1 (°C)	-1,81T ext. ref 2 (°C)	-1,83length (m)	temperature (°C)	Stokes	anti-Stokes-744,400	800,000	-0,089	-0,234
-743,385	800,000	-0,097	0,263
-742,371	-200,000	-0,068	-0,219
-741,356	-200,000	0,064	0,415
-740,342	245,158	-0,214	-0,262
-739,327	-200,000	0,047	0,170
-738,312	711,498	-0,126	-0,243
-737,298	800,000	0,068	0,206
-736,283	-27,966	-0,278	-0,117
-735,269	800,000	0,142	0,430
-734,254	349,180	-0,167	-0,241
-733,239	144,093	-0,210	0,204
-732,225	800,000	-0,085	-0,202
-731,210	182,162	0,207	0,222
-730,196	91,590	-0,123	-0,101
-729,181	-200,000	0,005	-0,107
-728,167	730,938	0,052	-0,102
-727,152	-78,355	-0,116	0,029
-726,137	-200,000	-0,027	0,141
-725,123	139,431	-0,059	-0,057
-724,108	800,000	-0,001	-0,003
-723,094	800,000	-0,023	-0,059
-722,079	711,925	-0,031	0,060
-721,064	-129,686	0,091	0,009
-720,050	14,016	0,065	-0,036
-719,035	55,011	-0,070	-0,049
-718,021	-200,000	0,011	0,163
-717,006	800,000	0,030	-0,086
-715,991	-200,000	-0,009	0,073
-714,977	-120,982	0,051	0,006
-713,962	-57,689	-0,080	0,025
-712,948	140,715	0,026	0,025
-711,933	800,000	0,007	-0,021
-710,918	-200,000	0,010	-0,041
-709,904	712,707	-0,017	-0,032
-708,889	800,000	-0,055	-0,176
-707,875	-26,970	0,020	0,008
-706,860	647,449	-0,026	-0,049
-705,845	-200,000	0,005	-0,118
-704,831	83,505	0,099	0,078
-703,816	800,000	0,044	-0,108
-702,802	-90,957	-0,039	-0,008
-701,787	-200,000	-0,005	-0,022
-700,772	-200,000	-0,003	0,047
-699,758	800,000	-0,040	-0,091
-698,743	-49,534	0,165	0,057
-697,729	73,121	0,053	0,040
-696,714	-30,255	0,017	0,007
-695,699	-80,562	-0,073	0,017
-694,685	-200,000	-0,005	-0,098
-693,670	-200,000	-0,049	-0,163
-692,656	-90,837	-0,013	0,003
-691,641	419,299	-0,030	-0,046
-690,627	30,001	0,180	0,111
-689,612	68,051	0,083	-0,062
-688,597	301,557	-0,032	0,043
-687,583	222,194	0,075	0,088
-686,568	-200,000	-0,005	-0,124
-685,554	-200,000	-0,047	-0,179
-684,539	-48,210	-0,058	-0,020
-683,524	-35,972	0,118	0,046
-682,510	-200,000	-0,016	-0,174
-681,495	800,000	-0,062	-0,141
-680,481	84,635	-0,123	-0,098
-679,466	68,326	0,069	0,051
-678,451	-65,376	-0,071	0,021
-677,437	28,595	-0,070	-0,043
-676,422	58,501	0,057	0,040
-675,408	-80,140	-0,124	-0,030
-674,393	800,000	-0,049	-0,125
-673,378	144,021	-0,072	-0,070
-672,364	800,000	0,042	-0,128
-671,349	800,000	-0,036	-0,090
-670,335	-200,000	0,004	-0,022
-669,320	103,609	-0,044	-0,037
-668,305	106,995	0,067	0,058
-667,291	638,881	-0,054	0,099
-666,276	288,006	0,031	-0,041
-665,262	-30,488	-0,121	-0,050
-664,247	-181,636	-0,062	-0,001
-663,232	800,000	0,009	-0,022
-662,218	19,790	0,047	0,028
-661,203	740,113	0,039	-0,077
-660,189	800,000	0,041	0,086
-659,174	199,624	-0,132	0,147
-658,159	337,083	0,047	0,066
-657,145	138,546	-0,116	-0,110
-656,130	-158,248	0,029	0,001
-655,116	628,756	-0,028	-0,051
-654,101	-0,751	0,049	-0,025
-653,086	-67,869	-0,034	-0,010
-652,072	-200,000	-0,022	-0,110
-651,057	41,206	-0,084	-0,055
-650,043	274,066	0,016	-0,020
-649,028	23,343	0,088	-0,052
-648,014	186,095	-0,016	0,017
-646,999	-28,750	0,030	-0,012
-645,984	-125,025	-0,088	0,010
-644,970	20,100	-0,098	-0,057
-643,955	-200,000	-0,014	-0,086
-642,941	-200,000	0,012	-0,133
-641,926	16,680	-0,049	-0,028
-640,911	270,438	-0,048	0,062
-639,897	57,180	0,160	0,113
-638,882	109,227	-0,054	0,047
-637,868	800,000	-0,017	0,050
-636,853	-125,846	-0,079	-0,009
-635,838	17,277	-0,079	-0,045
-634,824	800,000	-0,007	0,016
-633,809	-92,164	0,172	-0,035
-632,795	-95,309	-0,052	-0,010
-631,780	118,193	-0,047	-0,042
-630,765	544,092	-0,031	0,053
-629,751	-49,566	-0,090	-0,031
-628,736	126,998	-0,057	-0,053
-627,722	-51,396	-0,174	-0,059
-626,707	182,283	-0,008	-0,008
-625,692	114,471	-0,030	0,027
-624,678	800,000	-0,057	0,171
-623,663	-40,573	-0,143	0,054
-622,649	-200,000	0,014	-0,143
-621,634	-83,968	-0,075	0,017
-620,619	230,476	-0,037	-0,044
-619,605	94,280	-0,003	0,002
-618,590	-108,265	0,045	-0,007
-617,576	379,711	-0,030	0,045
-616,561	72,593	-0,081	-0,061
-615,546	-158,205	0,068	0,003
-614,532	267,828	-0,069	-0,088
-613,517	122,230	0,056	-0,051
-612,503	792,227	0,046	-0,092
-611,488	16,743	0,083	0,048
-610,474	264,597	-0,056	-0,071
-609,459	-65,579	0,038	0,011
-608,444	466,854	0,021	0,033
-607,430	800,000	0,042	-0,125
-606,415	339,135	-0,060	0,084
-605,401	32,757	-0,031	0,019
-604,386	-200,000	-0,052	0,000
-603,371	10,089	-0,028	-0,016
-602,357	701,989	-0,031	-0,059
-601,342	32,181	-0,056	-0,035
-600,328	85,935	-0,129	-0,103
-599,313	3,451	0,006	-0,003
-598,298	475,240	0,039	0,063
-597,284	800,000	0,021	0,058
-596,269	220,328	0,065	0,075
-595,255	-1,101	0,136	0,069
-594,240	674,716	0,037	0,069
-593,225	-58,292	0,046	-0,014
-592,211	424,780	-0,072	-0,113
-591,196	800,000	-0,019	0,043
-590,182	96,289	0,110	0,091
-589,167	800,000	-0,040	0,107
-588,152	800,000	0,034	-0,083
-587,138	-200,000	-0,020	0,106
-586,123	-157,439	0,094	0,004
-585,109	-79,185	-0,147	0,036
-584,094	-200,000	-0,007	0,101
-583,079	218,081	-0,086	0,099
-582,065	89,302	0,058	-0,046
-581,050	55,436	-0,080	0,056
-580,036	-170,530	0,136	-0,003
-579,021	-107,548	0,064	-0,010
-578,006	800,000	-0,025	-0,074
-576,992	310,817	0,053	-0,072
-575,977	-64,864	-0,101	-0,029
-574,963	-165,468	0,039	0,001
-573,948	535,529	-0,057	0,098
-572,934	-52,199	0,064	0,021
-571,919	800,000	-0,030	-0,067
-570,904	-9,582	-0,109	0,052
-569,890	800,000	-0,018	-0,036
-568,875	800,000	0,013	0,034
-567,861	-127,694	0,043	-0,004
-566,846	800,000	0,018	0,044
-565,831	201,168	-0,111	0,124
-564,817	82,184	0,118	-0,092
-563,802	-6,596	-0,057	-0,028
-562,788	-108,135	-0,180	-0,028
-561,773	711,224	-0,026	-0,051
-560,758	-95,830	-0,068	-0,013
-559,744	800,000	0,060	0,136
-558,729	56,837	-0,039	0,027
-557,715	800,000	0,030	-0,061
-556,700	459,924	0,066	-0,106
-555,685	49,763	-0,077	-0,052
-554,671	-200,000	0,014	-0,087
-553,656	146,612	-0,093	0,090
-552,642	-200,000	0,015	0,049
-551,627	-188,994	0,076	-0,001
-550,612	107,992	0,079	0,068
-549,598	800,000	-0,038	-0,103
-548,583	800,000	-0,021	-0,057
-547,569	-71,682	-0,109	0,029
-546,554	-200,000	0,001	0,049
-545,539	800,000	-0,039	0,114
-544,525	800,000	0,067	-0,178
-543,510	35,691	-0,110	-0,070
-542,496	-124,698	0,090	0,010
-541,481	74,987	-0,051	-0,039
-540,466	-33,128	-0,067	-0,027
-539,452	-108,198	0,075	-0,012
-538,437	-95,474	-0,050	0,010
-537,423	661,858	0,018	-0,033
-536,408	604,317	-0,039	-0,070
-535,393	11,361	-0,055	0,030
-534,379	-200,000	0,006	-0,088
-533,364	-103,010	-0,092	0,016
-532,350	44,752	0,124	0,082
-531,335	-51,701	0,100	-0,033
-530,321	605,743	0,085	0,153
-529,306	338,386	0,058	0,082
-528,291	276,467	-0,022	0,028
-527,277	-200,000	-0,009	-0,114
-526,262	492,549	0,086	-0,143
-525,248	800,000	0,042	0,096
-524,233	-54,213	-0,066	-0,021
-523,218	-41,755	-0,144	0,053
-522,204	217,788	0,053	-0,061
-521,189	20,048	0,038	-0,022
-520,175	-200,000	-0,018	-0,080
-519,160	28,082	-0,004	-0,002
-518,145	-200,000	0,003	0,056
-517,131	800,000	-0,014	-0,036
-516,116	602,705	0,022	0,039
-515,102	457,952	0,047	0,075
-514,087	800,000	0,026	0,062
-513,072	-115,402	-0,087	-0,012
-512,058	-105,522	-0,063	-0,010
-511,043	110,994	-0,056	0,049
-510,029	-57,013	0,053	-0,017
-509,014	499,785	-0,029	0,049
-507,999	175,543	0,080	-0,083
-506,985	-200,000	-0,024	0,077
-505,970	-131,325	-0,164	0,015
-504,956	25,158	0,029	-0,018
-503,941	-200,000	0,015	-0,102
-502,926	-200,000	-0,017	0,096
-501,912	729,464	0,058	0,112
-500,897	-200,000	0,001	0,131
-499,883	-98,871	0,119	0,022
-498,868	800,000	-0,011	0,025
-497,853	782,249	-0,009	0,018
-496,839	395,100	0,060	-0,091
-495,824	275,747	-0,048	0,062
-494,810	-200,000	0,017	-0,062
-493,795	73,930	0,030	0,023
-492,781	-200,000	-0,007	0,042
-491,766	211,145	0,081	-0,092
-490,751	-43,030	0,117	-0,043
-489,737	85,828	0,050	0,039
-488,722	149,966	-0,049	-0,048
-487,708	800,000	0,018	-0,049
-486,693	110,939	-0,029	-0,025
-485,678	-81,013	-0,026	0,006
-484,664	153,392	-0,050	-0,049
-483,649	45,578	0,040	0,027
-482,635	23,884	-0,078	0,046
-481,620	303,590	0,059	0,079
-480,605	-84,315	0,116	-0,026
-479,591	-128,089	0,093	-0,009
-478,576	-200,000	-0,001	0,216
-477,562	-71,175	0,011	-0,003
-476,547	-52,130	-0,138	-0,046
-475,532	-200,000	-0,051	-0,165
-474,518	5,705	0,092	-0,049
-473,503	477,660	0,027	-0,044
-472,489	-200,000	0,004	0,036
-471,474	-200,000	0,009	0,128
-470,459	-76,408	0,097	-0,025
-469,445	-30,642	-0,051	-0,021
-468,430	-72,167	-0,121	-0,032
-467,416	39,648	0,029	0,018
-466,401	44,764	0,130	0,086
-465,386	800,000	-0,034	-0,084
-464,372	693,411	0,042	-0,080
-463,357	-87,805	-0,105	0,022
-462,343	-24,889	-0,116	-0,049
-461,328	-61,634	-0,115	0,035
-460,313	-131,500	0,030	-0,003
-459,299	800,000	0,061	0,162
-458,284	-200,000	-0,018	-0,093
-457,270	-200,000	0,009	0,079
-456,255	401,943	0,071	0,107
-455,241	551,870	-0,080	-0,138
-454,226	-200,000	0,049	-0,227
-453,211	800,000	0,050	-0,150
-452,197	-86,038	0,109	-0,024
-451,182	72,166	0,037	0,027
-450,168	391,220	-0,117	0,176
-449,153	140,931	-0,118	0,112
-448,138	37,628	-0,116	0,074
-447,124	313,188	-0,023	-0,032
-446,109	-137,173	0,170	-0,014
-445,095	230,752	0,059	-0,069
-444,080	-200,000	0,019	-0,099
-443,065	-161,550	0,035	-0,001
-442,051	51,991	0,030	0,021
-441,036	800,000	-0,060	-0,133
-440,022	439,279	-0,056	-0,089
-439,007	-200,000	-0,013	-0,094
-437,992	76,360	-0,061	0,047
-436,978	800,000	-0,016	0,032
-435,963	95,878	-0,101	0,083
-434,949	63,967	0,080	-0,057
-433,934	19,669	-0,017	-0,010
-432,919	-200,000	0,007	-0,057
-431,905	800,000	-0,030	0,072
-430,890	57,005	0,011	-0,008
-429,876	-108,207	0,071	0,011
-428,861	-200,000	-0,009	-0,035
-427,846	92,331	0,116	0,094
-426,832	275,574	-0,008	-0,010
-425,817	-121,466	-0,097	-0,011
-424,803	-200,000	0,009	-0,055
-423,788	20,015	-0,050	-0,029
-422,773	-94,758	-0,125	-0,024
-421,759	800,000	0,047	-0,103
-420,744	88,457	-0,111	-0,089
-419,730	85,365	-0,046	0,036
-418,715	-172,153	0,091	0,002
-417,701	104,106	-0,096	0,081
-416,686	204,371	0,064	-0,071
-415,671	44,860	-0,065	0,043
-414,657	800,000	0,046	-0,101
-413,642	399,726	-0,061	-0,092
-412,628	-88,652	-0,106	0,022
-411,613	-39,163	-0,101	-0,038
-410,598	459,012	-0,075	0,121
-409,584	-200,000	0,012	0,090
-408,569	370,701	-0,051	0,075
-407,555	-111,243	0,068	0,010
-406,540	117,634	0,084	0,074
-405,525	-200,000	0,020	0,078
-404,511	-87,123	-0,244	0,053
-403,496	37,855	0,052	-0,033
-402,482	-200,000	-0,004	-0,167
-401,467	-200,000	0,055	-0,225
-400,452	515,155	0,009	0,016
-399,438	-200,000	0,011	-0,089
-398,423	149,622	0,084	-0,082
-397,409	119,974	-0,032	-0,028
-396,394	800,000	-0,058	-0,125
-395,379	52,390	0,081	0,055
-394,365	142,023	0,053	0,051
-393,350	177,434	-0,060	0,063
-392,336	800,000	0,016	-0,048
-391,321	199,606	0,034	0,037
-390,306	344,754	-0,041	-0,059
-389,292	185,603	0,040	-0,043
-388,277	800,000	-0,013	-0,036
-387,263	99,975	0,141	0,117
-386,248	360,766	-0,092	0,132
-385,233	590,614	-0,108	-0,192
-384,219	173,080	0,056	-0,058
-383,204	61,696	0,075	-0,053
-382,190	800,000	-0,028	-0,066
-381,175	800,000	-0,030	-0,071
-380,160	-200,000	-0,002	0,074
-379,146	-110,855	-0,095	-0,014
-378,131	59,979	0,066	0,047
-377,117	139,113	0,027	-0,025
-376,102	701,009	0,033	-0,063
-375,088	-200,000	-0,042	-0,134
-374,073	25,818	0,016	-0,010
-373,058	-98,960	0,121	0,022
-372,044	771,398	0,053	0,105
-371,029	800,000	-0,037	0,110
-370,015	-156,450	-0,067	0,003
-369,000	290,006	-0,041	-0,054
-367,985	800,000	0,060	0,140
-366,971	82,897	0,073	0,057
-365,956	89,243	0,020	-0,016
-364,942	10,670	-0,073	0,040
-363,927	391,919	0,081	0,121
-362,912	140,729	0,068	-0,064
-361,898	170,519	-0,078	0,081
-360,883	800,000	-0,023	-0,055
-359,869	-200,000	-0,021	0,110
-358,854	304,285	-0,035	0,046
-357,839	-200,000	-0,020	0,077
-356,825	137,806	-0,059	-0,055
-355,810	74,432	0,125	0,094
-354,796	-200,000	-0,006	0,115
-353,781	-156,298	-0,154	-0,007
-352,766	-200,000	-0,011	0,055
-351,752	-200,000	0,019	0,128
-350,737	767,454	-0,044	0,086
-349,723	-33,397	0,139	-0,055
-348,708	25,522	0,070	0,041
-347,693	209,908	-0,014	0,015
-346,679	457,860	-0,022	-0,036
-345,664	-9,796	-0,065	0,031
-344,650	38,111	-0,109	-0,069
-343,635	53,317	0,056	-0,038
-342,620	800,000	-0,033	-0,075
-341,606	260,416	-0,023	0,029
-340,591	-200,000	0,017	0,096
-339,577	-128,356	-0,023	0,002
-338,562	487,097	-0,022	0,036
-337,548	-200,000	0,026	0,089
-336,533	-13,338	0,109	-0,051
-335,518	-200,000	0,021	-0,134
-334,504	-40,849	-0,068	-0,025
-333,489	31,206	-0,043	-0,026
-332,475	127,297	-0,078	0,071
-331,460	-6,002	0,042	0,020
-330,445	-95,684	-0,107	0,020
-329,431	800,000	0,023	0,056
-328,416	800,000	-0,024	-0,054
-327,402	-57,736	0,119	-0,037
-326,387	-200,000	-0,018	0,096
-325,372	-63,925	0,039	0,011
-324,358	-22,059	-0,106	-0,046
-323,343	-85,201	-0,086	-0,019
-322,329	-122,617	0,070	0,008
-321,314	-112,189	0,040	-0,006
-320,299	-45,808	0,127	0,045
-319,285	-200,000	0,036	-0,114
-318,270	-101,253	-0,079	0,014
-317,256	-23,034	-0,157	-0,067
-316,241	-200,000	0,016	0,070
-315,226	-200,000	-0,000	-0,132
-314,212	-130,354	0,147	0,014
-313,197	-61,526	0,103	0,031
-312,183	-12,310	0,084	0,039
-311,168	800,000	-0,009	-0,023
-310,153	743,811	0,045	0,087
-309,139	800,000	-0,069	-0,172
-308,124	-140,732	-0,038	-0,003
-307,110	239,537	-0,062	-0,074
-306,095	-171,699	0,057	0,001
-305,080	-38,849	0,070	0,026
-304,066	-200,000	-0,017	-0,076
-303,051	800,000	-0,033	0,082
-302,037	-14,886	-0,043	-0,020
-301,022	-117,659	0,091	-0,012
-300,008	374,837	-0,034	-0,050
-298,993	84,434	0,012	0,009
-297,978	191,227	0,069	0,074
-296,964	370,369	0,036	-0,053
-295,949	5,005	-0,100	-0,053
-294,935	304,524	0,083	-0,110
-293,920	-200,000	-0,039	-0,136
-292,905	-200,000	0,006	-0,072
-291,891	-60,959	0,096	0,029
-290,876	344,751	-0,070	0,098
-289,862	109,709	0,076	0,065
-288,847	-79,486	-0,029	-0,007
-287,832	800,000	-0,031	-0,087
-286,818	20,690	0,033	-0,019
-285,803	-49,761	0,163	-0,055
-284,789	68,143	0,060	-0,044
-283,774	-131,800	0,065	-0,006
-282,759	-136,509	-0,126	0,010
-281,745	143,550	0,052	-0,049
-280,730	-85,026	0,085	-0,019
-279,716	-137,037	-0,166	-0,013
-278,701	314,941	0,080	0,108
-277,686	-200,000	-0,016	0,064
-276,672	-106,551	0,039	0,006
-275,657	800,000	0,025	-0,055
-274,643	280,770	0,067	-0,085
-273,628	-35,825	0,044	0,017
-272,613	133,028	-0,146	0,134
-271,599	-30,112	0,093	-0,038
-270,584	482,574	0,040	-0,065
-269,570	19,098	0,029	-0,016
-268,555	-200,000	0,003	-0,075
-267,540	-188,781	0,153	0,001
-266,526	435,803	-0,077	0,120
-265,511	-47,515	-0,064	-0,022
-264,497	423,427	0,041	0,063
-263,482	-42,723	0,152	0,055
-262,467	-200,000	0,040	0,151
-261,453	-39,946	0,172	-0,064
-260,438	-200,000	-0,016	-0,079
-259,424	-200,000	0,002	-0,013
-258,409	-138,644	-0,115	0,009
-257,395	665,369	0,119	0,221
-256,380	17,794	-0,021	-0,012
-255,365	-200,000	-0,022	0,140
-254,351	-200,000	-0,006	0,052
-253,336	-75,600	-0,069	-0,017
-252,322	-200,000	-0,011	-0,048
-251,307	115,044	-0,075	-0,065
-250,292	-90,983	0,077	0,016
-249,278	16,936	0,082	0,046
-248,263	17,629	0,048	-0,027
-247,249	-66,487	0,073	-0,021
-246,234	-48,403	-0,031	-0,010
-245,219	-56,594	0,080	0,025
-244,205	602,810	0,017	0,030
-243,190	199,662	-0,088	0,096
-242,176	341,351	-0,016	0,022
-241,161	-54,082	0,053	0,017
-240,146	117,313	-0,112	-0,098
-239,132	-200,000	-0,003	-0,042
-238,117	800,000	0,073	-0,226
-237,103	800,000	-0,049	-0,124
-236,088	-200,000	-0,006	0,036
-235,073	-37,517	0,197	0,075
-234,059	800,000	0,064	0,186
-233,044	-200,000	0,018	0,155
-232,030	800,000	0,042	0,087
-231,015	-200,000	-0,036	-0,119
-230,000	-20,398	-0,130	-0,057
-228,986	449,453	0,047	0,075
-227,971	181,746	0,105	0,111
-226,957	-200,000	-0,013	0,066
-225,942	800,000	0,058	0,166
-224,927	-200,000	0,003	-0,064
-223,913	635,431	0,042	-0,076
-222,898	206,782	0,054	0,060
-221,884	720,796	0,038	0,072
-220,869	-4,798	-0,128	0,063
-219,855	580,234	0,023	0,040
-218,840	202,662	0,029	0,032
-217,825	-22,873	-0,139	-0,059
-216,811	-200,000	-0,013	-0,046
-215,796	-190,952	-0,027	-0,000
-214,782	680,454	-0,022	0,040
-213,767	-85,370	0,148	0,033
-212,752	725,201	-0,030	-0,057
-211,738	800,000	0,076	0,198
-210,723	173,867	0,062	0,064
-209,709	-2,480	0,065	-0,032
-208,694	225,486	-0,046	0,054
-207,679	-83,705	-0,110	-0,025
-206,665	32,684	-0,039	0,024
-205,650	35,142	-0,046	-0,029
-204,636	336,061	0,054	0,075
-203,621	800,000	0,067	0,168
-202,606	800,000	-0,008	-0,018
-201,592	-200,000	-0,027	-0,185
-200,577	156,234	-0,144	-0,141
-199,563	214,002	-0,077	-0,087
-198,548	800,000	-0,027	0,084
-197,533	800,000	0,029	0,088
-196,519	89,173	-0,109	0,086
-195,504	-57,459	-0,173	-0,054
-194,490	727,700	-0,027	-0,051
-193,475	216,488	0,039	-0,044
-192,460	-4,806	-0,075	0,037
-191,446	246,157	0,027	0,032
-190,431	57,915	0,109	-0,076
-189,417	500,004	0,068	-0,112
-188,402	-124,102	-0,028	-0,003
-187,387	28,697	-0,060	0,036
-186,373	-200,000	-0,012	-0,106
-185,358	-200,000	-0,004	-0,038
-184,344	116,435	0,039	-0,034
-183,329	-23,912	0,051	0,022
-182,315	800,000	0,049	0,149
-181,300	581,407	0,048	0,084
-180,285	227,230	-0,085	-0,098
-179,271	161,655	0,063	-0,063
-178,256	20,106	0,153	0,088
-177,242	-110,538	-0,167	0,024
-176,227	-97,797	-0,058	-0,011
-175,212	199,048	0,069	0,075
-174,198	-200,000	-0,013	0,042
-173,183	-200,000	0,005	-0,167
-172,169	479,295	-0,104	-0,168
-171,154	-200,000	-0,011	-0,055
-170,139	-14,768	0,131	0,059
-169,125	56,677	0,118	0,081
-168,110	-85,756	-0,013	0,003
-167,096	-200,000	0,007	0,051
-166,081	-66,785	-0,142	-0,040
-165,066	-200,000	0,020	-0,101
-164,052	800,000	0,067	-0,158
-163,037	658,778	0,022	-0,040
-162,023	30,163	0,053	0,032
-161,008	800,000	0,020	0,044
-159,993	-200,000	0,040	-0,218
-158,979	-96,057	-0,177	0,033
-157,964	-125,288	0,159	0,017
-156,950	-79,577	-0,120	0,029
-155,935	-83,983	0,190	-0,043
-154,920	-200,000	-0,051	0,171
-153,906	800,000	0,077	0,204
-152,891	178,903	0,015	0,015
-151,877	171,302	-0,144	-0,147
-150,862	1,302	-0,079	-0,040
-149,847	-200,000	0,005	-0,124
-148,833	-149,492	0,142	-0,008
-147,818	320,420	0,042	0,057
-146,804	-123,246	-0,051	0,006
-145,789	30,846	0,060	0,036
-144,775	171,376	-0,072	0,073
-143,760	-200,000	0,025	-0,080
-142,745	15,881	-0,056	-0,031
-141,731	144,418	-0,015	0,014
-140,716	-77,307	0,025	-0,006
-139,702	-87,719	0,113	0,024
-138,687	-144,501	-0,060	0,004
-137,672	800,000	-0,035	0,086
-136,658	-100,863	-0,033	-0,006
-135,643	-200,000	0,017	-0,093
-134,629	-54,717	0,178	-0,057
-133,614	517,568	-0,013	0,022
-132,599	-77,784	0,072	0,018
-131,585	113,371	0,060	0,052
-130,570	-112,539	-0,008	-0,001
-129,556	-200,000	-0,013	-0,091
-128,541	330,497	0,027	-0,037
-127,526	-200,000	0,028	-0,190
-126,512	-145,374	0,148	0,009
-125,497	117,616	0,135	0,118
-124,483	800,000	0,014	0,028
-123,468	-120,818	0,078	0,009
-122,453	-200,000	-0,008	-0,083
-121,439	-200,000	0,005	-0,107
-120,424	223,420	-0,015	-0,017
-119,410	-200,000	0,011	0,074
-118,395	146,666	0,107	-0,102
-117,380	800,000	0,007	-0,018
-116,366	800,000	0,049	0,133
-115,351	-80,874	0,009	0,002
-114,337	-70,090	-0,084	-0,023
-113,322	-200,000	0,004	0,037
-112,307	-87,526	-0,043	0,009
-111,293	540,832	0,056	0,095
-110,278	-78,382	-0,012	0,003
-109,264	-200,000	0,010	-0,045
-108,249	-200,000	0,017	0,059
-107,234	172,133	-0,019	-0,020
-106,220	-160,159	-0,086	0,003
-105,205	-136,544	-0,028	-0,002
-104,191	-95,993	0,028	0,005
-103,176	667,539	0,043	0,079
-102,162	198,944	-0,037	0,040
-101,147	-73,081	-0,060	-0,015
-100,132	-200,000	-0,009	-0,167
-99,118	-111,980	-0,109	0,015
-98,103	116,945	-0,052	-0,045
-97,089	4,388	0,070	-0,036
-96,074	-200,000	-0,014	0,045
-95,059	477,183	0,100	0,161
-94,045	739,077	0,045	-0,086
-93,030	187,910	-0,073	-0,077
-92,016	-123,571	-0,086	0,010
-91,001	-200,000	0,037	-0,156
-89,986	-52,450	0,051	0,017
-88,972	-200,000	0,012	0,151
-87,957	800,000	0,069	0,155
-86,943	-200,000	-0,016	-0,149
-85,928	680,794	-0,051	-0,094
-84,913	41,719	-0,130	-0,083
-83,899	292,626	0,061	-0,079
-82,884	-200,000	0,002	-0,076
-81,870	118,946	0,096	0,085
-80,855	-200,000	0,009	-0,082
-79,840	298,765	-0,071	-0,093
-78,826	204,409	-0,073	-0,080
-77,811	-137,613	0,067	0,005
-76,797	800,000	0,012	-0,029
-75,782	-200,000	-0,004	-0,051
-74,767	732,249	-0,037	-0,070
-73,753	290,638	-0,109	-0,140
-72,738	-200,000	-0,016	-0,091
-71,724	-37,244	-0,148	-0,056
-70,709	-138,256	0,112	-0,009
-69,694	-106,339	-0,173	-0,027
-68,680	-200,000	-0,014	-0,205
-67,665	-46,860	-0,093	-0,032
-66,651	150,034	0,034	-0,032
-65,636	-84,837	-0,088	0,019
-64,622	173,996	-0,151	0,154
-63,607	-52,643	0,076	-0,025
-62,592	800,000	0,032	-0,089
-61,578	-200,000	0,021	0,082
-60,563	-200,000	0,024	-0,133
-59,549	360,695	-0,074	-0,106
-58,534	-13,323	-1,770	-0,811
-57,519	445,996	-1,326	-2,072
-56,505	-200,000	-0,568	-4,540
-55,490	258,720	0,892	1,091
-54,476	800,000	4,912	11,386
-53,461	-200,000	19,193	318,994
-52,446	-200,000	740,003	2335,393
-51,432	574,092	1655,451	2871,453
-50,417	78,474	1671,152	1263,315
-49,403	21,459	1543,729	886,602
-48,388	15,320	1466,237	812,238
-47,373	17,954	1456,562	819,584
-46,359	16,697	1446,523	807,871
-45,344	13,566	1441,723	790,158
-44,330	13,513	1439,894	788,869
-43,315	13,527	1437,970	787,848
-42,300	13,506	1436,514	786,919
-41,286	13,511	1435,224	786,206
-40,271	13,475	1433,976	785,318
-39,257	13,503	1432,506	784,618
-38,242	13,538	1431,368	784,130
-37,227	13,542	1430,156	783,452
-36,213	13,550	1428,951	782,802
-35,198	13,549	1427,536	781,991
-34,184	13,564	1426,683	781,561
-33,169	13,505	1425,374	780,533
-32,154	13,577	1424,105	780,149
-31,140	13,598	1422,796	779,501
-30,125	13,573	1421,910	778,866
-29,111	13,591	1420,589	778,195
-28,096	13,511	1419,817	777,363
-27,082	13,480	1418,795	776,630
-26,067	13,467	1417,553	775,856
-25,052	13,492	1416,440	775,332
-24,038	13,424	1415,446	774,439
-23,023	13,455	1414,472	774,020
-22,009	13,401	1413,656	773,290
-20,994	13,391	1412,517	772,589
-19,979	13,404	1411,593	772,115
-18,965	13,393	1410,877	771,640
-17,950	13,415	1409,854	771,154
-16,936	13,429	1408,724	770,571
-15,921	13,368	1407,625	769,655
-14,906	13,336	1407,018	769,143
-13,892	13,380	1405,902	768,707
-12,877	13,359	1405,038	768,107
-11,863	13,380	1404,072	767,646
-10,848	13,394	1403,317	767,264
-9,833	13,377	1402,331	766,618
-8,819	13,302	1401,616	765,848
-7,804	13,285	1400,731	765,255
-6,790	13,288	1399,580	764,610
-5,775	13,294	1398,553	764,047
-4,760	13,303	1397,529	763,497
-3,746	13,241	1396,724	762,740
-2,731	13,242	1395,924	762,276
-1,717	13,229	1394,849	761,598
-0,702	13,245	1393,179	760,731
0,313	17,136	1310,096	733,381
1,327	33,486	703,968	431,880
2,342	52,041	123,433	83,089
3,356	-0,010	16,615	8,347
4,371	-9,698	3,213	1,509
5,386	-43,753	0,646	0,229
6,400	800,000	0,053	0,125
7,415	320,848	-0,146	-0,197
8,429	220,507	-0,221	-0,251
9,444	201,378	-0,310	-0,338
10,459	117,436	-0,163	-0,142
11,473	70,369	-0,163	-0,119
12,488	800,000	-0,097	-0,279
13,502	50,277	-0,291	-0,194
14,517	263,364	-0,265	-0,326
15,531	395,439	-0,241	-0,357
16,546	209,775	-0,283	-0,314
17,561	4,197	-0,378	-0,195
18,575	-80,694	-0,111	0,026
19,590	190,778	-0,278	-0,295
20,604	-64,298	-0,427	-0,122
21,619	46,911	-0,504	-0,330
22,634	128,053	-0,341	-0,306
23,648	7,444	-0,341	-0,180
24,663	46,646	-0,535	-0,350
25,677	94,498	-0,329	-0,264
26,692	-20,175	-0,356	-0,154
27,707	60,222	-0,366	-0,255
28,721	171,210	-0,296	-0,300
29,736	-1,338	-0,462	-0,230
30,750	214,182	-0,304	-0,340
31,765	-48,059	-0,384	-0,130
32,780	128,069	-0,318	-0,285
33,794	90,627	-0,400	-0,316
34,809	14,777	-0,283	-0,156
35,823	13,186	-0,400	-0,218
36,838	130,200	-0,382	-0,345
37,853	9,897	-0,263	-0,140
38,867	43,067	-0,411	-0,264
39,882	120,249	-0,329	-0,288
40,896	69,713	-0,370	-0,269
41,911	243,709	-0,323	-0,383
42,926	34,755	-0,397	-0,244
43,940	169,564	-0,259	-0,261
44,955	77,754	-0,344	-0,258
45,969	24,111	-0,396	-0,230
46,984	5,588	-0,297	-0,154
47,999	122,288	-0,248	-0,218
49,013	202,061	-0,359	-0,390
50,028	131,724	-0,303	-0,275
51,042	453,346	-0,228	-0,357
52,057	116,743	-0,352	-0,304
53,071	241,918	-0,359	-0,423
54,086	236,851	-0,261	-0,305
55,101	192,183	-0,309	-0,329
56,115	38,819	-0,365	-0,229
57,130	115,585	-0,310	-0,267
58,144	214,865	-0,265	-0,296
59,159	68,224	-0,334	-0,241
60,174	36,969	-0,364	-0,226
61,188	-59,535	-0,440	-0,132
62,203	35,985	-0,304	-0,188
63,217	12,043	-0,364	-0,196
64,232	-3,094	-0,276	-0,135
65,247	17,026	-0,470	-0,262
66,261	-76,169	-0,443	-0,109
67,276	66,523	-0,282	-0,202
68,290	25,779	-0,280	-0,163
69,305	1,106	-0,295	-0,148
70,320	-58,841	-0,370	-0,112
71,334	105,444	-0,304	-0,253
72,349	-22,804	-0,369	-0,156
73,363	340,794	-0,196	-0,270
74,378	84,593	-0,376	-0,289
75,393	38,864	-0,382	-0,239
76,407	118,315	-0,180	-0,156
77,422	185,927	-0,190	-0,199
78,436	291,715	-0,128	-0,164
79,451	-17,979	-0,354	-0,155
80,466	277,389	-0,248	-0,311
81,480	266,614	-0,282	-0,347
82,495	10,755	-0,430	-0,230
83,509	286,547	-0,180	-0,229
84,524	-70,800	-0,373	-0,098
85,539	216,934	-0,203	-0,228
86,553	63,274	-0,344	-0,242
87,568	202,122	-0,252	-0,273
88,582	56,939	-0,312	-0,214
89,597	38,972	-0,276	-0,173
90,611	-43,224	-0,304	-0,107
91,626	-24,807	-0,246	-0,102
92,641	376,450	-0,137	-0,196
93,655	11,281	-0,259	-0,139
94,670	30,377	-0,357	-0,214
95,684	111,180	-0,360	-0,305
96,699	5,926	-0,319	-0,165
97,714	-143,004	-0,278	-0,019
98,728	-84,858	-0,161	-0,035
99,743	503,546	-0,129	-0,210
100,757	2,795	-0,194	-0,099
101,772	33,454	-0,280	-0,170
102,787	-26,117	-0,384	-0,158
103,801	53,554	-0,236	-0,159
104,816	265,061	-0,199	-0,244
105,830	35,069	-0,249	-0,153
106,845	98,341	-0,217	-0,175
107,860	228,796	-0,207	-0,237
108,874	15,874	-0,225	-0,124
109,889	-150,408	-0,212	0,011
110,903	179,508	-0,205	-0,211
111,918	78,266	-0,305	-0,228
112,933	800,000	-0,083	-0,172
113,947	68,812	-0,149	-0,107
114,962	136,738	-0,249	-0,228
115,976	44,400	-0,285	-0,183
116,991	73,078	-0,281	-0,205
118,006	-38,600	-0,328	-0,121
119,020	76,529	-0,254	-0,189
120,035	373,950	-0,178	-0,254
121,049	-200,000	-0,023	-0,222
122,064	167,347	-0,233	-0,232
123,079	93,313	-0,306	-0,243
124,093	90,726	-0,300	-0,235
125,108	-38,816	-0,323	-0,119
126,122	155,360	-0,214	-0,206
127,137	271,162	-0,148	-0,183
128,151	91,551	-0,205	-0,162
129,166	-57,637	-0,214	-0,065
130,181	67,347	-0,217	-0,155
131,195	125,674	-0,250	-0,221
132,210	188,564	-0,264	-0,277
133,224	25,140	-0,263	-0,153
134,239	-47,318	-0,276	-0,094
135,254	-53,835	-0,219	-0,070
136,268	121,007	-0,205	-0,179
137,283	276,828	-0,180	-0,225
138,297	-32,577	-0,345	-0,134
139,312	165,446	-0,212	-0,209
140,327	9,594	-0,276	-0,146
141,341	505,989	-0,201	-0,327
142,356	717,980	-0,127	-0,236
143,370	117,751	-0,161	-0,139
144,385	212,951	-0,270	-0,298
145,400	63,710	-0,363	-0,254
146,414	52,423	-0,329	-0,219
147,429	146,425	-0,287	-0,269
148,443	196,896	-0,258	-0,275
149,458	440,500	-0,175	-0,268
150,473	141,511	-0,247	-0,228
151,487	98,020	-0,177	-0,142
152,502	451,487	-0,173	-0,268
153,516	34,889	-0,297	-0,181
154,531	800,000	-0,155	-0,390
155,546	205,367	-0,173	-0,188
156,560	108,644	-0,230	-0,192
157,575	-66,225	-0,215	0,059
158,589	281,827	-0,134	-0,169
159,604	86,342	-0,237	-0,182
160,619	35,847	-0,272	-0,167
161,633	136,520	-0,311	-0,284
162,648	50,893	-0,226	-0,149
163,662	800,000	-0,068	-0,160
164,677	800,000	-0,081	-0,212
165,692	272,308	-0,158	-0,194
166,706	186,024	-0,198	-0,206
167,721	249,957	-0,126	-0,149
168,735	4,661	-0,303	-0,155
169,750	4,076	-0,276	-0,140
170,764	-27,608	-0,298	-0,120
171,779	112,992	-0,195	-0,165
172,794	102,273	-0,235	-0,192
173,808	-1,276	-0,255	-0,125
174,823	-72,262	-0,157	-0,040
175,837	37,052	-0,267	-0,165
176,852	74,258	-0,207	-0,151
177,867	132,299	-0,103	-0,093
178,881	106,137	-0,160	-0,132
179,896	168,205	-0,105	-0,104
180,910	6,304	-0,222	-0,115
181,925	122,440	-0,270	-0,235
182,940	132,132	-0,206	-0,185
183,954	-23,721	-0,285	-0,119
184,969	302,209	-0,233	-0,301
185,983	-67,715	-0,189	-0,051
186,998	514,938	-0,203	-0,331
188,013	67,993	-0,184	-0,131
189,027	31,221	-0,308	-0,184
190,042	197,759	-0,228	-0,242
191,056	72,219	-0,239	-0,173
192,071	247,060	-0,164	-0,194
193,086	-15,861	-0,244	-0,108
194,100	283,660	-0,148	-0,186
195,115	56,815	-0,234	-0,158
196,129	800,000	-0,118	-0,357
197,144	-200,000	-0,069	-0,284
198,159	74,531	-0,255	-0,186
199,173	206,744	-0,235	-0,255
200,188	6,556	-0,152	-0,078
201,202	-122,306	-0,234	-0,026
202,217	32,810	-0,136	-0,082
203,232	124,998	-0,231	-0,203
204,246	233,187	-0,206	-0,236
205,261	202,740	-0,293	-0,315
206,275	228,856	-0,165	-0,187
207,290	585,004	-0,066	-0,113
208,304	800,000	-0,130	-0,338
209,319	33,047	-0,192	-0,115
210,334	560,417	-0,197	-0,332
211,348	69,514	-0,194	-0,138
212,363	10,198	-0,283	-0,149
213,377	182,876	-0,119	-0,122
214,392	112,433	-0,181	-0,152
215,407	-47,152	-0,186	-0,063
216,421	-30,638	-0,192	-0,075
217,436	374,434	-0,186	-0,263
218,450	68,019	-0,219	-0,156
219,465	93,269	-0,186	-0,146
220,480	800,000	-0,120	-0,289
221,494	306,813	-0,157	-0,203
222,509	175,096	-0,145	-0,146
223,523	21,832	-0,212	-0,120
224,538	-38,054	-0,237	-0,087
225,553	118,599	-0,189	-0,162
226,567	196,365	-0,183	-0,193
227,582	-200,000	-0,050	-0,267
228,596	800,000	-0,092	-0,206
229,611	800,000	-0,079	-0,157
230,626	-148,436	-0,112	-0,006
231,640	-24,283	-0,193	-0,080
232,655	117,040	-0,172	-0,147
233,669	132,136	-0,224	-0,200
234,684	41,427	-0,271	-0,170
235,699	236,817	-0,172	-0,197
236,713	800,000	-0,083	-0,228
237,728	7,841	-0,146	-0,076
238,742	256,690	-0,070	-0,084
239,757	0,111	-0,300	-0,148
240,772	281,865	-0,151	-0,188
241,786	88,584	-0,183	-0,141
242,801	157,978	-0,190	-0,182
243,815	7,750	-0,180	-0,093
244,830	-44,206	-0,068	0,023
245,844	-51,929	-0,294	-0,094
246,859	800,000	-0,112	-0,249
247,874	653,066	-0,149	-0,266
248,888	-92,457	-0,167	-0,032
249,903	373,517	-0,270	-0,382
250,917	77,859	-0,224	-0,165
251,932	-1,519	-0,186	-0,091
252,947	115,081	-0,111	-0,094
253,961	34,288	-0,255	-0,154
254,976	386,368	-0,112	-0,160
255,990	295,630	-0,231	-0,293
257,005	65,522	-0,277	-0,194
258,020	-200,000	0,012	-0,058
259,034	800,000	-0,071	-0,174
260,049	-26,105	-0,244	-0,099
261,063	215,031	-0,208	-0,229
262,078	368,239	-0,216	-0,302
263,093	-200,000	-0,066	-0,212
264,107	582,412	-0,124	-0,212
265,122	484,159	-0,130	-0,206
266,136	-123,977	-0,228	-0,025
267,151	91,731	-0,091	-0,071
268,166	300,818	-0,134	-0,171
269,180	800,000	-0,098	-0,213
270,195	324,428	-0,195	-0,259
271,209	393,178	-0,199	-0,287
272,224	800,000	-0,095	-0,250
273,239	-148,775	-0,102	0,006
274,253	-92,858	-0,138	-0,026
275,268	-59,862	-0,199	-0,058
276,282	14,478	-0,163	-0,088
277,297	30,224	-0,101	-0,059
278,312	210,236	-0,143	-0,156
279,326	132,415	-0,129	-0,115
280,341	800,000	-0,018	-0,050
281,355	800,000	-0,028	0,063
282,370	-34,679	-0,204	-0,077
283,384	-24,573	-0,206	-0,084
284,399	102,986	-0,220	-0,178
285,414	1,664	-0,160	-0,079
286,428	54,690	-0,115	-0,077
287,443	27,707	-0,102	-0,059
288,457	800,000	-0,103	-0,197
289,472	130,271	-0,144	-0,127
290,487	224,612	-0,109	-0,122
291,501	800,000	-0,076	-0,221
292,516	122,636	-0,166	-0,143
293,530	800,000	-0,023	-0,063
294,545	29,005	-0,093	-0,054
295,560	443,175	-0,153	-0,232
296,574	177,405	-0,118	-0,118
297,589	-25,956	-0,211	-0,085
298,603	50,348	-0,134	-0,087
299,618	-50,949	-0,150	-0,048
300,633	800,000	-0,046	-0,113
301,647	-56,256	-0,134	-0,041
302,662	430,093	-0,056	-0,084
303,676	581,480	-0,063	-0,107
304,691	-39,082	-0,228	-0,082
305,706	770,864	-0,063	-0,119
306,720	126,348	-0,154	-0,134
307,735	92,113	-0,208	-0,161
308,749	-141,590	-0,107	-0,007
309,764	665,994	-0,115	-0,205
310,779	-200,000	-0,079	0,000
311,793	-23,252	-0,187	-0,077
312,808	-94,167	-0,214	0,040
313,822	-1,153	-0,101	-0,049
314,837	183,328	-0,081	-0,083
315,852	800,000	-0,036	-0,090
316,866	-69,038	-0,133	-0,035
317,881	85,246	-0,159	-0,120
318,895	392,379	-0,117	-0,169
319,910	800,000	-0,103	-0,230
320,925	-17,734	-0,149	-0,064
321,939	113,198	-0,124	-0,104
322,954	-47,387	-0,177	-0,059
323,968	250,037	-0,095	-0,111
324,983	-87,408	-0,161	-0,033
325,997	129,351	-0,102	-0,090
327,012	-89,383	-0,101	-0,020
328,027	36,783	-0,143	-0,087
329,041	-87,893	-0,120	-0,025
330,056	0,956	-0,118	-0,058
331,070	-151,956	-0,170	-0,008
332,085	-200,000	-0,034	-0,116
333,100	152,124	-0,136	-0,127
334,114	13,942	-0,147	-0,078
335,129	-200,000	-0,023	-0,162
336,143	191,030	-0,153	-0,158
337,158	-200,000	-0,029	-0,110
338,173	800,000	0,024	-0,046
339,187	51,223	-0,169	-0,110
340,202	153,083	-0,142	-0,133
341,216	475,347	-0,118	-0,183
342,231	-118,625	-0,229	-0,027
343,246	-6,528	-0,071	-0,033
344,260	224,352	-0,096	-0,107
345,275	34,239	-0,115	0,069
346,289	-75,956	-0,159	-0,038
347,304	-43,788	-0,097	-0,033
348,319	59,872	-0,127	-0,086
349,333	-184,778	-0,264	0,003
350,348	39,270	-0,125	-0,077
351,362	-51,684	-0,222	-0,071
352,377	143,310	-0,108	-0,099
353,392	-17,972	-0,094	-0,040
354,406	289,204	-0,043	-0,054
355,421	208,355	1313,238	1410,570
356,435	160,315	1473,782	1411,063
