DTS Sentinel unit serial number:	SN410029Multiplexer serial number:	ORYXHardware model number:	OX2-SRSoftware version number:	ORYX F/W v4,00 Oryx Data Collector v3.7.2.0data status	okinstallation	B3 Nyhavnadifferential loss correction	single-endedforward channel	channel 1reverse channel	N/Adate	2023/11/30time	18:37:30forward acquisition time	300,00reverse acquisition time	0,00gamma	499,1914k internal	0,3204k external	0,3204temperature offset calibration	1,0000default loss term (dB/km)	0,3820temperature slope calibration	1,0000multiplexer offset coefficient	1,0000multiplexer slope coefficient	1,0000fibre end	0,00T internal ref (°C)	12,58T ext. ref 1 (°C)	-2,65T ext. ref 2 (°C)	-2,75length (m)	temperature (°C)	Stokes	anti-Stokes-744,400	87,001	-0,288	-0,231
-743,385	-200,000	-0,043	0,353
-742,371	-200,000	0,005	-0,034
-741,356	-200,000	0,064	0,284
-740,342	-66,801	-0,159	-0,045
-739,327	-200,000	0,082	0,374
-738,312	59,599	-0,272	-0,194
-737,298	-200,000	-0,047	0,291
-736,283	179,941	-0,177	-0,188
-735,269	-200,000	0,039	0,237
-734,254	51,811	-0,329	-0,227
-733,239	117,522	-0,125	0,112
-732,225	-200,000	-0,051	-0,244
-731,210	800,000	0,055	0,167
-730,196	-88,718	0,087	0,019
-729,181	-13,674	-0,109	-0,051
-728,167	-155,574	-0,102	0,005
-727,152	792,692	0,078	0,157
-726,137	800,000	-0,053	-0,142
-725,123	2,316	-0,206	-0,108
-724,108	328,087	-0,083	-0,116
-723,094	800,000	-0,047	-0,114
-722,079	-39,826	-0,157	-0,059
-721,064	28,196	0,137	0,084
-720,050	-134,007	0,063	-0,006
-719,035	115,143	-0,032	0,028
-718,021	-93,573	-0,143	-0,028
-717,006	-200,000	0,042	-0,169
-715,991	5,569	-0,119	-0,064
-714,977	-200,000	0,000	0,022
-713,962	-200,000	0,020	0,065
-712,948	193,905	0,078	-0,086
-711,933	-200,000	0,010	0,088
-710,918	5,448	-0,034	0,018
-709,904	800,000	-0,084	-0,210
-708,889	-200,000	-0,009	0,039
-707,875	-4,044	-0,087	-0,043
-706,860	-200,000	-0,028	-0,133
-705,845	-64,413	0,096	-0,028
-704,831	-138,886	-0,125	-0,010
-703,816	-200,000	-0,037	0,164
-702,802	800,000	-0,062	-0,126
-701,787	52,632	-0,152	-0,105
-700,772	324,168	0,042	0,059
-699,758	-200,000	-0,001	-0,030
-698,743	-92,709	-0,109	0,022
-697,729	-29,048	0,104	0,043
-696,714	227,383	-0,098	-0,116
-695,699	-17,445	-0,024	-0,011
-694,685	-200,000	0,022	-0,106
-693,670	246,612	-0,105	-0,128
-692,656	266,408	0,096	-0,121
-691,641	396,812	-0,032	0,049
-690,627	800,000	0,088	0,213
-689,612	45,815	-0,031	0,021
-688,597	800,000	0,018	0,045
-687,583	800,000	-0,042	-0,114
-686,568	143,159	-0,146	-0,141
-685,554	176,538	-0,056	-0,059
-684,539	800,000	0,082	-0,169
-683,524	800,000	-0,028	-0,076
-682,510	-200,000	0,007	-0,156
-681,495	-59,640	-0,071	-0,022
-680,481	-87,731	-0,059	0,013
-679,466	539,013	-0,061	-0,105
-678,451	-132,440	0,095	-0,009
-677,437	-200,000	-0,037	-0,139
-676,422	-200,000	-0,012	-0,079
-675,408	-23,156	0,026	-0,011
-674,393	-84,506	-0,041	0,009
-673,378	532,371	-0,106	-0,183
-672,364	137,763	0,012	0,011
-671,349	53,127	-0,190	-0,132
-670,335	-84,632	0,057	0,013
-669,320	-200,000	0,021	0,071
-668,305	176,171	0,060	0,063
-667,291	141,974	0,078	-0,075
-666,276	399,150	-0,070	-0,106
-665,262	-200,000	-0,023	-0,166
-664,247	-200,000	-0,016	-0,079
-663,232	496,712	0,041	-0,068
-662,218	-200,000	0,014	-0,108
-661,203	39,065	0,078	0,051
-660,189	454,137	0,061	0,098
-659,174	63,702	-0,074	0,054
-658,159	800,000	-0,035	-0,081
-657,145	-200,000	-0,014	-0,092
-656,130	-87,334	0,016	0,003
-655,116	-21,009	0,085	0,037
-654,101	38,302	0,059	-0,038
-653,086	-200,000	0,005	0,067
-652,072	5,422	-0,022	0,012
-651,057	-36,752	-0,118	-0,046
-650,043	-189,701	-0,055	-0,000
-649,028	54,441	0,139	-0,097
-648,014	238,403	-0,102	0,123
-646,999	-3,999	0,040	0,020
-645,984	-141,434	-0,039	-0,003
-644,970	123,835	-0,069	-0,063
-643,955	-200,000	-0,017	-0,082
-642,941	-147,726	-0,133	-0,008
-641,926	332,952	0,054	0,075
-640,911	0,459	-0,024	0,012
-639,897	800,000	0,018	0,045
-638,882	25,368	-0,058	0,035
-637,868	-200,000	-0,005	-0,084
-636,853	-88,070	-0,150	-0,032
-635,838	-86,557	-0,100	0,022
-634,824	-200,000	0,005	-0,049
-633,809	-16,788	-0,054	-0,025
-632,795	-200,000	0,030	0,119
-631,780	81,082	-0,098	-0,076
-630,765	177,608	0,032	-0,034
-629,751	-57,819	-0,026	0,008
-628,736	19,036	-0,057	0,033
-627,722	320,079	-0,049	-0,068
-626,707	-200,000	0,017	0,132
-625,692	191,801	-0,028	0,030
-624,678	-200,000	0,008	-0,062
-623,663	-80,092	-0,080	-0,019
-622,649	124,613	0,005	0,005
-621,634	-79,691	-0,176	-0,042
-620,619	244,311	-0,079	-0,096
-619,605	-9,978	-0,086	-0,041
-618,590	5,041	0,118	-0,063
-617,576	116,640	0,101	0,089
-616,561	279,630	-0,056	-0,073
-615,546	800,000	0,011	-0,028
-614,532	-200,000	-0,017	-0,074
-613,517	-200,000	-0,002	-0,078
-612,503	-200,000	0,006	-0,072
-611,488	-47,817	0,048	-0,017
-610,474	-200,000	-0,001	0,121
-609,459	-200,000	-0,005	-0,024
-608,444	208,669	-0,087	-0,098
-607,430	222,955	0,063	-0,074
-606,415	-97,144	-0,113	-0,021
-605,401	-92,256	0,087	-0,018
-604,386	46,491	0,093	0,062
-603,371	-200,000	-0,021	0,155
-602,357	-200,000	0,006	0,074
-601,342	357,710	0,043	-0,062
-600,328	134,043	0,048	-0,045
-599,313	76,347	-0,040	-0,031
-598,298	-66,939	0,089	0,025
-597,284	195,100	0,084	0,092
-596,269	800,000	-0,048	-0,110
-595,255	-83,198	0,209	0,048
-594,240	761,199	-0,019	-0,038
-593,225	87,882	-0,028	0,023
-592,211	800,000	-0,062	-0,137
-591,196	140,522	-0,074	0,071
-590,182	26,465	0,057	-0,034
-589,167	238,953	0,109	-0,132
-588,152	-69,009	-0,122	0,034
-587,138	800,000	-0,007	-0,022
-586,123	800,000	-0,016	-0,033
-585,109	-75,965	0,046	-0,012
-584,094	-116,993	-0,130	-0,017
-583,079	36,502	0,063	0,040
-582,065	-186,112	0,016	-0,000
-581,050	81,604	0,022	-0,017
-580,036	346,949	-0,094	0,134
-579,021	800,000	0,016	-0,048
-578,006	800,000	-0,024	0,050
-576,992	800,000	0,033	-0,066
-575,977	-79,029	0,075	0,018
-574,963	-200,000	0,006	0,058
-573,948	-50,077	0,101	0,034
-572,934	-96,222	-0,149	0,028
-571,919	612,777	-0,031	-0,055
-570,904	-128,382	-0,060	0,006
-569,890	1,617	-0,175	-0,090
-568,875	-200,000	-0,018	0,065
-567,861	261,065	0,067	0,084
-566,846	-200,000	0,003	0,054
-565,831	761,334	-0,034	0,067
-564,817	-200,000	-0,005	-0,020
-563,802	-28,145	-0,117	-0,048
-562,788	-156,901	-0,072	0,003
-561,773	207,427	-0,055	0,062
-560,758	122,983	0,010	-0,009
-559,744	-67,605	0,057	0,016
-558,729	-200,000	-0,001	0,115
-557,715	155,735	-0,050	-0,050
-556,700	-200,000	-0,014	0,045
-555,685	580,125	-0,102	-0,180
-554,671	247,609	-0,030	0,037
-553,656	666,284	0,049	-0,092
-552,642	83,532	0,090	-0,071
-551,627	9,077	0,059	0,032
-550,612	37,614	-0,018	-0,011
-549,598	-75,444	0,045	0,011
-548,583	-200,000	-0,009	0,077
-547,569	-105,337	0,091	-0,015
-546,554	-200,000	0,008	0,130
-545,539	-81,515	0,018	0,004
-544,525	-125,470	0,102	-0,011
-543,510	12,327	-0,099	-0,055
-542,496	-200,000	0,019	-0,159
-541,481	471,393	-0,094	-0,154
-540,466	-200,000	0,000	-0,005
-539,452	-41,385	0,070	-0,026
-538,437	-65,016	-0,063	0,018
-537,423	435,443	0,062	0,097
-536,408	-106,466	-0,031	-0,005
-535,393	40,909	-0,144	0,093
-534,379	231,132	-0,071	-0,084
-533,364	122,712	-0,105	0,095
-532,350	-200,000	-0,011	0,101
-531,335	-200,000	0,009	0,189
-530,321	188,658	-0,058	-0,063
-529,306	-51,696	-0,090	-0,030
-528,291	800,000	-0,023	-0,048
-527,277	321,342	-0,089	-0,123
-526,262	97,255	0,101	-0,083
-525,248	800,000	0,029	0,085
-524,233	187,590	0,050	0,054
-523,218	17,603	-0,085	-0,048
-522,204	-24,743	0,010	-0,004
-521,189	-34,872	0,106	-0,041
-520,175	154,513	-0,028	0,028
-519,160	96,694	0,050	-0,041
-518,145	-200,000	0,017	0,055
-517,131	-81,313	-0,090	0,021
-516,116	253,169	0,096	0,118
-515,102	800,000	0,007	-0,014
-514,087	389,986	0,012	0,018
-513,072	268,907	-0,114	-0,144
-512,058	-200,000	-0,031	-0,113
-511,043	800,000	-0,026	0,053
-510,029	5,272	0,045	0,024
-509,014	219,081	0,060	0,070
-507,999	14,577	0,053	-0,030
-506,985	354,095	-0,052	0,074
-505,970	196,900	-0,119	-0,130
-504,956	800,000	-0,013	-0,032
-503,941	-30,212	-0,125	0,051
-502,926	46,454	0,058	-0,038
-501,912	-122,604	-0,080	0,009
-500,897	-110,220	-0,179	0,027
-499,883	55,086	0,031	0,021
-498,868	46,782	-0,104	-0,069
-497,853	34,751	-0,161	0,101
-496,839	800,000	0,028	-0,067
-495,824	-118,531	0,180	-0,023
-494,810	-89,491	0,102	0,021
-493,795	-200,000	-0,004	-0,064
-492,781	166,426	-0,055	-0,056
-491,766	-66,939	0,054	-0,015
-490,751	-50,299	0,147	-0,050
-489,737	-200,000	-0,002	0,162
-488,722	-200,000	-0,014	0,244
-487,708	-64,993	-0,082	-0,024
-486,693	33,428	0,099	-0,062
-485,678	800,000	0,016	0,041
-484,664	-200,000	-0,007	0,050
-483,649	-57,393	-0,079	-0,025
-482,635	-156,049	0,033	0,001
-481,620	-154,888	0,055	0,003
-480,605	77,290	0,066	0,050
-479,591	93,640	-0,083	-0,068
-478,576	533,428	0,021	0,036
-477,562	-200,000	0,028	-0,176
-476,547	-41,011	-0,144	0,053
-475,532	-122,154	-0,060	0,007
-474,518	-54,699	0,158	0,051
-473,503	800,000	0,064	0,168
-472,489	-13,987	0,090	0,042
-471,474	235,895	-0,142	0,169
-470,459	-19,046	-0,103	-0,046
-469,445	800,000	0,009	-0,022
-468,430	124,377	0,038	0,034
-467,416	117,116	0,148	0,131
-466,401	-200,000	0,001	0,113
-465,386	800,000	-0,032	0,073
-464,372	800,000	-0,049	0,107
-463,357	800,000	-0,043	-0,114
-462,343	28,101	0,055	-0,033
-461,328	-200,000	0,004	-0,014
-460,313	-117,082	-0,075	-0,010
-459,299	270,746	0,108	-0,137
-458,284	501,092	-0,039	-0,065
-457,270	-165,465	0,077	0,002
-456,255	800,000	0,028	-0,069
-455,241	160,672	-0,046	-0,046
-454,226	-98,969	-0,053	0,010
-453,211	-66,498	-0,031	0,009
-452,197	-123,374	-0,025	0,003
-451,182	207,725	0,027	0,030
-450,168	-200,000	0,005	0,056
-449,153	-15,766	-0,092	0,042
-448,138	204,849	-0,036	-0,040
-447,124	349,462	0,015	0,021
-446,109	-74,867	0,142	0,036
-445,095	-83,297	0,067	-0,015
-444,080	-200,000	0,002	-0,035
-443,065	235,489	-0,011	-0,013
-442,051	139,595	-0,055	-0,052
-441,036	259,431	0,070	-0,087
-440,022	62,712	0,105	-0,076
-439,007	312,015	0,112	0,151
-437,992	800,000	-0,015	0,045
-436,978	132,507	-0,046	-0,042
-435,963	149,322	0,107	0,104
-434,949	-200,000	0,013	-0,109
-433,934	-200,000	-0,033	-0,106
-432,919	85,549	-0,068	-0,054
-431,905	800,000	0,068	-0,184
-430,890	3,651	-0,065	-0,034
-429,876	15,173	0,113	0,063
-428,861	207,470	-0,019	0,021
-427,846	200,477	-0,094	-0,103
-426,832	227,378	-0,105	-0,122
-425,817	-28,701	0,101	-0,041
-424,803	800,000	0,043	-0,118
-423,788	162,922	0,072	-0,073
-422,773	6,715	0,152	-0,081
-421,759	-114,485	0,130	0,018
-420,744	254,357	-0,113	-0,139
-419,730	-116,448	-0,103	0,014
-418,715	143,665	-0,132	-0,126
-417,701	755,099	0,071	-0,138
-416,686	-43,824	0,138	0,050
-415,671	800,000	0,059	0,138
-414,657	33,763	0,121	0,075
-413,642	-200,000	-0,008	0,068
-412,628	-66,545	0,066	-0,019
-411,613	-61,567	-0,123	-0,037
-410,598	-104,284	0,062	-0,010
-409,584	-200,000	-0,036	0,114
-408,569	-116,737	-0,106	0,014
-407,555	-200,000	0,035	0,198
-406,540	82,070	0,040	-0,031
-405,525	52,872	0,011	-0,008
-404,511	800,000	0,062	-0,178
-403,496	-8,488	0,062	0,030
-402,482	489,609	-0,060	0,099
-401,467	-142,898	0,206	0,014
-400,452	304,638	-0,073	0,098
-399,438	-83,809	0,178	0,040
-398,423	-200,000	0,023	-0,106
-397,409	-200,000	0,000	-0,049
-396,394	-23,401	-0,139	-0,060
-395,379	800,000	-0,010	0,028
-394,365	-118,558	0,079	0,010
-393,350	800,000	0,027	0,059
-392,336	-142,953	0,074	0,005
-391,321	-200,000	0,050	0,181
-390,306	205,616	-0,064	-0,072
-389,292	-200,000	-0,009	0,051
-388,277	-200,000	0,012	-0,090
-387,263	-85,123	-0,080	0,018
-386,248	478,328	0,061	0,099
-385,233	-23,820	-0,031	-0,013
-384,219	-24,622	-0,092	-0,039
-383,204	365,046	-0,027	-0,039
-382,190	-200,000	-0,002	-0,027
-381,175	-200,000	-0,022	-0,129
-380,160	800,000	0,054	0,171
-379,146	34,803	0,097	-0,061
-378,131	25,040	0,015	0,009
-377,117	284,836	0,017	0,022
-376,102	72,391	-0,007	0,005
-375,088	-200,000	0,017	-0,075
-374,073	14,769	-0,164	-0,092
-373,058	707,873	0,086	0,164
-372,044	-44,078	0,091	0,032
-371,029	-70,787	-0,068	0,018
-370,015	511,474	-0,016	0,026
-369,000	-200,000	-0,047	0,205
-367,985	624,643	-0,019	0,035
-366,971	-200,000	-0,002	-0,038
-365,956	800,000	0,007	0,017
-364,942	398,738	0,066	0,100
-363,927	61,862	0,053	0,038
-362,912	427,070	0,080	-0,124
-361,898	-123,393	0,041	0,005
-360,883	354,855	-0,030	-0,043
-359,869	-200,000	0,002	-0,106
-358,854	-200,000	-0,013	0,099
-357,839	800,000	0,018	0,036
-356,825	606,063	0,030	0,053
-355,810	382,039	0,070	0,103
-354,796	-137,969	-0,205	0,016
-353,781	-200,000	-0,010	-0,105
-352,766	-200,000	0,021	-0,219
-351,752	39,509	-0,036	-0,023
-350,737	26,010	0,053	0,032
-349,723	-127,287	0,057	0,006
-348,708	-140,423	0,015	0,001
-347,693	-92,023	-0,061	-0,012
-346,679	-6,746	-0,147	-0,071
-345,664	-13,741	-0,079	-0,037
-344,650	39,686	0,037	0,024
-343,635	124,314	0,077	0,069
-342,620	260,176	0,102	0,126
-341,606	-116,239	-0,045	0,006
-340,591	7,533	-0,092	-0,049
-339,577	586,790	0,006	0,010
-338,562	178,296	-0,047	0,049
-337,548	-200,000	-0,026	-0,088
-336,533	236,678	-0,005	0,006
-335,518	-5,462	0,142	0,069
-334,504	-105,757	-0,106	-0,017
-333,489	211,704	-0,059	-0,066
-332,475	189,320	0,017	-0,019
-331,460	-167,793	0,093	0,003
-330,445	-97,675	0,056	0,010
-329,431	-200,000	0,006	-0,131
-328,416	257,670	0,090	0,110
-327,402	-74,541	0,102	0,026
-326,387	-145,998	0,131	0,008
-325,372	4,807	0,017	0,009
-324,358	-200,000	0,015	-0,060
-323,343	-147,303	-0,099	0,006
-322,329	385,473	0,022	0,033
-321,314	-98,276	-0,065	-0,012
-320,299	58,373	0,094	0,066
-319,285	207,218	-0,015	-0,017
-318,270	156,031	-0,097	-0,095
-317,256	-64,115	0,112	0,032
-316,241	84,677	0,043	0,033
-315,226	-94,306	-0,117	-0,023
-314,212	188,712	0,059	0,063
-313,197	281,887	-0,049	0,062
-312,183	-200,000	-0,008	0,030
-311,168	169,838	0,042	-0,043
-310,153	800,000	0,046	-0,120
-309,139	-144,214	0,095	0,006
-308,124	-200,000	0,004	-0,077
-307,110	-200,000	-0,024	0,171
-306,095	-200,000	0,006	-0,033
-305,080	-200,000	0,028	0,112
-304,066	120,164	0,097	0,086
-303,051	-81,725	-0,081	-0,019
-302,037	751,166	-0,037	0,072
-301,022	-71,226	-0,062	0,017
-300,008	-149,995	-0,060	0,003
-298,993	787,136	-0,004	0,008
-297,978	-60,704	0,125	-0,038
-296,964	-200,000	-0,001	0,006
-295,949	-75,987	0,090	0,023
-294,935	-200,000	0,014	-0,080
-293,920	268,342	0,084	-0,105
-292,905	-56,684	0,071	-0,022
-291,891	-31,354	0,049	-0,020
-290,876	-133,162	-0,067	-0,006
-289,862	-158,613	-0,133	0,005
-288,847	118,687	-0,054	-0,048
-287,832	124,254	0,092	-0,082
-286,818	58,299	-0,064	0,045
-285,803	800,000	-0,033	0,097
-284,789	335,537	-0,041	-0,056
-283,774	-105,856	0,131	0,021
-282,759	-143,647	0,024	-0,002
-281,745	-16,902	-0,065	0,029
-280,730	-10,679	-0,142	-0,067
-279,716	-110,399	-0,050	0,007
-278,701	800,000	0,012	0,028
-277,686	-200,000	0,002	0,047
-276,672	130,207	0,046	0,042
-275,657	-159,260	0,086	0,003
-274,643	-76,321	-0,206	0,051
-273,628	-200,000	-0,008	-0,095
-272,613	-164,293	0,090	0,003
-271,599	62,572	-0,033	-0,023
-270,584	50,619	0,122	-0,082
-269,570	-69,061	-0,111	-0,030
-268,555	-68,292	-0,073	-0,020
-267,540	-200,000	-0,007	-0,033
-266,526	-200,000	0,014	-0,193
-265,511	-126,685	-0,084	-0,009
-264,497	248,752	-0,096	0,116
-263,482	158,764	0,065	0,065
-262,467	-200,000	-0,011	0,099
-261,453	606,246	0,037	0,065
-260,438	-108,509	0,030	-0,005
-259,424	50,961	-0,105	-0,071
-258,409	24,264	0,111	0,065
-257,395	-10,072	-0,112	0,053
-256,380	58,577	0,116	0,081
-255,365	414,756	0,026	0,040
-254,351	38,168	-0,065	0,041
-253,336	498,647	-0,039	0,064
-252,322	-95,917	-0,029	-0,006
-251,307	-200,000	-0,008	-0,048
-250,292	-200,000	-0,007	0,038
-249,278	-200,000	0,003	-0,042
-248,263	-78,088	0,094	0,023
-247,249	766,480	-0,048	0,093
-246,234	800,000	0,037	0,112
-245,219	-146,360	-0,101	0,006
-244,205	667,309	-0,052	-0,096
-243,190	800,000	0,023	0,049
-242,176	-200,000	-0,053	0,231
-241,161	19,528	0,047	0,027
-240,146	800,000	0,028	-0,063
-239,132	102,290	-0,083	-0,069
-238,117	800,000	0,042	-0,093
-237,103	0,382	0,047	0,024
-236,088	-200,000	-0,003	-0,021
-235,073	-200,000	0,027	-0,140
-234,059	-200,000	0,032	0,000
-233,044	-200,000	0,034	-0,143
-232,030	-200,000	-0,006	0,057
-231,015	-111,366	0,084	0,012
-230,000	-34,089	-0,051	0,020
-228,986	-200,000	0,013	-0,091
-227,971	-81,102	-0,008	0,002
-226,957	-200,000	0,028	0,128
-225,942	60,879	0,049	-0,034
-224,927	-176,418	0,045	-0,001
-223,913	-200,000	0,016	-0,065
-222,898	201,197	-0,093	-0,102
-221,884	394,980	-0,073	0,108
-220,869	-96,423	0,044	0,008
-219,855	50,784	0,059	-0,040
-218,840	-200,000	0,009	-0,040
-217,825	-184,798	0,028	0,000
-216,811	62,307	-0,085	-0,060
-215,796	-12,049	-0,069	-0,032
-214,782	200,748	0,135	-0,148
-213,767	7,599	-0,094	-0,050
-212,752	-28,861	0,151	0,061
-211,738	-200,000	-0,013	0,159
-210,723	-147,559	-0,012	0,001
-209,709	147,487	-0,086	0,082
-208,694	4,850	-0,110	0,057
-207,679	-200,000	0,006	-0,093
-206,665	121,912	-0,116	-0,103
-205,650	80,923	0,043	0,033
-204,636	-200,000	0,027	0,133
-203,621	145,768	0,013	0,012
-202,606	159,134	-0,143	-0,141
-201,592	800,000	0,034	-0,092
-200,577	-57,638	-0,093	0,029
-199,563	-115,774	0,044	-0,006
-198,548	800,000	-0,017	0,043
-197,533	800,000	-0,039	0,096
-196,519	-190,748	0,110	0,001
-195,504	61,767	-0,046	-0,033
-194,490	800,000	0,023	-0,053
-193,475	99,194	0,038	0,031
-192,460	800,000	0,065	-0,183
-191,446	-200,000	0,000	0,042
-190,431	468,970	0,077	0,123
-189,417	-49,686	0,053	0,018
-188,402	-174,469	-0,165	0,003
-187,387	-200,000	0,016	-0,129
-186,373	-117,317	-0,080	0,010
-185,358	800,000	-0,024	-0,054
-184,344	555,847	-0,043	-0,074
-183,329	800,000	0,052	0,126
-182,315	-20,268	-0,099	0,043
-181,300	54,901	0,120	0,082
-180,285	66,731	0,015	-0,011
-179,271	-39,117	0,056	-0,021
-178,256	800,000	0,050	-0,100
-177,242	346,912	-0,037	-0,052
-176,227	299,294	-0,075	0,098
-175,212	-200,000	-0,024	0,111
-174,198	-84,756	-0,110	0,024
-173,183	800,000	0,065	-0,136
-172,169	800,000	0,027	0,073
-171,154	17,450	0,099	0,056
-170,139	54,595	0,110	0,075
-169,125	5,289	0,085	-0,044
-168,110	109,257	0,088	0,075
-167,096	550,174	-0,018	0,031
-166,081	-88,443	0,020	0,004
-165,066	800,000	-0,011	0,030
-164,052	-39,105	0,058	-0,022
-163,037	182,054	-0,067	0,070
-162,023	112,380	0,051	0,044
-161,008	771,093	0,061	-0,119
-159,993	612,084	0,055	-0,097
-158,979	159,896	0,144	-0,143
-157,964	-200,000	-0,005	0,081
-156,950	-44,479	-0,025	-0,009
-155,935	72,388	0,072	0,053
-154,920	800,000	-0,061	0,138
-153,906	67,946	-0,077	0,056
-152,891	-200,000	0,028	0,102
-151,877	-82,903	-0,076	-0,017
-150,862	-200,000	-0,003	0,021
-149,847	-73,911	-0,064	0,016
-148,833	-17,259	0,069	-0,031
-147,818	-82,067	0,125	0,029
-146,804	425,239	-0,073	0,112
-145,789	800,000	0,031	0,069
-144,775	800,000	-0,012	0,031
-143,760	-172,287	-0,129	-0,003
-142,745	19,431	-0,027	-0,015
-141,731	-161,794	-0,114	-0,004
-140,716	-200,000	-0,017	-0,093
-139,702	-200,000	0,022	0,082
-138,687	58,443	0,107	0,074
-137,672	73,754	0,064	0,048
-136,658	259,608	-0,025	0,031
-135,643	153,078	0,087	-0,085
-134,629	-98,950	-0,038	0,007
-133,614	-11,631	0,068	0,032
-132,599	-200,000	0,029	0,139
-131,585	800,000	-0,018	-0,036
-130,570	-106,090	-0,098	0,015
-129,556	424,226	0,030	-0,047
-128,541	600,064	-0,037	0,065
-127,526	509,776	0,028	-0,046
-126,512	412,468	0,066	0,099
-125,497	-200,000	0,005	0,123
-124,483	169,298	-0,035	0,036
-123,468	-78,854	0,135	0,032
-122,453	63,584	-0,088	-0,063
-121,439	342,789	-0,110	-0,153
-120,424	695,787	0,046	-0,087
-119,410	164,526	-0,068	-0,068
-118,395	-13,256	0,101	0,046
-117,380	-200,000	0,009	0,051
-116,366	-200,000	0,036	0,184
-115,351	800,000	0,005	-0,013
-114,337	800,000	0,046	-0,141
-113,322	-24,406	0,069	0,029
-112,307	205,038	-0,040	0,044
-111,293	800,000	0,053	0,145
-110,278	117,926	0,060	-0,052
-109,264	-200,000	-0,010	0,113
-108,249	-200,000	-0,019	-0,061
-107,234	800,000	0,020	-0,041
-106,220	115,391	-0,103	-0,089
-105,205	-80,534	-0,066	0,015
-104,191	-88,470	0,029	-0,006
-103,176	-107,859	-0,145	0,022
-102,162	130,271	0,072	0,065
-101,147	-200,000	0,008	-0,115
-100,132	33,662	0,025	-0,016
-99,118	75,186	-0,074	-0,055
-98,103	-143,694	0,194	-0,013
-97,089	552,389	0,040	0,069
-96,074	-71,723	0,144	-0,038
-95,059	-97,028	-0,093	-0,017
-94,045	-200,000	0,009	-0,066
-93,030	325,493	-0,019	-0,026
-92,016	40,018	-0,082	0,052
-91,001	104,537	-0,078	0,065
-89,986	800,000	0,038	0,075
-88,972	72,888	-0,028	0,020
-87,957	364,941	0,021	0,030
-86,943	-94,919	-0,029	-0,006
-85,928	19,446	-0,150	-0,085
-84,913	171,809	-0,038	-0,039
-83,899	-200,000	0,033	-0,121
-82,884	-200,000	0,008	-0,084
-81,870	-200,000	0,008	-0,080
-80,855	59,487	0,153	0,107
-79,840	800,000	0,011	0,028
-78,826	-200,000	-0,018	0,097
-77,811	-124,653	0,107	0,012
-76,797	510,657	-0,087	-0,144
-75,782	18,106	0,124	0,070
-74,767	-95,271	0,119	0,022
-73,753	87,682	0,066	0,051
-72,738	137,072	-0,062	-0,057
-71,724	-145,564	-0,052	0,003
-70,709	-197,401	0,038	-0,000
-69,694	800,000	-0,012	0,026
-68,680	-56,062	-0,026	-0,008
-67,665	7,510	-0,051	0,027
-66,651	347,681	0,029	0,041
-65,636	-200,000	0,011	0,090
-64,622	125,647	-0,185	-0,165
-63,607	-36,278	0,092	0,035
-62,592	-200,000	-0,049	0,153
-61,578	800,000	-0,058	0,146
-60,563	-151,728	0,151	0,008
-59,549	165,444	0,073	0,074
-58,534	11,297	-1,676	-0,905
-57,519	378,541	-1,439	-2,089
-56,505	-200,000	-0,457	-4,329
-55,490	350,613	0,843	1,182
-54,476	800,000	4,993	11,011
-53,461	-200,000	19,782	330,403
-52,446	-200,000	744,883	2336,648
-51,432	565,918	1654,584	2849,451
-50,417	76,653	1667,116	1249,198
-49,403	20,487	1540,702	878,659
-48,388	14,431	1463,188	805,077
-47,373	18,629	1453,339	819,848
-46,359	16,783	1442,985	805,156
-45,344	12,745	1438,178	783,162
-44,330	12,605	1436,589	781,597
-43,315	12,616	1434,798	780,647
-42,300	12,626	1433,215	779,800
-41,286	12,649	1431,835	779,127
-40,271	12,586	1430,598	778,122
-39,257	12,616	1429,258	777,507
-38,242	12,670	1427,933	777,010
-37,227	12,636	1426,836	776,223
-36,213	12,684	1425,406	775,641
-35,198	12,655	1424,479	774,966
-34,184	12,712	1423,484	774,667
-33,169	12,649	1421,950	773,502
-32,154	12,686	1420,995	773,125
-31,140	12,702	1419,623	772,428
-30,125	12,697	1418,579	771,803
-29,111	12,713	1417,470	771,243
-28,096	12,688	1416,528	770,586
-27,082	12,597	1415,518	769,575
-26,067	12,646	1414,222	769,070
-25,052	12,635	1413,348	768,515
-24,038	12,633	1412,161	767,827
-23,023	12,585	1411,178	767,039
-22,009	12,618	1410,037	766,542
-20,994	12,577	1409,160	765,844
-19,979	12,583	1408,381	765,417
-18,965	12,585	1407,440	764,883
-17,950	12,522	1406,712	764,166
-16,936	12,567	1405,713	763,801
-15,921	12,535	1404,519	762,974
-14,906	12,541	1403,748	762,552
-13,892	12,565	1402,737	762,087
-12,877	12,489	1401,848	761,216
-11,863	12,551	1400,856	760,937
-10,848	12,504	1399,946	760,192
-9,833	12,477	1399,452	759,771
-8,819	12,420	1398,649	759,039
-7,804	12,415	1397,706	758,474
-6,790	12,421	1396,530	757,835
-5,775	12,435	1395,392	757,250
-4,760	12,489	1394,427	756,948
-3,746	12,388	1393,374	755,876
-2,731	12,407	1392,757	755,600
-1,717	12,414	1391,947	755,162
-0,702	12,355	1390,065	753,843
0,313	16,195	1305,933	725,936
1,327	32,496	699,288	426,145
2,342	50,129	122,269	81,445
3,356	-1,581	16,755	8,317
4,371	-1,128	3,284	1,635
5,386	12,232	0,610	0,331
6,400	-200,000	-0,030	0,371
7,415	8,143	-0,187	-0,099
8,429	-36,703	-0,310	-0,117
9,444	140,075	-0,266	-0,248
10,459	71,346	-0,257	-0,188
11,473	-99,387	-0,276	-0,049
12,488	39,069	-0,200	-0,126
13,502	-38,814	-0,271	-0,100
14,517	-150,840	-0,227	-0,012
15,531	82,386	-0,293	-0,224
16,546	44,823	-0,444	-0,288
17,561	158,422	-0,441	-0,432
18,575	94,637	-0,283	-0,227
19,590	-10,818	-0,336	-0,156
20,604	44,413	-0,279	-0,181
21,619	60,219	-0,408	-0,284
22,634	122,333	-0,463	-0,408
23,648	121,769	-0,344	-0,303
24,663	4,181	-0,565	-0,291
25,677	14,057	-0,264	-0,144
26,692	60,028	-0,399	-0,278
27,707	129,000	-0,277	-0,249
28,721	113,594	-0,432	-0,370
29,736	47,253	-0,455	-0,298
30,750	80,224	-0,345	-0,261
31,765	-19,684	-0,422	-0,183
32,780	118,788	-0,416	-0,362
33,794	88,609	-0,342	-0,268
34,809	146,526	-0,373	-0,354
35,823	14,335	-0,374	-0,205
36,838	53,667	-0,466	-0,314
37,853	123,765	-0,369	-0,326
38,867	68,562	-0,272	-0,196
39,882	69,073	-0,280	-0,203
40,896	31,219	-0,324	-0,195
41,911	135,961	-0,298	-0,274
42,926	-94,307	-0,459	-0,088
43,940	123,179	-0,300	-0,265
44,955	505,744	-0,228	-0,374
45,969	29,868	-0,388	-0,232
46,984	-7,308	-0,159	-0,076
47,999	-5,816	-0,305	-0,146
49,013	-97,347	-0,279	-0,051
50,028	74,224	-0,295	-0,218
51,042	66,377	-0,349	-0,249
52,057	136,915	-0,350	-0,322
53,071	80,011	-0,433	-0,327
54,086	180,502	-0,272	-0,281
55,101	230,037	-0,250	-0,288
56,115	30,898	-0,400	-0,240
57,130	433,043	-0,210	-0,322
58,144	116,397	-0,343	-0,296
59,159	183,670	-0,398	-0,414
60,174	24,352	-0,389	-0,226
61,188	-2,295	-0,344	-0,169
62,203	111,326	-0,247	-0,209
63,217	1,882	-0,413	-0,209
64,232	57,298	-0,382	-0,262
65,247	252,565	-0,199	-0,239
66,261	90,212	-0,338	-0,266
67,276	50,076	-0,538	-0,356
68,290	33,629	-0,344	-0,209
69,305	62,483	-0,275	-0,193
70,320	-44,128	-0,367	-0,129
71,334	50,693	-0,300	-0,199
72,349	90,415	-0,324	-0,255
73,363	64,905	-0,357	-0,253
74,378	58,224	-0,352	-0,242
75,393	122,184	-0,306	-0,268
76,407	115,468	-0,343	-0,294
77,422	-97,008	-0,192	-0,035
78,436	135,753	-0,261	-0,239
79,451	147,417	-0,277	-0,262
80,466	106,825	-0,278	-0,232
81,480	-11,378	-0,318	-0,146
82,495	-60,307	-0,389	-0,115
83,509	28,610	-0,231	-0,137
84,524	-94,846	-0,334	-0,063
85,539	-7,132	-0,323	-0,153
86,553	73,150	-0,274	-0,201
87,568	78,010	-0,348	-0,260
88,582	106,818	-0,269	-0,224
89,597	40,180	-0,311	-0,196
90,611	-27,532	-0,294	-0,119
91,626	30,703	-0,351	-0,210
92,641	144,155	-0,211	-0,198
93,655	-64,028	-0,209	-0,059
94,670	-3,494	-0,355	-0,173
95,684	252,627	-0,257	-0,307
96,699	81,363	-0,342	-0,259
97,714	62,600	-0,297	-0,208
98,728	303,803	-0,207	-0,269
99,743	52,183	-0,265	-0,177
100,757	-40,317	-0,217	-0,079
101,772	83,765	-0,231	-0,176
102,787	-101,973	-0,343	-0,057
103,801	-86,046	-0,226	-0,048
104,816	45,966	-0,315	-0,204
105,830	278,129	-0,167	-0,208
106,845	-39,021	-0,239	-0,088
107,860	327,695	-0,224	-0,302
108,874	-135,180	-0,217	0,018
109,889	26,894	-0,257	-0,150
110,903	-22,875	-0,340	-0,143
111,918	-81,777	-0,335	-0,076
112,933	104,759	-0,189	-0,156
113,947	-16,833	-0,323	-0,142
114,962	118,947	-0,244	-0,211
115,976	157,400	-0,210	-0,204
116,991	-59,845	-0,350	-0,104
118,006	263,232	-0,267	-0,325
119,020	166,075	-0,215	-0,213
120,035	255,425	-0,197	-0,236
121,049	445,187	-0,087	-0,134
122,064	463,114	-0,177	-0,278
123,079	91,097	-0,271	-0,213
124,093	-12,621	-0,224	-0,102
125,108	-58,367	-0,325	-0,098
126,122	-35,553	-0,344	-0,130
127,137	-18,247	-0,324	-0,141
128,151	53,735	-0,271	-0,182
129,166	-48,951	-0,159	-0,053
130,181	-39,006	-0,273	-0,100
131,195	21,949	-0,342	-0,194
132,210	14,441	-0,304	-0,165
133,224	-79,733	-0,305	-0,071
134,239	32,394	-0,282	-0,170
135,254	49,940	-0,163	-0,107
136,268	260,535	-0,191	-0,231
137,283	-24,614	-0,249	-0,103
138,297	347,363	-0,172	-0,237
139,312	-11,721	-0,253	-0,116
140,327	136,860	-0,298	-0,272
141,341	-61,776	-0,265	-0,077
142,356	-14,331	-0,220	-0,099
143,370	24,759	-0,139	-0,080
144,385	83,251	-0,228	-0,173
145,400	424,269	-0,181	-0,273
146,414	81,132	-0,349	-0,263
147,429	52,639	-0,290	-0,193
148,443	278,071	-0,110	-0,136
149,458	178,869	-0,218	-0,222
150,473	-47,926	-0,165	-0,055
151,487	78,701	-0,186	-0,139
152,502	113,677	-0,260	-0,220
153,516	229,091	-0,303	-0,345
154,531	305,542	-0,162	-0,210
155,546	-27,765	-0,234	-0,094
156,560	-36,378	-0,241	-0,090
157,575	50,647	-0,251	-0,165
158,589	19,865	-0,270	-0,151
159,604	95,296	-0,250	-0,198
160,619	140,313	-0,236	-0,218
161,633	-9,619	-0,224	-0,104
162,648	180,877	-0,257	-0,263
163,662	-63,368	-0,249	-0,071
164,677	22,051	-0,336	-0,190
165,692	421,308	-0,145	-0,217
166,706	-48,505	-0,205	-0,068
167,721	800,000	-0,117	-0,229
168,735	800,000	-0,123	-0,283
169,750	139,164	-0,195	-0,179
170,764	-40,455	-0,311	-0,112
171,779	132,289	-0,177	-0,159
172,794	-59,741	-0,198	-0,059
173,808	457,202	-0,143	-0,222
174,823	178,175	-0,291	-0,296
175,837	59,253	-0,268	-0,183
176,852	55,913	-0,251	-0,169
177,867	520,201	-0,144	-0,236
178,881	121,543	-0,210	-0,183
179,896	228,870	-0,144	-0,164
180,910	71,712	-0,289	-0,209
181,925	-30,411	-0,146	-0,057
182,940	325,721	-0,152	-0,203
183,954	-57,158	-0,249	-0,076
184,969	-80,911	-0,173	-0,040
185,983	-26,194	-0,172	-0,070
186,998	-41,289	-0,216	-0,077
188,013	99,129	-0,153	-0,123
189,027	115,027	-0,240	-0,203
190,042	36,572	-0,276	-0,169
191,056	121,077	-0,220	-0,190
192,071	-108,124	-0,295	-0,044
193,086	-17,102	-0,197	-0,086
194,100	87,889	-0,186	-0,143
195,115	139,060	-0,140	-0,128
196,129	800,000	-0,091	-0,246
197,144	543,747	-0,173	-0,288
198,159	52,519	-0,249	-0,165
199,173	379,461	-0,115	-0,164
200,188	265,820	-0,133	-0,162
201,202	15,318	-0,169	-0,092
202,217	-91,015	-0,294	0,058
203,232	-91,787	-0,197	-0,039
204,246	153,767	-0,368	-0,351
205,261	196,452	-0,153	-0,162
206,275	-40,211	-0,258	-0,093
207,290	681,305	-0,125	-0,228
208,304	-200,000	-0,024	-0,119
209,319	-51,917	-0,206	-0,066
210,334	110,594	-0,206	-0,172
211,348	84,119	-0,136	-0,103
212,363	-121,148	-0,259	-0,030
213,377	800,000	-0,105	-0,304
214,392	53,837	-0,117	-0,078
215,407	504,616	-0,149	-0,241
216,421	-85,011	-0,208	-0,045
217,436	282,755	-0,107	-0,134
218,450	334,393	-0,178	-0,239
219,465	394,909	-0,203	-0,295
220,480	54,465	-0,250	-0,167
221,494	168,811	-0,171	-0,169
222,509	-65,650	-0,149	-0,041
223,523	59,916	-0,127	-0,087
224,538	-17,051	-0,236	-0,103
225,553	-44,616	-0,278	-0,096
226,567	11,195	-0,206	-0,109
227,582	99,505	-0,181	-0,145
228,596	91,335	-0,148	-0,115
229,611	-6,878	-0,115	-0,054
230,626	48,827	-0,117	0,076
231,640	800,000	-0,129	-0,273
232,655	260,512	-0,143	-0,171
233,669	95,879	-0,107	-0,084
234,684	475,737	-0,063	-0,099
235,699	-15,175	-0,162	-0,071
236,713	177,339	-0,221	-0,223
237,728	573,266	-0,138	-0,234
238,742	83,974	-0,154	-0,117
239,757	278,325	-0,142	-0,175
240,772	60,821	-0,248	-0,170
241,786	800,000	-0,115	-0,287
242,801	601,048	-0,163	-0,281
243,815	-200,000	-0,029	-0,131
244,830	79,581	-0,157	-0,117
245,844	-7,374	-0,278	-0,130
246,859	800,000	-0,086	-0,232
247,874	93,903	-0,177	-0,138
248,888	43,071	-0,117	-0,074
249,903	-36,656	-0,171	-0,063
250,917	38,833	-0,094	-0,058
251,932	-52,081	-0,235	-0,075
252,947	800,000	-0,061	-0,122
253,961	121,173	-0,183	-0,157
254,976	198,570	-0,174	-0,184
255,990	126,235	-0,203	-0,178
257,005	800,000	-0,103	-0,229
258,020	-57,316	-0,139	-0,042
259,034	-200,000	-0,010	-0,176
260,049	47,131	-0,166	-0,107
261,063	50,254	-0,157	-0,102
262,078	189,303	-0,301	-0,311
263,093	388,988	-0,111	-0,159
264,107	322,550	-0,129	-0,171
265,122	13,637	-0,133	-0,071
266,136	59,876	-0,159	-0,108
267,151	253,679	-0,158	-0,186
268,166	29,743	-0,095	-0,055
269,180	12,509	-0,271	-0,144
270,195	-55,887	-0,208	-0,064
271,209	280,531	-0,160	-0,198
272,224	51,971	-0,158	-0,104
273,239	800,000	-0,077	-0,199
274,253	36,403	-0,238	-0,144
275,268	-87,046	-0,384	-0,080
276,282	236,567	-0,127	-0,146
277,297	78,772	-0,102	-0,075
278,312	264,891	-0,145	-0,174
279,326	-36,704	-0,241	0,089
280,341	-105,104	-0,174	0,027
281,355	-71,640	-0,059	-0,015
282,370	-95,088	-0,186	-0,034
283,384	-19,955	-0,099	-0,042
284,399	85,333	-0,145	-0,110
285,414	-4,171	-0,249	-0,119
286,428	400,508	-0,099	-0,144
287,443	-101,806	-0,073	-0,012
288,457	236,740	-0,128	-0,147
289,472	196,769	-0,124	-0,131
290,487	800,000	-0,133	-0,269
291,501	315,872	-0,167	-0,218
292,516	136,243	-0,183	-0,164
293,530	-200,000	0,040	-0,140
294,545	78,667	-0,122	-0,090
295,560	-200,000	-0,050	-0,209
296,574	-57,700	-0,192	-0,057
297,589	103,143	-0,155	-0,125
298,603	321,251	-0,137	-0,180
299,618	95,803	-0,092	-0,072
300,633	742,203	-0,120	-0,223
301,647	-107,869	-0,061	0,009
302,662	-200,000	-0,067	-0,236
303,676	800,000	-0,050	-0,126
304,691	489,084	-0,059	-0,094
305,706	-41,044	-0,211	-0,075
306,720	39,445	-0,079	-0,048
307,735	103,986	-0,162	-0,131
308,749	-26,827	-0,115	-0,046
309,764	13,563	-0,107	-0,057
310,779	7,935	-0,114	-0,058
311,793	35,913	-0,150	-0,090
312,808	69,096	-0,237	-0,168
313,822	-30,791	-0,167	-0,065
314,837	317,918	-0,103	-0,134
315,852	-66,962	-0,060	-0,016
316,866	-41,501	-0,159	-0,056
317,881	233,693	-0,122	-0,138
318,895	185,233	-0,102	-0,104
319,910	364,747	-0,128	-0,177
320,925	16,153	-0,248	-0,134
321,939	103,792	-0,231	-0,186
322,954	358,102	-0,130	-0,179
323,968	-117,635	-0,142	-0,017
324,983	-68,995	-0,176	-0,046
325,997	605,591	-0,097	-0,166
327,012	193,492	-0,219	-0,228
328,027	800,000	-0,059	-0,125
329,041	181,409	-0,135	-0,136
330,056	193,810	0,024	0,025
331,070	800,000	-0,025	0,058
332,085	800,000	-0,091	-0,212
333,100	1,036	-0,092	-0,045
334,114	-104,504	-0,250	-0,039
335,129	321,223	-0,107	-0,140
336,143	-49,469	-0,152	0,049
337,158	150,682	-0,063	-0,059
338,173	-200,000	-0,039	-0,198
339,187	31,863	-0,200	-0,118
340,202	62,648	-0,161	-0,110
341,216	180,046	-0,180	-0,181
342,231	118,576	-0,136	0,115
343,246	800,000	-0,057	-0,169
344,260	383,132	-0,036	-0,051
345,275	95,984	-0,109	-0,085
346,289	65,447	-0,157	-0,109
347,304	296,098	-0,088	-0,111
348,319	100,186	-0,161	-0,128
349,333	800,000	-0,078	-0,200
350,348	175,421	-0,111	-0,111
351,362	-74,862	-0,217	-0,053
352,377	800,000	-0,110	-0,217
353,392	195,948	-0,104	-0,109
354,406	-4,418	-0,071	0,034
355,421	208,330	1310,372	1405,406
356,435	160,301	1470,554	1405,910
