DTS Sentinel unit serial number:	SN410029Multiplexer serial number:	ORYXHardware model number:	OX2-SRSoftware version number:	ORYX F/W v4,00 Oryx Data Collector v3.7.2.0data status	okinstallation	B3 Nyhavnadifferential loss correction	single-endedforward channel	channel 1reverse channel	N/Adate	2023/12/04time	00:02:30forward acquisition time	300,00reverse acquisition time	0,00gamma	499,1914k internal	0,3202k external	0,3202temperature offset calibration	1,0000default loss term (dB/km)	0,3820temperature slope calibration	1,0000multiplexer offset coefficient	1,0000multiplexer slope coefficient	1,0000fibre end	0,00T internal ref (°C)	12,77T ext. ref 1 (°C)	-2,48T ext. ref 2 (°C)	-2,50length (m)	temperature (°C)	Stokes	anti-Stokes-744,400	174,652	-0,225	-0,237
-743,385	-200,000	-0,017	0,263
-742,371	132,747	-0,138	-0,130
-741,356	-200,000	0,022	0,365
-740,342	577,146	-0,107	-0,190
-739,327	-200,000	-0,009	0,262
-738,312	332,924	-0,115	-0,162
-737,298	-200,000	-0,004	0,243
-736,283	800,000	-0,110	-0,271
-735,269	-200,000	0,068	0,272
-734,254	29,011	-0,181	-0,111
-733,239	66,725	-0,266	0,196
-732,225	173,891	-0,159	-0,167
-731,210	63,451	0,104	0,076
-730,196	144,003	0,058	0,056
-729,181	-190,530	-0,084	-0,001
-728,167	-21,424	0,094	0,042
-727,152	-45,709	-0,034	0,012
-726,137	-200,000	0,002	-0,096
-725,123	643,627	0,010	0,018
-724,108	82,147	0,036	0,028
-723,094	381,003	0,077	-0,115
-722,079	-200,000	0,012	-0,116
-721,064	-135,490	0,029	0,002
-720,050	-29,359	-0,009	0,004
-719,035	90,106	-0,105	0,085
-718,021	220,259	0,044	-0,051
-717,006	8,479	-0,116	0,063
-715,991	-200,000	-0,027	-0,101
-714,977	157,408	-0,133	-0,134
-713,962	4,652	-0,121	-0,064
-712,948	-200,000	-0,058	-0,252
-711,933	-200,000	0,002	-0,053
-710,918	800,000	0,068	0,139
-709,904	-89,826	-0,205	0,043
-708,889	42,976	-0,061	-0,041
-707,875	112,205	-0,113	-0,099
-706,860	613,514	-0,013	0,024
-705,845	800,000	-0,037	0,099
-704,831	-60,776	0,041	0,013
-703,816	-168,244	0,143	0,004
-702,802	-126,900	0,077	0,008
-701,787	-31,088	0,015	-0,006
-700,772	21,476	0,123	-0,072
-699,758	-200,000	0,002	-0,111
-698,743	-200,000	-0,009	-0,078
-697,729	-200,000	0,009	-0,045
-696,714	495,246	0,065	-0,109
-695,699	-200,000	-0,015	-0,060
-694,685	98,998	-0,051	-0,042
-693,670	-200,000	0,017	-0,104
-692,656	361,747	0,058	-0,085
-691,641	-68,845	0,082	-0,023
-690,627	-200,000	0,036	-0,198
-689,612	148,154	0,064	-0,063
-688,597	-31,800	-0,107	-0,043
-687,583	17,377	0,068	-0,039
-686,568	150,822	-0,121	-0,120
-685,554	-200,000	-0,020	-0,066
-684,539	74,875	0,040	-0,030
-683,524	800,000	0,028	0,090
-682,510	-158,749	0,130	0,005
-681,495	283,629	0,010	0,013
-680,481	-200,000	0,025	-0,119
-679,466	-200,000	0,015	-0,069
-678,451	399,658	-0,021	0,032
-677,437	117,389	0,061	0,054
-676,422	-200,000	-0,013	-0,065
-675,408	-200,000	0,009	0,047
-674,393	-118,039	0,045	-0,006
-673,378	-200,000	-0,020	-0,089
-672,364	112,676	-0,071	-0,062
-671,349	-42,842	0,201	0,074
-670,335	428,085	0,074	0,116
-669,320	417,815	-0,051	0,079
-668,305	-200,000	0,010	-0,091
-667,291	-41,975	-0,062	0,023
-666,276	-200,000	-0,003	-0,140
-665,262	-33,099	-0,022	-0,009
-664,247	-8,806	0,131	-0,063
-663,232	-65,219	0,159	0,046
-662,218	286,033	0,084	0,110
-661,203	-65,499	-0,080	0,023
-660,189	-126,659	0,104	0,011
-659,174	-84,352	-0,200	-0,045
-658,159	-200,000	-0,016	-0,108
-657,145	100,115	-0,152	-0,128
-656,130	724,666	0,056	-0,109
-655,116	-10,667	-0,087	-0,042
-654,101	-87,450	0,089	-0,019
-653,086	182,294	0,075	-0,080
-652,072	-200,000	0,011	-0,052
-651,057	-71,910	0,071	-0,019
-650,043	297,832	0,062	0,083
-649,028	327,165	0,030	0,041
-648,014	-97,682	0,037	0,007
-646,999	-36,238	-0,074	0,029
-645,984	-200,000	-0,002	0,032
-644,970	-128,912	-0,091	0,009
-643,955	-141,503	0,045	-0,003
-642,941	-200,000	0,021	-0,173
-641,926	219,075	-0,091	0,106
-640,911	-112,800	0,095	0,013
-639,897	-200,000	-0,012	0,069
-638,882	-162,165	0,096	-0,003
-637,868	-5,883	0,079	0,039
-636,853	-87,816	0,096	-0,021
-635,838	112,727	-0,101	-0,088
-634,824	-200,000	-0,018	0,069
-633,809	800,000	0,014	0,037
-632,795	-200,000	-0,021	0,110
-631,780	359,414	0,052	0,075
-630,765	-70,895	0,030	0,008
-629,751	-119,797	-0,104	-0,013
-628,736	-22,728	-0,100	-0,043
-627,722	-200,000	0,023	0,077
-626,707	-200,000	0,001	0,055
-625,692	-200,000	-0,014	-0,081
-624,678	-177,782	-0,079	-0,001
-623,663	-48,548	-0,108	0,037
-622,649	99,008	-0,056	-0,047
-621,634	74,434	-0,182	-0,138
-620,619	-200,000	-0,015	0,073
-619,605	132,312	0,045	0,042
-618,590	800,000	-0,031	0,099
-617,576	344,621	0,084	0,119
-616,561	575,550	-0,011	0,020
-615,546	51,983	-0,060	0,041
-614,532	-200,000	-0,023	-0,173
-613,517	56,598	-0,110	-0,077
-612,503	-200,000	-0,014	-0,077
-611,488	-200,000	-0,023	0,224
-610,474	-139,117	0,100	0,008
-609,459	-73,495	-0,150	-0,039
-608,444	691,455	0,023	0,044
-607,430	-43,211	-0,136	-0,050
-606,415	234,926	0,039	-0,047
-605,401	130,977	0,041	0,038
-604,386	-54,473	0,076	0,025
-603,371	85,448	0,071	0,056
-602,357	-114,513	0,081	0,011
-601,342	800,000	-0,046	0,109
-600,328	800,000	0,051	-0,133
-599,313	-163,626	-0,171	-0,006
-598,298	63,120	-0,085	0,061
-597,284	329,070	0,049	-0,069
-596,269	583,242	0,064	0,114
-595,255	800,000	0,077	0,157
-594,240	482,573	0,060	0,098
-593,225	20,835	0,125	-0,073
-592,211	359,133	-0,075	0,109
-591,196	-87,663	0,024	0,005
-590,182	-200,000	-0,003	-0,011
-589,167	-200,000	-0,002	-0,023
-588,152	79,380	-0,077	-0,060
-587,138	-44,699	0,062	-0,022
-586,123	-6,547	-0,030	0,015
-585,109	585,225	-0,049	-0,088
-584,094	796,436	0,044	-0,089
-583,079	82,082	-0,162	0,127
-582,065	-200,000	0,004	-0,030
-581,050	6,996	0,044	0,024
-580,036	494,711	-0,064	0,106
-579,021	-149,336	-0,036	0,002
-578,006	-200,000	-0,087	-0,000
-576,992	271,939	-0,093	0,119
-575,977	-79,776	-0,122	-0,029
-574,963	-93,941	0,096	-0,019
-573,948	72,458	0,072	0,054
-572,934	14,635	0,115	0,065
-571,919	193,200	-0,059	-0,065
-570,904	729,061	-0,124	-0,240
-569,890	9,507	0,095	-0,052
-568,875	357,417	-0,079	-0,115
-567,861	800,000	-0,009	0,028
-566,846	150,008	-0,036	0,036
-565,831	-200,000	0,004	-0,120
-564,817	-200,000	0,036	-0,182
-563,802	637,453	0,111	-0,204
-562,788	-102,034	-0,043	0,007
-561,773	-200,000	0,011	0,088
-560,758	391,903	0,078	0,117
-559,744	800,000	-0,016	0,034
-558,729	764,376	0,023	-0,045
-557,715	-200,000	0,019	-0,152
-556,700	-200,000	0,006	-0,041
-555,685	-168,224	0,061	0,002
-554,671	177,432	-0,085	0,090
-553,656	26,090	0,032	0,019
-552,642	20,490	0,055	-0,032
-551,627	-200,000	0,039	0,153
-550,612	-158,118	-0,169	0,007
-549,598	603,325	-0,131	-0,237
-548,583	507,556	-0,083	-0,140
-547,569	-95,044	-0,038	0,007
-546,554	105,724	0,068	-0,058
-545,539	-200,000	-0,011	0,099
-544,525	-71,155	-0,080	0,021
-543,510	800,000	-0,030	0,079
-542,496	727,893	-0,067	-0,129
-541,481	292,745	-0,142	-0,187
-540,466	-152,079	0,096	0,005
-539,452	-71,715	0,121	0,032
-538,437	-200,000	-0,017	0,125
-537,423	137,430	0,114	0,108
-536,408	41,445	-0,099	-0,064
-535,393	800,000	0,031	-0,096
-534,379	-165,126	-0,124	0,004
-533,364	-11,191	-0,060	0,028
-532,350	-28,923	0,146	-0,060
-531,335	268,537	0,130	-0,165
-530,321	39,688	-0,077	0,050
-529,306	-200,000	0,001	-0,146
-528,291	-200,000	-0,000	-0,122
-527,277	-200,000	-0,012	-0,169
-526,262	428,852	-0,068	-0,106
-525,248	326,366	-0,110	0,152
-524,233	-151,694	0,137	0,007
-523,218	-152,488	-0,073	-0,004
-522,204	38,688	-0,077	0,049
-521,189	800,000	-0,045	-0,108
-520,175	-200,000	0,004	-0,123
-519,160	56,090	-0,064	0,045
-518,145	-157,342	0,134	-0,006
-517,131	800,000	-0,014	-0,036
-516,116	146,704	-0,024	-0,023
-515,102	510,757	-0,018	-0,030
-514,087	800,000	-0,010	-0,032
-513,072	-13,242	-0,115	-0,054
-512,058	74,233	-0,144	0,109
-511,043	580,061	0,036	-0,064
-510,029	-200,000	-0,009	0,097
-509,014	800,000	-0,045	-0,094
-507,999	-142,252	0,095	0,007
-506,985	76,350	-0,135	-0,103
-505,970	800,000	-0,040	0,082
-504,956	183,107	-0,079	0,084
-503,941	-140,174	-0,074	-0,006
-502,926	-41,883	-0,005	0,002
-501,912	-200,000	-0,013	0,043
-500,897	25,375	0,098	-0,058
-499,883	-200,000	-0,019	0,081
-498,868	800,000	0,044	0,121
-497,853	13,334	-0,069	-0,038
-496,839	-129,647	0,064	-0,006
-495,824	-79,763	0,154	0,037
-494,810	-1,723	-0,098	0,050
-493,795	-200,000	0,002	-0,062
-492,781	-49,077	-0,149	0,051
-491,766	-200,000	0,008	-0,087
-490,751	-107,118	-0,156	-0,025
-489,737	-128,685	-0,117	0,012
-488,722	-76,487	-0,020	-0,005
-487,708	800,000	0,029	0,083
-486,693	132,150	-0,102	0,095
-485,678	-7,068	-0,048	0,023
-484,664	447,612	-0,059	0,094
-483,649	-64,243	0,067	-0,020
-482,635	138,454	0,085	-0,080
-481,620	-1,148	0,144	-0,073
-480,605	60,516	0,054	0,039
-479,591	-200,000	0,011	0,059
-478,576	1,696	-0,031	0,016
-477,562	-200,000	-0,004	0,058
-476,547	73,413	0,116	-0,087
-475,532	-104,609	-0,118	0,019
-474,518	54,126	0,148	-0,102
-473,503	423,899	-0,014	0,022
-472,489	356,804	0,049	-0,070
-471,474	-200,000	-0,019	-0,076
-470,459	279,616	-0,039	-0,050
-469,445	-200,000	0,011	0,034
-468,430	594,731	-0,051	0,091
-467,416	-200,000	-0,020	-0,070
-466,401	613,121	-0,051	0,092
-465,386	253,079	0,065	-0,080
-464,372	78,356	0,096	0,074
-463,357	800,000	0,044	0,103
-462,343	119,586	0,096	-0,085
-461,328	-200,000	0,002	0,035
-460,313	-137,991	-0,042	-0,003
-459,299	202,927	0,069	0,077
-458,284	800,000	0,041	0,112
-457,270	-94,438	0,076	0,015
-456,255	-200,000	0,008	-0,079
-455,241	-113,016	-0,094	-0,013
-454,226	-168,797	-0,022	0,001
-453,211	-107,788	-0,058	-0,009
-452,197	18,520	0,059	0,034
-451,182	-110,703	0,143	-0,021
-450,168	800,000	-0,050	0,120
-449,153	445,006	0,030	0,048
-448,138	-200,000	-0,010	0,053
-447,124	-69,483	-0,124	0,034
-446,109	327,659	0,023	0,031
-445,095	436,915	0,033	0,051
-444,080	-200,000	0,003	-0,046
-443,065	336,507	-0,051	0,072
-442,051	-155,602	0,018	-0,001
-441,036	53,741	-0,047	-0,032
-440,022	745,073	0,047	-0,091
-439,007	332,185	0,035	-0,049
-437,992	60,451	0,059	0,042
-436,978	150,209	0,018	0,018
-435,963	800,000	-0,013	0,033
-434,949	120,037	0,109	0,097
-433,934	-133,588	-0,020	-0,002
-432,919	800,000	0,061	-0,169
-431,905	-200,000	-0,028	-0,114
-430,890	-200,000	-0,024	0,123
-429,876	105,811	0,121	0,102
-428,861	34,670	0,035	0,022
-427,846	473,228	0,036	-0,059
-426,832	-93,118	0,086	-0,017
-425,817	493,998	-0,105	0,173
-424,803	800,000	-0,042	-0,101
-423,788	800,000	0,093	0,193
-422,773	-46,241	0,056	0,020
-421,759	138,638	0,055	-0,052
-420,744	-6,114	-0,148	0,073
-419,730	-200,000	-0,008	-0,031
-418,715	-200,000	0,033	-0,128
-417,701	800,000	0,015	0,038
-416,686	39,402	-0,016	-0,010
-415,671	-174,539	-0,094	-0,002
-414,657	-200,000	-0,016	0,106
-413,642	163,654	-0,063	0,064
-412,628	45,435	-0,083	0,055
-411,613	255,667	-0,029	0,036
-410,598	-57,688	0,038	-0,012
-409,584	800,000	-0,048	0,123
-408,569	-200,000	0,026	0,093
-407,555	-200,000	-0,000	0,012
-406,540	-111,585	0,073	0,010
-405,525	800,000	-0,063	-0,134
-404,511	448,608	-0,024	0,038
-403,496	-200,000	0,010	0,058
-402,482	-77,188	-0,067	-0,017
-401,467	-13,626	0,053	-0,025
-400,452	124,148	0,056	0,051
-399,438	129,616	-0,021	-0,019
-398,423	757,930	-0,028	-0,055
-397,409	-200,000	-0,015	-0,060
-396,394	209,056	-0,039	0,044
-395,379	-17,461	0,119	-0,054
-394,365	174,669	-0,048	-0,050
-393,350	-148,239	0,231	0,013
-392,336	-200,000	-0,013	0,072
-391,321	7,453	0,049	0,026
-390,306	-200,000	-0,018	-0,076
-389,292	-200,000	-0,031	-0,103
-388,277	800,000	0,064	-0,158
-387,263	60,117	-0,043	-0,030
-386,248	-107,789	0,117	0,018
-385,233	251,493	0,076	0,092
-384,219	172,911	0,102	-0,105
-383,204	800,000	-0,040	-0,109
-382,190	555,502	-0,097	-0,169
-381,175	114,375	0,037	0,032
-380,160	-99,117	0,153	0,028
-379,146	148,526	0,035	-0,034
-378,131	-200,000	0,045	0,197
-377,117	800,000	0,020	-0,042
-376,102	-200,000	0,016	-0,079
-375,088	608,252	-0,038	-0,068
-374,073	-200,000	-0,010	-0,046
-373,058	-14,833	0,037	-0,017
-372,044	352,378	0,011	-0,016
-371,029	64,878	0,039	0,028
-370,015	800,000	0,029	0,083
-369,000	-168,881	0,076	-0,002
-367,985	-30,305	0,170	0,069
-366,971	-107,182	0,074	-0,012
-365,956	148,855	-0,063	-0,061
-364,942	126,021	0,040	-0,036
-363,927	-34,057	-0,025	0,010
-362,912	800,000	-0,015	0,035
-361,898	75,754	-0,068	0,052
-360,883	-95,769	-0,053	-0,010
-359,869	-151,746	0,056	-0,003
-358,854	164,990	0,008	-0,008
-357,839	-200,000	-0,005	-0,021
-356,825	800,000	0,011	-0,033
-355,810	-5,674	-0,069	-0,034
-354,796	294,298	0,019	-0,024
-353,781	-101,831	0,026	0,005
-352,766	-70,416	-0,128	0,035
-351,752	148,796	0,065	0,063
-350,737	444,504	0,014	0,022
-349,723	-200,000	0,003	0,024
-348,708	228,913	-0,032	-0,037
-347,693	47,858	-0,053	-0,035
-346,679	-41,332	-0,151	-0,056
-345,664	-76,663	-0,153	-0,038
-344,650	17,277	-0,073	0,041
-343,635	-144,818	0,152	0,010
-342,620	223,785	0,053	0,062
-341,606	800,000	-0,060	0,121
-340,591	-89,110	0,071	-0,015
-339,577	192,417	-0,065	0,071
-338,562	-200,000	-0,010	-0,069
-337,548	-200,000	0,014	-0,102
-336,533	-59,344	0,126	-0,039
-335,518	-8,792	0,057	0,027
-334,504	800,000	-0,013	0,039
-333,489	-49,898	0,034	0,011
-332,475	80,868	-0,086	-0,066
-331,460	-200,000	0,004	-0,016
-330,445	-200,000	-0,015	-0,066
-329,431	-200,000	0,041	0,171
-328,416	-118,675	0,097	0,012
-327,402	-27,084	-0,097	0,040
-326,387	22,935	0,054	-0,032
-325,372	-111,805	0,081	-0,012
-324,358	376,195	-0,112	-0,164
-323,343	66,509	0,038	-0,028
-322,329	794,466	-0,045	-0,089
-321,314	800,000	-0,025	0,061
-320,299	-96,703	0,098	-0,018
-319,285	-162,504	-0,019	0,001
-318,270	-200,000	-0,011	-0,163
-317,256	-94,899	-0,121	0,023
-316,241	-200,000	0,000	-0,027
-315,226	733,776	-0,018	-0,034
-314,212	798,552	0,028	-0,055
-313,197	800,000	0,028	-0,069
-312,183	-126,498	-0,028	-0,003
-311,168	-11,272	-0,038	-0,018
-310,153	628,162	0,071	-0,128
-309,139	800,000	-0,080	-0,221
-308,124	800,000	0,029	-0,088
-307,110	622,120	-0,112	0,203
-306,095	-93,274	0,046	-0,009
-305,080	-86,079	0,060	-0,013
-304,066	350,777	-0,069	0,098
-303,051	642,514	-0,064	0,117
-302,037	197,501	-0,121	-0,132
-301,022	-11,693	0,160	-0,075
-300,008	10,192	0,093	0,051
-298,993	50,507	0,092	-0,062
-297,978	-200,000	0,008	0,033
-296,964	800,000	-0,053	-0,112
-295,949	-99,842	-0,120	-0,021
-294,935	-200,000	0,007	0,067
-293,920	640,969	-0,056	-0,103
-292,905	373,726	0,089	-0,130
-291,891	216,211	-0,062	0,071
-290,876	-164,604	0,027	-0,001
-289,862	277,330	-0,035	-0,045
-288,847	-38,141	-0,083	-0,031
-287,832	346,479	-0,054	-0,077
-286,818	-200,000	-0,017	-0,076
-285,803	-62,652	-0,011	-0,003
-284,789	20,252	0,188	0,108
-283,774	166,923	0,060	0,061
-282,759	-117,362	0,061	0,008
-281,745	-70,647	0,089	-0,024
-280,730	6,983	-0,119	0,063
-279,716	-35,111	-0,129	-0,050
-278,701	112,868	0,063	-0,054
-277,686	452,842	0,051	-0,081
-276,672	-69,786	0,043	0,012
-275,657	-200,000	-0,015	-0,086
-274,643	328,825	-0,107	-0,147
-273,628	498,161	-0,060	0,099
-272,613	-117,590	-0,103	-0,013
-271,599	-172,981	0,133	-0,003
-270,584	800,000	0,037	0,090
-269,570	480,885	0,037	0,061
-268,555	-91,878	0,148	-0,030
-267,540	-131,139	-0,147	0,014
-266,526	800,000	-0,038	-0,101
-265,511	-200,000	0,028	-0,093
-264,497	-170,938	-0,145	0,003
-263,482	366,758	0,066	0,095
-262,467	452,079	-0,058	0,092
-261,453	800,000	0,020	0,060
-260,438	-102,071	0,122	0,021
-259,424	-144,380	0,090	0,006
-258,409	274,562	0,056	-0,070
-257,395	343,032	0,043	-0,060
-256,380	-200,000	0,017	0,052
-255,365	-200,000	0,000	0,122
-254,351	284,065	-0,022	0,028
-253,336	-200,000	0,004	0,035
-252,322	178,954	-0,084	0,088
-251,307	352,655	-0,074	-0,106
-250,292	96,056	-0,049	-0,040
-249,278	-200,000	-0,010	0,149
-248,263	9,115	0,038	0,020
-247,249	243,740	0,084	0,101
-246,234	271,134	0,051	0,064
-245,219	-72,262	-0,045	-0,012
-244,205	82,143	-0,092	-0,071
-243,190	70,504	0,082	0,060
-242,176	179,729	-0,067	0,070
-241,161	-200,000	0,011	0,153
-240,146	161,128	-0,066	0,066
-239,132	-200,000	-0,008	0,113
-238,117	-180,903	0,039	0,001
-237,103	-90,019	-0,068	-0,014
-236,088	-55,553	0,075	-0,024
-235,073	450,106	0,102	0,161
-234,059	18,316	-0,023	-0,013
-233,044	-69,495	0,102	0,028
-232,030	252,134	-0,053	-0,065
-231,015	449,848	0,064	0,101
-230,000	-90,209	0,060	0,012
-228,986	-85,739	0,019	-0,004
-227,971	-129,772	0,083	-0,008
-226,957	122,924	-0,069	0,061
-225,942	20,033	-0,010	0,006
-224,927	220,610	0,036	0,041
-223,913	288,513	-0,070	-0,090
-222,898	497,947	-0,103	0,169
-221,884	-80,963	0,149	-0,035
-220,869	-8,757	0,099	0,047
-219,855	-6,767	0,069	0,033
-218,840	-200,000	-0,016	0,063
-217,825	412,914	0,053	0,080
-216,811	-147,868	-0,080	0,005
-215,796	-200,000	-0,019	-0,135
-214,782	-200,000	0,021	-0,079
-213,767	35,547	0,116	-0,072
-212,752	24,520	0,047	0,028
-211,738	33,598	0,116	-0,071
-210,723	41,957	-0,098	0,063
-209,709	728,581	-0,021	-0,041
-208,694	50,228	-0,196	-0,131
-207,679	-166,550	-0,056	0,002
-206,665	800,000	-0,020	0,054
-205,650	-2,898	0,075	0,037
-204,636	-200,000	-0,003	0,101
-203,621	800,000	-0,008	-0,020
-202,606	435,489	-0,037	-0,058
-201,592	173,517	-0,051	0,053
-200,577	-117,893	-0,146	0,018
-199,563	-79,879	0,043	0,010
-198,548	318,659	-0,039	0,053
-197,533	-200,000	-0,038	0,120
-196,519	-58,448	-0,150	-0,046
-195,504	-200,000	-0,005	-0,076
-194,490	-200,000	-0,005	-0,041
-193,475	233,617	0,024	-0,028
-192,460	386,630	0,032	0,047
-191,446	327,920	0,008	0,010
-190,431	15,112	0,122	0,068
-189,417	90,986	-0,108	-0,086
-188,402	309,505	-0,047	0,062
-187,387	448,082	0,020	-0,031
-186,373	800,000	-0,058	-0,176
-185,358	-200,000	-0,035	-0,120
-184,344	-94,573	0,176	0,034
-183,329	800,000	-0,052	-0,153
-182,315	33,077	-0,029	-0,018
-181,300	800,000	0,022	-0,055
-180,285	105,461	-0,028	-0,024
-179,271	281,788	0,058	-0,074
-178,256	151,702	-0,042	-0,041
-177,242	-200,000	-0,009	0,081
-176,227	-200,000	0,013	0,047
-175,212	17,585	-0,022	0,013
-174,198	800,000	0,021	0,055
-173,183	-196,076	-0,136	0,001
-172,169	-185,629	-0,036	0,000
-171,154	-139,512	-0,056	-0,004
-170,139	1,727	-0,070	0,036
-169,125	58,162	0,115	0,080
-168,110	128,451	0,068	0,061
-167,096	118,332	0,119	-0,105
-166,081	413,907	0,009	-0,014
-165,066	-200,000	0,004	0,055
-164,052	-72,024	0,117	0,031
-163,037	366,668	0,077	0,111
-162,023	65,655	0,037	-0,026
-161,008	-200,000	-0,016	0,120
-159,993	55,304	-0,051	0,035
-158,979	-200,000	-0,005	-0,033
-157,964	800,000	0,045	0,090
-156,950	-79,395	0,162	-0,039
-155,935	800,000	0,014	0,039
-154,920	-177,139	0,081	-0,001
-153,906	41,673	0,131	0,084
-152,891	-105,813	0,103	0,016
-151,877	-64,878	0,155	-0,044
-150,862	-200,000	-0,009	0,177
-149,847	-200,000	0,017	-0,057
-148,833	639,643	-0,073	-0,133
-147,818	-200,000	0,004	-0,019
-146,804	-200,000	-0,030	0,114
-145,789	361,473	0,043	0,061
-144,775	-85,337	-0,104	0,023
-143,760	-74,956	0,056	-0,014
-142,745	56,143	-0,025	-0,017
-141,731	800,000	0,063	0,145
-140,716	-190,192	-0,043	0,000
-139,702	800,000	-0,042	0,111
-138,687	-100,555	0,117	-0,020
-137,672	-200,000	-0,026	0,198
-136,658	-200,000	0,033	-0,108
-135,643	-91,294	0,045	-0,009
-134,629	-161,449	-0,208	0,007
-133,614	41,081	0,078	0,050
-132,599	-200,000	-0,008	0,197
-131,585	-136,959	0,052	0,004
-130,570	-200,000	-0,019	-0,095
-129,556	-42,619	0,194	0,070
-128,541	-191,736	0,078	-0,001
-127,526	75,977	0,041	-0,031
-126,512	-98,492	0,097	-0,017
-125,497	758,522	0,050	0,097
-124,483	98,928	-0,031	-0,025
-123,468	-69,759	-0,077	0,021
-122,453	800,000	0,043	-0,130
-121,439	-102,894	-0,117	-0,020
-120,424	-11,410	-0,023	-0,011
-119,410	-118,382	0,075	0,009
-118,395	67,115	-0,104	-0,075
-117,380	800,000	-0,034	-0,092
-116,366	-152,757	-0,081	0,004
-115,351	-200,000	0,000	-0,121
-114,337	93,797	-0,055	0,044
-113,322	-58,629	0,115	0,035
-112,307	313,436	0,067	-0,090
-111,293	800,000	-0,069	0,158
-110,278	769,048	-0,069	0,134
-109,264	800,000	0,005	-0,014
-108,249	21,978	0,064	0,037
-107,234	482,007	0,043	-0,070
-106,220	-122,347	0,035	-0,004
-105,205	323,219	0,027	0,037
-104,191	-165,371	0,121	0,004
-103,176	-9,138	-0,095	0,045
-102,162	126,526	-0,102	0,092
-101,147	39,898	-0,107	-0,068
-100,132	159,640	-0,016	0,015
-99,118	-123,827	0,123	0,014
-98,103	800,000	0,045	-0,126
-97,089	98,920	-0,033	-0,027
-96,074	800,000	-0,021	-0,066
-95,059	-56,291	-0,052	0,016
-94,045	-110,685	-0,074	-0,011
-93,030	-200,000	-0,029	-0,116
-92,016	42,199	-0,076	-0,049
-91,001	279,323	0,157	-0,199
-89,986	111,731	-0,055	0,047
-88,972	-134,250	-0,158	-0,014
-87,957	-86,333	-0,086	-0,019
-86,943	800,000	-0,019	-0,044
-85,928	-99,822	0,077	-0,014
-84,913	-8,622	0,037	0,017
-83,899	209,101	0,061	-0,068
-82,884	-200,000	-0,010	-0,046
-81,870	-91,482	-0,080	0,016
-80,855	195,157	0,086	-0,093
-79,840	-124,199	-0,034	-0,004
-78,826	-138,208	0,057	-0,004
-77,811	478,157	-0,037	-0,060
-76,797	77,067	-0,029	0,022
-75,782	-87,617	0,081	-0,017
-74,767	800,000	0,041	0,120
-73,753	800,000	-0,050	-0,108
-72,738	800,000	-0,040	-0,115
-71,724	-30,885	-0,094	0,037
-70,709	-199,568	-0,076	0,000
-69,694	88,651	0,082	0,065
-68,680	-200,000	-0,004	0,064
-67,665	26,320	0,120	-0,071
-66,651	800,000	-0,026	0,073
-65,636	-200,000	0,012	0,056
-64,622	23,399	-0,110	-0,064
-63,607	-83,422	0,103	0,023
-62,592	658,970	0,059	-0,109
-61,578	-180,726	0,045	-0,001
-60,563	-200,000	-0,039	0,196
-59,549	-148,651	-0,086	0,005
-58,534	6,247	-1,697	-0,888
-57,519	488,487	-1,313	-2,130
-56,505	-200,000	-0,529	-4,746
-55,490	289,128	1,001	1,287
-54,476	800,000	5,026	11,401
-53,461	-200,000	19,429	325,682
-52,446	-200,000	745,688	2331,645
-51,432	564,997	1657,791	2855,028
-50,417	76,969	1671,096	1254,638
-49,403	20,706	1544,445	882,506
-48,388	14,655	1466,770	808,684
-47,373	18,162	1456,978	820,199
-46,359	16,538	1446,753	806,624
-45,344	12,896	1442,104	786,553
-44,330	12,841	1440,058	785,142
-43,315	12,810	1438,446	784,083
-42,300	12,837	1436,890	783,335
-41,286	12,851	1435,452	782,589
-40,271	12,769	1434,334	781,555
-39,257	12,823	1432,837	780,965
-38,242	12,867	1431,646	780,493
-37,227	12,842	1430,390	779,662
-36,213	12,855	1429,113	778,996
-35,198	12,831	1427,813	778,143
-34,184	12,908	1427,160	778,120
-33,169	12,833	1425,690	776,933
-32,154	12,915	1424,482	776,632
-31,140	12,864	1423,334	775,735
-30,125	12,914	1422,298	775,373
-29,111	12,909	1420,983	774,605
-28,096	12,851	1419,990	773,757
-27,082	12,816	1418,929	772,986
-26,067	12,818	1417,716	772,301
-25,052	12,821	1416,706	771,736
-24,038	12,760	1415,874	770,963
-23,023	12,794	1414,857	770,541
-22,009	12,789	1413,883	769,953
-20,994	12,748	1412,732	769,105
-19,979	12,756	1412,055	768,741
-18,965	12,789	1410,961	768,271
-17,950	12,765	1410,124	767,671
-16,936	12,784	1409,123	767,186
-15,921	12,719	1408,172	766,335
-14,906	12,697	1407,222	765,684
-13,892	12,725	1406,238	765,249
-12,877	12,710	1405,249	764,612
-11,863	12,706	1404,299	764,045
-10,848	12,661	1403,671	763,464
-9,833	12,656	1402,888	762,982
-8,819	12,649	1401,946	762,409
-7,804	12,613	1401,127	761,766
-6,790	12,596	1399,993	761,038
-5,775	12,602	1399,047	760,521
-4,760	12,615	1397,996	759,981
-3,746	12,621	1397,020	759,449
-2,731	12,586	1396,199	758,808
-1,717	12,585	1395,232	758,250
-0,702	12,551	1393,447	757,089
0,313	16,425	1309,389	729,346
1,327	32,621	701,622	428,139
2,342	50,328	122,600	81,799
3,356	1,987	16,532	8,410
4,371	7,413	3,182	1,676
5,386	27,002	0,626	0,370
6,400	-200,000	0,020	0,189
7,415	-35,886	-0,375	-0,143
8,429	570,521	-0,189	-0,326
9,444	26,085	-0,412	-0,243
10,459	-28,800	-0,468	-0,189
11,473	-70,785	-0,277	-0,073
12,488	4,424	-0,205	-0,106
13,502	17,256	-0,222	-0,124
14,517	60,134	-0,407	-0,284
15,531	-85,774	-0,340	-0,074
16,546	209,349	-0,273	-0,303
17,561	132,372	-0,399	-0,363
18,575	-94,686	-0,180	0,034
19,590	123,060	-0,215	-0,190
20,604	-68,765	-0,311	-0,084
21,619	144,818	-0,412	-0,389
22,634	249,744	-0,429	-0,514
23,648	119,136	-0,552	-0,482
24,663	139,971	-0,354	-0,329
25,677	34,812	-0,389	-0,240
26,692	18,680	-0,319	-0,180
27,707	-6,698	-0,320	-0,153
28,721	218,420	-0,267	-0,301
29,736	21,869	-0,472	-0,271
30,750	202,735	-0,332	-0,362
31,765	120,674	-0,447	-0,391
32,780	-9,875	-0,371	-0,174
33,794	-13,812	-0,421	-0,191
34,809	98,744	-0,359	-0,292
35,823	-64,344	-0,459	-0,131
36,838	20,661	-0,419	-0,239
37,853	9,636	-0,439	-0,234
38,867	41,238	-0,313	-0,199
39,882	35,268	-0,309	-0,190
40,896	88,176	-0,293	-0,229
41,911	105,310	-0,230	-0,191
42,926	53,249	-0,365	-0,246
43,940	92,078	-0,308	-0,244
44,955	253,430	-0,275	-0,331
45,969	42,842	-0,385	-0,246
46,984	111,580	-0,258	-0,219
47,999	-20,322	-0,318	-0,137
49,013	89,470	-0,210	-0,165
50,028	-69,970	-0,490	-0,131
51,042	29,615	-0,278	-0,166
52,057	201,092	-0,270	-0,293
53,071	225,023	-0,267	-0,305
54,086	-0,957	-0,316	-0,157
55,101	-44,093	-0,313	-0,110
56,115	97,858	-0,356	-0,288
57,130	228,272	-0,274	-0,315
58,144	4,177	-0,374	-0,192
59,159	229,019	-0,333	-0,383
60,174	388,082	-0,206	-0,301
61,188	325,675	-0,179	-0,242
62,203	-8,713	-0,426	-0,200
63,217	17,310	-0,268	-0,149
64,232	55,303	-0,220	-0,149
65,247	-18,427	-0,405	-0,177
66,261	103,077	-0,326	-0,268
67,276	126,290	-0,337	-0,300
68,290	104,624	-0,213	-0,176
69,305	112,918	-0,276	-0,235
70,320	65,480	-0,336	-0,239
71,334	249,735	-0,214	-0,256
72,349	37,713	-0,309	-0,193
73,363	144,427	-0,304	-0,286
74,378	57,358	-0,338	-0,231
75,393	385,533	-0,269	-0,392
76,407	151,299	-0,211	-0,202
77,422	40,709	-0,201	-0,127
78,436	28,342	-0,339	-0,201
79,451	-15,018	-0,257	-0,115
80,466	20,449	-0,386	-0,219
81,480	176,544	-0,246	-0,251
82,495	109,662	-0,299	-0,252
83,509	137,650	-0,341	-0,314
84,524	199,316	-0,217	-0,234
85,539	211,396	-0,183	-0,202
86,553	-12,815	-0,223	-0,102
87,568	62,540	-0,415	-0,291
88,582	-51,068	-0,304	-0,100
89,597	19,002	-0,359	-0,201
90,611	50,425	-0,268	-0,178
91,626	-69,049	-0,297	-0,080
92,641	115,280	-0,298	-0,255
93,655	-11,853	-0,244	-0,112
94,670	124,389	-0,307	-0,271
95,684	128,797	-0,291	-0,260
96,699	-7,404	-0,331	-0,157
97,714	33,626	-0,191	-0,116
98,728	-30,464	-0,357	-0,141
99,743	-14,337	-0,239	-0,108
100,757	151,249	-0,266	-0,254
101,772	97,436	-0,372	-0,300
102,787	39,682	-0,276	-0,173
103,801	767,678	-0,112	-0,214
104,816	25,516	-0,317	-0,184
105,830	11,282	-0,204	-0,109
106,845	-37,894	-0,367	-0,136
107,860	149,856	-0,162	-0,154
108,874	-30,439	-0,303	-0,120
109,889	5,469	-0,327	-0,169
110,903	11,925	-0,234	-0,125
111,918	423,977	-0,153	-0,232
112,933	76,302	-0,276	-0,204
113,947	502,285	-0,143	-0,232
114,962	-7,727	-0,319	-0,150
115,976	66,432	-0,215	-0,153
116,991	123,838	-0,289	-0,254
118,006	76,629	-0,216	-0,160
119,020	143,283	-0,195	-0,182
120,035	196,894	-0,142	-0,152
121,049	-35,428	-0,207	-0,078
122,064	98,357	-0,235	-0,190
123,079	57,526	-0,237	-0,162
124,093	85,774	-0,305	-0,235
125,108	150,884	-0,279	-0,265
126,122	49,523	-0,318	-0,209
127,137	71,614	-0,201	-0,146
128,151	17,754	-0,233	-0,129
129,166	-120,705	-0,296	-0,035
130,181	6,759	-0,328	-0,170
131,195	-84,608	-0,324	-0,071
132,210	92,389	-0,179	-0,141
133,224	73,127	-0,287	-0,210
134,239	33,369	-0,149	-0,090
135,254	149,768	-0,218	-0,207
136,268	122,363	-0,226	-0,197
137,283	51,018	-0,294	-0,194
138,297	55,588	-0,185	-0,125
139,312	83,262	-0,317	-0,241
140,327	29,325	-0,344	-0,204
141,341	98,119	-0,261	-0,210
142,356	89,013	-0,247	-0,192
143,370	-36,384	-0,356	-0,133
144,385	-83,511	-0,261	-0,058
145,400	-57,867	-0,353	-0,107
146,414	92,955	-0,299	-0,236
147,429	55,626	-0,289	-0,195
148,443	227,909	-0,184	-0,210
149,458	795,350	-0,107	-0,207
150,473	192,967	-0,223	-0,236
151,487	-33,446	-0,323	-0,124
152,502	3,585	-0,203	-0,103
153,516	30,381	-0,190	-0,113
154,531	41,601	-0,317	-0,200
155,546	57,811	-0,327	-0,223
156,560	43,752	-0,316	-0,201
157,575	158,669	-0,133	-0,129
158,589	-200,000	-0,056	-0,259
159,604	139,619	-0,228	-0,209
160,619	102,457	-0,230	-0,188
161,633	191,147	-0,226	-0,237
162,648	326,267	-0,221	-0,296
163,662	60,049	-0,198	-0,136
164,677	-200,000	-0,041	-0,245
165,692	393,443	-0,168	-0,244
166,706	-16,742	-0,263	-0,116
167,721	-29,125	-0,262	-0,104
168,735	31,939	-0,175	-0,105
169,750	92,480	-0,313	-0,246
170,764	45,050	-0,194	-0,125
171,779	-5,469	-0,092	-0,044
172,794	248,103	-0,191	-0,225
173,808	95,283	-0,258	-0,205
174,823	50,176	-0,295	-0,194
175,837	85,034	-0,199	-0,152
176,852	724,676	-0,127	-0,236
177,867	157,047	-0,188	-0,182
178,881	-200,000	-0,065	-0,201
179,896	70,378	-0,261	-0,187
180,910	77,911	-0,315	-0,233
181,925	17,624	-0,228	-0,126
182,940	39,935	-0,314	-0,196
183,954	123,174	-0,191	-0,167
184,969	800,000	-0,040	-0,118
185,983	348,695	-0,159	-0,219
186,998	-147,178	-0,132	-0,008
188,013	374,305	-0,156	-0,222
189,027	-140,200	-0,208	0,015
190,042	42,027	-0,283	-0,179
191,056	226,339	-0,258	-0,292
192,071	275,765	-0,108	-0,134
193,086	-6,032	-0,131	-0,062
194,100	-22,743	-0,216	-0,090
195,115	93,205	-0,131	-0,103
196,129	193,684	-0,233	-0,246
197,144	-124,063	-0,278	-0,030
198,159	-5,682	-0,208	-0,099
199,173	-6,627	-0,288	-0,136
200,188	70,675	-0,133	-0,095
201,202	766,337	-0,138	-0,262
202,217	224,957	-0,164	-0,185
203,232	-155,940	-0,198	-0,009
204,246	74,432	-0,295	-0,216
205,261	33,431	-0,217	-0,130
206,275	800,000	-0,034	-0,080
207,290	800,000	-0,022	-0,061
208,304	343,341	-0,039	-0,054
209,319	258,895	-0,072	-0,086
210,334	-72,440	-0,207	-0,053
211,348	3,481	-0,171	-0,086
212,363	-117,447	-0,180	-0,022
213,377	-28,095	-0,210	-0,084
214,392	179,567	-0,126	-0,129
215,407	-200,000	-0,013	-0,191
216,421	132,053	-0,143	-0,128
217,436	-140,801	-0,209	-0,015
218,450	0,756	-0,225	-0,112
219,465	73,149	-0,211	-0,153
220,480	126,073	-0,159	-0,139
221,494	225,177	-0,201	-0,226
222,509	128,204	-0,125	-0,110
223,523	82,775	-0,184	-0,139
224,538	145,235	-0,199	-0,185
225,553	67,530	-0,147	-0,104
226,567	361,748	-0,117	-0,164
227,582	552,930	-0,074	-0,123
228,596	153,696	-0,154	-0,147
229,611	-48,270	-0,284	-0,094
230,626	98,636	-0,194	-0,155
231,640	800,000	-0,125	-0,286
232,655	173,586	-0,202	-0,202
233,669	77,491	-0,235	-0,173
234,684	402,565	-0,168	-0,245
235,699	-200,000	0,018	-0,063
236,713	800,000	-0,084	-0,187
237,728	-29,993	-0,229	-0,090
238,742	98,062	-0,148	-0,118
239,757	-81,426	-0,185	-0,042
240,772	205,690	-0,181	-0,195
241,786	-23,997	-0,342	-0,141
242,801	218,816	-0,138	-0,153
243,815	311,332	-0,152	-0,197
244,830	116,728	-0,159	-0,135
245,844	10,865	-0,239	-0,126
246,859	1,993	-0,286	-0,142
247,874	158,099	-0,126	-0,121
248,888	59,715	-0,279	-0,190
249,903	144,357	-0,200	-0,185
250,917	411,825	-0,105	-0,155
251,932	-185,178	-0,222	-0,002
252,947	80,864	-0,209	-0,156
253,961	110,774	-0,195	-0,162
254,976	32,450	-0,191	-0,114
255,990	67,276	-0,321	-0,226
257,005	137,392	-0,164	-0,148
258,020	466,575	-0,091	-0,142
259,034	-156,982	-0,177	-0,007
260,049	103,287	-0,128	-0,103
261,063	800,000	-0,142	-0,314
262,078	440,568	-0,220	-0,334
263,093	-105,073	-0,183	-0,029
264,107	399,531	-0,141	-0,205
265,122	-66,172	-0,128	-0,035
266,136	-200,000	-0,048	-0,157
267,151	-28,350	-0,197	-0,078
268,166	40,719	-0,201	-0,125
269,180	-2,814	-0,203	-0,098
270,195	28,164	-0,304	-0,177
271,209	-44,539	-0,165	-0,057
272,224	398,550	-0,064	-0,093
273,239	99,993	-0,111	-0,089
274,253	67,058	-0,114	-0,080
275,268	10,957	-0,251	-0,132
276,282	218,178	-0,165	-0,182
277,297	58,966	-0,157	-0,107
278,312	37,525	-0,276	-0,169
279,326	-27,085	-0,159	-0,064
280,341	-40,103	-0,168	-0,060
281,355	-57,846	-0,206	0,062
282,370	-166,375	-0,139	0,004
283,384	115,726	-0,223	-0,188
284,399	89,898	-0,180	-0,138
285,414	195,063	-0,135	-0,141
286,428	536,912	-0,107	-0,176
287,443	461,180	-0,042	-0,066
288,457	-119,136	-0,219	-0,026
289,472	800,000	-0,071	-0,183
290,487	-18,971	-0,175	-0,075
291,501	-6,905	-0,293	-0,137
292,516	425,027	-0,148	-0,220
293,530	-200,000	-0,033	0,114
294,545	-30,746	-0,152	0,059
295,560	-42,437	-0,111	-0,039
296,574	-104,200	-0,227	-0,036
297,589	-200,000	-0,019	-0,063
298,603	63,784	-0,301	-0,208
299,618	800,000	-0,099	-0,237
300,633	-83,516	-0,133	-0,029
301,647	-126,102	-0,090	0,009
302,662	83,591	-0,055	-0,041
303,676	-200,000	-0,020	-0,159
304,691	24,066	-0,251	-0,142
305,706	6,336	-0,140	-0,071
306,720	800,000	-0,051	-0,131
307,735	16,673	-0,196	-0,106
308,749	-200,000	-0,015	-0,045
309,764	-89,162	-0,117	-0,024
310,779	800,000	-0,049	-0,122
311,793	-68,561	-0,148	0,039
312,808	577,972	-0,108	-0,183
313,822	341,353	-0,173	-0,233
314,837	-105,645	-0,056	-0,009
315,852	547,707	-0,043	0,071
316,866	-106,685	-0,059	-0,009
317,881	-146,527	-0,271	0,016
318,895	-114,612	-0,160	-0,021
319,910	-106,642	-0,218	-0,033
320,925	-0,990	-0,217	-0,105
321,939	86,096	-0,202	-0,153
322,954	349,876	-0,123	-0,168
323,968	182,522	-0,113	-0,115
324,983	20,525	-0,087	-0,048
325,997	86,780	-0,097	-0,074
327,012	349,981	-0,146	-0,199
328,027	-200,000	-0,034	-0,162
329,041	705,709	-0,077	-0,140
330,056	135,296	-0,089	-0,080
331,070	800,000	-0,019	-0,052
332,085	800,000	-0,037	-0,079
333,100	95,493	-0,187	-0,146
334,114	516,938	-0,117	-0,189
335,129	199,377	-0,086	-0,091
336,143	13,254	-0,112	-0,059
337,158	-171,351	-0,089	0,002
338,173	-38,273	-0,185	-0,067
339,187	800,000	-0,057	-0,137
340,202	153,529	-0,149	-0,140
341,216	-117,369	-0,259	-0,032
342,231	44,203	-0,235	-0,147
343,246	480,752	-0,034	-0,053
344,260	110,812	-0,143	-0,118
345,275	299,484	-0,046	-0,058
346,289	392,527	-0,071	-0,102
347,304	63,997	-0,175	-0,120
348,319	81,250	-0,214	-0,159
349,333	-13,127	-0,324	-0,144
350,348	-200,000	-0,036	-0,129
351,362	240,080	-0,106	-0,122
352,377	-141,791	-0,164	0,011
353,392	102,740	-0,105	-0,084
354,406	29,413	-0,105	0,061
355,421	208,621	1312,388	1409,402
356,435	160,534	1472,803	1409,880
