DTS Sentinel unit serial number:	SN410029Multiplexer serial number:	ORYXHardware model number:	OX2-SRSoftware version number:	ORYX F/W v4,00 Oryx Data Collector v3.7.2.0data status	okinstallation	B3 Nyhavnadifferential loss correction	single-endedforward channel	channel 1reverse channel	N/Adate	2023/11/28time	22:12:30forward acquisition time	300,00reverse acquisition time	0,00gamma	499,1914k internal	0,3212k external	0,3212temperature offset calibration	1,0000default loss term (dB/km)	0,3820temperature slope calibration	1,0000multiplexer offset coefficient	1,0000multiplexer slope coefficient	1,0000fibre end	0,00T internal ref (°C)	8,53T ext. ref 1 (°C)	-6,07T ext. ref 2 (°C)	-6,23length (m)	temperature (°C)	Stokes	anti-Stokes-744,400	800,000	-0,114	-0,248
-743,385	-200,000	-0,084	0,309
-742,371	473,893	-0,094	-0,154
-741,356	-200,000	-0,041	0,380
-740,342	45,127	-0,195	-0,130
-739,327	-200,000	-0,018	0,266
-738,312	800,000	-0,106	-0,281
-737,298	-200,000	-0,017	0,289
-736,283	522,434	-0,110	-0,188
-735,269	-200,000	-0,049	0,217
-734,254	720,925	-0,148	-0,287
-733,239	-13,637	-0,317	0,148
-732,225	-200,000	0,061	-0,250
-731,210	418,072	0,095	0,147
-730,196	-200,000	0,017	0,089
-729,181	-148,508	0,061	0,004
-728,167	-200,000	-0,008	-0,028
-727,152	-200,000	0,008	-0,105
-726,137	-122,390	0,037	0,004
-725,123	485,007	-0,005	0,008
-724,108	315,302	-0,103	-0,141
-723,094	47,832	-0,092	0,062
-722,079	800,000	-0,047	-0,119
-721,064	53,039	-0,043	-0,029
-720,050	717,569	-0,037	0,072
-719,035	-132,060	0,111	0,010
-718,021	532,335	-0,091	-0,156
-717,006	215,998	-0,040	-0,046
-715,991	-116,215	-0,163	-0,022
-714,977	152,365	-0,064	-0,063
-713,962	26,394	-0,040	-0,024
-712,948	-4,493	-0,129	-0,064
-711,933	-200,000	-0,003	-0,180
-710,918	-128,580	0,057	0,006
-709,904	-16,000	-0,022	-0,010
-708,889	47,816	-0,089	-0,060
-707,875	-200,000	-0,021	-0,073
-706,860	-200,000	0,000	0,123
-705,845	87,350	0,015	-0,012
-704,831	-175,012	-0,049	-0,001
-703,816	-200,000	-0,035	0,155
-702,802	-200,000	0,020	-0,079
-701,787	800,000	0,047	-0,113
-700,772	29,996	-0,025	0,016
-699,758	800,000	0,024	-0,064
-698,743	-89,281	-0,134	-0,028
-697,729	-131,890	0,039	-0,004
-696,714	-173,185	-0,060	-0,001
-695,699	467,547	-0,124	-0,202
-694,685	-32,234	-0,037	0,015
-693,670	-200,000	-0,015	-0,079
-692,656	706,502	-0,088	0,169
-691,641	105,551	0,127	0,108
-690,627	209,055	0,049	-0,055
-689,612	-58,188	-0,096	0,030
-688,597	-200,000	-0,010	-0,151
-687,583	-108,619	0,025	0,004
-686,568	315,323	0,039	-0,054
-685,554	-65,048	-0,050	-0,015
-684,539	-131,632	0,175	-0,016
-683,524	-28,065	0,038	-0,016
-682,510	-200,000	0,017	0,065
-681,495	65,454	-0,054	-0,039
-680,481	-12,213	-0,016	-0,007
-679,466	100,334	-0,079	-0,066
-678,451	572,093	-0,042	-0,074
-677,437	-53,189	0,044	-0,014
-676,422	-61,338	-0,068	-0,021
-675,408	57,806	-0,021	0,015
-674,393	-200,000	0,020	-0,100
-673,378	362,899	-0,059	0,086
-672,364	277,379	0,051	-0,066
-671,349	-117,201	-0,056	0,007
-670,335	185,543	0,074	0,080
-669,320	-93,303	-0,062	-0,012
-668,305	171,050	0,085	0,089
-667,291	105,274	-0,061	-0,052
-666,276	-200,000	0,045	-0,225
-665,262	-75,529	-0,175	-0,045
-664,247	269,630	-0,046	0,059
-663,232	-200,000	-0,049	-0,183
-662,218	-200,000	0,001	-0,027
-661,203	-200,000	-0,029	0,152
-660,189	-122,132	-0,014	-0,002
-659,174	800,000	0,055	-0,127
-658,159	75,860	0,077	-0,059
-657,145	-200,000	-0,029	0,121
-656,130	-200,000	0,006	-0,043
-655,116	-108,520	0,050	0,008
-654,101	-200,000	0,011	-0,075
-653,086	-114,515	0,091	-0,012
-652,072	-108,749	-0,059	0,009
-651,057	-12,502	-0,065	-0,031
-650,043	-4,105	-0,140	-0,070
-649,028	-200,000	-0,004	-0,043
-648,014	593,743	-0,042	-0,075
-646,999	-200,000	0,005	-0,030
-645,984	-200,000	-0,002	-0,074
-644,970	743,884	-0,025	-0,049
-643,955	-200,000	-0,017	-0,213
-642,941	-48,350	-0,016	-0,005
-641,926	-69,630	-0,014	0,004
-640,911	81,620	-0,047	-0,037
-639,897	-200,000	0,004	0,063
-638,882	-82,097	-0,067	-0,016
-637,868	-23,391	-0,117	0,051
-636,853	-91,333	-0,063	-0,013
-635,838	-150,657	-0,132	0,007
-634,824	323,868	-0,092	0,127
-633,809	800,000	0,069	0,149
-632,795	-81,732	-0,022	-0,005
-631,780	304,239	0,064	0,085
-630,765	-73,984	-0,123	0,032
-629,751	-118,813	0,104	-0,013
-628,736	41,872	0,123	0,080
-627,722	-112,241	-0,126	-0,018
-626,707	25,486	0,046	-0,027
-625,692	25,217	0,139	0,083
-624,678	-168,534	-0,168	0,005
-623,663	135,411	-0,073	0,069
-622,649	-103,732	-0,110	0,018
-621,634	-200,000	0,010	-0,089
-620,619	353,787	0,107	-0,154
-619,605	-39,528	-0,090	0,034
-618,590	629,105	0,037	0,068
-617,576	429,483	0,051	0,080
-616,561	-1,803	-0,168	-0,085
-615,546	-200,000	-0,021	-0,083
-614,532	82,381	-0,001	0,001
-613,517	-106,671	-0,060	-0,010
-612,503	-200,000	-0,003	0,062
-611,488	-200,000	-0,007	0,157
-610,474	523,898	0,095	-0,163
-609,459	424,308	-0,058	-0,090
-608,444	-93,663	-0,003	-0,001
-607,430	402,322	-0,071	-0,107
-606,415	432,975	-0,071	-0,112
-605,401	800,000	-0,023	-0,051
-604,386	-26,644	0,056	-0,023
-603,371	-200,000	-0,012	-0,089
-602,357	-121,746	-0,173	0,020
-601,342	-200,000	-0,027	-0,125
-600,328	283,244	-0,011	-0,014
-599,313	-200,000	0,003	-0,042
-598,298	-200,000	-0,003	-0,045
-597,284	311,368	-0,035	0,048
-596,269	800,000	0,036	0,099
-595,255	245,146	0,045	-0,054
-594,240	-200,000	0,021	-0,082
-593,225	151,270	-0,072	-0,071
-592,211	-200,000	-0,005	-0,093
-591,196	25,040	-0,008	-0,005
-590,182	-200,000	-0,023	0,114
-589,167	66,822	0,143	0,105
-588,152	800,000	0,023	-0,051
-587,138	-182,528	0,058	0,001
-586,123	0,548	-0,038	-0,020
-585,109	-200,000	0,019	0,110
-584,094	-44,405	-0,126	-0,045
-583,079	-63,308	0,134	-0,040
-582,065	-139,828	0,154	-0,012
-581,050	558,643	-0,096	0,167
-580,036	376,373	-0,132	0,195
-579,021	-79,363	-0,019	0,005
-578,006	-164,359	-0,117	-0,004
-576,992	308,520	-0,008	-0,011
-575,977	-125,923	0,125	-0,013
-574,963	288,402	-0,118	0,154
-573,948	263,227	0,039	0,049
-572,934	139,177	-0,044	-0,042
-571,919	67,098	-0,016	-0,011
-570,904	121,391	0,059	-0,053
-569,890	-126,752	-0,056	-0,006
-568,875	-200,000	-0,000	0,009
-567,861	167,653	0,070	0,071
-566,846	-19,659	-0,058	0,026
-565,831	800,000	-0,045	-0,115
-564,817	300,156	-0,036	-0,048
-563,802	448,581	0,070	-0,112
-562,788	-200,000	0,018	-0,059
-561,773	158,155	0,123	0,123
-560,758	-200,000	-0,016	0,150
-559,744	-19,890	0,080	0,035
-558,729	-171,198	-0,046	-0,001
-557,715	223,281	0,141	-0,164
-556,700	-112,755	-0,086	-0,012
-555,685	0,209	-0,067	-0,034
-554,671	613,875	-0,031	-0,056
-553,656	-200,000	-0,035	-0,199
-552,642	165,961	-0,110	-0,112
-551,627	-30,436	-0,151	0,061
-550,612	-7,897	-0,115	0,055
-549,598	85,874	-0,165	-0,131
-548,583	-200,000	-0,000	-0,039
-547,569	751,508	-0,032	-0,062
-546,554	312,661	0,117	-0,159
-545,539	197,242	-0,054	0,059
-544,525	87,149	-0,068	0,054
-543,510	-200,000	-0,013	0,086
-542,496	559,266	-0,053	-0,092
-541,481	-60,269	0,085	0,026
-540,466	800,000	-0,042	-0,122
-539,452	-200,000	0,005	-0,140
-538,437	-200,000	-0,002	0,147
-537,423	-45,696	-0,063	-0,022
-536,408	94,998	0,058	-0,048
-535,393	11,591	-0,205	0,113
-534,379	-200,000	0,025	-0,119
-533,364	213,980	-0,009	-0,010
-532,350	800,000	0,065	-0,190
-531,335	118,899	-0,059	0,052
-530,321	467,305	0,057	0,092
-529,306	-31,726	0,093	0,037
-528,291	-200,000	0,011	-0,092
-527,277	225,522	0,023	0,027
-526,262	-200,000	-0,002	-0,136
-525,248	-122,140	0,039	0,005
-524,233	800,000	0,062	0,147
-523,218	-38,433	-0,075	0,028
-522,204	-84,079	-0,060	0,014
-521,189	-85,658	-0,086	0,019
-520,175	-200,000	0,044	-0,191
-519,160	140,088	-0,018	-0,017
-518,145	-87,555	0,027	0,006
-517,131	-200,000	0,007	0,131
-516,116	519,635	0,073	-0,124
-515,102	149,208	0,084	-0,082
-514,087	-190,279	-0,127	-0,001
-513,072	-112,587	0,084	-0,012
-512,058	-200,000	-0,003	0,049
-511,043	96,035	0,011	0,009
-510,029	34,574	0,100	0,063
-509,014	-56,091	0,105	0,033
-507,999	800,000	-0,025	0,071
-506,985	563,327	-0,014	0,025
-505,970	482,970	-0,042	0,068
-504,956	-81,099	-0,106	-0,025
-503,941	128,400	0,028	-0,026
-502,926	95,260	-0,057	0,046
-501,912	398,403	-0,032	0,049
-500,897	-114,363	0,067	0,009
-499,883	-108,316	-0,103	-0,016
-498,868	-144,839	0,047	-0,003
-497,853	-200,000	-0,088	-0,305
-496,839	150,226	-0,037	-0,036
-495,824	-41,823	-0,077	0,028
-494,810	119,241	0,050	0,044
-493,795	35,708	0,073	-0,046
-492,781	229,017	-0,057	-0,067
-491,766	-200,000	0,007	0,049
-490,751	500,033	-0,094	-0,157
-489,737	-63,056	-0,023	-0,007
-488,722	1,573	0,020	0,010
-487,708	152,471	0,126	0,123
-486,693	800,000	0,041	0,095
-485,678	81,198	-0,079	0,061
-484,664	213,983	-0,037	0,042
-483,649	622,837	-0,040	0,073
-482,635	30,979	-0,013	-0,008
-481,620	-98,048	0,129	0,024
-480,605	310,221	-0,092	0,124
-479,591	800,000	0,049	0,100
-478,576	-40,842	-0,122	0,045
-477,562	-13,152	0,051	-0,024
-476,547	800,000	-0,021	0,061
-475,532	711,309	-0,036	0,069
-474,518	-200,000	0,001	0,050
-473,503	69,703	0,018	0,013
-472,489	-200,000	0,016	-0,055
-471,474	112,803	0,125	-0,109
-470,459	-18,934	-0,041	-0,018
-469,445	-200,000	-0,003	-0,055
-468,430	-200,000	0,006	-0,101
-467,416	716,884	-0,017	-0,033
-466,401	800,000	-0,035	0,074
-465,386	470,153	-0,051	-0,083
-464,372	517,840	-0,126	0,212
-463,357	-200,000	-0,022	-0,106
-462,343	-200,000	-0,029	-0,202
-461,328	207,301	-0,097	0,108
-460,313	-200,000	0,004	0,019
-459,299	-104,538	0,113	-0,019
-458,284	800,000	-0,031	-0,063
-457,270	-200,000	0,022	-0,077
-456,255	139,016	0,115	-0,109
-455,241	-27,283	0,076	0,032
-454,226	30,029	-0,097	-0,059
-453,211	-200,000	-0,019	-0,076
-452,197	-29,625	0,152	0,062
-451,182	101,359	0,037	0,031
-450,168	800,000	-0,059	0,118
-449,153	-200,000	-0,008	0,046
-448,138	2,881	-0,147	-0,076
-447,124	-200,000	0,005	-0,116
-446,109	165,991	-0,045	0,045
-445,095	636,037	-0,023	0,042
-444,080	-200,000	-0,027	0,153
-443,065	1,024	-0,051	0,026
-442,051	-131,790	0,056	-0,005
-441,036	144,853	-0,091	-0,088
-440,022	150,921	-0,024	-0,023
-439,007	101,888	0,042	0,035
-437,992	-200,000	0,017	-0,093
-436,978	162,203	-0,081	0,081
-435,963	369,769	0,050	-0,072
-434,949	70,644	-0,154	0,114
-433,934	800,000	0,042	0,126
-432,919	-89,904	0,034	-0,007
-431,905	110,806	-0,061	-0,052
-430,890	-109,372	-0,042	-0,006
-429,876	-90,283	0,032	0,007
-428,861	-200,000	-0,022	0,083
-427,846	-173,915	-0,162	-0,003
-426,832	-33,752	0,030	-0,012
-425,817	224,934	0,033	-0,038
-424,803	579,337	0,023	-0,040
-423,788	-17,564	0,047	0,021
-422,773	40,994	0,067	0,043
-421,759	34,991	-0,122	0,076
-420,744	-200,000	0,014	0,175
-419,730	-63,183	0,080	-0,023
-418,715	-5,954	-0,095	-0,047
-417,701	92,133	-0,085	-0,069
-416,686	-200,000	0,002	0,006
-415,671	91,496	0,072	0,058
-414,657	-200,000	0,005	0,055
-413,642	-200,000	0,033	-0,138
-412,628	-74,495	0,092	-0,024
-411,613	-200,000	0,037	-0,164
-410,598	800,000	-0,023	-0,048
-409,584	-200,000	0,013	0,192
-408,569	800,000	0,035	0,103
-407,555	-200,000	-0,004	0,073
-406,540	37,185	-0,074	-0,047
-405,525	-128,464	0,060	-0,006
-404,511	-200,000	0,021	-0,072
-403,496	-39,401	-0,080	-0,030
-402,482	296,950	-0,046	-0,061
-401,467	235,256	0,095	0,113
-400,452	45,207	0,151	0,099
-399,438	-142,992	0,041	-0,003
-398,423	-200,000	-0,010	0,068
-397,409	346,604	-0,057	0,080
-396,394	314,232	0,059	-0,080
-395,379	76,893	-0,012	0,009
-394,365	800,000	0,009	-0,024
-393,350	363,284	0,034	-0,050
-392,336	148,239	0,055	0,053
-391,321	800,000	-0,020	-0,062
-390,306	800,000	-0,047	-0,098
-389,292	35,498	-0,020	0,013
-388,277	152,118	0,096	0,094
-387,263	286,443	0,008	0,010
-386,248	669,493	0,045	0,084
-385,233	-200,000	0,050	0,204
-384,219	-48,975	0,054	-0,018
-383,204	81,754	-0,088	0,068
-382,190	17,085	-0,077	-0,043
-381,175	-200,000	0,019	-0,096
-380,160	128,547	0,090	-0,082
-379,146	-200,000	0,016	0,159
-378,131	-200,000	-0,021	0,093
-377,117	175,786	-0,061	-0,063
-376,102	800,000	-0,018	0,039
-375,088	-93,938	0,067	0,013
-374,073	-200,000	0,030	0,109
-373,058	251,240	0,030	-0,037
-372,044	164,422	0,060	0,061
-371,029	-200,000	-0,002	0,013
-370,015	103,596	-0,021	-0,018
-369,000	-58,583	-0,113	0,035
-367,985	81,057	0,015	0,011
-366,971	212,103	-0,042	0,047
-365,956	-200,000	0,008	0,030
-364,942	-115,951	0,181	-0,024
-363,927	-49,706	0,152	0,051
-362,912	-56,262	-0,099	-0,031
-361,898	32,177	0,097	0,060
-360,883	313,416	-0,035	-0,047
-359,869	800,000	-0,025	-0,061
-358,854	150,191	-0,102	0,099
-357,839	-200,000	0,021	0,102
-356,825	-49,204	0,151	-0,051
-355,810	-200,000	0,019	-0,064
-354,796	-200,000	0,040	0,217
-353,781	749,149	0,008	0,016
-352,766	206,312	-0,089	0,099
-351,752	68,711	0,138	0,101
-350,737	800,000	0,044	0,111
-349,723	-70,403	-0,031	0,008
-348,708	-200,000	-0,017	0,054
-347,693	77,109	-0,096	0,072
-346,679	105,870	-0,140	-0,118
-345,664	546,586	0,023	0,040
-344,650	-200,000	-0,017	-0,056
-343,635	-95,946	-0,048	0,009
-342,620	-58,110	0,132	0,041
-341,606	148,804	-0,051	0,049
-340,591	-200,000	-0,003	-0,079
-339,577	-5,067	-0,053	-0,026
-338,562	-110,976	0,022	-0,003
-337,548	-86,505	-0,092	-0,020
-336,533	0,362	0,061	-0,031
-335,518	506,161	0,122	0,202
-334,504	800,000	-0,059	0,127
-333,489	-200,000	-0,005	0,072
-332,475	-110,447	-0,153	-0,022
-331,460	800,000	0,065	-0,140
-330,445	800,000	0,039	-0,102
-329,431	-121,937	0,129	-0,015
-328,416	298,514	0,077	0,102
-327,402	42,317	0,068	0,044
-326,387	-40,424	-0,082	0,030
-325,372	-200,000	-0,010	-0,146
-324,358	-200,000	0,017	0,066
-323,343	640,669	-0,037	-0,068
-322,329	70,030	0,098	0,072
-321,314	-200,000	0,006	0,135
-320,299	267,434	0,028	0,035
-319,285	800,000	-0,056	0,144
-318,270	46,807	0,063	-0,042
-317,256	800,000	-0,030	0,063
-316,241	-33,532	-0,048	-0,019
-315,226	-200,000	-0,013	-0,045
-314,212	-94,264	0,184	-0,036
-313,197	-152,886	-0,111	-0,006
-312,183	-200,000	-0,004	0,021
-311,168	430,401	0,040	0,062
-310,153	-38,172	0,139	-0,052
-309,139	-200,000	-0,019	-0,067
-308,124	-159,662	0,179	-0,007
-307,110	-200,000	0,010	0,058
-306,095	-200,000	0,002	0,033
-305,080	800,000	-0,015	0,043
-304,066	-82,169	-0,031	-0,007
-303,051	800,000	-0,064	-0,134
-302,037	-200,000	0,021	-0,078
-301,022	-200,000	0,022	-0,134
-300,008	-200,000	0,005	-0,083
-298,993	-119,619	-0,127	-0,015
-297,978	496,897	0,020	-0,033
-296,964	-91,597	-0,070	-0,014
-295,949	21,451	-0,115	0,066
-294,935	222,763	0,094	-0,108
-293,920	361,604	0,068	-0,098
-292,905	434,501	0,072	0,111
-291,891	-76,802	0,089	0,022
-290,876	800,000	0,068	-0,142
-289,862	-12,765	0,048	0,022
-288,847	-59,538	0,148	0,045
-287,832	-168,425	-0,076	0,002
-286,818	800,000	-0,003	0,010
-285,803	-120,599	0,055	-0,007
-284,789	397,781	0,022	-0,033
-283,774	183,997	-0,113	0,119
-282,759	100,652	-0,093	0,077
-281,745	800,000	0,032	-0,094
-280,730	800,000	0,013	-0,028
-279,716	-141,006	0,044	-0,003
-278,701	800,000	-0,026	0,071
-277,686	38,912	0,118	0,075
-276,672	-200,000	0,011	0,142
-275,657	74,257	0,116	-0,087
-274,643	-111,449	-0,022	-0,003
-273,628	-200,000	-0,021	-0,119
-272,613	-2,172	0,090	-0,045
-271,599	247,196	0,073	0,088
-270,584	-63,895	0,137	0,040
-269,570	-200,000	-0,004	-0,024
-268,555	487,716	-0,038	-0,061
-267,540	504,457	0,046	-0,076
-266,526	-25,803	0,022	0,009
-265,511	-26,981	0,101	0,042
-264,497	800,000	-0,035	0,074
-263,482	-200,000	0,021	-0,074
-262,467	-121,443	0,124	0,014
-261,453	-50,177	0,063	0,021
-260,438	202,083	-0,036	-0,039
-259,424	-100,410	0,147	0,026
-258,409	-200,000	0,015	0,089
-257,395	-14,999	-0,016	-0,007
-256,380	-200,000	0,013	0,092
-255,365	17,975	0,094	0,053
-254,351	-200,000	0,005	-0,085
-253,336	74,794	0,108	-0,080
-252,322	-200,000	0,009	-0,084
-251,307	600,790	0,015	0,026
-250,292	474,790	0,085	0,137
-249,278	-200,000	0,051	0,192
-248,263	-200,000	-0,019	-0,083
-247,249	-35,724	-0,106	0,041
-246,234	162,802	-0,044	0,044
-245,219	30,841	0,057	0,034
-244,205	-76,982	-0,242	0,060
-243,190	-115,129	0,077	-0,010
-242,176	-21,870	0,104	-0,045
-241,161	-53,053	0,201	0,065
-240,146	-81,559	0,154	0,036
-239,132	-63,400	0,075	-0,022
-238,117	-200,000	-0,003	-0,099
-237,103	151,151	0,014	-0,014
-236,088	-200,000	0,003	0,102
-235,073	-68,015	0,210	-0,058
-234,059	-200,000	-0,001	-0,013
-233,044	800,000	-0,038	-0,084
-232,030	800,000	-0,093	0,194
-231,015	-200,000	-0,016	-0,200
-230,000	-200,000	-0,058	-0,216
-228,986	-54,031	-0,087	0,028
-227,971	43,919	-0,081	0,052
-226,957	64,418	0,085	0,060
-225,942	171,074	0,091	-0,093
-224,927	800,000	0,055	0,112
-223,913	254,592	-0,034	0,041
-222,898	800,000	-0,035	-0,095
-221,884	-23,265	0,141	-0,060
-220,869	-33,666	0,130	-0,051
-219,855	-200,000	0,002	-0,015
-218,840	-126,044	-0,107	0,011
-217,825	119,355	-0,100	-0,088
-216,811	-24,852	0,132	-0,056
-215,796	139,019	-0,105	-0,098
-214,782	-200,000	0,013	-0,117
-213,767	684,490	0,044	0,081
-212,752	800,000	0,038	-0,098
-211,738	800,000	-0,060	-0,131
-210,723	-200,000	-0,016	0,058
-209,709	-163,207	-0,155	0,005
-208,694	61,656	-0,016	0,011
-207,679	800,000	-0,015	-0,035
-206,665	800,000	0,005	0,013
-205,650	-78,308	0,041	-0,010
-204,636	-122,897	-0,062	-0,007
-203,621	325,717	0,073	-0,099
-202,606	800,000	0,017	-0,046
-201,592	-86,096	-0,122	0,026
-200,577	279,990	0,054	0,068
-199,563	148,311	0,053	-0,051
-198,548	341,433	-0,026	0,036
-197,533	-200,000	0,003	-0,091
-196,519	21,999	-0,039	-0,022
-195,504	-73,159	0,072	-0,018
-194,490	236,459	-0,098	-0,115
-193,475	235,798	-0,041	-0,048
-192,460	99,395	-0,066	-0,054
-191,446	-200,000	-0,002	0,034
-190,431	800,000	0,053	-0,112
-189,417	503,616	0,051	0,084
-188,402	800,000	0,082	0,163
-187,387	616,044	-0,050	-0,090
-186,373	-153,982	-0,046	-0,002
-185,358	800,000	-0,034	-0,094
-184,344	511,511	0,057	0,094
-183,329	35,859	-0,024	0,015
-182,315	800,000	-0,045	0,129
-181,300	-200,000	0,013	0,128
-180,285	-156,737	-0,012	0,001
-179,271	-12,316	-0,050	-0,023
-178,256	106,233	-0,075	-0,063
-177,242	-194,468	0,060	-0,000
-176,227	10,980	0,100	0,054
-175,212	-200,000	0,004	0,058
-174,198	-200,000	-0,020	-0,076
-173,183	-95,811	-0,084	-0,016
-172,169	-200,000	0,018	-0,072
-171,154	-200,000	0,003	0,014
-170,139	-38,892	-0,115	-0,043
-169,125	-200,000	0,035	0,174
-168,110	-16,640	-0,146	0,065
-167,096	-200,000	-0,020	0,073
-166,081	498,151	-0,051	0,084
-165,066	646,466	-0,071	-0,129
-164,052	9,291	-0,138	-0,074
-163,037	-146,436	0,158	-0,010
-162,023	800,000	0,016	-0,042
-161,008	-55,946	0,031	0,010
-159,993	-59,908	0,035	0,011
-158,979	-79,057	0,070	0,017
-157,964	56,154	-0,007	-0,005
-156,950	-200,000	-0,014	-0,050
-155,935	-200,000	0,018	0,058
-154,920	51,631	0,092	0,062
-153,906	-150,916	-0,086	-0,005
-152,891	-11,636	-0,066	-0,031
-151,877	241,539	0,042	0,050
-150,862	618,894	-0,068	-0,121
-149,847	-61,620	-0,057	0,017
-148,833	-152,328	0,133	-0,007
-147,818	336,081	-0,063	-0,087
-146,804	657,809	-0,083	0,152
-145,789	-200,000	-0,005	0,048
-144,775	476,359	-0,079	-0,126
-143,760	800,000	0,059	-0,118
-142,745	-8,825	-0,129	-0,061
-141,731	46,858	-0,023	-0,015
-140,716	-55,175	0,123	-0,039
-139,702	-200,000	-0,038	0,134
-138,687	-200,000	-0,003	-0,048
-137,672	373,817	0,073	0,106
-136,658	298,428	-0,038	0,050
-135,643	-170,562	-0,251	-0,006
-134,629	-87,036	0,240	0,051
-133,614	191,667	0,058	0,062
-132,599	-137,485	0,069	-0,005
-131,585	-72,644	-0,081	-0,021
-130,570	361,811	0,067	-0,096
-129,556	800,000	0,087	-0,180
-128,541	54,619	-0,087	-0,059
-127,526	-200,000	-0,003	-0,036
-126,512	800,000	-0,035	-0,098
-125,497	-170,639	0,144	-0,003
-124,483	-200,000	-0,007	0,030
-123,468	-200,000	0,001	0,114
-122,453	-67,141	-0,099	-0,027
-121,439	800,000	0,008	-0,021
-120,424	800,000	0,028	0,081
-119,410	30,674	-0,104	-0,063
-118,395	355,680	0,051	0,072
-117,380	162,838	-0,029	-0,028
-116,366	54,570	0,079	-0,054
-115,351	263,753	-0,029	-0,036
-114,337	-200,000	-0,017	-0,078
-113,322	-200,000	-0,020	0,096
-112,307	209,823	0,063	-0,070
-111,293	708,549	0,089	0,167
-110,278	15,103	0,087	0,048
-109,264	141,747	0,066	-0,062
-108,249	-157,705	-0,138	-0,006
-107,234	21,987	-0,092	-0,053
-106,220	800,000	0,007	-0,015
-105,205	-134,008	0,172	0,015
-104,191	144,063	0,028	0,026
-103,176	-191,226	0,122	0,001
-102,162	-200,000	-0,010	0,052
-101,147	-18,761	0,109	0,048
-100,132	30,265	-0,072	0,043
-99,118	131,042	-0,064	0,058
-98,103	55,827	0,032	0,022
-97,089	-90,509	0,168	0,034
-96,074	-73,190	-0,109	0,028
-95,059	175,136	0,082	0,084
-94,045	218,708	-0,068	0,077
-93,030	-200,000	-0,004	-0,053
-92,016	800,000	-0,035	-0,071
-91,001	800,000	0,012	0,026
-89,986	-94,364	-0,055	-0,010
-88,972	496,807	-0,068	0,111
-87,957	-139,080	0,069	-0,005
-86,943	35,937	-0,041	0,025
-85,928	800,000	0,024	-0,074
-84,913	-80,827	0,178	-0,041
-83,899	6,824	0,118	0,062
-82,884	-135,877	-0,061	-0,005
-81,870	800,000	0,021	-0,052
-80,855	-200,000	-0,012	0,062
-79,840	-143,449	0,032	0,002
-78,826	-16,718	-0,134	0,059
-77,811	-133,455	0,063	0,006
-76,797	-111,296	-0,018	0,003
-75,782	800,000	0,017	-0,039
-74,767	-76,272	0,131	0,032
-73,753	-27,027	0,114	0,047
-72,738	-76,218	-0,085	0,021
-71,724	544,513	-0,123	-0,208
-70,709	681,128	-0,038	0,070
-69,694	21,580	-0,028	0,016
-68,680	-200,000	-0,038	0,192
-67,665	-200,000	0,026	0,192
-66,651	-200,000	0,015	0,159
-65,636	528,468	-0,051	0,085
-64,622	-62,186	0,114	-0,033
-63,607	-200,000	0,004	-0,016
-62,592	-200,000	-0,022	-0,129
-61,578	176,776	0,049	0,050
-60,563	439,219	0,077	0,119
-59,549	-153,762	0,116	0,006
-58,534	77,111	-2,102	-1,575
-57,519	476,628	-1,131	-1,810
-56,505	-200,000	-0,257	-4,410
-55,490	800,000	0,852	1,753
-54,476	800,000	5,176	11,291
-53,461	-200,000	21,986	341,404
-52,446	800,000	757,393	2298,328
-51,432	534,279	1647,950	2766,261
-50,417	68,694	1646,175	1190,456
-49,403	16,234	1521,451	844,328
-48,388	10,449	1446,309	774,843
-47,373	19,162	1438,646	812,226
-46,359	13,849	1427,278	780,701
-45,344	8,711	1423,189	754,139
-44,330	8,646	1421,471	752,891
-43,315	8,578	1419,725	751,615
-42,300	8,633	1417,846	750,847
-41,286	8,646	1416,467	750,147
-40,271	8,611	1415,364	749,371
-39,257	8,613	1414,238	748,754
-38,242	8,645	1413,162	748,307
-37,227	8,610	1412,009	747,501
-36,213	8,634	1410,553	746,814
-35,198	8,654	1409,397	746,266
-34,184	8,679	1408,531	745,896
-33,169	8,585	1407,089	744,662
-32,154	8,574	1406,479	744,258
-31,140	8,562	1404,967	743,370
-30,125	8,656	1403,690	743,105
-29,111	8,591	1402,513	742,149
-28,096	8,601	1401,506	741,632
-27,082	8,542	1400,187	740,633
-26,067	8,533	1399,146	740,009
-25,052	8,582	1398,014	739,608
-24,038	8,595	1397,203	739,210
-23,023	8,563	1396,252	738,530
-22,009	8,543	1395,142	737,821
-20,994	8,537	1393,972	737,144
-19,979	8,596	1393,160	736,960
-18,965	8,463	1392,445	735,936
-17,950	8,479	1391,280	735,363
-16,936	8,518	1390,398	735,051
-15,921	8,436	1389,381	734,103
-14,906	8,504	1388,342	733,839
-13,892	8,524	1387,579	733,498
-12,877	8,498	1386,910	732,999
-11,863	8,440	1386,301	732,380
-10,848	8,485	1385,066	731,904
-9,833	8,417	1384,244	731,130
-8,819	8,378	1383,425	730,487
-7,804	8,392	1382,268	729,913
-6,790	8,378	1381,327	729,322
-5,775	8,392	1380,383	728,857
-4,760	8,401	1379,312	728,305
-3,746	8,385	1378,391	727,717
-2,731	8,392	1377,501	727,248
-1,717	8,383	1376,776	726,799
-0,702	8,391	1375,061	725,901
0,313	12,416	1286,800	697,549
1,327	28,219	679,804	403,848
2,342	44,053	116,820	75,374
3,356	0,503	16,452	8,262
4,371	5,259	3,797	1,967
5,386	17,994	1,213	0,680
6,400	668,307	0,352	0,644
7,415	-153,595	-0,251	-0,012
8,429	800,000	-0,074	-0,196
9,444	58,234	-0,304	-0,210
10,459	-0,335	-0,356	-0,178
11,473	-1,035	-0,270	-0,134
12,488	-53,954	-0,267	-0,085
13,502	159,921	-0,183	-0,180
14,517	86,341	-0,276	-0,214
15,531	32,457	-0,435	-0,264
16,546	113,043	-0,273	-0,233
17,561	56,432	-0,399	-0,273
18,575	2,481	-0,233	-0,118
19,590	-39,353	-0,249	-0,091
20,604	173,317	-0,209	-0,212
21,619	0,526	-0,498	-0,250
22,634	133,585	-0,421	-0,384
23,648	41,025	-0,369	-0,234
24,663	122,254	-0,387	-0,340
25,677	-47,339	-0,355	-0,121
26,692	71,680	-0,320	-0,234
27,707	184,887	-0,335	-0,350
28,721	71,088	-0,396	-0,288
29,736	27,135	-0,339	-0,199
30,750	193,939	-0,352	-0,375
31,765	134,601	-0,329	-0,300
32,780	82,808	-0,393	-0,300
33,794	85,883	-0,207	-0,160
34,809	97,111	-0,422	-0,340
35,823	117,433	-0,434	-0,375
36,838	33,264	-0,353	-0,215
37,853	133,379	-0,311	-0,283
38,867	129,799	-0,428	-0,385
39,882	74,104	-0,265	-0,195
40,896	72,099	-0,220	-0,161
41,911	25,473	-0,320	-0,186
42,926	65,720	-0,405	-0,288
43,940	22,689	-0,355	-0,204
44,955	252,873	-0,289	-0,347
45,969	149,301	-0,283	-0,269
46,984	545,259	-0,226	-0,381
47,999	83,783	-0,352	-0,270
49,013	215,265	-0,182	-0,203
50,028	-28,361	-0,362	-0,146
51,042	168,995	-0,376	-0,377
52,057	-50,780	-0,422	-0,138
53,071	5,685	-0,425	-0,220
54,086	-67,196	-0,345	-0,095
55,101	-63,325	-0,444	-0,128
56,115	-40,894	-0,387	-0,140
57,130	116,084	-0,372	-0,320
58,144	7,079	-0,266	-0,139
59,159	326,028	-0,231	-0,311
60,174	29,187	-0,250	-0,149
61,188	159,937	-0,272	-0,266
62,203	156,601	-0,184	-0,178
63,217	-47,576	-0,393	-0,133
64,232	657,390	-0,130	-0,236
65,247	63,174	-0,273	-0,191
66,261	149,038	-0,321	-0,305
67,276	9,346	-0,312	-0,165
68,290	34,738	-0,333	-0,204
69,305	75,853	-0,244	-0,181
70,320	-41,131	-0,299	-0,108
71,334	121,061	-0,246	-0,214
72,349	53,371	-0,303	-0,204
73,363	98,681	-0,296	-0,239
74,378	36,629	-0,312	-0,193
75,393	-6,835	-0,187	-0,089
76,407	303,518	-0,203	-0,265
77,422	-10,773	-0,387	-0,178
78,436	-26,325	-0,385	-0,158
79,451	-172,129	-0,347	-0,008
80,466	39,022	-0,259	-0,162
81,480	272,126	-0,293	-0,362
82,495	74,861	-0,324	-0,239
83,509	128,870	-0,355	-0,317
84,524	-55,516	-0,344	-0,107
85,539	307,304	-0,221	-0,289
86,553	47,454	-0,267	-0,174
87,568	55,761	-0,235	-0,159
88,582	31,791	-0,359	-0,216
89,597	199,340	-0,211	-0,226
90,611	-58,205	-0,452	-0,137
91,626	193,770	-0,150	-0,159
92,641	-0,030	-0,267	-0,133
93,655	307,554	-0,188	-0,246
94,670	162,163	-0,251	-0,246
95,684	39,289	-0,341	-0,213
96,699	-73,333	-0,380	-0,096
97,714	-4,243	-0,308	-0,148
98,728	65,235	-0,213	-0,150
99,743	448,732	-0,087	-0,134
100,757	-122,458	-0,276	-0,031
101,772	2,176	-0,262	-0,132
102,787	198,030	-0,209	-0,224
103,801	134,591	-0,242	-0,219
104,816	-32,431	-0,301	-0,117
105,830	176,382	-0,223	-0,226
106,845	158,742	-0,220	-0,213
107,860	44,858	-0,438	-0,281
108,874	-50,033	-0,282	-0,093
109,889	8,448	-0,248	-0,130
110,903	66,501	-0,197	-0,139
111,918	-105,664	-0,304	-0,048
112,933	-20,919	-0,182	-0,078
113,947	87,713	-0,071	-0,055
114,962	286,319	-0,178	-0,225
115,976	-55,293	-0,222	-0,069
116,991	-12,537	-0,341	-0,155
118,006	90,107	-0,270	-0,210
119,020	90,965	-0,284	-0,222
120,035	96,378	-0,185	-0,147
121,049	332,208	-0,108	-0,145
122,064	-54,299	-0,235	-0,074
123,079	202,192	-0,185	-0,199
124,093	258,285	-0,244	-0,294
125,108	275,687	-0,256	-0,318
126,122	-43,874	-0,199	-0,070
127,137	675,398	-0,159	-0,289
128,151	58,497	-0,241	-0,165
129,166	177,427	-0,266	-0,270
130,181	-21,818	-0,206	-0,087
131,195	425,226	-0,171	-0,258
132,210	108,235	-0,269	-0,224
133,224	6,967	-0,269	-0,140
134,239	70,481	-0,214	-0,154
135,254	127,160	-0,161	-0,143
136,268	109,439	-0,395	-0,330
137,283	53,283	-0,223	-0,148
138,297	-140,161	-0,297	-0,021
139,312	41,517	-0,295	-0,185
140,327	83,029	-0,214	-0,162
141,341	-118,448	-0,166	0,020
142,356	120,847	-0,235	-0,203
143,370	52,831	-0,094	-0,062
144,385	400,430	-0,087	-0,127
145,400	43,851	-0,276	-0,175
146,414	380,428	-0,230	-0,329
147,429	-15,777	-0,269	-0,119
148,443	-28,272	-0,242	-0,097
149,458	-200,000	-0,071	-0,264
150,473	94,088	-0,213	-0,168
151,487	45,164	-0,184	-0,118
152,502	-39,593	-0,244	-0,088
153,516	121,063	-0,233	-0,202
154,531	353,197	-0,167	-0,231
155,546	452,097	-0,149	-0,229
156,560	-55,059	-0,184	-0,057
157,575	86,752	-0,094	-0,072
158,589	128,877	-0,189	-0,168
159,604	52,063	-0,282	-0,187
160,619	304,432	-0,176	-0,228
161,633	213,735	-0,193	-0,213
162,648	621,254	-0,162	-0,285
163,662	478,826	-0,157	-0,247
164,677	265,934	-0,161	-0,196
165,692	155,141	-0,191	-0,183
166,706	655,930	-0,149	-0,266
167,721	33,733	-0,314	-0,189
168,735	457,244	-0,071	-0,110
169,750	211,906	-0,227	-0,249
170,764	633,580	-0,100	-0,176
171,779	-158,424	-0,134	-0,005
172,794	800,000	-0,110	-0,303
173,808	676,673	-0,154	-0,279
174,823	-27,805	-0,228	-0,092
175,837	94,426	-0,230	-0,181
176,852	111,751	-0,183	-0,153
177,867	244,345	-0,211	-0,246
178,881	420,696	-0,111	-0,166
179,896	-66,946	-0,200	-0,054
180,910	87,565	-0,129	-0,099
181,925	-89,988	-0,274	-0,055
182,940	218,461	-0,209	-0,232
183,954	165,231	-0,270	-0,265
184,969	355,898	-0,233	-0,323
185,983	-108,267	-0,231	-0,034
186,998	-127,781	-0,243	-0,024
188,013	-22,018	-0,283	-0,119
189,027	235,054	-0,288	-0,330
190,042	-28,919	-0,285	-0,113
191,056	470,293	-0,180	-0,282
192,071	69,935	-0,232	-0,166
193,086	-15,876	-0,241	-0,106
194,100	41,591	-0,162	-0,102
195,115	-200,000	-0,004	-0,120
196,129	81,917	-0,264	-0,198
197,144	-3,299	-0,206	-0,099
198,159	44,040	-0,330	-0,209
199,173	800,000	-0,092	-0,259
200,188	181,069	-0,156	-0,159
201,202	-54,579	-0,325	-0,101
202,217	113,765	-0,133	-0,112
203,232	57,564	-0,167	-0,113
204,246	185,382	-0,195	-0,201
205,261	87,904	-0,161	-0,124
206,275	61,736	-0,146	-0,100
207,290	-170,135	-0,130	0,003
208,304	800,000	-0,092	-0,215
209,319	5,078	-0,139	-0,071
210,334	29,222	-0,173	-0,102
211,348	800,000	-0,109	-0,221
212,363	-200,000	-0,066	-0,246
213,377	-8,498	-0,117	-0,054
214,392	758,891	-0,116	-0,219
215,407	-73,763	-0,083	0,021
216,421	83,265	-0,192	-0,145
217,436	34,199	-0,280	-0,168
218,450	800,000	-0,107	-0,205
219,465	143,637	-0,222	-0,205
220,480	11,696	-0,171	-0,091
221,494	-60,854	-0,214	-0,062
222,509	-200,000	-0,027	-0,168
223,523	160,037	-0,193	-0,187
224,538	-38,003	-0,179	-0,065
225,553	80,050	-0,259	-0,192
226,567	-200,000	-0,055	-0,192
227,582	-13,700	-0,244	-0,109
228,596	-50,332	-0,179	-0,058
229,611	19,035	-0,062	-0,034
230,626	527,196	-0,094	-0,153
231,640	-200,000	-0,003	-0,299
232,655	90,233	-0,223	-0,173
233,669	800,000	-0,097	-0,235
234,684	135,037	-0,088	-0,079
235,699	-58,562	-0,252	-0,075
236,713	152,869	-0,099	-0,093
237,728	496,934	-0,104	-0,166
238,742	800,000	-0,175	-0,428
239,757	22,126	-0,217	-0,122
240,772	-35,827	-0,306	-0,114
241,786	141,482	-0,148	-0,136
242,801	31,666	-0,141	-0,084
243,815	-110,472	-0,230	-0,033
244,830	-99,346	-0,249	0,043
245,844	-200,000	0,000	0,072
246,859	-111,687	-0,293	-0,040
247,874	343,134	-0,143	-0,194
248,888	33,957	-0,157	-0,094
249,903	687,971	-0,086	-0,156
250,917	800,000	-0,089	-0,230
251,932	13,778	-0,245	-0,131
252,947	-41,256	-0,211	-0,075
253,961	58,900	-0,182	-0,123
254,976	179,655	-0,153	-0,155
255,990	-200,000	-0,043	-0,256
257,005	92,644	-0,202	-0,157
258,020	-200,000	-0,058	-0,200
259,034	2,088	-0,188	-0,093
260,049	28,440	-0,161	-0,094
261,063	50,970	-0,136	-0,088
262,078	125,117	-0,114	-0,099
263,093	378,062	-0,070	-0,099
264,107	-125,467	-0,118	0,012
265,122	-76,103	-0,080	-0,019
266,136	-49,350	-0,208	-0,068
267,151	130,269	-0,150	-0,133
268,166	141,479	-0,135	-0,123
269,180	109,155	-0,086	-0,071
270,195	108,288	-0,133	-0,109
271,209	12,352	-0,134	-0,071
272,224	800,000	-0,063	-0,144
273,239	-3,216	-0,164	-0,078
274,253	-153,676	-0,139	0,006
275,268	300,890	-0,207	-0,263
276,282	161,686	-0,206	-0,198
277,297	78,047	-0,203	-0,149
278,312	-8,585	-0,344	-0,158
279,326	800,000	-0,070	-0,193
280,341	39,151	-0,088	-0,054
281,355	-200,000	-0,014	-0,089
282,370	483,659	-0,102	-0,160
283,384	127,798	-0,172	-0,150
284,399	254,705	-0,144	-0,170
285,414	125,428	-0,185	-0,160
286,428	22,610	-0,158	-0,088
287,443	223,589	-0,093	-0,103
288,457	177,002	-0,174	-0,174
289,472	-4,340	-0,090	-0,042
290,487	-14,058	-0,132	-0,058
291,501	367,236	-0,167	-0,232
292,516	-55,860	-0,206	-0,063
293,530	577,424	-0,049	-0,082
294,545	327,276	-0,090	-0,118
295,560	705,471	-0,137	-0,250
296,574	27,266	-0,148	-0,085
297,589	720,807	-0,095	-0,174
298,603	800,000	-0,121	-0,290
299,618	504,065	-0,129	-0,206
300,633	-31,420	-0,108	-0,042
301,647	-7,355	-0,112	0,052
302,662	800,000	-0,060	-0,122
303,676	-34,927	-0,118	-0,044
304,691	511,287	-0,146	-0,234
305,706	276,355	-0,125	-0,153
306,720	-25,190	-0,172	-0,070
307,735	73,950	-0,123	-0,089
308,749	-111,446	-0,091	-0,013
309,764	384,249	-0,072	0,102
310,779	285,200	-0,159	-0,197
311,793	201,982	-0,050	-0,053
312,808	18,299	-0,278	-0,152
313,822	128,595	-0,155	-0,135
314,837	800,000	-0,106	-0,218
315,852	122,929	-0,067	-0,058
316,866	-200,000	-0,012	-0,086
317,881	189,616	-0,090	-0,092
318,895	84,746	-0,163	-0,122
319,910	162,531	-0,103	-0,099
320,925	145,847	-0,155	-0,143
321,939	116,181	-0,136	-0,114
322,954	-93,651	-0,207	-0,039
323,968	800,000	0,018	-0,038
324,983	-107,494	-0,110	0,016
325,997	-28,486	-0,169	-0,067
327,012	35,907	-0,236	-0,142
328,027	-16,972	-0,201	-0,087
329,041	17,115	-0,085	-0,046
330,056	-200,000	-0,015	-0,048
331,070	333,817	-0,077	-0,102
332,085	-136,463	-0,117	0,009
333,100	212,447	-0,104	-0,112
334,114	-23,237	-0,141	-0,058
335,129	-19,273	-0,120	-0,051
336,143	89,380	-0,097	-0,074
337,158	-73,909	-0,061	-0,015
338,173	283,143	-0,064	0,079
339,187	800,000	-0,117	-0,259
340,202	-42,989	-0,130	-0,045
341,216	50,927	-0,166	-0,108
342,231	84,561	-0,250	-0,187
343,246	265,009	-0,074	-0,088
344,260	800,000	-0,094	-0,220
345,275	-117,269	-0,139	-0,017
346,289	101,401	-0,046	-0,036
347,304	25,518	-0,198	0,113
348,319	800,000	-0,052	-0,130
349,333	-200,000	0,022	-0,222
350,348	65,654	-0,133	-0,092
351,362	183,635	-0,182	-0,184
352,377	-97,556	-0,056	-0,010
353,392	406,561	-0,136	-0,196
354,406	800,000	-0,088	-0,231
355,421	207,172	1306,371	1394,408
356,435	159,364	1466,023	1394,873
