DTS Sentinel unit serial number:	SN410029Multiplexer serial number:	ORYXHardware model number:	OX2-SRSoftware version number:	ORYX F/W v4,00 Oryx Data Collector v3.7.2.0data status	okinstallation	B3 Nyhavnadifferential loss correction	single-endedforward channel	channel 1reverse channel	N/Adate	2023/12/02time	18:52:30forward acquisition time	300,00reverse acquisition time	0,00gamma	499,1914k internal	0,3200k external	0,3200temperature offset calibration	1,0000default loss term (dB/km)	0,3820temperature slope calibration	1,0000multiplexer offset coefficient	1,0000multiplexer slope coefficient	1,0000fibre end	0,00T internal ref (°C)	13,50T ext. ref 1 (°C)	-1,79T ext. ref 2 (°C)	-1,81length (m)	temperature (°C)	Stokes	anti-Stokes-744,400	80,094	-0,171	-0,134
-743,385	-200,000	0,088	0,325
-742,371	-54,830	-0,128	-0,042
-741,356	800,000	0,146	0,335
-740,342	-200,000	-0,058	-0,221
-739,327	800,000	-0,114	0,246
-738,312	188,151	-0,267	-0,291
-737,298	-200,000	0,002	0,241
-736,283	608,298	-0,194	-0,353
-735,269	229,786	0,164	0,196
-734,254	148,901	-0,198	-0,195
-733,239	-87,429	-0,284	0,062
-732,225	46,737	-0,167	-0,113
-731,210	392,677	0,049	0,074
-730,196	123,887	0,136	-0,124
-729,181	800,000	0,060	0,138
-728,167	208,904	0,100	0,115
-727,152	800,000	0,058	-0,146
-726,137	-74,012	-0,174	-0,046
-725,123	36,992	-0,034	0,022
-724,108	-74,362	-0,069	-0,018
-723,094	-43,721	0,079	-0,029
-722,079	-20,308	-0,085	-0,038
-721,064	-200,000	-0,020	0,093
-720,050	-61,672	-0,133	-0,040
-719,035	310,443	0,024	0,033
-718,021	-27,145	-0,067	-0,028
-717,006	233,652	-0,103	-0,124
-715,991	-200,000	-0,004	0,126
-714,977	452,032	-0,108	-0,173
-713,962	-168,295	0,093	0,003
-712,948	-200,000	0,021	0,101
-711,933	151,215	-0,085	-0,084
-710,918	-200,000	-0,009	-0,033
-709,904	182,274	-0,114	0,122
-708,889	-200,000	0,020	-0,118
-707,875	-10,799	-0,153	-0,073
-706,860	569,764	0,082	-0,145
-705,845	26,873	0,009	-0,006
-704,831	800,000	-0,027	0,072
-703,816	597,370	-0,024	0,044
-702,802	114,243	-0,059	-0,052
-701,787	217,531	-0,145	-0,168
-700,772	-200,000	-0,003	-0,017
-699,758	800,000	0,042	-0,100
-698,743	230,405	0,056	0,067
-697,729	-120,295	-0,027	0,003
-696,714	73,608	-0,052	0,040
-695,699	-200,000	-0,016	-0,094
-694,685	-137,861	-0,096	-0,008
-693,670	207,543	-0,070	0,079
-692,656	-200,000	-0,020	-0,070
-691,641	-146,762	0,109	-0,007
-690,627	117,824	0,126	-0,113
-689,612	-200,000	-0,005	0,075
-688,597	104,436	-0,074	0,063
-687,583	-200,000	-0,023	-0,098
-686,568	693,108	-0,035	-0,066
-685,554	-200,000	0,013	-0,106
-684,539	-200,000	-0,024	0,095
-683,524	-200,000	-0,006	0,059
-682,510	-29,568	0,140	-0,058
-681,495	-104,186	-0,079	0,013
-680,481	151,753	0,122	-0,121
-679,466	800,000	-0,048	-0,101
-678,451	-200,000	0,002	0,026
-677,437	52,249	-0,007	-0,005
-676,422	-200,000	0,014	0,113
-675,408	319,290	-0,011	0,015
-674,393	-1,138	-0,165	0,084
-673,378	-200,000	-0,016	-0,143
-672,364	-102,918	-0,025	-0,004
-671,349	-131,217	-0,256	-0,024
-670,335	-38,803	0,092	-0,035
-669,320	-20,158	0,084	-0,037
-668,305	117,075	-0,159	0,142
-667,291	-75,428	-0,021	0,005
-666,276	800,000	-0,022	-0,057
-665,262	-16,642	-0,080	0,037
-664,247	-120,722	-0,152	-0,018
-663,232	-94,209	-0,141	0,028
-662,218	-200,000	-0,008	0,188
-661,203	800,000	0,011	0,035
-660,189	-110,983	0,127	0,019
-659,174	-82,957	-0,079	0,018
-658,159	453,321	-0,063	-0,101
-657,145	59,175	-0,113	-0,080
-656,130	-200,000	0,025	0,123
-655,116	-200,000	0,008	0,150
-654,101	314,952	0,048	-0,066
-653,086	335,038	-0,021	0,030
-652,072	-88,436	-0,035	-0,007
-651,057	98,683	-0,109	-0,091
-650,043	800,000	0,030	-0,081
-649,028	-124,450	-0,077	-0,009
-648,014	-200,000	0,019	-0,083
-646,999	440,456	-0,007	-0,012
-645,984	-200,000	-0,005	-0,063
-644,970	-23,946	0,044	0,019
-643,955	-43,041	0,011	0,004
-642,941	800,000	-0,041	-0,089
-641,926	-98,819	0,025	0,005
-640,911	800,000	-0,027	-0,067
-639,897	182,278	-0,049	0,052
-638,882	54,243	-0,112	0,078
-637,868	310,507	-0,032	0,043
-636,853	800,000	-0,031	0,094
-635,838	309,238	-0,047	-0,064
-634,824	-61,845	0,032	-0,010
-633,809	-200,000	0,003	-0,044
-632,795	426,086	0,049	0,077
-631,780	-56,714	-0,067	-0,021
-630,765	-56,323	-0,052	-0,017
-629,751	-108,797	-0,058	-0,009
-628,736	-200,000	0,015	0,066
-627,722	-192,606	0,033	-0,000
-626,707	-9,621	-0,062	-0,030
-625,692	800,000	0,024	-0,068
-624,678	-14,063	-0,132	-0,061
-623,663	800,000	0,028	0,075
-622,649	-157,943	-0,063	0,003
-621,634	800,000	0,025	-0,069
-620,619	-200,000	-0,011	-0,046
-619,605	-38,410	-0,031	-0,012
-618,590	76,570	0,036	-0,028
-617,576	150,017	0,078	-0,076
-616,561	800,000	0,053	-0,148
-615,546	-52,063	0,021	-0,007
-614,532	386,426	-0,026	0,040
-613,517	-200,000	-0,014	-0,051
-612,503	-63,457	-0,139	-0,041
-611,488	33,905	-0,064	0,040
-610,474	-86,796	-0,034	0,008
-609,459	-200,000	0,022	-0,095
-608,444	-95,475	-0,090	0,017
-607,430	-200,000	0,000	-0,056
-606,415	-200,000	-0,005	-0,041
-605,401	-200,000	-0,003	-0,127
-604,386	-200,000	0,002	-0,017
-603,371	-177,463	0,137	-0,002
-602,357	-37,457	-0,094	0,036
-601,342	-200,000	-0,009	0,078
-600,328	611,459	-0,060	-0,109
-599,313	15,461	-0,064	0,036
-598,298	10,993	0,038	-0,021
-597,284	-57,111	0,075	-0,024
-596,269	-200,000	0,009	-0,069
-595,255	-118,965	0,122	0,015
-594,240	-16,532	-0,101	0,046
-593,225	-27,154	-0,120	-0,050
-592,211	800,000	-0,056	-0,156
-591,196	568,435	-0,008	-0,014
-590,182	184,381	-0,088	0,094
-589,167	-67,085	0,118	0,033
-588,152	-137,793	0,064	0,005
-587,138	-34,869	-0,132	-0,052
-586,123	800,000	0,021	-0,055
-585,109	286,322	0,071	-0,093
-584,094	-200,000	-0,002	0,062
-583,079	-139,865	0,047	-0,004
-582,065	139,039	0,011	0,010
-581,050	114,077	0,077	0,068
-580,036	800,000	-0,020	-0,050
-579,021	4,788	-0,024	-0,013
-578,006	88,267	-0,060	-0,048
-576,992	117,644	0,046	-0,040
-575,977	-200,000	0,008	-0,050
-574,963	209,062	0,062	0,070
-573,948	603,374	-0,049	0,088
-572,934	800,000	-0,037	-0,083
-571,919	-200,000	0,002	0,016
-570,904	-200,000	-0,021	-0,150
-569,890	-28,261	-0,133	-0,055
-568,875	535,231	0,068	0,118
-567,861	165,877	0,065	0,067
-566,846	-200,000	-0,057	0,243
-565,831	154,610	0,061	0,060
-564,817	-79,132	0,039	-0,010
-563,802	493,235	0,045	-0,075
-562,788	56,456	-0,094	-0,066
-561,773	107,468	-0,030	-0,026
-560,758	449,176	0,148	0,236
-559,744	-200,000	-0,003	0,052
-558,729	-200,000	0,022	0,070
-557,715	-111,128	-0,147	0,022
-556,700	-200,000	-0,031	-0,124
-555,685	-200,000	0,027	-0,095
-554,671	-200,000	-0,037	0,164
-553,656	14,535	-0,136	-0,076
-552,642	-131,262	-0,061	0,006
-551,627	13,353	0,032	0,018
-550,612	-200,000	0,000	0,141
-549,598	-200,000	0,008	-0,127
-548,583	-106,561	-0,145	-0,023
-547,569	800,000	-0,042	-0,093
-546,554	1,498	-0,096	-0,049
-545,539	47,107	0,133	0,089
-544,525	-140,487	-0,130	-0,010
-543,510	301,061	0,049	-0,066
-542,496	-105,391	-0,064	-0,010
-541,481	800,000	-0,031	-0,080
-540,466	-32,512	0,059	-0,024
-539,452	800,000	-0,054	-0,110
-538,437	-200,000	-0,020	-0,100
-537,423	113,890	-0,065	0,057
-536,408	496,164	0,069	-0,115
-535,393	-200,000	-0,046	-0,178
-534,379	-78,645	0,049	0,012
-533,364	215,316	0,035	0,040
-532,350	88,230	-0,082	0,066
-531,335	-37,412	0,111	0,043
-530,321	-140,669	0,213	0,016
-529,306	-124,833	-0,049	-0,005
-528,291	800,000	-0,098	-0,220
-527,277	-24,294	0,143	-0,061
-526,262	-200,000	0,013	-0,116
-525,248	800,000	0,042	0,122
-524,233	36,726	0,076	-0,049
-523,218	-81,272	0,041	-0,010
-522,204	137,133	0,050	-0,048
-521,189	58,593	-0,031	-0,022
-520,175	800,000	-0,012	-0,035
-519,160	372,984	0,031	-0,046
-518,145	158,332	0,043	-0,043
-517,131	-17,623	0,081	-0,037
-516,116	-62,942	0,139	-0,041
-515,102	800,000	0,043	0,109
-514,087	-171,987	-0,090	0,002
-513,072	238,818	0,096	-0,115
-512,058	-200,000	-0,010	0,070
-511,043	157,606	-0,103	0,103
-510,029	-200,000	-0,004	0,048
-509,014	557,516	-0,092	0,161
-507,999	61,809	0,057	-0,041
-506,985	-200,000	0,038	-0,136
-505,970	343,843	-0,045	-0,064
-504,956	-157,374	-0,051	-0,002
-503,941	-144,675	-0,119	0,008
-502,926	106,510	0,081	-0,069
-501,912	5,895	-0,052	-0,027
-500,897	-155,585	0,087	0,004
-499,883	339,018	0,068	-0,095
-498,868	800,000	0,028	-0,063
-497,853	-181,551	-0,032	0,000
-496,839	42,998	0,085	-0,055
-495,824	198,926	-0,009	0,010
-494,810	-200,000	-0,014	0,144
-493,795	-23,037	-0,108	0,047
-492,781	-200,000	-0,014	-0,180
-491,766	-157,973	-0,135	-0,006
-490,751	406,658	0,045	0,068
-489,737	-38,430	-0,043	0,016
-488,722	188,586	-0,075	-0,081
-487,708	-123,829	0,101	0,011
-486,693	417,891	0,011	0,017
-485,678	115,849	-0,032	-0,029
-484,664	563,626	0,078	-0,137
-483,649	-200,000	0,031	-0,110
-482,635	367,678	-0,068	0,099
-481,620	-89,009	-0,092	-0,019
-480,605	28,127	0,050	0,030
-479,591	-161,064	0,149	-0,006
-478,576	-65,090	-0,023	-0,007
-477,562	-82,584	0,078	0,018
-476,547	62,245	-0,081	-0,058
-475,532	-200,000	0,016	-0,053
-474,518	-200,000	-0,006	-0,045
-473,503	-146,131	0,054	0,003
-472,489	800,000	0,013	0,038
-471,474	107,512	-0,027	-0,024
-470,459	-90,203	-0,075	-0,015
-469,445	497,719	0,035	-0,059
-468,430	-200,000	-0,001	-0,048
-467,416	-200,000	-0,033	0,168
-466,401	-72,697	0,143	0,038
-465,386	-200,000	0,033	0,123
-464,372	303,090	-0,074	0,098
-463,357	-111,400	-0,057	-0,008
-462,343	128,696	-0,041	-0,037
-461,328	463,546	0,026	0,042
-460,313	-200,000	0,036	-0,138
-459,299	-88,029	0,084	0,018
-458,284	-92,477	-0,036	0,007
-457,270	78,809	-0,047	-0,036
-456,255	-11,498	0,113	-0,053
-455,241	-200,000	0,022	0,134
-454,226	-159,785	0,065	-0,003
-453,211	-200,000	0,032	-0,117
-452,197	800,000	0,025	0,051
-451,182	25,388	-0,132	-0,079
-450,168	99,218	-0,061	-0,051
-449,153	709,336	-0,035	0,067
-448,138	-200,000	-0,020	0,076
-447,124	255,088	-0,032	0,040
-446,109	-23,781	0,074	-0,032
-445,095	-102,460	0,158	-0,027
-444,080	-191,740	0,151	0,001
-443,065	753,843	0,025	0,049
-442,051	-200,000	0,008	-0,163
-441,036	-67,501	0,166	0,046
-440,022	-62,581	0,116	0,034
-439,007	-89,738	0,142	-0,030
-437,992	-20,233	0,046	-0,020
-436,978	420,642	-0,048	0,074
-435,963	-111,431	0,029	-0,004
-434,949	-200,000	-0,034	0,140
-433,934	-107,958	-0,159	-0,025
-432,919	-27,904	-0,071	-0,029
-431,905	247,450	0,047	0,058
-430,890	-152,786	0,185	0,009
-429,876	800,000	0,040	-0,082
-428,861	-200,000	-0,013	0,087
-427,846	-200,000	-0,005	0,034
-426,832	30,609	-0,052	-0,032
-425,817	31,915	-0,068	-0,042
-424,803	800,000	0,054	0,151
-423,788	-71,181	0,075	-0,020
-422,773	119,987	-0,030	-0,027
-421,759	-200,000	-0,032	0,106
-420,744	680,509	0,075	-0,141
-419,730	37,402	-0,108	0,069
-418,715	143,801	-0,019	-0,019
-417,701	184,754	0,072	0,077
-416,686	86,733	0,022	-0,017
-415,671	-200,000	0,012	0,082
-414,657	200,050	0,056	0,062
-413,642	65,512	0,075	0,054
-412,628	800,000	0,036	0,110
-411,613	-37,649	-0,133	0,051
-410,598	-84,013	0,031	-0,007
-409,584	800,000	-0,011	-0,029
-408,569	-50,102	0,056	0,019
-407,555	-85,053	0,078	0,017
-406,540	257,158	0,034	0,041
-405,525	-57,569	0,179	-0,056
-404,511	350,537	-0,044	0,063
-403,496	-200,000	-0,055	0,186
-402,482	-84,230	-0,166	-0,037
-401,467	-126,778	0,304	-0,032
-400,452	-42,961	-0,090	-0,033
-399,438	-17,969	0,103	0,046
-398,423	-111,304	-0,039	0,006
-397,409	-200,000	-0,031	0,115
-396,394	107,254	0,069	0,059
-395,379	226,565	-0,065	-0,076
-394,365	-200,000	0,028	0,141
-393,350	-200,000	0,009	0,047
-392,336	-200,000	0,004	0,030
-391,321	119,800	-0,036	0,032
-390,306	-200,000	0,008	0,051
-389,292	-200,000	-0,012	-0,110
-388,277	-130,423	-0,091	-0,009
-387,263	-133,944	0,148	0,013
-386,248	-111,992	-0,034	0,005
-385,233	-200,000	0,021	0,109
-384,219	100,613	-0,060	0,050
-383,204	800,000	0,045	0,104
-382,190	177,927	0,045	-0,047
-381,175	209,354	0,019	0,021
-380,160	-200,000	0,011	0,038
-379,146	399,890	0,050	0,075
-378,131	-200,000	-0,027	0,150
-377,117	800,000	-0,013	-0,038
-376,102	-200,000	0,004	-0,083
-375,088	-118,124	0,064	-0,008
-374,073	135,321	-0,088	-0,082
-373,058	-75,446	0,101	0,026
-372,044	13,010	0,112	0,062
-371,029	800,000	0,052	0,126
-370,015	-200,000	0,017	-0,159
-369,000	-14,069	-0,149	-0,069
-367,985	416,764	0,045	-0,069
-366,971	153,152	0,077	-0,076
-365,956	-65,804	-0,067	-0,019
-364,942	-200,000	0,041	0,185
-363,927	23,068	-0,052	0,030
-362,912	20,209	0,155	0,089
-361,898	-200,000	-0,011	-0,036
-360,883	-66,067	-0,089	0,025
-359,869	279,279	-0,062	-0,079
-358,854	800,000	0,023	-0,046
-357,839	72,530	0,101	0,076
-356,825	-200,000	-0,018	0,124
-355,810	-189,087	0,052	0,000
-354,796	209,012	-0,037	-0,042
-353,781	55,305	0,009	0,006
-352,766	53,731	-0,108	-0,074
-351,752	165,422	0,084	-0,085
-350,737	-109,187	0,103	-0,015
-349,723	52,361	0,059	-0,040
-348,708	-129,156	0,042	0,004
-347,693	403,669	-0,014	0,021
-346,679	86,658	-0,076	-0,060
-345,664	-93,504	-0,095	-0,019
-344,650	219,971	0,106	-0,122
-343,635	-77,061	-0,088	0,022
-342,620	129,205	0,062	-0,057
-341,606	-200,000	-0,027	-0,094
-340,591	-51,736	-0,128	-0,042
-339,577	-155,513	0,136	-0,006
-338,562	27,656	0,017	-0,010
-337,548	334,777	0,071	-0,098
-336,533	-115,175	0,080	-0,011
-335,518	408,567	0,026	0,039
-334,504	-200,000	-0,013	0,061
-333,489	-200,000	-0,015	-0,063
-332,475	-182,312	-0,105	0,001
-331,460	-200,000	0,030	-0,238
-330,445	-56,899	0,141	0,044
-329,431	-200,000	-0,015	0,060
-328,416	26,182	0,061	0,036
-327,402	800,000	-0,025	0,066
-326,387	-53,815	-0,101	0,033
-325,372	-200,000	0,010	-0,086
-324,358	6,025	0,111	0,059
-323,343	-136,667	-0,082	0,007
-322,329	48,265	-0,018	-0,012
-321,314	-200,000	0,026	0,094
-320,299	778,505	-0,070	0,138
-319,285	-89,338	0,102	-0,021
-318,270	-200,000	-0,004	-0,135
-317,256	-200,000	0,028	-0,091
-316,241	-136,026	-0,114	-0,009
-315,226	36,420	0,110	-0,069
-314,212	-164,324	0,115	-0,004
-313,197	147,457	-0,008	0,007
-312,183	800,000	0,011	0,024
-311,168	-139,377	-0,116	-0,009
-310,153	-144,871	-0,163	-0,011
-309,139	-200,000	-0,007	0,074
-308,124	500,727	0,061	0,101
-307,110	51,439	-0,006	-0,004
-306,095	403,462	0,117	0,176
-305,080	153,878	0,020	0,019
-304,066	7,269	-0,145	-0,077
-303,051	-145,570	-0,094	-0,006
-302,037	-25,487	-0,110	-0,046
-301,022	-200,000	-0,025	0,094
-300,008	264,781	0,079	-0,098
-298,993	166,980	0,031	-0,032
-297,978	2,309	-0,049	-0,025
-296,964	-200,000	0,008	0,067
-295,949	2,709	-0,090	-0,047
-294,935	-89,752	-0,096	-0,020
-293,920	800,000	-0,046	-0,114
-292,905	-98,006	0,108	-0,020
-291,891	5,325	0,045	-0,023
-290,876	-200,000	-0,007	0,043
-289,862	-184,222	0,062	0,001
-288,847	214,610	-0,101	-0,115
-287,832	-200,000	0,016	-0,119
-286,818	544,819	-0,053	-0,090
-285,803	33,034	0,073	-0,045
-284,789	-200,000	-0,004	0,031
-283,774	800,000	-0,027	-0,079
-282,759	-200,000	0,009	0,043
-281,745	-73,280	-0,163	0,042
-280,730	-175,669	-0,166	-0,003
-279,716	281,769	0,121	0,156
-278,701	104,289	0,086	0,073
-277,686	-121,448	0,152	0,018
-276,672	72,816	-0,049	-0,036
-275,657	-200,000	-0,002	0,179
-274,643	-134,596	-0,129	-0,011
-273,628	567,644	-0,081	-0,140
-272,613	800,000	-0,038	0,092
-271,599	397,160	-0,019	-0,029
-270,584	800,000	0,010	-0,031
-269,570	-47,892	0,118	-0,041
-268,555	23,980	-0,062	-0,037
-267,540	-29,734	-0,026	-0,010
-266,526	-112,849	-0,113	-0,016
-265,511	-43,853	-0,039	0,014
-264,497	182,789	0,093	0,099
-263,482	800,000	0,025	0,068
-262,467	-95,392	-0,078	0,015
-261,453	-76,210	-0,073	-0,018
-260,438	379,580	-0,075	-0,110
-259,424	-172,559	-0,052	0,001
-258,409	-124,227	-0,041	-0,005
-257,395	-73,582	-0,081	0,021
-256,380	-200,000	-0,005	0,139
-255,365	110,264	-0,066	0,057
-254,351	-41,485	-0,016	0,006
-253,336	28,134	-0,054	0,033
-252,322	-200,000	-0,013	0,078
-251,307	32,314	0,085	-0,052
-250,292	94,878	-0,085	0,069
-249,278	-134,367	0,046	0,004
-248,263	63,933	0,071	0,051
-247,249	194,219	-0,079	-0,086
-246,234	42,113	-0,018	0,012
-245,219	52,712	-0,081	0,055
-244,205	800,000	0,027	-0,081
-243,190	-79,895	0,069	0,016
-242,176	40,557	0,056	-0,036
-241,161	800,000	0,057	0,137
-240,146	-1,344	0,069	-0,035
-239,132	7,196	-0,214	-0,114
-238,117	20,983	-0,077	-0,044
-237,103	34,747	-0,087	0,054
-236,088	-200,000	0,010	-0,061
-235,073	-1,234	0,140	0,070
-234,059	-30,492	-0,025	0,010
-233,044	-4,115	0,065	0,032
-232,030	-30,759	-0,123	-0,049
-231,015	-106,985	-0,108	0,017
-230,000	-33,798	0,076	0,030
-228,986	-153,634	-0,070	-0,003
-227,971	800,000	0,068	0,163
-226,957	-116,244	-0,058	0,008
-225,942	-200,000	-0,020	0,110
-224,927	206,471	-0,120	0,133
-223,913	-200,000	-0,013	-0,089
-222,898	-127,460	-0,121	-0,012
-221,884	-200,000	-0,009	-0,076
-220,869	355,859	-0,017	-0,024
-219,855	228,186	-0,121	0,141
-218,840	-115,678	0,113	-0,015
-217,825	-200,000	-0,016	0,063
-216,811	705,787	0,030	0,056
-215,796	419,232	-0,067	0,102
-214,782	-38,526	0,069	-0,026
-213,767	-200,000	-0,037	0,155
-212,752	-89,018	-0,158	0,033
-211,738	-145,046	0,090	-0,006
-210,723	-110,047	0,169	0,025
-209,709	57,929	-0,069	0,048
-208,694	129,500	-0,042	-0,039
-207,679	-200,000	-0,004	-0,030
-206,665	460,948	0,002	0,004
-205,650	-7,572	0,086	0,041
-204,636	-134,337	0,047	0,004
-203,621	12,716	0,133	0,073
-202,606	800,000	-0,062	-0,180
-201,592	800,000	-0,088	-0,237
-200,577	-200,000	-0,034	-0,130
-199,563	-156,529	-0,062	0,003
-198,548	-40,445	-0,139	0,051
-197,533	66,367	0,079	-0,057
-196,519	-200,000	0,005	0,083
-195,504	570,151	0,040	0,069
-194,490	-88,890	-0,057	0,012
-193,475	800,000	0,038	-0,103
-192,460	-69,148	0,111	-0,030
-191,446	137,771	-0,033	-0,031
-190,431	-200,000	-0,000	0,176
-189,417	-30,382	0,159	0,064
-188,402	-43,082	0,065	0,023
-187,387	-200,000	-0,051	-0,191
-186,373	800,000	-0,031	-0,079
-185,358	800,000	-0,124	0,262
-184,344	-200,000	0,039	-0,158
-183,329	-126,817	0,124	0,013
-182,315	-32,363	0,085	-0,033
-181,300	142,385	0,042	0,040
-180,285	-171,198	0,066	-0,002
-179,271	-200,000	0,000	0,002
-178,256	800,000	-0,018	0,049
-177,242	-25,176	0,217	0,091
-176,227	-200,000	0,001	0,135
-175,212	197,805	0,079	0,086
-174,198	12,275	0,066	0,036
-173,183	34,194	-0,139	-0,086
-172,169	73,951	-0,076	-0,057
-171,154	150,396	-0,092	-0,089
-170,139	800,000	0,038	0,093
-169,125	77,013	-0,056	-0,042
-168,110	-200,000	0,016	0,055
-167,096	17,614	-0,075	0,042
-166,081	-200,000	-0,028	-0,121
-165,066	-76,573	-0,019	-0,005
-164,052	-200,000	-0,000	-0,040
-163,037	54,903	0,030	0,021
-162,023	-200,000	0,018	0,135
-161,008	-91,440	0,141	-0,028
-159,993	146,180	0,052	0,050
-158,979	-90,542	0,073	0,015
-157,964	664,789	-0,056	0,104
-156,950	-200,000	-0,002	0,031
-155,935	-45,186	-0,059	0,021
-154,920	178,989	0,054	0,057
-153,906	26,246	0,090	0,054
-152,891	-116,064	-0,135	0,018
-151,877	-146,866	-0,085	-0,005
-150,862	-200,000	0,002	-0,076
-149,847	44,124	-0,048	-0,031
-148,833	130,229	-0,025	-0,023
-147,818	-200,000	0,023	0,243
-146,804	800,000	0,043	0,097
-145,789	-200,000	0,017	-0,096
-144,775	-200,000	0,018	0,178
-143,760	800,000	-0,006	-0,016
-142,745	800,000	0,022	-0,045
-141,731	-200,000	-0,006	0,026
-140,716	-200,000	0,017	0,121
-139,702	116,817	0,090	0,079
-138,687	5,220	0,128	0,067
-137,672	170,656	-0,105	0,107
-136,658	-80,542	-0,128	0,030
-135,643	-127,219	0,030	0,003
-134,629	-80,202	0,092	-0,022
-133,614	-56,567	-0,029	0,009
-132,599	115,966	0,081	0,070
-131,585	-58,758	-0,035	0,011
-130,570	-67,906	-0,068	0,019
-129,556	-132,488	0,071	0,006
-128,541	-19,352	-0,095	-0,042
-127,526	75,289	-0,129	-0,097
-126,512	-200,000	-0,019	-0,103
-125,497	100,533	-0,066	0,055
-124,483	-152,462	-0,067	-0,003
-123,468	23,351	-0,133	-0,077
-122,453	217,863	0,087	-0,099
-121,439	1,908	-0,158	-0,081
-120,424	-200,000	-0,004	-0,189
-119,410	110,224	0,086	0,074
-118,395	-21,829	0,016	-0,007
-117,380	-6,519	0,010	0,005
-116,366	-14,046	-0,080	-0,037
-115,351	800,000	-0,033	0,068
-114,337	-100,788	-0,049	-0,008
-113,322	295,049	0,088	-0,115
-112,307	-200,000	-0,000	-0,012
-111,293	800,000	0,041	0,097
-110,278	678,719	0,036	0,066
-109,264	-157,683	-0,014	-0,001
-108,249	-72,146	-0,130	0,034
-107,234	-74,660	-0,118	-0,030
-106,220	800,000	-0,054	0,125
-105,205	11,319	0,080	-0,043
-104,191	-200,000	0,006	0,102
-103,176	110,514	0,092	0,079
-102,162	22,647	-0,121	-0,070
-101,147	198,193	-0,036	0,040
-100,132	-200,000	-0,021	-0,193
-99,118	-72,351	0,073	0,019
-98,103	-200,000	0,007	0,030
-97,089	270,832	0,048	0,060
-96,074	-78,028	-0,081	0,020
-95,059	-134,366	0,102	-0,009
-94,045	98,085	-0,050	0,041
-93,030	-200,000	-0,040	-0,174
-92,016	-133,495	0,080	0,007
-91,001	-18,602	-0,082	0,036
-89,986	-200,000	-0,019	0,123
-88,972	-200,000	0,022	-0,121
-87,957	-200,000	0,015	0,068
-86,943	66,261	-0,100	0,072
-85,928	800,000	-0,030	-0,063
-84,913	91,810	-0,124	-0,099
-83,899	-78,401	0,134	0,032
-82,884	447,737	0,012	-0,019
-81,870	-105,682	-0,031	-0,005
-80,855	62,606	-0,053	-0,037
-79,840	-49,066	-0,102	-0,035
-78,826	-53,269	0,116	-0,038
-77,811	51,830	-0,041	0,028
-76,797	-23,200	-0,114	0,048
-75,782	110,448	-0,027	0,023
-74,767	183,124	0,090	0,095
-73,753	139,650	0,046	0,043
-72,738	25,048	0,068	-0,040
-71,724	173,522	0,062	0,064
-70,709	-200,000	0,009	-0,045
-69,694	-97,623	-0,106	-0,019
-68,680	-200,000	0,023	-0,076
-67,665	-59,250	0,127	0,039
-66,651	-200,000	-0,001	0,073
-65,636	-8,786	0,052	0,025
-64,622	593,684	-0,042	-0,075
-63,607	106,713	-0,021	-0,017
-62,592	87,031	0,063	-0,049
-61,578	-200,000	-0,002	0,032
-60,563	-95,010	0,139	-0,026
-59,549	-200,000	0,002	0,129
-58,534	-25,305	-1,650	-0,689
-57,519	315,973	-1,423	-1,907
-56,505	-200,000	-0,510	-4,556
-55,490	294,685	0,890	1,156
-54,476	800,000	5,023	11,460
-53,461	-200,000	19,080	318,767
-52,446	-200,000	739,807	2335,350
-51,432	575,265	1655,098	2873,332
-50,417	78,681	1670,987	1264,311
-49,403	21,477	1543,949	886,870
-48,388	15,364	1466,252	812,507
-47,373	17,977	1456,431	819,664
-46,359	16,733	1446,349	807,991
-45,344	13,608	1441,876	790,481
-44,330	13,517	1439,977	788,976
-43,315	13,578	1437,975	788,140
-42,300	13,560	1436,423	787,169
-41,286	13,608	1435,201	786,700
-40,271	13,538	1433,889	785,615
-39,257	13,514	1432,917	784,936
-38,242	13,594	1431,151	784,319
-37,227	13,588	1430,002	783,631
-36,213	13,644	1428,763	783,185
-35,198	13,626	1427,483	782,367
-34,184	13,629	1426,791	781,970
-33,169	13,509	1425,459	780,639
-32,154	13,646	1424,145	780,539
-31,140	13,651	1422,802	779,795
-30,125	13,599	1421,985	779,072
-29,111	13,639	1420,569	778,453
-28,096	13,602	1419,752	777,801
-27,082	13,524	1418,595	776,769
-26,067	13,504	1417,560	776,074
-25,052	13,520	1416,323	775,443
-24,038	13,525	1415,255	774,851
-23,023	13,513	1414,417	774,307
-22,009	13,510	1413,399	773,702
-20,994	13,483	1412,528	773,069
-19,979	13,499	1411,605	772,609
-18,965	13,473	1410,759	771,991
-17,950	13,442	1409,848	771,319
-16,936	13,508	1408,704	770,972
-15,921	13,439	1407,628	770,030
-14,906	13,428	1406,910	769,551
-13,892	13,431	1405,877	768,971
-12,877	13,460	1404,931	768,560
-11,863	13,436	1403,976	767,896
-10,848	13,418	1403,323	767,422
-9,833	13,397	1402,403	766,792
-8,819	13,386	1401,392	766,154
-7,804	13,380	1400,561	765,645
-6,790	13,377	1399,403	764,968
-5,775	13,362	1398,420	764,327
-4,760	13,351	1397,464	763,724
-3,746	13,306	1396,718	763,077
-2,731	13,299	1396,098	762,677
-1,717	13,284	1394,934	761,941
-0,702	13,327	1393,232	761,181
0,313	17,167	1310,371	733,709
1,327	33,397	704,408	431,970
2,342	51,408	123,447	82,854
3,356	4,092	16,573	8,555
4,371	4,485	3,259	1,686
5,386	-15,253	0,617	0,278
6,400	254,433	0,188	0,227
7,415	11,785	-0,175	-0,095
8,429	190,091	-0,158	-0,168
9,444	137,047	-0,314	-0,291
10,459	179,147	-0,238	-0,246
11,473	75,567	-0,271	-0,202
12,488	-22,406	-0,414	-0,177
13,502	-91,025	-0,359	-0,072
14,517	34,651	-0,331	-0,204
15,531	235,893	-0,252	-0,295
16,546	46,263	-0,404	-0,264
17,561	285,329	-0,343	-0,438
18,575	-25,411	-0,246	-0,102
19,590	-33,035	-0,359	-0,140
20,604	129,591	-0,168	-0,152
21,619	117,787	-0,402	-0,350
22,634	199,115	-0,442	-0,479
23,648	30,423	-0,511	-0,308
24,663	123,624	-0,306	-0,271
25,677	9,658	-0,418	-0,223
26,692	14,638	-0,305	-0,168
27,707	79,424	-0,272	-0,206
28,721	411,296	-0,184	-0,277
29,736	56,405	-0,300	-0,206
30,750	22,800	-0,440	-0,254
31,765	336,602	-0,309	-0,425
32,780	37,740	-0,391	-0,245
33,794	117,793	-0,406	-0,353
34,809	6,970	-0,397	-0,208
35,823	60,124	-0,325	-0,226
36,838	56,227	-0,304	-0,208
37,853	147,045	-0,378	-0,359
38,867	202,990	-0,390	-0,426
39,882	236,137	-0,217	-0,254
40,896	205,548	-0,359	-0,394
41,911	104,783	-0,304	-0,252
42,926	127,934	-0,278	-0,250
43,940	231,630	-0,329	-0,380
44,955	19,938	-0,328	-0,186
45,969	40,041	-0,398	-0,252
46,984	61,634	-0,393	-0,275
47,999	-4,383	-0,263	-0,128
49,013	106,933	-0,296	-0,248
50,028	-96,040	-0,404	-0,075
51,042	45,170	-0,272	-0,176
52,057	204,600	-0,284	-0,311
53,071	27,649	-0,349	-0,207
54,086	139,731	-0,327	-0,304
55,101	300,458	-0,221	-0,288
56,115	70,865	-0,225	-0,164
57,130	127,678	-0,226	-0,203
58,144	10,516	-0,440	-0,235
59,159	130,777	-0,397	-0,359
60,174	55,537	-0,321	-0,218
61,188	21,208	-0,350	-0,200
62,203	-2,146	-0,260	-0,128
63,217	-98,003	-0,383	-0,069
64,232	-23,704	-0,359	-0,151
65,247	0,791	-0,349	-0,175
66,261	800,000	-0,201	-0,392
67,276	-1,905	-0,420	-0,207
68,290	88,773	-0,375	-0,293
69,305	127,789	-0,218	-0,195
70,320	49,693	-0,261	-0,173
71,334	-11,611	-0,433	-0,200
72,349	5,813	-0,255	-0,132
73,363	-64,106	-0,375	-0,107
74,378	166,043	-0,284	-0,283
75,393	41,549	-0,192	-0,122
76,407	-21,983	-0,312	-0,133
77,422	25,955	-0,272	-0,159
78,436	90,342	-0,305	-0,240
79,451	-31,227	-0,429	-0,169
80,466	16,642	-0,382	-0,212
81,480	200,020	-0,327	-0,353
82,495	800,000	-0,179	-0,364
83,509	182,382	-0,126	-0,130
84,524	48,064	-0,253	-0,166
85,539	-54,125	-0,271	-0,086
86,553	42,349	-0,274	-0,175
87,568	-149,168	-0,350	-0,019
88,582	69,876	-0,228	-0,165
89,597	267,593	-0,253	-0,312
90,611	8,991	-0,318	-0,168
91,626	76,261	-0,237	-0,176
92,641	232,338	-0,187	-0,216
93,655	191,294	-0,186	-0,197
94,670	114,664	-0,328	-0,281
95,684	80,286	-0,300	-0,226
96,699	-2,362	-0,271	-0,133
97,714	-186,398	-0,268	-0,003
98,728	87,539	-0,225	-0,175
99,743	67,069	-0,275	-0,196
100,757	44,291	-0,233	-0,150
101,772	51,601	-0,344	-0,229
102,787	49,808	-0,341	-0,225
103,801	-49,979	-0,317	-0,105
104,816	87,316	-0,199	-0,154
105,830	-19,192	-0,204	-0,088
106,845	-15,196	-0,284	-0,127
107,860	134,461	-0,298	-0,271
108,874	108,288	-0,181	-0,151
109,889	186,411	-0,301	-0,314
110,903	78,900	-0,306	-0,229
111,918	-200,000	-0,029	-0,234
112,933	106,419	-0,137	-0,114
113,947	423,432	-0,120	-0,181
114,962	-57,504	-0,170	-0,052
115,976	595,251	-0,190	-0,331
116,991	104,980	-0,257	-0,213
118,006	-51,772	-0,459	-0,149
119,020	-200,000	-0,058	-0,269
120,035	-10,413	-0,256	-0,119
121,049	-51,564	-0,228	-0,074
122,064	-35,066	-0,337	-0,128
123,079	129,736	-0,233	-0,209
124,093	104,656	-0,212	-0,175
125,108	106,342	-0,235	-0,195
126,122	18,750	-0,232	-0,130
127,137	-51,166	-0,292	-0,095
128,151	36,206	-0,156	-0,096
129,166	-13,042	-0,279	-0,127
130,181	-54,824	-0,254	-0,080
131,195	215,948	-0,251	-0,280
132,210	411,287	-0,186	-0,277
133,224	206,554	-0,349	-0,381
134,239	125,674	-0,149	-0,132
135,254	-7,688	-0,233	-0,110
136,268	77,270	-0,210	-0,156
137,283	-31,867	-0,203	-0,079
138,297	-17,978	-0,332	-0,145
139,312	-115,287	-0,265	-0,035
140,327	24,855	-0,353	-0,204
141,341	146,902	-0,115	-0,108
142,356	152,144	-0,287	-0,274
143,370	-17,604	-0,365	-0,160
144,385	120,679	-0,243	-0,211
145,400	-42,530	-0,307	-0,109
146,414	190,796	-0,251	-0,264
147,429	107,408	-0,196	-0,163
148,443	-62,431	-0,201	-0,058
149,458	-37,277	-0,152	-0,056
150,473	391,546	-0,158	-0,229
151,487	179,032	-0,221	-0,226
152,502	-5,883	-0,292	-0,139
153,516	258,520	-0,193	-0,233
154,531	152,331	-0,272	-0,259
155,546	207,593	-0,148	-0,162
156,560	-59,323	-0,173	-0,052
157,575	-88,172	-0,155	-0,032
158,589	101,441	-0,261	-0,213
159,604	-40,159	-0,279	-0,101
160,619	65,364	-0,341	-0,241
161,633	99,751	-0,285	-0,230
162,648	209,386	-0,131	-0,144
163,662	26,705	-0,224	-0,131
164,677	150,575	-0,206	-0,196
165,692	54,860	-0,199	-0,133
166,706	386,676	-0,143	-0,207
167,721	-84,983	-0,274	-0,059
168,735	-75,574	-0,356	-0,088
169,750	267,351	-0,194	-0,237
170,764	45,805	-0,215	-0,138
171,779	144,711	-0,151	-0,140
172,794	-200,000	-0,069	-0,216
173,808	202,528	-0,185	-0,200
174,823	95,923	-0,315	-0,251
175,837	591,865	-0,207	-0,358
176,852	151,808	-0,253	-0,241
177,867	800,000	-0,111	-0,323
178,881	91,123	-0,192	-0,150
179,896	482,812	-0,125	-0,199
180,910	-26,017	-0,249	-0,101
181,925	-60,908	-0,274	-0,080
182,940	158,283	-0,229	-0,221
183,954	-61,710	-0,213	-0,062
184,969	154,112	-0,107	-0,102
185,983	206,593	-0,148	-0,160
186,998	-32,746	-0,258	-0,099
188,013	-7,943	-0,225	-0,106
189,027	35,270	-0,221	-0,135
190,042	162,138	-0,218	-0,212
191,056	111,302	-0,272	-0,228
192,071	-108,811	-0,262	-0,039
193,086	800,000	-0,081	-0,213
194,100	800,000	-0,144	-0,286
195,115	237,303	-0,235	-0,272
196,129	451,100	-0,097	-0,150
197,144	152,839	-0,228	-0,217
198,159	171,478	-0,177	-0,177
199,173	-8,290	-0,249	-0,116
200,188	-93,150	-0,145	0,028
201,202	14,981	-0,260	-0,141
202,217	62,378	-0,223	-0,155
203,232	-29,837	-0,300	-0,119
204,246	-13,932	-0,230	-0,103
205,261	201,140	-0,242	-0,260
206,275	25,708	-0,177	-0,102
207,290	800,000	-0,081	-0,186
208,304	800,000	-0,068	-0,170
209,319	44,340	-0,203	-0,129
210,334	41,403	-0,301	-0,189
211,348	335,840	-0,200	-0,271
212,363	364,298	-0,158	-0,221
213,377	106,668	-0,147	-0,121
214,392	642,021	-0,149	-0,265
215,407	26,464	-0,185	-0,107
216,421	454,915	-0,160	-0,247
217,436	37,905	-0,249	-0,153
218,450	385,819	-0,117	-0,167
219,465	71,022	-0,203	-0,146
220,480	105,283	-0,187	-0,153
221,494	154,183	-0,141	-0,135
222,509	-8,207	-0,204	-0,095
223,523	-147,559	-0,185	0,011
224,538	-109,043	-0,223	-0,033
225,553	117,737	-0,252	-0,215
226,567	688,379	-0,107	-0,194
227,582	315,924	-0,128	-0,167
228,596	178,223	-0,156	-0,158
229,611	170,449	-0,162	-0,161
230,626	0,198	-0,296	-0,146
231,640	93,927	-0,158	-0,124
232,655	765,200	-0,108	-0,204
233,669	-21,457	-0,236	-0,099
234,684	-81,357	-0,241	-0,055
235,699	216,599	-0,141	-0,156
236,713	325,068	-0,114	-0,152
237,728	224,227	-0,129	-0,145
238,742	150,503	-0,158	-0,149
239,757	-91,258	-0,297	-0,058
240,772	93,006	-0,186	-0,146
241,786	-200,000	-0,014	-0,156
242,801	59,771	-0,172	-0,118
243,815	-45,377	-0,088	-0,030
244,830	-94,750	-0,065	0,012
245,844	682,791	-0,091	-0,165
246,859	-93,502	-0,119	-0,023
247,874	-14,278	-0,280	-0,125
248,888	800,000	-0,107	-0,212
249,903	403,628	-0,152	-0,223
250,917	202,241	-0,043	0,046
251,932	-125,356	-0,090	-0,009
252,947	-60,116	-0,205	0,060
253,961	89,156	-0,247	-0,190
254,976	177,678	-0,232	-0,235
255,990	42,242	-0,215	-0,135
257,005	4,652	-0,138	-0,070
258,020	-137,335	-0,225	-0,017
259,034	-56,003	-0,304	-0,093
260,049	-54,922	-0,130	-0,040
261,063	269,336	-0,159	-0,194
262,078	448,845	-0,066	-0,101
263,093	-115,143	-0,087	-0,011
264,107	-155,793	-0,283	0,012
265,122	119,149	-0,083	-0,071
266,136	-194,823	-0,262	0,001
267,151	-131,643	-0,138	0,012
268,166	-78,410	-0,171	-0,040
269,180	19,196	-0,173	-0,096
270,195	-70,162	-0,250	-0,065
271,209	45,608	-0,211	-0,134
272,224	157,376	-0,183	-0,175
273,239	800,000	-0,059	-0,118
274,253	308,409	-0,135	-0,175
275,268	-36,283	-0,112	-0,041
276,282	26,630	-0,242	-0,140
277,297	85,050	-0,214	-0,162
278,312	800,000	-0,064	-0,173
279,326	720,120	-0,036	-0,066
280,341	185,557	-0,219	-0,225
281,355	92,868	-0,074	-0,058
282,370	-0,602	-0,196	-0,096
283,384	-67,159	-0,202	-0,055
284,399	-50,762	-0,400	-0,129
285,414	48,857	-0,113	-0,073
286,428	-15,391	-0,219	-0,096
287,443	29,898	-0,176	0,103
288,457	159,007	-0,150	-0,144
289,472	-27,787	-0,129	-0,051
290,487	75,317	-0,145	-0,105
291,501	71,689	-0,121	-0,087
292,516	350,872	-0,087	-0,120
293,530	87,068	-0,020	0,015
294,545	-101,546	-0,148	-0,025
295,560	-109,473	-0,156	0,023
296,574	259,875	-0,136	-0,163
297,589	-133,386	-0,244	-0,021
298,603	-123,993	-0,261	0,028
299,618	-69,955	-0,177	-0,046
300,633	-32,484	-0,046	-0,017
301,647	8,206	-0,080	-0,041
302,662	33,620	-0,141	-0,084
303,676	-200,000	-0,065	-0,218
304,691	-140,846	-0,152	-0,011
305,706	99,868	-0,203	-0,162
306,720	-74,156	-0,049	0,012
307,735	-200,000	-0,048	-0,151
308,749	-200,000	-0,019	-0,084
309,764	-46,743	-0,161	-0,054
310,779	-69,886	-0,104	0,027
311,793	14,944	-0,207	-0,111
312,808	-157,489	-0,206	-0,008
313,822	-42,102	-0,126	-0,044
314,837	103,092	-0,101	-0,081
315,852	-200,000	0,020	-0,067
316,866	-90,797	-0,084	-0,017
317,881	374,697	-0,076	-0,106
318,895	5,796	-0,172	-0,087
319,910	257,267	-0,118	-0,140
320,925	-200,000	-0,053	-0,274
321,939	685,244	-0,092	-0,166
322,954	44,084	-0,032	-0,020
323,968	103,138	-0,085	-0,069
324,983	37,988	-0,129	-0,079
325,997	-72,577	-0,224	-0,056
327,012	295,970	-0,081	-0,102
328,027	541,926	-0,058	-0,095
329,041	133,523	-0,160	-0,142
330,056	495,087	-0,132	-0,209
331,070	124,363	-0,100	0,086
332,085	160,416	-0,194	-0,186
333,100	-148,240	-0,194	-0,011
334,114	177,396	-0,148	-0,148
335,129	75,904	-0,150	-0,109
336,143	268,624	-0,213	-0,257
337,158	-200,000	-0,005	-0,089
338,173	290,860	-0,082	-0,102
339,187	450,519	-0,027	-0,041
340,202	-58,134	-0,045	-0,013
341,216	126,503	-0,170	-0,148
342,231	-17,262	-0,169	-0,073
343,246	800,000	-0,080	-0,205
344,260	-29,669	-0,205	-0,080
345,275	580,699	-0,015	-0,026
346,289	-97,291	-0,139	-0,025
347,304	-87,785	-0,178	0,036
348,319	118,915	-0,167	-0,142
349,333	199,199	-0,150	-0,158
350,348	-153,272	-0,135	0,006
351,362	119,881	-0,142	-0,120
352,377	800,000	-0,035	-0,096
353,392	578,047	-0,141	-0,237
354,406	60,503	-0,112	-0,076
355,421	209,070	1312,856	1412,403
356,435	160,893	1473,361	1412,900
