DTS Sentinel unit serial number:	SN410029Multiplexer serial number:	ORYXHardware model number:	OX2-SRSoftware version number:	ORYX F/W v4,00 Oryx Data Collector v3.7.2.0data status	okinstallation	B3 Nyhavnadifferential loss correction	single-endedforward channel	channel 1reverse channel	N/Adate	2023/12/05time	05:17:30forward acquisition time	300,00reverse acquisition time	0,00gamma	499,1914k internal	0,3201k external	0,3201temperature offset calibration	1,0000default loss term (dB/km)	0,3820temperature slope calibration	1,0000multiplexer offset coefficient	1,0000multiplexer slope coefficient	1,0000fibre end	0,00T internal ref (°C)	14,06T ext. ref 1 (°C)	-0,93T ext. ref 2 (°C)	-0,94length (m)	temperature (°C)	Stokes	anti-Stokes-744,400	29,613	-0,260	-0,161
-743,385	-200,000	0,075	0,325
-742,371	333,036	-0,153	-0,216
-741,356	-200,000	-0,052	0,322
-740,342	46,541	-0,121	-0,082
-739,327	-200,000	0,022	0,263
-738,312	39,172	-0,379	-0,246
-737,298	-200,000	0,080	0,293
-736,283	139,002	-0,108	-0,103
-735,269	800,000	-0,098	0,290
-734,254	311,833	-0,161	-0,220
-733,239	54,716	-0,074	0,052
-732,225	563,436	-0,112	-0,198
-731,210	-33,699	0,189	-0,075
-730,196	-200,000	0,016	-0,090
-729,181	126,676	0,098	-0,091
-728,167	-48,892	-0,171	0,059
-727,152	-32,503	-0,080	-0,032
-726,137	-200,000	0,003	-0,080
-725,123	290,662	-0,038	0,050
-724,108	387,099	-0,096	-0,145
-723,094	800,000	-0,115	-0,261
-722,079	156,551	-0,061	-0,061
-721,064	800,000	-0,040	-0,102
-720,050	157,814	0,028	-0,029
-719,035	120,809	-0,071	-0,064
-718,021	800,000	0,023	0,048
-717,006	-18,406	-0,037	-0,017
-715,991	-200,000	-0,037	-0,233
-714,977	26,051	-0,040	0,024
-713,962	-200,000	-0,002	0,060
-712,948	153,409	0,068	-0,067
-711,933	800,000	0,023	-0,071
-710,918	-56,558	-0,181	0,058
-709,904	264,879	-0,075	-0,095
-708,889	-100,716	-0,090	0,016
-707,875	149,864	-0,071	-0,070
-706,860	-200,000	-0,005	-0,043
-705,845	800,000	0,055	-0,124
-704,831	-108,664	-0,111	-0,017
-703,816	606,593	-0,012	0,021
-702,802	411,981	0,078	-0,121
-701,787	-200,000	0,012	-0,081
-700,772	-200,000	0,010	0,100
-699,758	-200,000	-0,016	-0,193
-698,743	-21,769	0,092	-0,041
-697,729	41,316	-0,151	0,099
-696,714	-120,055	0,133	0,016
-695,699	0,731	-0,035	-0,018
-694,685	-156,344	-0,057	0,003
-693,670	-200,000	-0,023	-0,075
-692,656	-200,000	-0,001	-0,136
-691,641	414,738	-0,016	-0,024
-690,627	248,147	0,061	0,075
-689,612	800,000	0,004	-0,010
-688,597	211,134	0,045	-0,052
-687,583	-200,000	0,007	-0,060
-686,568	-161,460	-0,090	0,003
-685,554	32,344	0,078	0,049
-684,539	372,356	-0,055	-0,082
-683,524	214,618	0,043	-0,049
-682,510	-183,990	0,040	-0,000
-681,495	-69,763	-0,173	-0,048
-680,481	57,905	-0,067	-0,047
-679,466	-200,000	-0,003	-0,181
-678,451	-200,000	-0,018	-0,087
-677,437	800,000	-0,055	-0,111
-676,422	189,379	-0,051	0,056
-675,408	-28,644	-0,051	-0,021
-674,393	-200,000	-0,018	-0,063
-673,378	-129,857	-0,153	-0,015
-672,364	-200,000	-0,018	-0,143
-671,349	-200,000	0,029	-0,108
-670,335	-82,403	0,061	-0,014
-669,320	377,179	-0,074	0,110
-668,305	800,000	-0,053	0,120
-667,291	-200,000	-0,032	-0,164
-666,276	274,459	0,037	-0,048
-665,262	800,000	0,035	-0,073
-664,247	-150,509	0,143	-0,008
-663,232	-140,862	-0,229	0,017
-662,218	-200,000	-0,018	0,317
-661,203	-200,000	-0,002	0,020
-660,189	4,709	0,066	0,035
-659,174	180,288	0,025	-0,027
-658,159	172,776	0,060	-0,063
-657,145	-56,476	-0,038	-0,012
-656,130	-118,274	-0,136	-0,017
-655,116	-200,000	-0,020	0,098
-654,101	-200,000	-0,019	0,138
-653,086	-11,234	-0,054	0,026
-652,072	392,882	-0,079	-0,119
-651,057	101,294	0,049	-0,041
-650,043	-200,000	-0,028	-0,203
-649,028	-89,815	-0,113	-0,024
-648,014	299,783	-0,055	0,073
-646,999	-98,837	0,090	0,017
-645,984	-200,000	0,012	0,053
-644,970	800,000	-0,046	0,103
-643,955	-200,000	-0,022	-0,125
-642,941	-200,000	0,002	-0,052
-641,926	-129,826	0,123	0,012
-640,911	-200,000	0,012	0,131
-639,897	514,252	-0,063	0,107
-638,882	-14,319	0,075	-0,035
-637,868	-200,000	-0,025	0,177
-636,853	283,190	-0,046	-0,060
-635,838	206,265	0,082	-0,093
-634,824	250,073	0,088	-0,108
-633,809	58,825	0,045	0,032
-632,795	488,404	0,058	0,097
-631,780	-55,087	-0,121	-0,039
-630,765	202,326	0,080	-0,089
-629,751	-200,000	0,006	0,026
-628,736	382,963	-0,027	-0,041
-627,722	-178,023	0,074	0,001
-626,707	-41,159	0,074	0,028
-625,692	57,438	-0,065	-0,046
-624,678	-200,000	0,021	0,083
-623,663	83,477	-0,131	-0,103
-622,649	-200,000	0,016	-0,117
-621,634	-200,000	-0,023	-0,148
-620,619	800,000	-0,053	-0,135
-619,605	-200,000	-0,016	0,127
-618,590	110,718	0,085	0,074
-617,576	-33,769	0,015	0,006
-616,561	73,571	0,037	-0,028
-615,546	800,000	-0,042	-0,087
-614,532	800,000	-0,061	-0,128
-613,517	800,000	-0,044	-0,110
-612,503	800,000	-0,025	-0,073
-611,488	382,934	-0,005	0,008
-610,474	-30,451	0,063	0,026
-609,459	-39,487	0,020	0,008
-608,444	-200,000	-0,007	0,050
-607,430	800,000	0,063	-0,158
-606,415	-64,143	0,033	-0,010
-605,401	-54,169	0,154	0,050
-604,386	-54,965	-0,064	0,021
-603,371	-56,088	0,027	0,009
-602,357	800,000	-0,013	-0,028
-601,342	-200,000	-0,003	-0,031
-600,328	800,000	-0,043	-0,129
-599,313	116,423	-0,021	0,019
-598,298	-200,000	0,023	0,075
-597,284	800,000	0,016	-0,040
-596,269	751,469	-0,036	0,071
-595,255	123,862	0,066	0,060
-594,240	800,000	-0,003	0,006
-593,225	-144,323	-0,054	-0,004
-592,211	-48,141	0,014	0,005
-591,196	-200,000	0,008	0,031
-590,182	-129,680	0,070	-0,007
-589,167	61,345	0,103	0,074
-588,152	-200,000	0,002	-0,031
-587,138	74,578	-0,063	0,048
-586,123	-200,000	-0,034	-0,130
-585,109	-200,000	0,011	0,083
-584,094	122,150	-0,045	-0,041
-583,079	800,000	-0,060	0,158
-582,065	800,000	0,054	0,152
-581,050	-135,427	0,061	-0,005
-580,036	800,000	0,029	-0,058
-579,021	-183,165	-0,040	0,000
-578,006	297,189	0,034	0,045
-576,992	773,916	0,041	-0,082
-575,977	-38,323	-0,152	-0,058
-574,963	800,000	0,045	0,096
-573,948	-162,898	-0,006	0,000
-572,934	-90,277	-0,073	-0,015
-571,919	-200,000	-0,006	0,062
-570,904	-17,350	-0,058	-0,027
-569,890	-200,000	0,007	-0,105
-568,875	458,860	0,059	-0,095
-567,861	-200,000	-0,004	0,014
-566,846	-200,000	0,014	0,100
-565,831	-200,000	-0,028	0,140
-564,817	-200,000	-0,009	-0,092
-563,802	-200,000	-0,012	-0,068
-562,788	-200,000	-0,021	0,097
-561,773	-96,813	0,087	0,016
-560,758	-166,330	0,190	-0,006
-559,744	354,468	-0,030	-0,044
-558,729	34,948	0,115	0,072
-557,715	-157,712	-0,056	0,002
-556,700	649,943	-0,041	-0,076
-555,685	-49,408	0,068	0,023
-554,671	-2,191	-0,069	0,035
-553,656	136,959	0,091	0,086
-552,642	800,000	0,018	-0,039
-551,627	800,000	0,042	-0,112
-550,612	82,198	0,065	0,051
-549,598	47,461	-0,021	-0,014
-548,583	800,000	-0,012	-0,034
-547,569	-139,575	0,140	-0,011
-546,554	76,940	0,050	0,038
-545,539	49,678	0,053	0,036
-544,525	-200,000	0,003	0,084
-543,510	-64,044	-0,138	0,040
-542,496	-200,000	-0,003	-0,083
-541,481	-200,000	-0,001	-0,049
-540,466	-200,000	-0,030	-0,140
-539,452	-200,000	0,006	-0,066
-538,437	126,903	-0,019	0,017
-537,423	124,984	0,069	0,063
-536,408	62,321	-0,055	-0,039
-535,393	239,787	-0,082	-0,098
-534,379	-200,000	0,015	-0,051
-533,364	553,894	0,068	-0,119
-532,350	-20,096	0,129	0,057
-531,335	-200,000	0,006	-0,032
-530,321	-51,579	-0,134	0,045
-529,306	-2,278	0,064	-0,033
-528,291	-3,817	-0,151	-0,075
-527,277	438,446	-0,053	0,083
-526,262	800,000	-0,078	0,158
-525,248	-200,000	-0,016	0,102
-524,233	-20,372	0,079	-0,035
-523,218	28,301	-0,045	-0,028
-522,204	-5,593	0,071	-0,035
-521,189	-172,771	-0,074	-0,002
-520,175	10,639	-0,127	-0,069
-519,160	-51,974	-0,094	0,031
-518,145	-48,760	0,138	0,047
-517,131	-200,000	0,023	0,107
-516,116	17,405	0,067	-0,038
-515,102	-200,000	-0,053	-0,189
-514,087	-200,000	0,018	0,074
-513,072	-110,870	-0,133	-0,020
-512,058	-70,486	-0,169	-0,046
-511,043	800,000	0,051	-0,111
-510,029	-200,000	-0,054	0,189
-509,014	-200,000	0,023	0,076
-507,999	-193,535	0,044	-0,000
-506,985	-27,512	-0,061	-0,026
-505,970	-200,000	0,038	0,161
-504,956	318,176	0,042	0,058
-503,941	103,087	0,079	0,067
-502,926	11,846	-0,018	-0,010
-501,912	800,000	0,044	0,121
-500,897	-200,000	0,001	-0,087
-499,883	486,485	-0,030	-0,049
-498,868	-10,356	-0,156	-0,074
-497,853	299,868	-0,129	-0,171
-496,839	398,648	-0,043	0,065
-495,824	149,804	0,051	0,050
-494,810	381,356	0,030	-0,044
-493,795	-34,913	0,038	-0,015
-492,781	725,854	-0,039	0,076
-491,766	800,000	-0,046	-0,142
-490,751	-200,000	0,007	-0,130
-489,737	800,000	-0,028	-0,084
-488,722	-12,157	0,067	-0,032
-487,708	108,573	0,072	0,061
-486,693	800,000	0,035	0,093
-485,678	800,000	0,058	0,118
-484,664	-200,000	0,009	-0,123
-483,649	-157,722	0,022	0,001
-482,635	-116,826	-0,143	0,019
-481,620	256,390	-0,040	-0,050
-480,605	-121,813	0,012	0,001
-479,591	259,666	-0,041	0,051
-478,576	11,690	0,072	0,039
-477,562	-72,864	0,053	-0,014
-476,547	-140,375	-0,139	-0,010
-475,532	-200,000	0,030	0,097
-474,518	-200,000	0,013	-0,212
-473,503	163,557	0,067	0,068
-472,489	-200,000	0,018	0,178
-471,474	-35,692	-0,040	-0,016
-470,459	-200,000	-0,004	-0,046
-469,445	800,000	-0,080	-0,187
-468,430	800,000	0,023	0,053
-467,416	252,578	0,069	-0,085
-466,401	208,278	0,026	-0,030
-465,386	-200,000	0,006	0,032
-464,372	87,114	0,092	0,073
-463,357	170,539	0,039	0,040
-462,343	-127,738	0,091	-0,009
-461,328	-106,193	-0,073	0,012
-460,313	-200,000	-0,005	-0,048
-459,299	503,099	0,030	-0,050
-458,284	232,786	0,038	0,045
-457,270	737,419	-0,019	0,036
-456,255	-119,461	-0,136	-0,017
-455,241	35,996	0,025	-0,016
-454,226	-200,000	-0,023	-0,114
-453,211	200,489	-0,044	0,049
-452,197	-200,000	0,006	0,073
-451,182	-133,301	-0,045	-0,004
-450,168	18,389	0,056	-0,032
-449,153	-69,306	-0,096	-0,026
-448,138	-200,000	0,006	-0,093
-447,124	96,024	-0,094	0,077
-446,109	-17,427	-0,087	0,039
-445,095	231,056	-0,078	-0,092
-444,080	344,110	0,096	-0,136
-443,065	-200,000	0,009	0,075
-442,051	-99,625	-0,021	0,004
-441,036	341,678	-0,091	0,128
-440,022	230,773	0,031	0,037
-439,007	800,000	-0,029	-0,086
-437,992	-79,842	-0,092	0,022
-436,978	-27,192	0,126	0,053
-435,963	-200,000	0,002	0,015
-434,949	273,741	-0,048	0,061
-433,934	662,718	-0,035	0,065
-432,919	444,807	0,101	-0,160
-431,905	-200,000	-0,004	0,016
-430,890	383,858	-0,006	0,009
-429,876	-64,595	-0,102	0,030
-428,861	-200,000	-0,023	-0,099
-427,846	15,184	-0,056	0,031
-426,832	298,790	-0,102	-0,135
-425,817	293,386	-0,033	0,044
-424,803	160,884	0,105	-0,105
-423,788	-200,000	-0,012	0,040
-422,773	800,000	-0,074	0,153
-421,759	800,000	0,011	0,029
-420,744	403,897	0,009	-0,013
-419,730	66,617	0,038	-0,028
-418,715	70,803	-0,049	-0,037
-417,701	-95,843	0,115	0,022
-416,686	-83,458	-0,034	0,008
-415,671	800,000	-0,030	-0,088
-414,657	-49,186	0,068	-0,023
-413,642	-96,962	0,024	-0,005
-412,628	134,259	-0,143	-0,133
-411,613	77,058	-0,067	-0,051
-410,598	-34,428	-0,062	-0,024
-409,584	-110,598	0,065	0,010
-408,569	-60,597	0,148	0,045
-407,555	-200,000	-0,019	-0,101
-406,540	800,000	-0,078	0,166
-405,525	101,846	-0,139	-0,116
-404,511	-89,835	-0,139	0,029
-403,496	-129,201	0,132	-0,013
-402,482	574,094	-0,040	0,070
-401,467	-82,763	0,193	-0,045
-400,452	-165,663	0,059	0,002
-399,438	-118,936	0,117	0,015
-398,423	800,000	-0,023	0,067
-397,409	552,632	-0,041	-0,071
-396,394	758,757	-0,059	-0,116
-395,379	-200,000	-0,007	0,083
-394,365	-200,000	0,004	-0,023
-393,350	-31,895	0,145	-0,058
-392,336	-3,153	-0,069	-0,034
-391,321	800,000	0,065	0,130
-390,306	-54,573	-0,076	-0,024
-389,292	-76,810	-0,083	0,021
-388,277	514,902	0,029	-0,048
-387,263	800,000	-0,034	0,076
-386,248	509,404	-0,028	-0,047
-385,233	336,510	-0,035	-0,049
-384,219	7,132	-0,086	-0,046
-383,204	800,000	-0,025	-0,068
-382,190	800,000	0,082	-0,204
-381,175	-200,000	0,003	-0,052
-380,160	19,661	0,023	0,013
-379,146	-136,118	0,099	-0,008
-378,131	296,708	0,019	0,025
-377,117	-43,970	-0,120	0,043
-376,102	483,016	-0,027	-0,044
-375,088	800,000	0,010	-0,026
-374,073	542,490	0,060	-0,102
-373,058	800,000	-0,023	-0,069
-372,044	201,575	-0,065	-0,072
-371,029	37,006	-0,008	0,005
-370,015	-200,000	-0,018	-0,063
-369,000	35,580	0,056	-0,035
-367,985	-35,146	-0,075	-0,029
-366,971	-54,389	-0,061	-0,020
-365,956	365,266	0,028	-0,041
-364,942	476,979	-0,078	-0,126
-363,927	64,290	-0,028	0,020
-362,912	369,185	-0,051	0,074
-361,898	800,000	0,038	-0,083
-360,883	245,338	-0,062	-0,075
-359,869	-38,760	-0,046	0,017
-358,854	404,256	0,031	0,047
-357,839	800,000	-0,099	0,198
-356,825	-55,478	-0,095	-0,030
-355,810	157,239	0,063	0,063
-354,796	-200,000	-0,010	-0,087
-353,781	-200,000	0,069	0,000
-352,766	79,075	-0,105	0,081
-351,752	-200,000	-0,006	0,021
-350,737	-200,000	0,003	0,073
-349,723	193,282	0,091	0,099
-348,708	-8,692	-0,055	-0,026
-347,693	-61,426	-0,064	-0,019
-346,679	123,035	0,031	-0,028
-345,664	-19,406	-0,154	-0,068
-344,650	598,211	0,078	-0,139
-343,635	-200,000	-0,039	0,136
-342,620	68,087	0,052	0,038
-341,606	-200,000	-0,000	-0,140
-340,591	44,837	0,073	0,048
-339,577	800,000	0,011	0,026
-338,562	800,000	-0,035	-0,074
-337,548	-97,380	-0,086	0,016
-336,533	800,000	0,030	-0,084
-335,518	-151,194	-0,148	-0,008
-334,504	800,000	0,042	-0,112
-333,489	800,000	0,027	0,077
-332,475	-78,617	-0,096	0,023
-331,460	116,848	-0,030	-0,027
-330,445	13,255	0,097	0,054
-329,431	220,881	-0,043	0,050
-328,416	18,323	0,161	0,092
-327,402	481,616	0,078	0,126
-326,387	262,736	0,057	-0,071
-325,372	-100,906	-0,103	0,018
-324,358	190,867	-0,095	0,102
-323,343	800,000	0,022	-0,059
-322,329	-200,000	-0,008	0,084
-321,314	800,000	0,037	-0,105
-320,299	303,380	0,075	-0,099
-319,285	-82,111	0,126	0,029
-318,270	800,000	-0,021	0,059
-317,256	-200,000	0,008	-0,191
-316,241	-69,359	0,093	0,025
-315,226	-168,117	-0,014	0,000
-314,212	625,853	0,058	0,105
-313,197	800,000	-0,017	0,045
-312,183	-105,720	-0,148	-0,024
-311,168	-168,030	0,065	0,002
-310,153	-14,771	-0,072	0,033
-309,139	-90,523	-0,064	-0,013
-308,124	-137,110	-0,044	0,004
-307,110	-138,965	0,091	-0,007
-306,095	-200,000	0,031	0,117
-305,080	32,637	0,099	0,061
-304,066	800,000	-0,050	-0,146
-303,051	105,264	-0,055	0,046
-302,037	-86,170	0,104	0,023
-301,022	398,991	-0,114	-0,171
-300,008	547,614	0,084	0,144
-298,993	-63,420	0,137	-0,040
-297,978	246,787	-0,018	-0,022
-296,964	-200,000	-0,053	0,168
-295,949	102,590	-0,065	-0,054
-294,935	119,748	-0,076	-0,067
-293,920	-6,751	-0,094	0,046
-292,905	349,688	-0,045	0,063
-291,891	800,000	0,039	0,114
-290,876	-200,000	0,009	0,049
-289,862	96,644	0,036	-0,030
-288,847	800,000	-0,030	0,088
-287,832	-155,426	0,040	0,002
-286,818	98,960	0,051	-0,042
-285,803	800,000	0,043	0,086
-284,789	-200,000	-0,001	0,098
-283,774	-98,080	-0,110	-0,020
-282,759	-200,000	-0,009	0,172
-281,745	-165,464	-0,126	0,004
-280,730	224,556	0,079	-0,091
-279,716	-200,000	0,002	-0,055
-278,701	43,055	0,040	0,026
-277,686	-200,000	-0,004	-0,054
-276,672	-32,791	-0,087	0,035
-275,657	707,926	-0,029	-0,056
-274,643	-157,654	0,076	0,003
-273,628	284,879	0,072	0,093
-272,613	-200,000	-0,027	0,104
-271,599	-36,148	0,040	-0,015
-270,584	800,000	0,045	0,134
-269,570	-162,803	0,143	-0,005
-268,555	226,438	0,075	-0,087
-267,540	25,022	-0,082	-0,049
-266,526	114,021	0,079	-0,068
-265,511	61,408	-0,037	-0,026
-264,497	-115,484	0,120	-0,016
-263,482	301,621	0,093	0,123
-262,467	-48,245	-0,036	0,012
-261,453	-65,884	0,029	-0,008
-260,438	-71,609	-0,056	0,015
-259,424	-149,704	-0,088	-0,005
-258,409	-200,000	0,002	0,021
-257,395	-125,289	-0,093	0,010
-256,380	23,123	0,078	0,046
-255,365	-19,047	0,092	-0,041
-254,351	226,306	0,003	0,004
-253,336	-200,000	0,005	-0,025
-252,322	467,286	-0,046	-0,073
-251,307	582,274	0,051	-0,090
-250,292	-3,919	-0,062	-0,031
-249,278	-200,000	0,040	0,146
-248,263	-200,000	0,001	0,116
-247,249	106,761	0,100	-0,085
-246,234	246,357	0,096	-0,116
-245,219	73,594	-0,085	0,064
-244,205	283,382	-0,128	-0,164
-243,190	437,321	0,081	0,127
-242,176	-152,063	0,092	-0,005
-241,161	-200,000	-0,002	0,123
-240,146	-41,577	0,084	-0,030
-239,132	-200,000	-0,010	0,089
-238,117	165,805	-0,009	-0,009
-237,103	-122,770	0,061	0,007
-236,088	-34,115	-0,040	0,016
-235,073	794,116	0,045	0,088
-234,059	-75,518	0,087	0,022
-233,044	-200,000	0,027	0,101
-232,030	-63,607	-0,067	0,020
-231,015	-200,000	-0,046	-0,161
-230,000	430,552	-0,047	-0,072
-228,986	14,989	-0,051	-0,028
-227,971	-200,000	0,009	0,070
-226,957	-64,292	0,119	0,034
-225,942	56,987	0,127	0,088
-224,927	-109,722	-0,029	-0,004
-223,913	139,242	0,062	0,058
-222,898	800,000	-0,050	-0,104
-221,884	162,054	-0,027	-0,027
-220,869	-24,731	0,021	-0,009
-219,855	-73,246	0,089	0,023
-218,840	-200,000	0,004	0,075
-217,825	-200,000	0,012	-0,102
-216,811	-25,859	-0,209	0,087
-215,796	-200,000	0,011	-0,191
-214,782	14,964	-0,010	-0,006
-213,767	27,850	-0,068	0,041
-212,752	-141,077	0,167	-0,012
-211,738	-200,000	0,007	0,100
-210,723	-200,000	-0,003	0,132
-209,709	367,539	-0,040	0,058
-208,694	309,934	-0,017	-0,023
-207,679	-200,000	-0,009	-0,102
-206,665	-79,365	-0,099	0,024
-205,650	800,000	0,063	-0,126
-204,636	31,574	0,094	0,058
-203,621	263,223	-0,040	-0,050
-202,606	-11,518	0,059	0,028
-201,592	119,187	0,089	-0,078
-200,577	174,908	-0,049	-0,050
-199,563	-200,000	0,013	0,115
-198,548	-75,949	-0,151	0,038
-197,533	800,000	0,101	0,211
-196,519	-200,000	0,012	0,148
-195,504	416,353	0,060	-0,092
-194,490	-95,226	0,038	-0,007
-193,475	105,596	-0,119	-0,100
-192,460	-90,614	-0,061	0,012
-191,446	-14,321	0,132	0,060
-190,431	330,053	0,049	0,067
-189,417	628,081	0,072	0,130
-188,402	800,000	-0,058	-0,149
-187,387	614,053	0,025	-0,045
-186,373	-200,000	0,017	-0,102
-185,358	747,256	0,021	0,040
-184,344	800,000	0,049	-0,152
-183,329	22,804	-0,067	0,039
-182,315	148,273	0,151	0,145
-181,300	-32,237	0,072	-0,028
-180,285	-7,024	-0,080	-0,038
-179,271	130,333	-0,105	0,096
-178,256	-200,000	-0,012	0,081
-177,242	84,568	-0,102	0,080
-176,227	149,460	-0,066	0,064
-175,212	800,000	0,017	-0,042
-174,198	-18,525	-0,072	-0,032
-173,183	-15,822	0,058	0,026
-172,169	-110,460	-0,046	-0,007
-171,154	-200,000	0,013	-0,080
-170,139	211,640	0,012	-0,014
-169,125	341,013	0,037	0,051
-168,110	-200,000	0,038	0,153
-167,096	-200,000	-0,011	-0,089
-166,081	65,333	-0,087	0,063
-165,066	-11,395	-0,012	-0,006
-164,052	136,867	-0,084	0,078
-163,037	724,085	0,050	0,096
-162,023	-200,000	0,013	0,115
-161,008	-200,000	-0,007	0,075
-159,993	145,672	-0,074	0,070
-158,979	-200,000	0,001	-0,116
-157,964	12,543	-0,055	0,030
-156,950	303,501	0,015	-0,020
-155,935	-129,286	0,132	-0,013
-154,920	-200,000	0,016	-0,094
-153,906	-34,908	0,080	-0,031
-152,891	-15,937	0,038	-0,017
-151,877	-157,897	-0,186	-0,008
-150,862	399,174	-0,006	0,009
-149,847	365,100	0,013	0,019
-148,833	698,102	0,021	0,040
-147,818	-35,036	0,032	0,012
-146,804	800,000	-0,065	0,128
-145,789	164,115	-0,063	0,063
-144,775	-146,717	0,076	-0,005
-143,760	117,606	-0,094	-0,082
-142,745	-200,000	-0,002	-0,082
-141,731	-32,223	0,111	-0,044
-140,716	-200,000	0,020	0,085
-139,702	164,530	-0,057	-0,057
-138,687	800,000	0,031	0,077
-137,672	-200,000	0,050	-0,177
-136,658	33,653	-0,064	-0,040
-135,643	301,128	-0,034	-0,045
-134,629	-85,115	-0,058	-0,013
-133,614	-80,460	0,058	0,014
-132,599	-200,000	-0,011	0,158
-131,585	-110,495	-0,100	-0,015
-130,570	163,637	-0,052	0,052
-129,556	800,000	0,017	-0,046
-128,541	-200,000	-0,015	-0,193
-127,526	361,435	-0,021	0,031
-126,512	-200,000	-0,014	-0,067
-125,497	432,418	0,081	-0,125
-124,483	267,587	0,058	-0,072
-123,468	442,154	-0,075	0,117
-122,453	238,210	0,063	-0,075
-121,439	353,374	-0,116	-0,164
-120,424	333,804	0,069	-0,095
-119,410	287,794	0,066	0,085
-118,395	103,387	0,030	0,025
-117,380	-200,000	0,010	0,033
-116,366	50,983	0,063	0,042
-115,351	415,554	0,087	-0,132
-114,337	-137,628	-0,161	0,013
-113,322	-66,058	-0,050	-0,014
-112,307	-76,329	-0,039	-0,010
-111,293	560,309	0,011	-0,019
-110,278	-80,655	-0,031	-0,007
-109,264	-107,847	-0,117	-0,018
-108,249	-22,995	-0,125	0,053
-107,234	-200,000	-0,002	-0,060
-106,220	800,000	-0,026	-0,059
-105,205	477,490	0,071	-0,114
-104,191	211,477	0,039	0,044
-103,176	-200,000	-0,020	0,144
-102,162	199,902	-0,066	-0,072
-101,147	93,942	0,067	-0,054
-100,132	65,384	-0,055	0,039
-99,118	217,334	-0,052	0,059
-98,103	163,211	-0,137	-0,137
-97,089	-200,000	-0,008	-0,044
-96,074	83,928	0,125	0,097
-95,059	-124,180	0,069	0,008
-94,045	-200,000	-0,013	-0,099
-93,030	800,000	-0,065	-0,161
-92,016	613,246	-0,018	-0,032
-91,001	189,191	0,083	-0,089
-89,986	-200,000	0,022	0,092
-88,972	174,685	0,107	0,110
-87,957	-200,000	0,006	-0,021
-86,943	192,580	-0,113	0,121
-85,928	-89,248	-0,039	0,008
-84,913	-200,000	-0,042	-0,141
-83,899	12,725	0,092	-0,050
-82,884	66,762	-0,125	-0,090
-81,870	99,483	0,080	0,066
-80,855	23,314	0,089	-0,052
-79,840	82,322	-0,101	0,077
-78,826	63,000	-0,103	0,073
-77,811	-7,138	0,102	-0,049
-76,797	800,000	-0,029	0,074
-75,782	204,045	0,098	-0,108
-74,767	-110,327	0,075	0,011
-73,753	720,049	0,024	0,046
-72,738	800,000	0,009	0,026
-71,724	294,066	0,015	-0,020
-70,709	22,949	-0,032	-0,019
-69,694	-0,595	-0,068	-0,034
-68,680	-95,587	-0,009	0,002
-67,665	363,595	0,087	-0,124
-66,651	-200,000	-0,011	0,038
-65,636	-38,049	-0,021	-0,008
-64,622	67,821	-0,149	0,108
-63,607	-200,000	0,010	-0,061
-62,592	171,712	-0,006	0,006
-61,578	-133,766	0,128	-0,011
-60,563	106,924	0,135	-0,114
-59,549	-200,000	0,045	0,181
-58,534	-37,413	-1,675	-0,630
-57,519	458,607	-1,304	-2,061
-56,505	-200,000	-0,602	-4,609
-55,490	145,146	0,960	0,910
-54,476	800,000	4,916	11,460
-53,461	-200,000	18,805	306,569
-52,446	800,000	736,976	2300,296
-51,432	569,895	1653,335	2858,595
-50,417	79,104	1670,428	1265,632
-49,403	22,061	1543,336	889,200
-48,388	15,936	1466,161	814,975
-47,373	17,774	1455,930	818,132
-46,359	16,832	1446,450	808,256
-45,344	14,169	1441,828	792,887
-44,330	14,118	1439,819	791,508
-43,315	14,073	1438,115	790,323
-42,300	14,099	1436,521	789,541
-41,286	14,154	1435,341	789,123
-40,271	14,105	1433,813	788,016
-39,257	14,115	1432,691	787,418
-38,242	14,150	1431,281	786,780
-37,227	14,213	1430,095	786,396
-36,213	14,200	1428,680	785,525
-35,198	14,167	1427,612	784,747
-34,184	14,170	1426,787	784,276
-33,169	14,110	1425,418	783,212
-32,154	14,170	1424,549	782,985
-31,140	14,197	1423,042	782,256
-30,125	14,201	1422,065	781,705
-29,111	14,168	1420,792	780,817
-28,096	14,144	1419,765	780,108
-27,082	14,109	1418,715	779,338
-26,067	14,082	1417,716	778,629
-25,052	14,111	1416,449	778,039
-24,038	14,027	1415,899	777,311
-23,023	14,054	1414,663	776,729
-22,009	14,075	1413,697	776,269
-20,994	14,045	1412,721	775,561
-19,979	14,034	1411,962	775,062
-18,965	14,000	1410,821	774,242
-17,950	14,037	1409,687	773,763
-16,936	14,053	1408,970	773,413
-15,921	14,012	1407,620	772,449
-14,906	13,980	1407,026	771,946
-13,892	13,999	1406,131	771,511
-12,877	14,000	1405,089	770,916
-11,863	14,037	1404,054	770,490
-10,848	13,982	1403,418	769,851
-9,833	13,965	1402,373	769,172
-8,819	13,940	1401,683	768,644
-7,804	13,923	1400,667	767,978
-6,790	13,921	1399,547	767,324
-5,775	13,869	1398,606	766,533
-4,760	13,913	1397,869	766,305
-3,746	13,891	1396,691	765,525
-2,731	13,888	1396,066	765,140
-1,717	13,836	1395,332	764,466
-0,702	13,873	1393,329	763,511
0,313	17,624	1311,343	735,999
1,327	34,045	705,778	434,156
2,342	51,947	124,087	83,470
3,356	1,308	16,594	8,408
4,371	16,585	3,181	1,774
5,386	-38,232	0,624	0,233
6,400	-200,000	0,056	0,229
7,415	38,390	-0,294	-0,185
8,429	605,526	-0,163	-0,289
9,444	131,103	-0,369	-0,335
10,459	124,852	-0,301	-0,268
11,473	-9,085	-0,374	-0,176
12,488	27,224	-0,313	-0,186
13,502	174,787	-0,218	-0,223
14,517	220,309	-0,244	-0,277
15,531	58,311	-0,425	-0,294
16,546	362,770	-0,227	-0,322
17,561	82,713	-0,398	-0,305
18,575	160,935	-0,138	-0,136
19,590	5,795	-0,228	-0,119
20,604	-43,574	-0,238	-0,084
21,619	75,749	-0,512	-0,382
22,634	10,136	-0,438	-0,235
23,648	30,702	-0,527	-0,318
24,663	158,141	-0,337	-0,330
25,677	99,781	-0,338	-0,277
26,692	77,350	-0,416	-0,312
27,707	91,733	-0,300	-0,238
28,721	294,513	-0,313	-0,404
29,736	215,189	-0,319	-0,358
30,750	108,539	-0,466	-0,393
31,765	329,444	-0,341	-0,465
32,780	0,065	-0,488	-0,245
33,794	41,738	-0,313	-0,200
34,809	66,446	-0,325	-0,232
35,823	87,130	-0,231	-0,180
36,838	110,287	-0,439	-0,372
37,853	46,529	-0,318	-0,208
38,867	85,284	-0,405	-0,314
39,882	25,437	-0,428	-0,250
40,896	800,000	-0,149	-0,376
41,911	87,476	-0,301	-0,235
42,926	136,569	-0,391	-0,360
43,940	97,001	-0,284	-0,230
44,955	55,561	-0,437	-0,298
45,969	240,826	-0,290	-0,341
46,984	-8,187	-0,402	-0,190
47,999	107,406	-0,364	-0,305
49,013	-13,385	-0,437	-0,199
50,028	135,915	-0,292	-0,268
51,042	-36,966	-0,436	-0,164
52,057	-24,399	-0,342	-0,143
53,071	541,085	-0,205	-0,345
54,086	620,551	-0,235	-0,418
55,101	42,529	-0,286	-0,183
56,115	204,645	-0,145	-0,158
57,130	66,897	-0,395	-0,283
58,144	45,319	-0,393	-0,255
59,159	-83,406	-0,522	-0,117
60,174	-45,095	-0,404	-0,141
61,188	30,168	-0,485	-0,291
62,203	18,758	-0,293	-0,165
63,217	13,037	-0,400	-0,217
64,232	44,307	-0,302	-0,195
65,247	316,242	-0,277	-0,368
66,261	48,004	-0,397	-0,261
67,276	72,153	-0,367	-0,268
68,290	453,472	-0,143	-0,223
69,305	107,115	-0,280	-0,234
70,320	153,568	-0,257	-0,248
71,334	287,059	-0,316	-0,402
72,349	-43,533	-0,378	-0,133
73,363	-9,328	-0,398	-0,186
74,378	111,086	-0,372	-0,315
75,393	144,909	-0,269	-0,253
76,407	37,162	-0,367	-0,228
77,422	3,994	-0,274	-0,140
78,436	19,743	-0,387	-0,218
79,451	31,871	-0,346	-0,209
80,466	62,043	-0,334	-0,233
81,480	219,094	-0,357	-0,401
82,495	-72,420	-0,345	-0,089
83,509	-29,021	-0,175	-0,070
84,524	48,060	-0,375	-0,246
85,539	272,527	-0,198	-0,246
86,553	21,384	-0,348	-0,198
87,568	214,334	-0,291	-0,324
88,582	154,091	-0,322	-0,310
89,597	217,614	-0,309	-0,347
90,611	155,199	-0,287	-0,277
91,626	225,438	-0,225	-0,256
92,641	306,788	-0,112	-0,147
93,655	-25,111	-0,397	-0,164
94,670	96,977	-0,304	-0,245
95,684	147,848	-0,292	-0,277
96,699	5,580	-0,389	-0,201
97,714	192,592	-0,221	-0,234
98,728	23,146	-0,268	-0,154
99,743	-34,253	-0,262	-0,100
100,757	-133,177	-0,235	-0,021
101,772	-12,056	-0,254	-0,116
102,787	106,667	-0,312	-0,260
103,801	88,438	-0,278	-0,216
104,816	202,080	-0,188	-0,203
105,830	76,784	-0,291	-0,217
106,845	-2,909	-0,280	-0,137
107,860	486,155	-0,089	-0,143
108,874	127,297	-0,246	-0,219
109,889	133,284	-0,267	-0,242
110,903	702,423	-0,135	-0,251
111,918	114,599	-0,225	-0,192
112,933	225,313	-0,214	-0,243
113,947	275,601	-0,215	-0,267
114,962	126,012	-0,233	-0,206
115,976	11,016	-0,355	-0,190
116,991	-190,856	-0,234	0,002
118,006	297,153	-0,198	-0,255
119,020	21,126	-0,321	-0,182
120,035	137,444	-0,188	-0,172
121,049	-0,658	-0,237	-0,117
122,064	11,271	-0,249	-0,133
123,079	124,614	-0,234	-0,206
124,093	484,846	-0,206	-0,330
125,108	-5,441	-0,304	-0,145
126,122	-35,502	-0,266	-0,100
127,137	-84,120	-0,375	-0,083
128,151	251,152	-0,163	-0,194
129,166	99,926	-0,175	-0,141
130,181	46,913	-0,186	-0,121
131,195	33,028	-0,271	-0,164
132,210	120,035	-0,322	-0,279
133,224	20,392	-0,310	-0,175
134,239	96,948	-0,230	-0,184
135,254	28,249	-0,187	-0,110
136,268	90,751	-0,207	-0,162
137,283	111,744	-0,253	-0,213
138,297	182,205	-0,296	-0,305
139,312	57,800	-0,298	-0,204
140,327	126,831	-0,276	-0,245
141,341	35,924	-0,257	-0,158
142,356	177,350	-0,227	-0,231
143,370	35,849	-0,168	-0,103
144,385	70,588	-0,127	-0,092
145,400	58,120	-0,300	-0,205
146,414	53,904	-0,346	-0,232
147,429	276,141	-0,241	-0,299
148,443	395,269	-0,194	-0,283
149,458	-13,310	-0,255	-0,115
150,473	-133,366	-0,268	-0,023
151,487	4,238	-0,256	-0,130
152,502	202,883	-0,279	-0,301
153,516	324,215	-0,219	-0,292
154,531	93,907	-0,246	-0,194
155,546	83,613	-0,275	-0,210
156,560	74,303	-0,235	-0,172
157,575	114,578	-0,196	-0,166
158,589	87,222	-0,180	-0,139
159,604	104,850	-0,261	-0,214
160,619	160,192	-0,245	-0,239
161,633	169,035	-0,223	-0,222
162,648	270,067	-0,152	-0,187
163,662	-140,698	-0,156	-0,011
164,677	118,589	-0,187	-0,161
165,692	161,748	-0,176	-0,172
166,706	618,299	-0,134	-0,235
167,721	121,673	-0,204	-0,178
168,735	58,909	-0,355	-0,243
169,750	419,824	-0,163	-0,244
170,764	-77,940	-0,233	-0,056
171,779	-31,970	-0,112	0,044
172,794	-20,650	-0,340	-0,145
173,808	78,161	-0,240	-0,178
174,823	411,531	-0,129	-0,191
175,837	200,529	-0,253	-0,272
176,852	165,272	-0,293	-0,288
177,867	424,260	-0,114	-0,172
178,881	82,532	-0,133	-0,101
179,896	632,062	-0,080	-0,141
180,910	102,336	-0,221	-0,180
181,925	103,522	-0,267	-0,218
182,940	50,944	-0,242	-0,159
183,954	-44,649	-0,240	-0,083
184,969	183,525	-0,208	-0,215
185,983	179,176	-0,209	-0,213
186,998	-128,529	-0,131	-0,013
188,013	131,227	-0,170	-0,152
189,027	223,107	-0,122	-0,137
190,042	-62,906	-0,190	-0,054
191,056	326,111	-0,153	-0,205
192,071	-138,910	-0,156	-0,012
193,086	452,231	-0,177	-0,273
194,100	-41,642	-0,186	-0,066
195,115	268,027	-0,196	-0,240
196,129	171,431	-0,211	-0,211
197,144	655,222	-0,198	-0,355
198,159	-15,860	-0,313	-0,138
199,173	-73,094	-0,332	-0,084
200,188	1,594	-0,201	-0,100
201,202	215,734	-0,155	-0,172
202,217	90,029	-0,270	-0,209
203,232	179,781	-0,187	-0,191
204,246	94,092	-0,279	-0,220
205,261	179,508	-0,288	-0,293
206,275	-145,929	-0,192	0,012
207,290	-73,468	-0,123	-0,031
208,304	278,627	-0,222	-0,276
209,319	-200,000	-0,076	-0,279
210,334	161,866	-0,133	-0,129
211,348	71,810	-0,263	-0,190
212,363	268,527	-0,155	-0,189
213,377	166,865	-0,178	-0,176
214,392	8,802	-0,158	-0,083
215,407	352,332	-0,155	-0,213
216,421	300,400	-0,173	-0,222
217,436	758,850	-0,121	-0,228
218,450	-29,707	-0,249	-0,098
219,465	724,080	-0,128	-0,238
220,480	671,297	-0,105	-0,190
221,494	10,266	-0,265	-0,139
222,509	149,379	-0,222	-0,208
223,523	-135,067	-0,203	-0,017
224,538	-87,486	-0,161	-0,034
225,553	117,233	-0,276	-0,235
226,567	8,774	-0,195	-0,102
227,582	-36,692	-0,239	-0,089
228,596	65,543	-0,101	-0,071
229,611	209,243	-0,138	-0,150
230,626	117,645	-0,197	-0,168
231,640	71,962	-0,184	-0,132
232,655	-60,335	-0,191	-0,056
233,669	149,279	-0,183	-0,172
234,684	45,398	-0,165	-0,106
235,699	118,638	-0,192	-0,165
236,713	-5,695	-0,208	0,099
237,728	-142,421	-0,151	0,010
238,742	-12,627	-0,137	-0,062
239,757	16,378	-0,211	-0,115
240,772	-53,486	-0,281	-0,089
241,786	154,408	-0,270	-0,257
242,801	-46,739	-0,199	-0,067
243,815	281,174	-0,159	-0,198
244,830	602,184	-0,150	-0,259
245,844	113,482	-0,164	-0,138
246,859	40,707	-0,196	-0,122
247,874	93,595	-0,256	-0,200
248,888	74,957	-0,212	-0,154
249,903	200,320	-0,125	-0,133
250,917	192,589	-0,095	-0,100
251,932	60,051	-0,134	-0,092
252,947	800,000	-0,076	-0,148
253,961	46,540	-0,191	-0,122
254,976	-128,996	-0,228	-0,022
255,990	443,889	-0,200	-0,305
257,005	55,261	-0,238	-0,159
258,020	51,586	-0,062	-0,040
259,034	12,935	-0,239	-0,127
260,049	201,040	-0,148	-0,157
261,063	40,489	-0,135	-0,084
262,078	135,175	-0,102	-0,092
263,093	434,093	-0,114	-0,171
264,107	204,036	-0,189	-0,202
265,122	14,081	-0,151	-0,081
266,136	-200,000	-0,062	-0,219
267,151	516,698	-0,150	-0,243
268,166	106,977	-0,170	-0,140
269,180	378,084	-0,083	-0,118
270,195	431,233	-0,101	-0,151
271,209	237,358	-0,210	-0,240
272,224	-200,000	-0,073	-0,231
273,239	-44,884	-0,045	-0,015
274,253	-200,000	0,013	-0,087
275,268	-143,654	-0,101	-0,007
276,282	-8,192	-0,247	-0,114
277,297	800,000	-0,116	-0,272
278,312	90,134	-0,089	-0,068
279,326	14,260	-0,107	-0,057
280,341	108,472	-0,187	-0,154
281,355	-200,000	-0,019	-0,139
282,370	245,189	-0,079	-0,092
283,384	41,777	-0,195	-0,122
284,399	800,000	-0,140	-0,284
285,414	314,415	-0,162	-0,211
286,428	800,000	-0,068	-0,182
287,443	800,000	-0,063	-0,157
288,457	-124,009	-0,077	-0,008
289,472	16,231	-0,260	-0,141
290,487	76,223	-0,053	-0,039
291,501	488,597	-0,068	-0,108
292,516	800,000	-0,112	-0,237
293,530	359,388	-0,077	-0,107
294,545	272,096	-0,191	-0,232
295,560	362,307	-0,114	-0,158
296,574	200,594	-0,149	-0,158
297,589	19,868	-0,294	-0,163
298,603	126,785	-0,223	-0,195
299,618	-160,590	-0,223	-0,008
300,633	685,642	-0,086	-0,155
301,647	-136,600	-0,139	-0,011
302,662	800,000	-0,028	-0,077
303,676	542,438	-0,066	-0,109
304,691	-30,124	-0,153	-0,060
305,706	284,900	-0,183	-0,227
306,720	-11,544	-0,189	-0,085
307,735	-1,379	-0,122	-0,059
308,749	800,000	-0,057	-0,150
309,764	-200,000	-0,032	-0,198
310,779	105,335	-0,187	-0,152
311,793	-200,000	-0,040	-0,181
312,808	315,271	-0,145	-0,189
313,822	70,844	-0,159	-0,113
314,837	64,852	-0,096	-0,067
315,852	-12,320	-0,156	0,070
316,866	4,114	-0,186	-0,093
317,881	485,735	-0,070	-0,110
318,895	342,830	-0,115	-0,155
319,910	234,189	-0,188	-0,214
320,925	-200,000	0,010	-0,071
321,939	29,332	-0,117	-0,068
322,954	-200,000	-0,016	-0,272
323,968	155,954	-0,129	-0,122
324,983	-200,000	0,000	-0,102
325,997	176,980	-0,063	-0,063
327,012	31,088	-0,207	-0,122
328,027	117,018	-0,143	-0,121
329,041	110,449	-0,023	-0,019
330,056	14,820	-0,150	-0,080
331,070	-65,601	-0,110	-0,030
332,085	800,000	-0,062	-0,141
333,100	800,000	-0,079	-0,178
334,114	550,508	-0,108	-0,178
335,129	313,533	-0,089	-0,116
336,143	42,015	0,093	-0,058
337,158	800,000	-0,089	-0,202
338,173	800,000	-0,037	-0,081
339,187	594,068	-0,074	-0,127
340,202	800,000	-0,076	-0,223
341,216	-76,711	-0,083	-0,020
342,231	228,002	-0,168	-0,188
343,246	57,283	-0,205	-0,137
344,260	139,434	-0,142	-0,129
345,275	119,232	-0,186	-0,158
346,289	-97,463	-0,121	0,021
347,304	474,311	-0,065	-0,101
348,319	364,925	-0,065	-0,090
349,333	35,949	-0,251	-0,152
350,348	-136,469	-0,193	-0,015
351,362	-68,731	-0,099	-0,026
352,377	-58,106	-0,062	0,019
353,392	34,126	-0,147	-0,088
354,406	-107,153	-0,114	-0,017
355,421	209,827	1314,733	1416,256
356,435	161,506	1475,469	1416,751
