DTS Sentinel unit serial number:	SN410029Multiplexer serial number:	ORYXHardware model number:	OX2-SRSoftware version number:	ORYX F/W v4,00 Oryx Data Collector v3.7.2.0data status	okinstallation	B3 Nyhavnadifferential loss correction	single-endedforward channel	channel 1reverse channel	N/Adate	2023/12/05time	00:22:30forward acquisition time	300,00reverse acquisition time	0,00gamma	499,1914k internal	0,3200k external	0,3200temperature offset calibration	1,0000default loss term (dB/km)	0,3820temperature slope calibration	1,0000multiplexer offset coefficient	1,0000multiplexer slope coefficient	1,0000fibre end	0,00T internal ref (°C)	13,89T ext. ref 1 (°C)	-1,28T ext. ref 2 (°C)	-1,31length (m)	temperature (°C)	Stokes	anti-Stokes-744,400	619,092	-0,068	-0,125
-743,385	-200,000	-0,085	0,290
-742,371	234,527	-0,183	-0,219
-741,356	-200,000	-0,033	0,485
-740,342	55,417	-0,158	-0,111
-739,327	-200,000	-0,015	0,249
-738,312	27,431	-0,317	-0,193
-737,298	-200,000	-0,005	0,515
-736,283	800,000	-0,147	-0,326
-735,269	-200,000	0,066	0,325
-734,254	82,300	-0,305	-0,241
-733,239	85,376	-0,228	0,182
-732,225	314,926	-0,144	-0,198
-731,210	228,233	0,138	0,163
-730,196	-200,000	0,031	0,126
-729,181	-90,008	0,136	-0,029
-728,167	800,000	0,043	-0,127
-727,152	-144,641	-0,125	0,008
-726,137	800,000	-0,049	-0,126
-725,123	-200,000	-0,019	-0,149
-724,108	15,163	-0,209	-0,119
-723,094	-135,655	-0,162	-0,014
-722,079	-54,600	0,129	0,042
-721,064	27,150	-0,115	-0,070
-720,050	800,000	-0,036	0,113
-719,035	98,353	-0,136	-0,114
-718,021	53,769	0,091	-0,064
-717,006	-1,598	-0,156	-0,080
-715,991	-87,647	-0,158	0,034
-714,977	-60,664	-0,183	-0,056
-713,962	126,641	0,103	-0,095
-712,948	-200,000	0,001	0,028
-711,933	27,067	-0,020	-0,012
-710,918	255,599	-0,064	0,080
-709,904	292,099	-0,048	-0,064
-708,889	201,286	-0,110	-0,123
-707,875	114,627	0,066	-0,058
-706,860	474,346	-0,047	-0,078
-705,845	61,887	-0,031	-0,022
-704,831	-151,315	0,026	-0,001
-703,816	800,000	0,075	0,169
-702,802	291,079	-0,113	0,149
-701,787	-14,352	-0,088	-0,041
-700,772	-30,229	0,028	-0,012
-699,758	667,606	-0,013	0,025
-698,743	-130,699	0,084	-0,008
-697,729	-0,772	-0,064	-0,033
-696,714	499,815	0,069	0,116
-695,699	-58,864	-0,075	0,023
-694,685	0,085	0,067	0,034
-693,670	361,079	-0,103	-0,151
-692,656	-200,000	0,009	-0,102
-691,641	397,594	0,019	0,028
-690,627	-200,000	-0,006	0,058
-689,612	452,231	-0,089	0,143
-688,597	-118,618	-0,258	0,033
-687,583	-128,734	-0,044	-0,004
-686,568	77,554	-0,091	-0,070
-685,554	-200,000	0,022	-0,080
-684,539	-200,000	-0,004	-0,095
-683,524	201,279	0,045	0,051
-682,510	47,653	-0,079	0,053
-681,495	107,425	0,070	-0,061
-680,481	800,000	0,014	0,037
-679,466	76,417	-0,146	-0,112
-678,451	-12,238	0,036	-0,017
-677,437	-200,000	-0,003	-0,038
-676,422	-200,000	0,012	0,046
-675,408	-200,000	-0,001	-0,094
-674,393	490,347	0,038	0,063
-673,378	82,278	-0,179	-0,140
-672,364	-200,000	0,009	-0,154
-671,349	98,300	0,045	-0,037
-670,335	800,000	-0,026	0,057
-669,320	354,833	0,081	-0,117
-668,305	192,306	-0,033	-0,036
-667,291	-9,342	0,014	-0,007
-666,276	20,583	-0,105	-0,061
-665,262	-11,087	-0,129	-0,061
-664,247	329,407	-0,077	0,108
-663,232	721,012	-0,008	-0,016
-662,218	800,000	-0,084	0,198
-661,203	-200,000	-0,049	0,174
-660,189	-56,115	-0,190	0,061
-659,174	677,205	0,046	0,087
-658,159	74,296	-0,052	-0,040
-657,145	-200,000	-0,011	-0,051
-656,130	-200,000	0,025	0,100
-655,116	481,959	0,006	-0,009
-654,101	-108,250	0,076	0,012
-653,086	-15,600	0,087	0,040
-652,072	-96,180	-0,092	0,018
-651,057	15,668	-0,046	0,026
-650,043	-76,746	-0,096	0,024
-649,028	-166,142	-0,052	0,002
-648,014	304,011	-0,005	-0,007
-646,999	-77,407	0,057	0,014
-645,984	-81,278	0,117	-0,028
-644,970	154,962	-0,044	0,043
-643,955	91,314	0,079	-0,064
-642,941	641,056	-0,058	0,108
-641,926	800,000	-0,038	0,099
-640,911	-200,000	-0,045	-0,159
-639,897	-119,947	0,161	-0,020
-638,882	40,899	0,122	-0,079
-637,868	104,574	0,062	0,053
-636,853	800,000	-0,050	-0,117
-635,838	-16,037	0,016	0,007
-634,824	36,993	-0,118	0,076
-633,809	-166,534	-0,069	-0,002
-632,795	391,074	0,025	0,038
-631,780	126,195	-0,096	-0,088
-630,765	-200,000	0,027	-0,143
-629,751	-200,000	0,008	-0,086
-628,736	88,479	0,104	-0,083
-627,722	83,885	0,143	-0,113
-626,707	7,404	-0,184	0,100
-625,692	-95,761	0,083	0,016
-624,678	489,820	-0,069	-0,114
-623,663	800,000	0,056	0,150
-622,649	93,012	-0,074	-0,060
-621,634	-200,000	0,002	-0,032
-620,619	20,387	-0,122	-0,071
-619,605	800,000	0,022	0,047
-618,590	142,201	0,011	-0,010
-617,576	-200,000	0,002	-0,049
-616,561	305,921	-0,115	0,156
-615,546	-12,782	-0,111	-0,052
-614,532	152,272	-0,134	-0,133
-613,517	-200,000	0,036	-0,128
-612,503	405,236	0,035	0,053
-611,488	0,022	0,026	0,013
-610,474	-200,000	0,030	0,204
-609,459	332,953	0,124	0,174
-608,444	18,325	-0,033	0,019
-607,430	-200,000	-0,030	-0,135
-606,415	329,871	0,028	-0,039
-605,401	-200,000	-0,000	0,063
-604,386	-200,000	-0,057	0,206
-603,371	583,223	-0,033	0,058
-602,357	-82,248	-0,084	0,020
-601,342	800,000	-0,020	0,060
-600,328	-97,310	-0,110	-0,021
-599,313	273,848	-0,036	0,046
-598,298	-3,760	0,052	-0,026
-597,284	-126,612	0,100	0,011
-596,269	49,469	-0,075	0,051
-595,255	218,554	-0,034	0,040
-594,240	800,000	-0,059	-0,159
-593,225	84,209	-0,114	-0,090
-592,211	-200,000	-0,005	-0,075
-591,196	48,288	-0,138	-0,093
-590,182	-200,000	0,004	0,087
-589,167	231,917	-0,011	-0,013
-588,152	-56,952	-0,034	-0,011
-587,138	216,451	0,030	-0,035
-586,123	515,661	0,060	-0,101
-585,109	800,000	-0,085	-0,172
-584,094	-200,000	0,005	0,073
-583,079	-60,815	0,185	-0,056
-582,065	-12,965	-0,065	0,030
-581,050	-89,959	-0,111	0,023
-580,036	634,536	-0,115	-0,212
-579,021	218,142	0,034	-0,039
-578,006	-200,000	0,012	-0,129
-576,992	57,450	0,048	-0,034
-575,977	74,576	0,046	-0,035
-574,963	188,778	-0,045	0,049
-573,948	-200,000	0,019	-0,066
-572,934	213,834	-0,015	-0,017
-571,919	800,000	-0,035	0,086
-570,904	434,749	-0,065	0,103
-569,890	24,055	0,082	0,049
-568,875	352,040	0,127	-0,182
-567,861	-200,000	0,011	0,071
-566,846	800,000	-0,055	0,124
-565,831	-124,818	0,253	0,028
-564,817	-200,000	0,018	-0,065
-563,802	-76,428	0,157	-0,040
-562,788	800,000	-0,041	0,083
-561,773	-33,603	-0,167	0,066
-560,758	18,296	0,046	0,027
-559,744	800,000	0,025	0,076
-558,729	217,404	0,056	0,065
-557,715	800,000	-0,075	0,226
-556,700	-200,000	-0,002	0,109
-555,685	-135,824	-0,051	-0,004
-554,671	450,366	-0,060	0,096
-553,656	-200,000	-0,020	0,074
-552,642	-29,204	0,022	-0,009
-551,627	106,933	-0,044	-0,038
-550,612	-67,990	0,043	0,012
-549,598	-200,000	-0,052	-0,166
-548,583	680,921	0,071	-0,135
-547,569	-200,000	-0,056	-0,195
-546,554	-200,000	-0,023	-0,116
-545,539	282,178	0,080	0,104
-544,525	512,315	-0,060	-0,101
-543,510	-83,880	-0,065	-0,015
-542,496	-132,476	-0,194	-0,018
-541,481	-200,000	-0,004	-0,061
-540,466	515,022	0,034	-0,058
-539,452	-200,000	-0,028	0,142
-538,437	-200,000	-0,003	0,145
-537,423	199,502	-0,026	0,029
-536,408	126,074	-0,030	-0,028
-535,393	800,000	-0,045	0,093
-534,379	800,000	-0,028	-0,056
-533,364	-63,197	0,025	0,007
-532,350	389,327	-0,061	-0,092
-531,335	-200,000	0,001	0,061
-530,321	187,592	0,093	0,101
-529,306	-200,000	0,019	0,060
-528,291	800,000	-0,038	-0,118
-527,277	-55,350	0,173	-0,056
-526,262	91,288	-0,097	-0,078
-525,248	800,000	0,044	-0,110
-524,233	-93,976	-0,124	0,024
-523,218	-59,556	-0,094	0,029
-522,204	800,000	0,051	0,107
-521,189	52,411	0,075	-0,051
-520,175	-58,438	-0,141	-0,044
-519,160	-69,395	-0,021	0,006
-518,145	600,870	0,044	0,079
-517,131	-112,466	0,203	0,029
-516,116	-200,000	0,021	-0,079
-515,102	254,114	-0,043	-0,053
-514,087	641,868	-0,015	-0,028
-513,072	298,366	-0,035	-0,047
-512,058	-200,000	0,016	0,152
-511,043	81,633	0,114	0,088
-510,029	36,800	-0,025	-0,016
-509,014	151,290	0,065	0,063
-507,999	-200,000	0,000	-0,021
-506,985	6,475	-0,085	0,045
-505,970	-200,000	0,000	0,009
-504,956	-111,562	0,122	-0,018
-503,941	-200,000	-0,005	-0,049
-502,926	800,000	-0,057	0,178
-501,912	800,000	0,057	0,121
-500,897	172,515	0,046	-0,048
-499,883	-94,207	-0,076	0,015
-498,868	-200,000	-0,005	-0,071
-497,853	92,648	-0,091	-0,074
-496,839	150,844	-0,039	0,038
-495,824	125,529	0,073	0,067
-494,810	-140,231	0,168	0,012
-493,795	-4,530	0,066	-0,033
-492,781	157,025	-0,104	-0,104
-491,766	-112,913	-0,064	-0,009
-490,751	26,858	-0,211	0,127
-489,737	-112,738	-0,055	0,008
-488,722	-200,000	-0,004	0,056
-487,708	401,956	0,071	-0,108
-486,693	774,872	-0,038	-0,075
-485,678	-24,309	0,018	0,008
-484,664	-31,637	0,059	-0,024
-483,649	573,433	-0,124	-0,218
-482,635	-200,000	-0,037	-0,124
-481,620	-60,823	0,139	0,042
-480,605	-200,000	0,009	-0,029
-479,591	-200,000	-0,032	0,114
-478,576	800,000	-0,032	0,092
-477,562	432,552	-0,034	0,053
-476,547	-200,000	0,008	-0,073
-475,532	114,563	-0,026	-0,023
-474,518	218,670	0,078	-0,089
-473,503	-31,457	-0,034	-0,014
-472,489	23,785	-0,064	0,038
-471,474	192,170	0,030	-0,033
-470,459	434,140	0,048	-0,076
-469,445	-51,931	-0,114	-0,038
-468,430	400,474	0,063	0,095
-467,416	-7,550	-0,137	-0,066
-466,401	-200,000	-0,002	-0,083
-465,386	-97,681	-0,015	0,003
-464,372	-176,275	0,244	-0,004
-463,357	800,000	0,062	-0,128
-462,343	-200,000	0,008	-0,140
-461,328	-15,009	0,078	-0,036
-460,313	69,508	-0,049	-0,036
-459,299	47,244	0,040	-0,027
-458,284	-200,000	0,013	0,079
-457,270	129,279	0,120	0,111
-456,255	-97,198	-0,087	-0,016
-455,241	-200,000	-0,009	-0,081
-454,226	-200,000	-0,027	0,133
-453,211	-200,000	0,011	0,036
-452,197	800,000	0,051	-0,109
-451,182	-200,000	0,001	0,040
-450,168	119,379	-0,122	0,109
-449,153	-166,832	0,111	-0,003
-448,138	34,186	-0,069	-0,043
-447,124	-200,000	0,010	-0,070
-446,109	800,000	-0,034	0,069
-445,095	198,943	0,055	0,061
-444,080	178,183	-0,023	0,024
-443,065	800,000	0,077	0,172
-442,051	-126,156	-0,063	-0,007
-441,036	-200,000	-0,040	-0,137
-440,022	-200,000	0,000	-0,075
-439,007	-13,006	-0,109	0,051
-437,992	-63,894	0,103	-0,030
-436,978	-124,933	0,081	-0,009
-435,963	-200,000	0,038	0,127
-434,949	800,000	0,010	0,026
-433,934	-200,000	0,007	-0,023
-432,919	-200,000	-0,024	-0,086
-431,905	74,481	-0,188	0,142
-430,890	-200,000	-0,034	0,000
-429,876	51,869	0,123	-0,084
-428,861	-200,000	-0,006	-0,024
-427,846	800,000	0,027	0,055
-426,832	-6,165	-0,120	0,059
-425,817	48,103	0,104	-0,070
-424,803	-121,739	0,049	0,006
-423,788	-161,723	0,128	-0,005
-422,773	-141,704	0,126	0,009
-421,759	-200,000	-0,043	0,148
-420,744	-95,358	0,018	0,003
-419,730	-98,582	-0,096	0,017
-418,715	363,488	-0,043	-0,062
-417,701	196,923	0,113	-0,124
-416,686	24,765	0,015	-0,009
-415,671	800,000	0,025	-0,073
-414,657	-200,000	0,017	-0,071
-413,642	105,901	0,109	0,093
-412,628	800,000	0,024	-0,065
-411,613	-45,303	-0,049	0,017
-410,598	-62,070	-0,116	-0,034
-409,584	800,000	-0,009	-0,020
-408,569	-175,095	-0,055	-0,001
-407,555	-154,753	0,107	-0,005
-406,540	-200,000	0,027	-0,216
-405,525	-21,894	0,069	-0,030
-404,511	608,058	-0,048	-0,087
-403,496	-132,791	-0,115	0,010
-402,482	531,816	-0,010	0,017
-401,467	-78,634	0,047	-0,011
-400,452	800,000	-0,082	0,187
-399,438	-190,258	0,063	0,000
-398,423	-200,000	-0,002	-0,062
-397,409	35,724	-0,156	-0,098
-396,394	-200,000	0,084	0,000
-395,379	231,099	0,054	-0,064
-394,365	154,559	0,043	0,043
-393,350	217,884	-0,052	0,060
-392,336	-200,000	0,011	-0,098
-391,321	218,659	0,045	0,052
-390,306	46,906	0,079	-0,053
-389,292	354,306	-0,035	0,051
-388,277	-145,032	0,099	0,006
-387,263	-159,019	-0,023	0,001
-386,248	-200,000	-0,002	-0,083
-385,233	-200,000	0,004	0,070
-384,219	-66,209	-0,082	0,023
-383,204	-200,000	0,007	-0,036
-382,190	91,375	-0,012	0,010
-381,175	203,262	-0,058	-0,065
-380,160	-78,654	-0,103	0,025
-379,146	63,765	0,042	0,030
-378,131	-200,000	-0,007	-0,040
-377,117	217,646	-0,062	-0,071
-376,102	164,054	-0,094	-0,095
-375,088	50,182	-0,069	-0,047
-374,073	-108,469	0,124	-0,019
-373,058	800,000	-0,002	-0,005
-372,044	-200,000	0,004	0,115
-371,029	354,595	0,124	0,177
-370,015	6,837	-0,157	0,083
-369,000	-99,724	-0,056	0,010
-367,985	-200,000	0,001	-0,038
-366,971	192,947	0,032	-0,035
-365,956	800,000	-0,011	-0,031
-364,942	-133,055	0,132	0,012
-363,927	67,299	0,137	-0,100
-362,912	-200,000	0,015	0,084
-361,898	-200,000	0,017	-0,072
-360,883	-64,235	-0,102	0,030
-359,869	633,650	0,042	0,077
-358,854	-43,599	-0,059	-0,021
-357,839	-114,251	0,025	0,003
-356,825	800,000	-0,040	-0,109
-355,810	-14,063	0,042	0,019
-354,796	-200,000	0,039	0,150
-353,781	-139,868	0,050	-0,004
-352,766	460,935	-0,043	-0,068
-351,752	-200,000	-0,016	-0,074
-350,737	-67,585	0,192	0,054
-349,723	617,383	0,090	0,162
-348,708	640,511	0,019	0,034
-347,693	-136,877	-0,077	0,006
-346,679	306,804	-0,088	-0,118
-345,664	269,181	0,043	0,054
-344,650	37,830	0,125	0,079
-343,635	59,213	0,095	-0,067
-342,620	20,171	-0,044	0,025
-341,606	-125,632	0,064	0,007
-340,591	800,000	-0,036	-0,087
-339,577	301,901	0,028	-0,037
-338,562	149,028	-0,039	0,038
-337,548	800,000	0,070	-0,143
-336,533	62,965	-0,075	0,053
-335,518	159,446	0,055	0,055
-334,504	14,299	0,170	-0,095
-333,489	205,252	0,046	0,051
-332,475	147,354	-0,070	-0,068
-331,460	-186,169	0,086	0,001
-330,445	30,657	0,057	0,035
-329,431	-171,113	0,042	0,001
-328,416	160,907	0,026	-0,026
-327,402	800,000	0,043	-0,125
-326,387	299,248	0,056	0,074
-325,372	13,355	-0,093	0,051
-324,358	-200,000	0,020	-0,145
-323,343	324,442	-0,044	-0,060
-322,329	-200,000	0,013	-0,103
-321,314	-48,385	0,121	-0,042
-320,299	-92,265	0,077	0,015
-319,285	-13,575	0,077	0,035
-318,270	-200,000	-0,008	-0,077
-317,256	79,766	-0,044	0,034
-316,241	-17,345	0,055	0,025
-315,226	407,920	0,045	-0,069
-314,212	172,244	-0,072	0,074
-313,197	-93,943	0,094	-0,018
-312,183	800,000	-0,038	-0,104
-311,168	-41,066	-0,097	0,036
-310,153	40,068	-0,056	-0,036
-309,139	43,912	0,071	0,047
-308,124	223,626	-0,061	-0,070
-307,110	583,914	-0,062	0,109
-306,095	415,350	0,044	0,067
-305,080	800,000	0,012	0,037
-304,066	507,883	0,030	0,050
-303,051	239,563	-0,096	-0,115
-302,037	-42,653	0,049	0,018
-301,022	-87,254	0,079	-0,017
-300,008	-16,735	0,088	0,040
-298,993	32,341	-0,057	0,035
-297,978	289,222	-0,044	-0,057
-296,964	1,071	0,077	-0,040
-295,949	128,709	-0,059	-0,054
-294,935	32,485	0,038	-0,023
-293,920	-200,000	-0,154	-0,000
-292,905	13,629	0,141	-0,078
-291,891	-57,402	0,059	-0,018
-290,876	-113,819	0,097	-0,013
-289,862	-20,673	0,040	-0,017
-288,847	5,240	-0,121	-0,063
-287,832	-129,623	0,106	0,010
-286,818	-200,000	0,000	0,081
-285,803	-200,000	0,008	0,040
-284,789	500,371	0,023	0,038
-283,774	132,338	-0,055	0,051
-282,759	-192,364	0,068	0,000
-281,745	207,687	-0,104	-0,116
-280,730	187,354	-0,036	-0,039
-279,716	-200,000	0,030	0,100
-278,701	-200,000	0,006	0,020
-277,686	-99,598	0,108	0,019
-276,672	-44,658	-0,042	0,015
-275,657	303,858	0,025	-0,033
-274,643	-200,000	-0,001	-0,002
-273,628	800,000	-0,032	-0,091
-272,613	91,350	-0,072	-0,057
-271,599	567,606	0,052	-0,091
-270,584	-89,315	0,027	-0,006
-269,570	45,171	-0,037	-0,024
-268,555	171,053	0,054	0,056
-267,540	-99,544	0,103	-0,018
-266,526	-67,345	-0,173	-0,048
-265,511	-1,813	0,041	0,020
-264,497	-200,000	-0,019	0,080
-263,482	-113,801	0,071	0,010
-262,467	475,055	0,073	0,118
-261,453	3,908	0,037	-0,019
-260,438	-200,000	-0,010	-0,073
-259,424	89,331	-0,041	-0,033
-258,409	-200,000	0,013	0,073
-257,395	279,097	0,029	-0,037
-256,380	-52,148	0,082	0,027
-255,365	-46,579	-0,088	-0,031
-254,351	-200,000	-0,008	0,189
-253,336	214,149	-0,089	0,101
-252,322	81,700	-0,062	-0,048
-251,307	11,730	-0,122	-0,066
-250,292	-14,234	0,101	0,046
-249,278	800,000	-0,027	0,083
-248,263	298,723	-0,038	0,050
-247,249	75,559	0,019	0,014
-246,234	-200,000	-0,015	-0,049
-245,219	-108,537	-0,041	0,006
-244,205	-200,000	-0,002	-0,021
-243,190	147,718	0,108	0,104
-242,176	-12,626	0,081	0,037
-241,161	48,161	-0,118	-0,079
-240,146	237,831	0,055	-0,065
-239,132	126,250	-0,149	-0,134
-238,117	49,446	-0,088	0,059
-237,103	-19,881	0,078	0,034
-236,088	34,211	0,022	0,014
-235,073	800,000	0,068	0,161
-234,059	-58,649	-0,110	-0,034
-233,044	800,000	-0,033	0,099
-232,030	-200,000	0,014	-0,052
-231,015	-22,014	-0,152	0,065
-230,000	-200,000	0,001	0,003
-228,986	-103,718	0,075	-0,012
-227,971	245,192	-0,028	0,033
-226,957	252,412	0,051	-0,062
-225,942	-200,000	0,003	0,060
-224,927	11,820	0,055	0,030
-223,913	158,694	0,017	0,017
-222,898	27,977	-0,050	-0,030
-221,884	29,479	0,017	0,010
-220,869	-2,848	0,158	0,078
-219,855	30,252	-0,061	0,037
-218,840	55,590	0,052	0,036
-217,825	-46,625	-0,049	0,017
-216,811	-200,000	0,039	-0,201
-215,796	124,169	-0,043	-0,039
-214,782	149,429	-0,060	-0,058
-213,767	-6,686	-0,041	-0,020
-212,752	101,826	-0,065	-0,054
-211,738	21,858	0,062	0,036
-210,723	-200,000	0,002	0,025
-209,709	800,000	0,026	0,055
-208,694	-200,000	-0,023	0,191
-207,679	-200,000	-0,029	0,105
-206,665	800,000	0,004	0,011
-205,650	53,820	0,106	0,073
-204,636	-200,000	0,017	0,264
-203,621	232,579	-0,046	0,054
-202,606	-170,554	0,042	-0,001
-201,592	-178,381	-0,079	-0,001
-200,577	-166,921	-0,126	-0,004
-199,563	800,000	0,041	-0,121
-198,548	28,497	0,032	0,019
-197,533	398,538	-0,095	0,141
-196,519	-32,940	0,168	0,066
-195,504	-38,490	-0,202	0,076
-194,490	60,146	-0,029	0,020
-193,475	-38,062	-0,160	0,060
-192,460	137,068	0,020	0,019
-191,446	90,058	0,119	0,095
-190,431	-90,787	0,099	0,020
-189,417	92,432	0,065	0,052
-188,402	-15,464	-0,159	-0,072
-187,387	159,565	0,019	0,019
-186,373	-200,000	-0,022	-0,090
-185,358	2,584	-0,187	0,096
-184,344	-50,655	0,123	0,041
-183,329	-95,266	-0,137	0,026
-182,315	-200,000	-0,035	-0,147
-181,300	539,203	-0,025	0,043
-180,285	800,000	-0,013	-0,038
-179,271	-200,000	0,007	0,131
-178,256	381,707	0,022	-0,033
-177,242	-200,000	0,001	-0,075
-176,227	-200,000	-0,013	0,054
-175,212	-200,000	0,007	0,124
-174,198	0,538	0,044	-0,022
-173,183	800,000	-0,041	0,098
-172,169	800,000	-0,050	0,107
-171,154	-103,934	-0,093	0,015
-170,139	-77,620	0,105	0,026
-169,125	800,000	-0,015	0,046
-168,110	144,024	-0,079	0,075
-167,096	-121,156	-0,074	0,009
-166,081	-86,348	0,163	-0,035
-165,066	-200,000	-0,012	-0,144
-164,052	257,315	0,067	0,082
-163,037	66,921	0,048	0,035
-162,023	571,032	-0,020	-0,034
-161,008	150,411	-0,071	0,069
-159,993	-54,291	-0,070	0,022
-158,979	800,000	-0,074	-0,155
-157,964	438,665	-0,052	-0,081
-156,950	-67,708	0,103	-0,028
-155,935	704,797	-0,048	-0,091
-154,920	800,000	0,058	0,156
-153,906	149,189	0,049	0,047
-152,891	46,076	0,013	-0,009
-151,877	-200,000	-0,005	0,166
-150,862	159,566	0,094	0,093
-149,847	148,459	-0,028	0,027
-148,833	337,120	-0,063	-0,087
-147,818	-68,404	-0,047	0,013
-146,804	359,249	0,050	0,071
-145,789	-200,000	0,010	0,142
-144,775	800,000	0,034	-0,069
-143,760	-200,000	0,006	-0,023
-142,745	20,391	0,069	0,040
-141,731	800,000	0,044	0,132
-140,716	-194,344	0,133	-0,001
-139,702	-148,068	0,195	-0,011
-138,687	263,539	-0,042	-0,053
-137,672	533,621	-0,019	0,032
-136,658	115,594	0,009	-0,008
-135,643	272,926	-0,138	-0,173
-134,629	800,000	-0,026	0,078
-133,614	750,080	0,051	0,098
-132,599	131,320	-0,060	0,055
-131,585	-200,000	-0,024	0,121
-130,570	-200,000	-0,006	0,057
-129,556	130,838	-0,108	-0,098
-128,541	79,862	-0,107	-0,081
-127,526	-200,000	0,001	-0,142
-126,512	-54,647	-0,100	0,032
-125,497	213,035	0,055	-0,062
-124,483	4,433	0,079	-0,041
-123,468	686,369	0,037	-0,068
-122,453	396,301	-0,008	0,012
-121,439	-83,606	-0,046	-0,010
-120,424	108,648	0,040	-0,034
-119,410	100,894	-0,054	0,045
-118,395	-2,419	0,038	-0,019
-117,380	-133,524	0,129	-0,011
-116,366	432,587	0,017	-0,026
-115,351	-200,000	-0,018	0,136
-114,337	-75,021	-0,225	-0,057
-113,322	-200,000	0,007	-0,077
-112,307	-200,000	0,019	0,125
-111,293	137,867	0,025	0,023
-110,278	-200,000	0,005	0,044
-109,264	-193,529	-0,136	0,001
-108,249	684,563	0,015	-0,028
-107,234	-200,000	-0,036	-0,136
-106,220	345,140	-0,055	-0,077
-105,205	-184,928	0,133	0,001
-104,191	-200,000	0,001	-0,051
-103,176	117,875	0,057	-0,050
-102,162	-123,462	-0,145	0,016
-101,147	-116,391	-0,096	-0,012
-100,132	43,348	0,063	-0,041
-99,118	-50,556	0,091	0,030
-98,103	800,000	0,050	0,148
-97,089	800,000	0,048	0,146
-96,074	-200,000	-0,008	-0,028
-95,059	213,397	0,112	0,126
-94,045	97,628	-0,086	0,070
-93,030	800,000	0,065	-0,166
-92,016	799,165	0,030	-0,058
-91,001	-166,882	0,032	0,001
-89,986	68,513	0,080	-0,058
-88,972	118,611	0,015	-0,014
-87,957	-200,000	-0,006	-0,028
-86,943	108,099	0,137	-0,116
-85,928	-200,000	-0,031	-0,172
-84,913	111,182	0,101	-0,086
-83,899	-200,000	-0,039	0,125
-82,884	-151,534	0,034	0,002
-81,870	1,667	0,043	-0,022
-80,855	-63,710	-0,043	-0,012
-79,840	-200,000	0,022	0,071
-78,826	-200,000	-0,016	-0,053
-77,811	800,000	-0,022	0,068
-76,797	-200,000	-0,018	-0,108
-75,782	151,156	-0,048	-0,046
-74,767	-91,463	0,127	-0,026
-73,753	-200,000	-0,010	0,065
-72,738	18,559	-0,097	-0,055
-71,724	-200,000	0,007	0,025
-70,709	41,033	0,061	0,039
-69,694	72,881	-0,078	-0,057
-68,680	-112,688	-0,055	0,008
-67,665	346,038	0,042	-0,059
-66,651	122,818	0,058	0,051
-65,636	489,436	0,052	0,085
-64,622	432,995	-0,023	-0,035
-63,607	-200,000	-0,008	0,039
-62,592	800,000	-0,025	0,052
-61,578	-200,000	-0,001	0,006
-60,563	45,432	-0,035	-0,023
-59,549	-152,146	-0,184	0,009
-58,534	-18,688	-1,599	-0,703
-57,519	405,866	-1,344	-2,014
-56,505	-200,000	-0,754	-4,613
-55,490	172,967	0,990	1,012
-54,476	800,000	4,929	11,511
-53,461	-200,000	18,929	313,089
-52,446	-200,000	739,205	2322,270
-51,432	574,299	1655,557	2871,939
-50,417	79,048	1671,484	1266,444
-49,403	21,889	1544,340	889,111
-48,388	15,757	1467,056	814,790
-47,373	17,853	1457,209	819,426
-46,359	16,900	1446,841	808,990
-45,344	14,048	1442,614	792,928
-44,330	13,936	1440,729	791,325
-43,315	13,967	1438,850	790,408
-42,300	13,985	1436,919	789,401
-41,286	14,021	1435,771	788,912
-40,271	14,012	1434,493	788,136
-39,257	13,957	1433,389	787,234
-38,242	13,944	1432,208	786,494
-37,227	14,001	1430,987	786,063
-36,213	14,009	1429,599	785,308
-35,198	14,015	1428,475	784,688
-34,184	14,031	1427,712	784,313
-33,169	13,980	1426,213	783,216
-32,154	13,964	1425,244	782,578
-31,140	14,029	1423,614	781,961
-30,125	14,026	1422,800	781,465
-29,111	14,026	1421,490	780,718
-28,096	13,964	1420,503	779,853
-27,082	13,980	1419,315	779,243
-26,067	13,905	1418,311	778,309
-25,052	13,957	1416,957	777,778
-24,038	13,904	1416,279	777,123
-23,023	13,886	1415,152	776,393
-22,009	13,876	1414,283	775,836
-20,994	13,850	1413,489	775,247
-19,979	13,859	1412,401	774,666
-18,965	13,840	1411,601	774,104
-17,950	13,858	1410,704	773,666
-16,936	13,844	1409,684	773,012
-15,921	13,789	1408,744	772,209
-14,906	13,806	1407,812	771,745
-13,892	13,836	1406,605	771,193
-12,877	13,816	1405,877	770,669
-11,863	13,814	1404,953	770,124
-10,848	13,799	1404,164	769,590
-9,833	13,795	1403,225	769,027
-8,819	13,795	1402,203	768,435
-7,804	13,721	1401,591	767,728
-6,790	13,722	1400,232	766,956
-5,775	13,723	1399,544	766,554
-4,760	13,748	1398,471	766,051
-3,746	13,714	1397,489	765,325
-2,731	13,707	1396,824	764,899
-1,717	13,715	1395,781	764,331
-0,702	13,750	1393,933	763,451
0,313	17,499	1311,507	735,723
1,327	33,644	705,438	433,128
2,342	51,570	123,861	83,189
3,356	4,830	16,639	8,629
4,371	4,591	3,122	1,616
5,386	-21,822	0,622	0,267
6,400	383,980	0,178	0,260
7,415	-68,193	-0,300	-0,082
8,429	13,063	-0,309	-0,169
9,444	244,653	-0,309	-0,368
10,459	673,843	-0,212	-0,390
11,473	700,886	-0,151	-0,282
12,488	221,007	-0,191	-0,217
13,502	130,975	-0,228	-0,207
14,517	68,305	-0,405	-0,293
15,531	100,842	-0,432	-0,354
16,546	98,779	-0,324	-0,264
17,561	124,541	-0,331	-0,294
18,575	21,998	-0,364	-0,209
19,590	131,424	-0,243	-0,221
20,604	106,187	-0,240	-0,200
21,619	152,454	-0,425	-0,411
22,634	142,264	-0,281	-0,264
23,648	13,403	-0,496	-0,271
24,663	145,727	-0,252	-0,238
25,677	145,073	-0,322	-0,304
26,692	-0,081	-0,369	-0,185
27,707	50,933	-0,442	-0,295
28,721	46,236	-0,436	-0,285
29,736	-26,082	-0,448	-0,185
30,750	30,781	-0,439	-0,264
31,765	800,000	-0,176	-0,383
32,780	116,449	-0,418	-0,362
33,794	50,642	-0,318	-0,212
34,809	31,632	-0,431	-0,261
35,823	45,520	-0,424	-0,276
36,838	106,389	-0,421	-0,352
37,853	26,562	-0,465	-0,274
38,867	144,176	-0,403	-0,379
39,882	-46,586	-0,373	-0,128
40,896	115,316	-0,299	-0,257
41,911	56,158	-0,431	-0,295
42,926	59,808	-0,317	-0,221
43,940	50,884	-0,387	-0,258
44,955	79,615	-0,385	-0,291
45,969	55,427	-0,365	-0,249
46,984	147,296	-0,331	-0,315
47,999	138,452	-0,212	-0,196
49,013	-57,044	-0,274	-0,085
50,028	-117,762	-0,434	-0,054
51,042	170,139	-0,308	-0,310
52,057	228,843	-0,292	-0,337
53,071	134,553	-0,258	-0,236
54,086	153,037	-0,315	-0,304
55,101	-58,410	-0,325	-0,099
56,115	-47,027	-0,342	-0,117
57,130	107,127	-0,338	-0,282
58,144	46,259	-0,327	-0,213
59,159	57,481	-0,397	-0,273
60,174	314,933	-0,256	-0,341
61,188	-19,489	-0,367	-0,159
62,203	33,223	-0,276	-0,168
63,217	157,784	-0,264	-0,257
64,232	-100,760	-0,384	-0,066
65,247	102,259	-0,457	-0,376
66,261	64,908	-0,285	-0,202
67,276	199,922	-0,311	-0,336
68,290	37,028	-0,349	-0,217
69,305	82,699	-0,262	-0,200
70,320	126,010	-0,276	-0,246
71,334	18,396	-0,453	-0,254
72,349	15,429	-0,385	-0,212
73,363	171,590	-0,327	-0,331
74,378	138,970	-0,269	-0,249
75,393	64,789	-0,246	-0,175
76,407	-84,197	-0,236	-0,052
77,422	21,337	-0,217	-0,123
78,436	-108,479	-0,383	-0,057
79,451	-29,708	-0,321	-0,128
80,466	173,053	-0,262	-0,266
81,480	-24,950	-0,375	-0,156
82,495	71,776	-0,303	-0,221
83,509	107,704	-0,234	-0,196
84,524	88,338	-0,291	-0,227
85,539	50,695	-0,187	-0,124
86,553	78,666	-0,288	-0,216
87,568	111,721	-0,222	-0,188
88,582	213,812	-0,228	-0,254
89,597	254,563	-0,238	-0,286
90,611	-45,310	-0,363	-0,126
91,626	83,713	-0,276	-0,211
92,641	23,978	-0,199	-0,115
93,655	196,339	-0,270	-0,289
94,670	102,154	-0,274	-0,224
95,684	139,987	-0,196	-0,181
96,699	729,469	-0,196	-0,369
97,714	97,298	-0,269	-0,216
98,728	-14,515	-0,200	-0,090
99,743	83,922	-0,199	-0,153
100,757	22,962	-0,269	-0,155
101,772	259,760	-0,206	-0,250
102,787	68,809	-0,255	-0,184
103,801	66,615	-0,251	-0,179
104,816	101,130	-0,312	-0,254
105,830	43,802	-0,241	-0,154
106,845	-128,607	-0,429	0,042
107,860	-166,211	-0,344	0,010
108,874	84,913	-0,292	-0,224
109,889	11,700	-0,365	-0,196
110,903	216,239	-0,247	-0,276
111,918	61,956	-0,273	-0,191
112,933	157,933	-0,270	-0,263
113,947	83,389	-0,317	-0,241
114,962	-134,977	-0,360	-0,030
115,976	135,374	-0,308	-0,281
116,991	-28,322	-0,356	-0,143
118,006	107,122	-0,278	-0,232
119,020	-149,456	-0,371	-0,020
120,035	-5,663	-0,276	-0,132
121,049	-26,264	-0,223	-0,091
122,064	288,662	-0,204	-0,260
123,079	738,027	-0,054	-0,101
124,093	-43,035	-0,360	-0,127
125,108	110,817	-0,221	-0,186
126,122	289,469	-0,266	-0,339
127,137	267,316	-0,194	-0,239
128,151	-151,290	-0,148	0,008
129,166	49,334	-0,169	-0,111
130,181	47,856	-0,188	-0,123
131,195	338,966	-0,229	-0,313
132,210	-23,623	-0,285	-0,119
133,224	149,762	-0,274	-0,260
134,239	12,975	-0,262	-0,141
135,254	-126,614	-0,280	-0,029
136,268	-98,321	-0,376	-0,067
137,283	-42,686	-0,282	-0,100
138,297	2,991	-0,278	-0,141
139,312	146,778	-0,275	-0,258
140,327	753,631	-0,144	-0,274
141,341	166,116	-0,169	-0,167
142,356	242,263	-0,149	-0,175
143,370	609,322	-0,156	-0,273
144,385	-69,596	-0,263	-0,070
145,400	-10,395	-0,295	-0,136
146,414	107,902	-0,320	-0,266
147,429	57,153	-0,240	-0,163
148,443	800,000	-0,109	-0,251
149,458	-74,217	-0,103	-0,026
150,473	-10,182	-0,249	-0,115
151,487	-137,955	-0,231	0,018
152,502	181,403	-0,266	-0,273
153,516	124,742	-0,304	-0,267
154,531	230,845	-0,273	-0,313
155,546	-82,723	-0,214	-0,048
156,560	37,130	-0,297	-0,183
157,575	76,019	-0,334	-0,246
158,589	167,059	-0,164	-0,163
159,604	-46,851	-0,317	-0,108
160,619	142,321	-0,181	-0,167
161,633	118,232	-0,291	-0,250
162,648	-52,961	-0,337	-0,107
163,662	113,325	-0,232	-0,197
164,677	-13,683	-0,310	-0,140
165,692	-147,138	-0,326	0,019
166,706	-20,647	-0,266	-0,113
167,721	348,859	-0,203	-0,280
168,735	254,522	-0,216	-0,258
169,750	-61,614	-0,205	-0,060
170,764	159,408	-0,156	-0,152
171,779	4,558	-0,211	-0,108
172,794	128,832	-0,161	-0,143
173,808	12,805	-0,199	-0,107
174,823	58,716	-0,246	-0,168
175,837	108,572	-0,335	-0,278
176,852	234,142	-0,218	-0,251
177,867	242,282	-0,168	-0,196
178,881	448,854	-0,180	-0,278
179,896	203,173	-0,161	-0,174
180,910	47,372	-0,169	-0,109
181,925	47,466	-0,293	-0,190
182,940	58,015	-0,358	-0,244
183,954	-93,225	-0,232	-0,044
184,969	128,519	-0,171	-0,151
185,983	-154,075	-0,276	-0,013
186,998	-52,932	-0,247	-0,079
188,013	27,871	-0,178	-0,104
189,027	172,056	-0,249	-0,249
190,042	55,808	-0,305	-0,206
191,056	197,301	-0,180	-0,191
192,071	10,096	-0,273	-0,144
193,086	116,033	-0,120	-0,102
194,100	175,394	-0,245	-0,247
195,115	55,396	-0,253	-0,170
196,129	159,552	-0,262	-0,254
197,144	45,243	-0,213	-0,136
198,159	149,831	-0,199	-0,188
199,173	481,980	-0,173	-0,274
200,188	29,252	-0,243	-0,143
201,202	-175,397	-0,189	-0,004
202,217	67,463	-0,203	-0,144
203,232	279,795	-0,107	-0,134
204,246	-14,670	-0,347	-0,154
205,261	407,950	-0,231	-0,340
206,275	248,781	-0,119	-0,140
207,290	10,493	-0,091	-0,048
208,304	68,275	-0,106	-0,075
209,319	-159,102	-0,147	0,006
210,334	-30,382	-0,222	-0,087
211,348	77,250	-0,155	-0,114
212,363	144,300	-0,268	-0,249
213,377	102,984	-0,244	-0,198
214,392	-183,580	-0,177	0,002
215,407	-74,872	-0,191	0,047
216,421	8,167	-0,195	-0,102
217,436	339,363	-0,123	-0,167
218,450	414,854	-0,109	-0,162
219,465	77,968	-0,197	-0,146
220,480	86,801	-0,176	-0,135
221,494	228,429	-0,190	-0,215
222,509	54,704	-0,219	-0,146
223,523	67,429	-0,219	-0,155
224,538	-87,186	-0,109	-0,023
225,553	251,878	-0,130	-0,154
226,567	-74,203	-0,350	-0,087
227,582	-200,000	0,017	-0,116
228,596	-49,652	-0,167	-0,055
229,611	-49,119	-0,165	-0,055
230,626	72,807	-0,088	0,064
231,640	83,453	-0,186	-0,141
232,655	3,954	-0,276	-0,140
233,669	-49,990	-0,268	-0,088
234,684	-25,547	-0,275	-0,112
235,699	67,023	-0,149	-0,105
236,713	-166,969	-0,218	0,006
237,728	156,409	-0,176	-0,168
238,742	64,815	-0,183	-0,128
239,757	53,661	-0,251	-0,167
240,772	23,337	-0,242	-0,138
241,786	8,902	-0,239	-0,125
242,801	268,095	-0,186	-0,226
243,815	58,728	-0,124	-0,084
244,830	27,308	-0,157	-0,091
245,844	197,799	-0,164	-0,173
246,859	77,278	-0,186	-0,137
247,874	-49,865	-0,174	-0,057
248,888	453,766	-0,118	-0,181
249,903	-187,388	-0,184	0,002
250,917	97,805	-0,172	-0,137
251,932	287,525	-0,166	-0,209
252,947	35,880	-0,172	-0,105
253,961	86,853	-0,142	-0,108
254,976	-200,000	-0,039	-0,124
255,990	-0,623	-0,090	-0,044
257,005	290,007	-0,134	-0,169
258,020	130,796	-0,166	-0,148
259,034	32,980	-0,102	-0,061
260,049	572,103	-0,118	-0,200
261,063	228,864	-0,189	-0,214
262,078	543,750	-0,181	-0,300
263,093	247,365	-0,254	-0,297
264,107	402,273	-0,128	-0,187
265,122	-42,183	-0,221	-0,078
266,136	800,000	-0,057	-0,136
267,151	26,511	-0,132	-0,076
268,166	212,128	-0,152	-0,165
269,180	377,666	-0,111	-0,157
270,195	-45,848	-0,049	-0,017
271,209	372,901	-0,177	-0,250
272,224	67,923	-0,109	-0,077
273,239	-1,429	-0,095	-0,046
274,253	91,552	-0,195	-0,151
275,268	-20,614	-0,214	-0,091
276,282	497,716	-0,097	-0,154
277,297	126,934	-0,189	-0,166
278,312	-19,123	-0,249	-0,106
279,326	-200,000	-0,066	-0,231
280,341	800,000	0,028	-0,063
281,355	375,243	-0,148	-0,209
282,370	67,855	-0,128	-0,091
283,384	-110,510	-0,232	-0,033
284,399	380,283	-0,156	-0,222
285,414	97,699	-0,233	-0,185
286,428	-147,681	-0,226	-0,013
287,443	54,811	-0,148	0,099
288,457	-32,335	-0,239	-0,092
289,472	-114,336	-0,101	-0,013
290,487	-61,386	-0,208	-0,060
291,501	383,171	-0,123	-0,175
292,516	11,248	-0,176	-0,093
293,530	-13,583	-0,244	-0,109
294,545	800,000	-0,091	-0,276
295,560	367,686	-0,108	-0,152
296,574	30,391	-0,111	-0,065
297,589	800,000	-0,061	-0,130
298,603	650,615	-0,090	-0,159
299,618	152,035	-0,141	-0,132
300,633	133,849	-0,160	-0,143
301,647	800,000	-0,086	-0,203
302,662	11,380	-0,158	-0,083
303,676	59,856	-0,222	-0,151
304,691	62,551	-0,118	-0,081
305,706	214,218	-0,143	-0,156
306,720	149,414	-0,226	-0,211
307,735	153,777	-0,194	-0,183
308,749	39,967	-0,149	-0,092
309,764	800,000	-0,055	-0,142
310,779	800,000	-0,039	-0,095
311,793	64,504	-0,024	0,017
312,808	102,462	-0,176	-0,142
313,822	148,784	-0,158	-0,148
314,837	800,000	-0,056	-0,117
315,852	-49,292	-0,098	0,032
316,866	-200,000	-0,016	-0,182
317,881	337,297	-0,135	-0,181
318,895	348,663	-0,091	-0,124
319,910	140,429	-0,129	-0,117
320,925	58,527	-0,245	-0,165
321,939	-123,023	-0,009	-0,001
322,954	800,000	0,010	0,022
323,968	800,000	-0,041	-0,096
324,983	43,195	-0,131	-0,082
325,997	-46,446	-0,096	-0,032
327,012	-200,000	-0,068	-0,269
328,027	467,277	-0,111	-0,172
329,041	42,946	-0,099	-0,062
330,056	75,453	-0,105	-0,076
331,070	-200,000	-0,037	-0,129
332,085	-97,199	-0,166	-0,029
333,100	800,000	-0,142	-0,288
334,114	-200,000	-0,094	0,000
335,129	190,189	-0,192	-0,198
336,143	260,188	-0,097	-0,115
337,158	-86,487	-0,047	-0,010
338,173	-114,050	-0,151	-0,020
339,187	529,930	-0,034	-0,055
340,202	6,545	-0,186	-0,095
341,216	56,101	-0,181	-0,121
342,231	402,301	-0,155	-0,225
343,246	-17,255	-0,184	-0,079
344,260	-36,550	-0,197	-0,072
345,275	-92,438	-0,166	-0,032
346,289	-105,730	-0,117	0,018
347,304	-200,000	-0,073	-0,224
348,319	-158,304	-0,121	0,005
349,333	-200,000	-0,044	-0,151
350,348	416,433	-0,028	-0,041
351,362	61,659	-0,047	0,032
352,377	108,908	-0,124	-0,102
353,392	41,768	-0,200	-0,124
354,406	-70,637	-0,250	0,064
355,421	208,794	1316,468	1415,320
356,435	160,666	1477,421	1415,812
