DTS Sentinel unit serial number:	SN410029Multiplexer serial number:	ORYXHardware model number:	OX2-SRSoftware version number:	ORYX F/W v4,00 Oryx Data Collector v3.7.2.0data status	okinstallation	B3 Nyhavnadifferential loss correction	single-endedforward channel	channel 1reverse channel	N/Adate	2023/12/04time	03:17:30forward acquisition time	300,00reverse acquisition time	0,00gamma	499,1914k internal	0,3205k external	0,3205temperature offset calibration	1,0000default loss term (dB/km)	0,3820temperature slope calibration	1,0000multiplexer offset coefficient	1,0000multiplexer slope coefficient	1,0000fibre end	0,00T internal ref (°C)	12,13T ext. ref 1 (°C)	-3,09T ext. ref 2 (°C)	-3,12length (m)	temperature (°C)	Stokes	anti-Stokes-744,400	800,000	-0,110	-0,338
-743,385	800,000	-0,109	0,321
-742,371	359,943	-0,122	-0,177
-741,356	-200,000	0,062	0,354
-740,342	697,241	-0,130	-0,249
-739,327	706,119	-0,167	0,322
-738,312	-69,104	-0,361	-0,100
-737,298	273,134	0,103	0,132
-736,283	800,000	-0,162	-0,347
-735,269	-200,000	0,030	0,238
-734,254	800,000	-0,157	-0,341
-733,239	170,816	-0,211	0,220
-732,225	800,000	-0,066	-0,151
-731,210	77,734	-0,046	-0,036
-730,196	-200,000	-0,014	0,087
-729,181	-23,036	0,055	-0,024
-728,167	-1,149	0,015	-0,008
-727,152	-200,000	-0,001	0,005
-726,137	800,000	-0,014	-0,029
-725,123	597,960	-0,073	-0,132
-724,108	713,224	-0,078	-0,151
-723,094	216,208	0,004	0,004
-722,079	800,000	-0,052	-0,152
-721,064	-63,898	0,043	0,013
-720,050	141,404	0,093	0,089
-719,035	334,657	0,082	-0,116
-718,021	137,370	0,085	-0,081
-717,006	-183,125	-0,161	0,002
-715,991	-200,000	0,018	-0,228
-714,977	-5,034	-0,019	-0,009
-713,962	166,858	-0,037	-0,038
-712,948	49,702	-0,105	0,071
-711,933	408,205	-0,053	0,081
-710,918	357,794	0,050	0,073
-709,904	223,376	-0,057	-0,067
-708,889	111,686	-0,111	-0,097
-707,875	-138,538	-0,046	0,004
-706,860	-180,910	0,108	-0,002
-705,845	269,830	-0,057	0,072
-704,831	-87,010	0,061	-0,013
-703,816	-200,000	0,023	-0,084
-702,802	254,555	-0,061	-0,076
-701,787	800,000	-0,034	-0,107
-700,772	796,828	0,045	0,091
-699,758	66,995	0,027	-0,020
-698,743	8,059	-0,071	-0,039
-697,729	-200,000	0,024	-0,117
-696,714	428,258	-0,067	-0,105
-695,699	8,117	-0,043	-0,023
-694,685	-200,000	-0,023	-0,216
-693,670	800,000	-0,050	-0,106
-692,656	87,811	0,088	-0,071
-691,641	-200,000	-0,008	-0,037
-690,627	-200,000	0,038	0,209
-689,612	-200,000	-0,000	-0,011
-688,597	264,925	-0,116	-0,147
-687,583	13,923	-0,037	0,021
-686,568	-200,000	0,004	-0,082
-685,554	800,000	-0,051	-0,104
-684,539	75,117	0,067	0,051
-683,524	113,591	-0,052	0,045
-682,510	-57,508	-0,113	0,036
-681,495	128,155	-0,050	-0,046
-680,481	173,813	0,054	-0,057
-679,466	800,000	-0,066	-0,180
-678,451	-51,203	0,063	-0,021
-677,437	196,869	0,035	-0,039
-676,422	-200,000	0,004	-0,090
-675,408	510,084	-0,056	0,094
-674,393	35,841	0,035	0,022
-673,378	-45,847	-0,167	0,059
-672,364	800,000	-0,016	0,040
-671,349	342,798	-0,062	-0,088
-670,335	736,242	-0,053	-0,104
-669,320	-24,728	0,062	0,027
-668,305	-200,000	-0,035	0,182
-667,291	-116,710	-0,138	0,018
-666,276	-200,000	0,013	-0,063
-665,262	173,425	-0,124	-0,129
-664,247	175,588	0,021	0,022
-663,232	800,000	0,030	0,073
-662,218	-99,138	0,024	0,004
-661,203	-200,000	-0,020	0,086
-660,189	619,177	0,017	0,030
-659,174	-26,014	-0,031	-0,013
-658,159	40,293	-0,081	-0,052
-657,145	-200,000	0,004	-0,087
-656,130	-148,308	-0,165	-0,010
-655,116	-200,000	0,007	-0,106
-654,101	-83,378	0,118	0,027
-653,086	4,516	0,042	-0,022
-652,072	800,000	0,041	0,085
-651,057	-124,009	-0,064	0,007
-650,043	-200,000	0,000	-0,027
-649,028	800,000	-0,057	-0,138
-648,014	-78,373	-0,074	-0,018
-646,999	553,800	0,117	0,205
-645,984	254,338	0,049	-0,061
-644,970	-200,000	0,016	-0,071
-643,955	734,710	0,094	-0,182
-642,941	-99,152	-0,123	-0,022
-641,926	-155,656	0,121	-0,006
-640,911	-200,000	-0,013	-0,178
-639,897	-200,000	0,000	0,102
-638,882	63,060	0,019	0,014
-637,868	395,855	-0,049	0,074
-636,853	47,852	-0,076	-0,051
-635,838	-24,560	-0,043	0,019
-634,824	57,778	-0,040	-0,028
-633,809	800,000	0,075	0,188
-632,795	-4,437	0,123	-0,061
-631,780	490,152	-0,123	0,204
-630,765	-10,325	0,142	0,068
-629,751	-73,719	0,074	0,019
-628,736	-120,421	-0,157	0,019
-627,722	-100,013	0,077	-0,014
-626,707	78,104	0,022	0,017
-625,692	118,318	-0,022	-0,020
-624,678	100,310	-0,015	-0,012
-623,663	741,792	-0,025	0,049
-622,649	327,525	-0,022	-0,030
-621,634	15,919	-0,055	-0,031
-620,619	-200,000	0,000	-0,072
-619,605	778,574	0,027	0,053
-618,590	77,198	0,038	0,029
-617,576	35,440	-0,107	0,068
-616,561	-132,662	0,094	0,009
-615,546	140,275	-0,061	-0,059
-614,532	-138,683	-0,166	-0,013
-613,517	-200,000	-0,032	0,117
-612,503	0,473	-0,041	-0,021
-611,488	207,011	-0,103	-0,116
-610,474	586,107	0,044	0,078
-609,459	-200,000	0,016	0,161
-608,444	106,031	0,014	0,012
-607,430	800,000	-0,031	-0,098
-606,415	-32,204	0,080	0,032
-605,401	-200,000	0,015	-0,130
-604,386	-200,000	-0,015	0,068
-603,371	-12,745	-0,138	0,065
-602,357	-105,924	0,139	0,022
-601,342	-200,000	-0,007	-0,027
-600,328	-44,960	0,012	0,004
-599,313	-146,722	-0,133	0,008
-598,298	-23,121	0,157	-0,068
-597,284	16,263	0,031	-0,018
-596,269	140,645	-0,122	0,116
-595,255	800,000	-0,032	-0,081
-594,240	-141,323	-0,054	-0,004
-593,225	205,745	0,087	-0,097
-592,211	800,000	0,060	-0,139
-591,196	-105,698	-0,008	0,001
-590,182	-200,000	0,004	-0,022
-589,167	-1,783	0,047	0,024
-588,152	276,297	0,020	-0,025
-587,138	204,215	0,128	0,144
-586,123	70,150	-0,057	-0,043
-585,109	87,549	-0,021	0,017
-584,094	296,658	0,045	-0,060
-583,079	-39,397	-0,162	0,061
-582,065	302,942	-0,068	0,091
-581,050	800,000	0,029	0,083
-580,036	800,000	0,036	0,078
-579,021	-161,957	-0,099	0,004
-578,006	-87,584	-0,088	0,019
-576,992	98,166	-0,048	0,040
-575,977	-200,000	0,004	0,065
-574,963	-69,935	0,119	0,032
-573,948	176,928	-0,047	-0,050
-572,934	-128,831	0,201	-0,020
-571,919	565,958	-0,111	-0,195
-570,904	-200,000	-0,007	-0,127
-569,890	-97,914	-0,051	-0,009
-568,875	-200,000	-0,008	0,122
-567,861	-72,586	-0,087	0,023
-566,846	599,888	-0,060	-0,108
-565,831	585,194	0,044	-0,078
-564,817	-5,901	0,027	-0,013
-563,802	-38,023	-0,077	0,029
-562,788	800,000	-0,010	0,024
-561,773	781,137	-0,019	0,037
-560,758	11,775	-0,029	0,016
-559,744	-200,000	0,006	0,082
-558,729	125,966	-0,071	0,064
-557,715	-200,000	-0,001	0,101
-556,700	150,026	-0,138	-0,135
-555,685	85,834	0,108	0,086
-554,671	-67,607	-0,040	0,011
-553,656	800,000	0,051	0,122
-552,642	800,000	0,059	0,137
-551,627	-200,000	0,031	0,169
-550,612	-76,811	0,069	0,017
-549,598	607,313	-0,073	0,132
-548,583	-118,306	-0,120	0,015
-547,569	-200,000	-0,002	-0,111
-546,554	64,637	-0,023	-0,016
-545,539	-200,000	-0,008	0,049
-544,525	452,601	0,053	0,085
-543,510	563,233	0,023	-0,041
-542,496	254,344	0,050	0,062
-541,481	78,256	0,041	-0,032
-540,466	-51,333	-0,048	-0,016
-539,452	28,483	0,159	0,097
-538,437	-32,064	0,074	-0,030
-537,423	-60,668	0,069	0,021
-536,408	-15,167	-0,080	0,037
-535,393	307,696	0,051	0,069
-534,379	168,900	-0,058	0,060
-533,364	105,185	-0,068	-0,058
-532,350	28,976	0,015	-0,009
-531,335	-54,280	0,017	0,006
-530,321	505,626	0,016	0,027
-529,306	-43,172	-0,115	0,042
-528,291	709,530	-0,015	0,029
-527,277	-4,782	0,009	-0,005
-526,262	800,000	-0,032	0,089
-525,248	800,000	0,072	0,195
-524,233	-200,000	-0,017	0,067
-523,218	-74,911	-0,120	0,031
-522,204	80,863	-0,095	-0,073
-521,189	-200,000	-0,002	0,040
-520,175	-106,446	-0,034	0,005
-519,160	422,364	0,048	-0,074
-518,145	800,000	-0,076	-0,166
-517,131	484,100	-0,028	-0,046
-516,116	-200,000	-0,062	0,000
-515,102	-200,000	0,013	0,081
-514,087	86,000	-0,051	0,040
-513,072	280,666	-0,098	-0,127
-512,058	-200,000	0,025	0,092
-511,043	-97,208	0,049	-0,009
-510,029	344,357	0,085	-0,120
-509,014	-94,451	0,101	0,020
-507,999	800,000	-0,028	0,088
-506,985	-200,000	0,021	-0,209
-505,970	800,000	0,057	-0,159
-504,956	209,546	-0,077	-0,087
-503,941	125,615	0,069	0,062
-502,926	800,000	0,022	-0,046
-501,912	139,911	-0,052	0,050
-500,897	344,425	-0,036	0,051
-499,883	-200,000	-0,007	0,029
-498,868	229,292	0,081	0,096
-497,853	32,816	-0,136	-0,085
-496,839	-32,059	-0,064	0,026
-495,824	-200,000	0,002	-0,144
-494,810	128,228	-0,058	0,053
-493,795	-91,860	0,046	-0,009
-492,781	77,442	-0,031	-0,023
-491,766	270,289	0,043	-0,055
-490,751	-157,563	0,049	0,002
-489,737	800,000	-0,076	-0,187
-488,722	-49,202	0,128	0,044
-487,708	384,061	0,074	0,110
-486,693	-92,269	-0,160	-0,032
-485,678	800,000	-0,019	0,038
-484,664	390,353	-0,086	-0,129
-483,649	183,017	-0,072	-0,076
-482,635	-77,121	0,017	0,004
-481,620	-11,432	0,021	-0,010
-480,605	341,663	0,060	0,084
-479,591	14,974	-0,068	-0,038
-478,576	-200,000	-0,007	0,094
-477,562	374,291	0,084	-0,123
-476,547	-200,000	0,006	-0,119
-475,532	800,000	0,009	-0,024
-474,518	-200,000	-0,011	0,146
-473,503	-36,306	0,178	0,069
-472,489	436,813	-0,014	0,022
-471,474	-191,257	0,126	-0,001
-470,459	-200,000	0,012	-0,106
-469,445	38,122	-0,085	0,054
-468,430	154,210	-0,019	0,019
-467,416	221,133	0,030	-0,035
-466,401	-36,924	0,177	-0,068
-465,386	170,278	0,036	-0,037
-464,372	266,356	-0,135	-0,170
-463,357	-38,070	-0,076	0,029
-462,343	800,000	-0,010	0,024
-461,328	800,000	-0,024	-0,063
-460,313	-200,000	-0,012	-0,080
-459,299	245,449	0,075	0,091
-458,284	163,568	-0,121	0,122
-457,270	37,641	0,043	0,027
-456,255	194,105	-0,041	-0,045
-455,241	-64,555	0,054	-0,016
-454,226	800,000	-0,027	0,058
-453,211	-200,000	-0,018	0,145
-452,197	245,814	-0,069	0,083
-451,182	470,526	0,048	0,077
-450,168	-181,439	-0,030	-0,000
-449,153	-113,329	-0,054	0,008
-448,138	800,000	0,050	-0,119
-447,124	-188,424	-0,107	0,001
-446,109	-200,000	0,020	-0,103
-445,095	14,510	0,048	-0,027
-444,080	-200,000	-0,004	-0,036
-443,065	288,488	0,035	0,046
-442,051	24,436	0,027	0,016
-441,036	369,285	0,110	-0,161
-440,022	-200,000	-0,006	-0,186
-439,007	77,010	0,076	-0,058
-437,992	-34,602	-0,051	0,020
-436,978	242,719	-0,097	0,117
-435,963	71,618	0,164	0,122
-434,949	181,407	0,020	-0,022
-433,934	273,555	-0,028	0,035
-432,919	79,014	-0,077	-0,059
-431,905	-200,000	-0,030	0,127
-430,890	52,157	0,103	0,070
-429,876	-24,376	-0,028	-0,012
-428,861	800,000	-0,032	0,066
-427,846	-80,436	0,209	-0,050
-426,832	-200,000	-0,001	0,129
-425,817	-53,613	0,069	-0,023
-424,803	-100,706	0,058	-0,010
-423,788	-134,143	0,075	-0,007
-422,773	800,000	0,028	-0,058
-421,759	362,972	0,097	0,141
-420,744	-149,469	0,055	0,003
-419,730	163,281	-0,039	-0,040
-418,715	-106,973	0,033	0,005
-417,701	-150,477	-0,072	0,004
-416,686	-200,000	0,008	0,049
-415,671	153,645	0,024	-0,023
-414,657	88,087	-0,049	0,039
-413,642	198,156	-0,061	0,067
-412,628	39,799	-0,050	-0,032
-411,613	-200,000	0,013	-0,082
-410,598	1,420	0,076	0,039
-409,584	-36,884	0,071	0,027
-408,569	66,343	0,141	0,103
-407,555	-7,761	0,134	0,064
-406,540	329,375	-0,064	0,089
-405,525	111,754	-0,085	0,074
-404,511	-167,542	0,071	-0,002
-403,496	-103,612	-0,136	-0,023
-402,482	448,958	-0,023	-0,037
-401,467	-200,000	-0,001	-0,058
-400,452	-200,000	0,002	0,073
-399,438	800,000	0,028	-0,064
-398,423	-43,352	-0,084	-0,030
-397,409	-36,723	-0,043	-0,017
-396,394	-127,359	-0,110	0,011
-395,379	59,923	0,163	0,115
-394,365	-163,248	0,146	0,005
-393,350	800,000	-0,022	0,069
-392,336	-18,580	0,083	-0,037
-391,321	-200,000	0,009	0,100
-390,306	-17,215	-0,039	0,017
-389,292	177,636	-0,063	-0,066
-388,277	459,370	-0,050	-0,080
-387,263	-58,455	0,118	0,037
-386,248	-200,000	0,016	0,102
-385,233	-32,910	-0,107	-0,042
-384,219	800,000	0,037	-0,094
-383,204	-116,175	0,112	0,015
-382,190	542,643	-0,010	-0,018
-381,175	164,817	-0,099	0,101
-380,160	153,698	-0,112	0,110
-379,146	38,066	0,189	0,120
-378,131	-200,000	0,006	0,056
-377,117	438,706	0,034	0,053
-376,102	316,202	0,063	-0,085
-375,088	-19,692	-0,027	0,012
-374,073	591,986	-0,016	0,028
-373,058	180,535	0,075	-0,079
-372,044	-68,582	0,020	0,006
-371,029	-4,104	0,097	0,048
-370,015	99,543	0,014	0,011
-369,000	-39,549	0,096	0,036
-367,985	-13,555	-0,101	-0,046
-366,971	-200,000	0,007	0,085
-365,956	-200,000	0,041	0,133
-364,942	-18,738	-0,175	0,078
-363,927	149,185	0,084	0,081
-362,912	-151,874	0,067	-0,003
-361,898	-60,111	0,045	-0,014
-360,883	573,689	0,041	-0,072
-359,869	-76,811	-0,069	0,017
-358,854	232,327	0,031	-0,036
-357,839	-117,576	0,070	-0,009
-356,825	548,756	0,052	0,090
-355,810	53,160	0,037	0,025
-354,796	-200,000	0,003	0,013
-353,781	-167,259	-0,045	0,001
-352,766	144,611	-0,024	-0,023
-351,752	-111,732	0,157	0,023
-350,737	422,947	0,108	0,167
-349,723	-135,303	-0,145	-0,012
-348,708	267,442	0,067	-0,084
-347,693	-63,796	-0,090	0,026
-346,679	64,960	-0,080	-0,058
-345,664	-200,000	-0,002	-0,040
-344,650	-200,000	-0,018	-0,078
-343,635	-115,776	-0,112	-0,015
-342,620	-59,113	0,081	-0,025
-341,606	353,755	0,079	0,113
-340,591	-6,033	-0,050	-0,024
-339,577	363,330	0,021	0,030
-338,562	-42,678	-0,109	-0,040
-337,548	-138,971	-0,154	-0,012
-336,533	122,667	0,104	0,093
-335,518	-115,364	-0,111	0,015
-334,504	800,000	0,039	0,091
-333,489	800,000	-0,024	-0,055
-332,475	577,081	-0,039	-0,068
-331,460	4,158	-0,073	-0,038
-330,445	-138,885	0,034	0,003
-329,431	800,000	-0,048	-0,112
-328,416	-200,000	0,020	0,092
-327,402	-200,000	0,007	-0,030
-326,387	0,239	-0,119	-0,060
-325,372	800,000	-0,031	-0,084
-324,358	-116,513	0,023	-0,003
-323,343	572,916	-0,054	0,095
-322,329	-200,000	-0,006	0,034
-321,314	-78,093	0,043	-0,010
-320,299	66,756	0,032	-0,023
-319,285	-29,371	0,059	0,024
-318,270	-200,000	-0,018	0,133
-317,256	195,064	0,039	0,042
-316,241	-148,671	-0,053	-0,003
-315,226	-200,000	0,022	-0,085
-314,212	-50,713	0,105	0,035
-313,197	138,288	-0,081	0,076
-312,183	-44,587	-0,101	-0,036
-311,168	800,000	-0,014	0,035
-310,153	365,814	-0,018	0,027
-309,139	65,347	-0,076	-0,055
-308,124	171,602	0,019	0,020
-307,110	-143,351	0,073	-0,005
-306,095	72,543	0,064	-0,048
-305,080	-23,593	0,132	0,056
-304,066	-200,000	-0,002	0,085
-303,051	-48,674	-0,206	-0,070
-302,037	23,197	0,160	-0,093
-301,022	-200,000	-0,019	-0,131
-300,008	-83,758	-0,096	-0,022
-298,993	70,279	0,056	-0,042
-297,978	220,486	0,024	-0,027
-296,964	-200,000	0,019	-0,143
-295,949	-200,000	-0,034	-0,158
-294,935	800,000	-0,051	-0,107
-293,920	146,074	0,027	-0,026
-292,905	-50,913	0,139	-0,046
-291,891	140,829	-0,010	0,010
-290,876	12,999	0,112	-0,062
-289,862	800,000	-0,023	-0,061
-288,847	-200,000	0,005	-0,164
-287,832	800,000	0,027	-0,067
-286,818	800,000	-0,001	-0,003
-285,803	256,829	-0,074	-0,091
-284,789	-61,516	0,105	0,031
-283,774	-193,124	0,102	-0,001
-282,759	36,830	-0,026	0,016
-281,745	-57,267	-0,119	0,037
-280,730	-200,000	-0,026	-0,166
-279,716	-200,000	0,012	-0,062
-278,701	-28,709	-0,086	0,035
-277,686	6,301	0,037	-0,020
-276,672	266,640	-0,052	-0,065
-275,657	469,648	-0,115	-0,185
-274,643	59,673	-0,064	-0,045
-273,628	-99,358	0,021	0,004
-272,613	-43,243	0,049	-0,018
-271,599	-36,221	-0,133	-0,051
-270,584	-200,000	-0,004	0,130
-269,570	800,000	0,024	0,059
-268,555	-119,350	-0,117	-0,014
-267,540	800,000	-0,042	-0,113
-266,526	160,085	0,059	0,058
-265,511	-135,123	-0,061	0,005
-264,497	-115,972	-0,099	-0,013
-263,482	-15,698	0,082	-0,037
-262,467	174,502	0,026	-0,027
-261,453	-200,000	0,004	0,045
-260,438	78,536	0,076	-0,058
-259,424	-10,396	-0,111	0,052
-258,409	23,241	-0,126	0,074
-257,395	657,547	-0,055	0,102
-256,380	-19,617	-0,086	-0,038
-255,365	800,000	-0,026	0,065
-254,351	240,554	0,104	0,123
-253,336	-200,000	-0,020	0,116
-252,322	800,000	-0,014	-0,035
-251,307	23,048	-0,061	0,036
-250,292	-88,996	0,112	0,024
-249,278	480,238	-0,043	0,070
-248,263	497,983	0,077	0,128
-247,249	800,000	-0,016	0,033
-246,234	42,209	-0,143	-0,092
-245,219	-200,000	0,005	-0,033
-244,205	116,657	0,011	0,010
-243,190	-200,000	0,004	-0,115
-242,176	282,214	-0,029	-0,037
-241,161	523,647	0,078	0,132
-240,146	66,789	0,024	-0,017
-239,132	-200,000	-0,010	-0,092
-238,117	-200,000	-0,002	-0,021
-237,103	669,891	0,021	-0,038
-236,088	357,396	0,035	-0,050
-235,073	0,319	0,192	0,097
-234,059	-61,929	0,127	-0,038
-233,044	-200,000	-0,010	0,173
-232,030	769,292	-0,055	-0,106
-231,015	-41,270	-0,102	-0,037
-230,000	509,403	-0,012	0,021
-228,986	800,000	-0,010	0,021
-227,971	438,829	0,054	0,085
-226,957	-200,000	0,004	-0,024
-225,942	110,276	0,081	-0,070
-224,927	-100,960	-0,088	-0,015
-223,913	226,286	-0,076	0,088
-222,898	-200,000	-0,007	-0,140
-221,884	336,021	-0,062	-0,085
-220,869	593,503	0,024	-0,043
-219,855	-110,983	0,082	-0,012
-218,840	-103,558	0,057	-0,009
-217,825	800,000	-0,017	0,034
-216,811	244,416	-0,065	-0,077
-215,796	542,275	-0,023	-0,040
-214,782	410,325	-0,024	-0,037
-213,767	-57,324	-0,052	0,016
-212,752	693,782	0,042	-0,079
-211,738	-14,157	0,047	0,021
-210,723	-41,751	-0,160	0,058
-209,709	215,711	0,112	-0,126
-208,694	800,000	-0,031	-0,096
-207,679	-200,000	0,004	0,137
-206,665	-200,000	-0,013	-0,050
-205,650	-200,000	0,000	-0,061
-204,636	227,232	-0,007	0,008
-203,621	76,585	0,106	0,080
-202,606	-88,835	-0,066	-0,014
-201,592	-200,000	-0,014	-0,130
-200,577	800,000	0,049	0,110
-199,563	-50,840	-0,099	-0,033
-198,548	16,303	0,132	0,074
-197,533	-67,989	0,076	-0,021
-196,519	189,579	-0,020	-0,021
-195,504	-26,300	0,026	-0,011
-194,490	-32,283	-0,125	-0,049
-193,475	147,995	-0,063	0,061
-192,460	-43,885	0,074	0,026
-191,446	-200,000	0,001	0,064
-190,431	-112,343	0,069	0,010
-189,417	-67,430	-0,020	0,006
-188,402	-86,150	0,024	-0,005
-187,387	535,993	0,040	-0,068
-186,373	291,719	-0,078	-0,101
-185,358	-200,000	0,006	0,109
-184,344	135,625	0,067	0,062
-183,329	98,102	0,064	-0,053
-182,315	97,692	0,053	-0,044
-181,300	126,554	0,077	-0,069
-180,285	-157,527	-0,204	0,009
-179,271	-200,000	0,013	-0,116
-178,256	54,201	0,023	-0,016
-177,242	800,000	0,025	0,056
-176,227	412,447	-0,088	0,133
-175,212	127,553	0,082	0,074
-174,198	-154,315	-0,103	-0,005
-173,183	-200,000	0,045	0,149
-172,169	113,134	0,039	-0,033
-171,154	-200,000	-0,004	-0,116
-170,139	273,751	0,093	-0,117
-169,125	-200,000	-0,011	0,121
-168,110	800,000	0,028	-0,071
-167,096	800,000	0,024	0,059
-166,081	-65,768	-0,077	-0,022
-165,066	-169,928	-0,103	0,003
-164,052	-39,137	0,053	-0,020
-163,037	260,144	-0,040	0,049
-162,023	-96,738	-0,054	-0,010
-161,008	91,991	0,043	0,034
-159,993	-200,000	-0,027	-0,120
-158,979	40,415	0,054	-0,035
-157,964	-125,784	0,047	-0,005
-156,950	-200,000	-0,003	-0,177
-155,935	75,812	0,136	-0,102
-154,920	67,100	0,075	-0,054
-153,906	45,852	-0,114	0,075
-152,891	-200,000	0,033	-0,105
-151,877	-200,000	0,007	0,024
-150,862	-200,000	0,019	-0,129
-149,847	446,214	0,099	-0,155
-148,833	166,611	0,026	-0,026
-147,818	-200,000	-0,002	-0,030
-146,804	-138,575	0,116	-0,009
-145,789	800,000	0,007	-0,020
-144,775	203,129	-0,081	-0,089
-143,760	544,176	-0,082	0,139
-142,745	10,043	0,040	0,021
-141,731	-125,115	-0,057	-0,006
-140,716	-59,681	-0,047	0,014
-139,702	322,089	-0,106	0,144
-138,687	20,547	0,089	-0,051
-137,672	-200,000	0,002	0,124
-136,658	0,749	-0,115	-0,058
-135,643	561,651	-0,121	-0,208
-134,629	-200,000	0,006	0,070
-133,614	-113,941	0,118	0,016
-132,599	800,000	0,052	0,120
-131,585	-200,000	-0,010	0,054
-130,570	800,000	-0,025	-0,054
-129,556	551,327	-0,064	-0,110
-128,541	-109,441	-0,064	-0,009
-127,526	16,214	-0,090	-0,050
-126,512	45,623	-0,050	0,033
-125,497	-200,000	-0,008	0,040
-124,483	-89,150	0,163	-0,034
-123,468	-112,057	0,035	-0,005
-122,453	800,000	-0,051	-0,149
-121,439	122,839	0,069	-0,061
-120,424	120,999	0,112	0,099
-119,410	18,754	-0,025	0,014
-118,395	141,140	0,110	0,103
-117,380	-200,000	-0,024	-0,105
-116,366	-200,000	-0,017	0,129
-115,351	79,394	-0,121	-0,092
-114,337	477,691	-0,097	0,155
-113,322	710,457	0,005	-0,009
-112,307	111,719	-0,022	0,019
-111,293	355,808	0,043	0,060
-110,278	31,637	0,043	0,026
-109,264	643,317	-0,038	0,070
-108,249	780,948	0,038	-0,073
-107,234	30,700	-0,082	-0,050
-106,220	434,329	-0,057	-0,088
-105,205	52,906	-0,052	-0,035
-104,191	424,371	-0,096	0,147
-103,176	-152,505	0,006	-0,000
-102,162	-66,574	-0,048	-0,013
-101,147	-200,000	0,011	0,111
-100,132	304,987	-0,094	0,124
-99,118	800,000	0,051	-0,147
-98,103	800,000	0,028	0,069
-97,089	602,735	0,069	0,123
-96,074	20,257	0,038	-0,021
-95,059	-200,000	0,006	-0,086
-94,045	110,091	-0,092	-0,078
-93,030	108,152	-0,113	-0,095
-92,016	-51,904	-0,126	0,041
-91,001	-142,823	-0,071	-0,005
-89,986	-60,416	-0,032	0,010
-88,972	315,371	0,031	0,041
-87,957	800,000	-0,039	-0,092
-86,943	-200,000	0,004	-0,039
-85,928	0,523	-0,088	-0,044
-84,913	25,922	0,071	-0,042
-83,899	-200,000	-0,020	-0,105
-82,884	-82,020	0,094	0,022
-81,870	134,955	0,044	0,041
-80,855	165,467	-0,097	-0,097
-79,840	127,610	-0,121	-0,109
-78,826	-200,000	-0,002	-0,088
-77,811	135,219	-0,033	-0,030
-76,797	91,247	-0,048	-0,038
-75,782	560,211	0,059	-0,101
-74,767	31,688	-0,180	0,109
-73,753	800,000	-0,043	0,132
-72,738	-200,000	0,011	0,053
-71,724	158,934	0,013	0,013
-70,709	800,000	-0,035	-0,104
-69,694	188,038	0,118	-0,125
-68,680	800,000	-0,010	-0,022
-67,665	127,964	0,075	0,068
-66,651	800,000	0,068	-0,210
-65,636	275,433	-0,054	0,068
-64,622	-200,000	-0,029	-0,145
-63,607	-200,000	0,012	-0,186
-62,592	48,432	-0,140	-0,092
-61,578	727,985	0,071	0,134
-60,563	677,176	-0,014	0,026
-59,549	215,744	0,106	0,120
-58,534	22,155	-1,780	-1,025
-57,519	392,594	-1,467	-2,164
-56,505	-200,000	-0,529	-4,647
-55,490	337,895	1,004	1,384
-54,476	800,000	4,922	11,124
-53,461	-200,000	20,106	324,062
-52,446	800,000	752,456	2312,030
-51,432	548,459	1663,578	2828,668
-50,417	74,930	1672,267	1244,118
-49,403	19,970	1545,043	878,412
-48,388	13,981	1467,424	805,135
-47,373	18,319	1457,606	820,679
-46,359	16,364	1446,971	805,290
-45,344	12,271	1442,543	783,187
-44,330	12,146	1440,841	781,633
-43,315	12,193	1438,971	780,815
-42,300	12,220	1437,229	779,968
-41,286	12,171	1436,340	779,218
-40,271	12,192	1434,621	778,353
-39,257	12,157	1433,406	777,497
-38,242	12,216	1432,253	777,122
-37,227	12,225	1431,021	776,468
-36,213	12,200	1429,832	775,672
-35,198	12,211	1428,583	775,018
-34,184	12,259	1427,637	774,701
-33,169	12,257	1425,983	773,760
-32,154	12,270	1425,050	773,288
-31,140	12,212	1424,100	772,467
-30,125	12,249	1422,655	771,829
-29,111	12,265	1421,600	771,298
-28,096	12,230	1420,352	770,428
-27,082	12,166	1419,467	769,611
-26,067	12,155	1418,378	768,942
-25,052	12,159	1417,282	768,333
-24,038	12,151	1416,220	767,690
-23,023	12,181	1415,279	767,290
-22,009	12,132	1414,197	766,445
-20,994	12,120	1413,130	765,780
-19,979	12,128	1412,665	765,535
-18,965	12,132	1411,542	764,913
-17,950	12,129	1410,629	764,373
-16,936	12,105	1409,714	763,735
-15,921	12,047	1408,825	762,953
-14,906	12,098	1407,806	762,610
-13,892	12,108	1406,784	762,071
-12,877	12,036	1406,169	761,374
-11,863	12,072	1405,175	760,970
-10,848	12,052	1404,175	760,305
-9,833	11,993	1403,451	759,610
-8,819	11,947	1402,405	758,801
-7,804	11,901	1401,755	758,200
-6,790	11,967	1400,577	757,840
-5,775	11,975	1399,610	757,327
-4,760	11,950	1398,576	756,619
-3,746	11,954	1397,661	756,115
-2,731	11,993	1396,574	755,675
-1,717	11,904	1396,211	755,036
-0,702	11,895	1394,331	753,951
0,313	16,067	1309,096	727,067
1,327	32,882	699,781	427,281
2,342	50,952	122,006	81,581
3,356	1,523	16,500	8,362
4,371	14,267	3,147	1,729
5,386	-20,491	0,708	0,306
6,400	800,000	0,205	0,510
7,415	-75,498	-0,240	-0,060
8,429	149,349	-0,335	-0,320
9,444	-56,893	-0,364	-0,113
10,459	33,904	-0,174	-0,107
11,473	50,088	-0,313	-0,208
12,488	-51,471	-0,276	-0,090
13,502	51,431	-0,227	-0,152
14,517	-36,648	-0,386	-0,146
15,531	112,386	-0,314	-0,268
16,546	-22,927	-0,366	-0,155
17,561	228,462	-0,333	-0,384
18,575	-61,600	-0,261	-0,077
19,590	183,055	-0,231	-0,241
20,604	143,810	-0,210	-0,198
21,619	244,434	-0,339	-0,403
22,634	71,275	-0,492	-0,360
23,648	106,759	-0,417	-0,349
24,663	103,852	-0,469	-0,388
25,677	149,975	-0,365	-0,349
26,692	33,272	-0,379	-0,231
27,707	-114,909	-0,443	-0,059
28,721	215,673	-0,303	-0,339
29,736	53,173	-0,484	-0,326
30,750	-29,650	-0,461	-0,185
31,765	88,374	-0,366	-0,286
32,780	116,970	-0,284	-0,246
33,794	69,429	-0,360	-0,261
34,809	-42,493	-0,462	-0,165
35,823	193,809	-0,190	-0,203
36,838	75,107	-0,361	-0,268
37,853	106,203	-0,375	-0,312
38,867	85,740	-0,468	-0,362
39,882	75,763	-0,306	-0,228
40,896	-13,005	-0,461	-0,211
41,911	106,544	-0,294	-0,245
42,926	42,046	-0,391	-0,249
43,940	2,467	-0,423	-0,215
44,955	35,316	-0,368	-0,227
45,969	67,823	-0,400	-0,287
46,984	19,979	-0,299	-0,169
47,999	65,132	-0,267	-0,190
49,013	17,313	-0,284	-0,158
50,028	-6,898	-0,294	-0,140
51,042	72,473	-0,410	-0,300
52,057	153,808	-0,350	-0,337
53,071	377,271	-0,237	-0,342
54,086	327,119	-0,142	-0,192
55,101	159,067	-0,261	-0,256
56,115	30,901	-0,323	-0,194
57,130	-3,615	-0,392	-0,191
58,144	78,237	-0,357	-0,268
59,159	108,959	-0,519	-0,436
60,174	83,249	-0,343	-0,262
61,188	206,740	-0,333	-0,365
62,203	-84,002	-0,345	-0,076
63,217	-26,861	-0,347	-0,142
64,232	59,561	-0,332	-0,230
65,247	232,095	-0,295	-0,340
66,261	-36,186	-0,461	-0,174
67,276	24,685	-0,285	-0,166
68,290	16,129	-0,276	-0,152
69,305	96,744	-0,257	-0,207
70,320	70,912	-0,270	-0,196
71,334	28,438	-0,334	-0,198
72,349	122,459	-0,311	-0,273
73,363	-8,613	-0,438	-0,206
74,378	-34,480	-0,420	-0,161
75,393	149,756	-0,285	-0,271
76,407	17,810	-0,272	-0,152
77,422	800,000	-0,170	-0,341
78,436	-27,138	-0,370	-0,151
79,451	103,951	-0,261	-0,215
80,466	42,684	-0,380	-0,243
81,480	-55,778	-0,389	-0,121
82,495	80,559	-0,357	-0,269
83,509	94,436	-0,317	-0,253
84,524	95,514	-0,330	-0,264
85,539	-36,015	-0,399	-0,151
86,553	33,172	-0,225	-0,136
87,568	106,477	-0,276	-0,230
88,582	-17,246	-0,357	-0,157
89,597	210,807	-0,218	-0,241
90,611	-69,308	-0,376	-0,101
91,626	13,839	-0,332	-0,181
92,641	-77,811	-0,200	-0,048
93,655	89,953	-0,293	-0,229
94,670	41,251	-0,298	-0,188
95,684	49,002	-0,234	-0,154
96,699	280,002	-0,200	-0,250
97,714	64,298	-0,321	-0,226
98,728	120,385	-0,208	-0,181
99,743	-24,082	-0,228	-0,095
100,757	-8,136	-0,286	-0,134
101,772	3,192	-0,253	-0,128
102,787	119,402	-0,322	-0,279
103,801	133,424	-0,285	-0,258
104,816	57,545	-0,341	-0,233
105,830	179,649	-0,190	-0,195
106,845	-24,044	-0,208	-0,087
107,860	-80,524	-0,341	-0,079
108,874	-5,671	-0,258	-0,124
109,889	37,263	-0,460	-0,285
110,903	117,884	-0,291	-0,251
111,918	138,297	-0,268	-0,246
112,933	257,330	-0,215	-0,259
113,947	228,215	-0,205	-0,233
114,962	-5,876	-0,246	-0,117
115,976	38,761	-0,309	-0,193
116,991	142,248	-0,309	-0,287
118,006	50,687	-0,334	-0,220
119,020	293,712	-0,225	-0,288
120,035	88,976	-0,299	-0,233
121,049	-9,631	-0,234	-0,109
122,064	134,890	-0,248	-0,225
123,079	9,074	-0,267	-0,141
124,093	49,603	-0,264	-0,174
125,108	-43,467	-0,333	-0,117
126,122	-30,359	-0,270	-0,106
127,137	11,130	-0,256	-0,136
128,151	-49,751	-0,211	-0,070
129,166	238,016	-0,149	-0,173
130,181	50,347	-0,289	-0,191
131,195	-11,512	-0,244	-0,112
132,210	15,013	-0,257	-0,140
133,224	17,314	-0,344	-0,190
134,239	175,619	-0,260	-0,264
135,254	32,660	-0,166	-0,100
136,268	-38,097	-0,158	-0,058
137,283	178,482	-0,074	-0,075
138,297	141,152	-0,281	-0,259
139,312	224,932	-0,215	-0,243
140,327	31,962	-0,337	-0,202
141,341	-4,700	-0,286	-0,137
142,356	441,724	-0,159	-0,244
143,370	199,410	-0,172	-0,184
144,385	28,820	-0,280	-0,165
145,400	187,736	-0,208	-0,217
146,414	81,763	-0,375	-0,283
147,429	61,661	-0,413	-0,286
148,443	14,919	-0,341	-0,186
149,458	233,850	-0,177	-0,204
150,473	-14,473	-0,359	-0,161
151,487	-48,997	-0,310	-0,103
152,502	84,024	-0,278	-0,212
153,516	39,175	-0,349	-0,217
154,531	50,293	-0,221	-0,145
155,546	70,315	-0,295	-0,212
156,560	-97,628	-0,233	-0,042
157,575	172,056	-0,193	-0,193
158,589	-111,883	-0,157	-0,022
159,604	-1,506	-0,183	-0,090
160,619	13,095	-0,235	-0,126
161,633	73,314	-0,263	-0,192
162,648	-142,499	-0,174	-0,012
163,662	231,852	-0,112	-0,128
164,677	6,394	-0,152	-0,078
165,692	-29,733	-0,280	-0,111
166,706	-68,646	-0,271	-0,073
167,721	30,564	-0,266	-0,158
168,735	125,080	-0,261	-0,229
169,750	20,193	-0,242	-0,136
170,764	124,173	-0,283	-0,247
171,779	800,000	-0,136	-0,318
172,794	-83,000	-0,254	-0,056
173,808	-59,229	-0,202	-0,060
174,823	-18,502	-0,263	-0,114
175,837	90,233	-0,186	-0,145
176,852	-59,896	-0,308	-0,091
177,867	111,994	-0,237	-0,199
178,881	708,120	-0,081	-0,150
179,896	185,619	-0,153	-0,159
180,910	71,870	-0,178	-0,129
181,925	51,273	-0,203	-0,134
182,940	36,036	-0,343	-0,209
183,954	33,250	-0,311	-0,187
184,969	-53,586	-0,220	-0,069
185,983	486,363	0,029	-0,047
186,998	-42,597	-0,349	-0,123
188,013	30,363	-0,170	-0,101
189,027	48,878	-0,246	-0,160
190,042	163,449	-0,255	-0,249
191,056	144,730	-0,191	-0,177
192,071	118,566	-0,144	-0,123
193,086	90,010	-0,197	-0,153
194,100	90,678	-0,170	-0,132
195,115	-10,656	-0,208	-0,095
196,129	174,649	-0,291	-0,292
197,144	83,268	-0,270	-0,204
198,159	314,357	-0,179	-0,235
199,173	274,645	-0,258	-0,318
200,188	27,376	-0,215	-0,125
201,202	-57,247	-0,171	-0,052
202,217	145,787	-0,165	-0,154
203,232	65,116	-0,288	-0,202
204,246	33,193	-0,298	-0,179
205,261	181,125	-0,128	-0,131
206,275	160,621	-0,230	-0,223
207,290	575,466	-0,083	-0,141
208,304	-103,589	-0,160	-0,026
209,319	53,404	-0,212	-0,141
210,334	33,301	-0,268	-0,161
211,348	588,001	-0,129	-0,221
212,363	346,284	-0,145	-0,198
213,377	109,422	-0,143	-0,118
214,392	800,000	-0,052	-0,117
215,407	-140,194	-0,232	0,017
216,421	-76,179	-0,224	-0,054
217,436	-7,245	-0,253	-0,119
218,450	800,000	-0,104	-0,309
219,465	256,663	-0,229	-0,273
220,480	348,748	-0,083	-0,114
221,494	-18,095	-0,269	-0,116
222,509	-200,000	-0,052	-0,248
223,523	-23,228	-0,137	-0,057
224,538	101,563	-0,223	-0,180
225,553	28,725	-0,216	-0,127
226,567	194,141	-0,244	-0,256
227,582	30,720	-0,276	-0,163
228,596	-1,634	-0,209	-0,102
229,611	122,779	-0,210	-0,182
230,626	282,680	-0,135	-0,168
231,640	-22,589	-0,152	-0,063
232,655	207,335	-0,110	-0,119
233,669	58,864	-0,274	-0,186
234,684	-133,579	-0,283	-0,024
235,699	123,260	-0,184	-0,160
236,713	79,234	-0,200	-0,149
237,728	72,387	-0,148	-0,107
238,742	326,461	-0,124	-0,164
239,757	255,201	-0,166	-0,197
240,772	215,571	-0,151	-0,167
241,786	204,852	-0,180	-0,193
242,801	-137,105	-0,087	0,007
243,815	800,000	-0,056	-0,124
244,830	174,822	-0,163	-0,163
245,844	153,803	-0,106	-0,101
246,859	-200,000	-0,047	-0,188
247,874	-6,323	-0,311	-0,146
248,888	191,670	-0,207	-0,216
249,903	568,990	-0,090	-0,153
250,917	145,151	-0,088	-0,082
251,932	800,000	-0,067	-0,198
252,947	-64,397	-0,190	-0,053
253,961	-82,211	-0,278	-0,062
254,976	98,453	-0,242	-0,193
255,990	-26,509	-0,109	-0,044
257,005	397,597	-0,138	-0,201
258,020	42,502	-0,289	-0,181
259,034	209,375	-0,145	-0,157
260,049	-200,000	-0,022	-0,155
261,063	-200,000	-0,054	-0,237
262,078	-46,927	-0,336	-0,113
263,093	4,514	-0,225	-0,113
264,107	-4,633	-0,220	-0,105
265,122	800,000	-0,052	-0,107
266,136	188,535	-0,111	-0,115
267,151	74,263	-0,253	-0,184
268,166	-137,603	-0,119	0,009
269,180	87,706	-0,202	-0,155
270,195	574,674	-0,147	-0,248
271,209	68,029	-0,197	-0,139
272,224	197,860	-0,127	-0,134
273,239	18,951	-0,113	-0,062
274,253	13,492	-0,217	-0,116
275,268	-163,584	-0,107	0,003
276,282	69,481	-0,220	-0,156
277,297	-79,284	-0,234	-0,054
278,312	-88,722	-0,266	-0,054
279,326	69,220	-0,132	-0,093
280,341	92,370	-0,131	-0,102
281,355	-80,250	-0,124	-0,028
282,370	191,558	-0,162	-0,169
283,384	-18,645	-0,148	-0,063
284,399	139,509	-0,156	-0,141
285,414	178,662	-0,243	-0,245
286,428	0,891	-0,125	0,061
287,443	800,000	-0,084	-0,205
288,457	-92,804	-0,193	-0,037
289,472	226,597	-0,113	-0,126
290,487	59,423	-0,201	-0,136
291,501	113,769	-0,135	-0,113
292,516	78,147	-0,108	-0,079
293,530	336,306	-0,109	-0,147
294,545	102,156	-0,114	-0,091
295,560	-63,441	-0,077	0,022
296,574	320,747	-0,110	-0,144
297,589	-98,389	-0,097	0,017
298,603	156,941	-0,153	-0,146
299,618	100,836	-0,141	-0,113
300,633	-42,792	-0,058	0,020
301,647	19,419	-0,151	-0,083
302,662	9,840	-0,172	-0,089
303,676	87,671	-0,167	-0,127
304,691	23,907	-0,242	-0,137
305,706	-200,000	0,005	-0,175
306,720	96,583	-0,204	-0,161
307,735	57,450	-0,161	-0,108
308,749	155,003	-0,116	-0,110
309,764	-94,658	-0,174	0,032
310,779	517,443	-0,053	-0,086
311,793	16,076	-0,127	0,069
312,808	352,942	-0,079	-0,108
313,822	-200,000	-0,040	-0,183
314,837	-37,324	-0,157	-0,057
315,852	290,751	-0,121	-0,152
316,866	384,514	-0,097	-0,138
317,881	800,000	-0,054	-0,146
318,895	-1,941	-0,230	-0,111
319,910	263,478	-0,198	-0,237
320,925	-77,884	-0,168	-0,040
321,939	-135,241	-0,181	-0,015
322,954	-18,094	-0,262	-0,112
323,968	-86,225	-0,124	0,026
324,983	28,110	-0,029	-0,017
325,997	70,149	-0,185	-0,131
327,012	263,458	-0,138	-0,165
328,027	-200,000	-0,061	-0,226
329,041	-82,869	-0,203	0,045
330,056	-44,412	-0,148	-0,051
331,070	-112,032	-0,188	-0,026
332,085	-55,289	-0,211	-0,065
333,100	-195,904	-0,210	0,001
334,114	493,861	-0,080	-0,126
335,129	290,151	-0,172	-0,215
336,143	-148,807	-0,219	0,012
337,158	800,000	-0,016	-0,036
338,173	303,634	-0,054	-0,069
339,187	-147,035	-0,116	0,007
340,202	679,592	-0,125	-0,224
341,216	71,350	-0,287	-0,204
342,231	3,719	-0,158	-0,079
343,246	284,192	-0,138	-0,171
344,260	446,989	-0,108	-0,164
345,275	-200,000	0,006	-0,150
346,289	197,518	-0,067	-0,070
347,304	800,000	-0,123	-0,256
348,319	-200,000	-0,024	-0,203
349,333	-105,428	-0,187	0,029
350,348	-42,068	-0,259	-0,091
351,362	9,260	-0,176	-0,091
352,377	152,863	-0,088	-0,082
353,392	156,612	0,049	-0,047
354,406	149,163	-0,122	-0,114
355,421	208,334	1312,723	1407,804
356,435	160,296	1473,198	1408,280
