DTS Sentinel unit serial number:	SN410029Multiplexer serial number:	ORYXHardware model number:	OX2-SRSoftware version number:	ORYX F/W v4,00 Oryx Data Collector v3.7.2.0data status	okinstallation	B3 Nyhavnadifferential loss correction	single-endedforward channel	channel 1reverse channel	N/Adate	2023/12/04time	03:32:30forward acquisition time	300,00reverse acquisition time	0,00gamma	499,1914k internal	0,3205k external	0,3205temperature offset calibration	1,0000default loss term (dB/km)	0,3820temperature slope calibration	1,0000multiplexer offset coefficient	1,0000multiplexer slope coefficient	1,0000fibre end	0,00T internal ref (°C)	12,10T ext. ref 1 (°C)	-3,09T ext. ref 2 (°C)	-3,10length (m)	temperature (°C)	Stokes	anti-Stokes-744,400	-24,162	-0,159	-0,069
-743,385	-200,000	0,057	0,308
-742,371	22,821	-0,162	-0,096
-741,356	-200,000	0,021	0,373
-740,342	800,000	-0,071	-0,204
-739,327	-200,000	-0,065	0,314
-738,312	146,540	-0,104	-0,102
-737,298	-200,000	-0,020	0,330
-736,283	149,443	-0,237	-0,233
-735,269	-200,000	0,079	0,290
-734,254	87,478	-0,199	-0,160
-733,239	-87,372	-0,140	0,031
-732,225	-69,576	-0,154	-0,042
-731,210	353,532	0,035	0,051
-730,196	-200,000	-0,040	-0,159
-729,181	608,769	-0,050	-0,092
-728,167	326,196	0,019	-0,027
-727,152	329,103	-0,055	-0,077
-726,137	758,817	-0,031	-0,062
-725,123	281,604	0,066	-0,086
-724,108	96,440	-0,110	-0,091
-723,094	332,070	-0,111	-0,155
-722,079	-22,249	0,015	0,006
-721,064	800,000	-0,058	0,120
-720,050	-200,000	-0,001	0,019
-719,035	800,000	0,009	-0,023
-718,021	-200,000	0,042	-0,175
-717,006	-49,935	-0,066	0,022
-715,991	800,000	-0,047	-0,109
-714,977	-200,000	-0,023	0,082
-713,962	106,160	0,083	0,071
-712,948	800,000	0,015	0,041
-711,933	-200,000	-0,002	-0,011
-710,918	-200,000	0,010	0,129
-709,904	-14,470	-0,098	0,046
-708,889	-16,685	0,126	0,058
-707,875	-64,113	-0,164	-0,048
-706,860	800,000	-0,052	0,115
-705,845	-93,334	0,082	-0,016
-704,831	800,000	0,056	-0,113
-703,816	-36,696	0,094	-0,036
-702,802	-3,134	-0,117	-0,059
-701,787	-143,683	-0,127	-0,009
-700,772	369,036	0,047	0,069
-699,758	-63,228	-0,090	0,027
-698,743	-200,000	-0,009	-0,151
-697,729	-160,045	-0,077	-0,003
-696,714	-141,834	-0,077	-0,006
-695,699	-131,075	-0,056	0,005
-694,685	-5,646	0,069	0,034
-693,670	-16,816	0,093	-0,042
-692,656	511,328	-0,086	-0,146
-691,641	-92,981	-0,105	-0,021
-690,627	-71,636	0,073	-0,020
-689,612	-200,000	0,008	0,057
-688,597	-154,768	-0,066	0,003
-687,583	-200,000	-0,028	-0,091
-686,568	-8,953	0,085	-0,041
-685,554	800,000	-0,017	-0,044
-684,539	28,811	-0,063	-0,038
-683,524	-200,000	0,010	-0,097
-682,510	-35,733	0,071	-0,028
-681,495	112,491	-0,076	0,067
-680,481	64,189	-0,068	0,050
-679,466	-200,000	0,010	-0,041
-678,451	-200,000	-0,012	0,073
-677,437	-103,237	-0,105	0,018
-676,422	-35,211	-0,037	-0,014
-675,408	-19,004	-0,132	-0,059
-674,393	-200,000	-0,011	-0,096
-673,378	-156,808	-0,123	-0,005
-672,364	-200,000	0,020	-0,169
-671,349	3,745	-0,047	-0,025
-670,335	-12,138	-0,082	-0,039
-669,320	76,134	0,059	0,045
-668,305	748,923	-0,086	-0,168
-667,291	482,733	0,034	0,056
-666,276	362,777	0,095	0,138
-665,262	-28,469	-0,112	0,046
-664,247	-25,996	-0,119	0,050
-663,232	299,189	0,045	-0,061
-662,218	491,748	0,082	0,137
-661,203	-19,423	-0,058	0,026
-660,189	800,000	-0,021	0,054
-659,174	149,295	-0,076	0,075
-658,159	800,000	0,019	-0,059
-657,145	800,000	0,057	-0,172
-656,130	-200,000	-0,034	-0,136
-655,116	86,856	0,060	-0,048
-654,101	391,283	0,044	0,067
-653,086	238,312	0,043	0,052
-652,072	113,958	0,064	-0,056
-651,057	-67,724	-0,191	-0,054
-650,043	-28,344	-0,119	-0,049
-649,028	-41,963	0,102	-0,038
-648,014	156,825	0,053	0,053
-646,999	-100,826	0,054	0,010
-645,984	80,347	-0,090	0,070
-644,970	-200,000	0,000	-0,081
-643,955	-200,000	0,000	-0,151
-642,941	205,198	-0,040	0,045
-641,926	-200,000	-0,047	0,173
-640,911	800,000	0,028	0,077
-639,897	-97,820	-0,049	-0,009
-638,882	38,624	-0,087	0,056
-637,868	-30,930	-0,126	-0,051
-636,853	190,225	-0,074	-0,080
-635,838	-49,293	-0,129	-0,044
-634,824	800,000	-0,050	-0,148
-633,809	-200,000	-0,020	-0,076
-632,795	-122,481	0,058	0,007
-631,780	-84,167	-0,047	0,011
-630,765	67,419	-0,074	0,055
-629,751	-200,000	0,006	-0,079
-628,736	-200,000	-0,021	0,069
-627,722	135,063	0,059	0,055
-626,707	-16,539	-0,112	0,051
-625,692	34,846	0,100	-0,063
-624,678	-5,278	0,120	0,060
-623,663	151,686	-0,147	-0,145
-622,649	341,559	0,040	0,056
-621,634	800,000	-0,033	-0,101
-620,619	498,518	-0,051	-0,086
-619,605	-200,000	-0,008	-0,125
-618,590	563,418	0,085	0,149
-617,576	-200,000	-0,013	0,126
-616,561	91,631	0,107	0,087
-615,546	284,232	-0,066	-0,087
-614,532	-66,444	-0,041	0,012
-613,517	114,090	0,101	-0,089
-612,503	152,560	-0,054	-0,053
-611,488	369,697	-0,069	-0,102
-610,474	800,000	-0,032	-0,092
-609,459	800,000	0,051	-0,141
-608,444	302,521	0,021	-0,028
-607,430	-8,255	0,108	-0,052
-606,415	306,892	0,033	0,044
-605,401	800,000	0,019	-0,039
-604,386	-2,093	-0,035	-0,017
-603,371	116,804	0,027	-0,024
-602,357	30,551	-0,105	0,065
-601,342	3,999	0,030	0,016
-600,328	257,329	-0,039	0,048
-599,313	155,867	-0,114	0,113
-598,298	60,364	0,110	-0,078
-597,284	-200,000	0,035	0,113
-596,269	323,059	0,079	0,109
-595,255	85,637	0,148	-0,117
-594,240	-200,000	-0,003	0,110
-593,225	-46,701	-0,050	0,017
-592,211	800,000	-0,049	-0,101
-591,196	-200,000	0,019	-0,063
-590,182	124,024	-0,113	-0,102
-589,167	-126,403	0,169	0,018
-588,152	713,596	0,050	0,096
-587,138	-200,000	0,011	-0,067
-586,123	800,000	-0,067	-0,149
-585,109	-125,775	-0,013	0,001
-584,094	64,277	0,045	-0,033
-583,079	-75,239	0,103	0,026
-582,065	800,000	0,026	0,069
-581,050	-161,943	0,031	-0,001
-580,036	-7,964	0,158	-0,076
-579,021	-200,000	-0,016	0,109
-578,006	9,349	-0,111	0,061
-576,992	345,847	0,068	0,097
-575,977	-183,847	-0,056	0,001
-574,963	205,766	-0,059	-0,066
-573,948	357,103	0,020	0,029
-572,934	-0,980	-0,052	0,027
-571,919	125,607	-0,044	-0,040
-570,904	121,911	0,088	-0,079
-569,890	800,000	0,034	-0,076
-568,875	-200,000	0,000	0,039
-567,861	406,422	0,035	-0,054
-566,846	-47,213	0,054	-0,019
-565,831	-153,583	0,105	-0,005
-564,817	-200,000	-0,041	-0,135
-563,802	-200,000	0,010	-0,122
-562,788	-38,296	-0,080	-0,030
-561,773	-45,634	0,092	-0,033
-560,758	-106,035	-0,032	-0,005
-559,744	12,608	0,064	0,036
-558,729	-26,781	-0,011	0,005
-557,715	-200,000	0,012	-0,043
-556,700	83,782	-0,030	0,024
-555,685	-66,833	0,085	-0,024
-554,671	-121,915	-0,078	-0,009
-553,656	0,203	-0,088	-0,045
-552,642	800,000	-0,021	0,057
-551,627	-200,000	0,035	0,118
-550,612	-169,385	-0,028	0,001
-549,598	-200,000	-0,019	-0,073
-548,583	-58,296	-0,089	-0,028
-547,569	48,596	-0,031	0,021
-546,554	255,699	0,030	0,037
-545,539	-129,652	0,095	0,009
-544,525	-71,697	-0,155	-0,041
-543,510	245,855	-0,057	0,069
-542,496	-200,000	-0,027	-0,163
-541,481	148,975	0,189	-0,184
-540,466	188,213	0,059	-0,064
-539,452	-200,000	-0,022	0,088
-538,437	800,000	0,038	0,077
-537,423	-85,480	0,037	-0,008
-536,408	9,137	-0,082	-0,045
-535,393	-200,000	0,002	-0,121
-534,379	-140,172	-0,085	-0,006
-533,364	-200,000	0,022	-0,085
-532,350	58,071	0,084	0,059
-531,335	800,000	0,025	-0,071
-530,321	194,601	0,071	-0,078
-529,306	15,685	-0,063	-0,036
-528,291	195,343	-0,156	-0,171
-527,277	-200,000	-0,014	0,189
-526,262	800,000	0,017	0,054
-525,248	557,717	-0,044	-0,077
-524,233	-200,000	0,006	0,022
-523,218	800,000	-0,032	0,075
-522,204	-59,892	0,023	0,007
-521,189	800,000	-0,035	0,079
-520,175	-200,000	0,013	-0,054
-519,160	125,045	-0,057	0,052
-518,145	45,692	0,161	0,107
-517,131	-90,018	-0,087	0,018
-516,116	-158,114	0,090	0,004
-515,102	-36,146	-0,087	0,033
-514,087	271,655	0,040	0,051
-513,072	479,915	-0,054	-0,089
-512,058	-200,000	0,013	-0,148
-511,043	445,670	0,010	-0,015
-510,029	-200,000	-0,005	-0,032
-509,014	800,000	-0,013	-0,028
-507,999	-200,000	-0,022	0,114
-506,985	427,149	0,054	0,084
-505,970	-200,000	0,001	-0,086
-504,956	211,834	-0,014	0,016
-503,941	-10,915	0,065	-0,031
-502,926	91,723	-0,052	-0,042
-501,912	800,000	-0,061	0,145
-500,897	2,796	-0,142	-0,074
-499,883	339,094	0,096	-0,135
-498,868	158,612	-0,036	-0,036
-497,853	-200,000	0,020	0,153
-496,839	489,521	0,036	-0,060
-495,824	19,275	0,096	0,055
-494,810	456,532	-0,041	0,066
-493,795	800,000	0,029	0,088
-492,781	-66,697	0,055	0,016
-491,766	282,404	-0,055	-0,071
-490,751	771,220	-0,077	-0,151
-489,737	12,436	0,206	0,114
-488,722	134,797	0,118	0,110
-487,708	-82,913	-0,034	0,008
-486,693	-6,334	-0,153	-0,075
-485,678	516,001	-0,082	0,139
-484,664	14,889	-0,084	0,047
-483,649	-200,000	-0,011	0,139
-482,635	800,000	0,032	-0,075
-481,620	491,213	0,041	0,068
-480,605	695,123	0,052	0,098
-479,591	145,452	-0,060	-0,058
-478,576	800,000	0,008	-0,016
-477,562	-66,601	-0,018	-0,005
-476,547	-33,860	0,074	0,029
-475,532	-77,949	0,072	0,018
-474,518	800,000	0,008	0,024
-473,503	-200,000	0,006	-0,070
-472,489	189,748	0,139	0,150
-471,474	-5,930	-0,012	0,006
-470,459	7,741	-0,126	0,068
-469,445	-92,448	-0,063	-0,013
-468,430	-135,901	0,067	-0,006
-467,416	-200,000	-0,043	0,151
-466,401	-64,748	0,068	0,020
-465,386	105,278	0,040	0,034
-464,372	432,540	-0,050	0,078
-463,357	273,000	0,024	0,030
-462,343	-200,000	-0,040	-0,160
-461,328	61,894	-0,104	0,074
-460,313	3,929	-0,086	0,045
-459,299	-200,000	0,026	-0,216
-458,284	800,000	0,056	-0,157
-457,270	-33,033	0,060	0,024
-456,255	-200,000	-0,007	0,157
-455,241	108,955	0,026	0,023
-454,226	239,879	-0,078	-0,094
-453,211	276,519	-0,067	0,086
-452,197	-184,536	0,093	-0,001
-451,182	-200,000	0,007	-0,102
-450,168	-42,269	0,030	0,011
-449,153	21,833	-0,062	0,036
-448,138	-13,797	0,024	0,011
-447,124	-200,000	-0,021	-0,136
-446,109	-200,000	-0,023	0,108
-445,095	-91,300	-0,035	-0,007
-444,080	-19,433	0,061	0,027
-443,065	800,000	-0,015	0,033
-442,051	800,000	-0,043	0,090
-441,036	-200,000	-0,023	-0,136
-440,022	800,000	-0,062	0,150
-439,007	-193,633	0,176	0,001
-437,992	440,181	0,079	0,124
-436,978	-200,000	0,001	0,072
-435,963	-64,936	-0,134	0,039
-434,949	191,413	-0,043	0,047
-433,934	777,013	0,064	0,127
-432,919	519,994	0,116	-0,195
-431,905	101,576	-0,116	-0,097
-430,890	-200,000	-0,016	0,065
-429,876	-200,000	0,001	0,030
-428,861	360,278	-0,008	0,011
-427,846	800,000	0,026	0,055
-426,832	159,297	0,054	0,054
-425,817	-174,456	-0,047	-0,001
-424,803	459,715	0,090	-0,144
-423,788	218,361	0,064	-0,074
-422,773	236,256	0,093	0,111
-421,759	65,650	0,117	0,085
-420,744	-40,163	-0,159	-0,059
-419,730	-36,016	0,102	-0,039
-418,715	171,509	-0,091	-0,094
-417,701	-200,000	-0,001	-0,170
-416,686	48,096	0,030	-0,020
-415,671	-8,385	0,062	-0,030
-414,657	-200,000	0,010	0,058
-413,642	221,853	-0,067	-0,077
-412,628	-43,452	-0,112	-0,041
-411,613	-74,164	-0,024	0,006
-410,598	55,412	0,064	-0,044
-409,584	282,602	-0,056	0,073
-408,569	76,769	0,065	-0,049
-407,555	-65,364	0,113	-0,032
-406,540	756,939	-0,006	-0,013
-405,525	-200,000	-0,027	-0,144
-404,511	-74,554	-0,114	-0,029
-403,496	800,000	0,040	0,082
-402,482	-139,797	0,038	-0,003
-401,467	27,213	0,070	0,042
-400,452	-12,196	0,102	0,048
-399,438	230,539	-0,075	0,088
-398,423	584,042	-0,024	-0,043
-397,409	149,519	-0,033	0,032
-396,394	-126,495	0,059	0,006
-395,379	11,436	0,092	0,051
-394,365	54,366	0,126	0,087
-393,350	526,982	-0,035	-0,059
-392,336	-155,403	-0,048	-0,002
-391,321	124,714	-0,144	0,130
-390,306	800,000	-0,081	-0,174
-389,292	-200,000	0,029	-0,106
-388,277	-200,000	-0,003	0,019
-387,263	162,393	-0,087	0,087
-386,248	-124,330	0,119	0,013
-385,233	39,526	0,142	0,091
-384,219	-17,938	0,119	0,053
-383,204	-200,000	-0,002	0,033
-382,190	556,141	-0,018	0,031
-381,175	-200,000	-0,013	-0,043
-380,160	-148,030	-0,023	0,001
-379,146	-193,157	0,032	-0,000
-378,131	-200,000	-0,019	0,114
-377,117	-127,867	0,006	0,001
-376,102	528,758	0,039	0,066
-375,088	-51,665	-0,039	-0,013
-374,073	800,000	0,071	-0,164
-373,058	337,326	0,088	-0,123
-372,044	442,679	0,090	0,142
-371,029	-158,377	0,010	-0,000
-370,015	-200,000	-0,015	0,058
-369,000	-200,000	0,005	-0,084
-367,985	-153,979	-0,094	0,005
-366,971	800,000	-0,013	0,033
-365,956	-15,146	-0,066	0,030
-364,942	-200,000	0,047	-0,162
-363,927	-200,000	0,005	0,024
-362,912	589,328	0,049	-0,086
-361,898	-200,000	0,049	-0,181
-360,883	119,170	-0,133	-0,117
-359,869	-157,728	-0,079	0,003
-358,854	-85,604	0,077	0,017
-357,839	49,265	0,089	0,060
-356,825	-200,000	0,044	0,148
-355,810	800,000	-0,068	0,144
-354,796	135,553	-0,041	-0,038
-353,781	418,771	0,012	-0,018
-352,766	-106,132	-0,122	0,019
-351,752	98,308	-0,130	-0,107
-350,737	133,154	-0,108	0,100
-349,723	-200,000	-0,006	0,063
-348,708	439,864	-0,067	0,105
-347,693	55,130	0,092	-0,064
-346,679	203,790	-0,088	0,097
-345,664	49,864	-0,096	0,065
-344,650	64,300	-0,105	0,075
-343,635	27,343	-0,021	-0,013
-342,620	137,461	-0,078	-0,073
-341,606	-139,184	-0,089	-0,007
-340,591	236,611	0,060	0,071
-339,577	-81,164	-0,083	0,020
-338,562	140,335	0,105	-0,099
-337,548	62,327	0,091	-0,065
-336,533	207,197	-0,017	0,019
-335,518	800,000	0,015	0,040
-334,504	242,321	0,102	0,122
-333,489	125,017	-0,170	-0,153
-332,475	179,369	-0,048	-0,050
-331,460	154,559	0,018	-0,018
-330,445	146,201	0,072	0,069
-329,431	-128,387	0,045	0,005
-328,416	-121,005	0,094	-0,011
-327,402	26,140	0,080	0,048
-326,387	14,032	-0,123	0,068
-325,372	800,000	0,051	0,141
-324,358	800,000	0,019	0,057
-323,343	-120,878	-0,036	-0,004
-322,329	-152,398	-0,062	-0,003
-321,314	-200,000	0,008	0,113
-320,299	72,854	0,059	-0,044
-319,285	170,555	-0,031	0,032
-318,270	509,279	-0,057	-0,095
-317,256	-200,000	-0,018	-0,073
-316,241	296,233	0,048	0,063
-315,226	-78,659	0,073	-0,018
-314,212	70,396	-0,091	0,067
-313,197	-24,566	0,073	-0,031
-312,183	53,512	-0,038	-0,026
-311,168	-135,835	-0,043	-0,004
-310,153	-149,659	-0,195	0,011
-309,139	-94,034	-0,167	0,032
-308,124	800,000	0,045	0,119
-307,110	223,617	0,057	0,066
-306,095	-200,000	0,027	-0,183
-305,080	800,000	0,038	-0,091
-304,066	-181,585	0,022	-0,000
-303,051	101,547	-0,066	-0,055
-302,037	280,559	-0,027	-0,035
-301,022	163,593	0,113	0,113
-300,008	412,953	-0,057	-0,086
-298,993	-23,895	0,116	-0,049
-297,978	18,137	0,096	-0,054
-296,964	-4,293	-0,058	0,028
-295,949	-107,310	-0,133	0,021
-294,935	452,808	0,031	0,049
-293,920	165,729	-0,034	0,034
-292,905	-115,946	0,114	-0,015
-291,891	-200,000	-0,017	0,068
-290,876	357,360	-0,114	-0,162
-289,862	306,690	-0,030	0,040
-288,847	-200,000	-0,015	-0,093
-287,832	-200,000	-0,027	-0,093
-286,818	54,531	-0,102	-0,070
-285,803	-16,626	0,102	0,046
-284,789	-171,385	0,123	0,003
-283,774	-18,838	-0,118	0,052
-282,759	87,170	-0,026	-0,020
-281,745	6,584	-0,127	-0,067
-280,730	-200,000	0,013	0,065
-279,716	83,535	0,007	-0,005
-278,701	745,893	0,045	0,086
-277,686	-137,997	-0,060	-0,005
-276,672	-48,322	0,032	-0,011
-275,657	-71,570	-0,074	-0,020
-274,643	-41,485	0,071	-0,026
-273,628	-138,392	-0,092	-0,007
-272,613	800,000	0,047	-0,120
-271,599	-109,329	0,131	-0,020
-270,584	-150,150	0,167	-0,009
-269,570	-124,656	0,154	-0,017
-268,555	-9,543	-0,074	-0,035
-267,540	-200,000	-0,000	0,063
-266,526	-132,670	-0,100	-0,009
-265,511	316,408	-0,052	-0,070
-264,497	130,284	-0,081	-0,074
-263,482	-48,908	0,014	0,005
-262,467	-200,000	-0,020	0,093
-261,453	-200,000	0,000	0,010
-260,438	67,885	0,076	0,055
-259,424	-87,349	0,157	-0,034
-258,409	-175,661	-0,079	0,001
-257,395	246,308	0,073	0,087
-256,380	233,476	0,062	0,073
-255,365	800,000	-0,021	0,062
-254,351	-200,000	-0,021	0,112
-253,336	371,866	-0,018	0,026
-252,322	-78,326	0,081	-0,020
-251,307	800,000	0,039	-0,085
-250,292	800,000	-0,034	-0,082
-249,278	39,845	0,079	-0,050
-248,263	318,807	0,049	0,067
-247,249	-45,418	-0,063	0,022
-246,234	125,645	0,022	-0,019
-245,219	-107,494	0,066	-0,010
-244,205	-142,882	-0,050	-0,003
-243,190	276,562	-0,113	-0,143
-242,176	-200,000	0,005	0,028
-241,161	-137,914	-0,129	-0,010
-240,146	382,634	0,103	0,152
-239,132	-78,223	-0,075	-0,018
-238,117	-107,391	0,041	-0,006
-237,103	-200,000	-0,038	-0,150
-236,088	194,182	-0,077	-0,084
-235,073	-8,707	0,087	-0,041
-234,059	-135,775	0,070	0,006
-233,044	-12,804	0,105	0,049
-232,030	-200,000	0,002	0,064
-231,015	780,494	0,031	-0,061
-230,000	386,467	0,039	-0,058
-228,986	149,672	0,082	-0,079
-227,971	-65,842	0,117	-0,033
-226,957	-200,000	0,001	-0,061
-225,942	3,665	-0,036	-0,019
-224,927	122,924	0,154	0,137
-223,913	11,141	-0,132	-0,072
-222,898	-79,216	-0,110	-0,026
-221,884	-200,000	-0,017	-0,107
-220,869	540,860	0,020	-0,035
-219,855	-123,696	0,135	-0,015
-218,840	800,000	-0,042	0,086
-217,825	-200,000	-0,003	0,067
-216,811	-200,000	-0,030	-0,101
-215,796	-200,000	-0,008	0,025
-214,782	800,000	0,046	-0,109
-213,767	800,000	0,032	0,066
-212,752	153,097	-0,032	0,031
-211,738	-200,000	0,025	0,098
-210,723	-200,000	0,033	-0,108
-209,709	-63,461	-0,109	-0,032
-208,694	-65,239	-0,064	0,018
-207,679	800,000	-0,052	-0,106
-206,665	-154,684	0,105	0,005
-205,650	-43,240	-0,025	-0,009
-204,636	800,000	0,015	-0,045
-203,621	2,704	-0,061	-0,031
-202,606	-113,588	0,076	-0,010
-201,592	-200,000	-0,014	-0,130
-200,577	-6,425	-0,111	0,053
-199,563	766,057	0,010	-0,019
-198,548	659,106	0,017	0,031
-197,533	419,338	-0,053	0,081
-196,519	-200,000	-0,028	0,178
-195,504	215,416	0,055	0,062
-194,490	800,000	-0,019	0,051
-193,475	-200,000	0,040	0,135
-192,460	540,010	0,080	-0,137
-191,446	196,492	0,035	-0,038
-190,431	-16,919	0,089	0,040
-189,417	-200,000	0,005	0,047
-188,402	-200,000	-0,003	0,040
-187,387	800,000	-0,058	-0,134
-186,373	261,753	0,030	0,037
-185,358	-87,253	0,097	0,021
-184,344	169,611	-0,069	0,070
-183,329	-200,000	-0,006	0,155
-182,315	-69,025	-0,025	-0,007
-181,300	739,028	0,024	-0,045
-180,285	800,000	0,038	-0,085
-179,271	11,774	-0,046	0,025
-178,256	437,928	0,042	-0,065
-177,242	143,555	-0,077	0,073
-176,227	-200,000	-0,017	0,175
-175,212	-0,268	-0,088	0,044
-174,198	800,000	0,014	-0,041
-173,183	-25,361	-0,053	0,022
-172,169	-200,000	0,006	-0,062
-171,154	-81,721	-0,193	0,045
-170,139	-77,597	0,090	0,022
-169,125	566,272	-0,063	0,108
-168,110	800,000	-0,029	0,086
-167,096	-200,000	-0,017	0,076
-166,081	800,000	0,016	-0,049
-165,066	-72,931	-0,157	0,041
-164,052	800,000	0,034	-0,079
-163,037	62,781	0,060	0,043
-162,023	-200,000	0,002	0,037
-161,008	800,000	-0,029	0,061
-159,993	-28,135	0,146	-0,060
-158,979	-8,878	-0,031	-0,015
-157,964	800,000	-0,060	-0,124
-156,950	757,896	-0,051	0,099
-155,935	46,203	0,049	-0,032
-154,920	-7,408	0,038	-0,018
-153,906	-200,000	-0,001	0,143
-152,891	-200,000	0,044	0,186
-151,877	-200,000	0,024	0,165
-150,862	-150,047	-0,072	-0,004
-149,847	152,793	0,012	-0,012
-148,833	-74,349	0,070	0,018
-147,818	784,227	0,081	-0,158
-146,804	154,593	0,025	0,024
-145,789	375,113	-0,105	0,153
-144,775	800,000	0,005	0,014
-143,760	-139,918	-0,106	-0,008
-142,745	397,081	0,010	-0,015
-141,731	561,078	-0,015	0,026
-140,716	159,031	-0,060	-0,060
-139,702	800,000	0,023	0,048
-138,687	186,934	0,022	-0,023
-137,672	-200,000	0,012	-0,126
-136,658	-24,990	-0,025	-0,011
-135,643	-200,000	-0,021	0,118
-134,629	-94,917	0,031	0,006
-133,614	203,263	0,143	0,157
-132,599	80,141	-0,140	0,107
-131,585	-200,000	-0,005	0,042
-130,570	41,426	0,085	0,054
-129,556	-200,000	0,007	0,041
-128,541	800,000	0,061	0,122
-127,526	-25,886	0,135	0,056
-126,512	768,177	0,011	0,020
-125,497	800,000	-0,046	0,121
-124,483	72,659	-0,058	0,043
-123,468	598,571	0,033	0,059
-122,453	662,653	0,041	0,075
-121,439	800,000	0,065	-0,140
-120,424	-200,000	-0,011	0,051
-119,410	772,963	0,075	-0,146
-118,395	238,223	0,098	0,115
-117,380	-59,785	0,087	0,026
-116,366	-200,000	0,001	0,049
-115,351	800,000	0,015	0,031
-114,337	-157,977	-0,098	-0,004
-113,322	-119,145	0,070	-0,009
-112,307	-200,000	-0,021	-0,091
-111,293	800,000	-0,040	-0,105
-110,278	800,000	0,006	0,017
-109,264	800,000	0,079	0,163
-108,249	-166,637	-0,059	0,002
-107,234	238,898	-0,041	-0,048
-106,220	-74,266	0,057	-0,015
-105,205	19,904	-0,145	-0,083
-104,191	800,000	-0,021	0,042
-103,176	-200,000	0,072	0,299
-102,162	59,607	0,100	0,070
-101,147	202,283	0,079	-0,086
-100,132	800,000	0,067	-0,156
-99,118	173,855	-0,104	-0,107
-98,103	800,000	-0,007	-0,019
-97,089	678,289	-0,049	-0,091
-96,074	49,933	0,156	-0,104
-95,059	-33,257	-0,091	0,035
-94,045	113,256	-0,058	-0,050
-93,030	-11,896	0,044	-0,020
-92,016	-103,198	0,044	0,007
-91,001	-200,000	0,023	0,088
-89,986	141,430	-0,030	-0,028
-88,972	-45,039	-0,008	0,003
-87,957	800,000	-0,026	-0,057
-86,943	-200,000	-0,007	0,034
-85,928	56,633	0,090	0,062
-84,913	-155,737	-0,076	0,003
-83,899	-97,813	0,103	-0,019
-82,884	263,274	0,067	0,083
-81,870	-45,899	-0,047	0,016
-80,855	545,616	0,095	0,161
-79,840	335,861	0,006	0,008
-78,826	-200,000	0,020	-0,063
-77,811	85,876	-0,072	-0,056
-76,797	-200,000	0,006	-0,135
-75,782	800,000	0,019	0,039
-74,767	659,186	0,067	0,122
-73,753	-200,000	0,026	0,181
-72,738	638,048	0,035	0,062
-71,724	-162,329	-0,264	-0,009
-70,709	-163,124	-0,103	-0,003
-69,694	520,316	-0,056	-0,093
-68,680	-200,000	0,012	-0,150
-67,665	800,000	0,018	0,048
-66,651	30,092	0,078	0,047
-65,636	800,000	-0,030	0,081
-64,622	247,023	0,037	0,045
-63,607	-109,348	-0,067	-0,010
-62,592	800,000	0,033	-0,069
-61,578	180,528	0,105	-0,109
-60,563	-175,089	-0,080	0,002
-59,549	34,087	-0,119	0,073
-58,534	-13,019	-1,736	-0,795
-57,519	329,734	-1,366	-1,864
-56,505	-200,000	-0,608	-4,529
-55,490	364,789	1,017	1,451
-54,476	800,000	4,846	11,068
-53,461	-200,000	20,134	323,669
-52,446	800,000	752,400	2311,200
-51,432	548,255	1663,379	2827,654
-50,417	74,883	1671,739	1243,373
-49,403	19,946	1544,793	878,069
-48,388	13,924	1467,210	804,666
-47,373	18,359	1457,303	820,628
-46,359	16,305	1446,972	804,938
-45,344	12,197	1442,479	782,727
-44,330	12,141	1440,758	781,496
-43,315	12,144	1438,760	780,394
-42,300	12,167	1437,106	779,578
-41,286	12,155	1435,916	778,843
-40,271	12,150	1434,382	777,957
-39,257	12,151	1433,314	777,350
-38,242	12,183	1432,226	776,882
-37,227	12,177	1430,779	776,041
-36,213	12,175	1429,514	775,314
-35,198	12,183	1428,425	774,728
-34,184	12,240	1427,551	774,493
-33,169	12,186	1425,959	773,343
-32,154	12,256	1424,898	773,071
-31,140	12,250	1423,774	772,400
-30,125	12,208	1422,757	771,617
-29,111	12,242	1421,348	770,986
-28,096	12,209	1420,212	770,184
-27,082	12,115	1419,253	769,189
-26,067	12,085	1418,533	768,625
-25,052	12,113	1417,354	768,089
-24,038	12,112	1416,264	767,461
-23,023	12,139	1415,043	766,899
-22,009	12,162	1414,154	766,493
-20,994	12,104	1413,087	765,614
-19,979	12,056	1412,274	764,917
-18,965	12,054	1411,346	764,372
-17,950	12,076	1410,379	763,923
-16,936	12,111	1409,549	763,607
-15,921	12,069	1408,411	762,765
-14,906	12,010	1407,625	762,033
-13,892	12,044	1406,758	761,690
-12,877	12,028	1405,696	761,013
-11,863	12,045	1404,882	760,620
-10,848	12,012	1404,004	759,961
-9,833	11,953	1403,273	759,258
-8,819	11,973	1402,230	758,756
-7,804	11,924	1401,476	758,093
-6,790	11,937	1400,442	757,564
-5,775	11,961	1399,368	757,064
-4,760	11,987	1398,184	756,515
-3,746	11,953	1397,297	755,846
-2,731	11,922	1396,588	755,287
-1,717	11,895	1395,837	754,727
-0,702	11,915	1393,992	753,791
0,313	16,056	1308,583	726,672
1,327	32,575	699,661	426,472
2,342	51,055	121,824	81,492
3,356	4,436	16,523	8,533
4,371	15,268	3,288	1,816
5,386	18,669	0,697	0,393
6,400	-200,000	-0,002	0,288
7,415	78,943	-0,236	-0,178
8,429	98,562	-0,196	-0,160
9,444	118,027	-0,246	-0,214
10,459	33,453	-0,259	-0,159
11,473	71,007	-0,214	-0,157
12,488	0,522	-0,269	-0,135
13,502	-81,773	-0,480	-0,110
14,517	-88,615	-0,406	-0,085
15,531	18,398	-0,340	-0,191
16,546	68,452	-0,351	-0,254
17,561	155,435	-0,269	-0,262
18,575	581,121	-0,144	-0,249
19,590	58,473	-0,274	-0,190
20,604	-86,761	-0,304	-0,065
21,619	1,179	-0,485	-0,245
22,634	39,941	-0,541	-0,342
23,648	65,240	-0,480	-0,342
24,663	100,153	-0,417	-0,341
25,677	168,596	-0,284	-0,286
26,692	-27,858	-0,486	-0,198
27,707	39,381	-0,387	-0,244
28,721	104,981	-0,316	-0,262
29,736	198,113	-0,369	-0,399
30,750	125,013	-0,420	-0,373
31,765	55,110	-0,394	-0,268
32,780	131,153	-0,343	-0,310
33,794	111,637	-0,387	-0,329
34,809	96,417	-0,347	-0,280
35,823	-20,137	-0,351	-0,152
36,838	74,816	-0,398	-0,295
37,853	38,692	-0,441	-0,276
38,867	-10,541	-0,292	-0,136
39,882	51,958	-0,427	-0,286
40,896	113,625	-0,288	-0,246
41,911	120,941	-0,263	-0,230
42,926	-15,964	-0,338	-0,151
43,940	73,788	-0,368	-0,271
44,955	37,618	-0,286	-0,178
45,969	203,648	-0,237	-0,258
46,984	86,378	-0,345	-0,268
47,999	74,673	-0,317	-0,234
49,013	257,190	-0,184	-0,223
50,028	-7,736	-0,340	-0,161
51,042	90,604	-0,321	-0,253
52,057	15,574	-0,284	-0,156
53,071	-40,942	-0,404	-0,146
54,086	-13,462	-0,345	-0,156
55,101	158,203	-0,294	-0,287
56,115	46,007	-0,374	-0,243
57,130	127,328	-0,367	-0,328
58,144	86,019	-0,384	-0,297
59,159	1,846	-0,379	-0,192
60,174	87,953	-0,312	-0,243
61,188	111,246	-0,375	-0,318
62,203	108,153	-0,352	-0,295
63,217	-48,672	-0,443	-0,149
64,232	-13,455	-0,286	-0,130
65,247	-32,676	-0,399	-0,155
66,261	61,886	-0,299	-0,209
67,276	126,602	-0,368	-0,328
68,290	128,538	-0,275	-0,247
69,305	753,610	-0,111	-0,212
70,320	-95,702	-0,287	-0,053
71,334	91,455	-0,337	-0,266
72,349	99,466	-0,381	-0,309
73,363	23,643	-0,279	-0,161
74,378	18,719	-0,353	-0,198
75,393	-26,745	-0,443	-0,181
76,407	165,805	-0,183	-0,181
77,422	-65,935	-0,315	-0,088
78,436	94,635	-0,208	-0,166
79,451	-57,974	-0,344	-0,105
80,466	109,548	-0,288	-0,242
81,480	256,879	-0,263	-0,318
82,495	-4,887	-0,225	-0,109
83,509	-141,166	-0,340	-0,024
84,524	160,258	-0,227	-0,222
85,539	-53,939	-0,340	-0,108
86,553	-50,067	-0,439	-0,145
87,568	262,730	-0,293	-0,357
88,582	-14,524	-0,282	-0,127
89,597	138,730	-0,227	-0,209
90,611	476,270	-0,223	-0,354
91,626	800,000	-0,084	-0,185
92,641	91,713	-0,220	-0,173
93,655	-51,437	-0,220	-0,072
94,670	-141,186	-0,303	0,021
95,684	-57,602	-0,400	-0,122
96,699	-33,700	-0,450	-0,173
97,714	-100,338	-0,329	-0,057
98,728	-46,284	-0,393	-0,135
99,743	55,294	-0,275	-0,186
100,757	316,420	-0,174	-0,230
101,772	205,757	-0,242	-0,264
102,787	98,300	-0,346	-0,279
103,801	175,363	-0,182	-0,184
104,816	-132,969	-0,219	-0,019
105,830	-70,014	-0,179	-0,047
106,845	-62,649	-0,267	-0,077
107,860	-30,339	-0,317	-0,125
108,874	-15,970	-0,242	-0,107
109,889	71,587	-0,250	-0,181
110,903	60,721	-0,310	-0,215
111,918	105,461	-0,350	-0,289
112,933	-122,029	-0,305	-0,035
113,947	-101,791	-0,261	-0,044
114,962	-58,525	-0,283	-0,085
115,976	-78,803	-0,257	-0,061
116,991	220,987	-0,223	-0,251
118,006	90,972	-0,339	-0,266
119,020	79,359	-0,284	-0,213
120,035	-58,336	-0,283	-0,085
121,049	-79,503	-0,369	-0,086
122,064	-29,583	-0,417	-0,166
123,079	-22,354	-0,267	-0,112
124,093	-31,236	-0,227	-0,089
125,108	182,722	-0,243	-0,251
126,122	67,881	-0,348	-0,248
127,137	61,774	-0,255	-0,177
128,151	79,634	-0,206	-0,154
129,166	-42,388	-0,279	-0,099
130,181	29,178	-0,218	-0,129
131,195	102,616	-0,275	-0,224
132,210	-36,856	-0,216	-0,081
133,224	57,358	-0,354	-0,241
134,239	-14,059	-0,314	-0,141
135,254	423,106	-0,188	-0,283
136,268	-60,914	-0,301	-0,088
137,283	34,539	-0,358	-0,218
138,297	435,022	-0,123	-0,187
139,312	2,542	-0,297	-0,150
140,327	-73,582	-0,284	-0,072
141,341	135,870	-0,161	-0,146
142,356	30,221	-0,141	-0,084
143,370	34,964	-0,263	-0,160
144,385	159,121	-0,132	-0,128
145,400	44,887	-0,260	-0,166
146,414	414,684	-0,194	-0,290
147,429	232,104	-0,236	-0,270
148,443	-8,688	-0,147	-0,068
149,458	10,310	-0,166	-0,088
150,473	90,539	-0,219	-0,171
151,487	337,322	-0,213	-0,290
152,502	49,713	-0,220	-0,144
153,516	-123,109	-0,158	0,017
154,531	112,649	-0,255	-0,215
155,546	290,978	-0,218	-0,277
156,560	135,395	-0,268	-0,243
157,575	67,532	-0,195	-0,139
158,589	65,133	-0,180	-0,127
159,604	-11,323	-0,249	-0,114
160,619	-101,423	-0,338	-0,057
161,633	-158,581	-0,267	-0,011
162,648	-96,026	-0,143	-0,026
163,662	-149,961	-0,215	0,012
164,677	148,337	-0,076	-0,071
165,692	-78,556	-0,265	-0,063
166,706	-66,638	-0,243	-0,067
167,721	224,828	-0,104	-0,117
168,735	19,060	-0,187	-0,104
169,750	800,000	-0,075	-0,226
170,764	178,098	-0,245	-0,250
171,779	97,806	-0,226	-0,181
172,794	-32,461	-0,307	-0,119
173,808	-57,986	-0,221	-0,067
174,823	753,601	-0,137	-0,259
175,837	-65,864	-0,236	-0,065
176,852	155,122	-0,306	-0,293
177,867	-99,779	-0,225	-0,039
178,881	-2,796	-0,194	-0,094
179,896	-38,274	-0,302	-0,111
180,910	125,103	-0,180	-0,157
181,925	99,995	-0,264	-0,213
182,940	123,300	-0,269	-0,234
183,954	-99,254	-0,221	-0,038
184,969	-190,227	-0,171	-0,001
185,983	230,689	-0,202	-0,230
186,998	-120,365	-0,249	-0,029
188,013	131,670	-0,287	-0,257
189,027	96,890	-0,204	-0,162
190,042	123,250	-0,186	-0,162
191,056	103,762	-0,193	-0,158
192,071	74,325	-0,166	-0,121
193,086	430,882	-0,113	-0,170
194,100	346,213	-0,136	-0,187
195,115	800,000	-0,112	-0,276
196,129	-17,583	-0,261	-0,113
197,144	191,395	-0,201	-0,211
198,159	-72,959	-0,252	-0,064
199,173	92,480	-0,165	-0,129
200,188	-51,678	-0,263	-0,085
201,202	-24,059	-0,252	-0,104
202,217	-74,220	-0,199	-0,050
203,232	-154,209	-0,272	0,013
204,246	199,997	-0,158	-0,168
205,261	-22,662	-0,293	-0,122
206,275	371,524	-0,140	-0,198
207,290	-25,855	-0,098	-0,040
208,304	192,824	-0,059	-0,061
209,319	181,668	-0,130	-0,133
210,334	-61,689	-0,202	0,058
211,348	110,742	-0,333	-0,278
212,363	-128,769	-0,275	-0,026
213,377	-116,957	-0,253	-0,032
214,392	44,705	-0,181	-0,115
215,407	86,621	-0,184	-0,141
216,421	800,000	-0,070	-0,179
217,436	0,815	-0,272	-0,135
218,450	-114,903	-0,279	-0,036
219,465	388,777	-0,202	-0,291
220,480	134,988	-0,223	-0,201
221,494	800,000	-0,032	-0,070
222,509	-200,000	-0,010	-0,169
223,523	66,210	-0,189	-0,133
224,538	374,755	-0,126	-0,179
225,553	-53,302	-0,294	-0,093
226,567	-150,274	-0,304	-0,016
227,582	170,689	-0,317	-0,315
228,596	399,587	-0,076	-0,110
229,611	-6,186	-0,154	-0,072
230,626	73,077	-0,166	-0,120
231,640	-12,533	-0,250	-0,112
232,655	-55,121	-0,196	-0,061
233,669	56,252	-0,190	-0,128
234,684	289,814	-0,155	-0,195
235,699	694,899	-0,104	-0,190
236,713	11,489	-0,126	-0,067
237,728	-23,676	-0,133	-0,055
238,742	55,930	-0,204	-0,136
239,757	224,388	-0,082	-0,091
240,772	565,227	-0,160	-0,270
241,786	-200,000	-0,027	-0,099
242,801	253,815	-0,104	-0,123
243,815	335,052	-0,142	-0,191
244,830	111,240	-0,164	-0,137
245,844	253,445	-0,114	-0,135
246,859	82,926	-0,205	-0,154
247,874	186,030	-0,254	-0,262
248,888	-23,809	-0,141	-0,058
249,903	49,064	-0,061	-0,040
250,917	292,485	-0,114	-0,144
251,932	1,845	-0,123	-0,061
252,947	-19,694	-0,082	0,035
253,961	187,044	-0,167	-0,173
254,976	60,090	-0,240	-0,164
255,990	155,999	-0,141	-0,134
257,005	223,227	-0,173	-0,193
258,020	-1,867	-0,323	-0,156
259,034	-64,711	-0,243	-0,068
260,049	57,256	-0,215	-0,145
261,063	332,200	-0,181	-0,242
262,078	800,000	-0,118	-0,265
263,093	175,708	-0,199	-0,200
264,107	173,058	-0,116	-0,115
265,122	-96,615	-0,188	-0,034
266,136	-53,854	-0,191	-0,060
267,151	550,506	-0,133	-0,221
268,166	-101,782	-0,261	-0,043
269,180	-25,929	-0,231	-0,094
270,195	280,862	-0,180	-0,222
271,209	-78,781	-0,139	-0,033
272,224	-28,126	-0,272	-0,108
273,239	800,000	-0,080	-0,158
274,253	56,911	-0,153	-0,102
275,268	40,584	-0,152	-0,094
276,282	145,630	-0,219	-0,203
277,297	-12,467	-0,312	-0,140
278,312	209,621	-0,152	-0,165
279,326	228,982	-0,181	-0,204
280,341	-200,000	-0,032	-0,178
281,355	-140,754	-0,085	-0,006
282,370	221,052	-0,130	-0,144
283,384	82,081	-0,136	-0,101
284,399	125,682	-0,110	-0,096
285,414	162,279	-0,117	-0,113
286,428	-90,155	-0,134	-0,027
287,443	59,827	-0,116	0,079
288,457	-77,428	-0,177	-0,042
289,472	745,149	-0,082	-0,152
290,487	151,190	-0,122	-0,114
291,501	449,599	-0,150	-0,228
292,516	398,909	-0,133	-0,192
293,530	-109,096	-0,198	-0,029
294,545	-200,000	-0,075	-0,251
295,560	800,000	-0,060	-0,119
296,574	567,737	-0,117	-0,196
297,589	52,542	-0,221	-0,145
298,603	145,741	-0,201	-0,186
299,618	590,845	-0,089	-0,152
300,633	154,011	-0,158	-0,149
301,647	136,264	-0,157	-0,141
302,662	-64,092	-0,166	-0,046
303,676	-103,029	-0,140	-0,023
304,691	35,356	-0,160	-0,096
305,706	57,599	-0,201	-0,135
306,720	565,771	-0,172	-0,288
307,735	800,000	-0,068	-0,164
308,749	-200,000	-0,075	0,000
309,764	-113,587	-0,092	0,012
310,779	800,000	-0,127	-0,249
311,793	-67,938	-0,307	-0,082
312,808	-44,335	-0,131	0,045
313,822	8,619	-0,173	-0,089
314,837	-140,673	-0,175	-0,012
315,852	533,543	-0,115	-0,187
316,866	223,290	-0,083	-0,092
317,881	361,295	-0,084	-0,117
318,895	-22,927	-0,154	-0,063
319,910	-85,676	-0,196	-0,041
320,925	-46,741	-0,036	-0,012
321,939	-154,781	-0,176	0,008
322,954	-200,000	0,022	-0,101
323,968	30,207	-0,141	-0,082
324,983	95,086	-0,067	0,052
325,997	-83,696	-0,162	-0,035
327,012	800,000	-0,070	-0,206
328,027	35,408	-0,119	-0,072
329,041	143,426	-0,144	-0,132
330,056	-11,366	-0,240	-0,108
331,070	46,563	0,066	-0,042
332,085	55,022	-0,177	-0,117
333,100	262,478	-0,139	-0,166
334,114	-75,049	-0,198	0,048
335,129	-109,236	-0,196	-0,028
336,143	800,000	-0,017	-0,042
337,158	279,564	-0,057	-0,070
338,173	161,337	-0,141	-0,135
339,187	-66,607	-0,154	-0,042
340,202	-69,522	-0,120	-0,031
341,216	-77,376	-0,080	0,019
342,231	-37,994	-0,091	-0,033
343,246	88,904	-0,154	-0,118
344,260	-33,667	-0,227	-0,085
345,275	-65,623	-0,233	-0,064
346,289	-77,352	-0,281	0,066
347,304	551,247	-0,077	-0,127
348,319	-93,137	-0,117	-0,022
349,333	-84,099	-0,132	0,028
350,348	30,520	-0,140	-0,082
351,362	150,990	-0,091	-0,085
352,377	-59,111	-0,182	0,053
353,392	-40,442	-0,104	0,037
354,406	-43,431	-0,151	-0,052
355,421	208,015	1313,160	1407,182
356,435	160,038	1473,679	1407,650
