DTS Sentinel unit serial number:	SN410029Multiplexer serial number:	ORYXHardware model number:	OX2-SRSoftware version number:	ORYX F/W v4,00 Oryx Data Collector v3.7.2.0data status	okinstallation	B3 Nyhavnadifferential loss correction	single-endedforward channel	channel 1reverse channel	N/Adate	2023/12/02time	21:57:30forward acquisition time	300,00reverse acquisition time	0,00gamma	499,1914k internal	0,3201k external	0,3201temperature offset calibration	1,0000default loss term (dB/km)	0,3820temperature slope calibration	1,0000multiplexer offset coefficient	1,0000multiplexer slope coefficient	1,0000fibre end	0,00T internal ref (°C)	13,20T ext. ref 1 (°C)	-1,85T ext. ref 2 (°C)	-1,86length (m)	temperature (°C)	Stokes	anti-Stokes-744,400	671,804	-0,134	-0,254
-743,385	-200,000	0,031	0,130
-742,371	282,149	-0,202	-0,263
-741,356	269,699	0,138	0,176
-740,342	-23,846	-0,383	-0,166
-739,327	-200,000	0,015	0,304
-738,312	67,162	-0,255	-0,189
-737,298	729,501	-0,082	0,160
-736,283	800,000	-0,097	-0,213
-735,269	-200,000	-0,008	0,264
-734,254	45,232	-0,275	-0,184
-733,239	-93,745	-0,180	0,036
-732,225	-200,000	-0,022	-0,236
-731,210	40,776	0,194	0,127
-730,196	80,607	-0,092	0,072
-729,181	305,015	0,036	-0,049
-728,167	-145,163	-0,164	0,011
-727,152	341,063	0,061	0,087
-726,137	-36,873	-0,080	0,031
-725,123	-132,752	-0,177	0,016
-724,108	-200,000	-0,046	-0,158
-723,094	67,964	-0,108	-0,080
-722,079	-200,000	-0,047	-0,157
-721,064	-200,000	-0,007	-0,110
-720,050	-117,756	-0,143	0,018
-719,035	170,951	0,055	-0,058
-718,021	-200,000	-0,001	0,020
-717,006	-113,977	-0,124	0,017
-715,991	-136,677	-0,118	-0,010
-714,977	340,210	0,070	-0,099
-713,962	159,552	-0,044	-0,045
-712,948	-25,581	-0,089	0,038
-711,933	-136,382	0,152	-0,013
-710,918	-25,995	0,073	0,031
-709,904	178,405	-0,051	-0,054
-708,889	17,765	0,070	-0,040
-707,875	272,352	-0,079	-0,101
-706,860	721,543	0,070	0,136
-705,845	800,000	0,029	0,081
-704,831	768,035	0,066	0,131
-703,816	-200,000	-0,001	0,097
-702,802	70,019	0,056	-0,042
-701,787	-2,854	-0,142	-0,072
-700,772	221,183	-0,093	0,108
-699,758	-66,660	0,035	0,010
-698,743	-89,121	-0,111	-0,024
-697,729	111,858	-0,101	0,089
-696,714	-68,678	0,021	0,006
-695,699	-168,130	-0,120	0,003
-694,685	-200,000	-0,011	-0,038
-693,670	252,957	0,067	0,083
-692,656	2,363	-0,058	0,030
-691,641	13,566	-0,076	-0,043
-690,627	-147,424	0,157	0,010
-689,612	463,600	0,049	0,080
-688,597	232,440	0,027	0,033
-687,583	106,457	-0,043	-0,037
-686,568	-62,616	-0,101	-0,030
-685,554	126,862	-0,070	-0,065
-684,539	-200,000	0,039	0,135
-683,524	800,000	-0,041	0,110
-682,510	-124,861	0,078	-0,009
-681,495	254,601	-0,035	-0,043
-680,481	-61,021	-0,052	0,016
-679,466	5,060	-0,049	0,026
-678,451	226,708	0,074	-0,087
-677,437	800,000	0,056	-0,146
-676,422	65,094	-0,037	0,027
-675,408	51,055	-0,073	0,050
-674,393	114,138	0,042	0,037
-673,378	800,000	-0,040	-0,082
-672,364	-18,726	-0,050	-0,023
-671,349	-52,673	-0,111	-0,037
-670,335	262,143	-0,039	-0,049
-669,320	-37,065	-0,036	-0,014
-668,305	169,928	-0,026	0,027
-667,291	-78,901	0,096	0,024
-666,276	20,013	-0,052	-0,031
-665,262	754,895	0,064	0,125
-664,247	-200,000	0,009	-0,106
-663,232	-165,915	-0,072	-0,002
-662,218	-134,251	0,073	-0,006
-661,203	296,350	0,047	-0,063
-660,189	-200,000	-0,029	0,100
-659,174	-200,000	-0,012	-0,099
-658,159	319,780	-0,013	0,018
-657,145	89,803	-0,087	-0,070
-656,130	376,356	0,033	0,050
-655,116	796,953	0,026	-0,053
-654,101	114,876	0,062	-0,055
-653,086	454,593	0,069	-0,112
-652,072	535,311	-0,008	-0,014
-651,057	-153,962	-0,027	-0,001
-650,043	-155,061	-0,093	0,004
-649,028	105,097	-0,008	0,007
-648,014	-159,422	0,027	-0,001
-646,999	-200,000	-0,024	0,115
-645,984	-200,000	-0,009	0,042
-644,970	-200,000	0,011	0,068
-643,955	-200,000	-0,030	-0,102
-642,941	147,316	0,181	-0,177
-641,926	361,230	-0,038	-0,056
-640,911	-186,281	0,061	0,001
-639,897	65,909	0,089	-0,066
-638,882	497,542	0,027	-0,044
-637,868	-37,779	-0,106	-0,041
-636,853	-200,000	-0,013	0,046
-635,838	394,247	-0,102	-0,155
-634,824	49,641	0,030	-0,021
-633,809	74,977	0,104	-0,079
-632,795	-200,000	0,000	0,148
-631,780	-48,664	0,016	-0,005
-630,765	-200,000	-0,006	0,032
-629,751	-200,000	-0,013	-0,067
-628,736	-200,000	0,015	0,087
-627,722	-200,000	0,009	-0,043
-626,707	-200,000	0,014	-0,183
-625,692	76,038	0,046	-0,035
-624,678	-90,730	0,122	-0,025
-623,663	-200,000	0,013	0,108
-622,649	212,111	-0,093	0,106
-621,634	-200,000	-0,028	-0,125
-620,619	-61,626	-0,207	0,063
-619,605	42,359	-0,089	-0,059
-618,590	12,727	-0,027	-0,015
-617,576	800,000	-0,046	0,119
-616,561	-200,000	0,010	0,071
-615,546	-200,000	-0,005	0,052
-614,532	-200,000	-0,058	0,000
-613,517	30,713	-0,176	-0,109
-612,503	-200,000	0,010	0,140
-611,488	-200,000	0,005	-0,094
-610,474	349,493	0,101	-0,145
-609,459	164,621	-0,072	0,073
-608,444	-200,000	0,012	0,059
-607,430	513,416	0,024	0,041
-606,415	-200,000	0,026	0,000
-605,401	-197,350	-0,143	-0,001
-604,386	-200,000	0,005	-0,096
-603,371	-200,000	-0,017	-0,166
-602,357	-200,000	-0,000	0,077
-601,342	-94,944	-0,031	-0,006
-600,328	-33,271	-0,069	-0,027
-599,313	537,736	-0,080	-0,138
-598,298	-94,189	0,183	-0,036
-597,284	-200,000	0,031	0,176
-596,269	180,482	0,023	0,024
-595,255	-200,000	-0,002	0,028
-594,240	-200,000	0,001	0,043
-593,225	-98,304	-0,091	0,017
-592,211	209,287	0,048	-0,054
-591,196	-200,000	-0,023	-0,124
-590,182	263,248	0,094	-0,118
-589,167	30,556	0,061	0,037
-588,152	43,188	0,022	-0,014
-587,138	800,000	-0,075	0,155
-586,123	-106,808	0,107	0,017
-585,109	131,979	-0,128	-0,119
-584,094	-83,466	-0,105	-0,024
-583,079	-80,967	0,117	-0,028
-582,065	3,447	-0,043	-0,023
-581,050	39,707	-0,146	0,095
-580,036	678,764	0,030	-0,057
-579,021	321,547	-0,051	-0,070
-578,006	208,002	-0,087	-0,098
-576,992	1,236	-0,133	-0,069
-575,977	768,455	0,034	0,067
-574,963	-100,360	0,096	0,017
-573,948	181,513	-0,129	0,137
-572,934	188,483	-0,081	0,087
-571,919	800,000	-0,019	-0,041
-570,904	-200,000	0,001	-0,192
-569,890	-200,000	-0,001	0,038
-568,875	800,000	0,006	0,014
-567,861	-200,000	0,015	-0,081
-566,846	-200,000	0,010	0,137
-565,831	33,137	0,088	0,055
-564,817	-16,433	-0,010	-0,005
-563,802	477,529	-0,102	-0,168
-562,788	580,337	-0,046	-0,082
-561,773	161,956	-0,069	-0,070
-560,758	-200,000	-0,025	0,145
-559,744	-200,000	-0,027	0,000
-558,729	-29,469	0,063	-0,026
-557,715	-20,083	0,075	-0,033
-556,700	-200,000	0,011	-0,061
-555,685	-43,877	-0,113	0,041
-554,671	241,842	-0,032	-0,039
-553,656	427,497	-0,030	0,046
-552,642	-200,000	0,001	0,120
-551,627	-157,116	-0,083	-0,004
-550,612	-94,511	-0,092	-0,018
-549,598	98,323	-0,052	0,043
-548,583	63,963	-0,096	-0,070
-547,569	165,542	0,107	0,109
-546,554	-2,202	0,172	-0,087
-545,539	674,056	0,075	-0,141
-544,525	226,981	-0,022	-0,026
-543,510	67,460	0,034	0,025
-542,496	-200,000	0,005	0,067
-541,481	-200,000	0,030	-0,104
-540,466	-188,647	-0,185	-0,002
-539,452	-90,057	-0,065	0,014
-538,437	721,195	0,043	-0,082
-537,423	175,903	0,072	0,075
-536,408	84,697	-0,012	0,010
-535,393	147,318	-0,031	-0,030
-534,379	-200,000	-0,028	-0,102
-533,364	-38,205	-0,065	0,025
-532,350	800,000	0,052	0,119
-531,335	71,463	0,058	0,043
-530,321	54,851	0,018	-0,013
-529,306	263,403	0,032	-0,041
-528,291	-83,858	-0,040	-0,009
-527,277	714,376	-0,017	-0,032
-526,262	800,000	-0,025	-0,074
-525,248	84,111	-0,060	-0,047
-524,233	0,784	-0,020	0,010
-523,218	119,811	-0,080	0,071
-522,204	800,000	-0,058	0,154
-521,189	152,394	-0,069	0,068
-520,175	-200,000	0,029	0,137
-519,160	800,000	-0,040	0,088
-518,145	800,000	0,011	-0,034
-517,131	-200,000	0,019	-0,068
-516,116	-162,981	0,067	0,002
-515,102	-200,000	0,001	0,045
-514,087	-200,000	-0,006	0,080
-513,072	800,000	-0,021	-0,058
-512,058	-104,924	0,050	0,008
-511,043	463,095	-0,074	0,119
-510,029	135,021	0,097	0,091
-509,014	800,000	0,043	0,124
-507,999	396,404	-0,014	0,021
-506,985	299,869	-0,073	0,098
-505,970	306,725	0,013	0,017
-504,956	-200,000	0,037	-0,138
-503,941	51,653	0,017	0,012
-502,926	-200,000	0,034	0,127
-501,912	495,608	0,037	0,061
-500,897	-200,000	-0,026	-0,104
-499,883	255,861	0,045	-0,056
-498,868	16,427	-0,026	-0,015
-497,853	6,791	0,027	-0,015
-496,839	-157,071	-0,078	-0,003
-495,824	-37,852	0,129	0,049
-494,810	53,240	0,013	0,009
-493,795	-200,000	-0,022	-0,155
-492,781	800,000	0,048	-0,149
-491,766	-102,343	-0,042	-0,007
-490,751	431,838	0,074	0,115
-489,737	-85,083	-0,089	-0,020
-488,722	800,000	-0,015	0,036
-487,708	800,000	0,025	0,051
-486,693	162,038	0,102	0,103
-485,678	-123,141	-0,170	-0,019
-484,664	800,000	0,004	0,010
-483,649	-2,931	0,056	0,028
-482,635	-34,474	-0,054	0,021
-481,620	282,758	0,079	-0,102
-480,605	-200,000	0,013	0,041
-479,591	-17,582	-0,034	-0,015
-478,576	-200,000	0,040	-0,218
-477,562	446,434	0,066	0,104
-476,547	-200,000	0,005	0,189
-475,532	651,825	0,083	0,155
-474,518	-46,211	-0,119	-0,042
-473,503	-132,265	0,102	-0,009
-472,489	735,556	0,049	0,095
-471,474	179,879	-0,039	-0,041
-470,459	168,882	-0,028	-0,028
-469,445	-184,023	-0,149	0,002
-468,430	134,649	0,083	-0,077
-467,416	800,000	0,033	-0,086
-466,401	181,677	-0,088	-0,093
-465,386	-22,412	0,052	-0,022
-464,372	800,000	0,020	0,051
-463,357	602,778	-0,091	0,163
-462,343	33,038	-0,093	-0,058
-461,328	21,991	-0,104	0,061
-460,313	-30,924	-0,036	0,015
-459,299	453,603	0,072	0,115
-458,284	-200,000	0,074	0,000
-457,270	-200,000	-0,005	0,062
-456,255	-184,839	-0,153	0,002
-455,241	276,356	-0,087	-0,112
-454,226	25,971	-0,053	-0,032
-453,211	-200,000	-0,002	-0,079
-452,197	-99,808	-0,126	0,023
-451,182	285,249	0,043	0,056
-450,168	-48,904	0,057	-0,020
-449,153	-200,000	0,031	0,115
-448,138	65,074	-0,044	0,032
-447,124	-200,000	-0,027	-0,121
-446,109	67,500	-0,065	0,048
-445,095	-200,000	0,013	0,099
-444,080	800,000	0,021	0,065
-443,065	-200,000	-0,029	0,147
-442,051	31,257	-0,081	-0,050
-441,036	19,286	-0,148	-0,085
-440,022	-177,805	-0,069	0,001
-439,007	800,000	0,054	-0,130
-437,992	-47,386	0,095	-0,033
-436,978	-118,197	0,069	0,009
-435,963	313,223	-0,047	-0,064
-434,949	-200,000	-0,002	-0,062
-433,934	800,000	-0,059	0,127
-432,919	153,585	-0,043	-0,043
-431,905	-200,000	0,023	0,098
-430,890	800,000	0,024	0,072
-429,876	553,112	0,041	0,071
-428,861	-200,000	-0,007	-0,039
-427,846	-155,643	0,083	0,004
-426,832	-8,714	-0,053	-0,025
-425,817	181,605	-0,016	0,017
-424,803	105,336	0,108	-0,091
-423,788	800,000	0,048	-0,150
-422,773	16,196	0,212	-0,120
-421,759	-51,027	0,038	-0,013
-420,744	-18,073	0,048	-0,022
-419,730	89,636	-0,132	0,105
-418,715	-200,000	-0,004	-0,156
-417,701	-114,467	-0,047	0,006
-416,686	36,567	0,058	0,037
-415,671	-62,508	0,085	-0,025
-414,657	800,000	-0,013	-0,033
-413,642	-200,000	-0,024	-0,215
-412,628	793,495	-0,044	-0,087
-411,613	-200,000	0,048	-0,184
-410,598	-200,000	0,003	-0,062
-409,584	-56,305	0,036	-0,011
-408,569	53,562	0,144	0,099
-407,555	-200,000	0,013	0,148
-406,540	-200,000	-0,027	0,158
-405,525	62,948	0,046	0,033
-404,511	-105,527	-0,106	-0,017
-403,496	-200,000	-0,003	-0,101
-402,482	87,483	0,051	0,041
-401,467	-200,000	-0,030	0,158
-400,452	-118,394	0,139	0,018
-399,438	194,290	-0,052	0,056
-398,423	-76,838	0,113	0,028
-397,409	800,000	0,014	-0,031
-396,394	18,914	0,035	-0,020
-395,379	-200,000	-0,016	-0,078
-394,365	-123,530	0,126	0,014
-393,350	-145,393	0,138	-0,009
-392,336	800,000	0,015	0,035
-391,321	-200,000	-0,004	0,079
-390,306	-200,000	-0,006	-0,047
-389,292	62,230	-0,101	0,072
-388,277	321,235	0,054	-0,074
-387,263	465,139	0,066	-0,106
-386,248	-200,000	-0,001	0,053
-385,233	800,000	0,075	0,175
-384,219	-1,817	0,075	0,038
-383,204	420,153	-0,053	-0,082
-382,190	48,550	-0,049	-0,033
-381,175	-200,000	0,041	-0,193
-380,160	731,594	-0,057	0,109
-379,146	-196,753	-0,052	-0,000
-378,131	-200,000	0,030	0,236
-377,117	-200,000	-0,011	0,084
-376,102	-200,000	0,007	0,094
-375,088	-200,000	0,014	-0,135
-374,073	79,969	0,036	0,027
-373,058	-48,400	-0,026	-0,009
-372,044	-200,000	-0,027	0,106
-371,029	-200,000	0,012	0,117
-370,015	724,207	-0,017	0,032
-369,000	-92,112	-0,176	0,035
-367,985	-200,000	-0,016	-0,073
-366,971	-60,289	-0,136	0,041
-365,956	-133,069	0,172	-0,015
-364,942	-200,000	-0,010	-0,133
-363,927	81,826	-0,131	0,101
-362,912	-93,862	0,041	0,008
-361,898	-200,000	-0,001	0,010
-360,883	666,292	-0,079	-0,146
-359,869	-35,371	0,073	-0,028
-358,854	-200,000	0,036	-0,181
-357,839	-200,000	0,012	-0,075
-356,825	285,659	-0,058	0,076
-355,810	-200,000	0,023	0,118
-354,796	393,183	0,055	-0,082
-353,781	613,567	0,059	-0,107
-352,766	-102,271	-0,120	0,020
-351,752	-200,000	-0,042	0,133
-350,737	-113,592	0,064	-0,009
-349,723	330,203	0,046	-0,064
-348,708	223,936	-0,079	0,091
-347,693	390,523	-0,074	-0,110
-346,679	-80,304	0,036	0,009
-345,664	-74,388	-0,097	0,025
-344,650	-200,000	-0,019	-0,080
-343,635	-77,959	-0,072	0,018
-342,620	12,707	0,100	0,055
-341,606	51,608	0,029	-0,020
-340,591	145,948	0,046	0,045
-339,577	0,249	0,080	-0,041
-338,562	103,104	-0,129	-0,108
-337,548	47,947	0,108	0,072
-336,533	259,801	-0,042	-0,053
-335,518	175,282	0,093	0,097
-334,504	800,000	-0,016	-0,040
-333,489	-53,011	-0,044	-0,014
-332,475	-200,000	0,012	-0,129
-331,460	46,494	-0,089	-0,059
-330,445	365,566	-0,027	-0,038
-329,431	-200,000	-0,014	-0,092
-328,416	-35,130	0,083	0,032
-327,402	-200,000	-0,019	-0,102
-326,387	-92,906	-0,115	-0,023
-325,372	-155,865	-0,063	0,003
-324,358	-200,000	0,015	-0,058
-323,343	-24,533	0,166	-0,071
-322,329	-53,276	0,097	-0,032
-321,314	800,000	0,071	0,186
-320,299	739,622	0,082	0,159
-319,285	186,139	-0,068	-0,072
-318,270	800,000	-0,048	-0,100
-317,256	-200,000	-0,030	-0,116
-316,241	-55,593	-0,067	0,021
-315,226	-200,000	0,011	-0,046
-314,212	347,534	0,062	-0,087
-313,197	566,553	-0,048	-0,083
-312,183	73,395	-0,106	0,079
-311,168	-57,153	0,049	-0,015
-310,153	-200,000	-0,014	-0,142
-309,139	-64,754	0,128	-0,037
-308,124	-117,974	0,122	-0,015
-307,110	-200,000	0,007	0,031
-306,095	-42,089	0,068	0,025
-305,080	-100,441	-0,060	-0,011
-304,066	800,000	-0,046	-0,125
-303,051	-179,637	0,101	0,002
-302,037	298,810	-0,046	-0,060
-301,022	-200,000	-0,002	-0,084
-300,008	800,000	0,045	0,092
-298,993	-200,000	0,005	0,031
-297,978	426,296	-0,102	-0,157
-296,964	-200,000	-0,008	-0,126
-295,949	156,578	-0,004	0,004
-294,935	-178,678	-0,046	-0,001
-293,920	281,266	-0,023	0,030
-292,905	-200,000	0,000	-0,061
-291,891	-200,000	-0,003	0,021
-290,876	-200,000	0,060	0,246
-289,862	559,400	0,041	0,070
-288,847	800,000	-0,038	-0,080
-287,832	-200,000	0,005	-0,056
-286,818	-200,000	0,010	0,090
-285,803	32,600	0,055	0,034
-284,789	800,000	0,032	0,078
-283,774	-200,000	0,021	0,213
-282,759	49,358	-0,048	0,032
-281,745	-200,000	0,037	0,122
-280,730	125,295	-0,077	0,070
-279,716	800,000	-0,026	-0,080
-278,701	800,000	-0,017	0,049
-277,686	-155,886	-0,037	-0,002
-276,672	142,156	0,095	0,090
-275,657	263,690	0,143	0,178
-274,643	800,000	-0,026	-0,072
-273,628	82,657	-0,089	-0,069
-272,613	3,682	-0,059	0,031
-271,599	542,863	0,040	0,068
-270,584	-150,827	0,071	0,004
-269,570	27,216	0,136	0,082
-268,555	-200,000	0,019	-0,157
-267,540	410,523	-0,036	-0,055
-266,526	128,992	0,014	-0,012
-265,511	57,172	-0,130	-0,091
-264,497	-200,000	0,013	-0,061
-263,482	-110,750	0,090	0,013
-262,467	19,819	0,012	-0,007
-261,453	702,947	0,029	0,055
-260,438	104,349	-0,172	0,145
-259,424	108,878	-0,111	-0,095
-258,409	-112,024	-0,117	0,017
-257,395	409,367	0,027	-0,041
-256,380	100,116	0,051	-0,042
-255,365	170,234	0,050	0,051
-254,351	187,122	0,053	0,057
-253,336	-46,640	-0,143	-0,050
-252,322	431,404	0,061	-0,094
-251,307	-135,016	-0,191	-0,016
-250,292	800,000	0,034	-0,070
-249,278	-200,000	0,022	0,080
-248,263	-115,730	0,230	-0,030
-247,249	370,056	0,059	-0,085
-246,234	-200,000	-0,012	0,054
-245,219	281,584	-0,034	-0,043
-244,205	-81,041	-0,174	0,041
-243,190	8,188	0,022	0,012
-242,176	88,147	-0,059	0,047
-241,161	800,000	0,031	0,071
-240,146	-124,839	0,038	-0,004
-239,132	103,279	0,103	0,086
-238,117	304,187	-0,046	0,062
-237,103	800,000	-0,005	-0,015
-236,088	-86,949	0,084	0,018
-235,073	-91,710	0,071	-0,014
-234,059	68,963	0,108	-0,079
-233,044	800,000	0,021	0,059
-232,030	800,000	-0,037	-0,080
-231,015	599,898	-0,011	-0,019
-230,000	-142,723	0,048	0,003
-228,986	332,391	0,083	-0,114
-227,971	-83,584	0,038	0,009
-226,957	207,220	-0,084	0,094
-225,942	-131,376	0,097	-0,009
-224,927	-91,023	-0,091	-0,018
-223,913	572,862	-0,043	-0,074
-222,898	90,030	0,064	0,051
-221,884	-84,503	-0,036	-0,008
-220,869	-57,469	0,100	-0,031
-219,855	124,802	-0,067	-0,061
-218,840	-200,000	-0,009	-0,029
-217,825	-200,000	-0,003	0,068
-216,811	-200,000	-0,011	-0,056
-215,796	399,481	-0,025	-0,037
-214,782	133,632	0,010	0,009
-213,767	18,643	0,111	0,063
-212,752	-200,000	0,046	0,187
-211,738	-200,000	0,048	0,170
-210,723	-85,581	0,106	0,023
-209,709	-88,703	-0,075	0,016
-208,694	-200,000	-0,007	0,051
-207,679	-38,166	0,097	0,036
-206,665	-71,688	0,107	-0,028
-205,650	-100,898	0,110	0,019
-204,636	-84,641	0,148	-0,033
-203,621	72,832	-0,073	0,054
-202,606	-75,815	-0,125	-0,031
-201,592	-95,138	-0,079	0,015
-200,577	-200,000	0,044	-0,157
-199,563	-200,000	-0,002	0,056
-198,548	-200,000	-0,000	0,016
-197,533	54,434	-0,035	-0,024
-196,519	147,016	0,081	-0,078
-195,504	46,331	-0,103	-0,068
-194,490	-200,000	-0,005	0,080
-193,475	136,402	-0,037	-0,034
-192,460	-200,000	-0,019	0,142
-191,446	777,661	-0,035	0,068
-190,431	-200,000	-0,001	0,084
-189,417	800,000	-0,037	0,075
-188,402	262,284	0,076	-0,094
-187,387	-200,000	-0,022	-0,090
-186,373	-200,000	0,009	-0,078
-185,358	592,525	-0,043	0,076
-184,344	-60,859	-0,080	-0,024
-183,329	12,652	0,064	0,035
-182,315	-82,178	0,173	0,040
-181,300	-87,461	-0,135	-0,029
-180,285	550,631	-0,086	0,148
-179,271	-200,000	0,010	-0,079
-178,256	-121,261	-0,147	-0,017
-177,242	140,970	0,022	-0,021
-176,227	18,799	0,115	0,065
-175,212	600,318	0,051	0,090
-174,198	800,000	-0,072	0,168
-173,183	-200,000	0,007	0,030
-172,169	-200,000	-0,054	-0,279
-171,154	-177,354	0,049	-0,001
-170,139	-200,000	0,020	0,064
-169,125	-25,847	0,230	0,096
-168,110	-77,417	0,129	0,032
-167,096	149,777	-0,084	0,081
-166,081	231,277	-0,097	-0,113
-165,066	144,780	-0,057	-0,055
-164,052	-200,000	0,002	-0,017
-163,037	-200,000	-0,018	0,076
-162,023	-200,000	-0,007	0,033
-161,008	542,303	0,024	0,040
-159,993	-200,000	0,003	0,107
-158,979	161,292	-0,106	-0,105
-157,964	800,000	0,015	-0,034
-156,950	449,510	0,020	-0,032
-155,935	-55,425	0,180	-0,057
-154,920	800,000	0,026	-0,063
-153,906	800,000	0,077	0,164
-152,891	39,828	-0,022	-0,014
-151,877	-200,000	-0,014	0,081
-150,862	328,327	-0,047	-0,065
-149,847	0,537	-0,136	-0,069
-148,833	224,111	-0,028	0,033
-147,818	484,275	0,035	0,057
-146,804	800,000	-0,002	-0,005
-145,789	247,128	0,079	0,095
-144,775	-200,000	0,001	0,012
-143,760	312,000	-0,090	0,121
-142,745	256,520	-0,026	0,032
-141,731	792,851	0,022	-0,042
-140,716	432,246	-0,078	-0,121
-139,702	-27,783	-0,063	-0,026
-138,687	800,000	0,061	0,169
-137,672	-112,147	-0,128	0,018
-136,658	-119,183	-0,067	-0,008
-135,643	-200,000	-0,001	-0,029
-134,629	-200,000	-0,009	-0,075
-133,614	1,356	0,073	0,037
-132,599	34,169	0,160	0,099
-131,585	-58,945	0,043	0,013
-130,570	16,514	-0,098	0,055
-129,556	118,577	-0,150	0,132
-128,541	-42,417	-0,104	-0,037
-127,526	256,518	0,058	-0,071
-126,512	-28,511	-0,055	0,022
-125,497	-200,000	-0,012	0,038
-124,483	-13,224	0,174	0,080
-123,468	800,000	0,017	-0,037
-122,453	-40,891	-0,057	0,021
-121,439	-200,000	-0,003	0,066
-120,424	199,411	-0,094	-0,102
-119,410	472,229	0,022	-0,036
-118,395	800,000	0,014	0,044
-117,380	-71,557	0,146	0,038
-116,366	-200,000	-0,004	0,055
-115,351	-200,000	0,026	-0,134
-114,337	280,082	-0,042	-0,054
-113,322	-120,161	-0,172	-0,021
-112,307	245,935	-0,053	0,063
-111,293	522,627	0,028	-0,047
-110,278	114,873	0,044	0,038
-109,264	-200,000	-0,001	0,112
-108,249	-160,926	0,083	0,003
-107,234	437,415	-0,021	0,032
-106,220	520,611	-0,041	-0,069
-105,205	276,505	-0,071	-0,090
-104,191	5,983	-0,081	-0,043
-103,176	217,095	0,128	0,144
-102,162	800,000	0,043	0,129
-101,147	206,798	-0,062	-0,068
-100,132	-200,000	-0,030	0,118
-99,118	-73,886	-0,040	-0,010
-98,103	211,549	-0,049	-0,055
-97,089	-114,128	0,017	0,002
-96,074	-200,000	0,039	0,123
-95,059	548,737	0,102	0,174
-94,045	79,201	-0,087	-0,066
-93,030	-200,000	0,003	0,071
-92,016	-200,000	0,031	-0,117
-91,001	-37,167	0,088	0,033
-89,986	52,000	0,030	0,020
-88,972	-200,000	-0,024	0,145
-87,957	29,383	-0,029	-0,017
-86,943	258,059	0,015	-0,018
-85,928	-148,626	-0,030	-0,002
-84,913	-200,000	0,003	-0,056
-83,899	-200,000	0,013	-0,110
-82,884	-64,355	0,061	0,017
-81,870	173,969	0,009	0,009
-80,855	-152,122	-0,096	-0,005
-79,840	-30,480	-0,123	0,049
-78,826	800,000	-0,049	0,114
-77,811	-200,000	0,013	0,145
-76,797	-139,873	0,045	0,003
-75,782	-200,000	-0,024	0,118
-74,767	-27,612	0,100	-0,041
-73,753	423,592	-0,066	0,101
-72,738	-38,192	0,137	-0,051
-71,724	304,436	-0,118	-0,156
-70,709	-200,000	0,040	-0,156
-69,694	-165,443	-0,106	-0,003
-68,680	361,079	-0,067	0,095
-67,665	84,790	0,133	0,103
-66,651	765,115	-0,092	0,179
-65,636	211,484	-0,063	0,071
-64,622	-200,000	0,006	0,071
-63,607	800,000	-0,010	-0,024
-62,592	108,570	-0,075	0,064
-61,578	-4,039	0,129	0,063
-60,563	-200,000	-0,006	-0,119
-59,549	-200,000	0,025	0,159
-58,534	-36,403	-1,716	-0,651
-57,519	474,955	-1,278	-2,050
-56,505	-200,000	-0,575	-4,512
-55,490	265,260	0,927	1,147
-54,476	800,000	4,934	11,490
-53,461	-200,000	19,224	321,204
-52,446	-200,000	742,052	2334,448
-51,432	571,824	1656,151	2867,249
-50,417	77,972	1670,940	1260,208
-49,403	21,190	1543,866	885,036
-48,388	15,065	1466,358	810,817
-47,373	17,985	1456,616	819,509
-46,359	16,664	1446,381	807,387
-45,344	13,341	1441,869	788,912
-44,330	13,255	1439,828	787,354
-43,315	13,225	1438,224	786,303
-42,300	13,260	1436,285	785,380
-41,286	13,326	1435,151	785,043
-40,271	13,277	1433,858	784,068
-39,257	13,229	1432,693	783,175
-38,242	13,287	1431,329	782,674
-37,227	13,302	1429,986	781,979
-36,213	13,334	1428,671	781,379
-35,198	13,272	1427,494	780,410
-34,184	13,357	1426,705	780,354
-33,169	13,289	1425,324	779,244
-32,154	13,368	1424,108	778,922
-31,140	13,319	1423,015	778,063
-30,125	13,317	1421,894	777,407
-29,111	13,339	1420,743	776,854
-28,096	13,282	1419,616	775,934
-27,082	13,245	1418,498	775,121
-26,067	13,265	1417,366	774,562
-25,052	13,258	1416,438	773,993
-24,038	13,218	1415,343	773,174
-23,023	13,210	1414,445	772,615
-22,009	13,180	1413,411	771,878
-20,994	13,187	1412,497	771,381
-19,979	13,209	1411,585	770,961
-18,965	13,164	1410,523	770,137
-17,950	13,156	1409,808	769,677
-16,936	13,168	1408,834	769,173
-15,921	13,113	1407,656	768,242
-14,906	13,148	1406,824	767,923
-13,892	13,109	1405,928	767,218
-12,877	13,139	1404,969	766,804
-11,863	13,143	1404,216	766,382
-10,848	13,111	1403,327	765,719
-9,833	13,115	1402,373	765,185
-8,819	13,042	1401,777	764,489
-7,804	13,039	1400,766	763,895
-6,790	13,059	1399,588	763,313
-5,775	13,070	1398,391	762,684
-4,760	13,072	1397,493	762,170
-3,746	13,035	1396,695	761,534
-2,731	13,018	1395,903	760,993
-1,717	13,041	1394,880	760,513
-0,702	13,014	1393,104	759,389
0,313	17,029	1309,693	732,469
1,327	33,534	703,224	431,402
2,342	51,779	122,983	82,658
3,356	2,215	16,728	8,526
4,371	-14,406	3,437	1,559
5,386	-15,624	0,625	0,281
6,400	-200,000	-0,048	0,238
7,415	-42,364	-0,304	-0,109
8,429	60,414	-0,278	-0,195
9,444	83,042	-0,401	-0,308
10,459	-39,694	-0,479	-0,176
11,473	-56,483	-0,369	-0,115
12,488	6,681	-0,253	-0,132
13,502	-9,629	-0,219	-0,103
14,517	33,380	-0,284	-0,174
15,531	132,602	-0,324	-0,296
16,546	35,498	-0,361	-0,223
17,561	206,527	-0,392	-0,432
18,575	-41,155	-0,175	-0,063
19,590	28,160	-0,351	-0,209
20,604	24,843	-0,312	-0,182
21,619	136,892	-0,434	-0,400
22,634	109,073	-0,441	-0,372
23,648	82,150	-0,410	-0,313
24,663	103,427	-0,387	-0,320
25,677	123,999	-0,265	-0,235
26,692	-51,388	-0,446	-0,146
27,707	8,326	-0,321	-0,170
28,721	-71,012	-0,285	-0,075
29,736	34,224	-0,408	-0,251
30,750	93,614	-0,382	-0,305
31,765	55,030	-0,399	-0,271
32,780	137,508	-0,384	-0,355
33,794	319,608	-0,268	-0,359
34,809	18,254	-0,433	-0,243
35,823	9,031	-0,434	-0,230
36,838	48,394	-0,502	-0,331
37,853	142,234	-0,327	-0,306
38,867	181,056	-0,323	-0,335
39,882	-4,897	-0,412	-0,200
40,896	-17,322	-0,386	-0,171
41,911	526,974	-0,204	-0,340
42,926	117,532	-0,268	-0,233
43,940	107,160	-0,303	-0,254
44,955	182,138	-0,309	-0,321
45,969	-46,447	-0,315	-0,108
46,984	20,983	-0,365	-0,208
47,999	10,746	-0,274	-0,147
49,013	-35,407	-0,440	-0,168
50,028	-1,971	-0,317	-0,156
51,042	159,035	-0,324	-0,317
52,057	168,302	-0,274	-0,275
53,071	32,164	-0,351	-0,213
54,086	97,435	-0,339	-0,274
55,101	64,947	-0,359	-0,255
56,115	18,517	-0,402	-0,226
57,130	40,036	-0,363	-0,229
58,144	45,435	-0,387	-0,251
59,159	-24,830	-0,369	-0,154
60,174	8,501	-0,244	-0,129
61,188	89,503	-0,378	-0,297
62,203	-67,803	-0,382	-0,104
63,217	167,655	-0,347	-0,348
64,232	247,637	-0,261	-0,311
65,247	-74,049	-0,398	-0,101
66,261	29,418	-0,265	-0,158
67,276	123,618	-0,333	-0,294
68,290	92,669	-0,286	-0,227
69,305	7,656	-0,312	-0,164
70,320	53,647	-0,254	-0,171
71,334	117,350	-0,327	-0,283
72,349	302,245	-0,196	-0,255
73,363	147,932	-0,315	-0,299
74,378	19,001	-0,344	-0,193
75,393	59,517	-0,277	-0,192
76,407	-16,817	-0,362	-0,160
77,422	-39,492	-0,247	-0,091
78,436	26,289	-0,348	-0,204
79,451	-14,809	-0,310	-0,139
80,466	-25,852	-0,370	-0,152
81,480	1,558	-0,326	-0,164
82,495	514,697	-0,158	-0,260
83,509	-15,325	-0,388	-0,173
84,524	179,887	-0,232	-0,239
85,539	-44,717	-0,323	-0,113
86,553	160,353	-0,259	-0,253
87,568	46,703	-0,300	-0,195
88,582	54,519	-0,227	-0,153
89,597	310,812	-0,234	-0,308
90,611	-63,745	-0,422	-0,121
91,626	2,453	-0,224	-0,113
92,641	49,492	-0,200	-0,132
93,655	45,201	-0,189	-0,122
94,670	-0,081	-0,257	-0,128
95,684	-102,098	-0,365	-0,061
96,699	-43,407	-0,350	-0,124
97,714	9,159	-0,261	-0,138
98,728	56,073	-0,158	-0,107
99,743	16,987	-0,346	-0,192
100,757	-12,031	-0,325	-0,149
101,772	226,939	-0,268	-0,306
102,787	302,333	-0,208	-0,271
103,801	125,748	-0,260	-0,230
104,816	-111,722	-0,315	-0,044
105,830	-74,064	-0,315	-0,080
106,845	-17,863	-0,241	-0,105
107,860	-63,916	-0,354	-0,101
108,874	6,421	-0,317	-0,164
109,889	151,301	-0,323	-0,308
110,903	-57,509	-0,345	-0,105
111,918	-50,089	-0,259	-0,085
112,933	-117,564	-0,207	-0,026
113,947	39,053	-0,217	-0,135
114,962	140,336	-0,222	-0,206
115,976	-63,360	-0,299	-0,086
116,991	143,169	-0,317	-0,295
118,006	-1,469	-0,362	-0,178
119,020	-89,870	-0,389	-0,079
120,035	47,922	-0,314	-0,205
121,049	429,568	-0,187	-0,285
122,064	209,163	-0,200	-0,219
123,079	-18,082	-0,272	-0,119
124,093	118,720	-0,285	-0,246
125,108	-85,000	-0,267	-0,058
126,122	122,886	-0,209	-0,183
127,137	235,915	-0,123	-0,143
128,151	-170,493	-0,180	0,004
129,166	11,163	-0,266	-0,142
130,181	800,000	-0,048	-0,142
131,195	34,819	-0,226	-0,138
132,210	109,821	-0,356	-0,299
133,224	-39,340	-0,287	-0,105
134,239	162,278	-0,187	-0,183
135,254	-25,750	-0,173	-0,071
136,268	46,113	-0,211	-0,136
137,283	-72,945	-0,155	0,040
138,297	38,214	-0,368	-0,229
139,312	88,935	-0,401	-0,312
140,327	173,629	-0,194	-0,195
141,341	336,431	-0,177	-0,241
142,356	-38,359	-0,257	-0,095
143,370	118,101	-0,152	-0,131
144,385	-66,837	-0,262	-0,072
145,400	-38,057	-0,369	-0,136
146,414	-18,544	-0,240	-0,104
147,429	29,298	-0,180	-0,107
148,443	328,372	-0,180	-0,242
149,458	-54,720	-0,211	-0,066
150,473	-143,011	-0,291	-0,019
151,487	0,333	-0,233	-0,116
152,502	21,821	-0,328	-0,186
153,516	118,328	-0,248	-0,213
154,531	-26,332	-0,344	-0,140
155,546	22,816	-0,291	-0,166
156,560	-10,088	-0,238	-0,110
157,575	111,145	-0,147	-0,123
158,589	-63,171	-0,182	-0,052
159,604	-14,173	-0,273	-0,122
160,619	-31,568	-0,434	-0,169
161,633	-19,908	-0,264	-0,113
162,648	-46,316	-0,243	-0,083
163,662	157,370	-0,193	-0,186
164,677	-189,953	-0,209	0,002
165,692	267,417	-0,194	-0,237
166,706	61,499	-0,171	-0,118
167,721	261,197	-0,248	-0,300
168,735	172,695	-0,180	-0,181
169,750	230,094	-0,218	-0,249
170,764	181,959	-0,219	-0,225
171,779	161,999	-0,111	-0,109
172,794	406,199	-0,197	-0,291
173,808	154,068	-0,265	-0,254
174,823	335,420	-0,105	-0,142
175,837	346,595	-0,159	-0,219
176,852	-40,867	-0,347	-0,125
177,867	-83,816	-0,216	-0,048
178,881	5,138	-0,217	-0,111
179,896	-50,400	-0,174	-0,057
180,910	92,284	-0,266	-0,209
181,925	68,293	-0,256	-0,182
182,940	-37,920	-0,373	-0,137
183,954	66,183	-0,257	-0,181
184,969	-126,166	-0,268	-0,028
185,983	-66,085	-0,172	-0,047
186,998	-50,877	-0,212	-0,069
188,013	34,472	-0,239	-0,145
189,027	25,596	-0,212	-0,123
190,042	-65,707	-0,307	-0,085
191,056	-141,492	-0,222	-0,015
192,071	493,830	-0,140	-0,225
193,086	-23,751	-0,239	-0,099
194,100	151,336	-0,230	-0,218
195,115	-61,264	-0,243	-0,071
196,129	5,011	-0,189	-0,096
197,144	153,871	-0,266	-0,254
198,159	263,477	-0,140	-0,169
199,173	151,177	-0,142	-0,135
200,188	127,746	-0,109	-0,096
201,202	41,415	-0,163	-0,102
202,217	800,000	-0,069	-0,188
203,232	317,067	-0,138	-0,181
204,246	53,966	-0,223	-0,149
205,261	257,501	-0,138	-0,165
206,275	146,219	-0,211	-0,197
207,290	800,000	-0,074	-0,161
208,304	-200,000	-0,045	-0,166
209,319	38,259	-0,174	-0,108
210,334	109,417	-0,136	-0,113
211,348	209,200	-0,261	-0,284
212,363	433,092	-0,148	-0,223
213,377	80,869	-0,151	-0,113
214,392	800,000	-0,060	-0,147
215,407	-16,204	-0,091	-0,040
216,421	96,749	-0,218	-0,174
217,436	-52,448	-0,292	-0,093
218,450	144,093	-0,268	-0,249
219,465	187,456	-0,143	-0,148
220,480	-73,308	-0,296	-0,075
221,494	-200,000	-0,012	0,053
222,509	-169,889	-0,200	0,005
223,523	94,953	-0,149	-0,117
224,538	289,265	-0,112	-0,141
225,553	144,131	-0,215	-0,199
226,567	101,676	-0,236	-0,191
227,582	165,655	-0,175	-0,172
228,596	84,682	-0,125	-0,095
229,611	-7,005	-0,210	-0,098
230,626	-44,158	-0,148	-0,051
231,640	70,208	-0,197	-0,141
232,655	22,349	-0,205	-0,116
233,669	17,028	-0,293	-0,161
234,684	-113,864	-0,242	-0,032
235,699	800,000	-0,075	-0,195
236,713	-103,327	-0,229	-0,037
237,728	706,395	-0,101	-0,185
238,742	237,014	-0,080	-0,092
239,757	194,016	-0,205	-0,216
240,772	362,112	-0,169	-0,236
241,786	63,691	-0,066	-0,046
242,801	60,039	-0,203	-0,139
243,815	194,187	-0,133	-0,140
244,830	-94,134	-0,129	-0,024
245,844	317,419	-0,168	-0,221
246,859	-200,000	-0,048	-0,170
247,874	167,067	-0,170	-0,167
248,888	167,136	-0,180	-0,177
249,903	-123,472	-0,235	-0,026
250,917	-58,001	-0,145	-0,044
251,932	53,605	-0,215	-0,142
252,947	42,325	-0,259	-0,163
253,961	9,353	-0,206	-0,108
254,976	52,437	-0,196	-0,129
255,990	224,636	-0,140	-0,157
257,005	68,237	-0,154	-0,109
258,020	71,875	-0,115	-0,082
259,034	-124,498	-0,246	-0,026
260,049	0,765	-0,121	-0,060
261,063	-200,000	-0,058	-0,231
262,078	-36,953	-0,212	-0,078
263,093	110,824	-0,221	-0,183
264,107	584,429	-0,123	-0,210
265,122	-200,000	-0,026	-0,148
266,136	-24,983	-0,061	0,025
267,151	228,538	-0,186	-0,210
268,166	250,644	-0,120	-0,141
269,180	368,160	-0,178	-0,250
270,195	-51,406	-0,150	-0,048
271,209	-173,092	-0,275	-0,006
272,224	-45,629	-0,184	-0,063
273,239	20,748	-0,115	-0,064
274,253	78,813	-0,135	-0,100
275,268	-4,161	-0,159	0,076
276,282	437,233	-0,152	-0,229
277,297	260,935	-0,128	-0,153
278,312	75,946	-0,197	-0,144
279,326	-62,397	-0,213	-0,061
280,341	-14,142	-0,162	-0,072
281,355	-25,868	-0,241	-0,098
282,370	15,603	-0,149	-0,081
283,384	63,556	-0,271	-0,188
284,399	292,869	-0,162	-0,204
285,414	-95,601	-0,180	-0,033
286,428	422,510	-0,043	-0,064
287,443	6,177	-0,117	-0,060
288,457	-118,873	-0,119	-0,014
289,472	-62,970	-0,136	-0,039
290,487	-4,883	-0,225	-0,107
291,501	266,280	-0,210	-0,253
292,516	81,452	-0,125	-0,093
293,530	-120,897	-0,149	0,017
294,545	179,450	-0,046	-0,046
295,560	423,355	-0,113	-0,167
296,574	-187,414	-0,141	0,001
297,589	83,083	-0,172	-0,129
298,603	-11,334	-0,213	-0,096
299,618	-163,358	-0,210	-0,007
300,633	-29,928	-0,154	-0,060
301,647	-200,000	-0,013	-0,108
302,662	800,000	-0,047	-0,120
303,676	-78,128	-0,204	-0,048
304,691	800,000	-0,081	-0,171
305,706	367,924	-0,133	-0,186
306,720	26,256	-0,251	-0,144
307,735	132,152	-0,127	-0,113
308,749	90,031	-0,064	-0,049
309,764	-12,698	-0,098	-0,044
310,779	-2,507	-0,205	-0,099
311,793	253,778	-0,041	-0,049
312,808	290,649	-0,118	-0,148
313,822	-14,958	-0,315	-0,139
314,837	17,641	-0,178	-0,097
315,852	800,000	-0,056	-0,110
316,866	139,339	-0,048	-0,044
317,881	661,774	-0,067	-0,119
318,895	216,350	-0,244	-0,267
319,910	72,228	-0,167	-0,120
320,925	51,358	-0,200	-0,131
321,939	97,901	-0,156	-0,124
322,954	800,000	-0,074	-0,177
323,968	-54,951	-0,104	0,032
324,983	137,129	-0,061	-0,055
325,997	117,737	-0,214	-0,181
327,012	594,271	-0,139	-0,238
328,027	-58,380	-0,175	-0,052
329,041	-59,428	-0,141	-0,041
330,056	800,000	-0,058	-0,120
331,070	51,178	-0,119	-0,077
332,085	-121,006	-0,237	-0,027
333,100	-108,657	-0,039	-0,006
334,114	-200,000	0,012	-0,048
335,129	288,016	-0,166	-0,207
336,143	-15,856	-0,269	-0,117
337,158	192,805	-0,095	-0,099
338,173	-160,034	-0,165	0,006
339,187	-108,524	-0,194	-0,028
340,202	27,397	-0,150	-0,086
341,216	148,012	-0,176	-0,163
342,231	-115,870	-0,281	-0,036
343,246	-200,000	-0,051	-0,162
344,260	109,266	-0,216	-0,177
345,275	-17,271	-0,175	-0,076
346,289	2,408	-0,202	-0,100
347,304	87,256	-0,205	-0,155
348,319	209,997	-0,041	-0,045
349,333	567,227	-0,104	-0,173
350,348	-76,546	-0,176	-0,042
351,362	15,180	-0,148	-0,080
352,377	-61,942	-0,056	-0,016
353,392	-66,612	0,068	-0,018
354,406	65,742	-0,029	-0,020
355,421	209,596	1314,394	1415,147
356,435	161,321	1475,077	1415,637
