DTS Sentinel unit serial number:	SN410029Multiplexer serial number:	ORYXHardware model number:	OX2-SRSoftware version number:	ORYX F/W v4,00 Oryx Data Collector v3.7.2.0data status	okinstallation	B3 Nyhavnadifferential loss correction	single-endedforward channel	channel 1reverse channel	N/Adate	2023/12/02time	11:47:30forward acquisition time	300,00reverse acquisition time	0,00gamma	499,1914k internal	0,3199k external	0,3199temperature offset calibration	1,0000default loss term (dB/km)	0,3820temperature slope calibration	1,0000multiplexer offset coefficient	1,0000multiplexer slope coefficient	1,0000fibre end	0,00T internal ref (°C)	14,00T ext. ref 1 (°C)	-1,14T ext. ref 2 (°C)	-1,16length (m)	temperature (°C)	Stokes	anti-Stokes-744,400	-51,444	-0,233	-0,079
-743,385	-200,000	0,023	0,360
-742,371	582,577	-0,172	-0,309
-741,356	-200,000	-0,033	0,219
-740,342	800,000	-0,101	-0,319
-739,327	-200,000	-0,014	0,297
-738,312	369,786	-0,216	-0,319
-737,298	800,000	-0,060	0,183
-736,283	129,126	-0,167	-0,155
-735,269	-200,000	0,005	0,466
-734,254	442,640	-0,123	-0,196
-733,239	56,200	-0,232	0,163
-732,225	-200,000	-0,029	-0,223
-731,210	800,000	0,056	0,126
-730,196	-64,223	-0,099	0,029
-729,181	-200,000	-0,009	0,034
-728,167	53,800	0,039	-0,027
-727,152	641,294	-0,027	0,051
-726,137	22,054	-0,114	0,067
-725,123	800,000	0,024	0,055
-724,108	-70,649	-0,139	-0,038
-723,094	-8,308	-0,156	-0,076
-722,079	-148,747	0,099	-0,006
-721,064	6,680	0,096	-0,052
-720,050	315,799	-0,066	0,091
-719,035	-45,872	-0,071	0,025
-718,021	-146,091	0,031	-0,002
-717,006	92,307	-0,082	-0,067
-715,991	-93,841	-0,150	-0,030
-714,977	-144,355	-0,094	0,006
-713,962	14,396	-0,113	-0,064
-712,948	-159,341	0,168	-0,007
-711,933	-28,276	-0,093	-0,039
-710,918	218,582	0,136	-0,158
-709,904	-200,000	-0,049	-0,179
-708,889	31,419	0,063	-0,039
-707,875	-35,068	-0,169	-0,066
-706,860	-200,000	0,048	0,186
-705,845	-200,000	-0,012	0,076
-704,831	-200,000	0,010	0,054
-703,816	196,191	0,084	-0,093
-702,802	286,203	-0,034	0,045
-701,787	10,176	-0,061	-0,034
-700,772	133,504	-0,141	-0,132
-699,758	-200,000	-0,011	-0,064
-698,743	-200,000	0,036	0,129
-697,729	800,000	-0,014	-0,032
-696,714	8,714	0,024	0,013
-695,699	-158,854	-0,053	0,002
-694,685	62,539	-0,132	-0,096
-693,670	-128,408	-0,058	0,006
-692,656	-200,000	-0,008	-0,157
-691,641	166,296	0,067	0,069
-690,627	-56,187	-0,028	0,009
-689,612	-200,000	0,026	-0,093
-688,597	288,524	0,051	0,068
-687,583	242,086	0,043	0,052
-686,568	120,503	-0,058	0,053
-685,554	-141,587	-0,026	-0,002
-684,539	43,996	0,024	0,016
-683,524	13,596	0,240	0,135
-682,510	-200,000	-0,012	-0,057
-681,495	111,725	-0,072	0,063
-680,481	-200,000	-0,003	-0,042
-679,466	560,401	-0,027	0,048
-678,451	-93,846	-0,113	-0,022
-677,437	24,146	0,002	-0,001
-676,422	114,775	0,066	0,059
-675,408	80,850	0,053	-0,042
-674,393	234,618	-0,067	-0,080
-673,378	-0,882	-0,114	-0,058
-672,364	386,643	-0,056	-0,084
-671,349	800,000	0,014	-0,033
-670,335	-0,786	0,160	0,082
-669,320	109,312	0,061	0,053
-668,305	-149,612	-0,031	-0,002
-667,291	800,000	0,009	0,024
-666,276	800,000	-0,021	-0,047
-665,262	800,000	-0,053	-0,114
-664,247	530,935	-0,033	-0,056
-663,232	75,686	0,092	-0,070
-662,218	-87,066	0,106	0,023
-661,203	33,738	0,038	0,024
-660,189	800,000	0,024	-0,059
-659,174	624,803	-0,051	-0,094
-658,159	800,000	-0,026	-0,079
-657,145	-200,000	-0,060	-0,259
-656,130	10,119	-0,056	-0,031
-655,116	394,160	0,077	-0,117
-654,101	-200,000	0,021	0,070
-653,086	800,000	-0,035	0,113
-652,072	-9,207	-0,051	-0,025
-651,057	-182,735	-0,196	-0,003
-650,043	34,243	0,089	-0,056
-649,028	751,925	-0,046	-0,090
-648,014	-200,000	0,001	-0,111
-646,999	800,000	0,031	0,074
-645,984	-13,746	0,051	-0,024
-644,970	92,481	-0,035	0,028
-643,955	-48,235	-0,209	-0,073
-642,941	-14,268	-0,045	0,021
-641,926	-200,000	0,001	-0,040
-640,911	-200,000	0,012	-0,052
-639,897	800,000	0,063	0,134
-638,882	492,379	0,045	-0,074
-637,868	-85,783	0,162	0,036
-636,853	-113,778	-0,095	-0,013
-635,838	-41,186	-0,119	-0,044
-634,824	117,543	0,051	0,046
-633,809	328,534	0,091	-0,127
-632,795	654,675	-0,008	0,016
-631,780	800,000	0,017	0,035
-630,765	94,974	0,086	-0,071
-629,751	-200,000	0,000	-0,057
-628,736	435,845	-0,057	-0,090
-627,722	62,289	-0,096	0,069
-626,707	-200,000	0,009	-0,046
-625,692	-200,000	-0,002	0,020
-624,678	434,543	0,110	0,174
-623,663	276,432	-0,040	0,052
-622,649	-145,961	-0,081	-0,005
-621,634	800,000	-0,062	0,147
-620,619	6,247	-0,088	-0,047
-619,605	-200,000	0,034	-0,124
-618,590	800,000	-0,004	0,010
-617,576	441,133	-0,023	0,036
-616,561	26,792	0,117	-0,071
-615,546	-8,102	-0,110	-0,053
-614,532	26,752	-0,072	0,044
-613,517	462,788	-0,079	-0,128
-612,503	52,300	-0,057	0,039
-611,488	-3,657	0,152	-0,076
-610,474	43,840	0,041	0,027
-609,459	364,625	-0,025	-0,037
-608,444	-200,000	-0,005	-0,053
-607,430	-200,000	-0,016	0,188
-606,415	42,400	-0,084	-0,055
-605,401	-200,000	-0,026	-0,151
-604,386	86,105	-0,026	0,021
-603,371	-200,000	-0,021	0,092
-602,357	47,231	0,092	0,062
-601,342	-200,000	0,024	0,093
-600,328	160,049	-0,042	-0,042
-599,313	132,983	-0,082	-0,076
-598,298	196,195	0,085	0,094
-597,284	-148,855	0,122	-0,007
-596,269	-200,000	-0,027	-0,094
-595,255	461,764	0,064	-0,103
-594,240	596,003	-0,055	0,099
-593,225	365,341	-0,114	-0,167
-592,211	678,011	-0,003	0,006
-591,196	40,838	0,106	0,069
-590,182	-96,804	-0,053	-0,010
-589,167	800,000	0,054	0,161
-588,152	-196,705	-0,042	0,000
-587,138	56,296	-0,087	-0,061
-586,123	193,421	-0,073	0,080
-585,109	-68,876	-0,057	0,016
-584,094	-200,000	-0,020	-0,135
-583,079	258,279	-0,043	0,053
-582,065	-92,378	0,164	-0,033
-581,050	182,341	0,121	0,129
-580,036	-30,183	-0,021	0,009
-579,021	17,029	-0,080	-0,046
-578,006	-15,223	0,124	-0,057
-576,992	800,000	-0,048	-0,100
-575,977	409,362	0,006	-0,010
-574,963	-145,705	-0,128	-0,008
-573,948	-195,275	0,169	-0,001
-572,934	3,387	0,072	0,038
-571,919	39,533	-0,046	0,030
-570,904	209,024	-0,115	-0,131
-569,890	-24,282	0,041	-0,018
-568,875	362,568	0,049	0,072
-567,861	149,428	-0,046	0,045
-566,846	800,000	-0,023	0,062
-565,831	800,000	0,018	-0,049
-564,817	114,594	0,046	-0,041
-563,802	-200,000	0,001	-0,059
-562,788	284,725	-0,030	-0,039
-561,773	516,532	-0,036	-0,061
-560,758	800,000	0,056	0,122
-559,744	392,476	-0,045	0,068
-558,729	-146,392	-0,132	0,008
-557,715	-38,824	-0,087	0,033
-556,700	66,277	-0,094	-0,069
-555,685	800,000	-0,032	-0,069
-554,671	67,055	-0,082	0,061
-553,656	44,209	-0,062	0,041
-552,642	-0,928	-0,139	0,071
-551,627	-147,986	0,047	0,003
-550,612	-200,000	-0,004	0,056
-549,598	-200,000	0,001	-0,004
-548,583	-30,848	-0,103	-0,042
-547,569	-25,615	0,162	0,069
-546,554	-55,729	0,121	-0,039
-545,539	-200,000	0,001	0,128
-544,525	44,067	0,134	0,089
-543,510	-39,360	-0,118	0,044
-542,496	190,312	0,109	-0,119
-541,481	97,324	0,050	0,042
-540,466	-200,000	0,005	0,092
-539,452	136,671	0,065	0,062
-538,437	800,000	-0,010	0,022
-537,423	-92,760	0,130	-0,026
-536,408	85,118	-0,098	-0,078
-535,393	-48,988	-0,080	-0,027
-534,379	-87,814	-0,099	-0,021
-533,364	462,815	0,011	0,017
-532,350	191,352	0,036	0,039
-531,335	-49,875	0,055	-0,019
-530,321	537,230	-0,094	0,162
-529,306	466,746	0,043	-0,070
-528,291	800,000	-0,019	0,038
-527,277	249,720	-0,085	0,105
-526,262	216,499	0,063	0,073
-525,248	297,142	0,078	0,103
-524,233	363,420	-0,040	0,059
-523,218	800,000	-0,071	0,150
-522,204	235,430	-0,028	-0,034
-521,189	-200,000	-0,014	0,081
-520,175	232,114	-0,069	-0,082
-519,160	-125,154	0,121	0,013
-518,145	-57,116	0,105	-0,033
-517,131	800,000	0,030	0,074
-516,116	-33,628	-0,091	-0,036
-515,102	360,087	0,060	-0,087
-514,087	800,000	-0,084	0,178
-513,072	43,915	0,072	-0,048
-512,058	-200,000	-0,056	-0,213
-511,043	-84,699	0,066	0,015
-510,029	377,267	0,068	-0,100
-509,014	-200,000	0,003	-0,084
-507,999	5,204	-0,183	-0,097
-506,985	37,319	-0,143	0,091
-505,970	-21,718	-0,102	-0,045
-504,956	-54,665	0,082	0,026
-503,941	-200,000	-0,016	-0,076
-502,926	-185,714	0,121	0,001
-501,912	58,558	0,033	-0,023
-500,897	61,082	-0,018	-0,013
-499,883	-200,000	-0,040	-0,146
-498,868	-200,000	-0,016	-0,051
-497,853	-49,424	-0,071	0,024
-496,839	-200,000	-0,019	0,061
-495,824	-200,000	-0,010	-0,040
-494,810	-200,000	-0,018	-0,109
-493,795	800,000	-0,007	-0,018
-492,781	-131,929	0,041	-0,004
-491,766	388,981	-0,060	0,089
-490,751	198,147	0,045	0,050
-489,737	146,310	0,066	0,064
-488,722	-64,097	-0,058	-0,017
-487,708	-200,000	-0,003	-0,054
-486,693	-82,019	0,125	0,029
-485,678	-200,000	-0,011	-0,035
-484,664	800,000	-0,010	-0,023
-483,649	-200,000	-0,026	-0,090
-482,635	-200,000	0,005	0,065
-481,620	-41,834	0,061	-0,023
-480,605	-200,000	-0,011	0,044
-479,591	-54,204	0,041	0,013
-478,576	-3,248	-0,178	-0,089
-477,562	-200,000	0,012	-0,048
-476,547	800,000	-0,030	0,068
-475,532	25,227	0,017	0,010
-474,518	-121,738	0,176	0,021
-473,503	80,287	0,099	0,077
-472,489	593,299	-0,058	-0,104
-471,474	-61,092	0,138	0,042
-470,459	274,382	-0,046	-0,059
-469,445	-97,337	-0,060	-0,011
-468,430	800,000	0,048	0,123
-467,416	62,770	-0,066	0,048
-466,401	-7,981	0,106	0,051
-465,386	-9,450	-0,059	0,028
-464,372	-200,000	0,001	-0,239
-463,357	276,757	-0,024	-0,030
-462,343	376,780	-0,034	-0,051
-461,328	296,620	-0,041	-0,055
-460,313	107,302	-0,030	0,025
-459,299	-185,193	0,181	-0,002
-458,284	-119,764	-0,115	-0,014
-457,270	81,571	-0,097	0,076
-456,255	-77,388	-0,090	0,022
-455,241	-17,508	-0,053	-0,024
-454,226	13,127	-0,052	-0,029
-453,211	-141,552	0,142	-0,010
-452,197	466,966	0,048	-0,078
-451,182	244,084	0,071	0,086
-450,168	-82,285	0,075	0,017
-449,153	-39,348	0,116	0,043
-448,138	800,000	0,031	0,082
-447,124	800,000	0,021	-0,044
-446,109	800,000	-0,025	0,057
-445,095	364,151	0,041	0,059
-444,080	315,021	-0,031	-0,042
-443,065	-75,962	0,027	0,007
-442,051	-200,000	-0,022	0,086
-441,036	-200,000	0,020	-0,090
-440,022	800,000	-0,028	-0,088
-439,007	-152,270	0,108	-0,006
-437,992	-40,103	0,055	0,020
-436,978	-63,838	-0,050	-0,015
-435,963	326,208	-0,028	0,038
-434,949	-53,391	-0,036	-0,012
-433,934	139,561	0,009	0,009
-432,919	-200,000	0,032	-0,109
-431,905	10,185	-0,173	-0,095
-430,890	92,096	0,091	-0,073
-429,876	126,065	0,039	0,035
-428,861	290,133	-0,060	-0,078
-427,846	-200,000	-0,016	-0,057
-426,832	-111,883	0,056	0,008
-425,817	-155,777	-0,106	-0,005
-424,803	4,439	-0,089	0,047
-423,788	276,305	-0,025	0,032
-422,773	27,253	0,099	0,060
-421,759	662,842	0,073	0,135
-420,744	-200,000	0,004	-0,082
-419,730	-200,000	0,012	-0,120
-418,715	800,000	0,039	-0,110
-417,701	-133,823	-0,095	-0,008
-416,686	97,743	0,054	0,044
-415,671	-200,000	-0,056	0,185
-414,657	-63,570	0,155	0,045
-413,642	-200,000	-0,000	-0,028
-412,628	676,941	0,019	0,036
-411,613	192,521	-0,133	-0,144
-410,598	-46,713	0,063	0,022
-409,584	33,149	-0,068	0,043
-408,569	-23,552	0,112	-0,048
-407,555	38,696	0,054	0,035
-406,540	-80,275	0,033	0,008
-405,525	-200,000	-0,016	-0,062
-404,511	-29,070	-0,011	-0,004
-403,496	-4,207	0,070	0,035
-402,482	-200,000	0,031	-0,136
-401,467	-100,350	0,072	-0,013
-400,452	800,000	0,018	-0,038
-399,438	-200,000	-0,011	0,100
-398,423	-111,956	0,129	-0,018
-397,409	133,947	0,070	-0,065
-396,394	800,000	0,057	-0,135
-395,379	141,685	0,057	0,054
-394,365	-45,740	-0,043	-0,015
-393,350	800,000	0,029	0,069
-392,336	800,000	0,041	-0,101
-391,321	-200,000	0,003	-0,031
-390,306	70,441	-0,058	-0,043
-389,292	-113,407	0,072	0,010
-388,277	800,000	-0,062	0,152
-387,263	199,481	0,040	0,044
-386,248	218,869	-0,113	0,130
-385,233	639,458	0,012	0,021
-384,219	251,496	0,030	0,036
-383,204	64,991	-0,149	-0,108
-382,190	8,094	-0,052	0,028
-381,175	-45,983	-0,166	0,059
-380,160	-200,000	-0,006	0,030
-379,146	-200,000	-0,024	0,104
-378,131	-21,917	0,118	0,051
-377,117	-37,664	-0,125	0,047
-376,102	123,532	0,077	-0,069
-375,088	23,106	-0,037	-0,022
-374,073	263,804	0,042	-0,053
-373,058	-7,530	-0,069	-0,034
-372,044	-200,000	-0,007	-0,024
-371,029	-74,809	-0,027	0,007
-370,015	21,635	-0,018	-0,010
-369,000	207,428	-0,057	-0,064
-367,985	-99,083	-0,198	-0,036
-366,971	-78,891	0,052	-0,013
-365,956	-102,500	0,034	-0,006
-364,942	-120,175	0,119	0,014
-363,927	-4,842	0,028	-0,014
-362,912	-174,434	0,031	0,001
-361,898	-77,036	-0,121	-0,030
-360,883	86,074	0,024	0,019
-359,869	-200,000	-0,029	-0,190
-358,854	-41,440	-0,038	0,014
-357,839	-200,000	0,011	0,129
-356,825	-39,820	0,094	0,035
-355,810	-200,000	0,023	0,129
-354,796	800,000	-0,015	-0,042
-353,781	17,069	-0,137	-0,078
-352,766	-30,809	0,091	-0,037
-351,752	-200,000	0,008	0,152
-350,737	-110,649	-0,061	-0,009
-349,723	-158,881	0,100	-0,004
-348,708	14,728	0,108	-0,060
-347,693	4,996	-0,040	-0,021
-346,679	64,493	0,109	0,079
-345,664	122,856	0,048	-0,043
-344,650	53,705	-0,065	-0,045
-343,635	-51,134	0,083	-0,028
-342,620	-15,441	0,055	0,025
-341,606	-200,000	0,000	0,055
-340,591	37,616	0,023	0,015
-339,577	-200,000	0,001	0,060
-338,562	184,949	-0,079	-0,084
-337,548	-17,926	0,095	-0,043
-336,533	-135,971	0,115	0,010
-335,518	-59,620	0,096	0,029
-334,504	-200,000	-0,035	0,119
-333,489	39,784	0,023	-0,015
-332,475	288,900	-0,097	-0,126
-331,460	-200,000	-0,010	0,048
-330,445	-28,659	-0,035	0,014
-329,431	357,575	0,034	0,048
-328,416	-200,000	0,032	0,108
-327,402	499,802	-0,068	0,112
-326,387	32,460	-0,088	0,054
-325,372	367,069	0,103	-0,150
-324,358	409,315	-0,112	-0,170
-323,343	800,000	0,050	-0,100
-322,329	800,000	0,065	0,137
-321,314	-120,969	0,105	-0,012
-320,299	-65,967	0,067	-0,019
-319,285	125,204	-0,080	0,072
-318,270	159,213	0,017	0,017
-317,256	-183,237	-0,147	0,002
-316,241	-200,000	0,002	-0,011
-315,226	250,793	0,058	-0,070
-314,212	-145,876	0,113	-0,007
-313,197	-200,000	-0,003	0,113
-312,183	800,000	-0,024	-0,075
-311,168	-93,511	-0,119	0,023
-310,153	800,000	0,003	-0,008
-309,139	18,250	-0,111	0,063
-308,124	-105,550	-0,055	-0,009
-307,110	276,824	-0,011	0,014
-306,095	-200,000	0,002	0,151
-305,080	-200,000	-0,033	0,125
-304,066	62,688	0,061	-0,044
-303,051	-183,141	0,085	0,001
-302,037	77,164	-0,123	0,093
-301,022	42,666	-0,051	-0,033
-300,008	327,687	0,043	0,059
-298,993	-73,291	0,024	0,006
-297,978	800,000	0,109	0,228
-296,964	-200,000	0,015	0,055
-295,949	311,466	-0,093	-0,125
-294,935	-104,607	0,005	0,001
-293,920	110,704	0,059	-0,051
-292,905	29,402	0,061	-0,037
-291,891	-98,730	0,065	0,012
-290,876	800,000	0,029	-0,081
-289,862	-200,000	-0,009	-0,085
-288,847	-108,409	-0,066	-0,010
-287,832	-104,114	-0,044	0,007
-286,818	424,716	0,040	0,062
-285,803	-34,430	-0,058	0,023
-284,789	123,627	0,105	0,095
-283,774	29,234	0,088	0,053
-282,759	155,522	0,083	0,082
-281,745	-141,613	-0,071	0,005
-280,730	330,209	-0,025	-0,035
-279,716	-176,719	0,038	-0,001
-278,701	-78,165	0,063	-0,015
-277,686	272,493	0,041	0,052
-276,672	-200,000	0,021	0,090
-275,657	27,127	-0,023	-0,014
-274,643	201,865	-0,019	-0,020
-273,628	255,537	-0,060	-0,074
-272,613	-200,000	-0,012	-0,044
-271,599	800,000	-0,030	0,090
-270,584	286,668	0,048	-0,062
-269,570	-50,468	0,081	-0,027
-268,555	9,232	0,106	-0,057
-267,540	18,624	-0,060	-0,034
-266,526	-51,277	0,066	-0,022
-265,511	-72,394	-0,049	0,013
-264,497	-200,000	-0,018	0,241
-263,482	360,458	-0,024	0,034
-262,467	-200,000	0,038	-0,122
-261,453	-23,993	0,073	-0,031
-260,438	173,140	-0,213	-0,219
-259,424	-200,000	-0,000	-0,018
-258,409	34,199	-0,106	-0,066
-257,395	-104,273	-0,047	0,008
-256,380	256,488	0,025	-0,031
-255,365	-6,380	0,026	-0,012
-254,351	-109,735	-0,154	-0,023
-253,336	126,209	0,098	0,088
-252,322	-200,000	-0,004	-0,132
-251,307	36,982	0,052	0,033
-250,292	-200,000	-0,008	-0,061
-249,278	-200,000	0,012	0,079
-248,263	657,183	-0,044	0,080
-247,249	18,347	0,124	0,070
-246,234	93,788	-0,060	0,048
-245,219	752,643	0,046	-0,088
-244,205	800,000	0,043	-0,113
-243,190	110,067	0,046	-0,039
-242,176	322,613	0,069	0,093
-241,161	-200,000	0,002	0,047
-240,146	800,000	0,022	0,059
-239,132	-200,000	0,021	-0,072
-238,117	458,827	-0,067	-0,107
-237,103	485,533	0,088	-0,144
-236,088	252,787	-0,106	-0,129
-235,073	-8,959	0,079	0,037
-234,059	800,000	-0,051	0,148
-233,044	-200,000	-0,010	0,045
-232,030	800,000	-0,017	-0,046
-231,015	456,422	0,105	-0,166
-230,000	216,114	-0,018	-0,021
-228,986	504,577	-0,075	-0,124
-227,971	800,000	0,056	0,131
-226,957	-167,620	0,036	-0,001
-225,942	-110,635	0,165	0,024
-224,927	-200,000	0,001	0,067
-223,913	95,195	-0,096	0,078
-222,898	800,000	-0,021	0,054
-221,884	217,945	-0,115	-0,130
-220,869	-200,000	-0,002	0,049
-219,855	481,830	0,086	0,139
-218,840	786,018	-0,034	-0,066
-217,825	-90,438	0,044	-0,009
-216,811	283,045	0,029	-0,038
-215,796	-26,987	-0,086	0,035
-214,782	155,897	-0,073	-0,072
-213,767	4,734	0,027	0,014
-212,752	-200,000	0,028	0,118
-211,738	95,177	0,017	0,014
-210,723	-21,323	-0,150	-0,065
-209,709	-170,132	0,091	0,002
-208,694	549,503	-0,095	-0,163
-207,679	537,612	-0,055	-0,094
-206,665	132,778	-0,095	0,088
-205,650	-62,935	0,067	0,020
-204,636	-200,000	-0,022	0,094
-203,621	800,000	0,012	0,038
-202,606	-200,000	0,002	0,074
-201,592	-38,713	0,108	0,040
-200,577	205,332	-0,143	-0,159
-199,563	31,843	-0,052	-0,032
-198,548	800,000	-0,051	0,116
-197,533	-65,868	0,043	0,012
-196,519	516,562	-0,011	0,018
-195,504	-68,779	0,123	-0,034
-194,490	28,961	-0,146	-0,088
-193,475	746,153	0,059	-0,113
-192,460	107,858	-0,047	-0,040
-191,446	115,574	-0,093	0,081
-190,431	58,920	-0,062	-0,044
-189,417	-180,155	0,109	0,002
-188,402	-57,236	-0,069	-0,022
-187,387	315,807	-0,036	0,049
-186,373	171,905	-0,007	-0,007
-185,358	800,000	-0,020	0,040
-184,344	-144,437	-0,002	-0,000
-183,329	-115,641	0,138	-0,018
-182,315	-200,000	-0,004	-0,030
-181,300	31,425	-0,048	0,029
-180,285	-8,550	-0,030	-0,014
-179,271	-124,288	-0,082	-0,009
-178,256	-92,613	0,108	0,021
-177,242	800,000	-0,051	0,109
-176,227	-200,000	0,003	0,043
-175,212	288,118	0,065	0,084
-174,198	392,255	0,043	-0,064
-173,183	-200,000	0,035	-0,156
-172,169	57,348	-0,044	0,031
-171,154	-200,000	-0,039	0,129
-170,139	-200,000	0,048	-0,216
-169,125	279,200	-0,056	0,072
-168,110	363,025	0,007	-0,010
-167,096	800,000	-0,023	0,061
-166,081	621,306	-0,021	-0,038
-165,066	169,264	-0,073	0,075
-164,052	19,084	-0,080	0,045
-163,037	800,000	0,083	0,179
-162,023	800,000	-0,038	0,092
-161,008	217,493	-0,034	0,039
-159,993	260,270	0,078	-0,096
-158,979	102,094	-0,068	-0,057
-157,964	-104,989	0,082	-0,013
-156,950	551,288	-0,012	-0,021
-155,935	800,000	0,047	-0,145
-154,920	800,000	0,043	0,131
-153,906	-115,094	0,144	0,019
-152,891	77,437	-0,042	0,031
-151,877	-108,203	-0,085	-0,013
-150,862	800,000	-0,048	-0,141
-149,847	86,965	-0,099	0,078
-148,833	335,727	-0,004	0,006
-147,818	-91,751	-0,034	-0,007
-146,804	24,725	-0,126	0,074
-145,789	800,000	0,031	-0,092
-144,775	278,799	-0,050	-0,064
-143,760	-200,000	-0,022	-0,147
-142,745	-54,462	-0,204	-0,065
-141,731	-98,319	0,092	-0,017
-140,716	87,831	0,095	0,075
-139,702	-185,789	0,148	-0,002
-138,687	-99,605	0,023	-0,004
-137,672	-40,866	0,131	-0,048
-136,658	400,569	-0,065	-0,097
-135,643	-101,207	-0,112	-0,019
-134,629	800,000	0,030	-0,065
-133,614	-120,686	0,050	0,006
-132,599	34,784	-0,044	-0,028
-131,585	26,188	-0,090	-0,053
-130,570	63,838	-0,091	0,065
-129,556	24,760	0,064	-0,038
-128,541	148,859	-0,054	-0,052
-127,526	-200,000	0,035	0,207
-126,512	-200,000	0,005	0,062
-125,497	-105,696	-0,006	-0,001
-124,483	83,394	0,036	0,028
-123,468	148,565	-0,091	0,088
-122,453	87,106	-0,039	0,030
-121,439	-200,000	0,000	-0,020
-120,424	800,000	0,031	-0,078
-119,410	78,691	0,048	-0,036
-118,395	117,635	0,085	0,074
-117,380	22,225	-0,046	-0,027
-116,366	476,279	0,019	0,031
-115,351	19,339	-0,042	0,024
-114,337	69,090	-0,087	-0,064
-113,322	-200,000	-0,008	-0,088
-112,307	772,488	-0,055	-0,106
-111,293	431,738	0,093	0,143
-110,278	24,775	-0,010	0,006
-109,264	237,039	0,070	0,082
-108,249	206,601	0,079	0,087
-107,234	-200,000	0,001	-0,161
-106,220	181,262	0,082	-0,085
-105,205	326,223	0,059	-0,080
-104,191	88,075	-0,109	-0,085
-103,176	-129,068	-0,096	-0,009
-102,162	129,643	0,035	0,031
-101,147	-129,317	-0,041	0,004
-100,132	92,938	-0,089	0,071
-99,118	800,000	-0,004	-0,009
-98,103	-200,000	-0,003	-0,042
-97,089	178,533	0,008	-0,008
-96,074	135,546	0,130	0,120
-95,059	800,000	-0,043	0,089
-94,045	800,000	0,026	0,053
-93,030	114,616	0,025	-0,022
-92,016	-200,000	-0,013	-0,146
-91,001	-17,692	-0,157	-0,070
-89,986	-200,000	-0,015	0,088
-88,972	541,011	0,031	0,052
-87,957	456,326	0,065	-0,103
-86,943	-5,601	-0,088	0,043
-85,928	-200,000	0,022	-0,095
-84,913	264,974	-0,086	-0,107
-83,899	-118,656	0,088	-0,011
-82,884	800,000	0,042	-0,082
-81,870	71,239	-0,115	0,085
-80,855	142,382	0,107	0,101
-79,840	245,605	-0,031	0,038
-78,826	123,467	0,059	0,053
-77,811	539,844	-0,038	-0,064
-76,797	38,223	0,091	-0,057
-75,782	-200,000	-0,009	0,053
-74,767	431,314	0,108	0,167
-73,753	702,959	-0,016	-0,030
-72,738	129,985	0,049	-0,045
-71,724	-35,967	-0,105	-0,040
-70,709	57,013	0,037	-0,025
-69,694	-0,465	-0,030	-0,015
-68,680	-200,000	-0,019	-0,065
-67,665	800,000	0,058	0,151
-66,651	-41,378	0,045	-0,016
-65,636	-17,018	0,070	0,031
-64,622	800,000	-0,020	0,050
-63,607	-52,376	-0,104	-0,034
-62,592	800,000	-0,038	-0,085
-61,578	-200,000	0,010	0,057
-60,563	-200,000	-0,014	-0,093
-59,549	-52,889	-0,100	-0,032
-58,534	-49,098	-1,673	-0,564
-57,519	439,423	-1,401	-2,175
-56,505	-200,000	-0,582	-4,433
-55,490	166,102	1,039	1,043
-54,476	800,000	4,936	11,499
-53,461	-200,000	18,808	308,884
-52,446	800,000	738,871	2309,586
-51,432	571,007	1654,778	2864,770
-50,417	78,900	1670,399	1265,206
-49,403	21,960	1543,058	888,973
-48,388	15,842	1465,824	814,742
-47,373	17,826	1456,069	818,873
-46,359	16,898	1445,804	808,620
-45,344	14,148	1441,358	792,930
-44,330	14,056	1439,200	791,269
-43,315	14,037	1437,852	790,405
-42,300	14,068	1435,956	789,482
-41,286	14,118	1434,714	789,005
-40,271	14,049	1433,586	788,023
-39,257	14,043	1432,303	787,262
-38,242	14,092	1431,029	786,761
-37,227	14,156	1429,705	786,305
-36,213	14,134	1428,523	785,520
-35,198	14,122	1427,233	784,723
-34,184	14,175	1426,266	784,410
-33,169	14,081	1425,158	783,327
-32,154	14,097	1424,005	782,738
-31,140	14,127	1422,625	782,087
-30,125	14,155	1421,465	781,553
-29,111	14,118	1420,359	780,739
-28,096	14,059	1419,488	779,951
-27,082	14,041	1418,113	779,078
-26,067	14,019	1417,093	778,386
-25,052	14,031	1415,916	777,762
-24,038	14,020	1415,150	777,258
-23,023	13,987	1414,286	776,600
-22,009	14,007	1413,181	776,058
-20,994	13,973	1412,372	775,420
-19,979	13,972	1411,468	774,887
-18,965	13,958	1410,525	774,276
-17,950	13,928	1409,545	773,568
-16,936	13,959	1408,462	773,084
-15,921	13,905	1407,413	772,227
-14,906	13,959	1406,300	771,840
-13,892	13,929	1405,284	771,111
-12,877	13,980	1404,406	770,833
-11,863	13,933	1403,833	770,269
-10,848	13,910	1403,090	769,726
-9,833	13,927	1402,049	769,205
-8,819	13,843	1401,259	768,349
-7,804	13,814	1400,308	767,663
-6,790	13,833	1399,034	767,021
-5,775	13,863	1398,057	766,594
-4,760	13,828	1397,375	766,029
-3,746	13,821	1396,308	765,380
-2,731	13,793	1395,754	764,917
-1,717	13,813	1394,634	764,365
-0,702	13,844	1392,759	763,447
0,313	17,618	1310,719	735,994
1,327	33,974	705,506	434,046
2,342	52,310	123,803	83,463
3,356	3,263	16,744	8,598
4,371	2,954	3,186	1,632
5,386	25,083	0,491	0,288
6,400	518,018	0,132	0,219
7,415	106,533	-0,305	-0,256
8,429	193,827	-0,279	-0,300
9,444	-120,931	-0,183	-0,022
10,459	-30,752	-0,335	-0,133
11,473	38,275	-0,329	-0,207
12,488	334,671	-0,143	-0,197
13,502	43,506	-0,396	-0,256
14,517	538,733	-0,178	-0,300
15,531	129,247	-0,419	-0,378
16,546	205,369	-0,299	-0,329
17,561	-30,395	-0,460	-0,184
18,575	102,664	-0,202	-0,167
19,590	137,629	-0,292	-0,270
20,604	-39,937	-0,248	-0,091
21,619	32,289	-0,419	-0,255
22,634	744,122	-0,237	-0,453
23,648	181,383	-0,366	-0,380
24,663	139,991	-0,464	-0,433
25,677	54,290	-0,225	-0,153
26,692	-73,739	-0,277	-0,071
27,707	196,061	-0,217	-0,234
28,721	-50,411	-0,544	-0,180
29,736	108,992	-0,475	-0,401
30,750	153,496	-0,399	-0,386
31,765	237,840	-0,269	-0,316
32,780	95,217	-0,411	-0,331
33,794	25,528	-0,236	-0,138
34,809	136,471	-0,336	-0,310
35,823	252,612	-0,363	-0,437
36,838	91,417	-0,416	-0,329
37,853	-26,890	-0,370	-0,152
38,867	129,837	-0,349	-0,315
39,882	91,004	-0,260	-0,206
40,896	-22,204	-0,438	-0,187
41,911	56,469	-0,268	-0,183
42,926	99,744	-0,382	-0,312
43,940	179,815	-0,211	-0,218
44,955	156,629	-0,463	-0,451
45,969	-3,337	-0,316	-0,154
46,984	78,611	-0,313	-0,236
47,999	58,014	-0,311	-0,214
49,013	-58,120	-0,382	-0,117
50,028	44,481	-0,391	-0,253
51,042	132,028	-0,313	-0,285
52,057	-30,954	-0,313	-0,124
53,071	-42,872	-0,320	-0,114
54,086	23,118	-0,350	-0,202
55,101	89,086	-0,201	-0,158
56,115	81,394	-0,385	-0,293
57,130	82,309	-0,342	-0,261
58,144	-3,010	-0,375	-0,184
59,159	159,988	-0,364	-0,357
60,174	-29,134	-0,514	-0,207
61,188	76,895	-0,350	-0,261
62,203	77,639	-0,368	-0,276
63,217	140,628	-0,296	-0,275
64,232	202,361	-0,326	-0,355
65,247	257,039	-0,271	-0,328
66,261	67,842	-0,359	-0,258
67,276	-16,808	-0,395	-0,175
68,290	-15,735	-0,344	-0,154
69,305	57,618	-0,379	-0,261
70,320	107,172	-0,347	-0,290
71,334	101,991	-0,271	-0,222
72,349	-34,704	-0,293	-0,112
73,363	409,543	-0,209	-0,312
74,378	92,268	-0,313	-0,248
75,393	127,030	-0,316	-0,282
76,407	366,933	-0,207	-0,294
77,422	-49,492	-0,400	-0,133
78,436	-20,504	-0,352	-0,151
79,451	8,587	-0,270	-0,143
80,466	-82,086	-0,325	-0,074
81,480	137,746	-0,219	-0,202
82,495	327,806	-0,179	-0,242
83,509	-83,195	-0,269	-0,060
84,524	135,811	-0,181	-0,165
85,539	206,052	-0,202	-0,222
86,553	-110,659	-0,412	-0,059
87,568	47,737	-0,375	-0,245
88,582	30,588	-0,254	-0,152
89,597	24,463	-0,326	-0,189
90,611	-38,081	-0,308	-0,114
91,626	266,860	-0,155	-0,191
92,641	56,109	-0,228	-0,155
93,655	17,897	-0,220	-0,123
94,670	46,517	-0,232	-0,151
95,684	31,196	-0,377	-0,227
96,699	141,373	-0,251	-0,234
97,714	26,902	-0,315	-0,185
98,728	-5,947	-0,303	-0,145
99,743	196,335	-0,246	-0,263
100,757	24,112	-0,348	-0,201
101,772	451,626	-0,127	-0,197
102,787	68,148	-0,255	-0,183
103,801	712,785	-0,144	-0,269
104,816	71,213	-0,273	-0,199
105,830	45,121	-0,327	-0,211
106,845	50,938	-0,176	-0,117
107,860	213,997	-0,228	-0,254
108,874	-46,758	-0,258	-0,088
109,889	-5,244	-0,316	-0,152
110,903	73,831	-0,217	-0,160
111,918	-31,272	-0,336	-0,132
112,933	22,042	-0,249	-0,142
113,947	-6,457	-0,250	-0,119
114,962	128,626	-0,274	-0,245
115,976	58,857	-0,259	-0,178
116,991	-104,909	-0,300	-0,048
118,006	590,171	-0,197	-0,342
119,020	213,437	-0,237	-0,262
120,035	128,129	-0,260	-0,232
121,049	-98,587	-0,263	-0,047
122,064	74,035	-0,168	-0,123
123,079	-185,538	-0,174	0,002
124,093	37,186	-0,266	-0,164
125,108	135,256	-0,241	-0,220
126,122	-64,207	-0,267	-0,076
127,137	98,860	-0,204	-0,165
128,151	-62,377	-0,215	-0,062
129,166	10,647	-0,279	-0,149
130,181	-36,868	-0,305	-0,114
131,195	730,553	-0,115	-0,217
132,210	195,854	-0,278	-0,297
133,224	-136,577	-0,357	-0,029
134,239	387,437	-0,157	-0,228
135,254	800,000	-0,118	-0,231
136,268	65,127	-0,319	-0,225
137,283	119,694	-0,187	-0,162
138,297	197,544	-0,217	-0,232
139,312	-33,521	-0,288	-0,111
140,327	62,951	-0,241	-0,168
141,341	0,466	-0,205	-0,102
142,356	413,143	-0,181	-0,270
143,370	394,790	-0,145	-0,212
144,385	-16,538	-0,277	-0,122
145,400	244,948	-0,095	-0,111
146,414	129,053	-0,332	-0,296
147,429	355,831	-0,112	-0,156
148,443	213,898	-0,298	-0,329
149,458	153,409	-0,147	-0,141
150,473	-59,968	-0,309	-0,092
151,487	-3,870	-0,200	-0,097
152,502	234,784	-0,270	-0,311
153,516	158,695	-0,169	-0,164
154,531	322,977	-0,191	-0,255
155,546	-47,767	-0,267	-0,090
156,560	60,470	-0,303	-0,210
157,575	27,201	-0,192	-0,113
158,589	-159,998	-0,232	-0,009
159,604	135,029	-0,227	-0,206
160,619	56,434	-0,142	-0,096
161,633	280,214	-0,269	-0,336
162,648	88,476	-0,288	-0,223
163,662	97,976	-0,272	-0,219
164,677	-155,673	-0,039	0,002
165,692	57,250	-0,296	-0,201
166,706	800,000	-0,084	-0,176
167,721	112,440	-0,197	-0,166
168,735	54,826	-0,308	-0,207
169,750	20,511	-0,235	-0,132
170,764	800,000	-0,066	-0,129
171,779	89,509	-0,228	-0,177
172,794	91,063	-0,217	-0,169
173,808	-60,285	-0,257	-0,076
174,823	75,905	-0,238	-0,175
175,837	654,423	-0,149	-0,268
176,852	-75,304	-0,188	-0,046
177,867	74,760	-0,143	-0,104
178,881	427,677	-0,106	-0,160
179,896	273,816	-0,199	-0,245
180,910	205,923	-0,227	-0,246
181,925	-31,365	-0,321	-0,125
182,940	386,569	-0,101	-0,145
183,954	163,778	-0,312	-0,306
184,969	146,392	-0,143	-0,134
185,983	-84,151	-0,265	0,058
186,998	-180,510	-0,248	-0,003
188,013	117,042	-0,222	-0,190
189,027	800,000	-0,106	-0,246
190,042	284,630	-0,181	-0,228
191,056	-7,701	-0,286	-0,134
192,071	34,736	-0,271	-0,164
193,086	-88,800	-0,105	-0,022
194,100	44,821	-0,107	-0,069
195,115	57,243	-0,268	-0,182
196,129	644,851	-0,102	-0,182
197,144	203,811	-0,196	-0,211
198,159	28,048	-0,202	-0,118
199,173	-63,878	-0,221	-0,063
200,188	78,513	-0,145	-0,108
201,202	180,392	-0,217	-0,221
202,217	40,748	-0,214	-0,134
203,232	185,176	-0,184	-0,190
204,246	187,058	-0,289	-0,300
205,261	4,690	-0,244	-0,124
206,275	8,888	-0,209	-0,109
207,290	188,518	-0,213	-0,222
208,304	91,789	-0,214	-0,167
209,319	-23,683	-0,260	-0,108
210,334	166,042	-0,235	-0,231
211,348	-6,183	-0,266	-0,126
212,363	66,785	-0,206	-0,146
213,377	402,081	-0,158	-0,231
214,392	492,235	-0,100	-0,160
215,407	-105,656	-0,137	-0,021
216,421	-24,371	-0,222	-0,092
217,436	-139,578	-0,120	-0,009
218,450	142,025	-0,208	-0,191
219,465	376,180	-0,188	-0,267
220,480	-68,226	-0,219	-0,059
221,494	800,000	-0,085	-0,255
222,509	-91,354	-0,180	-0,035
223,523	192,648	-0,152	-0,160
224,538	18,746	-0,191	-0,106
225,553	251,946	-0,209	-0,248
226,567	-30,075	-0,278	-0,109
227,582	-91,738	-0,310	-0,061
228,596	598,765	-0,107	-0,186
229,611	121,060	-0,211	-0,183
230,626	-88,349	-0,175	-0,036
231,640	77,266	-0,238	-0,175
232,655	39,128	-0,171	-0,106
233,669	266,805	-0,186	-0,225
234,684	169,831	-0,099	-0,098
235,699	559,666	-0,174	-0,292
236,713	47,122	-0,211	-0,136
237,728	357,200	-0,086	-0,119
238,742	67,317	-0,227	-0,160
239,757	111,163	-0,199	-0,166
240,772	171,674	-0,198	-0,198
241,786	11,448	-0,250	-0,132
242,801	-44,495	-0,209	-0,072
243,815	-166,759	-0,282	-0,008
244,830	85,623	-0,118	-0,090
245,844	-70,222	-0,227	-0,059
246,859	-34,632	-0,186	-0,070
247,874	43,648	-0,272	-0,172
248,888	67,180	-0,246	-0,174
249,903	800,000	-0,096	-0,195
250,917	-156,855	-0,118	0,005
251,932	800,000	0,021	-0,060
252,947	489,950	-0,076	-0,120
253,961	188,513	-0,177	-0,183
254,976	-19,313	-0,283	-0,121
255,990	800,000	-0,181	-0,360
257,005	-57,607	-0,136	-0,041
258,020	51,887	-0,097	-0,064
259,034	81,014	-0,149	-0,111
260,049	436,233	-0,050	-0,076
261,063	-133,385	-0,229	-0,020
262,078	-49,568	-0,263	-0,086
263,093	-11,751	-0,255	-0,115
264,107	-60,977	-0,157	-0,045
265,122	-108,273	-0,129	-0,019
266,136	113,334	-0,196	-0,164
267,151	510,738	-0,173	-0,280
268,166	800,000	-0,068	-0,142
269,180	110,982	-0,162	-0,135
270,195	331,820	-0,190	-0,254
271,209	266,983	-0,167	-0,203
272,224	800,000	-0,096	-0,246
273,239	178,249	-0,091	-0,092
274,253	-6,751	-0,161	-0,075
275,268	44,767	-0,154	-0,098
276,282	69,776	-0,192	-0,137
277,297	-200,000	-0,067	-0,248
278,312	193,105	-0,168	-0,175
279,326	178,683	-0,184	-0,186
280,341	110,687	-0,160	-0,133
281,355	30,141	-0,252	-0,148
282,370	-27,463	-0,184	-0,074
283,384	-78,240	-0,234	-0,055
284,399	-45,314	-0,238	-0,081
285,414	755,438	-0,064	-0,120
286,428	-35,550	-0,196	-0,073
287,443	30,179	-0,142	-0,083
288,457	-111,025	-0,195	0,027
289,472	166,257	-0,151	-0,148
290,487	-75,073	-0,179	-0,044
291,501	47,853	-0,198	-0,127
292,516	-173,727	-0,216	-0,004
293,530	133,633	-0,071	-0,063
294,545	-76,293	-0,175	-0,042
295,560	-136,719	-0,028	-0,002
296,574	378,492	-0,126	-0,179
297,589	199,483	-0,136	-0,144
298,603	317,574	-0,159	-0,208
299,618	74,460	-0,110	-0,079
300,633	-19,589	-0,116	-0,049
301,647	-121,042	-0,230	0,026
302,662	187,565	-0,124	-0,128
303,676	237,898	-0,126	-0,145
304,691	800,000	-0,121	-0,236
305,706	61,971	-0,246	-0,169
306,720	50,228	-0,220	-0,143
307,735	105,141	-0,225	-0,183
308,749	-110,154	-0,134	-0,019
309,764	-98,517	-0,052	0,009
310,779	-130,904	-0,189	-0,017
311,793	47,158	-0,137	-0,087
312,808	37,805	-0,129	-0,079
313,822	671,139	-0,068	-0,122
314,837	-101,947	-0,245	-0,040
315,852	-200,000	-0,011	-0,115
316,866	89,324	-0,102	-0,078
317,881	-59,093	-0,137	-0,040
318,895	148,562	-0,078	-0,073
319,910	800,000	-0,076	-0,179
320,925	-31,766	-0,095	-0,037
321,939	-37,519	-0,178	-0,065
322,954	-80,699	-0,058	0,013
323,968	85,345	-0,129	-0,098
324,983	-52,725	-0,179	-0,056
325,997	-69,555	-0,199	0,052
327,012	216,687	-0,214	-0,235
328,027	-16,059	-0,222	-0,097
329,041	57,874	-0,149	-0,100
330,056	280,844	0,041	0,051
331,070	-135,710	-0,129	-0,010
332,085	-123,318	-0,136	0,015
333,100	-158,466	-0,180	-0,007
334,114	-200,000	-0,189	-0,001
335,129	214,463	-0,091	-0,099
336,143	800,000	-0,101	-0,235
337,158	-117,492	-0,185	0,023
338,173	40,620	-0,095	-0,058
339,187	-200,000	-0,037	-0,118
340,202	-129,783	-0,098	-0,009
341,216	0,351	-0,221	-0,108
342,231	-11,274	-0,231	-0,104
343,246	125,972	-0,075	-0,065
344,260	-125,241	-0,082	-0,009
345,275	-200,000	-0,038	-0,137
346,289	-124,503	-0,203	-0,021
347,304	293,375	-0,115	-0,145
348,319	135,141	-0,051	-0,046
349,333	81,108	-0,233	-0,173
350,348	292,588	-0,141	-0,177
351,362	283,612	-0,111	-0,137
352,377	327,975	-0,072	-0,095
353,392	180,350	-0,090	-0,091
354,406	242,919	-0,122	-0,140
355,421	209,753	1310,492	1412,177
356,435	161,449	1470,707	1412,681
