DTS Sentinel unit serial number:	SN410029Multiplexer serial number:	ORYXHardware model number:	OX2-SRSoftware version number:	ORYX F/W v4,00 Oryx Data Collector v3.7.2.0data status	okinstallation	B3 Nyhavnadifferential loss correction	single-endedforward channel	channel 1reverse channel	N/Adate	2023/12/03time	11:02:30forward acquisition time	300,00reverse acquisition time	0,00gamma	499,1914k internal	0,3201k external	0,3201temperature offset calibration	1,0000default loss term (dB/km)	0,3820temperature slope calibration	1,0000multiplexer offset coefficient	1,0000multiplexer slope coefficient	1,0000fibre end	0,00T internal ref (°C)	13,46T ext. ref 1 (°C)	-1,34T ext. ref 2 (°C)	-1,35length (m)	temperature (°C)	Stokes	anti-Stokes-744,400	196,747	-0,210	-0,233
-743,385	-200,000	0,075	0,297
-742,371	147,300	-0,192	-0,188
-741,356	-200,000	0,094	0,368
-740,342	-200,000	-0,021	-0,123
-739,327	-200,000	0,010	0,179
-738,312	384,711	-0,140	-0,211
-737,298	-200,000	-0,020	0,275
-736,283	115,160	-0,211	-0,187
-735,269	800,000	0,101	0,285
-734,254	33,435	-0,246	-0,155
-733,239	250,136	-0,138	0,171
-732,225	127,865	0,047	-0,043
-731,210	140,563	0,209	0,201
-730,196	371,062	-0,057	-0,084
-729,181	64,198	-0,082	-0,060
-728,167	229,969	0,081	-0,096
-727,152	-129,048	-0,117	0,012
-726,137	-38,006	-0,073	-0,028
-725,123	-200,000	0,037	0,132
-724,108	-200,000	0,034	-0,143
-723,094	245,264	-0,099	-0,122
-722,079	-200,000	0,009	-0,036
-721,064	-46,741	0,092	0,033
-720,050	-126,698	-0,065	0,007
-719,035	-8,277	0,092	-0,045
-718,021	332,249	-0,029	-0,041
-717,006	800,000	-0,041	-0,091
-715,991	800,000	0,048	-0,151
-714,977	800,000	0,032	-0,068
-713,962	4,792	-0,071	-0,038
-712,948	103,105	0,072	-0,061
-711,933	401,322	0,078	0,120
-710,918	106,314	-0,146	0,126
-709,904	69,641	-0,080	-0,060
-708,889	-55,753	-0,088	0,029
-707,875	589,750	-0,087	-0,156
-706,860	-200,000	0,018	-0,059
-705,845	800,000	-0,023	0,069
-704,831	95,049	0,057	-0,047
-703,816	-108,983	0,112	0,017
-702,802	264,752	0,066	-0,084
-701,787	40,802	-0,143	-0,093
-700,772	443,412	-0,092	-0,147
-699,758	497,006	-0,022	-0,037
-698,743	38,777	-0,078	-0,051
-697,729	545,094	0,040	-0,069
-696,714	-80,623	0,007	-0,002
-695,699	590,418	0,080	-0,145
-694,685	-200,000	-0,025	-0,181
-693,670	-197,520	0,036	0,000
-692,656	800,000	0,054	-0,111
-691,641	676,652	-0,031	0,058
-690,627	334,095	-0,141	0,199
-689,612	-147,791	0,173	0,010
-688,597	341,115	0,040	-0,056
-687,583	360,957	-0,086	-0,125
-686,568	-200,000	0,019	-0,090
-685,554	153,509	-0,123	0,123
-684,539	-103,043	0,151	-0,026
-683,524	-137,469	0,121	0,010
-682,510	800,000	0,028	0,066
-681,495	-71,212	0,073	0,020
-680,481	659,749	0,026	-0,049
-679,466	559,196	-0,107	-0,189
-678,451	-200,000	0,019	-0,132
-677,437	-80,520	0,049	-0,012
-676,422	-200,000	0,001	-0,054
-675,408	-200,000	0,033	0,138
-674,393	-110,557	-0,080	-0,012
-673,378	-37,385	0,043	-0,017
-672,364	20,971	-0,111	-0,065
-671,349	-200,000	0,022	-0,081
-670,335	94,026	0,062	-0,051
-669,320	7,099	0,143	0,077
-668,305	-107,223	0,112	-0,018
-667,291	-63,828	-0,138	-0,041
-666,276	800,000	0,033	-0,089
-665,262	119,349	-0,113	-0,101
-664,247	-200,000	0,002	-0,039
-663,232	-93,950	0,048	-0,010
-662,218	-78,603	-0,146	0,036
-661,203	-200,000	0,028	0,127
-660,189	-34,451	-0,125	-0,049
-659,174	-200,000	0,032	-0,175
-658,159	83,355	-0,161	0,127
-657,145	-123,076	0,051	-0,006
-656,130	-200,000	0,012	-0,072
-655,116	45,686	-0,073	-0,049
-654,101	-200,000	0,039	-0,124
-653,086	-200,000	0,006	0,173
-652,072	-36,741	-0,038	-0,015
-651,057	9,635	-0,062	-0,034
-650,043	197,099	-0,016	-0,017
-649,028	-161,372	0,031	0,001
-648,014	-31,931	0,111	0,045
-646,999	340,107	0,045	0,064
-645,984	-192,283	0,058	-0,000
-644,970	-16,077	-0,174	-0,080
-643,955	-70,109	-0,099	-0,027
-642,941	-49,123	-0,064	-0,022
-641,926	88,654	-0,113	-0,091
-640,911	132,458	0,064	-0,060
-639,897	-80,044	0,029	-0,007
-638,882	-200,000	-0,016	-0,066
-637,868	-94,326	0,021	0,004
-636,853	-200,000	0,053	0,172
-635,838	-148,059	-0,080	-0,005
-634,824	-200,000	-0,022	-0,136
-633,809	53,093	0,021	-0,015
-632,795	-35,669	0,013	0,005
-631,780	-135,375	-0,070	-0,006
-630,765	35,378	-0,016	-0,010
-629,751	97,917	-0,046	-0,039
-628,736	800,000	-0,053	-0,120
-627,722	336,479	-0,137	-0,193
-626,707	-200,000	0,029	-0,146
-625,692	69,652	0,006	-0,005
-624,678	-36,912	-0,092	0,036
-623,663	-35,616	-0,102	0,040
-622,649	31,767	-0,086	-0,053
-621,634	38,060	0,047	0,030
-620,619	-200,000	-0,014	0,126
-619,605	108,864	0,088	-0,076
-618,590	-200,000	-0,027	0,143
-617,576	-49,108	0,128	-0,044
-616,561	-47,716	0,076	-0,027
-615,546	133,458	-0,042	0,039
-614,532	55,026	-0,140	-0,098
-613,517	-200,000	0,002	-0,013
-612,503	88,697	-0,054	0,044
-611,488	79,666	0,152	0,118
-610,474	8,690	-0,104	0,057
-609,459	-200,000	0,024	-0,206
-608,444	139,729	-0,052	0,049
-607,430	-200,000	-0,012	-0,073
-606,415	49,912	0,017	-0,012
-605,401	-200,000	-0,010	-0,036
-604,386	-200,000	0,044	0,162
-603,371	-200,000	0,003	0,087
-602,357	-200,000	0,012	-0,072
-601,342	30,453	-0,123	0,076
-600,328	800,000	-0,036	-0,108
-599,313	60,134	-0,123	0,088
-598,298	498,055	-0,052	-0,087
-597,284	-200,000	0,002	0,010
-596,269	800,000	0,009	0,026
-595,255	-96,562	0,098	0,019
-594,240	-80,349	-0,094	0,023
-593,225	800,000	-0,028	-0,066
-592,211	-200,000	0,003	-0,090
-591,196	473,952	0,050	-0,081
-590,182	109,841	-0,038	-0,033
-589,167	9,341	0,042	-0,023
-588,152	431,509	0,022	0,034
-587,138	-200,000	0,021	-0,171
-586,123	-200,000	-0,003	0,073
-585,109	-76,242	0,078	-0,020
-584,094	-200,000	-0,035	-0,162
-583,079	154,719	0,074	-0,074
-582,065	167,320	0,052	-0,053
-581,050	-179,019	0,037	0,001
-580,036	103,074	-0,106	-0,090
-579,021	357,188	-0,133	-0,192
-578,006	-152,278	-0,054	-0,003
-576,992	-104,623	0,058	0,010
-575,977	-200,000	-0,014	-0,126
-574,963	210,103	0,083	-0,094
-573,948	-61,689	-0,108	-0,033
-572,934	-17,138	0,043	0,020
-571,919	146,819	0,068	-0,066
-570,904	800,000	-0,073	0,161
-569,890	800,000	0,011	-0,029
-568,875	-12,161	-0,073	-0,034
-567,861	-200,000	0,019	-0,156
-566,846	-135,669	-0,030	-0,003
-565,831	354,367	-0,049	-0,071
-564,817	289,204	-0,055	0,072
-563,802	237,831	-0,007	0,008
-562,788	800,000	-0,040	-0,108
-561,773	-101,522	0,101	-0,018
-560,758	800,000	0,042	-0,112
-559,744	-102,781	-0,058	-0,010
-558,729	-103,340	-0,197	0,033
-557,715	800,000	-0,028	-0,062
-556,700	-200,000	0,002	-0,013
-555,685	-96,475	0,020	0,004
-554,671	280,964	0,062	0,080
-553,656	-28,032	-0,113	-0,047
-552,642	81,729	0,110	-0,086
-551,627	43,358	-0,066	0,043
-550,612	-80,251	-0,155	0,037
-549,598	-200,000	-0,005	0,042
-548,583	-66,380	-0,076	-0,022
-547,569	201,873	-0,034	-0,038
-546,554	87,494	-0,120	0,096
-545,539	392,339	0,072	0,108
-544,525	77,183	-0,062	0,048
-543,510	-200,000	-0,017	-0,088
-542,496	-38,648	0,075	-0,029
-541,481	-200,000	-0,035	-0,141
-540,466	23,139	-0,112	-0,066
-539,452	800,000	-0,022	-0,057
-538,437	-200,000	-0,001	0,047
-537,423	800,000	0,040	0,090
-536,408	513,236	-0,005	-0,008
-535,393	701,375	-0,079	-0,151
-534,379	452,717	-0,054	-0,087
-533,364	-75,040	-0,079	-0,020
-532,350	-143,976	0,051	-0,003
-531,335	78,568	0,185	0,142
-530,321	-151,824	-0,028	-0,001
-529,306	120,847	0,117	-0,105
-528,291	800,000	0,050	-0,109
-527,277	124,762	-0,046	0,042
-526,262	46,135	0,108	0,072
-525,248	-92,543	0,115	0,023
-524,233	761,394	-0,021	-0,041
-523,218	-54,261	-0,037	-0,012
-522,204	42,311	-0,168	0,110
-521,189	235,370	0,065	-0,078
-520,175	800,000	0,047	-0,136
-519,160	10,847	-0,056	-0,031
-518,145	576,319	-0,034	0,059
-517,131	-200,000	-0,013	0,071
-516,116	-200,000	-0,010	-0,062
-515,102	-67,577	-0,034	0,010
-514,087	-105,224	-0,131	0,021
-513,072	-200,000	-0,008	-0,062
-512,058	-95,312	-0,128	-0,025
-511,043	800,000	-0,030	0,060
-510,029	-1,220	-0,047	0,024
-509,014	-200,000	-0,001	0,128
-507,999	497,648	0,096	0,160
-506,985	-200,000	0,003	0,048
-505,970	-125,862	-0,133	-0,014
-504,956	-99,410	-0,041	0,007
-503,941	175,648	0,055	0,058
-502,926	15,818	-0,032	0,018
-501,912	-71,504	0,081	-0,022
-500,897	-88,800	-0,045	-0,009
-499,883	340,714	-0,105	0,148
-498,868	-108,324	-0,072	0,011
-497,853	93,680	0,081	0,066
-496,839	-161,675	0,052	0,002
-495,824	36,619	-0,036	0,023
-494,810	345,396	-0,029	-0,042
-493,795	-140,828	-0,166	0,012
-492,781	-200,000	-0,011	-0,096
-491,766	654,798	-0,019	-0,036
-490,751	-95,027	-0,032	0,006
-489,737	-55,829	-0,188	0,060
-488,722	-170,338	-0,072	0,002
-487,708	183,077	-0,041	0,043
-486,693	-37,337	0,194	0,074
-485,678	-15,461	0,031	-0,014
-484,664	48,656	-0,065	-0,044
-483,649	-88,021	0,044	-0,009
-482,635	800,000	0,032	-0,072
-481,620	379,220	-0,011	-0,016
-480,605	-34,760	0,026	-0,010
-479,591	157,549	0,060	0,060
-478,576	-173,709	-0,172	0,004
-477,562	-200,000	0,107	0,000
-476,547	-133,602	-0,117	0,010
-475,532	-200,000	0,011	-0,052
-474,518	147,508	-0,051	0,050
-473,503	-34,671	-0,056	0,022
-472,489	147,337	0,098	-0,095
-471,474	145,389	-0,155	-0,150
-470,459	-117,135	-0,085	-0,011
-469,445	237,448	-0,065	-0,078
-468,430	452,046	-0,028	-0,044
-467,416	-200,000	-0,003	-0,038
-466,401	27,681	0,099	0,060
-465,386	-200,000	0,026	0,162
-464,372	-200,000	-0,001	-0,012
-463,357	-87,106	-0,155	-0,034
-462,343	-95,434	-0,035	-0,007
-461,328	-200,000	0,016	-0,080
-460,313	79,360	-0,034	0,026
-459,299	134,790	0,020	0,019
-458,284	51,630	-0,097	0,067
-457,270	800,000	-0,015	0,045
-456,255	-165,300	-0,124	-0,004
-455,241	174,452	-0,072	0,075
-454,226	602,969	0,058	-0,105
-453,211	-200,000	-0,010	0,041
-452,197	-143,747	0,084	0,006
-451,182	-24,857	-0,080	-0,034
-450,168	54,224	0,153	0,106
-449,153	-200,000	-0,004	0,020
-448,138	-154,000	0,033	-0,002
-447,124	-200,000	0,011	0,119
-446,109	800,000	0,045	0,109
-445,095	66,912	0,095	0,070
-444,080	800,000	-0,082	0,167
-443,065	-200,000	0,023	0,166
-442,051	-147,607	-0,041	-0,002
-441,036	319,003	0,041	0,055
-440,022	13,006	0,119	-0,066
-439,007	-200,000	-0,007	-0,113
-437,992	800,000	0,011	0,035
-436,978	458,431	0,051	-0,082
-435,963	172,359	-0,043	-0,044
-434,949	-134,778	-0,066	-0,006
-433,934	-46,862	-0,123	-0,043
-432,919	-165,734	-0,034	-0,001
-431,905	612,198	-0,075	-0,135
-430,890	408,452	0,038	-0,058
-429,876	-200,000	-0,016	-0,083
-428,861	220,679	-0,094	0,108
-427,846	-126,763	0,104	-0,011
-426,832	-41,112	-0,135	-0,050
-425,817	-200,000	0,006	-0,068
-424,803	127,727	-0,105	-0,096
-423,788	-200,000	-0,002	0,181
-422,773	171,733	0,075	0,077
-421,759	-200,000	-0,005	0,097
-420,744	-65,669	0,124	0,036
-419,730	-48,956	0,026	-0,009
-418,715	292,731	0,060	-0,078
-417,701	-44,917	0,098	-0,035
-416,686	-200,000	-0,002	-0,043
-415,671	191,275	0,085	0,092
-414,657	-200,000	0,037	0,214
-413,642	127,165	0,073	-0,066
-412,628	-200,000	-0,067	0,000
-411,613	467,535	-0,014	-0,023
-410,598	800,000	0,022	0,057
-409,584	34,946	0,098	-0,061
-408,569	136,311	0,054	0,050
-407,555	-200,000	-0,021	0,106
-406,540	-24,042	-0,053	-0,023
-405,525	710,253	0,028	-0,054
-404,511	-200,000	0,020	0,070
-403,496	800,000	-0,063	-0,130
-402,482	120,877	0,078	0,070
-401,467	-200,000	-0,017	0,079
-400,452	-33,058	0,095	0,038
-399,438	-200,000	-0,017	0,096
-398,423	-55,871	-0,076	-0,024
-397,409	-83,220	0,054	-0,012
-396,394	302,002	0,085	-0,113
-395,379	456,410	0,016	0,025
-394,365	-79,299	-0,080	-0,019
-393,350	365,397	-0,046	-0,067
-392,336	792,275	0,032	-0,063
-391,321	-7,732	-0,100	-0,048
-390,306	173,200	-0,063	-0,065
-389,292	-200,000	0,009	0,028
-388,277	-200,000	-0,012	0,090
-387,263	261,295	0,089	0,111
-386,248	-200,000	0,028	-0,108
-385,233	304,721	0,046	0,061
-384,219	74,771	0,065	0,049
-383,204	54,557	0,058	-0,040
-382,190	102,868	0,088	-0,074
-381,175	324,740	-0,066	-0,091
-380,160	-120,612	0,113	0,014
-379,146	598,358	0,032	0,058
-378,131	127,041	-0,045	-0,041
-377,117	465,270	-0,079	0,128
-376,102	-200,000	0,013	0,065
-375,088	761,819	0,064	-0,125
-374,073	800,000	-0,042	0,098
-373,058	-151,438	-0,055	-0,003
-372,044	639,855	0,055	-0,101
-371,029	800,000	-0,073	0,215
-370,015	800,000	-0,015	-0,037
-369,000	326,862	-0,022	-0,030
-367,985	800,000	0,010	0,027
-366,971	-200,000	0,017	0,073
-365,956	4,403	0,054	0,028
-364,942	4,003	0,093	0,048
-363,927	127,963	0,080	0,073
-362,912	800,000	-0,021	0,057
-361,898	-124,541	-0,081	0,009
-360,883	-31,099	-0,115	-0,046
-359,869	116,706	0,085	-0,075
-358,854	-186,568	-0,093	-0,001
-357,839	-11,526	0,051	-0,024
-356,825	-200,000	0,033	-0,115
-355,810	103,147	0,059	0,050
-354,796	-75,488	-0,166	0,042
-353,781	-13,452	0,055	-0,025
-352,766	-200,000	-0,001	0,023
-351,752	-200,000	0,007	-0,098
-350,737	-200,000	0,015	0,087
-349,723	58,776	-0,100	0,070
-348,708	-200,000	0,028	0,133
-347,693	28,729	-0,028	0,017
-346,679	226,400	0,046	0,054
-345,664	-200,000	0,012	-0,057
-344,650	-9,537	0,057	-0,027
-343,635	-23,568	0,078	0,033
-342,620	-200,000	-0,012	0,058
-341,606	-200,000	-0,039	0,201
-340,591	-72,104	-0,063	-0,017
-339,577	170,980	-0,136	-0,139
-338,562	61,405	0,066	0,047
-337,548	-135,401	-0,179	0,015
-336,533	800,000	-0,053	-0,116
-335,518	800,000	-0,058	0,168
-334,504	800,000	0,035	0,097
-333,489	-200,000	0,000	-0,078
-332,475	253,125	-0,043	0,053
-331,460	-120,079	-0,102	0,012
-330,445	-53,095	0,051	0,017
-329,431	-200,000	0,001	0,048
-328,416	338,256	0,081	-0,113
-327,402	-200,000	-0,027	0,172
-326,387	181,264	-0,026	0,027
-325,372	73,303	-0,015	-0,011
-324,358	-38,759	0,017	0,006
-323,343	-59,940	0,048	-0,015
-322,329	800,000	-0,036	0,110
-321,314	393,290	0,037	-0,055
-320,299	792,253	0,029	-0,057
-319,285	-171,567	-0,035	-0,001
-318,270	-200,000	-0,007	0,034
-317,256	-108,592	-0,028	0,004
-316,241	-122,821	-0,066	0,008
-315,226	800,000	0,054	0,121
-314,212	126,459	0,106	-0,096
-313,197	800,000	-0,036	0,108
-312,183	-200,000	0,032	0,119
-311,168	-161,091	0,081	0,003
-310,153	171,435	0,017	-0,017
-309,139	-177,539	-0,111	-0,002
-308,124	158,685	-0,037	-0,037
-307,110	-14,958	0,155	-0,071
-306,095	-10,865	0,045	-0,021
-305,080	-95,888	0,111	0,021
-304,066	-200,000	-0,043	-0,192
-303,051	-200,000	-0,017	-0,202
-302,037	117,601	0,046	0,040
-301,022	-200,000	0,007	-0,131
-300,008	13,169	0,002	0,001
-298,993	142,980	0,034	0,032
-297,978	-200,000	-0,013	0,071
-296,964	-200,000	-0,002	0,048
-295,949	-45,480	0,078	0,027
-294,935	-113,101	0,095	-0,013
-293,920	-200,000	0,014	0,056
-292,905	800,000	-0,068	0,184
-291,891	16,112	0,063	0,035
-290,876	82,440	0,074	-0,057
-289,862	-200,000	0,027	0,106
-288,847	-61,544	-0,182	-0,054
-287,832	800,000	0,053	-0,165
-286,818	-11,835	0,062	-0,029
-285,803	800,000	0,029	0,060
-284,789	260,810	-0,053	-0,066
-283,774	14,916	0,155	0,087
-282,759	-96,374	-0,061	0,011
-281,745	-17,164	-0,124	-0,056
-280,730	-200,000	0,020	-0,087
-279,716	400,654	-0,013	0,020
-278,701	62,965	0,053	0,038
-277,686	-79,938	0,056	0,013
-276,672	-115,003	0,066	0,009
-275,657	-200,000	-0,009	0,060
-274,643	565,445	-0,030	0,052
-273,628	267,428	-0,041	0,051
-272,613	-9,979	0,044	0,021
-271,599	233,858	0,083	-0,098
-270,584	137,278	0,063	-0,059
-269,570	-36,126	0,080	-0,031
-268,555	-200,000	-0,003	0,110
-267,540	5,432	-0,041	0,022
-266,526	81,776	0,014	-0,011
-265,511	132,231	0,021	-0,020
-264,497	637,996	0,051	-0,092
-263,482	-200,000	0,008	0,031
-262,467	800,000	-0,069	0,137
-261,453	-191,161	0,069	-0,000
-260,438	93,174	-0,037	0,030
-259,424	81,242	0,018	0,014
-258,409	-80,735	-0,095	0,022
-257,395	-151,066	-0,132	0,007
-256,380	397,823	0,077	0,115
-255,365	118,404	0,074	0,065
-254,351	548,481	0,067	-0,116
-253,336	59,347	-0,036	0,025
-252,322	-200,000	-0,009	0,048
-251,307	800,000	0,021	-0,059
-250,292	94,884	-0,078	0,063
-249,278	76,531	0,080	0,060
-248,263	800,000	-0,022	0,055
-247,249	-22,386	0,110	0,047
-246,234	-200,000	0,012	-0,140
-245,219	800,000	-0,023	-0,062
-244,205	37,056	-0,107	-0,067
-243,190	-200,000	0,045	-0,157
-242,176	495,744	0,041	-0,068
-241,161	59,614	0,139	-0,098
-240,146	-9,428	0,103	0,049
-239,132	422,779	0,038	-0,059
-238,117	-101,894	0,052	-0,009
-237,103	293,576	0,049	-0,064
-236,088	-200,000	-0,004	0,038
-235,073	181,846	0,045	0,047
-234,059	458,750	0,192	0,305
-233,044	-61,354	-0,056	0,017
-232,030	-200,000	0,030	0,146
-231,015	236,079	-0,080	0,094
-230,000	21,320	-0,103	-0,059
-228,986	175,290	0,115	0,119
-227,971	800,000	0,024	-0,051
-226,957	-193,576	0,083	-0,000
-225,942	22,545	0,062	-0,036
-224,927	-11,768	-0,087	-0,041
-223,913	-200,000	0,008	-0,115
-222,898	800,000	0,069	-0,171
-221,884	135,490	0,109	-0,101
-220,869	-13,867	0,188	0,086
-219,855	166,400	-0,094	0,095
-218,840	800,000	0,042	0,126
-217,825	31,013	-0,080	-0,049
-216,811	16,789	0,110	0,062
-215,796	-200,000	-0,008	-0,040
-214,782	-158,812	-0,028	0,001
-213,767	126,145	0,103	0,093
-212,752	-148,044	-0,064	-0,004
-211,738	-200,000	-0,016	-0,094
-210,723	421,151	0,050	-0,077
-209,709	-200,000	0,014	-0,214
-208,694	514,411	-0,022	-0,037
-207,679	-200,000	-0,010	-0,066
-206,665	273,409	-0,050	-0,063
-205,650	20,353	0,187	0,107
-204,636	313,153	0,057	0,077
-203,621	138,433	-0,016	0,015
-202,606	101,632	-0,117	0,097
-201,592	-200,000	-0,002	-0,113
-200,577	-91,534	-0,017	-0,004
-199,563	-47,255	0,048	0,016
-198,548	-52,489	0,112	-0,037
-197,533	-18,209	0,120	0,053
-196,519	-200,000	-0,002	-0,038
-195,504	-200,000	-0,003	0,081
-194,490	-200,000	-0,022	-0,222
-193,475	40,900	-0,029	0,018
-192,460	800,000	-0,019	0,041
-191,446	800,000	-0,047	0,134
-190,431	-200,000	-0,009	0,119
-189,417	-61,555	0,119	0,035
-188,402	399,085	0,049	0,073
-187,387	31,877	0,077	-0,047
-186,373	800,000	-0,020	0,040
-185,358	630,244	-0,108	-0,195
-184,344	307,678	0,096	0,128
-183,329	800,000	-0,046	0,120
-182,315	-6,077	-0,073	-0,035
-181,300	145,402	-0,025	0,024
-180,285	-18,048	0,098	0,043
-179,271	310,278	-0,040	-0,053
-178,256	800,000	-0,033	-0,077
-177,242	33,414	0,133	0,082
-176,227	97,240	0,067	0,055
-175,212	111,822	-0,079	0,068
-174,198	-33,794	0,140	0,055
-173,183	81,219	0,117	0,090
-172,169	610,168	-0,064	0,114
-171,154	188,049	0,111	-0,118
-170,139	-52,639	-0,042	-0,014
-169,125	-200,000	0,029	0,119
-168,110	-104,177	-0,080	-0,013
-167,096	735,867	-0,021	-0,041
-166,081	-200,000	0,002	-0,081
-165,066	-44,305	0,118	0,042
-164,052	611,173	-0,059	0,105
-163,037	800,000	0,036	-0,083
-162,023	-200,000	-0,014	0,115
-161,008	92,588	0,021	0,017
-159,993	-200,000	-0,001	0,016
-158,979	-200,000	0,037	-0,117
-157,964	-16,899	-0,132	-0,059
-156,950	-200,000	-0,004	-0,046
-155,935	403,024	-0,020	-0,030
-154,920	155,694	0,034	-0,033
-153,906	7,913	0,081	-0,043
-152,891	-104,776	0,094	-0,015
-151,877	-81,744	0,020	-0,005
-150,862	22,363	-0,101	-0,058
-149,847	-137,529	0,029	0,002
-148,833	19,857	0,070	0,040
-147,818	-40,920	0,111	-0,040
-146,804	172,670	-0,069	-0,071
-145,789	-160,349	-0,090	0,003
-144,775	-200,000	0,010	-0,102
-143,760	-116,172	-0,081	-0,011
-142,745	145,312	-0,069	0,065
-141,731	-200,000	0,022	-0,123
-140,716	-8,771	0,153	-0,073
-139,702	-25,544	0,143	-0,060
-138,687	54,286	0,007	-0,005
-137,672	356,138	-0,058	-0,083
-136,658	-200,000	0,022	-0,087
-135,643	274,449	-0,058	0,074
-134,629	-200,000	-0,029	-0,116
-133,614	-200,000	0,009	-0,109
-132,599	-10,803	-0,076	0,035
-131,585	800,000	0,028	0,077
-130,570	-200,000	0,005	-0,176
-129,556	621,292	-0,071	-0,127
-128,541	253,429	-0,053	0,065
-127,526	-20,138	0,064	0,028
-126,512	-200,000	0,061	-0,230
-125,497	0,186	-0,014	0,007
-124,483	-52,242	0,068	0,022
-123,468	54,995	0,115	0,079
-122,453	410,382	-0,135	0,204
-121,439	-200,000	-0,032	0,131
-120,424	241,036	0,067	-0,080
-119,410	739,767	-0,068	0,131
-118,395	158,142	0,097	0,095
-117,380	800,000	0,062	0,138
-116,366	-200,000	0,000	0,055
-115,351	-138,578	-0,081	0,006
-114,337	800,000	-0,036	-0,108
-113,322	800,000	0,076	-0,187
-112,307	544,132	0,058	0,098
-111,293	579,232	-0,027	-0,047
-110,278	521,060	-0,028	0,046
-109,264	402,906	-0,060	0,090
-108,249	-106,268	-0,065	-0,010
-107,234	736,862	0,032	-0,061
-106,220	88,302	-0,015	0,011
-105,205	-13,907	-0,067	-0,031
-104,191	-121,013	0,114	0,013
-103,176	-105,791	0,115	-0,018
-102,162	66,886	-0,043	0,031
-101,147	54,252	0,098	-0,067
-100,132	505,938	-0,103	-0,170
-99,118	-122,043	-0,100	-0,012
-98,103	25,213	-0,088	0,052
-97,089	82,166	0,114	0,088
-96,074	233,723	0,086	0,100
-95,059	-144,802	-0,035	-0,002
-94,045	342,568	0,053	-0,073
-93,030	-200,000	0,013	-0,057
-92,016	645,619	0,078	-0,142
-91,001	604,787	0,032	0,058
-89,986	-58,864	0,120	0,037
-88,972	-200,000	-0,025	0,108
-87,957	635,864	0,039	0,070
-86,943	140,235	0,102	0,096
-85,928	508,830	0,038	-0,063
-84,913	-145,014	-0,106	0,007
-83,899	-88,230	-0,037	-0,008
-82,884	275,606	0,032	0,041
-81,870	568,565	0,061	0,105
-80,855	-200,000	0,028	0,095
-79,840	233,722	-0,062	0,072
-78,826	-76,878	-0,113	0,028
-77,811	448,795	0,037	0,058
-76,797	39,731	0,029	-0,019
-75,782	800,000	-0,038	0,091
-74,767	800,000	0,038	0,117
-73,753	-200,000	-0,005	-0,103
-72,738	59,964	-0,130	-0,091
-71,724	-115,323	-0,052	0,007
-70,709	-66,846	0,071	0,020
-69,694	-154,507	-0,052	-0,002
-68,680	-16,410	0,030	0,014
-67,665	36,922	0,160	0,100
-66,651	-128,580	0,105	0,010
-65,636	105,613	0,034	0,029
-64,622	143,263	0,066	-0,062
-63,607	-200,000	-0,010	-0,183
-62,592	800,000	-0,010	0,027
-61,578	30,677	0,102	-0,062
-60,563	-140,296	0,115	-0,008
-59,549	800,000	-0,020	0,061
-58,534	-27,166	-1,701	-0,699
-57,519	384,517	-1,381	-2,021
-56,505	-200,000	-0,569	-4,482
-55,490	217,379	1,050	1,186
-54,476	800,000	4,877	11,038
-53,461	-200,000	19,090	319,248
-52,446	-200,000	739,692	2336,008
-51,432	575,927	1655,085	2873,801
-50,417	78,605	1671,036	1263,598
-49,403	21,450	1544,069	886,542
-48,388	15,292	1466,366	811,984
-47,373	17,957	1456,545	819,396
-46,359	16,761	1446,384	807,909
-45,344	13,625	1441,712	790,250
-44,330	13,506	1439,813	788,605
-43,315	13,520	1438,156	787,731
-42,300	13,530	1436,381	786,779
-41,286	13,568	1434,993	786,168
-40,271	13,498	1433,976	785,244
-39,257	13,486	1432,662	784,440
-38,242	13,527	1431,528	783,979
-37,227	13,545	1430,018	783,208
-36,213	13,588	1428,895	782,769
-35,198	13,537	1427,640	781,806
-34,184	13,573	1426,812	781,493
-33,169	13,528	1425,315	780,431
-32,154	13,595	1424,262	780,136
-31,140	13,600	1422,932	779,400
-30,125	13,589	1422,048	778,833
-29,111	13,553	1420,911	778,011
-28,096	13,539	1419,782	777,297
-27,082	13,521	1418,574	776,519
-26,067	13,472	1417,442	775,640
-25,052	13,485	1416,354	775,071
-24,038	13,474	1415,327	774,428
-23,023	13,422	1414,656	773,788
-22,009	13,453	1413,492	773,265
-20,994	13,449	1412,530	772,689
-19,979	13,452	1411,786	772,265
-18,965	13,415	1410,670	771,451
-17,950	13,468	1409,730	771,152
-16,936	13,463	1408,770	770,575
-15,921	13,411	1407,769	769,751
-14,906	13,366	1407,070	769,129
-13,892	13,440	1405,859	768,785
-12,877	13,394	1405,062	768,102
-11,863	13,385	1404,136	767,523
-10,848	13,384	1403,440	767,107
-9,833	13,325	1402,387	766,226
-8,819	13,279	1401,585	765,542
-7,804	13,318	1400,679	765,202
-6,790	13,293	1399,466	764,390
-5,775	13,324	1398,356	763,897
-4,760	13,332	1397,389	763,377
-3,746	13,297	1396,692	762,804
-2,731	13,300	1396,009	762,413
-1,717	13,239	1395,205	761,662
-0,702	13,251	1393,235	760,613
0,313	17,212	1310,191	733,595
1,327	33,604	704,146	432,158
2,342	51,661	123,578	83,018
3,356	1,846	16,642	8,462
4,371	20,493	3,141	1,792
5,386	-16,322	0,558	0,249
6,400	447,454	-0,073	0,114
7,415	247,201	-0,204	-0,244
8,429	177,075	-0,216	-0,223
9,444	91,237	-0,327	-0,259
10,459	-35,747	-0,340	-0,130
11,473	190,682	-0,210	-0,224
12,488	-19,121	-0,159	-0,070
13,502	8,102	-0,250	-0,132
14,517	18,108	-0,330	-0,185
15,531	65,997	-0,365	-0,262
16,546	545,164	-0,203	-0,344
17,561	168,748	-0,245	-0,247
18,575	-125,050	-0,231	0,025
19,590	72,990	-0,169	-0,125
20,604	-121,320	-0,217	-0,025
21,619	-20,017	-0,439	-0,191
22,634	142,145	-0,472	-0,442
23,648	109,467	-0,319	-0,270
24,663	282,698	-0,246	-0,313
25,677	160,767	-0,252	-0,249
26,692	168,225	-0,259	-0,261
27,707	12,898	-0,453	-0,246
28,721	311,955	-0,294	-0,390
29,736	198,981	-0,374	-0,405
30,750	59,317	-0,380	-0,264
31,765	0,494	-0,447	-0,225
32,780	86,118	-0,384	-0,298
33,794	63,142	-0,371	-0,262
34,809	-12,236	-0,386	-0,177
35,823	68,083	-0,418	-0,302
36,838	31,162	-0,402	-0,243
37,853	0,650	-0,413	-0,208
38,867	215,496	-0,284	-0,318
39,882	119,881	-0,371	-0,324
40,896	159,545	-0,304	-0,299
41,911	160,857	-0,270	-0,266
42,926	42,088	-0,385	-0,246
43,940	27,598	-0,495	-0,293
44,955	162,928	-0,264	-0,261
45,969	55,724	-0,322	-0,219
46,984	168,557	-0,236	-0,238
47,999	96,141	-0,393	-0,317
49,013	-0,188	-0,262	-0,131
50,028	100,866	-0,402	-0,329
51,042	67,059	-0,317	-0,228
52,057	1,998	-0,256	-0,130
53,071	1,505	-0,241	-0,122
54,086	-22,069	-0,382	-0,162
55,101	-15,073	-0,311	-0,140
56,115	9,030	-0,281	-0,149
57,130	70,134	-0,360	-0,261
58,144	58,986	-0,387	-0,268
59,159	82,881	-0,419	-0,321
60,174	156,686	-0,371	-0,361
61,188	505,604	-0,294	-0,481
62,203	-12,836	-0,295	-0,135
63,217	403,807	-0,219	-0,325
64,232	122,608	-0,376	-0,331
65,247	143,630	-0,336	-0,315
66,261	-22,255	-0,364	-0,155
67,276	114,354	-0,295	-0,252
68,290	45,267	-0,302	-0,195
69,305	3,164	-0,336	-0,171
70,320	351,194	-0,211	-0,294
71,334	4,269	-0,348	-0,179
72,349	58,881	-0,254	-0,176
73,363	114,205	-0,359	-0,307
74,378	-58,604	-0,405	-0,123
75,393	-25,871	-0,390	-0,161
76,407	-5,084	-0,301	-0,145
77,422	-15,400	-0,265	-0,118
78,436	-78,784	-0,289	-0,069
79,451	65,415	-0,297	-0,211
80,466	60,118	-0,370	-0,256
81,480	468,011	-0,233	-0,368
82,495	231,996	-0,272	-0,314
83,509	-67,419	-0,325	-0,089
84,524	-86,633	-0,263	-0,056
85,539	3,562	-0,378	-0,193
86,553	87,297	-0,302	-0,235
87,568	232,428	-0,262	-0,303
88,582	81,039	-0,279	-0,212
89,597	98,113	-0,378	-0,306
90,611	260,949	-0,218	-0,265
91,626	19,295	-0,418	-0,235
92,641	75,367	-0,178	-0,132
93,655	72,324	-0,285	-0,208
94,670	31,977	-0,273	-0,165
95,684	49,909	-0,347	-0,229
96,699	30,245	-0,321	-0,192
97,714	82,322	-0,203	-0,154
98,728	-25,232	-0,201	-0,083
99,743	-8,873	-0,175	-0,082
100,757	-68,475	-0,316	-0,085
101,772	20,300	-0,334	-0,189
102,787	1,514	-0,153	-0,077
103,801	9,562	-0,282	-0,149
104,816	3,624	-0,358	-0,182
105,830	-58,732	-0,161	-0,049
106,845	-57,420	-0,238	-0,073
107,860	41,447	-0,379	-0,240
108,874	48,349	-0,374	-0,245
109,889	199,013	-0,200	-0,215
110,903	86,286	-0,288	-0,222
111,918	-1,266	-0,202	-0,099
112,933	12,751	-0,184	-0,099
113,947	-70,603	-0,229	0,060
114,962	218,366	-0,174	-0,195
115,976	-6,002	-0,337	-0,161
116,991	172,661	-0,235	-0,237
118,006	-63,601	-0,334	-0,095
119,020	165,516	-0,287	-0,285
120,035	40,729	-0,216	-0,136
121,049	292,563	-0,135	-0,172
122,064	-62,250	-0,190	-0,055
123,079	275,220	-0,146	-0,182
124,093	133,284	-0,281	-0,254
125,108	195,275	-0,232	-0,247
126,122	76,134	-0,251	-0,186
127,137	249,781	-0,097	-0,115
128,151	152,277	-0,097	-0,092
129,166	177,850	-0,172	-0,176
130,181	88,561	-0,290	-0,225
131,195	327,289	-0,159	-0,213
132,210	-66,070	-0,263	-0,073
133,224	-40,364	-0,199	-0,072
134,239	11,610	-0,293	-0,157
135,254	-46,842	-0,247	-0,084
136,268	470,972	-0,154	-0,242
137,283	74,498	-0,156	-0,115
138,297	-29,624	-0,310	-0,123
139,312	95,132	-0,253	-0,201
140,327	28,453	-0,384	-0,227
141,341	92,099	-0,280	-0,221
142,356	209,341	-0,201	-0,220
143,370	44,042	-0,182	-0,116
144,385	486,352	-0,136	-0,218
145,400	318,642	-0,284	-0,377
146,414	373,925	-0,226	-0,323
147,429	238,658	-0,176	-0,204
148,443	507,816	-0,147	-0,240
149,458	117,839	-0,217	-0,187
150,473	-24,504	-0,271	-0,112
151,487	-36,466	-0,166	-0,062
152,502	41,736	-0,244	-0,154
153,516	24,696	-0,330	-0,190
154,531	108,983	-0,201	-0,168
155,546	800,000	-0,086	-0,223
156,560	118,537	-0,336	-0,289
157,575	321,165	-0,138	-0,184
158,589	-93,199	-0,213	-0,041
159,604	164,130	-0,209	-0,206
160,619	140,960	-0,297	-0,274
161,633	100,472	-0,137	-0,111
162,648	-70,049	-0,274	-0,072
163,662	265,537	-0,165	-0,201
164,677	33,485	-0,173	-0,105
165,692	68,198	-0,211	-0,150
166,706	-46,635	-0,289	-0,098
167,721	-14,705	-0,257	-0,115
168,735	311,092	-0,237	-0,310
169,750	319,563	-0,066	-0,088
170,764	-81,439	-0,283	-0,065
171,779	204,858	-0,188	-0,204
172,794	581,223	-0,116	-0,200
173,808	69,999	-0,145	-0,104
174,823	-77,119	-0,280	-0,067
175,837	22,519	-0,264	-0,150
176,852	212,325	-0,230	-0,253
177,867	3,759	-0,356	-0,181
178,881	151,997	-0,187	-0,177
179,896	-26,305	-0,199	-0,081
180,910	-76,248	-0,168	-0,041
181,925	506,402	-0,094	-0,152
182,940	639,310	-0,174	-0,310
183,954	209,429	-0,107	-0,117
184,969	65,188	-0,162	-0,114
185,983	22,166	-0,182	-0,103
186,998	-82,786	-0,250	-0,056
188,013	126,574	-0,266	-0,235
189,027	109,046	-0,262	-0,218
190,042	231,536	-0,248	-0,283
191,056	-135,086	-0,253	-0,021
192,071	-125,473	-0,259	0,027
193,086	800,000	-0,074	-0,169
194,100	108,936	-0,282	-0,234
195,115	75,966	-0,241	-0,177
196,129	405,241	-0,189	-0,279
197,144	189,347	-0,167	-0,174
198,159	-27,447	-0,246	-0,099
199,173	188,939	-0,101	-0,106
200,188	-94,442	-0,173	-0,033
201,202	-96,951	-0,104	0,019
202,217	146,657	-0,122	-0,114
203,232	128,677	-0,150	-0,133
204,246	150,024	-0,223	-0,211
205,261	429,937	-0,122	-0,184
206,275	-90,663	-0,229	-0,046
207,290	310,068	-0,137	-0,178
208,304	-200,000	-0,045	-0,159
209,319	3,943	-0,204	-0,104
210,334	280,665	-0,214	-0,267
211,348	23,125	-0,182	-0,104
212,363	49,771	-0,246	-0,161
213,377	249,432	-0,183	-0,216
214,392	-11,118	-0,087	0,040
215,407	248,751	-0,091	-0,107
216,421	74,568	-0,156	-0,114
217,436	-61,397	-0,208	-0,060
218,450	107,102	-0,110	-0,090
219,465	355,686	-0,130	-0,180
220,480	66,609	-0,203	-0,143
221,494	592,389	-0,154	-0,265
222,509	9,930	-0,241	-0,127
223,523	4,774	-0,240	-0,122
224,538	-115,645	-0,135	0,017
225,553	302,821	-0,195	-0,252
226,567	487,081	-0,059	-0,094
227,582	800,000	-0,058	-0,166
228,596	-171,257	-0,106	0,002
229,611	-200,000	-0,003	-0,098
230,626	26,502	-0,240	-0,139
231,640	-128,748	-0,220	-0,021
232,655	-7,854	-0,275	-0,128
233,669	180,353	-0,183	-0,186
234,684	66,915	-0,202	-0,143
235,699	-200,000	-0,064	-0,258
236,713	-135,630	-0,147	-0,012
237,728	-166,230	-0,250	-0,007
238,742	800,000	-0,116	-0,242
239,757	183,152	-0,230	-0,236
240,772	62,406	-0,228	-0,157
241,786	-40,542	-0,122	-0,044
242,801	115,806	-0,225	-0,191
243,815	224,622	-0,181	-0,203
244,830	-119,310	-0,170	-0,020
245,844	-139,154	-0,169	-0,012
246,859	10,085	-0,223	-0,117
247,874	-124,081	-0,193	-0,021
248,888	-200,000	-0,090	-0,281
249,903	-200,000	-0,046	-0,192
250,917	-200,000	-0,032	-0,204
251,932	800,000	-0,092	-0,183
252,947	-139,803	-0,281	0,020
253,961	156,462	-0,154	-0,147
254,976	-200,000	-0,069	-0,299
255,990	75,826	-0,284	-0,208
257,005	321,737	-0,117	-0,155
258,020	-200,000	-0,040	-0,182
259,034	19,624	-0,103	-0,057
260,049	800,000	-0,098	-0,200
261,063	49,373	-0,198	-0,129
262,078	10,468	-0,207	-0,109
263,093	-103,633	-0,166	-0,027
264,107	-40,048	-0,187	-0,067
265,122	56,195	-0,245	-0,164
266,136	-20,729	-0,049	0,021
267,151	-138,824	-0,100	-0,007
268,166	33,673	-0,235	-0,141
269,180	800,000	-0,063	-0,129
270,195	157,376	-0,168	-0,160
271,209	128,815	-0,076	-0,067
272,224	-38,228	-0,174	-0,063
273,239	39,538	-0,143	-0,089
274,253	-118,045	-0,323	0,039
275,268	-107,432	-0,187	-0,028
276,282	-2,121	-0,230	-0,111
277,297	-200,000	-0,053	-0,213
278,312	101,576	-0,194	-0,156
279,326	84,092	-0,158	-0,119
280,341	-15,453	-0,133	0,058
281,355	287,394	-0,118	-0,148
282,370	85,026	-0,231	-0,175
283,384	93,208	-0,183	-0,143
284,399	173,082	-0,210	-0,209
285,414	85,168	-0,169	-0,127
286,428	800,000	-0,064	-0,177
287,443	72,242	-0,120	-0,086
288,457	97,796	-0,195	-0,155
289,472	51,240	-0,210	-0,138
290,487	70,837	-0,174	-0,124
291,501	-200,000	-0,118	-0,380
292,516	42,155	-0,141	-0,088
293,530	54,011	-0,120	-0,080
294,545	-200,000	-0,017	-0,192
295,560	258,615	-0,048	0,057
296,574	-162,417	-0,137	-0,005
297,589	-63,530	-0,099	-0,028
298,603	696,006	-0,084	-0,152
299,618	276,273	-0,143	-0,176
300,633	-124,316	-0,136	-0,014
301,647	-69,447	-0,066	-0,017
302,662	-43,978	-0,107	0,037
303,676	-77,731	-0,078	-0,018
304,691	124,653	-0,244	-0,212
305,706	102,685	-0,234	-0,188
306,720	-156,872	-0,261	-0,011
307,735	-51,574	-0,088	-0,028
308,749	259,136	-0,062	-0,073
309,764	-83,209	-0,159	-0,035
310,779	-113,332	-0,143	-0,019
311,793	-56,242	-0,262	-0,080
312,808	164,918	-0,151	-0,147
313,822	-20,114	-0,258	-0,109
314,837	-29,493	-0,136	-0,053
315,852	450,783	-0,063	-0,096
316,866	-14,594	-0,135	0,060
317,881	113,155	-0,085	-0,071
318,895	39,650	-0,149	-0,092
319,910	181,469	-0,163	-0,166
320,925	579,047	-0,135	-0,229
321,939	488,277	-0,081	-0,127
322,954	800,000	-0,056	-0,129
323,968	-151,203	-0,095	-0,005
324,983	-137,110	-0,165	-0,013
325,997	800,000	-0,117	-0,300
327,012	580,840	-0,063	-0,107
328,027	-33,080	-0,362	-0,137
329,041	193,856	-0,144	-0,150
330,056	125,882	-0,119	0,104
331,070	144,538	-0,069	-0,064
332,085	-200,000	0,031	-0,151
333,100	203,085	-0,136	-0,145
334,114	189,544	-0,086	-0,089
335,129	-96,983	-0,109	-0,019
336,143	82,984	-0,151	-0,113
337,158	800,000	-0,103	-0,198
338,173	89,682	-0,237	-0,182
339,187	-60,862	-0,145	-0,042
340,202	469,476	-0,031	0,047
341,216	-119,491	-0,114	-0,013
342,231	-85,401	-0,198	-0,042
343,246	-56,252	-0,136	-0,041
344,260	800,000	0,094	-0,219
345,275	118,751	-0,032	-0,027
346,289	40,246	-0,216	-0,133
347,304	-200,000	-0,061	-0,189
348,319	-200,000	-0,013	-0,147
349,333	-97,813	-0,186	-0,033
350,348	328,852	-0,102	-0,135
351,362	-67,050	-0,097	0,026
352,377	-33,005	-0,144	-0,054
353,392	-93,337	-0,110	0,021
354,406	284,206	-0,043	0,054
355,421	208,863	1314,916	1413,585
356,435	160,729	1475,649	1414,071
