DTS Sentinel unit serial number:	SN410029Multiplexer serial number:	ORYXHardware model number:	OX2-SRSoftware version number:	ORYX F/W v4,00 Oryx Data Collector v3.7.2.0data status	okinstallation	B3 Nyhavnadifferential loss correction	single-endedforward channel	channel 1reverse channel	N/Adate	2023/12/03time	09:57:30forward acquisition time	300,00reverse acquisition time	0,00gamma	499,1914k internal	0,3201k external	0,3201temperature offset calibration	1,0000default loss term (dB/km)	0,3820temperature slope calibration	1,0000multiplexer offset coefficient	1,0000multiplexer slope coefficient	1,0000fibre end	0,00T internal ref (°C)	13,37T ext. ref 1 (°C)	-1,62T ext. ref 2 (°C)	-1,64length (m)	temperature (°C)	Stokes	anti-Stokes-744,400	499,359	-0,186	-0,313
-743,385	-200,000	0,067	0,333
-742,371	800,000	-0,110	-0,293
-741,356	-200,000	0,033	0,385
-740,342	111,042	-0,184	-0,162
-739,327	309,497	0,187	0,255
-738,312	800,000	-0,147	-0,301
-737,298	-200,000	-0,060	0,213
-736,283	734,356	-0,153	-0,300
-735,269	-200,000	0,011	0,220
-734,254	81,526	-0,278	-0,218
-733,239	98,015	-0,133	0,111
-732,225	0,792	-0,166	-0,086
-731,210	-200,000	0,077	0,264
-730,196	50,932	-0,069	0,048
-729,181	-200,000	-0,025	-0,086
-728,167	-19,566	0,047	-0,021
-727,152	372,138	-0,051	0,075
-726,137	-66,322	-0,062	0,018
-725,123	-200,000	0,013	-0,078
-724,108	-93,766	-0,083	-0,016
-723,094	126,971	-0,075	-0,069
-722,079	-200,000	0,006	0,023
-721,064	708,715	-0,034	-0,066
-720,050	-200,000	-0,003	-0,014
-719,035	800,000	0,045	-0,104
-718,021	289,381	-0,025	0,033
-717,006	170,827	-0,053	-0,055
-715,991	-200,000	0,001	-0,081
-714,977	-47,076	-0,125	-0,044
-713,962	607,324	-0,026	0,047
-712,948	-56,546	0,142	-0,045
-711,933	-49,298	-0,196	0,068
-710,918	84,014	-0,074	-0,059
-709,904	108,585	-0,106	-0,092
-708,889	131,009	-0,073	-0,068
-707,875	-30,518	-0,157	-0,064
-706,860	800,000	0,021	-0,063
-705,845	-105,128	0,023	0,004
-704,831	306,655	-0,060	-0,081
-703,816	-200,000	0,001	0,081
-702,802	-157,730	-0,044	0,002
-701,787	-150,510	-0,064	-0,004
-700,772	-200,000	-0,017	0,093
-699,758	-31,600	-0,027	0,011
-698,743	-192,237	0,151	0,001
-697,729	377,569	0,066	-0,098
-696,714	-200,000	-0,015	0,170
-695,699	800,000	-0,059	-0,142
-694,685	238,404	-0,123	-0,148
-693,670	135,055	0,014	0,014
-692,656	-200,000	0,000	0,040
-691,641	-119,751	0,088	0,011
-690,627	-200,000	0,004	0,042
-689,612	-120,793	0,106	0,013
-688,597	-200,000	-0,006	-0,055
-687,583	-60,762	-0,073	0,022
-686,568	800,000	0,049	-0,125
-685,554	800,000	-0,025	-0,051
-684,539	15,818	0,145	0,082
-683,524	800,000	0,006	-0,016
-682,510	-200,000	0,008	0,042
-681,495	182,154	0,060	-0,064
-680,481	-200,000	-0,007	-0,082
-679,466	166,601	-0,042	-0,044
-678,451	-200,000	-0,018	-0,134
-677,437	-200,000	0,009	-0,070
-676,422	471,268	0,102	0,167
-675,408	-200,000	-0,005	-0,077
-674,393	52,240	-0,064	-0,044
-673,378	800,000	-0,031	-0,067
-672,364	-2,578	-0,100	-0,051
-671,349	-50,572	-0,070	0,024
-670,335	-200,000	-0,012	-0,082
-669,320	41,575	-0,033	-0,022
-668,305	-84,136	0,099	-0,023
-667,291	-200,000	-0,022	-0,174
-666,276	648,037	0,029	0,053
-665,262	-200,000	-0,033	-0,112
-664,247	-77,464	0,143	-0,036
-663,232	666,320	0,019	0,035
-662,218	-200,000	0,019	-0,069
-661,203	800,000	0,052	0,136
-660,189	-49,416	-0,020	-0,007
-659,174	33,606	-0,103	-0,065
-658,159	-56,551	-0,145	-0,046
-657,145	225,682	0,057	-0,068
-656,130	47,601	-0,029	-0,020
-655,116	387,037	0,066	-0,100
-654,101	-101,539	0,171	-0,030
-653,086	-61,221	0,149	-0,045
-652,072	58,914	-0,025	0,018
-651,057	298,305	-0,096	0,128
-650,043	-200,000	0,002	-0,044
-649,028	-6,218	0,050	-0,025
-648,014	800,000	-0,052	0,124
-646,999	232,142	0,004	-0,005
-645,984	110,262	-0,113	-0,099
-644,970	318,378	0,081	-0,111
-643,955	800,000	0,022	0,066
-642,941	7,623	-0,108	-0,059
-641,926	-48,515	0,052	0,018
-640,911	-179,229	-0,108	-0,002
-639,897	286,528	-0,037	0,048
-638,882	214,113	0,135	-0,155
-637,868	800,000	-0,054	-0,134
-636,853	800,000	-0,045	-0,120
-635,838	800,000	-0,069	-0,164
-634,824	52,724	-0,160	-0,111
-633,809	800,000	0,028	-0,067
-632,795	-93,784	-0,055	-0,011
-631,780	-200,000	-0,013	0,053
-630,765	-66,498	0,036	0,010
-629,751	-200,000	-0,029	-0,103
-628,736	-200,000	0,006	-0,132
-627,722	25,355	-0,115	-0,069
-626,707	800,000	0,016	0,036
-625,692	135,208	0,096	-0,091
-624,678	-200,000	0,029	-0,096
-623,663	495,644	-0,081	-0,135
-622,649	-67,869	0,065	0,018
-621,634	134,266	-0,057	0,054
-620,619	-3,161	-0,021	-0,011
-619,605	266,117	0,117	-0,148
-618,590	-196,010	-0,072	0,000
-617,576	-150,662	0,130	0,007
-616,561	-125,388	-0,056	-0,006
-615,546	-200,000	-0,001	0,110
-614,532	43,382	-0,115	-0,076
-613,517	-200,000	-0,012	-0,180
-612,503	-200,000	0,029	-0,130
-611,488	32,009	0,059	-0,037
-610,474	98,966	-0,051	-0,042
-609,459	-200,000	-0,011	0,082
-608,444	-200,000	0,026	0,090
-607,430	330,124	-0,065	-0,091
-606,415	267,259	0,072	-0,092
-605,401	-129,369	-0,080	-0,008
-604,386	-200,000	0,025	0,133
-603,371	800,000	-0,068	0,157
-602,357	567,565	-0,051	-0,090
-601,342	252,085	-0,022	0,027
-600,328	598,816	-0,051	0,091
-599,313	-38,765	-0,054	0,020
-598,298	-165,725	-0,146	0,004
-597,284	-177,306	0,083	0,001
-596,269	532,186	0,028	0,048
-595,255	338,220	-0,074	0,105
-594,240	449,017	-0,107	0,171
-593,225	-81,150	-0,039	-0,009
-592,211	-200,000	-0,016	-0,110
-591,196	-80,990	0,079	0,019
-590,182	-200,000	0,016	0,167
-589,167	127,992	0,084	0,077
-588,152	-200,000	0,007	-0,160
-587,138	-200,000	-0,029	-0,107
-586,123	104,542	-0,113	-0,096
-585,109	-200,000	-0,148	0,000
-584,094	12,087	0,059	0,033
-583,079	-104,629	-0,209	-0,034
-582,065	-59,550	-0,073	-0,023
-581,050	133,639	-0,046	0,043
-580,036	-98,142	-0,095	0,017
-579,021	-5,350	-0,079	-0,039
-578,006	-200,000	-0,004	-0,023
-576,992	132,231	0,035	0,033
-575,977	136,562	0,016	-0,015
-574,963	-200,000	0,032	0,142
-573,948	-194,678	0,092	-0,001
-572,934	84,995	0,020	-0,016
-571,919	340,603	-0,075	-0,106
-570,904	-200,000	-0,031	-0,220
-569,890	-123,689	-0,148	0,017
-568,875	-55,791	0,094	0,030
-567,861	-12,690	-0,087	-0,041
-566,846	-200,000	0,002	-0,075
-565,831	-200,000	-0,010	-0,071
-564,817	-49,310	0,103	0,035
-563,802	-58,747	-0,112	0,035
-562,788	-115,331	0,133	-0,018
-561,773	-200,000	0,005	-0,021
-560,758	-200,000	-0,024	-0,147
-559,744	-200,000	-0,001	-0,110
-558,729	-117,433	-0,115	-0,015
-557,715	800,000	0,020	-0,049
-556,700	175,314	0,104	0,109
-555,685	-65,519	-0,106	-0,031
-554,671	-79,409	0,118	0,029
-553,656	569,220	0,024	-0,042
-552,642	73,504	0,083	0,062
-551,627	33,452	-0,036	-0,023
-550,612	-200,000	0,023	-0,088
-549,598	-200,000	-0,021	0,204
-548,583	-10,170	0,095	-0,046
-547,569	286,483	0,024	0,032
-546,554	800,000	0,016	0,034
-545,539	-48,402	0,041	-0,014
-544,525	-145,873	0,050	0,003
-543,510	-200,000	-0,004	0,017
-542,496	-123,308	-0,194	0,022
-541,481	222,372	0,080	-0,093
-540,466	800,000	0,066	-0,159
-539,452	-200,000	-0,005	0,038
-538,437	-200,000	-0,037	0,181
-537,423	48,452	0,083	0,056
-536,408	-42,946	-0,157	-0,057
-535,393	-1,282	-0,064	-0,032
-534,379	-200,000	-0,026	-0,117
-533,364	-200,000	-0,005	-0,104
-532,350	-105,631	-0,102	0,016
-531,335	-200,000	-0,030	-0,152
-530,321	-56,906	0,171	0,054
-529,306	-101,147	-0,104	-0,018
-528,291	-200,000	-0,052	0,189
-527,277	107,545	0,083	-0,071
-526,262	-128,814	-0,047	0,005
-525,248	800,000	-0,059	-0,179
-524,233	94,045	0,095	-0,078
-523,218	332,609	0,057	-0,079
-522,204	800,000	-0,011	0,025
-521,189	282,119	0,070	-0,090
-520,175	-200,000	0,036	-0,232
-519,160	194,459	-0,045	-0,049
-518,145	-200,000	0,004	-0,133
-517,131	89,292	-0,043	-0,035
-516,116	-200,000	-0,018	0,078
-515,102	165,093	0,039	-0,040
-514,087	-52,971	0,037	0,012
-513,072	24,869	-0,109	0,065
-512,058	-36,358	-0,099	-0,038
-511,043	281,038	-0,005	-0,006
-510,029	-142,726	0,097	0,007
-509,014	-11,535	-0,092	0,043
-507,999	-14,466	0,112	0,052
-506,985	139,278	-0,114	-0,108
-505,970	800,000	-0,042	0,116
-504,956	-200,000	-0,002	-0,120
-503,941	22,013	-0,083	-0,049
-502,926	-68,022	-0,042	0,012
-501,912	800,000	0,021	-0,048
-500,897	68,092	-0,069	0,051
-499,883	177,576	0,059	-0,062
-498,868	-200,000	0,001	-0,143
-497,853	-200,000	-0,027	-0,121
-496,839	460,699	0,026	0,042
-495,824	-114,187	0,039	0,005
-494,810	800,000	-0,040	0,102
-493,795	-73,906	-0,116	-0,030
-492,781	800,000	0,030	-0,061
-491,766	-200,000	-0,028	-0,088
-490,751	-200,000	0,002	0,030
-489,737	-21,039	-0,047	0,021
-488,722	-13,353	-0,126	-0,059
-487,708	800,000	0,052	0,160
-486,693	205,017	-0,056	-0,062
-485,678	-200,000	-0,011	0,103
-484,664	79,675	-0,082	0,063
-483,649	-86,578	-0,118	-0,026
-482,635	138,616	-0,045	0,043
-481,620	-60,102	-0,085	-0,026
-480,605	62,766	0,112	0,081
-479,591	114,003	-0,108	0,095
-478,576	-200,000	0,021	0,135
-477,562	-200,000	0,004	0,124
-476,547	-200,000	-0,011	0,109
-475,532	-97,899	-0,148	0,027
-474,518	190,006	0,008	-0,008
-473,503	800,000	-0,021	0,050
-472,489	800,000	-0,035	0,075
-471,474	232,144	-0,059	0,069
-470,459	39,705	-0,127	0,082
-469,445	-139,895	-0,118	-0,009
-468,430	44,382	-0,117	-0,077
-467,416	176,037	-0,008	0,008
-466,401	60,764	0,174	0,124
-465,386	-1,355	0,113	0,057
-464,372	-66,233	-0,114	-0,032
-463,357	4,412	0,047	-0,024
-462,343	157,701	0,077	-0,077
-461,328	-94,665	-0,066	-0,013
-460,313	88,051	0,111	0,088
-459,299	-106,150	-0,054	0,009
-458,284	800,000	0,009	0,022
-457,270	27,899	0,058	0,035
-456,255	532,010	0,009	0,016
-455,241	-200,000	0,011	-0,043
-454,226	-200,000	-0,015	-0,071
-453,211	-200,000	-0,020	-0,079
-452,197	-200,000	0,008	0,106
-451,182	-200,000	-0,031	-0,131
-450,168	-200,000	0,026	0,136
-449,153	523,080	0,042	0,072
-448,138	79,096	0,067	-0,052
-447,124	-200,000	0,002	0,116
-446,109	-29,413	0,126	-0,052
-445,095	-200,000	0,032	-0,212
-444,080	-200,000	0,024	0,151
-443,065	-43,505	0,009	0,003
-442,051	-127,384	-0,107	0,011
-441,036	414,427	-0,033	0,051
-440,022	200,492	0,091	0,101
-439,007	-200,000	0,039	0,127
-437,992	310,016	0,041	-0,055
-436,978	-62,426	0,101	-0,030
-435,963	236,945	-0,064	0,076
-434,949	62,453	0,026	-0,019
-433,934	-78,882	-0,139	-0,034
-432,919	212,436	-0,048	-0,054
-431,905	448,120	0,131	0,207
-430,890	245,383	0,046	-0,056
-429,876	-200,000	-0,013	0,174
-428,861	800,000	0,071	0,176
-427,846	-200,000	0,002	0,080
-426,832	730,742	-0,039	0,075
-425,817	800,000	-0,023	-0,059
-424,803	35,517	-0,171	-0,108
-423,788	-49,091	0,061	-0,021
-422,773	-200,000	0,000	0,015
-421,759	-54,686	0,047	-0,015
-420,744	-200,000	-0,025	0,097
-419,730	-132,504	-0,098	-0,009
-418,715	67,778	-0,016	-0,011
-417,701	-200,000	0,012	-0,060
-416,686	183,805	0,040	0,042
-415,671	-123,214	0,056	-0,006
-414,657	478,630	0,086	0,140
-413,642	-200,000	0,017	-0,092
-412,628	-106,214	-0,126	-0,020
-411,613	800,000	-0,051	-0,135
-410,598	9,982	0,134	-0,073
-409,584	-25,707	0,122	-0,051
-408,569	-200,000	0,000	0,085
-407,555	77,844	0,141	0,108
-406,540	175,263	0,046	0,048
-405,525	467,178	0,112	0,181
-404,511	-33,976	0,043	-0,017
-403,496	-15,321	-0,052	0,024
-402,482	649,842	0,056	-0,103
-401,467	34,175	-0,146	0,091
-400,452	-200,000	-0,053	0,208
-399,438	800,000	0,028	-0,082
-398,423	6,272	-0,049	0,026
-397,409	800,000	-0,035	0,081
-396,394	800,000	0,029	-0,076
-395,379	114,419	-0,070	-0,061
-394,365	120,433	0,060	-0,053
-393,350	349,652	0,107	0,151
-392,336	554,601	-0,047	0,081
-391,321	-98,939	-0,075	-0,013
-390,306	-200,000	0,014	-0,097
-389,292	800,000	0,052	-0,162
-388,277	-77,736	0,060	-0,015
-387,263	-54,422	0,088	-0,028
-386,248	162,540	-0,040	-0,041
-385,233	-5,492	0,025	-0,012
-384,219	-48,459	0,084	0,029
-383,204	-19,646	-0,027	0,012
-382,190	186,327	0,110	0,117
-381,175	652,214	-0,040	-0,075
-380,160	-22,885	0,045	-0,019
-379,146	529,551	-0,025	0,043
-378,131	-200,000	-0,022	0,083
-377,117	800,000	0,075	0,186
-376,102	-200,000	0,011	-0,058
-375,088	-200,000	0,004	-0,110
-374,073	40,118	-0,054	-0,035
-373,058	-200,000	-0,017	0,087
-372,044	127,556	0,098	0,090
-371,029	800,000	0,022	0,046
-370,015	721,098	-0,062	0,119
-369,000	128,538	0,077	0,070
-367,985	800,000	0,050	0,155
-366,971	156,421	0,027	0,026
-365,956	329,230	-0,091	-0,126
-364,942	100,218	0,083	-0,069
-363,927	-200,000	0,004	-0,050
-362,912	-200,000	-0,006	0,075
-361,898	-3,258	-0,073	0,037
-360,883	-200,000	-0,026	0,085
-359,869	277,976	-0,101	-0,129
-358,854	-73,857	0,099	-0,026
-357,839	-108,345	0,096	-0,015
-356,825	-91,315	0,040	0,008
-355,810	-33,706	-0,058	-0,023
-354,796	-97,562	0,012	-0,002
-353,781	283,440	-0,023	-0,029
-352,766	94,821	0,089	-0,072
-351,752	62,767	-0,014	-0,010
-350,737	-139,915	0,089	0,007
-349,723	-21,986	0,094	0,041
-348,708	-200,000	-0,017	-0,111
-347,693	-200,000	-0,024	-0,087
-346,679	-99,146	-0,079	-0,014
-345,664	275,328	-0,081	-0,103
-344,650	398,250	0,051	-0,076
-343,635	-140,680	0,017	-0,001
-342,620	800,000	0,080	0,169
-341,606	-67,086	0,070	0,020
-340,591	143,786	0,035	0,033
-339,577	71,611	-0,048	-0,036
-338,562	567,097	-0,062	0,109
-337,548	35,359	-0,090	0,056
-336,533	548,162	-0,066	-0,114
-335,518	336,811	0,072	0,101
-334,504	-47,803	-0,121	-0,042
-333,489	468,263	-0,044	-0,071
-332,475	800,000	-0,063	-0,152
-331,460	800,000	-0,058	0,153
-330,445	-200,000	0,016	0,062
-329,431	540,062	0,048	0,081
-328,416	10,388	0,183	0,100
-327,402	-200,000	0,027	-0,099
-326,387	-58,628	-0,114	-0,035
-325,372	213,955	0,057	0,065
-324,358	800,000	-0,047	-0,111
-323,343	35,230	0,091	-0,057
-322,329	-200,000	0,022	-0,070
-321,314	-200,000	0,030	0,210
-320,299	800,000	0,013	0,030
-319,285	-7,927	-0,057	0,027
-318,270	-200,000	-0,006	0,078
-317,256	-3,742	0,130	-0,064
-316,241	-61,751	0,112	0,033
-315,226	-200,000	0,033	0,115
-314,212	-26,889	0,136	0,056
-313,197	358,148	-0,053	0,075
-312,183	800,000	0,017	0,049
-311,168	48,590	-0,017	0,011
-310,153	51,354	0,093	0,063
-309,139	-148,111	-0,066	-0,004
-308,124	-200,000	-0,006	-0,086
-307,110	800,000	-0,014	0,039
-306,095	64,879	0,079	-0,057
-305,080	69,339	0,034	0,025
-304,066	-96,512	0,102	-0,019
-303,051	114,393	0,039	-0,034
-302,037	87,405	0,104	-0,082
-301,022	-54,058	0,087	-0,028
-300,008	116,562	0,154	-0,135
-298,993	294,439	-0,073	0,095
-297,978	-200,000	0,032	-0,122
-296,964	-0,964	-0,015	-0,008
-295,949	-53,858	-0,058	0,019
-294,935	591,436	-0,042	-0,075
-293,920	-89,517	0,049	-0,010
-292,905	-90,701	0,115	-0,024
-291,891	-165,428	0,195	0,006
-290,876	148,170	0,054	0,052
-289,862	113,152	0,032	0,028
-288,847	42,858	-0,031	-0,020
-287,832	-60,613	-0,110	-0,033
-286,818	543,479	-0,021	0,036
-285,803	-200,000	0,001	0,092
-284,789	-172,693	0,037	-0,001
-283,774	800,000	0,043	0,132
-282,759	143,030	-0,007	-0,007
-281,745	192,567	-0,020	-0,021
-280,730	161,937	-0,034	0,034
-279,716	-200,000	-0,017	0,137
-278,701	800,000	0,008	0,024
-277,686	800,000	0,033	0,072
-276,672	11,590	0,052	-0,028
-275,657	200,090	-0,048	-0,053
-274,643	790,606	0,090	-0,177
-273,628	495,072	-0,028	-0,046
-272,613	-200,000	0,023	0,200
-271,599	364,879	0,054	0,078
-270,584	44,099	0,145	-0,095
-269,570	-155,939	0,082	-0,004
-268,555	197,699	0,022	-0,024
-267,540	-200,000	0,005	-0,125
-266,526	800,000	0,019	-0,058
-265,511	31,277	-0,137	-0,084
-264,497	49,442	0,103	0,069
-263,482	152,004	-0,114	-0,111
-262,467	-151,387	0,094	-0,005
-261,453	-103,481	-0,092	0,015
-260,438	-200,000	-0,001	-0,019
-259,424	-48,603	-0,160	0,055
-258,409	-33,964	-0,085	0,033
-257,395	-200,000	-0,011	0,131
-256,380	-200,000	-0,009	0,038
-255,365	23,130	-0,057	-0,033
-254,351	-52,408	0,157	-0,052
-253,336	-24,393	-0,210	-0,089
-252,322	322,978	-0,036	-0,048
-251,307	-76,612	0,113	0,028
-250,292	12,507	0,048	-0,026
-249,278	-200,000	0,003	-0,012
-248,263	47,168	-0,027	0,018
-247,249	-92,366	-0,041	-0,008
-246,234	379,280	-0,023	-0,034
-245,219	252,459	-0,047	-0,057
-244,205	185,565	0,021	-0,022
-243,190	-200,000	0,029	0,157
-242,176	110,019	-0,086	-0,074
-241,161	238,557	0,037	-0,044
-240,146	-200,000	-0,029	0,123
-239,132	-42,816	0,071	0,025
-238,117	-200,000	0,012	-0,058
-237,103	800,000	-0,034	-0,094
-236,088	-136,052	0,163	0,013
-235,073	-104,759	0,171	-0,028
-234,059	117,557	-0,067	0,058
-233,044	163,530	-0,098	0,098
-232,030	-78,880	0,071	-0,017
-231,015	-32,326	-0,092	-0,036
-230,000	49,907	-0,117	-0,079
-228,986	-200,000	-0,022	-0,103
-227,971	292,829	0,085	0,111
-226,957	-200,000	0,024	0,212
-225,942	-200,000	0,001	0,067
-224,927	151,734	0,035	-0,034
-223,913	-200,000	-0,028	-0,098
-222,898	-117,668	-0,045	0,006
-221,884	164,535	-0,106	-0,107
-220,869	-134,063	0,033	0,003
-219,855	97,839	-0,063	-0,052
-218,840	800,000	-0,038	-0,117
-217,825	-200,000	-0,006	0,025
-216,811	-200,000	-0,025	0,092
-215,796	-200,000	0,057	-0,242
-214,782	-200,000	0,009	0,077
-213,767	-200,000	0,033	-0,183
-212,752	800,000	-0,036	0,103
-211,738	-200,000	0,020	0,075
-210,723	-21,147	0,124	-0,054
-209,709	605,750	-0,034	-0,060
-208,694	386,801	-0,052	-0,077
-207,679	-98,668	-0,176	-0,032
-206,665	800,000	0,056	0,125
-205,650	-200,000	0,007	-0,069
-204,636	499,845	0,063	0,104
-203,621	633,808	0,022	0,039
-202,606	-57,972	0,068	-0,021
-201,592	800,000	-0,023	-0,050
-200,577	-36,857	-0,111	0,042
-199,563	229,520	0,066	-0,077
-198,548	85,798	0,191	0,149
-197,533	-200,000	0,018	0,066
-196,519	800,000	-0,010	0,021
-195,504	-146,260	-0,063	-0,004
-194,490	164,828	-0,023	0,023
-193,475	-200,000	-0,009	0,084
-192,460	130,929	-0,026	-0,023
-191,446	-75,176	0,060	-0,015
-190,431	800,000	0,032	0,094
-189,417	-57,642	-0,123	0,038
-188,402	171,555	0,076	-0,077
-187,387	-16,969	0,066	0,030
-186,373	-200,000	-0,013	0,060
-185,358	306,266	0,029	0,038
-184,344	-86,168	0,127	0,028
-183,329	-200,000	-0,012	0,064
-182,315	8,181	0,201	0,107
-181,300	9,767	0,134	-0,072
-180,285	216,179	-0,031	-0,035
-179,271	157,421	-0,047	-0,046
-178,256	4,525	0,129	-0,067
-177,242	368,077	-0,023	0,033
-176,227	131,608	-0,097	-0,089
-175,212	-200,000	-0,014	-0,050
-174,198	8,743	-0,139	0,074
-173,183	800,000	-0,017	0,034
-172,169	800,000	0,016	-0,041
-171,154	-200,000	-0,038	0,137
-170,139	41,013	-0,073	0,047
-169,125	-200,000	0,002	0,021
-168,110	211,888	0,033	0,037
-167,096	-9,549	0,074	-0,035
-166,081	57,289	-0,050	-0,035
-165,066	-14,375	0,022	0,010
-164,052	-165,414	-0,098	-0,003
-163,037	800,000	0,031	-0,079
-162,023	-81,009	0,051	-0,012
-161,008	-43,835	-0,023	0,008
-159,993	800,000	0,037	0,083
-158,979	-200,000	0,051	0,180
-157,964	2,560	0,095	-0,049
-156,950	800,000	-0,098	0,202
-155,935	-200,000	0,043	0,180
-154,920	-200,000	-0,005	0,020
-153,906	340,843	-0,025	0,035
-152,891	-200,000	0,009	-0,113
-151,877	-75,269	-0,169	0,043
-150,862	270,267	0,049	0,061
-149,847	-120,080	-0,200	-0,024
-148,833	325,000	-0,032	0,043
-147,818	-95,780	0,080	-0,015
-146,804	97,635	-0,065	0,053
-145,789	127,435	-0,063	0,057
-144,775	134,339	0,042	0,039
-143,760	49,821	0,043	-0,029
-142,745	67,335	0,018	-0,013
-141,731	800,000	0,058	0,147
-140,716	43,260	-0,080	0,052
-139,702	247,078	0,092	0,111
-138,687	800,000	-0,046	-0,109
-137,672	-200,000	-0,018	0,081
-136,658	28,268	-0,030	-0,018
-135,643	166,550	0,050	0,050
-134,629	-35,921	0,134	-0,051
-133,614	-200,000	0,028	0,097
-132,599	800,000	0,049	0,145
-131,585	710,320	0,079	0,149
-130,570	-108,727	-0,097	-0,015
-129,556	-49,001	-0,074	0,025
-128,541	-96,883	-0,181	-0,033
-127,526	-70,349	0,018	-0,005
-126,512	-200,000	0,004	0,096
-125,497	-118,073	0,174	-0,022
-124,483	-200,000	-0,003	-0,026
-123,468	-200,000	-0,020	-0,088
-122,453	177,750	-0,104	-0,108
-121,439	314,091	0,016	-0,022
-120,424	356,710	-0,073	-0,103
-119,410	-200,000	-0,002	0,052
-118,395	492,967	0,091	0,149
-117,380	40,382	0,085	0,054
-116,366	135,944	-0,123	-0,113
-115,351	-200,000	-0,006	0,044
-114,337	-42,127	-0,217	0,078
-113,322	800,000	-0,073	-0,208
-112,307	202,841	0,049	0,054
-111,293	99,766	0,141	0,115
-110,278	345,261	-0,110	0,153
-109,264	-27,761	0,132	-0,054
-108,249	331,340	0,039	-0,053
-107,234	292,900	0,062	-0,081
-106,220	321,117	-0,052	0,070
-105,205	800,000	-0,012	0,029
-104,191	47,715	0,048	0,032
-103,176	-200,000	-0,016	0,074
-102,162	-200,000	-0,007	-0,108
-101,147	256,882	-0,075	-0,091
-100,132	-119,720	-0,031	-0,004
-99,118	-62,234	0,088	-0,026
-98,103	267,651	-0,075	-0,093
-97,089	56,244	0,150	0,103
-96,074	268,428	0,104	0,129
-95,059	-35,988	0,108	-0,041
-94,045	13,344	0,046	0,025
-93,030	-10,318	-0,142	-0,067
-92,016	535,614	0,103	-0,175
-91,001	-200,000	-0,005	0,068
-89,986	-200,000	0,010	0,050
-88,972	-200,000	0,005	-0,089
-87,957	138,975	0,057	0,053
-86,943	-51,035	-0,099	0,033
-85,928	-200,000	-0,006	0,114
-84,913	800,000	0,027	-0,077
-83,899	-74,928	-0,115	-0,029
-82,884	-48,036	-0,111	0,038
-81,870	11,352	0,064	0,035
-80,855	440,468	0,029	-0,044
-79,840	-21,777	-0,141	-0,061
-78,826	800,000	-0,017	-0,037
-77,811	429,151	0,109	-0,167
-76,797	-155,669	-0,069	-0,003
-75,782	-200,000	-0,000	-0,016
-74,767	800,000	0,050	-0,099
-73,753	-85,013	-0,119	0,026
-72,738	-1,239	-0,024	0,012
-71,724	800,000	-0,022	-0,052
-70,709	-200,000	-0,007	-0,039
-69,694	429,945	-0,088	-0,135
-68,680	-105,493	0,048	-0,008
-67,665	264,289	-0,041	0,051
-66,651	-200,000	0,007	-0,043
-65,636	693,143	0,058	0,109
-64,622	-200,000	-0,000	-0,100
-63,607	-200,000	0,017	-0,158
-62,592	128,181	-0,027	-0,024
-61,578	-151,112	0,080	-0,004
-60,563	106,439	-0,064	0,053
-59,549	-200,000	0,050	0,208
-58,534	-28,447	-1,704	-0,693
-57,519	331,513	-1,483	-2,031
-56,505	-200,000	-0,569	-4,383
-55,490	196,273	1,234	1,332
-54,476	800,000	4,751	11,091
-53,461	-200,000	19,147	319,873
-52,446	-200,000	740,171	2335,153
-51,432	574,748	1655,158	2871,054
-50,417	78,421	1671,430	1262,728
-49,403	21,341	1544,127	885,859
-48,388	15,283	1466,340	811,776
-47,373	17,967	1457,034	819,565
-46,359	16,703	1446,690	807,653
-45,344	13,479	1442,212	789,677
-44,330	13,408	1440,146	788,172
-43,315	13,439	1438,139	787,194
-42,300	13,422	1436,578	786,224
-41,286	13,430	1435,487	785,636
-40,271	13,371	1434,267	784,658
-39,257	13,345	1432,847	783,723
-38,242	13,432	1431,571	783,409
-37,227	13,430	1430,421	782,740
-36,213	13,464	1428,959	782,067
-35,198	13,485	1427,675	781,435
-34,184	13,497	1426,823	780,996
-33,169	13,424	1425,596	779,946
-32,154	13,460	1424,395	779,428
-31,140	13,476	1423,359	778,906
-30,125	13,501	1422,083	778,296
-29,111	13,456	1421,098	777,514
-28,096	13,462	1419,799	776,798
-27,082	13,422	1418,772	776,017
-26,067	13,393	1417,435	775,121
-25,052	13,420	1416,491	774,700
-24,038	13,367	1415,777	774,031
-23,023	13,364	1414,580	773,329
-22,009	13,348	1413,680	772,734
-20,994	13,329	1412,815	772,139
-19,979	13,362	1411,750	771,680
-18,965	13,376	1410,847	771,225
-17,950	13,345	1409,902	770,530
-16,936	13,331	1409,106	769,998
-15,921	13,371	1407,897	769,497
-14,906	13,286	1407,216	768,692
-13,892	13,318	1406,011	768,157
-12,877	13,322	1405,142	767,668
-11,863	13,306	1404,158	767,025
-10,848	13,291	1403,337	766,475
-9,833	13,284	1402,369	765,887
-8,819	13,247	1401,569	765,243
-7,804	13,201	1400,863	764,616
-6,790	13,215	1399,666	763,998
-5,775	13,251	1398,558	763,528
-4,760	13,203	1397,939	762,937
-3,746	13,221	1396,799	762,368
-2,731	13,196	1396,090	761,836
-1,717	13,164	1395,149	761,144
-0,702	13,191	1393,336	760,248
0,313	17,028	1310,291	732,715
1,327	33,223	704,105	431,180
2,342	51,214	123,375	82,691
3,356	1,602	16,688	8,470
4,371	2,159	3,229	1,645
5,386	50,035	0,558	0,371
6,400	122,989	0,094	0,084
7,415	-65,060	-0,267	-0,076
8,429	116,168	-0,319	-0,276
9,444	61,070	-0,280	-0,196
10,459	102,762	-0,298	-0,247
11,473	135,269	-0,285	-0,262
12,488	-26,042	-0,244	-0,101
13,502	-37,158	-0,362	-0,136
14,517	48,483	-0,282	-0,186
15,531	45,800	-0,427	-0,278
16,546	-5,564	-0,390	-0,189
17,561	5,941	-0,350	-0,183
18,575	702,584	-0,117	-0,218
19,590	325,744	-0,218	-0,296
20,604	19,163	-0,274	-0,155
21,619	61,623	-0,370	-0,260
22,634	52,221	-0,479	-0,322
23,648	71,011	-0,428	-0,313
24,663	87,151	-0,453	-0,353
25,677	309,358	-0,299	-0,396
26,692	136,766	-0,290	-0,267
27,707	181,972	-0,317	-0,330
28,721	190,694	-0,371	-0,394
29,736	249,295	-0,305	-0,366
30,750	78,182	-0,455	-0,342
31,765	215,828	-0,353	-0,397
32,780	43,081	-0,375	-0,241
33,794	129,434	-0,315	-0,284
34,809	73,995	-0,397	-0,294
35,823	125,355	-0,312	-0,277
36,838	52,573	-0,426	-0,286
37,853	206,105	-0,388	-0,426
38,867	74,570	-0,306	-0,227
39,882	65,757	-0,363	-0,259
40,896	11,435	-0,323	-0,174
41,911	256,328	-0,230	-0,279
42,926	394,880	-0,204	-0,300
43,940	98,334	-0,305	-0,248
44,955	201,894	-0,390	-0,425
45,969	104,618	-0,325	-0,270
46,984	41,958	-0,453	-0,289
47,999	201,062	-0,296	-0,321
49,013	153,801	-0,286	-0,277
50,028	18,177	-0,230	-0,129
51,042	73,847	-0,434	-0,320
52,057	8,984	-0,425	-0,225
53,071	37,228	-0,269	-0,167
54,086	204,874	-0,274	-0,300
55,101	60,424	-0,260	-0,181
56,115	147,339	-0,341	-0,323
57,130	-34,263	-0,435	-0,167
58,144	46,661	-0,388	-0,253
59,159	28,673	-0,447	-0,266
60,174	-6,825	-0,465	-0,222
61,188	12,686	-0,512	-0,277
62,203	80,531	-0,268	-0,203
63,217	-14,825	-0,354	-0,159
64,232	-23,978	-0,454	-0,190
65,247	81,340	-0,312	-0,237
66,261	13,431	-0,280	-0,153
67,276	103,407	-0,397	-0,327
68,290	180,534	-0,276	-0,285
69,305	68,366	-0,299	-0,215
70,320	32,994	-0,198	-0,120
71,334	110,900	-0,340	-0,288
72,349	-6,007	-0,287	-0,138
73,363	107,411	-0,268	-0,224
74,378	120,442	-0,244	-0,213
75,393	-22,377	-0,304	-0,129
76,407	495,936	-0,195	-0,316
77,422	-48,702	-0,322	-0,108
78,436	53,002	-0,264	-0,177
79,451	-25,377	-0,400	-0,165
80,466	36,383	-0,432	-0,267
81,480	43,187	-0,325	-0,208
82,495	-16,357	-0,389	-0,173
83,509	79,329	-0,300	-0,226
84,524	102,959	-0,334	-0,275
85,539	157,029	-0,247	-0,240
86,553	121,954	-0,324	-0,284
87,568	-9,231	-0,357	-0,167
88,582	-13,414	-0,291	-0,132
89,597	548,173	-0,157	-0,265
90,611	229,860	-0,241	-0,277
91,626	83,905	-0,137	-0,105
92,641	30,805	-0,274	-0,164
93,655	97,294	-0,291	-0,234
94,670	202,129	-0,310	-0,336
95,684	42,920	-0,366	-0,234
96,699	43,891	-0,222	-0,142
97,714	151,958	-0,250	-0,239
98,728	-184,426	-0,267	-0,003
99,743	60,288	-0,210	-0,146
100,757	35,211	-0,391	-0,240
101,772	68,557	-0,246	-0,177
102,787	98,009	-0,259	-0,209
103,801	103,625	-0,334	-0,275
104,816	52,865	-0,375	-0,251
105,830	37,648	-0,138	-0,086
106,845	104,792	-0,256	-0,211
107,860	277,075	-0,147	-0,183
108,874	150,295	-0,375	-0,357
109,889	72,616	-0,193	-0,141
110,903	18,026	-0,309	-0,172
111,918	114,087	-0,222	-0,189
112,933	-76,024	-0,370	-0,091
113,947	120,945	-0,178	-0,155
114,962	154,205	-0,243	-0,233
115,976	260,781	-0,236	-0,286
116,991	-58,460	-0,350	-0,106
118,006	74,575	-0,237	-0,174
119,020	54,492	-0,317	-0,213
120,035	468,602	-0,142	-0,223
121,049	236,003	-0,248	-0,288
122,064	53,846	-0,218	-0,146
123,079	110,765	-0,311	-0,261
124,093	81,465	-0,205	-0,155
125,108	195,446	-0,228	-0,243
126,122	179,139	-0,327	-0,335
127,137	4,994	-0,221	-0,113
128,151	317,184	-0,214	-0,283
129,166	259,878	-0,078	-0,094
130,181	40,341	-0,140	-0,088
131,195	345,100	-0,161	-0,222
132,210	-34,561	-0,286	-0,109
133,224	-27,547	-0,415	-0,168
134,239	44,359	-0,266	-0,170
135,254	-42,651	-0,281	-0,100
136,268	195,326	-0,237	-0,252
137,283	-30,897	-0,160	-0,063
138,297	-26,748	-0,283	-0,115
139,312	105,402	-0,246	-0,203
140,327	33,924	-0,256	-0,155
141,341	-96,193	-0,264	-0,049
142,356	4,698	-0,302	-0,155
143,370	-62,985	-0,159	-0,046
144,385	800,000	-0,091	-0,197
145,400	777,393	-0,124	-0,237
146,414	6,918	-0,364	-0,189
147,429	92,358	-0,256	-0,201
148,443	-43,078	-0,285	-0,100
149,458	-0,466	-0,281	-0,139
150,473	498,352	-0,168	-0,270
151,487	257,652	-0,259	-0,311
152,502	800,000	-0,151	-0,321
153,516	405,295	-0,292	-0,432
154,531	88,328	-0,254	-0,197
155,546	-200,000	-0,069	-0,328
156,560	122,606	-0,208	-0,182
157,575	800,000	-0,118	-0,270
158,589	32,826	-0,235	-0,142
159,604	64,019	-0,163	-0,114
160,619	96,408	-0,335	-0,267
161,633	90,738	-0,264	-0,206
162,648	205,143	-0,300	-0,325
163,662	-42,808	-0,235	-0,083
164,677	388,174	-0,159	-0,230
165,692	-60,092	-0,268	-0,079
166,706	96,077	-0,259	-0,206
167,721	78,325	-0,413	-0,308
168,735	710,675	-0,099	-0,183
169,750	196,812	-0,221	-0,235
170,764	223,980	-0,262	-0,296
171,779	-42,351	-0,258	-0,091
172,794	160,858	-0,293	-0,285
173,808	-68,455	-0,332	-0,089
174,823	17,266	-0,294	-0,162
175,837	-47,793	-0,292	-0,098
176,852	800,000	-0,119	-0,311
177,867	260,435	-0,144	-0,174
178,881	-137,827	-0,230	-0,018
179,896	800,000	-0,131	-0,310
180,910	184,924	-0,270	-0,279
181,925	50,284	-0,265	-0,174
182,940	81,665	-0,265	-0,200
183,954	18,377	-0,175	-0,097
184,969	148,016	-0,130	-0,122
185,983	-9,624	-0,215	-0,100
186,998	114,370	-0,213	-0,180
188,013	36,378	-0,171	-0,105
189,027	374,901	-0,142	-0,202
190,042	111,143	-0,207	-0,173
191,056	91,395	-0,301	-0,235
192,071	-6,477	-0,289	-0,136
193,086	147,447	-0,157	-0,147
194,100	-16,135	-0,177	-0,078
195,115	223,623	-0,177	-0,199
196,129	-51,298	-0,179	-0,058
197,144	-41,876	-0,170	-0,060
198,159	267,514	-0,181	-0,221
199,173	97,144	-0,153	-0,122
200,188	-29,474	-0,136	-0,054
201,202	-146,865	-0,186	-0,011
202,217	-2,748	-0,201	-0,098
203,232	9,969	-0,213	-0,112
204,246	310,215	-0,163	-0,213
205,261	82,592	-0,179	-0,135
206,275	-200,000	-0,057	-0,270
207,290	-32,878	-0,246	-0,094
208,304	36,439	-0,133	-0,081
209,319	235,972	-0,161	-0,186
210,334	116,164	-0,121	-0,103
211,348	-12,754	-0,226	-0,102
212,363	350,263	-0,236	-0,325
213,377	800,000	-0,061	-0,142
214,392	-31,302	-0,110	0,043
215,407	18,844	-0,262	-0,145
216,421	341,300	-0,092	-0,126
217,436	-200,000	-0,069	-0,229
218,450	130,311	-0,139	-0,124
219,465	23,202	-0,213	-0,121
220,480	-154,225	-0,288	-0,013
221,494	-200,000	-0,009	-0,052
222,509	-119,039	-0,234	-0,028
223,523	800,000	-0,066	-0,164
224,538	-200,000	-0,011	-0,143
225,553	310,793	-0,091	-0,119
226,567	348,838	-0,095	-0,131
227,582	118,095	-0,241	-0,206
228,596	176,673	-0,164	-0,165
229,611	412,821	-0,182	-0,269
230,626	-43,656	-0,177	-0,062
231,640	161,093	-0,108	-0,105
232,655	581,803	-0,105	-0,180
233,669	-140,774	-0,223	-0,016
234,684	26,790	-0,234	-0,136
235,699	90,725	-0,232	-0,180
236,713	-51,142	-0,160	-0,052
237,728	800,000	-0,057	-0,129
238,742	220,560	-0,089	-0,100
239,757	156,592	-0,184	-0,176
240,772	49,454	-0,217	-0,141
241,786	800,000	-0,094	-0,245
242,801	-200,000	-0,041	-0,156
243,815	-56,524	-0,249	-0,076
244,830	-59,822	-0,123	-0,036
245,844	57,650	-0,162	-0,110
246,859	97,532	-0,194	-0,154
247,874	10,942	-0,321	-0,169
248,888	222,262	-0,147	-0,165
249,903	-5,706	-0,172	-0,082
250,917	133,213	-0,144	-0,129
251,932	208,718	-0,160	-0,174
252,947	30,683	-0,079	-0,047
253,961	184,404	-0,192	-0,197
254,976	21,799	-0,202	-0,114
255,990	297,466	-0,159	-0,202
257,005	54,963	-0,156	-0,104
258,020	800,000	-0,047	-0,134
259,034	124,985	-0,093	-0,081
260,049	4,134	-0,230	-0,116
261,063	-200,000	-0,055	-0,207
262,078	88,316	-0,210	-0,161
263,093	0,154	-0,202	-0,099
264,107	260,415	-0,141	-0,169
265,122	297,495	-0,140	-0,178
266,136	-200,000	-0,001	-0,149
267,151	-32,975	-0,241	-0,092
268,166	18,329	-0,230	-0,126
269,180	-23,780	-0,173	-0,071
270,195	18,791	-0,240	-0,132
271,209	663,358	-0,105	-0,188
272,224	-110,685	-0,142	-0,020
273,239	-65,964	-0,193	-0,053
274,253	8,718	-0,171	-0,089
275,268	-69,769	-0,112	0,029
276,282	-50,697	-0,237	-0,077
277,297	56,648	-0,294	-0,197
278,312	64,050	-0,189	-0,131
279,326	89,465	-0,099	-0,076
280,341	-30,878	-0,187	-0,073
281,355	-115,717	-0,104	-0,013
282,370	-124,127	-0,098	-0,010
283,384	34,773	-0,207	-0,124
284,399	95,823	-0,234	-0,184
285,414	16,696	-0,246	-0,134
286,428	302,777	-0,060	-0,077
287,443	275,536	-0,066	-0,081
288,457	-31,795	-0,103	-0,040
289,472	23,232	-0,216	-0,122
290,487	46,516	-0,205	-0,131
291,501	67,448	-0,220	-0,154
292,516	800,000	-0,074	-0,183
293,530	632,319	-0,101	-0,177
294,545	59,031	-0,153	-0,103
295,560	454,223	-0,030	-0,046
296,574	215,165	-0,120	-0,132
297,589	225,717	-0,114	-0,128
298,603	13,054	-0,231	-0,123
299,618	-86,819	-0,279	-0,058
300,633	295,504	-0,171	-0,216
301,647	-111,296	-0,091	-0,013
302,662	1,795	-0,202	-0,100
303,676	387,605	-0,115	-0,165
304,691	151,094	-0,199	-0,187
305,706	118,283	-0,174	-0,147
306,720	-52,819	-0,320	-0,101
307,735	20,431	-0,186	-0,103
308,749	183,664	-0,155	-0,158
309,764	-164,696	-0,140	0,004
310,779	543,947	-0,118	-0,195
311,793	800,000	-0,106	-0,247
312,808	149,280	-0,201	-0,188
313,822	15,714	-0,237	-0,128
314,837	800,000	-0,102	-0,264
315,852	-60,376	-0,103	-0,030
316,866	419,060	-0,110	-0,162
317,881	800,000	-0,036	-0,104
318,895	-71,018	-0,133	-0,034
319,910	211,906	-0,270	-0,293
320,925	-200,000	-0,051	-0,290
321,939	-34,273	-0,163	-0,061
322,954	-71,223	-0,031	-0,008
323,968	225,587	-0,035	-0,039
324,983	63,583	-0,167	-0,115
325,997	-31,702	-0,049	-0,019
327,012	62,278	-0,117	-0,080
328,027	-200,000	-0,044	-0,154
329,041	-200,000	-0,019	-0,213
330,056	10,435	-0,174	-0,091
331,070	-127,469	-0,137	-0,013
332,085	-200,000	-0,079	-0,241
333,100	800,000	-0,067	-0,172
334,114	101,778	-0,209	-0,168
335,129	22,024	-0,237	-0,132
336,143	-58,956	-0,144	-0,043
337,158	-200,000	-0,007	-0,169
338,173	-1,077	-0,104	-0,050
339,187	680,714	-0,135	-0,243
340,202	129,726	-0,078	-0,068
341,216	-23,286	-0,136	0,056
342,231	65,070	-0,162	-0,112
343,246	306,238	-0,100	-0,128
344,260	560,887	-0,126	-0,209
345,275	-69,998	-0,148	-0,038
346,289	635,086	-0,094	-0,165
347,304	415,558	-0,030	-0,044
348,319	79,405	-0,208	-0,153
349,333	257,272	-0,103	-0,122
350,348	541,052	-0,111	-0,181
351,362	623,432	-0,085	-0,148
352,377	-12,221	-0,125	-0,056
353,392	-11,494	0,061	0,027
354,406	264,819	-0,059	-0,070
355,421	209,317	1315,440	1415,270
356,435	161,094	1476,252	1415,759
