DTS Sentinel unit serial number:	SN410029Multiplexer serial number:	ORYXHardware model number:	OX2-SRSoftware version number:	ORYX F/W v4,00 Oryx Data Collector v3.7.2.0data status	okinstallation	B3 Nyhavnadifferential loss correction	single-endedforward channel	channel 1reverse channel	N/Adate	2023/12/04time	10:57:30forward acquisition time	300,00reverse acquisition time	0,00gamma	499,1914k internal	0,3203k external	0,3203temperature offset calibration	1,0000default loss term (dB/km)	0,3820temperature slope calibration	1,0000multiplexer offset coefficient	1,0000multiplexer slope coefficient	1,0000fibre end	0,00T internal ref (°C)	13,76T ext. ref 1 (°C)	-0,53T ext. ref 2 (°C)	-0,56length (m)	temperature (°C)	Stokes	anti-Stokes-744,400	393,630	-0,230	-0,349
-743,385	-200,000	-0,086	0,302
-742,371	-200,000	-0,007	-0,227
-741,356	-200,000	0,088	0,320
-740,342	496,259	-0,140	-0,236
-739,327	-200,000	0,051	0,326
-738,312	292,420	-0,236	-0,314
-737,298	-200,000	-0,015	0,284
-736,283	223,049	-0,149	-0,175
-735,269	-200,000	0,038	0,199
-734,254	452,415	-0,221	-0,357
-733,239	-200,000	0,014	-0,058
-732,225	768,895	-0,165	-0,329
-731,210	403,449	0,165	0,254
-730,196	615,953	-0,057	0,104
-729,181	78,649	-0,126	-0,098
-728,167	-200,000	-0,013	-0,128
-727,152	75,818	-0,091	-0,070
-726,137	800,000	-0,066	-0,165
-725,123	150,764	-0,156	-0,154
-724,108	-136,808	-0,070	-0,006
-723,094	-82,697	-0,110	-0,026
-722,079	-113,230	-0,024	0,003
-721,064	13,176	-0,062	0,035
-720,050	-96,783	0,073	0,014
-719,035	800,000	0,024	0,062
-718,021	-200,000	-0,037	-0,136
-717,006	800,000	-0,030	-0,066
-715,991	211,211	-0,055	-0,063
-714,977	373,592	-0,125	-0,185
-713,962	-62,181	-0,095	-0,028
-712,948	666,154	0,043	-0,081
-711,933	637,254	0,065	-0,121
-710,918	192,514	0,048	0,053
-709,904	50,855	-0,088	0,060
-708,889	-116,337	-0,026	-0,003
-707,875	373,312	-0,067	0,099
-706,860	25,512	-0,009	-0,005
-705,845	800,000	0,009	0,021
-704,831	800,000	0,028	-0,079
-703,816	-0,830	0,091	0,046
-702,802	-200,000	-0,019	0,145
-701,787	-169,887	-0,091	0,002
-700,772	406,830	-0,029	0,045
-699,758	800,000	-0,014	0,033
-698,743	287,201	-0,060	0,079
-697,729	-84,268	0,143	-0,033
-696,714	-200,000	0,034	0,113
-695,699	800,000	0,024	-0,056
-694,685	-4,268	-0,209	-0,105
-693,670	800,000	0,010	0,022
-692,656	-51,894	0,108	-0,036
-691,641	-200,000	0,004	-0,070
-690,627	373,621	-0,106	0,157
-689,612	83,798	-0,035	0,028
-688,597	663,110	0,036	0,067
-687,583	43,798	-0,069	0,046
-686,568	800,000	-0,043	0,109
-685,554	121,455	-0,050	0,045
-684,539	-200,000	-0,031	0,109
-683,524	384,017	0,040	-0,060
-682,510	595,135	-0,036	-0,065
-681,495	25,804	-0,109	-0,065
-680,481	181,876	-0,092	-0,098
-679,466	800,000	-0,032	-0,073
-678,451	-22,898	-0,164	-0,071
-677,437	-91,057	0,088	0,018
-676,422	-41,449	0,094	0,035
-675,408	659,273	-0,031	0,058
-674,393	-0,333	0,084	0,043
-673,378	-165,429	-0,109	0,003
-672,364	-66,914	-0,031	0,009
-671,349	-45,413	-0,074	-0,026
-670,335	6,677	-0,071	0,038
-669,320	-42,755	-0,029	0,011
-668,305	132,528	0,194	0,181
-667,291	11,030	0,064	0,035
-666,276	88,096	-0,058	-0,047
-665,262	140,825	-0,094	-0,090
-664,247	-9,442	-0,043	-0,021
-663,232	800,000	-0,054	-0,140
-662,218	-200,000	0,009	0,072
-661,203	695,572	0,019	0,035
-660,189	-200,000	-0,039	0,146
-659,174	88,197	-0,150	-0,120
-658,159	327,564	0,021	0,029
-657,145	-200,000	0,010	-0,084
-656,130	-104,911	0,078	-0,013
-655,116	-200,000	-0,028	-0,163
-654,101	-141,745	-0,173	-0,012
-653,086	323,516	-0,030	-0,041
-652,072	800,000	0,052	0,108
-651,057	412,209	-0,040	-0,062
-650,043	-74,662	-0,050	-0,013
-649,028	800,000	0,034	0,091
-648,014	276,038	-0,063	0,081
-646,999	552,531	-0,029	0,051
-645,984	336,578	0,014	-0,020
-644,970	725,789	-0,071	-0,138
-643,955	295,847	-0,086	-0,114
-642,941	428,048	0,061	-0,096
-641,926	47,841	0,061	-0,041
-640,911	-200,000	0,013	-0,137
-639,897	-194,682	-0,041	-0,000
-638,882	-20,183	-0,074	0,033
-637,868	409,985	0,012	-0,018
-636,853	123,954	-0,091	0,083
-635,838	175,900	-0,064	-0,067
-634,824	-184,327	-0,134	0,002
-633,809	-130,081	-0,094	0,009
-632,795	-68,633	-0,119	-0,033
-631,780	303,120	-0,071	0,096
-630,765	-200,000	-0,018	0,062
-629,751	555,651	-0,072	-0,127
-628,736	800,000	0,030	-0,088
-627,722	800,000	0,046	-0,145
-626,707	-200,000	-0,005	-0,020
-625,692	-34,175	0,052	0,020
-624,678	111,668	-0,027	0,024
-623,663	85,763	0,095	-0,076
-622,649	-97,369	0,008	0,001
-621,634	97,829	-0,020	0,017
-620,619	-200,000	0,016	-0,076
-619,605	-91,573	0,073	-0,015
-618,590	493,304	0,026	0,044
-617,576	46,221	0,031	-0,021
-616,561	-200,000	0,004	-0,061
-615,546	-34,322	0,105	0,041
-614,532	800,000	-0,045	-0,120
-613,517	549,110	0,018	-0,031
-612,503	-59,384	0,134	-0,041
-611,488	-104,616	0,143	-0,024
-610,474	-130,572	0,110	0,011
-609,459	-200,000	0,001	0,012
-608,444	-66,529	0,042	0,012
-607,430	-33,495	-0,161	0,064
-606,415	428,992	-0,008	0,013
-605,401	-114,893	0,128	-0,017
-604,386	-27,476	-0,158	-0,066
-603,371	-56,689	-0,024	-0,008
-602,357	800,000	0,034	-0,097
-601,342	70,378	-0,045	-0,034
-600,328	116,523	-0,093	0,082
-599,313	-200,000	0,018	-0,109
-598,298	-129,111	-0,011	-0,001
-597,284	440,914	0,141	0,224
-596,269	-200,000	-0,020	0,114
-595,255	-91,566	0,036	0,007
-594,240	-200,000	-0,043	-0,180
-593,225	-183,594	0,106	0,001
-592,211	-200,000	-0,014	-0,105
-591,196	143,207	0,013	-0,012
-590,182	-66,378	0,025	-0,007
-589,167	800,000	0,008	0,021
-588,152	-62,796	-0,038	-0,011
-587,138	320,749	0,104	0,143
-586,123	800,000	-0,033	-0,086
-585,109	800,000	0,038	-0,084
-584,094	371,616	-0,015	-0,022
-583,079	78,401	0,082	0,063
-582,065	-24,608	0,154	0,066
-581,050	-84,416	-0,080	0,018
-580,036	800,000	0,044	0,104
-579,021	32,252	-0,130	-0,081
-578,006	16,421	-0,164	0,093
-576,992	-200,000	-0,012	0,060
-575,977	8,315	0,050	-0,027
-574,963	70,751	-0,132	0,099
-573,948	-200,000	0,022	0,180
-572,934	45,802	0,134	0,089
-571,919	244,384	0,108	-0,131
-570,904	-15,142	-0,015	0,007
-569,890	311,284	0,037	-0,050
-568,875	-200,000	0,003	-0,079
-567,861	478,120	0,033	-0,055
-566,846	131,314	0,120	-0,112
-565,831	-128,089	-0,202	0,021
-564,817	442,137	0,037	-0,059
-563,802	-77,910	-0,084	-0,021
-562,788	204,394	0,119	0,133
-561,773	-117,581	0,166	0,021
-560,758	134,295	-0,050	0,047
-559,744	118,339	0,045	-0,040
-558,729	-142,522	-0,147	0,010
-557,715	650,921	0,047	-0,088
-556,700	-200,000	-0,003	0,058
-555,685	331,897	-0,104	-0,146
-554,671	800,000	0,041	0,105
-553,656	-200,000	-0,006	0,060
-552,642	136,246	-0,023	-0,021
-551,627	800,000	-0,028	0,076
-550,612	-143,961	-0,070	-0,005
-549,598	151,849	0,029	-0,029
-548,583	289,400	0,039	0,051
-547,569	266,202	-0,038	-0,049
-546,554	-200,000	0,018	-0,092
-545,539	166,417	0,045	0,046
-544,525	-70,233	-0,138	0,038
-543,510	-145,679	0,069	-0,004
-542,496	195,248	-0,096	0,106
-541,481	220,180	-0,035	0,041
-540,466	64,653	-0,082	0,060
-539,452	287,849	-0,063	-0,083
-538,437	-200,000	0,010	-0,074
-537,423	127,294	0,022	-0,020
-536,408	132,908	-0,088	-0,082
-535,393	-200,000	0,019	-0,111
-534,379	-200,000	-0,002	-0,093
-533,364	-99,852	-0,088	0,016
-532,350	40,525	0,118	0,076
-531,335	-200,000	-0,053	0,178
-530,321	-30,355	-0,005	0,002
-529,306	81,296	-0,026	-0,020
-528,291	800,000	-0,041	0,117
-527,277	791,235	-0,023	0,046
-526,262	308,616	-0,113	-0,153
-525,248	-200,000	0,009	-0,054
-524,233	800,000	-0,022	0,044
-523,218	-200,000	0,030	0,126
-522,204	-41,440	0,145	0,054
-521,189	42,091	0,127	-0,083
-520,175	-200,000	-0,005	-0,089
-519,160	800,000	-0,044	-0,103
-518,145	444,536	0,024	0,039
-517,131	46,201	0,142	-0,095
-516,116	-1,533	0,130	0,066
-515,102	-45,476	-0,059	-0,021
-514,087	800,000	-0,019	0,044
-513,072	-165,568	0,061	0,002
-512,058	422,028	-0,085	-0,132
-511,043	-200,000	0,004	0,014
-510,029	800,000	0,061	0,139
-509,014	-21,721	-0,093	0,041
-507,999	800,000	-0,011	0,024
-506,985	-200,000	0,032	-0,130
-505,970	-29,142	0,014	-0,006
-504,956	-50,613	0,052	-0,017
-503,941	800,000	-0,013	-0,035
-502,926	342,940	-0,020	0,028
-501,912	800,000	0,031	-0,073
-500,897	257,621	0,040	-0,050
-499,883	-200,000	-0,012	-0,074
-498,868	800,000	0,051	0,109
-497,853	-200,000	0,008	0,158
-496,839	180,321	0,129	0,137
-495,824	248,176	0,055	0,067
-494,810	65,000	0,124	-0,090
-493,795	168,620	0,030	0,031
-492,781	-48,151	-0,095	-0,033
-491,766	-200,000	-0,038	-0,168
-490,751	-200,000	0,006	-0,166
-489,737	-18,672	-0,106	-0,047
-488,722	-200,000	-0,004	-0,080
-487,708	-200,000	-0,001	0,076
-486,693	-200,000	-0,007	0,102
-485,678	-200,000	-0,021	-0,136
-484,664	-102,038	-0,074	0,013
-483,649	-200,000	-0,043	-0,179
-482,635	-73,271	-0,125	-0,033
-481,620	800,000	0,031	0,087
-480,605	-25,839	0,058	-0,024
-479,591	-200,000	-0,028	0,090
-478,576	-53,374	-0,015	-0,005
-477,562	800,000	0,030	-0,068
-476,547	169,478	-0,051	-0,053
-475,532	-82,799	-0,110	0,025
-474,518	-90,639	0,065	0,013
-473,503	-200,000	0,003	0,044
-472,489	800,000	0,037	-0,083
-471,474	-200,000	0,012	-0,064
-470,459	-198,251	-0,042	-0,000
-469,445	166,657	-0,056	-0,057
-468,430	401,307	0,028	-0,042
-467,416	175,590	0,107	0,111
-466,401	14,373	0,057	0,032
-465,386	-200,000	-0,008	-0,038
-464,372	800,000	0,024	-0,056
-463,357	800,000	-0,060	-0,151
-462,343	-200,000	-0,027	-0,126
-461,328	-200,000	0,019	0,099
-460,313	-40,263	0,035	0,013
-459,299	36,513	-0,099	0,063
-458,284	275,452	-0,007	0,009
-457,270	-72,473	-0,143	0,038
-456,255	-122,359	0,171	-0,020
-455,241	125,793	-0,095	0,086
-454,226	6,447	-0,087	-0,046
-453,211	76,884	0,191	-0,146
-452,197	800,000	-0,032	0,099
-451,182	-200,000	0,000	0,062
-450,168	78,238	-0,018	-0,014
-449,153	89,518	0,083	-0,067
-448,138	313,583	-0,062	0,085
-447,124	-200,000	-0,007	-0,033
-446,109	800,000	0,041	0,085
-445,095	254,680	0,056	0,069
-444,080	-122,925	-0,145	-0,017
-443,065	800,000	-0,030	0,088
-442,051	496,419	-0,091	0,151
-441,036	-163,860	-0,088	0,003
-440,022	-92,382	-0,038	-0,008
-439,007	797,685	0,086	-0,171
-437,992	-200,000	-0,021	-0,099
-436,978	-200,000	0,032	0,262
-435,963	166,064	0,040	0,041
-434,949	24,664	-0,067	0,040
-433,934	-35,349	-0,084	0,033
-432,919	-200,000	-0,015	0,074
-431,905	-200,000	-0,004	0,150
-430,890	800,000	-0,049	0,130
-429,876	-200,000	-0,006	0,048
-428,861	-200,000	0,013	-0,048
-427,846	549,796	-0,022	0,038
-426,832	-39,762	-0,051	0,019
-425,817	-200,000	-0,042	0,183
-424,803	-73,854	-0,112	0,029
-423,788	-200,000	-0,027	0,144
-422,773	-98,102	0,079	-0,014
-421,759	103,552	0,030	0,026
-420,744	195,599	0,075	-0,082
-419,730	473,779	0,060	-0,098
-418,715	-200,000	-0,000	-0,101
-417,701	-100,569	-0,132	0,023
-416,686	-200,000	-0,004	0,047
-415,671	-200,000	0,026	0,105
-414,657	-200,000	-0,028	0,226
-413,642	-79,912	0,213	-0,051
-412,628	675,265	-0,064	-0,120
-411,613	-28,128	-0,107	0,044
-410,598	800,000	0,019	-0,047
-409,584	-24,732	0,089	-0,038
-408,569	800,000	-0,023	-0,067
-407,555	-147,522	0,061	0,004
-406,540	800,000	-0,032	0,077
-405,525	-200,000	0,036	-0,172
-404,511	-200,000	0,009	-0,119
-403,496	-200,000	-0,005	-0,064
-402,482	-200,000	-0,004	-0,025
-401,467	-200,000	-0,002	0,077
-400,452	-93,840	-0,081	-0,016
-399,438	-72,872	0,056	0,015
-398,423	-8,789	-0,041	0,019
-397,409	800,000	0,027	-0,058
-396,394	-200,000	0,023	-0,192
-395,379	1,133	-0,066	-0,034
-394,365	55,007	-0,077	-0,053
-393,350	-200,000	0,013	0,133
-392,336	800,000	-0,038	0,083
-391,321	-46,523	0,070	-0,024
-390,306	-193,574	-0,019	-0,000
-389,292	-200,000	-0,016	0,094
-388,277	800,000	-0,046	0,132
-387,263	-200,000	-0,003	0,063
-386,248	198,662	0,041	0,045
-385,233	488,826	0,084	-0,139
-384,219	-200,000	0,019	0,107
-383,204	-200,000	-0,015	-0,065
-382,190	234,798	0,100	-0,118
-381,175	12,968	-0,117	-0,064
-380,160	96,560	0,026	0,021
-379,146	38,735	-0,071	-0,045
-378,131	266,511	0,098	0,123
-377,117	15,944	0,072	-0,040
-376,102	-200,000	0,044	-0,151
-375,088	800,000	0,015	-0,033
-374,073	22,873	-0,073	0,043
-373,058	800,000	0,034	0,080
-372,044	78,451	0,095	0,073
-371,029	-200,000	0,034	0,111
-370,015	-200,000	0,040	0,222
-369,000	-68,600	-0,028	-0,008
-367,985	-55,918	-0,086	-0,027
-366,971	-200,000	-0,023	-0,088
-365,956	-200,000	0,021	-0,075
-364,942	63,272	0,080	-0,057
-363,927	-110,350	-0,114	-0,017
-362,912	-26,941	-0,048	-0,020
-361,898	-79,024	0,046	-0,011
-360,883	59,212	0,093	-0,066
-359,869	6,328	-0,063	-0,033
-358,854	-60,414	0,094	0,029
-357,839	-35,767	-0,086	0,033
-356,825	800,000	-0,053	-0,131
-355,810	178,558	0,073	-0,076
-354,796	368,688	0,078	0,113
-353,781	143,020	0,065	-0,062
-352,766	-62,918	-0,141	0,042
-351,752	800,000	-0,039	-0,090
-350,737	800,000	-0,035	0,096
-349,723	-120,354	-0,050	-0,006
-348,708	800,000	-0,041	-0,106
-347,693	-99,412	-0,054	0,010
-346,679	221,597	-0,110	0,127
-345,664	800,000	0,035	0,085
-344,650	-200,000	0,013	-0,044
-343,635	-75,649	0,090	-0,023
-342,620	-130,793	-0,087	0,008
-341,606	89,417	0,032	-0,025
-340,591	800,000	0,047	0,136
-339,577	341,095	-0,053	-0,075
-338,562	800,000	-0,045	-0,131
-337,548	-18,678	0,028	-0,013
-336,533	112,340	0,053	-0,046
-335,518	-169,627	-0,072	0,002
-334,504	560,100	-0,097	0,168
-333,489	-200,000	0,005	0,052
-332,475	223,645	0,058	0,068
-331,460	-64,632	-0,046	-0,013
-330,445	-113,837	-0,212	0,029
-329,431	61,148	0,023	-0,016
-328,416	64,260	-0,069	-0,050
-327,402	-200,000	0,004	-0,027
-326,387	706,908	0,080	0,152
-325,372	-97,249	-0,081	0,015
-324,358	-38,021	-0,177	-0,067
-323,343	-47,180	0,104	-0,036
-322,329	18,655	-0,072	0,041
-321,314	-24,524	0,167	-0,071
-320,299	23,014	-0,169	-0,099
-319,285	-200,000	-0,009	-0,034
-318,270	-200,000	-0,003	-0,013
-317,256	-200,000	0,030	-0,115
-316,241	-88,551	-0,065	0,014
-315,226	-141,817	0,074	-0,005
-314,212	129,031	0,056	-0,051
-313,197	339,019	-0,077	-0,107
-312,183	-200,000	-0,002	0,246
-311,168	-130,972	0,086	-0,008
-310,153	-85,646	-0,072	-0,016
-309,139	-200,000	-0,021	-0,107
-308,124	-15,855	0,117	-0,053
-307,110	372,225	0,069	0,101
-306,095	86,523	0,082	0,065
-305,080	101,995	0,058	0,048
-304,066	-172,394	0,065	0,001
-303,051	-27,903	-0,101	-0,042
-302,037	284,854	-0,074	0,096
-301,022	-200,000	0,006	-0,023
-300,008	-200,000	0,076	-0,000
-298,993	570,671	-0,042	0,073
-297,978	667,676	0,039	0,072
-296,964	-109,161	-0,062	0,009
-295,949	1,677	0,105	0,054
-294,935	32,153	0,063	0,039
-293,920	-200,000	0,008	-0,089
-292,905	-200,000	0,011	-0,050
-291,891	84,284	0,109	0,085
-290,876	-200,000	0,020	0,086
-289,862	-14,192	0,094	0,043
-288,847	71,768	-0,106	0,078
-287,832	-71,364	0,081	0,021
-286,818	-200,000	-0,008	-0,034
-285,803	254,248	-0,024	-0,029
-284,789	800,000	-0,017	-0,042
-283,774	800,000	0,031	0,094
-282,759	246,849	-0,049	0,059
-281,745	215,578	0,020	0,022
-280,730	-54,513	-0,160	-0,052
-279,716	30,591	0,082	0,050
-278,701	182,459	0,045	0,047
-277,686	-66,206	0,075	0,021
-276,672	211,736	-0,029	-0,033
-275,657	587,830	-0,057	-0,100
-274,643	11,530	-0,045	-0,024
-273,628	-200,000	0,000	0,035
-272,613	146,021	-0,029	-0,028
-271,599	370,880	-0,035	0,051
-270,584	-200,000	-0,009	0,159
-269,570	-114,828	0,125	-0,017
-268,555	106,703	0,062	0,053
-267,540	29,141	0,043	0,026
-266,526	-200,000	0,004	-0,048
-265,511	280,422	0,048	-0,062
-264,497	-115,341	0,054	-0,007
-263,482	72,951	-0,060	-0,045
-262,467	-200,000	-0,040	0,250
-261,453	-200,000	-0,006	0,028
-260,438	-74,145	-0,088	-0,023
-259,424	511,228	0,026	0,043
-258,409	276,422	-0,085	0,108
-257,395	123,994	0,070	-0,063
-256,380	-200,000	0,009	-0,050
-255,365	174,297	0,026	0,026
-254,351	23,060	0,025	0,015
-253,336	-21,443	-0,140	0,061
-252,322	-2,939	0,114	0,057
-251,307	-31,122	-0,061	0,024
-250,292	-200,000	-0,024	0,079
-249,278	204,173	0,022	0,024
-248,263	29,166	0,039	0,024
-247,249	800,000	0,050	0,113
-246,234	800,000	0,053	-0,109
-245,219	313,994	-0,068	-0,091
-244,205	-200,000	0,002	-0,044
-243,190	31,652	0,032	-0,019
-242,176	800,000	-0,028	0,079
-241,161	1,110	0,148	0,075
-240,146	236,886	0,049	0,058
-239,132	-129,957	-0,019	-0,002
-238,117	-24,885	-0,155	-0,065
-237,103	800,000	0,052	0,109
-236,088	273,876	0,044	0,056
-235,073	800,000	0,014	0,035
-234,059	541,549	-0,049	0,084
-233,044	-145,538	0,193	-0,012
-232,030	800,000	-0,084	0,169
-231,015	800,000	-0,033	-0,070
-230,000	64,531	-0,067	-0,048
-228,986	3,374	-0,093	0,048
-227,971	91,288	0,035	-0,028
-226,957	-32,952	-0,052	-0,021
-225,942	57,700	0,047	-0,033
-224,927	-54,453	-0,238	-0,076
-223,913	145,383	0,025	-0,024
-222,898	208,086	0,044	-0,049
-221,884	-200,000	0,000	-0,073
-220,869	-54,318	-0,074	0,024
-219,855	-91,741	0,154	-0,031
-218,840	-32,952	0,139	0,055
-217,825	-41,096	0,128	-0,047
-216,811	-37,666	-0,100	-0,038
-215,796	726,669	-0,060	0,115
-214,782	97,417	0,078	0,064
-213,767	660,183	0,025	-0,046
-212,752	371,371	-0,003	-0,005
-211,738	251,740	0,031	-0,038
-210,723	37,900	-0,093	0,059
-209,709	6,879	0,146	-0,077
-208,694	800,000	-0,032	0,090
-207,679	683,711	0,056	0,105
-206,665	-200,000	-0,004	-0,107
-205,650	291,828	0,114	0,147
-204,636	-200,000	-0,022	0,102
-203,621	-58,313	-0,036	0,011
-202,606	-36,351	-0,050	0,019
-201,592	-47,935	0,076	0,026
-200,577	480,088	-0,022	0,035
-199,563	395,214	-0,075	0,112
-198,548	-15,457	0,083	-0,038
-197,533	-200,000	-0,009	0,128
-196,519	-200,000	-0,002	-0,038
-195,504	344,769	0,023	-0,032
-194,490	-75,445	-0,098	0,025
-193,475	-154,325	-0,108	-0,005
-192,460	-43,855	0,054	-0,019
-191,446	800,000	0,073	-0,190
-190,431	-70,909	0,057	0,015
-189,417	521,954	-0,029	-0,049
-188,402	552,399	0,011	-0,018
-187,387	140,705	0,084	-0,079
-186,373	299,621	0,106	-0,139
-185,358	327,403	0,082	-0,112
-184,344	34,718	-0,074	0,046
-183,329	-62,485	0,139	0,041
-182,315	282,070	0,040	-0,051
-181,300	-200,000	0,026	-0,116
-180,285	96,999	0,082	-0,067
-179,271	-200,000	-0,038	-0,123
-178,256	-168,774	-0,089	-0,002
-177,242	29,612	0,101	0,061
-176,227	-200,000	-0,018	0,060
-175,212	-4,080	-0,052	0,025
-174,198	272,997	-0,104	-0,131
-173,183	-200,000	-0,017	-0,174
-172,169	800,000	0,077	-0,169
-171,154	349,984	-0,033	-0,046
-170,139	800,000	-0,060	-0,159
-169,125	800,000	-0,020	-0,055
-168,110	98,682	0,105	0,086
-167,096	50,947	-0,063	-0,042
-166,081	-0,046	0,052	-0,026
-165,066	-161,490	-0,099	-0,004
-164,052	800,000	-0,006	0,019
-163,037	105,117	0,070	0,059
-162,023	277,837	0,104	0,132
-161,008	800,000	0,015	-0,044
-159,993	-200,000	0,011	0,116
-158,979	-86,096	-0,063	0,014
-157,964	144,057	-0,091	-0,086
-156,950	57,868	0,042	-0,029
-155,935	310,616	0,026	-0,035
-154,920	-36,906	-0,065	0,025
-153,906	800,000	0,035	0,074
-152,891	14,554	-0,105	-0,058
-151,877	237,688	0,078	-0,092
-150,862	-9,907	-0,050	-0,024
-149,847	-126,187	-0,068	-0,007
-148,833	-200,000	-0,009	0,154
-147,818	246,931	0,024	0,029
-146,804	392,398	0,039	0,058
-145,789	521,148	-0,028	0,046
-144,775	344,392	-0,036	-0,050
-143,760	-73,033	-0,010	-0,003
-142,745	272,121	0,046	-0,058
-141,731	-47,684	-0,059	0,020
-140,716	484,782	0,025	0,041
-139,702	142,666	-0,039	-0,037
-138,687	-84,419	-0,047	0,010
-137,672	45,889	-0,106	-0,069
-136,658	800,000	0,017	-0,035
-135,643	800,000	0,079	-0,182
-134,629	800,000	0,035	0,090
-133,614	-200,000	0,019	0,182
-132,599	-105,867	-0,037	0,006
-131,585	-200,000	-0,024	0,120
-130,570	88,759	0,132	-0,104
-129,556	-45,113	-0,089	-0,031
-128,541	-200,000	0,039	-0,169
-127,526	800,000	0,006	-0,015
-126,512	-200,000	-0,017	0,064
-125,497	-146,455	-0,093	-0,006
-124,483	266,945	-0,058	0,072
-123,468	100,019	0,056	-0,046
-122,453	-19,831	-0,068	-0,029
-121,439	800,000	-0,045	-0,132
-120,424	170,991	0,057	-0,058
-119,410	169,975	-0,051	0,052
-118,395	590,974	0,097	0,171
-117,380	-200,000	-0,011	0,070
-116,366	-200,000	-0,002	0,035
-115,351	337,788	-0,029	0,039
-114,337	-35,533	-0,013	0,005
-113,322	800,000	-0,064	-0,184
-112,307	248,204	0,015	0,018
-111,293	-21,023	-0,136	0,059
-110,278	-130,711	0,091	0,009
-109,264	-200,000	-0,001	0,032
-108,249	-66,860	0,080	0,022
-107,234	-162,061	-0,085	0,003
-106,220	-93,984	0,275	0,053
-105,205	600,958	-0,099	0,175
-104,191	-136,930	-0,141	-0,011
-103,176	224,064	-0,088	0,101
-102,162	-200,000	-0,008	-0,160
-101,147	-21,375	0,072	0,031
-100,132	76,674	-0,041	-0,031
-99,118	-52,540	-0,171	-0,056
-98,103	-180,743	0,069	-0,001
-97,089	15,378	0,067	0,037
-96,074	321,406	-0,053	0,072
-95,059	800,000	0,017	0,043
-94,045	243,887	-0,080	-0,096
-93,030	38,504	-0,136	-0,086
-92,016	800,000	0,077	-0,193
-91,001	-200,000	0,011	0,072
-89,986	800,000	0,039	0,110
-88,972	-158,849	-0,066	0,003
-87,957	-34,303	0,133	0,051
-86,943	-37,848	-0,031	0,012
-85,928	-200,000	0,028	0,144
-84,913	-62,622	-0,099	-0,029
-83,899	-200,000	0,009	-0,107
-82,884	-74,340	-0,124	-0,031
-81,870	283,887	0,033	0,042
-80,855	35,607	-0,067	-0,041
-79,840	-37,512	-0,171	-0,064
-78,826	89,808	0,109	-0,086
-77,811	-53,392	-0,068	-0,022
-76,797	34,558	-0,086	0,053
-75,782	-31,979	0,131	-0,052
-74,767	-13,777	-0,065	-0,030
-73,753	73,125	0,094	-0,070
-72,738	-99,793	-0,089	0,016
-71,724	-127,988	-0,083	0,008
-70,709	134,448	0,058	0,053
-69,694	-31,685	-0,022	-0,009
-68,680	-200,000	0,031	-0,118
-67,665	-166,386	0,067	-0,002
-66,651	114,887	-0,068	-0,059
-65,636	-200,000	-0,011	0,055
-64,622	-91,108	0,064	-0,013
-63,607	140,301	-0,139	0,130
-62,592	-115,099	0,188	-0,025
-61,578	-200,000	0,024	0,085
-60,563	725,001	0,038	0,073
-59,549	154,901	-0,072	0,070
-58,534	-23,629	-1,560	-0,659
-57,519	430,345	-1,326	-2,039
-56,505	-200,000	-0,563	-4,432
-55,490	227,364	1,034	1,191
-54,476	800,000	4,813	10,974
-53,461	-200,000	18,962	310,995
-52,446	-200,000	738,392	2316,996
-51,432	574,697	1654,122	2867,926
-50,417	79,061	1670,352	1264,629
-49,403	21,737	1543,142	886,930
-48,388	15,628	1465,667	812,738
-47,373	17,787	1455,860	817,686
-46,359	16,752	1445,888	807,097
-45,344	13,861	1441,508	790,784
-44,330	13,795	1439,427	789,296
-43,315	13,834	1437,698	788,500
-42,300	13,853	1435,971	787,613
-41,286	13,815	1434,736	786,726
-40,271	13,833	1433,505	786,104
-39,257	13,832	1432,175	785,339
-38,242	13,821	1431,081	784,655
-37,227	13,869	1429,860	784,181
-36,213	13,870	1428,460	783,389
-35,198	13,914	1427,128	782,836
-34,184	13,884	1426,334	782,227
-33,169	13,812	1425,134	781,198
-32,154	13,874	1423,998	780,837
-31,140	13,860	1422,591	779,970
-30,125	13,900	1421,475	779,515
-29,111	13,888	1420,341	778,804
-28,096	13,850	1419,399	778,076
-27,082	13,818	1418,320	777,306
-26,067	13,789	1417,163	776,505
-25,052	13,805	1416,141	775,987
-24,038	13,741	1415,259	775,171
-23,023	13,762	1414,097	774,603
-22,009	13,767	1412,944	773,965
-20,994	13,777	1412,245	773,598
-19,979	13,735	1411,511	772,967
-18,965	13,742	1410,505	772,419
-17,950	13,780	1409,235	771,870
-16,936	13,756	1408,551	771,353
-15,921	13,680	1407,357	770,312
-14,906	13,676	1406,794	769,956
-13,892	13,704	1405,519	769,360
-12,877	13,699	1404,727	768,874
-11,863	13,708	1403,716	768,331
-10,848	13,682	1402,745	767,648
-9,833	13,662	1402,202	767,226
-8,819	13,618	1401,289	766,490
-7,804	13,608	1400,191	765,815
-6,790	13,571	1399,245	765,092
-5,775	13,618	1398,042	764,625
-4,760	13,632	1397,157	764,173
-3,746	13,626	1396,459	763,736
-2,731	13,650	1395,452	763,264
-1,717	13,605	1394,576	762,548
-0,702	13,556	1393,086	761,477
0,313	17,375	1310,684	734,127
1,327	33,494	705,366	432,390
2,342	51,144	123,981	83,034
3,356	1,717	16,675	8,467
4,371	0,188	3,343	1,680
5,386	-36,062	0,685	0,260
6,400	-200,000	0,018	0,095
7,415	70,033	-0,142	-0,103
8,429	219,586	-0,235	-0,266
9,444	355,969	-0,257	-0,363
10,459	14,213	-0,268	-0,147
11,473	-49,780	-0,355	-0,118
12,488	29,667	-0,347	-0,208
13,502	233,204	-0,216	-0,251
14,517	0,090	-0,362	-0,181
15,531	7,683	-0,326	-0,172
16,546	-35,121	-0,290	-0,111
17,561	248,349	-0,266	-0,318
18,575	418,801	-0,125	-0,190
19,590	436,408	-0,202	-0,312
20,604	72,764	-0,300	-0,221
21,619	52,090	-0,390	-0,262
22,634	96,136	-0,483	-0,389
23,648	7,160	-0,481	-0,252
24,663	162,488	-0,331	-0,328
25,677	212,062	-0,376	-0,418
26,692	-28,515	-0,410	-0,166
27,707	262,378	-0,306	-0,375
28,721	52,788	-0,444	-0,299
29,736	29,394	-0,401	-0,240
30,750	93,044	-0,393	-0,313
31,765	398,921	-0,258	-0,382
32,780	224,535	-0,250	-0,285
33,794	-53,835	-0,334	-0,107
34,809	120,156	-0,254	-0,222
35,823	35,998	-0,374	-0,232
36,838	163,208	-0,327	-0,324
37,853	214,088	-0,297	-0,331
38,867	150,526	-0,356	-0,341
39,882	226,721	-0,212	-0,243
40,896	2,980	-0,466	-0,238
41,911	299,436	-0,202	-0,262
42,926	48,105	-0,287	-0,189
43,940	48,757	-0,391	-0,258
44,955	68,064	-0,423	-0,304
45,969	236,927	-0,304	-0,356
46,984	-36,949	-0,332	-0,125
47,999	105,783	-0,205	-0,171
49,013	24,568	-0,435	-0,253
50,028	66,332	-0,375	-0,268
51,042	137,832	-0,374	-0,345
52,057	453,545	-0,195	-0,305
53,071	-100,800	-0,455	-0,078
54,086	163,244	-0,274	-0,272
55,101	-20,187	-0,357	-0,154
56,115	1,340	-0,298	-0,150
57,130	29,634	-0,312	-0,186
58,144	162,400	-0,278	-0,274
59,159	144,861	-0,282	-0,265
60,174	214,841	-0,258	-0,288
61,188	119,526	-0,256	-0,223
62,203	173,783	-0,229	-0,233
63,217	-132,153	-0,278	-0,025
64,232	35,277	-0,223	-0,137
65,247	140,555	-0,244	-0,227
66,261	85,179	-0,347	-0,267
67,276	171,728	-0,216	-0,218
68,290	122,438	-0,258	-0,226
69,305	50,648	-0,301	-0,200
70,320	222,143	-0,267	-0,303
71,334	60,327	-0,341	-0,237
72,349	60,192	-0,335	-0,233
73,363	147,998	-0,265	-0,251
74,378	23,008	-0,392	-0,226
75,393	220,454	-0,212	-0,239
76,407	6,783	-0,318	-0,166
77,422	-174,056	-0,298	-0,006
78,436	-11,643	-0,327	0,150
79,451	20,985	-0,389	-0,221
80,466	65,577	-0,313	-0,222
81,480	234,856	-0,223	-0,259
82,495	151,475	-0,218	-0,208
83,509	95,242	-0,287	-0,230
84,524	-87,765	-0,214	-0,045
85,539	-101,874	-0,244	-0,041
86,553	208,705	-0,124	-0,136
87,568	137,161	-0,241	-0,222
88,582	43,631	-0,411	-0,263
89,597	4,865	-0,367	-0,189
90,611	24,215	-0,288	-0,166
91,626	44,539	-0,297	-0,191
92,641	20,119	-0,216	-0,122
93,655	227,558	-0,234	-0,268
94,670	88,388	-0,308	-0,240
95,684	301,577	-0,228	-0,296
96,699	58,821	-0,298	-0,205
97,714	46,727	-0,223	-0,145
98,728	27,864	-0,248	-0,146
99,743	140,235	-0,217	-0,201
100,757	-22,807	-0,306	-0,129
101,772	19,393	-0,253	-0,142
102,787	209,088	-0,281	-0,309
103,801	28,234	-0,312	-0,184
104,816	190,600	-0,157	-0,166
105,830	10,881	-0,302	-0,161
106,845	38,409	-0,212	-0,132
107,860	183,610	-0,186	-0,192
108,874	75,916	-0,244	-0,181
109,889	-27,517	-0,299	-0,121
110,903	-61,466	-0,131	-0,038
111,918	36,029	-0,243	-0,149
112,933	101,388	-0,169	-0,138
113,947	13,848	-0,243	-0,132
114,962	-44,412	-0,233	-0,081
115,976	66,907	-0,153	-0,109
116,991	-17,096	-0,358	-0,157
118,006	135,075	-0,270	-0,246
119,020	288,901	-0,190	-0,241
120,035	-37,961	-0,279	-0,103
121,049	-40,482	-0,256	-0,092
122,064	-6,076	-0,361	-0,172
123,079	227,936	-0,179	-0,205
124,093	-50,206	-0,319	-0,105
125,108	800,000	-0,146	-0,289
126,122	-18,943	-0,268	-0,116
127,137	-200,000	-0,008	-0,222
128,151	7,309	-0,345	-0,180
129,166	5,583	-0,259	-0,133
130,181	705,905	-0,140	-0,259
131,195	-100,256	-0,227	-0,039
132,210	-101,334	-0,225	-0,038
133,224	95,534	-0,153	-0,122
134,239	-68,722	-0,302	-0,081
135,254	42,390	-0,303	-0,192
136,268	127,943	-0,288	-0,256
137,283	76,446	-0,279	-0,206
138,297	-21,105	-0,347	-0,148
139,312	316,051	-0,258	-0,340
140,327	129,044	-0,284	-0,253
141,341	553,809	-0,107	-0,180
142,356	800,000	-0,033	-0,080
143,370	-130,858	-0,205	-0,019
144,385	-30,748	-0,178	-0,070
145,400	-20,034	-0,274	-0,118
146,414	14,610	-0,255	-0,138
147,429	181,702	-0,177	-0,182
148,443	88,489	-0,255	-0,197
149,458	-23,990	-0,076	-0,031
150,473	15,175	-0,282	-0,154
151,487	-65,348	-0,305	-0,085
152,502	0,748	-0,367	-0,183
153,516	6,344	-0,208	-0,107
154,531	-66,392	-0,226	-0,062
155,546	-51,186	-0,191	-0,062
156,560	76,382	-0,231	-0,170
157,575	-37,285	-0,187	-0,069
158,589	20,395	-0,285	-0,161
159,604	121,341	-0,232	-0,201
160,619	-30,387	-0,333	-0,131
161,633	39,391	-0,303	-0,189
162,648	49,992	-0,341	-0,224
163,662	148,830	-0,199	-0,188
164,677	72,543	-0,210	-0,153
165,692	546,373	-0,150	-0,251
166,706	96,262	-0,253	-0,202
167,721	41,973	-0,204	-0,129
168,735	202,861	-0,330	-0,356
169,750	60,770	-0,150	-0,103
170,764	37,199	-0,185	-0,114
171,779	9,849	-0,206	-0,108
172,794	88,910	-0,168	-0,130
173,808	-40,183	-0,199	-0,072
174,823	79,537	-0,260	-0,194
175,837	53,855	-0,180	-0,120
176,852	37,310	-0,222	-0,137
177,867	120,785	-0,228	-0,197
178,881	22,459	-0,176	-0,100
179,896	-130,749	-0,312	-0,029
180,910	522,415	-0,156	-0,256
181,925	149,894	-0,159	-0,151
182,940	195,363	-0,249	-0,264
183,954	-34,254	-0,205	-0,078
184,969	60,675	-0,169	-0,116
185,983	378,397	-0,151	-0,216
186,998	78,913	-0,224	-0,166
188,013	394,709	-0,098	-0,142
189,027	75,660	-0,275	-0,202
190,042	97,804	-0,264	-0,211
191,056	-192,955	-0,309	0,002
192,071	267,162	-0,206	-0,251
193,086	171,073	-0,238	-0,238
194,100	151,218	-0,186	-0,176
195,115	-158,269	-0,194	-0,008
196,129	416,514	-0,221	-0,329
197,144	124,067	-0,310	-0,271
198,159	3,586	-0,117	-0,059
199,173	43,091	-0,188	-0,119
200,188	-54,444	-0,240	-0,075
201,202	87,055	-0,150	-0,115
202,217	109,335	-0,146	-0,122
203,232	-200,000	0,019	-0,182
204,246	123,646	-0,202	-0,176
205,261	158,986	-0,182	-0,176
206,275	8,003	-0,271	-0,141
207,290	111,970	-0,254	-0,213
208,304	379,400	-0,149	-0,212
209,319	73,663	-0,201	-0,146
210,334	28,434	-0,119	-0,070
211,348	61,499	-0,232	-0,160
212,363	-159,487	-0,228	-0,009
213,377	211,286	-0,245	-0,268
214,392	38,844	-0,141	-0,087
215,407	-24,267	-0,224	-0,092
216,421	17,615	-0,154	-0,085
217,436	39,023	-0,198	-0,122
218,450	463,837	-0,227	-0,353
219,465	73,698	-0,191	-0,139
220,480	238,045	-0,135	-0,156
221,494	-94,823	-0,194	-0,036
222,509	-66,166	-0,120	-0,033
223,523	-89,147	-0,160	0,033
224,538	56,539	-0,164	-0,110
225,553	14,675	-0,275	-0,149
226,567	108,142	-0,153	-0,127
227,582	-21,022	-0,255	-0,108
228,596	217,771	-0,160	-0,177
229,611	45,142	-0,161	-0,103
230,626	-66,833	-0,139	-0,038
231,640	395,860	-0,136	-0,198
232,655	71,675	-0,154	-0,111
233,669	-62,403	-0,265	-0,076
234,684	18,279	-0,276	-0,152
235,699	262,915	-0,122	-0,147
236,713	111,861	-0,156	-0,131
237,728	38,386	-0,169	-0,104
238,742	242,729	-0,105	-0,122
239,757	9,053	-0,126	-0,065
240,772	170,621	-0,182	-0,181
241,786	63,123	-0,201	-0,139
242,801	-87,773	-0,111	-0,023
243,815	343,106	-0,046	-0,062
244,830	5,533	-0,163	-0,083
245,844	-62,064	-0,177	-0,051
246,859	226,138	-0,124	-0,140
247,874	77,168	-0,202	-0,148
248,888	800,000	-0,140	-0,282
249,903	55,338	-0,249	-0,167
250,917	800,000	-0,066	-0,150
251,932	-149,570	-0,300	-0,016
252,947	0,323	-0,193	-0,095
253,961	314,433	-0,134	-0,175
254,976	0,948	-0,224	-0,111
255,990	-12,717	-0,250	-0,112
257,005	282,251	-0,172	-0,214
258,020	5,810	-0,212	-0,108
259,034	0,170	-0,334	-0,164
260,049	-92,820	-0,142	-0,027
261,063	-55,856	-0,160	0,049
262,078	4,407	-0,296	-0,149
263,093	129,563	-0,263	-0,232
264,107	379,089	-0,148	-0,210
265,122	-64,747	-0,047	-0,013
266,136	-34,343	-0,253	-0,096
267,151	55,996	-0,091	0,061
268,166	246,057	-0,122	-0,142
269,180	195,104	-0,189	-0,198
270,195	-26,761	-0,312	-0,126
271,209	-50,174	-0,207	-0,067
272,224	91,439	-0,125	-0,097
273,239	-30,474	-0,180	-0,070
274,253	88,704	-0,168	-0,129
275,268	-23,440	-0,255	-0,105
276,282	-13,986	-0,208	-0,092
277,297	354,818	-0,193	-0,266
278,312	653,610	-0,116	-0,207
279,326	-159,520	-0,192	0,007
280,341	24,123	-0,146	-0,083
281,355	39,957	-0,321	-0,199
282,370	-170,422	-0,134	0,003
283,384	29,798	-0,192	-0,112
284,399	-27,380	-0,163	-0,065
285,414	115,416	-0,181	-0,153
286,428	137,647	-0,114	-0,103
287,443	-120,344	-0,097	-0,011
288,457	800,000	-0,097	-0,247
289,472	59,403	-0,168	-0,114
290,487	329,645	-0,142	-0,189
291,501	358,745	-0,112	-0,155
292,516	149,676	-0,180	-0,168
293,530	-200,000	-0,009	-0,114
294,545	-95,703	-0,126	-0,023
295,560	800,000	-0,067	-0,198
296,574	72,363	-0,093	-0,067
297,589	800,000	-0,074	-0,153
298,603	385,448	-0,155	-0,221
299,618	686,042	-0,133	-0,240
300,633	176,701	-0,128	-0,128
301,647	-200,000	-0,052	-0,197
302,662	-83,134	-0,147	-0,032
303,676	-29,955	-0,221	0,086
304,691	-107,181	-0,224	-0,034
305,706	8,522	-0,151	-0,078
306,720	177,065	-0,187	-0,188
307,735	279,128	-0,154	-0,189
308,749	62,004	-0,255	-0,175
309,764	97,009	-0,162	-0,128
310,779	-83,252	-0,180	-0,039
311,793	182,654	-0,136	-0,138
312,808	220,035	-0,131	-0,145
313,822	110,936	-0,119	-0,099
314,837	144,990	-0,122	-0,113
315,852	-51,869	-0,131	0,042
316,866	800,000	-0,006	-0,014
317,881	-134,447	-0,075	0,006
318,895	25,026	-0,073	-0,041
319,910	274,236	-0,109	-0,133
320,925	-120,722	-0,197	-0,023
321,939	580,418	-0,099	-0,167
322,954	-200,000	0,009	-0,145
323,968	-200,000	-0,020	-0,201
324,983	209,717	-0,114	-0,123
325,997	616,524	-0,116	-0,201
327,012	28,212	-0,212	-0,123
328,027	3,590	-0,132	-0,066
329,041	175,348	-0,184	-0,183
330,056	502,723	-0,037	-0,060
331,070	-17,767	-0,200	0,086
332,085	-45,791	-0,127	0,043
333,100	91,186	-0,084	-0,065
334,114	-101,482	-0,146	-0,024
335,129	-130,737	-0,263	-0,024
336,143	-200,000	-0,061	-0,228
337,158	200,358	-0,078	-0,082
338,173	618,317	-0,065	-0,112
339,187	-200,000	-0,029	0,100
340,202	-108,975	-0,157	0,023
341,216	800,000	-0,099	-0,207
342,231	-184,274	-0,148	-0,002
343,246	-76,210	-0,310	-0,074
344,260	71,762	-0,186	-0,132
345,275	-200,000	-0,015	-0,129
346,289	95,798	-0,106	-0,083
347,304	547,666	-0,092	-0,152
348,319	190,090	-0,147	-0,152
349,333	-115,615	-0,073	-0,009
350,348	244,076	-0,087	-0,101
351,362	-6,606	-0,176	-0,082
352,377	-15,058	-0,202	-0,089
353,392	-40,852	-0,180	-0,063
354,406	-200,000	-0,001	-0,017
355,421	208,961	1317,748	1416,063
356,435	160,807	1478,834	1416,548
