DTS Sentinel unit serial number:	SN410029Multiplexer serial number:	ORYXHardware model number:	OX2-SRSoftware version number:	ORYX F/W v4,00 Oryx Data Collector v3.7.2.0data status	okinstallation	B3 Nyhavnadifferential loss correction	single-endedforward channel	channel 1reverse channel	N/Adate	2023/12/05time	05:07:30forward acquisition time	300,00reverse acquisition time	0,00gamma	499,1914k internal	0,3201k external	0,3201temperature offset calibration	1,0000default loss term (dB/km)	0,3820temperature slope calibration	1,0000multiplexer offset coefficient	1,0000multiplexer slope coefficient	1,0000fibre end	0,00T internal ref (°C)	14,07T ext. ref 1 (°C)	-0,92T ext. ref 2 (°C)	-0,95length (m)	temperature (°C)	Stokes	anti-Stokes-744,400	205,510	-0,278	-0,315
-743,385	800,000	0,104	0,276
-742,371	359,614	-0,170	-0,248
-741,356	-200,000	0,044	0,413
-740,342	203,366	-0,195	-0,219
-739,327	-200,000	-0,000	0,348
-738,312	77,136	-0,230	-0,178
-737,298	-200,000	-0,036	0,185
-736,283	278,677	-0,173	-0,225
-735,269	-200,000	-0,034	0,212
-734,254	223,759	-0,248	-0,292
-733,239	-27,551	-0,167	0,070
-732,225	85,296	-0,093	-0,074
-731,210	-51,340	0,258	0,087
-730,196	18,929	0,054	-0,031
-729,181	388,497	-0,069	0,105
-728,167	800,000	-0,021	-0,042
-727,152	105,185	-0,099	0,085
-726,137	14,719	-0,208	-0,118
-725,123	-200,000	0,021	-0,125
-724,108	52,200	-0,133	-0,092
-723,094	154,450	-0,053	-0,053
-722,079	-200,000	-0,008	-0,137
-721,064	-200,000	-0,018	-0,085
-720,050	594,999	0,011	0,020
-719,035	-99,466	-0,115	-0,021
-718,021	137,204	0,100	0,095
-717,006	392,852	0,076	-0,115
-715,991	-200,000	0,004	-0,027
-714,977	-200,000	-0,014	-0,089
-713,962	-19,316	-0,069	0,031
-712,948	-200,000	-0,011	0,039
-711,933	-28,626	0,053	-0,022
-710,918	800,000	0,023	-0,069
-709,904	-83,165	-0,038	0,009
-708,889	29,693	-0,094	0,058
-707,875	-200,000	0,006	-0,024
-706,860	800,000	0,018	-0,043
-705,845	-140,211	-0,005	-0,000
-704,831	-200,000	-0,006	0,068
-703,816	-10,609	-0,062	0,030
-702,802	13,757	-0,026	-0,014
-701,787	160,915	-0,056	-0,057
-700,772	-200,000	0,003	0,078
-699,758	-9,779	0,112	-0,054
-698,743	-200,000	-0,016	-0,054
-697,729	208,490	-0,077	0,088
-696,714	31,330	-0,065	0,040
-695,699	96,666	-0,133	-0,111
-694,685	-40,064	-0,023	-0,009
-693,670	-103,334	-0,035	0,006
-692,656	800,000	0,031	0,095
-691,641	-56,811	0,097	0,031
-690,627	206,586	0,032	0,036
-689,612	-77,363	-0,077	-0,019
-688,597	-5,498	-0,107	-0,053
-687,583	368,331	-0,108	-0,159
-686,568	-200,000	-0,005	-0,068
-685,554	-86,588	-0,082	0,018
-684,539	800,000	-0,059	0,145
-683,524	-53,590	-0,066	0,022
-682,510	-200,000	-0,008	-0,039
-681,495	-161,699	0,165	0,006
-680,481	71,515	0,097	-0,073
-679,466	680,753	-0,032	-0,061
-678,451	26,902	-0,061	0,037
-677,437	-200,000	-0,002	0,027
-676,422	-92,816	0,078	-0,016
-675,408	262,350	-0,013	-0,017
-674,393	-200,000	0,007	-0,104
-673,378	163,328	-0,096	0,098
-672,364	-200,000	-0,014	-0,193
-671,349	142,408	0,081	-0,078
-670,335	258,490	-0,023	-0,029
-669,320	441,710	-0,072	-0,114
-668,305	-16,085	0,170	0,078
-667,291	-200,000	0,001	-0,241
-666,276	-2,980	-0,184	-0,093
-665,262	135,440	-0,102	-0,096
-664,247	76,715	-0,122	0,094
-663,232	278,346	-0,111	-0,144
-662,218	-82,849	0,136	0,032
-661,203	241,994	-0,018	-0,022
-660,189	800,000	-0,015	-0,031
-659,174	117,239	0,068	0,061
-658,159	421,074	-0,010	-0,016
-657,145	381,550	0,012	0,018
-656,130	769,294	-0,044	-0,087
-655,116	2,356	-0,061	0,032
-654,101	-200,000	-0,012	-0,065
-653,086	-5,213	-0,028	-0,014
-652,072	100,348	-0,056	0,047
-651,057	6,634	0,039	-0,021
-650,043	402,710	0,054	-0,082
-649,028	-200,000	0,008	-0,145
-648,014	-200,000	0,009	0,093
-646,999	-76,933	-0,088	0,022
-645,984	125,675	-0,090	-0,082
-644,970	155,772	0,035	-0,035
-643,955	1,180	-0,049	0,025
-642,941	312,423	-0,061	-0,083
-641,926	800,000	0,031	-0,072
-640,911	-27,494	0,042	0,017
-639,897	26,903	0,045	-0,027
-638,882	-200,000	-0,000	-0,075
-637,868	800,000	-0,029	-0,081
-636,853	-63,525	-0,139	0,041
-635,838	-182,062	0,077	0,001
-634,824	219,270	0,038	0,045
-633,809	-169,564	-0,027	-0,001
-632,795	428,346	0,018	0,029
-631,780	-22,801	0,047	-0,020
-630,765	-176,844	0,146	-0,003
-629,751	-56,346	-0,047	-0,015
-628,736	-103,728	-0,080	0,013
-627,722	87,462	0,040	-0,032
-626,707	-181,965	-0,038	0,001
-625,692	794,561	-0,035	0,070
-624,678	307,294	-0,077	0,104
-623,663	45,693	-0,087	-0,058
-622,649	120,171	-0,129	0,116
-621,634	-200,000	-0,025	-0,105
-620,619	800,000	-0,042	0,106
-619,605	800,000	-0,052	0,105
-618,590	-145,103	0,152	-0,010
-617,576	120,140	-0,062	0,056
-616,561	800,000	-0,025	-0,054
-615,546	-51,505	0,064	-0,021
-614,532	-200,000	0,037	0,172
-613,517	-200,000	-0,003	0,028
-612,503	228,847	-0,107	-0,126
-611,488	16,976	0,115	-0,066
-610,474	800,000	0,061	0,139
-609,459	5,229	0,036	0,019
-608,444	53,949	-0,145	-0,101
-607,430	-200,000	0,001	0,015
-606,415	-200,000	-0,033	-0,114
-605,401	12,987	-0,069	-0,038
-604,386	-68,860	0,103	0,029
-603,371	34,895	-0,008	-0,005
-602,357	-200,000	0,017	0,116
-601,342	-200,000	-0,018	0,065
-600,328	208,883	-0,035	-0,040
-599,313	32,873	0,029	0,018
-598,298	-200,000	-0,007	-0,048
-597,284	800,000	-0,018	-0,045
-596,269	-200,000	0,052	0,181
-595,255	-92,376	-0,144	0,029
-594,240	472,301	0,045	0,073
-593,225	-200,000	0,006	-0,064
-592,211	-89,442	-0,161	0,034
-591,196	-200,000	0,009	-0,096
-590,182	-156,519	-0,074	-0,003
-589,167	79,476	0,054	-0,042
-588,152	800,000	-0,028	-0,083
-587,138	78,316	-0,057	-0,044
-586,123	-65,136	-0,227	-0,066
-585,109	-200,000	0,024	-0,129
-584,094	-200,000	-0,010	-0,079
-583,079	-86,115	0,070	-0,015
-582,065	-17,313	0,073	0,033
-581,050	431,810	-0,101	0,159
-580,036	582,676	0,043	-0,076
-579,021	77,062	0,010	0,008
-578,006	471,275	0,046	0,074
-576,992	676,634	0,029	-0,056
-575,977	800,000	-0,060	0,144
-574,963	41,726	0,066	-0,043
-573,948	517,396	-0,037	-0,063
-572,934	-200,000	0,030	-0,144
-571,919	-61,294	-0,167	-0,050
-570,904	609,922	-0,022	0,041
-569,890	395,603	-0,038	-0,057
-568,875	800,000	0,055	-0,121
-567,861	-200,000	0,017	0,068
-566,846	56,662	0,047	-0,033
-565,831	62,562	-0,123	-0,088
-564,817	-56,063	-0,075	0,024
-563,802	736,389	0,023	-0,045
-562,788	-124,753	0,119	0,013
-561,773	-200,000	-0,023	-0,080
-560,758	-2,491	0,206	0,104
-559,744	-200,000	0,015	0,166
-558,729	-200,000	0,009	-0,143
-557,715	-200,000	-0,009	0,087
-556,700	800,000	-0,079	-0,176
-555,685	178,514	0,046	-0,049
-554,671	-200,000	-0,022	-0,120
-553,656	-38,655	0,087	-0,033
-552,642	35,932	0,038	-0,024
-551,627	-192,004	-0,106	0,001
-550,612	-74,605	-0,107	0,028
-549,598	67,548	-0,077	-0,057
-548,583	800,000	0,021	0,051
-547,569	-200,000	-0,009	-0,036
-546,554	339,788	0,102	-0,144
-545,539	35,029	-0,087	0,055
-544,525	376,927	-0,068	0,100
-543,510	-200,000	-0,016	-0,061
-542,496	222,721	-0,076	-0,089
-541,481	800,000	-0,026	-0,053
-540,466	51,860	-0,026	0,018
-539,452	-72,177	0,070	-0,019
-538,437	691,893	-0,004	-0,008
-537,423	6,203	-0,066	-0,035
-536,408	-43,258	-0,022	0,008
-535,393	-200,000	-0,009	-0,093
-534,379	-200,000	0,010	-0,096
-533,364	-200,000	-0,007	-0,069
-532,350	52,552	0,075	-0,051
-531,335	800,000	0,030	0,069
-530,321	800,000	0,031	0,071
-529,306	800,000	0,068	0,182
-528,291	-36,188	-0,106	-0,041
-527,277	62,768	-0,026	-0,018
-526,262	-34,363	-0,115	-0,045
-525,248	-126,074	0,073	-0,008
-524,233	-23,860	0,070	0,030
-523,218	431,284	0,004	0,007
-522,204	245,602	0,048	-0,058
-521,189	-163,448	-0,043	-0,001
-520,175	-200,000	0,000	-0,108
-519,160	76,320	-0,022	0,017
-518,145	92,807	0,046	0,037
-517,131	-98,525	0,139	-0,025
-516,116	51,154	0,047	-0,032
-515,102	-134,051	-0,079	-0,007
-514,087	-165,210	0,092	0,003
-513,072	-58,219	-0,127	-0,040
-512,058	800,000	-0,047	0,104
-511,043	687,987	-0,064	0,121
-510,029	504,032	0,046	0,077
-509,014	800,000	0,042	0,094
-507,999	-4,199	0,057	0,029
-506,985	800,000	-0,053	-0,140
-505,970	-179,545	-0,130	0,002
-504,956	145,860	0,062	-0,060
-503,941	-200,000	0,004	-0,013
-502,926	51,034	0,074	0,050
-501,912	-200,000	0,013	-0,046
-500,897	29,680	-0,114	0,070
-499,883	163,528	0,036	-0,037
-498,868	-23,596	-0,130	-0,056
-497,853	800,000	0,023	0,071
-496,839	301,302	0,030	-0,040
-495,824	800,000	0,040	0,094
-494,810	518,312	0,054	-0,091
-493,795	273,106	-0,044	0,057
-492,781	-200,000	-0,003	-0,042
-491,766	573,332	0,027	0,048
-490,751	-52,761	0,155	-0,051
-489,737	800,000	-0,058	-0,121
-488,722	-200,000	-0,010	0,047
-487,708	339,519	-0,068	0,096
-486,693	529,031	0,035	0,060
-485,678	800,000	-0,011	0,024
-484,664	800,000	-0,030	-0,085
-483,649	3,502	-0,046	-0,024
-482,635	-3,268	0,071	-0,035
-481,620	310,177	0,111	0,150
-480,605	-10,279	0,063	-0,030
-479,591	-200,000	-0,002	-0,030
-478,576	-92,430	-0,186	-0,037
-477,562	129,612	0,042	0,039
-476,547	-67,199	-0,082	0,023
-475,532	798,122	0,059	0,117
-474,518	210,370	0,051	0,058
-473,503	-200,000	-0,029	0,119
-472,489	-200,000	0,003	0,088
-471,474	487,105	0,068	0,112
-470,459	-127,253	-0,058	0,006
-469,445	-200,000	-0,000	0,140
-468,430	-200,000	0,027	0,109
-467,416	-166,111	0,103	0,003
-466,401	-26,622	0,059	0,025
-465,386	734,043	-0,025	-0,048
-464,372	-200,000	-0,043	0,157
-463,357	-200,000	0,033	-0,155
-462,343	-200,000	0,036	-0,162
-461,328	-200,000	0,009	-0,057
-460,313	-68,868	0,093	0,026
-459,299	-200,000	-0,008	-0,183
-458,284	104,370	0,112	-0,095
-457,270	-200,000	0,001	0,031
-456,255	142,212	-0,054	0,052
-455,241	-200,000	-0,001	0,115
-454,226	-93,904	-0,135	-0,026
-453,211	-200,000	0,009	-0,103
-452,197	-97,527	0,149	-0,028
-451,182	55,495	-0,083	0,058
-450,168	-33,462	0,063	0,025
-449,153	342,899	0,073	-0,103
-448,138	147,932	0,041	-0,040
-447,124	800,000	-0,032	-0,079
-446,109	-56,364	-0,103	0,033
-445,095	-89,231	0,152	0,032
-444,080	-91,404	-0,008	-0,002
-443,065	-21,256	-0,153	0,067
-442,051	-200,000	-0,009	-0,060
-441,036	-200,000	0,027	-0,122
-440,022	161,625	0,065	0,065
-439,007	161,950	-0,088	0,089
-437,992	-164,902	0,081	0,003
-436,978	619,699	0,035	0,064
-435,963	-54,160	-0,048	-0,015
-434,949	244,263	-0,037	0,045
-433,934	-58,654	0,072	0,022
-432,919	-200,000	0,006	-0,093
-431,905	43,012	0,087	0,057
-430,890	-200,000	0,021	0,129
-429,876	703,965	0,029	0,054
-428,861	193,879	0,052	0,056
-427,846	319,702	0,042	0,057
-426,832	-200,000	-0,017	-0,114
-425,817	-111,007	-0,056	0,008
-424,803	29,798	-0,034	0,021
-423,788	-37,792	-0,092	0,035
-422,773	10,751	0,084	0,046
-421,759	-200,000	0,005	-0,092
-420,744	28,993	-0,043	0,026
-419,730	-200,000	-0,001	-0,039
-418,715	-31,388	-0,124	0,050
-417,701	20,142	-0,149	-0,086
-416,686	-34,179	0,121	0,047
-415,671	-61,362	0,098	-0,029
-414,657	-200,000	-0,015	0,076
-413,642	-200,000	0,018	0,085
-412,628	-180,247	-0,136	0,002
-411,613	-200,000	-0,012	-0,073
-410,598	800,000	-0,037	-0,092
-409,584	58,791	0,064	0,045
-408,569	192,331	-0,063	-0,068
-407,555	335,499	0,046	0,065
-406,540	800,000	-0,038	0,116
-405,525	192,079	-0,096	0,104
-404,511	443,548	-0,111	-0,176
-403,496	-29,692	-0,038	0,015
-402,482	743,073	0,018	-0,034
-401,467	-200,000	-0,021	-0,077
-400,452	-200,000	-0,000	-0,105
-399,438	191,825	0,057	-0,062
-398,423	-139,864	0,060	0,004
-397,409	137,815	0,044	-0,041
-396,394	-200,000	0,003	-0,097
-395,379	116,566	0,112	0,098
-394,365	-50,885	0,104	0,035
-393,350	-71,249	0,052	0,014
-392,336	462,335	0,076	0,121
-391,321	800,000	0,038	0,092
-390,306	-109,191	-0,144	-0,022
-389,292	-141,264	-0,093	0,007
-388,277	-61,354	-0,059	0,018
-387,263	-116,352	0,134	-0,018
-386,248	316,126	-0,035	-0,048
-385,233	588,582	0,061	-0,108
-384,219	-69,476	-0,011	0,003
-383,204	-200,000	0,049	-0,170
-382,190	-15,673	-0,034	-0,016
-381,175	-122,100	0,043	-0,005
-380,160	800,000	-0,066	0,202
-379,146	-62,007	-0,011	0,003
-378,131	395,495	-0,027	-0,040
-377,117	202,702	-0,044	-0,048
-376,102	800,000	0,031	0,069
-375,088	84,857	0,073	-0,058
-374,073	-200,000	-0,011	0,059
-373,058	-42,872	0,062	-0,022
-372,044	30,089	-0,090	0,055
-371,029	-200,000	-0,003	-0,038
-370,015	611,059	0,035	0,062
-369,000	208,672	-0,041	-0,046
-367,985	70,258	-0,028	-0,020
-366,971	-122,509	-0,073	-0,008
-365,956	95,134	0,147	-0,120
-364,942	-64,514	0,023	-0,007
-363,927	114,947	0,098	-0,086
-362,912	377,949	-0,048	-0,070
-361,898	125,950	-0,109	0,098
-360,883	64,226	-0,042	0,030
-359,869	104,789	-0,078	-0,065
-358,854	-200,000	0,023	0,138
-357,839	-200,000	-0,004	0,050
-356,825	-51,009	-0,126	0,042
-355,810	-96,654	-0,054	-0,010
-354,796	47,587	0,064	0,042
-353,781	154,171	-0,071	0,069
-352,766	800,000	-0,076	-0,157
-351,752	800,000	0,050	0,152
-350,737	235,684	0,129	-0,153
-349,723	-105,924	-0,058	-0,009
-348,708	800,000	0,040	0,126
-347,693	35,698	-0,082	-0,052
-346,679	-95,071	0,122	-0,023
-345,664	800,000	-0,093	-0,196
-344,650	78,810	-0,062	0,047
-343,635	65,140	-0,005	-0,003
-342,620	-134,204	-0,119	0,010
-341,606	-200,000	0,001	0,055
-340,591	-86,187	0,092	0,020
-339,577	31,434	-0,050	-0,031
-338,562	16,271	0,072	0,041
-337,548	132,616	0,075	0,070
-336,533	46,993	0,041	0,027
-335,518	-51,805	0,081	0,027
-334,504	303,958	-0,108	0,144
-333,489	194,219	0,075	-0,081
-332,475	647,546	-0,007	0,014
-331,460	301,689	-0,042	-0,055
-330,445	340,621	0,061	-0,086
-329,431	8,826	0,138	0,074
-328,416	-58,175	0,049	-0,015
-327,402	407,765	-0,028	0,042
-326,387	-200,000	0,004	-0,128
-325,372	-200,000	0,043	-0,196
-324,358	-200,000	-0,019	0,066
-323,343	129,606	0,032	0,029
-322,329	-133,442	-0,030	-0,003
-321,314	465,259	0,055	0,088
-320,299	62,808	0,145	0,104
-319,285	-77,835	0,067	0,016
-318,270	-124,062	0,075	-0,008
-317,256	-200,000	0,035	-0,138
-316,241	422,163	0,056	-0,086
-315,226	-75,067	0,128	-0,033
-314,212	276,465	0,067	-0,085
-313,197	800,000	-0,021	0,042
-312,183	166,394	0,020	-0,021
-311,168	-200,000	-0,007	-0,093
-310,153	-200,000	-0,007	-0,105
-309,139	290,822	0,056	-0,073
-308,124	-200,000	0,006	0,020
-307,110	98,657	0,142	0,117
-306,095	-10,445	-0,072	0,034
-305,080	16,938	-0,098	0,055
-304,066	108,834	-0,035	-0,030
-303,051	-154,402	-0,010	-0,000
-302,037	-200,000	-0,004	-0,072
-301,022	-130,934	0,152	0,014
-300,008	-200,000	0,015	0,089
-298,993	157,680	0,039	0,038
-297,978	-98,678	-0,080	0,014
-296,964	138,375	0,046	-0,043
-295,949	108,537	-0,069	-0,059
-294,935	737,437	0,013	0,025
-293,920	693,782	0,007	-0,014
-292,905	-200,000	0,027	0,086
-291,891	54,583	-0,053	0,036
-290,876	-200,000	-0,006	0,090
-289,862	86,127	-0,120	-0,094
-288,847	-155,569	0,171	0,008
-287,832	800,000	0,052	-0,130
-286,818	247,605	-0,126	-0,152
-285,803	-200,000	-0,016	-0,100
-284,789	-200,000	0,027	0,124
-283,774	-26,054	0,053	0,022
-282,759	457,312	0,021	-0,034
-281,745	-69,541	0,051	-0,014
-280,730	116,061	-0,104	-0,091
-279,716	-119,260	0,085	0,010
-278,701	800,000	-0,016	0,042
-277,686	-200,000	-0,002	-0,058
-276,672	200,330	-0,030	-0,033
-275,657	571,002	0,054	0,094
-274,643	67,050	-0,117	0,085
-273,628	800,000	-0,056	-0,137
-272,613	167,390	0,125	0,126
-271,599	-64,606	-0,128	-0,037
-270,584	-0,144	-0,080	0,041
-269,570	-69,075	0,097	-0,026
-268,555	414,221	0,055	0,085
-267,540	-82,301	-0,110	0,025
-266,526	406,875	-0,014	-0,021
-265,511	800,000	0,020	-0,041
-264,497	90,123	0,049	-0,039
-263,482	800,000	0,061	0,126
-262,467	-200,000	0,052	0,240
-261,453	122,307	0,056	0,050
-260,438	121,776	-0,075	0,066
-259,424	-51,998	0,047	-0,015
-258,409	-157,936	0,106	0,004
-257,395	-200,000	0,005	0,056
-256,380	-80,921	0,039	0,009
-255,365	-126,515	0,168	0,018
-254,351	-101,078	-0,015	0,003
-253,336	-144,652	-0,141	-0,009
-252,322	800,000	0,021	-0,053
-251,307	33,327	0,044	0,027
-250,292	-200,000	-0,033	0,189
-249,278	28,542	0,153	0,092
-248,263	-200,000	-0,004	0,073
-247,249	800,000	0,076	0,229
-246,234	-179,837	0,105	-0,002
-245,219	294,589	-0,116	-0,152
-244,205	334,896	-0,053	-0,074
-243,190	593,090	0,018	0,032
-242,176	-30,006	0,063	-0,025
-241,161	-121,230	0,097	-0,011
-240,146	-11,757	-0,020	-0,009
-239,132	-90,685	-0,067	0,014
-238,117	493,775	-0,045	-0,074
-237,103	-200,000	-0,012	0,099
-236,088	-24,685	0,042	0,018
-235,073	-200,000	-0,020	0,141
-234,059	125,816	0,079	-0,071
-233,044	115,413	-0,092	-0,080
-232,030	161,937	0,057	0,057
-231,015	-200,000	-0,020	-0,092
-230,000	-200,000	0,031	-0,113
-228,986	-65,354	0,073	-0,021
-227,971	-86,698	0,137	-0,030
-226,957	-200,000	-0,024	0,089
-225,942	-85,004	-0,007	0,002
-224,927	239,180	-0,058	-0,069
-223,913	-17,740	-0,122	0,054
-222,898	221,728	-0,062	-0,071
-221,884	800,000	-0,064	-0,145
-220,869	-200,000	0,005	0,044
-219,855	-200,000	-0,007	-0,038
-218,840	800,000	0,050	0,115
-217,825	-200,000	0,005	0,028
-216,811	-82,683	0,061	0,014
-215,796	-124,910	-0,097	-0,011
-214,782	99,354	-0,059	-0,049
-213,767	-200,000	-0,016	0,120
-212,752	-200,000	0,021	0,075
-211,738	207,627	-0,030	-0,033
-210,723	4,904	-0,108	0,057
-209,709	192,752	-0,035	-0,038
-208,694	-200,000	0,016	-0,151
-207,679	-196,435	-0,126	0,001
-206,665	178,437	0,060	0,063
-205,650	-200,000	0,001	0,105
-204,636	-35,021	0,033	0,013
-203,621	-200,000	-0,025	0,091
-202,606	-14,142	-0,078	0,036
-201,592	-115,857	0,147	-0,019
-200,577	67,881	-0,033	-0,024
-199,563	-200,000	0,001	0,041
-198,548	205,677	0,028	-0,031
-197,533	-200,000	-0,009	0,038
-196,519	800,000	0,023	0,050
-195,504	84,272	-0,120	-0,093
-194,490	-55,825	-0,018	-0,006
-193,475	-66,041	-0,216	-0,061
-192,460	-200,000	-0,002	-0,016
-191,446	128,719	0,061	0,055
-190,431	-200,000	-0,008	-0,121
-189,417	800,000	0,030	-0,085
-188,402	-116,395	-0,077	-0,010
-187,387	340,644	0,048	-0,066
-186,373	94,366	0,027	0,022
-185,358	-200,000	-0,021	0,086
-184,344	-169,396	0,096	0,002
-183,329	44,024	-0,023	0,015
-182,315	-200,000	0,001	-0,055
-181,300	800,000	-0,051	-0,127
-180,285	155,762	-0,055	0,054
-179,271	-76,585	0,012	0,003
-178,256	800,000	-0,051	-0,103
-177,242	58,859	-0,111	0,077
-176,227	140,268	0,193	0,181
-175,212	222,210	-0,079	0,091
-174,198	116,785	-0,017	0,015
-173,183	-98,179	-0,022	-0,004
-172,169	507,175	-0,042	-0,070
-171,154	-63,206	-0,098	0,029
-170,139	-91,873	0,090	-0,018
-169,125	-74,415	-0,072	0,018
-168,110	800,000	-0,036	0,075
-167,096	-51,223	0,123	0,041
-166,081	25,246	-0,050	-0,029
-165,066	28,644	-0,078	-0,047
-164,052	414,564	-0,048	0,073
-163,037	-115,225	0,099	0,013
-162,023	-200,000	0,002	0,112
-161,008	19,632	0,064	-0,036
-159,993	-136,780	0,068	0,005
-158,979	-200,000	-0,002	-0,066
-157,964	314,439	-0,026	-0,035
-156,950	-67,452	-0,027	-0,007
-155,935	449,291	-0,017	0,027
-154,920	71,243	0,154	0,113
-153,906	-74,850	0,111	0,028
-152,891	-145,512	-0,171	-0,011
-151,877	-200,000	0,005	-0,093
-150,862	800,000	-0,024	-0,075
-149,847	-124,778	-0,168	0,018
-148,833	459,922	0,036	0,057
-147,818	267,853	-0,084	0,105
-146,804	153,255	0,102	0,099
-145,789	-93,454	0,166	0,032
-144,775	-19,500	0,093	0,041
-143,760	-80,401	-0,144	-0,034
-142,745	-91,406	-0,061	-0,012
-141,731	26,315	0,029	-0,017
-140,716	-143,986	-0,098	-0,006
-139,702	696,235	0,016	0,030
-138,687	-2,505	-0,137	0,068
-137,672	224,053	-0,071	-0,081
-136,658	108,525	-0,082	0,069
-135,643	-200,000	0,001	0,007
-134,629	-200,000	0,006	0,139
-133,614	-109,492	-0,102	0,015
-132,599	50,002	-0,118	0,079
-131,585	118,151	-0,023	-0,020
-130,570	-200,000	-0,002	0,054
-129,556	447,493	0,031	0,049
-128,541	-110,437	-0,067	0,010
-127,526	-99,303	-0,026	0,005
-126,512	765,146	-0,028	0,054
-125,497	659,295	0,073	0,133
-124,483	127,486	-0,065	0,058
-123,468	711,982	-0,085	0,161
-122,453	-200,000	-0,022	-0,134
-121,439	13,239	-0,046	0,025
-120,424	158,258	0,016	-0,016
-119,410	238,352	0,032	-0,038
-118,395	52,959	0,142	-0,096
-117,380	800,000	0,016	0,048
-116,366	-75,645	-0,093	-0,023
-115,351	800,000	-0,009	0,024
-114,337	296,355	-0,104	-0,136
-113,322	-200,000	-0,001	-0,035
-112,307	217,215	-0,079	0,089
-111,293	-200,000	0,020	0,094
-110,278	-119,504	0,097	-0,012
-109,264	59,655	-0,059	0,041
-108,249	-101,271	-0,100	0,017
-107,234	800,000	0,009	0,028
-106,220	-119,696	-0,090	-0,011
-105,205	800,000	0,051	0,124
-104,191	262,075	0,051	-0,062
-103,176	-200,000	-0,023	-0,076
-102,162	-144,325	-0,144	-0,009
-101,147	41,764	0,087	0,056
-100,132	-23,266	0,035	-0,015
-99,118	800,000	-0,029	0,070
-98,103	-47,179	0,136	-0,047
-97,089	104,261	-0,040	0,033
-96,074	-200,000	0,002	0,056
-95,059	-73,890	-0,106	0,027
-94,045	800,000	-0,049	0,101
-93,030	-116,330	-0,200	0,026
-92,016	-67,194	-0,069	0,019
-91,001	-59,061	-0,037	-0,011
-89,986	186,086	0,154	0,163
-88,972	119,547	0,083	0,073
-87,957	82,334	-0,135	0,104
-86,943	-86,980	-0,048	0,010
-85,928	800,000	-0,016	-0,045
-84,913	-109,077	0,052	-0,008
-83,899	342,005	0,008	-0,011
-82,884	-200,000	0,005	0,187
-81,870	207,417	0,072	0,080
-80,855	-71,819	-0,116	0,030
-79,840	0,850	-0,121	0,061
-78,826	94,593	0,092	-0,074
-77,811	305,480	-0,094	-0,124
-76,797	143,575	-0,095	0,089
-75,782	122,054	-0,113	-0,100
-74,767	545,306	0,018	0,031
-73,753	-64,329	-0,063	-0,018
-72,738	-200,000	-0,019	0,065
-71,724	800,000	-0,032	-0,093
-70,709	800,000	-0,036	-0,084
-69,694	-11,675	-0,046	-0,021
-68,680	-168,285	-0,116	0,003
-67,665	103,953	0,099	0,083
-66,651	-200,000	0,017	0,224
-65,636	-200,000	-0,005	0,129
-64,622	-200,000	-0,009	0,049
-63,607	800,000	-0,021	-0,051
-62,592	-22,993	-0,217	0,092
-61,578	-28,286	-0,100	-0,041
-60,563	-49,245	0,016	0,005
-59,549	683,326	0,096	0,177
-58,534	-32,617	-1,477	-0,580
-57,519	369,639	-1,399	-2,013
-56,505	-200,000	-0,534	-4,426
-55,490	198,769	0,958	1,040
-54,476	800,000	4,880	11,530
-53,461	-200,000	18,785	306,147
-52,446	800,000	737,098	2298,173
-51,432	568,633	1653,572	2856,593
-50,417	79,014	1670,218	1265,067
-49,403	22,043	1543,349	889,156
-48,388	15,935	1465,981	814,904
-47,373	17,745	1456,273	818,219
-46,359	16,872	1446,291	808,393
-45,344	14,202	1441,818	793,075
-44,330	14,147	1439,698	791,614
-43,315	14,145	1437,915	790,592
-42,300	14,160	1436,322	789,758
-41,286	14,150	1435,051	788,979
-40,271	14,069	1433,877	787,918
-39,257	14,099	1432,763	787,414
-38,242	14,182	1431,333	786,995
-37,227	14,214	1430,060	786,417
-36,213	14,211	1428,759	785,655
-35,198	14,205	1427,497	784,902
-34,184	14,203	1426,822	784,487
-33,169	14,164	1425,348	783,464
-32,154	14,208	1424,233	783,025
-31,140	14,190	1422,954	782,208
-30,125	14,168	1421,973	781,533
-29,111	14,184	1420,944	781,014
-28,096	14,139	1419,705	780,090
-27,082	14,133	1418,577	779,408
-26,067	14,119	1417,391	778,662
-25,052	14,148	1416,427	778,237
-24,038	14,100	1415,421	777,424
-23,023	14,041	1414,782	776,770
-22,009	14,083	1413,574	776,273
-20,994	14,059	1412,677	775,633
-19,979	14,037	1411,834	775,040
-18,965	13,998	1410,847	774,281
-17,950	14,014	1409,894	773,803
-16,936	14,052	1408,812	773,357
-15,921	13,987	1407,781	772,457
-14,906	14,013	1406,935	772,084
-13,892	13,998	1405,967	771,452
-12,877	13,994	1405,102	770,929
-11,863	13,981	1404,182	770,333
-10,848	13,959	1403,438	769,791
-9,833	13,936	1402,600	769,194
-8,819	13,905	1401,614	768,479
-7,804	13,909	1400,647	767,935
-6,790	13,947	1399,539	767,473
-5,775	13,888	1398,521	766,609
-4,760	13,870	1397,666	766,026
-3,746	13,908	1396,756	765,675
-2,731	13,899	1395,841	765,100
-1,717	13,856	1395,186	764,514
-0,702	13,882	1393,266	763,552
0,313	17,682	1310,963	736,071
1,327	33,982	705,644	433,947
2,342	51,782	123,899	83,282
3,356	2,927	16,585	8,494
4,371	-8,384	3,210	1,521
5,386	-39,240	0,553	0,205
6,400	119,485	0,131	0,115
7,415	180,544	-0,213	-0,221
8,429	120,969	-0,201	-0,177
9,444	-93,406	-0,321	-0,062
10,459	84,757	-0,270	-0,209
11,473	59,646	-0,315	-0,220
12,488	117,494	-0,255	-0,222
13,502	-95,925	-0,368	-0,069
14,517	145,121	-0,297	-0,281
15,531	80,024	-0,415	-0,315
16,546	305,837	-0,272	-0,359
17,561	124,152	-0,337	-0,300
18,575	-4,923	-0,306	-0,148
19,590	124,116	-0,205	-0,182
20,604	158,267	-0,185	-0,181
21,619	-93,719	-0,414	-0,080
22,634	-32,462	-0,496	-0,194
23,648	93,221	-0,377	-0,301
24,663	-6,522	-0,548	-0,263
25,677	78,840	-0,416	-0,314
26,692	57,621	-0,376	-0,259
27,707	231,890	-0,217	-0,251
28,721	171,622	-0,406	-0,412
29,736	290,953	-0,325	-0,419
30,750	157,539	-0,440	-0,430
31,765	-14,256	-0,369	-0,167
32,780	177,473	-0,297	-0,305
33,794	173,576	-0,312	-0,318
34,809	147,379	-0,309	-0,294
35,823	192,377	-0,404	-0,431
36,838	98,350	-0,377	-0,306
37,853	359,860	-0,352	-0,498
38,867	44,003	-0,456	-0,294
39,882	43,189	-0,255	-0,164
40,896	36,985	-0,290	-0,180
41,911	69,940	-0,293	-0,213
42,926	31,620	-0,280	-0,169
43,940	69,514	-0,311	-0,226
44,955	31,135	-0,371	-0,224
45,969	-67,125	-0,440	-0,121
46,984	186,174	-0,240	-0,252
47,999	72,440	-0,283	-0,207
49,013	391,197	-0,167	-0,245
50,028	9,651	-0,350	-0,186
51,042	121,716	-0,292	-0,257
52,057	6,654	-0,375	-0,196
53,071	201,646	-0,315	-0,343
54,086	-30,997	-0,426	-0,169
55,101	-29,233	-0,257	-0,103
56,115	358,886	-0,223	-0,315
57,130	21,981	-0,360	-0,206
58,144	-40,538	-0,401	-0,146
59,159	-53,044	-0,272	-0,088
60,174	-7,406	-0,464	-0,220
61,188	-53,837	-0,371	-0,118
62,203	3,395	-0,305	-0,156
63,217	-22,368	-0,400	-0,170
64,232	7,422	-0,350	-0,184
65,247	438,270	-0,197	-0,303
66,261	3,646	-0,398	-0,204
67,276	0,038	-0,350	-0,175
68,290	-11,651	-0,440	-0,203
69,305	84,796	-0,382	-0,294
70,320	101,557	-0,312	-0,255
71,334	15,207	-0,256	-0,141
72,349	218,662	-0,331	-0,373
73,363	-12,262	-0,443	-0,203
74,378	186,897	-0,254	-0,267
75,393	134,091	-0,198	-0,180
76,407	11,135	-0,286	-0,154
77,422	52,864	-0,302	-0,203
78,436	53,194	-0,233	-0,157
79,451	-63,926	-0,337	-0,096
80,466	52,976	-0,251	-0,168
81,480	83,243	-0,349	-0,267
82,495	58,912	-0,268	-0,185
83,509	67,688	-0,268	-0,192
84,524	109,940	-0,282	-0,238
85,539	63,514	-0,281	-0,198
86,553	30,136	-0,354	-0,212
87,568	-45,755	-0,447	-0,154
88,582	69,708	-0,325	-0,235
89,597	123,593	-0,221	-0,195
90,611	260,019	-0,239	-0,291
91,626	12,224	-0,122	0,066
92,641	62,916	-0,210	-0,147
93,655	451,835	-0,163	-0,254
94,670	21,244	-0,318	-0,181
95,684	-73,869	-0,271	-0,069
96,699	39,242	-0,222	-0,139
97,714	-63,286	-0,210	-0,060
98,728	222,316	-0,293	-0,331
99,743	42,853	-0,289	-0,184
100,757	-88,038	-0,256	-0,054
101,772	90,960	-0,417	-0,328
102,787	5,492	-0,276	-0,143
103,801	398,992	-0,219	-0,323
104,816	240,349	-0,109	-0,127
105,830	-16,870	-0,342	-0,151
106,845	227,941	-0,138	-0,158
107,860	207,214	-0,238	-0,261
108,874	132,865	-0,342	-0,309
109,889	-60,540	-0,294	-0,087
110,903	23,855	-0,263	-0,152
111,918	-69,843	-0,262	-0,069
112,933	-6,552	-0,256	-0,122
113,947	0,602	-0,233	-0,116
114,962	-23,966	-0,301	-0,126
115,976	95,095	-0,367	-0,292
116,991	57,201	-0,243	-0,166
118,006	298,201	-0,246	-0,317
119,020	53,275	-0,188	-0,126
120,035	116,409	-0,172	-0,147
121,049	33,336	-0,234	-0,142
122,064	97,085	-0,164	-0,132
123,079	800,000	-0,118	-0,236
124,093	101,197	-0,303	-0,247
125,108	-94,152	-0,327	-0,062
126,122	-30,215	-0,256	-0,101
127,137	224,313	-0,168	-0,190
128,151	-29,430	-0,252	-0,100
129,166	-3,909	-0,272	-0,131
130,181	-16,987	-0,301	-0,132
131,195	244,144	-0,221	-0,260
132,210	248,347	-0,155	-0,183
133,224	194,776	-0,228	-0,242
134,239	199,911	-0,218	-0,234
135,254	-14,123	-0,190	-0,085
136,268	-21,138	-0,251	-0,107
137,283	141,341	-0,268	-0,249
138,297	172,754	-0,248	-0,250
139,312	800,000	-0,107	-0,211
140,327	300,772	-0,336	-0,434
141,341	42,200	-0,241	-0,153
142,356	-124,633	-0,190	-0,020
143,370	79,071	-0,263	-0,197
144,385	36,770	-0,310	-0,191
145,400	133,591	-0,236	-0,213
146,414	800,000	-0,089	-0,205
147,429	31,306	-0,224	-0,134
148,443	-17,979	-0,341	-0,149
149,458	-17,470	-0,249	-0,109
150,473	588,164	-0,159	-0,274
151,487	233,665	-0,197	-0,227
152,502	800,000	-0,067	-0,167
153,516	26,447	-0,280	-0,163
154,531	673,638	-0,198	-0,360
155,546	282,908	-0,185	-0,233
156,560	-0,416	-0,389	-0,192
157,575	-90,293	-0,209	-0,042
158,589	531,108	-0,159	-0,264
159,604	14,811	-0,357	-0,195
160,619	108,219	-0,290	-0,241
161,633	137,389	-0,296	-0,270
162,648	236,053	-0,164	-0,190
163,662	89,237	-0,221	-0,172
164,677	-62,396	-0,248	-0,072
165,692	404,597	-0,238	-0,351
166,706	501,973	-0,180	-0,291
167,721	138,125	-0,251	-0,230
168,735	36,619	-0,297	-0,182
169,750	47,101	-0,241	-0,156
170,764	16,816	-0,261	-0,144
171,779	259,994	-0,148	-0,179
172,794	238,111	-0,170	-0,197
173,808	-133,302	-0,183	-0,016
174,823	188,266	-0,233	-0,243
175,837	-67,917	-0,299	-0,081
176,852	295,878	-0,153	-0,195
177,867	-22,759	-0,156	-0,065
178,881	-200,000	-0,172	-0,000
179,896	19,996	-0,237	-0,133
180,910	75,190	-0,385	-0,282
181,925	-75,302	-0,231	-0,057
182,940	182,012	-0,212	-0,218
183,954	28,577	-0,302	-0,178
184,969	589,132	-0,155	-0,267
185,983	1,198	-0,334	-0,167
186,998	238,628	-0,199	-0,230
188,013	50,674	-0,250	-0,165
189,027	-27,923	-0,325	-0,130
190,042	201,501	-0,257	-0,276
191,056	-33,823	-0,415	-0,158
192,071	141,118	-0,228	-0,210
193,086	-200,000	-0,027	-0,162
194,100	-103,851	-0,249	-0,040
195,115	-86,557	-0,217	-0,046
196,129	678,377	-0,133	-0,242
197,144	67,647	-0,234	-0,166
198,159	29,684	-0,197	-0,116
199,173	-2,542	-0,221	-0,107
200,188	-86,385	-0,153	0,032
201,202	196,908	-0,194	-0,206
202,217	269,130	-0,203	-0,249
203,232	800,000	-0,085	-0,202
204,246	125,766	-0,309	-0,271
205,261	61,961	-0,265	-0,183
206,275	195,489	-0,184	-0,194
207,290	389,904	-0,175	-0,253
208,304	39,434	-0,203	-0,126
209,319	-12,803	-0,236	-0,107
210,334	157,677	-0,252	-0,242
211,348	446,846	-0,169	-0,259
212,363	160,223	-0,232	-0,225
213,377	173,318	-0,157	-0,157
214,392	800,000	-0,098	-0,218
215,407	-99,112	-0,184	-0,032
216,421	40,272	-0,098	-0,061
217,436	80,639	-0,135	-0,101
218,450	25,745	-0,273	-0,157
219,465	-3,244	-0,282	-0,136
220,480	263,029	-0,231	-0,279
221,494	650,027	-0,146	-0,261
222,509	359,394	-0,086	-0,119
223,523	-26,549	-0,283	-0,115
224,538	-101,254	-0,224	-0,038
225,553	-133,380	-0,163	-0,014
226,567	-45,568	-0,163	-0,056
227,582	-18,039	-0,097	-0,042
228,596	-183,701	-0,079	0,001
229,611	51,151	-0,190	-0,125
230,626	191,075	-0,126	-0,131
231,640	-82,716	-0,245	0,054
232,655	128,460	-0,185	-0,163
233,669	-135,701	-0,243	-0,020
234,684	224,404	-0,172	-0,193
235,699	-11,464	-0,241	-0,109
236,713	67,428	-0,290	-0,205
237,728	77,635	-0,150	-0,110
238,742	234,632	-0,179	-0,204
239,757	-137,824	-0,317	-0,024
240,772	23,242	-0,258	-0,147
241,786	148,510	-0,172	-0,161
242,801	36,191	-0,157	-0,096
243,815	24,745	-0,234	-0,134
244,830	-82,162	-0,249	-0,056
245,844	16,598	-0,165	-0,090
246,859	-41,425	-0,262	-0,093
247,874	800,000	-0,124	-0,250
248,888	-64,709	-0,140	-0,039
249,903	24,146	-0,188	-0,107
250,917	612,732	-0,141	-0,246
251,932	-136,818	-0,183	-0,014
252,947	75,509	-0,113	-0,082
253,961	20,245	-0,197	-0,110
254,976	344,664	-0,183	-0,249
255,990	-127,098	-0,171	0,017
257,005	20,591	-0,170	-0,095
258,020	-14,793	-0,049	-0,022
259,034	-45,289	-0,133	-0,045
260,049	-16,562	-0,138	-0,060
261,063	-82,635	-0,153	-0,034
262,078	-200,000	-0,083	-0,265
263,093	-51,079	-0,065	-0,021
264,107	123,451	-0,114	-0,099
265,122	-51,664	-0,197	-0,063
266,136	181,887	-0,131	-0,133
267,151	800,000	-0,121	-0,260
268,166	148,311	-0,264	-0,247
269,180	51,688	-0,279	-0,183
270,195	-154,358	-0,193	0,009
271,209	-80,365	-0,270	-0,062
272,224	-3,698	-0,142	-0,068
273,239	800,000	-0,111	-0,220
274,253	800,000	-0,044	-0,126
275,268	3,693	-0,176	-0,088
276,282	-62,406	-0,145	-0,042
277,297	126,297	-0,226	-0,198
278,312	3,507	-0,282	-0,141
279,326	491,578	-0,129	-0,204
280,341	-38,069	-0,174	-0,063
281,355	35,138	-0,199	-0,120
282,370	162,710	-0,183	-0,178
283,384	-138,940	-0,201	-0,015
284,399	800,000	-0,084	-0,247
285,414	221,714	-0,149	-0,165
286,428	800,000	-0,099	-0,232
287,443	-70,344	-0,117	-0,030
288,457	-81,060	-0,196	-0,044
289,472	500,888	-0,073	-0,116
290,487	-55,932	-0,103	0,032
291,501	161,707	-0,262	-0,253
292,516	-200,000	-0,045	-0,198
293,530	-61,018	-0,136	0,039
294,545	-141,637	-0,141	-0,010
295,560	-104,210	-0,150	-0,024
296,574	-63,189	-0,209	0,059
297,589	-200,000	-0,034	-0,217
298,603	-12,882	-0,197	-0,088
299,618	85,415	-0,150	-0,113
300,633	-200,000	-0,216	0,000
301,647	-69,645	-0,160	-0,042
302,662	588,609	-0,159	-0,272
303,676	-200,000	-0,088	-0,275
304,691	-81,032	-0,145	-0,033
305,706	-103,524	-0,134	-0,022
306,720	114,820	-0,129	-0,108
307,735	800,000	-0,117	-0,234
308,749	580,147	-0,121	-0,206
309,764	119,606	-0,136	0,116
310,779	-109,657	-0,224	-0,032
311,793	800,000	-0,040	-0,112
312,808	-129,178	-0,234	-0,022
313,822	18,680	-0,272	-0,150
314,837	672,315	-0,128	-0,229
315,852	139,660	-0,135	-0,123
316,866	123,927	-0,033	-0,028
317,881	111,578	-0,082	-0,068
318,895	-43,370	-0,206	-0,071
319,910	-0,733	-0,172	-0,083
320,925	23,211	-0,161	-0,091
321,939	18,945	-0,087	-0,048
322,954	750,287	-0,056	-0,104
323,968	141,505	-0,163	0,149
324,983	-200,000	-0,205	-0,000
325,997	170,045	-0,122	-0,120
327,012	3,039	-0,254	-0,127
328,027	170,991	-0,117	-0,116
329,041	254,096	-0,196	-0,231
330,056	204,636	-0,035	-0,037
331,070	-200,000	-0,027	-0,085
332,085	-127,160	-0,112	0,011
333,100	98,924	-0,223	-0,177
334,114	91,778	-0,137	-0,106
335,129	176,153	-0,175	-0,175
336,143	258,764	-0,079	-0,094
337,158	-101,379	-0,087	-0,015
338,173	18,887	-0,110	-0,060
339,187	11,989	-0,154	0,081
340,202	-200,000	0,002	-0,118
341,216	800,000	-0,020	-0,050
342,231	59,658	-0,147	-0,099
343,246	226,670	-0,102	-0,114
344,260	675,830	-0,088	-0,157
345,275	142,381	-0,071	-0,065
346,289	-96,212	-0,089	0,016
347,304	427,369	-0,121	-0,179
348,319	306,655	-0,067	-0,086
349,333	-200,000	0,020	-0,061
350,348	86,473	-0,075	-0,057
351,362	-34,907	-0,148	-0,055
352,377	-66,036	-0,067	-0,018
353,392	282,273	-0,079	-0,097
354,406	-62,016	-0,144	0,041
355,421	209,803	1314,795	1416,312
356,435	161,485	1475,537	1416,800
