DTS Sentinel unit serial number:	SN410029Multiplexer serial number:	ORYXHardware model number:	OX2-SRSoftware version number:	ORYX F/W v4,00 Oryx Data Collector v3.7.2.0data status	okinstallation	B3 Nyhavnadifferential loss correction	single-endedforward channel	channel 1reverse channel	N/Adate	2023/12/02time	09:32:30forward acquisition time	300,00reverse acquisition time	0,00gamma	499,1914k internal	0,3196k external	0,3196temperature offset calibration	1,0000default loss term (dB/km)	0,3820temperature slope calibration	1,0000multiplexer offset coefficient	1,0000multiplexer slope coefficient	1,0000fibre end	0,00T internal ref (°C)	15,06T ext. ref 1 (°C)	-0,48T ext. ref 2 (°C)	-0,48length (m)	temperature (°C)	Stokes	anti-Stokes-744,400	435,084	-0,165	-0,263
-743,385	-200,000	-0,062	0,358
-742,371	485,343	-0,117	-0,195
-741,356	800,000	0,156	0,318
-740,342	735,647	-0,182	-0,358
-739,327	-200,000	0,006	0,353
-738,312	108,291	-0,274	-0,238
-737,298	-200,000	-0,014	0,294
-736,283	800,000	-0,131	-0,315
-735,269	-200,000	0,064	0,206
-734,254	619,271	-0,119	-0,218
-733,239	-134,256	-0,187	0,017
-732,225	-200,000	-0,066	-0,253
-731,210	140,063	0,120	0,115
-730,196	-131,255	0,057	0,005
-729,181	-124,172	-0,101	-0,011
-728,167	-25,556	-0,055	-0,024
-727,152	363,878	0,061	-0,090
-726,137	-87,418	-0,101	-0,022
-725,123	-17,227	-0,118	-0,054
-724,108	350,683	-0,009	0,014
-723,094	800,000	-0,028	0,077
-722,079	-78,407	-0,087	-0,022
-721,064	800,000	0,023	-0,060
-720,050	-200,000	-0,013	-0,056
-719,035	-127,401	-0,193	-0,020
-718,021	564,803	-0,052	0,092
-717,006	-37,557	-0,049	0,019
-715,991	-200,000	0,029	-0,114
-714,977	251,988	0,014	-0,017
-713,962	30,158	-0,137	0,085
-712,948	-140,232	-0,038	-0,003
-711,933	800,000	-0,022	-0,047
-710,918	-91,700	0,063	0,013
-709,904	-200,000	-0,003	-0,016
-708,889	800,000	-0,033	-0,092
-707,875	-200,000	-0,007	-0,150
-706,860	199,523	0,003	0,003
-705,845	35,276	0,105	0,067
-704,831	-158,649	0,009	0,000
-703,816	-72,838	-0,162	-0,043
-702,802	-200,000	-0,011	-0,076
-701,787	9,750	-0,210	-0,115
-700,772	-200,000	-0,003	-0,176
-699,758	-15,238	0,086	-0,040
-698,743	-200,000	0,014	0,119
-697,729	-10,426	0,017	0,008
-696,714	800,000	0,047	0,115
-695,699	800,000	-0,028	-0,075
-694,685	-200,000	0,014	-0,072
-693,670	-200,000	-0,007	0,024
-692,656	131,319	-0,058	-0,054
-691,641	-58,161	-0,132	0,041
-690,627	-200,000	0,012	0,110
-689,612	-48,621	0,166	0,058
-688,597	-24,908	-0,091	-0,039
-687,583	-200,000	0,015	-0,127
-686,568	-200,000	-0,006	0,069
-685,554	800,000	0,024	0,052
-684,539	33,924	-0,066	0,042
-683,524	-138,117	0,127	0,010
-682,510	176,550	0,080	-0,084
-681,495	187,736	-0,073	-0,080
-680,481	-13,665	-0,189	-0,088
-679,466	273,377	-0,010	-0,013
-678,451	177,398	-0,057	0,061
-677,437	293,061	-0,037	-0,049
-676,422	355,149	-0,013	0,018
-675,408	-31,982	0,065	-0,026
-674,393	133,461	-0,065	0,061
-673,378	501,490	-0,086	-0,145
-672,364	58,119	0,135	0,096
-671,349	74,379	-0,068	0,052
-670,335	-153,419	0,105	0,005
-669,320	-113,521	0,070	-0,010
-668,305	-128,050	0,054	0,006
-667,291	7,686	-0,076	0,041
-666,276	800,000	-0,046	-0,096
-665,262	639,311	0,045	-0,083
-664,247	-172,256	-0,016	0,000
-663,232	800,000	0,041	-0,095
-662,218	382,261	0,040	-0,059
-661,203	-116,246	0,070	-0,009
-660,189	-200,000	0,031	0,121
-659,174	-48,027	-0,175	0,061
-658,159	-81,087	-0,089	-0,021
-657,145	1,666	-0,041	0,021
-656,130	800,000	-0,036	0,111
-655,116	106,687	-0,018	0,016
-654,101	38,077	-0,046	-0,029
-653,086	-107,771	-0,134	-0,021
-652,072	-200,000	0,014	-0,093
-651,057	43,877	0,092	-0,061
-650,043	-1,818	0,054	-0,027
-649,028	-23,403	-0,064	0,028
-648,014	-25,558	0,146	0,062
-646,999	177,833	-0,072	0,076
-645,984	-154,069	-0,104	-0,005
-644,970	-109,588	-0,102	-0,016
-643,955	-67,007	-0,097	0,028
-642,941	376,979	0,029	-0,044
-641,926	127,954	0,058	0,054
-640,911	-135,975	-0,146	-0,012
-639,897	-44,665	0,067	0,024
-638,882	84,562	0,086	-0,068
-637,868	800,000	-0,026	0,054
-636,853	132,292	-0,089	-0,083
-635,838	800,000	0,045	-0,093
-634,824	-75,673	-0,021	-0,005
-633,809	7,250	-0,062	0,034
-632,795	62,946	0,119	0,087
-631,780	435,193	0,075	0,119
-630,765	49,948	-0,122	-0,084
-629,751	-129,092	-0,021	0,002
-628,736	-47,795	0,029	0,010
-627,722	-64,890	-0,093	0,027
-626,707	-200,000	0,038	-0,164
-625,692	-28,230	-0,012	0,005
-624,678	219,057	0,017	0,020
-623,663	-200,000	0,001	0,106
-622,649	135,898	0,068	-0,064
-621,634	-82,597	-0,204	-0,048
-620,619	-200,000	-0,015	-0,086
-619,605	15,392	-0,075	-0,043
-618,590	51,192	-0,100	-0,069
-617,576	-18,428	0,085	0,038
-616,561	-200,000	0,089	0,000
-615,546	208,981	-0,046	-0,052
-614,532	680,392	-0,017	0,032
-613,517	-87,775	-0,090	0,019
-612,503	-123,690	0,036	-0,004
-611,488	-26,654	0,166	0,070
-610,474	332,576	0,021	0,029
-609,459	-200,000	-0,006	-0,053
-608,444	-184,820	-0,082	-0,001
-607,430	202,468	-0,109	0,122
-606,415	-200,000	-0,006	-0,041
-605,401	-101,045	0,016	0,003
-604,386	-103,448	0,112	0,019
-603,371	-155,435	0,097	0,004
-602,357	791,633	-0,045	0,090
-601,342	-200,000	0,001	0,006
-600,328	128,120	0,053	0,049
-599,313	-57,685	-0,162	-0,051
-598,298	-186,426	-0,037	0,000
-597,284	-181,608	0,027	0,000
-596,269	7,913	-0,052	0,028
-595,255	-43,859	0,072	-0,026
-594,240	-200,000	-0,003	-0,054
-593,225	-31,523	-0,098	0,040
-592,211	172,120	-0,053	0,055
-591,196	800,000	-0,035	0,103
-590,182	142,327	0,038	-0,037
-589,167	6,471	0,096	0,052
-588,152	-19,075	-0,075	0,034
-587,138	570,806	0,019	0,034
-586,123	-200,000	-0,009	-0,118
-585,109	800,000	-0,023	-0,048
-584,094	795,709	-0,048	0,096
-583,079	-200,000	-0,012	0,082
-582,065	-21,404	0,077	-0,034
-581,050	-200,000	0,002	0,043
-580,036	-200,000	0,017	-0,088
-579,021	174,735	0,115	-0,120
-578,006	620,325	0,042	-0,078
-576,992	48,754	0,013	0,009
-575,977	-2,072	-0,096	0,049
-574,963	22,432	0,052	0,031
-573,948	447,847	-0,074	0,119
-572,934	-133,127	-0,144	0,013
-571,919	-200,000	0,026	-0,096
-570,904	-95,981	-0,064	0,012
-569,890	273,106	-0,029	0,037
-568,875	-27,375	0,126	0,053
-567,861	297,405	0,088	-0,118
-566,846	6,890	-0,114	0,061
-565,831	-200,000	-0,010	-0,034
-564,817	-200,000	-0,027	-0,092
-563,802	-200,000	-0,005	-0,130
-562,788	40,355	0,100	0,065
-561,773	-200,000	0,005	0,032
-560,758	-128,102	0,134	-0,014
-559,744	-200,000	0,013	-0,131
-558,729	105,099	0,042	-0,036
-557,715	-133,076	-0,108	-0,010
-556,700	290,270	0,040	-0,053
-555,685	-63,786	-0,103	-0,030
-554,671	53,652	0,014	0,009
-553,656	136,601	0,055	-0,052
-552,642	-53,034	0,102	0,034
-551,627	8,455	-0,089	0,048
-550,612	800,000	-0,024	0,074
-549,598	-200,000	0,010	-0,051
-548,583	-1,038	-0,127	0,065
-547,569	800,000	-0,028	0,073
-546,554	-200,000	0,015	0,047
-545,539	710,210	-0,017	-0,032
-544,525	-12,107	0,095	-0,045
-543,510	-83,181	0,059	0,014
-542,496	123,951	-0,092	-0,083
-541,481	571,202	0,005	-0,010
-540,466	-200,000	0,002	0,170
-539,452	-66,829	-0,058	-0,017
-538,437	800,000	-0,011	0,028
-537,423	800,000	0,031	0,067
-536,408	800,000	-0,060	-0,180
-535,393	258,768	-0,054	0,067
-534,379	282,255	0,062	-0,081
-533,364	-64,165	-0,181	-0,053
-532,350	-200,000	0,010	-0,059
-531,335	323,375	0,084	0,115
-530,321	-33,439	0,071	0,028
-529,306	-200,000	-0,007	-0,104
-528,291	174,057	-0,059	0,062
-527,277	-52,665	-0,049	0,016
-526,262	800,000	0,043	-0,093
-525,248	-200,000	-0,003	0,151
-524,233	-75,897	-0,047	0,012
-523,218	800,000	-0,054	-0,136
-522,204	-62,669	-0,187	-0,056
-521,189	800,000	0,033	-0,074
-520,175	-35,272	-0,043	-0,017
-519,160	7,763	-0,171	-0,092
-518,145	-151,370	-0,044	0,002
-517,131	35,875	0,145	0,092
-516,116	-12,817	0,062	0,029
-515,102	112,182	0,001	0,001
-514,087	132,370	0,084	-0,078
-513,072	800,000	-0,009	-0,030
-512,058	387,752	0,004	-0,006
-511,043	-137,543	0,150	-0,012
-510,029	800,000	0,059	0,158
-509,014	800,000	0,045	0,105
-507,999	-106,737	0,031	0,005
-506,985	-200,000	-0,019	0,145
-505,970	-134,669	-0,036	-0,003
-504,956	-9,541	-0,090	0,043
-503,941	69,298	0,032	0,023
-502,926	-38,871	0,093	0,035
-501,912	-200,000	-0,024	0,108
-500,897	89,837	-0,027	0,022
-499,883	75,093	-0,071	-0,054
-498,868	76,401	-0,069	-0,053
-497,853	-200,000	-0,029	-0,116
-496,839	-64,612	-0,052	-0,015
-495,824	84,428	-0,035	-0,028
-494,810	800,000	-0,016	-0,042
-493,795	-27,116	-0,070	0,030
-492,781	484,071	-0,097	-0,160
-491,766	16,840	0,070	0,040
-490,751	-62,703	-0,049	0,015
-489,737	-200,000	-0,012	-0,119
-488,722	-117,862	0,061	-0,008
-487,708	-200,000	0,015	0,107
-486,693	-86,889	-0,082	-0,018
-485,678	-200,000	-0,015	-0,052
-484,664	98,380	-0,063	-0,053
-483,649	-45,475	0,087	-0,031
-482,635	-135,499	0,080	0,007
-481,620	177,609	-0,051	-0,054
-480,605	52,435	0,010	-0,007
-479,591	50,318	0,107	-0,073
-478,576	154,941	-0,032	0,032
-477,562	-100,426	-0,140	-0,025
-476,547	-33,931	-0,086	-0,034
-475,532	-137,851	0,081	0,006
-474,518	267,085	0,052	-0,065
-473,503	591,388	-0,052	-0,092
-472,489	-200,000	0,028	0,206
-471,474	800,000	0,022	0,070
-470,459	-128,734	-0,049	-0,005
-469,445	35,093	0,051	-0,032
-468,430	38,283	0,135	-0,086
-467,416	195,633	0,038	-0,042
-466,401	-200,000	-0,005	-0,024
-465,386	-200,000	-0,021	0,112
-464,372	-62,170	-0,047	0,014
-463,357	800,000	0,012	0,029
-462,343	-133,898	-0,166	-0,015
-461,328	-17,089	-0,108	-0,049
-460,313	-200,000	0,028	0,127
-459,299	-200,000	0,002	-0,014
-458,284	-17,069	0,114	0,051
-457,270	-97,562	0,091	-0,017
-456,255	67,406	-0,153	0,113
-455,241	-200,000	0,000	-0,058
-454,226	257,071	-0,109	-0,135
-453,211	119,874	0,046	0,041
-452,197	-200,000	0,008	0,115
-451,182	-27,465	0,101	0,042
-450,168	151,039	-0,024	-0,023
-449,153	-26,568	-0,106	-0,045
-448,138	63,619	-0,168	-0,121
-447,124	800,000	0,025	-0,060
-446,109	-200,000	0,015	-0,056
-445,095	271,849	0,131	0,166
-444,080	-153,060	0,075	-0,004
-443,065	331,564	0,028	0,039
-442,051	127,356	-0,072	-0,066
-441,036	-114,914	0,114	-0,016
-440,022	124,031	-0,059	0,054
-439,007	125,777	-0,051	0,046
-437,992	155,346	0,083	-0,082
-436,978	14,156	-0,017	0,010
-435,963	800,000	-0,029	0,091
-434,949	-86,143	0,033	0,007
-433,934	26,728	0,059	0,035
-432,919	17,039	-0,093	-0,053
-431,905	-200,000	0,002	-0,195
-430,890	738,289	0,055	0,107
-429,876	-31,039	0,010	0,004
-428,861	49,187	-0,061	0,041
-427,846	374,129	-0,064	-0,094
-426,832	18,390	-0,136	-0,078
-425,817	219,308	0,037	-0,043
-424,803	5,879	-0,030	-0,016
-423,788	-69,381	-0,077	-0,021
-422,773	315,917	0,080	0,109
-421,759	-14,724	0,078	0,036
-420,744	32,912	-0,053	0,033
-419,730	710,260	-0,053	0,101
-418,715	-52,743	-0,037	0,012
-417,701	11,436	0,074	-0,041
-416,686	-53,419	0,172	0,056
-415,671	-68,840	0,033	0,009
-414,657	-119,200	0,062	-0,008
-413,642	800,000	0,027	0,081
-412,628	800,000	-0,039	0,081
-411,613	-200,000	0,019	-0,124
-410,598	41,326	-0,068	-0,044
-409,584	-21,790	0,129	0,056
-408,569	724,758	-0,023	-0,045
-407,555	-188,439	0,067	0,001
-406,540	-26,385	0,063	0,026
-405,525	362,177	-0,048	-0,070
-404,511	340,680	-0,074	-0,105
-403,496	-71,508	-0,161	-0,043
-402,482	-84,779	-0,089	0,020
-401,467	-200,000	0,008	0,067
-400,452	-137,488	0,061	0,005
-399,438	322,641	-0,021	0,028
-398,423	-200,000	0,021	-0,069
-397,409	-200,000	-0,012	-0,107
-396,394	-200,000	0,009	-0,100
-395,379	87,041	-0,046	-0,037
-394,365	124,018	-0,085	0,077
-393,350	800,000	0,078	0,212
-392,336	242,157	0,063	0,076
-391,321	681,567	0,025	-0,047
-390,306	-111,504	-0,081	-0,012
-389,292	80,640	-0,143	-0,111
-388,277	-79,491	0,112	-0,027
-387,263	139,658	-0,061	-0,058
-386,248	91,671	-0,022	0,018
-385,233	60,747	0,108	0,077
-384,219	642,376	-0,058	-0,106
-383,204	23,013	-0,085	-0,050
-382,190	279,848	-0,092	-0,118
-381,175	80,316	0,018	-0,014
-380,160	64,841	-0,033	-0,024
-379,146	-135,888	0,162	0,014
-378,131	23,601	-0,142	-0,084
-377,117	-200,000	-0,025	0,111
-376,102	596,687	-0,062	-0,111
-375,088	65,987	-0,097	0,071
-374,073	491,088	-0,054	0,089
-373,058	-200,000	0,008	0,070
-372,044	-200,000	-0,011	0,041
-371,029	34,406	0,067	0,042
-370,015	-89,912	-0,060	0,013
-369,000	800,000	0,042	0,131
-367,985	30,493	-0,084	-0,052
-366,971	-106,890	0,197	0,031
-365,956	11,569	-0,116	0,064
-364,942	617,953	0,096	0,174
-363,927	214,944	0,111	0,126
-362,912	-111,859	-0,056	0,008
-361,898	800,000	-0,036	-0,082
-360,883	800,000	0,077	-0,203
-359,869	-200,000	0,005	-0,081
-358,854	61,864	-0,036	-0,025
-357,839	140,263	0,067	0,063
-356,825	-170,445	0,108	0,003
-355,810	45,108	-0,077	-0,051
-354,796	-76,202	0,161	-0,040
-353,781	106,414	-0,083	0,070
-352,766	-34,728	-0,156	0,061
-351,752	-200,000	0,006	-0,077
-350,737	76,339	-0,073	0,056
-349,723	86,244	0,118	0,094
-348,708	-200,000	0,024	0,163
-347,693	-200,000	-0,033	0,130
-346,679	-200,000	0,013	-0,123
-345,664	-200,000	0,036	-0,199
-344,650	-178,568	0,057	-0,001
-343,635	-87,273	0,126	0,027
-342,620	-200,000	-0,012	0,087
-341,606	172,450	0,080	-0,083
-340,591	457,434	0,067	0,108
-339,577	492,252	0,025	0,042
-338,562	13,061	0,065	-0,036
-337,548	96,125	-0,099	0,081
-336,533	141,044	0,108	0,103
-335,518	34,619	0,097	0,061
-334,504	-169,382	-0,178	-0,005
-333,489	-80,957	0,022	-0,005
-332,475	-200,000	0,025	-0,112
-331,460	571,239	-0,069	-0,121
-330,445	-55,348	-0,118	-0,038
-329,431	661,127	0,031	0,058
-328,416	-200,000	0,001	0,074
-327,402	-200,000	0,006	0,034
-326,387	786,693	-0,055	-0,108
-325,372	359,637	0,049	-0,070
-324,358	216,800	0,022	0,025
-323,343	-18,245	0,035	-0,016
-322,329	-200,000	-0,001	0,099
-321,314	565,000	0,075	-0,130
-320,299	-138,448	0,080	-0,006
-319,285	-0,755	0,067	0,034
-318,270	66,859	-0,111	-0,081
-317,256	44,469	-0,093	-0,061
-316,241	72,939	0,064	0,048
-315,226	-76,329	-0,032	-0,008
-314,212	-83,383	0,063	-0,014
-313,197	-106,816	0,080	0,013
-312,183	-200,000	0,006	0,107
-311,168	88,061	-0,038	0,030
-310,153	33,784	0,034	0,021
-309,139	-103,963	-0,137	0,023
-308,124	190,817	0,045	0,048
-307,110	344,456	0,052	-0,074
-306,095	-62,821	0,052	-0,015
-305,080	109,755	0,103	0,088
-304,066	3,747	-0,105	-0,055
-303,051	-200,000	0,037	-0,230
-302,037	-200,000	0,007	-0,174
-301,022	27,533	0,079	-0,048
-300,008	800,000	0,034	-0,069
-298,993	281,284	0,034	0,044
-297,978	154,833	-0,073	0,072
-296,964	-200,000	-0,025	-0,180
-295,949	615,767	-0,019	0,035
-294,935	684,427	-0,018	0,033
-293,920	-76,242	0,063	-0,016
-292,905	-200,000	0,003	-0,027
-291,891	-200,000	0,001	-0,013
-290,876	-161,168	0,057	0,002
-289,862	-74,436	-0,118	-0,030
-288,847	-110,778	0,058	-0,008
-287,832	28,661	-0,047	0,028
-286,818	-88,879	-0,023	-0,005
-285,803	135,329	0,095	0,088
-284,789	-200,000	-0,010	0,109
-283,774	481,966	-0,031	0,051
-282,759	40,280	0,060	-0,039
-281,745	218,854	0,051	-0,058
-280,730	95,918	-0,046	-0,037
-279,716	-200,000	-0,001	-0,094
-278,701	169,250	0,090	0,092
-277,686	-200,000	0,033	0,185
-276,672	637,275	-0,050	0,091
-275,657	-200,000	-0,016	0,165
-274,643	-200,000	-0,033	-0,146
-273,628	-84,650	-0,114	-0,025
-272,613	265,744	0,056	0,070
-271,599	19,042	0,063	-0,036
-270,584	-200,000	0,014	-0,058
-269,570	-200,000	-0,021	0,108
-268,555	-200,000	0,028	-0,183
-267,540	386,365	0,089	-0,132
-266,526	-98,195	-0,128	-0,023
-265,511	-94,509	0,034	0,007
-264,497	34,393	0,086	0,054
-263,482	143,656	0,132	0,126
-262,467	-200,000	-0,038	-0,146
-261,453	168,843	-0,116	-0,118
-260,438	89,969	0,030	0,024
-259,424	-56,483	-0,045	0,014
-258,409	391,018	-0,060	0,089
-257,395	-200,000	0,001	0,084
-256,380	-58,211	0,046	-0,014
-255,365	143,534	-0,071	0,068
-254,351	135,338	0,096	0,090
-253,336	-200,000	-0,001	-0,011
-252,322	-200,000	-0,008	0,118
-251,307	-200,000	0,002	-0,009
-250,292	35,167	-0,032	0,020
-249,278	124,742	0,025	-0,023
-248,263	-93,440	-0,139	0,027
-247,249	-19,499	0,088	-0,039
-246,234	-7,826	0,139	-0,067
-245,219	-200,000	-0,014	-0,143
-244,205	-200,000	-0,015	-0,140
-243,190	87,557	-0,056	-0,044
-242,176	800,000	-0,031	0,081
-241,161	-71,456	0,102	-0,027
-240,146	-193,393	-0,097	0,001
-239,132	800,000	-0,032	0,099
-238,117	324,730	-0,049	-0,066
-237,103	-124,115	0,090	-0,010
-236,088	800,000	-0,043	-0,109
-235,073	19,037	0,142	0,081
-234,059	-59,733	0,047	-0,014
-233,044	-91,168	0,059	0,012
-232,030	-200,000	-0,000	0,157
-231,015	800,000	0,045	-0,141
-230,000	-89,345	-0,084	-0,017
-228,986	-200,000	-0,001	-0,081
-227,971	-59,871	-0,020	0,006
-226,957	-161,800	0,105	-0,004
-225,942	-101,097	0,006	0,001
-224,927	143,268	0,126	-0,119
-223,913	-200,000	-0,015	-0,134
-222,898	-200,000	0,020	0,108
-221,884	-122,055	0,111	-0,013
-220,869	-200,000	0,001	0,009
-219,855	-113,791	0,114	0,016
-218,840	800,000	0,052	0,154
-217,825	-23,950	-0,042	-0,018
-216,811	381,319	-0,106	0,156
-215,796	162,666	-0,026	0,026
-214,782	74,882	0,031	-0,024
-213,767	226,194	-0,140	0,162
-212,752	800,000	0,054	0,125
-211,738	800,000	-0,040	0,086
-210,723	-200,000	-0,019	-0,089
-209,709	800,000	-0,077	-0,190
-208,694	96,776	-0,155	-0,126
-207,679	77,781	-0,073	-0,056
-206,665	-200,000	-0,007	-0,082
-205,650	-200,000	0,011	-0,059
-204,636	69,033	0,124	0,091
-203,621	-143,917	0,120	-0,008
-202,606	82,251	-0,048	0,037
-201,592	-33,035	-0,104	0,041
-200,577	800,000	0,049	-0,104
-199,563	-27,773	0,198	0,082
-198,548	-200,000	-0,004	-0,081
-197,533	-154,687	-0,076	-0,004
-196,519	-142,503	-0,115	0,008
-195,504	25,153	0,114	-0,067
-194,490	120,207	-0,030	0,027
-193,475	506,706	0,038	0,064
-192,460	532,790	0,032	0,054
-191,446	-129,756	0,106	0,010
-190,431	800,000	-0,031	0,070
-189,417	800,000	-0,053	0,160
-188,402	-200,000	-0,014	0,051
-187,387	-54,676	0,134	-0,043
-186,373	-77,685	-0,032	0,008
-185,358	117,124	0,048	-0,042
-184,344	75,371	-0,043	0,032
-183,329	-200,000	0,004	0,027
-182,315	-200,000	-0,003	-0,012
-181,300	428,226	-0,038	0,059
-180,285	317,958	-0,097	0,131
-179,271	-13,989	-0,068	-0,031
-178,256	-119,691	0,207	-0,025
-177,242	-24,260	0,087	-0,037
-176,227	95,510	0,035	0,028
-175,212	-200,000	0,019	0,075
-174,198	-82,427	-0,129	0,030
-173,183	-119,689	0,097	-0,012
-172,169	-33,140	0,029	-0,012
-171,154	800,000	0,034	-0,091
-170,139	-7,541	0,039	0,019
-169,125	-200,000	-0,007	0,069
-168,110	800,000	-0,026	0,063
-167,096	257,469	0,019	0,023
-166,081	-73,440	0,082	-0,021
-165,066	175,564	-0,027	0,028
-164,052	-200,000	-0,017	-0,086
-163,037	800,000	0,031	0,083
-162,023	53,138	0,089	0,061
-161,008	317,104	-0,070	0,095
-159,993	-200,000	-0,019	-0,094
-158,979	-200,000	-0,008	-0,069
-157,964	158,742	0,079	-0,078
-156,950	-71,458	-0,136	-0,036
-155,935	-8,907	0,108	0,051
-154,920	-200,000	0,010	-0,088
-153,906	-124,330	0,093	-0,010
-152,891	8,791	-0,088	0,047
-151,877	72,980	-0,038	0,028
-150,862	-200,000	-0,011	-0,129
-149,847	327,473	0,048	-0,065
-148,833	22,954	-0,103	0,060
-147,818	161,778	0,065	0,065
-146,804	-200,000	-0,011	-0,046
-145,789	350,221	-0,011	-0,016
-144,775	-200,000	0,013	-0,084
-143,760	-132,439	-0,021	0,002
-142,745	-110,089	-0,229	-0,034
-141,731	-128,154	0,175	0,018
-140,716	-76,370	0,084	0,021
-139,702	-200,000	-0,025	0,000
-138,687	800,000	0,012	0,028
-137,672	108,243	-0,051	-0,043
-136,658	141,346	-0,055	0,052
-135,643	-200,000	-0,022	0,128
-134,629	390,176	0,074	0,109
-133,614	112,092	0,027	-0,023
-132,599	800,000	0,019	0,041
-131,585	31,757	0,033	0,020
-130,570	800,000	-0,052	-0,119
-129,556	247,105	0,008	-0,009
-128,541	-200,000	0,039	-0,145
-127,526	-77,385	-0,065	-0,016
-126,512	800,000	0,058	-0,172
-125,497	-200,000	0,012	0,042
-124,483	-200,000	0,023	0,090
-123,468	25,495	-0,153	0,091
-122,453	-200,000	-0,030	-0,158
-121,439	-88,659	0,037	-0,008
-120,424	-0,617	-0,059	0,030
-119,410	-200,000	-0,015	0,116
-118,395	800,000	-0,027	0,083
-117,380	32,066	-0,135	-0,082
-116,366	197,520	-0,071	-0,077
-115,351	393,560	-0,003	0,004
-114,337	-200,000	0,013	-0,041
-113,322	-151,362	-0,094	0,005
-112,307	611,438	0,058	0,104
-111,293	-24,683	0,036	0,015
-110,278	327,665	0,077	0,105
-109,264	-200,000	0,015	-0,084
-108,249	-111,564	-0,018	0,003
-107,234	62,305	-0,035	0,025
-106,220	-76,404	-0,032	0,008
-105,205	800,000	0,025	-0,059
-104,191	-159,451	0,065	0,003
-103,176	-200,000	-0,017	0,067
-102,162	110,476	0,049	-0,042
-101,147	800,000	-0,033	-0,080
-100,132	-108,144	-0,075	0,011
-99,118	-28,642	-0,077	0,031
-98,103	-112,603	0,125	0,017
-97,089	-200,000	0,001	0,103
-96,074	-200,000	0,037	0,174
-95,059	319,861	-0,020	-0,027
-94,045	-125,170	-0,103	0,011
-93,030	-95,298	0,094	-0,018
-92,016	-89,345	-0,202	0,042
-91,001	-200,000	0,032	0,146
-89,986	24,920	0,111	-0,065
-88,972	145,462	0,037	0,035
-87,957	-200,000	-0,007	0,022
-86,943	-200,000	0,048	0,155
-85,928	-2,441	0,065	-0,032
-84,913	-32,098	0,081	0,032
-83,899	-52,999	-0,046	-0,015
-82,884	-12,364	0,091	-0,042
-81,870	800,000	0,013	0,037
-80,855	440,076	0,065	0,102
-79,840	-200,000	0,004	0,095
-78,826	267,882	0,039	-0,049
-77,811	307,610	-0,102	-0,135
-76,797	76,950	0,016	-0,012
-75,782	800,000	0,042	0,085
-74,767	-200,000	-0,008	0,027
-73,753	-45,190	0,275	0,097
-72,738	-200,000	-0,025	-0,094
-71,724	-108,219	-0,098	-0,015
-70,709	-200,000	0,010	0,037
-69,694	330,321	-0,032	-0,043
-68,680	262,801	-0,049	0,061
-67,665	59,908	0,053	-0,037
-66,651	-136,581	0,057	0,005
-65,636	-37,737	0,050	0,019
-64,622	-200,000	0,012	-0,050
-63,607	66,654	-0,025	-0,018
-62,592	-19,133	-0,064	0,028
-61,578	161,137	-0,062	0,061
-60,563	-22,485	0,063	-0,027
-59,549	-200,000	-0,024	0,088
-58,534	-34,360	-1,495	-0,579
-57,519	383,622	-1,438	-2,106
-56,505	-200,000	-0,553	-4,537
-55,490	183,158	0,790	0,829
-54,476	800,000	4,815	11,223
-53,461	-200,000	18,187	287,096
-52,446	800,000	727,326	2229,814
-51,432	557,045	1643,174	2819,494
-50,417	79,308	1664,484	1264,126
-49,403	22,924	1538,331	892,085
-48,388	16,939	1461,252	818,383
-47,373	17,925	1451,165	817,450
-46,359	17,367	1441,731	809,433
-45,344	15,192	1437,052	796,388
-44,330	15,122	1435,009	794,886
-43,315	15,132	1433,437	794,036
-42,300	15,128	1431,750	793,051
-41,286	15,205	1430,597	792,745
-40,271	15,150	1429,400	791,788
-39,257	15,147	1428,000	790,968
-38,242	15,174	1426,698	790,344
-37,227	15,184	1425,365	789,619
-36,213	15,199	1424,197	789,012
-35,198	15,157	1423,126	788,189
-34,184	15,197	1422,198	787,836
-33,169	15,114	1421,040	786,771
-32,154	15,201	1419,670	786,389
-31,140	15,179	1418,643	785,689
-30,125	15,201	1417,559	785,157
-29,111	15,204	1416,293	784,442
-28,096	15,162	1415,138	783,572
-27,082	15,116	1414,252	782,832
-26,067	15,077	1413,065	781,964
-25,052	15,111	1411,987	781,494
-24,038	15,083	1411,020	780,795
-23,023	15,059	1409,945	780,060
-22,009	15,041	1409,074	779,462
-20,994	15,000	1408,168	778,737
-19,979	15,025	1407,160	778,264
-18,965	15,004	1406,116	777,560
-17,950	14,960	1405,373	776,911
-16,936	15,003	1404,161	776,411
-15,921	14,982	1403,213	775,758
-14,906	14,968	1402,228	775,118
-13,892	14,984	1401,452	774,734
-12,877	14,993	1400,575	774,258
-11,863	15,004	1399,501	773,687
-10,848	15,007	1398,707	773,232
-9,833	14,973	1397,898	772,595
-8,819	14,959	1396,782	771,884
-7,804	14,909	1396,034	771,207
-6,790	14,915	1394,790	770,518
-5,775	14,862	1393,914	769,759
-4,760	14,879	1393,032	769,315
-3,746	14,876	1392,271	768,851
-2,731	14,903	1391,377	768,451
-1,717	14,876	1390,368	767,740
-0,702	14,842	1388,695	766,629
0,313	18,627	1307,840	739,528
1,327	35,030	706,457	437,518
2,342	53,675	124,790	84,759
3,356	3,771	16,582	8,552
4,371	-8,838	3,260	1,542
5,386	-120,020	0,566	0,068
6,400	73,617	0,132	0,098
7,415	202,871	-0,169	-0,185
8,429	93,533	-0,362	-0,290
9,444	284,815	-0,236	-0,302
10,459	27,633	-0,415	-0,247
11,473	-14,349	-0,354	-0,161
12,488	-47,229	-0,321	-0,110
13,502	21,906	-0,282	-0,162
14,517	55,429	-0,372	-0,254
15,531	191,123	-0,259	-0,276
16,546	-31,446	-0,415	-0,164
17,561	108,580	-0,281	-0,237
18,575	330,112	-0,103	-0,141
19,590	112,888	-0,227	-0,195
20,604	143,420	-0,139	-0,131
21,619	182,674	-0,353	-0,368
22,634	201,447	-0,275	-0,300
23,648	8,993	-0,544	-0,290
24,663	72,422	-0,407	-0,300
25,677	35,877	-0,372	-0,231
26,692	17,637	-0,319	-0,179
27,707	142,822	-0,263	-0,247
28,721	144,808	-0,357	-0,338
29,736	74,130	-0,397	-0,294
30,750	-20,480	-0,544	-0,235
31,765	122,527	-0,345	-0,305
32,780	55,991	-0,274	-0,188
33,794	83,517	-0,352	-0,271
34,809	12,793	-0,421	-0,229
35,823	146,882	-0,377	-0,359
36,838	143,141	-0,393	-0,370
37,853	144,560	-0,397	-0,374
38,867	367,366	-0,362	-0,518
39,882	233,295	-0,251	-0,292
40,896	-13,450	-0,421	-0,192
41,911	41,396	-0,316	-0,201
42,926	150,202	-0,340	-0,326
43,940	35,941	-0,455	-0,282
44,955	169,950	-0,313	-0,316
45,969	143,135	-0,252	-0,237
46,984	38,049	-0,352	-0,221
47,999	-9,047	-0,360	-0,169
49,013	70,433	-0,323	-0,235
50,028	31,612	-0,237	-0,143
51,042	34,754	-0,423	-0,260
52,057	81,134	-0,275	-0,209
53,071	-9,465	-0,421	-0,198
54,086	287,504	-0,268	-0,342
55,101	-11,361	-0,354	-0,164
56,115	211,018	-0,204	-0,226
57,130	21,459	-0,428	-0,245
58,144	50,205	-0,460	-0,306
59,159	12,627	-0,342	-0,186
60,174	255,354	-0,272	-0,329
61,188	277,347	-0,312	-0,392
62,203	-171,664	-0,396	0,009
63,217	-2,788	-0,307	-0,151
64,232	36,457	-0,276	-0,172
65,247	43,263	-0,397	-0,255
66,261	66,758	-0,344	-0,247
67,276	86,617	-0,297	-0,231
68,290	35,975	-0,303	-0,188
69,305	103,011	-0,288	-0,238
70,320	-1,878	-0,273	-0,135
71,334	-78,684	-0,378	-0,090
72,349	14,939	-0,311	-0,171
73,363	4,128	-0,317	-0,163
74,378	121,480	-0,260	-0,229
75,393	-100,022	-0,396	-0,069
76,407	9,729	-0,332	-0,177
77,422	-21,898	-0,313	-0,134
78,436	524,959	-0,098	-0,163
79,451	54,684	-0,323	-0,219
80,466	118,380	-0,258	-0,224
81,480	157,355	-0,276	-0,269
82,495	91,770	-0,280	-0,221
83,509	-38,491	-0,282	-0,104
84,524	248,738	-0,161	-0,193
85,539	30,177	-0,336	-0,201
86,553	97,013	-0,375	-0,302
87,568	-3,634	-0,238	-0,116
88,582	-17,533	-0,347	-0,153
89,597	190,472	-0,261	-0,277
90,611	167,514	-0,174	-0,174
91,626	112,874	-0,239	-0,204
92,641	-101,012	-0,177	-0,030
93,655	-13,805	-0,313	-0,142
94,670	38,128	-0,201	-0,126
95,684	136,153	-0,424	-0,388
96,699	75,394	-0,315	-0,234
97,714	56,249	-0,302	-0,206
98,728	54,942	-0,223	-0,151
99,743	-133,570	-0,279	-0,024
100,757	150,817	-0,219	-0,209
101,772	-7,351	-0,347	-0,164
102,787	103,850	-0,192	-0,158
103,801	61,869	-0,272	-0,190
104,816	432,081	-0,110	-0,168
105,830	129,022	-0,273	-0,245
106,845	104,553	-0,219	-0,181
107,860	-30,943	-0,199	-0,078
108,874	-29,685	-0,326	-0,130
109,889	117,568	-0,302	-0,261
110,903	340,885	-0,214	-0,294
111,918	142,937	-0,233	-0,218
112,933	-30,255	-0,324	-0,129
113,947	-140,891	-0,302	-0,021
114,962	-2,369	-0,220	-0,108
115,976	18,617	-0,335	-0,187
116,991	36,684	-0,274	-0,169
118,006	78,077	-0,248	-0,186
119,020	-179,266	-0,203	-0,003
120,035	204,327	-0,287	-0,312
121,049	-19,078	-0,255	-0,111
122,064	680,730	-0,114	-0,209
123,079	-12,124	-0,228	-0,104
124,093	1,595	-0,257	-0,129
125,108	202,512	-0,236	-0,256
126,122	145,358	-0,133	-0,125
127,137	-124,115	-0,278	-0,030
128,151	20,294	-0,154	-0,087
129,166	27,572	-0,134	-0,079
130,181	-40,127	-0,403	-0,146
131,195	36,251	-0,289	-0,178
132,210	210,045	-0,220	-0,243
133,224	-65,444	-0,385	-0,108
134,239	94,542	-0,186	-0,148
135,254	12,733	-0,267	-0,144
136,268	0,017	-0,187	-0,093
137,283	-74,575	-0,347	-0,087
138,297	8,705	-0,281	-0,148
139,312	-5,679	-0,365	-0,175
140,327	60,541	-0,186	-0,129
141,341	-16,474	-0,240	-0,106
142,356	-133,351	-0,203	-0,018
143,370	4,262	-0,266	-0,136
144,385	101,500	-0,140	-0,115
145,400	64,812	-0,293	-0,207
146,414	-37,759	-0,254	-0,094
147,429	-60,816	-0,220	-0,065
148,443	36,337	-0,303	-0,186
149,458	-136,509	-0,238	-0,019
150,473	196,133	-0,068	-0,072
151,487	203,284	-0,190	-0,206
152,502	-112,050	-0,186	-0,026
153,516	400,892	-0,217	-0,319
154,531	88,821	-0,271	-0,210
155,546	-177,232	-0,246	-0,004
156,560	-55,313	-0,295	-0,092
157,575	-1,247	-0,191	-0,094
158,589	11,552	-0,193	-0,103
159,604	57,085	-0,248	-0,169
160,619	269,456	-0,228	-0,280
161,633	-109,781	-0,260	-0,038
162,648	34,733	-0,266	-0,162
163,662	-70,267	-0,229	-0,060
164,677	11,845	-0,286	-0,153
165,692	-80,809	-0,259	-0,060
166,706	26,906	-0,205	-0,120
167,721	6,015	-0,313	-0,161
168,735	46,097	-0,331	-0,214
169,750	-23,942	-0,243	-0,101
170,764	-40,214	-0,219	0,079
171,779	-45,983	-0,236	-0,081
172,794	-71,908	-0,273	-0,070
173,808	-71,974	-0,301	-0,078
174,823	172,646	-0,201	-0,202
175,837	211,455	-0,167	-0,183
176,852	800,000	-0,052	-0,105
177,867	310,230	-0,142	-0,186
178,881	11,846	-0,206	-0,110
179,896	-22,147	-0,215	-0,090
180,910	51,071	-0,234	-0,155
181,925	39,875	-0,367	-0,230
182,940	19,901	-0,300	-0,168
183,954	-41,844	-0,278	-0,099
184,969	265,966	-0,148	-0,180
185,983	291,297	-0,243	-0,309
186,998	-127,751	-0,119	-0,012
188,013	229,604	-0,159	-0,181
189,027	47,662	-0,169	-0,109
190,042	-70,428	-0,165	-0,043
191,056	209,090	-0,191	-0,209
192,071	-5,498	-0,196	-0,093
193,086	90,924	-0,250	-0,195
194,100	776,327	-0,125	-0,238
195,115	137,222	-0,156	-0,143
196,129	255,748	-0,155	-0,186
197,144	256,977	-0,137	-0,164
198,159	283,523	-0,143	-0,180
199,173	-82,035	-0,282	-0,064
200,188	-85,253	-0,130	-0,028
201,202	-72,582	-0,076	-0,019
202,217	-35,064	-0,254	-0,096
203,232	138,859	-0,255	-0,233
204,246	197,424	-0,169	-0,180
205,261	113,681	-0,212	-0,180
206,275	69,350	-0,194	-0,139
207,290	93,108	-0,138	-0,109
208,304	-37,286	-0,209	-0,077
209,319	276,845	-0,091	-0,112
210,334	-124,800	-0,252	-0,027
211,348	797,189	-0,133	-0,257
212,363	800,000	-0,096	-0,186
213,377	346,907	-0,124	-0,170
214,392	426,351	-0,072	-0,108
215,407	538,021	-0,082	-0,136
216,421	-32,191	-0,162	-0,063
217,436	224,541	-0,183	-0,206
218,450	92,983	-0,235	-0,184
219,465	-108,484	-0,183	-0,027
220,480	62,754	-0,221	-0,154
221,494	61,338	-0,136	-0,094
222,509	-134,386	-0,152	0,013
223,523	34,946	-0,139	-0,084
224,538	-48,187	-0,203	-0,068
225,553	25,695	-0,158	-0,091
226,567	155,905	-0,178	-0,170
227,582	158,691	-0,123	-0,119
228,596	-200,000	-0,030	-0,099
229,611	-200,000	-0,063	-0,197
230,626	24,636	-0,184	-0,105
231,640	37,627	-0,155	-0,096
232,655	23,873	-0,285	-0,162
233,669	118,303	-0,261	-0,223
234,684	91,380	-0,124	-0,097
235,699	-98,106	-0,194	-0,034
236,713	455,973	-0,145	-0,224
237,728	96,071	-0,167	-0,132
238,742	-9,898	-0,142	-0,065
239,757	800,000	-0,075	-0,189
240,772	-25,143	-0,311	-0,127
241,786	171,391	-0,249	-0,248
242,801	138,217	-0,178	-0,162
243,815	-23,114	-0,143	-0,060
244,830	-200,000	-0,003	-0,096
245,844	-55,942	-0,189	-0,058
246,859	-88,213	-0,279	-0,058
247,874	368,277	-0,148	-0,209
248,888	2,867	-0,256	-0,129
249,903	-25,277	-0,114	-0,047
250,917	79,201	-0,168	0,125
251,932	-110,846	-0,197	-0,028
252,947	800,000	-0,032	-0,092
253,961	149,101	-0,145	-0,136
254,976	51,421	-0,036	-0,024
255,990	-19,945	-0,225	-0,096
257,005	-23,692	-0,186	-0,077
258,020	419,049	-0,154	-0,229
259,034	-80,560	-0,211	-0,048
260,049	173,248	-0,134	-0,134
261,063	-32,883	-0,287	-0,110
262,078	800,000	-0,073	-0,169
263,093	35,567	-0,178	-0,108
264,107	49,448	-0,263	-0,171
265,122	80,710	-0,132	-0,099
266,136	-46,344	-0,240	-0,081
267,151	126,300	-0,176	-0,154
268,166	-43,463	-0,105	-0,036
269,180	-26,870	-0,237	-0,095
270,195	-10,513	-0,178	-0,081
271,209	125,378	-0,163	-0,143
272,224	338,489	-0,085	-0,114
273,239	226,335	-0,091	-0,102
274,253	-145,795	-0,259	-0,016
275,268	231,309	-0,184	-0,209
276,282	84,883	-0,218	-0,165
277,297	800,000	-0,133	-0,355
278,312	171,452	-0,179	-0,178
279,326	224,327	-0,079	-0,088
280,341	455,507	-0,040	-0,062
281,355	-151,750	-0,169	0,008
282,370	65,305	-0,177	-0,123
283,384	-37,143	-0,187	-0,069
284,399	81,713	-0,159	-0,119
285,414	-27,835	-0,153	-0,061
286,428	-104,446	-0,104	-0,016
287,443	-45,725	-0,116	-0,040
288,457	78,837	-0,072	-0,053
289,472	-67,201	-0,228	0,061
290,487	219,215	-0,208	-0,230
291,501	146,327	-0,230	-0,214
292,516	-200,000	-0,028	-0,149
293,530	-200,000	-0,070	-0,215
294,545	233,706	-0,109	-0,124
295,560	-58,393	-0,199	-0,059
296,574	-101,936	-0,098	-0,016
297,589	307,509	-0,196	-0,252
298,603	50,750	-0,177	-0,116
299,618	-4,653	-0,178	-0,085
300,633	-81,049	-0,133	-0,030
301,647	-36,359	-0,067	0,025
302,662	102,727	-0,110	-0,088
303,676	-68,451	-0,139	-0,037
304,691	133,858	-0,167	-0,149
305,706	42,530	-0,205	-0,128
306,720	76,351	-0,228	-0,166
307,735	524,041	-0,155	-0,252
308,749	-86,593	-0,028	-0,006
309,764	-200,000	0,005	-0,029
310,779	-107,088	-0,122	-0,018
311,793	14,147	-0,144	-0,077
312,808	800,000	-0,124	-0,283
313,822	286,715	-0,155	-0,194
314,837	138,020	-0,157	-0,142
315,852	-151,310	-0,033	0,002
316,866	51,742	-0,152	-0,100
317,881	223,472	-0,138	-0,153
318,895	19,195	-0,091	-0,050
319,910	109,298	-0,184	-0,152
320,925	190,241	-0,182	-0,188
321,939	800,000	-0,078	-0,169
322,954	-200,000	-0,029	-0,197
323,968	-96,935	-0,039	0,007
324,983	575,102	-0,057	-0,097
325,997	321,898	-0,072	-0,094
327,012	16,332	-0,144	-0,078
328,027	-200,000	0,003	-0,178
329,041	172,765	-0,163	-0,161
330,056	311,372	-0,091	-0,118
331,070	800,000	0,028	-0,069
332,085	-138,454	-0,007	-0,000
333,100	510,002	-0,063	-0,102
334,114	165,599	-0,192	-0,187
335,129	-47,730	-0,100	-0,033
336,143	109,476	-0,220	-0,181
337,158	-51,740	-0,129	-0,041
338,173	49,463	-0,066	-0,042
339,187	-42,935	-0,097	0,034
340,202	-59,526	-0,066	-0,019
341,216	90,246	-0,091	-0,070
342,231	800,000	-0,069	-0,149
343,246	353,730	-0,089	-0,121
344,260	299,584	-0,078	-0,099
345,275	800,000	-0,062	-0,124
346,289	173,095	-0,136	-0,134
347,304	253,354	-0,097	-0,114
348,319	341,006	-0,088	-0,119
349,333	785,629	-0,058	-0,110
350,348	310,632	-0,157	-0,202
351,362	-59,297	-0,136	-0,040
352,377	515,698	-0,059	-0,096
353,392	33,769	-0,241	-0,143
354,406	-29,349	-0,137	-0,054
355,421	209,656	1312,228	1415,243
356,435	161,369	1472,674	1415,760
