DTS Sentinel unit serial number:	SN410029Multiplexer serial number:	ORYXHardware model number:	OX2-SRSoftware version number:	ORYX F/W v4,00 Oryx Data Collector v3.7.2.0data status	okinstallation	B3 Nyhavnadifferential loss correction	single-endedforward channel	channel 1reverse channel	N/Adate	2023/12/02time	19:02:30forward acquisition time	300,00reverse acquisition time	0,00gamma	499,1914k internal	0,3200k external	0,3200temperature offset calibration	1,0000default loss term (dB/km)	0,3820temperature slope calibration	1,0000multiplexer offset coefficient	1,0000multiplexer slope coefficient	1,0000fibre end	0,00T internal ref (°C)	13,46T ext. ref 1 (°C)	-1,83T ext. ref 2 (°C)	-1,86length (m)	temperature (°C)	Stokes	anti-Stokes-744,400	512,690	-0,190	-0,323
-743,385	258,174	-0,055	0,069
-742,371	496,080	-0,195	-0,327
-741,356	-200,000	0,090	0,356
-740,342	-200,000	-0,031	-0,133
-739,327	-200,000	-0,017	0,245
-738,312	116,894	-0,282	-0,252
-737,298	-200,000	-0,033	0,405
-736,283	18,285	-0,281	-0,163
-735,269	-200,000	-0,022	0,234
-734,254	311,740	-0,222	-0,304
-733,239	171,462	-0,182	0,191
-732,225	800,000	-0,129	-0,260
-731,210	81,621	0,127	0,100
-730,196	-200,000	0,011	-0,053
-729,181	800,000	0,018	0,041
-728,167	-200,000	0,028	-0,096
-727,152	-149,043	-0,075	0,004
-726,137	100,845	-0,055	0,047
-725,123	-143,718	-0,305	-0,021
-724,108	800,000	0,011	-0,029
-723,094	448,724	-0,039	-0,063
-722,079	122,501	-0,114	-0,103
-721,064	-200,000	-0,003	0,124
-720,050	-90,999	-0,136	0,028
-719,035	800,000	-0,019	-0,056
-718,021	-200,000	0,024	0,088
-717,006	520,935	-0,103	-0,175
-715,991	800,000	-0,018	-0,046
-714,977	-200,000	0,009	0,051
-713,962	-200,000	0,005	-0,173
-712,948	800,000	0,053	0,116
-711,933	-200,000	0,039	0,154
-710,918	-140,925	-0,116	-0,009
-709,904	278,206	-0,015	0,020
-708,889	-200,000	-0,010	0,061
-707,875	145,514	-0,012	-0,012
-706,860	-200,000	-0,020	-0,181
-705,845	-65,954	0,047	-0,014
-704,831	1,886	-0,004	0,002
-703,816	-57,821	0,066	-0,021
-702,802	377,220	0,065	-0,096
-701,787	800,000	-0,031	-0,088
-700,772	353,049	-0,059	-0,085
-699,758	-41,521	-0,033	0,012
-698,743	201,336	-0,029	-0,033
-697,729	51,098	0,072	0,049
-696,714	742,579	-0,042	0,082
-695,699	-200,000	-0,042	-0,163
-694,685	3,692	-0,214	-0,113
-693,670	216,205	-0,037	-0,043
-692,656	42,964	-0,083	-0,055
-691,641	-7,392	-0,068	0,033
-690,627	-200,000	0,001	0,067
-689,612	151,401	-0,073	0,073
-688,597	-121,272	-0,079	0,010
-687,583	800,000	-0,050	-0,125
-686,568	-94,262	-0,093	0,018
-685,554	-113,480	-0,164	-0,023
-684,539	-200,000	0,004	-0,070
-683,524	275,754	0,179	0,232
-682,510	187,420	-0,048	0,052
-681,495	89,120	0,080	-0,065
-680,481	800,000	-0,070	-0,180
-679,466	-200,000	-0,036	-0,114
-678,451	217,485	0,056	0,064
-677,437	-200,000	-0,024	-0,094
-676,422	-27,413	0,116	-0,049
-675,408	330,865	0,052	0,073
-674,393	-200,000	0,011	-0,066
-673,378	-200,000	0,004	-0,132
-672,364	37,572	0,022	0,014
-671,349	800,000	-0,043	0,094
-670,335	61,562	0,090	0,065
-669,320	191,459	-0,104	0,114
-668,305	309,698	0,021	-0,029
-667,291	130,108	0,053	0,049
-666,276	770,893	-0,051	0,101
-665,262	447,436	-0,027	-0,043
-664,247	607,937	-0,049	-0,089
-663,232	35,666	-0,075	-0,048
-662,218	-200,000	-0,011	0,043
-661,203	742,487	-0,069	0,136
-660,189	800,000	-0,028	0,059
-659,174	-83,572	-0,113	-0,026
-658,159	-200,000	0,013	-0,095
-657,145	79,824	0,010	-0,008
-656,130	800,000	0,074	-0,163
-655,116	800,000	0,016	0,053
-654,101	-200,000	0,001	-0,077
-653,086	733,203	0,030	-0,059
-652,072	-62,377	-0,190	-0,057
-651,057	-105,121	-0,076	-0,012
-650,043	-200,000	-0,009	0,048
-649,028	800,000	-0,012	0,026
-648,014	-3,986	-0,080	-0,040
-646,999	94,807	0,055	0,045
-645,984	800,000	0,046	-0,116
-644,970	-200,000	-0,006	-0,077
-643,955	109,036	-0,117	-0,101
-642,941	-180,958	-0,168	-0,002
-641,926	157,257	0,055	0,055
-640,911	52,774	-0,033	0,023
-639,897	121,902	0,118	0,106
-638,882	-90,812	-0,183	0,038
-637,868	249,709	-0,054	0,066
-636,853	-138,366	0,096	0,008
-635,838	-65,251	0,072	-0,021
-634,824	-200,000	0,021	0,095
-633,809	-166,968	-0,063	-0,002
-632,795	-200,000	-0,012	0,101
-631,780	-21,618	-0,100	0,044
-630,765	-87,551	0,053	0,012
-629,751	-200,000	-0,020	0,096
-628,736	-200,000	0,002	0,027
-627,722	156,079	0,112	-0,112
-626,707	-109,231	0,189	-0,029
-625,692	109,412	-0,046	0,040
-624,678	800,000	0,065	0,198
-623,663	166,489	0,090	0,092
-622,649	131,710	-0,095	-0,088
-621,634	281,944	0,104	-0,135
-620,619	-200,000	-0,012	-0,050
-619,605	-200,000	-0,014	-0,197
-618,590	-155,607	0,064	-0,003
-617,576	800,000	-0,050	0,118
-616,561	237,292	0,067	0,081
-615,546	-200,000	0,025	0,101
-614,532	-89,303	-0,091	0,019
-613,517	-114,246	0,076	-0,010
-612,503	800,000	-0,010	-0,030
-611,488	-200,000	0,102	0,000
-610,474	-200,000	-0,002	0,057
-609,459	-200,000	-0,000	-0,050
-608,444	653,265	0,054	-0,100
-607,430	-200,000	-0,006	0,082
-606,415	-60,762	-0,022	-0,007
-605,401	-200,000	-0,003	-0,021
-604,386	625,643	-0,054	-0,099
-603,371	46,142	0,175	0,117
-602,357	-46,504	0,042	-0,015
-601,342	-200,000	-0,044	-0,190
-600,328	154,669	0,059	0,058
-599,313	-77,326	0,063	-0,016
-598,298	16,410	0,066	0,037
-597,284	206,283	0,023	0,026
-596,269	27,845	0,023	0,014
-595,255	-33,070	-0,015	-0,006
-594,240	-200,000	0,012	0,076
-593,225	103,012	-0,058	-0,049
-592,211	-54,494	0,043	-0,014
-591,196	-32,923	-0,112	-0,045
-590,182	-111,490	-0,058	0,009
-589,167	800,000	-0,019	0,059
-588,152	-200,000	-0,014	0,189
-587,138	2,753	-0,049	0,026
-586,123	-42,259	-0,118	-0,043
-585,109	-54,410	-0,087	0,028
-584,094	1,663	-0,148	0,077
-583,079	800,000	-0,022	-0,059
-582,065	139,492	-0,109	0,104
-581,050	397,831	0,034	0,052
-580,036	800,000	0,038	-0,098
-579,021	-191,137	0,121	0,001
-578,006	-176,933	-0,120	0,002
-576,992	800,000	-0,060	0,163
-575,977	-200,000	-0,018	-0,107
-574,963	556,949	-0,050	0,087
-573,948	-200,000	0,021	0,177
-572,934	-200,000	-0,006	0,036
-571,919	201,502	0,059	0,066
-570,904	-114,580	0,141	0,019
-569,890	612,100	-0,055	-0,100
-568,875	263,576	-0,065	0,082
-567,861	627,161	0,042	-0,077
-566,846	-68,675	0,138	-0,038
-565,831	520,805	-0,012	0,020
-564,817	-33,725	-0,096	0,038
-563,802	41,705	-0,173	-0,113
-562,788	-3,990	-0,086	0,043
-561,773	-200,000	0,024	0,122
-560,758	-200,000	0,013	0,138
-559,744	88,703	0,064	-0,051
-558,729	137,287	0,075	0,071
-557,715	-104,642	-0,138	-0,023
-556,700	161,682	-0,078	-0,078
-555,685	580,046	-0,037	-0,066
-554,671	-200,000	-0,000	-0,071
-553,656	469,983	-0,031	0,051
-552,642	-10,647	0,159	0,075
-551,627	-50,561	-0,078	0,026
-550,612	-200,000	-0,054	-0,216
-549,598	315,635	0,088	-0,120
-548,583	-200,000	-0,006	-0,120
-547,569	-200,000	0,028	-0,097
-546,554	-37,916	0,188	-0,072
-545,539	-200,000	0,006	-0,029
-544,525	20,653	0,154	0,090
-543,510	106,326	0,082	0,070
-542,496	470,891	-0,046	-0,075
-541,481	-172,552	-0,093	-0,002
-540,466	124,626	-0,063	0,057
-539,452	217,579	0,010	-0,012
-538,437	432,452	-0,050	0,078
-537,423	-200,000	-0,029	0,138
-536,408	185,977	-0,114	0,123
-535,393	357,409	0,115	-0,166
-534,379	302,540	-0,052	-0,070
-533,364	-200,000	-0,003	-0,045
-532,350	-140,772	-0,052	0,004
-531,335	203,410	0,019	-0,021
-530,321	800,000	0,062	0,193
-529,306	-161,626	0,077	0,003
-528,291	-82,486	-0,119	-0,028
-527,277	18,923	-0,131	-0,075
-526,262	17,553	-0,086	0,049
-525,248	-28,290	-0,074	0,031
-524,233	4,520	0,125	0,066
-523,218	81,405	0,025	0,019
-522,204	-200,000	0,040	-0,131
-521,189	800,000	-0,029	-0,091
-520,175	297,025	0,056	-0,074
-519,160	238,495	-0,065	0,078
-518,145	86,104	0,087	-0,069
-517,131	91,620	0,055	0,044
-516,116	214,637	0,009	0,010
-515,102	102,901	-0,013	0,011
-514,087	82,327	-0,042	-0,033
-513,072	-97,616	-0,109	0,020
-512,058	254,427	-0,038	-0,047
-511,043	-36,216	0,085	0,033
-510,029	210,820	-0,038	0,043
-509,014	30,377	-0,024	0,015
-507,999	800,000	0,087	0,198
-506,985	-47,825	-0,009	-0,003
-505,970	39,330	0,043	0,027
-504,956	-200,000	0,002	-0,125
-503,941	48,067	0,092	0,062
-502,926	-37,863	0,084	-0,032
-501,912	52,208	0,057	-0,039
-500,897	-200,000	0,001	-0,117
-499,883	7,848	0,039	0,021
-498,868	-200,000	-0,005	0,051
-497,853	205,314	0,072	0,081
-496,839	-41,409	-0,173	-0,064
-495,824	114,584	0,138	-0,121
-494,810	-200,000	-0,004	-0,022
-493,795	151,177	-0,100	-0,098
-492,781	-132,806	0,115	0,010
-491,766	39,790	-0,086	-0,056
-490,751	-45,694	0,046	-0,016
-489,737	288,322	0,036	-0,048
-488,722	176,653	-0,018	-0,019
-487,708	-62,206	0,030	-0,009
-486,693	-144,170	0,097	0,006
-485,678	-67,276	0,037	0,010
-484,664	354,688	0,085	-0,122
-483,649	25,274	-0,105	-0,063
-482,635	105,548	0,065	-0,055
-481,620	800,000	0,045	-0,126
-480,605	-200,000	-0,002	0,046
-479,591	41,617	-0,069	-0,045
-478,576	8,645	0,037	0,020
-477,562	-200,000	-0,030	-0,103
-476,547	-81,776	-0,040	-0,009
-475,532	-14,629	0,047	-0,021
-474,518	480,546	-0,031	-0,050
-473,503	800,000	0,028	-0,058
-472,489	49,113	0,033	0,022
-471,474	-115,819	0,051	-0,007
-470,459	-55,887	-0,131	0,042
-469,445	464,632	-0,031	-0,051
-468,430	-72,638	-0,081	0,021
-467,416	473,672	0,024	0,039
-466,401	-133,688	-0,092	0,008
-465,386	-28,515	0,106	0,044
-464,372	-200,000	0,011	0,089
-463,357	-43,022	-0,103	-0,037
-462,343	-65,292	0,015	0,004
-461,328	-147,077	-0,095	0,006
-460,313	800,000	-0,011	-0,024
-459,299	-200,000	-0,029	-0,131
-458,284	-34,141	-0,084	0,033
-457,270	85,261	0,038	-0,030
-456,255	33,592	0,070	0,044
-455,241	-3,095	0,097	-0,048
-454,226	76,533	0,139	-0,106
-453,211	438,326	-0,104	-0,163
-452,197	-6,656	0,051	-0,025
-451,182	135,526	0,086	-0,080
-450,168	800,000	0,027	-0,081
-449,153	-164,021	0,115	-0,004
-448,138	-145,414	0,096	0,006
-447,124	22,524	-0,100	-0,059
-446,109	83,742	-0,094	-0,074
-445,095	-200,000	0,018	0,122
-444,080	372,331	0,035	0,051
-443,065	264,388	-0,013	-0,017
-442,051	-200,000	-0,012	0,068
-441,036	79,399	0,076	-0,058
-440,022	-74,728	-0,083	0,021
-439,007	-200,000	-0,022	-0,159
-437,992	20,581	0,089	0,052
-436,978	-47,519	0,128	0,044
-435,963	124,555	0,087	0,079
-434,949	43,385	-0,090	0,059
-433,934	66,515	0,108	-0,079
-432,919	-73,348	-0,129	-0,034
-431,905	43,036	-0,087	-0,057
-430,890	149,975	0,098	0,095
-429,876	800,000	0,010	0,032
-428,861	657,908	0,040	0,075
-427,846	-133,675	0,041	0,004
-426,832	800,000	-0,037	0,096
-425,817	-200,000	0,021	0,102
-424,803	437,112	0,050	0,079
-423,788	-45,593	0,032	-0,011
-422,773	-31,934	0,114	0,046
-421,759	-143,173	0,070	-0,005
-420,744	302,013	0,035	0,047
-419,730	-64,186	0,021	0,006
-418,715	381,376	0,049	-0,072
-417,701	-200,000	-0,012	-0,047
-416,686	-110,545	0,061	0,009
-415,671	255,420	0,072	0,089
-414,657	800,000	-0,044	0,119
-413,642	-145,213	0,069	0,004
-412,628	-63,857	-0,187	0,055
-411,613	165,831	-0,134	-0,136
-410,598	-145,606	0,066	-0,004
-409,584	-200,000	0,003	-0,093
-408,569	800,000	0,051	0,105
-407,555	73,841	0,061	0,046
-406,540	633,219	-0,087	0,159
-405,525	800,000	-0,009	-0,030
-404,511	30,584	-0,244	-0,150
-403,496	84,452	0,117	-0,092
-402,482	-52,430	0,124	-0,041
-401,467	151,944	0,068	0,067
-400,452	-200,000	-0,013	0,064
-399,438	252,181	-0,099	0,121
-398,423	25,681	-0,185	0,111
-397,409	-200,000	0,001	0,086
-396,394	800,000	-0,037	-0,103
-395,379	-200,000	0,017	0,153
-394,365	166,257	-0,052	-0,053
-393,350	-200,000	-0,008	0,133
-392,336	-200,000	0,024	0,217
-391,321	703,081	-0,027	-0,052
-390,306	-91,691	-0,084	0,017
-389,292	800,000	0,027	-0,070
-388,277	37,125	-0,119	-0,075
-387,263	-200,000	-0,014	-0,140
-386,248	800,000	-0,016	-0,033
-385,233	-25,017	0,109	-0,046
-384,219	356,361	0,009	0,013
-383,204	36,323	-0,065	-0,041
-382,190	91,510	0,063	-0,051
-381,175	47,880	0,134	-0,089
-380,160	97,596	-0,059	-0,049
-379,146	-107,316	0,166	-0,026
-378,131	-200,000	-0,035	0,111
-377,117	-11,086	0,074	0,035
-376,102	-112,490	-0,091	-0,013
-375,088	-200,000	-0,026	-0,211
-374,073	-112,160	-0,057	-0,008
-373,058	800,000	-0,018	0,043
-372,044	645,730	0,069	0,127
-371,029	800,000	0,024	0,062
-370,015	-200,000	0,004	0,083
-369,000	-200,000	-0,019	0,135
-367,985	-47,597	-0,037	-0,013
-366,971	17,878	0,051	0,029
-365,956	-97,841	-0,069	0,013
-364,942	-200,000	0,003	0,028
-363,927	255,432	0,090	-0,111
-362,912	-44,233	-0,081	-0,029
-361,898	-64,268	-0,065	-0,019
-360,883	-113,752	-0,132	-0,018
-359,869	62,187	0,117	-0,083
-358,854	68,842	0,138	0,101
-357,839	10,690	0,029	-0,016
-356,825	-200,000	-0,015	0,100
-355,810	238,602	0,043	0,052
-354,796	-123,454	0,071	0,008
-353,781	-56,521	0,142	0,045
-352,766	-18,575	0,059	-0,026
-351,752	-200,000	-0,007	0,164
-350,737	76,166	-0,051	0,039
-349,723	-200,000	0,014	0,126
-348,708	-34,208	-0,014	-0,005
-347,693	-13,130	-0,144	-0,067
-346,679	-200,000	-0,001	-0,084
-345,664	-200,000	0,027	-0,114
-344,650	-5,666	-0,079	-0,039
-343,635	-60,000	0,042	-0,013
-342,620	253,004	0,029	-0,035
-341,606	242,558	-0,030	0,037
-340,591	-46,471	-0,096	-0,034
-339,577	-200,000	0,033	-0,130
-338,562	658,409	0,019	0,034
-337,548	-81,497	0,061	0,014
-336,533	-31,325	0,079	0,032
-335,518	800,000	0,017	0,047
-334,504	-118,644	0,084	0,010
-333,489	-53,820	0,127	-0,041
-332,475	-74,221	0,032	0,008
-331,460	-200,000	0,012	-0,165
-330,445	-53,244	0,124	0,040
-329,431	-200,000	0,021	-0,113
-328,416	-200,000	-0,009	-0,073
-327,402	172,590	0,102	0,106
-326,387	-198,278	0,005	0,000
-325,372	330,676	-0,032	-0,044
-324,358	123,629	-0,006	0,005
-323,343	800,000	0,019	0,041
-322,329	349,377	-0,065	0,092
-321,314	-200,000	0,013	0,054
-320,299	125,689	0,061	-0,055
-319,285	534,710	0,030	-0,051
-318,270	337,903	0,057	0,079
-317,256	-5,438	-0,086	-0,042
-316,241	-97,056	0,079	-0,015
-315,226	-200,000	0,006	-0,029
-314,212	-200,000	-0,015	0,066
-313,197	800,000	0,057	-0,117
-312,183	267,306	-0,031	-0,039
-311,168	-200,000	0,009	-0,091
-310,153	102,200	-0,065	-0,054
-309,139	-200,000	0,018	-0,065
-308,124	135,680	0,086	0,081
-307,110	5,223	-0,049	-0,026
-306,095	-200,000	-0,002	0,090
-305,080	138,054	0,038	-0,035
-304,066	-145,624	-0,041	-0,003
-303,051	6,357	0,056	-0,030
-302,037	-96,907	-0,286	-0,053
-301,022	317,454	-0,023	0,031
-300,008	-53,106	0,114	0,037
-298,993	-115,933	0,048	0,006
-297,978	-200,000	0,010	0,090
-296,964	-33,971	0,037	0,014
-295,949	244,345	-0,077	0,093
-294,935	26,845	-0,104	0,062
-293,920	-200,000	0,011	0,112
-292,905	584,449	0,091	0,160
-291,891	513,345	-0,071	0,119
-290,876	37,261	0,061	0,038
-289,862	91,344	-0,127	0,102
-288,847	-105,004	0,039	0,006
-287,832	86,284	-0,146	-0,115
-286,818	-200,000	-0,008	-0,092
-285,803	136,695	0,040	0,038
-284,789	-200,000	0,009	0,134
-283,774	-192,390	-0,119	-0,001
-282,759	-200,000	0,002	0,075
-281,745	-53,854	-0,093	-0,030
-280,730	-180,684	0,075	-0,001
-279,716	-200,000	-0,042	-0,161
-278,701	-76,221	-0,053	-0,013
-277,686	-14,064	-0,026	0,012
-276,672	-200,000	0,002	-0,025
-275,657	-59,084	-0,059	-0,018
-274,643	-200,000	-0,006	-0,198
-273,628	500,801	-0,056	0,092
-272,613	-200,000	0,008	-0,031
-271,599	-200,000	0,006	-0,082
-270,584	-200,000	-0,016	0,140
-269,570	-200,000	0,003	-0,016
-268,555	737,978	-0,107	0,206
-267,540	-161,153	-0,248	0,009
-266,526	703,245	0,022	-0,041
-265,511	-200,000	-0,033	-0,204
-264,497	-200,000	-0,030	-0,195
-263,482	800,000	-0,012	-0,030
-262,467	-57,082	-0,028	0,009
-261,453	59,590	0,009	-0,006
-260,438	56,873	-0,099	-0,069
-259,424	-200,000	0,009	0,063
-258,409	800,000	-0,016	-0,040
-257,395	800,000	-0,028	-0,062
-256,380	800,000	-0,043	0,114
-255,365	800,000	0,064	0,142
-254,351	-75,529	0,107	-0,027
-253,336	132,449	-0,085	-0,079
-252,322	-70,691	-0,073	-0,020
-251,307	-200,000	0,020	-0,116
-250,292	34,314	-0,086	0,054
-249,278	-96,798	0,146	0,027
-248,263	137,485	-0,101	0,094
-247,249	215,458	0,100	-0,114
-246,234	103,184	0,031	-0,026
-245,219	-137,748	-0,102	-0,008
-244,205	-195,539	-0,189	-0,001
-243,190	30,559	0,100	-0,061
-242,176	113,144	-0,112	0,097
-241,161	-77,919	0,096	0,024
-240,146	-1,081	-0,014	0,007
-239,132	-200,000	0,021	-0,118
-238,117	46,937	-0,068	0,045
-237,103	28,680	-0,109	-0,066
-236,088	-8,226	-0,027	-0,013
-235,073	800,000	0,071	0,153
-234,059	-200,000	-0,051	0,169
-233,044	241,495	-0,055	-0,066
-232,030	164,116	-0,089	-0,090
-231,015	800,000	-0,065	-0,171
-230,000	800,000	-0,080	-0,180
-228,986	-200,000	-0,015	-0,113
-227,971	800,000	-0,024	-0,066
-226,957	-70,054	0,050	0,014
-225,942	800,000	0,061	0,159
-224,927	800,000	-0,009	-0,026
-223,913	92,811	-0,140	-0,112
-222,898	629,552	-0,058	0,105
-221,884	-183,843	0,111	0,001
-220,869	800,000	-0,089	-0,233
-219,855	-178,229	0,125	-0,002
-218,840	-200,000	-0,009	0,062
-217,825	35,337	0,079	0,049
-216,811	-200,000	0,026	-0,117
-215,796	-82,277	-0,092	-0,021
-214,782	-200,000	0,004	-0,145
-213,767	-28,889	-0,155	0,063
-212,752	373,970	0,087	-0,126
-211,738	-200,000	0,012	0,061
-210,723	510,458	-0,057	0,095
-209,709	-200,000	0,002	-0,021
-208,694	-200,000	0,019	0,084
-207,679	-200,000	-0,013	-0,194
-206,665	-200,000	-0,014	-0,159
-205,650	665,631	-0,054	0,100
-204,636	700,122	0,038	0,071
-203,621	40,201	0,058	0,037
-202,606	-65,860	-0,050	0,014
-201,592	-140,863	-0,124	0,009
-200,577	4,869	0,061	0,032
-199,563	-160,587	0,139	-0,005
-198,548	-200,000	0,006	0,084
-197,533	260,592	-0,039	0,048
-196,519	-177,492	0,147	-0,003
-195,504	-200,000	-0,020	-0,108
-194,490	800,000	-0,019	0,049
-193,475	-200,000	-0,018	0,062
-192,460	-77,289	0,029	0,007
-191,446	-200,000	-0,013	0,086
-190,431	227,177	0,098	0,113
-189,417	-200,000	0,035	0,176
-188,402	-26,999	-0,037	0,015
-187,387	123,513	0,081	0,072
-186,373	115,698	-0,145	-0,126
-185,358	800,000	-0,015	-0,031
-184,344	-76,177	0,204	0,051
-183,329	-200,000	0,000	0,114
-182,315	68,048	0,093	0,067
-181,300	-200,000	-0,051	-0,182
-180,285	63,885	-0,118	-0,084
-179,271	-200,000	0,022	-0,157
-178,256	-200,000	-0,002	0,007
-177,242	-162,390	0,097	0,003
-176,227	423,134	0,094	0,145
-175,212	-200,000	0,001	0,050
-174,198	800,000	-0,053	-0,114
-173,183	55,759	-0,091	-0,063
-172,169	-133,875	-0,057	0,005
-171,154	189,607	0,014	0,015
-170,139	99,801	0,129	0,106
-169,125	-142,615	0,038	0,003
-168,110	800,000	0,052	-0,105
-167,096	-73,360	-0,110	-0,028
-166,081	266,236	0,020	-0,026
-165,066	50,351	0,118	-0,079
-164,052	106,930	-0,091	0,076
-163,037	-200,000	-0,006	0,073
-162,023	-200,000	0,005	0,130
-161,008	800,000	0,036	-0,078
-159,993	-200,000	0,026	0,086
-158,979	800,000	-0,037	-0,094
-157,964	-200,000	-0,001	-0,150
-156,950	53,499	0,097	-0,066
-155,935	800,000	-0,038	0,113
-154,920	-200,000	-0,007	0,024
-153,906	-200,000	0,014	0,129
-152,891	-200,000	-0,017	0,110
-151,877	-200,000	-0,005	-0,060
-150,862	-49,004	-0,128	-0,043
-149,847	173,536	0,038	-0,039
-148,833	313,847	-0,031	0,041
-147,818	-36,402	0,124	0,047
-146,804	562,772	0,140	0,242
-145,789	800,000	-0,016	-0,032
-144,775	74,173	-0,107	0,080
-143,760	-200,000	-0,023	0,143
-142,745	331,865	-0,027	-0,037
-141,731	-0,599	0,057	-0,029
-140,716	800,000	0,093	0,217
-139,702	800,000	0,034	0,072
-138,687	-37,563	0,051	0,019
-137,672	-200,000	0,009	0,036
-136,658	5,309	0,013	-0,007
-135,643	242,829	-0,077	-0,092
-134,629	-200,000	-0,000	-0,012
-133,614	-82,337	0,027	0,006
-132,599	343,690	-0,017	0,023
-131,585	-200,000	0,037	0,152
-130,570	410,306	0,027	-0,040
-129,556	-200,000	-0,010	-0,174
-128,541	-200,000	0,009	-0,088
-127,526	-9,111	-0,046	-0,022
-126,512	504,048	-0,015	0,025
-125,497	554,631	-0,050	0,085
-124,483	464,941	-0,095	0,151
-123,468	283,706	-0,143	-0,183
-122,453	-186,679	-0,156	0,002
-121,439	-50,633	-0,030	-0,010
-120,424	-200,000	-0,014	-0,044
-119,410	143,488	-0,069	0,065
-118,395	33,008	-0,041	0,025
-117,380	148,705	0,105	0,101
-116,366	800,000	0,019	-0,044
-115,351	-66,578	0,092	-0,026
-114,337	0,926	-0,200	-0,101
-113,322	526,515	-0,064	-0,108
-112,307	-200,000	0,006	0,048
-111,293	148,012	-0,091	0,087
-110,278	-200,000	-0,000	-0,018
-109,264	453,026	0,025	-0,039
-108,249	-200,000	0,002	0,032
-107,234	83,959	-0,088	-0,068
-106,220	-93,421	-0,096	0,019
-105,205	87,121	0,133	-0,104
-104,191	197,227	-0,065	0,071
-103,176	692,566	-0,008	0,015
-102,162	78,547	-0,053	-0,040
-101,147	-200,000	-0,019	0,085
-100,132	-111,584	0,119	-0,017
-99,118	19,402	-0,046	-0,026
-98,103	584,863	0,054	0,095
-97,089	-18,576	-0,049	-0,022
-96,074	454,084	-0,079	-0,125
-95,059	800,000	0,057	-0,154
-94,045	-17,651	-0,121	0,054
-93,030	800,000	0,058	-0,162
-92,016	800,000	-0,041	-0,113
-91,001	26,411	0,057	-0,034
-89,986	321,834	0,138	0,186
-88,972	62,887	0,130	0,092
-87,957	54,672	-0,132	0,090
-86,943	448,262	-0,018	-0,029
-85,928	800,000	-0,045	-0,111
-84,913	-146,182	0,140	0,009
-83,899	121,520	-0,187	-0,165
-82,884	-33,536	0,092	-0,036
-81,870	-200,000	-0,034	0,117
-80,855	800,000	0,035	-0,078
-79,840	217,082	-0,031	-0,035
-78,826	503,316	0,048	0,080
-77,811	123,350	-0,079	-0,070
-76,797	-200,000	-0,010	0,072
-75,782	-200,000	-0,010	0,116
-74,767	217,394	0,142	0,160
-73,753	-36,564	-0,106	0,040
-72,738	2,354	0,067	0,034
-71,724	-200,000	0,010	-0,031
-70,709	-200,000	-0,012	0,107
-69,694	-200,000	0,013	0,060
-68,680	403,443	-0,043	-0,064
-67,665	-38,388	0,038	-0,014
-66,651	54,773	0,099	0,068
-65,636	-200,000	0,010	0,042
-64,622	-72,138	0,067	0,017
-63,607	27,519	-0,075	0,045
-62,592	743,389	-0,040	0,076
-61,578	242,901	-0,047	-0,056
-60,563	11,836	0,083	-0,045
-59,549	-117,759	0,005	0,001
-58,534	-23,749	-1,557	-0,658
-57,519	334,917	-1,500	-2,064
-56,505	-200,000	-0,627	-4,519
-55,490	197,075	1,032	1,116
-54,476	800,000	4,942	11,441
-53,461	-200,000	19,036	319,103
-52,446	-200,000	739,850	2335,717
-51,432	574,600	1655,449	2872,199
-50,417	78,522	1671,259	1263,526
-49,403	21,430	1544,295	886,696
-48,388	15,382	1466,449	812,586
-47,373	17,920	1456,643	819,388
-46,359	16,749	1446,538	808,052
-45,344	13,591	1441,707	790,194
-44,330	13,484	1439,997	788,712
-43,315	13,543	1438,455	788,119
-42,300	13,516	1436,681	786,985
-41,286	13,550	1435,286	786,355
-40,271	13,506	1434,125	785,475
-39,257	13,507	1432,840	784,749
-38,242	13,569	1431,449	784,251
-37,227	13,574	1430,408	783,671
-36,213	13,543	1429,123	782,790
-35,198	13,575	1427,761	782,162
-34,184	13,581	1426,905	781,693
-33,169	13,585	1425,505	780,916
-32,154	13,606	1424,427	780,392
-31,140	13,547	1423,263	779,442
-30,125	13,578	1422,301	779,033
-29,111	13,553	1420,902	778,117
-28,096	13,566	1419,843	777,568
-27,082	13,503	1418,663	776,595
-26,067	13,496	1417,666	775,984
-25,052	13,529	1416,665	775,561
-24,038	13,491	1415,763	774,856
-23,023	13,472	1414,688	774,147
-22,009	13,509	1413,407	773,590
-20,994	13,443	1412,707	772,867
-19,979	13,442	1411,975	772,433
-18,965	13,432	1410,905	771,768
-17,950	13,404	1410,026	771,125
-16,936	13,454	1409,019	770,779
-15,921	13,378	1407,908	769,785
-14,906	13,392	1407,071	769,364
-13,892	13,408	1406,021	768,831
-12,877	13,354	1405,296	768,150
-11,863	13,394	1404,330	767,778
-10,848	13,370	1403,455	767,160
-9,833	13,358	1402,620	766,616
-8,819	13,343	1401,585	765,950
-7,804	13,306	1400,680	765,255
-6,790	13,297	1399,748	764,671
-5,775	13,305	1398,557	764,030
-4,760	13,325	1397,614	763,578
-3,746	13,281	1396,925	762,967
-2,731	13,257	1396,117	762,381
-1,717	13,272	1395,031	761,828
-0,702	13,269	1393,334	760,856
0,313	17,108	1310,417	733,374
1,327	33,608	704,026	432,157
2,342	51,937	123,307	82,956
3,356	3,789	16,645	8,573
4,371	6,329	3,231	1,692
5,386	3,631	0,549	0,282
6,400	-200,000	0,002	0,240
7,415	26,454	-0,271	-0,160
8,429	-68,492	-0,347	-0,094
9,444	44,771	-0,357	-0,232
10,459	120,343	-0,243	-0,213
11,473	-53,230	-0,314	-0,101
12,488	-96,553	-0,327	-0,060
13,502	143,886	-0,276	-0,261
14,517	130,303	-0,293	-0,265
15,531	-5,408	-0,430	-0,208
16,546	52,795	-0,303	-0,204
17,561	241,630	-0,279	-0,330
18,575	67,713	-0,149	-0,107
19,590	49,773	-0,272	-0,181
20,604	-92,809	-0,268	-0,052
21,619	-36,688	-0,436	-0,165
22,634	268,523	-0,345	-0,428
23,648	247,412	-0,316	-0,377
24,663	216,067	-0,374	-0,421
25,677	-11,750	-0,501	-0,231
26,692	-21,367	-0,424	-0,182
27,707	82,464	-0,420	-0,321
28,721	1,268	-0,376	-0,190
29,736	294,132	-0,227	-0,293
30,750	81,404	-0,540	-0,412
31,765	197,824	-0,362	-0,390
32,780	149,573	-0,256	-0,245
33,794	181,902	-0,189	-0,196
34,809	124,876	-0,258	-0,229
35,823	-27,248	-0,491	-0,201
36,838	209,997	-0,317	-0,351
37,853	22,678	-0,406	-0,234
38,867	41,462	-0,348	-0,222
39,882	165,469	-0,380	-0,380
40,896	152,743	-0,274	-0,264
41,911	114,668	-0,312	-0,268
42,926	40,984	-0,402	-0,255
43,940	79,018	-0,374	-0,282
44,955	120,368	-0,286	-0,250
45,969	-20,774	-0,377	-0,163
46,984	13,020	-0,321	-0,174
47,999	191,694	-0,336	-0,358
49,013	139,418	-0,299	-0,277
50,028	115,581	-0,397	-0,342
51,042	117,917	-0,273	-0,237
52,057	26,169	-0,350	-0,206
53,071	-26,698	-0,407	-0,167
54,086	-21,965	-0,380	-0,162
55,101	88,030	-0,354	-0,277
56,115	78,200	-0,335	-0,252
57,130	325,691	-0,230	-0,311
58,144	6,522	-0,375	-0,196
59,159	143,751	-0,303	-0,284
60,174	96,849	-0,415	-0,335
61,188	262,582	-0,199	-0,244
62,203	2,795	-0,485	-0,247
63,217	85,966	-0,250	-0,194
64,232	23,132	-0,316	-0,182
65,247	-36,742	-0,299	-0,113
66,261	104,032	-0,265	-0,219
67,276	-34,112	-0,540	-0,208
68,290	93,713	-0,371	-0,296
69,305	-17,189	-0,366	-0,162
70,320	64,031	-0,286	-0,202
71,334	298,994	-0,210	-0,272
72,349	228,900	-0,240	-0,276
73,363	57,257	-0,335	-0,229
74,378	696,915	-0,150	-0,279
75,393	137,136	-0,338	-0,310
76,407	325,604	-0,185	-0,250
77,422	82,765	-0,238	-0,181
78,436	101,987	-0,296	-0,243
79,451	124,432	-0,227	-0,200
80,466	20,299	-0,338	-0,191
81,480	47,175	-0,312	-0,204
82,495	141,738	-0,349	-0,325
83,509	373,827	-0,120	-0,172
84,524	50,222	-0,238	-0,158
85,539	800,000	-0,068	-0,149
86,553	40,801	-0,298	-0,188
87,568	122,601	-0,226	-0,198
88,582	87,124	-0,356	-0,276
89,597	290,139	-0,195	-0,249
90,611	70,577	-0,343	-0,249
91,626	174,598	-0,250	-0,254
92,641	21,938	-0,217	-0,124
93,655	142,149	-0,224	-0,209
94,670	-21,797	-0,418	-0,178
95,684	24,732	-0,368	-0,214
96,699	133,485	-0,356	-0,323
97,714	277,757	-0,190	-0,238
98,728	85,010	-0,252	-0,194
99,743	-44,369	-0,274	-0,096
100,757	-52,623	-0,392	-0,126
101,772	37,240	-0,336	-0,209
102,787	66,195	-0,275	-0,195
103,801	67,072	-0,304	-0,217
104,816	80,917	-0,346	-0,262
105,830	55,995	-0,207	-0,141
106,845	166,181	-0,263	-0,261
107,860	50,255	-0,157	-0,104
108,874	-121,808	-0,311	-0,036
109,889	131,668	-0,275	-0,248
110,903	230,270	-0,285	-0,327
111,918	151,306	-0,154	-0,147
112,933	101,092	-0,189	-0,154
113,947	103,348	-0,248	-0,204
114,962	9,026	-0,290	-0,153
115,976	-38,264	-0,348	-0,128
116,991	-23,586	-0,311	-0,130
118,006	88,256	-0,238	-0,185
119,020	92,817	-0,251	-0,198
120,035	-46,227	-0,256	-0,088
121,049	6,088	-0,098	0,051
122,064	-116,505	-0,290	-0,037
123,079	221,434	-0,192	-0,216
124,093	88,575	-0,283	-0,220
125,108	-9,787	-0,349	-0,162
126,122	193,804	-0,272	-0,288
127,137	-38,192	-0,270	-0,100
128,151	-18,257	-0,172	-0,075
129,166	-52,888	-0,203	-0,065
130,181	73,292	-0,302	-0,221
131,195	101,593	-0,342	-0,278
132,210	-32,397	-0,259	-0,100
133,224	-13,087	-0,377	-0,171
134,239	77,434	-0,282	-0,210
135,254	145,590	-0,243	-0,228
136,268	37,593	-0,318	-0,197
137,283	125,849	-0,170	-0,150
138,297	215,326	-0,238	-0,265
139,312	254,303	-0,235	-0,281
140,327	308,229	-0,269	-0,352
141,341	419,426	-0,222	-0,334
142,356	6,185	-0,225	-0,116
143,370	800,000	-0,107	-0,239
144,385	78,779	-0,124	-0,093
145,400	228,047	-0,221	-0,252
146,414	93,757	-0,257	-0,203
147,429	92,259	-0,234	-0,184
148,443	219,809	-0,164	-0,184
149,458	226,757	-0,094	-0,106
150,473	-26,009	-0,127	-0,052
151,487	800,000	-0,061	-0,166
152,502	73,274	-0,269	-0,196
153,516	-32,273	-0,188	-0,073
154,531	330,615	-0,209	-0,282
155,546	38,330	-0,141	-0,088
156,560	196,292	-0,252	-0,268
157,575	359,666	-0,173	-0,243
158,589	-76,140	-0,301	-0,074
159,604	70,925	-0,253	-0,183
160,619	7,625	-0,366	-0,191
161,633	-139,850	-0,319	0,023
162,648	215,423	-0,173	-0,192
163,662	13,774	-0,176	-0,095
164,677	16,024	-0,198	-0,109
165,692	585,690	-0,113	-0,194
166,706	-140,222	-0,193	0,014
167,721	-196,192	-0,274	-0,001
168,735	22,687	-0,227	-0,129
169,750	-16,080	-0,292	-0,129
170,764	22,582	-0,242	-0,138
171,779	-84,352	-0,184	-0,040
172,794	-1,188	-0,226	-0,111
173,808	106,030	-0,215	-0,178
174,823	237,711	-0,181	-0,210
175,837	46,372	-0,238	-0,153
176,852	124,685	-0,138	-0,121
177,867	8,001	-0,184	-0,096
178,881	446,619	-0,122	-0,188
179,896	-13,238	-0,075	-0,034
180,910	-29,526	-0,221	-0,088
181,925	-48,302	-0,336	-0,112
182,940	-42,559	-0,264	-0,093
183,954	21,171	-0,271	-0,153
184,969	11,868	-0,192	-0,103
185,983	-21,353	-0,181	0,076
186,998	179,881	-0,112	-0,115
188,013	67,323	-0,210	-0,149
189,027	-61,293	-0,240	-0,070
190,042	116,290	-0,136	-0,116
191,056	40,316	-0,253	-0,158
192,071	-66,823	-0,241	-0,066
193,086	201,580	-0,145	-0,156
194,100	-23,389	-0,245	-0,102
195,115	4,176	-0,301	-0,153
196,129	177,547	-0,232	-0,235
197,144	286,092	-0,274	-0,345
198,159	21,210	-0,248	-0,140
199,173	120,948	-0,125	-0,108
200,188	517,762	-0,161	-0,263
201,202	-200,000	-0,059	-0,190
202,217	-79,053	-0,204	-0,048
203,232	-89,043	-0,199	-0,041
204,246	290,456	-0,242	-0,306
205,261	-84,698	-0,226	-0,049
206,275	166,861	-0,172	-0,170
207,290	-22,678	-0,159	0,066
208,304	-200,000	-0,027	-0,177
209,319	-76,612	-0,188	-0,045
210,334	87,866	-0,195	-0,150
211,348	44,229	-0,184	-0,117
212,363	46,495	-0,277	-0,178
213,377	-35,736	-0,191	-0,072
214,392	494,805	-0,031	-0,050
215,407	-122,018	-0,222	0,025
216,421	-100,930	-0,283	0,048
217,436	177,729	-0,159	-0,162
218,450	100,225	-0,200	-0,161
219,465	131,697	-0,233	-0,208
220,480	654,884	-0,129	-0,230
221,494	83,368	-0,149	-0,113
222,509	-153,335	-0,164	0,008
223,523	10,818	-0,165	-0,087
224,538	-59,430	-0,238	-0,071
225,553	198,246	-0,176	-0,187
226,567	318,616	-0,074	-0,098
227,582	66,429	-0,149	-0,105
228,596	-97,750	-0,154	-0,027
229,611	23,394	-0,152	-0,086
230,626	-150,635	-0,240	-0,013
231,640	57,923	-0,191	-0,129
232,655	33,801	-0,334	-0,201
233,669	-13,534	-0,331	-0,148
234,684	-119,207	-0,198	-0,024
235,699	-29,907	-0,252	-0,099
236,713	-21,629	-0,170	-0,071
237,728	143,733	-0,189	-0,174
238,742	-61,621	-0,195	-0,056
239,757	56,974	-0,262	-0,177
240,772	-185,385	-0,210	0,002
241,786	163,918	-0,209	-0,204
242,801	1,091	-0,142	-0,070
243,815	360,073	-0,089	-0,123
244,830	74,563	-0,117	-0,085
245,844	182,377	-0,205	-0,209
246,859	132,552	-0,258	-0,230
247,874	367,723	-0,229	-0,322
248,888	413,842	-0,211	-0,312
249,903	228,480	-0,136	-0,154
250,917	209,760	-0,142	-0,155
251,932	31,716	-0,201	-0,119
252,947	118,338	-0,147	-0,125
253,961	-106,320	-0,248	0,038
254,976	194,868	-0,184	-0,193
255,990	-200,000	-0,070	-0,323
257,005	582,100	-0,066	-0,112
258,020	50,816	-0,095	0,062
259,034	-200,000	-0,015	-0,055
260,049	-75,400	-0,347	-0,085
261,063	26,867	-0,285	-0,165
262,078	110,568	-0,162	-0,134
263,093	314,093	-0,151	-0,198
264,107	302,089	-0,099	-0,127
265,122	-200,000	-0,081	-0,251
266,136	152,641	-0,075	-0,071
267,151	416,968	-0,083	-0,122
268,166	502,780	-0,124	-0,199
269,180	7,772	-0,259	-0,133
270,195	278,024	-0,091	-0,113
271,209	65,862	-0,149	-0,104
272,224	-80,904	-0,182	-0,041
273,239	-81,253	-0,137	-0,031
274,253	127,095	-0,216	-0,190
275,268	71,182	-0,156	-0,112
276,282	365,100	-0,111	-0,155
277,297	201,308	-0,190	-0,203
278,312	800,000	-0,085	-0,214
279,326	-20,392	-0,208	-0,088
280,341	-149,834	-0,111	0,006
281,355	79,034	-0,134	-0,099
282,370	800,000	-0,091	-0,199
283,384	-64,795	-0,316	-0,088
284,399	800,000	-0,060	-0,156
285,414	-87,749	-0,127	-0,026
286,428	-17,776	-0,200	-0,086
287,443	-84,698	-0,235	0,051
288,457	49,454	-0,038	-0,025
289,472	-121,658	-0,199	0,022
290,487	126,304	-0,143	-0,125
291,501	426,353	-0,139	-0,207
292,516	123,061	-0,079	-0,068
293,530	800,000	-0,058	-0,137
294,545	76,704	-0,133	-0,097
295,560	-184,334	-0,097	-0,001
296,574	-129,935	-0,206	0,019
297,589	-3,478	-0,258	-0,123
298,603	196,693	-0,125	-0,132
299,618	180,428	-0,131	-0,132
300,633	63,189	-0,210	-0,145
301,647	558,883	-0,147	-0,245
302,662	28,777	-0,204	0,119
303,676	105,019	-0,231	-0,188
304,691	-200,000	-0,005	-0,145
305,706	104,671	-0,152	-0,123
306,720	91,998	-0,169	-0,131
307,735	800,000	-0,051	-0,150
308,749	-195,613	-0,129	0,001
309,764	-55,513	-0,126	0,039
310,779	46,401	-0,103	-0,066
311,793	10,857	-0,158	-0,083
312,808	-14,654	-0,169	-0,074
313,822	185,888	-0,188	-0,192
314,837	711,065	-0,119	-0,219
315,852	30,962	-0,214	-0,126
316,866	107,831	-0,106	-0,087
317,881	93,905	-0,149	-0,116
318,895	168,336	-0,039	-0,038
319,910	-103,206	-0,296	-0,048
320,925	72,176	-0,091	-0,065
321,939	126,476	-0,135	-0,118
322,954	-49,570	-0,068	-0,022
323,968	194,444	0,021	0,022
324,983	-108,832	-0,092	0,013
325,997	-200,000	-0,011	-0,143
327,012	37,834	-0,073	-0,045
328,027	-42,088	-0,268	-0,094
329,041	591,098	-0,083	-0,142
330,056	268,144	-0,071	-0,086
331,070	74,732	-0,057	-0,041
332,085	-22,627	-0,102	0,042
333,100	56,599	-0,104	-0,070
334,114	-101,155	-0,184	-0,031
335,129	479,542	-0,110	-0,172
336,143	356,573	-0,144	-0,198
337,158	48,910	-0,128	-0,082
338,173	-58,536	-0,102	-0,030
339,187	27,381	-0,077	-0,044
340,202	212,980	-0,141	-0,153
341,216	800,000	-0,137	-0,263
342,231	229,288	-0,153	-0,172
343,246	46,294	-0,139	-0,088
344,260	8,240	-0,198	-0,102
345,275	-16,446	-0,144	-0,063
346,289	734,981	-0,124	-0,228
347,304	119,906	-0,133	0,113
348,319	246,958	-0,053	-0,061
349,333	67,990	-0,269	-0,189
350,348	-110,358	-0,184	-0,026
351,362	45,519	-0,232	-0,147
352,377	43,582	-0,183	-0,115
353,392	232,601	-0,095	-0,107
354,406	800,000	-0,104	-0,219
355,421	209,005	1312,101	1411,192
356,435	160,843	1472,501	1411,683
