DTS Sentinel unit serial number:	SN410029Multiplexer serial number:	ORYXHardware model number:	OX2-SRSoftware version number:	ORYX F/W v4,00 Oryx Data Collector v3.7.2.0data status	okinstallation	B3 Nyhavnadifferential loss correction	single-endedforward channel	channel 1reverse channel	N/Adate	2023/11/29time	18:32:30forward acquisition time	300,00reverse acquisition time	0,00gamma	499,1914k internal	0,3210k external	0,3210temperature offset calibration	1,0000default loss term (dB/km)	0,3820temperature slope calibration	1,0000multiplexer offset coefficient	1,0000multiplexer slope coefficient	1,0000fibre end	0,00T internal ref (°C)	11,12T ext. ref 1 (°C)	-4,20T ext. ref 2 (°C)	-4,33length (m)	temperature (°C)	Stokes	anti-Stokes-744,400	126,833	-0,279	-0,256
-743,385	497,068	-0,094	0,157
-742,371	12,002	-0,238	-0,132
-741,356	800,000	-0,092	0,292
-740,342	800,000	-0,067	-0,190
-739,327	-200,000	-0,028	0,203
-738,312	236,132	-0,182	-0,218
-737,298	-200,000	0,050	0,181
-736,283	15,539	-0,287	-0,163
-735,269	-200,000	0,003	0,410
-734,254	48,307	-0,196	-0,133
-733,239	119,307	-0,196	0,176
-732,225	164,722	-0,168	-0,172
-731,210	-60,633	0,156	0,048
-730,196	162,743	-0,120	0,122
-729,181	-135,416	0,035	0,003
-728,167	-200,000	-0,011	0,067
-727,152	177,154	-0,043	0,046
-726,137	667,903	-0,079	-0,148
-725,123	-84,131	-0,205	0,047
-724,108	-200,000	-0,030	-0,099
-723,094	-141,196	-0,128	0,009
-722,079	331,337	-0,053	-0,075
-721,064	-200,000	-0,013	-0,112
-720,050	266,048	-0,118	0,150
-719,035	-200,000	-0,009	0,173
-718,021	-200,000	0,017	0,135
-717,006	-200,000	0,008	-0,086
-715,991	-200,000	-0,007	-0,085
-714,977	-200,000	-0,009	0,053
-713,962	-200,000	0,024	-0,101
-712,948	485,674	0,053	-0,088
-711,933	366,420	-0,045	0,065
-710,918	147,916	-0,036	0,035
-709,904	-200,000	-0,019	-0,069
-708,889	-200,000	-0,023	-0,194
-707,875	800,000	-0,034	-0,105
-706,860	-200,000	0,001	-0,061
-705,845	-43,732	0,076	0,028
-704,831	-76,759	0,012	-0,003
-703,816	129,656	-0,059	0,055
-702,802	-21,129	-0,033	-0,015
-701,787	27,722	-0,117	0,071
-700,772	554,976	0,051	0,089
-699,758	149,571	-0,038	0,038
-698,743	-200,000	-0,044	0,236
-697,729	725,115	-0,100	-0,193
-696,714	119,316	-0,114	0,102
-695,699	800,000	-0,044	-0,093
-694,685	246,850	0,111	-0,135
-693,670	117,478	-0,059	0,052
-692,656	69,715	0,089	0,066
-691,641	572,835	-0,030	-0,052
-690,627	-200,000	-0,001	0,035
-689,612	800,000	0,008	0,026
-688,597	-16,447	-0,147	0,067
-687,583	295,276	-0,050	-0,066
-686,568	-54,685	-0,149	-0,049
-685,554	36,405	-0,058	0,037
-684,539	-107,047	-0,063	0,010
-683,524	-200,000	0,003	-0,020
-682,510	-52,529	-0,116	-0,039
-681,495	800,000	-0,027	0,065
-680,481	37,662	-0,043	-0,028
-679,466	800,000	-0,039	-0,110
-678,451	9,659	-0,028	-0,015
-677,437	-167,202	0,168	0,005
-676,422	-200,000	-0,002	0,048
-675,408	143,038	-0,045	0,043
-674,393	142,352	-0,042	0,041
-673,378	-135,044	-0,123	-0,011
-672,364	-107,935	-0,091	0,014
-671,349	-200,000	-0,121	0,000
-670,335	-200,000	0,012	0,049
-669,320	-20,912	-0,174	0,077
-668,305	83,993	-0,113	-0,090
-667,291	800,000	0,048	-0,120
-666,276	-158,181	-0,058	-0,002
-665,262	36,567	-0,011	0,007
-664,247	800,000	-0,036	-0,087
-663,232	-144,119	0,081	-0,005
-662,218	-200,000	0,009	0,037
-661,203	800,000	-0,033	-0,077
-660,189	-97,557	0,061	-0,011
-659,174	-75,692	-0,044	0,011
-658,159	-34,693	-0,141	-0,055
-657,145	729,764	-0,062	-0,121
-656,130	-200,000	-0,014	0,120
-655,116	-200,000	-0,009	0,242
-654,101	-200,000	0,007	0,046
-653,086	30,066	0,070	0,043
-652,072	-113,003	-0,230	-0,033
-651,057	-49,111	-0,057	-0,019
-650,043	8,854	-0,042	0,023
-649,028	64,979	0,036	0,026
-648,014	-185,411	0,026	0,000
-646,999	-33,650	0,079	0,031
-645,984	506,911	-0,029	0,049
-644,970	-28,951	-0,169	-0,070
-643,955	-200,000	-0,001	0,079
-642,941	194,695	-0,102	0,112
-641,926	-89,184	0,058	0,012
-640,911	-196,783	-0,088	0,000
-639,897	-24,507	0,068	0,029
-638,882	-200,000	0,012	0,050
-637,868	8,292	0,044	-0,024
-636,853	482,023	-0,030	0,049
-635,838	50,176	-0,126	-0,086
-634,824	-200,000	-0,009	-0,089
-633,809	800,000	0,017	-0,039
-632,795	-200,000	-0,037	0,175
-631,780	116,603	-0,074	0,066
-630,765	-13,276	0,080	0,038
-629,751	365,999	-0,021	0,031
-628,736	-4,642	-0,113	0,056
-627,722	-200,000	0,013	-0,062
-626,707	156,119	0,012	-0,012
-625,692	-62,404	-0,043	0,013
-624,678	-16,988	0,011	-0,005
-623,663	5,179	-0,082	0,044
-622,649	38,324	-0,020	-0,013
-621,634	-11,108	-0,072	-0,034
-620,619	92,271	0,022	0,018
-619,605	-200,000	-0,015	-0,171
-618,590	243,443	-0,112	-0,136
-617,576	-200,000	-0,008	0,067
-616,561	461,434	0,007	-0,012
-615,546	636,297	-0,019	-0,034
-614,532	79,854	-0,120	0,093
-613,517	-30,724	-0,144	0,058
-612,503	-99,805	0,032	-0,006
-611,488	-160,494	0,112	-0,004
-610,474	85,975	0,158	0,126
-609,459	-200,000	-0,007	0,042
-608,444	-200,000	-0,019	0,094
-607,430	-28,737	-0,223	-0,092
-606,415	-13,589	-0,084	-0,039
-605,401	-94,558	0,092	-0,018
-604,386	409,162	-0,031	0,047
-603,371	727,762	-0,042	0,081
-602,357	800,000	-0,018	-0,043
-601,342	-200,000	0,027	-0,091
-600,328	-10,922	-0,091	0,043
-599,313	-51,043	-0,065	0,022
-598,298	97,347	-0,020	-0,017
-597,284	-200,000	-0,024	-0,106
-596,269	-35,938	0,086	-0,033
-595,255	800,000	-0,038	-0,078
-594,240	800,000	-0,041	-0,123
-593,225	-200,000	0,016	-0,072
-592,211	-200,000	0,003	-0,084
-591,196	800,000	-0,072	0,179
-590,182	-83,232	-0,079	0,018
-589,167	-66,378	-0,091	-0,026
-588,152	-91,516	0,071	-0,014
-587,138	228,027	-0,112	-0,132
-586,123	-200,000	-0,017	-0,091
-585,109	190,415	0,042	0,045
-584,094	322,603	-0,054	0,074
-583,079	-200,000	-0,002	0,095
-582,065	44,271	0,141	0,093
-581,050	-15,817	0,064	0,029
-580,036	800,000	0,037	-0,110
-579,021	71,747	0,117	-0,088
-578,006	526,665	-0,048	-0,083
-576,992	133,313	0,045	0,042
-575,977	651,322	0,035	0,065
-574,963	800,000	0,040	-0,108
-573,948	18,325	-0,027	-0,016
-572,934	-51,227	-0,095	0,032
-571,919	69,751	0,006	-0,005
-570,904	34,022	-0,078	-0,049
-569,890	140,125	0,032	0,031
-568,875	159,298	0,023	0,023
-567,861	19,857	-0,053	0,031
-566,846	-16,004	0,051	-0,023
-565,831	-113,696	0,142	-0,020
-564,817	379,203	-0,016	-0,024
-563,802	703,526	-0,017	-0,032
-562,788	23,350	-0,094	0,055
-561,773	800,000	0,021	-0,047
-560,758	29,712	-0,020	0,012
-559,744	-89,114	0,046	-0,010
-558,729	-200,000	0,011	0,089
-557,715	-48,345	-0,240	-0,083
-556,700	-59,158	-0,122	0,038
-555,685	174,737	-0,032	-0,034
-554,671	515,929	-0,047	0,079
-553,656	-200,000	-0,004	0,053
-552,642	-14,240	0,097	0,045
-551,627	800,000	0,034	-0,068
-550,612	-200,000	-0,004	-0,173
-549,598	800,000	-0,016	-0,050
-548,583	-5,544	0,117	-0,057
-547,569	277,063	-0,079	-0,102
-546,554	800,000	0,008	-0,024
-545,539	-130,315	-0,136	0,013
-544,525	-200,000	-0,005	0,043
-543,510	-200,000	-0,024	-0,092
-542,496	-100,133	0,058	0,010
-541,481	113,605	0,019	0,016
-540,466	-62,861	0,105	0,031
-539,452	-24,158	0,049	-0,021
-538,437	-200,000	0,032	0,119
-537,423	-16,662	-0,083	0,037
-536,408	200,750	0,025	-0,028
-535,393	-200,000	-0,015	-0,210
-534,379	-50,409	-0,127	0,043
-533,364	131,747	0,118	0,109
-532,350	273,776	0,020	0,025
-531,335	-200,000	-0,019	0,111
-530,321	-200,000	-0,016	0,129
-529,306	-200,000	-0,015	0,060
-528,291	537,238	-0,087	-0,149
-527,277	800,000	-0,025	-0,074
-526,262	730,609	-0,032	-0,062
-525,248	43,877	0,128	-0,084
-524,233	286,807	0,028	0,036
-523,218	-50,003	0,090	-0,030
-522,204	676,916	-0,031	0,059
-521,189	800,000	-0,044	-0,127
-520,175	-200,000	-0,015	0,084
-519,160	-200,000	0,014	0,066
-518,145	-85,391	-0,120	0,027
-517,131	-102,366	0,102	0,017
-516,116	11,220	0,050	-0,027
-515,102	218,231	-0,035	0,040
-514,087	-172,552	-0,090	-0,002
-513,072	-200,000	-0,051	-0,176
-512,058	276,076	-0,050	0,064
-511,043	800,000	0,016	0,049
-510,029	-161,881	0,153	0,005
-509,014	147,501	0,054	0,053
-507,999	-139,264	-0,042	-0,003
-506,985	103,722	0,109	-0,092
-505,970	800,000	0,047	-0,125
-504,956	18,695	-0,079	0,045
-503,941	800,000	-0,065	0,139
-502,926	-200,000	-0,012	0,057
-501,912	215,509	0,038	-0,044
-500,897	800,000	0,045	-0,096
-499,883	800,000	-0,041	0,087
-498,868	-200,000	-0,003	0,085
-497,853	800,000	0,040	-0,116
-496,839	347,853	0,088	0,125
-495,824	-200,000	-0,021	-0,175
-494,810	117,776	0,112	0,099
-493,795	-10,056	-0,035	0,017
-492,781	-99,175	-0,095	0,017
-491,766	50,315	-0,080	-0,054
-490,751	-33,076	-0,105	-0,042
-489,737	800,000	-0,024	-0,063
-488,722	-200,000	0,009	0,080
-487,708	-200,000	-0,005	0,031
-486,693	207,820	-0,061	-0,069
-485,678	234,324	0,028	0,034
-484,664	-200,000	0,005	0,075
-483,649	651,826	-0,034	-0,062
-482,635	-200,000	0,006	0,055
-481,620	-200,000	-0,020	0,083
-480,605	246,678	-0,042	0,051
-479,591	56,212	0,098	0,068
-478,576	153,524	0,042	-0,042
-477,562	240,104	-0,025	-0,030
-476,547	-27,107	-0,068	-0,028
-475,532	307,962	0,078	-0,104
-474,518	800,000	0,076	-0,166
-473,503	-78,115	0,108	0,027
-472,489	117,903	-0,022	-0,019
-471,474	-83,348	0,030	0,007
-470,459	-9,693	-0,016	-0,007
-469,445	800,000	-0,036	-0,104
-468,430	-43,281	-0,133	-0,048
-467,416	790,379	0,055	-0,109
-466,401	264,653	0,124	0,155
-465,386	247,325	0,018	0,022
-464,372	86,934	-0,022	-0,017
-463,357	294,664	-0,018	0,024
-462,343	800,000	-0,047	-0,127
-461,328	25,883	0,101	-0,060
-460,313	124,295	0,026	0,024
-459,299	-11,760	0,056	0,026
-458,284	800,000	0,037	0,085
-457,270	-127,234	-0,049	0,005
-456,255	-200,000	-0,010	-0,169
-455,241	59,681	-0,075	-0,053
-454,226	241,250	0,111	0,134
-453,211	-200,000	0,016	0,057
-452,197	259,976	-0,046	0,057
-451,182	800,000	-0,051	0,103
-450,168	-200,000	0,019	-0,168
-449,153	250,115	-0,010	-0,012
-448,138	-200,000	0,003	-0,052
-447,124	309,336	-0,027	0,036
-446,109	168,831	0,054	-0,056
-445,095	-50,170	0,077	0,026
-444,080	112,279	-0,107	0,093
-443,065	55,785	-0,070	0,048
-442,051	288,255	0,076	-0,099
-441,036	-200,000	-0,043	-0,138
-440,022	-93,283	-0,009	-0,002
-439,007	138,460	-0,040	-0,037
-437,992	-90,921	-0,080	0,016
-436,978	-136,825	0,104	-0,008
-435,963	-35,027	0,035	-0,014
-434,949	-200,000	0,011	0,076
-433,934	-200,000	0,010	-0,049
-432,919	-200,000	-0,025	-0,180
-431,905	131,615	-0,083	-0,076
-430,890	149,854	0,056	0,054
-429,876	51,069	0,061	0,042
-428,861	-200,000	0,001	0,032
-427,846	162,717	-0,093	0,093
-426,832	-12,728	-0,090	0,042
-425,817	800,000	0,041	-0,088
-424,803	-134,927	0,074	-0,006
-423,788	76,935	-0,062	0,047
-422,773	135,665	0,119	0,111
-421,759	110,812	0,105	0,091
-420,744	-114,843	0,111	-0,015
-419,730	306,842	-0,078	-0,104
-418,715	212,449	0,010	-0,012
-417,701	-200,000	-0,008	0,039
-416,686	-200,000	-0,009	-0,053
-415,671	190,125	-0,085	0,092
-414,657	157,963	0,022	0,022
-413,642	164,411	-0,062	-0,063
-412,628	261,674	-0,112	0,139
-411,613	785,613	-0,042	-0,082
-410,598	-13,209	-0,045	0,021
-409,584	-149,994	-0,123	0,007
-408,569	-200,000	0,004	0,106
-407,555	800,000	-0,010	0,028
-406,540	800,000	0,050	0,144
-405,525	38,992	0,031	0,020
-404,511	-200,000	-0,000	0,002
-403,496	-141,733	0,111	0,008
-402,482	-200,000	0,006	0,056
-401,467	-200,000	-0,015	0,096
-400,452	25,798	0,106	0,063
-399,438	-200,000	-0,005	0,125
-398,423	800,000	0,037	-0,082
-397,409	-200,000	0,005	-0,064
-396,394	302,634	0,023	-0,030
-395,379	-131,633	-0,036	0,003
-394,365	-200,000	0,008	-0,121
-393,350	83,783	-0,061	-0,048
-392,336	191,202	-0,053	0,058
-391,321	-200,000	-0,009	0,064
-390,306	-200,000	-0,018	-0,093
-389,292	199,023	-0,045	-0,050
-388,277	11,168	-0,077	-0,042
-387,263	511,665	-0,045	0,076
-386,248	-139,529	-0,055	0,004
-385,233	137,814	-0,035	0,033
-384,219	-156,446	0,095	-0,004
-383,204	-135,940	-0,076	-0,006
-382,190	-200,000	-0,020	0,099
-381,175	-200,000	0,022	0,077
-380,160	-69,357	0,146	-0,040
-379,146	240,780	0,077	0,092
-378,131	-8,941	0,071	-0,034
-377,117	800,000	-0,019	-0,042
-376,102	800,000	0,009	0,024
-375,088	-200,000	-0,018	-0,115
-374,073	-75,855	0,150	-0,038
-373,058	699,331	-0,006	-0,012
-372,044	-124,333	0,026	0,003
-371,029	17,812	0,052	-0,029
-370,015	304,362	0,060	0,080
-369,000	800,000	-0,088	-0,177
-367,985	562,653	-0,024	0,042
-366,971	106,424	-0,093	-0,078
-365,956	624,129	0,094	-0,170
-364,942	-200,000	-0,057	0,215
-363,927	-200,000	-0,026	-0,121
-362,912	-62,754	-0,049	-0,014
-361,898	87,623	-0,021	-0,017
-360,883	-200,000	-0,020	-0,101
-359,869	-59,795	0,035	0,011
-358,854	800,000	0,017	0,048
-357,839	-65,884	0,079	0,022
-356,825	-34,314	0,084	0,033
-355,810	444,764	-0,075	0,118
-354,796	448,093	-0,026	0,042
-353,781	-200,000	0,008	-0,053
-352,766	520,008	-0,064	-0,107
-351,752	-20,861	0,058	0,025
-350,737	800,000	-0,037	0,093
-349,723	-117,883	0,146	0,019
-348,708	42,499	-0,102	0,066
-347,693	338,918	-0,073	0,102
-346,679	-200,000	0,038	-0,144
-345,664	-200,000	-0,016	-0,059
-344,650	538,377	-0,078	-0,134
-343,635	-17,919	0,145	-0,065
-342,620	179,761	0,050	-0,052
-341,606	-159,490	-0,084	-0,003
-340,591	129,613	-0,065	-0,059
-339,577	-45,018	-0,046	0,016
-338,562	-96,549	0,100	0,019
-337,548	-42,138	0,025	-0,009
-336,533	-67,853	0,129	-0,036
-335,518	800,000	-0,060	-0,144
-334,504	-200,000	0,008	-0,157
-333,489	192,123	-0,039	-0,042
-332,475	295,530	-0,026	-0,034
-331,460	49,120	0,030	-0,020
-330,445	-200,000	0,034	-0,136
-329,431	-200,000	-0,010	0,050
-328,416	285,074	0,066	0,085
-327,402	318,215	0,059	0,080
-326,387	-38,533	-0,044	-0,017
-325,372	-200,000	-0,024	-0,135
-324,358	800,000	0,055	-0,163
-323,343	-64,772	0,070	0,020
-322,329	800,000	-0,047	0,116
-321,314	-23,248	0,062	0,027
-320,299	437,404	-0,093	0,145
-319,285	-200,000	0,047	-0,149
-318,270	-200,000	0,007	-0,054
-317,256	450,336	-0,083	0,132
-316,241	-9,741	0,019	-0,009
-315,226	658,924	0,021	0,039
-314,212	-200,000	-0,017	-0,124
-313,197	356,596	0,088	-0,126
-312,183	-77,220	-0,108	-0,027
-311,168	357,413	0,015	0,021
-310,153	198,585	-0,016	0,017
-309,139	426,160	0,102	-0,157
-308,124	423,225	0,040	-0,061
-307,110	-200,000	0,016	0,053
-306,095	122,843	0,138	0,124
-305,080	-200,000	0,012	0,055
-304,066	267,586	0,100	0,126
-303,051	-31,635	0,015	0,006
-302,037	-35,026	0,032	0,012
-301,022	23,375	-0,100	0,058
-300,008	-113,577	0,204	0,028
-298,993	149,561	-0,040	-0,039
-297,978	-84,528	-0,135	0,030
-296,964	55,849	-0,190	0,131
-295,949	-200,000	-0,034	0,155
-294,935	-200,000	0,008	-0,049
-293,920	180,749	0,067	-0,070
-292,905	-200,000	0,013	-0,051
-291,891	449,546	0,054	0,085
-290,876	549,289	0,127	0,218
-289,862	-200,000	-0,029	-0,096
-288,847	122,305	0,062	0,056
-287,832	-200,000	-0,041	-0,193
-286,818	81,232	0,055	-0,042
-285,803	352,326	0,043	0,061
-284,789	-200,000	-0,017	-0,087
-283,774	-22,659	0,136	0,059
-282,759	66,135	-0,035	0,025
-281,745	1,653	0,095	0,048
-280,730	-65,511	-0,088	-0,025
-279,716	478,676	-0,019	0,031
-278,701	-19,475	0,051	-0,022
-277,686	-60,842	0,100	-0,030
-276,672	-192,981	-0,132	0,001
-275,657	-108,325	0,041	0,006
-274,643	-5,716	0,032	-0,015
-273,628	-200,000	0,011	0,111
-272,613	20,029	-0,066	0,038
-271,599	47,594	0,189	0,125
-270,584	-38,406	-0,060	0,023
-269,570	283,410	-0,037	0,048
-268,555	-200,000	-0,048	0,191
-267,540	-64,342	-0,092	0,026
-266,526	-200,000	-0,043	-0,137
-265,511	800,000	-0,032	0,073
-264,497	-200,000	0,035	0,154
-263,482	-99,178	0,059	0,010
-262,467	-200,000	0,005	0,134
-261,453	675,506	-0,015	0,028
-260,438	238,557	0,066	-0,078
-259,424	800,000	-0,046	-0,125
-258,409	-111,342	0,094	0,013
-257,395	-200,000	0,003	-0,165
-256,380	7,116	-0,110	-0,058
-255,365	-200,000	0,024	-0,107
-254,351	203,295	-0,072	0,079
-253,336	285,862	0,044	0,056
-252,322	192,433	-0,094	-0,101
-251,307	107,195	-0,060	-0,051
-250,292	800,000	-0,047	-0,145
-249,278	-15,635	0,121	-0,055
-248,263	-0,563	-0,065	-0,033
-247,249	-69,620	0,039	0,011
-246,234	-200,000	-0,010	-0,035
-245,219	-200,000	0,008	-0,163
-244,205	155,498	0,170	0,166
-243,190	-200,000	0,007	-0,068
-242,176	-200,000	0,035	-0,147
-241,161	-200,000	0,025	-0,078
-240,146	-61,599	-0,109	-0,032
-239,132	-78,687	-0,046	-0,011
-238,117	-200,000	0,014	-0,100
-237,103	51,048	-0,146	0,098
-236,088	-103,987	-0,019	0,003
-235,073	397,265	0,074	0,110
-234,059	156,015	-0,054	-0,053
-233,044	800,000	0,031	0,085
-232,030	69,479	-0,117	0,086
-231,015	-23,650	0,130	0,055
-230,000	397,432	-0,037	-0,055
-228,986	-183,954	-0,049	-0,001
-227,971	8,570	-0,148	-0,079
-226,957	174,679	0,125	0,129
-225,942	-73,879	0,109	0,028
-224,927	181,741	0,037	0,039
-223,913	800,000	0,017	-0,043
-222,898	-200,000	-0,028	-0,150
-221,884	4,803	-0,039	0,020
-220,869	-200,000	-0,013	-0,116
-219,855	-69,657	0,148	0,040
-218,840	-200,000	-0,029	0,142
-217,825	800,000	0,098	0,225
-216,811	-200,000	-0,001	-0,046
-215,796	169,966	-0,080	-0,081
-214,782	-4,553	0,045	0,022
-213,767	708,854	-0,002	-0,005
-212,752	-200,000	0,020	0,105
-211,738	65,395	-0,076	0,055
-210,723	65,375	0,106	0,076
-209,709	523,460	-0,044	-0,073
-208,694	42,966	-0,032	-0,021
-207,679	-53,844	0,195	-0,063
-206,665	145,381	-0,062	-0,059
-205,650	-53,479	0,238	0,077
-204,636	800,000	-0,007	0,019
-203,621	186,034	-0,091	-0,097
-202,606	-200,000	0,006	0,032
-201,592	158,348	-0,072	0,071
-200,577	800,000	-0,060	-0,127
-199,563	27,247	0,051	-0,030
-198,548	-200,000	-0,021	0,216
-197,533	193,095	0,081	0,087
-196,519	800,000	0,013	-0,030
-195,504	-175,100	0,110	0,002
-194,490	55,418	0,100	-0,068
-193,475	791,551	0,012	0,024
-192,460	100,756	0,054	0,044
-191,446	-123,973	-0,066	-0,007
-190,431	-52,340	0,095	0,031
-189,417	800,000	0,040	-0,085
-188,402	62,882	0,052	-0,037
-187,387	-26,115	-0,138	-0,057
-186,373	121,810	0,058	0,052
-185,358	-200,000	-0,011	-0,050
-184,344	800,000	-0,021	0,051
-183,329	73,148	0,063	0,047
-182,315	800,000	-0,128	0,253
-181,300	155,142	-0,058	0,056
-180,285	7,186	-0,145	0,077
-179,271	-200,000	0,027	0,122
-178,256	91,533	-0,032	0,026
-177,242	-200,000	0,012	-0,115
-176,227	-200,000	0,014	0,105
-175,212	800,000	-0,062	0,127
-174,198	-200,000	0,020	-0,104
-173,183	83,005	-0,098	0,075
-172,169	0,794	-0,105	-0,053
-171,154	68,236	-0,114	-0,083
-170,139	-85,385	0,073	0,016
-169,125	611,165	0,028	0,049
-168,110	-200,000	-0,001	-0,099
-167,096	87,034	0,094	-0,073
-166,081	-148,851	0,129	-0,007
-165,066	800,000	-0,030	0,066
-164,052	37,874	-0,087	0,055
-163,037	-55,626	0,144	0,045
-162,023	-46,533	0,052	-0,018
-161,008	-17,432	0,008	-0,004
-159,993	-200,000	-0,004	0,156
-158,979	-200,000	0,010	-0,046
-157,964	166,286	0,078	-0,078
-156,950	345,900	-0,032	-0,045
-155,935	-45,379	0,074	0,026
-154,920	800,000	0,023	0,067
-153,906	88,001	0,026	-0,020
-152,891	-23,078	-0,081	0,034
-151,877	-14,070	-0,094	0,043
-150,862	-34,028	0,077	-0,030
-149,847	146,966	0,045	-0,043
-148,833	601,438	-0,035	0,061
-147,818	-200,000	0,003	0,052
-146,804	20,621	0,090	0,052
-145,789	16,727	-0,105	-0,059
-144,775	-26,917	0,150	-0,062
-143,760	-200,000	0,017	-0,126
-142,745	-200,000	-0,034	-0,108
-141,731	800,000	-0,061	-0,120
-140,716	44,433	-0,076	0,050
-139,702	43,048	0,084	-0,054
-138,687	152,307	-0,038	0,037
-137,672	-27,992	0,013	-0,005
-136,658	83,514	-0,046	-0,036
-135,643	800,000	0,014	-0,036
-134,629	-200,000	-0,002	0,062
-133,614	-200,000	0,018	0,091
-132,599	59,628	0,046	0,032
-131,585	-200,000	0,031	0,114
-130,570	-200,000	0,023	0,104
-129,556	404,215	-0,037	-0,055
-128,541	-40,172	-0,036	-0,013
-127,526	221,524	0,058	-0,067
-126,512	101,315	0,089	-0,074
-125,497	133,330	0,108	0,099
-124,483	-48,732	-0,041	-0,014
-123,468	51,008	-0,037	0,025
-122,453	525,637	-0,057	-0,096
-121,439	-200,000	-0,013	-0,107
-120,424	246,172	-0,053	-0,064
-119,410	55,482	-0,004	-0,003
-118,395	-38,840	-0,044	0,016
-117,380	-130,166	-0,065	-0,006
-116,366	431,198	0,043	0,066
-115,351	-39,153	-0,160	0,059
-114,337	129,717	0,071	0,064
-113,322	-59,962	0,055	-0,016
-112,307	674,924	0,022	0,040
-111,293	-29,426	-0,056	-0,022
-110,278	-200,000	-0,009	0,049
-109,264	32,115	-0,168	0,102
-108,249	-158,557	0,077	0,003
-107,234	-44,710	-0,058	0,020
-106,220	-74,307	-0,053	0,013
-105,205	552,042	0,064	0,109
-104,191	461,601	-0,061	0,097
-103,176	141,622	-0,061	0,058
-102,162	-27,160	-0,066	-0,027
-101,147	-74,008	-0,132	0,034
-100,132	-200,000	-0,068	-0,218
-99,118	-200,000	0,000	-0,095
-98,103	-157,566	0,079	-0,003
-97,089	76,885	0,012	-0,009
-96,074	800,000	0,040	0,081
-95,059	-200,000	-0,016	0,090
-94,045	459,387	0,059	0,093
-93,030	-15,781	0,054	-0,024
-92,016	-165,020	-0,037	-0,001
-91,001	-63,346	-0,025	0,007
-89,986	-200,000	0,041	-0,163
-88,972	83,673	-0,118	0,091
-87,957	727,138	0,050	-0,095
-86,943	-96,025	-0,118	0,022
-85,928	800,000	0,064	-0,175
-84,913	-61,874	-0,101	0,030
-83,899	-110,183	-0,041	-0,006
-82,884	-200,000	0,003	0,101
-81,870	19,582	-0,131	-0,074
-80,855	-120,514	0,104	0,012
-79,840	-41,671	0,088	0,032
-78,826	-113,246	-0,031	-0,004
-77,811	-134,649	-0,093	-0,008
-76,797	-121,334	0,154	-0,018
-75,782	113,425	0,124	-0,106
-74,767	-72,509	-0,137	-0,036
-73,753	262,398	-0,061	-0,075
-72,738	-200,000	-0,014	-0,083
-71,724	150,047	-0,101	-0,097
-70,709	62,026	-0,129	0,091
-69,694	-44,853	0,096	-0,034
-68,680	-200,000	-0,001	-0,040
-67,665	375,785	0,041	0,059
-66,651	47,103	-0,104	0,069
-65,636	568,339	-0,043	0,074
-64,622	-200,000	0,026	-0,099
-63,607	-27,113	-0,073	0,030
-62,592	-165,707	-0,118	0,004
-61,578	800,000	-0,017	-0,049
-60,563	119,591	0,115	-0,101
-59,549	753,250	0,055	0,106
-58,534	2,374	-2,042	-1,040
-57,519	461,896	-1,310	-2,071
-56,505	-200,000	-0,332	-4,335
-55,490	385,708	1,004	1,467
-54,476	800,000	5,070	11,167
-53,461	-200,000	20,933	329,501
-52,446	800,000	755,803	2320,964
-51,432	550,833	1661,426	2825,440
-50,417	73,764	1664,588	1230,482
-49,403	18,968	1537,898	867,867
-48,388	12,968	1460,732	795,272
-47,373	19,015	1451,330	819,174
-46,359	16,030	1440,726	798,940
-45,344	11,264	1436,394	773,800
-44,330	11,208	1434,648	772,561
-43,315	11,180	1432,677	771,336
-42,300	11,147	1431,112	770,302
-41,286	11,211	1429,586	769,756
-40,271	11,151	1428,346	768,771
-39,257	11,137	1427,177	768,048
-38,242	11,170	1426,031	767,556
-37,227	11,159	1425,072	766,957
-36,213	11,195	1423,648	766,332
-35,198	11,215	1422,566	765,811
-34,184	11,253	1421,519	765,400
-33,169	11,166	1420,294	764,296
-32,154	11,269	1419,000	764,058
-31,140	11,232	1418,060	763,346
-30,125	11,256	1416,936	762,823
-29,111	11,239	1415,715	762,057
-28,096	11,229	1414,713	761,437
-27,082	11,162	1413,528	760,456
-26,067	11,178	1412,500	759,950
-25,052	11,217	1411,388	759,504
-24,038	11,169	1410,257	758,640
-23,023	11,169	1409,265	758,075
-22,009	11,156	1408,358	757,497
-20,994	11,080	1407,619	756,713
-19,979	11,129	1406,500	756,311
-18,965	11,107	1405,517	755,650
-17,950	11,126	1404,409	755,112
-16,936	11,062	1404,055	754,596
-15,921	11,078	1402,714	753,916
-14,906	11,091	1401,640	753,369
-13,892	11,125	1400,907	753,105
-12,877	11,049	1400,231	752,360
-11,863	11,054	1399,292	751,846
-10,848	11,034	1398,404	751,247
-9,833	11,020	1397,617	750,729
-8,819	10,953	1396,766	749,935
-7,804	10,938	1395,686	749,251
-6,790	11,003	1394,539	748,909
-5,775	10,980	1393,715	748,329
-4,760	10,983	1392,567	747,696
-3,746	10,967	1391,911	747,244
-2,731	10,986	1390,981	746,799
-1,717	10,988	1389,895	746,197
-0,702	10,924	1388,298	745,017
0,313	14,969	1302,007	717,242
1,327	31,025	693,932	418,841
2,342	48,320	120,451	79,405
3,356	2,901	16,542	8,446
4,371	3,649	3,453	1,771
5,386	-24,971	0,859	0,358
6,400	-200,000	0,077	0,316
7,415	-9,009	-0,251	-0,118
8,429	141,422	-0,365	-0,341
9,444	470,315	-0,168	-0,268
10,459	60,516	-0,270	-0,188
11,473	-5,131	-0,357	-0,172
12,488	31,710	-0,291	-0,176
13,502	60,167	-0,336	-0,234
14,517	-21,797	-0,351	-0,150
15,531	70,662	-0,333	-0,243
16,546	199,469	-0,296	-0,320
17,561	42,000	-0,361	-0,230
18,575	-104,913	-0,207	-0,033
19,590	-35,286	-0,286	-0,109
20,604	13,375	-0,260	-0,142
21,619	182,195	-0,322	-0,335
22,634	114,786	-0,487	-0,418
23,648	43,191	-0,495	-0,317
24,663	98,637	-0,434	-0,352
25,677	104,745	-0,269	-0,223
26,692	-19,736	-0,428	-0,186
27,707	25,756	-0,289	-0,169
28,721	-30,626	-0,516	-0,205
29,736	101,869	-0,430	-0,353
30,750	46,919	-0,334	-0,218
31,765	101,128	-0,373	-0,305
32,780	133,789	-0,299	-0,272
33,794	135,015	-0,289	-0,264
34,809	323,637	-0,234	-0,314
35,823	-16,742	-0,439	-0,195
36,838	90,510	-0,417	-0,328
37,853	104,619	-0,334	-0,276
38,867	40,819	-0,341	-0,216
39,882	28,843	-0,358	-0,213
40,896	285,775	-0,234	-0,297
41,911	9,552	-0,322	-0,171
42,926	104,686	-0,300	-0,249
43,940	143,773	-0,419	-0,393
44,955	57,528	-0,336	-0,231
45,969	30,489	-0,336	-0,202
46,984	336,772	-0,239	-0,328
47,999	53,266	-0,246	-0,165
49,013	144,324	-0,264	-0,247
50,028	56,302	-0,309	-0,210
51,042	-10,405	-0,349	-0,162
52,057	-1,244	-0,383	-0,189
53,071	121,452	-0,339	-0,297
54,086	125,839	-0,319	-0,283
55,101	149,360	-0,326	-0,310
56,115	39,996	-0,306	-0,193
57,130	69,749	-0,422	-0,305
58,144	21,290	-0,382	-0,218
59,159	-30,648	-0,328	-0,130
60,174	28,610	-0,417	-0,247
61,188	243,113	-0,220	-0,259
62,203	229,347	-0,287	-0,330
63,217	27,426	-0,417	-0,246
64,232	379,865	-0,209	-0,302
65,247	-56,076	-0,330	-0,102
66,261	-32,249	-0,324	-0,126
67,276	94,373	-0,349	-0,278
68,290	-15,570	-0,272	-0,121
69,305	-19,720	-0,334	-0,144
70,320	24,304	-0,323	-0,187
71,334	-57,515	-0,286	-0,087
72,349	-6,296	-0,339	-0,162
73,363	85,284	-0,432	-0,332
74,378	136,964	-0,341	-0,312
75,393	242,733	-0,227	-0,267
76,407	169,621	-0,243	-0,243
77,422	-117,147	-0,296	-0,037
78,436	34,223	-0,328	-0,200
79,451	-107,637	-0,339	-0,051
80,466	8,024	-0,307	-0,161
81,480	90,246	-0,376	-0,294
82,495	42,943	-0,317	-0,202
83,509	-14,011	-0,455	-0,205
84,524	332,505	-0,144	-0,195
85,539	97,464	-0,190	-0,153
86,553	-79,306	-0,243	-0,057
87,568	16,641	-0,304	-0,168
88,582	97,639	-0,273	-0,220
89,597	-22,158	-0,239	-0,101
90,611	-80,593	-0,255	-0,059
91,626	336,683	-0,183	-0,249
92,641	65,029	-0,197	-0,139
93,655	78,809	-0,240	-0,179
94,670	-150,056	-0,296	0,016
95,684	-33,450	-0,288	-0,111
96,699	-62,646	-0,299	-0,086
97,714	-32,128	-0,332	-0,129
98,728	10,895	-0,264	-0,141
99,743	37,584	-0,230	-0,142
100,757	33,345	-0,202	-0,122
101,772	100,052	-0,188	-0,152
102,787	-147,481	-0,289	-0,017
103,801	23,118	-0,358	-0,205
104,816	107,592	-0,204	-0,170
105,830	-185,062	-0,372	0,004
106,845	220,242	-0,145	-0,163
107,860	563,089	-0,133	-0,226
108,874	-15,920	-0,290	-0,129
109,889	-55,743	-0,273	-0,085
110,903	62,750	-0,251	-0,175
111,918	-117,423	-0,286	-0,036
112,933	51,581	-0,184	-0,122
113,947	185,154	-0,179	-0,186
114,962	68,453	-0,214	-0,153
115,976	-190,534	-0,225	-0,002
116,991	-22,730	-0,302	-0,127
118,006	20,711	-0,247	-0,139
119,020	31,009	-0,307	-0,183
120,035	-47,591	-0,240	-0,081
121,049	159,522	-0,206	-0,200
122,064	1,591	-0,354	-0,177
123,079	-36,926	-0,237	-0,088
124,093	-41,238	-0,343	-0,123
125,108	51,715	-0,282	-0,187
126,122	161,052	-0,300	-0,293
127,137	116,940	-0,261	-0,224
128,151	234,486	-0,186	-0,215
129,166	-22,755	-0,236	-0,099
130,181	17,754	-0,340	-0,188
131,195	67,586	-0,323	-0,230
132,210	368,246	-0,231	-0,327
133,224	161,436	-0,240	-0,235
134,239	-200,000	-0,027	-0,089
135,254	-101,388	-0,165	0,028
136,268	5,933	-0,281	-0,145
137,283	87,215	-0,110	-0,085
138,297	-14,543	-0,329	-0,147
139,312	96,288	-0,288	-0,230
140,327	338,971	-0,197	-0,268
141,341	-113,104	-0,166	-0,023
142,356	-113,355	-0,381	-0,052
143,370	-9,222	-0,221	-0,103
144,385	-145,990	-0,235	-0,014
145,400	101,010	-0,300	-0,243
146,414	109,758	-0,232	-0,194
147,429	209,480	-0,232	-0,254
148,443	130,267	-0,175	-0,156
149,458	-13,099	-0,354	-0,160
150,473	80,852	-0,200	-0,150
151,487	-46,639	-0,307	-0,104
152,502	115,061	-0,289	-0,245
153,516	36,668	-0,347	-0,213
154,531	85,554	-0,272	-0,208
155,546	119,374	-0,121	-0,104
156,560	-44,561	-0,258	-0,089
157,575	104,102	-0,169	-0,139
158,589	204,101	-0,216	-0,233
159,604	7,983	-0,266	-0,138
160,619	-72,788	-0,392	-0,100
161,633	93,449	-0,212	-0,167
162,648	363,732	-0,114	-0,159
163,662	-52,047	-0,207	-0,066
164,677	112,366	-0,213	-0,179
165,692	101,083	-0,158	-0,128
166,706	173,308	-0,273	-0,274
167,721	2,097	-0,363	-0,182
168,735	36,836	-0,290	-0,178
169,750	-87,412	-0,167	-0,035
170,764	446,450	-0,131	-0,201
171,779	800,000	-0,116	-0,233
172,794	-67,526	-0,251	-0,068
173,808	214,413	-0,194	-0,214
174,823	361,128	-0,165	-0,230
175,837	157,812	-0,293	-0,282
176,852	37,241	-0,254	-0,156
177,867	275,442	-0,202	-0,250
178,881	393,306	-0,115	-0,167
179,896	243,451	-0,147	-0,172
180,910	31,742	-0,158	-0,094
181,925	126,888	-0,227	-0,200
182,940	-62,779	-0,234	-0,067
183,954	136,123	-0,264	-0,239
184,969	96,350	-0,174	-0,138
185,983	800,000	-0,085	-0,185
186,998	-30,176	-0,237	-0,093
188,013	125,389	-0,172	-0,151
189,027	309,889	-0,187	-0,243
190,042	578,147	-0,093	-0,158
191,056	80,579	-0,148	-0,110
192,071	130,170	-0,170	-0,151
193,086	171,861	-0,224	-0,223
194,100	-200,000	-0,061	-0,219
195,115	48,300	-0,208	-0,135
196,129	-40,858	-0,275	-0,098
197,144	205,617	-0,280	-0,302
198,159	78,046	-0,226	-0,167
199,173	3,685	-0,294	-0,148
200,188	326,668	-0,159	-0,212
201,202	-13,932	-0,306	-0,137
202,217	65,436	-0,297	-0,208
203,232	48,343	-0,223	-0,145
204,246	333,718	-0,160	-0,215
205,261	-113,423	-0,234	-0,031
206,275	438,111	-0,151	-0,229
207,290	-1,822	-0,233	-0,113
208,304	327,113	-0,088	-0,117
209,319	29,927	-0,212	-0,125
210,334	143,271	-0,204	-0,188
211,348	144,579	-0,184	-0,170
212,363	154,980	-0,202	-0,193
213,377	220,202	-0,125	-0,139
214,392	-39,535	-0,170	0,061
215,407	0,216	-0,169	-0,083
216,421	800,000	-0,110	-0,235
217,436	15,239	-0,181	-0,098
218,450	166,777	-0,145	-0,143
219,465	-78,897	-0,171	-0,040
220,480	-62,916	-0,288	-0,082
221,494	76,055	-0,154	-0,113
222,509	2,779	-0,141	-0,070
223,523	133,313	-0,161	-0,144
224,538	-73,899	-0,199	-0,050
225,553	-47,342	-0,284	-0,095
226,567	162,380	-0,093	-0,090
227,582	154,726	-0,215	-0,204
228,596	-39,155	-0,192	-0,069
229,611	54,798	-0,121	-0,081
230,626	57,074	-0,117	-0,079
231,640	-103,405	-0,130	0,021
232,655	97,440	-0,208	-0,165
233,669	88,870	-0,149	-0,114
234,684	-31,800	-0,128	-0,050
235,699	82,733	-0,158	-0,118
236,713	-70,803	-0,199	0,052
237,728	289,614	-0,121	-0,152
238,742	-76,648	-0,221	0,053
239,757	-55,862	-0,170	-0,052
240,772	44,566	-0,199	-0,126
241,786	85,371	-0,190	-0,144
242,801	123,499	-0,181	-0,157
243,815	319,247	-0,164	-0,216
244,830	-75,338	-0,331	-0,081
245,844	-148,375	-0,143	0,008
246,859	229,590	-0,222	-0,251
247,874	90,196	-0,206	-0,159
248,888	63,883	-0,108	-0,075
249,903	44,761	-0,154	-0,097
250,917	-76,947	-0,158	-0,038
251,932	161,957	-0,182	-0,176
252,947	-66,709	-0,086	-0,023
253,961	43,511	-0,194	-0,122
254,976	139,729	-0,220	-0,200
255,990	84,626	-0,133	-0,100
257,005	-44,344	-0,158	-0,054
258,020	438,826	-0,179	-0,270
259,034	-32,737	-0,132	-0,050
260,049	-114,996	-0,158	-0,021
261,063	56,447	-0,129	-0,086
262,078	-3,760	-0,175	-0,083
263,093	13,175	-0,318	-0,169
264,107	7,901	-0,199	-0,103
265,122	-127,352	-0,278	0,028
266,136	-69,123	-0,203	-0,053
267,151	186,152	-0,184	-0,188
268,166	418,615	-0,090	-0,133
269,180	458,816	-0,152	-0,234
270,195	37,248	-0,065	0,040
271,209	229,152	-0,213	-0,239
272,224	-200,000	-0,000	0,024
273,239	104,782	-0,141	-0,114
274,253	-58,827	-0,116	-0,034
275,268	12,315	-0,143	-0,076
276,282	127,651	-0,354	-0,310
277,297	254,166	-0,244	-0,288
278,312	253,722	-0,168	-0,198
279,326	-36,390	-0,111	-0,041
280,341	58,696	-0,135	-0,091
281,355	244,455	-0,165	-0,191
282,370	23,428	-0,215	-0,122
283,384	21,115	-0,214	-0,119
284,399	2,353	-0,214	-0,106
285,414	-43,078	-0,115	-0,040
286,428	-141,726	-0,195	0,013
287,443	-200,000	-0,025	-0,085
288,457	-109,889	-0,224	-0,032
289,472	243,918	-0,138	-0,160
290,487	42,048	-0,246	-0,154
291,501	2,206	-0,087	0,043
292,516	97,216	-0,097	-0,076
293,530	454,015	-0,113	-0,172
294,545	100,300	-0,107	-0,085
295,560	348,704	-0,027	-0,036
296,574	144,475	-0,135	-0,124
297,589	-200,000	0,001	-0,139
298,603	530,565	-0,174	-0,284
299,618	-200,000	-0,113	-0,000
300,633	-86,493	-0,259	-0,054
301,647	-69,314	-0,201	-0,053
302,662	-135,871	-0,113	0,009
303,676	175,980	-0,106	-0,105
304,691	137,645	-0,115	-0,103
305,706	800,000	-0,101	-0,201
306,720	0,876	-0,174	-0,085
307,735	-9,167	-0,281	-0,129
308,749	272,322	-0,061	-0,074
309,764	60,626	-0,093	-0,063
310,779	89,290	-0,142	-0,109
311,793	-80,838	-0,263	-0,059
312,808	30,664	-0,240	-0,141
313,822	203,393	-0,152	-0,161
314,837	173,746	-0,171	-0,170
315,852	-0,382	-0,010	-0,005
316,866	800,000	-0,049	-0,095
317,881	334,852	-0,085	-0,113
318,895	-44,947	-0,112	-0,038
319,910	146,170	-0,251	-0,231
320,925	5,534	-0,186	-0,094
321,939	96,278	-0,179	-0,141
322,954	-116,639	-0,103	-0,013
323,968	-62,022	-0,103	-0,029
324,983	199,824	-0,117	-0,124
325,997	140,152	-0,139	-0,126
327,012	528,045	-0,110	-0,178
328,027	798,734	-0,131	-0,250
329,041	103,953	-0,107	-0,086
330,056	800,000	-0,040	-0,090
331,070	212,542	-0,091	-0,099
332,085	-103,937	-0,068	0,011
333,100	154,144	-0,137	-0,129
334,114	158,491	-0,225	-0,214
335,129	308,315	-0,115	-0,148
336,143	143,059	-0,161	-0,147
337,158	141,473	-0,095	-0,087
338,173	-200,000	-0,027	-0,151
339,187	32,046	-0,183	-0,108
340,202	148,715	-0,154	-0,142
341,216	-40,815	-0,214	-0,075
342,231	91,317	-0,181	-0,139
343,246	357,204	-0,081	-0,111
344,260	800,000	-0,043	-0,113
345,275	800,000	-0,064	-0,155
346,289	495,631	-0,067	-0,106
347,304	-83,192	-0,178	-0,039
348,319	620,629	-0,138	-0,238
349,333	170,459	-0,101	-0,099
350,348	148,454	-0,118	-0,109
351,362	123,469	-0,155	-0,133
352,377	86,642	-0,043	0,032
353,392	-79,012	-0,181	-0,042
354,406	59,152	-0,222	-0,149
355,421	206,602	1309,042	1396,378
356,435	158,893	1469,073	1396,859
