DTS Sentinel unit serial number:	SN410029Multiplexer serial number:	ORYXHardware model number:	OX2-SRSoftware version number:	ORYX F/W v4,00 Oryx Data Collector v3.7.2.0data status	okinstallation	B3 Nyhavnadifferential loss correction	single-endedforward channel	channel 1reverse channel	N/Adate	2023/12/03time	20:22:30forward acquisition time	300,00reverse acquisition time	0,00gamma	499,1914k internal	0,3198k external	0,3198temperature offset calibration	1,0000default loss term (dB/km)	0,3820temperature slope calibration	1,0000multiplexer offset coefficient	1,0000multiplexer slope coefficient	1,0000fibre end	0,00T internal ref (°C)	13,99T ext. ref 1 (°C)	-1,36T ext. ref 2 (°C)	-1,38length (m)	temperature (°C)	Stokes	anti-Stokes-744,400	57,080	-0,260	-0,184
-743,385	-200,000	0,045	0,385
-742,371	285,927	-0,140	-0,184
-741,356	-200,000	-0,008	0,311
-740,342	67,907	-0,177	-0,132
-739,327	-200,000	0,057	0,231
-738,312	218,745	-0,178	-0,207
-737,298	-200,000	0,032	0,361
-736,283	283,792	-0,181	-0,237
-735,269	-200,000	0,027	0,216
-734,254	512,953	-0,205	-0,349
-733,239	120,263	-0,102	0,092
-732,225	138,071	-0,263	-0,251
-731,210	800,000	-0,080	0,183
-730,196	800,000	0,030	0,088
-729,181	-56,503	-0,060	-0,019
-728,167	-200,000	0,000	-0,149
-727,152	800,000	-0,057	0,133
-726,137	800,000	-0,048	-0,127
-725,123	66,338	-0,027	-0,020
-724,108	-15,840	-0,043	-0,020
-723,094	-200,000	-0,010	-0,151
-722,079	-200,000	0,007	-0,079
-721,064	-171,681	-0,234	-0,005
-720,050	285,493	0,062	0,081
-719,035	800,000	-0,052	0,130
-718,021	-12,363	0,104	0,049
-717,006	147,382	-0,104	0,102
-715,991	-3,973	-0,131	-0,066
-714,977	31,689	-0,123	0,077
-713,962	-200,000	-0,005	0,101
-712,948	741,155	-0,081	0,160
-711,933	207,383	0,117	0,132
-710,918	104,543	-0,104	0,089
-709,904	335,825	-0,150	0,212
-708,889	-200,000	-0,026	-0,129
-707,875	34,428	-0,216	-0,137
-706,860	-59,793	-0,138	0,043
-705,845	185,441	0,046	-0,050
-704,831	800,000	0,036	-0,094
-703,816	245,397	0,027	-0,034
-702,802	800,000	-0,046	-0,094
-701,787	-200,000	0,005	-0,047
-700,772	-26,973	0,039	-0,016
-699,758	-136,351	-0,032	-0,003
-698,743	-102,157	-0,086	0,015
-697,729	-200,000	0,016	0,104
-696,714	-200,000	0,003	0,028
-695,699	-63,621	-0,113	-0,034
-694,685	-48,704	-0,213	0,074
-693,670	-200,000	0,001	0,055
-692,656	800,000	0,020	-0,048
-691,641	-200,000	0,026	-0,102
-690,627	146,605	0,124	0,121
-689,612	-200,000	0,015	0,125
-688,597	-31,623	-0,152	0,062
-687,583	400,517	-0,047	0,072
-686,568	-73,264	-0,081	-0,021
-685,554	-14,412	-0,157	-0,073
-684,539	144,307	0,054	0,053
-683,524	171,196	-0,088	0,092
-682,510	263,373	-0,014	-0,018
-681,495	-60,735	-0,021	0,006
-680,481	-27,026	-0,092	0,039
-679,466	-200,000	-0,008	0,044
-678,451	9,272	-0,031	-0,017
-677,437	177,851	-0,030	0,032
-676,422	-200,000	0,032	0,134
-675,408	55,124	0,037	-0,026
-674,393	800,000	0,006	0,015
-673,378	-168,475	-0,140	0,004
-672,364	-8,007	-0,154	-0,075
-671,349	134,441	-0,072	-0,067
-670,335	268,738	-0,047	0,060
-669,320	723,492	-0,013	0,025
-668,305	800,000	0,040	0,104
-667,291	-24,165	-0,040	0,017
-666,276	50,139	-0,078	0,053
-665,262	-200,000	0,037	-0,191
-664,247	150,171	-0,072	-0,071
-663,232	638,799	0,041	-0,077
-662,218	-148,254	-0,014	-0,001
-661,203	-200,000	-0,017	-0,064
-660,189	-200,000	0,006	0,155
-659,174	-75,467	-0,147	-0,038
-658,159	420,099	-0,047	0,073
-657,145	800,000	-0,022	-0,070
-656,130	-200,000	0,015	-0,062
-655,116	-6,947	-0,066	-0,032
-654,101	-64,352	-0,071	-0,021
-653,086	-36,359	-0,082	-0,032
-652,072	16,644	-0,059	-0,034
-651,057	125,770	0,046	-0,042
-650,043	-200,000	0,018	-0,149
-649,028	-94,797	-0,082	-0,016
-648,014	-85,040	0,063	0,014
-646,999	-200,000	0,020	-0,122
-645,984	800,000	-0,034	0,077
-644,970	800,000	-0,050	0,102
-643,955	415,930	0,062	-0,096
-642,941	98,713	0,016	-0,014
-641,926	209,008	-0,104	-0,118
-640,911	-132,205	0,182	0,017
-639,897	-122,997	-0,056	-0,006
-638,882	269,018	-0,065	0,083
-637,868	-126,627	-0,028	-0,003
-636,853	-200,000	-0,068	-0,219
-635,838	-200,000	-0,020	-0,156
-634,824	-128,384	-0,141	0,014
-633,809	-136,964	0,036	0,003
-632,795	-85,541	-0,197	0,044
-631,780	-62,623	0,039	0,012
-630,765	107,554	-0,119	-0,103
-629,751	496,117	0,014	0,024
-628,736	203,926	0,059	-0,066
-627,722	-200,000	0,006	-0,025
-626,707	-200,000	0,004	-0,098
-625,692	270,768	0,055	0,070
-624,678	800,000	0,044	-0,101
-623,663	800,000	-0,052	-0,156
-622,649	-19,202	-0,035	-0,016
-621,634	-33,132	0,142	-0,057
-620,619	-200,000	0,001	-0,056
-619,605	-56,025	-0,035	-0,011
-618,590	-200,000	0,024	-0,159
-617,576	-13,891	-0,150	0,070
-616,561	-134,702	0,148	0,013
-615,546	23,601	0,062	-0,037
-614,532	-173,858	-0,114	0,002
-613,517	361,443	0,055	-0,081
-612,503	17,104	-0,065	0,037
-611,488	785,741	0,056	0,112
-610,474	-70,250	0,049	-0,013
-609,459	-49,318	-0,023	0,008
-608,444	-200,000	-0,019	0,071
-607,430	-200,000	0,003	-0,112
-606,415	266,377	0,051	-0,065
-605,401	83,584	0,101	0,080
-604,386	-200,000	-0,023	-0,083
-603,371	101,468	0,003	0,002
-602,357	132,706	-0,025	0,024
-601,342	47,757	0,096	-0,065
-600,328	-16,765	-0,102	-0,046
-599,313	210,610	0,030	0,034
-598,298	-200,000	-0,008	0,071
-597,284	-200,000	0,019	-0,079
-596,269	-111,067	-0,052	0,008
-595,255	-104,968	0,089	-0,015
-594,240	800,000	0,030	0,090
-593,225	73,904	-0,089	-0,068
-592,211	800,000	-0,045	-0,126
-591,196	-200,000	-0,032	-0,125
-590,182	-12,422	0,063	0,030
-589,167	800,000	0,029	-0,082
-588,152	-105,515	-0,091	-0,015
-587,138	-99,530	-0,035	-0,006
-586,123	-19,504	-0,061	0,027
-585,109	-4,212	0,031	-0,015
-584,094	-29,241	-0,106	0,044
-583,079	670,025	-0,064	0,120
-582,065	-200,000	-0,012	0,114
-581,050	-27,359	0,074	-0,031
-580,036	-64,737	-0,138	0,040
-579,021	-8,599	-0,092	0,045
-578,006	-52,775	-0,098	-0,032
-576,992	-100,659	-0,037	-0,006
-575,977	-11,717	0,010	0,005
-574,963	572,567	0,047	-0,083
-573,948	6,534	0,145	-0,078
-572,934	51,871	0,123	-0,084
-571,919	107,260	-0,045	-0,039
-570,904	-156,328	-0,102	0,005
-569,890	-111,343	-0,146	-0,021
-568,875	-200,000	0,024	-0,082
-567,861	153,946	0,097	0,096
-566,846	-119,377	0,125	-0,016
-565,831	228,668	-0,115	0,136
-564,817	-200,000	0,015	0,190
-563,802	-127,994	0,134	0,014
-562,788	296,539	-0,051	0,068
-561,773	-200,000	-0,009	0,090
-560,758	76,644	-0,113	0,086
-559,744	-200,000	-0,004	0,175
-558,729	167,644	-0,051	0,053
-557,715	575,416	-0,017	0,031
-556,700	800,000	0,046	0,124
-555,685	-90,251	-0,132	0,028
-554,671	306,983	0,113	0,153
-553,656	-200,000	0,016	0,119
-552,642	-58,210	0,055	-0,017
-551,627	24,050	0,117	0,069
-550,612	-14,038	-0,215	-0,100
-549,598	77,993	-0,033	0,025
-548,583	800,000	0,041	0,098
-547,569	-200,000	-0,015	-0,086
-546,554	-200,000	-0,003	-0,166
-545,539	234,086	0,037	-0,044
-544,525	-95,895	0,107	0,020
-543,510	-98,077	-0,058	-0,011
-542,496	13,893	0,121	-0,068
-541,481	-75,557	-0,067	0,017
-540,466	220,837	0,076	-0,089
-539,452	-13,561	0,043	0,020
-538,437	-200,000	-0,014	0,076
-537,423	193,391	-0,096	-0,105
-536,408	-200,000	0,007	-0,051
-535,393	250,933	0,062	0,077
-534,379	800,000	-0,044	0,107
-533,364	388,277	0,043	0,064
-532,350	-200,000	0,004	0,096
-531,335	-200,000	0,008	0,042
-530,321	20,413	-0,145	-0,084
-529,306	-179,560	0,118	-0,002
-528,291	-200,000	0,006	0,071
-527,277	688,891	-0,051	-0,098
-526,262	315,162	0,070	-0,095
-525,248	-73,548	0,155	0,041
-524,233	-81,501	0,054	0,013
-523,218	800,000	0,002	-0,005
-522,204	-23,340	0,161	0,070
-521,189	313,638	-0,088	-0,120
-520,175	800,000	-0,035	-0,098
-519,160	-22,466	-0,071	-0,031
-518,145	-200,000	-0,011	-0,037
-517,131	-200,000	0,007	0,051
-516,116	800,000	0,023	0,059
-515,102	800,000	-0,032	-0,077
-514,087	-162,537	-0,080	-0,003
-513,072	-200,000	0,018	-0,072
-512,058	161,667	0,058	-0,059
-511,043	-200,000	-0,000	-0,026
-510,029	-200,000	0,022	0,097
-509,014	-10,649	0,025	0,012
-507,999	-154,324	-0,097	-0,005
-506,985	-200,000	-0,005	0,042
-505,970	-178,566	-0,105	-0,002
-504,956	336,285	-0,099	-0,139
-503,941	-200,000	0,005	-0,051
-502,926	61,927	0,161	-0,115
-501,912	-85,706	-0,085	-0,019
-500,897	236,475	0,047	0,056
-499,883	25,097	-0,034	0,020
-498,868	-74,433	-0,165	-0,043
-497,853	-200,000	-0,011	0,041
-496,839	-100,689	0,073	-0,013
-495,824	-55,550	-0,068	-0,022
-494,810	147,125	0,133	0,129
-493,795	-200,000	0,008	0,060
-492,781	100,850	0,101	-0,085
-491,766	550,537	0,029	-0,051
-490,751	99,477	0,052	0,043
-489,737	-200,000	-0,000	0,043
-488,722	290,161	0,037	0,049
-487,708	-127,755	0,002	-0,000
-486,693	-200,000	0,006	-0,125
-485,678	800,000	-0,017	0,041
-484,664	473,203	0,070	-0,115
-483,649	-200,000	0,006	-0,178
-482,635	-156,362	0,114	-0,005
-481,620	219,952	-0,089	-0,103
-480,605	-170,323	0,078	-0,002
-479,591	-2,227	0,070	0,035
-478,576	-125,003	0,028	-0,003
-477,562	-200,000	0,003	-0,074
-476,547	800,000	-0,043	-0,108
-475,532	-200,000	0,005	-0,040
-474,518	291,327	0,028	0,037
-473,503	-7,594	0,048	0,023
-472,489	545,860	-0,068	0,118
-471,474	339,750	-0,082	0,115
-470,459	-5,963	-0,102	0,050
-469,445	-158,198	-0,107	0,004
-468,430	22,034	-0,015	-0,009
-467,416	208,559	-0,135	0,152
-466,401	81,173	0,014	0,011
-465,386	266,873	0,010	-0,013
-464,372	144,239	0,012	0,012
-463,357	72,267	-0,065	-0,049
-462,343	123,031	-0,138	0,124
-461,328	34,636	0,046	-0,029
-460,313	40,557	0,057	0,037
-459,299	142,866	0,076	0,073
-458,284	-200,000	-0,021	0,134
-457,270	-57,263	0,087	0,027
-456,255	268,551	-0,042	-0,053
-455,241	800,000	-0,047	-0,139
-454,226	-22,923	0,170	-0,074
-453,211	41,238	0,033	-0,021
-452,197	34,584	0,045	-0,028
-451,182	-72,190	-0,079	0,021
-450,168	17,220	-0,137	0,078
-449,153	-76,972	0,035	-0,009
-448,138	800,000	0,040	0,084
-447,124	141,678	0,086	0,082
-446,109	-67,350	-0,060	0,017
-445,095	45,429	0,106	0,070
-444,080	580,981	-0,013	0,023
-443,065	-200,000	-0,015	0,171
-442,051	83,660	0,174	0,137
-441,036	404,048	0,054	0,081
-440,022	-13,357	0,086	-0,040
-439,007	394,031	0,086	0,130
-437,992	217,761	-0,078	-0,090
-436,978	-200,000	0,002	0,097
-435,963	800,000	-0,029	0,069
-434,949	800,000	-0,029	-0,080
-433,934	-200,000	-0,008	0,031
-432,919	-200,000	0,008	-0,090
-431,905	-5,581	-0,170	-0,083
-430,890	118,644	0,096	0,086
-429,876	-55,167	-0,140	-0,045
-428,861	-123,976	-0,114	0,013
-427,846	340,470	-0,066	0,094
-426,832	-104,949	0,065	0,011
-425,817	731,416	-0,025	-0,049
-424,803	197,548	-0,078	-0,085
-423,788	800,000	0,074	-0,187
-422,773	17,336	0,145	0,083
-421,759	800,000	0,049	0,117
-420,744	460,982	0,079	0,128
-419,730	-88,564	-0,103	-0,022
-418,715	-200,000	-0,018	-0,126
-417,701	-59,061	-0,092	-0,028
-416,686	285,913	0,034	-0,044
-415,671	800,000	0,032	0,072
-414,657	-200,000	-0,004	-0,063
-413,642	119,714	0,084	-0,075
-412,628	-200,000	-0,002	0,110
-411,613	-200,000	0,001	-0,107
-410,598	87,577	-0,129	-0,102
-409,584	64,697	-0,092	-0,067
-408,569	116,294	0,097	0,085
-407,555	15,729	0,130	-0,073
-406,540	-17,202	-0,092	-0,041
-405,525	-200,000	0,000	-0,068
-404,511	-126,111	0,072	-0,008
-403,496	37,283	-0,061	-0,039
-402,482	137,789	0,072	-0,068
-401,467	800,000	0,010	-0,021
-400,452	-200,000	-0,025	0,151
-399,438	-58,343	-0,030	-0,009
-398,423	-200,000	-0,018	-0,134
-397,409	19,278	-0,132	-0,076
-396,394	-200,000	0,015	-0,056
-395,379	800,000	-0,031	0,068
-394,365	157,032	0,035	0,034
-393,350	136,262	0,006	-0,006
-392,336	722,466	-0,043	-0,082
-391,321	800,000	-0,025	-0,070
-390,306	-200,000	-0,019	-0,063
-389,292	800,000	-0,019	-0,050
-388,277	-8,737	-0,095	0,046
-387,263	127,593	-0,050	0,045
-386,248	34,941	0,119	0,075
-385,233	101,215	0,033	-0,028
-384,219	-200,000	-0,028	-0,094
-383,204	428,517	-0,013	-0,020
-382,190	-33,903	-0,165	-0,065
-381,175	-200,000	-0,018	-0,143
-380,160	191,785	-0,097	-0,105
-379,146	-106,734	0,192	0,030
-378,131	23,631	-0,058	0,034
-377,117	-44,463	-0,059	0,021
-376,102	-31,150	0,113	-0,045
-375,088	-11,471	-0,083	-0,039
-374,073	-200,000	0,007	0,072
-373,058	-200,000	0,019	0,064
-372,044	800,000	-0,043	0,088
-371,029	-200,000	-0,021	0,203
-370,015	220,749	-0,089	0,102
-369,000	800,000	0,043	0,128
-367,985	64,666	-0,081	-0,058
-366,971	495,702	-0,053	0,088
-365,956	-200,000	0,001	0,115
-364,942	129,129	0,098	0,089
-363,927	-134,137	0,130	-0,011
-362,912	-200,000	-0,029	0,000
-361,898	107,398	0,030	-0,025
-360,883	-17,015	-0,069	-0,031
-359,869	-88,423	-0,115	-0,025
-358,854	-39,710	0,120	0,045
-357,839	-5,251	0,079	0,039
-356,825	407,281	-0,019	-0,029
-355,810	-79,971	0,014	-0,003
-354,796	106,955	0,058	-0,049
-353,781	-200,000	0,003	-0,068
-352,766	-62,225	0,210	-0,062
-351,752	-26,545	0,028	0,012
-350,737	800,000	-0,041	-0,108
-349,723	161,556	0,076	-0,076
-348,708	28,218	-0,024	0,014
-347,693	-200,000	0,000	0,015
-346,679	125,771	-0,131	0,118
-345,664	800,000	0,022	-0,050
-344,650	12,450	0,023	-0,013
-343,635	493,161	0,120	-0,198
-342,620	-4,066	0,097	0,048
-341,606	313,215	-0,026	0,035
-340,591	800,000	0,058	-0,134
-339,577	-200,000	-0,016	0,053
-338,562	0,278	-0,027	0,014
-337,548	580,975	-0,041	0,073
-336,533	162,132	0,039	0,039
-335,518	-200,000	0,005	0,019
-334,504	25,697	-0,038	-0,022
-333,489	-119,907	-0,040	0,005
-332,475	-200,000	0,025	-0,208
-331,460	-2,646	-0,120	-0,060
-330,445	800,000	-0,011	-0,031
-329,431	-144,585	-0,124	-0,008
-328,416	800,000	0,073	0,158
-327,402	411,124	-0,052	-0,079
-326,387	-200,000	0,002	0,051
-325,372	9,855	0,021	-0,012
-324,358	200,175	0,048	0,053
-323,343	372,249	-0,060	-0,087
-322,329	156,363	-0,074	-0,074
-321,314	235,554	0,045	0,054
-320,299	33,518	0,065	-0,041
-319,285	800,000	-0,028	0,080
-318,270	-34,038	0,022	0,008
-317,256	255,422	-0,047	-0,058
-316,241	29,534	-0,093	0,057
-315,226	268,275	0,082	-0,103
-314,212	-200,000	0,021	-0,153
-313,197	27,045	0,129	0,077
-312,183	138,865	-0,060	-0,056
-311,168	-108,754	0,012	-0,002
-310,153	-200,000	-0,011	-0,039
-309,139	430,724	-0,107	-0,167
-308,124	-88,094	-0,043	-0,009
-307,110	-90,708	0,074	0,015
-306,095	-200,000	0,009	0,088
-305,080	-161,315	-0,032	-0,001
-304,066	89,448	0,058	0,046
-303,051	-70,660	-0,027	0,007
-302,037	313,422	0,048	-0,065
-301,022	800,000	-0,055	0,109
-300,008	297,060	0,116	0,152
-298,993	-200,000	-0,022	0,121
-297,978	800,000	0,038	0,083
-296,964	-102,384	-0,101	-0,017
-295,949	-44,174	-0,136	0,048
-294,935	-104,455	0,025	-0,004
-293,920	-20,800	0,035	0,015
-292,905	-200,000	-0,007	0,043
-291,891	-200,000	-0,015	0,126
-290,876	-110,065	-0,077	0,011
-289,862	-200,000	-0,022	0,113
-288,847	-143,489	0,067	-0,005
-287,832	800,000	0,039	0,085
-286,818	69,022	-0,074	0,054
-285,803	247,658	0,061	0,074
-284,789	55,731	-0,124	0,086
-283,774	374,458	-0,056	-0,081
-282,759	-200,000	-0,012	0,082
-281,745	99,544	-0,016	0,013
-280,730	800,000	0,031	0,067
-279,716	280,266	0,139	-0,179
-278,701	-81,260	0,030	0,007
-277,686	138,683	0,032	0,030
-276,672	-30,855	0,153	-0,062
-275,657	292,147	-0,082	0,107
-274,643	-200,000	0,002	0,122
-273,628	614,205	-0,034	-0,061
-272,613	800,000	-0,045	0,101
-271,599	-16,277	0,130	-0,059
-270,584	107,390	0,012	0,010
-269,570	-200,000	0,021	0,153
-268,555	800,000	0,039	0,080
-267,540	800,000	-0,020	0,056
-266,526	-200,000	-0,033	-0,175
-265,511	-200,000	-0,019	0,063
-264,497	21,201	-0,015	0,009
-263,482	-53,803	0,119	0,039
-262,467	-200,000	0,039	-0,177
-261,453	-109,033	-0,087	0,013
-260,438	205,144	0,035	-0,039
-259,424	-61,635	-0,020	-0,006
-258,409	-147,263	0,045	0,003
-257,395	800,000	0,039	-0,116
-256,380	-142,910	0,085	-0,006
-255,365	-200,000	0,026	0,104
-254,351	4,310	-0,169	0,088
-253,336	181,762	0,044	-0,046
-252,322	-8,662	0,043	0,021
-251,307	5,776	0,069	0,036
-250,292	-72,318	0,087	0,023
-249,278	-152,470	0,163	-0,008
-248,263	-52,297	-0,043	0,014
-247,249	800,000	-0,006	-0,016
-246,234	-200,000	-0,002	-0,054
-245,219	36,598	-0,091	-0,057
-244,205	110,076	0,054	0,047
-243,190	-22,602	0,134	-0,057
-242,176	800,000	-0,013	-0,038
-241,161	166,607	0,088	-0,089
-240,146	-126,355	0,067	-0,007
-239,132	-200,000	0,020	-0,075
-238,117	-51,238	-0,039	-0,013
-237,103	800,000	0,014	0,041
-236,088	800,000	0,012	-0,033
-235,073	13,230	0,064	0,035
-234,059	-200,000	-0,006	0,161
-233,044	800,000	-0,035	0,073
-232,030	800,000	-0,025	0,053
-231,015	517,330	-0,067	-0,113
-230,000	640,886	-0,055	-0,099
-228,986	800,000	0,038	-0,094
-227,971	5,371	0,138	0,072
-226,957	244,883	0,114	-0,137
-225,942	42,787	0,174	0,113
-224,927	385,804	-0,048	-0,071
-223,913	-92,572	-0,033	-0,007
-222,898	800,000	-0,052	-0,131
-221,884	-200,000	-0,003	0,060
-220,869	211,636	-0,026	-0,030
-219,855	70,395	0,042	-0,031
-218,840	47,769	-0,079	-0,053
-217,825	-200,000	0,029	0,100
-216,811	800,000	-0,047	-0,149
-215,796	436,998	-0,023	-0,036
-214,782	98,678	0,101	0,083
-213,767	-0,571	0,107	-0,054
-212,752	90,645	0,012	0,010
-211,738	242,287	-0,035	0,041
-210,723	-102,277	0,092	-0,016
-209,709	-130,098	0,050	-0,005
-208,694	419,928	-0,018	0,028
-207,679	681,392	-0,026	-0,049
-206,665	-70,543	0,053	-0,014
-205,650	636,381	-0,017	0,031
-204,636	189,127	-0,075	0,080
-203,621	-200,000	0,009	-0,055
-202,606	-200,000	-0,022	-0,101
-201,592	4,323	-0,102	-0,053
-200,577	800,000	0,024	0,052
-199,563	800,000	-0,022	0,063
-198,548	-200,000	0,031	0,112
-197,533	285,133	0,126	0,162
-196,519	100,101	0,083	0,068
-195,504	127,006	-0,046	-0,041
-194,490	800,000	0,014	0,040
-193,475	-54,036	-0,083	0,027
-192,460	800,000	-0,024	0,049
-191,446	800,000	0,034	0,074
-190,431	800,000	0,018	0,057
-189,417	-200,000	0,024	0,137
-188,402	1,773	-0,082	0,042
-187,387	-200,000	-0,146	-0,000
-186,373	800,000	-0,051	0,130
-185,358	-108,044	-0,172	-0,026
-184,344	-55,337	-0,046	-0,015
-183,329	24,958	-0,023	0,014
-182,315	-100,811	0,142	-0,025
-181,300	800,000	-0,026	-0,071
-180,285	40,052	0,038	-0,024
-179,271	144,122	0,046	0,044
-178,256	800,000	0,038	0,091
-177,242	800,000	0,038	-0,106
-176,227	800,000	-0,033	-0,096
-175,212	192,541	-0,060	-0,064
-174,198	-85,289	0,132	0,029
-173,183	800,000	-0,020	-0,055
-172,169	-200,000	-0,018	-0,087
-171,154	-200,000	0,023	-0,098
-170,139	81,275	0,047	0,036
-169,125	378,023	-0,063	-0,092
-168,110	-200,000	0,008	0,138
-167,096	86,447	-0,040	0,031
-166,081	129,668	-0,068	-0,062
-165,066	-64,217	-0,120	-0,034
-164,052	335,004	-0,073	-0,100
-163,037	532,852	0,012	0,020
-162,023	11,195	-0,027	-0,014
-161,008	-200,000	0,043	0,136
-159,993	-200,000	0,001	0,130
-158,979	197,879	0,067	-0,073
-157,964	-65,291	-0,138	0,039
-156,950	-87,178	0,101	0,022
-155,935	-200,000	-0,015	0,093
-154,920	25,898	-0,101	-0,060
-153,906	284,148	-0,057	0,073
-152,891	-200,000	0,007	-0,051
-151,877	-180,207	0,028	-0,000
-150,862	53,636	-0,099	-0,067
-149,847	-200,000	-0,000	0,003
-148,833	85,128	-0,039	-0,030
-147,818	183,670	0,075	0,079
-146,804	481,073	0,026	0,042
-145,789	-199,941	-0,068	0,000
-144,775	-200,000	-0,013	-0,057
-143,760	-37,948	0,058	0,022
-142,745	478,840	-0,040	-0,065
-141,731	-112,464	-0,035	0,005
-140,716	86,270	0,074	0,058
-139,702	800,000	0,022	-0,047
-138,687	141,589	-0,109	0,103
-137,672	735,671	0,048	0,093
-136,658	-97,160	-0,045	-0,008
-135,643	443,105	-0,063	0,099
-134,629	-17,670	-0,088	0,039
-133,614	-200,000	0,014	0,138
-132,599	75,294	-0,046	0,035
-131,585	16,069	0,025	0,014
-130,570	-100,088	-0,029	0,005
-129,556	800,000	0,024	-0,061
-128,541	-98,019	0,094	-0,017
-127,526	800,000	-0,039	0,097
-126,512	3,134	0,081	-0,042
-125,497	-65,308	0,077	-0,022
-124,483	262,782	0,157	0,193
-123,468	-67,373	-0,119	0,033
-122,453	-200,000	-0,014	0,077
-121,439	-29,939	-0,100	0,040
-120,424	-76,070	0,053	-0,013
-119,410	52,775	-0,119	-0,080
-118,395	127,279	-0,045	0,040
-117,380	800,000	0,039	0,093
-116,366	92,133	-0,126	0,101
-115,351	-200,000	0,010	-0,048
-114,337	-200,000	0,011	-0,104
-113,322	224,930	0,044	-0,051
-112,307	64,036	0,055	-0,039
-111,293	107,869	0,139	0,118
-110,278	226,367	-0,096	0,110
-109,264	-200,000	-0,003	-0,109
-108,249	-200,000	0,018	-0,146
-107,234	800,000	0,042	0,115
-106,220	19,589	0,097	0,055
-105,205	-72,232	-0,029	0,008
-104,191	49,497	0,082	-0,055
-103,176	-200,000	-0,010	0,039
-102,162	-50,407	-0,125	-0,042
-101,147	-200,000	0,035	-0,114
-100,132	257,083	0,086	0,105
-99,118	405,624	0,033	-0,049
-98,103	-200,000	0,029	-0,135
-97,089	-200,000	0,014	0,104
-96,074	800,000	0,107	0,297
-95,059	22,062	0,153	0,088
-94,045	47,985	-0,148	-0,098
-93,030	-72,073	-0,095	0,025
-92,016	-64,994	-0,070	-0,020
-91,001	-99,969	0,161	0,028
-89,986	138,746	0,026	0,024
-88,972	-133,081	-0,057	0,005
-87,957	-200,000	-0,009	0,079
-86,943	-46,214	0,034	-0,012
-85,928	-7,302	-0,040	0,019
-84,913	-103,510	-0,101	-0,017
-83,899	-118,003	0,084	0,010
-82,884	-91,479	0,055	-0,011
-81,870	172,495	0,074	0,076
-80,855	-92,215	-0,091	0,018
-79,840	52,571	-0,119	0,080
-78,826	800,000	-0,028	-0,065
-77,811	-15,785	0,093	0,042
-76,797	800,000	0,023	0,066
-75,782	-147,719	-0,157	0,009
-74,767	-59,100	0,190	-0,058
-73,753	-200,000	-0,009	0,051
-72,738	2,069	-0,129	0,066
-71,724	-91,187	0,035	0,007
-70,709	-200,000	-0,003	-0,031
-69,694	95,019	-0,037	0,030
-68,680	800,000	0,040	-0,096
-67,665	-200,000	-0,002	0,074
-66,651	-35,002	0,146	-0,056
-65,636	313,463	-0,075	0,100
-64,622	-200,000	-0,033	-0,120
-63,607	-200,000	-0,006	-0,150
-62,592	225,029	-0,104	-0,119
-61,578	17,153	-0,045	-0,025
-60,563	-90,182	0,135	-0,028
-59,549	800,000	-0,059	0,144
-58,534	-40,571	-1,676	-0,613
-57,519	552,786	-1,227	-2,098
-56,505	-200,000	-0,655	-4,486
-55,490	246,729	0,927	1,111
-54,476	800,000	4,811	11,018
-53,461	-200,000	18,879	308,849
-52,446	-200,000	738,442	2310,132
-51,432	571,755	1654,531	2866,477
-50,417	79,015	1670,467	1266,126
-49,403	21,989	1543,382	889,503
-48,388	15,860	1465,900	815,053
-47,373	17,838	1455,872	819,005
-46,359	16,857	1446,384	808,925
-45,344	14,104	1441,691	793,076
-44,330	14,039	1439,547	791,556
-43,315	14,061	1438,024	790,791
-42,300	14,019	1436,269	789,593
-41,286	14,063	1435,103	789,131
-40,271	14,083	1433,684	788,415
-39,257	14,033	1432,512	787,502
-38,242	14,068	1431,385	787,015
-37,227	14,129	1429,993	786,512
-36,213	14,123	1428,627	785,699
-35,198	14,089	1427,632	784,958
-34,184	14,136	1426,458	784,506
-33,169	14,094	1425,151	783,558
-32,154	14,137	1424,146	783,177
-31,140	14,110	1422,658	782,201
-30,125	14,122	1421,723	781,711
-29,111	14,079	1420,605	780,862
-28,096	14,115	1419,566	780,432
-27,082	14,060	1418,376	779,485
-26,067	13,996	1417,466	778,654
-25,052	14,010	1416,274	778,033
-24,038	14,006	1415,415	777,509
-23,023	14,015	1414,264	776,891
-22,009	14,016	1413,209	776,283
-20,994	13,962	1412,477	775,600
-19,979	13,981	1411,602	775,179
-18,965	13,940	1410,585	774,394
-17,950	13,952	1409,874	774,032
-16,936	13,991	1408,722	773,551
-15,921	13,887	1407,756	772,504
-14,906	13,943	1406,732	772,172
-13,892	13,923	1405,717	771,490
-12,877	13,944	1404,945	771,136
-11,863	13,919	1404,081	770,510
-10,848	13,930	1403,194	770,047
-9,833	13,862	1402,337	769,230
-8,819	13,826	1401,433	768,533
-7,804	13,837	1400,441	768,011
-6,790	13,845	1399,379	767,436
-5,775	13,856	1398,271	766,848
-4,760	13,883	1397,335	766,428
-3,746	13,873	1396,643	765,974
-2,731	13,864	1395,717	765,396
-1,717	13,792	1395,020	764,645
-0,702	13,805	1393,080	763,613
0,313	17,646	1310,939	736,403
1,327	34,077	705,410	434,317
2,342	52,424	123,879	83,578
3,356	4,878	16,713	8,674
4,371	-0,522	3,232	1,619
5,386	11,835	0,588	0,319
6,400	64,550	0,116	0,082
7,415	100,594	-0,229	-0,188
8,429	6,484	-0,378	-0,198
9,444	19,415	-0,486	-0,276
10,459	-0,495	-0,370	-0,185
11,473	14,809	-0,390	-0,215
12,488	-56,068	-0,234	-0,073
13,502	-29,133	-0,341	-0,137
14,517	43,416	-0,346	-0,223
15,531	72,136	-0,487	-0,359
16,546	31,049	-0,355	-0,215
17,561	-50,134	-0,452	-0,150
18,575	169,328	-0,199	-0,201
19,590	50,427	-0,372	-0,248
20,604	-89,992	-0,284	-0,058
21,619	94,519	-0,405	-0,325
22,634	120,326	-0,390	-0,342
23,648	64,391	-0,532	-0,379
24,663	111,276	-0,378	-0,322
25,677	151,922	-0,292	-0,281
26,692	49,154	-0,331	-0,219
27,707	25,021	-0,471	-0,275
28,721	63,399	-0,377	-0,267
29,736	72,779	-0,302	-0,223
30,750	41,095	-0,422	-0,269
31,765	125,422	-0,318	-0,283
32,780	123,899	-0,444	-0,393
33,794	52,853	-0,372	-0,251
34,809	162,388	-0,298	-0,296
35,823	157,604	-0,343	-0,336
36,838	48,794	-0,421	-0,278
37,853	298,747	-0,399	-0,520
38,867	47,139	-0,353	-0,232
39,882	21,945	-0,322	-0,185
40,896	121,399	-0,299	-0,263
41,911	56,914	-0,417	-0,287
42,926	190,759	-0,315	-0,335
43,940	74,438	-0,323	-0,239
44,955	143,676	-0,362	-0,340
45,969	43,187	-0,407	-0,261
46,984	58,822	-0,268	-0,186
47,999	12,222	-0,343	-0,186
49,013	83,569	-0,387	-0,297
50,028	44,840	-0,283	-0,183
51,042	152,350	-0,322	-0,310
52,057	161,346	-0,241	-0,237
53,071	179,585	-0,292	-0,302
54,086	32,296	-0,390	-0,237
55,101	63,000	-0,277	-0,195
56,115	-69,985	-0,367	-0,098
57,130	24,724	-0,299	-0,174
58,144	69,290	-0,385	-0,279
59,159	190,278	-0,333	-0,353
60,174	25,327	-0,414	-0,242
61,188	140,304	-0,252	-0,234
62,203	-2,498	-0,276	-0,136
63,217	76,878	-0,314	-0,234
64,232	59,043	-0,316	-0,219
65,247	-19,269	-0,368	-0,160
66,261	-35,259	-0,349	-0,133
67,276	11,696	-0,431	-0,232
68,290	-17,345	-0,308	-0,136
69,305	46,123	-0,307	-0,200
70,320	29,243	-0,337	-0,201
71,334	71,554	-0,342	-0,249
72,349	25,005	-0,345	-0,201
73,363	96,287	-0,291	-0,234
74,378	-21,988	-0,379	-0,161
75,393	75,074	-0,234	-0,174
76,407	-57,507	-0,296	-0,091
77,422	96,179	-0,304	-0,244
78,436	-58,766	-0,362	-0,110
79,451	143,349	-0,176	-0,165
80,466	23,191	-0,327	-0,188
81,480	35,849	-0,322	-0,198
82,495	141,209	-0,346	-0,322
83,509	26,595	-0,370	-0,217
84,524	-124,556	-0,312	-0,034
85,539	61,489	-0,377	-0,264
86,553	124,778	-0,293	-0,259
87,568	110,043	-0,268	-0,226
88,582	33,944	-0,321	-0,196
89,597	120,831	-0,331	-0,289
90,611	32,507	-0,270	-0,163
91,626	199,255	-0,205	-0,221
92,641	26,416	-0,312	-0,183
93,655	42,947	-0,324	-0,207
94,670	12,139	-0,340	-0,183
95,684	17,451	-0,266	-0,148
96,699	123,386	-0,250	-0,220
97,714	50,143	-0,353	-0,234
98,728	575,348	-0,156	-0,268
99,743	87,741	-0,328	-0,255
100,757	248,054	-0,138	-0,164
101,772	42,387	-0,321	-0,205
102,787	59,266	-0,338	-0,233
103,801	112,843	-0,277	-0,236
104,816	7,413	-0,385	-0,201
105,830	402,124	-0,115	-0,170
106,845	-73,728	-0,343	-0,087
107,860	6,218	-0,318	-0,165
108,874	46,505	-0,235	-0,153
109,889	14,598	-0,297	-0,162
110,903	-4,660	-0,327	-0,158
111,918	18,411	-0,324	-0,181
112,933	17,211	-0,246	-0,137
113,947	585,266	-0,184	-0,318
114,962	-30,255	-0,335	-0,133
115,976	8,283	-0,298	-0,156
116,991	48,764	-0,314	-0,206
118,006	51,814	-0,202	-0,134
119,020	-30,091	-0,251	-0,099
120,035	8,741	-0,159	-0,084
121,049	113,844	-0,179	-0,153
122,064	361,463	-0,169	-0,238
123,079	148,085	-0,322	-0,304
124,093	109,262	-0,191	-0,160
125,108	85,512	-0,362	-0,278
126,122	138,901	-0,222	-0,204
127,137	-86,302	-0,139	-0,030
128,151	614,034	-0,114	-0,201
129,166	-13,720	-0,230	-0,104
130,181	564,416	-0,172	-0,293
131,195	66,694	-0,283	-0,202
132,210	648,856	-0,164	-0,295
133,224	2,107	-0,286	-0,144
134,239	39,134	-0,281	-0,176
135,254	34,206	-0,137	-0,083
136,268	34,324	-0,303	-0,184
137,283	515,955	-0,187	-0,307
138,297	245,958	-0,243	-0,287
139,312	-17,352	-0,317	-0,139
140,327	665,204	-0,180	-0,326
141,341	22,618	-0,242	-0,138
142,356	-101,971	-0,171	-0,029
143,370	-82,878	-0,268	-0,060
144,385	171,582	-0,241	-0,242
145,400	89,068	-0,325	-0,253
146,414	94,102	-0,309	-0,245
147,429	1,908	-0,427	-0,214
148,443	-200,000	-0,091	-0,341
149,458	800,000	-0,127	-0,286
150,473	122,806	-0,185	-0,162
151,487	155,185	-0,220	-0,212
152,502	107,239	-0,256	-0,213
153,516	161,139	-0,172	-0,168
154,531	11,651	-0,191	-0,102
155,546	193,850	-0,165	-0,175
156,560	250,695	-0,168	-0,200
157,575	-42,540	-0,219	-0,078
158,589	-45,812	-0,283	-0,097
159,604	12,901	-0,275	-0,148
160,619	168,805	-0,234	-0,233
161,633	306,940	-0,132	-0,173
162,648	55,502	-0,243	-0,164
163,662	0,662	-0,146	-0,073
164,677	105,382	-0,170	-0,140
165,692	183,413	-0,214	-0,221
166,706	196,775	-0,145	-0,155
167,721	27,072	-0,285	-0,167
168,735	-25,173	-0,326	-0,134
169,750	800,000	-0,073	-0,192
170,764	-124,219	-0,195	-0,021
171,779	82,371	-0,182	-0,138
172,794	-80,189	-0,243	-0,056
173,808	4,869	-0,331	-0,169
174,823	138,746	-0,328	-0,300
175,837	-39,749	-0,301	-0,109
176,852	199,196	-0,153	-0,164
177,867	26,887	-0,273	-0,159
178,881	800,000	-0,086	-0,170
179,896	-114,540	-0,230	-0,030
180,910	-176,208	-0,205	-0,004
181,925	-39,282	-0,158	-0,057
182,940	305,725	-0,217	-0,282
183,954	-16,105	-0,246	-0,109
184,969	183,827	-0,284	-0,293
185,983	97,224	-0,244	-0,195
186,998	171,034	-0,156	-0,156
188,013	199,870	-0,208	-0,223
189,027	211,661	-0,272	-0,299
190,042	9,872	-0,214	-0,113
191,056	174,038	-0,271	-0,272
192,071	-7,401	-0,233	-0,109
193,086	13,136	-0,192	-0,103
194,100	51,787	-0,243	-0,161
195,115	55,089	-0,233	-0,157
196,129	296,663	-0,196	-0,251
197,144	104,904	-0,217	-0,178
198,159	-32,012	-0,316	-0,122
199,173	800,000	-0,112	-0,248
200,188	-19,161	-0,150	-0,065
201,202	129,555	-0,181	-0,161
202,217	174,498	-0,168	-0,169
203,232	-63,352	-0,246	-0,070
204,246	-11,165	-0,263	-0,120
205,261	79,756	-0,211	-0,158
206,275	-104,653	-0,138	-0,022
207,290	450,871	-0,094	-0,145
208,304	-191,366	-0,144	0,001
209,319	166,411	-0,196	-0,193
210,334	-200,000	-0,070	-0,263
211,348	800,000	-0,142	-0,294
212,363	23,066	-0,269	-0,153
213,377	246,214	-0,164	-0,193
214,392	12,611	-0,241	-0,129
215,407	-21,947	-0,132	-0,056
216,421	-151,413	-0,121	0,006
217,436	124,298	-0,225	-0,196
218,450	239,527	-0,183	-0,212
219,465	128,188	-0,166	-0,147
220,480	187,130	-0,208	-0,216
221,494	126,455	-0,174	-0,153
222,509	275,973	-0,122	-0,150
223,523	684,309	-0,143	-0,260
224,538	800,000	-0,189	-0,393
225,553	201,213	-0,232	-0,249
226,567	-183,938	-0,302	-0,003
227,582	29,628	-0,150	-0,088
228,596	-130,818	-0,206	-0,019
229,611	307,916	-0,098	-0,128
230,626	-118,225	-0,217	-0,027
231,640	-200,000	0,055	-0,212
232,655	403,093	-0,179	-0,262
233,669	63,630	-0,247	-0,172
234,684	143,719	-0,143	-0,133
235,699	31,709	-0,194	-0,115
236,713	800,000	-0,067	-0,142
237,728	110,791	-0,038	-0,032
238,742	-113,154	-0,142	0,019
239,757	170,861	-0,159	-0,158
240,772	52,233	-0,290	-0,191
241,786	679,905	-0,120	-0,218
242,801	50,554	-0,269	-0,176
243,815	-53,663	-0,192	-0,060
244,830	-200,000	-0,054	-0,168
245,844	-3,840	-0,260	-0,125
246,859	147,811	-0,169	-0,158
247,874	554,807	-0,151	-0,252
248,888	102,859	-0,245	-0,199
249,903	344,175	-0,110	-0,150
250,917	-61,478	-0,157	-0,045
251,932	99,515	-0,178	-0,143
252,947	169,324	-0,176	-0,174
253,961	800,000	-0,108	-0,267
254,976	-116,769	-0,297	-0,037
255,990	142,309	-0,206	-0,190
257,005	185,932	-0,150	-0,155
258,020	98,131	-0,180	-0,143
259,034	-66,074	-0,137	-0,037
260,049	-66,407	-0,130	-0,036
261,063	312,546	-0,150	-0,195
262,078	117,638	-0,122	-0,104
263,093	172,038	-0,144	-0,143
264,107	-76,396	-0,155	-0,037
265,122	152,248	-0,130	-0,123
266,136	-200,000	-0,003	-0,050
267,151	-179,260	-0,172	-0,003
268,166	6,569	-0,252	-0,129
269,180	-100,459	-0,113	-0,019
270,195	242,292	-0,150	-0,173
271,209	78,934	-0,176	-0,130
272,224	75,415	-0,206	-0,150
273,239	345,209	-0,163	-0,222
274,253	800,000	-0,085	-0,172
275,268	-119,028	-0,178	0,021
276,282	-200,000	-0,010	-0,124
277,297	63,757	-0,247	-0,171
278,312	16,754	-0,187	-0,102
279,326	140,351	-0,181	-0,166
280,341	117,885	-0,189	-0,161
281,355	185,398	-0,119	-0,122
282,370	15,184	-0,222	-0,120
283,384	145,527	-0,312	-0,288
284,399	119,931	-0,163	-0,140
285,414	191,166	-0,124	-0,129
286,428	-27,997	-0,188	-0,075
287,443	-116,203	-0,093	0,012
288,457	-171,484	-0,092	0,002
289,472	-115,704	-0,124	0,016
290,487	207,514	-0,194	-0,210
291,501	179,180	-0,215	-0,218
292,516	85,618	-0,150	-0,114
293,530	166,072	-0,115	-0,113
294,545	348,284	-0,129	-0,176
295,560	72,449	-0,034	-0,024
296,574	90,264	-0,201	-0,155
297,589	28,176	-0,255	-0,148
298,603	359,696	-0,170	-0,235
299,618	126,489	-0,242	-0,211
300,633	-36,677	-0,180	-0,066
301,647	176,653	-0,087	-0,087
302,662	58,728	-0,066	-0,045
303,676	683,157	-0,115	-0,208
304,691	449,994	-0,161	-0,246
305,706	41,775	-0,162	-0,101
306,720	196,581	-0,247	-0,260
307,735	21,938	-0,123	-0,069
308,749	-173,675	-0,130	0,003
309,764	9,333	-0,167	-0,087
310,779	16,127	-0,089	-0,048
311,793	14,328	-0,149	-0,080
312,808	-65,580	-0,134	-0,037
313,822	170,209	-0,153	-0,151
314,837	232,081	-0,058	-0,066
315,852	-60,835	-0,137	-0,040
316,866	-45,111	-0,065	-0,022
317,881	159,517	-0,057	-0,055
318,895	33,564	-0,276	-0,165
319,910	800,000	-0,056	-0,148
320,925	141,229	-0,155	-0,141
321,939	144,794	-0,198	-0,182
322,954	36,440	-0,166	-0,101
323,968	16,045	-0,072	-0,039
324,983	-52,811	-0,147	0,046
325,997	220,414	-0,122	-0,135
327,012	-170,375	-0,141	-0,003
328,027	34,818	-0,170	-0,102
329,041	-183,088	-0,110	0,001
330,056	-79,687	-0,118	0,027
331,070	562,063	-0,046	-0,077
332,085	203,546	-0,073	-0,077
333,100	27,734	-0,118	-0,068
334,114	175,458	-0,128	-0,128
335,129	55,759	-0,172	-0,115
336,143	-55,049	-0,246	-0,076
337,158	-42,379	-0,237	0,083
338,173	-35,981	-0,115	-0,042
339,187	-96,512	-0,240	-0,043
340,202	-5,388	-0,098	0,046
341,216	213,196	-0,184	-0,200
342,231	-91,137	-0,112	-0,022
343,246	-11,750	-0,272	-0,122
344,260	800,000	-0,078	-0,229
345,275	416,717	-0,065	-0,096
346,289	80,716	-0,042	-0,031
347,304	237,306	-0,081	-0,092
348,319	-183,688	-0,150	-0,002
349,333	-71,648	-0,231	-0,059
350,348	-103,992	-0,116	-0,018
351,362	-200,000	0,008	-0,046
352,377	379,315	-0,041	-0,058
353,392	137,923	-0,056	-0,050
354,406	179,847	-0,172	-0,173
355,421	208,938	1315,263	1415,158
356,435	160,789	1476,070	1415,669
