DTS Sentinel unit serial number:	SN410029Multiplexer serial number:	ORYXHardware model number:	OX2-SRSoftware version number:	ORYX F/W v4,00 Oryx Data Collector v3.7.2.0data status	okinstallation	B3 Nyhavnadifferential loss correction	single-endedforward channel	channel 1reverse channel	N/Adate	2023/11/30time	02:57:30forward acquisition time	300,00reverse acquisition time	0,00gamma	499,1914k internal	0,3210k external	0,3210temperature offset calibration	1,0000default loss term (dB/km)	0,3820temperature slope calibration	1,0000multiplexer offset coefficient	1,0000multiplexer slope coefficient	1,0000fibre end	0,00T internal ref (°C)	10,31T ext. ref 1 (°C)	-5,37T ext. ref 2 (°C)	-5,48length (m)	temperature (°C)	Stokes	anti-Stokes-744,400	800,000	-0,099	-0,209
-743,385	-200,000	-0,028	0,265
-742,371	-200,000	-0,022	-0,217
-741,356	-200,000	-0,092	0,301
-740,342	800,000	-0,067	-0,178
-739,327	-200,000	-0,051	0,250
-738,312	92,946	-0,351	-0,288
-737,298	-200,000	0,033	0,251
-736,283	110,459	-0,170	-0,148
-735,269	555,577	0,145	0,254
-734,254	8,586	-0,114	-0,062
-733,239	-112,712	-0,261	0,037
-732,225	800,000	-0,068	-0,183
-731,210	23,736	0,161	0,096
-730,196	242,497	-0,029	0,035
-729,181	671,880	-0,087	0,165
-728,167	-200,000	-0,011	0,096
-727,152	252,542	-0,043	-0,053
-726,137	-200,000	-0,009	-0,122
-725,123	800,000	0,026	-0,076
-724,108	4,045	-0,051	0,027
-723,094	800,000	-0,104	-0,211
-722,079	-200,000	0,008	-0,091
-721,064	-35,442	0,113	0,044
-720,050	83,859	-0,079	-0,063
-719,035	266,962	0,110	-0,140
-718,021	-200,000	-0,043	-0,181
-717,006	314,985	0,058	-0,080
-715,991	219,117	0,087	-0,101
-714,977	-50,142	-0,085	0,029
-713,962	-59,615	-0,177	0,055
-712,948	467,817	0,031	0,050
-711,933	275,933	0,051	-0,066
-710,918	-21,663	-0,198	-0,087
-709,904	-5,015	-0,098	-0,049
-708,889	800,000	0,035	-0,081
-707,875	701,630	-0,066	-0,127
-706,860	246,862	0,088	-0,108
-705,845	383,682	0,092	-0,138
-704,831	-200,000	-0,021	0,096
-703,816	-200,000	0,004	-0,104
-702,802	143,784	-0,099	-0,095
-701,787	-32,240	-0,026	-0,011
-700,772	800,000	-0,037	-0,086
-699,758	99,209	-0,089	-0,074
-698,743	800,000	0,015	0,044
-697,729	-117,880	-0,006	-0,001
-696,714	154,868	-0,064	-0,064
-695,699	28,718	0,063	-0,038
-694,685	-129,680	-0,072	-0,007
-693,670	-200,000	0,008	-0,096
-692,656	270,678	-0,060	0,077
-691,641	-151,701	0,023	-0,001
-690,627	-200,000	0,000	0,160
-689,612	-61,092	0,055	0,017
-688,597	100,287	-0,129	-0,108
-687,583	-200,000	0,012	-0,121
-686,568	25,665	-0,087	-0,052
-685,554	106,443	0,089	0,076
-684,539	-200,000	0,004	0,012
-683,524	-200,000	0,005	0,085
-682,510	-200,000	-0,006	-0,129
-681,495	800,000	-0,037	0,114
-680,481	193,117	0,076	-0,083
-679,466	-132,467	-0,188	-0,017
-678,451	-200,000	0,011	-0,073
-677,437	-200,000	0,029	-0,119
-676,422	259,188	-0,040	0,050
-675,408	-38,837	-0,155	0,059
-674,393	-200,000	0,000	-0,055
-673,378	-84,415	-0,068	0,015
-672,364	-121,986	0,084	0,010
-671,349	375,881	0,051	-0,075
-670,335	177,294	0,045	-0,048
-669,320	-200,000	-0,005	-0,048
-668,305	120,064	-0,073	-0,065
-667,291	752,393	0,007	0,014
-666,276	90,029	-0,017	-0,013
-665,262	316,811	-0,018	0,024
-664,247	31,091	-0,079	-0,049
-663,232	800,000	-0,040	0,107
-662,218	79,770	-0,062	0,048
-661,203	800,000	-0,039	-0,120
-660,189	776,793	-0,028	-0,056
-659,174	443,642	-0,045	0,072
-658,159	-200,000	-0,023	0,104
-657,145	7,359	-0,042	0,023
-656,130	-200,000	0,013	-0,137
-655,116	-103,778	0,088	-0,015
-654,101	-11,348	0,147	0,070
-653,086	-200,000	-0,009	-0,141
-652,072	-200,000	-0,006	-0,035
-651,057	542,860	0,004	-0,008
-650,043	800,000	0,011	0,033
-649,028	800,000	0,016	0,034
-648,014	276,738	-0,023	0,030
-646,999	294,284	0,117	0,155
-645,984	-200,000	-0,056	-0,216
-644,970	102,064	0,013	0,011
-643,955	-61,163	-0,116	0,035
-642,941	-200,000	-0,012	0,076
-641,926	481,031	-0,067	-0,111
-640,911	312,472	-0,028	0,039
-639,897	44,731	0,079	-0,052
-638,882	70,943	-0,036	0,027
-637,868	127,197	0,039	0,036
-636,853	-22,404	0,048	-0,021
-635,838	103,639	-0,072	0,061
-634,824	186,482	-0,074	-0,080
-633,809	-200,000	-0,001	-0,048
-632,795	-200,000	0,016	-0,068
-631,780	-200,000	0,000	-0,043
-630,765	114,965	0,026	-0,023
-629,751	-200,000	0,002	-0,012
-628,736	-200,000	0,009	-0,054
-627,722	-200,000	-0,014	-0,081
-626,707	800,000	0,033	-0,098
-625,692	306,544	0,023	-0,030
-624,678	800,000	-0,059	0,159
-623,663	800,000	-0,055	-0,167
-622,649	-69,266	-0,091	-0,025
-621,634	215,016	-0,159	-0,182
-620,619	93,583	-0,221	-0,181
-619,605	20,605	0,049	0,028
-618,590	249,739	0,044	0,054
-617,576	-76,011	-0,092	0,023
-616,561	-29,020	-0,032	-0,013
-615,546	270,046	-0,095	0,120
-614,532	800,000	-0,024	0,051
-613,517	-181,120	0,131	-0,002
-612,503	373,272	-0,062	-0,091
-611,488	411,465	0,068	-0,105
-610,474	-200,000	0,008	0,109
-609,459	800,000	0,019	-0,038
-608,444	-132,485	-0,032	0,003
-607,430	132,810	-0,084	0,079
-606,415	800,000	-0,020	-0,059
-605,401	60,559	0,092	-0,066
-604,386	607,298	-0,040	-0,072
-603,371	-200,000	0,020	0,141
-602,357	-175,531	-0,151	0,003
-601,342	473,898	0,022	-0,035
-600,328	-200,000	0,005	0,052
-599,313	157,362	-0,044	-0,044
-598,298	800,000	-0,034	0,071
-597,284	104,217	-0,021	-0,018
-596,269	-22,311	0,123	0,053
-595,255	-15,615	-0,085	0,039
-594,240	800,000	0,023	-0,071
-593,225	511,227	-0,066	-0,112
-592,211	-200,000	0,039	-0,204
-591,196	-200,000	0,011	-0,245
-590,182	-71,932	0,128	0,034
-589,167	342,517	-0,059	0,083
-588,152	800,000	-0,036	-0,087
-587,138	-200,000	0,003	-0,060
-586,123	-103,308	0,051	-0,009
-585,109	193,830	0,052	-0,057
-584,094	-200,000	0,014	0,054
-583,079	229,680	0,100	0,118
-582,065	-200,000	0,107	-0,000
-581,050	537,430	0,014	-0,024
-580,036	158,269	-0,103	-0,103
-579,021	-200,000	0,038	-0,155
-578,006	162,545	-0,077	-0,078
-576,992	-78,266	0,086	-0,021
-575,977	263,356	0,057	0,072
-574,963	194,295	-0,042	0,046
-573,948	93,118	-0,024	-0,019
-572,934	34,172	-0,118	0,074
-571,919	-200,000	0,019	-0,093
-570,904	224,318	0,086	-0,100
-569,890	-129,996	-0,120	-0,012
-568,875	-200,000	0,007	0,132
-567,861	-81,409	-0,042	0,010
-566,846	-200,000	-0,010	0,058
-565,831	-200,000	-0,019	0,080
-564,817	-29,622	-0,028	-0,011
-563,802	246,312	-0,053	-0,064
-562,788	800,000	-0,049	-0,127
-561,773	588,210	0,066	-0,118
-560,758	31,134	-0,134	0,083
-559,744	-88,908	0,176	-0,037
-558,729	-44,385	-0,068	-0,024
-557,715	-133,233	0,018	-0,002
-556,700	800,000	-0,054	-0,130
-555,685	63,529	-0,033	-0,024
-554,671	83,382	0,085	0,066
-553,656	111,144	-0,071	-0,062
-552,642	-141,450	-0,029	-0,002
-551,627	-200,000	-0,056	0,182
-550,612	508,121	-0,053	-0,089
-549,598	-42,194	0,048	-0,018
-548,583	-200,000	0,012	0,054
-547,569	192,509	0,039	-0,043
-546,554	-20,103	0,172	0,076
-545,539	187,381	-0,040	0,043
-544,525	723,454	0,089	-0,172
-543,510	-200,000	-0,007	-0,124
-542,496	-102,591	0,057	-0,010
-541,481	-200,000	-0,001	0,012
-540,466	-200,000	-0,012	-0,057
-539,452	-101,979	0,095	0,016
-538,437	-100,024	0,101	0,018
-537,423	197,183	0,043	0,048
-536,408	137,230	0,052	-0,049
-535,393	-133,237	-0,082	0,007
-534,379	-81,118	-0,095	-0,022
-533,364	64,524	0,069	0,050
-532,350	485,227	-0,057	0,094
-531,335	250,517	-0,124	0,152
-530,321	-200,000	0,035	0,000
-529,306	772,797	0,049	0,096
-528,291	-108,632	-0,085	0,013
-527,277	-200,000	-0,005	-0,135
-526,262	235,778	0,071	-0,084
-525,248	-42,599	-0,088	-0,032
-524,233	-147,091	-0,114	-0,007
-523,218	-107,390	0,073	-0,011
-522,204	-140,069	-0,062	0,005
-521,189	-126,604	0,038	-0,004
-520,175	-82,017	-0,082	0,019
-519,160	-148,035	0,136	0,008
-518,145	48,011	-0,093	0,062
-517,131	-200,000	0,021	0,079
-516,116	-162,438	0,167	0,006
-515,102	-44,014	0,084	0,030
-514,087	-200,000	0,005	-0,059
-513,072	-31,398	-0,064	0,026
-512,058	232,102	-0,091	-0,108
-511,043	-200,000	0,009	-0,197
-510,029	-10,069	0,199	-0,095
-509,014	-108,529	0,050	0,008
-507,999	209,246	0,031	0,035
-506,985	800,000	-0,045	0,135
-505,970	-60,489	-0,212	-0,064
-504,956	443,111	0,035	-0,055
-503,941	517,886	0,135	0,228
-502,926	-124,567	0,048	-0,005
-501,912	800,000	0,040	0,092
-500,897	-32,518	-0,078	0,031
-499,883	-119,309	0,116	0,014
-498,868	33,890	-0,027	-0,017
-497,853	25,642	-0,116	0,069
-496,839	-106,560	-0,033	0,005
-495,824	85,998	0,066	0,052
-494,810	501,286	-0,078	0,131
-493,795	800,000	-0,028	0,057
-492,781	-63,097	0,110	0,032
-491,766	800,000	-0,083	-0,183
-490,751	357,331	-0,067	0,096
-489,737	176,603	-0,047	-0,049
-488,722	-156,985	0,015	0,001
-487,708	800,000	-0,029	0,068
-486,693	800,000	0,013	-0,030
-485,678	365,084	-0,059	-0,086
-484,664	6,222	0,096	-0,051
-483,649	93,422	0,031	0,025
-482,635	800,000	0,050	-0,103
-481,620	-77,544	-0,021	-0,005
-480,605	-1,214	-0,086	0,043
-479,591	619,927	0,054	0,098
-478,576	-21,335	0,165	-0,072
-477,562	-29,766	-0,164	-0,067
-476,547	-200,000	0,010	-0,148
-475,532	472,838	-0,059	-0,096
-474,518	800,000	0,022	0,053
-473,503	163,902	0,054	0,055
-472,489	-5,091	0,170	-0,083
-471,474	193,053	0,065	0,070
-470,459	-200,000	-0,018	-0,074
-469,445	116,854	-0,028	0,025
-468,430	116,169	0,080	0,071
-467,416	800,000	0,031	-0,062
-466,401	-96,687	0,049	-0,009
-465,386	-200,000	-0,018	0,100
-464,372	75,118	-0,153	0,115
-463,357	25,461	0,218	0,129
-462,343	-184,995	-0,080	-0,001
-461,328	609,242	0,042	0,076
-460,313	58,940	-0,035	0,025
-459,299	169,561	-0,070	-0,072
-458,284	4,466	-0,061	-0,032
-457,270	-57,475	-0,193	0,060
-456,255	59,852	-0,102	-0,072
-455,241	800,000	0,100	-0,245
-454,226	-200,000	0,001	-0,055
-453,211	150,146	-0,043	-0,042
-452,197	265,800	0,050	-0,063
-451,182	153,013	0,054	0,053
-450,168	-200,000	-0,045	0,225
-449,153	-200,000	-0,018	-0,144
-448,138	-115,361	-0,059	-0,008
-447,124	800,000	0,045	-0,109
-446,109	-68,800	-0,068	-0,019
-445,095	800,000	0,043	0,101
-444,080	72,157	-0,061	-0,045
-443,065	-61,440	-0,088	0,026
-442,051	167,981	-0,044	-0,044
-441,036	-71,122	-0,138	0,037
-440,022	179,943	-0,023	0,024
-439,007	-200,000	0,016	-0,053
-437,992	-116,565	-0,016	-0,002
-436,978	-4,150	0,043	-0,021
-435,963	175,006	-0,079	-0,082
-434,949	475,552	-0,042	-0,069
-433,934	-77,476	-0,054	0,013
-432,919	-85,141	-0,199	0,044
-431,905	800,000	-0,030	-0,068
-430,890	800,000	0,015	0,046
-429,876	-200,000	-0,021	0,091
-428,861	214,955	0,061	0,069
-427,846	-200,000	0,022	0,082
-426,832	414,786	-0,069	-0,105
-425,817	-57,577	-0,031	-0,010
-424,803	12,885	0,026	-0,014
-423,788	55,081	0,104	-0,072
-422,773	-75,075	0,049	-0,012
-421,759	-200,000	-0,014	-0,072
-420,744	29,801	-0,120	0,073
-419,730	800,000	-0,036	0,078
-418,715	-39,215	0,030	0,011
-417,701	-200,000	0,004	-0,158
-416,686	561,456	0,072	-0,125
-415,671	5,074	0,121	0,064
-414,657	702,565	0,082	0,156
-413,642	27,147	-0,045	-0,027
-412,628	29,812	-0,045	0,028
-411,613	-81,353	-0,096	-0,022
-410,598	-102,076	-0,082	-0,014
-409,584	-200,000	0,085	0,000
-408,569	122,911	-0,045	0,041
-407,555	-89,033	0,041	0,009
-406,540	-200,000	0,023	0,082
-405,525	111,750	0,067	0,058
-404,511	377,513	-0,031	-0,045
-403,496	-47,708	0,032	-0,011
-402,482	6,470	-0,062	0,033
-401,467	-200,000	0,008	0,131
-400,452	247,068	0,086	0,104
-399,438	92,744	0,066	0,054
-398,423	70,786	0,051	-0,038
-397,409	8,644	0,128	0,069
-396,394	-200,000	0,001	-0,086
-395,379	-200,000	-0,033	0,112
-394,365	30,394	0,040	-0,024
-393,350	-89,296	0,142	-0,030
-392,336	-200,000	0,001	0,029
-391,321	644,410	0,083	-0,153
-390,306	-42,061	-0,043	-0,016
-389,292	-132,561	-0,103	0,009
-388,277	224,218	0,045	0,052
-387,263	575,480	0,049	0,086
-386,248	-146,612	0,050	-0,003
-385,233	-97,236	0,113	-0,021
-384,219	29,473	0,072	-0,044
-383,204	-66,754	-0,071	0,020
-382,190	646,850	-0,047	-0,087
-381,175	160,252	-0,101	0,101
-380,160	294,861	0,146	0,191
-379,146	-7,551	0,071	-0,034
-378,131	-105,453	0,022	-0,003
-377,117	-114,670	0,134	-0,018
-376,102	800,000	-0,019	0,040
-375,088	49,912	-0,116	-0,078
-374,073	-60,025	0,149	0,045
-373,058	-200,000	0,004	-0,038
-372,044	800,000	-0,011	0,031
-371,029	322,711	0,007	0,009
-370,015	53,350	-0,099	-0,068
-369,000	-200,000	0,010	-0,094
-367,985	3,212	0,061	-0,032
-366,971	-69,179	0,129	-0,035
-365,956	-200,000	-0,012	-0,100
-364,942	461,089	-0,058	0,093
-363,927	800,000	0,088	0,174
-362,912	148,769	-0,116	0,112
-361,898	-70,914	0,018	0,005
-360,883	359,889	-0,122	-0,174
-359,869	-16,796	0,054	-0,024
-358,854	-45,976	0,007	-0,003
-357,839	298,633	0,026	0,035
-356,825	800,000	-0,039	0,082
-355,810	800,000	0,015	-0,036
-354,796	188,408	-0,047	-0,050
-353,781	-77,476	0,071	0,017
-352,766	-200,000	-0,011	-0,040
-351,752	641,448	-0,046	0,085
-350,737	230,385	-0,090	-0,105
-349,723	-200,000	0,005	0,041
-348,708	-186,262	-0,052	0,001
-347,693	-147,399	-0,029	0,002
-346,679	310,667	-0,044	-0,059
-345,664	-113,190	-0,005	0,001
-344,650	-123,356	0,127	0,014
-343,635	-87,761	0,107	0,023
-342,620	225,194	0,090	-0,104
-341,606	149,548	0,112	0,108
-340,591	-200,000	-0,018	-0,061
-339,577	53,997	0,046	0,032
-338,562	-200,000	0,002	0,096
-337,548	52,169	0,043	0,029
-336,533	-200,000	0,023	0,147
-335,518	-46,499	0,109	0,038
-334,504	144,008	0,096	0,091
-333,489	800,000	-0,041	0,090
-332,475	104,257	-0,025	-0,021
-331,460	186,516	-0,062	-0,066
-330,445	559,747	-0,050	0,087
-329,431	-163,613	0,144	-0,005
-328,416	-200,000	0,001	0,139
-327,402	23,259	0,023	0,014
-326,387	-200,000	0,016	-0,123
-325,372	800,000	-0,052	-0,125
-324,358	-68,506	-0,050	-0,014
-323,343	-59,293	0,131	-0,040
-322,329	-200,000	0,023	0,129
-321,314	14,190	0,053	0,029
-320,299	-200,000	0,017	0,119
-319,285	-200,000	0,007	0,109
-318,270	331,776	0,036	-0,050
-317,256	-8,685	-0,130	0,062
-316,241	154,029	0,076	-0,074
-315,226	129,470	0,117	-0,107
-314,212	-200,000	0,050	0,158
-313,197	-109,835	0,132	-0,020
-312,183	92,815	-0,046	-0,037
-311,168	13,841	-0,104	0,058
-310,153	-200,000	0,006	-0,045
-309,139	109,297	-0,031	-0,026
-308,124	157,169	0,150	0,148
-307,110	173,752	0,041	0,043
-306,095	407,134	0,005	-0,007
-305,080	122,833	-0,044	0,039
-304,066	-200,000	-0,009	-0,125
-303,051	-133,128	-0,108	0,010
-302,037	-138,885	-0,118	0,009
-301,022	-200,000	0,012	0,102
-300,008	197,855	0,096	0,105
-298,993	-105,937	-0,054	-0,009
-297,978	-131,147	0,055	0,005
-296,964	169,936	-0,056	0,057
-295,949	-200,000	0,002	-0,040
-294,935	24,119	0,052	-0,031
-293,920	-11,162	-0,065	-0,030
-292,905	800,000	-0,060	0,152
-291,891	-200,000	0,036	0,160
-290,876	12,129	0,076	0,041
-289,862	300,553	0,055	-0,073
-288,847	-122,833	-0,027	0,003
-287,832	98,677	-0,091	-0,074
-286,818	268,579	-0,101	-0,126
-285,803	742,818	0,022	-0,041
-284,789	800,000	0,054	0,153
-283,774	-200,000	-0,005	-0,048
-282,759	576,413	-0,040	0,070
-281,745	-162,637	-0,103	0,004
-280,730	360,618	-0,041	-0,059
-279,716	-200,000	-0,035	-0,140
-278,701	20,027	-0,085	-0,049
-277,686	-68,057	0,048	0,013
-276,672	-200,000	0,039	0,167
-275,657	-200,000	0,013	0,122
-274,643	-16,899	-0,103	0,046
-273,628	555,090	-0,072	-0,124
-272,613	-200,000	-0,003	-0,057
-271,599	504,451	0,029	0,049
-270,584	800,000	0,076	-0,203
-269,570	-200,000	0,010	0,049
-268,555	1,776	-0,067	0,034
-267,540	-7,366	0,068	0,032
-266,526	340,024	0,094	-0,131
-265,511	-46,080	-0,064	0,022
-264,497	800,000	-0,038	-0,102
-263,482	227,473	0,027	0,031
-262,467	201,941	0,034	0,038
-261,453	116,804	-0,088	0,077
-260,438	-106,275	0,075	0,012
-259,424	-200,000	0,003	0,011
-258,409	800,000	-0,015	0,030
-257,395	349,023	0,039	0,055
-256,380	-79,733	-0,014	-0,003
-255,365	305,142	-0,048	-0,064
-254,351	800,000	0,038	0,102
-253,336	-200,000	-0,007	-0,037
-252,322	-200,000	0,002	0,022
-251,307	800,000	-0,066	-0,175
-250,292	800,000	0,015	-0,031
-249,278	-53,534	0,057	-0,018
-248,263	-200,000	0,005	0,061
-247,249	800,000	-0,037	0,106
-246,234	165,191	-0,028	-0,028
-245,219	800,000	-0,052	-0,109
-244,205	800,000	-0,018	-0,054
-243,190	467,583	-0,039	-0,063
-242,176	-200,000	-0,007	0,043
-241,161	64,455	0,067	0,048
-240,146	-200,000	-0,019	0,159
-239,132	-77,083	-0,129	0,032
-238,117	-200,000	-0,002	0,015
-237,103	59,232	0,053	-0,037
-236,088	7,712	0,082	0,043
-235,073	21,377	0,064	-0,037
-234,059	-200,000	0,026	-0,142
-233,044	800,000	0,044	0,125
-232,030	-76,905	0,053	0,013
-231,015	-68,295	0,107	-0,029
-230,000	-74,706	-0,131	-0,033
-228,986	506,628	0,033	0,055
-227,971	141,746	0,081	0,076
-226,957	-200,000	0,002	-0,041
-225,942	-200,000	0,017	0,141
-224,927	-200,000	0,001	0,002
-223,913	-158,960	-0,093	-0,004
-222,898	-200,000	-0,011	-0,138
-221,884	-200,000	0,006	-0,048
-220,869	-97,113	-0,080	0,015
-219,855	73,216	0,093	0,069
-218,840	447,880	-0,036	0,056
-217,825	-137,153	-0,131	0,010
-216,811	-200,000	-0,009	-0,066
-215,796	104,988	-0,078	0,066
-214,782	4,687	-0,085	0,044
-213,767	52,096	0,090	0,061
-212,752	800,000	0,085	0,180
-211,738	800,000	-0,022	0,044
-210,723	-200,000	0,007	0,143
-209,709	231,716	-0,106	-0,124
-208,694	40,589	-0,110	-0,070
-207,679	53,434	-0,211	-0,143
-206,665	-95,901	0,030	-0,006
-205,650	-200,000	-0,023	0,081
-204,636	334,383	0,035	0,048
-203,621	-200,000	0,031	0,112
-202,606	21,638	-0,116	0,067
-201,592	215,065	0,012	-0,013
-200,577	-140,136	-0,144	0,011
-199,563	91,998	0,077	-0,062
-198,548	-59,820	-0,151	-0,045
-197,533	-16,969	0,091	-0,041
-196,519	360,612	0,023	-0,032
-195,504	-200,000	-0,016	-0,105
-194,490	-40,688	-0,032	0,012
-193,475	-200,000	-0,001	0,018
-192,460	-2,841	0,110	0,054
-191,446	-200,000	0,005	-0,073
-190,431	800,000	0,047	0,139
-189,417	-8,673	0,045	-0,021
-188,402	24,037	0,093	-0,054
-187,387	95,747	-0,121	-0,098
-186,373	17,225	0,040	0,022
-185,358	-200,000	-0,030	-0,117
-184,344	-182,835	-0,085	0,001
-183,329	-69,913	-0,052	0,014
-182,315	-200,000	0,003	-0,188
-181,300	17,530	0,031	0,017
-180,285	-200,000	-0,073	0,000
-179,271	133,493	-0,051	-0,046
-178,256	-30,263	0,091	-0,037
-177,242	-96,532	-0,127	-0,024
-176,227	393,760	-0,093	0,139
-175,212	-156,358	0,122	-0,005
-174,198	-200,000	-0,006	0,114
-173,183	-200,000	0,008	-0,038
-172,169	800,000	-0,012	-0,034
-171,154	97,902	-0,013	0,010
-170,139	-200,000	0,022	-0,231
-169,125	150,660	0,065	0,062
-168,110	175,341	0,116	0,119
-167,096	-85,372	-0,037	0,008
-166,081	216,488	-0,044	-0,050
-165,066	180,138	0,044	-0,046
-164,052	-75,275	0,152	-0,038
-163,037	800,000	0,045	0,136
-162,023	800,000	0,057	-0,119
-161,008	96,586	0,111	0,090
-159,993	-200,000	-0,008	0,116
-158,979	-87,624	0,032	-0,007
-157,964	-72,015	0,034	-0,009
-156,950	-200,000	0,001	0,090
-155,935	-94,676	-0,095	-0,018
-154,920	36,291	0,163	0,102
-153,906	34,529	0,106	0,065
-152,891	-101,853	-0,093	0,016
-151,877	563,553	-0,042	-0,073
-150,862	10,652	0,051	-0,028
-149,847	-200,000	-0,010	0,037
-148,833	-200,000	0,031	0,105
-147,818	-69,553	0,070	0,019
-146,804	-106,052	0,056	-0,009
-145,789	368,595	-0,017	-0,025
-144,775	800,000	-0,026	-0,052
-143,760	213,399	-0,043	0,048
-142,745	-200,000	-0,034	-0,163
-141,731	199,602	-0,056	-0,060
-140,716	65,123	-0,074	-0,053
-139,702	144,100	0,134	-0,127
-138,687	-48,961	-0,019	0,006
-137,672	122,035	-0,024	0,021
-136,658	-200,000	0,020	-0,074
-135,643	-43,650	-0,118	-0,042
-134,629	-104,712	-0,025	-0,004
-133,614	-110,140	0,207	0,030
-132,599	40,271	0,088	-0,056
-131,585	230,768	0,019	0,022
-130,570	800,000	-0,044	-0,091
-129,556	51,776	-0,125	-0,084
-128,541	-200,000	-0,004	0,031
-127,526	96,548	-0,058	-0,047
-126,512	48,744	0,076	0,050
-125,497	-138,489	0,040	-0,003
-124,483	800,000	-0,077	0,160
-123,468	-10,391	-0,085	0,040
-122,453	-53,795	-0,112	-0,036
-121,439	664,156	-0,006	-0,010
-120,424	42,317	0,119	0,076
-119,410	521,142	-0,034	0,057
-118,395	4,551	0,105	0,054
-117,380	134,212	0,084	0,077
-116,366	800,000	-0,044	0,131
-115,351	530,131	-0,072	-0,120
-114,337	-126,583	-0,129	0,013
-113,322	-200,000	-0,003	0,047
-112,307	37,772	0,113	-0,071
-111,293	74,427	0,068	-0,050
-110,278	-200,000	-0,021	0,124
-109,264	800,000	0,020	0,042
-108,249	24,669	-0,145	0,085
-107,234	93,022	-0,102	-0,081
-106,220	-200,000	-0,025	0,161
-105,205	-175,117	-0,052	-0,001
-104,191	635,029	0,018	-0,033
-103,176	-200,000	0,006	-0,059
-102,162	226,194	-0,031	0,035
-101,147	146,001	0,034	-0,032
-100,132	-200,000	0,024	-0,157
-99,118	543,763	0,040	-0,067
-98,103	552,420	0,033	0,057
-97,089	-2,272	0,034	0,017
-96,074	-34,718	-0,062	0,024
-95,059	-200,000	0,013	0,051
-94,045	-51,450	0,046	-0,015
-93,030	279,900	-0,069	-0,087
-92,016	-145,016	-0,109	0,007
-91,001	-200,000	-0,037	-0,132
-89,986	136,207	0,078	0,072
-88,972	77,245	0,087	0,066
-87,957	-95,732	0,099	0,019
-86,943	179,192	-0,028	0,028
-85,928	-200,000	0,010	-0,049
-84,913	800,000	-0,008	0,022
-83,899	-4,453	-0,018	-0,009
-82,884	-119,872	0,148	-0,018
-81,870	-200,000	0,027	0,102
-80,855	-200,000	0,031	-0,126
-79,840	94,125	-0,012	-0,010
-78,826	800,000	-0,042	-0,108
-77,811	27,209	-0,091	-0,054
-76,797	-200,000	0,031	0,113
-75,782	5,069	-0,157	0,082
-74,767	-129,356	0,124	-0,012
-73,753	437,785	0,059	0,091
-72,738	-200,000	-0,019	0,092
-71,724	251,354	-0,039	-0,047
-70,709	-200,000	-0,023	-0,098
-69,694	-91,289	0,071	0,014
-68,680	800,000	0,065	0,148
-67,665	-50,893	0,103	0,034
-66,651	-71,398	0,064	0,017
-65,636	-200,000	0,003	-0,018
-64,622	185,333	-0,026	0,027
-63,607	223,064	0,089	0,101
-62,592	-200,000	0,013	0,083
-61,578	22,679	0,061	0,035
-60,563	28,057	0,075	-0,045
-59,549	23,912	0,145	0,084
-58,534	33,041	-1,933	-1,180
-57,519	317,424	-1,491	-1,996
-56,505	-200,000	-0,410	-4,399
-55,490	348,297	1,053	1,470
-54,476	800,000	5,112	11,084
-53,461	-200,000	20,968	337,727
-52,446	800,000	758,547	2351,396
-51,432	558,511	1661,300	2840,782
-50,417	73,751	1661,680	1228,141
-49,403	18,235	1535,247	862,564
-48,388	12,143	1458,616	790,044
-47,373	19,310	1449,379	819,400
-46,359	15,549	1438,875	795,541
-45,344	10,474	1434,676	769,023
-44,330	10,364	1432,876	767,503
-43,315	10,362	1431,165	766,550
-42,300	10,389	1429,176	765,583
-41,286	10,382	1428,211	765,001
-40,271	10,355	1426,777	764,073
-39,257	10,356	1425,512	763,369
-38,242	10,396	1424,434	762,953
-37,227	10,379	1423,464	762,325
-36,213	10,407	1422,206	761,749
-35,198	10,332	1421,048	760,748
-34,184	10,426	1420,153	760,679
-33,169	10,367	1418,597	759,539
-32,154	10,408	1417,733	759,239
-31,140	10,447	1416,342	758,650
-30,125	10,455	1415,280	758,085
-29,111	10,459	1414,306	757,555
-28,096	10,403	1413,044	756,582
-27,082	10,306	1412,031	755,555
-26,067	10,329	1410,812	754,982
-25,052	10,326	1409,817	754,407
-24,038	10,321	1409,034	753,936
-23,023	10,353	1407,859	753,424
-22,009	10,362	1406,669	752,799
-20,994	10,349	1405,714	752,198
-19,979	10,353	1404,880	751,739
-18,965	10,384	1404,029	751,402
-17,950	10,289	1403,093	750,425
-16,936	10,318	1402,246	750,081
-15,921	10,242	1401,277	749,176
-14,906	10,193	1400,534	748,521
-13,892	10,289	1399,343	748,302
-12,877	10,226	1398,631	747,599
-11,863	10,200	1397,810	747,011
-10,848	10,227	1396,672	746,499
-9,833	10,205	1395,870	745,936
-8,819	10,146	1395,264	745,310
-7,804	10,112	1394,234	744,571
-6,790	10,158	1393,251	744,231
-5,775	10,128	1392,082	743,437
-4,760	10,184	1391,079	743,131
-3,746	10,144	1390,433	742,572
-2,731	10,198	1389,275	742,174
-1,717	10,153	1388,488	741,518
-0,702	10,153	1386,691	740,528
0,313	14,083	1299,841	712,161
1,327	30,199	690,564	414,907
2,342	46,991	119,632	78,350
3,356	0,254	16,423	8,238
4,371	-4,022	3,431	1,672
5,386	-53,323	0,976	0,314
6,400	800,000	0,239	0,514
7,415	257,670	-0,076	-0,093
8,429	89,420	-0,303	-0,238
9,444	16,121	-0,305	-0,169
10,459	68,053	-0,312	-0,225
11,473	69,299	-0,259	-0,188
12,488	43,536	-0,233	-0,150
13,502	256,173	-0,130	-0,158
14,517	-52,658	-0,456	-0,147
15,531	169,373	-0,302	-0,305
16,546	103,383	-0,410	-0,339
17,561	70,668	-0,387	-0,282
18,575	65,798	-0,225	-0,160
19,590	73,287	-0,208	-0,153
20,604	168,538	-0,103	-0,104
21,619	14,893	-0,499	-0,274
22,634	174,039	-0,409	-0,416
23,648	55,448	-0,335	-0,228
24,663	49,426	-0,461	-0,305
25,677	30,318	-0,366	-0,220
26,692	22,578	-0,399	-0,229
27,707	-19,633	-0,231	-0,100
28,721	148,363	-0,232	-0,220
29,736	54,979	-0,402	-0,273
30,750	129,495	-0,432	-0,388
31,765	283,542	-0,264	-0,334
32,780	135,519	-0,270	-0,247
33,794	36,933	-0,465	-0,289
34,809	40,119	-0,428	-0,270
35,823	188,825	-0,351	-0,370
36,838	13,687	-0,448	-0,244
37,853	33,469	-0,323	-0,197
38,867	168,685	-0,407	-0,408
39,882	151,775	-0,295	-0,283
40,896	-9,032	-0,305	-0,143
41,911	-35,805	-0,298	-0,113
42,926	27,858	-0,474	-0,280
43,940	135,875	-0,316	-0,289
44,955	513,450	-0,245	-0,404
45,969	59,388	-0,328	-0,227
46,984	54,404	-0,374	-0,253
47,999	67,553	-0,364	-0,261
49,013	30,924	-0,205	-0,123
50,028	94,096	-0,269	-0,215
51,042	-36,141	-0,367	-0,139
52,057	187,108	-0,360	-0,377
53,071	94,719	-0,301	-0,241
54,086	-13,948	-0,264	-0,119
55,101	27,791	-0,325	-0,192
56,115	59,486	-0,316	-0,219
57,130	142,635	-0,209	-0,195
58,144	16,711	-0,532	-0,294
59,159	-23,293	-0,441	-0,185
60,174	57,067	-0,366	-0,250
61,188	218,369	-0,324	-0,364
62,203	-50,511	-0,302	-0,099
63,217	152,798	-0,282	-0,271
64,232	43,209	-0,254	-0,163
65,247	0,564	-0,430	-0,215
66,261	373,491	-0,231	-0,331
67,276	81,753	-0,322	-0,244
68,290	131,551	-0,251	-0,227
69,305	-105,906	-0,230	-0,036
70,320	6,510	-0,351	-0,182
71,334	800,000	-0,133	-0,342
72,349	-38,902	-0,397	-0,146
73,363	17,647	-0,405	-0,225
74,378	36,804	-0,293	-0,181
75,393	97,371	-0,370	-0,298
76,407	-28,165	-0,280	-0,113
77,422	800,000	-0,099	-0,198
78,436	-16,290	-0,431	-0,191
79,451	-18,055	-0,369	-0,161
80,466	117,096	-0,233	-0,200
81,480	560,284	-0,213	-0,361
82,495	35,252	-0,342	-0,210
83,509	148,143	-0,327	-0,309
84,524	-10,178	-0,383	-0,177
85,539	-107,457	-0,163	0,025
86,553	75,236	-0,183	-0,135
87,568	-13,394	-0,308	-0,139
88,582	6,636	-0,431	-0,224
89,597	165,849	-0,278	-0,276
90,611	-15,950	-0,323	-0,143
91,626	-11,378	-0,301	-0,138
92,641	-79,442	-0,269	-0,063
93,655	101,898	-0,238	-0,195
94,670	-34,138	-0,350	-0,134
95,684	16,673	-0,270	-0,149
96,699	112,197	-0,204	-0,173
97,714	-20,660	-0,200	-0,085
98,728	11,722	-0,360	-0,193
99,743	62,370	-0,200	-0,139
100,757	110,333	-0,284	-0,238
101,772	102,924	-0,379	-0,311
102,787	31,178	-0,319	-0,191
103,801	370,623	-0,174	-0,247
104,816	-70,186	-0,269	-0,071
105,830	43,841	-0,316	-0,202
106,845	142,711	-0,188	-0,174
107,860	88,070	-0,224	-0,174
108,874	99,299	-0,272	-0,220
109,889	382,725	-0,158	-0,228
110,903	99,541	-0,336	-0,271
111,918	-155,239	-0,177	-0,008
112,933	11,578	-0,253	-0,135
113,947	-91,850	-0,368	-0,072
114,962	-29,962	-0,241	-0,095
115,976	181,283	-0,311	-0,320
116,991	48,018	-0,334	-0,218
118,006	60,830	-0,284	-0,197
119,020	79,644	-0,193	-0,145
120,035	206,541	-0,176	-0,191
121,049	32,120	-0,052	-0,031
122,064	-5,132	-0,235	-0,112
123,079	92,904	-0,176	-0,138
124,093	12,641	-0,301	-0,162
125,108	98,699	-0,376	-0,302
126,122	118,152	-0,190	-0,164
127,137	-44,509	-0,155	0,054
128,151	141,763	-0,180	-0,167
129,166	-118,547	-0,353	0,043
130,181	96,062	-0,237	-0,189
131,195	1,991	-0,278	-0,140
132,210	38,608	-0,302	-0,188
133,224	-3,241	-0,246	-0,119
134,239	13,778	-0,184	-0,099
135,254	-135,847	-0,138	-0,011
136,268	29,179	-0,238	-0,140
137,283	-87,107	-0,226	-0,048
138,297	490,666	-0,184	-0,295
139,312	15,775	-0,283	-0,155
140,327	50,350	-0,242	-0,159
141,341	416,555	-0,162	-0,242
142,356	71,563	-0,148	-0,107
143,370	-121,304	-0,069	-0,008
144,385	260,079	-0,146	-0,177
145,400	23,457	-0,362	-0,207
146,414	-59,577	-0,261	-0,078
147,429	97,509	-0,314	-0,251
148,443	-142,569	-0,315	-0,021
149,458	9,223	-0,244	-0,128
150,473	66,944	-0,302	-0,214
151,487	-31,230	-0,236	-0,092
152,502	70,529	-0,181	-0,130
153,516	-16,839	-0,264	-0,116
154,531	134,266	-0,241	-0,218
155,546	224,934	-0,211	-0,238
156,560	800,000	-0,091	-0,231
157,575	39,415	-0,197	-0,123
158,589	-10,453	-0,194	-0,089
159,604	-108,252	-0,269	-0,040
160,619	119,109	-0,263	-0,226
161,633	92,677	-0,260	-0,204
162,648	72,584	-0,220	-0,160
163,662	255,569	-0,139	-0,167
164,677	108,219	-0,278	-0,231
165,692	13,270	-0,212	-0,114
166,706	-83,002	-0,275	-0,061
167,721	42,628	-0,263	-0,166
168,735	34,386	-0,288	-0,174
169,750	82,303	-0,173	-0,130
170,764	105,616	-0,263	-0,216
171,779	-98,329	-0,188	0,033
172,794	790,435	-0,119	-0,228
173,808	226,990	-0,232	-0,263
174,823	800,000	-0,183	-0,428
175,837	228,717	-0,195	-0,222
176,852	149,689	-0,249	-0,235
177,867	316,364	-0,079	-0,104
178,881	-97,674	-0,133	-0,024
179,896	61,717	-0,188	-0,130
180,910	-3,923	-0,248	-0,119
181,925	279,303	-0,235	-0,291
182,940	46,785	-0,361	-0,232
183,954	61,667	-0,253	-0,174
184,969	-200,000	-0,027	-0,192
185,983	321,558	-0,207	-0,274
186,998	800,000	-0,061	-0,186
188,013	128,171	-0,183	-0,162
189,027	800,000	-0,120	-0,237
190,042	207,677	-0,248	-0,269
191,056	33,497	-0,218	-0,131
192,071	410,574	-0,081	-0,119
193,086	226,295	-0,096	-0,108
194,100	-76,340	-0,127	-0,031
195,115	84,080	-0,230	-0,174
196,129	800,000	-0,098	-0,206
197,144	-49,303	-0,244	-0,080
198,159	85,639	-0,335	-0,255
199,173	-0,226	-0,172	-0,085
200,188	800,000	-0,090	-0,185
201,202	147,696	-0,294	-0,275
202,217	-137,816	-0,251	-0,019
203,232	114,743	-0,151	-0,128
204,246	800,000	-0,074	-0,172
205,261	-53,278	-0,205	-0,065
206,275	800,000	-0,078	-0,233
207,290	-43,164	-0,200	-0,070
208,304	666,225	-0,051	-0,092
209,319	2,056	-0,286	-0,143
210,334	441,263	-0,154	-0,234
211,348	800,000	-0,068	-0,151
212,363	-19,630	-0,294	-0,125
213,377	113,799	-0,236	-0,198
214,392	385,192	-0,102	-0,146
215,407	-69,081	-0,168	-0,044
216,421	-35,506	-0,316	-0,118
217,436	242,699	-0,142	-0,165
218,450	281,905	-0,148	-0,184
219,465	59,949	-0,258	-0,176
220,480	224,713	-0,198	-0,222
221,494	248,589	-0,150	-0,176
222,509	800,000	-0,083	-0,165
223,523	124,010	-0,174	-0,151
224,538	-54,691	-0,303	-0,094
225,553	309,819	-0,105	-0,136
226,567	151,098	-0,237	-0,223
227,582	122,176	-0,217	-0,188
228,596	54,694	-0,144	-0,096
229,611	800,000	-0,082	-0,205
230,626	-22,092	-0,106	-0,044
231,640	63,557	-0,204	-0,142
232,655	394,470	-0,206	-0,297
233,669	376,860	-0,125	-0,177
234,684	337,668	-0,192	-0,259
235,699	382,078	-0,073	-0,103
236,713	-200,000	-0,015	-0,152
237,728	800,000	-0,122	-0,244
238,742	-38,447	-0,357	-0,130
239,757	80,035	-0,139	-0,103
240,772	-103,423	-0,196	-0,032
241,786	-61,250	-0,203	-0,059
242,801	668,055	-0,142	-0,255
243,815	-34,374	-0,147	-0,055
244,830	41,867	-0,140	-0,088
245,844	416,571	-0,146	-0,216
246,859	196,095	-0,250	-0,263
247,874	-24,205	-0,212	-0,087
248,888	119,985	-0,133	-0,114
249,903	-69,769	-0,071	-0,019
250,917	212,910	-0,075	-0,082
251,932	-41,110	-0,158	-0,056
252,947	-41,856	-0,112	-0,039
253,961	-82,512	-0,344	-0,076
254,976	161,371	-0,166	-0,160
255,990	323,365	-0,100	-0,131
257,005	-76,866	-0,144	0,034
258,020	800,000	-0,108	-0,246
259,034	91,193	-0,226	-0,175
260,049	8,491	-0,146	-0,076
261,063	-81,994	-0,120	0,027
262,078	67,640	-0,241	-0,169
263,093	-22,392	-0,179	-0,075
264,107	-66,597	-0,224	-0,061
265,122	104,524	-0,071	-0,058
266,136	97,387	-0,146	-0,115
267,151	-200,000	-0,004	-0,203
268,166	-118,374	-0,156	-0,019
269,180	191,007	-0,101	-0,104
270,195	17,727	-0,286	-0,156
271,209	383,688	-0,102	-0,146
272,224	509,209	-0,165	-0,265
273,239	800,000	-0,116	-0,236
274,253	49,608	-0,159	-0,103
275,268	-25,222	-0,117	-0,047
276,282	291,200	-0,121	-0,152
277,297	14,721	-0,124	-0,066
278,312	105,174	-0,147	-0,119
279,326	12,868	-0,159	-0,084
280,341	-15,912	-0,148	-0,065
281,355	112,131	-0,118	-0,098
282,370	203,877	-0,160	-0,171
283,384	80,634	-0,193	-0,143
284,399	-133,614	-0,173	-0,015
285,414	369,312	-0,104	-0,145
286,428	-200,000	-0,027	-0,181
287,443	-13,601	-0,124	-0,055
288,457	32,616	-0,203	-0,121
289,472	-41,622	-0,178	-0,062
290,487	1,639	-0,259	-0,128
291,501	509,439	-0,121	-0,194
292,516	117,871	-0,190	-0,161
293,530	486,363	-0,058	-0,091
294,545	-58,734	-0,131	-0,039
295,560	-12,076	-0,104	-0,047
296,574	-51,723	-0,195	-0,062
297,589	302,204	-0,054	-0,068
298,603	77,582	-0,216	-0,158
299,618	21,860	-0,132	-0,074
300,633	379,257	-0,144	-0,203
301,647	97,752	-0,102	-0,080
302,662	90,178	-0,128	-0,098
303,676	-0,078	-0,122	-0,060
304,691	76,508	-0,309	-0,225
305,706	135,402	-0,214	-0,191
306,720	80,462	-0,215	-0,159
307,735	-184,515	-0,200	-0,002
308,749	-138,538	-0,227	-0,017
309,764	-140,926	-0,155	0,011
310,779	238,999	-0,104	-0,119
311,793	262,484	-0,095	-0,113
312,808	92,074	-0,282	-0,218
313,822	7,521	-0,201	-0,103
314,837	112,946	-0,143	-0,119
315,852	211,894	-0,107	-0,116
316,866	123,369	-0,096	-0,082
317,881	-6,891	-0,103	-0,048
318,895	407,020	-0,058	-0,085
319,910	694,117	-0,079	-0,143
320,925	359,186	-0,123	-0,168
321,939	436,899	-0,100	-0,150
322,954	-138,591	-0,077	0,006
323,968	-10,375	-0,124	0,056
324,983	800,000	-0,096	-0,245
325,997	153,948	-0,151	-0,142
327,012	360,698	-0,160	-0,220
328,027	-9,773	-0,149	-0,068
329,041	83,887	-0,175	-0,131
330,056	-31,556	-0,141	0,054
331,070	-200,000	-0,034	-0,120
332,085	-89,918	-0,192	-0,038
333,100	61,488	-0,156	-0,106
334,114	-200,000	0,007	-0,098
335,129	577,801	-0,055	-0,092
336,143	36,182	-0,190	-0,114
337,158	484,928	-0,104	-0,163
338,173	-200,000	0,018	-0,160
339,187	145,119	-0,078	-0,071
340,202	7,073	-0,146	0,074
341,216	305,631	-0,085	-0,108
342,231	77,310	-0,197	-0,143
343,246	33,032	-0,176	-0,104
344,260	-56,154	-0,212	-0,064
345,275	246,631	-0,052	-0,060
346,289	-52,860	-0,107	0,034
347,304	89,657	-0,109	-0,083
348,319	798,673	0,079	-0,150
349,333	454,589	-0,109	-0,165
350,348	129,824	-0,124	-0,109
351,362	-178,476	-0,134	-0,002
352,377	800,000	-0,058	-0,130
353,392	170,662	-0,028	0,028
354,406	-39,033	-0,056	-0,020
355,421	206,989	1310,329	1398,781
356,435	159,216	1470,486	1399,267
