DTS Sentinel unit serial number:	SN410029Multiplexer serial number:	ORYXHardware model number:	OX2-SRSoftware version number:	ORYX F/W v4,00 Oryx Data Collector v3.7.2.0data status	okinstallation	B3 Nyhavnadifferential loss correction	single-endedforward channel	channel 1reverse channel	N/Adate	2023/12/02time	17:37:30forward acquisition time	300,00reverse acquisition time	0,00gamma	499,1914k internal	0,3199k external	0,3199temperature offset calibration	1,0000default loss term (dB/km)	0,3820temperature slope calibration	1,0000multiplexer offset coefficient	1,0000multiplexer slope coefficient	1,0000fibre end	0,00T internal ref (°C)	13,80T ext. ref 1 (°C)	-1,63T ext. ref 2 (°C)	-1,64length (m)	temperature (°C)	Stokes	anti-Stokes-744,400	-200,000	-0,076	-0,310
-743,385	185,332	0,155	0,168
-742,371	619,881	-0,124	-0,229
-741,356	800,000	-0,095	0,245
-740,342	75,455	-0,286	-0,219
-739,327	-200,000	0,073	0,361
-738,312	258,026	-0,175	-0,220
-737,298	-200,000	-0,022	0,219
-736,283	143,199	-0,220	-0,213
-735,269	649,085	-0,152	0,284
-734,254	344,003	-0,212	-0,303
-733,239	80,466	-0,109	-0,085
-732,225	800,000	-0,116	-0,312
-731,210	-99,819	0,111	0,020
-730,196	-108,432	0,050	0,008
-729,181	-53,930	-0,072	0,024
-728,167	415,375	0,029	-0,045
-727,152	-14,757	0,020	-0,009
-726,137	74,767	-0,033	-0,025
-725,123	-61,556	-0,092	-0,028
-724,108	84,244	-0,209	-0,166
-723,094	-130,712	-0,150	-0,015
-722,079	-200,000	0,005	-0,061
-721,064	-200,000	0,013	-0,084
-720,050	-89,658	0,049	-0,010
-719,035	42,961	-0,136	0,090
-718,021	-75,558	0,042	-0,011
-717,006	650,041	-0,051	-0,095
-715,991	800,000	-0,073	-0,227
-714,977	20,185	-0,129	-0,076
-713,962	-200,000	0,008	0,142
-712,948	-200,000	0,007	0,118
-711,933	-18,422	0,018	-0,008
-710,918	-127,150	-0,048	-0,005
-709,904	13,457	-0,115	0,065
-708,889	-160,770	-0,079	0,003
-707,875	800,000	-0,058	-0,180
-706,860	-102,061	0,019	0,003
-705,845	296,167	-0,035	0,047
-704,831	440,446	-0,053	0,085
-703,816	-131,776	-0,110	0,010
-702,802	104,678	-0,139	0,119
-701,787	303,067	-0,017	-0,022
-700,772	697,974	-0,038	-0,073
-699,758	800,000	0,035	0,070
-698,743	512,036	0,032	-0,054
-697,729	118,546	-0,064	-0,057
-696,714	-200,000	-0,018	-0,064
-695,699	78,752	-0,115	-0,090
-694,685	-200,000	0,005	0,026
-693,670	243,113	-0,083	-0,101
-692,656	477,648	-0,013	0,021
-691,641	800,000	0,031	0,078
-690,627	409,964	0,050	0,077
-689,612	-200,000	-0,004	-0,028
-688,597	-100,095	0,091	-0,016
-687,583	50,794	-0,111	-0,076
-686,568	169,889	-0,063	-0,065
-685,554	800,000	-0,051	-0,105
-684,539	161,600	0,038	-0,039
-683,524	465,982	0,054	0,089
-682,510	263,041	-0,077	-0,097
-681,495	-115,863	0,032	-0,004
-680,481	255,268	0,004	-0,004
-679,466	-200,000	-0,007	-0,075
-678,451	800,000	-0,040	-0,087
-677,437	800,000	0,042	0,119
-676,422	252,037	0,045	0,056
-675,408	800,000	-0,054	-0,142
-674,393	90,791	0,029	0,023
-673,378	-31,676	-0,069	-0,028
-672,364	310,606	0,056	-0,076
-671,349	342,100	0,014	-0,019
-670,335	-200,000	-0,006	0,079
-669,320	-200,000	0,019	-0,134
-668,305	-20,823	0,020	0,009
-667,291	-200,000	0,002	-0,025
-666,276	85,107	0,012	-0,010
-665,262	-125,998	-0,038	0,004
-664,247	2,388	-0,128	-0,067
-663,232	314,163	0,051	0,070
-662,218	800,000	0,064	0,150
-661,203	-146,263	-0,194	0,012
-660,189	155,175	0,064	0,064
-659,174	26,190	-0,103	0,062
-658,159	800,000	0,042	0,097
-657,145	-55,534	-0,116	0,037
-656,130	800,000	0,037	-0,075
-655,116	-200,000	-0,008	0,088
-654,101	5,378	0,049	-0,026
-653,086	800,000	0,025	0,074
-652,072	-200,000	-0,046	0,185
-651,057	-200,000	0,037	-0,165
-650,043	528,168	-0,062	-0,107
-649,028	8,423	-0,043	-0,024
-648,014	185,307	-0,099	-0,106
-646,999	196,217	0,126	0,140
-645,984	-78,719	-0,092	-0,023
-644,970	-200,000	0,001	-0,022
-643,955	-95,155	-0,033	0,006
-642,941	-110,038	0,027	0,004
-641,926	-200,000	0,028	0,130
-640,911	89,708	-0,069	-0,056
-639,897	-22,602	-0,148	0,065
-638,882	73,953	0,093	0,071
-637,868	131,078	-0,046	-0,042
-636,853	-41,831	-0,106	-0,039
-635,838	337,116	0,068	0,096
-634,824	-196,749	0,041	0,000
-633,809	-176,254	0,101	-0,002
-632,795	-9,166	-0,078	0,038
-631,780	183,201	0,118	-0,126
-630,765	-123,397	-0,123	-0,014
-629,751	18,240	0,092	-0,053
-628,736	800,000	-0,024	0,054
-627,722	-27,618	-0,085	0,035
-626,707	220,852	0,056	-0,065
-625,692	131,059	-0,045	-0,042
-624,678	28,895	0,071	-0,043
-623,663	86,629	-0,163	-0,130
-622,649	-115,715	-0,156	0,021
-621,634	-41,753	-0,099	0,037
-620,619	-76,654	-0,021	-0,005
-619,605	-134,670	-0,045	-0,004
-618,590	301,811	0,044	0,059
-617,576	686,679	0,014	-0,026
-616,561	22,196	0,056	0,033
-615,546	-200,000	0,013	-0,149
-614,532	800,000	-0,027	-0,076
-613,517	800,000	-0,035	-0,104
-612,503	71,358	-0,117	0,088
-611,488	-200,000	0,004	-0,147
-610,474	-126,772	0,096	-0,010
-609,459	-40,607	-0,130	-0,049
-608,444	-81,840	-0,130	0,031
-607,430	22,295	0,128	-0,076
-606,415	-200,000	0,016	-0,095
-605,401	662,094	-0,074	-0,138
-604,386	-200,000	-0,026	-0,108
-603,371	482,372	0,089	-0,147
-602,357	800,000	-0,028	-0,057
-601,342	95,474	-0,059	0,048
-600,328	-74,900	0,062	0,016
-599,313	-200,000	0,014	-0,076
-598,298	-200,000	-0,004	-0,142
-597,284	-200,000	-0,021	-0,069
-596,269	29,754	-0,018	0,011
-595,255	293,820	-0,035	0,046
-594,240	-56,804	-0,062	-0,020
-593,225	-200,000	0,009	0,039
-592,211	-175,352	0,093	0,002
-591,196	-142,461	-0,227	0,016
-590,182	-150,160	0,185	0,010
-589,167	633,262	0,068	-0,126
-588,152	-200,000	0,028	0,101
-587,138	800,000	-0,020	0,059
-586,123	-200,000	-0,020	-0,145
-585,109	16,159	-0,066	-0,038
-584,094	78,390	0,105	0,081
-583,079	800,000	0,019	0,057
-582,065	800,000	0,031	0,091
-581,050	-143,181	-0,100	-0,007
-580,036	-107,321	-0,040	0,006
-579,021	-200,000	0,016	-0,107
-578,006	-200,000	0,028	-0,169
-576,992	-200,000	-0,005	-0,088
-575,977	146,518	0,011	0,011
-574,963	264,085	0,075	0,095
-573,948	-200,000	-0,017	0,192
-572,934	-200,000	-0,006	-0,110
-571,919	75,053	-0,104	-0,079
-570,904	766,823	-0,034	-0,066
-569,890	-26,485	-0,093	0,039
-568,875	-123,118	0,098	0,011
-567,861	-62,643	0,064	0,019
-566,846	24,695	0,070	0,042
-565,831	79,159	-0,060	-0,047
-564,817	75,467	-0,119	-0,091
-563,802	-200,000	-0,014	-0,141
-562,788	-200,000	0,006	-0,132
-561,773	-97,819	0,039	0,007
-560,758	236,370	0,043	-0,052
-559,744	125,679	0,085	0,078
-558,729	322,609	-0,027	0,038
-557,715	532,557	0,059	0,101
-556,700	-26,189	-0,088	-0,037
-555,685	209,736	-0,090	0,102
-554,671	433,727	0,071	0,111
-553,656	261,921	0,016	-0,021
-552,642	-17,402	-0,062	0,028
-551,627	800,000	0,036	-0,087
-550,612	171,201	-0,050	0,051
-549,598	-188,522	-0,139	-0,001
-548,583	92,990	0,061	-0,050
-547,569	392,909	0,035	0,053
-546,554	-120,147	-0,048	-0,006
-545,539	800,000	-0,012	-0,035
-544,525	800,000	0,035	0,095
-543,510	-200,000	-0,015	0,147
-542,496	88,339	0,086	0,069
-541,481	271,343	-0,021	0,027
-540,466	733,182	0,006	-0,012
-539,452	-81,538	0,109	0,026
-538,437	800,000	0,017	-0,049
-537,423	800,000	0,008	-0,024
-536,408	-200,000	-0,018	0,070
-535,393	-16,781	-0,015	0,007
-534,379	57,051	-0,061	-0,043
-533,364	94,944	-0,021	-0,017
-532,350	-200,000	0,024	0,123
-531,335	116,491	-0,038	0,034
-530,321	139,518	0,114	-0,108
-529,306	222,419	-0,105	0,122
-528,291	-135,170	0,053	0,004
-527,277	-68,432	-0,090	-0,025
-526,262	10,687	-0,078	0,043
-525,248	-39,438	0,108	0,041
-524,233	800,000	-0,019	0,043
-523,218	15,256	0,181	-0,102
-522,204	348,017	-0,030	0,043
-521,189	-200,000	-0,014	-0,206
-520,175	-200,000	-0,023	-0,178
-519,160	-176,076	-0,048	-0,001
-518,145	46,207	0,061	0,041
-517,131	622,128	0,044	0,080
-516,116	-30,764	0,036	0,015
-515,102	800,000	-0,037	0,081
-514,087	253,209	-0,066	-0,082
-513,072	-200,000	0,000	-0,092
-512,058	27,364	0,057	-0,035
-511,043	-200,000	0,004	0,116
-510,029	104,160	-0,161	0,137
-509,014	-69,047	0,041	0,011
-507,999	-11,998	-0,054	0,026
-506,985	800,000	-0,030	0,072
-505,970	-200,000	-0,016	0,138
-504,956	34,249	0,068	0,043
-503,941	800,000	-0,024	0,060
-502,926	-200,000	0,004	-0,027
-501,912	245,780	-0,089	0,108
-500,897	22,039	0,098	-0,058
-499,883	-148,947	-0,118	0,007
-498,868	43,453	-0,103	0,068
-497,853	285,288	0,067	-0,087
-496,839	-200,000	0,000	0,042
-495,824	30,417	-0,089	-0,055
-494,810	-67,857	0,148	-0,041
-493,795	-121,618	-0,065	0,008
-492,781	-66,282	-0,048	0,014
-491,766	53,190	0,008	0,005
-490,751	-200,000	0,027	-0,104
-489,737	26,237	-0,096	0,058
-488,722	98,332	-0,044	0,037
-487,708	-52,401	0,192	0,064
-486,693	341,764	-0,012	0,017
-485,678	800,000	-0,051	-0,105
-484,664	41,048	-0,163	-0,106
-483,649	314,135	-0,075	-0,102
-482,635	800,000	0,076	-0,180
-481,620	-200,000	0,001	-0,069
-480,605	-54,472	0,102	0,033
-479,591	-200,000	-0,044	0,152
-478,576	585,520	-0,020	0,036
-477,562	800,000	0,036	0,094
-476,547	-47,772	0,097	-0,034
-475,532	212,071	-0,033	0,038
-474,518	522,846	-0,045	-0,077
-473,503	-32,776	0,100	-0,040
-472,489	162,365	-0,096	0,097
-471,474	-200,000	-0,026	0,168
-470,459	169,617	0,022	0,023
-469,445	303,282	-0,027	-0,035
-468,430	-25,022	-0,122	0,052
-467,416	546,755	-0,027	-0,046
-466,401	140,522	-0,060	-0,057
-465,386	54,816	0,060	-0,042
-464,372	-24,320	0,162	-0,069
-463,357	-200,000	0,001	-0,042
-462,343	272,377	-0,127	-0,161
-461,328	-101,763	-0,053	-0,009
-460,313	193,167	0,097	-0,106
-459,299	-200,000	0,016	-0,074
-458,284	5,056	0,044	0,023
-457,270	122,310	-0,047	-0,043
-456,255	-9,857	-0,019	-0,009
-455,241	-17,349	-0,054	0,024
-454,226	-200,000	-0,014	-0,046
-453,211	232,064	0,092	0,109
-452,197	606,314	-0,054	0,097
-451,182	416,627	0,042	-0,065
-450,168	-101,524	-0,071	0,012
-449,153	-45,507	-0,050	-0,018
-448,138	-146,112	-0,041	0,003
-447,124	-200,000	-0,002	-0,037
-446,109	167,990	-0,042	0,043
-445,095	-200,000	0,015	0,055
-444,080	170,881	-0,035	0,036
-443,065	126,461	0,098	-0,089
-442,051	235,798	-0,050	-0,059
-441,036	-76,006	-0,123	-0,031
-440,022	-57,607	0,073	0,023
-439,007	-23,941	0,094	0,040
-437,992	776,774	-0,037	0,073
-436,978	151,025	0,106	0,103
-435,963	534,062	0,024	-0,041
-434,949	6,907	-0,091	-0,048
-433,934	-200,000	-0,003	-0,090
-432,919	32,185	-0,062	-0,038
-431,905	0,778	-0,050	0,026
-430,890	159,338	0,023	0,023
-429,876	-17,057	-0,074	0,033
-428,861	800,000	0,018	0,042
-427,846	-43,294	-0,066	-0,024
-426,832	34,393	-0,089	-0,056
-425,817	212,457	-0,136	-0,154
-424,803	800,000	-0,025	-0,062
-423,788	360,223	0,077	-0,111
-422,773	104,347	-0,083	0,070
-421,759	-200,000	-0,014	0,056
-420,744	54,723	-0,124	-0,086
-419,730	-130,999	-0,167	-0,016
-418,715	-200,000	0,014	-0,093
-417,701	-153,805	-0,133	0,006
-416,686	800,000	0,030	0,067
-415,671	-200,000	-0,000	0,013
-414,657	-200,000	-0,023	0,123
-413,642	-200,000	0,005	0,107
-412,628	431,871	0,025	0,039
-411,613	-5,070	-0,036	0,018
-410,598	-200,000	0,020	-0,139
-409,584	34,322	-0,094	-0,059
-408,569	-200,000	0,009	-0,094
-407,555	-200,000	0,010	0,105
-406,540	-28,026	0,094	0,039
-405,525	-200,000	-0,009	-0,082
-404,511	-77,911	-0,092	-0,023
-403,496	-192,560	-0,146	0,001
-402,482	-200,000	0,007	0,046
-401,467	39,752	0,024	0,016
-400,452	234,700	-0,029	-0,035
-399,438	226,682	0,080	0,093
-398,423	32,488	-0,059	-0,037
-397,409	-200,000	0,041	0,000
-396,394	10,124	-0,091	0,050
-395,379	-115,233	-0,101	-0,014
-394,365	309,117	0,007	0,009
-393,350	-3,803	0,068	-0,034
-392,336	763,753	-0,038	0,074
-391,321	10,668	-0,042	0,023
-390,306	-80,593	0,076	0,018
-389,292	-200,000	0,014	-0,086
-388,277	-200,000	0,015	-0,069
-387,263	-32,149	0,082	0,033
-386,248	137,441	0,042	0,040
-385,233	800,000	-0,067	0,136
-384,219	-56,253	0,073	0,023
-383,204	-200,000	-0,029	-0,144
-382,190	681,903	0,040	0,076
-381,175	230,183	0,102	0,120
-380,160	-154,333	0,087	-0,004
-379,146	-50,103	0,147	0,050
-378,131	79,557	0,095	0,073
-377,117	754,338	0,018	0,035
-376,102	-89,321	0,112	0,023
-375,088	-200,000	0,011	-0,045
-374,073	800,000	-0,021	0,059
-373,058	210,317	0,040	0,045
-372,044	-77,669	0,142	0,035
-371,029	107,317	-0,051	-0,043
-370,015	-200,000	-0,003	0,020
-369,000	131,033	-0,015	0,013
-367,985	-200,000	0,017	-0,081
-366,971	-200,000	0,002	-0,037
-365,956	-200,000	-0,007	-0,105
-364,942	43,819	0,251	0,165
-363,927	-200,000	0,006	0,098
-362,912	-200,000	0,014	-0,076
-361,898	-52,797	-0,074	0,024
-360,883	-200,000	-0,011	-0,115
-359,869	-134,085	-0,129	-0,011
-358,854	-200,000	0,012	-0,045
-357,839	-200,000	0,002	0,115
-356,825	-200,000	0,002	-0,052
-355,810	-69,929	0,085	0,023
-354,796	8,655	-0,114	0,062
-353,781	-200,000	-0,023	0,117
-352,766	-200,000	-0,027	-0,123
-351,752	139,424	-0,121	0,114
-350,737	-3,426	0,022	0,011
-349,723	-0,548	0,057	-0,029
-348,708	15,990	0,115	0,065
-347,693	51,725	0,068	-0,046
-346,679	-94,770	-0,095	-0,018
-345,664	-43,281	0,070	-0,025
-344,650	800,000	0,027	0,064
-343,635	800,000	-0,030	-0,082
-342,620	-12,811	-0,035	0,016
-341,606	-76,452	-0,057	-0,014
-340,591	-200,000	0,014	0,116
-339,577	157,535	0,026	0,026
-338,562	-200,000	0,029	-0,116
-337,548	-108,864	-0,058	0,009
-336,533	-55,427	0,067	-0,021
-335,518	-200,000	-0,023	0,164
-334,504	237,726	-0,053	-0,063
-333,489	800,000	-0,034	-0,073
-332,475	-85,896	-0,069	-0,015
-331,460	462,665	0,047	0,075
-330,445	-40,103	-0,036	-0,014
-329,431	-200,000	0,018	0,081
-328,416	-84,307	0,185	0,042
-327,402	43,993	-0,113	0,074
-326,387	14,833	0,097	-0,054
-325,372	494,588	0,084	-0,138
-324,358	14,204	-0,135	-0,075
-323,343	52,540	0,025	0,017
-322,329	532,232	0,014	0,024
-321,314	469,116	0,043	0,070
-320,299	800,000	0,064	0,173
-319,285	-102,850	0,021	0,004
-318,270	203,191	0,037	-0,041
-317,256	800,000	0,042	0,102
-316,241	-26,169	0,092	0,038
-315,226	-200,000	0,004	-0,071
-314,212	800,000	0,039	-0,079
-313,197	800,000	0,037	0,081
-312,183	-111,824	-0,203	0,029
-311,168	345,942	0,016	0,023
-310,153	-200,000	0,009	-0,166
-309,139	-92,107	0,070	0,014
-308,124	216,057	-0,080	0,092
-307,110	-180,965	0,149	-0,002
-306,095	-200,000	0,000	-0,070
-305,080	-97,356	-0,015	-0,003
-304,066	213,807	-0,046	0,052
-303,051	523,482	0,045	0,077
-302,037	193,490	-0,073	-0,080
-301,022	39,672	0,095	-0,061
-300,008	458,593	0,038	0,060
-298,993	101,742	0,079	0,066
-297,978	-200,000	0,007	0,043
-296,964	-95,128	0,134	-0,026
-295,949	9,423	0,043	0,023
-294,935	404,744	-0,025	0,037
-293,920	132,961	0,060	-0,055
-292,905	-200,000	-0,015	0,107
-291,891	-159,095	0,078	0,003
-290,876	-9,538	-0,161	-0,076
-289,862	59,779	0,070	0,049
-288,847	251,377	-0,044	-0,054
-287,832	-22,750	0,032	-0,014
-286,818	549,338	-0,063	-0,109
-285,803	-94,842	0,050	-0,010
-284,789	-200,000	0,007	0,037
-283,774	-8,144	0,048	-0,023
-282,759	-200,000	0,020	-0,100
-281,745	-200,000	-0,041	-0,147
-280,730	167,526	0,091	-0,093
-279,716	-200,000	-0,002	-0,054
-278,701	800,000	-0,012	-0,036
-277,686	449,898	0,040	0,063
-276,672	393,418	-0,011	0,016
-275,657	-200,000	0,002	-0,088
-274,643	800,000	0,021	-0,059
-273,628	-17,312	0,024	-0,011
-272,613	-104,488	0,080	-0,013
-271,599	-60,885	-0,078	0,023
-270,584	-58,031	0,095	-0,030
-269,570	33,865	-0,121	0,075
-268,555	129,546	-0,097	0,088
-267,540	-118,272	-0,057	-0,007
-266,526	641,602	0,061	0,112
-265,511	90,944	0,085	0,068
-264,497	411,481	-0,039	-0,059
-263,482	-136,556	0,158	0,013
-262,467	70,214	-0,036	0,026
-261,453	-63,527	-0,034	0,010
-260,438	-72,060	-0,098	0,026
-259,424	313,738	-0,019	-0,026
-258,409	-21,756	0,063	-0,027
-257,395	107,379	0,035	-0,029
-256,380	30,798	-0,086	-0,052
-255,365	-200,000	0,003	0,042
-254,351	169,082	-0,039	0,039
-253,336	280,862	-0,069	0,088
-252,322	644,831	-0,096	0,175
-251,307	800,000	-0,038	-0,076
-250,292	800,000	-0,026	0,057
-249,278	800,000	0,014	-0,034
-248,263	0,322	0,108	0,055
-247,249	-119,109	-0,101	-0,012
-246,234	-200,000	0,016	0,063
-245,219	192,202	-0,027	0,029
-244,205	800,000	0,006	-0,014
-243,190	-83,275	0,097	0,022
-242,176	-200,000	-0,041	0,137
-241,161	-47,668	0,061	0,021
-240,146	-200,000	-0,008	0,077
-239,132	-98,607	0,064	0,012
-238,117	-200,000	-0,049	-0,210
-237,103	800,000	-0,038	-0,102
-236,088	-32,295	0,103	0,041
-235,073	-34,044	-0,118	0,046
-234,059	800,000	-0,074	0,156
-233,044	355,321	0,030	0,043
-232,030	478,523	0,087	-0,141
-231,015	736,142	0,029	-0,055
-230,000	-200,000	-0,016	0,062
-228,986	-32,528	0,178	0,071
-227,971	-90,656	0,079	0,016
-226,957	-200,000	0,034	0,156
-225,942	-200,000	-0,001	0,096
-224,927	58,815	-0,051	0,036
-223,913	30,777	0,065	0,039
-222,898	-200,000	0,009	-0,129
-221,884	-200,000	-0,002	0,038
-220,869	-62,466	0,130	0,038
-219,855	63,280	0,101	-0,072
-218,840	151,428	-0,087	-0,085
-217,825	-37,182	0,058	0,022
-216,811	-63,720	-0,025	0,007
-215,796	-89,187	-0,056	0,012
-214,782	-68,472	0,097	-0,027
-213,767	22,497	0,086	-0,050
-212,752	800,000	-0,005	0,016
-211,738	-159,812	0,139	0,005
-210,723	82,766	-0,055	0,042
-209,709	800,000	0,044	-0,139
-208,694	19,671	-0,016	0,009
-207,679	-200,000	-0,013	-0,042
-206,665	-49,918	-0,060	0,020
-205,650	800,000	0,048	0,127
-204,636	186,816	0,026	0,028
-203,621	-200,000	0,024	-0,151
-202,606	-54,770	-0,031	-0,010
-201,592	-114,019	0,036	-0,005
-200,577	321,012	0,018	-0,024
-199,563	800,000	-0,023	-0,055
-198,548	-23,047	0,069	-0,030
-197,533	-104,091	-0,130	0,021
-196,519	-94,396	0,104	-0,020
-195,504	-96,456	-0,063	-0,012
-194,490	149,650	0,003	0,003
-193,475	-35,485	-0,045	0,017
-192,460	800,000	0,052	0,123
-191,446	-200,000	0,020	-0,088
-190,431	-67,406	0,151	0,042
-189,417	-123,586	0,086	-0,010
-188,402	29,271	-0,097	0,059
-187,387	-200,000	0,008	-0,027
-186,373	-200,000	-0,027	-0,120
-185,358	-72,002	0,078	-0,021
-184,344	-69,089	-0,077	-0,021
-183,329	59,822	0,059	-0,042
-182,315	-200,000	0,003	0,093
-181,300	800,000	-0,013	0,032
-180,285	259,488	-0,020	-0,025
-179,271	800,000	0,015	-0,045
-178,256	322,913	-0,040	0,054
-177,242	718,704	0,038	0,072
-176,227	-24,602	-0,119	-0,050
-175,212	800,000	0,068	0,177
-174,198	-200,000	-0,005	-0,072
-173,183	191,765	-0,115	0,124
-172,169	-200,000	-0,020	0,173
-171,154	-43,994	-0,108	-0,039
-170,139	152,887	0,122	0,119
-169,125	-7,939	-0,068	0,033
-168,110	-133,130	0,090	0,008
-167,096	800,000	-0,021	-0,051
-166,081	87,032	0,069	0,054
-165,066	255,385	0,020	-0,025
-164,052	-40,407	0,002	0,001
-163,037	-37,362	0,054	0,020
-162,023	215,206	0,074	0,084
-161,008	-68,577	0,063	0,017
-159,993	-5,852	0,044	0,022
-158,979	20,545	0,100	-0,057
-157,964	-142,435	-0,207	-0,014
-156,950	-47,352	0,161	-0,055
-155,935	764,203	-0,019	-0,037
-154,920	800,000	0,025	0,060
-153,906	-200,000	-0,025	-0,148
-152,891	-155,082	-0,143	0,007
-151,877	17,934	-0,075	-0,042
-150,862	-200,000	0,030	0,173
-149,847	585,258	0,077	-0,135
-148,833	88,290	0,093	0,073
-147,818	37,433	0,054	0,034
-146,804	-200,000	0,006	0,179
-145,789	800,000	0,050	0,152
-144,775	757,814	-0,085	0,164
-143,760	197,331	-0,182	-0,198
-142,745	238,555	0,075	-0,089
-141,731	44,930	-0,076	-0,049
-140,716	123,454	0,109	0,097
-139,702	-200,000	-0,049	0,326
-138,687	-200,000	0,013	0,075
-137,672	367,747	0,092	0,133
-136,658	134,878	-0,104	-0,096
-135,643	-98,977	-0,100	0,018
-134,629	-138,393	-0,122	-0,009
-133,614	-200,000	0,013	-0,066
-132,599	525,389	0,042	0,071
-131,585	176,935	0,045	-0,047
-130,570	227,291	0,029	-0,033
-129,556	-142,548	0,055	-0,004
-128,541	-161,460	-0,100	-0,004
-127,526	239,576	0,091	0,108
-126,512	148,791	-0,069	0,066
-125,497	-61,855	0,121	0,036
-124,483	312,191	-0,046	0,062
-123,468	105,434	0,052	-0,044
-122,453	245,088	-0,088	-0,106
-121,439	-200,000	-0,021	-0,156
-120,424	152,339	-0,098	0,095
-119,410	-149,926	-0,134	0,007
-118,395	-196,100	0,054	-0,000
-117,380	-200,000	-0,028	0,135
-116,366	-200,000	-0,010	0,053
-115,351	-65,992	0,082	-0,023
-114,337	-200,000	0,010	-0,062
-113,322	-27,804	-0,027	-0,011
-112,307	22,025	0,060	0,034
-111,293	800,000	0,051	0,112
-110,278	21,071	0,061	0,035
-109,264	-200,000	-0,000	0,144
-108,249	-161,868	-0,173	0,006
-107,234	289,337	-0,041	-0,053
-106,220	-121,489	-0,048	0,006
-105,205	-98,981	0,064	-0,011
-104,191	6,678	0,068	-0,036
-103,176	800,000	-0,014	-0,043
-102,162	-34,342	-0,081	0,031
-101,147	232,532	-0,033	0,039
-100,132	513,616	0,033	-0,055
-99,118	-17,002	-0,166	-0,074
-98,103	311,090	-0,072	-0,096
-97,089	182,923	0,008	-0,008
-96,074	293,015	0,053	-0,069
-95,059	161,819	-0,097	-0,097
-94,045	100,479	0,069	-0,057
-93,030	-126,933	-0,039	-0,004
-92,016	53,006	0,059	-0,040
-91,001	278,057	0,039	0,050
-89,986	392,888	-0,048	0,071
-88,972	64,023	0,073	0,052
-87,957	-66,214	0,099	0,028
-86,943	800,000	0,056	-0,123
-85,928	220,398	-0,095	-0,109
-84,913	-200,000	-0,024	0,077
-83,899	-200,000	-0,020	-0,089
-82,884	-200,000	0,023	0,129
-81,870	21,370	0,179	0,103
-80,855	496,322	-0,053	0,088
-79,840	651,483	-0,021	0,038
-78,826	-35,719	-0,050	0,019
-77,811	800,000	0,024	-0,064
-76,797	398,824	0,048	-0,071
-75,782	65,576	0,088	0,063
-74,767	-66,667	0,036	-0,010
-73,753	-65,647	0,099	0,028
-72,738	283,328	-0,043	0,055
-71,724	800,000	0,025	-0,075
-70,709	-40,108	-0,059	-0,022
-69,694	36,447	-0,056	-0,035
-68,680	24,425	0,043	-0,025
-67,665	-101,292	-0,130	0,022
-66,651	-200,000	0,004	0,061
-65,636	-200,000	0,010	0,065
-64,622	-200,000	0,031	0,103
-63,607	-62,811	-0,055	-0,016
-62,592	151,433	0,116	0,112
-61,578	-116,288	0,008	-0,001
-60,563	89,993	0,063	-0,050
-59,549	786,965	0,031	-0,061
-58,534	-15,771	-1,579	-0,710
-57,519	325,465	-1,476	-2,005
-56,505	-200,000	-0,492	-4,570
-55,490	126,566	0,899	0,807
-54,476	800,000	4,816	11,272
-53,461	-200,000	18,987	313,888
-52,446	-200,000	739,652	2325,452
-51,432	574,132	1655,643	2872,708
-50,417	78,934	1671,050	1265,957
-49,403	21,814	1543,299	888,425
-48,388	15,675	1466,104	814,135
-47,373	17,892	1456,189	819,313
-46,359	16,860	1446,245	808,733
-45,344	13,921	1441,499	791,970
-44,330	13,869	1439,575	790,632
-43,315	13,880	1437,910	789,737
-42,300	13,941	1436,185	789,049
-41,286	13,902	1435,109	788,240
-40,271	13,897	1433,553	787,331
-39,257	13,890	1432,421	786,645
-38,242	13,842	1431,230	785,734
-37,227	13,897	1430,050	785,313
-36,213	13,909	1428,631	784,562
-35,198	13,908	1427,573	783,946
-34,184	13,941	1426,562	783,513
-33,169	13,844	1425,484	782,430
-32,154	13,930	1424,137	782,070
-31,140	13,937	1422,818	781,346
-30,125	13,945	1421,872	780,833
-29,111	13,932	1420,656	780,075
-28,096	13,917	1419,438	779,301
-27,082	13,817	1418,584	778,331
-26,067	13,777	1417,413	777,471
-25,052	13,839	1416,269	777,101
-24,038	13,785	1415,330	776,302
-23,023	13,798	1414,378	775,811
-22,009	13,842	1413,232	775,360
-20,994	13,798	1412,559	774,752
-19,979	13,778	1411,708	774,162
-18,965	13,724	1410,654	773,298
-17,950	13,751	1409,542	772,785
-16,936	13,740	1408,723	772,255
-15,921	13,738	1407,567	771,578
-14,906	13,715	1406,851	771,048
-13,892	13,769	1405,685	770,632
-12,877	13,768	1404,792	770,107
-11,863	13,761	1403,902	769,555
-10,848	13,719	1403,218	768,956
-9,833	13,698	1402,441	768,398
-8,819	13,641	1401,456	767,565
-7,804	13,661	1400,392	767,046
-6,790	13,703	1399,431	766,682
-5,775	13,623	1398,531	765,787
-4,760	13,635	1397,458	765,226
-3,746	13,626	1396,600	764,682
-2,731	13,625	1395,835	764,228
-1,717	13,628	1394,822	763,661
-0,702	13,553	1393,334	762,467
0,313	17,315	1310,772	734,752
1,327	33,532	705,163	432,845
2,342	51,534	123,724	83,110
3,356	2,097	16,610	8,465
4,371	1,820	3,320	1,688
5,386	18,091	0,649	0,365
6,400	487,417	0,089	0,145
7,415	93,427	-0,367	-0,294
8,429	-0,312	-0,271	-0,136
9,444	-83,039	-0,314	-0,071
10,459	60,075	-0,327	-0,228
11,473	-33,877	-0,287	-0,111
12,488	-30,415	-0,371	-0,148
13,502	64,247	-0,217	-0,155
14,517	33,234	-0,310	-0,190
15,531	89,332	-0,370	-0,292
16,546	721,917	-0,217	-0,411
17,561	59,373	-0,429	-0,298
18,575	38,710	-0,151	-0,095
19,590	-69,886	-0,380	-0,102
20,604	251,826	-0,168	-0,202
21,619	148,803	-0,357	-0,341
22,634	97,096	-0,441	-0,357
23,648	290,378	-0,331	-0,425
24,663	130,675	-0,418	-0,379
25,677	426,191	-0,183	-0,279
26,692	306,962	-0,240	-0,317
27,707	418,347	-0,239	-0,362
28,721	-22,244	-0,383	-0,163
29,736	57,327	-0,459	-0,316
30,750	144,963	-0,403	-0,381
31,765	177,991	-0,248	-0,256
32,780	20,665	-0,428	-0,244
33,794	52,229	-0,281	-0,189
34,809	57,866	-0,389	-0,268
35,823	84,237	-0,250	-0,193
36,838	14,894	-0,453	-0,250
37,853	-15,030	-0,379	-0,171
38,867	157,818	-0,244	-0,238
39,882	500,777	-0,213	-0,349
40,896	151,995	-0,319	-0,307
41,911	56,781	-0,383	-0,263
42,926	42,219	-0,403	-0,258
43,940	7,023	-0,419	-0,220
44,955	20,601	-0,390	-0,222
45,969	269,821	-0,223	-0,277
46,984	365,234	-0,228	-0,324
47,999	2,161	-0,353	-0,179
49,013	37,927	-0,378	-0,236
50,028	130,677	-0,356	-0,322
51,042	180,651	-0,308	-0,319
52,057	52,207	-0,407	-0,273
53,071	49,606	-0,308	-0,204
54,086	-23,897	-0,436	-0,183
55,101	131,294	-0,169	-0,153
56,115	-10,499	-0,407	-0,189
57,130	-38,263	-0,458	-0,170
58,144	1,471	-0,411	-0,208
59,159	101,122	-0,418	-0,343
60,174	117,624	-0,339	-0,294
61,188	202,539	-0,334	-0,363
62,203	-20,058	-0,380	-0,164
63,217	149,847	-0,321	-0,306
64,232	64,261	-0,222	-0,157
65,247	194,188	-0,210	-0,224
66,261	163,023	-0,304	-0,301
67,276	-16,759	-0,386	-0,171
68,290	150,151	-0,271	-0,259
69,305	-26,949	-0,314	-0,129
70,320	-42,707	-0,297	-0,106
71,334	45,354	-0,372	-0,241
72,349	63,145	-0,368	-0,259
73,363	61,766	-0,261	-0,183
74,378	129,003	-0,259	-0,232
75,393	-162,200	-0,414	-0,014
76,407	67,047	-0,215	-0,154
77,422	680,755	-0,109	-0,201
78,436	53,027	-0,401	-0,269
79,451	-98,765	-0,358	-0,064
80,466	64,592	-0,290	-0,205
81,480	227,821	-0,305	-0,349
82,495	12,683	-0,401	-0,217
83,509	62,980	-0,290	-0,204
84,524	-62,075	-0,251	-0,073
85,539	23,676	-0,232	-0,134
86,553	346,527	-0,202	-0,280
87,568	189,846	-0,264	-0,279
88,582	97,253	-0,303	-0,244
89,597	381,512	-0,230	-0,332
90,611	633,734	-0,241	-0,432
91,626	132,137	-0,229	-0,207
92,641	-97,414	-0,257	-0,046
93,655	-17,459	-0,221	-0,097
94,670	251,046	-0,233	-0,279
95,684	162,972	-0,355	-0,350
96,699	83,864	-0,320	-0,245
97,714	-62,527	-0,322	-0,093
98,728	800,000	-0,095	-0,249
99,743	396,283	-0,123	-0,181
100,757	1,265	-0,336	-0,169
101,772	104,884	-0,311	-0,258
102,787	165,216	-0,309	-0,306
103,801	159,318	-0,299	-0,292
104,816	2,159	-0,387	-0,195
105,830	-55,035	-0,258	-0,081
106,845	440,290	-0,171	-0,263
107,860	120,388	-0,315	-0,275
108,874	-128,280	-0,354	-0,035
109,889	-34,356	-0,304	-0,117
110,903	52,139	-0,298	-0,199
111,918	-69,940	-0,213	-0,057
112,933	79,949	-0,210	-0,158
113,947	107,757	-0,285	-0,238
114,962	79,925	-0,263	-0,198
115,976	135,931	-0,259	-0,237
116,991	285,688	-0,251	-0,318
118,006	146,347	-0,331	-0,311
119,020	46,678	-0,262	-0,170
120,035	-136,430	-0,211	-0,017
121,049	224,254	-0,110	-0,125
122,064	166,552	-0,213	-0,212
123,079	-101,505	-0,093	-0,016
124,093	100,625	-0,301	-0,245
125,108	45,686	-0,343	-0,221
126,122	10,089	-0,208	-0,111
127,137	423,885	-0,149	-0,226
128,151	211,867	-0,179	-0,198
129,166	-92,871	-0,229	-0,044
130,181	30,971	-0,211	-0,126
131,195	617,434	-0,172	-0,304
132,210	237,419	-0,297	-0,345
133,224	230,854	-0,210	-0,241
134,239	336,261	-0,185	-0,252
135,254	207,315	-0,153	-0,167
136,268	-4,370	-0,222	-0,107
137,283	77,898	-0,208	-0,155
138,297	26,851	-0,276	-0,161
139,312	94,349	-0,229	-0,182
140,327	-25,025	-0,349	-0,144
141,341	76,807	-0,225	-0,167
142,356	123,049	-0,127	-0,111
143,370	153,236	-0,184	-0,176
144,385	187,093	-0,262	-0,274
145,400	-31,780	-0,342	-0,133
146,414	800,000	-0,115	-0,314
147,429	8,767	-0,222	-0,116
148,443	244,946	-0,145	-0,171
149,458	8,916	-0,321	-0,168
150,473	-128,080	-0,294	-0,029
151,487	-33,487	-0,219	-0,084
152,502	25,461	-0,264	-0,153
153,516	-9,183	-0,239	-0,111
154,531	77,217	-0,305	-0,226
155,546	800,000	-0,151	-0,332
156,560	99,735	-0,170	-0,137
157,575	7,069	-0,299	-0,155
158,589	274,537	-0,207	-0,257
159,604	6,056	-0,207	-0,107
160,619	412,184	-0,203	-0,303
161,633	605,292	-0,185	-0,323
162,648	150,034	-0,194	-0,184
163,662	-37,127	-0,327	-0,122
164,677	76,285	-0,136	-0,101
165,692	20,459	-0,187	-0,105
166,706	293,287	-0,125	-0,160
167,721	125,328	-0,149	-0,131
168,735	150,776	-0,154	-0,146
169,750	-9,377	-0,287	-0,133
170,764	-90,764	-0,177	-0,035
171,779	24,916	-0,208	-0,120
172,794	-62,023	-0,174	-0,050
173,808	83,661	-0,163	-0,124
174,823	34,247	-0,196	-0,119
175,837	268,441	-0,280	-0,343
176,852	609,606	-0,071	-0,125
177,867	400,470	-0,199	-0,291
178,881	46,224	-0,200	-0,129
179,896	488,928	-0,102	-0,163
180,910	-65,312	-0,226	-0,063
181,925	151,169	-0,164	-0,156
182,940	360,030	-0,207	-0,289
183,954	327,447	-0,194	-0,260
184,969	24,398	-0,144	-0,083
185,983	468,316	-0,136	-0,213
186,998	-105,305	-0,237	0,037
188,013	731,553	-0,115	-0,214
189,027	473,038	-0,106	-0,167
190,042	138,599	-0,257	-0,235
191,056	118,868	-0,195	-0,168
192,071	138,431	-0,209	-0,191
193,086	-55,675	-0,211	-0,065
194,100	61,178	-0,144	-0,100
195,115	179,700	-0,169	-0,172
196,129	205,602	-0,208	-0,225
197,144	61,251	-0,290	-0,200
198,159	436,776	-0,154	-0,235
199,173	102,947	-0,106	-0,086
200,188	118,024	-0,095	-0,081
201,202	-40,312	-0,236	0,085
202,217	326,570	-0,067	-0,090
203,232	-120,915	-0,170	-0,020
204,246	200,146	-0,205	-0,220
205,261	109,074	-0,176	-0,146
206,275	143,197	-0,112	-0,103
207,290	68,561	-0,218	-0,155
208,304	419,031	-0,109	-0,163
209,319	123,936	-0,151	-0,132
210,334	68,393	-0,199	-0,141
211,348	41,406	-0,240	-0,150
212,363	800,000	-0,105	-0,226
213,377	800,000	-0,076	-0,211
214,392	101,563	-0,099	-0,080
215,407	-104,242	-0,096	0,015
216,421	-49,372	-0,185	-0,061
217,436	432,045	-0,124	-0,187
218,450	208,644	-0,248	-0,270
219,465	28,545	-0,234	-0,137
220,480	152,910	-0,163	-0,155
221,494	496,916	-0,148	-0,238
222,509	-51,826	-0,193	-0,062
223,523	20,888	-0,147	-0,083
224,538	106,232	-0,223	-0,183
225,553	-0,961	-0,190	-0,093
226,567	-22,255	-0,380	-0,159
227,582	159,647	-0,198	-0,192
228,596	27,852	-0,229	-0,134
229,611	-39,389	-0,169	-0,061
230,626	321,370	-0,084	-0,111
231,640	800,000	-0,092	-0,193
232,655	800,000	-0,140	-0,302
233,669	137,211	-0,256	-0,232
234,684	-82,491	-0,243	-0,054
235,699	459,050	-0,108	-0,167
236,713	50,228	-0,182	-0,119
237,728	216,953	-0,121	-0,133
238,742	324,235	-0,151	-0,200
239,757	800,000	-0,055	-0,137
240,772	117,702	-0,100	-0,085
241,786	127,401	-0,255	-0,225
242,801	239,784	-0,058	-0,068
243,815	266,825	-0,253	-0,307
244,830	800,000	-0,080	-0,220
245,844	-38,337	-0,284	-0,104
246,859	206,892	-0,214	-0,231
247,874	81,398	-0,252	-0,188
248,888	-98,642	-0,082	-0,014
249,903	202,565	-0,180	-0,193
250,917	16,554	-0,250	-0,136
251,932	208,372	-0,207	-0,225
252,947	-96,143	-0,145	0,026
253,961	-108,258	-0,253	-0,037
254,976	131,094	-0,212	-0,188
255,990	161,340	-0,211	-0,205
257,005	-82,964	-0,226	-0,050
258,020	186,365	-0,161	-0,166
259,034	188,857	-0,122	-0,127
260,049	800,000	-0,067	-0,161
261,063	-115,445	-0,277	-0,036
262,078	-44,429	-0,222	-0,077
263,093	71,905	-0,214	-0,154
264,107	107,916	-0,151	-0,125
265,122	34,317	-0,230	-0,139
266,136	42,041	-0,216	-0,136
267,151	164,527	-0,205	-0,200
268,166	150,656	-0,092	-0,087
269,180	131,916	-0,128	-0,114
270,195	-6,296	-0,263	-0,124
271,209	69,454	-0,200	-0,142
272,224	-117,423	-0,145	0,018
273,239	-123,923	-0,146	-0,016
274,253	-8,092	-0,097	-0,045
275,268	-136,797	-0,086	0,007
276,282	105,397	-0,210	-0,171
277,297	178,537	-0,270	-0,273
278,312	800,000	-0,096	-0,278
279,326	800,000	-0,079	-0,207
280,341	-200,000	-0,014	-0,207
281,355	-200,000	-0,065	-0,211
282,370	-200,000	-0,054	-0,188
283,384	128,781	-0,247	-0,217
284,399	42,774	-0,249	-0,157
285,414	175,759	-0,180	-0,180
286,428	123,061	-0,158	-0,137
287,443	447,690	-0,108	-0,165
288,457	258,880	-0,106	-0,127
289,472	175,723	-0,080	-0,081
290,487	-53,174	-0,278	-0,087
291,501	183,227	-0,255	-0,260
292,516	-200,000	-0,015	-0,096
293,530	78,626	-0,178	-0,132
294,545	-106,290	-0,075	0,011
295,560	105,633	-0,118	-0,096
296,574	-200,000	-0,059	-0,201
297,589	-101,110	-0,196	-0,033
298,603	-38,034	-0,316	-0,115
299,618	68,124	-0,152	-0,107
300,633	800,000	-0,053	-0,110
301,647	-0,160	-0,108	-0,053
302,662	426,696	-0,028	-0,042
303,676	-26,996	-0,050	-0,020
304,691	89,518	-0,145	-0,111
305,706	800,000	-0,151	-0,357
306,720	92,457	-0,110	-0,085
307,735	-88,915	-0,290	-0,059
308,749	86,696	-0,225	-0,171
309,764	800,000	-0,059	-0,134
310,779	-200,000	-0,035	-0,133
311,793	453,135	-0,113	-0,172
312,808	99,431	-0,176	-0,140
313,822	-53,472	-0,130	0,041
314,837	-96,843	-0,245	-0,044
315,852	-136,179	-0,158	-0,013
316,866	-145,026	-0,042	0,003
317,881	269,907	-0,138	-0,167
318,895	-58,834	-0,187	-0,055
319,910	264,317	-0,192	-0,231
320,925	800,000	-0,103	-0,231
321,939	-42,598	-0,222	-0,078
322,954	-102,912	-0,150	-0,024
323,968	-200,000	-0,016	-0,056
324,983	298,037	-0,175	-0,221
325,997	417,846	-0,151	-0,223
327,012	336,112	-0,161	-0,216
328,027	114,889	-0,180	-0,151
329,041	144,751	-0,100	-0,092
330,056	45,869	-0,182	-0,116
331,070	745,928	-0,035	-0,066
332,085	131,946	-0,079	0,070
333,100	290,918	-0,070	-0,088
334,114	93,055	-0,125	-0,097
335,129	800,000	-0,111	-0,222
336,143	-52,267	-0,189	-0,060
337,158	-200,000	0,044	-0,147
338,173	124,851	-0,135	-0,117
339,187	-100,036	-0,197	-0,033
340,202	200,328	-0,128	-0,136
341,216	667,810	-0,102	-0,182
342,231	66,566	-0,214	-0,149
343,246	188,435	-0,134	-0,138
344,260	90,201	-0,097	-0,074
345,275	193,884	-0,156	-0,163
346,289	-109,689	-0,119	0,017
347,304	-200,000	-0,034	-0,128
348,319	-76,798	-0,088	-0,021
349,333	318,238	-0,097	-0,127
350,348	55,793	-0,195	-0,129
351,362	800,000	-0,072	-0,169
352,377	-200,000	-0,012	-0,127
353,392	10,750	-0,098	-0,051
354,406	-30,462	-0,144	-0,056
355,421	208,926	1313,095	1412,564
356,435	160,775	1473,631	1413,055
