DTS Sentinel unit serial number:	SN410029Multiplexer serial number:	ORYXHardware model number:	OX2-SRSoftware version number:	ORYX F/W v4,00 Oryx Data Collector v3.7.2.0data status	okinstallation	B3 Nyhavnadifferential loss correction	single-endedforward channel	channel 1reverse channel	N/Adate	2023/12/01time	21:42:30forward acquisition time	300,00reverse acquisition time	0,00gamma	499,1914k internal	0,3196k external	0,3196temperature offset calibration	1,0000default loss term (dB/km)	0,3820temperature slope calibration	1,0000multiplexer offset coefficient	1,0000multiplexer slope coefficient	1,0000fibre end	0,00T internal ref (°C)	16,02T ext. ref 1 (°C)	1,01T ext. ref 2 (°C)	1,01length (m)	temperature (°C)	Stokes	anti-Stokes-744,400	-98,657	-0,357	-0,066
-743,385	800,000	0,133	0,326
-742,371	-200,000	-0,008	-0,139
-741,356	-200,000	0,060	0,279
-740,342	175,712	-0,157	-0,166
-739,327	-200,000	0,014	0,247
-738,312	56,978	-0,278	-0,197
-737,298	800,000	0,131	0,340
-736,283	130,710	-0,274	-0,256
-735,269	-200,000	0,064	0,371
-734,254	-33,202	-0,273	-0,110
-733,239	40,536	-0,209	0,137
-732,225	241,191	-0,193	-0,235
-731,210	-200,000	0,019	0,090
-730,196	-200,000	-0,011	0,118
-729,181	-83,708	-0,214	0,049
-728,167	-45,525	-0,087	-0,031
-727,152	-182,740	0,117	-0,001
-726,137	-124,822	-0,068	-0,008
-725,123	65,448	-0,041	0,030
-724,108	81,322	-0,073	-0,058
-723,094	800,000	-0,059	-0,164
-722,079	-152,472	-0,056	-0,003
-721,064	-117,177	-0,053	-0,007
-720,050	-3,638	-0,092	0,046
-719,035	-196,197	0,113	0,001
-718,021	-66,405	-0,085	-0,024
-717,006	-200,000	-0,008	-0,113
-715,991	-157,875	-0,087	0,004
-714,977	800,000	-0,039	-0,109
-713,962	409,646	-0,045	-0,070
-712,948	-200,000	0,006	0,075
-711,933	12,019	-0,066	0,037
-710,918	153,417	-0,093	0,093
-709,904	71,098	-0,070	-0,053
-708,889	4,010	0,040	-0,021
-707,875	36,587	-0,056	-0,036
-706,860	-160,274	-0,135	0,005
-705,845	355,747	-0,029	0,042
-704,831	229,730	0,119	0,141
-703,816	445,867	-0,067	0,107
-702,802	8,856	0,032	-0,017
-701,787	376,007	-0,050	-0,075
-700,772	72,809	-0,100	-0,076
-699,758	-200,000	-0,007	-0,021
-698,743	-57,747	0,138	-0,044
-697,729	-27,103	0,039	0,017
-696,714	-200,000	0,014	0,095
-695,699	174,162	-0,070	-0,074
-694,685	-156,103	-0,079	-0,004
-693,670	-108,420	0,103	-0,016
-692,656	-21,168	-0,096	-0,043
-691,641	472,403	-0,071	-0,117
-690,627	30,539	0,069	0,043
-689,612	283,768	-0,063	0,083
-688,597	562,352	0,026	0,046
-687,583	120,289	-0,006	0,005
-686,568	22,070	-0,099	-0,059
-685,554	667,800	0,035	-0,067
-684,539	610,481	0,043	0,078
-683,524	800,000	-0,023	0,056
-682,510	-200,000	0,017	-0,191
-681,495	800,000	-0,058	0,158
-680,481	800,000	-0,038	0,090
-679,466	-200,000	0,006	-0,076
-678,451	-142,394	-0,055	-0,004
-677,437	800,000	-0,043	0,125
-676,422	-80,166	-0,087	0,021
-675,408	132,930	0,071	0,067
-674,393	663,902	0,046	-0,087
-673,378	101,842	-0,035	-0,030
-672,364	-24,280	-0,116	-0,050
-671,349	-44,157	-0,086	0,031
-670,335	-200,000	-0,009	-0,033
-669,320	230,125	-0,063	-0,075
-668,305	96,662	-0,088	0,073
-667,291	215,859	0,018	0,021
-666,276	35,087	-0,037	0,023
-665,262	800,000	-0,077	0,166
-664,247	19,164	0,080	0,046
-663,232	-75,688	0,072	0,018
-662,218	-50,436	0,098	0,033
-661,203	800,000	-0,041	-0,099
-660,189	68,864	0,118	0,088
-659,174	800,000	-0,030	0,081
-658,159	-200,000	0,004	0,049
-657,145	800,000	-0,037	-0,079
-656,130	2,625	-0,067	0,035
-655,116	-3,915	0,128	0,064
-654,101	-45,909	0,131	-0,047
-653,086	236,375	-0,075	-0,090
-652,072	-200,000	0,006	0,031
-651,057	175,377	0,133	-0,140
-650,043	-96,581	0,095	-0,018
-649,028	142,959	0,015	-0,015
-648,014	-33,573	0,178	0,071
-646,999	181,341	0,021	0,023
-645,984	-64,010	0,116	0,034
-644,970	-77,573	-0,231	-0,058
-643,955	-97,241	-0,088	-0,017
-642,941	-184,428	-0,177	-0,002
-641,926	92,362	-0,166	0,136
-640,911	-73,743	0,089	0,023
-639,897	-63,436	0,130	0,039
-638,882	-107,123	-0,063	-0,010
-637,868	-96,350	-0,030	-0,006
-636,853	-118,454	-0,128	0,016
-635,838	70,022	0,055	-0,041
-634,824	176,690	-0,102	-0,108
-633,809	458,663	-0,037	-0,060
-632,795	29,891	-0,022	-0,013
-631,780	-177,951	-0,058	0,001
-630,765	535,574	-0,007	0,013
-629,751	-76,946	-0,120	0,030
-628,736	-200,000	-0,008	-0,077
-627,722	-45,697	0,057	-0,020
-626,707	194,680	-0,100	-0,110
-625,692	168,570	0,080	0,082
-624,678	-200,000	0,005	0,047
-623,663	800,000	-0,035	0,086
-622,649	800,000	-0,034	0,080
-621,634	332,253	-0,075	0,106
-620,619	-200,000	-0,051	0,177
-619,605	34,566	-0,048	0,031
-618,590	490,411	0,041	0,068
-617,576	800,000	-0,017	0,036
-616,561	475,124	-0,079	0,131
-615,546	-0,190	-0,034	-0,017
-614,532	467,261	-0,051	0,083
-613,517	470,108	-0,060	-0,098
-612,503	136,251	-0,052	0,049
-611,488	800,000	-0,038	-0,099
-610,474	-200,000	-0,042	0,144
-609,459	606,070	-0,050	0,090
-608,444	-200,000	0,002	0,048
-607,430	-200,000	-0,045	-0,147
-606,415	-200,000	-0,049	-0,281
-605,401	451,020	0,040	0,065
-604,386	-200,000	-0,002	-0,031
-603,371	299,887	-0,047	-0,062
-602,357	-9,462	-0,121	0,058
-601,342	-200,000	0,002	-0,078
-600,328	761,568	0,032	-0,063
-599,313	407,974	-0,044	-0,067
-598,298	56,486	0,039	-0,028
-597,284	-114,596	-0,152	0,021
-596,269	800,000	0,032	0,087
-595,255	409,862	0,044	0,067
-594,240	-141,886	0,200	0,014
-593,225	-57,251	0,061	-0,019
-592,211	-200,000	0,012	0,133
-591,196	800,000	0,054	0,123
-590,182	-143,173	0,033	0,002
-589,167	-200,000	-0,011	0,072
-588,152	262,079	-0,032	-0,040
-587,138	-69,746	0,033	-0,009
-586,123	-200,000	-0,033	-0,140
-585,109	-200,000	-0,000	0,151
-584,094	68,430	-0,016	0,012
-583,079	800,000	-0,028	-0,077
-582,065	-48,943	-0,050	0,017
-581,050	126,157	-0,102	0,093
-580,036	-35,293	0,090	0,035
-579,021	318,062	0,039	-0,054
-578,006	59,956	-0,061	-0,043
-576,992	128,558	0,064	-0,059
-575,977	-200,000	0,028	-0,109
-574,963	583,527	0,009	0,016
-573,948	-200,000	0,005	-0,105
-572,934	-200,000	0,029	-0,108
-571,919	-200,000	0,056	-0,183
-570,904	675,795	-0,040	-0,075
-569,890	265,890	-0,078	-0,099
-568,875	139,575	-0,058	-0,055
-567,861	800,000	0,080	0,184
-566,846	275,175	0,039	0,051
-565,831	188,370	0,110	-0,119
-564,817	-69,656	-0,089	0,024
-563,802	-33,005	-0,164	0,066
-562,788	-200,000	0,013	-0,090
-561,773	520,240	0,038	-0,065
-560,758	353,338	0,034	-0,049
-559,744	-27,097	0,114	0,048
-558,729	-73,448	0,037	-0,010
-557,715	49,315	-0,055	0,037
-556,700	265,060	-0,131	-0,166
-555,685	-87,184	-0,106	-0,023
-554,671	4,389	-0,110	-0,058
-553,656	48,907	0,109	-0,074
-552,642	153,338	-0,054	0,054
-551,627	-177,526	-0,137	-0,002
-550,612	-200,000	-0,002	0,053
-549,598	-18,721	-0,078	-0,035
-548,583	315,787	0,061	0,084
-547,569	34,770	-0,068	-0,043
-546,554	-200,000	-0,010	-0,068
-545,539	-200,000	0,047	0,205
-544,525	-200,000	0,032	0,120
-543,510	67,455	-0,112	0,083
-542,496	181,060	0,051	0,055
-541,481	-43,886	-0,061	-0,022
-540,466	-152,540	0,023	-0,001
-539,452	73,240	-0,047	0,035
-538,437	134,668	-0,045	0,042
-537,423	75,577	-0,072	-0,055
-536,408	302,414	-0,029	0,038
-535,393	-200,000	-0,009	-0,115
-534,379	-151,964	0,141	-0,007
-533,364	569,424	0,043	0,076
-532,350	18,054	0,026	-0,015
-531,335	124,279	0,104	0,095
-530,321	-15,584	0,041	-0,019
-529,306	-200,000	-0,019	-0,069
-528,291	-200,000	0,021	0,103
-527,277	-200,000	-0,021	-0,144
-526,262	477,386	-0,071	-0,117
-525,248	800,000	0,087	0,202
-524,233	800,000	-0,020	-0,042
-523,218	-200,000	-0,023	-0,098
-522,204	-200,000	0,010	-0,046
-521,189	-200,000	0,014	-0,085
-520,175	225,934	-0,095	-0,111
-519,160	133,713	0,100	0,094
-518,145	-37,419	0,052	-0,020
-517,131	-200,000	0,001	0,016
-516,116	-200,000	0,069	0,232
-515,102	183,732	-0,042	0,045
-514,087	-32,184	0,118	0,048
-513,072	800,000	-0,066	-0,158
-512,058	800,000	0,036	-0,089
-511,043	800,000	-0,011	-0,028
-510,029	-160,711	-0,092	0,003
-509,014	-89,309	-0,038	0,008
-507,999	-16,541	-0,065	0,030
-506,985	800,000	0,051	0,120
-505,970	-200,000	0,023	0,102
-504,956	227,430	-0,101	0,119
-503,941	229,896	-0,029	-0,034
-502,926	800,000	0,019	0,044
-501,912	-200,000	-0,021	0,159
-500,897	-36,197	-0,092	-0,036
-499,883	-96,904	0,096	0,018
-498,868	-20,010	-0,123	-0,055
-497,853	-63,587	-0,011	-0,003
-496,839	800,000	0,039	-0,085
-495,824	-139,772	0,168	0,013
-494,810	388,946	-0,054	0,081
-493,795	-111,404	-0,105	0,015
-492,781	-103,768	-0,092	0,015
-491,766	97,626	-0,039	0,032
-490,751	-200,000	0,026	-0,086
-489,737	-200,000	0,000	-0,151
-488,722	42,473	0,061	0,040
-487,708	-200,000	-0,003	-0,018
-486,693	741,145	-0,091	0,178
-485,678	-200,000	-0,009	0,127
-484,664	-39,674	-0,053	-0,020
-483,649	169,644	-0,090	-0,093
-482,635	-200,000	-0,003	-0,173
-481,620	800,000	-0,040	0,118
-480,605	-35,072	0,121	0,047
-479,591	90,967	0,070	-0,057
-478,576	-39,237	-0,041	-0,015
-477,562	-77,998	-0,231	0,057
-476,547	-56,305	0,032	-0,010
-475,532	-123,751	-0,102	-0,012
-474,518	43,402	0,126	0,083
-473,503	-200,000	0,003	0,078
-472,489	-25,330	-0,099	0,042
-471,474	-111,740	0,058	0,008
-470,459	286,016	-0,104	0,136
-469,445	-25,568	0,040	-0,017
-468,430	122,203	-0,043	-0,038
-467,416	-112,348	0,082	-0,012
-466,401	-200,000	-0,004	-0,074
-465,386	-62,883	-0,098	0,029
-464,372	-9,647	0,148	-0,071
-463,357	-142,936	-0,152	-0,010
-462,343	-200,000	-0,052	-0,173
-461,328	800,000	-0,056	-0,145
-460,313	-73,881	0,074	0,019
-459,299	317,034	0,104	0,143
-458,284	52,074	0,070	-0,048
-457,270	800,000	-0,033	0,069
-456,255	-141,116	-0,054	0,004
-455,241	19,416	-0,094	0,054
-454,226	-39,970	-0,102	-0,038
-453,211	-200,000	0,003	-0,060
-452,197	500,533	-0,063	0,105
-451,182	-145,164	0,070	-0,005
-450,168	-200,000	-0,006	0,021
-449,153	-200,000	0,015	-0,063
-448,138	43,657	-0,076	-0,050
-447,124	-200,000	-0,013	0,057
-446,109	-82,145	-0,099	0,023
-445,095	-200,000	-0,005	-0,043
-444,080	-200,000	-0,006	0,036
-443,065	56,795	0,068	-0,048
-442,051	-200,000	0,010	-0,103
-441,036	-200,000	0,000	0,003
-440,022	112,434	0,059	0,051
-439,007	-200,000	0,024	-0,090
-437,992	800,000	0,046	0,104
-436,978	-65,019	-0,040	0,012
-435,963	40,755	-0,017	-0,011
-434,949	178,229	0,051	0,053
-433,934	-8,864	-0,124	-0,059
-432,919	800,000	-0,051	-0,160
-431,905	-200,000	0,009	0,059
-430,890	-77,878	0,158	-0,039
-429,876	-95,133	0,037	0,007
-428,861	70,963	-0,043	-0,032
-427,846	800,000	0,042	0,087
-426,832	-95,555	0,096	0,018
-425,817	-48,625	-0,025	0,008
-424,803	110,608	-0,103	-0,089
-423,788	-200,000	-0,011	-0,095
-422,773	800,000	-0,037	0,075
-421,759	13,699	-0,041	0,023
-420,744	-200,000	-0,018	0,125
-419,730	-138,658	-0,074	-0,006
-418,715	112,288	-0,089	0,077
-417,701	800,000	0,047	-0,142
-416,686	-200,000	-0,010	0,077
-415,671	800,000	0,013	-0,039
-414,657	-31,107	0,020	-0,008
-413,642	-200,000	0,012	-0,067
-412,628	-200,000	-0,000	0,051
-411,613	-200,000	0,013	-0,075
-410,598	-79,624	0,082	-0,020
-409,584	800,000	0,033	-0,087
-408,569	800,000	-0,029	0,064
-407,555	-81,936	0,070	-0,016
-406,540	-17,141	0,032	-0,014
-405,525	120,895	0,015	-0,014
-404,511	800,000	0,011	0,026
-403,496	-200,000	-0,002	-0,055
-402,482	800,000	-0,063	-0,148
-401,467	0,868	-0,081	0,042
-400,452	-36,807	0,135	0,052
-399,438	164,034	0,053	0,054
-398,423	-200,000	0,003	0,055
-397,409	-200,000	-0,020	0,130
-396,394	-200,000	0,002	0,039
-395,379	-200,000	-0,012	0,146
-394,365	247,759	-0,070	0,086
-393,350	-127,268	-0,033	0,003
-392,336	-95,605	-0,063	0,012
-391,321	232,267	-0,066	-0,078
-390,306	800,000	-0,043	-0,134
-389,292	297,887	-0,081	0,107
-388,277	-200,000	0,043	-0,151
-387,263	-200,000	0,000	0,045
-386,248	503,221	0,013	0,021
-385,233	30,915	0,012	-0,008
-384,219	172,707	0,018	-0,019
-383,204	-200,000	0,009	-0,104
-382,190	800,000	0,040	-0,082
-381,175	800,000	-0,037	-0,075
-380,160	-58,367	0,198	0,061
-379,146	33,063	0,086	-0,053
-378,131	-70,646	-0,017	0,005
-377,117	71,438	0,045	-0,033
-376,102	-200,000	-0,017	0,207
-375,088	-72,700	-0,161	-0,042
-374,073	-200,000	0,008	-0,071
-373,058	-36,580	-0,094	-0,036
-372,044	276,430	-0,029	-0,038
-371,029	72,224	0,007	0,005
-370,015	439,839	-0,036	-0,057
-369,000	-106,929	0,092	0,014
-367,985	800,000	-0,018	0,054
-366,971	43,591	-0,070	-0,046
-365,956	-200,000	0,025	0,097
-364,942	361,162	0,080	0,115
-363,927	343,340	0,057	-0,080
-362,912	-200,000	0,027	0,138
-361,898	800,000	0,025	-0,051
-360,883	-92,512	0,057	-0,011
-359,869	-200,000	0,013	-0,066
-358,854	800,000	0,058	0,129
-357,839	-200,000	0,024	0,121
-356,825	-24,689	0,104	0,044
-355,810	519,163	0,041	0,069
-354,796	800,000	0,016	0,039
-353,781	-200,000	-0,019	-0,091
-352,766	345,253	-0,091	-0,129
-351,752	-200,000	0,003	0,053
-350,737	-200,000	-0,016	0,069
-349,723	-13,404	0,097	0,045
-348,708	-104,349	0,102	0,017
-347,693	-162,077	0,061	-0,002
-346,679	462,532	0,048	0,076
-345,664	302,978	-0,040	-0,054
-344,650	-200,000	0,016	0,067
-343,635	-7,484	-0,044	-0,021
-342,620	-200,000	0,015	0,091
-341,606	800,000	-0,075	0,157
-340,591	33,561	-0,089	0,055
-339,577	-200,000	0,025	-0,093
-338,562	800,000	0,025	0,067
-337,548	30,568	0,065	0,040
-336,533	-200,000	0,034	0,179
-335,518	45,256	0,090	0,059
-334,504	-28,276	-0,176	0,073
-333,489	-110,146	-0,072	-0,011
-332,475	800,000	-0,038	-0,077
-331,460	681,280	-0,056	-0,105
-330,445	-200,000	-0,017	-0,083
-329,431	-96,638	0,140	0,026
-328,416	800,000	-0,033	0,104
-327,402	139,021	-0,020	0,019
-326,387	212,457	0,106	-0,120
-325,372	-39,769	0,103	-0,038
-324,358	-93,627	0,098	-0,019
-323,343	152,511	-0,051	0,050
-322,329	534,306	0,021	-0,037
-321,314	4,350	-0,090	0,047
-320,299	-200,000	-0,010	-0,056
-319,285	84,437	0,075	-0,059
-318,270	-200,000	-0,009	-0,039
-317,256	-59,535	-0,151	-0,046
-316,241	-200,000	-0,017	0,081
-315,226	-155,930	0,159	-0,007
-314,212	-200,000	-0,005	0,067
-313,197	259,791	0,004	-0,005
-312,183	-129,242	0,103	-0,010
-311,168	-111,345	0,158	0,023
-310,153	414,030	-0,076	-0,116
-309,139	-48,387	-0,124	-0,043
-308,124	217,245	0,007	0,008
-307,110	-200,000	-0,004	0,050
-306,095	-200,000	-0,008	0,064
-305,080	471,860	0,094	-0,153
-304,066	-200,000	0,001	-0,030
-303,051	-72,117	-0,106	-0,028
-302,037	-200,000	-0,021	0,073
-301,022	-200,000	0,011	-0,048
-300,008	-78,038	0,119	-0,029
-298,993	12,783	0,021	0,012
-297,978	-159,991	0,138	-0,005
-296,964	686,001	-0,010	0,018
-295,949	-200,000	0,002	0,040
-294,935	121,080	0,042	0,038
-293,920	-62,115	0,100	0,030
-292,905	-50,366	0,042	0,014
-291,891	-200,000	-0,011	0,048
-290,876	-31,557	0,055	0,022
-289,862	81,250	0,069	0,053
-288,847	110,414	-0,042	-0,036
-287,832	-200,000	0,028	-0,162
-286,818	-200,000	-0,011	-0,081
-285,803	800,000	0,022	-0,065
-284,789	-118,101	0,158	0,020
-283,774	109,046	-0,087	0,074
-282,759	-142,228	0,039	0,003
-281,745	-200,000	0,029	0,094
-280,730	-176,937	-0,080	0,001
-279,716	-139,481	0,120	-0,009
-278,701	407,478	0,091	0,138
-277,686	312,496	0,080	-0,108
-276,672	-200,000	0,014	0,049
-275,657	-124,814	-0,090	0,010
-274,643	13,091	0,083	-0,046
-273,628	34,309	0,114	-0,071
-272,613	71,906	0,057	0,042
-271,599	800,000	-0,069	-0,139
-270,584	-125,592	0,101	-0,011
-269,570	487,069	0,087	0,143
-268,555	45,923	-0,042	-0,028
-267,540	-119,935	0,119	0,014
-266,526	-81,412	-0,065	0,015
-265,511	298,431	-0,030	0,039
-264,497	135,662	0,021	-0,019
-263,482	91,810	0,049	0,039
-262,467	-144,118	0,185	0,012
-261,453	-200,000	0,012	-0,131
-260,438	-89,848	-0,113	0,023
-259,424	-120,862	-0,039	-0,005
-258,409	273,465	0,056	-0,071
-257,395	-200,000	0,004	0,023
-256,380	800,000	0,012	-0,029
-255,365	-48,932	0,174	-0,059
-254,351	-109,713	0,037	-0,005
-253,336	-200,000	-0,023	-0,213
-252,322	-29,083	0,022	-0,009
-251,307	800,000	0,024	0,058
-250,292	-200,000	-0,030	0,105
-249,278	41,043	0,123	-0,079
-248,263	-166,143	-0,192	-0,006
-247,249	-112,570	0,162	0,023
-246,234	800,000	0,028	0,056
-245,219	-200,000	-0,015	-0,157
-244,205	492,080	-0,044	-0,072
-243,190	7,992	-0,099	0,053
-242,176	296,146	-0,042	0,055
-241,161	159,932	0,069	0,069
-240,146	15,683	-0,078	0,044
-239,132	-200,000	0,008	0,072
-238,117	135,364	-0,099	-0,092
-237,103	-157,615	-0,010	-0,000
-236,088	28,354	0,086	-0,052
-235,073	-37,530	0,173	-0,065
-234,059	-194,040	-0,111	-0,001
-233,044	800,000	0,025	0,073
-232,030	-128,256	-0,081	0,008
-231,015	-138,736	0,076	-0,006
-230,000	-85,236	0,050	0,011
-228,986	-200,000	-0,007	0,076
-227,971	800,000	-0,055	0,159
-226,957	168,263	0,059	0,060
-225,942	-200,000	0,031	0,166
-224,927	206,512	-0,067	-0,075
-223,913	-13,285	0,074	0,034
-222,898	64,710	0,102	-0,074
-221,884	-24,765	-0,138	-0,058
-220,869	-200,000	0,021	-0,092
-219,855	34,211	0,074	-0,046
-218,840	17,962	-0,036	-0,020
-217,825	800,000	0,093	-0,184
-216,811	800,000	-0,020	-0,049
-215,796	709,749	-0,044	-0,083
-214,782	-44,700	-0,093	0,033
-213,767	-200,000	-0,027	-0,088
-212,752	-200,000	-0,014	0,077
-211,738	-110,938	-0,096	-0,014
-210,723	-200,000	-0,012	-0,084
-209,709	-19,794	0,074	0,033
-208,694	-76,189	-0,092	-0,023
-207,679	-200,000	-0,006	0,082
-206,665	370,822	0,030	0,043
-205,650	-185,586	0,081	-0,001
-204,636	-200,000	0,043	0,166
-203,621	201,275	0,030	-0,033
-202,606	-200,000	-0,021	-0,137
-201,592	800,000	0,041	-0,095
-200,577	715,363	-0,063	-0,120
-199,563	800,000	0,028	-0,068
-198,548	158,443	0,029	0,029
-197,533	800,000	-0,034	0,099
-196,519	-200,000	0,020	0,134
-195,504	-84,492	-0,146	0,033
-194,490	-200,000	-0,012	0,065
-193,475	14,088	-0,106	0,059
-192,460	-22,335	0,145	-0,063
-191,446	-10,371	0,053	0,025
-190,431	-200,000	0,023	0,085
-189,417	800,000	-0,044	0,112
-188,402	-200,000	-0,002	0,053
-187,387	800,000	0,056	-0,172
-186,373	-200,000	0,015	-0,077
-185,358	-25,452	-0,204	-0,086
-184,344	800,000	0,019	-0,040
-183,329	-48,275	0,070	0,024
-182,315	-200,000	-0,011	0,110
-181,300	-28,905	-0,127	-0,052
-180,285	-69,402	0,069	-0,019
-179,271	573,594	-0,038	0,066
-178,256	33,928	-0,026	-0,016
-177,242	194,292	0,060	0,065
-176,227	-6,406	0,146	-0,071
-175,212	83,966	0,059	-0,046
-174,198	-90,105	-0,081	0,017
-173,183	800,000	0,074	-0,157
-172,169	-200,000	0,001	-0,122
-171,154	0,402	0,059	-0,030
-170,139	-9,681	-0,047	-0,022
-169,125	-58,677	0,099	-0,030
-168,110	-178,316	0,119	-0,002
-167,096	66,336	0,010	0,008
-166,081	401,815	-0,036	0,055
-165,066	22,472	-0,115	-0,067
-164,052	-200,000	0,038	-0,131
-163,037	360,762	0,041	-0,058
-162,023	800,000	0,037	0,094
-161,008	55,873	0,040	-0,028
-159,993	800,000	0,024	0,054
-158,979	800,000	0,050	-0,131
-157,964	-131,693	-0,100	0,009
-156,950	-200,000	0,016	0,103
-155,935	238,362	0,076	0,090
-154,920	-200,000	-0,008	-0,029
-153,906	800,000	-0,040	-0,085
-152,891	369,806	-0,028	-0,041
-151,877	52,674	-0,085	-0,057
-150,862	800,000	-0,036	0,076
-149,847	70,665	0,085	-0,062
-148,833	32,723	-0,037	0,023
-147,818	566,458	-0,012	-0,021
-146,804	21,383	0,150	0,087
-145,789	-150,904	-0,137	0,007
-144,775	-50,220	-0,113	0,038
-143,760	-200,000	-0,044	0,173
-142,745	68,713	-0,160	-0,117
-141,731	585,126	0,032	-0,056
-140,716	106,017	0,086	0,072
-139,702	375,384	0,014	-0,020
-138,687	262,808	0,027	-0,034
-137,672	800,000	0,054	-0,131
-136,658	-200,000	-0,003	-0,016
-135,643	21,562	0,081	0,047
-134,629	64,620	0,115	0,083
-133,614	316,311	-0,103	-0,139
-132,599	617,600	-0,071	0,128
-131,585	33,805	-0,011	0,007
-130,570	72,175	0,062	-0,046
-129,556	-121,335	-0,195	0,023
-128,541	800,000	-0,030	0,066
-127,526	-200,000	0,013	-0,043
-126,512	-200,000	0,011	-0,172
-125,497	800,000	0,019	0,051
-124,483	-162,535	-0,087	-0,003
-123,468	40,497	-0,021	-0,013
-122,453	-200,000	-0,005	0,080
-121,439	-200,000	0,002	-0,024
-120,424	411,297	-0,087	-0,131
-119,410	-32,928	-0,042	0,016
-118,395	66,031	0,097	-0,070
-117,380	800,000	0,036	-0,074
-116,366	475,493	0,030	0,049
-115,351	-61,078	-0,115	-0,034
-114,337	203,167	-0,044	-0,048
-113,322	585,777	-0,021	-0,038
-112,307	189,404	0,070	0,075
-111,293	35,821	0,107	-0,067
-110,278	-154,902	0,071	0,003
-109,264	55,529	-0,048	0,033
-108,249	-34,737	-0,092	-0,036
-107,234	800,000	-0,028	0,079
-106,220	174,345	-0,050	-0,051
-105,205	800,000	-0,054	-0,164
-104,191	747,664	-0,018	0,035
-103,176	-14,055	0,060	-0,027
-102,162	87,859	-0,004	-0,003
-101,147	283,601	-0,096	-0,123
-100,132	-200,000	-0,021	-0,079
-99,118	220,810	0,083	-0,095
-98,103	-94,166	0,091	0,018
-97,089	213,966	0,081	0,091
-96,074	-108,849	-0,112	0,017
-95,059	218,092	0,069	0,078
-94,045	36,550	0,116	-0,073
-93,030	433,172	-0,089	-0,138
-92,016	520,356	-0,045	-0,075
-91,001	-61,304	0,144	0,043
-89,986	-41,413	0,051	0,019
-88,972	349,632	0,092	0,130
-87,957	800,000	-0,036	0,092
-86,943	-200,000	0,012	-0,098
-85,928	-200,000	0,004	-0,088
-84,913	51,730	0,075	0,051
-83,899	470,936	0,040	0,064
-82,884	800,000	-0,053	0,114
-81,870	-200,000	0,005	0,079
-80,855	-66,637	0,100	0,028
-79,840	161,832	0,043	-0,043
-78,826	-22,995	0,086	0,037
-77,811	-42,025	-0,152	-0,055
-76,797	264,126	0,097	-0,120
-75,782	50,380	-0,020	-0,013
-74,767	-122,836	0,061	0,007
-73,753	485,135	0,019	-0,031
-72,738	-55,301	-0,080	0,025
-71,724	-56,541	-0,101	-0,032
-70,709	165,714	-0,095	0,096
-69,694	86,850	-0,078	0,061
-68,680	39,519	0,021	0,014
-67,665	746,798	0,040	0,078
-66,651	800,000	-0,020	-0,041
-65,636	-58,602	0,117	0,036
-64,622	67,467	0,076	-0,055
-63,607	-200,000	0,001	0,041
-62,592	-34,375	-0,050	-0,020
-61,578	-11,250	0,044	-0,021
-60,563	-200,000	0,021	0,072
-59,549	-200,000	-0,031	0,133
-58,534	-104,476	-1,357	-0,220
-57,519	387,742	-1,555	-2,288
-56,505	-200,000	-0,471	-4,463
-55,490	69,268	0,903	0,658
-54,476	800,000	4,879	11,301
-53,461	-200,000	17,679	281,118
-52,446	800,000	720,445	2217,859
-51,432	559,221	1634,283	2808,341
-50,417	80,931	1657,842	1267,145
-49,403	23,842	1532,301	893,129
-48,388	17,815	1455,587	819,354
-47,373	18,298	1445,200	815,792
-46,359	17,930	1435,616	808,598
-45,344	16,139	1431,194	797,558
-44,330	16,092	1429,120	796,148
-43,315	16,094	1427,324	795,125
-42,300	16,105	1425,802	794,302
-41,286	16,138	1424,695	793,807
-40,271	16,117	1423,291	792,892
-39,257	16,079	1422,178	792,061
-38,242	16,135	1420,820	791,541
-37,227	16,168	1419,433	790,893
-36,213	16,128	1418,124	789,942
-35,198	16,116	1416,938	789,194
-34,184	16,169	1416,064	788,923
-33,169	16,069	1414,855	787,752
-32,154	16,138	1413,784	787,444
-31,140	16,127	1412,481	786,637
-30,125	16,170	1411,232	786,114
-29,111	16,135	1410,194	785,337
-28,096	16,131	1409,167	784,718
-27,082	16,062	1408,094	783,767
-26,067	16,066	1406,953	783,119
-25,052	16,074	1405,848	782,510
-24,038	16,058	1405,001	781,933
-23,023	16,050	1403,879	781,240
-22,009	16,032	1402,908	780,583
-20,994	16,019	1401,795	779,875
-19,979	15,993	1400,965	779,262
-18,965	15,960	1400,105	778,597
-17,950	15,957	1399,091	777,986
-16,936	15,976	1398,098	777,494
-15,921	15,963	1396,779	776,671
-14,906	15,929	1395,952	776,023
-13,892	16,039	1394,931	775,933
-12,877	15,949	1394,138	775,045
-11,863	15,968	1393,235	774,598
-10,848	15,918	1392,381	773,864
-9,833	15,893	1391,399	773,170
-8,819	15,898	1390,333	772,569
-7,804	15,876	1389,438	771,940
-6,790	15,833	1388,332	771,099
-5,775	15,811	1387,427	770,461
-4,760	15,821	1386,798	770,127
-3,746	15,839	1385,796	769,625
-2,731	15,837	1385,053	769,170
-1,717	15,792	1384,134	768,424
-0,702	15,828	1382,289	767,533
0,313	19,622	1303,000	741,007
1,327	36,026	706,569	439,826
2,342	55,030	125,201	85,566
3,356	2,689	16,454	8,425
4,371	3,993	3,048	1,574
5,386	-101,591	0,442	0,075
6,400	284,254	-0,044	0,056
7,415	258,538	-0,185	-0,226
8,429	586,654	-0,182	-0,318
9,444	-65,655	-0,457	-0,129
10,459	41,972	-0,233	-0,149
11,473	199,260	-0,259	-0,282
12,488	178,972	-0,153	-0,159
13,502	-41,295	-0,338	-0,123
14,517	19,492	-0,415	-0,235
15,531	-41,332	-0,349	-0,127
16,546	-30,900	-0,445	-0,177
17,561	139,443	-0,351	-0,327
18,575	-42,777	-0,232	-0,083
19,590	612,784	-0,136	-0,242
20,604	-9,991	-0,336	-0,157
21,619	136,724	-0,469	-0,434
22,634	173,105	-0,420	-0,428
23,648	107,342	-0,486	-0,409
24,663	82,792	-0,372	-0,286
25,677	215,153	-0,289	-0,324
26,692	-57,043	-0,340	-0,105
27,707	-16,795	-0,310	-0,138
28,721	218,090	-0,334	-0,378
29,736	55,819	-0,427	-0,292
30,750	51,108	-0,450	-0,301
31,765	328,665	-0,243	-0,330
32,780	176,132	-0,353	-0,362
33,794	86,635	-0,456	-0,355
34,809	90,538	-0,287	-0,227
35,823	152,242	-0,322	-0,311
36,838	79,919	-0,435	-0,330
37,853	204,051	-0,324	-0,355
38,867	96,356	-0,456	-0,369
39,882	-68,329	-0,413	-0,113
40,896	1,127	-0,388	-0,196
41,911	-9,269	-0,464	-0,218
42,926	29,769	-0,351	-0,210
43,940	14,971	-0,378	-0,208
44,955	363,319	-0,308	-0,438
45,969	744,335	-0,216	-0,412
46,984	382,918	-0,217	-0,316
47,999	-29,347	-0,482	-0,194
49,013	48,102	-0,335	-0,221
50,028	66,540	-0,377	-0,270
51,042	137,332	-0,346	-0,319
52,057	65,100	-0,408	-0,290
53,071	318,345	-0,212	-0,283
54,086	85,193	-0,356	-0,276
55,101	102,841	-0,320	-0,264
56,115	-109,190	-0,427	-0,063
57,130	61,886	-0,281	-0,197
58,144	-18,088	-0,340	-0,149
59,159	200,389	-0,337	-0,365
60,174	661,228	-0,234	-0,428
61,188	152,060	-0,387	-0,373
62,203	61,236	-0,327	-0,229
63,217	-24,394	-0,376	-0,157
64,232	-100,548	-0,456	-0,079
65,247	-84,012	-0,349	-0,078
66,261	-8,129	-0,305	-0,144
67,276	78,760	-0,471	-0,354
68,290	-8,211	-0,382	-0,181
69,305	136,125	-0,342	-0,314
70,320	91,609	-0,254	-0,201
71,334	39,724	-0,383	-0,241
72,349	68,131	-0,177	-0,128
73,363	40,247	-0,349	-0,221
74,378	154,827	-0,301	-0,292
75,393	10,157	-0,380	-0,203
76,407	132,354	-0,238	-0,216
77,422	-87,712	-0,436	-0,092
78,436	-42,799	-0,322	-0,114
79,451	-91,741	-0,273	-0,054
80,466	-20,944	-0,437	-0,188
81,480	12,227	-0,466	-0,252
82,495	-18,922	-0,346	-0,151
83,509	83,088	-0,325	-0,248
84,524	-24,287	-0,275	-0,115
85,539	-17,122	-0,263	-0,116
86,553	143,630	-0,306	-0,287
87,568	76,277	-0,276	-0,205
88,582	139,820	-0,345	-0,320
89,597	-47,611	-0,406	-0,138
90,611	279,807	-0,207	-0,261
91,626	-17,785	-0,229	-0,101
92,641	-80,541	-0,336	-0,078
93,655	127,713	-0,170	-0,152
94,670	77,533	-0,248	-0,185
95,684	285,850	-0,291	-0,370
96,699	287,753	-0,165	-0,210
97,714	-20,138	-0,323	-0,139
98,728	12,094	-0,184	-0,099
99,743	8,026	-0,197	-0,103
100,757	31,425	-0,179	-0,108
101,772	-51,362	-0,323	-0,105
102,787	92,285	-0,324	-0,257
103,801	155,322	-0,377	-0,365
104,816	202,885	-0,201	-0,218
105,830	26,929	-0,308	-0,181
106,845	252,557	-0,190	-0,227
107,860	-51,004	-0,216	-0,071
108,874	261,015	-0,224	-0,273
109,889	146,523	-0,366	-0,346
110,903	299,993	-0,158	-0,205
111,918	154,712	-0,157	-0,152
112,933	82,442	-0,225	-0,171
113,947	-55,808	-0,303	-0,094
114,962	312,295	-0,165	-0,218
115,976	110,946	-0,262	-0,221
116,991	16,022	-0,335	-0,185
118,006	50,363	-0,231	-0,153
119,020	309,713	-0,133	-0,175
120,035	-64,500	-0,160	-0,045
121,049	145,652	-0,106	-0,100
122,064	-4,983	-0,329	-0,158
123,079	272,565	-0,184	-0,228
124,093	-7,385	-0,307	-0,145
125,108	57,110	-0,272	-0,186
126,122	-49,127	-0,303	-0,101
127,137	56,518	-0,161	-0,109
128,151	423,716	-0,122	-0,184
129,166	75,116	-0,301	-0,222
130,181	38,017	-0,309	-0,192
131,195	159,134	-0,234	-0,228
132,210	-47,580	-0,198	-0,067
133,224	94,371	-0,214	-0,170
134,239	14,807	-0,202	-0,111
135,254	93,056	-0,179	-0,142
136,268	146,327	-0,188	-0,177
137,283	151,092	-0,176	-0,167
138,297	295,101	-0,207	-0,266
139,312	100,326	-0,293	-0,238
140,327	256,519	-0,233	-0,280
141,341	113,061	-0,202	-0,171
142,356	238,512	-0,187	-0,217
143,370	84,709	-0,154	-0,118
144,385	66,156	-0,300	-0,213
145,400	10,463	-0,193	-0,103
146,414	51,863	-0,137	-0,091
147,429	-81,913	-0,310	-0,070
148,443	-77,984	-0,282	-0,067
149,458	-195,072	-0,207	-0,001
150,473	-70,074	-0,190	-0,050
151,487	-47,486	-0,345	-0,116
152,502	196,472	-0,166	-0,177
153,516	104,207	-0,281	-0,231
154,531	205,880	-0,180	-0,197
155,546	-55,417	-0,273	-0,085
156,560	-66,535	-0,274	-0,075
157,575	80,876	-0,239	-0,180
158,589	158,912	-0,187	-0,182
159,604	104,968	-0,166	-0,137
160,619	54,614	-0,268	-0,180
161,633	227,111	-0,212	-0,241
162,648	403,408	-0,166	-0,245
163,662	178,184	-0,201	-0,205
164,677	-41,781	-0,225	-0,080
165,692	28,961	-0,263	-0,155
166,706	-115,048	-0,215	-0,028
167,721	47,262	-0,272	-0,176
168,735	51,112	-0,337	-0,223
169,750	-32,596	-0,223	-0,086
170,764	-73,964	-0,137	-0,035
171,779	15,357	-0,224	-0,122
172,794	57,375	-0,219	-0,149
173,808	373,933	-0,148	-0,211
174,823	192,546	-0,181	-0,191
175,837	108,874	-0,200	-0,167
176,852	622,586	-0,098	-0,173
177,867	337,629	-0,176	-0,239
178,881	34,598	-0,294	-0,179
179,896	23,497	-0,335	-0,192
180,910	27,837	-0,247	-0,145
181,925	-46,317	-0,251	-0,086
182,940	258,101	-0,195	-0,235
183,954	203,164	-0,120	-0,130
184,969	-2,605	-0,330	-0,161
185,983	-181,848	-0,250	0,003
186,998	84,198	-0,185	-0,140
188,013	800,000	-0,086	-0,201
189,027	72,112	-0,220	-0,159
190,042	82,783	-0,268	-0,203
191,056	64,898	-0,216	-0,152
192,071	-18,558	-0,176	-0,076
193,086	136,260	-0,153	-0,139
194,100	-22,590	-0,223	-0,094
195,115	-12,926	-0,200	-0,090
196,129	-80,733	-0,095	-0,022
197,144	221,673	-0,151	-0,169
198,159	2,748	-0,290	-0,146
199,173	-108,532	-0,307	-0,046
200,188	95,821	-0,239	-0,190
201,202	-145,466	-0,175	0,011
202,217	-61,938	-0,234	-0,068
203,232	-49,596	-0,389	-0,128
204,246	533,946	-0,182	-0,302
205,261	800,000	-0,144	-0,317
206,275	189,402	-0,237	-0,247
207,290	478,368	-0,180	-0,284
208,304	-188,340	-0,125	-0,001
209,319	-67,832	-0,204	-0,055
210,334	-200,000	-0,030	-0,161
211,348	16,621	-0,284	-0,156
212,363	719,219	-0,104	-0,193
213,377	-74,214	-0,180	-0,045
214,392	148,014	-0,191	-0,179
215,407	-35,777	-0,094	-0,035
216,421	195,582	-0,180	-0,191
217,436	9,118	-0,286	-0,150
218,450	48,815	-0,215	-0,140
219,465	800,000	-0,089	-0,227
220,480	66,816	-0,145	-0,103
221,494	27,001	-0,189	-0,110
222,509	675,372	-0,120	-0,217
223,523	55,780	-0,177	-0,119
224,538	800,000	-0,068	-0,153
225,553	79,411	-0,292	-0,217
226,567	15,526	-0,158	-0,086
227,582	175,556	-0,231	-0,233
228,596	82,377	-0,164	-0,124
229,611	86,208	-0,178	-0,136
230,626	159,776	-0,235	-0,227
231,640	4,023	-0,099	-0,050
232,655	588,397	-0,114	-0,196
233,669	87,449	-0,202	-0,155
234,684	7,319	-0,275	-0,142
235,699	-67,102	-0,087	0,024
236,713	-31,661	-0,096	-0,037
237,728	-78,791	-0,204	-0,048
238,742	84,448	-0,229	-0,174
239,757	191,755	-0,185	-0,194
240,772	-142,912	-0,210	-0,014
241,786	114,791	-0,239	-0,202
242,801	137,960	-0,144	-0,131
243,815	190,837	-0,074	-0,077
244,830	-157,521	-0,119	-0,005
245,844	48,355	-0,132	-0,086
246,859	1,127	-0,168	-0,083
247,874	55,237	-0,224	-0,150
248,888	800,000	-0,120	-0,261
249,903	83,145	-0,146	-0,110
250,917	800,000	-0,052	-0,145
251,932	270,584	-0,116	-0,141
252,947	-128,169	-0,197	-0,019
253,961	10,335	-0,171	-0,090
254,976	23,593	-0,222	-0,126
255,990	-74,704	-0,247	0,061
257,005	739,414	-0,067	-0,125
258,020	27,459	-0,165	-0,096
259,034	-90,396	-0,145	-0,029
260,049	1,735	-0,246	-0,123
261,063	67,165	-0,210	-0,148
262,078	260,068	-0,056	-0,067
263,093	-61,806	-0,192	-0,055
264,107	87,861	-0,193	-0,148
265,122	-151,526	-0,077	0,004
266,136	499,867	-0,056	-0,089
267,151	721,707	-0,043	0,080
268,166	-167,471	-0,238	-0,006
269,180	257,770	-0,233	-0,278
270,195	424,027	-0,148	-0,221
271,209	249,962	-0,124	-0,146
272,224	45,748	-0,171	-0,109
273,239	334,104	-0,106	0,142
274,253	108,879	-0,125	-0,103
275,268	-50,700	-0,114	0,037
276,282	57,398	-0,170	-0,115
277,297	214,496	-0,163	-0,179
278,312	-9,398	-0,247	-0,114
279,326	-79,645	-0,176	-0,041
280,341	62,063	-0,095	-0,066
281,355	44,448	-0,262	-0,166
282,370	-171,835	-0,191	0,004
283,384	-6,341	-0,191	-0,090
284,399	369,462	-0,162	-0,227
285,414	68,637	-0,146	-0,104
286,428	-148,829	-0,187	0,010
287,443	800,000	0,005	0,015
288,457	545,093	-0,115	-0,191
289,472	-200,000	0,022	-0,283
290,487	114,785	-0,182	-0,153
291,501	-86,613	-0,228	-0,048
292,516	53,135	-0,216	-0,143
293,530	72,133	-0,165	-0,118
294,545	60,813	-0,178	-0,122
295,560	-109,953	-0,255	-0,036
296,574	34,738	-0,128	-0,077
297,589	-67,506	-0,200	-0,054
298,603	80,209	-0,120	-0,089
299,618	18,549	-0,153	-0,084
300,633	195,004	-0,145	-0,152
301,647	-200,000	0,008	-0,133
302,662	60,498	-0,106	-0,073
303,676	-23,632	-0,156	-0,064
304,691	510,836	-0,056	-0,089
305,706	-77,547	-0,185	-0,044
306,720	233,301	-0,118	-0,134
307,735	-71,569	-0,125	-0,032
308,749	7,458	-0,176	-0,090
309,764	462,626	-0,096	-0,149
310,779	-75,726	-0,181	-0,044
311,793	78,190	-0,157	-0,115
312,808	139,864	-0,187	-0,170
313,822	800,000	-0,081	-0,183
314,837	-200,000	-0,020	-0,186
315,852	86,638	-0,168	-0,128
316,866	-8,407	-0,119	-0,055
317,881	800,000	-0,113	-0,219
318,895	41,314	-0,121	-0,076
319,910	20,272	-0,131	-0,073
320,925	177,892	-0,218	-0,220
321,939	67,853	-0,106	-0,075
322,954	30,964	-0,156	-0,092
323,968	-102,932	-0,198	-0,032
324,983	-182,020	-0,095	0,001
325,997	-200,000	-0,054	-0,226
327,012	-50,473	-0,246	-0,079
328,027	64,527	-0,153	-0,106
329,041	-148,036	-0,201	-0,011
330,056	-25,919	-0,132	-0,053
331,070	-174,256	-0,088	-0,002
332,085	-7,872	-0,197	-0,091
333,100	94,613	-0,154	-0,120
334,114	269,563	-0,134	-0,162
335,129	-200,000	0,013	-0,169
336,143	-200,000	-0,014	-0,199
337,158	800,000	-0,044	-0,119
338,173	723,626	0,037	-0,068
339,187	-86,637	-0,063	-0,013
340,202	323,109	-0,128	-0,168
341,216	-58,926	-0,109	0,032
342,231	433,220	-0,164	-0,245
343,246	384,055	-0,105	-0,149
344,260	616,209	-0,088	-0,153
345,275	-200,000	-0,021	-0,149
346,289	800,000	-0,127	-0,242
347,304	-88,393	-0,211	-0,043
348,319	140,011	-0,157	-0,142
349,333	-44,193	-0,235	-0,081
350,348	576,819	-0,111	-0,188
351,362	44,169	-0,126	-0,079
352,377	-134,051	-0,201	-0,017
353,392	-144,917	-0,147	0,009
354,406	210,250	-0,060	-0,065
355,421	208,838	1315,068	1415,660
356,435	160,706	1475,875	1416,190
