DTS Sentinel unit serial number:	SN410029Multiplexer serial number:	ORYXHardware model number:	OX2-SRSoftware version number:	ORYX F/W v4,00 Oryx Data Collector v3.7.2.0data status	okinstallation	B3 Nyhavnadifferential loss correction	single-endedforward channel	channel 1reverse channel	N/Adate	2023/11/29time	23:02:30forward acquisition time	300,00reverse acquisition time	0,00gamma	499,1914k internal	0,3210k external	0,3210temperature offset calibration	1,0000default loss term (dB/km)	0,3820temperature slope calibration	1,0000multiplexer offset coefficient	1,0000multiplexer slope coefficient	1,0000fibre end	0,00T internal ref (°C)	10,87T ext. ref 1 (°C)	-3,91T ext. ref 2 (°C)	-4,03length (m)	temperature (°C)	Stokes	anti-Stokes-744,400	211,147	-0,195	-0,223
-743,385	-200,000	0,033	0,212
-742,371	800,000	-0,095	-0,304
-741,356	-200,000	0,043	0,223
-740,342	70,581	-0,318	-0,238
-739,327	-200,000	0,059	0,279
-738,312	800,000	-0,122	-0,274
-737,298	-200,000	0,020	0,252
-736,283	561,804	-0,105	-0,185
-735,269	-200,000	-0,055	0,343
-734,254	150,844	-0,179	-0,176
-733,239	800,000	-0,043	0,087
-732,225	-200,000	-0,043	-0,252
-731,210	759,595	0,129	0,255
-730,196	-200,000	0,030	-0,126
-729,181	-200,000	0,030	-0,117
-728,167	-200,000	-0,044	-0,160
-727,152	800,000	0,032	-0,078
-726,137	196,771	-0,033	0,036
-725,123	-100,456	-0,090	-0,016
-724,108	800,000	0,019	-0,050
-723,094	-55,103	-0,130	-0,042
-722,079	79,856	-0,102	-0,079
-721,064	-4,719	-0,043	0,021
-720,050	379,693	-0,037	-0,055
-719,035	-12,050	-0,104	-0,049
-718,021	172,098	-0,052	0,054
-717,006	382,559	-0,111	-0,166
-715,991	102,787	0,023	0,020
-714,977	-200,000	0,011	-0,072
-713,962	-200,000	0,042	-0,142
-712,948	-92,362	-0,021	0,004
-711,933	454,726	0,012	-0,019
-710,918	35,332	-0,062	-0,039
-709,904	7,574	-0,105	-0,057
-708,889	-3,043	0,008	0,004
-707,875	-77,162	0,123	-0,031
-706,860	78,999	-0,146	-0,113
-705,845	-50,928	0,046	0,016
-704,831	800,000	-0,027	0,062
-703,816	669,383	-0,024	-0,046
-702,802	-200,000	-0,029	-0,094
-701,787	-200,000	0,000	-0,005
-700,772	152,037	-0,091	-0,090
-699,758	-65,283	-0,055	0,016
-698,743	147,456	-0,088	0,086
-697,729	132,981	-0,036	0,034
-696,714	-169,151	-0,080	-0,002
-695,699	-77,241	-0,085	-0,021
-694,685	-100,172	-0,087	-0,015
-693,670	556,975	-0,072	-0,126
-692,656	-49,115	-0,030	0,010
-691,641	331,732	0,077	0,108
-690,627	171,174	0,008	0,009
-689,612	-200,000	0,007	-0,111
-688,597	243,563	-0,082	-0,100
-687,583	-28,698	0,087	0,036
-686,568	-155,095	-0,124	-0,006
-685,554	-200,000	0,011	-0,161
-684,539	-49,363	0,105	0,036
-683,524	-200,000	-0,020	0,091
-682,510	145,340	-0,087	0,084
-681,495	86,911	0,079	-0,063
-680,481	107,108	-0,098	-0,084
-679,466	60,994	-0,038	-0,027
-678,451	22,509	-0,029	-0,017
-677,437	-200,000	0,024	0,201
-676,422	-200,000	0,014	-0,090
-675,408	188,193	0,037	0,040
-674,393	800,000	0,069	-0,169
-673,378	-157,890	-0,070	-0,003
-672,364	800,000	-0,018	-0,044
-671,349	57,360	-0,036	0,025
-670,335	-200,000	-0,035	0,124
-669,320	634,562	0,023	-0,043
-668,305	-26,280	0,072	0,031
-667,291	57,132	-0,051	-0,036
-666,276	-101,447	-0,083	-0,014
-665,262	-119,261	-0,130	-0,016
-664,247	-19,852	-0,147	-0,065
-663,232	15,263	0,082	-0,046
-662,218	56,578	0,078	0,055
-661,203	-63,616	-0,082	-0,024
-660,189	-200,000	-0,020	0,165
-659,174	23,170	-0,054	0,032
-658,159	3,434	-0,124	-0,065
-657,145	712,914	-0,033	-0,063
-656,130	188,196	0,034	0,037
-655,116	800,000	-0,021	-0,045
-654,101	95,692	-0,039	0,032
-653,086	800,000	-0,078	0,169
-652,072	-200,000	-0,008	-0,069
-651,057	10,571	-0,144	-0,079
-650,043	800,000	0,023	-0,064
-649,028	-72,122	-0,017	0,004
-648,014	483,019	0,053	0,088
-646,999	-43,107	0,061	0,022
-645,984	-68,024	-0,009	0,002
-644,970	-200,000	0,003	-0,121
-643,955	-75,845	0,137	0,035
-642,941	216,279	-0,140	-0,160
-641,926	-200,000	-0,016	-0,053
-640,911	-61,387	0,121	0,037
-639,897	-14,369	-0,027	0,013
-638,882	206,660	-0,070	-0,079
-637,868	167,331	-0,049	-0,050
-636,853	800,000	-0,031	-0,096
-635,838	-53,257	-0,127	-0,042
-634,824	399,544	0,008	-0,013
-633,809	-20,977	-0,096	-0,042
-632,795	-200,000	-0,036	0,144
-631,780	154,572	-0,056	-0,056
-630,765	216,918	-0,078	-0,090
-629,751	-73,528	-0,093	-0,024
-628,736	-111,345	-0,060	-0,009
-627,722	85,462	0,083	-0,066
-626,707	53,777	0,123	0,085
-625,692	386,656	0,056	-0,084
-624,678	800,000	-0,064	0,160
-623,663	-200,000	-0,009	0,043
-622,649	345,201	-0,075	-0,106
-621,634	-26,581	-0,157	-0,066
-620,619	-26,304	-0,065	-0,027
-619,605	39,083	-0,098	0,063
-618,590	188,189	0,047	0,051
-617,576	96,233	-0,060	0,049
-616,561	-27,809	0,040	-0,017
-615,546	62,674	-0,111	0,080
-614,532	419,681	-0,059	-0,092
-613,517	-134,312	0,059	0,005
-612,503	-94,446	-0,128	-0,025
-611,488	204,751	0,055	0,062
-610,474	-25,861	0,060	-0,026
-609,459	-200,000	-0,007	0,050
-608,444	-69,008	-0,020	-0,005
-607,430	-177,045	-0,070	-0,001
-606,415	622,644	0,080	-0,145
-605,401	-143,482	0,028	0,002
-604,386	800,000	-0,052	-0,117
-603,371	-200,000	0,008	-0,044
-602,357	621,786	-0,064	0,117
-601,342	-136,836	-0,127	0,010
-600,328	-7,416	0,088	-0,043
-599,313	-200,000	0,020	-0,117
-598,298	800,000	-0,020	-0,059
-597,284	-200,000	-0,019	0,092
-596,269	274,375	0,100	-0,128
-595,255	203,895	0,066	0,074
-594,240	-0,990	-0,050	0,026
-593,225	334,895	-0,074	-0,104
-592,211	-47,748	-0,087	0,030
-591,196	618,750	0,025	-0,046
-590,182	-54,046	-0,056	-0,018
-589,167	135,979	0,130	-0,122
-588,152	-200,000	-0,018	-0,127
-587,138	800,000	0,011	-0,029
-586,123	390,330	-0,109	0,164
-585,109	171,269	-0,111	-0,115
-584,094	198,886	-0,043	-0,048
-583,079	44,331	-0,089	0,059
-582,065	-72,435	0,127	-0,034
-581,050	-11,818	0,029	-0,014
-580,036	800,000	-0,005	-0,012
-579,021	299,190	0,038	-0,050
-578,006	104,017	-0,053	0,045
-576,992	50,883	0,146	0,100
-575,977	-200,000	0,007	0,095
-574,963	60,361	0,056	-0,040
-573,948	135,977	-0,056	0,053
-572,934	161,989	0,033	0,033
-571,919	-29,913	-0,153	-0,062
-570,904	145,706	-0,057	-0,055
-569,890	10,259	0,119	-0,065
-568,875	-68,423	0,127	-0,035
-567,861	-31,042	-0,016	0,007
-566,846	-200,000	0,009	0,112
-565,831	-1,266	0,144	0,073
-564,817	512,164	-0,027	-0,046
-563,802	-10,346	-0,066	-0,031
-562,788	0,043	-0,050	-0,025
-561,773	800,000	0,011	-0,032
-560,758	-200,000	0,033	0,135
-559,744	40,852	0,005	0,003
-558,729	-136,329	0,042	-0,004
-557,715	322,829	-0,091	-0,125
-556,700	-200,000	0,004	-0,045
-555,685	-89,905	-0,040	0,008
-554,671	450,486	-0,013	0,021
-553,656	-121,292	-0,112	0,013
-552,642	-88,423	0,089	-0,019
-551,627	-200,000	0,011	0,105
-550,612	800,000	-0,062	-0,149
-549,598	-64,355	-0,129	0,038
-548,583	103,981	0,125	-0,106
-547,569	800,000	0,008	0,021
-546,554	41,221	0,092	0,060
-545,539	-16,143	-0,063	0,029
-544,525	97,455	-0,089	-0,073
-543,510	-77,122	-0,048	-0,012
-542,496	-32,646	-0,072	-0,029
-541,481	-34,524	0,081	-0,032
-540,466	-115,207	-0,020	0,003
-539,452	800,000	-0,018	-0,035
-538,437	430,444	-0,063	0,098
-537,423	175,556	0,016	-0,017
-536,408	127,154	-0,124	0,113
-535,393	-200,000	-0,018	0,082
-534,379	-200,000	0,018	-0,083
-533,364	106,948	0,036	-0,030
-532,350	83,157	-0,083	0,065
-531,335	-20,322	0,080	0,035
-530,321	-200,000	0,046	0,176
-529,306	-156,518	0,146	-0,006
-528,291	14,708	-0,151	-0,085
-527,277	194,003	0,072	-0,079
-526,262	194,595	-0,053	0,058
-525,248	-84,870	-0,078	-0,017
-524,233	-135,119	0,158	0,013
-523,218	-200,000	0,049	0,238
-522,204	-137,359	-0,139	-0,011
-521,189	189,220	-0,031	0,033
-520,175	-39,626	0,026	0,010
-519,160	122,417	-0,056	-0,051
-518,145	800,000	0,039	-0,100
-517,131	284,455	-0,059	0,077
-516,116	-200,000	0,053	-0,223
-515,102	800,000	0,024	-0,070
-514,087	-200,000	-0,023	-0,076
-513,072	200,385	-0,046	-0,051
-512,058	439,856	0,035	0,055
-511,043	387,189	0,075	-0,112
-510,029	130,831	0,146	-0,134
-509,014	-200,000	-0,001	-0,020
-507,999	800,000	0,023	-0,058
-506,985	268,853	-0,032	-0,041
-505,970	800,000	-0,035	-0,076
-504,956	-27,075	0,124	-0,052
-503,941	-171,494	0,086	0,002
-502,926	-135,991	0,125	-0,010
-501,912	-200,000	0,015	0,069
-500,897	-200,000	0,030	0,110
-499,883	761,371	0,050	0,097
-498,868	-200,000	-0,019	-0,086
-497,853	446,224	-0,020	-0,032
-496,839	115,528	0,050	0,044
-495,824	38,398	-0,024	-0,015
-494,810	-200,000	0,008	0,083
-493,795	273,682	-0,111	0,141
-492,781	9,310	0,047	-0,025
-491,766	800,000	0,034	-0,090
-490,751	-72,004	-0,124	-0,033
-489,737	-200,000	-0,009	-0,102
-488,722	800,000	0,073	0,146
-487,708	800,000	0,060	0,143
-486,693	413,344	-0,077	-0,118
-485,678	-200,000	-0,012	-0,053
-484,664	384,077	-0,055	-0,082
-483,649	259,449	-0,049	-0,061
-482,635	136,984	-0,088	-0,082
-481,620	-57,000	0,099	0,031
-480,605	359,942	-0,036	0,052
-479,591	-38,855	0,053	-0,020
-478,576	800,000	-0,021	0,053
-477,562	592,036	-0,023	-0,041
-476,547	-200,000	0,008	-0,056
-475,532	800,000	-0,019	-0,050
-474,518	128,405	-0,005	0,004
-473,503	800,000	0,031	0,092
-472,489	244,623	-0,121	0,146
-471,474	-13,256	-0,097	0,045
-470,459	800,000	0,011	-0,026
-469,445	11,986	0,075	-0,041
-468,430	-55,117	-0,033	-0,011
-467,416	800,000	-0,036	0,077
-466,401	-7,421	0,099	0,048
-465,386	56,743	0,018	0,013
-464,372	157,518	0,051	0,051
-463,357	-158,349	-0,062	0,003
-462,343	-200,000	0,005	0,041
-461,328	-124,932	0,041	0,004
-460,313	-51,270	0,097	0,032
-459,299	105,064	0,018	-0,015
-458,284	-200,000	0,027	0,126
-457,270	134,763	0,046	0,042
-456,255	403,186	-0,038	-0,058
-455,241	355,232	-0,014	0,019
-454,226	113,794	0,083	0,072
-453,211	-200,000	0,007	0,048
-452,197	800,000	-0,033	0,092
-451,182	-200,000	-0,055	0,201
-450,168	800,000	-0,009	0,020
-449,153	-36,103	-0,027	0,010
-448,138	217,307	-0,041	0,047
-447,124	-200,000	-0,004	-0,031
-446,109	800,000	-0,120	-0,291
-445,095	-200,000	0,010	-0,077
-444,080	-23,380	0,132	0,056
-443,065	-200,000	0,015	0,181
-442,051	-89,978	0,209	-0,043
-441,036	-200,000	-0,021	-0,114
-440,022	246,499	-0,064	-0,077
-439,007	-200,000	0,001	0,109
-437,992	747,249	0,053	0,103
-436,978	117,429	0,059	0,052
-435,963	800,000	-0,026	0,075
-434,949	585,175	-0,021	-0,038
-433,934	195,936	-0,055	0,060
-432,919	-200,000	-0,007	-0,063
-431,905	-200,000	-0,015	0,082
-430,890	800,000	0,032	0,069
-429,876	-54,470	0,079	-0,026
-428,861	559,814	-0,038	0,066
-427,846	-93,179	-0,081	-0,016
-426,832	62,097	-0,091	-0,065
-425,817	-200,000	-0,003	-0,039
-424,803	-2,866	0,149	0,074
-423,788	-12,637	0,043	0,020
-422,773	562,420	0,094	0,163
-421,759	-117,689	0,211	0,027
-420,744	-200,000	0,007	-0,046
-419,730	20,738	-0,080	0,046
-418,715	-103,592	-0,136	-0,023
-417,701	4,767	-0,148	-0,078
-416,686	-200,000	-0,007	-0,079
-415,671	-200,000	-0,003	-0,035
-414,657	6,523	0,045	0,024
-413,642	181,454	-0,062	0,066
-412,628	800,000	0,056	-0,132
-411,613	-135,488	-0,186	0,016
-410,598	-44,100	0,051	-0,018
-409,584	211,417	0,147	-0,166
-408,569	279,863	0,046	0,059
-407,555	34,720	0,026	0,016
-406,540	-135,779	-0,086	-0,007
-405,525	-84,928	-0,199	0,044
-404,511	14,439	-0,042	-0,023
-403,496	-22,399	0,029	-0,013
-402,482	800,000	-0,023	-0,070
-401,467	176,369	0,137	-0,143
-400,452	-74,379	-0,031	-0,008
-399,438	228,329	0,033	0,038
-398,423	71,963	-0,006	0,004
-397,409	484,887	-0,070	0,115
-396,394	81,293	-0,045	-0,035
-395,379	132,106	0,071	-0,065
-394,365	-200,000	-0,003	0,072
-393,350	14,047	-0,105	-0,058
-392,336	-200,000	0,039	0,199
-391,321	539,010	-0,093	-0,158
-390,306	314,629	-0,117	-0,158
-389,292	-200,000	-0,022	0,178
-388,277	800,000	0,038	0,081
-387,263	153,836	0,075	-0,073
-386,248	25,479	0,029	0,017
-385,233	502,965	0,061	0,102
-384,219	201,486	-0,113	-0,125
-383,204	-104,327	0,146	0,024
-382,190	492,158	-0,018	-0,029
-381,175	-200,000	-0,018	-0,075
-380,160	-112,742	0,086	-0,012
-379,146	-78,839	0,093	-0,022
-378,131	179,089	0,060	0,063
-377,117	-134,899	0,050	0,004
-376,102	57,579	-0,086	-0,060
-375,088	263,056	0,039	-0,049
-374,073	226,303	-0,034	-0,040
-373,058	256,503	0,043	0,053
-372,044	25,040	-0,042	-0,025
-371,029	343,453	0,062	-0,087
-370,015	-200,000	-0,022	0,079
-369,000	-200,000	-0,001	0,135
-367,985	-108,832	-0,149	-0,023
-366,971	800,000	-0,041	-0,093
-365,956	39,654	0,057	-0,036
-364,942	22,070	0,129	-0,075
-363,927	114,317	-0,076	0,066
-362,912	315,721	-0,113	0,152
-361,898	-34,593	-0,111	-0,043
-360,883	112,540	-0,115	-0,099
-359,869	-200,000	0,000	-0,041
-358,854	24,033	0,157	0,093
-357,839	483,113	0,045	0,073
-356,825	-54,925	-0,179	-0,057
-355,810	59,210	-0,016	-0,011
-354,796	342,982	-0,052	-0,073
-353,781	448,536	-0,021	0,033
-352,766	490,144	-0,013	-0,021
-351,752	-200,000	-0,026	0,165
-350,737	-200,000	-0,006	0,117
-349,723	-103,239	0,069	-0,011
-348,708	-200,000	-0,001	0,069
-347,693	-130,974	0,085	0,008
-346,679	81,830	-0,097	-0,075
-345,664	-200,000	0,022	-0,116
-344,650	-200,000	-0,044	0,143
-343,635	-22,584	0,128	0,055
-342,620	97,593	0,103	0,085
-341,606	-200,000	-0,006	-0,081
-340,591	-125,692	-0,116	-0,012
-339,577	-47,837	0,209	-0,072
-338,562	-200,000	0,001	-0,014
-337,548	50,561	0,046	0,031
-336,533	155,743	0,061	0,060
-335,518	-200,000	-0,021	0,123
-334,504	-161,551	0,005	0,000
-333,489	347,332	-0,035	0,049
-332,475	62,801	0,092	-0,066
-331,460	-198,507	-0,123	-0,000
-330,445	800,000	0,028	0,070
-329,431	46,648	0,038	-0,025
-328,416	182,390	0,091	-0,096
-327,402	-200,000	0,038	0,157
-326,387	150,390	-0,116	-0,112
-325,372	55,313	0,051	0,035
-324,358	-181,607	0,067	-0,001
-323,343	-200,000	-0,003	0,141
-322,329	410,261	0,086	0,131
-321,314	296,701	0,087	0,114
-320,299	-200,000	-0,011	0,050
-319,285	-90,497	0,104	-0,021
-318,270	-60,669	-0,073	-0,022
-317,256	-200,000	-0,029	-0,123
-316,241	24,428	0,159	-0,094
-315,226	98,672	0,086	-0,071
-314,212	4,221	-0,060	0,031
-313,197	-200,000	0,033	0,217
-312,183	-156,323	-0,033	-0,001
-311,168	10,715	-0,073	-0,040
-310,153	183,721	-0,111	-0,117
-309,139	44,643	0,063	0,041
-308,124	800,000	-0,015	-0,032
-307,110	800,000	-0,068	0,141
-306,095	-200,000	-0,008	-0,068
-305,080	101,198	-0,064	-0,053
-304,066	105,357	-0,041	0,034
-303,051	-63,323	0,075	-0,022
-302,037	132,252	-0,154	-0,141
-301,022	150,503	0,024	0,023
-300,008	-86,952	-0,085	-0,018
-298,993	383,957	-0,034	-0,050
-297,978	-200,000	-0,018	-0,058
-296,964	474,767	-0,136	-0,220
-295,949	87,728	-0,019	-0,015
-294,935	98,972	-0,086	-0,071
-293,920	4,483	0,040	0,021
-292,905	-26,452	0,043	-0,018
-291,891	-157,952	0,180	0,007
-290,876	494,889	0,012	-0,020
-289,862	800,000	0,025	-0,062
-288,847	19,355	0,061	0,035
-287,832	-58,218	0,187	0,058
-286,818	-200,000	-0,009	0,048
-285,803	-96,878	0,163	0,030
-284,789	149,698	0,095	0,092
-283,774	80,659	-0,032	0,025
-282,759	-200,000	-0,035	-0,148
-281,745	-23,306	-0,061	-0,026
-280,730	529,729	-0,021	-0,036
-279,716	33,027	-0,164	0,101
-278,701	270,598	0,092	0,116
-277,686	791,907	0,072	0,142
-276,672	457,098	0,029	-0,047
-275,657	-200,000	-0,001	0,060
-274,643	766,292	-0,042	0,082
-273,628	194,722	0,050	-0,054
-272,613	-200,000	-0,001	0,112
-271,599	-132,520	-0,107	-0,010
-270,584	-49,809	0,075	0,025
-269,570	63,966	0,130	0,093
-268,555	-48,136	0,114	0,039
-267,540	-119,439	-0,110	0,013
-266,526	800,000	0,027	0,082
-265,511	-92,688	-0,126	-0,025
-264,497	254,415	-0,068	-0,083
-263,482	-200,000	0,059	0,206
-262,467	664,563	-0,009	0,016
-261,453	49,571	-0,113	-0,075
-260,438	-200,000	0,001	0,035
-259,424	506,046	-0,084	-0,138
-258,409	-183,343	-0,067	-0,001
-257,395	800,000	-0,054	-0,157
-256,380	800,000	-0,052	0,158
-255,365	-200,000	0,045	-0,151
-254,351	-200,000	-0,008	-0,132
-253,336	-18,401	0,012	0,005
-252,322	44,485	0,067	-0,044
-251,307	412,995	0,043	-0,065
-250,292	-67,553	0,066	0,018
-249,278	-2,530	0,029	-0,015
-248,263	-200,000	0,003	0,017
-247,249	-200,000	0,025	0,084
-246,234	-200,000	0,024	-0,149
-245,219	59,473	-0,117	-0,082
-244,205	-62,853	-0,215	-0,063
-243,190	463,656	0,093	-0,149
-242,176	-200,000	0,009	-0,088
-241,161	-200,000	0,033	0,113
-240,146	800,000	0,013	0,039
-239,132	-200,000	-0,012	0,092
-238,117	157,480	-0,085	0,084
-237,103	143,177	0,037	-0,035
-236,088	-37,658	-0,165	0,062
-235,073	257,599	0,074	0,091
-234,059	270,710	0,113	0,141
-233,044	332,545	0,054	0,074
-232,030	-30,028	-0,155	-0,062
-231,015	-200,000	-0,015	0,074
-230,000	-11,279	0,142	-0,066
-228,986	-200,000	0,026	-0,122
-227,971	-82,184	0,085	0,019
-226,957	800,000	-0,042	0,097
-225,942	-62,254	0,116	0,034
-224,927	71,539	0,151	0,111
-223,913	182,561	-0,031	-0,032
-222,898	40,608	-0,044	0,028
-221,884	139,663	0,093	-0,087
-220,869	162,882	-0,050	0,050
-219,855	-200,000	-0,002	-0,112
-218,840	-91,013	0,065	-0,013
-217,825	182,994	0,063	-0,066
-216,811	46,070	-0,110	-0,072
-215,796	-200,000	0,027	0,131
-214,782	410,715	0,021	0,031
-213,767	-200,000	0,005	0,029
-212,752	654,578	-0,007	-0,013
-211,738	-36,304	-0,123	-0,047
-210,723	-87,198	0,086	-0,019
-209,709	177,982	-0,126	-0,130
-208,694	-200,000	-0,006	0,032
-207,679	46,782	0,061	-0,040
-206,665	-200,000	-0,029	-0,136
-205,650	-71,050	0,038	-0,010
-204,636	183,006	-0,100	-0,105
-203,621	-200,000	-0,000	0,077
-202,606	186,207	-0,030	-0,032
-201,592	4,121	-0,128	0,066
-200,577	-101,216	0,011	0,002
-199,563	-50,809	0,134	-0,044
-198,548	-200,000	0,013	0,042
-197,533	119,100	-0,030	-0,026
-196,519	-155,306	0,070	-0,003
-195,504	-200,000	0,024	0,092
-194,490	-200,000	0,005	0,089
-193,475	20,198	-0,086	-0,049
-192,460	218,503	-0,035	0,040
-191,446	800,000	-0,024	-0,048
-190,431	800,000	-0,027	0,062
-189,417	189,135	0,079	0,084
-188,402	-200,000	-0,020	0,074
-187,387	473,668	-0,033	0,053
-186,373	800,000	-0,022	-0,062
-185,358	-200,000	-0,007	0,127
-184,344	10,998	-0,101	0,054
-183,329	-200,000	0,059	-0,200
-182,315	-4,662	-0,077	0,037
-181,300	78,655	-0,087	-0,066
-180,285	-200,000	-0,006	-0,128
-179,271	199,428	0,109	0,119
-178,256	-200,000	0,005	0,058
-177,242	-3,518	0,134	-0,066
-176,227	120,464	0,035	0,031
-175,212	800,000	-0,022	-0,064
-174,198	318,763	0,068	0,092
-173,183	-73,344	-0,034	-0,009
-172,169	-40,998	0,085	-0,031
-171,154	758,217	0,022	-0,043
-170,139	-15,466	0,038	0,017
-169,125	800,000	-0,025	-0,057
-168,110	105,610	0,035	-0,029
-167,096	-200,000	-0,029	-0,100
-166,081	339,031	0,022	0,030
-165,066	-115,424	0,078	-0,010
-164,052	-200,000	0,023	0,096
-163,037	-111,810	0,109	-0,015
-162,023	-73,840	0,197	0,050
-161,008	47,869	-0,110	0,072
-159,993	-76,198	-0,041	0,010
-158,979	-155,259	0,044	-0,002
-157,964	250,169	0,072	0,087
-156,950	198,935	-0,055	0,059
-155,935	-28,566	0,067	0,027
-154,920	-81,380	-0,093	0,022
-153,906	-98,854	0,077	0,014
-152,891	-200,000	-0,005	0,020
-151,877	-200,000	-0,151	-0,000
-150,862	-59,802	0,097	0,029
-149,847	-117,936	0,043	0,005
-148,833	380,161	0,120	0,175
-147,818	-140,728	0,213	-0,015
-146,804	340,798	0,032	-0,045
-145,789	-200,000	-0,001	0,017
-144,775	-61,927	-0,130	0,038
-143,760	-200,000	0,007	-0,065
-142,745	-36,240	0,090	-0,034
-141,731	800,000	0,014	-0,039
-140,716	-200,000	-0,005	-0,054
-139,702	800,000	0,003	0,008
-138,687	401,074	0,034	0,051
-137,672	-12,411	-0,149	0,069
-136,658	-121,620	-0,050	0,006
-135,643	-129,171	-0,057	-0,006
-134,629	800,000	-0,046	0,122
-133,614	-155,211	-0,029	-0,001
-132,599	459,267	0,026	-0,041
-131,585	-16,866	0,192	-0,086
-130,570	-46,003	-0,101	-0,035
-129,556	-200,000	-0,005	-0,054
-128,541	800,000	-0,047	-0,135
-127,526	91,942	-0,034	-0,027
-126,512	280,334	0,063	0,080
-125,497	-200,000	-0,019	0,080
-124,483	-200,000	0,043	0,136
-123,468	-200,000	-0,038	0,153
-122,453	7,554	-0,055	0,029
-121,439	-148,587	-0,183	-0,010
-120,424	-15,380	-0,057	-0,026
-119,410	-200,000	-0,008	-0,069
-118,395	274,855	0,122	0,154
-117,380	415,230	-0,047	0,070
-116,366	800,000	0,038	0,075
-115,351	116,914	0,121	-0,105
-114,337	102,401	-0,082	-0,068
-113,322	63,535	0,157	0,111
-112,307	-147,095	0,111	-0,007
-111,293	608,362	-0,056	0,100
-110,278	-32,976	0,180	0,070
-109,264	-11,959	-0,043	0,020
-108,249	800,000	-0,044	-0,116
-107,234	-200,000	0,014	-0,164
-106,220	114,980	-0,120	-0,103
-105,205	-200,000	-0,010	-0,049
-104,191	109,277	0,050	0,042
-103,176	-200,000	-0,000	0,073
-102,162	707,220	-0,015	0,029
-101,147	-200,000	0,011	-0,042
-100,132	-200,000	-0,001	-0,103
-99,118	-147,402	-0,151	-0,009
-98,103	66,263	-0,119	0,085
-97,089	800,000	0,028	0,073
-96,074	12,180	0,151	-0,082
-95,059	-200,000	0,026	-0,123
-94,045	261,611	-0,019	0,024
-93,030	-73,529	0,107	0,027
-92,016	220,164	0,023	0,026
-91,001	25,805	0,058	-0,034
-89,986	50,488	0,071	0,047
-88,972	-200,000	-0,059	0,257
-87,957	-117,361	-0,022	0,003
-86,943	14,483	0,062	-0,034
-85,928	-200,000	-0,017	0,103
-84,913	-157,915	-0,157	0,006
-83,899	-94,720	-0,104	-0,020
-82,884	800,000	-0,057	0,131
-81,870	-200,000	0,062	0,202
-80,855	-100,126	-0,018	0,003
-79,840	-152,010	-0,067	0,003
-78,826	-135,161	-0,050	0,004
-77,811	134,376	-0,028	-0,026
-76,797	-200,000	-0,015	-0,092
-75,782	-200,000	0,008	0,150
-74,767	800,000	-0,069	0,171
-73,753	800,000	-0,025	0,060
-72,738	207,252	-0,059	0,065
-71,724	-57,290	-0,029	0,009
-70,709	125,374	0,064	-0,057
-69,694	608,642	0,064	-0,113
-68,680	-60,488	0,140	0,042
-67,665	-104,912	0,091	0,015
-66,651	510,440	0,031	-0,051
-65,636	-200,000	-0,009	-0,136
-64,622	-82,575	-0,136	-0,031
-63,607	751,137	0,057	-0,108
-62,592	-200,000	0,013	0,082
-61,578	-7,429	-0,159	-0,076
-60,563	-200,000	0,011	-0,069
-59,549	25,598	-0,110	0,064
-58,534	42,048	-1,791	-1,145
-57,519	517,903	-1,211	-2,008
-56,505	-200,000	-0,336	-4,417
-55,490	422,850	0,946	1,439
-54,476	800,000	5,089	11,089
-53,461	-200,000	20,761	328,850
-52,446	800,000	757,228	2322,422
-51,432	550,034	1662,549	2825,205
-50,417	73,473	1664,146	1228,460
-49,403	18,722	1537,239	866,096
-48,388	12,744	1459,935	793,617
-47,373	18,970	1450,838	818,541
-46,359	15,814	1440,375	797,579
-45,344	10,967	1435,927	771,997
-44,330	10,917	1433,934	770,654
-43,315	10,963	1432,115	769,866
-42,300	10,904	1430,479	768,675
-41,286	10,938	1429,022	768,025
-40,271	10,877	1427,957	767,134
-39,257	10,897	1426,768	766,559
-38,242	10,943	1425,544	766,086
-37,227	10,976	1424,326	765,556
-36,213	10,932	1423,301	764,770
-35,198	10,940	1422,188	764,179
-34,184	10,966	1421,263	763,774
-33,169	10,883	1419,864	762,602
-32,154	10,964	1418,856	762,412
-31,140	10,963	1417,659	761,730
-30,125	11,009	1416,422	761,253
-29,111	11,025	1415,323	760,709
-28,096	10,961	1414,175	759,761
-27,082	10,865	1413,150	758,730
-26,067	10,867	1412,175	758,185
-25,052	10,868	1411,163	757,615
-24,038	10,912	1409,995	757,165
-23,023	10,912	1409,043	756,624
-22,009	10,896	1407,820	755,862
-20,994	10,870	1406,981	755,261
-19,979	10,924	1405,976	754,944
-18,965	10,844	1405,181	754,112
-17,950	10,858	1404,263	753,656
-16,936	10,866	1403,437	753,221
-15,921	10,808	1402,432	752,378
-14,906	10,837	1401,407	751,933
-13,892	10,831	1400,434	751,355
-12,877	10,787	1399,841	750,803
-11,863	10,850	1398,896	750,557
-10,848	10,796	1398,078	749,841
-9,833	10,797	1396,990	749,230
-8,819	10,714	1396,225	748,407
-7,804	10,743	1395,203	747,963
-6,790	10,773	1394,169	747,517
-5,775	10,714	1393,411	746,806
-4,760	10,754	1392,387	746,417
-3,746	10,719	1391,433	745,710
-2,731	10,743	1390,501	745,292
-1,717	10,680	1389,696	744,541
-0,702	10,654	1388,080	743,525
0,313	14,721	1301,812	715,945
1,327	31,148	693,000	418,486
2,342	48,150	120,209	79,167
3,356	-0,142	16,513	8,261
4,371	11,283	3,412	1,837
5,386	-20,424	0,804	0,347
6,400	729,423	0,212	0,401
7,415	54,226	-0,279	-0,189
8,429	364,898	-0,240	-0,341
9,444	50,122	-0,364	-0,242
10,459	103,875	-0,285	-0,236
11,473	33,845	-0,397	-0,243
12,488	-36,550	-0,376	-0,142
13,502	114,241	-0,334	-0,287
14,517	-59,392	-0,313	-0,094
15,531	45,830	-0,405	-0,264
16,546	242,345	-0,173	-0,204
17,561	93,946	-0,401	-0,320
18,575	-55,236	-0,248	-0,078
19,590	129,437	-0,239	-0,215
20,604	-16,821	-0,143	-0,063
21,619	35,948	-0,459	-0,284
22,634	105,708	-0,419	-0,349
23,648	122,643	-0,384	-0,338
24,663	134,419	-0,368	-0,336
25,677	32,354	-0,305	-0,185
26,692	12,003	-0,416	-0,224
27,707	-24,124	-0,392	-0,164
28,721	51,139	-0,455	-0,303
29,736	167,568	-0,380	-0,380
30,750	99,606	-0,469	-0,382
31,765	123,993	-0,380	-0,335
32,780	-61,638	-0,552	-0,162
33,794	51,869	-0,334	-0,223
34,809	101,154	-0,342	-0,280
35,823	215,127	-0,241	-0,269
36,838	57,580	-0,526	-0,361
37,853	-76,002	-0,418	-0,103
38,867	-13,225	-0,335	-0,152
39,882	520,454	-0,197	-0,325
40,896	9,857	-0,408	-0,217
41,911	74,005	-0,232	-0,171
42,926	108,066	-0,353	-0,295
43,940	122,761	-0,300	-0,264
44,955	-11,524	-0,392	-0,181
45,969	0,971	-0,433	-0,218
46,984	202,386	-0,211	-0,229
47,999	82,855	-0,309	-0,236
49,013	166,783	-0,396	-0,395
50,028	-55,635	-0,381	-0,119
51,042	43,755	-0,284	-0,182
52,057	116,670	-0,398	-0,343
53,071	49,811	-0,433	-0,286
54,086	2,300	-0,379	-0,192
55,101	131,050	-0,281	-0,253
56,115	64,714	-0,342	-0,242
57,130	-63,616	-0,382	-0,109
58,144	246,002	-0,255	-0,303
59,159	-0,011	-0,421	-0,210
60,174	37,217	-0,507	-0,314
61,188	101,789	-0,357	-0,292
62,203	-34,704	-0,227	-0,087
63,217	24,094	-0,353	-0,204
64,232	112,894	-0,254	-0,216
65,247	63,288	-0,370	-0,260
66,261	117,462	-0,322	-0,278
67,276	89,125	-0,372	-0,290
68,290	-8,156	-0,337	-0,158
69,305	129,954	-0,291	-0,261
70,320	-33,202	-0,403	-0,156
71,334	-80,756	-0,441	-0,102
72,349	86,259	-0,303	-0,234
73,363	95,264	-0,343	-0,274
74,378	352,142	-0,235	-0,327
75,393	-12,575	-0,325	-0,148
76,407	281,204	-0,272	-0,342
77,422	-48,255	-0,369	-0,124
78,436	-36,330	-0,246	-0,092
79,451	8,246	-0,394	-0,207
80,466	-50,701	-0,328	-0,108
81,480	-135,898	-0,358	-0,029
82,495	65,898	-0,236	-0,167
83,509	214,723	-0,279	-0,310
84,524	-13,946	-0,262	-0,118
85,539	54,220	-0,316	-0,213
86,553	38,124	-0,231	-0,144
87,568	-19,211	-0,282	-0,122
88,582	-49,747	-0,336	-0,111
89,597	45,369	-0,297	-0,192
90,611	74,886	-0,254	-0,187
91,626	48,352	-0,241	-0,157
92,641	-2,537	-0,238	-0,116
93,655	-10,287	-0,207	-0,096
94,670	-52,261	-0,332	-0,107
95,684	30,588	-0,245	-0,147
96,699	146,315	-0,239	-0,225
97,714	23,353	-0,251	-0,144
98,728	-1,944	-0,342	-0,167
99,743	-25,647	-0,259	-0,106
100,757	-21,228	-0,337	-0,143
101,772	183,722	-0,257	-0,267
102,787	-16,249	-0,401	-0,177
103,801	66,677	-0,309	-0,220
104,816	24,991	-0,193	-0,112
105,830	-110,992	-0,371	-0,053
106,845	-35,930	-0,242	-0,091
107,860	46,792	-0,324	-0,210
108,874	141,819	-0,301	-0,279
109,889	106,976	-0,291	-0,241
110,903	355,406	-0,135	-0,188
111,918	188,965	-0,230	-0,241
112,933	180,181	-0,143	-0,147
113,947	1,127	-0,207	-0,103
114,962	-6,532	-0,263	-0,125
115,976	108,662	-0,253	-0,211
116,991	800,000	-0,177	-0,371
118,006	22,170	-0,330	-0,188
119,020	-65,576	-0,275	-0,076
120,035	220,664	-0,213	-0,239
121,049	269,271	-0,147	-0,181
122,064	-54,252	-0,318	-0,100
123,079	271,966	-0,236	-0,291
124,093	55,073	-0,251	-0,169
125,108	396,582	-0,202	-0,296
126,122	105,415	-0,219	-0,180
127,137	161,311	-0,222	-0,217
128,151	-40,942	-0,247	-0,089
129,166	26,353	-0,145	-0,084
130,181	102,392	-0,318	-0,259
131,195	152,111	-0,381	-0,363
132,210	-3,165	-0,259	-0,125
133,224	124,593	-0,166	-0,145
134,239	800,000	-0,131	-0,264
135,254	66,753	-0,193	-0,137
136,268	-58,418	-0,302	-0,091
137,283	467,930	-0,173	-0,272
138,297	109,142	-0,230	-0,192
139,312	174,418	-0,207	-0,208
140,327	102,067	-0,250	-0,203
141,341	-144,619	-0,212	0,013
142,356	559,805	-0,150	-0,253
143,370	436,431	-0,098	-0,149
144,385	86,788	-0,320	-0,246
145,400	54,189	-0,301	-0,201
146,414	66,109	-0,197	-0,139
147,429	342,178	-0,155	-0,211
148,443	28,612	-0,225	-0,132
149,458	145,663	-0,162	-0,151
150,473	12,295	-0,146	-0,078
151,487	89,696	-0,207	-0,161
152,502	69,390	-0,237	-0,170
153,516	616,807	-0,261	-0,457
154,531	18,538	-0,355	-0,197
155,546	65,849	-0,269	-0,189
156,560	112,494	-0,179	-0,151
157,575	-136,834	-0,283	0,022
158,589	23,668	-0,333	-0,190
159,604	228,587	-0,281	-0,319
160,619	44,946	-0,257	-0,164
161,633	286,405	-0,220	-0,277
162,648	203,379	-0,173	-0,186
163,662	190,604	-0,128	-0,134
164,677	145,811	-0,203	-0,190
165,692	13,582	-0,215	-0,116
166,706	93,643	-0,184	-0,145
167,721	655,670	-0,106	-0,191
168,735	358,070	-0,233	-0,324
169,750	46,196	-0,208	-0,133
170,764	280,362	-0,201	-0,250
171,779	396,964	-0,110	-0,160
172,794	237,446	-0,117	-0,135
173,808	58,048	-0,203	-0,138
174,823	-21,469	-0,355	-0,150
175,837	5,968	-0,230	-0,118
176,852	488,320	-0,120	-0,191
177,867	-9,263	-0,210	-0,097
178,881	241,509	-0,208	-0,242
179,896	111,756	-0,170	-0,142
180,910	15,189	-0,273	-0,148
181,925	-15,339	-0,298	-0,132
182,940	159,475	-0,236	-0,228
183,954	81,924	-0,235	-0,176
184,969	113,474	-0,137	-0,115
185,983	130,532	-0,171	-0,152
186,998	-41,728	-0,238	-0,084
188,013	-117,251	-0,269	0,034
189,027	-62,851	-0,223	-0,064
190,042	10,243	-0,220	-0,116
191,056	140,223	-0,264	-0,241
192,071	800,000	-0,083	-0,190
193,086	-74,875	-0,309	-0,076
194,100	12,299	-0,158	-0,084
195,115	-35,494	-0,161	-0,060
196,129	167,444	-0,242	-0,239
197,144	741,161	-0,206	-0,386
198,159	206,298	-0,194	-0,209
199,173	119,473	-0,225	-0,193
200,188	353,160	-0,100	-0,138
201,202	212,101	-0,112	-0,122
202,217	50,650	-0,191	-0,125
203,232	-153,184	-0,236	-0,011
204,246	-200,000	-0,159	0,000
205,261	-188,360	-0,326	0,003
206,275	256,331	-0,108	-0,128
207,290	-5,920	-0,130	-0,061
208,304	268,069	-0,167	-0,203
209,319	171,577	-0,200	-0,199
210,334	-62,602	-0,362	-0,103
211,348	-68,723	-0,174	-0,046
212,363	150,429	-0,218	-0,205
213,377	12,267	-0,201	-0,107
214,392	-51,593	-0,098	-0,031
215,407	-28,569	-0,162	-0,064
216,421	175,102	-0,243	-0,244
217,436	28,039	-0,200	-0,117
218,450	135,844	-0,192	-0,173
219,465	90,583	-0,230	-0,178
220,480	151,872	-0,161	-0,152
221,494	-109,979	-0,245	0,035
222,509	119,809	-0,177	-0,152
223,523	296,971	-0,090	-0,114
224,538	37,121	-0,158	-0,097
225,553	76,960	-0,248	-0,182
226,567	116,388	-0,145	-0,123
227,582	309,849	-0,209	-0,271
228,596	151,865	-0,181	-0,171
229,611	-72,975	-0,105	-0,026
230,626	800,000	-0,049	-0,116
231,640	320,804	-0,224	-0,295
232,655	-103,404	-0,274	-0,044
233,669	-30,996	-0,295	-0,115
234,684	142,818	-0,171	-0,157
235,699	285,967	-0,127	-0,158
236,713	154,892	-0,213	-0,203
237,728	380,162	-0,112	-0,160
238,742	-182,395	-0,281	-0,004
239,757	70,199	-0,194	-0,138
240,772	603,750	-0,083	-0,143
241,786	-26,606	-0,275	-0,111
242,801	-200,000	-0,044	-0,185
243,815	27,897	-0,031	-0,018
244,830	568,927	-0,133	-0,224
245,844	45,750	-0,227	-0,145
246,859	32,304	-0,222	-0,132
247,874	295,341	-0,136	-0,172
248,888	163,782	-0,188	-0,183
249,903	89,787	-0,186	-0,143
250,917	501,800	-0,104	-0,167
251,932	374,294	-0,100	-0,141
252,947	-60,013	-0,130	-0,038
253,961	0,360	-0,266	-0,130
254,976	800,000	-0,112	-0,313
255,990	118,825	-0,163	-0,139
257,005	103,362	-0,192	-0,155
258,020	-81,264	-0,156	-0,035
259,034	6,290	-0,172	-0,088
260,049	136,278	-0,199	-0,179
261,063	384,751	-0,075	-0,107
262,078	-20,100	-0,169	-0,072
263,093	-57,230	-0,200	-0,060
264,107	8,721	-0,172	-0,089
265,122	388,099	-0,105	-0,150
266,136	78,766	-0,243	-0,179
267,151	364,951	-0,157	-0,218
268,166	800,000	-0,069	-0,141
269,180	294,980	-0,012	0,015
270,195	112,770	-0,224	-0,187
271,209	101,609	-0,204	-0,164
272,224	-46,155	-0,274	-0,093
273,239	73,118	-0,039	-0,028
274,253	-122,245	-0,149	0,017
275,268	73,512	-0,190	-0,137
276,282	-73,658	-0,299	-0,074
277,297	800,000	-0,114	-0,227
278,312	138,516	-0,203	-0,183
279,326	-76,186	-0,032	-0,008
280,341	152,287	-0,119	-0,112
281,355	-8,109	-0,184	-0,085
282,370	-38,541	-0,110	-0,040
283,384	51,718	-0,174	-0,114
284,399	104,867	-0,190	-0,154
285,414	105,583	-0,215	-0,175
286,428	-37,329	-0,112	-0,041
287,443	-108,912	-0,186	-0,027
288,457	415,692	-0,020	-0,030
289,472	-1,636	-0,178	-0,086
290,487	34,962	-0,160	-0,096
291,501	-51,204	-0,241	-0,077
292,516	21,716	-0,199	-0,111
293,530	158,462	-0,111	-0,106
294,545	-153,650	-0,133	-0,006
295,560	-96,880	-0,096	-0,017
296,574	800,000	-0,020	-0,048
297,589	3,385	-0,266	-0,133
298,603	-78,405	-0,262	-0,061
299,618	82,035	-0,165	-0,123
300,633	-200,000	-0,015	-0,081
301,647	75,868	-0,201	-0,146
302,662	-42,295	-0,166	0,058
303,676	-59,146	-0,141	-0,042
304,691	534,094	-0,075	-0,122
305,706	76,406	-0,126	-0,092
306,720	800,000	-0,053	-0,109
307,735	-200,000	-0,001	-0,068
308,749	97,069	-0,098	-0,077
309,764	139,044	-0,106	-0,096
310,779	800,000	-0,088	-0,171
311,793	-200,000	-0,007	-0,025
312,808	628,942	-0,093	-0,162
313,822	800,000	-0,122	-0,280
314,837	-77,114	-0,109	-0,026
315,852	-200,000	-0,052	-0,222
316,866	-138,296	-0,129	0,010
317,881	-200,000	0,001	-0,034
318,895	52,208	-0,109	-0,071
319,910	-50,504	-0,260	-0,084
320,925	-63,014	-0,233	-0,066
321,939	258,624	-0,098	-0,116
322,954	750,181	-0,050	-0,094
323,968	-12,801	-0,120	0,053
324,983	-120,524	0,033	-0,004
325,997	253,975	-0,160	-0,187
327,012	-15,197	-0,309	-0,135
328,027	377,323	-0,117	-0,165
329,041	-21,441	-0,203	-0,085
330,056	-148,723	-0,151	-0,008
331,070	-200,000	-0,005	-0,072
332,085	152,141	-0,092	-0,086
333,100	-118,756	-0,137	0,016
334,114	111,048	-0,213	-0,176
335,129	143,798	-0,122	-0,112
336,143	106,056	-0,162	-0,132
337,158	-200,000	-0,029	-0,172
338,173	108,415	-0,069	-0,057
339,187	-90,672	-0,147	0,029
340,202	344,339	-0,062	-0,084
341,216	800,000	-0,097	-0,221
342,231	-43,930	-0,190	-0,065
343,246	800,000	-0,063	-0,187
344,260	-200,000	0,020	-0,087
345,275	-200,000	-0,010	-0,060
346,289	62,816	-0,140	-0,095
347,304	43,887	-0,043	0,027
348,319	365,735	-0,027	-0,037
349,333	-80,048	-0,116	-0,026
350,348	800,000	-0,069	-0,190
351,362	143,818	-0,116	-0,106
352,377	-9,270	-0,154	0,070
353,392	-31,251	-0,081	-0,031
354,406	163,410	-0,127	-0,122
355,421	206,938	1309,349	1397,482
356,435	159,169	1469,403	1397,966
