DTS Sentinel unit serial number:	SN410029Multiplexer serial number:	ORYXHardware model number:	OX2-SRSoftware version number:	ORYX F/W v4,00 Oryx Data Collector v3.7.2.0data status	okinstallation	B3 Nyhavnadifferential loss correction	single-endedforward channel	channel 1reverse channel	N/Adate	2023/11/29time	14:02:30forward acquisition time	300,00reverse acquisition time	0,00gamma	499,1914k internal	0,3211k external	0,3211temperature offset calibration	1,0000default loss term (dB/km)	0,3820temperature slope calibration	1,0000multiplexer offset coefficient	1,0000multiplexer slope coefficient	1,0000fibre end	0,00T internal ref (°C)	10,69T ext. ref 1 (°C)	-3,31T ext. ref 2 (°C)	-3,44length (m)	temperature (°C)	Stokes	anti-Stokes-744,400	466,710	-0,262	-0,427
-743,385	-200,000	-0,059	0,207
-742,371	81,167	-0,240	-0,187
-741,356	-200,000	0,069	0,325
-740,342	374,889	-0,105	-0,155
-739,327	-200,000	-0,057	0,233
-738,312	753,350	-0,111	-0,218
-737,298	-200,000	-0,033	0,269
-736,283	800,000	-0,078	-0,184
-735,269	-200,000	-0,012	0,335
-734,254	27,838	-0,164	-0,100
-733,239	-59,766	-0,271	0,084
-732,225	-200,000	0,049	-0,217
-731,210	-200,000	-0,004	0,117
-730,196	-200,000	-0,007	0,067
-729,181	29,922	-0,042	0,026
-728,167	706,287	-0,045	0,087
-727,152	800,000	-0,046	0,138
-726,137	139,651	-0,038	0,036
-725,123	191,685	-0,013	-0,014
-724,108	4,778	-0,177	-0,094
-723,094	212,831	-0,051	-0,059
-722,079	-159,726	-0,090	-0,004
-721,064	800,000	-0,045	-0,104
-720,050	124,972	0,130	0,118
-719,035	-9,693	-0,038	0,018
-718,021	-13,031	-0,071	0,033
-717,006	-52,940	-0,128	0,042
-715,991	-200,000	-0,026	-0,135
-714,977	123,431	-0,043	-0,039
-713,962	-44,891	-0,177	-0,063
-712,948	142,760	-0,017	-0,016
-711,933	800,000	0,043	0,096
-710,918	-32,430	0,061	0,024
-709,904	17,441	0,062	0,035
-708,889	-83,407	-0,130	0,030
-707,875	95,681	-0,048	0,039
-706,860	714,980	0,024	-0,046
-705,845	-40,992	-0,082	-0,031
-704,831	451,074	-0,057	0,091
-703,816	-67,998	-0,049	-0,014
-702,802	-81,068	-0,067	0,016
-701,787	125,646	-0,024	-0,022
-700,772	502,200	0,051	-0,085
-699,758	-200,000	0,033	-0,145
-698,743	195,230	0,064	0,071
-697,729	-200,000	0,022	-0,100
-696,714	236,820	-0,048	-0,058
-695,699	-133,483	0,115	0,010
-694,685	142,480	-0,092	-0,088
-693,670	340,081	-0,057	-0,081
-692,656	13,486	-0,072	-0,040
-691,641	-104,438	-0,098	0,016
-690,627	-13,665	0,036	0,017
-689,612	800,000	-0,052	-0,124
-688,597	209,988	0,100	-0,114
-687,583	-31,560	-0,198	-0,080
-686,568	-18,793	-0,056	-0,025
-685,554	106,483	0,039	0,034
-684,539	-200,000	0,018	-0,075
-683,524	213,034	0,067	-0,077
-682,510	-18,286	0,144	-0,065
-681,495	-85,639	-0,111	-0,025
-680,481	-200,000	0,017	-0,125
-679,466	105,405	-0,147	-0,126
-678,451	258,880	-0,046	0,058
-677,437	800,000	-0,033	0,087
-676,422	-159,337	0,026	0,001
-675,408	-81,036	-0,033	0,008
-674,393	46,579	0,048	0,032
-673,378	82,720	-0,175	-0,137
-672,364	-200,000	0,010	-0,041
-671,349	166,072	-0,044	-0,045
-670,335	-6,454	0,094	0,046
-669,320	-120,875	0,075	0,009
-668,305	-200,000	0,019	0,145
-667,291	-200,000	-0,017	0,148
-666,276	69,942	-0,106	0,079
-665,262	800,000	-0,044	-0,098
-664,247	266,553	0,019	0,025
-663,232	-200,000	-0,019	-0,164
-662,218	-23,359	-0,017	-0,007
-661,203	-31,984	0,027	-0,011
-660,189	104,869	-0,060	-0,051
-659,174	491,109	0,020	-0,033
-658,159	41,706	-0,083	-0,054
-657,145	-65,977	0,017	-0,005
-656,130	-175,009	0,101	0,002
-655,116	18,035	0,129	-0,074
-654,101	254,739	0,112	0,139
-653,086	800,000	0,031	0,082
-652,072	-200,000	0,027	0,110
-651,057	-171,009	0,067	-0,002
-650,043	-200,000	0,004	-0,180
-649,028	-200,000	-0,037	-0,152
-648,014	-7,576	-0,038	-0,019
-646,999	311,689	0,011	0,014
-645,984	86,744	-0,102	0,081
-644,970	380,098	0,080	-0,119
-643,955	-200,000	0,001	0,012
-642,941	800,000	-0,043	0,124
-641,926	438,174	-0,024	-0,038
-640,911	-7,645	0,116	-0,056
-639,897	-200,000	0,023	0,078
-638,882	136,626	-0,058	0,055
-637,868	194,612	-0,017	-0,019
-636,853	-200,000	-0,000	-0,089
-635,838	-125,546	-0,060	0,007
-634,824	800,000	0,027	-0,073
-633,809	110,338	-0,045	0,039
-632,795	-9,424	0,012	-0,006
-631,780	800,000	-0,049	-0,130
-630,765	800,000	-0,023	-0,059
-629,751	-46,839	-0,033	-0,012
-628,736	64,981	-0,089	-0,065
-627,722	-200,000	-0,001	0,137
-626,707	800,000	-0,024	0,049
-625,692	-15,525	-0,098	-0,045
-624,678	87,362	0,043	0,034
-623,663	-200,000	-0,019	0,104
-622,649	-200,000	-0,032	-0,163
-621,634	-200,000	-0,024	-0,159
-620,619	44,733	-0,022	0,014
-619,605	295,513	0,018	-0,024
-618,590	27,781	0,154	-0,093
-617,576	239,292	-0,052	0,063
-616,561	-8,417	-0,201	-0,097
-615,546	14,630	0,093	-0,052
-614,532	30,382	0,098	0,060
-613,517	-77,837	0,045	0,011
-612,503	-200,000	0,022	0,070
-611,488	544,365	0,035	0,060
-610,474	62,312	0,052	-0,037
-609,459	-87,072	-0,083	-0,018
-608,444	-200,000	0,017	0,073
-607,430	-200,000	-0,022	-0,087
-606,415	67,878	-0,081	0,060
-605,401	99,411	-0,038	0,031
-604,386	139,755	-0,071	0,068
-603,371	585,702	0,012	0,021
-602,357	87,816	0,063	0,050
-601,342	800,000	-0,025	-0,054
-600,328	647,710	0,041	-0,075
-599,313	-200,000	-0,003	-0,070
-598,298	92,226	0,043	-0,035
-597,284	-200,000	0,008	-0,030
-596,269	-104,982	0,087	0,014
-595,255	-200,000	0,000	-0,049
-594,240	-87,611	-0,062	0,013
-593,225	98,799	-0,077	-0,064
-592,211	139,994	0,152	0,145
-591,196	-1,970	-0,083	0,042
-590,182	800,000	0,037	-0,087
-589,167	-200,000	-0,015	-0,109
-588,152	-200,000	0,022	0,097
-587,138	-119,307	-0,084	-0,010
-586,123	391,872	0,020	-0,030
-585,109	151,699	-0,055	-0,054
-584,094	289,716	0,031	-0,040
-583,079	-17,970	-0,088	-0,040
-582,065	-61,586	0,077	0,023
-581,050	-187,652	0,088	-0,001
-580,036	-164,121	-0,145	-0,005
-579,021	-200,000	0,029	-0,207
-578,006	-83,442	-0,121	0,028
-576,992	-200,000	-0,048	-0,170
-575,977	-153,739	0,129	-0,006
-574,963	416,065	0,045	-0,069
-573,948	310,956	-0,048	-0,065
-572,934	-154,291	-0,035	-0,002
-571,919	-191,448	-0,048	0,000
-570,904	-64,727	-0,063	-0,018
-569,890	90,268	-0,091	0,073
-568,875	-13,922	-0,054	-0,025
-567,861	-129,645	-0,065	0,006
-566,846	389,325	-0,005	0,007
-565,831	675,389	0,021	-0,039
-564,817	-95,612	-0,116	0,022
-563,802	-158,318	-0,032	0,001
-562,788	128,035	-0,097	-0,089
-561,773	-200,000	-0,013	-0,186
-560,758	-2,275	0,122	0,062
-559,744	-111,297	0,168	-0,024
-558,729	-200,000	-0,013	-0,084
-557,715	85,989	0,093	-0,074
-556,700	56,262	-0,139	-0,097
-555,685	-200,000	0,013	0,076
-554,671	668,351	0,078	0,147
-553,656	-26,049	-0,100	-0,042
-552,642	81,674	-0,111	-0,087
-551,627	-50,372	0,129	-0,044
-550,612	251,746	0,020	-0,024
-549,598	-200,000	-0,011	-0,057
-548,583	353,999	-0,084	-0,120
-547,569	-200,000	0,017	0,062
-546,554	70,039	0,158	0,117
-545,539	800,000	0,046	0,108
-544,525	267,285	-0,076	-0,096
-543,510	-154,491	0,067	0,003
-542,496	-200,000	-0,002	-0,089
-541,481	52,828	-0,062	0,043
-540,466	38,691	0,035	0,023
-539,452	200,086	0,075	0,083
-538,437	97,443	-0,051	-0,042
-537,423	-200,000	0,018	-0,078
-536,408	-200,000	-0,007	0,025
-535,393	280,714	-0,010	0,013
-534,379	800,000	-0,062	-0,174
-533,364	70,754	0,056	0,042
-532,350	-200,000	-0,010	-0,151
-531,335	302,999	0,013	-0,017
-530,321	447,943	0,039	-0,062
-529,306	702,121	0,064	0,122
-528,291	800,000	0,030	-0,065
-527,277	-19,671	-0,021	0,009
-526,262	-39,930	-0,078	-0,029
-525,248	-200,000	0,007	0,057
-524,233	-6,984	0,062	0,030
-523,218	-200,000	-0,012	0,092
-522,204	-117,372	0,042	-0,005
-521,189	-64,456	-0,104	0,030
-520,175	-200,000	-0,021	-0,079
-519,160	47,170	-0,086	-0,058
-518,145	-83,201	0,073	0,017
-517,131	-109,769	-0,012	0,002
-516,116	-32,833	0,106	-0,042
-515,102	-101,411	-0,062	-0,011
-514,087	182,353	0,018	0,019
-513,072	91,658	-0,095	-0,077
-512,058	-156,308	-0,175	-0,008
-511,043	445,754	-0,078	0,124
-510,029	252,119	-0,081	0,099
-509,014	160,189	0,053	0,053
-507,999	245,456	0,035	0,042
-506,985	562,953	0,004	0,007
-505,970	196,957	0,048	-0,053
-504,956	-84,098	0,028	0,006
-503,941	245,122	0,129	-0,156
-502,926	-3,616	0,072	-0,036
-501,912	33,063	0,090	0,056
-500,897	-158,642	0,029	-0,001
-499,883	800,000	0,017	-0,042
-498,868	-109,193	-0,134	-0,020
-497,853	-21,083	-0,066	-0,029
-496,839	-77,077	-0,154	0,038
-495,824	-104,849	0,067	0,011
-494,810	-200,000	-0,005	-0,039
-493,795	800,000	0,005	0,015
-492,781	-200,000	-0,010	-0,049
-491,766	-200,000	0,037	-0,138
-490,751	-116,437	-0,045	0,006
-489,737	-200,000	0,019	0,127
-488,722	-58,853	-0,070	0,022
-487,708	-146,106	0,107	-0,007
-486,693	-200,000	-0,018	-0,097
-485,678	-200,000	-0,009	-0,056
-484,664	-200,000	-0,006	-0,039
-483,649	-200,000	0,004	-0,051
-482,635	-200,000	0,004	-0,082
-481,620	-128,163	0,053	0,005
-480,605	800,000	-0,042	0,099
-479,591	-200,000	-0,013	0,136
-478,576	74,526	-0,071	0,053
-477,562	528,375	0,021	-0,035
-476,547	-104,272	-0,050	0,008
-475,532	599,189	0,031	-0,056
-474,518	473,481	-0,045	-0,073
-473,503	215,375	0,059	0,068
-472,489	42,327	0,101	-0,066
-471,474	152,616	-0,094	0,092
-470,459	288,511	0,022	-0,029
-469,445	88,279	0,089	-0,071
-468,430	68,610	-0,085	0,062
-467,416	193,864	-0,032	0,035
-466,401	227,668	0,071	0,083
-465,386	59,859	0,174	0,123
-464,372	121,040	-0,085	0,076
-463,357	-200,000	0,023	-0,103
-462,343	452,014	0,092	-0,147
-461,328	-33,197	0,058	-0,023
-460,313	-120,731	0,109	0,013
-459,299	-161,458	0,049	0,002
-458,284	187,758	0,100	0,107
-457,270	800,000	-0,087	-0,185
-456,255	800,000	-0,036	-0,074
-455,241	-200,000	-0,005	-0,068
-454,226	305,404	-0,044	0,059
-453,211	-200,000	0,012	0,061
-452,197	-200,000	-0,016	-0,060
-451,182	86,620	0,039	-0,031
-450,168	-200,000	-0,032	0,130
-449,153	-200,000	-0,001	0,084
-448,138	9,847	0,066	0,036
-447,124	-200,000	0,005	0,107
-446,109	79,890	0,155	-0,120
-445,095	800,000	0,028	0,083
-444,080	158,267	-0,082	-0,081
-443,065	-77,529	0,060	0,015
-442,051	-31,776	-0,136	-0,054
-441,036	-164,953	-0,060	0,002
-440,022	-200,000	0,003	-0,170
-439,007	-200,000	0,012	0,062
-437,992	-104,323	-0,030	-0,005
-436,978	203,081	0,060	-0,066
-435,963	800,000	-0,020	0,046
-434,949	75,643	0,016	-0,012
-433,934	-41,039	-0,076	0,028
-432,919	-200,000	-0,001	-0,038
-431,905	800,000	-0,061	0,143
-430,890	87,662	0,067	0,053
-429,876	147,831	0,073	0,070
-428,861	-200,000	-0,002	-0,043
-427,846	23,653	-0,045	-0,026
-426,832	-200,000	0,001	0,115
-425,817	-10,392	-0,104	-0,049
-424,803	-98,475	0,110	-0,020
-423,788	71,877	-0,019	-0,014
-422,773	83,446	0,091	0,071
-421,759	-150,669	-0,106	-0,006
-420,744	558,707	-0,064	-0,111
-419,730	-77,656	-0,036	-0,009
-418,715	-21,882	0,041	-0,018
-417,701	76,447	0,067	0,051
-416,686	-86,525	0,121	0,026
-415,671	800,000	0,030	0,069
-414,657	73,462	0,086	0,064
-413,642	28,708	0,145	0,087
-412,628	762,494	-0,072	-0,140
-411,613	125,597	-0,042	0,038
-410,598	395,884	-0,097	0,145
-409,584	800,000	-0,014	0,028
-408,569	-69,973	0,074	-0,020
-407,555	-56,027	-0,036	-0,011
-406,540	-41,189	0,116	0,042
-405,525	597,370	0,043	0,077
-404,511	147,402	-0,113	-0,109
-403,496	800,000	0,029	-0,074
-402,482	800,000	0,018	0,051
-401,467	137,035	0,052	-0,049
-400,452	501,158	-0,022	-0,036
-399,438	-200,000	-0,002	0,021
-398,423	-40,899	-0,133	-0,049
-397,409	-200,000	0,015	-0,122
-396,394	486,257	-0,032	-0,052
-395,379	-200,000	0,010	0,105
-394,365	800,000	-0,036	0,091
-393,350	-55,827	0,122	0,039
-392,336	800,000	-0,033	0,065
-391,321	320,660	0,042	0,057
-390,306	300,268	0,084	-0,110
-389,292	265,753	0,088	-0,110
-388,277	271,623	-0,064	-0,081
-387,263	121,129	0,141	0,126
-386,248	167,781	-0,075	0,076
-385,233	159,838	-0,056	0,056
-384,219	31,832	0,161	0,099
-383,204	157,856	-0,062	-0,062
-382,190	47,615	-0,081	-0,054
-381,175	28,829	0,048	-0,029
-380,160	-200,000	-0,001	0,088
-379,146	800,000	0,008	-0,026
-378,131	-200,000	-0,030	0,126
-377,117	-31,596	0,017	0,007
-376,102	115,836	-0,057	-0,050
-375,088	800,000	-0,048	-0,149
-374,073	-200,000	0,009	-0,093
-373,058	414,160	0,064	-0,097
-372,044	-200,000	0,021	0,087
-371,029	800,000	-0,032	0,090
-370,015	-91,810	-0,119	0,024
-369,000	56,012	-0,059	-0,041
-367,985	800,000	0,017	-0,046
-366,971	-113,517	-0,128	0,018
-365,956	-61,293	0,058	0,017
-364,942	641,633	0,032	0,058
-363,927	127,672	0,167	0,152
-362,912	-200,000	0,025	0,130
-361,898	-133,919	-0,070	-0,006
-360,883	-44,581	-0,124	0,044
-359,869	125,936	-0,034	-0,031
-358,854	20,695	-0,033	0,019
-357,839	-20,599	0,050	0,022
-356,825	800,000	0,035	-0,107
-355,810	173,851	-0,034	0,035
-354,796	249,315	0,047	0,057
-353,781	117,709	-0,068	0,060
-352,766	192,164	0,096	-0,104
-351,752	-200,000	-0,006	0,062
-350,737	-133,443	-0,050	0,004
-349,723	120,675	0,115	0,102
-348,708	-57,114	-0,124	0,039
-347,693	-86,674	-0,058	0,013
-346,679	-200,000	-0,027	-0,139
-345,664	-200,000	-0,030	-0,133
-344,650	800,000	-0,076	-0,159
-343,635	-9,181	-0,019	-0,009
-342,620	-200,000	-0,014	-0,177
-341,606	-164,409	0,140	0,004
-340,591	800,000	-0,026	0,064
-339,577	-200,000	0,038	0,207
-338,562	-200,000	0,031	0,189
-337,548	59,231	-0,108	-0,076
-336,533	148,437	-0,078	-0,076
-335,518	800,000	-0,058	0,140
-334,504	57,978	0,048	0,034
-333,489	-25,360	-0,038	0,016
-332,475	274,149	0,022	0,028
-331,460	472,672	-0,041	0,065
-330,445	-78,436	0,078	-0,019
-329,431	-45,608	0,075	-0,026
-328,416	-98,170	0,090	0,016
-327,402	800,000	0,070	0,139
-326,387	-200,000	0,018	-0,124
-325,372	-200,000	-0,001	-0,145
-324,358	38,362	-0,146	-0,093
-323,343	112,068	0,113	0,098
-322,329	800,000	-0,063	0,132
-321,314	-135,153	0,039	0,003
-320,299	96,871	-0,100	0,081
-319,285	-159,883	0,097	-0,004
-318,270	-29,831	0,031	0,013
-317,256	-200,000	0,003	-0,028
-316,241	-200,000	0,018	-0,082
-315,226	221,291	0,042	0,048
-314,212	-200,000	0,032	0,158
-313,197	800,000	-0,018	-0,048
-312,183	-200,000	-0,022	-0,070
-311,168	-157,542	-0,066	-0,003
-310,153	11,399	-0,177	-0,096
-309,139	-200,000	0,006	-0,029
-308,124	-88,436	0,047	0,010
-307,110	-200,000	0,017	0,120
-306,095	-29,082	-0,057	-0,023
-305,080	771,969	0,024	0,046
-304,066	-112,370	-0,187	-0,026
-303,051	-200,000	-0,008	0,037
-302,037	-55,918	0,049	-0,015
-301,022	800,000	-0,016	0,033
-300,008	-200,000	0,003	-0,023
-298,993	800,000	0,048	0,106
-297,978	419,600	0,051	-0,078
-296,964	20,944	-0,121	0,070
-295,949	-200,000	-0,004	-0,024
-294,935	-200,000	-0,011	-0,167
-293,920	-200,000	-0,029	0,121
-292,905	-158,726	0,131	-0,005
-291,891	-132,402	0,123	-0,011
-290,876	800,000	0,021	0,043
-289,862	179,405	0,022	-0,023
-288,847	-200,000	0,029	-0,131
-287,832	-83,691	0,057	-0,013
-286,818	383,482	-0,019	0,027
-285,803	-46,258	0,056	0,020
-284,789	800,000	0,020	0,049
-283,774	800,000	0,048	-0,110
-282,759	524,700	0,055	-0,093
-281,745	-43,702	-0,219	0,078
-280,730	259,191	0,025	-0,031
-279,716	-200,000	0,005	0,051
-278,701	125,236	0,040	0,036
-277,686	-37,637	-0,119	0,045
-276,672	-7,001	0,034	0,016
-275,657	-129,727	-0,028	-0,003
-274,643	-13,639	-0,144	-0,066
-273,628	470,151	-0,070	-0,112
-272,613	183,068	-0,056	0,059
-271,599	-200,000	-0,010	0,043
-270,584	-200,000	-0,004	0,126
-269,570	207,597	0,135	0,150
-268,555	-200,000	-0,042	0,157
-267,540	-92,187	-0,191	-0,038
-266,526	-140,956	-0,097	-0,007
-265,511	344,145	-0,036	0,051
-264,497	-51,072	-0,118	0,039
-263,482	800,000	0,038	0,077
-262,467	96,008	-0,066	-0,053
-261,453	-127,116	0,164	0,017
-260,438	800,000	0,037	-0,104
-259,424	660,516	0,016	-0,029
-258,409	90,369	-0,077	-0,061
-257,395	800,000	-0,060	0,121
-256,380	800,000	0,057	0,117
-255,365	-154,171	0,093	-0,004
-254,351	-63,073	0,045	-0,013
-253,336	157,261	0,097	0,095
-252,322	-117,637	-0,192	0,024
-251,307	-22,059	0,041	0,018
-250,292	43,165	0,093	0,060
-249,278	-47,903	0,046	0,016
-248,263	-29,722	0,103	-0,042
-247,249	246,355	0,124	-0,148
-246,234	18,566	-0,047	0,027
-245,219	-200,000	-0,023	0,089
-244,205	800,000	-0,016	-0,038
-243,190	-200,000	-0,010	-0,227
-242,176	286,874	-0,061	0,078
-241,161	-200,000	0,009	0,037
-240,146	215,676	0,064	-0,072
-239,132	145,020	-0,067	-0,063
-238,117	-200,000	-0,011	-0,106
-237,103	-21,374	0,022	-0,009
-236,088	-158,860	0,012	-0,000
-235,073	0,479	0,046	0,023
-234,059	-86,770	-0,022	0,005
-233,044	800,000	-0,021	-0,058
-232,030	69,712	0,073	0,053
-231,015	-43,268	-0,184	-0,066
-230,000	-200,000	0,009	0,097
-228,986	334,206	-0,018	-0,025
-227,971	144,395	0,057	-0,054
-226,957	18,347	0,087	0,049
-225,942	-200,000	0,006	-0,066
-224,927	-53,316	0,100	-0,032
-223,913	54,778	0,043	-0,030
-222,898	800,000	0,032	-0,091
-221,884	336,015	0,019	0,026
-220,869	685,502	0,020	0,037
-219,855	-200,000	-0,028	0,151
-218,840	174,668	0,038	0,039
-217,825	84,824	-0,144	-0,112
-216,811	-200,000	-0,028	-0,098
-215,796	-187,526	-0,135	-0,001
-214,782	0,655	-0,079	0,040
-213,767	27,128	0,134	-0,080
-212,752	-143,863	0,105	-0,007
-211,738	-200,000	-0,023	0,084
-210,723	119,091	-0,051	0,045
-209,709	-46,959	0,096	0,033
-208,694	73,849	-0,036	0,027
-207,679	-200,000	0,006	-0,117
-206,665	507,941	0,086	0,141
-205,650	-52,203	-0,059	0,019
-204,636	9,882	-0,090	0,049
-203,621	222,970	0,063	0,072
-202,606	800,000	-0,014	-0,042
-201,592	-60,836	0,061	-0,018
-200,577	-49,597	0,105	-0,035
-199,563	800,000	0,033	-0,098
-198,548	800,000	0,029	-0,063
-197,533	-200,000	0,023	0,082
-196,519	-170,920	0,054	-0,001
-195,504	-200,000	0,022	-0,145
-194,490	-24,540	-0,070	-0,029
-193,475	756,285	-0,038	-0,074
-192,460	112,227	0,081	-0,069
-191,446	345,651	0,084	0,117
-190,431	800,000	-0,060	0,120
-189,417	294,230	0,096	0,125
-188,402	-22,539	-0,109	-0,046
-187,387	-200,000	-0,012	0,070
-186,373	234,265	0,055	-0,064
-185,358	11,441	0,060	0,032
-184,344	-200,000	0,027	0,110
-183,329	-200,000	0,003	0,116
-182,315	694,878	0,044	0,082
-181,300	800,000	-0,034	-0,077
-180,285	293,403	0,030	-0,040
-179,271	575,486	-0,047	-0,082
-178,256	150,783	0,106	0,102
-177,242	691,337	0,036	0,067
-176,227	312,711	0,024	0,032
-175,212	415,957	-0,164	0,249
-174,198	77,364	0,213	0,161
-173,183	763,443	-0,069	0,134
-172,169	127,601	-0,079	-0,072
-171,154	27,136	-0,044	0,026
-170,139	800,000	-0,025	0,077
-169,125	478,355	-0,012	0,019
-168,110	-91,592	0,084	0,017
-167,096	-35,443	0,106	-0,041
-166,081	-200,000	0,003	0,092
-165,066	800,000	0,026	-0,066
-164,052	8,913	0,037	-0,020
-163,037	-185,816	0,058	-0,001
-162,023	-101,122	0,053	-0,009
-161,008	800,000	-0,052	0,129
-159,993	88,453	0,044	0,035
-158,979	8,975	0,085	-0,046
-157,964	99,414	-0,103	-0,084
-156,950	142,826	-0,060	-0,056
-155,935	41,173	0,019	0,012
-154,920	800,000	0,065	0,172
-153,906	-152,505	-0,150	0,007
-152,891	38,143	-0,119	-0,075
-151,877	-200,000	0,014	0,057
-150,862	800,000	-0,068	-0,133
-149,847	800,000	-0,041	-0,081
-148,833	-200,000	-0,019	0,063
-147,818	-110,979	0,026	0,004
-146,804	-90,544	-0,083	-0,017
-145,789	1,768	0,131	0,067
-144,775	61,073	-0,146	0,102
-143,760	-200,000	-0,033	-0,104
-142,745	-200,000	0,008	-0,064
-141,731	-67,962	0,208	0,057
-140,716	278,480	0,033	-0,042
-139,702	-200,000	-0,023	0,109
-138,687	75,276	-0,105	0,078
-137,672	141,380	0,121	0,113
-136,658	800,000	0,029	-0,070
-135,643	800,000	-0,054	-0,117
-134,629	-200,000	0,011	0,041
-133,614	-2,915	0,114	-0,056
-132,599	81,428	0,045	-0,034
-131,585	-71,101	0,161	0,043
-130,570	800,000	0,061	0,166
-129,556	20,323	-0,024	-0,014
-128,541	-200,000	0,009	-0,049
-127,526	-200,000	0,001	-0,007
-126,512	-200,000	-0,014	0,119
-125,497	-74,951	0,069	-0,017
-124,483	246,655	-0,052	0,063
-123,468	383,410	-0,034	-0,050
-122,453	511,765	-0,075	-0,123
-121,439	119,246	-0,081	-0,071
-120,424	-156,819	0,127	0,005
-119,410	115,141	0,074	-0,064
-118,395	139,391	0,102	-0,095
-117,380	656,578	0,027	0,050
-116,366	-200,000	-0,023	-0,122
-115,351	342,043	0,073	-0,101
-114,337	1,553	-0,128	0,065
-113,322	800,000	-0,047	-0,100
-112,307	800,000	-0,038	0,090
-111,293	119,011	0,151	-0,132
-110,278	800,000	0,039	0,086
-109,264	-104,839	-0,161	0,026
-108,249	-108,035	-0,168	-0,026
-107,234	-167,949	-0,076	0,002
-106,220	800,000	0,027	-0,055
-105,205	139,946	0,072	0,067
-104,191	70,384	0,228	0,166
-103,176	800,000	-0,048	0,096
-102,162	800,000	0,038	0,083
-101,147	255,423	0,013	0,016
-100,132	7,349	0,039	0,021
-99,118	800,000	0,017	0,048
-98,103	-39,683	0,073	-0,027
-97,089	6,388	0,163	0,085
-96,074	800,000	0,028	-0,074
-95,059	-57,014	0,134	-0,042
-94,045	-114,480	-0,122	0,016
-93,030	169,230	-0,123	-0,124
-92,016	-200,000	-0,009	0,037
-91,001	219,168	0,078	-0,088
-89,986	-200,000	0,006	0,029
-88,972	800,000	-0,012	-0,023
-87,957	800,000	-0,042	0,106
-86,943	110,728	-0,061	0,052
-85,928	125,364	-0,064	-0,057
-84,913	800,000	-0,027	-0,077
-83,899	240,280	0,022	-0,026
-82,884	-200,000	0,002	0,097
-81,870	474,518	0,087	0,139
-80,855	-200,000	0,027	0,281
-79,840	-124,808	-0,075	-0,008
-78,826	220,922	0,046	-0,052
-77,811	800,000	-0,070	0,204
-76,797	-200,000	0,009	-0,071
-75,782	-112,468	0,116	-0,016
-74,767	-46,736	-0,094	0,032
-73,753	-20,184	0,138	-0,060
-72,738	164,552	-0,068	-0,068
-71,724	-112,636	0,062	0,009
-70,709	-61,198	-0,157	-0,046
-69,694	-200,000	0,001	-0,045
-68,680	-70,990	0,059	0,016
-67,665	800,000	0,043	-0,115
-66,651	-200,000	-0,027	0,107
-65,636	-200,000	0,033	-0,123
-64,622	800,000	0,024	-0,051
-63,607	-200,000	0,012	-0,153
-62,592	-63,804	0,064	0,018
-61,578	-200,000	-0,005	0,071
-60,563	377,077	-0,066	0,095
-59,549	-74,641	-0,216	0,054
-58,534	16,760	-1,912	-1,065
-57,519	515,142	-1,232	-2,038
-56,505	-200,000	-0,322	-4,333
-55,490	425,753	0,825	1,259
-54,476	800,000	5,076	11,506
-53,461	-200,000	20,793	329,717
-52,446	800,000	757,149	2324,575
-51,432	550,852	1661,429	2824,031
-50,417	73,348	1663,145	1226,660
-49,403	18,510	1536,152	864,115
-48,388	12,508	1459,099	791,747
-47,373	19,008	1449,911	817,918
-46,359	15,737	1439,345	796,370
-45,344	10,795	1435,076	770,452
-44,330	10,718	1433,081	768,985
-43,315	10,751	1431,024	768,008
-42,300	10,773	1429,504	767,267
-41,286	10,751	1428,141	766,401
-40,271	10,750	1426,710	765,598
-39,257	10,713	1425,619	764,804
-38,242	10,717	1424,778	764,342
-37,227	10,739	1423,696	763,835
-36,213	10,759	1422,295	763,151
-35,198	10,785	1421,194	762,649
-34,184	10,838	1420,348	762,414
-33,169	10,776	1418,948	761,344
-32,154	10,860	1417,806	761,095
-31,140	10,824	1416,409	760,146
-30,125	10,864	1415,544	759,838
-29,111	10,809	1414,486	758,980
-28,096	10,806	1413,098	758,192
-27,082	10,738	1412,116	757,317
-26,067	10,722	1411,188	756,714
-25,052	10,738	1410,119	756,187
-24,038	10,759	1408,779	755,537
-23,023	10,728	1408,180	755,038
-22,009	10,732	1407,016	754,405
-20,994	10,695	1405,900	753,604
-19,979	10,715	1405,227	753,306
-18,965	10,652	1404,340	752,505
-17,950	10,629	1403,403	751,869
-16,936	10,630	1402,577	751,401
-15,921	10,605	1401,415	750,634
-14,906	10,582	1400,548	750,030
-13,892	10,648	1399,566	749,780
-12,877	10,645	1398,620	749,232
-11,863	10,631	1397,895	748,748
-10,848	10,563	1397,033	747,942
-9,833	10,576	1396,140	747,495
-8,819	10,519	1395,333	746,766
-7,804	10,520	1394,498	746,294
-6,790	10,541	1393,263	745,704
-5,775	10,556	1392,187	745,167
-4,760	10,562	1391,122	744,596
-3,746	10,538	1390,567	744,159
-2,731	10,539	1389,579	743,604
-1,717	10,513	1388,863	743,072
-0,702	10,503	1386,908	741,950
0,313	14,546	1300,681	714,323
1,327	30,754	692,617	417,221
2,342	47,828	120,112	78,953
3,356	0,191	16,475	8,258
4,371	15,012	3,331	1,834
5,386	-12,870	0,889	0,407
6,400	-200,000	0,075	0,427
7,415	144,882	-0,101	-0,095
8,429	43,443	-0,342	-0,220
9,444	79,416	-0,314	-0,237
10,459	-200,000	-0,043	-0,139
11,473	-25,506	-0,320	-0,133
12,488	85,621	-0,239	-0,185
13,502	-14,251	-0,271	-0,123
14,517	160,289	-0,239	-0,235
15,531	96,712	-0,372	-0,300
16,546	326,187	-0,220	-0,297
17,561	140,496	-0,484	-0,451
18,575	-102,050	-0,213	-0,036
19,590	363,542	-0,125	-0,177
20,604	-46,581	-0,227	-0,078
21,619	-8,421	-0,436	-0,206
22,634	213,948	-0,299	-0,334
23,648	138,306	-0,406	-0,375
24,663	75,436	-0,381	-0,282
25,677	119,947	-0,338	-0,295
26,692	129,372	-0,311	-0,280
27,707	-17,461	-0,332	-0,146
28,721	107,761	-0,444	-0,372
29,736	244,191	-0,345	-0,409
30,750	66,831	-0,361	-0,258
31,765	62,702	-0,365	-0,256
32,780	82,938	-0,221	-0,169
33,794	64,858	-0,428	-0,303
34,809	-28,089	-0,340	-0,138
35,823	0,455	-0,365	-0,183
36,838	130,936	-0,385	-0,347
37,853	332,248	-0,278	-0,378
38,867	2,720	-0,331	-0,168
39,882	2,871	-0,480	-0,244
40,896	-46,303	-0,396	-0,136
41,911	70,863	-0,289	-0,210
42,926	35,198	-0,383	-0,235
43,940	168,020	-0,238	-0,238
44,955	284,416	-0,233	-0,296
45,969	324,107	-0,274	-0,369
46,984	37,493	-0,344	-0,214
47,999	4,786	-0,295	-0,152
49,013	154,670	-0,224	-0,217
50,028	60,023	-0,383	-0,265
51,042	46,240	-0,303	-0,197
52,057	-5,134	-0,335	-0,161
53,071	-58,265	-0,287	-0,087
54,086	218,993	-0,201	-0,225
55,101	103,412	-0,310	-0,255
56,115	583,690	-0,178	-0,307
57,130	-3,581	-0,399	-0,194
58,144	60,616	-0,365	-0,253
59,159	-38,844	-0,367	-0,135
60,174	23,579	-0,432	-0,249
61,188	144,330	-0,401	-0,376
62,203	-0,548	-0,447	-0,222
63,217	37,891	-0,356	-0,221
64,232	-71,178	-0,357	-0,093
65,247	-9,967	-0,225	-0,105
66,261	365,031	-0,265	-0,375
67,276	135,180	-0,421	-0,384
68,290	-103,299	-0,234	-0,038
69,305	208,010	-0,318	-0,349
70,320	-25,120	-0,299	-0,124
71,334	-39,699	-0,298	-0,109
72,349	5,354	-0,386	-0,199
73,363	67,009	-0,256	-0,182
74,378	43,091	-0,244	-0,155
75,393	382,865	-0,193	-0,279
76,407	40,689	-0,233	-0,147
77,422	419,620	-0,177	-0,266
78,436	49,561	-0,302	-0,199
79,451	108,527	-0,321	-0,268
80,466	18,066	-0,209	-0,116
81,480	25,843	-0,328	-0,191
82,495	317,864	-0,285	-0,379
83,509	-76,660	-0,254	-0,062
84,524	-134,258	-0,292	-0,025
85,539	275,813	-0,129	-0,161
86,553	-38,969	-0,287	-0,105
87,568	73,809	-0,213	-0,156
88,582	183,145	-0,290	-0,300
89,597	101,610	-0,284	-0,232
90,611	157,444	-0,309	-0,299
91,626	-39,643	-0,192	-0,070
92,641	99,544	-0,203	-0,164
93,655	113,423	-0,300	-0,255
94,670	322,219	-0,140	-0,187
95,684	128,210	-0,216	-0,192
96,699	154,019	-0,226	-0,217
97,714	7,919	-0,311	-0,163
98,728	62,926	-0,209	-0,146
99,743	-0,340	-0,170	-0,084
100,757	181,395	-0,308	-0,317
101,772	63,407	-0,300	-0,210
102,787	185,138	-0,256	-0,266
103,801	154,497	-0,294	-0,282
104,816	-46,350	-0,289	-0,099
105,830	40,432	-0,165	-0,104
106,845	-4,871	-0,355	-0,170
107,860	12,969	-0,312	-0,168
108,874	5,434	-0,307	-0,158
109,889	211,394	-0,249	-0,274
110,903	251,686	-0,181	-0,215
111,918	233,040	-0,239	-0,274
112,933	58,965	-0,296	-0,203
113,947	255,905	-0,090	-0,108
114,962	-105,523	-0,234	-0,037
115,976	800,000	-0,160	-0,314
116,991	-79,490	-0,373	-0,087
118,006	84,296	-0,228	-0,174
119,020	81,277	-0,286	-0,216
120,035	14,123	-0,305	-0,166
121,049	-158,565	-0,149	0,006
122,064	151,092	-0,227	-0,215
123,079	8,093	-0,358	-0,187
124,093	-36,506	-0,302	-0,113
125,108	-57,261	-0,319	-0,097
126,122	107,263	-0,252	-0,209
127,137	77,828	-0,203	-0,151
128,151	-77,901	-0,231	-0,055
129,166	28,241	-0,292	-0,172
130,181	-24,805	-0,237	-0,098
131,195	-50,561	-0,332	-0,109
132,210	54,875	-0,271	-0,182
133,224	104,404	-0,225	-0,185
134,239	-37,434	-0,195	-0,072
135,254	-179,640	-0,230	0,003
136,268	126,478	-0,300	-0,265
137,283	43,145	-0,263	-0,167
138,297	181,106	-0,153	-0,157
139,312	-54,175	-0,262	-0,083
140,327	-19,010	-0,431	-0,186
141,341	102,168	-0,285	-0,232
142,356	127,668	-0,271	-0,240
143,370	139,854	-0,148	-0,135
144,385	77,775	-0,212	-0,157
145,400	135,068	-0,214	-0,194
146,414	253,559	-0,128	-0,153
147,429	65,552	-0,212	-0,149
148,443	529,588	-0,160	-0,265
149,458	316,979	-0,174	-0,230
150,473	-35,499	-0,272	-0,102
151,487	-13,534	-0,169	-0,076
152,502	-70,942	-0,284	-0,074
153,516	324,654	-0,127	-0,169
154,531	-53,031	-0,274	-0,087
155,546	237,199	-0,151	-0,175
156,560	156,715	-0,177	-0,170
157,575	676,081	-0,109	-0,198
158,589	60,231	-0,169	-0,116
159,604	-83,562	-0,228	-0,050
160,619	43,899	-0,262	-0,167
161,633	245,251	-0,145	-0,170
162,648	-20,980	-0,196	-0,083
163,662	-55,799	-0,265	-0,082
164,677	143,138	-0,270	-0,250
165,692	-143,191	-0,153	-0,010
166,706	204,961	-0,275	-0,297
167,721	-110,255	-0,242	0,035
168,735	192,398	-0,198	-0,208
169,750	800,000	-0,104	-0,265
170,764	27,834	-0,184	-0,107
171,779	37,758	-0,263	-0,162
172,794	800,000	-0,059	-0,124
173,808	253,566	-0,199	-0,236
174,823	56,551	-0,211	-0,142
175,837	239,337	-0,159	-0,184
176,852	160,016	-0,297	-0,287
177,867	214,866	-0,155	-0,171
178,881	12,284	-0,219	-0,117
179,896	-51,331	-0,213	-0,069
180,910	-13,513	-0,210	-0,094
181,925	198,306	-0,194	-0,206
182,940	26,607	-0,303	-0,176
183,954	327,071	-0,100	-0,133
184,969	800,000	-0,117	-0,275
185,983	18,295	-0,261	-0,144
186,998	27,319	-0,253	-0,147
188,013	158,428	-0,237	-0,228
189,027	157,674	-0,324	-0,311
190,042	118,544	-0,219	-0,188
191,056	35,886	-0,186	-0,113
192,071	-6,002	-0,224	-0,106
193,086	61,684	-0,229	-0,158
194,100	-83,960	-0,297	-0,065
195,115	-2,335	-0,279	-0,135
196,129	144,637	-0,219	-0,203
197,144	37,928	-0,190	-0,117
198,159	80,298	-0,206	-0,154
199,173	96,415	-0,259	-0,205
200,188	71,817	-0,182	-0,131
201,202	96,964	-0,072	-0,057
202,217	89,298	-0,243	-0,188
203,232	-62,821	-0,249	-0,071
204,246	74,743	-0,352	-0,256
205,261	-64,580	-0,225	-0,063
206,275	72,871	-0,183	-0,132
207,290	319,452	-0,168	-0,221
208,304	391,481	-0,148	-0,213
209,319	164,963	-0,175	-0,171
210,334	-7,072	-0,256	-0,120
211,348	-131,124	-0,214	-0,019
212,363	246,571	-0,269	-0,315
213,377	-28,466	-0,259	-0,103
214,392	559,924	-0,164	-0,276
215,407	11,713	-0,179	-0,095
216,421	470,429	-0,196	-0,305
217,436	49,672	-0,140	-0,091
218,450	68,630	-0,180	-0,128
219,465	138,102	-0,109	-0,099
220,480	-54,844	-0,121	-0,038
221,494	113,649	-0,126	-0,106
222,509	130,993	-0,175	-0,156
223,523	206,976	-0,149	-0,161
224,538	120,150	-0,225	-0,193
225,553	-108,850	-0,235	-0,034
226,567	44,330	-0,211	-0,134
227,582	123,379	-0,127	-0,110
228,596	-0,316	-0,180	-0,088
229,611	274,185	-0,100	-0,122
230,626	-17,512	-0,114	-0,049
231,640	281,519	-0,170	-0,211
232,655	-66,108	-0,270	-0,074
233,669	324,268	-0,171	-0,226
234,684	128,238	-0,164	-0,144
235,699	-28,698	-0,240	-0,095
236,713	-15,842	-0,188	-0,082
237,728	-144,245	-0,054	-0,003
238,742	419,306	-0,144	-0,213
239,757	-180,071	-0,218	-0,003
240,772	-146,968	-0,182	0,011
241,786	800,000	-0,055	-0,115
242,801	169,449	-0,135	-0,133
243,815	-92,448	-0,118	-0,023
244,830	71,241	-0,214	-0,153
245,844	-40,557	-0,317	-0,113
246,859	120,073	-0,174	-0,149
247,874	291,030	-0,178	-0,224
248,888	401,563	-0,265	-0,385
249,903	251,441	-0,201	-0,236
250,917	59,124	-0,158	-0,107
251,932	237,409	-0,143	-0,164
252,947	-200,000	0,001	-0,056
253,961	172,036	-0,155	-0,154
254,976	800,000	-0,063	-0,162
255,990	-35,974	-0,221	-0,082
257,005	580,006	-0,073	-0,124
258,020	-86,824	-0,085	0,018
259,034	217,715	-0,173	-0,190
260,049	192,158	-0,184	-0,192
261,063	-48,584	-0,153	-0,050
262,078	146,438	-0,229	-0,212
263,093	86,763	-0,146	-0,111
264,107	150,156	-0,160	-0,150
265,122	13,359	-0,161	-0,086
266,136	56,201	-0,151	-0,101
267,151	-39,317	-0,127	-0,046
268,166	27,864	-0,213	-0,124
269,180	-5,723	-0,161	-0,076
270,195	-200,000	0,092	-0,282
271,209	-50,081	-0,187	-0,061
272,224	165,508	-0,253	-0,247
273,239	347,993	-0,081	-0,110
274,253	251,020	-0,110	-0,128
275,268	202,463	-0,132	-0,141
276,282	31,350	-0,225	-0,133
277,297	-14,410	-0,242	-0,107
278,312	151,522	-0,156	-0,146
279,326	3,554	-0,133	-0,066
280,341	-115,983	-0,210	0,027
281,355	-168,191	-0,126	0,003
282,370	391,364	-0,153	-0,220
283,384	235,345	-0,156	-0,177
284,399	18,895	-0,232	-0,128
285,414	91,716	-0,156	-0,121
286,428	-133,929	-0,148	0,012
287,443	81,656	-0,069	-0,051
288,457	-200,000	-0,003	-0,049
289,472	5,740	-0,166	-0,084
290,487	-35,929	-0,223	-0,082
291,501	-105,301	-0,142	0,022
292,516	178,539	-0,149	-0,150
293,530	147,459	-0,163	-0,151
294,545	-108,805	-0,117	-0,017
295,560	302,360	-0,080	-0,102
296,574	237,873	-0,068	-0,078
297,589	-138,572	-0,195	0,015
298,603	132,429	-0,202	-0,179
299,618	-141,978	-0,191	-0,013
300,633	-65,405	-0,154	0,042
301,647	-200,000	-0,019	-0,278
302,662	-19,644	-0,226	-0,095
303,676	-33,938	-0,190	-0,071
304,691	365,672	-0,160	-0,222
305,706	0,360	-0,140	-0,068
306,720	93,840	-0,107	-0,083
307,735	-17,678	-0,119	0,051
308,749	39,302	-0,086	0,053
309,764	-185,288	-0,100	-0,001
310,779	-64,505	-0,255	0,071
311,793	-200,000	-0,009	-0,075
312,808	735,462	-0,102	-0,187
313,822	-200,000	-0,085	-0,279
314,837	-172,992	-0,166	-0,003
315,852	-99,091	-0,083	-0,014
316,866	79,999	-0,146	-0,107
317,881	-56,511	-0,173	-0,052
318,895	23,007	-0,130	-0,073
319,910	800,000	-0,058	-0,113
320,925	172,628	-0,127	-0,125
321,939	-158,156	-0,119	-0,005
322,954	-118,626	-0,135	0,016
323,968	-53,299	-0,125	0,039
324,983	-200,000	0,007	0,025
325,997	-79,616	-0,134	-0,031
327,012	800,000	-0,022	-0,063
328,027	483,640	-0,097	-0,152
329,041	144,067	-0,168	-0,153
330,056	55,926	-0,157	-0,104
331,070	150,370	-0,100	-0,093
332,085	615,342	-0,084	-0,144
333,100	365,220	-0,111	-0,154
334,114	800,000	-0,097	-0,223
335,129	800,000	0,052	-0,147
336,143	800,000	-0,033	-0,094
337,158	463,916	-0,130	-0,199
338,173	191,187	-0,158	-0,163
339,187	-200,000	-0,018	-0,138
340,202	-105,200	-0,186	-0,029
341,216	-54,128	-0,134	-0,041
342,231	-114,690	-0,193	-0,025
343,246	-121,224	-0,095	-0,011
344,260	-29,850	-0,089	-0,035
345,275	217,666	-0,142	0,156
346,289	-21,489	-0,132	0,055
347,304	-115,919	-0,118	0,015
348,319	18,988	-0,199	-0,109
349,333	158,277	-0,187	-0,177
350,348	180,089	-0,214	-0,215
351,362	-60,671	-0,128	-0,037
352,377	198,657	-0,086	-0,090
353,392	-157,641	-0,097	0,004
354,406	-74,341	-0,196	-0,048
355,421	208,366	1307,094	1398,906
356,435	160,323	1466,880	1399,383
