DTS Sentinel unit serial number:	SN410029Multiplexer serial number:	ORYXHardware model number:	OX2-SRSoftware version number:	ORYX F/W v4,00 Oryx Data Collector v3.7.2.0data status	okinstallation	B3 Nyhavnadifferential loss correction	single-endedforward channel	channel 1reverse channel	N/Adate	2023/12/01time	18:37:30forward acquisition time	300,00reverse acquisition time	0,00gamma	499,1914k internal	0,3201k external	0,3201temperature offset calibration	1,0000default loss term (dB/km)	0,3820temperature slope calibration	1,0000multiplexer offset coefficient	1,0000multiplexer slope coefficient	1,0000fibre end	0,00T internal ref (°C)	14,95T ext. ref 1 (°C)	0,92T ext. ref 2 (°C)	0,89length (m)	temperature (°C)	Stokes	anti-Stokes-744,400	208,917	-0,259	-0,295
-743,385	-200,000	0,068	0,387
-742,371	800,000	-0,169	-0,402
-741,356	373,319	0,185	0,275
-740,342	433,914	-0,199	-0,316
-739,327	-200,000	0,016	0,335
-738,312	398,779	-0,280	-0,428
-737,298	-200,000	0,031	0,252
-736,283	160,198	-0,202	-0,205
-735,269	800,000	0,151	0,313
-734,254	169,089	-0,243	-0,253
-733,239	435,107	-0,144	0,228
-732,225	800,000	-0,102	-0,298
-731,210	125,695	0,156	0,144
-730,196	63,962	-0,112	0,082
-729,181	800,000	-0,066	-0,186
-728,167	46,705	0,041	-0,028
-727,152	-200,000	-0,004	0,050
-726,137	800,000	0,006	-0,015
-725,123	109,276	-0,068	0,059
-724,108	138,216	-0,111	-0,106
-723,094	-37,163	-0,160	0,062
-722,079	191,403	0,055	-0,060
-721,064	-151,348	-0,060	-0,003
-720,050	690,043	0,042	-0,079
-719,035	379,085	0,042	-0,063
-718,021	-121,294	-0,195	0,023
-717,006	800,000	-0,060	0,121
-715,991	-200,000	-0,041	-0,133
-714,977	-200,000	-0,020	-0,130
-713,962	800,000	0,069	0,175
-712,948	420,063	0,026	0,041
-711,933	74,539	0,021	0,016
-710,918	314,227	-0,010	-0,014
-709,904	211,947	-0,056	-0,064
-708,889	171,635	-0,024	-0,025
-707,875	-200,000	0,019	-0,075
-706,860	-94,656	-0,135	-0,026
-705,845	18,764	0,046	-0,027
-704,831	-200,000	0,007	0,026
-703,816	272,976	-0,054	0,069
-702,802	190,901	-0,040	-0,044
-701,787	109,978	-0,087	-0,076
-700,772	63,313	-0,070	-0,051
-699,758	-106,422	0,021	-0,003
-698,743	-200,000	0,006	0,034
-697,729	56,278	0,041	0,029
-696,714	-37,344	-0,062	-0,024
-695,699	-200,000	-0,003	-0,111
-694,685	64,990	-0,105	-0,077
-693,670	-127,783	-0,165	0,017
-692,656	-200,000	-0,027	-0,089
-691,641	-14,303	0,049	0,023
-690,627	757,391	0,021	-0,041
-689,612	110,322	0,008	0,007
-688,597	539,543	0,020	0,035
-687,583	-79,554	-0,056	0,014
-686,568	64,108	-0,104	-0,076
-685,554	-200,000	-0,005	-0,073
-684,539	-200,000	-0,018	0,129
-683,524	-53,517	0,008	0,002
-682,510	10,087	0,048	0,027
-681,495	48,942	0,066	-0,045
-680,481	-200,000	-0,017	-0,096
-679,466	-200,000	-0,043	-0,229
-678,451	131,762	0,006	0,006
-677,437	707,276	0,039	-0,076
-676,422	-200,000	-0,014	0,129
-675,408	147,920	0,062	-0,061
-674,393	800,000	0,022	0,060
-673,378	181,494	-0,032	-0,034
-672,364	-200,000	-0,030	-0,174
-671,349	-136,682	-0,036	0,003
-670,335	286,041	-0,023	0,030
-669,320	251,963	0,090	0,112
-668,305	-50,868	-0,079	-0,027
-667,291	84,580	0,085	-0,068
-666,276	-200,000	0,005	0,029
-665,262	-7,721	-0,125	0,061
-664,247	-200,000	0,033	-0,149
-663,232	34,319	-0,047	-0,030
-662,218	-106,153	0,040	0,007
-661,203	-14,797	-0,095	-0,044
-660,189	-107,907	-0,109	-0,017
-659,174	-115,765	-0,009	-0,001
-658,159	800,000	-0,024	-0,071
-657,145	-200,000	0,005	-0,146
-656,130	-127,035	-0,014	-0,001
-655,116	294,904	0,017	-0,022
-654,101	110,839	0,068	-0,059
-653,086	-55,026	-0,135	-0,044
-652,072	30,441	-0,176	-0,109
-651,057	-200,000	0,018	-0,184
-650,043	-69,407	-0,071	0,020
-649,028	-146,772	-0,077	-0,005
-648,014	-86,652	-0,090	0,020
-646,999	237,199	0,037	0,045
-645,984	-41,867	-0,107	0,040
-644,970	400,851	0,016	-0,024
-643,955	201,776	-0,076	-0,085
-642,941	800,000	-0,069	-0,189
-641,926	102,692	0,077	-0,065
-640,911	41,385	0,165	-0,108
-639,897	25,625	-0,109	0,066
-638,882	800,000	-0,044	0,090
-637,868	73,863	0,103	-0,078
-636,853	-200,000	-0,017	0,058
-635,838	118,815	-0,029	0,026
-634,824	16,998	0,043	-0,025
-633,809	0,776	-0,082	-0,042
-632,795	-200,000	-0,008	0,117
-631,780	800,000	-0,008	-0,023
-630,765	-200,000	0,011	-0,130
-629,751	-198,730	0,077	-0,000
-628,736	-200,000	0,001	-0,056
-627,722	-48,982	0,122	0,042
-626,707	526,347	0,052	-0,088
-625,692	-83,931	0,127	-0,029
-624,678	267,664	-0,089	0,113
-623,663	93,462	-0,096	-0,079
-622,649	-200,000	-0,008	-0,042
-621,634	305,839	-0,024	-0,033
-620,619	-104,066	-0,096	0,016
-619,605	-200,000	-0,017	0,060
-618,590	-200,000	-0,017	0,060
-617,576	800,000	-0,029	0,060
-616,561	-200,000	-0,004	-0,091
-615,546	-152,275	0,150	0,008
-614,532	-200,000	-0,016	-0,142
-613,517	-149,303	-0,096	0,005
-612,503	-200,000	0,025	0,149
-611,488	-200,000	-0,002	-0,053
-610,474	-146,052	-0,080	-0,005
-609,459	32,930	-0,083	-0,052
-608,444	-200,000	-0,008	-0,055
-607,430	-200,000	-0,020	-0,109
-606,415	60,290	0,044	-0,031
-605,401	9,176	0,080	-0,044
-604,386	-67,684	-0,027	0,007
-603,371	-56,359	-0,022	0,007
-602,357	155,087	-0,063	0,063
-601,342	105,952	-0,093	-0,080
-600,328	423,980	-0,040	-0,062
-599,313	-200,000	-0,010	-0,100
-598,298	-200,000	0,004	0,073
-597,284	337,409	0,056	-0,079
-596,269	87,454	0,027	-0,021
-595,255	-200,000	0,001	-0,046
-594,240	-198,598	-0,223	0,001
-593,225	222,777	-0,090	-0,105
-592,211	800,000	-0,051	-0,131
-591,196	-83,134	0,130	-0,030
-590,182	-99,007	0,042	-0,008
-589,167	-71,402	-0,125	0,033
-588,152	33,155	-0,054	0,034
-587,138	42,842	-0,070	-0,046
-586,123	380,691	-0,086	0,128
-585,109	96,805	0,071	-0,059
-584,094	-200,000	0,010	-0,068
-583,079	65,483	0,086	0,063
-582,065	8,790	0,046	-0,025
-581,050	-13,067	-0,055	-0,026
-580,036	-200,000	0,010	-0,035
-579,021	530,884	-0,034	0,058
-578,006	311,381	-0,022	-0,030
-576,992	-94,897	0,066	0,013
-575,977	-200,000	-0,001	0,004
-574,963	1,610	0,019	0,010
-573,948	-128,039	0,035	0,004
-572,934	-200,000	0,019	-0,095
-571,919	-62,180	0,061	-0,018
-570,904	-200,000	0,007	-0,025
-569,890	-187,959	-0,105	-0,001
-568,875	-200,000	-0,029	0,154
-567,861	-186,104	-0,054	0,001
-566,846	455,554	0,044	0,071
-565,831	129,421	-0,110	0,102
-564,817	-200,000	-0,041	0,184
-563,802	-200,000	-0,002	-0,084
-562,788	12,635	-0,053	-0,029
-561,773	-200,000	0,003	0,016
-560,758	90,383	-0,025	0,020
-559,744	41,655	0,060	0,039
-558,729	800,000	-0,038	0,077
-557,715	-162,097	-0,154	-0,005
-556,700	-90,501	-0,060	0,012
-555,685	-200,000	-0,009	0,032
-554,671	248,830	-0,048	-0,059
-553,656	-35,207	0,110	0,043
-552,642	-200,000	-0,016	0,054
-551,627	-76,529	0,057	0,014
-550,612	-200,000	0,015	-0,071
-549,598	479,592	-0,104	-0,171
-548,583	-200,000	-0,027	-0,125
-547,569	58,832	0,067	-0,048
-546,554	1,937	0,070	0,036
-545,539	71,065	0,076	0,057
-544,525	71,571	0,060	0,045
-543,510	800,000	-0,032	0,088
-542,496	131,721	0,067	0,063
-541,481	141,293	-0,065	-0,062
-540,466	-98,826	0,057	-0,010
-539,452	-200,000	0,001	0,081
-538,437	-200,000	0,007	0,186
-537,423	298,528	-0,032	-0,043
-536,408	266,768	-0,027	-0,034
-535,393	538,114	0,057	-0,098
-534,379	-129,671	-0,026	-0,003
-533,364	-200,000	0,004	-0,161
-532,350	205,512	-0,083	0,093
-531,335	-173,407	-0,066	0,001
-530,321	-29,389	-0,080	0,033
-529,306	-200,000	-0,032	0,131
-528,291	683,953	0,023	0,044
-527,277	-21,152	-0,158	0,069
-526,262	9,556	-0,073	0,040
-525,248	41,239	0,092	0,060
-524,233	603,135	0,117	0,212
-523,218	569,472	-0,051	0,090
-522,204	322,366	-0,047	-0,065
-521,189	-61,734	0,056	-0,017
-520,175	218,537	0,027	-0,032
-519,160	256,620	-0,025	-0,031
-518,145	-167,321	0,141	0,004
-517,131	-70,136	0,128	0,035
-516,116	800,000	0,030	0,067
-515,102	112,900	0,039	0,034
-514,087	-124,366	-0,035	0,004
-513,072	559,015	0,069	-0,121
-512,058	-34,328	0,072	0,028
-511,043	-200,000	0,039	-0,141
-510,029	800,000	0,022	0,052
-509,014	-200,000	-0,023	0,110
-507,999	-110,767	0,046	0,007
-506,985	20,929	-0,116	-0,068
-505,970	251,084	0,008	-0,009
-504,956	-200,000	0,005	-0,088
-503,941	-200,000	0,018	0,062
-502,926	219,012	0,041	0,048
-501,912	50,396	-0,036	0,025
-500,897	800,000	-0,045	0,092
-499,883	239,782	0,034	0,041
-498,868	-200,000	-0,057	-0,213
-497,853	-200,000	0,025	-0,119
-496,839	-121,424	0,110	-0,013
-495,824	-127,967	-0,082	0,008
-494,810	800,000	-0,023	-0,068
-493,795	-80,939	-0,070	0,017
-492,781	7,852	0,048	0,026
-491,766	800,000	-0,038	-0,116
-490,751	-12,990	0,089	0,041
-489,737	-200,000	0,004	0,055
-488,722	76,401	0,027	0,020
-487,708	-15,986	0,067	0,031
-486,693	-200,000	-0,024	-0,123
-485,678	54,348	-0,051	0,035
-484,664	800,000	-0,036	0,087
-483,649	-200,000	-0,025	-0,103
-482,635	-40,105	-0,080	-0,030
-481,620	258,058	0,025	0,031
-480,605	31,397	-0,133	-0,082
-479,591	-200,000	-0,010	0,033
-478,576	386,663	-0,104	-0,156
-477,562	406,170	0,101	-0,154
-476,547	251,377	-0,079	-0,097
-475,532	60,850	0,072	0,052
-474,518	-133,194	-0,064	-0,006
-473,503	-140,731	0,018	0,001
-472,489	-200,000	0,011	0,044
-471,474	113,607	0,102	0,090
-470,459	216,246	-0,030	-0,034
-469,445	800,000	0,023	-0,068
-468,430	87,464	0,093	-0,074
-467,416	-37,485	-0,058	-0,022
-466,401	800,000	0,058	0,141
-465,386	84,283	0,139	0,109
-464,372	203,495	0,050	0,056
-463,357	-200,000	-0,006	-0,053
-462,343	455,867	-0,016	0,025
-461,328	110,472	-0,082	-0,071
-460,313	-116,987	-0,094	-0,012
-459,299	227,906	-0,066	0,077
-458,284	172,143	0,024	-0,025
-457,270	-43,969	0,119	0,043
-456,255	-112,987	0,170	-0,024
-455,241	124,904	-0,052	-0,047
-454,226	800,000	-0,059	-0,121
-453,211	296,501	0,084	-0,111
-452,197	536,903	-0,017	0,029
-451,182	-54,319	0,049	0,016
-450,168	-200,000	-0,026	-0,169
-449,153	-87,054	-0,127	-0,028
-448,138	800,000	0,028	-0,077
-447,124	-200,000	0,006	-0,070
-446,109	211,312	0,079	-0,089
-445,095	800,000	0,012	0,034
-444,080	-200,000	0,015	0,126
-443,065	-200,000	-0,004	0,018
-442,051	-200,000	0,029	0,188
-441,036	-16,709	-0,013	-0,006
-440,022	-86,448	-0,154	0,034
-439,007	-28,993	0,083	-0,034
-437,992	37,858	0,137	0,087
-436,978	-200,000	-0,021	0,102
-435,963	768,557	-0,054	0,105
-434,949	2,193	0,060	-0,031
-433,934	-200,000	-0,001	-0,149
-432,919	122,587	-0,120	-0,107
-431,905	-200,000	-0,010	-0,049
-430,890	800,000	-0,043	0,126
-429,876	-73,425	0,031	-0,008
-428,861	-17,292	-0,198	0,089
-427,846	800,000	-0,072	0,148
-426,832	242,003	-0,058	-0,069
-425,817	601,682	0,026	-0,046
-424,803	64,574	-0,026	0,019
-423,788	-67,095	0,063	-0,018
-422,773	20,421	0,073	-0,042
-421,759	-113,087	-0,097	0,014
-420,744	437,869	0,082	0,130
-419,730	-200,000	0,006	0,050
-418,715	-96,537	-0,080	-0,015
-417,701	-90,553	0,102	-0,021
-416,686	151,315	0,089	-0,087
-415,671	-83,636	0,178	0,040
-414,657	-125,601	0,112	0,012
-413,642	22,803	-0,093	0,055
-412,628	509,585	-0,071	-0,119
-411,613	102,284	-0,112	0,094
-410,598	-200,000	0,037	0,134
-409,584	-5,970	-0,053	0,026
-408,569	-35,806	-0,084	-0,033
-407,555	-200,000	0,043	0,148
-406,540	800,000	0,016	-0,037
-405,525	-126,159	-0,122	-0,013
-404,511	278,588	0,015	-0,019
-403,496	-82,499	-0,100	-0,023
-402,482	-41,528	0,020	-0,007
-401,467	632,668	-0,035	-0,063
-400,452	145,666	-0,082	0,079
-399,438	15,847	0,076	-0,043
-398,423	127,465	-0,020	-0,018
-397,409	-61,145	-0,105	0,032
-396,394	1,744	-0,213	-0,110
-395,379	85,794	0,027	-0,021
-394,365	800,000	0,051	-0,110
-393,350	689,252	0,071	0,134
-392,336	800,000	-0,052	0,118
-391,321	491,064	-0,058	0,095
-390,306	800,000	0,015	-0,045
-389,292	-200,000	-0,060	-0,197
-388,277	-76,185	0,076	-0,019
-387,263	48,277	0,108	0,073
-386,248	-200,000	0,022	0,096
-385,233	26,661	-0,083	0,050
-384,219	-80,140	0,051	-0,012
-383,204	47,487	-0,094	-0,063
-382,190	-155,478	-0,168	-0,008
-381,175	-200,000	-0,002	-0,041
-380,160	72,599	0,101	-0,075
-379,146	44,873	0,054	0,036
-378,131	-86,621	0,178	-0,039
-377,117	-200,000	0,011	-0,066
-376,102	800,000	0,017	-0,035
-375,088	-34,623	0,090	-0,035
-374,073	354,939	-0,019	-0,027
-373,058	-130,281	0,083	-0,008
-372,044	-105,715	0,150	-0,024
-371,029	800,000	0,006	0,014
-370,015	-200,000	-0,023	0,085
-369,000	-200,000	-0,002	0,095
-367,985	-200,000	-0,002	0,023
-366,971	612,040	0,042	0,076
-365,956	199,016	0,018	0,020
-364,942	-200,000	0,011	0,113
-363,927	-200,000	-0,018	-0,106
-362,912	-58,715	-0,109	-0,034
-361,898	275,750	-0,058	-0,074
-360,883	417,564	0,102	-0,157
-359,869	41,643	0,055	0,036
-358,854	-200,000	-0,023	0,197
-357,839	-200,000	0,011	0,186
-356,825	249,663	0,032	0,039
-355,810	800,000	-0,050	-0,144
-354,796	-71,874	-0,082	0,022
-353,781	-200,000	0,024	-0,121
-352,766	800,000	-0,037	-0,082
-351,752	698,806	0,035	-0,066
-350,737	68,230	0,079	0,058
-349,723	7,800	-0,030	-0,016
-348,708	334,780	-0,035	-0,049
-347,693	-105,508	-0,027	-0,004
-346,679	765,911	0,023	-0,045
-345,664	-14,949	-0,116	-0,053
-344,650	-200,000	-0,021	-0,068
-343,635	-57,206	0,047	0,015
-342,620	-107,224	0,112	0,018
-341,606	800,000	-0,050	-0,108
-340,591	800,000	0,046	-0,142
-339,577	-167,468	-0,088	-0,002
-338,562	-123,365	-0,172	0,019
-337,548	-200,000	0,001	0,059
-336,533	31,119	0,055	0,034
-335,518	-200,000	0,005	0,106
-334,504	3,380	0,061	0,032
-333,489	-200,000	0,033	-0,245
-332,475	-142,834	0,081	0,006
-331,460	-200,000	-0,011	0,038
-330,445	800,000	-0,024	-0,066
-329,431	4,512	0,050	-0,026
-328,416	-200,000	0,012	0,051
-327,402	429,361	0,030	0,046
-326,387	-11,335	0,060	0,028
-325,372	-23,276	0,026	-0,011
-324,358	800,000	-0,035	0,094
-323,343	-46,760	0,048	0,017
-322,329	-12,356	-0,055	0,025
-321,314	220,216	-0,082	0,094
-320,299	26,047	0,089	0,053
-319,285	800,000	-0,046	0,111
-318,270	800,000	-0,043	-0,109
-317,256	101,420	-0,043	-0,036
-316,241	800,000	-0,034	0,089
-315,226	-81,006	0,070	-0,016
-314,212	800,000	0,071	0,159
-313,197	800,000	0,016	0,037
-312,183	-200,000	-0,025	0,160
-311,168	439,921	0,045	0,071
-310,153	-200,000	-0,017	-0,186
-309,139	-1,857	-0,134	0,067
-308,124	-95,653	0,242	0,046
-307,110	122,812	-0,061	0,055
-306,095	187,343	0,091	0,097
-305,080	800,000	-0,045	0,122
-304,066	22,214	-0,073	0,043
-303,051	-200,000	0,024	-0,125
-302,037	248,203	0,123	-0,150
-301,022	-64,576	-0,076	-0,022
-300,008	62,790	0,056	0,040
-298,993	-106,931	0,217	0,034
-297,978	20,161	-0,089	-0,051
-296,964	394,218	0,034	0,051
-295,949	-200,000	0,024	0,125
-294,935	272,341	0,021	0,027
-293,920	-35,279	-0,043	0,017
-292,905	-4,659	-0,099	-0,049
-291,891	46,177	0,164	0,108
-290,876	-2,638	0,014	0,007
-289,862	-200,000	0,004	-0,093
-288,847	12,188	-0,068	0,037
-287,832	-200,000	0,003	0,069
-286,818	-200,000	-0,012	-0,112
-285,803	-200,000	-0,002	0,121
-284,789	105,726	0,040	0,034
-283,774	588,322	-0,051	0,090
-282,759	122,545	0,034	0,030
-281,745	-41,731	-0,134	-0,049
-280,730	229,079	0,066	-0,078
-279,716	800,000	0,054	-0,142
-278,701	582,513	-0,052	0,091
-277,686	29,473	-0,099	-0,060
-276,672	-73,999	-0,087	0,022
-275,657	-16,420	0,034	0,015
-274,643	-76,945	-0,078	-0,019
-273,628	-150,363	0,034	0,002
-272,613	148,215	0,039	-0,038
-271,599	8,893	0,078	-0,042
-270,584	104,671	-0,073	-0,061
-269,570	-64,445	-0,044	0,013
-268,555	-200,000	-0,027	0,095
-267,540	429,392	-0,062	0,096
-266,526	101,885	0,053	0,044
-265,511	-200,000	-0,041	-0,147
-264,497	-200,000	0,019	0,110
-263,482	800,000	-0,023	-0,069
-262,467	-200,000	-0,007	-0,078
-261,453	119,516	-0,021	-0,019
-260,438	60,674	0,050	0,035
-259,424	159,297	-0,113	-0,112
-258,409	-153,986	0,066	0,003
-257,395	-33,995	-0,162	-0,063
-256,380	11,328	-0,069	0,038
-255,365	4,142	0,121	0,063
-254,351	451,365	-0,014	0,022
-253,336	800,000	0,034	0,082
-252,322	-172,514	-0,072	-0,002
-251,307	-18,623	-0,081	0,036
-250,292	800,000	0,056	-0,121
-249,278	540,649	-0,072	0,122
-248,263	-191,192	0,079	0,001
-247,249	-126,344	-0,102	-0,011
-246,234	-19,495	-0,023	0,010
-245,219	-200,000	-0,025	0,117
-244,205	-200,000	-0,001	0,010
-243,190	44,131	-0,058	-0,038
-242,176	-134,335	-0,097	0,008
-241,161	-67,532	-0,009	-0,003
-240,146	-62,683	-0,033	0,010
-239,132	-200,000	-0,013	-0,052
-238,117	-72,379	-0,061	-0,016
-237,103	-200,000	0,016	0,161
-236,088	-200,000	0,001	-0,042
-235,073	53,980	-0,036	0,025
-234,059	76,932	0,121	0,091
-233,044	-200,000	0,070	0,224
-232,030	385,961	0,054	0,079
-231,015	457,269	-0,048	-0,076
-230,000	-98,371	-0,075	0,014
-228,986	757,909	0,047	-0,091
-227,971	-123,759	0,058	0,007
-226,957	518,842	0,032	-0,054
-225,942	-172,477	0,097	-0,002
-224,927	-121,704	0,055	-0,006
-223,913	-6,314	-0,114	0,055
-222,898	-3,525	0,026	0,013
-221,884	62,903	-0,124	-0,088
-220,869	174,043	0,027	-0,028
-219,855	800,000	0,014	0,033
-218,840	-200,000	0,014	-0,059
-217,825	800,000	0,015	0,038
-216,811	800,000	-0,038	-0,112
-215,796	18,587	-0,121	0,069
-214,782	156,990	0,106	-0,105
-213,767	-40,981	0,154	-0,057
-212,752	-31,397	-0,038	0,015
-211,738	79,895	-0,023	0,018
-210,723	351,296	-0,053	0,075
-209,709	17,891	-0,068	0,039
-208,694	-62,206	-0,112	0,033
-207,679	86,199	0,077	-0,060
-206,665	-186,376	0,110	0,001
-205,650	238,899	0,037	0,044
-204,636	800,000	0,008	0,023
-203,621	-200,000	0,008	0,060
-202,606	800,000	0,007	-0,013
-201,592	-200,000	0,015	0,059
-200,577	17,962	0,095	0,054
-199,563	750,053	0,016	0,031
-198,548	253,348	-0,046	-0,056
-197,533	-200,000	0,026	0,155
-196,519	-200,000	-0,002	0,156
-195,504	-130,893	-0,089	0,008
-194,490	800,000	-0,049	0,140
-193,475	800,000	-0,044	-0,129
-192,460	-21,993	0,277	-0,119
-191,446	-200,000	-0,004	0,015
-190,431	-200,000	-0,000	0,035
-189,417	85,352	0,069	-0,054
-188,402	-73,525	-0,134	-0,035
-187,387	262,151	0,035	0,043
-186,373	-200,000	0,009	0,112
-185,358	-200,000	0,000	0,044
-184,344	46,223	0,054	-0,035
-183,329	800,000	0,029	0,084
-182,315	537,728	0,047	0,079
-181,300	424,520	0,048	-0,074
-180,285	800,000	0,099	-0,203
-179,271	-11,899	0,080	-0,037
-178,256	43,584	0,060	-0,039
-177,242	606,259	0,096	-0,171
-176,227	-88,639	0,114	-0,024
-175,212	-200,000	-0,002	0,131
-174,198	116,846	-0,055	0,048
-173,183	526,979	0,022	-0,038
-172,169	-9,805	-0,072	0,034
-171,154	179,509	0,069	-0,072
-170,139	-12,180	0,064	-0,030
-169,125	585,286	-0,027	-0,048
-168,110	353,666	0,086	0,122
-167,096	-18,852	0,039	-0,017
-166,081	324,478	0,058	-0,080
-165,066	-200,000	-0,003	-0,121
-164,052	800,000	0,044	-0,087
-163,037	800,000	-0,017	0,047
-162,023	20,020	0,130	-0,075
-161,008	-192,500	0,138	0,001
-159,993	460,583	0,023	0,037
-158,979	500,707	-0,050	0,082
-157,964	-200,000	0,011	0,107
-156,950	-97,072	-0,102	-0,019
-155,935	-200,000	0,013	-0,057
-154,920	81,120	-0,038	-0,029
-153,906	800,000	0,023	-0,058
-152,891	-200,000	-0,014	-0,113
-151,877	250,922	-0,040	-0,048
-150,862	800,000	-0,052	-0,107
-149,847	-110,438	0,140	0,020
-148,833	-200,000	-0,021	-0,074
-147,818	800,000	0,025	0,061
-146,804	274,500	0,044	0,056
-145,789	-200,000	0,012	0,105
-144,775	-200,000	-0,004	0,043
-143,760	-141,218	-0,136	-0,010
-142,745	490,118	0,016	-0,026
-141,731	249,425	0,085	0,103
-140,716	-200,000	-0,035	-0,169
-139,702	444,045	-0,043	0,067
-138,687	494,398	0,087	0,142
-137,672	634,218	-0,025	0,045
-136,658	-200,000	0,025	-0,132
-135,643	800,000	-0,044	-0,132
-134,629	-81,087	-0,074	0,017
-133,614	-37,146	0,106	0,040
-132,599	-65,098	-0,133	0,038
-131,585	-85,449	0,058	-0,013
-130,570	-200,000	0,007	-0,126
-129,556	-200,000	-0,021	-0,103
-128,541	-200,000	-0,012	-0,136
-127,526	347,741	0,055	-0,078
-126,512	469,606	0,075	-0,120
-125,497	-59,232	-0,101	-0,031
-124,483	-200,000	0,003	0,032
-123,468	-155,755	-0,053	-0,002
-122,453	78,056	-0,078	-0,059
-121,439	287,865	0,051	0,065
-120,424	-200,000	-0,021	-0,081
-119,410	-40,829	0,193	0,071
-118,395	-200,000	-0,017	0,094
-117,380	440,381	0,040	0,062
-116,366	800,000	-0,065	-0,162
-115,351	94,081	0,082	-0,066
-114,337	-60,526	-0,032	-0,009
-113,322	-20,157	0,084	0,036
-112,307	-200,000	-0,010	-0,085
-111,293	-133,355	0,009	0,001
-110,278	-36,397	-0,048	-0,018
-109,264	-200,000	0,038	-0,149
-108,249	-74,333	-0,117	0,030
-107,234	64,885	0,020	0,014
-106,220	-15,733	-0,071	-0,032
-105,205	-127,350	0,107	-0,011
-104,191	105,272	-0,003	0,003
-103,176	87,057	-0,047	0,037
-102,162	378,453	0,035	-0,051
-101,147	176,601	-0,102	0,106
-100,132	-118,083	-0,044	0,006
-99,118	800,000	-0,024	-0,054
-98,103	500,001	0,037	-0,061
-97,089	-117,673	-0,010	-0,001
-96,074	-200,000	-0,005	-0,074
-95,059	-49,204	-0,107	-0,036
-94,045	-200,000	-0,017	-0,110
-93,030	154,555	-0,063	-0,061
-92,016	414,767	0,050	0,075
-91,001	-47,057	-0,106	0,036
-89,986	121,954	0,116	0,102
-88,972	50,546	0,040	0,027
-87,957	-92,822	0,146	-0,029
-86,943	-55,335	-0,122	0,038
-85,928	800,000	-0,040	0,085
-84,913	-200,000	-0,024	-0,083
-83,899	-98,794	-0,077	0,014
-82,884	-120,184	0,010	0,001
-81,870	-200,000	0,003	-0,082
-80,855	-42,506	0,103	0,037
-79,840	800,000	-0,050	0,129
-78,826	-45,001	0,058	0,020
-77,811	15,793	0,153	0,085
-76,797	7,223	-0,106	0,056
-75,782	-153,136	-0,111	0,005
-74,767	630,267	-0,026	0,047
-73,753	-200,000	-0,016	0,063
-72,738	-200,000	-0,019	0,081
-71,724	-200,000	0,010	-0,137
-70,709	-200,000	-0,010	0,142
-69,694	22,873	-0,032	-0,018
-68,680	-24,494	0,019	0,008
-67,665	-200,000	0,007	-0,028
-66,651	-200,000	0,001	-0,019
-65,636	-91,000	-0,180	0,036
-64,622	-200,000	-0,033	-0,134
-63,607	800,000	-0,019	-0,049
-62,592	635,014	-0,066	-0,119
-61,578	490,036	0,013	0,021
-60,563	-9,764	0,143	0,067
-59,549	186,295	0,048	0,051
-58,534	-46,423	-1,512	-0,523
-57,519	454,475	-1,458	-2,295
-56,505	-200,000	-0,543	-4,360
-55,490	197,087	0,887	0,959
-54,476	800,000	4,844	11,324
-53,461	-200,000	18,178	287,138
-52,446	800,000	725,549	2223,692
-51,432	555,454	1639,363	2804,833
-50,417	79,239	1661,501	1259,322
-49,403	22,833	1535,575	888,477
-48,388	16,778	1459,218	815,044
-47,373	17,826	1449,049	814,370
-46,359	17,226	1439,512	806,116
-45,344	15,051	1434,982	793,185
-44,330	15,005	1432,818	791,739
-43,315	15,025	1431,040	790,820
-42,300	14,974	1429,514	789,706
-41,286	15,060	1428,357	789,442
-40,271	14,998	1427,403	788,588
-39,257	15,034	1426,006	787,955
-38,242	15,073	1424,606	787,339
-37,227	15,057	1423,240	786,475
-36,213	15,073	1422,013	785,841
-35,198	15,074	1420,768	785,127
-34,184	15,066	1420,104	784,692
-33,169	15,001	1419,054	783,771
-32,154	15,073	1417,811	783,393
-31,140	15,083	1416,431	782,647
-30,125	15,108	1415,160	782,034
-29,111	15,105	1414,172	781,441
-28,096	15,093	1412,961	780,685
-27,082	14,989	1411,928	779,597
-26,067	14,981	1410,839	778,925
-25,052	14,979	1409,867	778,349
-24,038	14,933	1408,986	777,616
-23,023	14,983	1407,704	777,110
-22,009	14,965	1406,702	776,446
-20,994	14,938	1405,937	775,864
-19,979	14,912	1405,105	775,253
-18,965	14,908	1404,110	774,656
-17,950	14,851	1403,291	773,907
-16,936	14,929	1402,209	773,641
-15,921	14,884	1400,994	772,734
-14,906	14,859	1400,064	772,074
-13,892	14,890	1399,251	771,737
-12,877	14,898	1398,395	771,272
-11,863	14,877	1397,513	770,657
-10,848	14,868	1396,501	770,026
-9,833	14,815	1395,560	769,233
-8,819	14,836	1394,575	768,758
-7,804	14,812	1393,846	768,215
-6,790	14,822	1392,693	767,591
-5,775	14,776	1391,639	766,768
-4,760	14,787	1391,062	766,470
-3,746	14,761	1390,015	765,745
-2,731	14,777	1389,274	765,378
-1,717	14,786	1388,375	764,894
-0,702	14,763	1386,528	763,743
0,313	18,657	1305,771	737,208
1,327	35,058	705,527	436,246
2,342	53,682	124,515	84,427
3,356	5,000	16,436	8,529
4,371	-4,721	3,254	1,582
5,386	63,112	0,475	0,336
6,400	-200,000	-0,001	0,269
7,415	-8,017	-0,252	-0,120
8,429	196,108	-0,275	-0,296
9,444	-48,233	-0,359	-0,122
10,459	138,746	-0,203	-0,189
11,473	110,421	-0,309	-0,263
12,488	-54,398	-0,357	-0,114
13,502	12,595	-0,330	-0,179
14,517	23,444	-0,359	-0,208
15,531	186,755	-0,317	-0,334
16,546	110,074	-0,386	-0,327
17,561	302,400	-0,300	-0,393
18,575	-34,798	-0,209	-0,080
19,590	136,747	-0,257	-0,237
20,604	63,611	-0,255	-0,180
21,619	202,041	-0,409	-0,445
22,634	58,267	-0,510	-0,353
23,648	125,270	-0,385	-0,343
24,663	-9,879	-0,465	-0,217
25,677	71,753	-0,331	-0,243
26,692	153,678	-0,284	-0,275
27,707	2,269	-0,458	-0,233
28,721	111,764	-0,309	-0,263
29,736	93,167	-0,402	-0,321
30,750	33,965	-0,361	-0,222
31,765	129,826	-0,422	-0,381
32,780	250,898	-0,317	-0,381
33,794	31,630	-0,396	-0,240
34,809	-40,046	-0,331	-0,121
35,823	-8,775	-0,232	-0,109
36,838	214,477	-0,401	-0,449
37,853	62,599	-0,389	-0,274
38,867	60,748	-0,381	-0,266
39,882	-14,330	-0,369	-0,167
40,896	51,268	-0,311	-0,208
41,911	-172,181	-0,381	0,008
42,926	199,820	-0,289	-0,313
43,940	-50,934	-0,346	-0,114
44,955	116,423	-0,368	-0,318
45,969	133,919	-0,333	-0,304
46,984	74,241	-0,286	-0,211
47,999	439,324	-0,195	-0,301
49,013	172,256	-0,295	-0,299
50,028	42,740	-0,304	-0,195
51,042	384,726	-0,220	-0,320
52,057	175,865	-0,341	-0,349
53,071	108,426	-0,378	-0,318
54,086	-26,722	-0,447	-0,183
55,101	32,671	-0,310	-0,188
56,115	140,136	-0,189	-0,176
57,130	12,535	-0,337	-0,182
58,144	-1,863	-0,390	-0,193
59,159	335,731	-0,229	-0,313
60,174	169,452	-0,334	-0,336
61,188	81,238	-0,377	-0,286
62,203	108,802	-0,357	-0,300
63,217	161,751	-0,283	-0,279
64,232	-98,622	-0,346	-0,062
65,247	69,050	-0,465	-0,336
66,261	80,023	-0,248	-0,188
67,276	-19,375	-0,456	-0,198
68,290	-7,093	-0,238	-0,113
69,305	31,027	-0,300	-0,180
70,320	-49,532	-0,362	-0,121
71,334	-34,556	-0,331	-0,127
72,349	58,060	-0,318	-0,219
73,363	168,279	-0,269	-0,269
74,378	-13,937	-0,289	-0,131
75,393	20,917	-0,346	-0,196
76,407	93,423	-0,345	-0,275
77,422	375,802	-0,172	-0,247
78,436	41,864	-0,318	-0,202
79,451	-48,027	-0,432	-0,146
80,466	-73,246	-0,241	-0,062
81,480	117,669	-0,283	-0,245
82,495	148,856	-0,281	-0,267
83,509	304,373	-0,188	-0,245
84,524	98,436	-0,237	-0,192
85,539	-45,810	-0,231	-0,080
86,553	58,997	-0,390	-0,269
87,568	118,085	-0,321	-0,278
88,582	341,223	-0,284	-0,391
89,597	103,884	-0,198	-0,163
90,611	82,187	-0,315	-0,239
91,626	-64,979	-0,391	-0,110
92,641	-84,120	-0,317	-0,070
93,655	143,777	-0,278	-0,260
94,670	114,712	-0,385	-0,329
95,684	224,968	-0,233	-0,265
96,699	103,126	-0,257	-0,211
97,714	146,971	-0,307	-0,289
98,728	249,874	-0,193	-0,230
99,743	-56,262	-0,228	-0,071
100,757	26,078	-0,332	-0,194
101,772	80,161	-0,307	-0,231
102,787	156,100	-0,272	-0,263
103,801	83,272	-0,346	-0,264
104,816	58,415	-0,252	-0,173
105,830	377,650	-0,132	-0,189
106,845	-13,999	-0,297	-0,134
107,860	-33,590	-0,165	-0,063
108,874	-35,850	-0,220	-0,083
109,889	317,235	-0,205	-0,273
110,903	-6,966	-0,353	-0,168
111,918	50,996	-0,294	-0,195
112,933	160,340	-0,147	-0,143
113,947	-63,938	-0,302	-0,086
114,962	260,435	-0,237	-0,288
115,976	-186,614	-0,233	-0,002
116,991	2,857	-0,361	-0,183
118,006	-200,000	-0,100	-0,311
119,020	150,367	-0,180	-0,171
120,035	23,388	-0,348	-0,200
121,049	32,856	-0,266	-0,161
122,064	341,613	-0,166	-0,228
123,079	9,366	-0,271	-0,143
124,093	-68,102	-0,323	-0,087
125,108	278,274	-0,201	-0,251
126,122	217,472	-0,186	-0,207
127,137	282,224	-0,110	-0,138
128,151	114,399	-0,239	-0,204
129,166	280,702	-0,218	-0,274
130,181	83,946	-0,290	-0,221
131,195	95,937	-0,285	-0,227
132,210	534,072	-0,172	-0,286
133,224	162,371	-0,170	-0,167
134,239	309,906	-0,228	-0,299
135,254	70,679	-0,160	-0,116
136,268	191,067	-0,129	-0,136
137,283	169,173	-0,234	-0,234
138,297	-7,399	-0,247	-0,116
139,312	10,721	-0,331	-0,176
140,327	55,414	-0,352	-0,238
141,341	136,264	-0,290	-0,265
142,356	48,021	-0,159	-0,104
143,370	332,722	-0,100	-0,135
144,385	70,444	-0,249	-0,180
145,400	139,373	-0,165	-0,152
146,414	15,279	-0,430	-0,235
147,429	85,462	-0,253	-0,194
148,443	117,798	-0,301	-0,259
149,458	177,263	-0,303	-0,309
150,473	593,497	-0,026	-0,046
151,487	-112,791	-0,164	-0,023
152,502	49,410	-0,274	-0,180
153,516	200,243	-0,202	-0,216
154,531	136,975	-0,190	-0,174
155,546	276,035	-0,178	-0,221
156,560	-1,083	-0,277	-0,136
157,575	-133,644	-0,239	0,021
158,589	36,338	-0,159	-0,097
159,604	800,000	-0,121	-0,287
160,619	267,727	-0,136	-0,167
161,633	25,635	-0,285	-0,165
162,648	99,840	-0,230	-0,186
163,662	243,884	-0,149	-0,174
164,677	-88,408	-0,236	-0,049
165,692	18,400	-0,232	-0,129
166,706	-73,337	-0,287	-0,073
167,721	467,422	-0,166	-0,260
168,735	4,231	-0,356	-0,181
169,750	-33,625	-0,324	-0,124
170,764	122,330	-0,201	-0,175
171,779	-13,382	-0,140	-0,063
172,794	433,988	-0,092	-0,139
173,808	107,222	-0,259	-0,215
174,823	36,878	-0,246	-0,151
175,837	483,950	-0,213	-0,339
176,852	-133,229	-0,165	-0,014
177,867	50,916	-0,224	-0,147
178,881	732,285	-0,194	-0,362
179,896	-85,625	-0,240	0,052
180,910	-98,582	-0,129	-0,023
181,925	77,732	-0,166	-0,123
182,940	93,160	-0,268	-0,211
183,954	9,342	-0,299	-0,157
184,969	111,352	-0,280	-0,235
185,983	191,068	-0,186	-0,195
186,998	683,837	-0,139	-0,253
188,013	433,063	-0,201	-0,304
189,027	-3,799	-0,260	-0,125
190,042	40,168	-0,304	-0,190
191,056	-32,823	-0,337	-0,130
192,071	2,185	-0,193	-0,097
193,086	250,034	-0,178	-0,211
194,100	446,285	-0,159	-0,244
195,115	21,720	-0,223	-0,126
196,129	54,309	-0,245	-0,164
197,144	49,878	-0,277	-0,181
198,159	307,938	-0,172	-0,224
199,173	31,701	-0,162	-0,097
200,188	-48,645	-0,200	-0,066
201,202	24,857	-0,083	-0,048
202,217	41,289	-0,176	-0,110
203,232	115,357	-0,140	-0,119
204,246	-1,393	-0,346	-0,169
205,261	800,000	-0,131	-0,254
206,275	26,937	-0,174	-0,101
207,290	421,175	-0,079	-0,118
208,304	24,965	-0,224	-0,128
209,319	-136,256	-0,352	-0,028
210,334	-14,531	-0,225	0,100
211,348	257,496	-0,150	-0,179
212,363	-55,586	-0,186	-0,057
213,377	47,005	-0,136	-0,088
214,392	209,388	-0,199	-0,217
215,407	206,464	-0,064	-0,070
216,421	69,238	-0,083	-0,059
217,436	27,918	-0,228	-0,133
218,450	-165,739	-0,234	-0,007
219,465	50,231	-0,160	-0,105
220,480	222,405	-0,097	-0,109
221,494	334,480	-0,155	-0,209
222,509	-35,411	-0,169	-0,063
223,523	203,029	-0,162	-0,174
224,538	-95,166	-0,270	-0,050
225,553	800,000	-0,144	-0,284
226,567	59,941	-0,160	-0,110
227,582	-39,142	-0,240	-0,087
228,596	258,560	-0,147	-0,176
229,611	-200,000	-0,212	0,000
230,626	-200,000	-0,027	-0,106
231,640	158,485	-0,183	-0,176
232,655	618,834	-0,153	-0,268
233,669	140,436	-0,195	-0,178
234,684	221,313	-0,183	-0,204
235,699	-47,940	-0,118	-0,039
236,713	79,239	-0,119	-0,088
237,728	-58,688	-0,109	0,033
238,742	60,567	-0,340	-0,233
239,757	-28,862	-0,196	-0,078
240,772	228,439	-0,211	-0,239
241,786	83,318	-0,209	-0,157
242,801	-57,684	-0,202	-0,061
243,815	155,183	-0,145	-0,138
244,830	99,494	-0,168	-0,135
245,844	800,000	-0,145	-0,293
246,859	206,886	-0,187	-0,202
247,874	252,497	-0,156	-0,185
248,888	-76,557	-0,184	-0,044
249,903	118,638	-0,119	-0,102
250,917	84,221	-0,141	-0,107
251,932	-5,472	-0,133	-0,063
252,947	-171,256	-0,077	0,002
253,961	-92,158	-0,231	-0,045
254,976	267,267	-0,116	-0,141
255,990	265,833	-0,157	-0,190
257,005	-130,460	-0,111	0,010
258,020	225,557	-0,185	-0,207
259,034	117,943	-0,167	-0,142
260,049	-48,134	-0,156	-0,052
261,063	-164,802	-0,114	0,003
262,078	246,858	-0,102	-0,120
263,093	-17,671	-0,243	-0,105
264,107	-28,615	-0,180	-0,071
265,122	-52,363	-0,138	-0,044
266,136	-47,481	-0,141	-0,047
267,151	393,499	-0,132	-0,190
268,166	148,784	-0,093	-0,087
269,180	-38,635	-0,204	-0,074
270,195	-200,000	-0,035	-0,179
271,209	-5,281	-0,268	-0,127
272,224	-141,549	-0,208	0,014
273,239	128,403	-0,152	-0,133
274,253	800,000	-0,115	-0,246
275,268	255,554	-0,178	-0,211
276,282	529,396	-0,169	-0,276
277,297	208,102	-0,186	-0,201
278,312	-153,369	-0,185	-0,009
279,326	43,779	-0,100	-0,063
280,341	-3,904	-0,167	-0,080
281,355	60,392	0,046	-0,032
282,370	508,381	-0,173	-0,278
283,384	-69,889	-0,230	-0,060
284,399	169,828	-0,164	-0,162
285,414	-5,172	-0,154	0,073
286,428	800,000	-0,071	-0,170
287,443	37,637	-0,131	-0,080
288,457	130,277	-0,215	-0,190
289,472	26,880	-0,171	-0,099
290,487	336,507	-0,159	-0,213
291,501	-27,480	-0,290	-0,116
292,516	425,601	-0,083	-0,124
293,530	20,742	-0,140	-0,078
294,545	-200,000	0,007	0,036
295,560	-41,061	-0,145	-0,051
296,574	-112,543	-0,190	-0,026
297,589	-1,708	-0,221	-0,107
298,603	-200,000	0,003	-0,099
299,618	331,127	-0,122	-0,162
300,633	800,000	-0,046	-0,127
301,647	-72,499	-0,156	-0,039
302,662	-115,218	-0,164	0,021
303,676	221,027	-0,100	-0,110
304,691	109,370	-0,156	-0,128
305,706	32,853	-0,152	-0,090
306,720	112,781	-0,187	-0,156
307,735	576,363	-0,074	-0,125
308,749	141,279	-0,114	-0,104
309,764	-95,325	-0,188	0,035
310,779	-101,587	-0,202	-0,033
311,793	144,520	-0,158	-0,145
312,808	800,000	-0,064	-0,180
313,822	800,000	-0,092	-0,182
314,837	138,804	-0,164	-0,148
315,852	358,785	-0,057	-0,078
316,866	389,959	-0,065	-0,092
317,881	-105,425	-0,108	-0,017
318,895	112,393	-0,194	-0,161
319,910	616,293	-0,076	-0,131
320,925	116,467	-0,195	-0,165
321,939	479,673	-0,103	-0,161
322,954	73,609	-0,054	-0,039
323,968	-200,000	-0,057	-0,194
324,983	50,711	-0,056	0,036
325,997	35,669	-0,153	-0,093
327,012	-141,864	-0,161	-0,011
328,027	-61,281	-0,241	-0,069
329,041	389,918	-0,152	-0,217
330,056	5,301	-0,111	0,056
331,070	190,736	-0,035	0,036
332,085	-10,934	-0,059	0,026
333,100	-200,000	0,007	-0,076
334,114	87,894	-0,166	-0,126
335,129	800,000	-0,084	-0,193
336,143	-102,896	-0,119	-0,019
337,158	35,700	-0,141	-0,085
338,173	258,049	-0,067	-0,079
339,187	-8,528	-0,117	0,054
340,202	401,242	-0,120	-0,174
341,216	183,254	-0,193	-0,196
342,231	107,185	-0,135	-0,111
343,246	157,421	-0,169	-0,161
344,260	800,000	-0,029	-0,082
345,275	-200,000	-0,027	-0,121
346,289	-200,000	-0,002	-0,049
347,304	-66,830	-0,159	-0,043
348,319	147,431	-0,097	-0,090
349,333	-200,000	-0,000	-0,069
350,348	195,077	-0,110	-0,115
351,362	57,625	-0,138	-0,093
352,377	395,288	-0,073	-0,105
353,392	800,000	-0,126	-0,264
354,406	6,818	-0,204	-0,104
355,421	209,563	1312,366	1412,653
356,435	161,294	1472,837	1413,179
