DTS Sentinel unit serial number:	SN410029Multiplexer serial number:	ORYXHardware model number:	OX2-SRSoftware version number:	ORYX F/W v4,00 Oryx Data Collector v3.7.2.0data status	okinstallation	B3 Nyhavnadifferential loss correction	single-endedforward channel	channel 1reverse channel	N/Adate	2023/12/04time	13:22:30forward acquisition time	300,00reverse acquisition time	0,00gamma	499,1914k internal	0,3201k external	0,3201temperature offset calibration	1,0000default loss term (dB/km)	0,3820temperature slope calibration	1,0000multiplexer offset coefficient	1,0000multiplexer slope coefficient	1,0000fibre end	0,00T internal ref (°C)	14,84T ext. ref 1 (°C)	0,28T ext. ref 2 (°C)	0,28length (m)	temperature (°C)	Stokes	anti-Stokes-744,400	577,622	-0,116	-0,207
-743,385	-200,000	-0,031	0,232
-742,371	800,000	-0,103	-0,250
-741,356	-200,000	0,086	0,361
-740,342	96,235	-0,163	-0,135
-739,327	-200,000	-0,034	0,266
-738,312	800,000	-0,143	-0,295
-737,298	-200,000	-0,028	0,273
-736,283	-200,000	-0,107	-0,363
-735,269	-200,000	-0,027	0,400
-734,254	108,204	-0,178	-0,155
-733,239	259,448	-0,110	0,138
-732,225	-200,000	0,034	-0,177
-731,210	-200,000	0,031	-0,115
-730,196	214,879	-0,106	-0,122
-729,181	-200,000	-0,023	0,113
-728,167	-77,288	-0,115	-0,029
-727,152	-200,000	0,013	0,119
-726,137	-85,995	0,145	0,032
-725,123	800,000	-0,058	-0,123
-724,108	800,000	0,022	0,063
-723,094	797,066	-0,013	-0,026
-722,079	140,422	0,034	-0,033
-721,064	800,000	-0,056	-0,150
-720,050	-200,000	0,010	-0,098
-719,035	303,661	0,110	-0,149
-718,021	-200,000	0,011	-0,060
-717,006	285,301	-0,111	-0,145
-715,991	-3,733	-0,100	-0,050
-714,977	320,319	0,023	-0,032
-713,962	800,000	0,057	-0,118
-712,948	254,133	-0,044	-0,055
-711,933	-200,000	0,020	-0,125
-710,918	637,187	-0,058	-0,108
-709,904	800,000	0,045	-0,140
-708,889	581,563	-0,054	-0,097
-707,875	789,798	-0,038	0,077
-706,860	-36,806	-0,071	-0,027
-705,845	-200,000	-0,007	0,075
-704,831	-58,151	-0,152	0,048
-703,816	190,649	0,034	0,037
-702,802	-200,000	0,011	-0,048
-701,787	-72,394	0,017	0,004
-700,772	-143,142	0,068	0,005
-699,758	119,337	0,012	0,011
-698,743	417,057	0,054	0,084
-697,729	-27,702	0,136	0,057
-696,714	-200,000	-0,022	-0,107
-695,699	-48,942	0,185	0,064
-694,685	-200,000	0,010	-0,066
-693,670	-200,000	0,040	-0,142
-692,656	302,793	0,094	-0,126
-691,641	510,551	-0,072	-0,122
-690,627	36,514	0,114	-0,073
-689,612	609,991	0,093	0,170
-688,597	800,000	-0,019	0,053
-687,583	-93,541	-0,118	-0,023
-686,568	800,000	-0,040	-0,095
-685,554	-48,280	-0,075	-0,026
-684,539	-14,115	0,032	-0,015
-683,524	800,000	-0,022	0,052
-682,510	-23,673	0,078	0,034
-681,495	-200,000	-0,053	0,217
-680,481	-91,581	0,076	0,015
-679,466	81,402	-0,078	-0,061
-678,451	-200,000	-0,008	-0,043
-677,437	-143,011	0,097	-0,007
-676,422	-200,000	0,085	0,000
-675,408	124,789	-0,033	-0,031
-674,393	-37,010	0,064	0,025
-673,378	195,251	-0,136	-0,150
-672,364	131,924	-0,093	-0,087
-671,349	75,282	0,059	-0,045
-670,335	6,223	0,215	0,115
-669,320	800,000	0,034	-0,075
-668,305	-110,614	-0,057	0,008
-667,291	47,704	-0,062	0,042
-666,276	-200,000	-0,011	-0,085
-665,262	452,759	-0,029	-0,047
-664,247	15,908	0,026	-0,015
-663,232	-82,857	0,152	0,035
-662,218	800,000	-0,047	0,142
-661,203	-200,000	0,023	0,089
-660,189	542,633	-0,041	0,072
-659,174	114,175	-0,058	-0,052
-658,159	52,848	-0,048	0,033
-657,145	-154,167	0,056	-0,003
-656,130	800,000	0,026	0,057
-655,116	-110,633	0,095	0,014
-654,101	541,723	-0,093	0,161
-653,086	800,000	0,033	-0,085
-652,072	-144,472	-0,068	-0,005
-651,057	800,000	0,034	0,075
-650,043	-34,699	-0,178	-0,070
-649,028	282,179	-0,007	0,009
-648,014	125,651	-0,071	0,065
-646,999	-200,000	0,003	0,070
-645,984	295,847	0,068	0,091
-644,970	405,072	-0,026	0,040
-643,955	-200,000	0,053	-0,175
-642,941	-6,690	-0,115	-0,056
-641,926	-148,748	0,129	0,007
-640,911	-88,732	-0,180	-0,038
-639,897	-200,000	-0,001	0,067
-638,882	36,687	-0,076	0,049
-637,868	-200,000	-0,007	0,174
-636,853	-200,000	-0,009	0,092
-635,838	-20,955	-0,094	-0,041
-634,824	101,369	0,041	-0,035
-633,809	-200,000	-0,006	-0,111
-632,795	379,676	-0,044	0,065
-631,780	-200,000	0,001	-0,026
-630,765	-11,463	-0,071	-0,034
-629,751	-200,000	0,024	-0,078
-628,736	696,709	-0,023	-0,044
-627,722	-200,000	-0,018	0,138
-626,707	800,000	-0,013	0,033
-625,692	387,870	0,011	0,016
-624,678	296,650	0,032	-0,042
-623,663	337,487	-0,082	-0,116
-622,649	210,754	0,050	-0,057
-621,634	190,815	-0,090	-0,099
-620,619	-200,000	0,020	-0,085
-619,605	372,852	-0,098	-0,144
-618,590	-200,000	0,004	0,035
-617,576	106,592	-0,082	0,071
-616,561	3,655	-0,118	-0,062
-615,546	22,566	0,048	0,028
-614,532	800,000	-0,102	-0,232
-613,517	63,788	0,113	-0,082
-612,503	53,743	-0,094	-0,065
-611,488	800,000	0,030	-0,073
-610,474	-4,652	0,127	-0,063
-609,459	800,000	0,019	-0,039
-608,444	-29,267	0,044	-0,018
-607,430	-33,809	-0,051	-0,020
-606,415	163,911	0,050	0,051
-605,401	-200,000	0,009	0,097
-604,386	-200,000	0,007	-0,039
-603,371	-84,397	0,074	-0,017
-602,357	95,361	0,043	-0,036
-601,342	-200,000	-0,006	0,090
-600,328	-45,469	-0,069	0,025
-599,313	149,348	0,041	-0,040
-598,298	-200,000	0,026	-0,123
-597,284	800,000	0,021	-0,052
-596,269	-200,000	0,024	0,100
-595,255	-33,946	0,101	-0,040
-594,240	-7,966	-0,044	0,021
-593,225	-22,613	0,030	0,013
-592,211	-120,357	-0,072	0,009
-591,196	-200,000	-0,025	0,104
-590,182	488,816	-0,071	-0,117
-589,167	7,613	0,080	0,043
-588,152	47,705	0,025	-0,017
-587,138	-43,984	-0,099	0,036
-586,123	-34,203	-0,118	-0,047
-585,109	44,563	-0,082	-0,054
-584,094	187,604	0,055	0,060
-583,079	219,349	0,106	0,123
-582,065	-41,626	0,094	-0,035
-581,050	-163,864	-0,015	-0,001
-580,036	-30,996	-0,085	0,035
-579,021	-77,352	0,110	0,027
-578,006	-71,479	-0,143	-0,038
-576,992	-200,000	0,006	-0,155
-575,977	-26,622	0,042	-0,018
-574,963	-16,175	-0,061	0,028
-573,948	-118,963	0,144	0,018
-572,934	-200,000	0,003	0,067
-571,919	-100,634	-0,056	0,010
-570,904	-200,000	0,008	0,029
-569,890	800,000	0,071	-0,147
-568,875	315,626	0,055	0,076
-567,861	37,003	0,132	-0,084
-566,846	377,412	0,049	0,072
-565,831	-89,018	0,033	-0,007
-564,817	800,000	-0,078	-0,163
-563,802	-200,000	-0,021	-0,071
-562,788	131,179	-0,027	0,025
-561,773	174,316	-0,052	0,055
-560,758	800,000	0,054	-0,116
-559,744	73,086	0,077	0,058
-558,729	87,234	0,021	0,017
-557,715	86,569	0,035	0,028
-556,700	-12,852	0,130	-0,061
-555,685	-54,313	-0,138	-0,045
-554,671	-65,839	0,068	-0,019
-553,656	-122,341	0,086	-0,010
-552,642	-105,891	-0,109	-0,018
-551,627	-61,412	-0,223	0,067
-550,612	487,188	0,050	0,082
-549,598	800,000	-0,012	0,036
-548,583	800,000	-0,015	-0,042
-547,569	618,967	-0,017	0,031
-546,554	-200,000	0,007	-0,107
-545,539	68,182	0,066	-0,049
-544,525	200,027	0,071	0,079
-543,510	142,220	-0,075	0,072
-542,496	-200,000	0,017	-0,073
-541,481	-70,225	-0,078	0,021
-540,466	26,894	0,045	-0,027
-539,452	419,348	0,075	0,117
-538,437	-200,000	-0,019	-0,134
-537,423	-184,201	0,174	0,002
-536,408	-39,080	-0,134	-0,051
-535,393	-63,270	-0,221	-0,065
-534,379	-200,000	0,001	-0,042
-533,364	-200,000	-0,025	0,084
-532,350	-62,014	0,196	0,059
-531,335	-193,287	0,084	0,001
-530,321	800,000	0,023	0,051
-529,306	-200,000	-0,007	-0,094
-528,291	-200,000	-0,009	-0,133
-527,277	296,209	-0,113	-0,150
-526,262	45,603	-0,045	-0,030
-525,248	63,739	0,136	-0,098
-524,233	-200,000	0,038	-0,172
-523,218	-43,215	-0,119	0,043
-522,204	-160,825	0,056	0,002
-521,189	-10,377	0,108	-0,051
-520,175	-200,000	-0,006	-0,044
-519,160	121,931	0,047	-0,042
-518,145	-200,000	-0,012	-0,064
-517,131	46,439	0,078	-0,052
-516,116	128,581	-0,146	-0,134
-515,102	-22,462	-0,061	0,027
-514,087	-51,127	-0,087	0,029
-513,072	237,836	0,039	-0,047
-512,058	-17,084	-0,089	-0,040
-511,043	144,998	0,048	-0,046
-510,029	396,829	0,096	0,145
-509,014	800,000	0,034	-0,077
-507,999	-17,344	0,090	-0,041
-506,985	233,542	-0,098	-0,116
-505,970	255,538	-0,079	0,098
-504,956	-200,000	-0,008	-0,053
-503,941	-78,786	0,089	0,022
-502,926	-200,000	-0,005	0,064
-501,912	-106,625	0,130	-0,021
-500,897	-200,000	0,024	0,102
-499,883	373,211	-0,062	0,091
-498,868	-200,000	0,001	0,169
-497,853	-145,239	-0,053	-0,003
-496,839	-18,465	-0,123	-0,055
-495,824	9,088	0,053	-0,029
-494,810	-14,202	0,112	-0,052
-493,795	744,421	0,055	-0,107
-492,781	-79,849	-0,109	0,026
-491,766	-118,583	0,051	-0,006
-490,751	469,691	-0,033	0,053
-489,737	800,000	-0,021	-0,043
-488,722	226,661	-0,025	-0,029
-487,708	-200,000	0,004	0,094
-486,693	58,116	-0,095	0,067
-485,678	421,309	-0,078	-0,120
-484,664	19,606	0,142	0,082
-483,649	-200,000	0,005	0,045
-482,635	800,000	0,015	0,036
-481,620	800,000	-0,025	0,052
-480,605	800,000	0,040	0,122
-479,591	-138,236	0,114	0,009
-478,576	794,837	0,026	0,052
-477,562	584,735	-0,047	0,084
-476,547	677,476	0,062	-0,116
-475,532	653,809	-0,016	-0,030
-474,518	-79,527	-0,214	0,052
-473,503	225,210	-0,064	0,075
-472,489	-62,910	0,060	-0,018
-471,474	800,000	-0,041	0,091
-470,459	-115,288	-0,049	0,007
-469,445	800,000	0,040	-0,100
-468,430	800,000	0,026	0,054
-467,416	125,595	-0,068	-0,062
-466,401	-191,411	0,134	0,001
-465,386	86,498	0,012	-0,010
-464,372	472,943	-0,013	0,022
-463,357	-65,622	-0,110	0,031
-462,343	287,910	0,049	0,064
-461,328	-68,494	0,092	-0,026
-460,313	140,733	-0,072	-0,068
-459,299	-79,519	-0,027	-0,006
-458,284	-138,285	-0,032	-0,003
-457,270	-23,702	-0,107	0,046
-456,255	-89,253	0,124	-0,026
-455,241	23,176	-0,040	-0,024
-454,226	800,000	-0,028	-0,058
-453,211	429,640	-0,009	0,014
-452,197	-97,704	0,141	-0,026
-451,182	394,264	0,114	0,171
-450,168	141,619	-0,060	0,057
-449,153	-200,000	0,023	-0,107
-448,138	195,408	0,022	0,024
-447,124	-62,305	-0,192	-0,057
-446,109	384,182	0,030	0,045
-445,095	-200,000	0,011	0,058
-444,080	800,000	-0,025	-0,056
-443,065	-108,871	-0,086	-0,013
-442,051	102,040	-0,088	-0,074
-441,036	-200,000	-0,031	-0,193
-440,022	23,679	-0,052	-0,030
-439,007	-63,440	0,069	-0,020
-437,992	-64,772	-0,071	0,020
-436,978	150,228	0,107	0,105
-435,963	79,522	0,081	0,063
-434,949	-93,976	-0,109	-0,021
-433,934	270,902	-0,022	0,028
-432,919	-200,000	0,003	-0,084
-431,905	50,851	0,096	0,066
-430,890	433,337	-0,036	-0,057
-429,876	-200,000	0,009	0,142
-428,861	641,570	0,026	0,048
-427,846	-200,000	0,001	0,011
-426,832	-72,237	0,047	0,012
-425,817	800,000	-0,003	0,007
-424,803	-92,724	0,062	0,012
-423,788	-36,895	0,048	0,018
-422,773	-37,856	-0,056	-0,021
-421,759	2,144	0,024	0,012
-420,744	800,000	-0,042	0,095
-419,730	81,268	0,073	0,057
-418,715	-152,475	-0,093	-0,005
-417,701	-200,000	-0,007	0,102
-416,686	-200,000	0,007	-0,041
-415,671	54,229	0,057	-0,039
-414,657	800,000	0,035	-0,081
-413,642	800,000	0,055	0,123
-412,628	-200,000	-0,024	0,199
-411,613	578,811	0,031	-0,055
-410,598	-135,662	-0,030	0,003
-409,584	747,058	0,037	-0,072
-408,569	-200,000	-0,001	0,075
-407,555	-200,000	0,010	-0,085
-406,540	-75,633	0,081	-0,021
-405,525	-200,000	-0,011	-0,100
-404,511	116,182	-0,057	0,050
-403,496	23,199	-0,073	0,043
-402,482	-140,494	0,094	0,007
-401,467	-200,000	0,003	-0,109
-400,452	83,375	0,111	0,087
-399,438	800,000	-0,040	0,098
-398,423	800,000	0,055	0,111
-397,409	-126,508	0,019	-0,002
-396,394	-200,000	-0,014	-0,107
-395,379	101,798	-0,091	0,076
-394,365	-200,000	0,013	0,089
-393,350	249,155	-0,082	-0,100
-392,336	-200,000	-0,021	0,072
-391,321	288,669	0,034	-0,044
-390,306	351,074	-0,069	-0,098
-389,292	568,407	0,132	-0,231
-388,277	800,000	0,066	-0,172
-387,263	-88,325	0,142	0,030
-386,248	-77,963	-0,055	0,013
-385,233	53,135	0,026	-0,018
-384,219	800,000	0,051	-0,115
-383,204	583,055	-0,120	-0,211
-382,190	-200,000	0,023	-0,089
-381,175	-200,000	-0,014	0,065
-380,160	384,626	-0,076	-0,113
-379,146	-101,458	-0,079	-0,014
-378,131	-26,982	-0,042	0,018
-377,117	-200,000	-0,005	0,237
-376,102	800,000	-0,034	-0,079
-375,088	129,654	0,067	-0,061
-374,073	-2,592	-0,015	0,008
-373,058	-118,543	0,134	0,017
-372,044	319,616	0,071	0,097
-371,029	246,279	0,117	0,142
-370,015	573,901	0,025	-0,044
-369,000	-94,592	-0,125	0,024
-367,985	-114,068	-0,082	-0,011
-366,971	-200,000	0,003	-0,073
-365,956	781,078	0,022	-0,044
-364,942	800,000	0,012	-0,033
-363,927	-200,000	0,011	0,076
-362,912	359,060	-0,066	-0,095
-361,898	800,000	-0,062	-0,140
-360,883	-200,000	0,016	0,118
-359,869	-200,000	-0,016	-0,216
-358,854	-200,000	0,004	-0,080
-357,839	-200,000	0,041	0,130
-356,825	58,044	0,116	-0,082
-355,810	-200,000	0,005	-0,061
-354,796	800,000	-0,082	-0,215
-353,781	-156,772	-0,061	0,003
-352,766	-91,186	-0,062	-0,013
-351,752	350,868	-0,061	0,087
-350,737	800,000	0,017	0,050
-349,723	-31,006	0,033	-0,013
-348,708	151,672	0,042	0,041
-347,693	-137,110	0,040	-0,003
-346,679	604,142	-0,045	-0,080
-345,664	649,596	0,024	-0,045
-344,650	105,257	0,014	-0,012
-343,635	94,160	0,089	0,072
-342,620	-43,536	0,061	0,022
-341,606	800,000	-0,033	-0,070
-340,591	-134,014	0,140	-0,012
-339,577	-91,059	-0,080	0,016
-338,562	-200,000	-0,007	0,030
-337,548	-142,422	0,045	-0,003
-336,533	-67,149	-0,081	-0,023
-335,518	-82,023	0,076	-0,018
-334,504	350,384	-0,079	0,112
-333,489	124,822	-0,045	0,041
-332,475	-200,000	-0,003	-0,030
-331,460	361,064	0,063	-0,090
-330,445	-132,663	0,092	0,008
-329,431	-153,282	0,116	-0,006
-328,416	22,229	0,115	0,067
-327,402	-76,999	0,138	-0,034
-326,387	-7,342	-0,055	0,027
-325,372	364,773	-0,069	-0,100
-324,358	21,528	0,061	0,035
-323,343	-168,360	-0,123	-0,003
-322,329	-104,400	0,221	0,036
-321,314	-200,000	0,021	0,185
-320,299	37,942	0,029	0,018
-319,285	540,192	0,084	-0,144
-318,270	-200,000	0,014	-0,075
-317,256	-200,000	-0,009	0,088
-316,241	-94,614	-0,054	-0,010
-315,226	-44,910	-0,086	0,030
-314,212	-75,512	0,034	0,009
-313,197	-200,000	0,001	0,009
-312,183	36,329	0,034	0,021
-311,168	800,000	-0,037	-0,101
-310,153	-200,000	-0,028	-0,143
-309,139	-200,000	0,010	0,211
-308,124	55,039	0,164	-0,113
-307,110	-200,000	0,008	0,065
-306,095	22,591	-0,160	-0,093
-305,080	640,011	-0,065	0,120
-304,066	-135,370	0,092	0,008
-303,051	537,213	-0,033	0,057
-302,037	-77,083	-0,020	0,005
-301,022	-42,176	0,082	0,030
-300,008	800,000	-0,074	0,150
-298,993	-75,783	0,223	0,056
-297,978	-200,000	-0,016	0,054
-296,964	-200,000	-0,037	0,170
-295,949	161,810	-0,137	0,138
-294,935	-200,000	0,021	0,067
-293,920	-200,000	0,002	-0,115
-292,905	65,180	-0,098	0,071
-291,891	20,177	0,019	0,011
-290,876	-112,375	0,045	0,006
-289,862	800,000	0,023	-0,067
-288,847	584,718	0,021	-0,037
-287,832	271,473	0,073	0,092
-286,818	800,000	-0,009	-0,020
-285,803	800,000	0,010	0,026
-284,789	30,197	0,089	0,054
-283,774	431,206	0,072	-0,111
-282,759	159,892	-0,084	0,084
-281,745	109,090	-0,070	-0,059
-280,730	-200,000	0,019	-0,105
-279,716	-200,000	0,018	0,144
-278,701	183,589	0,218	0,230
-277,686	-200,000	-0,003	0,032
-276,672	-179,728	0,077	-0,001
-275,657	538,528	0,027	-0,045
-274,643	-16,667	-0,156	-0,070
-273,628	-200,000	0,002	0,114
-272,613	800,000	0,029	0,070
-271,599	-109,637	-0,030	0,004
-270,584	-200,000	-0,008	0,067
-269,570	471,795	-0,064	0,103
-268,555	800,000	-0,056	0,113
-267,540	115,454	-0,008	-0,007
-266,526	-200,000	-0,031	-0,168
-265,511	65,762	0,080	-0,058
-264,497	178,502	-0,056	0,059
-263,482	697,348	0,035	0,065
-262,467	464,370	0,034	-0,054
-261,453	-200,000	0,012	0,108
-260,438	800,000	-0,038	0,082
-259,424	573,988	0,059	-0,102
-258,409	800,000	-0,018	-0,049
-257,395	800,000	0,042	0,098
-256,380	-104,620	0,132	0,022
-255,365	-200,000	-0,001	-0,054
-254,351	28,775	-0,064	-0,039
-253,336	-200,000	-0,020	0,079
-252,322	-115,988	-0,127	-0,017
-251,307	-64,650	-0,059	0,017
-250,292	-130,697	-0,131	0,012
-249,278	-37,346	-0,043	0,016
-248,263	800,000	-0,027	0,060
-247,249	-76,338	0,151	-0,038
-246,234	-55,064	-0,116	0,037
-245,219	-200,000	-0,028	0,101
-244,205	-200,000	0,027	-0,085
-243,190	-200,000	-0,001	-0,083
-242,176	253,913	0,038	-0,046
-241,161	-40,441	0,121	-0,045
-240,146	-200,000	0,015	0,062
-239,132	60,887	-0,011	0,008
-238,117	117,338	0,053	-0,047
-237,103	-24,495	-0,112	-0,047
-236,088	-87,740	0,020	0,004
-235,073	-200,000	0,049	0,183
-234,059	-109,836	0,057	-0,008
-233,044	800,000	0,035	0,110
-232,030	-200,000	-0,009	0,068
-231,015	125,556	0,034	-0,031
-230,000	180,149	-0,010	-0,010
-228,986	-62,422	0,012	0,003
-227,971	488,839	0,094	0,153
-226,957	800,000	0,047	0,104
-225,942	-50,089	0,054	0,018
-224,927	17,466	-0,181	0,102
-223,913	11,602	0,122	-0,067
-222,898	-43,301	-0,107	0,039
-221,884	-111,074	-0,067	0,010
-220,869	-200,000	-0,010	-0,076
-219,855	-75,651	0,064	0,016
-218,840	-200,000	0,004	0,143
-217,825	800,000	-0,046	0,140
-216,811	800,000	-0,026	-0,079
-215,796	800,000	-0,043	0,118
-214,782	240,341	-0,017	0,021
-213,767	800,000	0,017	-0,051
-212,752	-54,754	-0,151	0,048
-211,738	310,608	-0,134	0,179
-210,723	113,376	-0,058	0,050
-209,709	-200,000	-0,009	-0,170
-208,694	-165,545	-0,038	0,001
-207,679	103,363	-0,064	-0,054
-206,665	-200,000	0,036	-0,126
-205,650	-200,000	0,007	0,054
-204,636	-63,077	0,050	0,015
-203,621	-58,994	0,081	0,025
-202,606	800,000	-0,061	-0,149
-201,592	-173,931	-0,228	0,005
-200,577	30,483	-0,026	-0,016
-199,563	-159,376	-0,179	-0,007
-198,548	-200,000	-0,000	0,030
-197,533	800,000	0,040	-0,083
-196,519	428,376	0,032	-0,050
-195,504	800,000	-0,018	0,052
-194,490	-106,622	-0,076	0,012
-193,475	200,556	-0,071	0,078
-192,460	338,180	-0,026	-0,036
-191,446	52,334	0,119	-0,081
-190,431	-66,686	0,128	-0,036
-189,417	-80,597	0,209	0,049
-188,402	-32,351	0,054	0,021
-187,387	-17,155	-0,112	-0,050
-186,373	-38,989	0,065	-0,024
-185,358	-23,733	-0,052	0,022
-184,344	-18,509	0,129	0,057
-183,329	112,357	-0,068	0,058
-182,315	-129,185	-0,124	-0,012
-181,300	-51,606	-0,103	-0,034
-180,285	-115,860	-0,110	-0,014
-179,271	265,093	-0,107	-0,133
-178,256	-61,730	-0,034	-0,010
-177,242	-115,869	-0,099	0,013
-176,227	77,764	0,030	-0,023
-175,212	-200,000	0,012	0,103
-174,198	430,700	0,044	-0,068
-173,183	800,000	0,093	-0,217
-172,169	56,146	-0,153	0,106
-171,154	17,813	-0,048	0,027
-170,139	165,562	0,073	-0,074
-169,125	-83,900	0,139	0,031
-168,110	-197,432	0,120	0,001
-167,096	187,428	-0,096	-0,102
-166,081	287,548	-0,051	-0,066
-165,066	252,917	0,035	-0,043
-164,052	-17,017	-0,151	0,068
-163,037	800,000	-0,021	0,060
-162,023	-37,720	-0,052	0,020
-161,008	541,660	0,055	0,093
-159,993	800,000	-0,034	0,077
-158,979	-17,920	0,106	0,047
-157,964	42,849	-0,014	0,009
-156,950	-51,363	-0,097	0,032
-155,935	253,519	0,100	0,122
-154,920	159,174	0,030	0,030
-153,906	800,000	0,059	0,117
-152,891	-200,000	-0,002	-0,109
-151,877	241,989	-0,109	-0,130
-150,862	-139,451	-0,102	-0,008
-149,847	-161,975	-0,083	-0,003
-148,833	-200,000	-0,008	-0,103
-147,818	-154,004	0,072	0,003
-146,804	257,331	-0,030	-0,037
-145,789	248,559	-0,039	0,047
-144,775	-128,721	0,056	-0,006
-143,760	-56,606	0,020	0,006
-142,745	-143,422	-0,175	0,012
-141,731	663,593	0,070	0,129
-140,716	-200,000	0,015	0,166
-139,702	3,332	-0,036	-0,019
-138,687	-109,308	-0,058	-0,009
-137,672	69,127	-0,051	-0,037
-136,658	800,000	-0,016	0,049
-135,643	-105,738	-0,105	-0,017
-134,629	109,054	0,099	-0,084
-133,614	65,750	0,124	-0,089
-132,599	-182,077	0,097	-0,001
-131,585	-6,994	0,145	0,070
-130,570	-111,397	-0,027	0,004
-129,556	-200,000	-0,016	-0,059
-128,541	-115,990	-0,048	-0,006
-127,526	70,589	0,099	-0,072
-126,512	416,406	0,113	-0,172
-125,497	-200,000	-0,007	0,061
-124,483	-200,000	0,008	-0,080
-123,468	800,000	0,043	0,092
-122,453	13,821	-0,144	-0,079
-121,439	-68,863	-0,197	0,054
-120,424	-200,000	-0,016	-0,083
-119,410	-9,538	0,071	0,034
-118,395	55,567	0,116	0,080
-117,380	800,000	0,036	0,101
-116,366	800,000	0,034	0,080
-115,351	-200,000	0,017	-0,069
-114,337	-33,542	-0,139	-0,054
-113,322	241,146	-0,022	0,026
-112,307	253,365	-0,053	-0,064
-111,293	-127,280	0,149	0,015
-110,278	-200,000	0,026	0,133
-109,264	35,007	-0,047	-0,029
-108,249	-200,000	0,013	-0,073
-107,234	-123,701	-0,096	-0,011
-106,220	800,000	-0,034	-0,095
-105,205	35,006	0,118	0,073
-104,191	-200,000	-0,007	0,135
-103,176	62,873	0,092	-0,065
-102,162	-200,000	-0,019	0,087
-101,147	-87,796	0,064	-0,014
-100,132	13,113	-0,116	0,064
-99,118	316,160	-0,047	-0,063
-98,103	9,448	0,035	-0,019
-97,089	-200,000	-0,020	0,177
-96,074	-123,217	0,052	0,006
-95,059	356,552	0,066	0,093
-94,045	702,994	-0,054	0,102
-93,030	436,860	0,050	-0,077
-92,016	266,122	-0,076	-0,094
-91,001	27,911	-0,006	-0,004
-89,986	-200,000	0,005	0,093
-88,972	48,147	-0,080	0,053
-87,957	-200,000	0,030	0,109
-86,943	-200,000	-0,001	0,047
-85,928	-85,010	-0,077	-0,017
-84,913	-58,627	-0,052	-0,016
-83,899	-121,445	0,062	-0,007
-82,884	12,571	0,088	-0,048
-81,870	-110,494	0,191	-0,028
-80,855	-200,000	-0,025	0,115
-79,840	-142,676	-0,112	-0,008
-78,826	-200,000	0,036	-0,197
-77,811	-43,210	-0,085	-0,030
-76,797	-200,000	0,012	-0,226
-75,782	-77,182	-0,028	0,007
-74,767	-200,000	-0,002	0,148
-73,753	800,000	-0,038	0,110
-72,738	168,853	-0,056	0,057
-71,724	800,000	-0,029	-0,084
-70,709	-200,000	0,004	-0,047
-69,694	420,953	-0,069	0,105
-68,680	278,620	0,055	0,069
-67,665	800,000	-0,042	0,102
-66,651	-6,886	0,097	-0,046
-65,636	283,630	-0,051	-0,066
-64,622	351,855	-0,028	0,039
-63,607	-64,532	-0,139	-0,040
-62,592	-161,780	-0,056	-0,002
-61,578	20,532	-0,051	-0,029
-60,563	315,851	0,046	-0,061
-59,549	800,000	0,026	0,075
-58,534	-87,760	-1,518	-0,321
-57,519	353,030	-1,466	-2,065
-56,505	-200,000	-0,579	-4,474
-55,490	148,942	0,997	0,955
-54,476	800,000	4,710	11,026
-53,461	-200,000	18,271	289,305
-52,446	800,000	727,714	2235,109
-51,432	556,597	1643,820	2814,751
-50,417	79,254	1665,682	1262,552
-49,403	22,726	1539,485	890,188
-48,388	16,695	1462,635	816,539
-47,373	17,811	1452,574	816,264
-46,359	17,157	1443,135	807,803
-45,344	14,983	1438,156	794,604
-44,330	14,926	1436,285	793,269
-43,315	14,894	1434,731	792,226
-42,300	14,927	1433,149	791,479
-41,286	14,970	1431,745	790,877
-40,271	14,950	1430,668	790,155
-39,257	14,944	1429,316	789,347
-38,242	14,950	1428,040	788,642
-37,227	14,972	1426,862	788,061
-36,213	14,994	1425,533	787,400
-35,198	15,027	1424,129	786,750
-34,184	14,967	1423,470	786,071
-33,169	14,884	1422,436	785,077
-32,154	14,924	1421,318	784,618
-31,140	14,932	1419,862	783,822
-30,125	15,007	1418,656	783,479
-29,111	14,963	1417,591	782,648
-28,096	14,960	1416,508	782,006
-27,082	14,852	1415,622	780,980
-26,067	14,901	1414,117	780,349
-25,052	14,849	1413,438	779,698
-24,038	14,822	1412,684	779,124
-23,023	14,778	1411,344	778,150
-22,009	14,788	1410,462	777,679
-20,994	14,842	1409,275	777,245
-19,979	14,826	1408,646	776,794
-18,965	14,840	1407,388	776,134
-17,950	14,771	1406,667	775,384
-16,936	14,804	1405,577	774,907
-15,921	14,792	1404,582	774,270
-14,906	14,764	1403,645	773,594
-13,892	14,783	1402,690	773,126
-12,877	14,779	1401,746	772,553
-11,863	14,783	1400,932	772,095
-10,848	14,742	1400,095	771,412
-9,833	14,731	1399,108	770,786
-8,819	14,704	1398,340	770,210
-7,804	14,664	1397,265	769,397
-6,790	14,662	1396,344	768,855
-5,775	14,723	1395,182	768,467
-4,760	14,685	1394,369	767,813
-3,746	14,644	1393,695	767,219
-2,731	14,667	1392,751	766,775
-1,717	14,679	1391,621	766,180
-0,702	14,660	1390,009	765,171
0,313	18,403	1309,031	737,935
1,327	34,699	706,507	436,021
2,342	53,046	124,608	84,238
3,356	1,843	16,616	8,447
4,371	1,769	3,198	1,625
5,386	-26,002	0,455	0,189
6,400	306,751	0,046	0,060
7,415	51,018	-0,286	-0,191
8,429	161,158	-0,240	-0,238
9,444	77,980	-0,283	-0,213
10,459	-97,510	-0,358	-0,065
11,473	-9,983	-0,321	-0,150
12,488	-72,227	-0,191	-0,050
13,502	-16,856	-0,419	-0,187
14,517	-32,332	-0,262	-0,103
15,531	115,557	-0,327	-0,282
16,546	156,565	-0,225	-0,220
17,561	235,994	-0,289	-0,338
18,575	35,253	-0,179	-0,111
19,590	99,358	-0,349	-0,285
20,604	374,112	-0,253	-0,365
21,619	135,384	-0,387	-0,356
22,634	129,070	-0,418	-0,377
23,648	50,666	-0,441	-0,295
24,663	173,375	-0,327	-0,333
25,677	222,103	-0,390	-0,443
26,692	29,354	-0,275	-0,165
27,707	-0,810	-0,346	-0,172
28,721	14,957	-0,503	-0,277
29,736	76,622	-0,331	-0,247
30,750	75,023	-0,404	-0,300
31,765	70,300	-0,361	-0,263
32,780	215,871	-0,201	-0,226
33,794	-86,301	-0,463	-0,100
34,809	136,484	-0,326	-0,300
35,823	7,092	-0,326	-0,171
36,838	116,425	-0,388	-0,335
37,853	50,743	-0,332	-0,221
38,867	196,515	-0,310	-0,333
39,882	478,601	-0,241	-0,386
40,896	102,390	-0,395	-0,326
41,911	49,515	-0,298	-0,197
42,926	103,178	-0,313	-0,259
43,940	52,011	-0,413	-0,277
44,955	-53,062	-0,301	-0,097
45,969	21,276	-0,356	-0,203
46,984	-33,704	-0,478	-0,185
47,999	390,988	-0,271	-0,398
49,013	8,382	-0,368	-0,194
50,028	-164,738	-0,268	0,008
51,042	114,805	-0,365	-0,314
52,057	133,877	-0,358	-0,327
53,071	120,053	-0,340	-0,297
54,086	-17,369	-0,219	-0,097
55,101	18,283	-0,370	-0,208
56,115	172,848	-0,242	-0,246
57,130	-38,953	-0,251	-0,092
58,144	42,862	-0,409	-0,262
59,159	24,189	-0,410	-0,238
60,174	101,108	-0,407	-0,333
61,188	20,737	-0,272	-0,154
62,203	100,806	-0,325	-0,266
63,217	96,081	-0,285	-0,229
64,232	-17,355	-0,292	-0,129
65,247	77,620	-0,273	-0,204
66,261	-59,611	-0,531	-0,159
67,276	-29,876	-0,429	-0,171
68,290	122,480	-0,360	-0,316
69,305	-27,966	-0,230	-0,093
70,320	127,953	-0,208	-0,186
71,334	121,956	-0,344	-0,302
72,349	44,879	-0,368	-0,238
73,363	67,320	-0,361	-0,259
74,378	-4,416	-0,387	-0,188
75,393	-23,493	-0,326	-0,137
76,407	67,567	-0,307	-0,220
77,422	106,238	-0,240	-0,199
78,436	-31,106	-0,285	-0,113
79,451	77,062	-0,328	-0,245
80,466	222,996	-0,284	-0,322
81,480	-12,084	-0,313	-0,144
82,495	80,971	-0,291	-0,220
83,509	86,633	-0,332	-0,257
84,524	26,218	-0,259	-0,152
85,539	71,853	-0,350	-0,255
86,553	23,725	-0,318	-0,184
87,568	60,352	-0,324	-0,225
88,582	235,549	-0,206	-0,239
89,597	-112,868	-0,205	0,028
90,611	25,989	-0,251	-0,146
91,626	10,085	-0,210	-0,112
92,641	136,779	-0,141	-0,130
93,655	217,224	-0,236	-0,264
94,670	222,756	-0,222	-0,251
95,684	192,609	-0,266	-0,282
96,699	81,634	-0,207	-0,157
97,714	165,277	-0,188	-0,186
98,728	-12,184	-0,218	-0,100
99,743	-4,793	-0,339	-0,163
100,757	1,786	-0,251	-0,126
101,772	101,963	-0,338	-0,277
102,787	100,399	-0,245	-0,199
103,801	30,534	-0,185	-0,110
104,816	-53,508	-0,337	-0,108
105,830	-14,770	-0,343	-0,154
106,845	465,806	-0,132	-0,208
107,860	-104,006	-0,399	-0,065
108,874	64,684	-0,370	-0,261
109,889	201,367	-0,202	-0,218
110,903	59,446	-0,301	-0,207
111,918	179,656	-0,118	-0,122
112,933	153,295	-0,179	-0,172
113,947	35,759	-0,202	-0,124
114,962	167,852	-0,214	-0,213
115,976	509,727	-0,182	-0,298
116,991	156,608	-0,210	-0,203
118,006	172,555	-0,200	-0,202
119,020	81,512	-0,318	-0,240
120,035	128,480	-0,302	-0,269
121,049	337,360	-0,246	-0,336
122,064	-77,309	-0,122	-0,029
123,079	-76,130	-0,166	-0,041
124,093	253,699	-0,178	-0,213
125,108	106,477	-0,280	-0,232
126,122	-32,346	-0,164	-0,064
127,137	-16,720	-0,245	-0,108
128,151	392,508	-0,093	-0,136
129,166	151,725	-0,160	-0,153
130,181	208,098	-0,230	-0,252
131,195	457,486	-0,219	-0,342
132,210	46,886	-0,327	-0,212
133,224	81,081	-0,157	-0,118
134,239	313,282	-0,190	-0,250
135,254	24,148	-0,285	-0,164
136,268	31,735	-0,222	-0,133
137,283	55,210	-0,313	-0,211
138,297	39,175	-0,184	-0,115
139,312	15,880	-0,271	-0,148
140,327	35,388	-0,194	-0,118
141,341	-2,641	-0,263	-0,128
142,356	-29,009	-0,242	-0,097
143,370	284,220	-0,107	-0,134
144,385	12,322	-0,297	-0,159
145,400	50,011	-0,251	-0,165
146,414	205,351	-0,265	-0,288
147,429	50,816	-0,298	-0,197
148,443	413,626	-0,154	-0,229
149,458	38,000	-0,176	-0,109
150,473	20,644	-0,261	-0,147
151,487	-46,303	-0,268	-0,091
152,502	-200,000	-0,077	-0,310
153,516	800,000	-0,086	-0,173
154,531	503,522	-0,116	-0,189
155,546	-17,564	-0,220	-0,096
156,560	3,355	-0,266	-0,135
157,575	202,914	-0,194	-0,210
158,589	173,063	-0,210	-0,212
159,604	41,451	-0,177	-0,112
160,619	154,237	-0,198	-0,189
161,633	126,994	-0,345	-0,305
162,648	-52,470	-0,285	-0,091
163,662	43,718	-0,324	-0,206
164,677	323,494	-0,131	-0,174
165,692	-10,519	-0,202	-0,093
166,706	125,722	-0,150	-0,132
167,721	62,984	-0,207	-0,145
168,735	275,868	-0,212	-0,263
169,750	-8,604	-0,151	-0,070
170,764	-133,663	-0,283	0,024
171,779	17,269	-0,197	-0,109
172,794	-124,666	-0,272	0,029
173,808	322,967	-0,129	-0,172
174,823	-6,835	-0,303	-0,143
175,837	-3,605	-0,316	-0,153
176,852	253,587	-0,223	-0,266
177,867	109,261	-0,220	-0,183
178,881	-68,020	-0,144	-0,039
179,896	137,120	-0,101	-0,092
180,910	96,114	-0,175	-0,139
181,925	72,862	-0,335	-0,244
182,940	328,175	-0,171	-0,230
183,954	164,321	-0,171	-0,168
184,969	104,171	-0,231	-0,189
185,983	-20,424	-0,184	-0,078
186,998	73,968	-0,269	-0,196
188,013	74,355	-0,106	-0,077
189,027	482,412	-0,105	-0,167
190,042	428,160	-0,158	-0,239
191,056	130,953	-0,154	-0,137
192,071	196,352	-0,199	-0,212
193,086	-19,787	-0,273	-0,117
194,100	516,355	-0,097	-0,158
195,115	65,439	-0,192	-0,135
196,129	314,786	-0,129	-0,170
197,144	15,745	-0,296	-0,162
198,159	-46,941	-0,263	-0,089
199,173	66,355	-0,150	-0,106
200,188	226,269	-0,184	-0,208
201,202	103,122	-0,204	-0,166
202,217	-40,407	-0,214	-0,077
203,232	130,250	-0,145	-0,129
204,246	93,453	-0,316	-0,249
205,261	133,642	-0,252	-0,227
206,275	235,121	-0,169	-0,194
207,290	166,440	-0,192	-0,189
208,304	-130,849	-0,167	0,015
209,319	-120,664	-0,213	-0,025
210,334	-127,204	-0,209	0,021
211,348	-200,000	-0,046	-0,184
212,363	90,306	-0,245	-0,190
213,377	8,192	-0,205	-0,107
214,392	22,552	-0,219	-0,124
215,407	59,715	-0,194	-0,133
216,421	-16,616	-0,218	-0,096
217,436	800,000	-0,095	-0,260
218,450	121,096	-0,113	-0,097
219,465	86,421	-0,256	-0,195
220,480	53,031	-0,308	-0,205
221,494	-53,912	-0,214	-0,067
222,509	58,385	-0,272	-0,185
223,523	130,209	-0,200	-0,177
224,538	129,000	-0,161	-0,142
225,553	-106,233	-0,187	-0,029
226,567	-102,508	-0,225	-0,037
227,582	141,509	-0,187	-0,172
228,596	800,000	-0,099	-0,225
229,611	169,271	-0,249	-0,247
230,626	48,436	-0,238	-0,154
231,640	268,523	-0,130	-0,159
232,655	96,571	-0,293	-0,232
233,669	-200,000	-0,101	-0,319
234,684	204,200	-0,207	-0,222
235,699	75,677	-0,180	-0,132
236,713	-30,545	-0,253	-0,099
237,728	-200,000	-0,050	-0,240
238,742	58,360	-0,226	-0,153
239,757	7,608	-0,225	-0,116
240,772	-76,033	-0,400	-0,097
241,786	122,418	-0,141	-0,122
242,801	44,859	-0,182	-0,116
243,815	169,535	-0,167	-0,166
244,830	526,080	-0,054	-0,089
245,844	-108,640	-0,288	0,042
246,859	89,616	-0,191	-0,147
247,874	64,716	-0,210	-0,146
248,888	448,037	-0,248	-0,379
249,903	339,455	-0,109	-0,147
250,917	436,321	-0,152	-0,230
251,932	-140,126	-0,111	0,008
252,947	124,786	-0,161	-0,140
253,961	344,540	-0,094	-0,128
254,976	40,732	-0,189	-0,118
255,990	316,935	-0,099	-0,130
257,005	95,787	-0,140	-0,111
258,020	33,925	-0,160	-0,096
259,034	-79,232	-0,221	-0,051
260,049	324,497	-0,126	-0,167
261,063	49,918	-0,121	-0,079
262,078	-146,022	-0,312	0,019
263,093	29,609	-0,192	-0,113
264,107	145,114	-0,265	-0,245
265,122	110,995	-0,136	-0,113
266,136	205,280	-0,179	-0,193
267,151	-25,506	-0,217	-0,088
268,166	-171,105	-0,232	-0,005
269,180	-50,063	-0,213	-0,069
270,195	91,009	-0,200	-0,155
271,209	-200,000	-0,045	-0,200
272,224	192,800	-0,124	-0,129
273,239	-49,412	-0,091	-0,030
274,253	500,526	-0,034	-0,054
275,268	-30,128	-0,265	-0,104
276,282	-57,748	-0,304	-0,091
277,297	133,720	-0,249	-0,223
278,312	201,348	-0,058	-0,062
279,326	108,136	-0,133	-0,110
280,341	-22,418	-0,042	-0,018
281,355	52,549	-0,149	-0,098
282,370	34,673	-0,124	-0,074
283,384	800,000	-0,111	-0,241
284,399	-200,000	-0,013	-0,198
285,414	-200,000	-0,014	-0,093
286,428	5,309	-0,127	-0,064
287,443	-38,987	-0,090	-0,033
288,457	41,741	-0,208	-0,130
289,472	-120,032	-0,219	-0,026
290,487	242,255	-0,083	-0,096
291,501	125,534	-0,245	-0,213
292,516	5,823	-0,303	-0,154
293,530	-177,913	-0,212	-0,003
294,545	88,270	-0,066	-0,051
295,560	-200,000	-0,039	-0,126
296,574	-159,288	-0,235	0,009
297,589	-151,588	-0,285	0,014
298,603	129,540	-0,144	-0,127
299,618	280,445	-0,118	-0,146
300,633	-200,000	-0,059	-0,274
301,647	52,811	-0,145	-0,095
302,662	434,540	-0,145	-0,218
303,676	800,000	-0,073	-0,191
304,691	38,299	-0,140	-0,085
305,706	112,301	-0,201	-0,168
306,720	-114,890	-0,123	-0,016
307,735	11,171	-0,178	-0,094
308,749	-95,348	-0,129	0,024
309,764	-79,146	-0,091	-0,021
310,779	-51,878	-0,127	-0,041
311,793	-181,400	-0,109	0,001
312,808	800,000	-0,054	-0,135
313,822	486,741	-0,083	-0,130
314,837	800,000	-0,056	-0,147
315,852	10,060	-0,130	-0,068
316,866	197,269	-0,143	-0,150
317,881	-200,000	-0,059	-0,198
318,895	29,112	-0,116	-0,067
319,910	800,000	-0,112	-0,217
320,925	143,193	-0,092	-0,084
321,939	-45,757	-0,177	-0,060
322,954	-70,386	-0,087	-0,023
323,968	-107,889	-0,092	0,014
324,983	800,000	-0,087	-0,189
325,997	-200,000	-0,015	-0,089
327,012	70,055	-0,231	-0,164
328,027	293,540	-0,099	-0,125
329,041	800,000	-0,047	-0,112
330,056	639,600	-0,066	-0,116
331,070	731,913	-0,061	-0,113
332,085	315,216	-0,157	-0,203
333,100	-63,720	-0,129	0,036
334,114	-62,345	-0,218	-0,062
335,129	34,998	-0,098	-0,059
336,143	-47,781	-0,125	-0,041
337,158	-181,716	-0,111	-0,001
338,173	55,873	-0,079	-0,052
339,187	-200,000	-0,044	-0,156
340,202	-11,097	-0,199	-0,090
341,216	116,965	-0,210	-0,177
342,231	12,658	-0,163	-0,086
343,246	139,525	-0,096	-0,087
344,260	-200,000	-0,031	-0,148
345,275	-200,000	-0,047	-0,189
346,289	251,654	-0,059	-0,069
347,304	-87,938	-0,042	-0,009
348,319	534,934	-0,117	-0,191
349,333	499,879	-0,070	-0,112
350,348	-48,866	-0,147	-0,048
351,362	434,984	-0,102	-0,153
352,377	-22,431	-0,135	0,056
353,392	-200,000	-0,017	-0,111
354,406	657,871	-0,067	-0,118
355,421	208,591	1315,894	1413,476
356,435	160,506	1476,768	1413,974
