DTS Sentinel unit serial number:	SN410029Multiplexer serial number:	ORYXHardware model number:	OX2-SRSoftware version number:	ORYX F/W v4,00 Oryx Data Collector v3.7.2.0data status	okinstallation	B3 Nyhavnadifferential loss correction	single-endedforward channel	channel 1reverse channel	N/Adate	2023/12/03time	02:22:30forward acquisition time	300,00reverse acquisition time	0,00gamma	499,1914k internal	0,3201k external	0,3201temperature offset calibration	1,0000default loss term (dB/km)	0,3820temperature slope calibration	1,0000multiplexer offset coefficient	1,0000multiplexer slope coefficient	1,0000fibre end	0,00T internal ref (°C)	13,31T ext. ref 1 (°C)	-1,75T ext. ref 2 (°C)	-1,77length (m)	temperature (°C)	Stokes	anti-Stokes-744,400	800,000	-0,145	-0,312
-743,385	-200,000	-0,113	0,448
-742,371	451,000	-0,092	-0,149
-741,356	-200,000	0,124	0,406
-740,342	89,189	-0,233	-0,189
-739,327	154,624	-0,197	0,197
-738,312	7,288	-0,149	-0,081
-737,298	-200,000	-0,024	0,259
-736,283	47,168	-0,267	-0,181
-735,269	-200,000	0,094	0,385
-734,254	-32,289	-0,309	-0,125
-733,239	0,837	-0,162	0,084
-732,225	453,714	-0,113	-0,183
-731,210	-200,000	-0,012	0,245
-730,196	-110,825	-0,062	-0,009
-729,181	-20,439	-0,106	0,047
-728,167	800,000	0,084	-0,197
-727,152	-4,748	0,056	-0,028
-726,137	-108,913	-0,033	0,005
-725,123	71,958	-0,202	-0,152
-724,108	-116,409	0,096	-0,013
-723,094	-200,000	-0,010	-0,033
-722,079	-53,016	-0,170	-0,057
-721,064	-57,370	0,034	-0,011
-720,050	-107,646	-0,103	-0,016
-719,035	-113,236	-0,101	0,014
-718,021	-200,000	-0,018	0,128
-717,006	-26,351	-0,086	-0,037
-715,991	0,243	-0,044	-0,023
-714,977	-200,000	-0,002	-0,083
-713,962	-183,647	-0,235	0,003
-712,948	432,164	-0,046	0,073
-711,933	-200,000	0,020	0,136
-710,918	800,000	-0,017	-0,043
-709,904	6,049	0,048	-0,026
-708,889	114,114	0,089	-0,078
-707,875	344,673	-0,112	-0,160
-706,860	87,330	0,070	0,056
-705,845	80,920	0,142	0,111
-704,831	-200,000	0,024	0,173
-703,816	800,000	0,029	0,066
-702,802	205,801	0,019	-0,022
-701,787	661,504	-0,055	-0,104
-700,772	-162,165	-0,030	0,001
-699,758	-200,000	0,015	-0,100
-698,743	-109,281	-0,091	-0,014
-697,729	-200,000	-0,017	0,076
-696,714	49,032	0,071	0,048
-695,699	-118,708	-0,094	0,012
-694,685	800,000	-0,048	0,115
-693,670	201,397	-0,114	-0,127
-692,656	-50,760	0,041	0,014
-691,641	800,000	-0,015	-0,032
-690,627	800,000	0,024	0,054
-689,612	159,352	0,042	0,042
-688,597	15,769	-0,057	-0,032
-687,583	60,749	-0,099	-0,071
-686,568	163,071	-0,051	-0,052
-685,554	-105,432	-0,077	0,013
-684,539	267,588	0,066	-0,084
-683,524	55,475	-0,011	0,008
-682,510	770,201	-0,023	0,047
-681,495	-106,334	-0,179	0,029
-680,481	-75,977	-0,142	0,036
-679,466	-5,992	0,090	-0,044
-678,451	-200,000	-0,011	-0,082
-677,437	800,000	0,031	0,081
-676,422	-13,311	0,018	-0,008
-675,408	800,000	0,023	-0,060
-674,393	800,000	0,057	-0,116
-673,378	262,156	-0,044	-0,055
-672,364	800,000	-0,077	-0,220
-671,349	-200,000	-0,052	-0,169
-670,335	-174,706	0,080	0,002
-669,320	141,239	-0,044	0,042
-668,305	467,203	-0,034	0,055
-667,291	122,108	-0,200	-0,181
-666,276	-135,525	0,101	0,009
-665,262	-102,545	-0,119	-0,020
-664,247	-88,542	-0,088	0,019
-663,232	-55,745	0,036	0,012
-662,218	-200,000	0,000	0,175
-661,203	-200,000	-0,003	0,098
-660,189	119,972	-0,086	-0,077
-659,174	-91,552	-0,130	-0,027
-658,159	-80,836	0,019	-0,005
-657,145	-200,000	0,056	-0,250
-656,130	67,671	0,023	0,017
-655,116	199,407	-0,113	-0,126
-654,101	-176,372	0,029	0,001
-653,086	800,000	0,014	-0,029
-652,072	-165,607	-0,038	0,001
-651,057	439,555	-0,107	-0,170
-650,043	221,317	-0,031	0,036
-649,028	22,884	-0,035	-0,021
-648,014	800,000	-0,061	-0,156
-646,999	510,601	0,061	0,103
-645,984	-9,905	-0,092	0,044
-644,970	79,670	-0,107	-0,083
-643,955	-200,000	0,013	-0,182
-642,941	624,298	0,015	0,027
-641,926	109,015	0,099	0,086
-640,911	183,028	-0,099	0,106
-639,897	74,379	-0,059	0,045
-638,882	-42,385	-0,058	-0,021
-637,868	-200,000	-0,032	0,144
-636,853	800,000	-0,060	-0,182
-635,838	147,649	-0,020	-0,020
-634,824	-200,000	0,017	-0,061
-633,809	25,241	0,007	0,004
-632,795	125,587	0,094	-0,086
-631,780	-81,369	0,062	-0,015
-630,765	-14,695	-0,060	-0,028
-629,751	436,079	0,065	-0,103
-628,736	-200,000	0,020	0,135
-627,722	264,120	-0,019	0,025
-626,707	200,673	0,068	-0,076
-625,692	800,000	0,013	0,032
-624,678	-200,000	0,008	-0,028
-623,663	495,459	-0,026	0,043
-622,649	42,440	-0,052	-0,034
-621,634	387,020	-0,059	-0,089
-620,619	85,343	-0,039	-0,031
-619,605	378,602	-0,028	-0,042
-618,590	-200,000	0,028	0,126
-617,576	14,790	0,021	-0,012
-616,561	800,000	0,019	-0,053
-615,546	515,019	-0,054	0,091
-614,532	-64,761	-0,055	0,016
-613,517	-89,633	-0,113	-0,024
-612,503	-118,524	0,092	0,012
-611,488	-200,000	0,044	0,170
-610,474	71,711	-0,090	-0,068
-609,459	-37,399	-0,019	-0,007
-608,444	-158,574	-0,073	-0,003
-607,430	-151,035	-0,085	-0,005
-606,415	-200,000	0,026	-0,184
-605,401	-200,000	-0,007	0,038
-604,386	166,330	-0,032	0,033
-603,371	779,749	-0,019	0,038
-602,357	-200,000	-0,010	-0,139
-601,342	304,196	0,067	-0,091
-600,328	-159,069	0,049	0,002
-599,313	36,027	-0,102	0,065
-598,298	800,000	-0,052	-0,110
-597,284	614,188	0,044	0,079
-596,269	160,795	0,053	-0,053
-595,255	-200,000	0,000	-0,030
-594,240	-92,679	-0,085	0,017
-593,225	-39,854	-0,094	-0,035
-592,211	94,914	-0,045	0,037
-591,196	-33,829	-0,115	0,045
-590,182	-147,876	0,066	0,004
-589,167	706,268	0,019	-0,037
-588,152	-200,000	0,019	-0,120
-587,138	81,365	0,098	0,077
-586,123	-200,000	-0,029	-0,223
-585,109	147,763	-0,088	-0,086
-584,094	-140,841	-0,068	0,005
-583,079	-40,505	0,088	-0,033
-582,065	-168,726	0,103	-0,003
-581,050	-22,231	0,039	0,017
-580,036	145,450	-0,028	0,027
-579,021	-124,816	-0,037	-0,004
-578,006	-147,064	-0,084	-0,005
-576,992	-24,088	0,068	-0,029
-575,977	-12,772	-0,137	-0,064
-574,963	9,306	-0,128	0,070
-573,948	-172,207	0,140	0,003
-572,934	503,725	0,041	-0,069
-571,919	-200,000	0,006	0,038
-570,904	-200,000	0,001	-0,040
-569,890	-200,000	0,050	-0,164
-568,875	800,000	-0,059	0,149
-567,861	800,000	-0,018	-0,048
-566,846	-188,423	0,170	0,002
-565,831	446,518	0,038	0,060
-564,817	-200,000	-0,027	-0,100
-563,802	-200,000	0,004	0,034
-562,788	221,566	0,097	0,113
-561,773	-200,000	0,022	0,087
-560,758	-200,000	0,006	0,099
-559,744	-87,532	0,106	0,023
-558,729	-200,000	-0,021	-0,098
-557,715	268,272	-0,103	-0,131
-556,700	800,000	-0,072	-0,162
-555,685	-200,000	0,010	-0,055
-554,671	63,130	0,055	-0,040
-553,656	-200,000	0,017	0,085
-552,642	65,184	-0,028	0,021
-551,627	-200,000	0,012	-0,067
-550,612	800,000	-0,031	0,068
-549,598	800,000	0,030	0,078
-548,583	-45,088	-0,081	-0,029
-547,569	-149,441	0,032	-0,002
-546,554	-170,251	-0,122	-0,003
-545,539	-85,168	0,163	0,037
-544,525	228,518	0,041	0,048
-543,510	-200,000	0,025	-0,151
-542,496	-200,000	0,032	-0,104
-541,481	-125,052	-0,104	0,011
-540,466	344,981	-0,085	-0,121
-539,452	26,408	0,034	0,021
-538,437	800,000	0,020	-0,062
-537,423	152,375	0,051	-0,050
-536,408	515,668	-0,080	-0,135
-535,393	800,000	-0,014	0,038
-534,379	-82,365	-0,137	0,032
-533,364	-200,000	-0,018	-0,077
-532,350	-63,200	0,154	0,045
-531,335	655,169	0,026	0,049
-530,321	130,399	0,018	0,017
-529,306	-3,285	-0,093	-0,046
-528,291	800,000	0,053	-0,125
-527,277	800,000	-0,060	-0,123
-526,262	-13,767	0,108	0,050
-525,248	14,615	0,123	0,069
-524,233	45,733	-0,084	-0,056
-523,218	800,000	-0,029	0,070
-522,204	-15,223	0,078	-0,036
-521,189	191,128	-0,077	0,084
-520,175	-57,943	0,082	-0,026
-519,160	-200,000	-0,021	-0,130
-518,145	177,444	0,039	0,041
-517,131	-147,357	0,041	-0,002
-516,116	221,572	-0,050	0,058
-515,102	-20,937	-0,090	0,040
-514,087	-200,000	0,015	-0,069
-513,072	48,047	-0,186	-0,125
-512,058	102,110	0,015	0,013
-511,043	-200,000	0,022	0,092
-510,029	-45,295	0,023	0,008
-509,014	-23,553	0,167	0,072
-507,999	380,848	0,051	0,075
-506,985	73,523	-0,025	0,019
-505,970	0,684	0,071	0,036
-504,956	-105,035	0,059	-0,010
-503,941	2,801	-0,021	0,011
-502,926	316,799	0,071	0,097
-501,912	67,404	0,108	0,079
-500,897	138,489	-0,052	-0,049
-499,883	114,182	-0,056	-0,049
-498,868	294,507	0,095	-0,126
-497,853	71,367	-0,148	0,111
-496,839	-200,000	0,038	0,145
-495,824	-101,965	-0,081	0,014
-494,810	800,000	-0,064	0,190
-493,795	800,000	-0,013	0,027
-492,781	264,223	-0,058	-0,073
-491,766	-200,000	-0,029	-0,106
-490,751	800,000	0,018	0,037
-489,737	64,425	0,027	-0,019
-488,722	-200,000	-0,012	-0,207
-487,708	518,868	0,031	-0,053
-486,693	-166,646	0,145	0,004
-485,678	22,454	-0,089	-0,052
-484,664	43,291	-0,110	0,072
-483,649	-121,867	-0,043	-0,005
-482,635	51,295	-0,084	0,057
-481,620	7,347	0,151	-0,081
-480,605	54,726	0,107	0,074
-479,591	-200,000	0,001	0,151
-478,576	51,880	-0,035	0,024
-477,562	18,686	-0,013	-0,007
-476,547	-200,000	0,015	-0,061
-475,532	355,977	-0,078	-0,112
-474,518	-200,000	0,004	0,100
-473,503	-105,812	0,113	0,018
-472,489	800,000	-0,012	-0,033
-471,474	-81,435	0,047	-0,011
-470,459	-109,904	-0,075	0,011
-469,445	-101,353	-0,073	0,013
-468,430	131,160	0,042	-0,039
-467,416	-146,592	-0,090	-0,006
-466,401	250,671	0,111	0,136
-465,386	800,000	-0,026	-0,060
-464,372	239,960	-0,031	0,037
-463,357	800,000	0,037	-0,080
-462,343	114,590	-0,042	-0,037
-461,328	-59,171	0,141	0,044
-460,313	-200,000	0,029	-0,118
-459,299	-36,037	-0,021	-0,008
-458,284	800,000	0,097	0,194
-457,270	-58,084	0,063	0,020
-456,255	-124,333	0,268	-0,030
-455,241	-56,597	-0,118	-0,037
-454,226	149,828	-0,032	0,031
-453,211	800,000	0,021	0,054
-452,197	800,000	-0,036	0,087
-451,182	800,000	0,039	0,102
-450,168	345,891	0,065	0,092
-449,153	-200,000	-0,000	-0,028
-448,138	385,951	-0,029	0,043
-447,124	-104,951	-0,032	0,005
-446,109	11,054	0,042	-0,023
-445,095	-121,115	0,121	0,014
-444,080	-125,484	-0,091	-0,010
-443,065	-78,070	0,135	0,033
-442,051	665,827	0,045	0,084
-441,036	766,080	0,055	-0,109
-440,022	537,350	-0,019	0,032
-439,007	-32,731	0,068	-0,027
-437,992	-200,000	0,008	-0,067
-436,978	-200,000	-0,040	0,170
-435,963	684,757	0,083	0,157
-434,949	-95,923	-0,065	-0,012
-433,934	-200,000	-0,015	-0,121
-432,919	-200,000	-0,002	0,118
-431,905	-9,892	0,111	0,053
-430,890	-129,001	0,065	-0,006
-429,876	-200,000	0,037	0,190
-428,861	186,914	0,058	0,062
-427,846	-7,057	0,121	0,059
-426,832	-200,000	-0,000	-0,145
-425,817	-52,968	-0,049	0,016
-424,803	-71,468	-0,127	-0,034
-423,788	800,000	0,056	0,123
-422,773	3,559	0,072	-0,038
-421,759	160,593	-0,057	0,058
-420,744	-139,501	-0,070	-0,005
-419,730	341,726	-0,067	-0,095
-418,715	191,722	0,065	0,071
-417,701	-200,000	0,002	-0,113
-416,686	-39,559	0,085	0,032
-415,671	19,465	0,119	0,068
-414,657	800,000	-0,021	0,062
-413,642	160,314	0,052	0,052
-412,628	242,145	-0,075	0,090
-411,613	525,784	0,050	-0,084
-410,598	45,247	-0,071	0,047
-409,584	479,771	-0,031	0,051
-408,569	800,000	0,018	0,053
-407,555	275,849	-0,090	0,115
-406,540	-85,105	0,069	-0,015
-405,525	-135,428	-0,080	0,007
-404,511	97,910	-0,053	0,044
-403,496	8,686	0,074	-0,040
-402,482	-128,224	0,070	0,007
-401,467	-200,000	-0,016	-0,084
-400,452	733,936	0,028	-0,053
-399,438	-126,648	0,029	-0,003
-398,423	101,887	0,048	-0,040
-397,409	286,315	0,093	-0,120
-396,394	109,997	0,087	-0,075
-395,379	800,000	-0,077	-0,167
-394,365	701,869	0,017	0,032
-393,350	-200,000	-0,029	0,125
-392,336	20,430	-0,036	-0,021
-391,321	281,603	-0,073	-0,094
-390,306	-27,659	-0,097	-0,040
-389,292	683,792	0,118	-0,222
-388,277	90,532	-0,051	-0,041
-387,263	-102,096	-0,060	-0,010
-386,248	-200,000	-0,006	0,089
-385,233	-147,202	0,074	0,004
-384,219	255,845	0,048	0,059
-383,204	-77,410	-0,147	-0,036
-382,190	-15,243	0,091	0,042
-381,175	-200,000	0,054	-0,184
-380,160	4,213	0,073	-0,038
-379,146	569,360	0,010	0,017
-378,131	425,774	-0,063	-0,098
-377,117	-168,124	0,093	0,003
-376,102	-200,000	-0,110	-0,000
-375,088	194,387	0,010	0,011
-374,073	-94,804	0,109	-0,021
-373,058	-156,867	0,123	0,005
-372,044	800,000	-0,003	0,007
-371,029	178,157	-0,080	0,083
-370,015	-82,503	0,135	0,031
-369,000	-63,239	-0,101	0,030
-367,985	-200,000	-0,002	-0,034
-366,971	800,000	0,009	0,018
-365,956	148,367	0,087	0,084
-364,942	-93,211	-0,031	-0,006
-363,927	-69,223	0,082	-0,022
-362,912	-156,654	-0,086	-0,004
-361,898	492,528	-0,096	-0,158
-360,883	472,378	0,055	-0,089
-359,869	-200,000	-0,002	-0,042
-358,854	295,049	0,026	0,035
-357,839	-50,772	-0,093	-0,031
-356,825	-200,000	-0,021	0,119
-355,810	570,268	-0,003	0,005
-354,796	603,507	-0,051	0,091
-353,781	-133,651	0,032	-0,003
-352,766	82,779	-0,058	0,045
-351,752	-26,828	0,029	0,012
-350,737	800,000	0,044	0,113
-349,723	-69,537	-0,092	0,025
-348,708	458,680	-0,023	-0,036
-347,693	-47,592	-0,050	0,017
-346,679	638,875	-0,047	0,087
-345,664	-200,000	0,004	0,084
-344,650	-200,000	-0,034	0,135
-343,635	-200,000	0,006	0,138
-342,620	-200,000	0,029	0,093
-341,606	-1,726	-0,070	0,035
-340,591	-47,679	-0,072	-0,025
-339,577	46,118	-0,040	0,027
-338,562	800,000	0,040	0,117
-337,548	800,000	0,071	-0,144
-336,533	491,659	-0,002	0,003
-335,518	247,488	0,099	0,120
-334,504	562,368	0,042	-0,073
-333,489	-200,000	-0,028	-0,183
-332,475	-200,000	-0,001	-0,003
-331,460	-159,568	-0,069	-0,003
-330,445	-200,000	0,020	-0,146
-329,431	313,342	-0,053	-0,072
-328,416	800,000	-0,027	0,063
-327,402	-200,000	0,001	0,067
-326,387	627,813	-0,032	0,058
-325,372	603,950	0,033	-0,059
-324,358	193,349	0,049	0,053
-323,343	498,946	-0,049	0,081
-322,329	-118,325	-0,032	0,004
-321,314	-200,000	-0,012	0,098
-320,299	-15,306	-0,042	-0,019
-319,285	-200,000	-0,028	0,149
-318,270	800,000	-0,006	-0,014
-317,256	-200,000	0,028	0,094
-316,241	-200,000	0,017	-0,094
-315,226	-1,826	-0,107	0,054
-314,212	-200,000	-0,002	0,070
-313,197	10,641	-0,111	0,060
-312,183	-81,602	0,133	-0,031
-311,168	-112,781	-0,121	-0,017
-310,153	242,810	-0,019	-0,023
-309,139	701,250	-0,052	-0,098
-308,124	412,660	-0,082	0,126
-307,110	-57,451	0,059	0,018
-306,095	-200,000	-0,018	0,106
-305,080	-200,000	0,002	-0,077
-304,066	-0,600	0,056	-0,028
-303,051	-116,919	-0,093	0,012
-302,037	-200,000	-0,033	-0,105
-301,022	723,487	0,049	-0,094
-300,008	800,000	0,015	-0,031
-298,993	775,360	-0,022	0,044
-297,978	-200,000	0,025	-0,084
-296,964	394,664	0,062	-0,092
-295,949	800,000	0,117	-0,234
-294,935	-200,000	0,006	-0,241
-293,920	-84,680	0,066	-0,015
-292,905	-120,273	-0,150	0,018
-291,891	-200,000	-0,051	0,202
-290,876	528,520	-0,043	0,073
-289,862	653,894	0,033	-0,060
-288,847	800,000	-0,024	-0,051
-287,832	62,749	0,025	0,018
-286,818	583,115	-0,037	0,065
-285,803	130,488	-0,107	0,098
-284,789	800,000	0,057	0,164
-283,774	-36,015	-0,189	0,073
-282,759	274,475	0,074	0,093
-281,745	-67,012	-0,036	-0,010
-280,730	113,983	-0,039	0,034
-279,716	-45,515	0,044	0,016
-278,701	-200,000	-0,027	-0,090
-277,686	-113,861	0,121	-0,017
-276,672	53,923	-0,156	-0,107
-275,657	336,769	-0,023	0,032
-274,643	194,681	-0,021	-0,023
-273,628	339,985	-0,060	-0,083
-272,613	-200,000	0,004	-0,065
-271,599	-28,133	-0,076	-0,031
-270,584	-200,000	0,001	-0,100
-269,570	733,150	0,030	0,057
-268,555	-98,176	0,068	0,012
-267,540	709,765	-0,104	-0,196
-266,526	-200,000	-0,010	-0,041
-265,511	-171,229	-0,057	0,001
-264,497	-7,617	0,126	-0,060
-263,482	338,443	-0,005	-0,008
-262,467	397,331	0,011	0,017
-261,453	-200,000	0,005	0,097
-260,438	800,000	0,059	0,155
-259,424	-58,253	-0,258	-0,080
-258,409	36,708	-0,064	-0,040
-257,395	-200,000	0,039	0,130
-256,380	800,000	-0,035	-0,083
-255,365	-99,957	0,123	0,022
-254,351	-137,803	0,045	0,004
-253,336	-200,000	-0,013	-0,075
-252,322	137,824	-0,082	-0,077
-251,307	674,453	-0,106	-0,198
-250,292	-33,209	0,047	-0,019
-249,278	-138,011	-0,075	-0,006
-248,263	-200,000	0,008	0,100
-247,249	84,478	0,094	0,073
-246,234	-100,196	0,032	-0,006
-245,219	-200,000	-0,008	0,083
-244,205	85,360	-0,146	-0,114
-243,190	498,145	-0,010	0,017
-242,176	581,516	0,013	-0,023
-241,161	-200,000	-0,026	0,158
-240,146	-200,000	-0,011	0,093
-239,132	122,966	-0,060	0,053
-238,117	-35,918	-0,142	-0,055
-237,103	12,519	-0,148	0,081
-236,088	245,253	0,093	-0,112
-235,073	-200,000	-0,005	-0,093
-234,059	324,233	-0,056	0,077
-233,044	-12,376	0,035	0,016
-232,030	-104,375	0,188	0,031
-231,015	157,367	0,057	-0,057
-230,000	-200,000	-0,010	0,105
-228,986	-83,897	-0,111	-0,025
-227,971	81,030	0,072	0,055
-226,957	244,239	0,034	-0,041
-225,942	45,237	0,115	-0,076
-224,927	-97,201	-0,047	0,009
-223,913	-113,653	0,077	0,011
-222,898	-113,420	-0,066	0,009
-221,884	-36,922	0,070	-0,026
-220,869	430,077	-0,068	0,106
-219,855	89,209	0,051	0,040
-218,840	42,299	0,116	-0,075
-217,825	516,851	-0,035	-0,059
-216,811	-110,953	0,049	0,007
-215,796	800,000	-0,016	-0,048
-214,782	-94,532	-0,024	-0,005
-213,767	182,001	0,082	0,086
-212,752	-200,000	-0,010	-0,043
-211,738	193,358	0,045	-0,048
-210,723	781,168	0,032	-0,062
-209,709	525,922	-0,007	0,011
-208,694	15,080	0,038	0,021
-207,679	800,000	0,075	-0,197
-206,665	477,521	-0,081	-0,130
-205,650	73,978	0,100	0,074
-204,636	740,787	0,038	-0,072
-203,621	-200,000	0,049	0,175
-202,606	-200,000	-0,014	0,048
-201,592	-200,000	-0,010	-0,119
-200,577	-48,757	-0,127	-0,043
-199,563	800,000	0,011	0,032
-198,548	800,000	-0,021	0,054
-197,533	-81,483	-0,100	0,023
-196,519	-200,000	0,021	0,100
-195,504	156,637	0,070	-0,069
-194,490	157,804	0,041	0,041
-193,475	-200,000	0,031	-0,104
-192,460	76,423	-0,039	-0,030
-191,446	-68,560	0,052	0,014
-190,431	5,280	-0,084	0,044
-189,417	-200,000	0,044	0,151
-188,402	800,000	0,010	-0,027
-187,387	800,000	-0,068	-0,156
-186,373	346,336	-0,036	-0,051
-185,358	-200,000	-0,012	0,064
-184,344	800,000	-0,021	-0,042
-183,329	800,000	0,039	0,087
-182,315	-78,238	0,099	-0,024
-181,300	-200,000	-0,001	0,045
-180,285	172,207	0,058	0,060
-179,271	137,639	0,093	0,087
-178,256	-88,284	-0,120	0,025
-177,242	-123,939	0,068	0,008
-176,227	-71,644	-0,094	-0,025
-175,212	-200,000	0,004	-0,054
-174,198	-108,766	0,164	0,025
-173,183	800,000	0,077	-0,164
-172,169	-200,000	-0,065	0,221
-171,154	181,774	-0,024	-0,025
-170,139	384,986	-0,061	-0,089
-169,125	-56,857	0,085	0,027
-168,110	-5,232	0,057	0,028
-167,096	116,639	-0,139	0,122
-166,081	-90,969	0,155	-0,031
-165,066	800,000	-0,064	0,149
-164,052	-29,797	0,008	0,003
-163,037	-81,300	0,097	-0,023
-162,023	146,122	0,078	0,075
-161,008	-200,000	0,026	0,115
-159,993	24,785	0,144	-0,085
-158,979	-11,109	-0,105	0,049
-157,964	237,705	0,044	0,052
-156,950	-39,671	-0,106	0,039
-155,935	-200,000	-0,026	0,089
-154,920	800,000	-0,031	-0,063
-153,906	-94,268	0,180	-0,035
-152,891	-80,684	-0,199	0,047
-151,877	-200,000	-0,007	-0,046
-150,862	800,000	0,028	-0,061
-149,847	-200,000	0,010	0,044
-148,833	800,000	0,056	0,115
-147,818	-200,000	0,004	0,070
-146,804	800,000	-0,041	0,094
-145,789	378,163	-0,063	0,092
-144,775	-200,000	-0,008	-0,063
-143,760	-59,380	0,127	0,039
-142,745	800,000	-0,029	-0,087
-141,731	-200,000	0,004	0,132
-140,716	-200,000	-0,018	0,168
-139,702	800,000	-0,076	0,218
-138,687	-30,847	0,165	0,066
-137,672	309,561	-0,071	0,095
-136,658	-200,000	-0,010	-0,043
-135,643	-200,000	-0,006	0,078
-134,629	284,968	-0,030	-0,039
-133,614	-200,000	0,009	0,082
-132,599	307,021	0,058	0,077
-131,585	190,912	0,090	0,097
-130,570	61,137	-0,069	0,048
-129,556	-80,060	-0,051	0,012
-128,541	736,376	-0,039	-0,075
-127,526	-75,946	-0,091	0,023
-126,512	-3,345	0,103	0,051
-125,497	-114,575	-0,050	0,007
-124,483	-200,000	-0,011	0,055
-123,468	-60,895	-0,080	0,024
-122,453	-156,000	-0,097	0,004
-121,439	-200,000	-0,100	0,000
-120,424	-200,000	-0,016	-0,057
-119,410	709,503	0,031	0,059
-118,395	-8,934	-0,036	0,017
-117,380	-200,000	0,004	0,093
-116,366	-43,109	-0,079	-0,028
-115,351	572,152	0,066	0,114
-114,337	362,449	-0,061	-0,087
-113,322	26,646	0,095	0,056
-112,307	8,988	-0,104	0,055
-111,293	-103,188	-0,072	0,012
-110,278	-47,429	0,129	0,044
-109,264	800,000	0,069	0,145
-108,249	47,158	-0,102	-0,067
-107,234	119,802	0,074	-0,065
-106,220	167,271	-0,084	-0,085
-105,205	34,187	-0,108	-0,066
-104,191	-200,000	-0,027	-0,101
-103,176	455,830	-0,029	-0,046
-102,162	-200,000	-0,030	0,099
-101,147	43,283	-0,069	0,044
-100,132	-93,832	0,064	-0,012
-99,118	148,937	0,029	0,028
-98,103	-15,218	0,114	-0,052
-97,089	-200,000	-0,013	0,056
-96,074	-12,119	-0,165	0,077
-95,059	800,000	0,056	0,115
-94,045	-200,000	0,005	0,035
-93,030	458,778	-0,035	-0,055
-92,016	800,000	-0,051	-0,156
-91,001	12,391	0,095	0,052
-89,986	526,816	-0,048	0,080
-88,972	568,206	0,030	-0,053
-87,957	47,420	-0,027	0,018
-86,943	3,659	-0,028	0,015
-85,928	-130,623	-0,141	0,013
-84,913	126,530	0,038	-0,034
-83,899	-90,877	0,018	-0,004
-82,884	727,562	-0,040	0,076
-81,870	58,209	0,039	-0,027
-80,855	109,479	-0,054	0,046
-79,840	-110,283	0,045	-0,007
-78,826	252,426	-0,015	0,018
-77,811	140,015	-0,042	-0,039
-76,797	305,072	-0,036	-0,048
-75,782	154,584	-0,064	-0,062
-74,767	-51,496	0,165	-0,054
-73,753	800,000	0,056	0,129
-72,738	-8,445	-0,052	-0,025
-71,724	414,251	-0,120	-0,182
-70,709	800,000	0,044	0,123
-69,694	-132,469	-0,059	-0,005
-68,680	-200,000	0,002	0,058
-67,665	217,825	0,145	-0,164
-66,651	-200,000	0,015	0,075
-65,636	-0,571	0,070	0,035
-64,622	800,000	-0,037	0,099
-63,607	-110,926	-0,070	0,010
-62,592	800,000	-0,023	0,056
-61,578	-84,965	0,088	0,019
-60,563	-200,000	-0,006	-0,024
-59,549	86,460	-0,071	0,055
-58,534	-36,457	-1,668	-0,633
-57,519	439,412	-1,400	-2,173
-56,505	-200,000	-0,520	-4,456
-55,490	264,438	0,849	1,049
-54,476	800,000	4,989	11,410
-53,461	-200,000	19,209	320,115
-52,446	-200,000	740,542	2334,964
-51,432	573,861	1655,650	2870,621
-50,417	78,301	1671,016	1262,014
-49,403	21,294	1543,931	885,658
-48,388	15,164	1466,501	811,424
-47,373	17,928	1456,709	819,333
-46,359	16,705	1446,359	807,615
-45,344	13,431	1442,120	789,530
-44,330	13,373	1439,858	787,982
-43,315	13,343	1438,238	786,918
-42,300	13,413	1436,456	786,248
-41,286	13,396	1435,252	785,478
-40,271	13,361	1433,981	784,585
-39,257	13,341	1432,708	783,758
-38,242	13,425	1431,379	783,400
-37,227	13,393	1430,329	782,646
-36,213	13,409	1428,783	781,844
-35,198	13,397	1427,619	781,117
-34,184	13,471	1426,780	780,977
-33,169	13,400	1425,369	779,841
-32,154	13,440	1424,258	779,390
-31,140	13,426	1423,009	778,608
-30,125	13,417	1422,033	778,003
-29,111	13,431	1420,641	777,277
-28,096	13,423	1419,626	776,650
-27,082	13,347	1418,855	775,841
-26,067	13,375	1417,500	775,199
-25,052	13,299	1416,529	774,280
-24,038	13,309	1415,441	773,704
-23,023	13,320	1414,541	773,230
-22,009	13,309	1413,560	772,612
-20,994	13,330	1412,580	772,144
-19,979	13,321	1411,659	771,569
-18,965	13,288	1410,650	770,833
-17,950	13,281	1409,809	770,309
-16,936	13,283	1408,929	769,807
-15,921	13,229	1407,832	768,925
-14,906	13,252	1406,948	768,517
-13,892	13,294	1405,803	768,061
-12,877	13,277	1404,963	767,491
-11,863	13,259	1404,187	766,950
-10,848	13,242	1403,290	766,354
-9,833	13,167	1402,603	765,598
-8,819	13,180	1401,761	765,169
-7,804	13,138	1400,799	764,415
-6,790	13,147	1399,682	763,817
-5,775	13,141	1398,508	763,121
-4,760	13,141	1397,797	762,700
-3,746	13,166	1396,828	762,261
-2,731	13,151	1395,851	761,625
-1,717	13,115	1395,091	761,014
-0,702	13,117	1393,299	760,017
0,313	16,997	1310,022	732,554
1,327	33,145	703,961	430,986
2,342	51,021	123,379	82,632
3,356	0,549	16,745	8,442
4,371	6,033	3,314	1,731
5,386	-32,023	0,624	0,246
6,400	-200,000	0,042	0,259
7,415	-79,639	-0,294	-0,070
8,429	-122,848	-0,452	-0,051
9,444	-54,234	-0,255	-0,082
10,459	-47,546	-0,321	-0,110
11,473	-136,324	-0,407	-0,033
12,488	18,069	-0,308	-0,173
13,502	58,311	-0,353	-0,245
14,517	26,234	-0,407	-0,240
15,531	-22,095	-0,421	-0,180
16,546	206,737	-0,228	-0,251
17,561	-16,607	-0,381	-0,170
18,575	-57,420	-0,202	-0,062
19,590	241,976	-0,171	-0,202
20,604	-19,462	-0,079	-0,035
21,619	63,747	-0,411	-0,292
22,634	53,377	-0,478	-0,323
23,648	237,019	-0,265	-0,310
24,663	66,256	-0,464	-0,333
25,677	159,960	-0,249	-0,245
26,692	172,235	-0,200	-0,203
27,707	34,506	-0,459	-0,282
28,721	42,252	-0,383	-0,245
29,736	109,690	-0,418	-0,354
30,750	31,373	-0,480	-0,291
31,765	64,717	-0,414	-0,294
32,780	111,118	-0,300	-0,255
33,794	-29,124	-0,378	-0,152
34,809	95,174	-0,326	-0,262
35,823	41,519	-0,436	-0,278
36,838	600,683	-0,193	-0,339
37,853	178,104	-0,374	-0,385
38,867	33,372	-0,361	-0,221
39,882	308,867	-0,172	-0,227
40,896	69,513	-0,302	-0,219
41,911	29,028	-0,280	-0,167
42,926	37,603	-0,370	-0,231
43,940	36,371	-0,354	-0,220
44,955	316,759	-0,306	-0,409
45,969	44,359	-0,292	-0,189
46,984	3,816	-0,448	-0,230
47,999	76,736	-0,259	-0,193
49,013	40,335	-0,405	-0,257
50,028	108,307	-0,371	-0,312
51,042	125,333	-0,354	-0,315
52,057	41,191	-0,331	-0,210
53,071	258,212	-0,267	-0,325
54,086	79,385	-0,280	-0,212
55,101	42,681	-0,290	-0,186
56,115	-36,943	-0,423	-0,159
57,130	-66,019	-0,388	-0,108
58,144	239,835	-0,267	-0,313
59,159	28,627	-0,432	-0,257
60,174	67,678	-0,359	-0,258
61,188	84,755	-0,416	-0,320
62,203	6,528	-0,357	-0,186
63,217	152,756	-0,306	-0,294
64,232	27,697	-0,381	-0,225
65,247	-17,594	-0,461	-0,203
66,261	92,238	-0,366	-0,290
67,276	-15,178	-0,368	-0,165
68,290	53,167	-0,347	-0,234
69,305	-59,113	-0,484	-0,146
70,320	12,401	-0,309	-0,167
71,334	24,011	-0,326	-0,188
72,349	-41,628	-0,364	-0,131
73,363	90,919	-0,398	-0,314
74,378	116,088	-0,356	-0,307
75,393	-45,987	-0,425	-0,147
76,407	156,539	-0,246	-0,238
77,422	-148,334	-0,280	0,016
78,436	106,920	-0,224	-0,187
79,451	592,351	-0,246	-0,428
80,466	-57,952	-0,363	-0,111
81,480	127,646	-0,278	-0,249
82,495	-36,477	-0,247	-0,093
83,509	327,292	-0,184	-0,249
84,524	-96,461	-0,137	-0,025
85,539	-9,641	-0,307	-0,143
86,553	325,152	-0,212	-0,286
87,568	31,276	-0,299	-0,180
88,582	108,440	-0,259	-0,217
89,597	118,370	-0,199	-0,172
90,611	-30,797	-0,255	-0,101
91,626	-25,705	-0,247	-0,102
92,641	4,911	-0,350	-0,180
93,655	62,958	-0,400	-0,280
94,670	1,569	-0,399	-0,201
95,684	116,360	-0,317	-0,273
96,699	24,301	-0,215	-0,124
97,714	169,728	-0,303	-0,304
98,728	377,519	-0,131	-0,188
99,743	26,694	-0,275	-0,161
100,757	231,143	-0,232	-0,267
101,772	118,610	-0,289	-0,251
102,787	38,966	-0,248	-0,155
103,801	252,009	-0,254	-0,304
104,816	-2,035	-0,302	-0,148
105,830	-6,574	-0,278	-0,132
106,845	5,497	-0,218	-0,113
107,860	-23,209	-0,195	-0,082
108,874	92,945	-0,326	-0,258
109,889	-47,363	-0,393	-0,133
110,903	211,135	-0,321	-0,354
111,918	140,203	-0,271	-0,250
112,933	251,053	-0,175	-0,209
113,947	97,621	-0,236	-0,190
114,962	-26,710	-0,267	-0,109
115,976	65,652	-0,245	-0,174
116,991	68,414	-0,256	-0,183
118,006	-8,457	-0,272	-0,128
119,020	79,561	-0,122	-0,091
120,035	-33,359	-0,257	-0,099
121,049	148,425	-0,270	-0,255
122,064	800,000	-0,081	-0,249
123,079	51,076	-0,316	-0,209
124,093	287,802	-0,262	-0,332
125,108	-42,435	-0,361	-0,128
126,122	800,000	-0,114	-0,297
127,137	27,615	-0,312	-0,183
128,151	131,145	-0,202	-0,182
129,166	208,418	-0,109	-0,120
130,181	77,833	-0,321	-0,239
131,195	-59,319	-0,240	-0,072
132,210	-53,362	-0,305	-0,097
133,224	113,007	-0,287	-0,243
134,239	-180,426	-0,385	-0,005
135,254	277,717	-0,222	-0,277
136,268	-84,554	-0,242	-0,053
137,283	515,547	-0,194	-0,318
138,297	121,487	-0,326	-0,284
139,312	63,027	-0,266	-0,186
140,327	-68,280	-0,362	-0,098
141,341	218,118	-0,299	-0,334
142,356	800,000	-0,079	-0,242
143,370	150,694	-0,179	-0,171
144,385	246,741	-0,157	-0,185
145,400	274,600	-0,178	-0,221
146,414	8,727	-0,287	-0,151
147,429	7,172	-0,353	-0,183
148,443	166,398	-0,278	-0,275
149,458	800,000	-0,108	-0,237
150,473	76,295	-0,275	-0,203
151,487	149,516	-0,207	-0,196
152,502	40,559	-0,256	-0,161
153,516	43,932	-0,283	-0,181
154,531	21,232	-0,266	-0,150
155,546	173,301	-0,279	-0,281
156,560	149,895	-0,211	-0,200
157,575	415,648	-0,087	-0,130
158,589	-200,000	-0,076	-0,242
159,604	22,115	-0,396	-0,225
160,619	97,033	-0,312	-0,250
161,633	105,471	-0,221	-0,182
162,648	-45,932	-0,282	-0,096
163,662	246,635	-0,193	-0,228
164,677	-75,786	-0,285	-0,070
165,692	-17,619	-0,312	-0,136
166,706	38,663	-0,154	-0,095
167,721	800,000	-0,173	-0,339
168,735	33,267	-0,273	-0,165
169,750	92,158	-0,274	-0,215
170,764	69,732	-0,155	-0,111
171,779	8,420	-0,233	-0,122
172,794	12,519	-0,277	-0,149
173,808	57,606	-0,210	-0,143
174,823	250,810	-0,223	-0,265
175,837	161,436	-0,241	-0,236
176,852	550,126	-0,106	-0,177
177,867	-143,874	-0,289	-0,019
178,881	185,896	-0,251	-0,261
179,896	-152,543	-0,198	-0,010
180,910	-33,095	-0,239	-0,092
181,925	149,459	-0,229	-0,216
182,940	-38,661	-0,212	-0,077
183,954	424,857	-0,157	-0,237
184,969	800,000	-0,112	-0,285
185,983	800,000	-0,081	-0,201
186,998	-49,752	-0,197	-0,065
188,013	-8,606	-0,160	-0,075
189,027	-32,386	-0,236	-0,091
190,042	50,586	-0,196	-0,129
191,056	205,964	-0,179	-0,194
192,071	-151,071	-0,149	0,008
193,086	-15,086	-0,264	-0,117
194,100	485,462	-0,152	-0,241
195,115	78,989	-0,218	-0,163
196,129	-24,005	-0,201	-0,083
197,144	-73,412	-0,299	-0,076
198,159	-38,955	-0,300	-0,109
199,173	-102,248	-0,238	-0,039
200,188	-21,004	-0,184	-0,078
201,202	159,481	-0,231	-0,223
202,217	-16,223	-0,128	-0,056
203,232	47,317	-0,166	-0,108
204,246	-4,906	-0,300	-0,143
205,261	-63,114	-0,305	-0,087
206,275	-200,000	-0,045	-0,179
207,290	534,547	-0,059	-0,098
208,304	-68,831	-0,222	-0,059
209,319	28,599	-0,208	-0,122
210,334	571,822	-0,125	-0,213
211,348	17,271	-0,262	-0,144
212,363	722,585	-0,192	-0,356
213,377	619,920	-0,170	-0,297
214,392	402,797	-0,075	-0,110
215,407	-80,323	-0,036	-0,008
216,421	-71,576	-0,232	-0,060
217,436	55,170	-0,205	-0,137
218,450	147,844	-0,160	-0,150
219,465	98,691	-0,206	-0,165
220,480	37,466	-0,199	-0,122
221,494	462,366	-0,132	-0,205
222,509	-18,679	-0,162	0,070
223,523	-103,958	-0,194	-0,031
224,538	254,679	-0,111	-0,132
225,553	28,082	-0,205	-0,120
226,567	51,290	-0,172	-0,113
227,582	133,706	-0,203	-0,182
228,596	161,608	-0,200	-0,194
229,611	-123,773	-0,193	-0,021
230,626	-174,249	-0,280	-0,006
231,640	323,604	-0,152	-0,202
232,655	-2,801	-0,351	-0,170
233,669	429,756	-0,089	-0,134
234,684	-12,280	-0,276	-0,125
235,699	433,241	-0,142	-0,214
236,713	-4,817	-0,108	-0,052
237,728	-104,973	-0,183	0,029
238,742	74,571	-0,191	-0,139
239,757	-80,729	-0,193	-0,044
240,772	121,825	-0,191	-0,165
241,786	130,823	-0,178	-0,158
242,801	-55,602	-0,179	-0,055
243,815	-94,435	-0,134	-0,025
244,830	800,000	-0,062	-0,153
245,844	800,000	-0,097	-0,210
246,859	26,823	-0,303	-0,175
247,874	180,431	-0,142	-0,145
248,888	800,000	-0,108	-0,216
249,903	-85,407	-0,198	-0,042
250,917	150,252	-0,033	0,031
251,932	-4,871	-0,193	-0,092
252,947	129,570	-0,134	-0,119
253,961	408,948	-0,101	-0,148
254,976	178,179	-0,226	-0,229
255,990	75,212	-0,270	-0,197
257,005	183,495	-0,224	-0,230
258,020	-5,592	-0,149	-0,070
259,034	103,320	-0,080	-0,065
260,049	551,207	-0,081	-0,136
261,063	35,542	-0,093	-0,056
262,078	-86,902	-0,166	-0,035
263,093	139,473	-0,127	-0,115
264,107	-50,422	-0,149	-0,048
265,122	-36,014	-0,215	-0,080
266,136	139,891	-0,137	-0,125
267,151	183,778	-0,150	-0,154
268,166	191,869	-0,229	-0,239
269,180	594,130	-0,135	-0,231
270,195	138,269	-0,158	-0,143
271,209	-28,627	-0,190	-0,075
272,224	32,925	-0,253	-0,151
273,239	123,193	-0,241	-0,209
274,253	116,832	-0,201	-0,170
275,268	-80,854	-0,304	-0,069
276,282	-166,136	-0,216	0,006
277,297	-89,161	-0,250	-0,051
278,312	-1,988	-0,180	-0,087
279,326	92,986	-0,204	-0,159
280,341	-21,833	-0,133	-0,056
281,355	40,302	-0,218	-0,135
282,370	190,390	-0,141	-0,146
283,384	-23,299	-0,085	-0,035
284,399	8,201	-0,129	-0,067
285,414	499,111	-0,114	-0,182
286,428	-78,091	-0,094	-0,022
287,443	-10,583	-0,099	0,045
288,457	8,690	-0,109	-0,056
289,472	12,321	-0,102	-0,054
290,487	108,431	-0,142	-0,117
291,501	-71,094	-0,158	-0,041
292,516	-186,207	-0,170	0,002
293,530	59,099	-0,147	-0,100
294,545	-11,999	-0,066	-0,030
295,560	800,000	-0,063	-0,156
296,574	800,000	-0,121	-0,285
297,589	122,117	-0,208	-0,179
298,603	75,839	-0,200	-0,146
299,618	-6,249	-0,171	-0,080
300,633	13,189	-0,091	-0,049
301,647	235,855	-0,088	-0,100
302,662	-27,362	-0,059	0,024
303,676	43,705	-0,204	-0,128
304,691	97,360	-0,213	-0,169
305,706	412,447	-0,206	-0,302
306,720	119,192	-0,131	-0,112
307,735	-141,794	-0,127	-0,009
308,749	-33,257	-0,125	-0,048
309,764	129,563	-0,070	-0,062
310,779	11,280	-0,128	-0,067
311,793	391,585	-0,054	-0,077
312,808	161,140	-0,179	-0,172
313,822	131,729	-0,160	-0,141
314,837	354,096	-0,104	-0,143
315,852	215,183	-0,060	-0,065
316,866	800,000	-0,031	-0,071
317,881	-16,790	-0,124	-0,054
318,895	21,573	-0,209	-0,117
319,910	-24,182	-0,255	-0,104
320,925	104,783	-0,230	-0,186
321,939	-43,700	-0,198	-0,068
322,954	190,217	-0,090	-0,093
323,968	254,358	-0,071	0,084
324,983	94,003	-0,076	0,060
325,997	267,175	-0,086	-0,104
327,012	124,586	-0,184	-0,159
328,027	26,527	-0,177	-0,101
329,041	-123,304	-0,167	-0,018
330,056	339,224	-0,151	-0,203
331,070	218,993	-0,166	-0,183
332,085	105,240	-0,159	-0,129
333,100	-46,589	-0,130	-0,044
334,114	-29,466	-0,045	-0,018
335,129	205,567	-0,135	-0,145
336,143	-200,000	-0,060	-0,199
337,158	269,215	-0,110	-0,133
338,173	-200,000	-0,011	-0,088
339,187	-41,541	-0,153	-0,054
340,202	128,612	-0,150	-0,131
341,216	-200,000	-0,054	-0,205
342,231	-39,295	-0,166	-0,060
343,246	-96,206	-0,189	-0,034
344,260	-44,646	-0,132	0,045
345,275	-179,846	-0,018	0,000
346,289	-61,069	-0,245	0,071
347,304	46,370	-0,087	-0,055
348,319	280,194	-0,116	-0,142
349,333	425,551	-0,136	-0,201
350,348	800,000	-0,080	-0,172
351,362	484,823	-0,061	-0,095
352,377	40,876	-0,108	0,067
353,392	93,982	-0,081	0,063
354,406	117,358	-0,110	-0,093
355,421	211,031	1313,223	1418,308
356,435	162,481	1473,773	1418,803
