DTS Sentinel unit serial number:	SN410029Multiplexer serial number:	ORYXHardware model number:	OX2-SRSoftware version number:	ORYX F/W v4,00 Oryx Data Collector v3.7.2.0data status	okinstallation	B3 Nyhavnadifferential loss correction	single-endedforward channel	channel 1reverse channel	N/Adate	2023/12/01time	18:52:30forward acquisition time	300,00reverse acquisition time	0,00gamma	499,1914k internal	0,3201k external	0,3201temperature offset calibration	1,0000default loss term (dB/km)	0,3820temperature slope calibration	1,0000multiplexer offset coefficient	1,0000multiplexer slope coefficient	1,0000fibre end	0,00T internal ref (°C)	15,12T ext. ref 1 (°C)	1,06T ext. ref 2 (°C)	1,04length (m)	temperature (°C)	Stokes	anti-Stokes-744,400	-18,937	-0,247	-0,112
-743,385	-200,000	0,021	0,502
-742,371	-9,040	-0,155	-0,075
-741,356	800,000	0,147	0,329
-740,342	138,963	-0,140	-0,133
-739,327	800,000	-0,099	0,264
-738,312	-110,755	-0,267	-0,040
-737,298	-200,000	-0,022	0,274
-736,283	192,107	-0,188	-0,206
-735,269	-200,000	0,073	0,274
-734,254	105,614	-0,261	-0,224
-733,239	112,009	-0,186	0,163
-732,225	3,114	-0,169	-0,089
-731,210	800,000	0,093	0,211
-730,196	-145,057	-0,034	-0,002
-729,181	37,239	-0,063	0,041
-728,167	-27,983	-0,093	-0,039
-727,152	248,249	0,097	-0,120
-726,137	-62,449	-0,119	-0,036
-725,123	-200,000	-0,033	-0,106
-724,108	800,000	-0,028	-0,079
-723,094	109,468	-0,132	-0,114
-722,079	107,858	-0,086	-0,075
-721,064	-58,072	0,104	0,033
-720,050	312,504	0,044	0,061
-719,035	95,938	-0,054	-0,045
-718,021	60,719	0,077	-0,056
-717,006	-200,000	-0,028	-0,116
-715,991	-200,000	-0,005	-0,065
-714,977	800,000	-0,037	-0,092
-713,962	800,000	-0,041	-0,120
-712,948	423,319	0,057	-0,089
-711,933	448,910	-0,065	0,104
-710,918	775,270	-0,049	-0,098
-709,904	-116,234	0,035	0,005
-708,889	800,000	-0,029	0,078
-707,875	800,000	0,025	-0,059
-706,860	-29,838	-0,070	0,029
-705,845	-200,000	0,072	0,248
-704,831	-200,000	-0,012	0,051
-703,816	48,213	-0,085	-0,058
-702,802	71,071	-0,105	-0,079
-701,787	-130,046	-0,059	0,006
-700,772	-200,000	-0,004	-0,029
-699,758	-12,743	0,047	0,022
-698,743	-197,133	-0,099	0,000
-697,729	-200,000	0,007	0,071
-696,714	70,654	-0,093	-0,070
-695,699	-132,354	0,103	0,010
-694,685	46,962	-0,051	-0,034
-693,670	72,892	-0,116	-0,088
-692,656	800,000	0,031	0,071
-691,641	-200,000	-0,026	-0,104
-690,627	30,117	-0,039	0,024
-689,612	436,013	0,023	-0,036
-688,597	437,465	-0,036	0,057
-687,583	58,897	-0,098	0,070
-686,568	-89,363	-0,031	0,006
-685,554	-121,990	-0,128	-0,015
-684,539	800,000	0,023	-0,052
-683,524	-150,037	0,052	-0,003
-682,510	-200,000	-0,014	0,139
-681,495	800,000	-0,020	0,056
-680,481	800,000	0,021	0,049
-679,466	-5,371	-0,053	0,026
-678,451	-12,332	-0,117	-0,055
-677,437	800,000	0,041	-0,127
-676,422	-200,000	0,001	-0,030
-675,408	-158,171	0,136	-0,006
-674,393	-200,000	0,032	-0,140
-673,378	384,216	-0,050	-0,075
-672,364	-200,000	-0,001	-0,124
-671,349	-43,870	-0,138	-0,050
-670,335	-112,195	0,090	-0,013
-669,320	-200,000	-0,006	-0,117
-668,305	34,044	0,068	0,043
-667,291	-200,000	-0,015	-0,126
-666,276	-166,548	-0,051	-0,001
-665,262	-150,736	0,055	-0,003
-664,247	530,376	-0,067	-0,115
-663,232	577,000	-0,034	0,061
-662,218	-193,542	0,127	0,001
-661,203	527,057	0,027	0,046
-660,189	15,237	-0,068	0,039
-659,174	-200,000	-0,000	-0,066
-658,159	211,933	-0,029	-0,033
-657,145	-200,000	-0,003	-0,104
-656,130	248,579	-0,044	-0,055
-655,116	277,752	0,067	0,087
-654,101	699,698	-0,068	0,131
-653,086	-61,128	-0,083	-0,025
-652,072	448,994	0,092	0,147
-651,057	1,285	-0,137	-0,071
-650,043	288,711	-0,085	-0,112
-649,028	166,514	-0,025	-0,026
-648,014	129,531	-0,104	-0,096
-646,999	85,560	-0,119	-0,095
-645,984	-200,000	-0,003	0,071
-644,970	-200,000	0,016	0,095
-643,955	105,242	-0,081	0,069
-642,941	800,000	-0,046	0,102
-641,926	164,139	0,055	0,056
-640,911	6,678	-0,106	-0,057
-639,897	47,111	0,104	-0,070
-638,882	341,889	0,057	0,082
-637,868	43,269	-0,134	-0,088
-636,853	-200,000	-0,000	-0,112
-635,838	-106,409	-0,051	-0,008
-634,824	-118,351	-0,035	-0,004
-633,809	800,000	-0,040	-0,097
-632,795	-103,266	0,046	-0,008
-631,780	-200,000	0,026	0,138
-630,765	-19,584	-0,030	0,013
-629,751	410,157	0,067	0,103
-628,736	-130,016	-0,116	-0,011
-627,722	262,013	-0,052	-0,065
-626,707	-156,828	-0,152	-0,007
-625,692	18,761	0,074	-0,043
-624,678	800,000	0,015	0,032
-623,663	800,000	-0,060	-0,144
-622,649	264,705	0,033	-0,041
-621,634	-200,000	-0,006	-0,052
-620,619	-79,414	-0,057	-0,014
-619,605	-29,144	0,206	0,085
-618,590	171,436	0,070	0,072
-617,576	10,761	-0,041	0,023
-616,561	316,259	-0,039	0,053
-615,546	546,717	-0,044	0,077
-614,532	-89,809	0,090	-0,019
-613,517	402,146	-0,070	0,107
-612,503	800,000	-0,033	-0,100
-611,488	-55,878	0,131	-0,042
-610,474	37,697	0,124	-0,080
-609,459	241,328	0,042	0,051
-608,444	262,749	0,030	-0,037
-607,430	-82,789	-0,144	-0,033
-606,415	-80,226	-0,079	-0,019
-605,401	-12,382	0,032	0,015
-604,386	-144,798	0,250	0,016
-603,371	-200,000	-0,018	0,062
-602,357	-74,347	0,077	-0,020
-601,342	-161,567	-0,270	0,010
-600,328	-200,000	0,003	0,042
-599,313	114,489	-0,071	-0,062
-598,298	149,480	-0,090	-0,088
-597,284	-200,000	-0,018	0,066
-596,269	-60,850	0,107	-0,033
-595,255	-200,000	0,002	0,086
-594,240	-78,149	0,070	0,017
-593,225	-13,706	-0,102	-0,048
-592,211	651,036	-0,032	-0,060
-591,196	-200,000	-0,022	-0,089
-590,182	213,626	0,051	0,059
-589,167	-59,358	0,096	-0,030
-588,152	-200,000	0,026	-0,117
-587,138	800,000	-0,051	-0,162
-586,123	321,584	-0,069	-0,095
-585,109	-200,000	-0,016	-0,119
-584,094	-73,892	-0,085	-0,022
-583,079	50,193	0,133	0,091
-582,065	-47,917	0,122	0,043
-581,050	800,000	-0,089	0,193
-580,036	793,314	0,059	-0,118
-579,021	-105,708	0,037	-0,006
-578,006	-200,000	-0,044	-0,160
-576,992	-200,000	0,006	-0,065
-575,977	-67,101	-0,056	-0,016
-574,963	800,000	0,017	0,053
-573,948	27,875	0,081	0,049
-572,934	-11,894	-0,060	-0,028
-571,919	-200,000	0,014	-0,101
-570,904	-36,584	-0,201	-0,078
-569,890	145,030	0,082	0,080
-568,875	-146,033	0,038	-0,002
-567,861	104,566	0,044	-0,038
-566,846	-54,352	0,146	0,048
-565,831	-200,000	-0,037	-0,169
-564,817	-200,000	0,004	-0,043
-563,802	800,000	0,014	0,037
-562,788	44,235	0,085	0,056
-561,773	637,710	0,044	0,082
-560,758	-160,252	0,062	0,002
-559,744	-200,000	-0,002	0,043
-558,729	800,000	0,007	0,018
-557,715	-52,719	-0,081	0,027
-556,700	544,393	0,029	-0,051
-555,685	-95,139	-0,121	-0,023
-554,671	331,214	0,060	0,084
-553,656	259,373	0,025	0,032
-552,642	-164,229	-0,083	0,003
-551,627	-200,000	0,009	0,029
-550,612	30,979	0,093	-0,057
-549,598	800,000	-0,056	-0,152
-548,583	-73,105	-0,185	-0,049
-547,569	282,333	-0,041	0,054
-546,554	61,271	-0,073	0,052
-545,539	56,996	0,066	0,046
-544,525	-52,718	0,101	-0,033
-543,510	-200,000	0,002	-0,084
-542,496	682,345	-0,122	-0,230
-541,481	-83,526	0,129	-0,030
-540,466	-200,000	-0,012	0,150
-539,452	22,715	0,036	-0,021
-538,437	-200,000	-0,001	0,128
-537,423	-134,368	0,061	0,005
-536,408	800,000	-0,015	0,044
-535,393	-200,000	-0,030	-0,139
-534,379	-200,000	0,033	-0,151
-533,364	-3,522	-0,021	-0,010
-532,350	-200,000	0,024	-0,083
-531,335	-167,538	0,032	0,001
-530,321	-200,000	0,016	0,139
-529,306	800,000	-0,018	0,050
-528,291	-200,000	-0,001	-0,041
-527,277	-200,000	-0,006	-0,144
-526,262	-200,000	0,003	-0,136
-525,248	-111,928	-0,051	0,007
-524,233	800,000	0,044	0,132
-523,218	-91,160	0,088	-0,018
-522,204	46,707	-0,062	-0,042
-521,189	-200,000	-0,009	-0,128
-520,175	-200,000	-0,012	-0,117
-519,160	800,000	-0,014	-0,039
-518,145	-67,774	0,073	0,020
-517,131	72,589	0,090	0,068
-516,116	89,948	-0,056	0,045
-515,102	800,000	-0,039	0,086
-514,087	-200,000	0,019	-0,072
-513,072	-200,000	0,005	-0,020
-512,058	755,198	-0,037	0,073
-511,043	-200,000	0,001	-0,099
-510,029	800,000	0,091	0,240
-509,014	800,000	-0,051	0,150
-507,999	800,000	0,034	0,090
-506,985	253,119	-0,034	-0,042
-505,970	-200,000	0,002	-0,060
-504,956	-81,705	-0,087	-0,020
-503,941	-200,000	0,010	0,064
-502,926	-182,436	-0,172	-0,002
-501,912	-200,000	0,021	0,112
-500,897	-200,000	-0,026	0,164
-499,883	-200,000	0,017	-0,078
-498,868	800,000	0,021	-0,064
-497,853	-200,000	0,008	0,062
-496,839	-200,000	0,015	0,127
-495,824	800,000	0,034	0,076
-494,810	-69,358	0,074	0,020
-493,795	229,562	-0,026	0,031
-492,781	-123,755	-0,129	-0,015
-491,766	784,560	-0,095	-0,188
-490,751	-200,000	0,030	-0,185
-489,737	253,638	0,087	0,107
-488,722	-92,846	-0,094	0,019
-487,708	-200,000	0,010	-0,064
-486,693	521,279	0,038	-0,064
-485,678	-200,000	-0,035	-0,165
-484,664	163,667	-0,033	0,034
-483,649	290,596	-0,103	-0,135
-482,635	34,627	-0,078	0,049
-481,620	138,676	-0,107	0,101
-480,605	800,000	0,002	0,007
-479,591	-200,000	0,011	0,116
-478,576	-200,000	0,018	-0,065
-477,562	-200,000	0,009	0,034
-476,547	-144,745	-0,076	-0,005
-475,532	-79,291	0,117	0,028
-474,518	18,726	0,062	0,035
-473,503	-200,000	-0,003	0,101
-472,489	800,000	-0,056	0,133
-471,474	285,732	0,120	0,156
-470,459	326,272	-0,043	-0,060
-469,445	-31,032	0,035	-0,014
-468,430	312,529	0,054	0,073
-467,416	-200,000	0,002	-0,078
-466,401	427,787	0,051	0,080
-465,386	68,338	0,056	0,041
-464,372	-200,000	-0,030	0,173
-463,357	-50,265	-0,071	0,024
-462,343	-149,037	-0,094	0,005
-461,328	241,096	0,104	0,125
-460,313	800,000	0,022	0,050
-459,299	-66,187	-0,047	-0,013
-458,284	360,757	-0,071	0,103
-457,270	-110,936	0,171	0,025
-456,255	-200,000	-0,029	0,117
-455,241	-200,000	-0,032	0,102
-454,226	300,667	0,037	0,049
-453,211	-2,823	-0,122	-0,061
-452,197	248,839	-0,064	-0,079
-451,182	174,926	-0,040	0,041
-450,168	253,227	0,029	-0,036
-449,153	-200,000	0,030	0,121
-448,138	-51,183	-0,037	-0,012
-447,124	-200,000	-0,014	-0,155
-446,109	-200,000	-0,014	-0,206
-445,095	36,760	-0,105	0,066
-444,080	-31,604	-0,102	0,041
-443,065	-89,522	0,141	-0,029
-442,051	-200,000	-0,006	-0,090
-441,036	-200,000	-0,060	-0,258
-440,022	25,593	0,057	-0,034
-439,007	-15,155	0,107	-0,049
-437,992	-33,985	0,193	0,076
-436,978	-83,580	0,051	0,012
-435,963	-46,103	0,072	0,025
-434,949	201,808	0,035	-0,039
-433,934	800,000	-0,063	-0,149
-432,919	24,933	-0,041	0,024
-431,905	800,000	-0,015	0,041
-430,890	308,031	0,032	0,043
-429,876	73,101	-0,010	0,007
-428,861	-200,000	-0,008	0,034
-427,846	20,291	0,084	-0,049
-426,832	800,000	-0,046	-0,130
-425,817	8,770	0,122	0,066
-424,803	106,366	-0,049	-0,042
-423,788	-6,547	0,065	0,032
-422,773	-124,126	-0,021	0,002
-421,759	108,396	0,113	-0,097
-420,744	134,560	-0,078	-0,072
-419,730	-59,843	-0,096	-0,029
-418,715	90,305	-0,108	-0,087
-417,701	-200,000	-0,019	-0,069
-416,686	118,505	0,075	0,067
-415,671	-200,000	-0,034	0,149
-414,657	106,598	-0,062	0,052
-413,642	-30,346	-0,082	-0,033
-412,628	571,596	-0,022	0,038
-411,613	38,662	-0,073	-0,047
-410,598	-34,845	-0,033	0,013
-409,584	-200,000	0,032	0,131
-408,569	-200,000	0,033	0,105
-407,555	-96,900	-0,029	-0,005
-406,540	309,430	0,010	0,013
-405,525	-200,000	-0,006	-0,077
-404,511	-200,000	-0,002	-0,041
-403,496	800,000	0,050	-0,150
-402,482	800,000	-0,033	0,076
-401,467	-200,000	-0,000	0,049
-400,452	-200,000	-0,005	0,075
-399,438	22,682	0,033	-0,020
-398,423	-10,243	-0,050	0,024
-397,409	-123,759	-0,149	-0,017
-396,394	539,918	-0,051	-0,087
-395,379	-86,834	0,109	0,024
-394,365	-122,167	-0,092	-0,011
-393,350	800,000	-0,035	0,088
-392,336	-200,000	-0,003	0,105
-391,321	-200,000	0,009	-0,050
-390,306	-200,000	-0,015	-0,052
-389,292	-117,983	-0,118	-0,015
-388,277	-148,949	0,070	0,004
-387,263	-63,780	0,170	-0,050
-386,248	40,186	-0,072	0,047
-385,233	-200,000	0,001	0,267
-384,219	-26,359	-0,037	-0,015
-383,204	47,413	0,037	0,025
-382,190	145,701	-0,049	0,047
-381,175	201,675	0,134	-0,148
-380,160	-200,000	-0,009	-0,082
-379,146	-200,000	0,011	0,107
-378,131	373,911	0,053	-0,078
-377,117	350,131	-0,043	0,061
-376,102	518,761	-0,060	-0,102
-375,088	128,315	0,063	-0,058
-374,073	800,000	-0,037	-0,109
-373,058	-95,750	0,059	-0,011
-372,044	-200,000	-0,013	0,121
-371,029	268,954	-0,020	-0,025
-370,015	-64,999	0,035	0,010
-369,000	-109,745	0,059	0,009
-367,985	116,988	-0,008	-0,007
-366,971	-16,786	-0,109	0,049
-365,956	800,000	-0,022	0,068
-364,942	120,317	-0,092	0,082
-363,927	800,000	0,048	0,100
-362,912	-138,961	0,098	-0,008
-361,898	-62,776	-0,053	-0,016
-360,883	-200,000	-0,015	-0,111
-359,869	359,210	-0,094	0,136
-358,854	445,306	0,075	0,118
-357,839	-200,000	0,026	0,150
-356,825	249,557	-0,123	0,150
-355,810	174,547	0,130	0,135
-354,796	-45,889	-0,016	0,006
-353,781	360,502	-0,100	-0,143
-352,766	203,672	0,117	-0,130
-351,752	800,000	0,024	-0,056
-350,737	-200,000	0,022	0,087
-349,723	-200,000	0,044	0,141
-348,708	-200,000	-0,037	0,138
-347,693	-200,000	0,011	-0,090
-346,679	-3,919	0,106	-0,052
-345,664	463,062	-0,061	-0,098
-344,650	-200,000	-0,008	0,036
-343,635	529,793	0,043	-0,073
-342,620	-200,000	-0,017	0,213
-341,606	262,255	-0,043	0,054
-340,591	266,658	-0,055	-0,069
-339,577	156,144	-0,062	-0,061
-338,562	-70,930	-0,083	0,022
-337,548	261,698	-0,121	-0,151
-336,533	-115,035	0,066	-0,009
-335,518	477,089	0,034	0,054
-334,504	-61,817	-0,147	-0,044
-333,489	362,363	0,037	-0,054
-332,475	1,615	-0,260	0,133
-331,460	-92,231	-0,100	-0,020
-330,445	-123,407	0,151	0,017
-329,431	80,059	-0,058	-0,044
-328,416	0,261	0,066	0,034
-327,402	800,000	0,048	0,135
-326,387	-37,069	-0,181	-0,069
-325,372	800,000	0,047	-0,101
-324,358	-111,833	-0,066	-0,009
-323,343	112,579	-0,030	-0,026
-322,329	13,275	-0,055	-0,031
-321,314	-116,699	0,160	-0,021
-320,299	-200,000	-0,021	0,126
-319,285	169,127	-0,046	-0,047
-318,270	220,243	0,044	-0,051
-317,256	-200,000	-0,047	-0,218
-316,241	-200,000	-0,013	-0,080
-315,226	292,268	-0,044	0,058
-314,212	45,166	0,057	0,037
-313,197	800,000	-0,039	-0,112
-312,183	800,000	-0,063	0,192
-311,168	391,993	-0,083	-0,124
-310,153	15,147	0,033	-0,019
-309,139	800,000	0,061	-0,130
-308,124	-162,296	-0,128	0,004
-307,110	172,328	0,028	-0,029
-306,095	72,875	0,072	0,054
-305,080	-200,000	-0,002	0,066
-304,066	-59,003	0,120	0,037
-303,051	-14,434	0,139	-0,064
-302,037	-200,000	0,006	-0,127
-301,022	-9,186	0,215	-0,102
-300,008	800,000	0,052	-0,138
-298,993	-65,379	0,126	-0,036
-297,978	800,000	-0,084	0,209
-296,964	800,000	0,035	0,077
-295,949	5,998	-0,062	-0,033
-294,935	-200,000	-0,013	0,057
-293,920	162,739	0,016	0,016
-292,905	145,314	0,159	-0,153
-291,891	210,527	0,086	0,096
-290,876	4,277	0,105	-0,055
-289,862	151,999	-0,068	0,067
-288,847	446,621	-0,088	0,139
-287,832	4,190	-0,073	-0,038
-286,818	-200,000	0,002	0,078
-285,803	-134,063	0,136	-0,012
-284,789	-112,717	0,174	-0,025
-283,774	130,606	-0,136	-0,124
-282,759	-88,350	0,025	0,005
-281,745	800,000	-0,035	-0,077
-280,730	-200,000	0,016	-0,081
-279,716	-37,378	0,115	0,044
-278,701	-63,071	0,018	-0,005
-277,686	-200,000	0,014	0,101
-276,672	279,702	-0,080	-0,103
-275,657	54,473	-0,080	-0,055
-274,643	-49,659	0,100	-0,034
-273,628	-200,000	0,015	-0,109
-272,613	322,926	0,041	-0,056
-271,599	-200,000	0,015	0,152
-270,584	-200,000	-0,004	0,030
-269,570	166,373	-0,045	0,046
-268,555	16,571	-0,124	0,070
-267,540	-200,000	-0,035	-0,110
-266,526	-109,653	0,056	0,008
-265,511	89,492	0,066	-0,053
-264,497	143,631	0,038	0,036
-263,482	-83,750	0,029	0,007
-262,467	-200,000	0,036	-0,114
-261,453	388,151	0,080	0,119
-260,438	-88,134	-0,141	-0,030
-259,424	114,338	0,037	0,032
-258,409	-41,430	0,076	0,028
-257,395	69,510	-0,042	0,031
-256,380	108,501	-0,132	0,112
-255,365	-200,000	0,009	0,061
-254,351	-83,479	-0,110	0,025
-253,336	-55,285	-0,047	-0,015
-252,322	-200,000	0,022	-0,175
-251,307	-200,000	0,008	-0,075
-250,292	116,506	0,131	-0,114
-249,278	58,477	0,046	-0,032
-248,263	-200,000	-0,011	0,052
-247,249	-2,086	-0,033	0,016
-246,234	616,216	-0,063	0,113
-245,219	437,497	-0,067	-0,105
-244,205	-126,299	0,106	-0,011
-243,190	-63,281	0,043	0,013
-242,176	49,412	-0,032	0,021
-241,161	-106,242	-0,052	-0,008
-240,146	-200,000	-0,002	0,007
-239,132	-85,851	-0,061	-0,013
-238,117	9,685	-0,137	-0,074
-237,103	212,550	-0,087	-0,099
-236,088	-10,637	0,082	-0,039
-235,073	108,496	0,049	0,042
-234,059	-157,293	0,086	-0,004
-233,044	-97,179	0,043	0,008
-232,030	-62,277	-0,086	-0,025
-231,015	-200,000	0,010	0,102
-230,000	-0,216	-0,085	0,043
-228,986	165,654	-0,029	-0,030
-227,971	-124,462	0,210	0,023
-226,957	-200,000	0,014	0,062
-225,942	-121,962	-0,034	0,004
-224,927	-200,000	0,016	-0,114
-223,913	624,002	0,045	0,082
-222,898	448,442	-0,041	-0,064
-221,884	253,126	-0,072	0,088
-220,869	83,603	-0,049	0,038
-219,855	325,826	-0,043	0,059
-218,840	-79,020	0,159	-0,038
-217,825	22,135	0,118	0,068
-216,811	-75,210	0,060	0,015
-215,796	800,000	0,040	-0,099
-214,782	85,550	-0,023	-0,018
-213,767	13,357	-0,099	0,055
-212,752	131,877	0,064	0,059
-211,738	800,000	-0,025	0,076
-210,723	-78,256	0,028	-0,007
-209,709	0,111	0,102	-0,052
-208,694	-115,456	-0,102	0,014
-207,679	-76,909	0,034	-0,009
-206,665	70,813	0,030	0,022
-205,650	-115,484	0,008	0,001
-204,636	-65,942	0,110	0,031
-203,621	-116,701	0,092	0,012
-202,606	187,343	-0,058	0,062
-201,592	-200,000	-0,007	-0,143
-200,577	265,977	-0,068	-0,084
-199,563	-200,000	-0,007	0,120
-198,548	8,808	0,024	0,013
-197,533	-96,872	0,049	0,009
-196,519	-26,424	0,071	0,030
-195,504	-96,311	0,124	-0,023
-194,490	-161,200	-0,126	-0,005
-193,475	800,000	-0,027	0,066
-192,460	800,000	0,024	0,062
-191,446	491,949	0,057	0,094
-190,431	-200,000	-0,021	0,131
-189,417	-200,000	0,007	0,058
-188,402	-192,268	0,072	0,000
-187,387	-134,289	-0,133	0,011
-186,373	800,000	0,027	-0,084
-185,358	361,152	0,079	-0,113
-184,344	148,368	-0,027	0,026
-183,329	64,122	0,027	0,019
-182,315	23,254	-0,012	0,007
-181,300	-200,000	0,018	0,111
-180,285	-200,000	-0,064	0,000
-179,271	800,000	-0,039	-0,102
-178,256	436,855	0,025	-0,039
-177,242	-31,664	-0,076	-0,030
-176,227	-101,924	0,143	-0,024
-175,212	-2,981	0,076	0,037
-174,198	-125,247	0,060	0,006
-173,183	147,627	-0,086	-0,083
-172,169	21,255	-0,108	-0,062
-171,154	-200,000	-0,002	0,100
-170,139	-200,000	-0,026	0,098
-169,125	-200,000	0,031	0,129
-168,110	-122,882	0,103	-0,012
-167,096	70,859	-0,029	-0,022
-166,081	311,573	0,096	-0,129
-165,066	716,671	-0,020	-0,038
-164,052	275,234	0,029	-0,037
-163,037	-200,000	-0,008	0,051
-162,023	93,957	-0,009	-0,007
-161,008	-200,000	0,006	0,189
-159,993	-200,000	-0,014	-0,049
-158,979	-200,000	0,008	0,041
-157,964	14,138	0,098	0,054
-156,950	-200,000	0,025	-0,092
-155,935	-92,937	0,038	0,007
-154,920	800,000	0,030	-0,084
-153,906	-57,408	-0,059	0,018
-152,891	-150,111	-0,102	0,006
-151,877	-200,000	0,024	-0,124
-150,862	800,000	-0,048	0,097
-149,847	595,296	0,005	0,008
-148,833	691,160	0,038	-0,071
-147,818	37,242	-0,061	0,038
-146,804	278,535	-0,038	-0,048
-145,789	-200,000	-0,033	-0,168
-144,775	-200,000	0,006	-0,059
-143,760	-200,000	-0,021	-0,105
-142,745	-200,000	0,001	-0,130
-141,731	-125,328	-0,089	-0,010
-140,716	174,864	0,095	-0,097
-139,702	800,000	-0,021	0,046
-138,687	-200,000	0,005	0,057
-137,672	277,460	0,074	-0,093
-136,658	144,423	-0,071	-0,068
-135,643	303,069	0,034	0,045
-134,629	268,411	-0,062	-0,078
-133,614	-36,188	0,151	0,057
-132,599	-200,000	0,015	0,117
-131,585	35,730	0,040	-0,025
-130,570	-79,420	-0,061	0,014
-129,556	-200,000	0,039	-0,219
-128,541	800,000	-0,057	-0,120
-127,526	753,497	-0,016	0,031
-126,512	-77,896	0,094	0,023
-125,497	800,000	0,026	0,068
-124,483	800,000	-0,084	0,187
-123,468	800,000	0,032	0,092
-122,453	-200,000	-0,013	-0,042
-121,439	800,000	-0,067	0,139
-120,424	-200,000	0,014	-0,116
-119,410	386,958	-0,059	0,087
-118,395	-8,965	0,058	-0,028
-117,380	-200,000	-0,025	0,078
-116,366	240,501	0,101	-0,120
-115,351	109,137	-0,031	0,026
-114,337	-20,993	-0,063	-0,027
-113,322	-135,357	-0,095	0,008
-112,307	-28,745	-0,045	0,018
-111,293	-91,688	0,045	-0,009
-110,278	420,729	0,086	-0,131
-109,264	-200,000	-0,010	0,037
-108,249	47,215	0,074	-0,049
-107,234	591,803	0,027	0,047
-106,220	766,768	-0,050	-0,096
-105,205	27,453	-0,060	0,036
-104,191	130,897	0,066	-0,060
-103,176	-61,239	0,102	-0,030
-102,162	40,126	-0,140	-0,089
-101,147	124,596	-0,061	0,055
-100,132	800,000	0,025	0,075
-99,118	-88,150	0,066	-0,014
-98,103	800,000	-0,038	-0,089
-97,089	-90,263	-0,029	0,006
-96,074	-63,877	-0,082	0,024
-95,059	-154,482	-0,029	-0,001
-94,045	-10,594	-0,123	0,057
-93,030	-55,586	-0,110	-0,035
-92,016	479,481	-0,063	0,101
-91,001	-200,000	0,005	0,068
-89,986	-148,235	0,126	0,007
-88,972	189,146	0,068	-0,072
-87,957	72,522	0,062	0,046
-86,943	-37,250	0,053	-0,020
-85,928	42,465	-0,021	-0,014
-84,913	-200,000	0,030	-0,141
-83,899	-97,735	0,092	0,017
-82,884	43,006	0,036	0,023
-81,870	129,826	0,123	0,111
-80,855	548,012	-0,056	0,095
-79,840	504,262	-0,053	-0,087
-78,826	800,000	0,035	-0,088
-77,811	-82,610	0,093	-0,021
-76,797	115,015	-0,018	0,016
-75,782	113,116	-0,046	-0,039
-74,767	467,238	-0,030	0,048
-73,753	148,535	0,069	0,066
-72,738	-35,779	-0,061	-0,023
-71,724	-52,502	-0,136	-0,044
-70,709	-54,521	0,156	0,050
-69,694	800,000	-0,013	0,026
-68,680	528,876	0,059	0,098
-67,665	-3,920	-0,039	0,019
-66,651	-200,000	0,015	-0,090
-65,636	800,000	-0,024	0,050
-64,622	74,885	-0,089	-0,066
-63,607	-200,000	0,007	-0,041
-62,592	-21,674	-0,085	0,036
-61,578	-111,958	0,123	0,017
-60,563	800,000	0,039	0,120
-59,549	193,967	0,049	0,053
-58,534	-29,697	-1,440	-0,579
-57,519	360,547	-1,576	-2,241
-56,505	-200,000	-0,319	-4,490
-55,490	177,232	0,854	0,881
-54,476	800,000	4,799	11,255
-53,461	-200,000	18,024	286,682
-52,446	800,000	724,982	2223,900
-51,432	556,328	1639,117	2806,419
-50,417	79,493	1661,327	1260,579
-49,403	22,989	1535,393	889,235
-48,388	16,948	1459,033	815,832
-47,373	17,871	1448,888	814,560
-46,359	17,339	1439,071	806,471
-45,344	15,211	1434,680	793,846
-44,330	15,188	1432,688	792,604
-43,315	15,169	1431,075	791,592
-42,300	15,153	1429,342	790,525
-41,286	15,197	1428,401	790,183
-40,271	15,175	1426,973	789,256
-39,257	15,182	1425,784	788,600
-38,242	15,264	1424,401	788,188
-37,227	15,206	1423,227	787,237
-36,213	15,241	1422,003	786,695
-35,198	15,191	1420,811	785,767
-34,184	15,245	1419,821	785,444
-33,169	15,181	1418,593	784,429
-32,154	15,243	1417,568	784,122
-31,140	15,205	1416,210	783,164
-30,125	15,236	1415,235	782,739
-29,111	15,235	1413,982	782,008
-28,096	15,221	1413,107	781,429
-27,082	15,169	1411,709	780,383
-26,067	15,160	1410,672	779,737
-25,052	15,150	1409,650	779,093
-24,038	15,173	1408,541	778,559
-23,023	15,138	1407,402	777,731
-22,009	15,141	1406,587	777,265
-20,994	15,081	1405,620	776,421
-19,979	15,076	1404,836	775,933
-18,965	15,065	1403,807	775,281
-17,950	15,094	1402,690	774,769
-16,936	15,037	1401,951	774,068
-15,921	15,076	1400,742	773,549
-14,906	15,074	1399,762	772,969
-13,892	15,075	1398,951	772,495
-12,877	15,031	1398,177	771,830
-11,863	15,057	1397,040	771,292
-10,848	14,988	1396,258	770,512
-9,833	15,042	1395,284	770,194
-8,819	14,950	1394,396	769,249
-7,804	14,963	1393,528	768,797
-6,790	14,965	1392,290	768,095
-5,775	14,923	1391,492	767,430
-4,760	14,919	1390,782	766,987
-3,746	14,964	1389,810	766,630
-2,731	14,919	1388,987	765,937
-1,717	14,906	1388,095	765,354
-0,702	14,902	1386,286	764,309
0,313	18,772	1306,137	737,969
1,327	35,143	706,168	436,873
2,342	53,891	124,839	84,737
3,356	5,746	16,513	8,611
4,371	2,587	3,078	1,573
5,386	-9,059	0,595	0,281
6,400	779,041	0,062	0,121
7,415	34,603	-0,300	-0,185
8,429	94,198	-0,370	-0,297
9,444	48,042	-0,358	-0,236
10,459	-5,338	-0,384	-0,186
11,473	-55,308	-0,424	-0,134
12,488	285,521	-0,244	-0,312
13,502	8,671	-0,302	-0,160
14,517	4,419	-0,334	-0,172
15,531	64,767	-0,407	-0,290
16,546	0,409	-0,466	-0,234
17,561	297,600	-0,337	-0,438
18,575	384,663	-0,073	-0,106
19,590	800,000	-0,097	-0,285
20,604	-10,059	-0,262	-0,122
21,619	134,666	-0,412	-0,378
22,634	169,853	-0,290	-0,293
23,648	77,270	-0,408	-0,306
24,663	118,980	-0,398	-0,347
25,677	64,153	-0,402	-0,285
26,692	53,959	-0,328	-0,222
27,707	112,583	-0,265	-0,227
28,721	458,563	-0,271	-0,426
29,736	154,036	-0,384	-0,372
30,750	216,376	-0,390	-0,439
31,765	359,545	-0,249	-0,353
32,780	390,683	-0,187	-0,274
33,794	200,141	-0,262	-0,284
34,809	115,560	-0,339	-0,293
35,823	107,736	-0,374	-0,314
36,838	129,463	-0,391	-0,353
37,853	115,040	-0,348	-0,300
38,867	89,255	-0,389	-0,305
39,882	-8,611	-0,326	-0,154
40,896	800,000	-0,126	-0,265
41,911	17,841	-0,349	-0,195
42,926	9,140	-0,414	-0,220
43,940	175,984	-0,388	-0,397
44,955	71,062	-0,256	-0,187
45,969	53,899	-0,345	-0,233
46,984	286,858	-0,329	-0,420
47,999	67,067	-0,204	-0,146
49,013	-2,895	-0,373	-0,183
50,028	-81,085	-0,395	-0,091
51,042	-85,533	-0,357	-0,078
52,057	23,952	-0,458	-0,265
53,071	13,210	-0,339	-0,184
54,086	-11,229	-0,256	-0,118
55,101	105,882	-0,324	-0,270
56,115	42,314	-0,305	-0,195
57,130	74,037	-0,389	-0,287
58,144	361,035	-0,247	-0,349
59,159	109,319	-0,416	-0,351
60,174	131,870	-0,341	-0,309
61,188	152,113	-0,224	-0,216
62,203	-51,554	-0,297	-0,097
63,217	-41,459	-0,295	-0,106
64,232	-31,531	-0,192	-0,075
65,247	56,631	-0,283	-0,194
66,261	126,624	-0,363	-0,324
67,276	28,325	-0,442	-0,262
68,290	71,400	-0,356	-0,260
69,305	54,421	-0,266	-0,180
70,320	-69,998	-0,253	-0,067
71,334	15,155	-0,419	-0,230
72,349	-31,754	-0,286	-0,112
73,363	47,307	-0,384	-0,251
74,378	95,191	-0,318	-0,254
75,393	37,409	-0,293	-0,182
76,407	176,894	-0,169	-0,173
77,422	43,230	-0,326	-0,209
78,436	25,812	-0,260	-0,152
79,451	91,251	-0,325	-0,256
80,466	248,870	-0,298	-0,355
81,480	139,928	-0,324	-0,300
82,495	53,114	-0,363	-0,244
83,509	-5,059	-0,375	-0,181
84,524	-67,449	-0,268	-0,074
85,539	77,639	-0,159	-0,118
86,553	138,506	-0,254	-0,234
87,568	482,006	-0,210	-0,336
88,582	48,387	-0,302	-0,198
89,597	95,697	-0,331	-0,265
90,611	-21,971	-0,303	-0,129
91,626	468,258	-0,153	-0,241
92,641	-8,629	-0,250	-0,117
93,655	199,948	-0,210	-0,226
94,670	241,507	-0,237	-0,279
95,684	227,778	-0,239	-0,273
96,699	34,299	-0,281	-0,172
97,714	60,935	-0,320	-0,223
98,728	387,398	-0,169	-0,246
99,743	-61,798	-0,262	-0,077
100,757	69,590	-0,267	-0,193
101,772	33,591	-0,294	-0,179
102,787	800,000	-0,155	-0,387
103,801	800,000	-0,152	-0,357
104,816	109,703	-0,169	-0,142
105,830	141,169	-0,310	-0,287
106,845	132,474	-0,189	-0,171
107,860	210,083	-0,193	-0,213
108,874	-90,180	-0,211	-0,043
109,889	564,450	-0,148	-0,252
110,903	104,105	-0,192	-0,158
111,918	222,042	-0,204	-0,230
112,933	-13,895	-0,256	-0,115
113,947	105,460	-0,267	-0,221
114,962	70,762	-0,223	-0,161
115,976	214,133	-0,245	-0,272
116,991	-88,707	-0,282	-0,058
118,006	82,341	-0,398	-0,302
119,020	-11,710	-0,287	-0,131
120,035	327,325	-0,174	-0,235
121,049	78,588	-0,290	-0,217
122,064	-161,892	-0,232	-0,008
123,079	97,498	-0,278	-0,223
124,093	132,863	-0,241	-0,218
125,108	242,566	-0,172	-0,201
126,122	800,000	-0,095	-0,221
127,137	519,771	-0,152	-0,251
128,151	57,014	-0,203	-0,138
129,166	221,235	-0,202	-0,228
130,181	-6,510	-0,289	-0,137
131,195	97,563	-0,233	-0,187
132,210	64,864	-0,294	-0,208
133,224	37,832	-0,226	-0,140
134,239	79,544	-0,307	-0,230
135,254	72,761	-0,091	-0,066
136,268	18,987	-0,298	-0,166
137,283	57,119	-0,231	-0,157
138,297	153,019	-0,211	-0,201
139,312	95,272	-0,338	-0,269
140,327	217,900	-0,198	-0,221
141,341	269,976	-0,169	-0,208
142,356	472,781	-0,106	-0,167
143,370	134,004	-0,197	-0,179
144,385	151,420	-0,243	-0,231
145,400	125,411	-0,278	-0,245
146,414	-12,674	-0,353	-0,160
147,429	160,319	-0,248	-0,242
148,443	252,152	-0,222	-0,265
149,458	336,647	-0,193	-0,262
150,473	19,611	-0,182	-0,102
151,487	65,954	-0,209	-0,148
152,502	231,560	-0,247	-0,283
153,516	8,486	-0,281	-0,147
154,531	99,335	-0,235	-0,190
155,546	95,668	-0,164	-0,130
156,560	-41,979	-0,202	-0,072
157,575	66,900	-0,190	-0,135
158,589	-39,962	-0,254	-0,092
159,604	-28,051	-0,221	-0,089
160,619	166,275	-0,250	-0,247
161,633	-89,731	-0,239	-0,048
162,648	65,335	-0,295	-0,208
163,662	45,791	-0,179	-0,115
164,677	-195,481	-0,360	-0,002
165,692	-160,415	-0,244	-0,009
166,706	7,836	-0,211	-0,110
167,721	64,103	-0,294	-0,206
168,735	252,475	-0,220	-0,262
169,750	-22,918	-0,289	-0,121
170,764	800,000	-0,125	-0,257
171,779	568,649	-0,065	-0,110
172,794	65,136	-0,236	-0,166
173,808	105,978	-0,214	-0,177
174,823	705,345	-0,125	-0,232
175,837	-48,316	-0,241	-0,080
176,852	554,469	-0,189	-0,319
177,867	-103,703	-0,321	-0,052
178,881	237,116	-0,123	-0,143
179,896	21,271	-0,174	-0,098
180,910	800,000	-0,064	-0,172
181,925	113,818	-0,250	-0,211
182,940	24,796	-0,361	-0,208
183,954	97,921	-0,187	-0,150
184,969	49,824	-0,253	-0,166
185,983	-165,204	-0,172	-0,005
186,998	800,000	-0,056	-0,135
188,013	138,029	-0,242	-0,221
189,027	-22,738	-0,170	-0,071
190,042	349,537	-0,208	-0,287
191,056	195,511	-0,249	-0,264
192,071	-22,170	-0,179	-0,075
193,086	306,050	-0,131	-0,170
194,100	-12,600	-0,238	-0,108
195,115	52,829	-0,216	-0,143
196,129	288,943	-0,156	-0,197
197,144	258,376	-0,256	-0,308
198,159	57,569	-0,243	-0,165
199,173	30,158	-0,169	-0,100
200,188	-99,638	-0,302	-0,052
201,202	395,457	-0,101	-0,147
202,217	17,900	-0,199	-0,110
203,232	16,218	-0,293	-0,160
204,246	-10,489	-0,277	-0,127
205,261	166,437	-0,206	-0,203
206,275	-113,011	-0,289	-0,039
207,290	532,686	-0,087	-0,144
208,304	-0,019	-0,180	-0,089
209,319	168,381	-0,113	-0,112
210,334	402,836	-0,125	-0,184
211,348	159,999	-0,112	-0,109
212,363	51,985	-0,104	-0,069
213,377	94,026	-0,194	-0,153
214,392	121,964	-0,263	-0,228
215,407	-39,497	-0,096	-0,035
216,421	82,952	-0,156	-0,117
217,436	-7,951	-0,170	-0,079
218,450	174,040	-0,193	-0,194
219,465	61,107	-0,248	-0,170
220,480	257,431	-0,182	-0,218
221,494	664,328	-0,124	-0,224
222,509	197,209	-0,162	-0,172
223,523	198,431	-0,088	-0,094
224,538	111,583	-0,042	-0,036
225,553	-57,714	-0,170	-0,051
226,567	266,035	-0,141	-0,171
227,582	281,657	-0,192	-0,240
228,596	533,050	-0,037	-0,061
229,611	7,541	-0,129	-0,067
230,626	-200,000	-0,040	-0,175
231,640	800,000	-0,086	-0,166
232,655	182,097	-0,207	-0,212
233,669	-55,719	-0,162	-0,050
234,684	355,137	-0,111	-0,154
235,699	183,653	-0,112	-0,115
236,713	192,311	-0,102	-0,107
237,728	354,030	-0,101	-0,140
238,742	21,985	-0,246	-0,139
239,757	751,835	-0,089	-0,167
240,772	-109,416	-0,124	0,018
241,786	237,812	-0,134	-0,154
242,801	4,556	-0,201	-0,102
243,815	-200,000	-0,001	-0,116
244,830	620,577	-0,083	-0,146
245,844	-75,014	-0,187	0,046
246,859	-16,324	-0,255	-0,111
247,874	524,352	-0,125	-0,204
248,888	-157,983	-0,199	-0,008
249,903	800,000	-0,052	-0,117
250,917	137,658	-0,208	-0,188
251,932	85,785	-0,059	-0,045
252,947	-200,000	-0,024	-0,247
253,961	-200,000	-0,020	-0,168
254,976	30,901	-0,322	-0,191
255,990	118,949	-0,212	-0,181
257,005	800,000	-0,066	-0,185
258,020	425,714	-0,128	-0,191
259,034	800,000	-0,016	-0,039
260,049	264,504	-0,117	-0,141
261,063	35,284	-0,168	-0,102
262,078	141,429	-0,209	-0,192
263,093	351,574	-0,162	-0,223
264,107	263,370	-0,023	0,028
265,122	574,087	-0,037	-0,063
266,136	-66,021	-0,155	-0,042
267,151	89,346	-0,120	-0,092
268,166	50,250	-0,212	-0,138
269,180	-118,824	-0,163	-0,020
270,195	-131,062	-0,111	0,010
271,209	530,996	-0,110	-0,180
272,224	19,857	-0,214	-0,119
273,239	800,000	-0,054	-0,125
274,253	227,903	-0,081	-0,091
275,268	-3,235	-0,150	-0,072
276,282	-26,718	-0,223	-0,089
277,297	-94,763	-0,245	-0,045
278,312	48,769	-0,214	-0,138
279,326	-99,563	-0,116	-0,020
280,341	4,988	-0,073	-0,037
281,355	126,387	-0,179	-0,156
282,370	50,775	-0,260	-0,169
283,384	800,000	-0,127	-0,244
284,399	353,471	-0,167	-0,229
285,414	210,809	-0,083	-0,090
286,428	-200,000	-0,038	-0,208
287,443	376,538	-0,148	-0,209
288,457	-200,000	-0,011	-0,149
289,472	156,955	-0,178	-0,170
290,487	136,564	-0,152	-0,137
291,501	355,796	-0,168	-0,231
292,516	673,404	-0,153	-0,274
293,530	-167,650	-0,133	0,004
294,545	-53,893	-0,128	-0,040
295,560	-200,000	-0,015	-0,077
296,574	223,500	-0,090	-0,100
297,589	92,238	-0,163	-0,127
298,603	510,635	-0,127	-0,205
299,618	-31,924	-0,057	-0,022
300,633	577,747	-0,109	-0,184
301,647	532,153	-0,038	-0,062
302,662	-200,000	-0,025	-0,094
303,676	-30,731	-0,100	-0,039
304,691	-100,242	-0,213	-0,036
305,706	145,659	-0,170	-0,157
306,720	621,920	-0,172	-0,300
307,735	-3,531	-0,198	-0,094
308,749	800,000	-0,024	-0,046
309,764	378,815	-0,069	-0,097
310,779	-87,248	-0,214	0,044
311,793	-0,719	-0,243	-0,118
312,808	226,143	-0,208	-0,233
313,822	38,518	-0,228	-0,140
314,837	-200,000	0,003	-0,089
315,852	78,747	-0,044	0,032
316,866	760,200	-0,027	0,051
317,881	-117,096	-0,090	-0,011
318,895	-28,835	-0,190	-0,075
319,910	539,428	-0,154	-0,254
320,925	-2,083	-0,278	-0,134
321,939	76,057	-0,143	-0,104
322,954	-61,798	-0,075	0,021
323,968	-200,000	-0,199	-0,000
324,983	-94,654	-0,131	0,024
325,997	-200,000	-0,001	-0,161
327,012	143,561	-0,139	-0,127
328,027	-11,539	-0,229	-0,103
329,041	-200,000	-0,028	-0,243
330,056	-200,000	-0,010	-0,047
331,070	118,920	-0,123	-0,104
332,085	-200,000	0,029	-0,103
333,100	177,742	-0,107	-0,108
334,114	285,645	-0,078	-0,097
335,129	42,168	-0,205	-0,128
336,143	142,566	-0,163	-0,148
337,158	168,770	-0,134	-0,132
338,173	-47,576	-0,061	0,020
339,187	92,642	-0,231	-0,179
340,202	-200,000	-0,049	-0,217
341,216	25,952	-0,210	-0,120
342,231	22,328	-0,112	-0,063
343,246	518,088	-0,092	-0,148
344,260	-200,000	-0,001	-0,041
345,275	35,887	-0,126	-0,076
346,289	800,000	-0,050	-0,113
347,304	-129,827	-0,100	-0,009
348,319	64,129	-0,182	-0,125
349,333	100,441	-0,067	-0,054
350,348	32,708	-0,251	-0,149
351,362	-154,422	-0,145	-0,007
352,377	14,553	-0,108	-0,058
353,392	-190,976	-0,068	0,000
354,406	22,654	-0,125	-0,070
355,421	208,313	1315,290	1412,118
356,435	160,283	1476,115	1412,646
