DTS Sentinel unit serial number:	SN410029Multiplexer serial number:	ORYXHardware model number:	OX2-SRSoftware version number:	ORYX F/W v4,00 Oryx Data Collector v3.7.2.0data status	okinstallation	B3 Nyhavnadifferential loss correction	single-endedforward channel	channel 1reverse channel	N/Adate	2023/12/03time	05:02:30forward acquisition time	300,00reverse acquisition time	0,00gamma	499,1914k internal	0,3201k external	0,3201temperature offset calibration	1,0000default loss term (dB/km)	0,3820temperature slope calibration	1,0000multiplexer offset coefficient	1,0000multiplexer slope coefficient	1,0000fibre end	0,00T internal ref (°C)	13,28T ext. ref 1 (°C)	-1,80T ext. ref 2 (°C)	-1,81length (m)	temperature (°C)	Stokes	anti-Stokes-744,400	242,317	-0,223	-0,272
-743,385	-200,000	-0,062	0,347
-742,371	652,651	-0,116	-0,217
-741,356	-200,000	-0,002	0,236
-740,342	-200,000	-0,035	-0,161
-739,327	-200,000	0,020	0,443
-738,312	526,230	-0,188	-0,324
-737,298	-200,000	-0,070	0,297
-736,283	455,408	-0,189	-0,306
-735,269	-200,000	-0,015	0,310
-734,254	125,874	-0,201	-0,185
-733,239	0,810	-0,264	0,137
-732,225	530,186	-0,096	-0,166
-731,210	-79,958	0,160	-0,039
-730,196	80,904	0,097	0,076
-729,181	-200,000	0,030	-0,144
-728,167	-200,000	0,005	-0,086
-727,152	50,370	0,128	-0,088
-726,137	447,330	0,024	-0,039
-725,123	9,050	-0,067	-0,037
-724,108	800,000	0,037	-0,088
-723,094	-100,258	-0,084	-0,015
-722,079	-200,000	-0,008	0,115
-721,064	-66,965	-0,059	-0,017
-720,050	-43,804	-0,051	-0,019
-719,035	27,045	0,218	0,132
-718,021	-46,812	-0,077	-0,027
-717,006	-200,000	-0,045	-0,201
-715,991	-200,000	-0,064	-0,258
-714,977	30,008	-0,017	-0,010
-713,962	-34,290	-0,227	-0,090
-712,948	447,416	-0,119	-0,192
-711,933	-200,000	-0,004	0,047
-710,918	800,000	0,017	0,041
-709,904	-122,986	-0,208	0,024
-708,889	72,211	0,025	-0,019
-707,875	-48,370	-0,059	-0,021
-706,860	365,868	0,022	-0,032
-705,845	-130,258	0,092	-0,009
-704,831	35,748	-0,057	0,036
-703,816	297,775	-0,036	-0,048
-702,802	-131,916	0,110	-0,010
-701,787	800,000	0,040	-0,117
-700,772	631,913	0,026	-0,047
-699,758	-77,799	0,069	0,017
-698,743	800,000	0,048	-0,130
-697,729	-200,000	-0,004	-0,023
-696,714	-72,452	0,012	-0,003
-695,699	-44,524	-0,072	0,026
-694,685	-200,000	0,013	-0,117
-693,670	-200,000	-0,070	-0,243
-692,656	-200,000	0,025	-0,092
-691,641	39,424	0,050	-0,032
-690,627	249,925	-0,090	-0,111
-689,612	62,478	-0,069	0,050
-688,597	235,289	-0,141	-0,170
-687,583	-89,898	-0,059	-0,012
-686,568	170,948	0,075	0,078
-685,554	202,827	0,039	-0,044
-684,539	503,161	0,019	0,031
-683,524	333,197	-0,050	-0,070
-682,510	61,370	0,069	0,050
-681,495	194,129	-0,019	0,021
-680,481	-200,000	-0,015	-0,117
-679,466	-200,000	-0,004	-0,050
-678,451	46,151	-0,055	0,037
-677,437	-200,000	0,005	0,045
-676,422	208,216	0,036	0,041
-675,408	12,550	-0,048	0,027
-674,393	62,972	0,105	0,076
-673,378	800,000	-0,048	-0,131
-672,364	-11,318	-0,047	0,022
-671,349	800,000	-0,054	-0,139
-670,335	-69,678	-0,107	-0,030
-669,320	-91,696	0,101	0,021
-668,305	-199,331	0,015	0,000
-667,291	-82,920	-0,112	-0,026
-666,276	-51,202	0,086	-0,029
-665,262	280,935	-0,043	-0,055
-664,247	786,928	0,033	-0,066
-663,232	-200,000	0,022	-0,100
-662,218	-30,249	-0,026	-0,011
-661,203	625,683	-0,051	0,093
-660,189	-200,000	0,008	-0,205
-659,174	-200,000	-0,043	-0,163
-658,159	-49,738	-0,044	0,015
-657,145	251,316	0,121	-0,149
-656,130	-200,000	0,019	-0,122
-655,116	-52,931	0,048	0,016
-654,101	502,434	-0,060	0,100
-653,086	-27,650	0,063	0,026
-652,072	-82,512	-0,024	0,006
-651,057	434,772	-0,069	-0,109
-650,043	2,033	0,050	-0,026
-649,028	-2,967	0,037	-0,019
-648,014	-166,458	-0,096	0,003
-646,999	166,419	0,034	0,035
-645,984	-200,000	0,000	0,021
-644,970	800,000	0,027	-0,063
-643,955	626,463	-0,017	0,031
-642,941	-200,000	0,004	0,075
-641,926	5,205	0,070	-0,038
-640,911	-123,106	0,169	0,019
-639,897	-200,000	-0,026	0,104
-638,882	-17,876	0,188	-0,085
-637,868	144,914	-0,058	0,056
-636,853	61,341	-0,091	-0,065
-635,838	74,679	-0,054	-0,041
-634,824	16,425	-0,089	0,051
-633,809	-200,000	0,000	0,081
-632,795	246,229	0,008	-0,010
-631,780	-110,517	0,106	0,016
-630,765	411,440	0,051	-0,079
-629,751	-200,000	-0,002	-0,105
-628,736	142,969	0,019	0,018
-627,722	521,421	0,013	-0,022
-626,707	173,770	-0,039	0,040
-625,692	209,140	0,091	-0,103
-624,678	-200,000	0,011	0,122
-623,663	-200,000	0,022	0,157
-622,649	-200,000	0,005	-0,076
-621,634	-200,000	-0,009	0,056
-620,619	800,000	-0,017	-0,040
-619,605	39,370	-0,067	0,043
-618,590	-200,000	-0,013	0,077
-617,576	-200,000	-0,020	0,122
-616,561	611,439	0,069	-0,126
-615,546	199,269	0,044	-0,048
-614,532	535,800	-0,066	-0,113
-613,517	286,767	-0,040	0,052
-612,503	35,487	0,103	-0,065
-611,488	233,031	0,071	0,085
-610,474	356,396	0,059	-0,086
-609,459	-23,598	0,068	0,030
-608,444	96,212	0,017	-0,014
-607,430	-200,000	0,013	-0,128
-606,415	-113,111	-0,235	0,033
-605,401	-47,691	0,089	-0,031
-604,386	-23,848	0,030	-0,013
-603,371	-14,669	0,112	0,052
-602,357	356,817	-0,004	0,006
-601,342	-94,808	-0,048	0,009
-600,328	-200,000	-0,002	-0,015
-599,313	253,099	-0,052	-0,064
-598,298	-66,593	0,105	0,030
-597,284	128,428	-0,036	0,034
-596,269	-96,173	-0,106	0,020
-595,255	387,193	-0,021	-0,031
-594,240	-72,741	0,158	-0,042
-593,225	-16,758	-0,030	0,014
-592,211	712,970	-0,098	-0,188
-591,196	140,618	-0,091	0,087
-590,182	82,424	0,095	0,074
-589,167	-200,000	-0,002	0,026
-588,152	661,311	0,070	-0,130
-587,138	-24,200	-0,179	-0,077
-586,123	146,794	-0,060	0,058
-585,109	118,577	-0,055	0,049
-584,094	-99,367	-0,086	0,016
-583,079	46,862	-0,057	-0,038
-582,065	800,000	0,092	0,186
-581,050	114,940	-0,072	-0,063
-580,036	19,563	0,117	-0,068
-579,021	-125,230	-0,167	0,018
-578,006	-200,000	0,008	-0,055
-576,992	-200,000	-0,010	0,072
-575,977	110,411	0,034	-0,030
-574,963	90,754	-0,045	0,036
-573,948	800,000	-0,035	0,073
-572,934	127,126	-0,020	-0,019
-571,919	-200,000	-0,021	-0,078
-570,904	-200,000	0,021	-0,184
-569,890	800,000	-0,016	0,044
-568,875	-128,665	0,091	0,009
-567,861	-200,000	-0,010	0,061
-566,846	-109,107	-0,158	0,024
-565,831	-12,756	-0,084	-0,039
-564,817	-200,000	0,001	-0,048
-563,802	146,261	-0,091	0,088
-562,788	-200,000	0,034	-0,154
-561,773	-15,672	0,081	0,037
-560,758	65,039	0,054	0,039
-559,744	-50,720	0,158	-0,053
-558,729	741,915	0,018	-0,035
-557,715	192,530	-0,044	-0,048
-556,700	-86,608	-0,097	0,021
-555,685	-57,529	-0,116	-0,037
-554,671	227,632	0,013	0,015
-553,656	800,000	0,022	-0,057
-552,642	800,000	-0,021	0,063
-551,627	-155,579	0,107	-0,005
-550,612	130,367	-0,080	-0,074
-549,598	-200,000	-0,014	0,074
-548,583	-57,169	0,079	-0,025
-547,569	135,848	-0,122	-0,115
-546,554	-65,624	0,110	0,032
-545,539	-200,000	-0,006	0,091
-544,525	-58,631	0,169	0,053
-543,510	-59,466	-0,046	0,014
-542,496	-200,000	-0,027	-0,116
-541,481	794,215	0,012	-0,024
-540,466	-38,917	-0,042	0,016
-539,452	113,224	0,162	0,142
-538,437	190,866	-0,041	-0,044
-537,423	-88,666	-0,133	-0,028
-536,408	800,000	-0,034	-0,097
-535,393	-54,176	-0,115	-0,038
-534,379	512,260	0,091	-0,153
-533,364	83,743	0,074	-0,058
-532,350	-104,118	-0,035	0,006
-531,335	-138,984	-0,100	-0,008
-530,321	-170,690	-0,117	-0,003
-529,306	-100,085	-0,122	0,022
-528,291	800,000	0,029	-0,063
-527,277	-200,000	-0,027	-0,097
-526,262	172,307	-0,089	-0,092
-525,248	27,298	-0,052	0,031
-524,233	-200,000	0,020	0,144
-523,218	158,173	-0,059	-0,059
-522,204	800,000	-0,030	-0,075
-521,189	-106,273	-0,086	0,014
-520,175	40,329	-0,045	0,029
-519,160	-21,509	-0,036	0,016
-518,145	-116,051	0,146	0,019
-517,131	-136,338	0,143	0,012
-516,116	800,000	-0,036	0,091
-515,102	-140,456	-0,094	-0,007
-514,087	-200,000	-0,002	-0,007
-513,072	169,245	-0,114	-0,118
-512,058	-139,759	0,102	-0,008
-511,043	-200,000	-0,005	-0,054
-510,029	-200,000	0,025	-0,098
-509,014	-200,000	0,013	-0,071
-507,999	176,304	0,083	0,087
-506,985	-200,000	-0,016	-0,066
-505,970	-200,000	0,053	-0,274
-504,956	654,604	-0,050	-0,092
-503,941	207,053	-0,006	-0,007
-502,926	-200,000	-0,024	0,081
-501,912	-200,000	0,068	0,235
-500,897	-200,000	0,014	0,099
-499,883	617,262	-0,017	0,032
-498,868	-108,577	-0,069	0,011
-497,853	-137,963	-0,129	0,010
-496,839	212,221	0,093	-0,106
-495,824	800,000	-0,021	-0,053
-494,810	690,718	-0,040	0,077
-493,795	148,625	-0,048	0,046
-492,781	32,397	-0,111	0,069
-491,766	-106,184	0,048	0,008
-490,751	-200,000	-0,050	-0,166
-489,737	-167,190	0,130	-0,004
-488,722	59,739	-0,092	0,065
-487,708	-200,000	0,051	0,185
-486,693	-7,656	-0,173	-0,084
-485,678	-126,100	-0,045	-0,005
-484,664	70,389	-0,112	-0,083
-483,649	-200,000	-0,036	-0,122
-482,635	382,012	0,035	0,052
-481,620	-200,000	0,001	0,119
-480,605	-83,035	0,098	0,023
-479,591	-46,470	-0,061	0,021
-478,576	229,312	-0,118	0,138
-477,562	-74,103	0,107	-0,028
-476,547	-200,000	-0,010	0,036
-475,532	-140,036	-0,067	-0,005
-474,518	382,564	0,024	-0,035
-473,503	-79,017	0,053	-0,013
-472,489	282,636	-0,092	0,119
-471,474	-200,000	-0,004	-0,058
-470,459	-34,346	0,096	0,038
-469,445	-200,000	-0,001	-0,028
-468,430	266,688	0,110	-0,138
-467,416	800,000	0,035	0,093
-466,401	-200,000	0,007	0,075
-465,386	800,000	0,018	-0,046
-464,372	800,000	-0,056	0,128
-463,357	52,696	-0,103	0,071
-462,343	11,219	-0,091	-0,050
-461,328	352,575	-0,032	-0,046
-460,313	175,560	0,146	-0,152
-459,299	-77,392	0,064	0,016
-458,284	-200,000	0,039	-0,134
-457,270	719,013	-0,075	-0,144
-456,255	800,000	-0,006	-0,016
-455,241	-19,744	-0,169	0,075
-454,226	147,372	-0,109	-0,106
-453,211	389,644	-0,057	0,085
-452,197	-80,251	0,122	-0,029
-451,182	132,807	-0,049	0,046
-450,168	800,000	-0,021	0,048
-449,153	-5,252	0,064	0,031
-448,138	51,152	-0,054	0,037
-447,124	30,248	0,069	0,042
-446,109	358,582	0,029	0,041
-445,095	-181,863	0,044	0,001
-444,080	-45,743	0,139	-0,049
-443,065	-200,000	-0,009	0,194
-442,051	15,010	-0,159	0,089
-441,036	-200,000	0,012	-0,118
-440,022	607,861	-0,085	-0,154
-439,007	232,198	0,129	-0,153
-437,992	726,544	-0,040	0,077
-436,978	-200,000	0,011	0,050
-435,963	47,981	0,085	0,057
-434,949	-87,196	0,060	0,013
-433,934	168,822	-0,082	-0,084
-432,919	-200,000	0,001	-0,151
-431,905	183,633	0,082	-0,088
-430,890	-200,000	-0,025	0,124
-429,876	-73,846	0,119	0,031
-428,861	-15,440	0,072	0,033
-427,846	-6,239	0,052	0,025
-426,832	393,315	-0,052	-0,078
-425,817	-132,359	-0,022	0,002
-424,803	-200,000	-0,024	0,081
-423,788	-60,352	0,082	0,025
-422,773	-51,895	-0,111	0,037
-421,759	-154,719	0,047	-0,002
-420,744	74,965	-0,082	-0,062
-419,730	-45,360	-0,103	-0,037
-418,715	481,883	-0,070	-0,115
-417,701	-200,000	-0,002	-0,031
-416,686	77,162	0,055	0,042
-415,671	137,299	0,054	0,051
-414,657	800,000	-0,016	0,037
-413,642	-70,022	-0,094	0,026
-412,628	-200,000	0,015	-0,052
-411,613	34,917	-0,073	-0,046
-410,598	-64,523	-0,025	0,007
-409,584	631,822	0,075	0,137
-408,569	800,000	0,060	-0,173
-407,555	-5,210	0,118	0,058
-406,540	11,227	-0,119	-0,065
-405,525	-200,000	-0,011	-0,076
-404,511	-200,000	-0,005	-0,041
-403,496	-172,026	-0,140	0,003
-402,482	-57,231	0,090	0,028
-401,467	-52,987	0,114	0,037
-400,452	-67,107	-0,074	-0,021
-399,438	36,056	-0,124	0,078
-398,423	-200,000	-0,010	-0,056
-397,409	100,853	-0,069	0,057
-396,394	-200,000	-0,001	-0,033
-395,379	152,053	0,095	0,093
-394,365	-97,545	0,089	0,016
-393,350	6,775	-0,113	0,060
-392,336	287,612	0,088	0,114
-391,321	-67,119	0,031	0,009
-390,306	800,000	-0,050	-0,142
-389,292	-65,261	0,151	-0,043
-388,277	385,339	0,156	-0,232
-387,263	298,505	0,054	-0,072
-386,248	800,000	0,034	0,077
-385,233	273,432	-0,097	-0,123
-384,219	213,783	0,088	-0,100
-383,204	-5,445	-0,116	-0,057
-382,190	-179,152	-0,121	0,002
-381,175	800,000	0,059	0,122
-380,160	-200,000	0,014	0,094
-379,146	800,000	0,044	-0,118
-378,131	82,124	-0,066	0,051
-377,117	-200,000	0,010	-0,052
-376,102	-200,000	-0,016	-0,158
-375,088	45,438	-0,070	-0,046
-374,073	480,209	-0,020	-0,032
-373,058	-156,977	0,061	-0,003
-372,044	-200,000	0,064	0,208
-371,029	122,379	0,079	0,071
-370,015	56,706	-0,048	0,034
-369,000	800,000	-0,063	-0,191
-367,985	6,795	-0,034	-0,018
-366,971	-62,096	-0,035	-0,010
-365,956	-200,000	-0,030	-0,143
-364,942	43,479	0,102	0,067
-363,927	663,050	-0,034	-0,064
-362,912	-200,000	0,004	-0,054
-361,898	800,000	0,054	-0,126
-360,883	-55,625	-0,143	-0,046
-359,869	-200,000	0,032	-0,153
-358,854	139,227	0,080	-0,076
-357,839	-200,000	0,004	-0,040
-356,825	60,828	0,080	0,057
-355,810	-200,000	-0,018	0,071
-354,796	292,612	-0,050	-0,065
-353,781	-200,000	-0,032	-0,177
-352,766	317,854	0,022	0,031
-351,752	-200,000	0,003	0,150
-350,737	800,000	0,011	0,027
-349,723	800,000	0,029	-0,086
-348,708	165,724	0,019	-0,020
-347,693	211,337	-0,036	-0,040
-346,679	-128,126	0,129	0,013
-345,664	37,770	0,043	-0,027
-344,650	780,378	0,042	0,083
-343,635	45,261	0,078	0,051
-342,620	2,462	0,035	-0,018
-341,606	264,987	0,071	-0,089
-340,591	-18,534	0,066	-0,029
-339,577	800,000	-0,017	-0,036
-338,562	468,080	-0,027	-0,043
-337,548	-54,811	-0,052	0,017
-336,533	131,907	-0,034	0,031
-335,518	190,265	0,035	0,038
-334,504	27,385	-0,138	0,083
-333,489	32,263	-0,137	-0,085
-332,475	3,096	-0,078	0,041
-331,460	-48,186	-0,072	-0,025
-330,445	131,183	0,026	-0,024
-329,431	-200,000	0,000	0,074
-328,416	800,000	0,006	-0,015
-327,402	-8,438	-0,058	0,028
-326,387	-15,320	0,022	0,010
-325,372	-102,910	-0,055	0,009
-324,358	-200,000	0,005	-0,264
-323,343	-23,503	0,057	-0,024
-322,329	101,258	0,033	0,028
-321,314	-130,271	0,168	0,016
-320,299	-200,000	-0,027	0,106
-319,285	189,372	-0,026	-0,027
-318,270	-200,000	0,015	-0,128
-317,256	-200,000	-0,007	-0,177
-316,241	-81,335	0,038	0,009
-315,226	-98,625	0,078	0,014
-314,212	800,000	0,018	-0,037
-313,197	800,000	0,080	0,188
-312,183	-72,572	0,128	0,034
-311,168	800,000	-0,026	-0,068
-310,153	-200,000	0,027	-0,101
-309,139	311,723	0,044	0,060
-308,124	-200,000	0,011	0,118
-307,110	772,635	-0,033	-0,065
-306,095	718,306	0,038	0,072
-305,080	800,000	0,040	0,121
-304,066	-177,804	-0,049	0,001
-303,051	30,626	-0,062	0,038
-302,037	88,672	-0,092	0,073
-301,022	-39,863	-0,117	0,043
-300,008	39,877	0,011	0,007
-298,993	71,769	0,023	0,017
-297,978	-41,589	-0,066	-0,024
-296,964	189,855	-0,124	0,133
-295,949	-26,947	-0,075	0,031
-294,935	800,000	-0,050	-0,105
-293,920	-200,000	0,000	0,027
-292,905	130,815	0,078	0,072
-291,891	223,390	0,102	0,118
-290,876	-200,000	0,023	0,149
-289,862	-32,593	0,022	0,009
-288,847	63,491	-0,139	-0,100
-287,832	800,000	-0,030	-0,062
-286,818	23,768	0,063	-0,037
-285,803	313,120	-0,058	0,077
-284,789	58,160	0,070	0,049
-283,774	-200,000	0,004	0,024
-282,759	67,578	0,044	0,032
-281,745	-116,466	-0,057	0,007
-280,730	-12,168	0,030	-0,014
-279,716	139,056	0,074	-0,069
-278,701	-108,300	0,051	-0,008
-277,686	12,334	0,147	0,080
-276,672	800,000	-0,007	0,019
-275,657	353,431	-0,091	0,130
-274,643	48,561	-0,061	0,041
-273,628	-20,827	0,071	-0,031
-272,613	-159,486	0,181	0,007
-271,599	251,977	0,024	-0,029
-270,584	-183,242	0,137	0,002
-269,570	-26,833	0,041	0,017
-268,555	-200,000	0,009	0,031
-267,540	-200,000	-0,006	0,118
-266,526	-200,000	-0,048	0,188
-265,511	800,000	-0,039	-0,080
-264,497	266,411	-0,028	-0,035
-263,482	-51,813	0,106	-0,035
-262,467	387,674	0,102	0,151
-261,453	121,605	0,090	0,081
-260,438	-200,000	-0,002	0,028
-259,424	119,109	0,078	0,069
-258,409	800,000	0,020	-0,061
-257,395	121,311	0,041	0,037
-256,380	-200,000	-0,012	0,043
-255,365	-107,864	0,158	-0,024
-254,351	-200,000	-0,000	-0,071
-253,336	800,000	-0,026	-0,070
-252,322	-73,105	-0,146	-0,038
-251,307	106,353	-0,125	0,105
-250,292	-63,091	-0,023	0,007
-249,278	96,976	0,067	0,054
-248,263	175,415	-0,072	0,075
-247,249	-123,142	0,053	0,006
-246,234	91,269	-0,173	0,139
-245,219	411,779	-0,070	0,106
-244,205	800,000	0,043	-0,086
-243,190	-200,000	0,003	-0,077
-242,176	460,855	-0,024	-0,038
-241,161	-72,835	0,081	-0,021
-240,146	800,000	-0,090	0,184
-239,132	-103,624	0,116	-0,019
-238,117	-68,931	-0,063	-0,017
-237,103	-200,000	0,014	0,080
-236,088	-128,459	-0,153	0,015
-235,073	92,246	0,117	0,094
-234,059	73,157	0,045	-0,033
-233,044	477,770	0,137	0,222
-232,030	-87,504	-0,067	-0,014
-231,015	11,776	-0,026	0,014
-230,000	-200,000	-0,003	-0,073
-228,986	69,152	0,053	-0,039
-227,971	800,000	-0,021	-0,054
-226,957	195,181	0,013	-0,015
-225,942	115,159	-0,035	0,030
-224,927	-200,000	-0,005	0,044
-223,913	-152,295	0,153	0,008
-222,898	-142,818	-0,156	-0,011
-221,884	145,728	0,091	-0,087
-220,869	800,000	0,063	0,137
-219,855	-115,188	0,123	0,016
-218,840	-135,053	-0,092	-0,008
-217,825	-57,665	-0,104	0,032
-216,811	0,734	-0,033	0,017
-215,796	107,764	0,071	-0,061
-214,782	-200,000	-0,018	-0,105
-213,767	800,000	-0,013	-0,034
-212,752	-200,000	-0,010	0,078
-211,738	-106,402	0,079	-0,012
-210,723	373,289	-0,033	0,048
-209,709	-22,923	0,043	-0,019
-208,694	-63,788	-0,144	-0,042
-207,679	-200,000	0,002	-0,050
-206,665	17,227	0,133	0,075
-205,650	-200,000	-0,012	-0,123
-204,636	725,769	0,003	0,005
-203,621	800,000	0,041	0,093
-202,606	-22,890	-0,040	0,017
-201,592	794,252	0,047	0,092
-200,577	-106,111	-0,090	0,014
-199,563	259,211	-0,022	0,027
-198,548	220,513	-0,037	0,043
-197,533	800,000	-0,022	0,065
-196,519	401,654	0,057	-0,085
-195,504	-72,135	0,108	0,028
-194,490	-71,676	0,046	-0,012
-193,475	62,382	-0,161	0,114
-192,460	800,000	0,017	0,049
-191,446	-79,472	-0,070	-0,017
-190,431	6,838	0,029	0,015
-189,417	-200,000	0,001	0,075
-188,402	799,797	0,058	0,114
-187,387	-200,000	-0,011	-0,037
-186,373	-200,000	-0,010	-0,068
-185,358	800,000	-0,026	0,075
-184,344	63,450	-0,110	0,078
-183,329	800,000	-0,050	0,125
-182,315	51,632	-0,015	0,010
-181,300	-76,982	0,150	-0,037
-180,285	672,466	0,015	0,028
-179,271	-142,386	-0,040	-0,003
-178,256	65,395	-0,122	-0,088
-177,242	-200,000	0,026	0,090
-176,227	201,219	-0,035	-0,038
-175,212	192,447	0,071	-0,077
-174,198	6,614	0,089	0,047
-173,183	-92,382	-0,051	-0,010
-172,169	800,000	-0,048	-0,112
-171,154	-37,032	0,093	0,035
-170,139	52,429	-0,059	-0,040
-169,125	-170,928	0,089	0,002
-168,110	168,548	0,082	0,083
-167,096	-200,000	0,001	0,041
-166,081	-81,457	-0,202	-0,047
-165,066	-42,135	0,053	-0,019
-164,052	-200,000	0,007	0,090
-163,037	725,586	0,063	0,121
-162,023	-200,000	0,012	-0,055
-161,008	544,214	0,036	0,061
-159,993	-49,434	-0,099	-0,033
-158,979	-200,000	0,004	-0,088
-157,964	216,380	-0,112	-0,126
-156,950	-200,000	0,026	-0,164
-155,935	-83,995	0,157	0,035
-154,920	-0,706	0,051	0,026
-153,906	524,757	0,030	0,051
-152,891	800,000	-0,030	0,074
-151,877	-163,081	0,005	0,000
-150,862	-172,394	0,076	-0,002
-149,847	-200,000	-0,002	-0,077
-148,833	50,184	0,095	0,064
-147,818	-53,103	0,153	0,050
-146,804	141,196	0,021	0,019
-145,789	85,358	-0,024	-0,019
-144,775	120,414	0,082	-0,072
-143,760	407,202	-0,033	-0,050
-142,745	-88,698	-0,051	0,011
-141,731	800,000	0,033	0,078
-140,716	-105,542	-0,046	0,007
-139,702	-200,000	0,006	0,143
-138,687	800,000	-0,060	0,126
-137,672	-55,586	-0,104	-0,033
-136,658	-168,077	-0,145	0,004
-135,643	745,596	0,040	-0,077
-134,629	260,779	-0,079	-0,097
-133,614	-49,288	0,241	0,081
-132,599	-1,281	-0,052	-0,026
-131,585	-31,739	-0,135	-0,054
-130,570	-200,000	0,023	0,101
-129,556	201,983	-0,087	-0,095
-128,541	800,000	0,032	-0,068
-127,526	301,554	0,039	-0,051
-126,512	309,710	-0,032	-0,043
-125,497	-104,135	0,166	0,027
-124,483	800,000	-0,050	0,104
-123,468	20,132	-0,079	-0,045
-122,453	-200,000	0,011	0,087
-121,439	-200,000	0,008	0,044
-120,424	202,346	-0,042	-0,046
-119,410	11,460	-0,051	-0,027
-118,395	-93,252	-0,031	0,006
-117,380	-200,000	0,002	-0,010
-116,366	800,000	-0,041	-0,098
-115,351	-200,000	-0,008	-0,029
-114,337	92,383	-0,046	0,036
-113,322	-184,920	0,134	0,001
-112,307	800,000	-0,051	0,112
-111,293	800,000	0,003	-0,006
-110,278	352,939	-0,055	0,078
-109,264	-163,163	-0,137	-0,005
-108,249	91,371	-0,084	-0,067
-107,234	270,277	0,093	-0,117
-106,220	394,880	0,058	0,086
-105,205	-139,021	0,147	-0,011
-104,191	800,000	-0,084	-0,225
-103,176	-169,426	0,134	0,003
-102,162	-67,771	-0,033	0,009
-101,147	-200,000	0,001	0,010
-100,132	315,363	0,058	-0,077
-99,118	147,236	-0,054	-0,052
-98,103	-7,881	0,093	0,044
-97,089	406,864	0,087	0,131
-96,074	350,914	0,016	-0,023
-95,059	-108,925	-0,188	-0,028
-94,045	306,789	-0,094	-0,124
-93,030	338,815	-0,078	0,108
-92,016	-28,355	-0,071	-0,029
-91,001	330,710	0,078	0,106
-89,986	349,652	-0,064	-0,090
-88,972	-143,400	-0,040	0,003
-87,957	-200,000	-0,000	-0,002
-86,943	327,740	0,051	0,069
-85,928	238,341	-0,067	-0,079
-84,913	-200,000	-0,001	-0,064
-83,899	49,230	0,033	-0,022
-82,884	-200,000	-0,036	0,138
-81,870	800,000	-0,033	0,066
-80,855	57,787	-0,033	0,023
-79,840	-200,000	-0,002	0,089
-78,826	-1,578	-0,030	-0,015
-77,811	39,147	-0,100	0,063
-76,797	-200,000	0,010	-0,044
-75,782	-18,419	-0,042	0,019
-74,767	800,000	0,028	0,088
-73,753	474,120	-0,072	0,115
-72,738	-200,000	-0,027	0,106
-71,724	800,000	-0,029	-0,083
-70,709	82,819	0,034	-0,026
-69,694	-42,801	-0,044	0,016
-68,680	201,933	-0,057	0,062
-67,665	-200,000	-0,008	-0,135
-66,651	800,000	-0,015	-0,041
-65,636	94,386	0,043	0,034
-64,622	56,115	-0,089	-0,061
-63,607	3,616	-0,165	-0,085
-62,592	-200,000	-0,008	-0,085
-61,578	-101,244	0,134	-0,023
-60,563	148,814	-0,104	-0,100
-59,549	-45,982	0,053	-0,018
-58,534	-7,380	-1,670	-0,798
-57,519	421,359	-1,351	-2,059
-56,505	-200,000	-0,618	-4,531
-55,490	144,826	1,060	1,003
-54,476	800,000	4,800	11,413
-53,461	-200,000	19,122	320,052
-52,446	-200,000	741,198	2334,169
-51,432	573,148	1655,607	2868,720
-50,417	78,225	1671,155	1261,559
-49,403	21,265	1544,087	885,473
-48,388	15,178	1466,508	811,382
-47,373	17,919	1456,723	819,183
-46,359	16,671	1446,625	807,490
-45,344	13,425	1442,025	789,336
-44,330	13,358	1439,980	787,865
-43,315	13,334	1438,290	786,795
-42,300	13,328	1436,726	785,877
-41,286	13,386	1435,274	785,332
-40,271	13,339	1434,080	784,424
-39,257	13,335	1432,615	783,571
-38,242	13,330	1431,600	782,962
-37,227	13,364	1430,163	782,304
-36,213	13,422	1428,748	781,774
-35,198	13,364	1427,776	780,938
-34,184	13,417	1426,943	780,704
-33,169	13,377	1425,462	779,671
-32,154	13,401	1424,491	779,221
-31,140	13,399	1423,221	778,488
-30,125	13,442	1422,042	778,014
-29,111	13,370	1421,010	777,079
-28,096	13,367	1419,921	776,438
-27,082	13,355	1418,709	775,688
-26,067	13,318	1417,497	774,820
-25,052	13,307	1416,451	774,170
-24,038	13,327	1415,461	773,688
-23,023	13,258	1414,713	772,926
-22,009	13,287	1413,562	772,402
-20,994	13,262	1412,656	771,758
-19,979	13,256	1411,789	771,225
-18,965	13,305	1410,840	770,907
-17,950	13,238	1409,908	770,053
-16,936	13,253	1408,822	769,502
-15,921	13,240	1407,882	768,894
-14,906	13,226	1406,851	768,236
-13,892	13,268	1405,878	767,870
-12,877	13,202	1405,158	767,138
-11,863	13,240	1404,278	766,806
-10,848	13,221	1403,480	766,249
-9,833	13,197	1402,506	765,577
-8,819	13,140	1401,885	764,943
-7,804	13,125	1400,830	764,268
-6,790	13,075	1399,841	763,462
-5,775	13,128	1398,676	763,042
-4,760	13,098	1397,749	762,371
-3,746	13,085	1396,810	761,764
-2,731	13,105	1396,067	761,425
-1,717	13,071	1395,242	760,785
-0,702	13,125	1393,336	759,966
0,313	16,909	1310,197	732,165
1,327	33,180	703,717	430,856
2,342	51,411	123,259	82,693
3,356	3,343	16,577	8,511
4,371	6,095	3,174	1,659
5,386	-10,641	0,699	0,326
6,400	-200,000	0,063	0,414
7,415	-12,551	-0,196	-0,090
8,429	-200,000	-0,297	-0,000
9,444	25,416	-0,306	-0,180
10,459	68,317	-0,328	-0,238
11,473	133,641	-0,232	-0,212
12,488	-60,206	-0,237	-0,071
13,502	-113,823	-0,533	-0,073
14,517	21,619	-0,281	-0,161
15,531	135,260	-0,363	-0,334
16,546	4,172	-0,419	-0,216
17,561	255,921	-0,261	-0,317
18,575	-77,112	-0,135	0,033
19,590	-12,750	-0,354	-0,162
20,604	13,248	-0,196	-0,107
21,619	79,044	-0,460	-0,348
22,634	0,281	-0,486	-0,244
23,648	144,559	-0,356	-0,336
24,663	53,695	-0,346	-0,234
25,677	114,827	-0,285	-0,245
26,692	14,296	-0,291	-0,160
27,707	87,757	-0,333	-0,260
28,721	12,596	-0,485	-0,264
29,736	75,708	-0,249	-0,186
30,750	98,051	-0,402	-0,327
31,765	67,895	-0,427	-0,308
32,780	86,879	-0,316	-0,246
33,794	43,919	-0,276	-0,178
34,809	68,046	-0,287	-0,207
35,823	11,162	-0,415	-0,223
36,838	59,338	-0,340	-0,236
37,853	135,701	-0,323	-0,296
38,867	12,643	-0,563	-0,306
39,882	311,060	-0,210	-0,278
40,896	101,784	-0,322	-0,265
41,911	81,045	-0,263	-0,200
42,926	-65,462	-0,574	-0,161
43,940	335,524	-0,303	-0,415
44,955	-60,544	-0,436	-0,130
45,969	59,257	-0,449	-0,311
46,984	224,236	-0,217	-0,247
47,999	48,145	-0,410	-0,270
49,013	144,246	-0,277	-0,261
50,028	434,324	-0,197	-0,302
51,042	-20,532	-0,464	-0,200
52,057	92,020	-0,402	-0,319
53,071	58,510	-0,314	-0,217
54,086	230,087	-0,253	-0,292
55,101	121,106	-0,319	-0,280
56,115	97,095	-0,326	-0,263
57,130	-13,962	-0,343	-0,155
58,144	158,387	-0,249	-0,244
59,159	-17,833	-0,444	-0,195
60,174	-41,088	-0,410	-0,148
61,188	6,560	-0,396	-0,206
62,203	62,801	-0,314	-0,221
63,217	1,404	-0,468	-0,236
64,232	32,016	-0,340	-0,206
65,247	-41,939	-0,401	-0,144
66,261	137,918	-0,289	-0,266
67,276	35,805	-0,368	-0,227
68,290	144,800	-0,292	-0,275
69,305	19,214	-0,239	-0,135
70,320	69,131	-0,279	-0,202
71,334	-11,812	-0,300	-0,138
72,349	24,244	-0,294	-0,170
73,363	-22,397	-0,337	-0,143
74,378	-45,398	-0,263	-0,091
75,393	37,561	-0,277	-0,172
76,407	150,161	-0,219	-0,209
77,422	-21,537	-0,250	-0,107
78,436	18,416	-0,358	-0,201
79,451	19,095	-0,325	-0,183
80,466	26,088	-0,368	-0,216
81,480	10,630	-0,408	-0,218
82,495	122,620	-0,331	-0,291
83,509	172,501	-0,150	-0,152
84,524	-41,139	-0,260	-0,094
85,539	-19,492	-0,267	-0,116
86,553	-26,790	-0,349	-0,143
87,568	174,239	-0,222	-0,225
88,582	-117,466	-0,319	-0,040
89,597	12,576	-0,417	-0,225
90,611	150,960	-0,165	-0,158
91,626	71,840	-0,273	-0,199
92,641	3,276	-0,235	-0,120
93,655	-163,871	-0,320	-0,010
94,670	144,282	-0,289	-0,271
95,684	52,754	-0,271	-0,181
96,699	30,248	-0,303	-0,181
97,714	201,600	-0,274	-0,296
98,728	181,468	-0,256	-0,264
99,743	12,492	-0,292	-0,158
100,757	19,874	-0,326	-0,184
101,772	40,394	-0,372	-0,234
102,787	73,808	-0,296	-0,218
103,801	208,195	-0,279	-0,307
104,816	151,058	-0,209	-0,200
105,830	29,036	-0,207	-0,123
106,845	130,965	-0,167	-0,150
107,860	56,037	-0,212	-0,144
108,874	71,232	-0,215	-0,156
109,889	75,796	-0,292	-0,216
110,903	-22,356	-0,181	-0,076
111,918	111,145	-0,251	-0,212
112,933	11,460	-0,260	-0,139
113,947	-33,493	-0,341	-0,131
114,962	110,697	-0,257	-0,217
115,976	-99,728	-0,296	-0,051
116,991	138,957	-0,092	-0,084
118,006	-70,175	-0,254	-0,067
119,020	67,040	-0,236	-0,168
120,035	-86,475	-0,110	-0,023
121,049	416,789	-0,143	-0,214
122,064	-145,449	-0,224	-0,014
123,079	91,269	-0,373	-0,293
124,093	27,286	-0,257	-0,151
125,108	313,557	-0,176	-0,233
126,122	-22,405	-0,264	-0,111
127,137	100,073	-0,177	-0,143
128,151	-59,586	-0,277	-0,083
129,166	446,335	-0,212	-0,327
130,181	-42,305	-0,261	-0,093
131,195	88,050	-0,232	-0,180
132,210	800,000	-0,112	-0,266
133,224	139,610	-0,294	-0,270
134,239	325,084	-0,162	-0,217
135,254	-5,487	-0,313	-0,150
136,268	192,906	-0,153	-0,162
137,283	220,775	-0,133	-0,149
138,297	108,167	-0,263	-0,219
139,312	241,237	-0,224	-0,262
140,327	79,116	-0,299	-0,223
141,341	107,132	-0,291	-0,241
142,356	677,004	-0,136	-0,249
143,370	360,843	-0,230	-0,324
144,385	-115,975	-0,171	-0,022
145,400	-117,970	-0,252	-0,031
146,414	199,246	-0,204	-0,219
147,429	281,226	-0,251	-0,314
148,443	39,231	-0,235	-0,147
149,458	800,000	-0,065	-0,182
150,473	87,298	-0,229	-0,177
151,487	505,791	-0,077	-0,125
152,502	204,860	-0,285	-0,309
153,516	88,792	-0,419	-0,325
154,531	13,420	-0,376	-0,203
155,546	459,092	-0,206	-0,321
156,560	-112,779	-0,278	-0,038
157,575	141,237	-0,197	-0,182
158,589	218,413	-0,152	-0,170
159,604	800,000	-0,168	-0,344
160,619	94,874	-0,301	-0,239
161,633	34,319	-0,244	-0,148
162,648	-135,040	-0,144	-0,012
163,662	75,150	-0,118	-0,087
164,677	213,719	-0,092	-0,102
165,692	73,859	-0,209	-0,153
166,706	109,960	-0,185	-0,155
167,721	2,995	-0,259	-0,131
168,735	70,266	-0,227	-0,164
169,750	43,412	-0,312	-0,199
170,764	60,952	-0,240	-0,166
171,779	-29,412	-0,261	-0,104
172,794	333,092	-0,158	-0,214
173,808	113,718	-0,177	-0,150
174,823	265,864	-0,231	-0,282
175,837	163,833	-0,241	-0,237
176,852	-23,820	-0,254	-0,106
177,867	-35,826	-0,190	-0,071
178,881	120,169	-0,123	-0,106
179,896	-31,822	-0,253	-0,098
180,910	-85,647	-0,332	-0,071
181,925	-19,190	-0,200	-0,086
182,940	174,618	-0,180	-0,182
183,954	334,803	-0,205	-0,278
184,969	446,200	-0,124	-0,191
185,983	185,172	-0,106	-0,110
186,998	65,508	-0,252	-0,178
188,013	0,584	-0,207	-0,103
189,027	202,168	-0,224	-0,240
190,042	-200,000	-0,109	-0,468
191,056	800,000	-0,113	-0,255
192,071	212,678	-0,157	-0,172
193,086	-140,200	-0,237	0,017
194,100	253,595	-0,125	-0,149
195,115	11,182	-0,182	-0,097
196,129	355,997	-0,097	-0,134
197,144	15,649	-0,229	-0,125
198,159	39,230	-0,233	-0,145
199,173	-200,000	-0,082	-0,278
200,188	25,393	-0,159	-0,092
201,202	392,936	-0,102	-0,148
202,217	7,649	-0,265	-0,137
203,232	318,339	-0,168	-0,222
204,246	-1,175	-0,216	-0,106
205,261	5,926	-0,283	-0,145
206,275	112,088	-0,307	-0,257
207,290	56,580	-0,121	-0,082
208,304	307,126	-0,142	-0,184
209,319	15,794	-0,278	-0,152
210,334	-42,331	-0,143	-0,050
211,348	800,000	-0,168	-0,324
212,363	53,787	-0,197	-0,131
213,377	62,283	-0,257	-0,178
214,392	371,245	-0,099	-0,140
215,407	78,003	-0,153	-0,113
216,421	277,124	-0,210	-0,260
217,436	35,120	-0,269	-0,163
218,450	-46,918	-0,170	-0,057
219,465	125,723	-0,279	-0,245
220,480	-40,286	-0,239	-0,086
221,494	-125,187	-0,212	-0,022
222,509	-135,434	-0,219	0,018
223,523	-35,718	-0,260	-0,097
224,538	-124,043	-0,234	0,025
225,553	56,127	-0,163	-0,109
226,567	160,775	-0,112	-0,109
227,582	134,719	-0,130	-0,117
228,596	-122,121	-0,187	0,021
229,611	538,908	-0,115	-0,191
230,626	-85,084	-0,138	-0,030
231,640	-23,369	-0,163	-0,068
232,655	90,036	-0,145	-0,112
233,669	88,836	-0,285	-0,219
234,684	800,000	-0,143	-0,317
235,699	95,084	-0,121	-0,095
236,713	-70,936	-0,226	-0,058
237,728	-49,359	-0,169	0,055
238,742	361,066	-0,076	-0,105
239,757	186,288	-0,134	-0,138
240,772	4,886	-0,150	-0,076
241,786	-74,957	-0,221	-0,054
242,801	48,445	-0,072	-0,047
243,815	-122,443	-0,105	-0,012
244,830	-172,774	-0,283	-0,006
245,844	383,162	-0,107	-0,153
246,859	74,428	-0,204	-0,148
247,874	-65,467	-0,156	-0,043
248,888	192,171	-0,152	-0,159
249,903	546,413	-0,103	-0,171
250,917	73,010	-0,119	-0,086
251,932	-32,163	-0,269	-0,104
252,947	313,175	-0,108	-0,140
253,961	8,701	-0,219	-0,114
254,976	38,444	-0,241	-0,149
255,990	316,294	-0,157	-0,205
257,005	800,000	-0,093	-0,206
258,020	-200,000	-0,042	-0,184
259,034	154,236	-0,145	-0,138
260,049	214,440	-0,073	0,080
261,063	55,604	-0,181	-0,121
262,078	519,113	-0,164	-0,267
263,093	63,126	-0,247	-0,171
264,107	-2,112	-0,140	-0,068
265,122	0,499	-0,252	-0,124
266,136	-97,643	-0,151	-0,027
267,151	-146,265	-0,185	0,011
268,166	-73,586	-0,149	-0,037
269,180	129,152	-0,241	-0,213
270,195	800,000	-0,130	-0,309
271,209	258,554	-0,137	-0,163
272,224	-200,000	-0,044	-0,224
273,239	-90,994	-0,208	-0,041
274,253	-115,691	-0,201	-0,026
275,268	100,491	-0,146	-0,117
276,282	69,372	-0,216	-0,153
277,297	47,424	-0,168	-0,108
278,312	0,012	-0,213	-0,105
279,326	278,039	-0,175	-0,216
280,341	-47,207	-0,193	-0,065
281,355	155,828	-0,118	-0,113
282,370	-65,836	-0,208	-0,057
283,384	-16,552	-0,115	-0,050
284,399	-200,000	-0,046	-0,207
285,414	24,670	-0,139	-0,079
286,428	-38,312	-0,257	-0,094
287,443	-98,146	-0,282	-0,050
288,457	425,580	-0,076	-0,114
289,472	195,256	-0,169	-0,177
290,487	108,603	-0,159	-0,131
291,501	17,615	-0,220	-0,120
292,516	-53,755	-0,231	-0,072
293,530	48,916	-0,153	-0,099
294,545	254,781	-0,112	-0,133
295,560	190,071	-0,141	-0,146
296,574	38,249	-0,109	-0,067
297,589	-200,000	-0,039	-0,135
298,603	800,000	-0,052	-0,151
299,618	166,717	-0,136	-0,133
300,633	36,408	-0,218	-0,132
301,647	-170,884	-0,110	0,003
302,662	26,624	-0,227	-0,131
303,676	800,000	-0,081	-0,174
304,691	115,539	-0,193	-0,162
305,706	-48,918	-0,157	-0,051
306,720	108,045	-0,093	-0,076
307,735	-114,518	-0,221	-0,029
308,749	196,500	-0,146	-0,153
309,764	426,679	-0,142	-0,211
310,779	-29,959	-0,104	0,041
311,793	-64,196	-0,111	-0,031
312,808	-26,148	-0,257	-0,103
313,822	800,000	-0,068	-0,148
314,837	800,000	-0,041	-0,114
315,852	406,977	-0,137	-0,199
316,866	168,244	-0,140	-0,137
317,881	603,352	-0,089	-0,154
318,895	-128,170	-0,206	0,020
319,910	67,377	-0,118	-0,083
320,925	255,606	-0,225	-0,266
321,939	-44,585	-0,181	-0,062
322,954	119,660	-0,153	-0,130
323,968	15,367	-0,155	0,084
324,983	-39,974	-0,140	-0,050
325,997	-50,803	-0,099	-0,032
327,012	441,891	-0,108	-0,163
328,027	800,000	-0,085	-0,219
329,041	366,266	-0,194	-0,270
330,056	-200,000	0,022	-0,116
331,070	373,941	-0,056	-0,079
332,085	5,591	-0,089	0,045
333,100	800,000	-0,067	-0,149
334,114	800,000	-0,081	-0,208
335,129	56,113	-0,206	-0,137
336,143	383,862	-0,145	-0,206
337,158	-60,224	-0,239	-0,069
338,173	723,469	-0,074	-0,135
339,187	-200,000	-0,034	0,137
340,202	-36,145	-0,103	-0,038
341,216	-121,045	-0,192	-0,022
342,231	65,254	-0,136	-0,094
343,246	-36,320	-0,129	-0,047
344,260	800,000	0,044	-0,099
345,275	800,000	-0,050	-0,104
346,289	88,461	-0,129	0,098
347,304	122,838	-0,115	-0,099
348,319	142,852	-0,123	-0,113
349,333	179,042	-0,112	-0,113
350,348	-86,443	-0,116	0,024
351,362	560,503	-0,085	-0,141
352,377	-200,000	-0,040	-0,143
353,392	23,206	-0,079	0,044
354,406	-3,375	-0,265	-0,126
355,421	209,198	1313,383	1412,734
356,435	160,988	1473,972	1413,214
