DTS Sentinel unit serial number:	SN410029Multiplexer serial number:	ORYXHardware model number:	OX2-SRSoftware version number:	ORYX F/W v4,00 Oryx Data Collector v3.7.2.0data status	okinstallation	B3 Nyhavnadifferential loss correction	single-endedforward channel	channel 1reverse channel	N/Adate	2023/11/29time	11:22:30forward acquisition time	300,00reverse acquisition time	0,00gamma	499,1914k internal	0,3211k external	0,3211temperature offset calibration	1,0000default loss term (dB/km)	0,3820temperature slope calibration	1,0000multiplexer offset coefficient	1,0000multiplexer slope coefficient	1,0000fibre end	0,00T internal ref (°C)	9,53T ext. ref 1 (°C)	-5,34T ext. ref 2 (°C)	-5,46length (m)	temperature (°C)	Stokes	anti-Stokes-744,400	214,613	-0,184	-0,212
-743,385	-200,000	0,059	0,253
-742,371	-6,982	-0,248	-0,122
-741,356	-200,000	0,049	0,270
-740,342	-200,000	-0,055	-0,197
-739,327	480,507	0,095	0,156
-738,312	-200,000	-0,003	-0,332
-737,298	211,060	-0,098	0,111
-736,283	800,000	-0,096	-0,302
-735,269	-200,000	-0,009	0,276
-734,254	174,989	-0,190	-0,199
-733,239	-88,455	-0,267	-0,057
-732,225	-200,000	0,011	-0,156
-731,210	379,174	0,053	0,079
-730,196	-200,000	0,037	-0,174
-729,181	-200,000	0,004	-0,103
-728,167	-8,078	-0,058	0,028
-727,152	-5,916	-0,124	-0,061
-726,137	-104,960	-0,128	-0,021
-725,123	-200,000	-0,047	-0,185
-724,108	120,536	-0,089	-0,080
-723,094	25,515	-0,171	-0,103
-722,079	-94,672	-0,085	0,016
-721,064	-200,000	0,021	0,077
-720,050	-35,570	-0,120	0,047
-719,035	-167,723	0,165	-0,005
-718,021	275,189	-0,039	-0,050
-717,006	180,107	-0,069	-0,074
-715,991	75,640	-0,093	-0,071
-714,977	95,708	-0,100	-0,083
-713,962	172,838	0,071	-0,075
-712,948	781,404	-0,072	0,144
-711,933	131,630	0,008	-0,007
-710,918	-75,175	-0,056	0,014
-709,904	800,000	0,063	-0,158
-708,889	14,818	-0,113	-0,064
-707,875	-57,987	-0,065	0,020
-706,860	800,000	-0,065	0,144
-705,845	71,561	0,082	-0,062
-704,831	199,699	-0,041	0,046
-703,816	193,753	0,053	0,058
-702,802	118,830	-0,055	-0,049
-701,787	211,684	-0,099	-0,113
-700,772	-123,355	0,161	0,018
-699,758	-200,000	-0,031	0,109
-698,743	-39,809	0,121	0,045
-697,729	-90,611	-0,046	-0,010
-696,714	-200,000	-0,013	0,046
-695,699	248,382	-0,058	0,071
-694,685	30,731	-0,110	-0,068
-693,670	-69,645	0,035	-0,010
-692,656	-69,721	0,023	-0,006
-691,641	-63,385	0,098	0,029
-690,627	-200,000	0,014	0,049
-689,612	311,203	0,010	0,013
-688,597	343,630	-0,065	-0,093
-687,583	-200,000	0,007	0,037
-686,568	12,302	0,153	-0,085
-685,554	-200,000	0,034	-0,126
-684,539	96,629	-0,094	-0,078
-683,524	-200,000	-0,005	-0,036
-682,510	-129,038	-0,094	-0,009
-681,495	143,866	0,020	0,019
-680,481	-42,056	-0,160	-0,059
-679,466	800,000	-0,054	-0,124
-678,451	436,816	-0,034	-0,053
-677,437	101,244	-0,071	0,060
-676,422	-156,984	0,082	-0,004
-675,408	-200,000	-0,008	-0,059
-674,393	117,804	-0,178	-0,158
-673,378	-185,811	-0,048	0,001
-672,364	-200,000	-0,025	-0,168
-671,349	531,127	0,086	-0,148
-670,335	125,018	-0,038	0,035
-669,320	-92,155	0,128	-0,026
-668,305	800,000	-0,025	-0,070
-667,291	-154,851	0,095	-0,004
-666,276	-200,000	0,004	-0,195
-665,262	191,239	0,031	0,034
-664,247	-18,059	0,058	-0,026
-663,232	-200,000	-0,015	-0,053
-662,218	-85,430	-0,103	0,023
-661,203	-84,118	0,251	0,057
-660,189	-200,000	-0,013	-0,141
-659,174	169,838	-0,082	-0,084
-658,159	-200,000	-0,010	0,076
-657,145	9,718	0,052	0,028
-656,130	-125,251	-0,073	-0,008
-655,116	-24,114	-0,076	-0,033
-654,101	535,390	-0,103	-0,177
-653,086	591,840	0,062	-0,111
-652,072	-101,435	-0,139	-0,024
-651,057	-58,555	-0,033	-0,010
-650,043	603,166	0,056	-0,102
-649,028	800,000	0,015	0,043
-648,014	-200,000	0,017	0,066
-646,999	286,507	0,027	-0,036
-645,984	-200,000	0,010	-0,058
-644,970	502,094	-0,072	-0,121
-643,955	800,000	0,076	-0,154
-642,941	-200,000	-0,032	-0,143
-641,926	-200,000	0,023	0,074
-640,911	117,504	0,093	-0,082
-639,897	-200,000	0,000	0,015
-638,882	-150,682	-0,071	0,004
-637,868	91,998	0,064	-0,052
-636,853	-111,862	-0,044	0,006
-635,838	39,006	0,066	-0,043
-634,824	286,835	-0,070	-0,091
-633,809	-1,612	-0,017	-0,009
-632,795	377,438	-0,063	0,094
-631,780	-200,000	-0,004	-0,058
-630,765	-37,083	0,057	0,022
-629,751	739,013	-0,032	-0,063
-628,736	566,000	-0,055	-0,097
-627,722	153,440	-0,141	-0,139
-626,707	-200,000	-0,002	-0,018
-625,692	16,615	-0,044	-0,025
-624,678	-128,949	0,074	0,007
-623,663	-79,434	-0,068	0,016
-622,649	-200,000	-0,002	0,027
-621,634	344,605	-0,071	-0,100
-620,619	-155,274	-0,135	0,006
-619,605	90,674	0,046	0,037
-618,590	-56,523	0,010	0,003
-617,576	142,895	0,121	0,116
-616,561	-200,000	-0,004	-0,017
-615,546	-200,000	-0,019	-0,117
-614,532	-200,000	-0,020	-0,072
-613,517	-174,406	0,132	-0,003
-612,503	800,000	0,057	0,123
-611,488	215,808	-0,057	-0,066
-610,474	-66,229	0,133	0,038
-609,459	-25,111	-0,182	-0,077
-608,444	-40,580	-0,139	0,052
-607,430	-35,486	0,084	-0,033
-606,415	61,875	-0,126	-0,090
-605,401	53,654	0,148	-0,102
-604,386	-200,000	0,006	0,035
-603,371	-129,087	0,246	-0,024
-602,357	-141,561	0,125	-0,009
-601,342	-200,000	0,025	-0,108
-600,328	357,993	0,031	0,044
-599,313	228,780	-0,039	-0,045
-598,298	-200,000	0,020	-0,065
-597,284	158,620	-0,051	0,051
-596,269	-32,018	-0,144	-0,058
-595,255	-200,000	-0,002	-0,021
-594,240	166,244	-0,018	-0,018
-593,225	-130,835	-0,142	-0,014
-592,211	50,992	-0,111	0,076
-591,196	-44,039	0,095	0,034
-590,182	800,000	0,082	-0,198
-589,167	248,731	-0,028	-0,035
-588,152	-123,040	-0,134	0,015
-587,138	143,580	-0,070	-0,067
-586,123	800,000	-0,032	-0,086
-585,109	-200,000	0,016	0,060
-584,094	352,550	0,045	0,065
-583,079	91,295	-0,038	0,031
-582,065	101,384	0,022	0,019
-581,050	562,498	0,058	-0,101
-580,036	-119,464	-0,085	0,011
-579,021	39,026	-0,073	-0,047
-578,006	800,000	0,049	-0,129
-576,992	-65,555	-0,084	-0,024
-575,977	214,035	0,114	-0,130
-574,963	-200,000	0,014	0,109
-573,948	-130,399	0,018	-0,002
-572,934	114,657	-0,083	-0,073
-571,919	-200,000	-0,006	-0,079
-570,904	-200,000	0,010	-0,050
-569,890	-200,000	0,008	0,055
-568,875	-200,000	-0,028	-0,111
-567,861	15,458	0,047	0,026
-566,846	-10,845	0,081	0,039
-565,831	422,874	-0,072	-0,111
-564,817	101,336	-0,055	-0,046
-563,802	12,258	-0,109	0,060
-562,788	362,383	0,055	-0,080
-561,773	323,517	0,046	0,063
-560,758	8,488	-0,061	0,033
-559,744	15,029	-0,113	-0,063
-558,729	275,027	0,056	0,072
-557,715	-13,567	0,073	0,034
-556,700	-156,410	-0,210	-0,009
-555,685	783,429	-0,092	-0,183
-554,671	541,515	0,045	0,077
-553,656	-200,000	0,012	0,092
-552,642	202,902	-0,012	0,014
-551,627	242,358	0,034	-0,041
-550,612	43,296	-0,130	-0,085
-549,598	118,900	-0,070	-0,062
-548,583	-200,000	-0,026	-0,126
-547,569	-200,000	-0,001	0,043
-546,554	682,437	-0,021	0,040
-545,539	-86,516	0,036	-0,008
-544,525	261,326	-0,036	0,045
-543,510	32,421	0,043	-0,027
-542,496	-127,485	-0,139	-0,014
-541,481	-200,000	-0,008	-0,063
-540,466	-17,991	0,022	0,010
-539,452	46,151	-0,078	-0,052
-538,437	267,325	0,079	0,100
-537,423	57,814	0,075	0,052
-536,408	73,276	0,028	-0,021
-535,393	481,166	-0,089	0,146
-534,379	-200,000	0,007	-0,055
-533,364	6,645	0,066	-0,035
-532,350	1,377	0,152	0,078
-531,335	268,438	0,087	0,110
-530,321	-20,360	-0,042	-0,018
-529,306	60,237	0,101	-0,072
-528,291	182,472	-0,027	-0,029
-527,277	-200,000	-0,025	-0,121
-526,262	-200,000	0,020	-0,074
-525,248	-68,477	-0,078	-0,022
-524,233	-200,000	0,001	-0,015
-523,218	-176,967	-0,130	-0,002
-522,204	-87,738	0,109	-0,024
-521,189	-98,021	-0,060	0,011
-520,175	-167,735	-0,123	-0,003
-519,160	-119,863	0,042	0,005
-518,145	-200,000	-0,011	-0,063
-517,131	69,799	0,043	0,032
-516,116	-200,000	-0,040	0,134
-515,102	-200,000	0,005	0,075
-514,087	-107,707	-0,147	0,023
-513,072	-60,711	-0,032	0,010
-512,058	257,850	-0,017	-0,021
-511,043	-52,406	-0,088	-0,029
-510,029	671,105	0,039	0,073
-509,014	-9,176	0,100	-0,048
-507,999	800,000	-0,009	0,026
-506,985	-200,000	-0,016	0,098
-505,970	61,708	0,011	-0,008
-504,956	-200,000	-0,006	-0,188
-503,941	-4,862	-0,071	-0,035
-502,926	800,000	0,080	0,218
-501,912	449,306	0,090	0,144
-500,897	317,740	0,025	-0,034
-499,883	-23,689	-0,134	-0,057
-498,868	-200,000	-0,001	-0,031
-497,853	-200,000	-0,011	0,074
-496,839	-21,159	-0,097	-0,043
-495,824	800,000	0,039	0,081
-494,810	105,240	0,041	0,035
-493,795	80,368	0,084	0,065
-492,781	-55,950	0,063	-0,020
-491,766	188,630	-0,092	-0,099
-490,751	-108,018	-0,147	-0,023
-489,737	-71,953	-0,062	-0,017
-488,722	-200,000	-0,013	0,047
-487,708	800,000	-0,022	-0,043
-486,693	800,000	-0,009	0,028
-485,678	73,383	0,075	0,056
-484,664	-8,275	-0,162	-0,078
-483,649	800,000	0,087	-0,187
-482,635	-103,734	-0,108	0,018
-481,620	197,754	-0,097	-0,106
-480,605	228,171	0,067	-0,078
-479,591	-94,525	0,155	-0,030
-478,576	185,671	0,079	0,085
-477,562	800,000	-0,025	-0,074
-476,547	287,985	0,038	-0,050
-475,532	800,000	-0,052	0,118
-474,518	-99,251	0,013	-0,002
-473,503	-67,418	0,092	0,026
-472,489	800,000	0,077	0,157
-471,474	800,000	-0,037	0,092
-470,459	800,000	-0,027	0,057
-469,445	-75,410	0,035	-0,009
-468,430	-68,728	-0,058	-0,016
-467,416	109,532	0,011	-0,009
-466,401	98,535	0,107	0,088
-465,386	-200,000	0,007	0,051
-464,372	329,051	0,024	0,034
-463,357	-200,000	-0,027	0,094
-462,343	698,302	-0,076	-0,145
-461,328	20,798	0,061	-0,036
-460,313	-123,152	-0,035	-0,004
-459,299	287,029	-0,038	-0,050
-458,284	260,742	0,045	-0,055
-457,270	520,845	0,010	0,016
-456,255	1,110	-0,004	-0,002
-455,241	250,075	0,040	0,049
-454,226	-150,848	-0,108	-0,006
-453,211	-200,000	0,005	0,028
-452,197	149,223	0,064	0,063
-451,182	380,575	0,043	-0,063
-450,168	-200,000	0,008	0,060
-449,153	-14,618	-0,138	-0,063
-448,138	-115,442	0,037	-0,005
-447,124	-200,000	-0,019	0,082
-446,109	560,555	0,009	0,016
-445,095	-80,950	-0,023	-0,005
-444,080	-7,850	0,146	0,070
-443,065	800,000	0,028	-0,068
-442,051	192,711	0,049	-0,053
-441,036	30,452	-0,099	0,061
-440,022	-42,553	0,006	0,002
-439,007	800,000	-0,026	0,053
-437,992	113,986	0,147	0,128
-436,978	61,161	0,154	0,109
-435,963	221,846	-0,123	0,142
-434,949	125,434	0,067	-0,061
-433,934	-10,471	-0,129	-0,061
-432,919	-39,228	0,040	-0,015
-431,905	71,243	-0,137	-0,102
-430,890	80,396	-0,036	-0,027
-429,876	-128,577	0,088	0,009
-428,861	-69,360	-0,070	0,019
-427,846	425,616	-0,036	-0,055
-426,832	366,841	-0,015	0,022
-425,817	800,000	0,029	-0,076
-424,803	-96,936	0,072	0,013
-423,788	-200,000	0,007	0,025
-422,773	-6,669	-0,093	-0,045
-421,759	589,384	0,106	-0,188
-420,744	481,607	-0,049	-0,079
-419,730	-133,370	-0,079	-0,007
-418,715	58,128	-0,137	0,096
-417,701	101,685	0,061	-0,051
-416,686	58,152	0,078	0,055
-415,671	-129,348	0,098	0,010
-414,657	514,420	0,054	0,090
-413,642	-124,109	0,172	-0,019
-412,628	-200,000	-0,055	-0,198
-411,613	800,000	-0,011	0,027
-410,598	-146,346	-0,161	-0,010
-409,584	453,142	0,021	-0,033
-408,569	382,815	0,066	0,097
-407,555	122,523	0,061	0,055
-406,540	83,580	-0,116	0,090
-405,525	-76,118	-0,090	-0,023
-404,511	-200,000	0,001	0,011
-403,496	133,066	-0,042	-0,039
-402,482	-139,651	0,118	0,009
-401,467	312,016	-0,035	-0,046
-400,452	-200,000	0,030	0,125
-399,438	94,409	0,056	-0,046
-398,423	800,000	0,034	-0,098
-397,409	103,035	-0,165	-0,138
-396,394	56,002	-0,058	-0,040
-395,379	-200,000	0,028	0,211
-394,365	800,000	0,023	0,059
-393,350	39,799	-0,057	0,037
-392,336	-200,000	-0,004	0,050
-391,321	234,793	0,032	0,038
-390,306	64,463	-0,068	-0,049
-389,292	13,162	0,126	0,070
-388,277	-108,242	-0,033	0,005
-387,263	-200,000	0,010	-0,099
-386,248	720,219	0,054	0,103
-385,233	-117,393	-0,137	-0,018
-384,219	260,414	0,087	-0,108
-383,204	499,420	0,091	0,151
-382,190	-200,000	0,017	0,077
-381,175	756,834	-0,037	-0,072
-380,160	710,769	0,056	0,107
-379,146	-69,619	-0,059	-0,016
-378,131	332,407	0,054	0,075
-377,117	-200,000	0,017	0,106
-376,102	639,427	0,034	-0,063
-375,088	6,454	-0,122	-0,064
-374,073	32,920	0,096	-0,060
-373,058	68,329	-0,031	0,023
-372,044	-200,000	0,010	0,047
-371,029	-61,894	0,099	0,029
-370,015	13,860	0,018	0,010
-369,000	-200,000	-0,009	0,087
-367,985	-200,000	-0,014	-0,079
-366,971	-200,000	0,030	-0,107
-365,956	238,514	0,063	0,075
-364,942	-59,771	0,156	0,047
-363,927	153,931	-0,050	0,049
-362,912	297,082	0,071	-0,094
-361,898	135,000	0,052	0,048
-360,883	-56,486	-0,175	-0,055
-359,869	-53,906	-0,110	-0,036
-358,854	47,572	-0,095	-0,063
-357,839	183,379	0,069	-0,073
-356,825	340,142	-0,056	0,078
-355,810	132,637	0,108	0,099
-354,796	261,583	-0,045	-0,056
-353,781	121,907	-0,147	-0,131
-352,766	52,641	-0,049	-0,033
-351,752	54,621	0,016	0,011
-350,737	-200,000	-0,022	-0,090
-349,723	248,549	-0,066	-0,080
-348,708	79,331	-0,069	0,053
-347,693	-118,755	-0,109	-0,014
-346,679	-110,511	-0,089	-0,013
-345,664	-21,409	-0,056	0,024
-344,650	383,259	-0,045	-0,067
-343,635	800,000	0,088	-0,212
-342,620	567,499	-0,066	0,116
-341,606	520,145	-0,021	0,035
-340,591	800,000	0,031	0,072
-339,577	115,748	-0,047	-0,041
-338,562	-13,273	0,084	0,039
-337,548	-200,000	0,013	0,140
-336,533	763,796	0,048	0,094
-335,518	-94,418	0,087	0,017
-334,504	800,000	0,053	0,107
-333,489	208,588	0,063	-0,070
-332,475	800,000	0,033	-0,081
-331,460	-200,000	0,009	0,082
-330,445	-200,000	0,017	0,110
-329,431	103,052	0,117	0,098
-328,416	362,950	0,036	0,052
-327,402	-200,000	0,019	0,083
-326,387	-200,000	0,015	-0,083
-325,372	133,029	0,040	0,037
-324,358	-63,545	0,087	-0,025
-323,343	-200,000	-0,008	-0,053
-322,329	-200,000	0,010	-0,155
-321,314	800,000	0,018	0,057
-320,299	-200,000	-0,022	0,072
-319,285	-111,639	0,038	0,005
-318,270	123,108	-0,083	-0,074
-317,256	397,982	-0,095	-0,143
-316,241	14,805	0,103	-0,057
-315,226	-155,374	0,073	-0,003
-314,212	416,505	0,051	-0,078
-313,197	-200,000	-0,023	0,081
-312,183	302,425	0,058	-0,077
-311,168	-136,427	-0,042	-0,003
-310,153	-200,000	-0,004	0,062
-309,139	182,768	0,056	-0,059
-308,124	-200,000	-0,013	0,041
-307,110	-200,000	0,046	0,164
-306,095	-200,000	0,032	0,122
-305,080	-53,620	0,102	-0,033
-304,066	800,000	-0,056	-0,156
-303,051	140,641	-0,077	-0,072
-302,037	275,686	-0,061	0,077
-301,022	101,281	0,136	-0,113
-300,008	-174,074	0,086	-0,002
-298,993	-200,000	-0,011	-0,057
-297,978	37,884	-0,143	0,091
-296,964	800,000	0,046	0,101
-295,949	326,315	0,066	0,090
-294,935	-51,617	-0,049	-0,016
-293,920	2,882	0,109	-0,056
-292,905	-200,000	0,005	0,079
-291,891	-200,000	0,020	0,207
-290,876	800,000	-0,012	0,036
-289,862	800,000	-0,021	0,045
-288,847	-57,072	0,118	0,037
-287,832	419,062	0,015	-0,022
-286,818	145,982	-0,038	-0,036
-285,803	-200,000	0,004	0,067
-284,789	210,004	0,060	-0,067
-283,774	207,131	0,087	0,097
-282,759	43,281	0,052	0,034
-281,745	-8,252	-0,138	0,066
-280,730	-200,000	-0,014	0,049
-279,716	158,313	0,037	-0,036
-278,701	-200,000	-0,019	0,069
-277,686	-200,000	0,029	0,198
-276,672	-200,000	-0,024	0,097
-275,657	-200,000	-0,015	-0,079
-274,643	144,479	-0,127	-0,121
-273,628	-200,000	0,005	-0,172
-272,613	-138,833	0,136	0,010
-271,599	55,603	0,164	0,113
-270,584	-200,000	-0,026	0,141
-269,570	740,570	-0,069	0,132
-268,555	116,476	-0,057	-0,050
-267,540	51,796	0,094	0,063
-266,526	-200,000	0,022	-0,074
-265,511	-200,000	-0,009	0,102
-264,497	-200,000	-0,028	0,143
-263,482	800,000	-0,007	-0,014
-262,467	-200,000	0,010	0,051
-261,453	-200,000	0,009	0,038
-260,438	103,470	-0,135	-0,112
-259,424	-200,000	0,016	-0,096
-258,409	272,880	-0,040	-0,050
-257,395	377,625	-0,093	-0,136
-256,380	800,000	0,078	0,178
-255,365	-200,000	-0,052	0,248
-254,351	-77,301	-0,084	-0,021
-253,336	-200,000	-0,003	0,062
-252,322	-121,505	0,102	-0,012
-251,307	-200,000	-0,001	0,048
-250,292	-25,255	-0,138	-0,058
-249,278	-132,784	0,098	-0,009
-248,263	229,695	-0,065	0,076
-247,249	-101,399	0,195	-0,033
-246,234	-200,000	0,001	0,046
-245,219	-39,825	-0,088	0,032
-244,205	142,900	-0,091	-0,086
-243,190	800,000	0,069	-0,158
-242,176	40,462	0,084	-0,054
-241,161	-200,000	0,005	-0,022
-240,146	-18,506	-0,040	-0,018
-239,132	677,457	-0,044	-0,083
-238,117	452,335	-0,038	-0,060
-237,103	368,604	0,079	-0,114
-236,088	-92,381	0,047	0,009
-235,073	-99,720	0,106	-0,019
-234,059	-200,000	-0,001	0,050
-233,044	56,018	-0,103	0,071
-232,030	563,550	0,030	-0,052
-231,015	-2,124	-0,145	-0,072
-230,000	-200,000	-0,009	-0,109
-228,986	103,994	-0,037	0,031
-227,971	-103,142	0,140	-0,023
-226,957	93,385	-0,058	0,046
-225,942	-200,000	-0,001	0,033
-224,927	190,476	-0,095	-0,102
-223,913	-200,000	0,009	-0,053
-222,898	-200,000	0,058	-0,200
-221,884	-188,572	-0,090	0,001
-220,869	-200,000	0,013	-0,118
-219,855	618,137	-0,053	-0,095
-218,840	59,935	-0,084	-0,059
-217,825	571,393	0,036	0,063
-216,811	58,946	0,062	-0,044
-215,796	800,000	-0,064	-0,134
-214,782	262,826	-0,022	0,027
-213,767	-200,000	0,001	0,119
-212,752	800,000	0,049	0,131
-211,738	-113,836	-0,080	-0,011
-210,723	280,422	0,043	0,055
-209,709	-67,504	-0,024	-0,007
-208,694	-200,000	0,005	-0,030
-207,679	-7,362	0,153	-0,073
-206,665	-156,044	0,047	-0,002
-205,650	-200,000	0,007	-0,077
-204,636	-89,410	0,271	0,056
-203,621	262,915	-0,026	0,032
-202,606	800,000	-0,017	-0,054
-201,592	28,230	0,094	-0,056
-200,577	688,610	-0,051	0,095
-199,563	-200,000	-0,015	0,174
-198,548	-169,735	0,023	-0,001
-197,533	800,000	0,022	0,051
-196,519	-160,817	-0,034	0,001
-195,504	-200,000	-0,007	0,055
-194,490	-66,248	0,102	0,029
-193,475	201,531	-0,112	-0,123
-192,460	368,958	0,055	-0,079
-191,446	-50,518	-0,115	0,038
-190,431	-200,000	0,034	0,110
-189,417	127,448	-0,083	0,075
-188,402	638,485	-0,088	-0,160
-187,387	630,209	-0,020	-0,036
-186,373	164,737	-0,103	-0,104
-185,358	-64,695	-0,090	0,026
-184,344	800,000	0,045	0,132
-183,329	-200,000	-0,006	0,025
-182,315	-35,862	0,059	-0,022
-181,300	800,000	-0,016	-0,033
-180,285	-120,768	0,062	0,007
-179,271	791,929	-0,053	-0,105
-178,256	233,152	0,039	-0,045
-177,242	-200,000	0,027	0,098
-176,227	-200,000	-0,037	0,256
-175,212	-200,000	0,025	0,119
-174,198	159,190	-0,092	-0,091
-173,183	46,627	0,032	0,021
-172,169	-200,000	-0,015	0,068
-171,154	106,665	0,122	0,102
-170,139	-150,552	0,086	0,005
-169,125	82,007	0,074	0,057
-168,110	800,000	-0,029	0,090
-167,096	-200,000	-0,027	-0,094
-166,081	369,880	-0,032	0,046
-165,066	25,251	0,020	-0,012
-164,052	-44,624	-0,184	-0,065
-163,037	-79,498	0,203	-0,048
-162,023	76,190	-0,026	0,020
-161,008	800,000	0,067	0,161
-159,993	74,839	0,127	0,095
-158,979	-200,000	-0,014	0,084
-157,964	2,633	0,079	-0,040
-156,950	-5,919	0,103	0,050
-155,935	160,344	-0,059	0,058
-154,920	294,889	-0,042	0,055
-153,906	-200,000	0,028	0,171
-152,891	800,000	-0,029	0,078
-151,877	-14,797	-0,177	-0,080
-150,862	-118,055	0,103	-0,013
-149,847	585,235	0,073	-0,128
-148,833	-105,426	0,136	-0,022
-147,818	102,473	0,070	0,058
-146,804	-200,000	-0,006	-0,033
-145,789	-200,000	0,023	0,090
-144,775	317,778	0,062	0,083
-143,760	146,333	-0,036	-0,035
-142,745	31,793	0,084	-0,051
-141,731	597,917	-0,028	-0,049
-140,716	-200,000	-0,001	-0,177
-139,702	477,377	0,108	0,173
-138,687	-200,000	0,003	0,129
-137,672	800,000	-0,060	0,147
-136,658	383,339	0,094	0,137
-135,643	800,000	-0,010	-0,024
-134,629	-98,201	0,103	-0,019
-133,614	324,646	-0,025	-0,034
-132,599	800,000	0,058	0,139
-131,585	-53,866	0,101	0,032
-130,570	63,627	-0,032	-0,023
-129,556	117,840	-0,060	-0,052
-128,541	209,122	0,042	-0,047
-127,526	737,000	-0,057	-0,108
-126,512	-30,796	0,145	0,058
-125,497	-31,892	0,136	-0,054
-124,483	-200,000	0,026	0,093
-123,468	-200,000	0,013	-0,051
-122,453	535,214	-0,051	0,085
-121,439	-200,000	-0,023	-0,215
-120,424	50,470	0,011	0,007
-119,410	-200,000	-0,017	-0,078
-118,395	-200,000	0,013	-0,145
-117,380	369,942	-0,042	0,060
-116,366	-200,000	0,005	-0,106
-115,351	-88,356	-0,188	-0,039
-114,337	73,009	-0,104	0,077
-113,322	-200,000	-0,003	-0,076
-112,307	123,101	0,033	0,029
-111,293	-200,000	0,019	0,137
-110,278	800,000	0,044	0,101
-109,264	31,247	-0,076	0,046
-108,249	334,701	-0,029	0,040
-107,234	595,914	-0,067	0,117
-106,220	-200,000	0,003	-0,103
-105,205	-200,000	0,001	0,174
-104,191	323,175	0,062	0,083
-103,176	-96,015	0,162	-0,030
-102,162	800,000	0,016	0,039
-101,147	-24,746	-0,207	-0,086
-100,132	90,917	-0,146	-0,116
-99,118	304,637	-0,018	-0,024
-98,103	-200,000	0,009	-0,095
-97,089	124,784	0,058	0,051
-96,074	-88,672	0,055	-0,011
-95,059	-17,482	0,064	-0,028
-94,045	-76,487	-0,172	-0,042
-93,030	13,658	-0,124	-0,068
-92,016	-49,817	0,157	0,052
-91,001	-200,000	0,005	0,022
-89,986	446,927	0,088	0,137
-88,972	-152,613	0,197	-0,010
-87,957	-200,000	0,033	0,103
-86,943	-21,353	-0,098	-0,042
-85,928	264,716	0,030	-0,037
-84,913	-82,040	-0,060	-0,014
-83,899	-200,000	-0,022	-0,171
-82,884	565,295	-0,070	0,120
-81,870	800,000	0,035	0,079
-80,855	-140,849	0,111	0,008
-79,840	92,664	-0,018	-0,014
-78,826	-40,037	-0,072	-0,026
-77,811	-74,327	-0,090	-0,023
-76,797	-131,675	-0,057	-0,005
-75,782	-49,626	0,081	0,027
-74,767	-200,000	0,013	0,126
-73,753	-200,000	0,001	0,005
-72,738	17,617	-0,083	0,047
-71,724	271,553	-0,017	-0,021
-70,709	-5,680	-0,028	-0,013
-69,694	-66,696	-0,193	-0,054
-68,680	-81,369	0,095	-0,022
-67,665	-66,562	0,172	0,048
-66,651	225,463	0,071	0,081
-65,636	-89,262	0,115	0,024
-64,622	71,668	0,062	-0,046
-63,607	51,093	-0,091	-0,061
-62,592	56,274	-0,171	-0,117
-61,578	196,807	0,062	0,067
-60,563	-200,000	-0,007	0,067
-59,549	145,734	0,034	-0,032
-58,534	21,612	-2,160	-1,237
-57,519	482,104	-1,165	-1,874
-56,505	-200,000	-0,308	-4,351
-55,490	665,126	0,888	1,624
-54,476	800,000	5,285	11,446
-53,461	-200,000	21,732	344,420
-52,446	800,000	763,450	2351,326
-51,432	549,971	1662,618	2824,349
-50,417	71,778	1658,529	1215,316
-49,403	17,345	1531,913	855,872
-48,388	11,347	1455,922	784,446
-47,373	19,469	1447,286	818,677
-46,359	14,874	1436,487	790,719
-45,344	9,652	1432,184	763,490
-44,330	9,619	1430,337	762,321
-43,315	9,570	1428,752	761,211
-42,300	9,591	1426,962	760,325
-41,286	9,588	1425,750	759,637
-40,271	9,548	1424,563	758,786
-39,257	9,538	1423,386	758,082
-38,242	9,627	1422,047	757,760
-37,227	9,588	1421,157	757,070
-36,213	9,604	1419,816	756,399
-35,198	9,650	1418,499	755,885
-34,184	9,651	1417,507	755,331
-33,169	9,551	1416,322	754,199
-32,154	9,602	1415,191	753,806
-31,140	9,613	1414,020	753,203
-30,125	9,668	1412,840	752,806
-29,111	9,670	1411,571	752,109
-28,096	9,598	1410,519	751,183
-27,082	9,533	1409,316	750,205
-26,067	9,543	1408,326	749,697
-25,052	9,567	1407,035	749,089
-24,038	9,558	1406,338	748,646
-23,023	9,554	1405,529	748,170
-22,009	9,550	1404,381	747,510
-20,994	9,532	1403,247	746,791
-19,979	9,593	1402,392	746,594
-18,965	9,521	1401,504	745,755
-17,950	9,504	1400,519	745,122
-16,936	9,495	1399,812	744,676
-15,921	9,486	1398,816	744,074
-14,906	9,494	1397,806	743,544
-13,892	9,540	1396,645	743,111
-12,877	9,471	1396,429	742,646
-11,863	9,490	1395,324	742,117
-10,848	9,414	1394,444	741,266
-9,833	9,396	1393,414	740,606
-8,819	9,369	1392,637	740,038
-7,804	9,411	1391,557	739,627
-6,790	9,400	1390,525	739,002
-5,775	9,312	1389,485	738,012
-4,760	9,418	1388,406	737,900
-3,746	9,348	1387,573	737,103
-2,731	9,387	1386,754	736,820
-1,717	9,393	1385,832	736,329
-0,702	9,333	1384,269	735,192
0,313	13,391	1296,640	707,173
1,327	29,383	687,239	410,930
2,342	45,148	118,774	77,061
3,356	-0,893	16,510	8,215
4,371	7,802	3,549	1,869
5,386	49,174	0,975	0,645
6,400	746,033	0,272	0,519
7,415	800,000	-0,080	-0,189
8,429	42,135	-0,352	-0,225
9,444	-68,066	-0,408	-0,111
10,459	118,801	-0,310	-0,270
11,473	146,482	-0,254	-0,241
12,488	-19,358	-0,277	-0,121
13,502	30,778	-0,370	-0,223
14,517	90,765	-0,308	-0,243
15,531	223,986	-0,272	-0,309
16,546	-81,324	-0,278	-0,064
17,561	56,727	-0,334	-0,228
18,575	22,606	-0,125	-0,072
19,590	605,752	-0,150	-0,264
20,604	0,124	-0,167	-0,083
21,619	119,677	-0,411	-0,358
22,634	36,448	-0,305	-0,189
23,648	64,202	-0,517	-0,366
24,663	147,172	-0,335	-0,317
25,677	175,550	-0,264	-0,270
26,692	224,337	-0,247	-0,281
27,707	-11,038	-0,314	-0,145
28,721	-12,358	-0,365	-0,167
29,736	39,018	-0,348	-0,219
30,750	228,868	-0,214	-0,246
31,765	111,454	-0,283	-0,240
32,780	26,813	-0,337	-0,198
33,794	-72,047	-0,331	-0,086
34,809	106,439	-0,381	-0,317
35,823	73,233	-0,323	-0,238
36,838	130,936	-0,364	-0,328
37,853	187,351	-0,418	-0,438
38,867	-32,572	-0,374	-0,146
39,882	35,255	-0,361	-0,222
40,896	287,869	-0,260	-0,331
41,911	19,783	-0,360	-0,203
42,926	141,211	-0,240	-0,224
43,940	-14,266	-0,391	-0,176
44,955	100,659	-0,291	-0,238
45,969	341,216	-0,210	-0,289
46,984	5,034	-0,306	-0,158
47,999	43,710	-0,420	-0,270
49,013	5,035	-0,324	-0,167
50,028	-107,978	-0,440	-0,066
51,042	18,946	-0,336	-0,189
52,057	45,623	-0,402	-0,260
53,071	55,995	-0,318	-0,216
54,086	-16,677	-0,263	-0,116
55,101	127,632	-0,273	-0,243
56,115	-98,512	-0,325	-0,058
57,130	39,767	-0,358	-0,225
58,144	140,536	-0,304	-0,282
59,159	43,993	-0,386	-0,248
60,174	19,102	-0,445	-0,250
61,188	179,136	-0,284	-0,292
62,203	-176,891	-0,205	-0,004
63,217	0,053	-0,403	-0,201
64,232	14,619	-0,237	-0,130
65,247	112,553	-0,337	-0,286
66,261	162,164	-0,324	-0,319
67,276	2,264	-0,329	-0,166
68,290	-20,815	-0,177	-0,076
69,305	177,814	-0,319	-0,327
70,320	78,649	-0,188	-0,141
71,334	88,194	-0,279	-0,217
72,349	30,035	-0,393	-0,234
73,363	312,669	-0,352	-0,464
74,378	4,080	-0,304	-0,155
75,393	-18,258	-0,315	-0,137
76,407	-66,076	-0,398	-0,110
77,422	32,178	-0,254	-0,153
78,436	101,971	-0,238	-0,195
79,451	-23,919	-0,340	-0,142
80,466	-55,990	-0,335	-0,104
81,480	-2,834	-0,279	-0,136
82,495	212,227	-0,247	-0,273
83,509	31,202	-0,258	-0,154
84,524	135,715	-0,297	-0,271
85,539	113,229	-0,220	-0,187
86,553	45,119	-0,279	-0,180
87,568	139,474	-0,294	-0,271
88,582	115,697	-0,321	-0,275
89,597	-34,238	-0,325	-0,124
90,611	800,000	-0,091	-0,180
91,626	150,504	-0,251	-0,239
92,641	37,627	-0,290	-0,180
93,655	441,614	-0,218	-0,335
94,670	30,706	-0,350	-0,209
95,684	-75,177	-0,425	-0,105
96,699	162,211	-0,233	-0,229
97,714	138,119	-0,247	-0,226
98,728	47,961	-0,137	-0,090
99,743	-19,647	-0,322	-0,139
100,757	196,100	-0,135	-0,144
101,772	407,322	-0,272	-0,403
102,787	45,643	-0,257	-0,165
103,801	24,157	-0,299	-0,172
104,816	229,964	-0,204	-0,233
105,830	157,521	-0,254	-0,246
106,845	313,044	-0,225	-0,296
107,860	241,347	-0,142	-0,166
108,874	56,354	-0,315	-0,213
109,889	98,719	-0,310	-0,250
110,903	-14,559	-0,350	-0,157
111,918	234,563	-0,152	-0,175
112,933	227,419	-0,221	-0,251
113,947	800,000	-0,074	-0,163
114,962	-26,649	-0,109	-0,044
115,976	15,548	-0,273	-0,150
116,991	67,025	-0,297	-0,211
118,006	-78,722	-0,335	-0,079
119,020	184,234	-0,205	-0,212
120,035	161,461	-0,256	-0,250
121,049	96,150	-0,135	-0,107
122,064	225,633	-0,206	-0,233
123,079	288,647	-0,266	-0,337
124,093	324,919	-0,216	-0,289
125,108	0,585	-0,424	-0,211
126,122	148,848	-0,223	-0,210
127,137	85,596	-0,334	-0,256
128,151	332,211	-0,150	-0,203
129,166	-149,080	-0,302	-0,017
130,181	-58,776	-0,314	-0,094
131,195	76,227	-0,238	-0,175
132,210	241,646	-0,208	-0,243
133,224	95,529	-0,278	-0,221
134,239	-23,801	-0,235	-0,098
135,254	64,947	-0,114	-0,080
136,268	56,292	-0,278	-0,188
137,283	-56,275	-0,170	-0,052
138,297	11,449	-0,342	-0,182
139,312	106,636	-0,268	-0,222
140,327	110,690	-0,203	-0,170
141,341	680,843	-0,110	-0,201
142,356	-81,456	-0,253	-0,057
143,370	19,287	-0,139	-0,078
144,385	152,319	-0,183	-0,174
145,400	38,570	-0,206	-0,128
146,414	308,234	-0,205	-0,267
147,429	60,486	-0,268	-0,184
148,443	416,562	-0,234	-0,349
149,458	14,313	-0,197	-0,107
150,473	54,058	-0,242	-0,161
151,487	227,532	-0,153	-0,174
152,502	-11,065	-0,344	-0,157
153,516	613,914	-0,122	-0,214
154,531	227,549	-0,174	-0,197
155,546	59,299	-0,143	-0,098
156,560	-87,148	-0,335	-0,070
157,575	-64,080	-0,341	-0,096
158,589	66,964	-0,317	-0,225
159,604	-57,833	-0,332	-0,100
160,619	-21,077	-0,183	-0,077
161,633	17,540	-0,316	-0,174
162,648	114,590	-0,175	-0,148
163,662	138,247	-0,109	-0,099
164,677	242,926	-0,176	-0,205
165,692	-32,678	-0,294	-0,113
166,706	114,728	-0,271	-0,230
167,721	42,557	-0,333	-0,210
168,735	-100,497	-0,378	-0,064
169,750	-34,033	-0,259	-0,098
170,764	506,046	-0,141	-0,228
171,779	236,942	-0,140	-0,161
172,794	9,475	-0,328	-0,172
173,808	187,841	-0,234	-0,243
174,823	126,416	-0,190	-0,167
175,837	23,725	-0,128	-0,073
176,852	189,813	-0,201	-0,210
177,867	242,931	-0,155	-0,181
178,881	15,866	-0,176	-0,096
179,896	-92,314	-0,248	-0,048
180,910	85,122	-0,267	-0,203
181,925	800,000	-0,104	-0,266
182,940	-13,124	-0,228	-0,102
183,954	83,094	-0,215	-0,162
184,969	24,811	-0,138	-0,079
185,983	359,944	-0,102	-0,142
186,998	76,578	-0,194	-0,143
188,013	80,001	-0,258	-0,192
189,027	800,000	-0,100	-0,201
190,042	16,837	-0,159	-0,087
191,056	187,537	-0,222	-0,230
192,071	545,960	-0,064	-0,106
193,086	-50,113	-0,148	-0,048
194,100	-51,658	-0,151	-0,049
195,115	46,756	-0,218	-0,140
196,129	432,990	-0,128	-0,193
197,144	-8,759	-0,262	-0,121
198,159	31,119	-0,176	-0,104
199,173	646,056	-0,051	-0,091
200,188	-6,487	-0,188	-0,089
201,202	-8,015	-0,266	-0,124
202,217	-29,239	-0,178	-0,070
203,232	-43,090	-0,229	-0,080
204,246	88,979	-0,254	-0,196
205,261	303,634	-0,164	-0,212
206,275	743,179	-0,030	-0,056
207,290	114,931	-0,127	-0,107
208,304	74,744	-0,224	-0,163
209,319	242,570	-0,110	-0,128
210,334	10,271	-0,184	-0,097
211,348	157,565	-0,177	-0,169
212,363	69,897	-0,129	-0,092
213,377	-3,252	-0,224	-0,107
214,392	285,962	-0,122	-0,153
215,407	112,391	-0,075	-0,063
216,421	248,418	-0,081	-0,094
217,436	58,940	-0,243	-0,165
218,450	-200,000	-0,032	-0,113
219,465	147,763	-0,279	-0,261
220,480	26,923	-0,143	-0,082
221,494	125,899	0,015	0,013
222,509	117,842	-0,183	-0,156
223,523	159,036	-0,209	-0,201
224,538	432,697	-0,118	-0,178
225,553	196,797	-0,182	-0,192
226,567	-183,459	-0,072	-0,001
227,582	351,752	-0,104	-0,142
228,596	70,158	-0,177	-0,126
229,611	-30,613	-0,156	-0,061
230,626	113,113	-0,187	-0,157
231,640	9,013	-0,271	-0,141
232,655	507,014	-0,052	-0,084
233,669	260,107	-0,241	-0,288
234,684	76,840	-0,215	-0,158
235,699	9,361	-0,267	-0,139
236,713	660,750	-0,070	-0,125
237,728	800,000	-0,079	-0,214
238,742	800,000	-0,069	-0,186
239,757	12,273	-0,203	-0,107
240,772	166,493	-0,186	-0,182
241,786	494,135	-0,117	-0,186
242,801	206,117	-0,142	-0,153
243,815	59,983	-0,142	-0,097
244,830	-106,002	-0,122	-0,019
245,844	27,050	-0,151	-0,087
246,859	104,752	-0,146	-0,119
247,874	800,000	-0,080	-0,196
248,888	310,438	-0,177	-0,229
249,903	63,140	-0,181	-0,125
250,917	47,229	-0,118	0,076
251,932	14,451	-0,171	-0,092
252,947	-168,485	-0,201	0,005
253,961	48,797	-0,225	-0,145
254,976	136,392	-0,117	-0,105
255,990	91,217	-0,224	-0,173
257,005	379,153	-0,207	-0,292
258,020	-52,660	-0,112	-0,035
259,034	284,339	-0,073	-0,091
260,049	306,194	-0,124	-0,160
261,063	47,959	-0,141	-0,091
262,078	36,162	-0,201	-0,122
263,093	1,956	-0,179	-0,089
264,107	467,831	-0,108	-0,167
265,122	-200,000	-0,014	-0,147
266,136	53,806	-0,171	-0,113
267,151	-53,180	-0,230	-0,072
268,166	-64,302	-0,198	0,055
269,180	168,606	-0,211	-0,208
270,195	-71,100	-0,099	-0,025
271,209	-4,962	-0,116	-0,055
272,224	54,483	-0,185	-0,123
273,239	232,332	-0,095	-0,107
274,253	-50,906	-0,187	-0,060
275,268	104,335	-0,155	-0,125
276,282	11,385	-0,180	-0,095
277,297	0,712	-0,212	-0,104
278,312	216,422	-0,221	-0,242
279,326	705,961	-0,078	-0,143
280,341	95,560	-0,100	-0,079
281,355	172,173	-0,192	-0,190
282,370	-31,676	-0,225	-0,087
283,384	52,406	-0,232	-0,152
284,399	28,312	-0,246	-0,143
285,414	24,458	-0,206	-0,117
286,428	-32,504	-0,109	-0,042
287,443	-20,762	-0,096	-0,040
288,457	-86,111	-0,137	0,029
289,472	-200,000	-0,219	0,001
290,487	-44,480	-0,275	-0,094
291,501	-200,000	-0,060	-0,193
292,516	127,510	-0,163	-0,142
293,530	-8,150	-0,138	-0,064
294,545	78,795	-0,202	-0,149
295,560	173,262	-0,177	-0,175
296,574	-49,589	-0,151	-0,049
297,589	122,784	-0,192	-0,165
298,603	50,566	-0,158	-0,102
299,618	-16,068	-0,163	-0,071
300,633	-59,621	-0,120	-0,035
301,647	-104,471	-0,209	-0,033
302,662	800,000	-0,058	-0,120
303,676	-151,826	-0,220	-0,011
304,691	-138,035	-0,108	-0,008
305,706	-102,253	-0,197	0,032
306,720	60,550	-0,248	-0,168
307,735	158,957	-0,190	-0,181
308,749	183,592	-0,115	-0,117
309,764	180,590	-0,092	-0,093
310,779	-78,849	-0,314	-0,073
311,793	-200,000	-0,036	-0,157
312,808	-10,085	-0,100	0,045
313,822	-6,412	-0,221	-0,103
314,837	-84,589	-0,171	-0,037
315,852	71,130	-0,107	-0,076
316,866	-200,000	-0,000	-0,058
317,881	30,034	-0,238	-0,139
318,895	31,436	-0,152	-0,089
319,910	-9,513	-0,111	-0,051
320,925	356,160	-0,142	-0,195
321,939	-11,538	-0,172	-0,077
322,954	38,162	-0,112	-0,068
323,968	-60,855	-0,082	0,024
324,983	354,959	-0,080	-0,109
325,997	141,903	-0,134	-0,121
327,012	176,556	-0,123	-0,123
328,027	19,882	-0,189	-0,104
329,041	-106,219	-0,176	-0,027
330,056	800,000	-0,104	-0,232
331,070	122,661	-0,054	-0,046
332,085	-200,000	-0,004	-0,072
333,100	114,455	-0,151	-0,126
334,114	45,325	-0,156	-0,098
335,129	108,693	-0,164	-0,134
336,143	597,232	-0,073	-0,124
337,158	173,472	-0,170	-0,168
338,173	-200,000	-0,012	-0,048
339,187	-135,156	-0,221	-0,018
340,202	-53,658	-0,177	-0,055
341,216	151,153	-0,157	-0,146
342,231	-2,371	-0,261	-0,125
343,246	462,434	-0,135	-0,208
344,260	565,161	-0,052	-0,087
345,275	-70,216	-0,082	-0,021
346,289	-123,321	-0,129	0,014
347,304	91,173	-0,062	-0,048
348,319	94,226	-0,203	-0,157
349,333	129,403	-0,189	-0,165
350,348	-108,241	-0,108	-0,016
351,362	-29,942	-0,144	-0,056
352,377	121,526	-0,140	-0,119
353,392	522,023	-0,075	0,121
354,406	592,849	0,022	-0,037
355,421	207,824	1307,380	1397,640
356,435	159,893	1467,163	1398,116
