DTS Sentinel unit serial number:	SN410029Multiplexer serial number:	ORYXHardware model number:	OX2-SRSoftware version number:	ORYX F/W v4,00 Oryx Data Collector v3.7.2.0data status	okinstallation	B3 Nyhavnadifferential loss correction	single-endedforward channel	channel 1reverse channel	N/Adate	2023/12/05time	02:02:30forward acquisition time	300,00reverse acquisition time	0,00gamma	499,1914k internal	0,3201k external	0,3201temperature offset calibration	1,0000default loss term (dB/km)	0,3820temperature slope calibration	1,0000multiplexer offset coefficient	1,0000multiplexer slope coefficient	1,0000fibre end	0,00T internal ref (°C)	13,87T ext. ref 1 (°C)	-0,76T ext. ref 2 (°C)	-0,79length (m)	temperature (°C)	Stokes	anti-Stokes-744,400	34,677	-0,187	-0,119
-743,385	-200,000	-0,057	0,362
-742,371	-44,158	-0,315	-0,114
-741,356	-200,000	-0,027	0,391
-740,342	28,425	-0,218	-0,134
-739,327	-200,000	-0,058	0,294
-738,312	216,616	-0,213	-0,246
-737,298	-200,000	0,015	0,285
-736,283	614,214	-0,079	-0,144
-735,269	247,558	0,183	0,226
-734,254	-24,666	-0,275	-0,118
-733,239	800,000	-0,100	0,271
-732,225	245,390	-0,169	-0,207
-731,210	800,000	0,052	0,118
-730,196	320,200	-0,064	-0,089
-729,181	10,685	-0,125	-0,069
-728,167	-200,000	-0,001	-0,048
-727,152	-200,000	-0,001	-0,098
-726,137	-200,000	0,000	-0,079
-725,123	800,000	-0,044	-0,090
-724,108	800,000	-0,037	-0,085
-723,094	190,601	-0,174	-0,191
-722,079	-1,623	-0,047	-0,024
-721,064	800,000	-0,039	-0,113
-720,050	232,568	0,034	-0,041
-719,035	-200,000	0,018	-0,082
-718,021	51,991	-0,116	-0,080
-717,006	60,597	-0,120	0,086
-715,991	-43,184	-0,082	0,030
-714,977	-200,000	0,036	-0,135
-713,962	-200,000	-0,019	-0,180
-712,948	643,579	0,054	-0,100
-711,933	8,699	-0,093	0,051
-710,918	-1,062	0,107	0,055
-709,904	-200,000	0,039	0,000
-708,889	187,925	-0,189	-0,206
-707,875	559,363	0,071	-0,124
-706,860	-24,248	-0,072	-0,031
-705,845	76,031	-0,117	0,090
-704,831	-200,000	-0,017	-0,072
-703,816	166,641	0,025	-0,025
-702,802	-129,538	-0,156	0,015
-701,787	-163,572	0,235	0,008
-700,772	-200,000	-0,026	-0,089
-699,758	-119,234	-0,171	-0,021
-698,743	-200,000	-0,014	0,154
-697,729	-91,278	0,099	-0,020
-696,714	-33,007	-0,130	0,052
-695,699	231,569	-0,095	-0,113
-694,685	793,590	0,068	-0,136
-693,670	-200,000	-0,015	-0,171
-692,656	-200,000	0,026	0,121
-691,641	232,619	0,096	-0,115
-690,627	184,894	0,090	-0,097
-689,612	783,399	0,051	0,102
-688,597	800,000	0,061	-0,136
-687,583	-141,244	0,001	0,000
-686,568	-94,653	-0,069	0,014
-685,554	743,403	0,014	0,027
-684,539	413,033	0,030	-0,046
-683,524	-200,000	-0,015	0,059
-682,510	-147,608	-0,135	-0,008
-681,495	-200,000	0,005	-0,054
-680,481	-170,982	-0,031	-0,001
-679,466	-33,695	-0,061	0,024
-678,451	635,739	-0,081	-0,150
-677,437	103,286	0,064	-0,054
-676,422	162,750	0,147	0,150
-675,408	-200,000	-0,008	0,027
-674,393	63,434	-0,126	-0,092
-673,378	800,000	-0,025	-0,073
-672,364	-127,339	-0,207	0,022
-671,349	237,579	0,029	0,035
-670,335	-23,008	-0,097	0,042
-669,320	-200,000	0,033	-0,136
-668,305	-200,000	-0,004	-0,078
-667,291	-200,000	-0,010	-0,087
-666,276	-200,000	-0,009	0,053
-665,262	47,631	0,135	-0,091
-664,247	491,943	0,072	-0,121
-663,232	215,413	-0,139	0,160
-662,218	-67,664	0,066	-0,019
-661,203	201,084	-0,050	0,056
-660,189	348,170	0,036	0,051
-659,174	186,595	-0,005	0,006
-658,159	800,000	0,012	-0,037
-657,145	-139,212	-0,043	0,003
-656,130	-200,000	-0,013	-0,105
-655,116	-25,607	0,194	-0,082
-654,101	121,391	0,017	-0,015
-653,086	-100,580	-0,092	-0,016
-652,072	-200,000	0,011	-0,158
-651,057	720,889	-0,105	-0,204
-650,043	-129,985	-0,103	0,010
-649,028	16,254	0,107	0,061
-648,014	-200,000	0,014	0,136
-646,999	-136,805	-0,153	0,013
-645,984	-174,759	-0,156	-0,003
-644,970	-5,453	0,024	0,012
-643,955	-200,000	0,003	0,064
-642,941	800,000	-0,075	-0,218
-641,926	-38,874	0,005	-0,002
-640,911	56,477	-0,030	0,021
-639,897	-200,000	-0,002	0,015
-638,882	-23,159	-0,084	0,037
-637,868	-52,989	-0,114	0,038
-636,853	24,452	0,052	-0,031
-635,838	-200,000	-0,012	0,121
-634,824	-16,193	0,096	-0,044
-633,809	-10,927	-0,080	0,038
-632,795	121,397	0,147	-0,133
-631,780	-200,000	-0,016	0,073
-630,765	-153,623	0,126	0,006
-629,751	-200,000	-0,016	-0,069
-628,736	-73,562	-0,118	0,031
-627,722	42,798	0,132	0,087
-626,707	142,726	-0,057	-0,054
-625,692	-200,000	0,018	0,148
-624,678	54,468	0,019	0,013
-623,663	-15,169	-0,123	0,057
-622,649	-200,000	-0,013	-0,057
-621,634	800,000	0,072	-0,188
-620,619	800,000	0,062	-0,165
-619,605	-34,637	-0,026	-0,010
-618,590	67,134	-0,078	0,057
-617,576	800,000	-0,035	-0,104
-616,561	-200,000	0,016	-0,068
-615,546	205,004	-0,107	-0,121
-614,532	-106,052	0,100	-0,016
-613,517	14,598	0,154	-0,087
-612,503	-200,000	0,000	0,120
-611,488	-99,837	0,025	0,004
-610,474	40,974	0,052	0,034
-609,459	-32,908	-0,077	0,031
-608,444	-70,363	-0,035	-0,010
-607,430	-200,000	0,018	0,098
-606,415	154,437	-0,082	-0,082
-605,401	746,820	-0,063	-0,124
-604,386	-193,736	-0,139	-0,001
-603,371	800,000	0,033	0,070
-602,357	248,851	-0,064	-0,079
-601,342	-104,126	0,136	0,023
-600,328	-200,000	-0,004	-0,094
-599,313	260,468	0,014	0,017
-598,298	96,499	0,063	-0,052
-597,284	800,000	0,011	0,033
-596,269	-86,440	0,138	0,030
-595,255	-200,000	-0,025	0,114
-594,240	103,328	0,039	-0,033
-593,225	800,000	-0,045	-0,099
-592,211	-114,782	-0,072	0,010
-591,196	-36,933	-0,125	0,048
-590,182	-117,388	-0,056	-0,007
-589,167	-22,062	0,090	0,039
-588,152	800,000	-0,035	0,098
-587,138	800,000	-0,052	-0,113
-586,123	-133,973	-0,229	-0,020
-585,109	-0,254	-0,096	-0,049
-584,094	376,481	0,082	0,121
-583,079	173,177	0,058	0,060
-582,065	-200,000	-0,001	0,010
-581,050	276,617	0,023	-0,030
-580,036	-200,000	0,001	-0,062
-579,021	442,631	-0,023	-0,036
-578,006	-144,887	0,125	-0,008
-576,992	416,478	-0,026	-0,040
-575,977	-80,870	0,092	-0,022
-574,963	-200,000	-0,001	-0,038
-573,948	-117,925	0,156	-0,020
-572,934	-123,858	0,140	0,016
-571,919	800,000	0,037	-0,082
-570,904	440,714	-0,048	-0,076
-569,890	-200,000	-0,018	-0,086
-568,875	110,586	-0,032	-0,028
-567,861	-13,604	-0,007	0,003
-566,846	-200,000	0,012	-0,097
-565,831	-156,415	-0,108	0,005
-564,817	316,853	0,106	-0,145
-563,802	20,581	-0,049	0,029
-562,788	125,321	0,048	-0,043
-561,773	800,000	0,031	0,068
-560,758	-141,572	0,047	0,003
-559,744	180,428	0,051	0,054
-558,729	-200,000	0,026	-0,130
-557,715	-200,000	-0,046	-0,211
-556,700	-200,000	0,008	-0,036
-555,685	-200,000	-0,015	-0,079
-554,671	-200,000	-0,000	-0,091
-553,656	800,000	-0,006	-0,013
-552,642	-65,370	0,178	0,051
-551,627	-106,293	-0,197	0,032
-550,612	-200,000	0,028	-0,120
-549,598	-200,000	0,004	0,130
-548,583	-200,000	0,038	0,121
-547,569	253,580	-0,035	0,043
-546,554	-42,958	0,102	-0,037
-545,539	68,449	-0,036	0,026
-544,525	-11,004	-0,020	0,010
-543,510	-84,008	-0,097	-0,022
-542,496	571,644	-0,089	-0,157
-541,481	21,609	-0,060	-0,035
-540,466	559,466	-0,051	0,089
-539,452	56,862	-0,077	0,054
-538,437	800,000	0,071	0,218
-537,423	670,417	-0,048	0,091
-536,408	-50,428	0,102	0,035
-535,393	16,376	-0,138	-0,078
-534,379	363,988	0,053	0,077
-533,364	800,000	0,040	0,095
-532,350	129,284	0,099	0,091
-531,335	-116,064	0,105	-0,014
-530,321	-35,839	0,094	0,037
-529,306	-111,393	0,034	-0,005
-528,291	-200,000	-0,022	-0,086
-527,277	-154,762	-0,087	-0,004
-526,262	-200,000	0,010	-0,134
-525,248	179,302	0,071	-0,075
-524,233	295,458	-0,025	0,034
-523,218	-160,872	0,074	-0,003
-522,204	112,485	0,081	0,071
-521,189	-99,209	-0,058	-0,010
-520,175	4,243	0,114	0,060
-519,160	136,257	-0,144	-0,136
-518,145	-147,148	-0,079	0,005
-517,131	104,929	0,118	0,100
-516,116	17,680	0,085	0,048
-515,102	800,000	0,031	-0,080
-514,087	3,311	-0,124	-0,065
-513,072	-7,921	0,110	-0,053
-512,058	234,758	-0,068	-0,081
-511,043	445,729	0,110	0,175
-510,029	-66,448	0,043	0,012
-509,014	-95,370	0,085	-0,016
-507,999	800,000	-0,063	0,173
-506,985	800,000	0,004	0,012
-505,970	250,438	-0,126	-0,154
-504,956	-119,509	-0,108	-0,013
-503,941	50,342	0,155	0,106
-502,926	-200,000	0,012	0,043
-501,912	-164,415	0,178	0,006
-500,897	-200,000	0,001	0,037
-499,883	-56,884	0,073	-0,023
-498,868	124,736	0,048	0,044
-497,853	-152,756	0,135	-0,007
-496,839	-15,454	-0,133	0,061
-495,824	48,551	0,040	0,027
-494,810	-200,000	0,018	0,092
-493,795	34,494	-0,124	0,078
-492,781	493,362	0,023	-0,038
-491,766	-200,000	-0,014	-0,099
-490,751	52,202	-0,081	0,056
-489,737	-200,000	0,006	0,176
-488,722	-70,221	-0,117	0,032
-487,708	-200,000	0,015	0,111
-486,693	6,797	-0,112	0,060
-485,678	404,177	-0,054	-0,082
-484,664	-200,000	-0,009	-0,046
-483,649	147,002	-0,076	-0,074
-482,635	140,398	-0,039	0,037
-481,620	241,988	-0,052	-0,063
-480,605	-200,000	0,002	-0,037
-479,591	243,065	-0,117	0,141
-478,576	-200,000	0,004	-0,049
-477,562	213,956	-0,150	-0,171
-476,547	17,345	0,054	0,031
-475,532	-200,000	0,005	-0,064
-474,518	800,000	-0,009	-0,024
-473,503	563,886	0,029	0,050
-472,489	-200,000	0,017	0,066
-471,474	-76,119	0,068	-0,017
-470,459	31,544	0,029	-0,018
-469,445	3,942	-0,078	-0,041
-468,430	14,251	-0,137	-0,077
-467,416	-12,790	0,081	-0,038
-466,401	89,127	-0,016	0,013
-465,386	191,289	0,045	0,048
-464,372	136,241	-0,017	0,016
-463,357	15,566	-0,053	-0,030
-462,343	77,182	0,069	-0,052
-461,328	-117,320	-0,147	0,019
-460,313	576,419	0,038	-0,067
-459,299	254,514	-0,054	0,066
-458,284	-200,000	-0,043	0,145
-457,270	-200,000	-0,027	0,204
-456,255	800,000	-0,024	0,057
-455,241	-87,546	-0,113	0,024
-454,226	-92,921	0,141	-0,028
-453,211	-23,567	-0,100	-0,043
-452,197	168,135	0,074	0,076
-451,182	-69,884	-0,118	-0,032
-450,168	581,702	0,062	0,109
-449,153	-23,939	-0,049	0,021
-448,138	-81,707	-0,096	-0,022
-447,124	-79,324	0,083	0,020
-446,109	292,447	-0,004	0,005
-445,095	412,374	0,072	-0,111
-444,080	241,785	0,068	-0,082
-443,065	77,625	-0,108	0,082
-442,051	113,501	0,057	0,050
-441,036	-111,362	0,030	-0,004
-440,022	691,388	-0,068	-0,130
-439,007	75,625	-0,067	0,051
-437,992	-63,667	-0,030	0,009
-436,978	246,408	0,056	0,069
-435,963	-44,084	0,020	0,007
-434,949	456,881	0,071	0,113
-433,934	-73,928	-0,103	0,027
-432,919	-200,000	-0,014	-0,063
-431,905	-88,197	0,125	-0,027
-430,890	-200,000	0,024	0,096
-429,876	800,000	0,015	-0,032
-428,861	-135,073	0,115	-0,010
-427,846	109,866	-0,082	-0,071
-426,832	-200,000	0,007	-0,065
-425,817	-34,917	0,040	-0,016
-424,803	-5,945	0,133	-0,065
-423,788	188,803	0,052	0,056
-422,773	800,000	0,044	0,099
-421,759	-200,000	-0,005	0,020
-420,744	-188,388	-0,048	-0,000
-419,730	-126,370	-0,129	0,014
-418,715	800,000	-0,046	-0,099
-417,701	478,111	0,042	0,069
-416,686	-181,149	-0,101	0,001
-415,671	291,173	0,072	0,094
-414,657	-84,947	-0,085	-0,019
-413,642	195,458	-0,088	0,096
-412,628	-178,331	-0,059	-0,001
-411,613	463,152	-0,065	-0,105
-410,598	800,000	-0,048	0,149
-409,584	-200,000	0,005	-0,088
-408,569	50,301	-0,034	-0,023
-407,555	-32,156	-0,129	0,051
-406,540	-200,000	-0,013	0,057
-405,525	-30,422	0,048	-0,020
-404,511	-200,000	-0,069	-0,243
-403,496	394,021	0,086	-0,128
-402,482	-200,000	-0,002	-0,018
-401,467	-84,564	0,192	0,043
-400,452	103,559	0,034	-0,029
-399,438	211,472	-0,012	-0,013
-398,423	-200,000	0,012	-0,125
-397,409	-84,600	-0,167	-0,038
-396,394	579,400	-0,044	-0,078
-395,379	528,446	0,026	-0,044
-394,365	173,485	-0,037	0,038
-393,350	149,239	-0,038	0,037
-392,336	170,504	0,068	-0,070
-391,321	-175,330	-0,092	0,002
-390,306	316,584	0,073	-0,099
-389,292	97,096	-0,231	-0,190
-388,277	112,604	-0,155	0,135
-387,263	74,496	-0,021	-0,016
-386,248	800,000	0,066	0,209
-385,233	-200,000	-0,012	0,103
-384,219	-200,000	0,012	0,043
-383,204	49,850	-0,070	-0,047
-382,190	-62,428	-0,089	0,026
-381,175	-200,000	-0,004	0,091
-380,160	-93,532	0,055	0,011
-379,146	138,574	0,067	-0,063
-378,131	254,414	-0,073	0,089
-377,117	-200,000	-0,015	-0,119
-376,102	800,000	-0,045	-0,128
-375,088	231,229	-0,090	0,106
-374,073	-130,003	0,101	-0,010
-373,058	73,600	0,240	0,180
-372,044	83,300	0,127	0,099
-371,029	-56,876	-0,031	0,010
-370,015	6,071	0,104	0,055
-369,000	-130,014	0,104	-0,010
-367,985	86,620	-0,052	-0,041
-366,971	-175,360	0,054	-0,001
-365,956	-200,000	-0,010	0,090
-364,942	337,822	0,073	0,103
-363,927	-200,000	0,001	0,128
-362,912	712,980	0,031	-0,059
-361,898	27,872	-0,043	-0,026
-360,883	-200,000	-0,001	-0,066
-359,869	-200,000	0,039	-0,124
-358,854	-200,000	0,012	-0,098
-357,839	-200,000	-0,010	0,093
-356,825	-76,791	0,079	0,020
-355,810	-67,721	0,042	0,012
-354,796	-29,587	0,093	-0,038
-353,781	181,332	-0,089	-0,094
-352,766	546,989	-0,024	-0,041
-351,752	452,794	-0,084	-0,133
-350,737	-200,000	-0,002	0,107
-349,723	-74,404	0,085	-0,022
-348,708	102,062	0,093	-0,078
-347,693	-107,491	-0,018	-0,003
-346,679	-200,000	-0,017	-0,057
-345,664	149,367	0,033	-0,032
-344,650	95,573	-0,066	0,054
-343,635	-114,491	0,158	0,021
-342,620	-200,000	0,007	0,102
-341,606	-63,881	0,041	-0,012
-340,591	80,161	0,102	-0,078
-339,577	290,819	-0,085	-0,111
-338,562	-200,000	-0,004	-0,013
-337,548	-200,000	-0,003	0,072
-336,533	800,000	0,023	-0,053
-335,518	-127,346	0,100	0,010
-334,504	800,000	-0,032	0,100
-333,489	-200,000	0,006	-0,120
-332,475	269,148	0,050	-0,063
-331,460	94,128	-0,120	0,098
-330,445	106,675	0,056	-0,047
-329,431	729,974	0,047	0,090
-328,416	800,000	-0,049	0,106
-327,402	-14,367	-0,043	-0,020
-326,387	-25,625	-0,033	-0,014
-325,372	-16,263	0,028	0,013
-324,358	-200,000	0,004	0,028
-323,343	-200,000	-0,012	-0,074
-322,329	-200,000	-0,018	0,092
-321,314	-123,812	0,245	0,027
-320,299	-159,667	-0,037	0,001
-319,285	121,928	-0,036	-0,032
-318,270	-200,000	-0,015	-0,055
-317,256	368,109	-0,069	-0,100
-316,241	277,921	0,046	0,059
-315,226	-7,775	-0,032	-0,015
-314,212	129,129	-0,066	0,060
-313,197	-106,507	0,075	0,012
-312,183	800,000	0,057	0,154
-311,168	-47,960	0,029	-0,010
-310,153	800,000	-0,012	-0,032
-309,139	440,922	-0,046	0,072
-308,124	51,976	0,035	0,023
-307,110	229,591	0,033	-0,039
-306,095	173,987	-0,078	-0,081
-305,080	5,443	-0,066	-0,035
-304,066	462,572	-0,081	-0,130
-303,051	355,149	0,013	0,018
-302,037	59,583	0,023	-0,016
-301,022	-200,000	-0,015	-0,090
-300,008	217,967	0,042	-0,048
-298,993	20,068	0,092	0,053
-297,978	-12,100	-0,081	0,038
-296,964	79,885	-0,055	-0,042
-295,949	-200,000	0,013	-0,140
-294,935	52,803	-0,185	-0,126
-293,920	-200,000	-0,010	0,058
-292,905	218,580	0,054	0,062
-291,891	-200,000	0,016	-0,072
-290,876	-200,000	-0,023	0,130
-289,862	161,198	0,016	-0,016
-288,847	-200,000	-0,040	-0,276
-287,832	-16,651	-0,123	-0,056
-286,818	800,000	0,029	-0,088
-285,803	53,990	-0,057	0,039
-284,789	138,298	0,062	0,058
-283,774	295,466	0,064	0,084
-282,759	-200,000	0,002	-0,037
-281,745	800,000	-0,032	-0,082
-280,730	47,882	-0,052	-0,035
-279,716	800,000	-0,030	0,077
-278,701	-25,560	-0,069	0,029
-277,686	-2,252	0,089	0,044
-276,672	-200,000	-0,005	0,186
-275,657	-44,434	0,064	-0,023
-274,643	334,108	-0,029	0,041
-273,628	-200,000	0,011	0,112
-272,613	800,000	0,017	0,051
-271,599	304,604	0,022	-0,029
-270,584	-66,852	0,193	0,054
-269,570	-200,000	-0,016	0,093
-268,555	7,694	-0,067	-0,036
-267,540	-13,404	0,055	-0,025
-266,526	2,024	-0,138	-0,071
-265,511	-200,000	-0,005	-0,094
-264,497	800,000	0,035	-0,071
-263,482	-200,000	0,006	0,089
-262,467	288,411	-0,019	0,025
-261,453	229,123	0,070	-0,082
-260,438	800,000	-0,017	-0,044
-259,424	10,004	-0,121	0,065
-258,409	339,485	-0,039	-0,055
-257,395	-96,756	0,040	0,007
-256,380	-56,572	0,150	-0,047
-255,365	-200,000	-0,011	0,066
-254,351	800,000	0,039	0,093
-253,336	397,422	0,035	0,052
-252,322	3,760	-0,138	0,072
-251,307	-200,000	-0,017	0,063
-250,292	626,838	-0,071	-0,128
-249,278	329,012	-0,033	0,045
-248,263	97,747	0,067	0,055
-247,249	-32,418	0,057	0,022
-246,234	44,065	0,108	-0,070
-245,219	4,176	-0,009	0,005
-244,205	-10,737	0,122	0,057
-243,190	773,277	0,031	0,060
-242,176	-14,378	0,041	-0,019
-241,161	-200,000	0,000	-0,032
-240,146	-200,000	-0,006	0,152
-239,132	-101,459	0,167	-0,029
-238,117	-200,000	0,010	-0,032
-237,103	339,126	-0,051	0,071
-236,088	800,000	-0,030	-0,080
-235,073	-91,701	0,152	0,031
-234,059	551,960	-0,041	-0,070
-233,044	-111,767	0,021	0,003
-232,030	800,000	0,029	0,076
-231,015	-200,000	0,010	0,042
-230,000	230,179	-0,115	-0,134
-228,986	-200,000	0,027	0,153
-227,971	151,054	0,062	-0,061
-226,957	-102,278	-0,182	-0,031
-225,942	31,037	0,055	0,034
-224,927	22,528	0,033	-0,019
-223,913	116,847	-0,057	-0,050
-222,898	-200,000	-0,004	-0,196
-221,884	-187,328	-0,059	0,001
-220,869	30,631	0,076	-0,046
-219,855	-200,000	-0,001	0,050
-218,840	-136,833	0,157	0,013
-217,825	800,000	0,024	-0,048
-216,811	327,332	-0,078	0,106
-215,796	-200,000	-0,050	0,207
-214,782	-120,151	0,052	0,006
-213,767	-105,955	0,119	0,019
-212,752	719,619	-0,021	-0,040
-211,738	-46,117	0,132	0,046
-210,723	800,000	-0,011	0,022
-209,709	13,465	-0,044	0,024
-208,694	-200,000	0,028	-0,153
-207,679	-200,000	-0,001	-0,104
-206,665	311,692	-0,024	0,032
-205,650	595,282	0,060	-0,106
-204,636	34,618	-0,032	-0,020
-203,621	800,000	0,026	-0,079
-202,606	100,189	-0,076	0,062
-201,592	-200,000	-0,002	-0,051
-200,577	-116,621	-0,071	-0,009
-199,563	15,963	0,102	0,057
-198,548	103,839	0,033	-0,028
-197,533	-107,588	0,104	0,016
-196,519	800,000	0,018	0,038
-195,504	800,000	-0,017	-0,054
-194,490	105,120	0,010	0,009
-193,475	246,194	-0,094	0,113
-192,460	22,152	0,061	-0,036
-191,446	-200,000	0,000	0,028
-190,431	16,460	0,143	0,080
-189,417	113,422	-0,054	-0,047
-188,402	-200,000	0,021	-0,067
-187,387	409,888	-0,064	-0,097
-186,373	-200,000	-0,040	-0,233
-185,358	-59,171	-0,033	-0,010
-184,344	492,500	-0,028	0,046
-183,329	762,465	-0,033	0,065
-182,315	-175,397	0,140	-0,003
-181,300	800,000	-0,030	0,078
-180,285	-16,099	0,023	0,010
-179,271	-21,912	0,028	-0,012
-178,256	293,278	0,035	0,046
-177,242	86,129	0,030	0,024
-176,227	266,283	0,058	-0,072
-175,212	-200,000	-0,005	0,044
-174,198	571,820	0,011	0,019
-173,183	800,000	0,021	-0,050
-172,169	-14,717	-0,085	0,039
-171,154	81,008	-0,099	-0,076
-170,139	459,542	-0,041	0,066
-169,125	24,173	0,040	0,023
-168,110	800,000	0,073	0,152
-167,096	-200,000	0,007	0,123
-166,081	-54,845	0,099	0,032
-165,066	508,038	-0,044	0,073
-164,052	-15,588	-0,124	-0,056
-163,037	149,947	0,080	-0,078
-162,023	137,860	-0,064	-0,060
-161,008	-200,000	0,000	0,018
-159,993	-25,645	-0,098	0,041
-158,979	53,951	0,037	0,025
-157,964	-55,005	0,062	-0,020
-156,950	5,979	-0,198	-0,104
-155,935	537,059	-0,039	-0,066
-154,920	-200,000	0,007	0,169
-153,906	180,391	-0,099	0,103
-152,891	202,015	-0,081	0,089
-151,877	521,202	0,049	0,082
-150,862	68,382	0,080	-0,058
-149,847	276,770	-0,058	-0,074
-148,833	100,944	-0,034	-0,028
-147,818	440,510	0,057	-0,089
-146,804	-200,000	0,011	-0,109
-145,789	375,377	-0,058	-0,084
-144,775	-87,811	0,181	-0,038
-143,760	5,232	-0,091	-0,047
-142,745	-200,000	0,005	-0,134
-141,731	-147,400	-0,122	-0,007
-140,716	292,308	0,064	0,083
-139,702	800,000	0,049	0,098
-138,687	-111,983	0,097	0,014
-137,672	194,665	0,029	-0,031
-136,658	800,000	0,031	-0,064
-135,643	-85,684	0,061	-0,013
-134,629	800,000	0,048	-0,146
-133,614	86,985	-0,087	0,068
-132,599	800,000	-0,045	0,112
-131,585	-200,000	-0,005	0,164
-130,570	9,004	-0,066	-0,035
-129,556	800,000	-0,058	-0,119
-128,541	800,000	-0,023	-0,059
-127,526	-95,588	-0,083	0,016
-126,512	-140,481	0,187	0,014
-125,497	800,000	-0,039	0,083
-124,483	-140,157	-0,028	0,002
-123,468	-200,000	0,001	0,023
-122,453	800,000	-0,005	0,017
-121,439	-200,000	-0,118	-0,000
-120,424	42,500	-0,093	-0,060
-119,410	800,000	0,038	-0,112
-118,395	-69,754	0,103	-0,028
-117,380	-66,195	0,101	-0,028
-116,366	800,000	0,029	0,068
-115,351	-37,467	-0,082	0,031
-114,337	-200,000	-0,028	-0,127
-113,322	174,466	-0,052	0,053
-112,307	-56,911	-0,157	0,049
-111,293	-167,094	0,032	0,001
-110,278	436,931	0,043	0,067
-109,264	9,870	0,051	-0,027
-108,249	715,558	-0,021	-0,041
-107,234	-200,000	-0,021	0,079
-106,220	-200,000	-0,027	0,122
-105,205	-124,018	0,031	0,003
-104,191	57,184	-0,042	0,029
-103,176	29,525	0,035	-0,021
-102,162	5,849	-0,028	-0,015
-101,147	373,543	-0,028	0,040
-100,132	-200,000	0,027	-0,224
-99,118	136,907	-0,069	-0,064
-98,103	168,949	-0,018	-0,018
-97,089	10,194	0,056	0,030
-96,074	16,371	-0,040	-0,022
-95,059	-200,000	0,022	0,174
-94,045	-200,000	-0,017	0,100
-93,030	-98,254	0,042	0,007
-92,016	652,777	-0,035	0,064
-91,001	-36,582	0,097	-0,037
-89,986	725,204	0,050	-0,096
-88,972	80,204	-0,064	-0,049
-87,957	13,774	0,066	-0,036
-86,943	-200,000	0,038	-0,146
-85,928	-141,938	-0,105	0,007
-84,913	415,966	0,030	-0,045
-83,899	179,378	-0,048	0,050
-82,884	32,412	0,047	0,029
-81,870	331,275	0,159	0,218
-80,855	644,734	0,038	0,068
-79,840	159,464	-0,055	0,055
-78,826	558,834	0,029	0,050
-77,811	-172,539	-0,074	-0,002
-76,797	-200,000	-0,047	-0,170
-75,782	-22,828	-0,113	0,048
-74,767	-100,099	0,079	0,014
-73,753	426,006	-0,021	-0,032
-72,738	134,506	0,085	0,078
-71,724	-17,275	0,040	-0,018
-70,709	-200,000	-0,006	-0,063
-69,694	-200,000	-0,033	-0,108
-68,680	201,475	0,047	0,052
-67,665	52,268	0,101	0,068
-66,651	-200,000	0,005	-0,048
-65,636	-133,600	-0,033	0,003
-64,622	40,117	0,073	0,046
-63,607	179,085	-0,114	-0,119
-62,592	-200,000	-0,026	0,130
-61,578	555,603	-0,050	-0,085
-60,563	-200,000	0,045	0,187
-59,549	551,279	0,032	0,055
-58,534	-23,022	-1,544	-0,656
-57,519	413,367	-1,401	-2,116
-56,505	-200,000	-0,629	-4,689
-55,490	180,132	0,931	0,967
-54,476	800,000	4,853	11,379
-53,461	-200,000	18,915	311,456
-52,446	-200,000	738,373	2318,442
-51,432	574,100	1654,964	2869,550
-50,417	79,175	1671,479	1266,664
-49,403	21,881	1544,163	888,669
-48,388	15,772	1466,571	814,324
-47,373	17,786	1456,872	818,636
-46,359	16,777	1446,997	808,219
-45,344	14,008	1442,183	792,233
-44,330	13,928	1440,321	790,794
-43,315	13,928	1438,593	789,813
-42,300	13,910	1436,994	788,820
-41,286	13,976	1435,642	788,361
-40,271	13,945	1434,454	787,531
-39,257	13,892	1433,017	786,457
-38,242	13,970	1431,776	786,118
-37,227	14,013	1430,596	785,644
-36,213	13,950	1429,385	784,649
-35,198	14,010	1428,057	784,172
-34,184	14,032	1427,231	783,789
-33,169	13,927	1426,007	782,590
-32,154	13,976	1424,780	782,119
-31,140	14,019	1423,342	781,499
-30,125	14,045	1422,325	781,035
-29,111	14,000	1421,299	780,227
-28,096	13,968	1420,296	779,493
-27,082	13,898	1419,091	778,471
-26,067	13,891	1417,994	777,805
-25,052	13,901	1417,193	777,381
-24,038	13,899	1415,849	776,605
-23,023	13,878	1414,907	775,961
-22,009	13,901	1414,123	775,608
-20,994	13,905	1413,114	775,041
-19,979	13,839	1412,269	774,237
-18,965	13,851	1411,218	773,684
-17,950	13,806	1410,603	773,108
-16,936	13,856	1409,449	772,680
-15,921	13,826	1408,277	771,867
-14,906	13,798	1407,372	771,207
-13,892	13,843	1406,229	770,763
-12,877	13,817	1405,447	770,182
-11,863	13,789	1404,587	769,549
-10,848	13,773	1403,723	768,969
-9,833	13,793	1402,990	768,632
-8,819	13,689	1402,194	767,680
-7,804	13,708	1401,162	767,174
-6,790	13,704	1400,002	766,489
-5,775	13,732	1398,993	766,035
-4,760	13,725	1398,089	765,477
-3,746	13,745	1397,217	765,063
-2,731	13,692	1396,474	764,381
-1,717	13,693	1395,573	763,863
-0,702	13,689	1393,724	762,801
0,313	17,434	1311,572	735,230
1,327	33,669	705,690	433,196
2,342	51,825	123,942	83,316
3,356	2,565	16,649	8,505
4,371	2,707	3,064	1,566
5,386	-22,774	0,618	0,263
6,400	233,379	0,099	0,115
7,415	117,046	-0,135	-0,118
8,429	-92,274	-0,445	-0,088
9,444	-15,048	-0,317	-0,143
10,459	67,021	-0,220	-0,158
11,473	-76,705	-0,252	-0,062
12,488	-126,027	-0,337	0,035
13,502	-20,534	-0,312	-0,135
14,517	-58,838	-0,399	-0,121
15,531	-9,318	-0,496	-0,233
16,546	54,301	-0,257	-0,175
17,561	208,285	-0,349	-0,385
18,575	50,903	-0,251	-0,167
19,590	133,928	-0,299	-0,274
20,604	4,381	-0,258	-0,133
21,619	31,966	-0,480	-0,292
22,634	197,278	-0,355	-0,383
23,648	67,629	-0,417	-0,300
24,663	102,521	-0,401	-0,331
25,677	43,485	-0,314	-0,202
26,692	-28,272	-0,444	-0,180
27,707	98,169	-0,340	-0,277
28,721	88,068	-0,322	-0,252
29,736	163,758	-0,397	-0,395
30,750	191,129	-0,322	-0,342
31,765	122,646	-0,341	-0,301
32,780	25,898	-0,356	-0,209
33,794	99,909	-0,302	-0,247
34,809	99,821	-0,359	-0,294
35,823	618,800	-0,193	-0,344
36,838	81,070	-0,315	-0,240
37,853	119,949	-0,407	-0,356
38,867	125,742	-0,316	-0,282
39,882	-11,856	-0,301	-0,139
40,896	105,144	-0,298	-0,248
41,911	-6,704	-0,253	-0,121
42,926	111,316	-0,418	-0,355
43,940	219,287	-0,345	-0,390
44,955	357,237	-0,295	-0,416
45,969	122,678	-0,355	-0,313
46,984	161,341	-0,367	-0,362
47,999	118,189	-0,277	-0,240
49,013	-42,731	-0,367	-0,131
50,028	105,905	-0,279	-0,232
51,042	174,240	-0,245	-0,249
52,057	31,861	-0,463	-0,280
53,071	-13,447	-0,411	-0,187
54,086	182,967	-0,340	-0,354
55,101	85,512	-0,357	-0,276
56,115	11,933	-0,289	-0,156
57,130	-5,119	-0,374	-0,180
58,144	132,603	-0,402	-0,365
59,159	25,332	-0,382	-0,223
60,174	79,032	-0,304	-0,229
61,188	-11,430	-0,394	-0,182
62,203	-53,801	-0,423	-0,135
63,217	34,923	-0,317	-0,195
64,232	158,048	-0,343	-0,335
65,247	148,016	-0,275	-0,261
66,261	33,155	-0,515	-0,313
67,276	198,628	-0,273	-0,294
68,290	-28,349	-0,322	-0,130
69,305	63,951	-0,371	-0,262
70,320	21,958	-0,268	-0,153
71,334	-82,010	-0,304	-0,069
72,349	110,607	-0,287	-0,243
73,363	302,912	-0,275	-0,359
74,378	82,327	-0,281	-0,214
75,393	-8,959	-0,420	-0,197
76,407	14,822	-0,394	-0,216
77,422	159,408	-0,166	-0,162
78,436	-11,578	-0,308	-0,142
79,451	742,359	-0,166	-0,315
80,466	60,990	-0,346	-0,241
81,480	58,873	-0,353	-0,243
82,495	167,101	-0,249	-0,249
83,509	135,411	-0,229	-0,209
84,524	-112,964	-0,280	-0,038
85,539	105,764	-0,235	-0,195
86,553	9,341	-0,291	-0,154
87,568	-50,876	-0,320	-0,105
88,582	14,877	-0,356	-0,195
89,597	150,848	-0,335	-0,320
90,611	29,213	-0,312	-0,185
91,626	-34,283	-0,388	-0,149
92,641	-90,585	-0,288	-0,058
93,655	-61,107	-0,299	-0,088
94,670	237,605	-0,237	-0,277
95,684	49,321	-0,285	-0,188
96,699	111,490	-0,188	-0,159
97,714	23,301	-0,264	-0,152
98,728	111,123	-0,281	-0,237
99,743	-54,544	-0,185	-0,058
100,757	-129,531	-0,278	-0,027
101,772	39,972	-0,134	-0,084
102,787	292,224	-0,183	-0,234
103,801	64,691	-0,322	-0,228
104,816	3,004	-0,291	-0,148
105,830	-1,333	-0,259	-0,128
106,845	105,187	-0,264	-0,218
107,860	35,393	-0,143	-0,088
108,874	-62,660	-0,345	-0,100
109,889	238,521	-0,297	-0,346
110,903	142,560	-0,341	-0,318
111,918	104,284	-0,268	-0,221
112,933	200,145	-0,132	-0,142
113,947	190,806	-0,187	-0,198
114,962	-11,714	-0,181	-0,083
115,976	4,937	-0,217	-0,112
116,991	54,872	-0,258	-0,174
118,006	13,604	-0,283	-0,153
119,020	800,000	-0,170	-0,368
120,035	114,747	-0,244	-0,208
121,049	94,521	-0,351	-0,279
122,064	10,498	-0,284	-0,151
123,079	136,919	-0,276	-0,253
124,093	69,666	-0,352	-0,254
125,108	83,566	-0,301	-0,230
126,122	-64,822	-0,250	-0,070
127,137	-89,718	-0,170	-0,035
128,151	13,351	-0,205	-0,111
129,166	-25,990	-0,259	-0,106
130,181	54,041	-0,285	-0,191
131,195	173,187	-0,238	-0,241
132,210	6,523	-0,184	-0,095
133,224	348,898	-0,197	-0,272
134,239	66,475	-0,239	-0,169
135,254	75,207	-0,231	-0,170
136,268	204,636	-0,247	-0,269
137,283	59,116	-0,373	-0,256
138,297	93,143	-0,258	-0,203
139,312	294,233	-0,145	-0,185
140,327	117,673	-0,310	-0,267
141,341	16,420	-0,196	-0,108
142,356	118,503	-0,195	-0,168
143,370	-73,239	-0,275	-0,070
144,385	35,646	-0,231	-0,142
145,400	-117,228	-0,186	-0,023
146,414	-74,745	-0,243	-0,061
147,429	-18,894	-0,193	-0,084
148,443	-3,222	-0,252	-0,122
149,458	55,407	-0,252	-0,170
150,473	-27,623	-0,117	0,047
151,487	43,074	-0,235	-0,150
152,502	175,533	-0,183	-0,185
153,516	-91,546	-0,221	-0,044
154,531	346,874	-0,250	-0,345
155,546	190,897	-0,247	-0,260
156,560	19,625	-0,152	-0,085
157,575	-49,485	-0,272	-0,090
158,589	-32,269	-0,216	-0,084
159,604	-81,629	-0,237	-0,054
160,619	182,273	-0,230	-0,237
161,633	221,070	-0,166	-0,187
162,648	-54,255	-0,156	-0,049
163,662	-169,297	-0,291	-0,007
164,677	-7,937	-0,250	-0,117
165,692	-123,923	-0,182	0,020
166,706	673,863	-0,150	-0,272
167,721	75,426	-0,229	-0,168
168,735	144,096	-0,291	-0,271
169,750	186,735	-0,192	-0,200
170,764	239,017	-0,170	-0,198
171,779	-14,217	-0,218	-0,097
172,794	41,214	-0,279	-0,175
173,808	-200,000	-0,269	0,000
174,823	118,970	-0,225	-0,194
175,837	305,946	-0,079	-0,102
176,852	153,690	-0,126	-0,120
177,867	49,461	-0,217	-0,142
178,881	41,762	-0,180	-0,113
179,896	141,002	-0,163	-0,150
180,910	74,609	-0,090	-0,066
181,925	-37,384	-0,230	-0,085
182,940	220,427	-0,268	-0,300
183,954	-27,861	-0,154	-0,062
184,969	302,520	-0,247	-0,319
185,983	596,151	-0,073	-0,126
186,998	102,687	-0,272	-0,221
188,013	51,978	-0,164	-0,109
189,027	108,795	-0,278	-0,231
190,042	135,194	-0,176	-0,159
191,056	75,409	-0,389	-0,285
192,071	125,701	-0,238	-0,209
193,086	98,941	-0,194	-0,156
194,100	-55,519	-0,239	-0,074
195,115	-75,100	-0,212	-0,052
196,129	57,242	-0,210	-0,142
197,144	78,232	-0,240	-0,178
198,159	199,455	-0,201	-0,215
199,173	37,836	-0,177	-0,109
200,188	163,848	-0,191	-0,187
201,202	244,940	-0,209	-0,245
202,217	29,881	-0,299	-0,177
203,232	-68,035	-0,069	-0,019
204,246	130,427	-0,278	-0,248
205,261	288,785	-0,183	-0,231
206,275	160,909	-0,279	-0,271
207,290	800,000	-0,088	-0,207
208,304	10,928	-0,193	-0,102
209,319	-34,390	-0,229	-0,087
210,334	1,173	-0,230	-0,114
211,348	-48,257	-0,335	-0,112
212,363	113,715	-0,222	-0,187
213,377	319,767	-0,131	-0,173
214,392	627,208	-0,142	-0,250
215,407	24,245	-0,211	-0,121
216,421	163,981	-0,222	-0,217
217,436	25,378	-0,227	-0,131
218,450	-74,124	-0,297	-0,074
219,465	170,854	-0,278	-0,276
220,480	-25,552	-0,197	-0,080
221,494	-86,179	-0,190	-0,040
222,509	49,899	-0,227	-0,149
223,523	165,316	-0,153	-0,150
224,538	187,797	-0,211	-0,219
225,553	-131,850	-0,207	-0,019
226,567	145,055	-0,243	-0,226
227,582	147,188	-0,217	-0,202
228,596	211,656	-0,099	-0,108
229,611	-117,245	-0,213	-0,027
230,626	751,417	-0,062	-0,116
231,640	534,138	-0,076	-0,126
232,655	298,335	-0,160	-0,204
233,669	-132,168	-0,349	-0,031
234,684	-1,012	-0,271	-0,132
235,699	310,036	-0,105	-0,136
236,713	800,000	-0,116	-0,258
237,728	271,243	-0,151	-0,184
238,742	256,250	-0,199	-0,237
239,757	235,962	-0,180	-0,206
240,772	121,595	-0,304	-0,263
241,786	206,476	-0,133	-0,143
242,801	41,840	-0,081	-0,051
243,815	154,985	-0,092	-0,088
244,830	-6,164	-0,206	-0,097
245,844	281,149	-0,100	-0,125
246,859	188,802	-0,135	-0,140
247,874	-16,822	-0,286	-0,125
248,888	566,566	-0,100	-0,168
249,903	800,000	-0,079	-0,216
250,917	26,877	-0,201	-0,116
251,932	-29,229	-0,169	-0,067
252,947	290,670	-0,148	-0,187
253,961	182,494	-0,127	-0,130
254,976	71,095	-0,212	-0,152
255,990	285,594	-0,156	-0,195
257,005	27,442	-0,157	-0,091
258,020	800,000	-0,061	-0,126
259,034	800,000	-0,052	-0,147
260,049	128,431	-0,109	-0,096
261,063	33,548	-0,150	-0,090
262,078	301,194	-0,136	-0,175
263,093	36,727	-0,286	-0,174
264,107	24,631	-0,210	-0,120
265,122	-67,980	-0,127	0,034
266,136	-65,592	-0,145	-0,040
267,151	431,897	-0,124	-0,186
268,166	46,097	-0,245	-0,157
269,180	1,019	-0,165	-0,082
270,195	-121,491	-0,211	-0,024
271,209	74,868	-0,212	-0,154
272,224	159,618	-0,143	-0,137
273,239	110,536	-0,150	-0,124
274,253	22,423	-0,056	-0,032
275,268	-126,594	-0,242	-0,025
276,282	179,638	-0,159	-0,161
277,297	800,000	-0,073	-0,141
278,312	-48,307	-0,092	0,030
279,326	58,928	-0,186	-0,126
280,341	207,553	-0,133	-0,143
281,355	-65,433	-0,118	-0,033
282,370	210,404	-0,139	-0,151
283,384	-81,084	-0,242	-0,055
284,399	-23,666	-0,302	-0,124
285,414	27,216	-0,252	-0,146
286,428	8,095	-0,147	-0,076
287,443	22,340	-0,081	-0,046
288,457	-28,367	-0,139	-0,055
289,472	-94,045	-0,132	0,025
290,487	278,851	-0,188	-0,231
291,501	242,358	-0,211	-0,244
292,516	-200,000	-0,042	-0,305
293,530	121,082	-0,142	-0,122
294,545	479,474	0,029	0,046
295,560	-27,813	-0,151	-0,060
296,574	137,458	-0,321	-0,290
297,589	800,000	-0,107	-0,227
298,603	196,480	-0,246	-0,258
299,618	-48,531	-0,184	0,061
300,633	47,621	-0,217	-0,139
301,647	693,965	-0,090	-0,164
302,662	-34,250	-0,160	-0,060
303,676	35,326	-0,143	-0,086
304,691	319,147	-0,093	-0,122
305,706	250,468	-0,239	-0,280
306,720	1,237	-0,199	-0,098
307,735	-4,648	-0,110	-0,052
308,749	11,067	-0,066	-0,035
309,764	-123,676	-0,172	-0,019
310,779	50,165	-0,153	-0,099
311,793	295,913	-0,108	-0,136
312,808	-16,378	-0,217	-0,094
313,822	-51,830	-0,139	-0,044
314,837	-200,000	-0,059	-0,190
315,852	800,000	-0,090	-0,174
316,866	242,055	-0,084	0,097
317,881	31,673	-0,114	0,067
318,895	548,305	-0,023	-0,038
319,910	-131,161	-0,148	0,013
320,925	-143,696	-0,066	0,004
321,939	20,812	-0,180	-0,100
322,954	26,766	-0,214	-0,123
323,968	800,000	-0,035	-0,067
324,983	606,651	-0,090	-0,154
325,997	-132,441	-0,114	-0,010
327,012	-51,012	-0,112	-0,036
328,027	-97,971	-0,194	-0,034
329,041	192,539	-0,094	-0,097
330,056	-143,506	-0,119	-0,008
331,070	-32,635	-0,065	0,025
332,085	72,614	-0,118	-0,085
333,100	157,301	-0,117	-0,112
334,114	22,518	-0,153	-0,086
335,129	29,981	-0,232	-0,136
336,143	-49,206	-0,161	-0,053
337,158	106,418	-0,077	-0,062
338,173	-96,587	-0,153	0,028
339,187	-52,971	-0,105	0,033
340,202	76,950	-0,131	-0,096
341,216	-86,400	-0,086	0,018
342,231	502,320	-0,074	-0,118
343,246	39,852	-0,082	-0,050
344,260	-13,755	-0,193	-0,085
345,275	-66,001	-0,150	-0,041
346,289	-200,000	0,009	-0,084
347,304	-200,000	-0,001	-0,030
348,319	-200,000	-0,017	-0,176
349,333	-200,000	-0,019	-0,116
350,348	132,537	-0,059	-0,052
351,362	-200,000	0,025	-0,097
352,377	344,647	-0,088	-0,119
353,392	-65,746	-0,155	-0,042
354,406	800,000	-0,047	-0,093
355,421	207,405	1315,974	1410,090
356,435	159,546	1476,846	1410,578
