DTS Sentinel unit serial number:	SN410029Multiplexer serial number:	ORYXHardware model number:	OX2-SRSoftware version number:	ORYX F/W v4,00 Oryx Data Collector v3.7.2.0data status	okinstallation	B3 Nyhavnadifferential loss correction	single-endedforward channel	channel 1reverse channel	N/Adate	2023/12/02time	15:52:30forward acquisition time	300,00reverse acquisition time	0,00gamma	499,1914k internal	0,3197k external	0,3197temperature offset calibration	1,0000default loss term (dB/km)	0,3820temperature slope calibration	1,0000multiplexer offset coefficient	1,0000multiplexer slope coefficient	1,0000fibre end	0,00T internal ref (°C)	14,51T ext. ref 1 (°C)	-1,07T ext. ref 2 (°C)	-1,08length (m)	temperature (°C)	Stokes	anti-Stokes-744,400	779,332	-0,114	-0,228
-743,385	-200,000	-0,013	0,327
-742,371	233,107	-0,146	-0,175
-741,356	-200,000	0,056	0,283
-740,342	25,984	-0,296	-0,179
-739,327	800,000	-0,077	0,245
-738,312	-200,000	-0,083	-0,344
-737,298	800,000	-0,075	0,217
-736,283	400,514	-0,187	-0,286
-735,269	-200,000	0,074	0,279
-734,254	330,158	-0,123	-0,173
-733,239	-134,771	-0,233	0,020
-732,225	800,000	-0,014	-0,034
-731,210	-80,557	0,260	0,063
-730,196	795,433	-0,083	-0,168
-729,181	-45,322	-0,189	-0,068
-728,167	-121,880	-0,050	0,006
-727,152	137,531	0,041	-0,039
-726,137	-38,980	-0,185	-0,071
-725,123	-200,000	-0,050	-0,315
-724,108	334,590	0,061	-0,087
-723,094	800,000	-0,045	-0,109
-722,079	-13,868	-0,069	-0,032
-721,064	55,419	-0,038	-0,027
-720,050	-200,000	-0,032	-0,104
-719,035	-85,346	-0,077	0,017
-718,021	-163,163	0,168	-0,006
-717,006	800,000	-0,065	-0,175
-715,991	144,265	-0,096	-0,093
-714,977	280,036	-0,072	-0,094
-713,962	-200,000	0,001	-0,073
-712,948	-200,000	0,016	0,187
-711,933	30,034	-0,040	-0,025
-710,918	-47,341	-0,094	0,033
-709,904	169,561	-0,082	0,085
-708,889	330,599	-0,048	-0,067
-707,875	-117,721	0,117	0,015
-706,860	-42,980	-0,035	-0,013
-705,845	-200,000	-0,025	0,089
-704,831	-40,021	0,064	-0,024
-703,816	-200,000	0,021	-0,108
-702,802	-200,000	0,007	-0,100
-701,787	800,000	0,036	-0,114
-700,772	274,466	-0,056	-0,072
-699,758	74,358	-0,014	0,010
-698,743	190,766	-0,063	0,069
-697,729	800,000	0,085	0,251
-696,714	-200,000	-0,020	-0,110
-695,699	520,869	-0,015	-0,026
-694,685	-143,903	0,071	-0,005
-693,670	66,895	0,085	0,063
-692,656	341,613	-0,142	-0,202
-691,641	-200,000	-0,013	0,043
-690,627	-91,878	0,105	-0,021
-689,612	83,875	0,071	0,056
-688,597	800,000	0,044	0,093
-687,583	-179,079	-0,025	0,000
-686,568	39,679	-0,059	-0,038
-685,554	-11,414	-0,131	0,062
-684,539	-16,665	0,084	-0,039
-683,524	587,991	-0,054	0,097
-682,510	800,000	0,062	0,133
-681,495	-63,463	0,045	-0,013
-680,481	-200,000	-0,008	-0,095
-679,466	239,785	-0,030	0,036
-678,451	109,408	-0,075	-0,065
-677,437	-200,000	0,003	-0,178
-676,422	800,000	0,080	0,172
-675,408	408,670	-0,040	0,062
-674,393	10,441	-0,049	0,027
-673,378	-5,327	-0,136	-0,068
-672,364	-39,397	-0,037	0,014
-671,349	146,685	-0,027	0,027
-670,335	53,266	-0,124	0,086
-669,320	-138,082	0,119	0,009
-668,305	463,685	0,098	0,160
-667,291	153,360	-0,058	0,058
-666,276	176,423	-0,114	0,120
-665,262	800,000	-0,057	-0,121
-664,247	14,338	-0,059	0,033
-663,232	211,192	0,061	0,070
-662,218	-89,374	0,078	0,017
-661,203	151,475	0,088	-0,087
-660,189	-200,000	0,004	0,042
-659,174	503,861	-0,108	-0,181
-658,159	588,888	-0,065	0,116
-657,145	-200,000	-0,014	-0,232
-656,130	800,000	-0,031	-0,073
-655,116	-200,000	0,021	-0,159
-654,101	-54,087	0,106	-0,035
-653,086	-21,616	-0,042	0,018
-652,072	-14,518	-0,178	-0,083
-651,057	-173,410	-0,069	0,001
-650,043	208,065	0,067	-0,076
-649,028	-200,000	0,018	-0,165
-648,014	-133,685	-0,175	0,016
-646,999	-32,023	0,161	0,065
-645,984	800,000	-0,027	0,071
-644,970	161,008	-0,133	-0,135
-643,955	59,288	-0,101	-0,072
-642,941	20,170	0,026	-0,015
-641,926	-46,949	-0,103	0,036
-640,911	-57,194	0,228	0,072
-639,897	84,438	0,074	-0,059
-638,882	-67,016	-0,108	0,031
-637,868	-29,232	-0,192	-0,079
-636,853	-145,051	0,084	0,005
-635,838	-51,084	-0,109	-0,037
-634,824	-174,855	-0,061	-0,001
-633,809	-28,617	0,071	0,029
-632,795	800,000	0,033	0,098
-631,780	199,824	0,027	0,030
-630,765	800,000	-0,041	-0,111
-629,751	-106,111	-0,056	0,009
-628,736	800,000	-0,037	0,106
-627,722	-52,320	0,125	-0,042
-626,707	4,574	-0,085	0,045
-625,692	-93,234	0,047	0,009
-624,678	-41,199	-0,086	0,032
-623,663	-127,953	-0,036	0,004
-622,649	-22,924	-0,129	-0,056
-621,634	384,496	0,038	-0,057
-620,619	462,146	-0,026	-0,042
-619,605	135,107	-0,096	-0,091
-618,590	63,596	0,078	0,057
-617,576	9,326	0,031	-0,017
-616,561	128,231	0,036	-0,033
-615,546	-116,492	-0,076	-0,010
-614,532	61,036	0,047	0,033
-613,517	7,689	-0,059	-0,032
-612,503	-200,000	-0,020	-0,101
-611,488	388,025	-0,060	0,091
-610,474	369,110	0,013	0,019
-609,459	-200,000	-0,002	0,014
-608,444	-200,000	0,003	-0,015
-607,430	-70,731	-0,223	-0,060
-606,415	-200,000	0,010	-0,109
-605,401	-200,000	-0,036	0,152
-604,386	-65,541	-0,104	0,030
-603,371	-124,647	0,077	-0,009
-602,357	800,000	-0,053	-0,111
-601,342	-70,370	-0,020	-0,005
-600,328	-86,410	-0,062	-0,014
-599,313	-139,016	-0,072	0,006
-598,298	634,768	0,040	-0,073
-597,284	-200,000	-0,006	0,027
-596,269	-61,996	-0,068	-0,020
-595,255	12,647	0,073	0,041
-594,240	-43,397	0,104	-0,038
-593,225	111,705	-0,100	-0,087
-592,211	-200,000	-0,017	-0,095
-591,196	572,352	0,058	-0,103
-590,182	-50,868	0,056	-0,019
-589,167	133,198	0,068	-0,064
-588,152	517,289	0,055	0,094
-587,138	322,717	0,059	0,082
-586,123	-61,988	-0,173	-0,052
-585,109	11,971	-0,098	-0,054
-584,094	-200,000	0,007	-0,113
-583,079	10,339	-0,201	-0,111
-582,065	-21,076	-0,111	-0,049
-581,050	-200,000	0,004	0,067
-580,036	104,471	-0,086	0,073
-579,021	800,000	0,024	0,053
-578,006	-200,000	0,003	-0,046
-576,992	-104,950	0,066	0,011
-575,977	-60,787	0,077	0,024
-574,963	-120,092	-0,060	0,007
-573,948	-44,690	-0,117	-0,042
-572,934	187,649	0,072	-0,078
-571,919	-38,734	-0,061	-0,023
-570,904	262,688	0,046	0,058
-569,890	98,039	-0,062	0,052
-568,875	68,923	0,072	-0,053
-567,861	111,954	-0,021	0,019
-566,846	166,543	-0,074	0,076
-565,831	-200,000	-0,005	0,064
-564,817	-118,672	-0,103	-0,013
-563,802	-200,000	0,011	-0,135
-562,788	-200,000	-0,035	-0,126
-561,773	-68,952	-0,027	0,008
-560,758	-200,000	-0,017	0,101
-559,744	61,366	0,080	0,058
-558,729	112,398	-0,103	0,090
-557,715	-65,300	-0,072	0,021
-556,700	555,760	-0,054	0,095
-555,685	74,622	-0,078	0,059
-554,671	-69,469	0,097	-0,027
-553,656	800,000	-0,029	-0,082
-552,642	272,843	0,081	-0,104
-551,627	-67,662	0,146	-0,041
-550,612	239,977	0,117	-0,141
-549,598	-127,564	0,094	0,010
-548,583	30,385	0,031	-0,019
-547,569	-200,000	-0,016	-0,120
-546,554	-200,000	-0,040	0,144
-545,539	-60,687	-0,048	-0,015
-544,525	-46,248	0,193	-0,068
-543,510	-11,011	-0,029	0,014
-542,496	-82,240	0,112	0,026
-541,481	227,701	-0,131	0,154
-540,466	-58,837	0,080	-0,025
-539,452	-200,000	0,019	0,075
-538,437	-200,000	0,018	0,170
-537,423	6,221	0,038	-0,021
-536,408	800,000	-0,057	-0,130
-535,393	-38,993	-0,060	0,023
-534,379	800,000	0,032	-0,079
-533,364	-117,458	0,118	0,015
-532,350	160,262	0,040	0,040
-531,335	192,801	-0,103	0,113
-530,321	-18,370	0,091	0,041
-529,306	-200,000	0,013	-0,099
-528,291	296,374	0,058	-0,077
-527,277	375,882	-0,051	-0,076
-526,262	247,195	0,069	-0,084
-525,248	-119,297	0,101	0,012
-524,233	800,000	0,019	0,040
-523,218	-169,070	0,091	-0,002
-522,204	-82,814	-0,048	0,011
-521,189	-46,857	-0,048	0,017
-520,175	800,000	-0,058	-0,127
-519,160	374,863	-0,053	-0,079
-518,145	-200,000	-0,017	-0,096
-517,131	-144,061	0,036	-0,002
-516,116	-91,114	0,131	-0,027
-515,102	-200,000	0,004	-0,025
-514,087	800,000	-0,042	-0,105
-513,072	105,154	0,064	-0,054
-512,058	-131,279	-0,072	-0,007
-511,043	-200,000	-0,009	0,111
-510,029	800,000	0,044	0,095
-509,014	-200,000	0,004	-0,035
-507,999	-3,595	0,179	0,089
-506,985	-200,000	0,009	0,042
-505,970	800,000	0,015	-0,042
-504,956	263,978	-0,033	0,042
-503,941	-200,000	0,001	0,122
-502,926	56,847	0,089	0,063
-501,912	-200,000	0,065	0,209
-500,897	-104,728	0,054	0,009
-499,883	-187,781	0,108	-0,001
-498,868	354,291	-0,059	-0,085
-497,853	-200,000	-0,012	0,040
-496,839	-91,602	0,115	0,024
-495,824	-161,699	0,018	-0,001
-494,810	-145,874	0,117	-0,007
-493,795	-200,000	-0,002	0,114
-492,781	-15,336	-0,201	-0,092
-491,766	265,421	0,100	-0,126
-490,751	413,300	-0,019	-0,029
-489,737	46,841	0,041	0,028
-488,722	124,943	-0,147	-0,133
-487,708	800,000	0,057	-0,132
-486,693	-200,000	-0,025	-0,095
-485,678	-200,000	-0,008	0,071
-484,664	319,938	0,043	0,060
-483,649	211,936	0,060	0,068
-482,635	-200,000	0,045	-0,160
-481,620	85,143	0,075	0,059
-480,605	-4,726	0,081	0,040
-479,591	124,555	0,052	0,047
-478,576	310,019	0,070	-0,095
-477,562	-23,048	-0,048	0,021
-476,547	409,209	-0,067	-0,103
-475,532	-200,000	-0,016	-0,106
-474,518	-27,930	0,021	-0,009
-473,503	574,740	-0,063	0,111
-472,489	-50,640	-0,073	0,025
-471,474	-73,890	0,037	0,010
-470,459	-103,684	0,036	0,006
-469,445	-33,858	-0,052	-0,020
-468,430	83,391	-0,053	-0,041
-467,416	88,254	0,019	0,015
-466,401	599,043	-0,125	0,224
-465,386	-127,945	-0,095	0,010
-464,372	-99,354	0,078	-0,014
-463,357	-200,000	-0,009	0,084
-462,343	-26,053	-0,073	-0,031
-461,328	-149,826	-0,136	-0,008
-460,313	-200,000	0,031	-0,196
-459,299	42,234	-0,065	0,042
-458,284	150,863	-0,076	-0,075
-457,270	-115,214	-0,062	0,008
-456,255	800,000	-0,043	0,137
-455,241	178,697	0,065	0,068
-454,226	-153,917	0,172	0,008
-453,211	235,967	0,011	0,013
-452,197	35,960	-0,116	0,074
-451,182	339,751	0,075	0,105
-450,168	87,697	0,106	0,084
-449,153	-157,343	-0,064	-0,003
-448,138	452,824	-0,044	-0,071
-447,124	800,000	-0,031	-0,097
-446,109	-200,000	0,028	-0,125
-445,095	246,954	-0,054	0,065
-444,080	-200,000	0,040	0,147
-443,065	800,000	-0,049	0,155
-442,051	478,427	0,057	0,094
-441,036	348,813	-0,061	-0,087
-440,022	53,933	0,073	-0,050
-439,007	-200,000	0,013	-0,110
-437,992	-110,314	0,067	0,010
-436,978	800,000	-0,029	-0,079
-435,963	-200,000	0,034	-0,136
-434,949	219,124	0,055	0,063
-433,934	800,000	-0,037	-0,079
-432,919	-6,905	0,024	-0,011
-431,905	-200,000	0,003	-0,032
-430,890	256,888	0,096	0,119
-429,876	240,766	0,099	0,119
-428,861	800,000	-0,041	-0,115
-427,846	-78,171	-0,080	-0,020
-426,832	-90,827	-0,023	-0,005
-425,817	-200,000	-0,007	0,086
-424,803	139,124	-0,048	0,046
-423,788	-62,802	0,077	0,023
-422,773	23,261	0,101	-0,059
-421,759	-46,273	0,126	0,044
-420,744	102,537	-0,081	-0,068
-419,730	-71,184	-0,087	0,023
-418,715	45,466	-0,039	-0,026
-417,701	-200,000	0,023	0,074
-416,686	-20,087	-0,099	-0,044
-415,671	-200,000	-0,009	0,050
-414,657	-200,000	-0,016	0,068
-413,642	-200,000	0,004	0,053
-412,628	-78,623	0,029	0,007
-411,613	-200,000	-0,027	0,142
-410,598	191,890	-0,097	-0,105
-409,584	258,907	-0,025	-0,031
-408,569	189,425	0,088	0,095
-407,555	170,325	-0,059	0,060
-406,540	800,000	-0,033	-0,082
-405,525	-145,071	-0,057	0,004
-404,511	-103,868	-0,165	-0,027
-403,496	0,616	0,067	0,034
-402,482	-200,000	0,005	-0,023
-401,467	-52,554	0,125	-0,041
-400,452	386,941	0,091	-0,136
-399,438	299,562	0,042	0,056
-398,423	-200,000	0,015	0,086
-397,409	327,311	-0,043	0,059
-396,394	-200,000	-0,002	0,050
-395,379	-200,000	0,017	0,054
-394,365	186,020	0,036	-0,039
-393,350	-200,000	-0,007	0,036
-392,336	-66,888	0,080	-0,023
-391,321	800,000	0,043	0,121
-390,306	-139,464	-0,067	0,005
-389,292	-34,325	0,068	0,027
-388,277	-37,484	0,124	-0,047
-387,263	52,814	0,103	0,070
-386,248	33,524	0,067	0,042
-385,233	-200,000	-0,010	0,084
-384,219	-200,000	-0,000	0,054
-383,204	-11,969	-0,071	-0,033
-382,190	800,000	-0,008	0,023
-381,175	133,957	-0,139	0,129
-380,160	143,893	-0,012	-0,012
-379,146	-200,000	-0,000	0,003
-378,131	-78,537	-0,092	-0,022
-377,117	324,215	0,080	-0,110
-376,102	-75,571	-0,092	0,023
-375,088	62,884	-0,132	-0,094
-374,073	89,327	-0,123	-0,098
-373,058	-176,633	0,130	0,002
-372,044	-143,138	0,031	0,002
-371,029	41,137	0,025	0,016
-370,015	396,161	0,066	-0,099
-369,000	-1,458	-0,082	-0,041
-367,985	621,652	-0,054	-0,098
-366,971	472,665	-0,028	0,045
-365,956	22,754	-0,122	0,072
-364,942	-200,000	0,021	-0,106
-363,927	800,000	-0,032	0,084
-362,912	800,000	0,008	-0,023
-361,898	800,000	0,110	-0,229
-360,883	-200,000	-0,002	-0,059
-359,869	-200,000	0,012	-0,037
-358,854	-200,000	-0,012	0,049
-357,839	-200,000	-0,019	-0,084
-356,825	-200,000	-0,008	-0,030
-355,810	-76,788	0,075	-0,019
-354,796	182,811	-0,114	-0,120
-353,781	638,766	-0,022	0,040
-352,766	397,406	-0,046	-0,069
-351,752	378,704	-0,037	0,055
-350,737	800,000	-0,037	0,092
-349,723	172,435	0,077	-0,079
-348,708	-22,582	-0,091	0,039
-347,693	413,902	0,028	0,042
-346,679	-32,220	-0,158	0,063
-345,664	132,249	-0,085	0,079
-344,650	800,000	0,005	0,016
-343,635	118,115	0,106	-0,093
-342,620	-40,065	0,070	0,026
-341,606	-200,000	0,019	0,081
-340,591	720,118	-0,015	0,028
-339,577	-94,661	-0,075	-0,014
-338,562	30,210	-0,019	-0,012
-337,548	44,390	-0,080	-0,052
-336,533	26,108	-0,118	0,070
-335,518	-60,724	0,168	0,051
-334,504	361,865	0,035	0,051
-333,489	-95,380	0,120	0,023
-332,475	800,000	0,014	0,028
-331,460	96,178	-0,032	0,026
-330,445	123,710	-0,040	-0,036
-329,431	271,234	0,061	0,077
-328,416	18,208	0,086	0,049
-327,402	27,907	0,042	-0,026
-326,387	-82,910	0,049	0,011
-325,372	800,000	0,032	-0,066
-324,358	-111,820	-0,008	-0,001
-323,343	-200,000	0,008	-0,033
-322,329	301,684	0,035	-0,046
-321,314	86,152	0,085	0,067
-320,299	-9,745	0,078	0,037
-319,285	-200,000	0,031	0,124
-318,270	-103,822	-0,085	-0,014
-317,256	800,000	0,034	0,100
-316,241	512,715	-0,052	-0,087
-315,226	417,303	-0,072	0,110
-314,212	-17,174	0,070	0,031
-313,197	40,620	0,169	0,109
-312,183	-200,000	-0,022	0,084
-311,168	299,971	-0,037	0,049
-310,153	168,837	0,035	-0,036
-309,139	800,000	-0,037	-0,084
-308,124	-72,303	0,077	-0,020
-307,110	686,823	-0,025	0,047
-306,095	-9,996	0,018	0,009
-305,080	-200,000	-0,039	0,158
-304,066	-122,122	-0,131	0,015
-303,051	-200,000	-0,052	-0,233
-302,037	-37,137	-0,058	0,022
-301,022	-200,000	0,008	-0,048
-300,008	-0,621	0,048	-0,024
-298,993	-151,605	0,083	0,004
-297,978	-200,000	-0,004	-0,099
-296,964	-200,000	-0,000	0,017
-295,949	-200,000	-0,016	0,081
-294,935	86,298	0,108	-0,085
-293,920	31,845	-0,153	0,094
-292,905	-200,000	-0,006	0,111
-291,891	-200,000	0,000	-0,035
-290,876	-200,000	0,014	0,045
-289,862	-200,000	0,012	-0,056
-288,847	133,066	-0,071	-0,066
-287,832	-200,000	-0,009	-0,060
-286,818	-51,291	-0,035	-0,012
-285,803	311,800	0,095	0,128
-284,789	679,556	0,032	0,059
-283,774	-200,000	0,064	0,232
-282,759	162,119	-0,080	-0,081
-281,745	-151,216	0,054	-0,003
-280,730	279,442	0,065	0,083
-279,716	-117,244	-0,117	0,015
-278,701	-95,241	-0,106	-0,020
-277,686	-141,743	0,140	0,010
-276,672	63,966	0,115	0,083
-275,657	448,148	0,075	0,118
-274,643	242,475	-0,035	0,042
-273,628	-200,000	0,025	0,160
-272,613	683,905	0,011	-0,020
-271,599	-107,041	0,206	-0,032
-270,584	60,125	0,094	0,066
-269,570	440,208	0,073	0,114
-268,555	-200,000	0,002	0,063
-267,540	-63,343	0,162	-0,047
-266,526	800,000	0,023	-0,052
-265,511	225,103	0,058	-0,067
-264,497	-123,881	0,140	-0,016
-263,482	56,282	-0,005	0,003
-262,467	68,229	0,066	0,048
-261,453	-71,911	-0,025	0,007
-260,438	-126,736	0,159	0,017
-259,424	527,671	-0,111	-0,188
-258,409	128,320	0,033	-0,030
-257,395	121,448	0,060	-0,053
-256,380	140,431	0,038	0,036
-255,365	-69,108	-0,041	0,011
-254,351	69,826	-0,190	-0,140
-253,336	-200,000	0,015	0,094
-252,322	77,630	-0,113	-0,086
-251,307	109,193	-0,058	-0,050
-250,292	104,746	-0,083	-0,070
-249,278	389,957	0,053	0,078
-248,263	-130,476	-0,073	0,007
-247,249	381,398	-0,046	0,067
-246,234	144,362	0,114	-0,109
-245,219	700,259	-0,026	-0,049
-244,205	800,000	0,022	-0,048
-243,190	-5,373	-0,116	0,057
-242,176	303,086	-0,096	-0,127
-241,161	-125,470	0,204	0,022
-240,146	550,195	-0,024	0,042
-239,132	-3,606	0,079	0,039
-238,117	-101,664	0,126	-0,022
-237,103	186,520	-0,055	-0,058
-236,088	-79,966	-0,136	-0,032
-235,073	-200,000	-0,023	0,108
-234,059	111,391	0,084	0,072
-233,044	-81,461	0,118	-0,028
-232,030	350,134	-0,041	0,059
-231,015	-4,466	-0,065	-0,032
-230,000	800,000	-0,032	-0,073
-228,986	-200,000	-0,017	-0,058
-227,971	316,662	-0,070	0,095
-226,957	800,000	0,037	0,083
-225,942	-149,529	-0,110	0,006
-224,927	-200,000	0,023	0,106
-223,913	593,008	-0,073	-0,129
-222,898	-200,000	0,031	-0,134
-221,884	-90,197	-0,046	0,009
-220,869	-99,418	-0,037	0,007
-219,855	24,401	0,054	0,032
-218,840	-77,081	-0,162	-0,040
-217,825	245,222	-0,036	-0,043
-216,811	-144,401	-0,246	-0,016
-215,796	143,263	0,139	-0,132
-214,782	469,046	-0,020	0,032
-213,767	570,870	-0,015	0,026
-212,752	-25,823	0,110	-0,046
-211,738	-200,000	0,008	0,059
-210,723	416,732	-0,022	0,034
-209,709	-200,000	0,012	-0,090
-208,694	173,770	-0,073	-0,075
-207,679	4,008	0,118	-0,061
-206,665	-200,000	0,021	-0,264
-205,650	-200,000	0,013	0,048
-204,636	-200,000	-0,019	-0,119
-203,621	-28,191	0,071	0,029
-202,606	-64,700	0,041	-0,012
-201,592	272,907	-0,059	-0,075
-200,577	-200,000	-0,031	-0,133
-199,563	-9,306	0,067	-0,032
-198,548	800,000	0,047	-0,127
-197,533	-200,000	-0,022	-0,088
-196,519	-37,190	-0,046	-0,018
-195,504	-41,176	-0,049	0,018
-194,490	-200,000	0,007	0,052
-193,475	-200,000	-0,010	-0,066
-192,460	75,404	-0,039	-0,030
-191,446	-200,000	-0,011	0,172
-190,431	100,853	0,064	-0,053
-189,417	-41,238	0,036	-0,013
-188,402	-200,000	-0,018	0,098
-187,387	-200,000	0,006	0,025
-186,373	-120,361	0,104	0,012
-185,358	592,340	0,011	-0,019
-184,344	-73,410	-0,036	0,009
-183,329	-70,518	0,243	-0,065
-182,315	473,187	-0,032	-0,051
-181,300	743,688	0,062	0,119
-180,285	-200,000	0,001	0,098
-179,271	32,483	-0,074	0,045
-178,256	141,544	-0,018	-0,017
-177,242	-29,612	-0,181	0,073
-176,227	-73,687	0,104	0,027
-175,212	-161,298	-0,006	-0,000
-174,198	800,000	0,007	-0,017
-173,183	-32,154	-0,062	0,024
-172,169	246,840	-0,063	-0,076
-171,154	800,000	0,020	0,057
-170,139	-200,000	0,039	-0,134
-169,125	33,629	-0,034	-0,021
-168,110	800,000	-0,002	-0,004
-167,096	213,478	-0,048	0,054
-166,081	-105,087	0,201	0,032
-165,066	-200,000	0,002	0,054
-164,052	201,622	-0,078	0,086
-163,037	-200,000	0,020	0,101
-162,023	800,000	0,045	0,135
-161,008	-86,003	-0,147	-0,032
-159,993	381,560	0,035	0,052
-158,979	67,850	-0,076	0,055
-157,964	12,304	-0,077	-0,042
-156,950	339,836	0,040	0,056
-155,935	456,122	-0,056	0,089
-154,920	-174,294	0,079	0,002
-153,906	79,648	0,101	0,077
-152,891	-112,779	-0,058	-0,008
-151,877	77,814	-0,118	-0,090
-150,862	85,565	0,106	0,083
-149,847	226,539	-0,084	-0,097
-148,833	800,000	-0,032	-0,098
-147,818	-88,337	0,076	-0,016
-146,804	191,276	0,036	0,038
-145,789	800,000	0,031	0,085
-144,775	54,972	-0,124	-0,085
-143,760	-83,993	0,098	-0,022
-142,745	-200,000	0,012	0,074
-141,731	-93,327	0,072	0,014
-140,716	171,940	-0,057	-0,059
-139,702	322,392	-0,028	-0,037
-138,687	333,997	-0,066	0,091
-137,672	122,363	0,025	0,022
-136,658	-200,000	0,016	0,103
-135,643	224,293	-0,062	-0,071
-134,629	560,981	0,014	-0,025
-133,614	50,859	0,023	0,015
-132,599	-200,000	-0,016	0,186
-131,585	631,550	-0,072	-0,130
-130,570	800,000	-0,034	0,093
-129,556	34,642	-0,068	-0,042
-128,541	500,347	-0,057	-0,093
-127,526	381,420	-0,062	0,091
-126,512	255,378	-0,044	0,053
-125,497	-174,749	0,095	-0,002
-124,483	-53,182	0,135	-0,044
-123,468	-82,950	0,037	-0,008
-122,453	209,500	-0,066	-0,073
-121,439	-200,000	0,032	-0,105
-120,424	128,988	-0,046	-0,042
-119,410	800,000	0,024	-0,050
-118,395	475,643	-0,146	0,235
-117,380	77,418	-0,111	0,084
-116,366	800,000	-0,045	0,104
-115,351	800,000	-0,014	-0,044
-114,337	800,000	-0,061	-0,127
-113,322	134,008	0,014	-0,012
-112,307	-16,894	-0,056	0,025
-111,293	45,111	0,010	-0,007
-110,278	96,879	0,098	0,079
-109,264	364,324	0,103	0,147
-108,249	473,399	-0,101	0,163
-107,234	800,000	0,031	-0,091
-106,220	13,261	-0,130	-0,071
-105,205	13,098	0,009	-0,005
-104,191	136,739	-0,056	0,051
-103,176	-200,000	0,001	0,025
-102,162	-200,000	0,008	0,053
-101,147	-29,776	-0,132	0,053
-100,132	75,822	0,046	-0,035
-99,118	141,132	-0,115	-0,108
-98,103	208,264	0,037	-0,041
-97,089	-200,000	-0,005	-0,126
-96,074	29,157	0,198	-0,119
-95,059	98,998	0,070	-0,057
-94,045	70,451	-0,059	0,043
-93,030	-200,000	-0,016	0,147
-92,016	-62,625	-0,119	-0,035
-91,001	-33,084	0,121	-0,047
-89,986	800,000	0,079	0,189
-88,972	143,480	-0,084	-0,080
-87,957	-200,000	-0,005	0,015
-86,943	85,044	0,018	0,014
-85,928	800,000	-0,018	-0,055
-84,913	-8,715	-0,120	-0,057
-83,899	-131,588	0,015	-0,001
-82,884	-51,123	0,071	0,023
-81,870	800,000	0,030	-0,082
-80,855	698,313	-0,046	-0,087
-79,840	624,541	0,069	-0,125
-78,826	131,838	0,134	0,122
-77,811	13,737	-0,057	-0,031
-76,797	800,000	-0,010	-0,021
-75,782	-169,515	-0,102	0,003
-74,767	-200,000	0,090	0,000
-73,753	146,219	0,038	-0,036
-72,738	43,154	0,057	-0,037
-71,724	31,725	0,060	-0,036
-70,709	-15,118	-0,082	0,037
-69,694	-64,738	0,089	-0,025
-68,680	-200,000	-0,008	0,134
-67,665	-99,532	-0,049	0,009
-66,651	-74,310	-0,114	0,029
-65,636	-200,000	0,032	0,192
-64,622	13,537	-0,034	-0,019
-63,607	-21,696	0,020	0,009
-62,592	303,557	-0,112	-0,148
-61,578	-88,375	0,086	-0,018
-60,563	1,819	0,087	-0,045
-59,549	190,787	0,028	-0,029
-58,534	-24,307	-1,489	-0,627
-57,519	350,604	-1,515	-2,129
-56,505	-200,000	-0,575	-4,642
-55,490	223,715	0,987	1,131
-54,476	800,000	4,820	11,276
-53,461	-200,000	18,348	295,824
-52,446	800,000	731,571	2256,238
-51,432	559,512	1648,053	2831,402
-50,417	78,767	1667,197	1262,761
-49,403	22,389	1540,389	890,080
-48,388	16,343	1463,451	816,279
-47,373	17,839	1453,233	817,765
-46,359	17,095	1443,647	808,777
-45,344	14,626	1439,078	794,378
-44,330	14,609	1437,100	793,169
-43,315	14,575	1435,338	792,005
-42,300	14,552	1433,822	791,029
-41,286	14,604	1432,788	790,675
-40,271	14,567	1431,426	789,716
-39,257	14,584	1429,865	788,901
-38,242	14,677	1428,535	788,577
-37,227	14,608	1427,514	787,656
-36,213	14,611	1426,211	786,923
-35,198	14,590	1425,066	786,159
-34,184	14,656	1424,214	785,967
-33,169	14,568	1422,797	784,740
-32,154	14,607	1421,738	784,311
-31,140	14,619	1420,523	783,667
-30,125	14,691	1419,325	783,314
-29,111	14,629	1418,123	782,327
-28,096	14,611	1417,142	781,669
-27,082	14,525	1416,220	780,723
-26,067	14,527	1415,203	780,140
-25,052	14,565	1413,833	779,535
-24,038	14,536	1413,226	779,034
-23,023	14,510	1412,051	778,230
-22,009	14,521	1410,949	777,644
-20,994	14,503	1410,164	777,095
-19,979	14,497	1409,229	776,521
-18,965	14,434	1408,300	775,685
-17,950	14,470	1407,127	775,178
-16,936	14,495	1406,278	774,796
-15,921	14,419	1405,273	773,857
-14,906	14,493	1404,279	773,624
-13,892	14,430	1403,399	772,815
-12,877	14,453	1402,347	772,308
-11,863	14,440	1401,549	771,781
-10,848	14,404	1400,608	771,065
-9,833	14,412	1399,798	770,626
-8,819	14,365	1399,018	769,944
-7,804	14,345	1398,032	769,280
-6,790	14,332	1396,936	768,586
-5,775	14,339	1395,861	767,997
-4,760	14,327	1395,026	767,450
-3,746	14,347	1394,021	766,962
-2,731	14,345	1393,473	766,619
-1,717	14,334	1392,543	766,026
-0,702	14,345	1390,655	765,007
0,313	18,134	1309,159	737,741
1,327	34,447	705,621	435,428
2,342	52,839	124,130	83,936
3,356	3,497	16,645	8,564
4,371	15,778	3,146	1,748
5,386	32,676	0,612	0,374
6,400	-200,000	-0,033	0,184
7,415	24,129	-0,239	-0,140
8,429	8,646	-0,329	-0,175
9,444	127,319	-0,252	-0,226
10,459	63,840	-0,362	-0,257
11,473	-9,678	-0,350	-0,165
12,488	94,788	-0,296	-0,238
13,502	243,168	-0,243	-0,289
14,517	-17,686	-0,273	-0,121
15,531	4,947	-0,357	-0,185
16,546	180,269	-0,285	-0,296
17,561	669,502	-0,190	-0,349
18,575	-114,965	-0,141	-0,019
19,590	128,781	-0,216	-0,194
20,604	26,177	-0,272	-0,160
21,619	3,143	-0,404	-0,207
22,634	369,325	-0,389	-0,559
23,648	51,107	-0,439	-0,294
24,663	33,253	-0,373	-0,228
25,677	81,823	-0,405	-0,310
26,692	-35,231	-0,369	-0,141
27,707	-21,312	-0,455	-0,195
28,721	159,540	-0,307	-0,302
29,736	103,851	-0,382	-0,317
30,750	180,099	-0,395	-0,410
31,765	53,192	-0,453	-0,306
32,780	77,069	-0,363	-0,272
33,794	145,077	-0,408	-0,385
34,809	170,975	-0,303	-0,307
35,823	-15,913	-0,456	-0,204
36,838	224,529	-0,287	-0,328
37,853	73,609	-0,277	-0,205
38,867	-11,396	-0,278	-0,129
39,882	-26,723	-0,329	-0,135
40,896	87,026	-0,247	-0,193
41,911	129,292	-0,337	-0,304
42,926	94,639	-0,317	-0,254
43,940	316,433	-0,300	-0,400
44,955	36,149	-0,416	-0,258
45,969	190,950	-0,388	-0,412
46,984	67,348	-0,354	-0,255
47,999	67,828	-0,278	-0,200
49,013	266,154	-0,231	-0,285
50,028	64,687	-0,367	-0,261
51,042	3,109	-0,479	-0,245
52,057	726,295	-0,192	-0,363
53,071	153,893	-0,314	-0,304
54,086	27,593	-0,263	-0,156
55,101	93,457	-0,290	-0,231
56,115	121,281	-0,364	-0,320
57,130	53,093	-0,421	-0,284
58,144	-70,489	-0,492	-0,130
59,159	124,880	-0,434	-0,385
60,174	80,124	-0,444	-0,336
61,188	50,109	-0,301	-0,200
62,203	-31,780	-0,371	-0,146
63,217	-53,760	-0,331	-0,106
64,232	-42,698	-0,323	-0,115
65,247	125,792	-0,344	-0,306
66,261	193,967	-0,345	-0,369
67,276	80,368	-0,395	-0,300
68,290	76,323	-0,218	-0,162
69,305	-40,414	-0,295	-0,107
70,320	202,948	-0,072	-0,078
71,334	46,195	-0,292	-0,190
72,349	76,257	-0,360	-0,268
73,363	800,000	-0,129	-0,278
74,378	37,014	-0,373	-0,232
75,393	-13,477	-0,381	-0,173
76,407	164,463	-0,256	-0,254
77,422	241,951	-0,227	-0,267
78,436	37,968	-0,325	-0,203
79,451	163,025	-0,209	-0,207
80,466	65,094	-0,387	-0,275
81,480	91,352	-0,299	-0,236
82,495	69,972	-0,254	-0,184
83,509	323,052	-0,202	-0,271
84,524	84,752	-0,329	-0,254
85,539	55,312	-0,320	-0,217
86,553	77,217	-0,246	-0,184
87,568	33,991	-0,269	-0,164
88,582	-67,654	-0,323	-0,088
89,597	262,517	-0,216	-0,264
90,611	-22,676	-0,341	-0,144
91,626	-51,638	-0,211	-0,069
92,641	19,445	-0,244	-0,137
93,655	22,650	-0,277	-0,159
94,670	126,822	-0,218	-0,194
95,684	217,458	-0,252	-0,282
96,699	155,987	-0,240	-0,232
97,714	142,631	-0,330	-0,308
98,728	116,237	-0,247	-0,213
99,743	189,416	-0,306	-0,322
100,757	-61,185	-0,383	-0,113
101,772	-4,596	-0,285	-0,138
102,787	-98,352	-0,278	-0,050
103,801	187,821	-0,193	-0,203
104,816	153,806	-0,146	-0,140
105,830	79,066	-0,315	-0,237
106,845	97,473	-0,272	-0,219
107,860	-116,767	-0,191	0,024
108,874	76,211	-0,154	-0,114
109,889	58,689	-0,250	-0,172
110,903	17,211	-0,324	-0,180
111,918	428,032	-0,125	-0,190
112,933	98,976	-0,246	-0,199
113,947	270,309	-0,202	-0,250
114,962	30,212	-0,258	-0,154
115,976	153,323	-0,220	-0,212
116,991	104,464	-0,198	-0,164
118,006	236,456	-0,228	-0,265
119,020	-150,217	-0,089	-0,005
120,035	3,313	-0,203	-0,103
121,049	230,937	-0,130	-0,149
122,064	800,000	-0,135	-0,313
123,079	87,656	-0,162	-0,126
124,093	100,379	-0,305	-0,248
125,108	40,820	-0,325	-0,205
126,122	-72,589	-0,235	-0,060
127,137	-48,743	-0,352	-0,118
128,151	304,860	-0,120	-0,157
129,166	-79,234	-0,263	-0,062
130,181	11,341	-0,274	-0,146
131,195	119,631	-0,200	-0,174
132,210	99,677	-0,277	-0,224
133,224	120,937	-0,324	-0,282
134,239	94,825	-0,270	-0,215
135,254	-135,899	-0,227	-0,018
136,268	54,492	-0,262	-0,176
137,283	52,122	-0,214	-0,143
138,297	86,004	-0,262	-0,202
139,312	-27,878	-0,371	-0,150
140,327	32,979	-0,208	-0,126
141,341	800,000	-0,053	-0,143
142,356	643,031	-0,170	-0,305
143,370	114,423	-0,172	-0,147
144,385	154,309	-0,207	-0,199
145,400	417,536	-0,182	-0,273
146,414	-20,902	-0,297	-0,127
147,429	172,649	-0,260	-0,262
148,443	800,000	-0,146	-0,299
149,458	431,832	-0,152	-0,232
150,473	23,073	-0,362	-0,207
151,487	22,919	-0,205	-0,117
152,502	-30,710	-0,250	-0,099
153,516	800,000	-0,174	-0,361
154,531	-73,174	-0,299	-0,076
155,546	65,497	-0,279	-0,197
156,560	364,409	-0,194	-0,273
157,575	800,000	-0,137	-0,276
158,589	429,149	-0,185	-0,281
159,604	22,770	-0,281	-0,161
160,619	151,772	-0,230	-0,219
161,633	28,036	-0,204	-0,120
162,648	-200,000	0,007	-0,125
163,662	10,623	-0,261	-0,138
164,677	153,322	-0,214	-0,205
165,692	14,657	-0,105	0,057
166,706	-28,670	-0,344	-0,138
167,721	98,266	-0,291	-0,234
168,735	147,272	-0,190	-0,178
169,750	11,704	-0,333	-0,178
170,764	300,277	-0,153	-0,198
171,779	141,260	-0,162	-0,150
172,794	16,906	-0,150	-0,083
173,808	142,631	-0,180	-0,167
174,823	79,772	-0,301	-0,225
175,837	8,260	-0,222	-0,116
176,852	130,693	-0,235	-0,211
177,867	33,815	-0,187	-0,113
178,881	800,000	-0,106	-0,282
179,896	71,960	-0,157	-0,114
180,910	177,728	-0,065	-0,066
181,925	179,276	-0,208	-0,213
182,940	721,996	-0,127	-0,236
183,954	109,843	-0,224	-0,187
184,969	-13,295	-0,206	-0,093
185,983	37,535	-0,132	-0,081
186,998	17,508	-0,156	-0,086
188,013	536,415	-0,128	-0,213
189,027	-19,406	-0,253	-0,109
190,042	154,545	-0,246	-0,235
191,056	99,314	-0,099	-0,080
192,071	-28,646	-0,255	-0,102
193,086	-200,000	-0,017	-0,238
194,100	156,379	-0,168	-0,161
195,115	236,794	-0,119	-0,138
196,129	552,961	-0,108	-0,181
197,144	-35,190	-0,369	-0,139
198,159	287,542	-0,174	-0,220
199,173	288,989	-0,133	-0,168
200,188	89,179	-0,108	-0,084
201,202	128,944	-0,239	-0,212
202,217	204,388	-0,127	-0,138
203,232	321,736	-0,145	-0,193
204,246	151,388	-0,162	-0,154
205,261	308,935	-0,226	-0,295
206,275	-200,000	-0,065	-0,267
207,290	274,466	-0,184	-0,227
208,304	117,375	-0,193	-0,165
209,319	-89,300	-0,163	-0,033
210,334	133,622	-0,196	-0,177
211,348	-1,738	-0,142	-0,069
212,363	800,000	-0,105	-0,224
213,377	303,050	-0,177	-0,228
214,392	-50,489	-0,052	0,017
215,407	86,314	-0,106	-0,081
216,421	-94,295	-0,168	-0,032
217,436	123,384	-0,242	-0,211
218,450	-62,790	-0,238	-0,068
219,465	167,702	-0,279	-0,276
220,480	800,000	-0,070	-0,201
221,494	-200,000	-0,079	-0,268
222,509	84,201	-0,199	-0,151
223,523	797,524	-0,086	-0,165
224,538	88,879	-0,123	-0,095
225,553	11,346	-0,314	-0,166
226,567	-48,159	-0,339	-0,113
227,582	630,027	-0,070	-0,123
228,596	30,612	-0,129	-0,076
229,611	-143,743	-0,306	-0,020
230,626	10,438	-0,136	-0,072
231,640	46,260	-0,255	-0,164
232,655	34,207	-0,139	-0,084
233,669	94,294	-0,132	-0,104
234,684	169,033	-0,183	-0,182
235,699	-119,108	-0,252	-0,030
236,713	59,937	-0,161	-0,110
237,728	-83,639	-0,215	-0,047
238,742	800,000	-0,098	-0,248
239,757	17,342	-0,279	-0,153
240,772	335,279	-0,155	-0,209
241,786	800,000	-0,097	-0,229
242,801	658,604	-0,133	-0,238
243,815	114,406	-0,209	-0,176
244,830	212,978	-0,136	-0,149
245,844	30,148	-0,258	-0,152
246,859	217,707	-0,167	-0,185
247,874	176,599	-0,214	-0,215
248,888	114,014	-0,180	-0,152
249,903	43,361	-0,230	-0,146
250,917	-55,177	-0,195	-0,060
251,932	-5,808	-0,124	-0,059
252,947	-98,353	-0,247	0,043
253,961	-47,260	-0,242	-0,081
254,976	33,534	-0,262	-0,157
255,990	-14,256	-0,264	-0,118
257,005	113,890	-0,212	-0,179
258,020	-173,413	-0,146	0,003
259,034	30,156	-0,123	-0,072
260,049	42,176	-0,034	-0,021
261,063	-200,000	-0,068	-0,253
262,078	281,931	-0,163	-0,202
263,093	26,615	-0,227	-0,131
264,107	71,379	-0,311	-0,223
265,122	14,723	-0,165	-0,089
266,136	-18,253	-0,147	-0,063
267,151	28,706	-0,146	-0,085
268,166	800,000	-0,081	-0,215
269,180	-150,452	-0,169	0,009
270,195	339,438	-0,128	-0,173
271,209	-73,542	-0,158	-0,040
272,224	800,000	-0,085	-0,219
273,239	83,402	-0,164	-0,123
274,253	145,022	-0,136	-0,126
275,268	281,719	-0,177	-0,219
276,282	112,342	-0,129	-0,108
277,297	800,000	-0,092	-0,200
278,312	241,985	-0,119	-0,138
279,326	-3,695	-0,195	-0,094
280,341	209,306	-0,125	-0,136
281,355	57,424	-0,186	-0,125
282,370	-62,457	-0,233	-0,066
283,384	168,640	-0,230	-0,227
284,399	-84,708	-0,145	-0,031
285,414	502,644	-0,103	-0,165
286,428	800,000	-0,049	-0,108
287,443	-16,428	-0,109	-0,047
288,457	220,546	-0,302	-0,335
289,472	800,000	-0,162	-0,332
290,487	365,906	-0,078	-0,108
291,501	-64,561	-0,227	-0,063
292,516	183,199	-0,158	-0,161
293,530	131,628	-0,196	-0,174
294,545	237,956	-0,037	-0,042
295,560	739,781	-0,082	-0,153
296,574	277,922	-0,149	-0,183
297,589	331,580	-0,071	-0,095
298,603	34,718	-0,265	-0,160
299,618	-1,154	-0,139	-0,068
300,633	-99,224	-0,226	-0,039
301,647	-50,603	-0,166	-0,054
302,662	148,622	0,039	-0,036
303,676	-200,000	-0,013	-0,148
304,691	87,074	-0,165	-0,126
305,706	-26,085	-0,163	-0,066
306,720	520,554	-0,087	-0,142
307,735	-90,251	-0,110	-0,022
308,749	38,277	-0,114	-0,070
309,764	-183,163	-0,193	-0,002
310,779	-21,667	-0,120	-0,050
311,793	296,381	-0,182	-0,231
312,808	41,634	-0,190	-0,118
313,822	41,747	-0,103	-0,064
314,837	135,745	-0,070	-0,063
315,852	-32,288	-0,038	-0,015
316,866	-200,000	-0,009	-0,049
317,881	18,029	-0,055	0,030
318,895	219,253	-0,209	-0,231
319,910	-16,770	-0,127	-0,055
320,925	659,037	-0,089	-0,158
321,939	800,000	-0,071	-0,161
322,954	-75,254	-0,108	0,026
323,968	-152,767	-0,056	0,003
324,983	800,000	0,009	-0,025
325,997	283,234	-0,101	-0,125
327,012	15,606	-0,205	-0,111
328,027	325,411	-0,143	-0,188
329,041	-134,951	-0,158	-0,013
330,056	-48,817	-0,176	0,058
331,070	490,007	-0,038	0,060
332,085	119,322	-0,138	-0,117
333,100	210,682	-0,109	-0,118
334,114	262,780	-0,149	-0,179
335,129	-22,416	-0,092	-0,038
336,143	35,093	-0,199	-0,120
337,158	345,966	-0,136	-0,184
338,173	352,073	-0,065	0,089
339,187	-188,551	0,056	-0,000
340,202	41,243	-0,167	-0,103
341,216	800,000	-0,061	-0,143
342,231	251,393	-0,099	-0,117
343,246	108,900	-0,167	-0,137
344,260	-106,321	-0,163	0,025
345,275	-181,859	-0,149	0,002
346,289	30,140	-0,104	-0,061
347,304	23,827	-0,162	-0,092
348,319	26,597	-0,091	-0,052
349,333	-200,000	-0,037	-0,119
350,348	-200,000	-0,021	-0,188
351,362	272,339	-0,141	-0,171
352,377	800,000	-0,059	-0,172
353,392	-42,043	-0,226	-0,079
354,406	800,000	-0,108	-0,241
355,421	208,340	1314,138	1412,552
356,435	160,303	1474,808	1413,059
