DTS Sentinel unit serial number:	SN410029Multiplexer serial number:	ORYXHardware model number:	OX2-SRSoftware version number:	ORYX F/W v4,00 Oryx Data Collector v3.7.2.0data status	okinstallation	B3 Nyhavnadifferential loss correction	single-endedforward channel	channel 1reverse channel	N/Adate	2023/12/04time	02:52:30forward acquisition time	300,00reverse acquisition time	0,00gamma	499,1914k internal	0,3204k external	0,3204temperature offset calibration	1,0000default loss term (dB/km)	0,3820temperature slope calibration	1,0000multiplexer offset coefficient	1,0000multiplexer slope coefficient	1,0000fibre end	0,00T internal ref (°C)	12,20T ext. ref 1 (°C)	-2,95T ext. ref 2 (°C)	-2,97length (m)	temperature (°C)	Stokes	anti-Stokes-744,400	279,512	-0,172	-0,224
-743,385	360,087	0,093	0,136
-742,371	202,684	-0,219	-0,246
-741,356	-200,000	0,006	0,428
-740,342	107,470	-0,259	-0,224
-739,327	800,000	-0,113	0,315
-738,312	800,000	-0,094	-0,212
-737,298	800,000	-0,107	0,272
-736,283	204,497	-0,085	-0,096
-735,269	-200,000	0,083	0,277
-734,254	-23,375	-0,213	-0,092
-733,239	20,068	-0,192	0,112
-732,225	800,000	-0,107	-0,278
-731,210	-12,546	0,230	0,109
-730,196	191,808	0,067	0,074
-729,181	0,119	-0,166	-0,086
-728,167	549,903	0,066	0,116
-727,152	800,000	0,046	-0,106
-726,137	-31,332	-0,107	0,044
-725,123	-95,768	0,012	0,002
-724,108	-37,263	-0,157	0,061
-723,094	-200,000	-0,038	-0,202
-722,079	56,853	-0,081	-0,057
-721,064	-200,000	0,026	-0,146
-720,050	800,000	-0,066	0,136
-719,035	-200,000	0,002	0,015
-718,021	-200,000	-0,023	0,106
-717,006	-63,924	-0,097	-0,029
-715,991	-12,860	-0,082	-0,039
-714,977	715,452	-0,021	-0,041
-713,962	-0,453	-0,126	0,065
-712,948	-139,023	0,044	-0,003
-711,933	140,541	-0,158	-0,152
-710,918	83,426	-0,069	-0,054
-709,904	-200,000	0,044	-0,172
-708,889	457,025	-0,087	-0,141
-707,875	-200,000	-0,038	-0,129
-706,860	-200,000	0,009	0,060
-705,845	789,655	0,064	0,129
-704,831	-52,997	-0,106	0,035
-703,816	198,795	0,089	0,099
-702,802	-200,000	-0,001	0,013
-701,787	-17,072	-0,106	0,049
-700,772	150,018	-0,080	-0,079
-699,758	800,000	-0,056	0,119
-698,743	-126,093	0,049	-0,005
-697,729	203,591	-0,067	0,075
-696,714	32,183	0,098	0,061
-695,699	13,376	-0,083	-0,047
-694,685	-200,000	0,000	-0,047
-693,670	-200,000	-0,007	-0,092
-692,656	-57,089	-0,144	0,046
-691,641	-169,022	-0,031	0,001
-690,627	-200,000	0,016	0,146
-689,612	-52,213	-0,070	0,023
-688,597	-72,015	-0,112	-0,030
-687,583	50,944	-0,076	-0,052
-686,568	-200,000	-0,016	-0,135
-685,554	550,763	-0,042	-0,073
-684,539	800,000	0,019	-0,040
-683,524	800,000	0,013	0,039
-682,510	280,512	0,109	-0,142
-681,495	-43,488	0,122	0,044
-680,481	-81,442	-0,137	-0,032
-679,466	-200,000	0,013	-0,116
-678,451	472,665	-0,072	-0,118
-677,437	90,763	-0,051	-0,042
-676,422	84,688	0,116	0,092
-675,408	135,929	-0,110	0,103
-674,393	-200,000	-0,006	-0,033
-673,378	144,003	-0,077	-0,074
-672,364	800,000	-0,049	-0,124
-671,349	-200,000	0,007	0,034
-670,335	80,513	0,045	-0,035
-669,320	269,006	0,140	0,178
-668,305	25,694	0,057	0,034
-667,291	202,686	-0,064	-0,072
-666,276	-38,484	-0,148	-0,056
-665,262	-200,000	0,005	-0,122
-664,247	-200,000	-0,000	0,171
-663,232	295,005	0,051	0,068
-662,218	22,804	-0,092	-0,055
-661,203	255,630	0,048	0,060
-660,189	18,757	-0,136	0,079
-659,174	234,825	-0,042	-0,051
-658,159	256,635	0,069	0,086
-657,145	-27,037	-0,077	0,033
-656,130	-71,057	0,142	0,038
-655,116	161,529	0,042	-0,043
-654,101	673,507	-0,017	-0,032
-653,086	-200,000	-0,006	0,087
-652,072	-3,325	-0,005	-0,002
-651,057	9,690	-0,099	-0,054
-650,043	37,695	-0,147	-0,094
-649,028	-127,744	-0,071	-0,007
-648,014	800,000	0,042	0,114
-646,999	180,067	0,129	0,137
-645,984	405,772	-0,016	0,025
-644,970	-200,000	-0,001	0,141
-643,955	-200,000	-0,013	-0,087
-642,941	-85,277	-0,187	-0,042
-641,926	211,622	-0,069	-0,079
-640,911	800,000	0,046	-0,100
-639,897	-78,875	0,151	0,037
-638,882	286,521	-0,052	0,068
-637,868	-49,519	-0,080	-0,027
-636,853	351,716	0,095	-0,137
-635,838	303,273	-0,056	-0,075
-634,824	226,122	-0,118	-0,139
-633,809	-200,000	0,004	-0,039
-632,795	153,332	0,100	0,099
-631,780	800,000	-0,060	-0,180
-630,765	147,653	0,108	-0,105
-629,751	-111,243	-0,076	-0,011
-628,736	396,860	-0,029	-0,044
-627,722	-139,293	-0,074	0,006
-626,707	18,193	0,012	0,007
-625,692	5,869	-0,119	0,064
-624,678	118,836	-0,099	-0,089
-623,663	-200,000	0,015	0,051
-622,649	800,000	-0,023	0,066
-621,634	57,790	0,089	-0,063
-620,619	164,660	-0,048	-0,049
-619,605	-109,029	0,063	0,010
-618,590	-200,000	0,057	0,207
-617,576	579,490	-0,041	0,073
-616,561	631,506	-0,036	0,067
-615,546	-91,266	-0,112	0,023
-614,532	393,329	-0,065	0,097
-613,517	-200,000	0,048	-0,156
-612,503	206,155	-0,073	-0,082
-611,488	89,920	0,056	0,045
-610,474	800,000	-0,063	0,147
-609,459	596,354	-0,023	-0,041
-608,444	317,140	-0,030	0,041
-607,430	-200,000	0,019	0,136
-606,415	59,449	-0,034	-0,024
-605,401	-48,451	-0,064	0,022
-604,386	271,171	-0,061	-0,078
-603,371	178,859	0,054	0,057
-602,357	95,905	-0,022	0,019
-601,342	-168,744	-0,175	0,005
-600,328	230,741	-0,122	-0,145
-599,313	180,685	-0,058	-0,062
-598,298	-46,104	0,085	0,030
-597,284	-32,619	0,106	0,043
-596,269	-200,000	-0,025	0,136
-595,255	115,071	0,091	-0,080
-594,240	-200,000	-0,034	-0,149
-593,225	8,671	-0,136	-0,074
-592,211	227,086	0,099	-0,116
-591,196	-200,000	-0,012	-0,126
-590,182	91,787	0,015	0,012
-589,167	-200,000	-0,003	0,067
-588,152	-200,000	0,012	-0,096
-587,138	-50,884	-0,079	-0,027
-586,123	800,000	-0,040	-0,119
-585,109	-57,080	0,051	0,016
-584,094	-60,839	-0,044	-0,013
-583,079	-200,000	-0,025	0,184
-582,065	46,785	0,081	0,054
-581,050	444,262	0,039	0,062
-580,036	72,397	-0,052	0,039
-579,021	-6,151	-0,056	0,027
-578,006	-144,901	0,069	0,004
-576,992	91,384	-0,076	-0,062
-575,977	-43,606	-0,046	-0,017
-574,963	-192,150	0,100	0,001
-573,948	-142,190	-0,124	0,009
-572,934	-200,000	0,014	0,080
-571,919	604,134	0,078	0,141
-570,904	-200,000	-0,032	-0,122
-569,890	10,673	-0,078	-0,043
-568,875	-52,772	-0,078	0,026
-567,861	-174,957	0,173	0,003
-566,846	780,368	0,041	0,081
-565,831	-21,649	0,024	0,011
-564,817	495,543	-0,010	0,016
-563,802	800,000	-0,020	0,062
-562,788	190,011	-0,057	-0,062
-561,773	-97,169	0,037	0,007
-560,758	105,596	0,090	0,077
-559,744	10,661	-0,055	0,030
-558,729	-200,000	0,000	0,014
-557,715	-20,042	-0,174	-0,077
-556,700	800,000	-0,011	-0,035
-555,685	-200,000	-0,011	-0,124
-554,671	431,025	-0,055	0,086
-553,656	800,000	0,054	0,110
-552,642	-142,996	0,044	-0,003
-551,627	-127,991	-0,014	-0,001
-550,612	28,677	-0,062	0,038
-549,598	-174,930	-0,128	-0,003
-548,583	61,374	-0,112	-0,080
-547,569	240,924	0,089	-0,107
-546,554	800,000	0,025	-0,067
-545,539	-61,801	0,041	-0,012
-544,525	-19,074	-0,044	-0,020
-543,510	626,925	0,007	0,013
-542,496	586,602	0,030	-0,054
-541,481	-41,526	0,064	0,024
-540,466	800,000	0,009	-0,024
-539,452	692,378	0,023	-0,043
-538,437	-200,000	-0,016	0,053
-537,423	-97,176	-0,069	-0,013
-536,408	-58,717	-0,023	0,007
-535,393	437,109	-0,046	0,073
-534,379	65,540	-0,132	0,096
-533,364	-200,000	0,018	-0,063
-532,350	-9,033	0,009	-0,004
-531,335	-35,818	0,092	0,036
-530,321	-105,295	0,116	0,019
-529,306	55,339	0,040	0,028
-528,291	240,815	-0,039	-0,047
-527,277	-105,940	-0,059	-0,010
-526,262	-200,000	0,017	-0,094
-525,248	366,794	0,061	-0,088
-524,233	86,998	0,124	0,099
-523,218	138,899	-0,087	0,082
-522,204	-200,000	-0,037	-0,153
-521,189	121,897	-0,098	-0,088
-520,175	800,000	-0,003	0,008
-519,160	-63,530	0,067	-0,020
-518,145	-74,489	-0,048	0,012
-517,131	322,479	0,038	0,052
-516,116	800,000	0,020	0,044
-515,102	-200,000	-0,035	0,174
-514,087	-111,051	0,115	0,017
-513,072	73,689	0,089	-0,067
-512,058	-160,412	-0,244	-0,009
-511,043	20,848	-0,062	-0,036
-510,029	384,318	-0,072	-0,108
-509,014	33,816	-0,051	0,032
-507,999	201,927	-0,159	0,177
-506,985	576,350	0,058	-0,102
-505,970	27,578	0,087	-0,052
-504,956	800,000	-0,021	0,058
-503,941	-74,491	0,058	0,015
-502,926	-49,329	-0,025	0,009
-501,912	-200,000	-0,035	0,142
-500,897	362,076	0,053	0,077
-499,883	-137,311	0,096	-0,008
-498,868	-24,686	-0,097	-0,042
-497,853	118,744	-0,099	-0,088
-496,839	800,000	0,030	0,073
-495,824	-200,000	0,016	0,185
-494,810	-50,768	0,101	-0,034
-493,795	182,668	0,040	-0,042
-492,781	7,986	-0,073	0,039
-491,766	37,990	-0,088	0,056
-490,751	222,802	0,059	-0,068
-489,737	-200,000	-0,003	0,026
-488,722	-44,224	0,052	-0,019
-487,708	-200,000	-0,031	0,107
-486,693	63,422	-0,065	0,047
-485,678	-200,000	0,002	-0,077
-484,664	-60,651	-0,121	0,037
-483,649	699,523	0,034	0,065
-482,635	185,768	-0,102	-0,109
-481,620	-66,381	0,028	-0,008
-480,605	-200,000	0,095	0,000
-479,591	508,104	-0,067	0,112
-478,576	645,929	-0,038	0,070
-477,562	-37,626	-0,043	0,016
-476,547	800,000	-0,058	-0,137
-475,532	800,000	-0,019	0,043
-474,518	22,060	-0,041	-0,024
-473,503	800,000	0,003	-0,006
-472,489	-80,670	0,086	0,020
-471,474	-11,887	-0,039	-0,018
-470,459	800,000	0,017	-0,049
-469,445	-60,333	-0,093	-0,028
-468,430	-200,000	0,002	-0,020
-467,416	-200,000	-0,026	-0,083
-466,401	800,000	0,030	0,071
-465,386	-152,744	-0,021	-0,001
-464,372	62,626	0,025	0,018
-463,357	-200,000	-0,015	-0,176
-462,343	-200,000	-0,011	-0,109
-461,328	-200,000	-0,038	-0,137
-460,313	-200,000	-0,019	0,166
-459,299	-117,978	0,065	-0,008
-458,284	200,637	0,025	0,028
-457,270	-1,665	0,058	-0,029
-456,255	-17,783	0,128	0,058
-455,241	125,013	-0,087	0,079
-454,226	202,023	0,115	0,128
-453,211	800,000	-0,011	0,034
-452,197	-200,000	-0,014	0,073
-451,182	323,168	0,030	0,041
-450,168	-142,957	-0,050	0,003
-449,153	-13,967	0,140	-0,065
-448,138	15,539	-0,108	-0,061
-447,124	20,846	0,060	-0,035
-446,109	102,799	0,075	0,063
-445,095	-200,000	0,015	0,167
-444,080	-200,000	-0,031	0,101
-443,065	-56,337	0,145	-0,046
-442,051	800,000	0,051	0,127
-441,036	-77,618	0,065	-0,016
-440,022	-145,765	0,109	0,007
-439,007	98,956	-0,040	0,033
-437,992	-200,000	0,015	-0,098
-436,978	-200,000	0,003	-0,014
-435,963	-57,267	0,134	0,042
-434,949	-200,000	0,003	-0,064
-433,934	800,000	-0,025	0,062
-432,919	-200,000	0,007	-0,093
-431,905	-200,000	-0,007	-0,088
-430,890	-139,640	0,109	0,008
-429,876	168,675	0,071	0,072
-428,861	-200,000	0,023	0,202
-427,846	-104,504	0,173	-0,028
-426,832	-136,848	0,066	-0,005
-425,817	800,000	0,033	0,099
-424,803	-147,438	0,112	-0,007
-423,788	165,917	0,064	0,065
-422,773	-200,000	0,064	0,242
-421,759	800,000	-0,019	0,051
-420,744	-103,397	-0,059	-0,010
-419,730	562,476	-0,033	-0,058
-418,715	31,834	0,066	0,041
-417,701	-200,000	-0,003	0,015
-416,686	-105,072	0,075	0,012
-415,671	19,090	0,074	-0,042
-414,657	-200,000	-0,027	0,139
-413,642	-39,697	0,068	-0,025
-412,628	339,967	-0,080	-0,112
-411,613	-200,000	-0,004	-0,055
-410,598	-96,272	-0,068	-0,013
-409,584	164,728	-0,046	-0,046
-408,569	484,108	0,051	0,084
-407,555	-106,330	0,153	-0,024
-406,540	38,078	-0,074	0,047
-405,525	-200,000	-0,003	0,011
-404,511	-62,335	0,100	0,030
-403,496	217,488	0,047	-0,053
-402,482	169,543	-0,058	-0,060
-401,467	-200,000	-0,046	-0,155
-400,452	-200,000	-0,003	0,072
-399,438	75,900	0,068	0,051
-398,423	-200,000	-0,016	0,072
-397,409	57,369	-0,034	-0,023
-396,394	800,000	0,022	-0,064
-395,379	-200,000	0,036	0,179
-394,365	-200,000	0,000	0,118
-393,350	-76,850	0,058	0,015
-392,336	-200,000	-0,012	0,086
-391,321	26,247	-0,032	0,019
-390,306	109,880	-0,089	-0,076
-389,292	301,890	-0,050	0,066
-388,277	-39,052	0,150	-0,056
-387,263	0,363	-0,026	-0,013
-386,248	800,000	-0,022	0,044
-385,233	800,000	0,027	0,063
-384,219	800,000	-0,076	0,164
-383,204	102,500	-0,083	0,070
-382,190	800,000	0,030	-0,095
-381,175	-116,747	0,087	-0,011
-380,160	-14,050	0,084	0,039
-379,146	-200,000	0,020	0,246
-378,131	800,000	0,037	0,084
-377,117	-62,120	-0,068	-0,020
-376,102	-48,914	-0,018	-0,006
-375,088	-150,433	-0,151	0,008
-374,073	353,920	-0,025	-0,036
-373,058	273,734	0,052	-0,065
-372,044	-200,000	0,021	0,068
-371,029	800,000	-0,036	-0,112
-370,015	-200,000	-0,010	-0,086
-369,000	-117,402	-0,080	-0,010
-367,985	18,799	-0,148	-0,085
-366,971	-200,000	0,006	-0,067
-365,956	643,004	0,051	0,093
-364,942	-24,503	-0,040	-0,017
-363,927	-48,576	-0,058	0,020
-362,912	-18,593	-0,054	-0,024
-361,898	17,231	-0,085	0,048
-360,883	-57,250	0,055	-0,017
-359,869	800,000	0,038	-0,102
-358,854	-76,277	0,048	-0,012
-357,839	88,832	0,057	-0,045
-356,825	800,000	-0,079	0,219
-355,810	340,891	-0,031	0,044
-354,796	314,231	-0,040	-0,053
-353,781	-2,702	0,108	-0,054
-352,766	-113,250	0,168	-0,023
-351,752	-200,000	0,014	0,086
-350,737	-200,000	-0,016	0,135
-349,723	-200,000	0,009	-0,073
-348,708	800,000	-0,023	0,070
-347,693	-97,470	0,032	-0,006
-346,679	59,093	-0,073	-0,052
-345,664	-200,000	0,000	-0,067
-344,650	-200,000	0,004	0,014
-343,635	364,090	0,028	-0,040
-342,620	267,753	-0,061	0,077
-341,606	623,189	0,045	0,081
-340,591	529,192	0,046	-0,078
-339,577	-132,365	0,087	-0,008
-338,562	-70,369	0,150	0,040
-337,548	311,839	-0,078	0,105
-336,533	239,778	0,131	-0,156
-335,518	-114,224	0,068	0,009
-334,504	434,158	0,080	0,125
-333,489	-2,214	-0,065	0,033
-332,475	17,520	0,079	0,045
-331,460	-18,070	-0,121	-0,054
-330,445	242,366	0,061	0,073
-329,431	-79,036	0,122	-0,029
-328,416	-45,084	0,092	-0,033
-327,402	-61,365	0,163	-0,049
-326,387	201,280	0,012	0,014
-325,372	-166,544	-0,117	-0,003
-324,358	-102,368	0,110	0,019
-323,343	389,070	-0,088	0,131
-322,329	304,706	-0,057	-0,076
-321,314	96,865	0,084	0,069
-320,299	-58,114	0,017	0,005
-319,285	-121,006	-0,176	0,021
-318,270	800,000	-0,045	-0,094
-317,256	800,000	-0,031	-0,080
-316,241	135,434	-0,095	-0,088
-315,226	416,666	-0,048	-0,073
-314,212	189,133	0,096	0,103
-313,197	-146,695	0,065	-0,004
-312,183	51,023	0,116	-0,079
-311,168	216,647	-0,158	-0,180
-310,153	300,648	-0,064	-0,084
-309,139	-19,908	0,051	0,022
-308,124	-3,056	-0,106	-0,052
-307,110	800,000	-0,060	-0,172
-306,095	-10,432	-0,055	0,026
-305,080	800,000	-0,078	-0,166
-304,066	-78,318	-0,098	-0,024
-303,051	299,812	0,108	-0,142
-302,037	-113,117	0,062	-0,009
-301,022	72,119	-0,022	0,016
-300,008	-193,319	-0,029	0,000
-298,993	737,195	0,028	-0,054
-297,978	800,000	0,011	-0,027
-296,964	-151,946	-0,096	-0,005
-295,949	-200,000	0,024	-0,169
-294,935	800,000	-0,008	0,023
-293,920	-24,351	0,080	-0,034
-292,905	800,000	0,044	0,093
-291,891	223,708	0,141	-0,163
-290,876	-200,000	0,005	0,100
-289,862	532,747	-0,098	0,166
-288,847	663,303	-0,078	-0,144
-287,832	523,232	-0,044	-0,075
-286,818	-112,918	0,052	-0,007
-285,803	-81,477	0,136	0,032
-284,789	103,739	-0,028	-0,023
-283,774	173,465	-0,026	-0,027
-282,759	134,898	0,224	-0,207
-281,745	20,914	-0,052	-0,030
-280,730	231,267	0,010	0,011
-279,716	800,000	-0,011	0,025
-278,701	-200,000	-0,012	-0,125
-277,686	-1,362	0,034	0,017
-276,672	-200,000	-0,003	-0,028
-275,657	162,767	-0,076	0,077
-274,643	49,664	0,061	0,041
-273,628	-200,000	0,004	-0,133
-272,613	-200,000	-0,015	0,074
-271,599	130,494	-0,050	-0,046
-270,584	8,175	0,028	0,015
-269,570	-59,196	0,066	-0,020
-268,555	279,719	0,118	0,151
-267,540	-117,735	-0,104	-0,013
-266,526	-200,000	0,013	-0,213
-265,511	3,196	0,012	-0,006
-264,497	-200,000	0,026	0,099
-263,482	623,046	0,052	0,095
-262,467	-66,600	-0,015	0,004
-261,453	89,209	0,134	0,107
-260,438	22,122	-0,016	-0,009
-259,424	800,000	0,024	-0,074
-258,409	-200,000	-0,035	-0,131
-257,395	382,026	-0,043	-0,063
-256,380	-27,867	0,113	0,046
-255,365	193,911	0,026	-0,028
-254,351	-41,907	-0,070	0,025
-253,336	-200,000	0,001	0,028
-252,322	-181,246	-0,084	-0,001
-251,307	-107,000	-0,108	0,017
-250,292	-156,238	0,051	-0,002
-249,278	86,096	-0,086	0,067
-248,263	-98,908	0,042	0,008
-247,249	343,101	-0,073	0,102
-246,234	28,555	0,096	-0,058
-245,219	73,809	0,041	0,030
-244,205	-150,534	-0,139	0,007
-243,190	369,314	-0,049	-0,070
-242,176	41,382	0,116	0,074
-241,161	140,845	-0,085	0,080
-240,146	15,807	0,168	0,094
-239,132	-200,000	-0,027	-0,143
-238,117	-35,235	-0,110	-0,042
-237,103	217,451	-0,056	-0,064
-236,088	-200,000	0,014	-0,123
-235,073	-200,000	0,008	0,097
-234,059	684,325	-0,059	0,110
-233,044	-71,367	-0,039	-0,010
-232,030	800,000	0,036	0,082
-231,015	-200,000	-0,012	-0,106
-230,000	82,440	0,101	-0,078
-228,986	-7,131	-0,079	-0,038
-227,971	800,000	0,042	-0,098
-226,957	800,000	-0,058	0,135
-225,942	800,000	-0,046	-0,112
-224,927	627,621	-0,017	-0,030
-223,913	800,000	-0,014	-0,030
-222,898	-86,605	-0,071	-0,015
-221,884	-31,925	0,088	-0,035
-220,869	-200,000	-0,000	0,168
-219,855	-140,144	0,113	-0,008
-218,840	-85,007	-0,088	-0,019
-217,825	800,000	0,029	-0,077
-216,811	-200,000	0,012	-0,067
-215,796	-119,396	-0,188	-0,023
-214,782	800,000	0,045	-0,101
-213,767	-200,000	-0,001	0,080
-212,752	-200,000	0,016	-0,053
-211,738	-47,580	0,152	-0,052
-210,723	-112,228	0,122	0,017
-209,709	6,827	0,068	0,036
-208,694	208,007	0,055	-0,061
-207,679	54,302	-0,008	-0,005
-206,665	204,403	0,160	0,177
-205,650	111,960	0,066	0,056
-204,636	-2,956	0,047	-0,023
-203,621	144,428	0,029	0,028
-202,606	-79,771	0,025	0,006
-201,592	-132,081	-0,039	0,004
-200,577	-109,063	-0,120	-0,018
-199,563	-200,000	-0,005	0,025
-198,548	246,528	-0,072	0,087
-197,533	800,000	-0,035	0,070
-196,519	-45,636	0,046	-0,016
-195,504	12,833	0,122	-0,067
-194,490	362,902	-0,040	0,057
-193,475	610,420	-0,012	0,021
-192,460	532,228	0,015	-0,025
-191,446	-40,463	0,038	-0,014
-190,431	-94,113	0,035	-0,007
-189,417	125,707	-0,049	-0,044
-188,402	-139,757	-0,178	-0,013
-187,387	352,638	-0,033	-0,046
-186,373	435,143	-0,045	-0,070
-185,358	800,000	-0,035	0,080
-184,344	-23,947	0,137	0,058
-183,329	-87,243	0,030	0,006
-182,315	-122,288	0,051	0,006
-181,300	800,000	-0,000	0,001
-180,285	48,556	0,066	0,044
-179,271	-200,000	-0,003	0,025
-178,256	-109,393	-0,133	-0,020
-177,242	25,145	-0,020	0,012
-176,227	117,837	-0,092	0,081
-175,212	-66,330	-0,045	-0,013
-174,198	-15,360	-0,104	-0,047
-173,183	103,136	0,027	0,022
-172,169	-200,000	0,002	-0,032
-171,154	265,311	0,096	-0,119
-170,139	101,741	0,038	-0,032
-169,125	-200,000	0,016	0,128
-168,110	540,335	0,032	0,054
-167,096	-200,000	0,018	0,061
-166,081	-27,060	-0,189	-0,078
-165,066	143,982	-0,052	0,049
-164,052	-200,000	-0,030	-0,240
-163,037	6,574	-0,070	-0,037
-162,023	38,268	0,078	-0,049
-161,008	-200,000	0,003	0,053
-159,993	177,733	-0,091	0,094
-158,979	648,610	-0,116	-0,212
-157,964	158,717	0,038	-0,038
-156,950	-8,633	-0,025	-0,012
-155,935	800,000	0,040	-0,115
-154,920	800,000	0,065	0,137
-153,906	-8,724	0,106	0,050
-152,891	247,795	-0,049	0,059
-151,877	800,000	0,037	-0,084
-150,862	800,000	-0,040	-0,098
-149,847	-200,000	-0,008	-0,063
-148,833	400,317	-0,079	-0,118
-147,818	-64,240	-0,026	-0,007
-146,804	28,083	-0,051	0,030
-145,789	800,000	-0,027	0,070
-144,775	35,684	-0,113	-0,070
-143,760	159,210	0,120	-0,118
-142,745	-200,000	-0,029	-0,129
-141,731	377,086	0,024	0,035
-140,716	800,000	0,037	0,109
-139,702	800,000	-0,026	0,061
-138,687	800,000	-0,027	0,075
-137,672	-19,559	0,079	0,035
-136,658	800,000	-0,050	-0,107
-135,643	800,000	-0,075	-0,160
-134,629	-18,282	0,037	-0,016
-133,614	93,763	0,085	-0,068
-132,599	283,437	0,048	0,062
-131,585	287,151	0,037	0,047
-130,570	67,140	-0,143	-0,104
-129,556	62,670	-0,046	0,033
-128,541	-200,000	-0,002	-0,064
-127,526	-200,000	-0,036	-0,142
-126,512	-200,000	0,008	0,067
-125,497	-0,469	0,169	0,085
-124,483	115,198	0,046	0,040
-123,468	-52,777	-0,114	0,037
-122,453	-200,000	-0,007	0,075
-121,439	282,376	-0,079	0,101
-120,424	-200,000	-0,009	-0,035
-119,410	259,546	0,064	0,078
-118,395	-46,047	-0,081	-0,028
-117,380	800,000	-0,024	-0,064
-116,366	-200,000	-0,023	-0,106
-115,351	-200,000	-0,016	0,192
-114,337	241,203	-0,049	-0,058
-113,322	-33,247	0,102	-0,040
-112,307	-200,000	-0,041	0,168
-111,293	-82,559	-0,186	0,043
-110,278	-62,576	-0,030	0,009
-109,264	-200,000	0,001	0,022
-108,249	71,509	-0,124	-0,091
-107,234	-147,781	-0,075	-0,004
-106,220	800,000	0,049	-0,106
-105,205	784,155	0,052	0,101
-104,191	-200,000	-0,017	0,066
-103,176	-200,000	-0,015	0,109
-102,162	432,508	-0,007	-0,011
-101,147	298,218	0,011	-0,015
-100,132	337,670	-0,073	-0,101
-99,118	-46,686	0,043	-0,015
-98,103	13,265	0,041	0,022
-97,089	-200,000	-0,000	0,186
-96,074	-44,974	0,083	-0,029
-95,059	735,124	0,040	0,076
-94,045	23,091	0,093	-0,054
-93,030	574,331	-0,012	0,022
-92,016	-71,483	0,202	-0,053
-91,001	-170,867	0,098	0,002
-89,986	59,514	0,030	-0,021
-88,972	-162,548	-0,043	0,001
-87,957	201,730	0,072	-0,079
-86,943	-81,782	-0,248	0,057
-85,928	800,000	0,074	-0,151
-84,913	-102,681	0,086	0,014
-83,899	2,427	0,088	-0,045
-82,884	616,921	0,094	0,168
-81,870	-158,163	0,186	0,008
-80,855	-200,000	0,009	0,091
-79,840	1,152	-0,142	0,072
-78,826	106,183	0,034	-0,028
-77,811	-200,000	-0,019	-0,081
-76,797	-100,226	0,028	0,005
-75,782	668,416	0,032	-0,059
-74,767	247,766	-0,101	0,121
-73,753	-81,019	0,113	0,026
-72,738	-20,159	0,051	0,022
-71,724	-94,728	-0,180	-0,034
-70,709	-200,000	-0,009	0,036
-69,694	800,000	-0,036	-0,075
-68,680	-5,252	-0,104	-0,050
-67,665	21,395	-0,030	0,017
-66,651	800,000	0,066	0,150
-65,636	-53,381	-0,054	0,017
-64,622	680,601	-0,023	0,042
-63,607	121,220	-0,043	0,038
-62,592	-43,686	-0,034	-0,012
-61,578	800,000	-0,017	0,038
-60,563	371,560	0,085	0,123
-59,549	89,762	-0,061	0,048
-58,534	14,718	-1,752	-0,966
-57,519	419,629	-1,327	-2,016
-56,505	-200,000	-0,585	-4,657
-55,490	282,921	1,095	1,393
-54,476	800,000	4,946	11,276
-53,461	-200,000	20,171	323,870
-52,446	800,000	752,475	2312,613
-51,432	548,699	1663,681	2829,910
-50,417	75,093	1671,975	1244,980
-49,403	20,049	1544,889	878,899
-48,388	14,041	1467,257	805,494
-47,373	18,328	1457,240	820,679
-46,359	16,341	1446,882	805,293
-45,344	12,309	1442,665	783,593
-44,330	12,252	1440,657	782,199
-43,315	12,196	1438,814	780,900
-42,300	12,235	1436,969	780,053
-41,286	12,221	1435,831	779,335
-40,271	12,231	1434,477	778,620
-39,257	12,229	1433,301	777,941
-38,242	12,279	1432,052	777,467
-37,227	12,286	1430,854	776,823
-36,213	12,312	1429,478	776,166
-35,198	12,290	1428,226	775,351
-34,184	12,357	1427,347	775,163
-33,169	12,249	1426,083	773,934
-32,154	12,343	1424,691	773,593
-31,140	12,291	1423,771	772,817
-30,125	12,296	1422,603	772,175
-29,111	12,323	1421,541	771,693
-28,096	12,280	1420,420	770,852
-27,082	12,304	1419,142	770,241
-26,067	12,250	1418,087	769,382
-25,052	12,205	1417,136	768,625
-24,038	12,223	1416,036	768,081
-23,023	12,176	1415,125	767,335
-22,009	12,224	1414,124	766,989
-20,994	12,197	1413,274	766,369
-19,979	12,179	1412,326	765,743
-18,965	12,206	1411,234	765,244
-17,950	12,178	1410,238	764,543
-16,936	12,181	1409,484	764,121
-15,921	12,157	1408,378	763,378
-14,906	12,135	1407,584	762,813
-13,892	12,168	1406,593	762,402
-12,877	12,117	1405,743	761,672
-11,863	12,138	1404,762	761,208
-10,848	12,080	1403,830	760,402
-9,833	12,075	1403,029	759,917
-8,819	12,046	1402,154	759,274
-7,804	11,972	1401,583	758,591
-6,790	12,046	1400,204	758,158
-5,775	12,036	1399,370	757,631
-4,760	12,061	1398,137	757,051
-3,746	12,031	1397,383	756,474
-2,731	12,035	1396,662	756,071
-1,717	11,970	1395,879	755,313
-0,702	12,010	1393,926	754,414
0,313	15,976	1308,774	726,641
1,327	32,267	699,602	425,855
2,342	49,926	121,915	81,139
3,356	1,783	16,504	8,379
4,371	-4,964	3,340	1,620
5,386	-36,425	0,737	0,279
6,400	-200,000	-0,054	0,325
7,415	180,549	-0,251	-0,261
8,429	-129,853	-0,315	0,030
9,444	198,619	-0,242	-0,262
10,459	-48,127	-0,209	-0,071
11,473	79,234	-0,258	-0,195
12,488	251,699	-0,158	-0,191
13,502	55,881	-0,230	-0,157
14,517	110,302	-0,333	-0,282
15,531	150,607	-0,394	-0,378
16,546	299,043	-0,228	-0,297
17,561	-2,761	-0,484	-0,238
18,575	0,315	-0,127	-0,064
19,590	182,080	-0,270	-0,281
20,604	118,106	-0,196	-0,170
21,619	65,416	-0,397	-0,283
22,634	105,926	-0,487	-0,406
23,648	254,905	-0,303	-0,367
24,663	-32,015	-0,345	-0,136
25,677	-39,122	-0,372	-0,137
26,692	-27,389	-0,366	-0,150
27,707	92,324	-0,283	-0,225
28,721	-39,474	-0,435	-0,160
29,736	142,182	-0,352	-0,330
30,750	-8,446	-0,409	-0,193
31,765	57,243	-0,408	-0,280
32,780	148,427	-0,406	-0,387
33,794	162,171	-0,315	-0,311
34,809	56,093	-0,390	-0,266
35,823	110,726	-0,409	-0,346
36,838	209,460	-0,281	-0,311
37,853	1,835	-0,409	-0,207
38,867	274,514	-0,322	-0,402
39,882	-95,304	-0,334	-0,063
40,896	-33,659	-0,410	-0,159
41,911	6,718	-0,354	-0,185
42,926	153,742	-0,377	-0,364
43,940	11,186	-0,508	-0,273
44,955	156,966	-0,246	-0,239
45,969	78,740	-0,331	-0,249
46,984	32,818	-0,387	-0,236
47,999	124,625	-0,297	-0,264
49,013	215,208	-0,244	-0,273
50,028	47,961	-0,285	-0,187
51,042	-23,515	-0,302	-0,127
52,057	190,373	-0,289	-0,306
53,071	58,618	-0,309	-0,213
54,086	217,575	-0,267	-0,300
55,101	13,890	-0,441	-0,240
56,115	168,827	-0,235	-0,236
57,130	48,451	-0,294	-0,193
58,144	238,580	-0,222	-0,260
59,159	86,571	-0,339	-0,263
60,174	44,787	-0,436	-0,282
61,188	25,245	-0,172	-0,100
62,203	97,397	-0,310	-0,250
63,217	-2,737	-0,412	-0,202
64,232	105,178	-0,284	-0,235
65,247	15,392	-0,414	-0,228
66,261	30,982	-0,423	-0,254
67,276	94,308	-0,244	-0,195
68,290	34,414	-0,367	-0,225
69,305	192,167	-0,231	-0,246
70,320	244,197	-0,241	-0,285
71,334	3,563	-0,324	-0,165
72,349	82,888	-0,220	-0,168
73,363	19,446	-0,398	-0,224
74,378	-101,967	-0,296	-0,050
75,393	-36,756	-0,261	-0,098
76,407	612,910	-0,156	-0,275
77,422	-62,101	-0,219	-0,064
78,436	64,142	-0,239	-0,169
79,451	218,788	-0,165	-0,186
80,466	115,410	-0,327	-0,280
81,480	-55,662	-0,338	-0,106
82,495	5,584	-0,259	-0,134
83,509	101,876	-0,233	-0,191
84,524	-113,174	-0,350	-0,048
85,539	-22,320	-0,273	-0,116
86,553	16,073	-0,316	-0,174
87,568	-36,153	-0,246	-0,093
88,582	-10,188	-0,348	-0,162
89,597	-21,452	-0,314	-0,134
90,611	-31,061	-0,399	-0,157
91,626	245,279	-0,250	-0,295
92,641	63,986	-0,256	-0,180
93,655	-71,997	-0,296	-0,077
94,670	44,196	-0,209	-0,134
95,684	35,163	-0,315	-0,193
96,699	-64,692	-0,288	-0,081
97,714	-178,072	-0,370	0,006
98,728	134,253	-0,194	-0,176
99,743	-35,198	-0,180	-0,068
100,757	16,074	-0,212	-0,117
101,772	62,795	-0,401	-0,281
102,787	16,125	-0,354	-0,195
103,801	48,275	-0,343	-0,224
104,816	323,004	-0,205	-0,275
105,830	-85,845	-0,348	-0,075
106,845	81,883	-0,199	-0,151
107,860	-19,884	-0,257	-0,111
108,874	-114,408	-0,246	-0,033
109,889	90,967	-0,347	-0,272
110,903	61,169	-0,158	-0,110
111,918	43,735	-0,342	-0,219
112,933	41,697	-0,351	-0,222
113,947	59,622	-0,256	-0,177
114,962	114,340	-0,153	-0,131
115,976	15,640	-0,199	-0,109
116,991	-64,921	-0,277	-0,078
118,006	-17,037	-0,347	-0,153
119,020	27,484	-0,330	-0,194
120,035	-16,137	-0,284	-0,126
121,049	193,295	-0,155	-0,165
122,064	-171,792	-0,358	-0,008
123,079	32,005	-0,284	-0,171
124,093	30,813	-0,243	-0,145
125,108	-11,278	-0,239	-0,109
126,122	270,390	-0,280	-0,345
127,137	-132,936	-0,253	-0,022
128,151	285,898	-0,172	-0,217
129,166	-10,317	-0,176	-0,081
130,181	46,115	-0,274	-0,177
131,195	-137,165	-0,322	-0,025
132,210	-94,435	-0,333	-0,063
133,224	18,742	-0,371	-0,207
134,239	168,024	-0,260	-0,259
135,254	195,840	-0,129	-0,137
136,268	45,430	-0,247	-0,159
137,283	-26,251	-0,167	-0,068
138,297	114,539	-0,231	-0,197
139,312	-11,315	-0,330	-0,151
140,327	350,772	-0,224	-0,310
141,341	36,952	-0,348	-0,215
142,356	264,070	-0,150	-0,182
143,370	-76,291	-0,348	-0,085
144,385	-79,944	-0,188	-0,044
145,400	-0,593	-0,253	-0,125
146,414	64,031	-0,309	-0,216
147,429	-11,505	-0,279	-0,128
148,443	-86,691	-0,203	0,043
149,458	36,752	-0,219	-0,135
150,473	573,067	-0,076	-0,130
151,487	-57,290	-0,323	-0,098
152,502	251,391	-0,201	-0,239
153,516	-48,567	-0,349	-0,116
154,531	149,949	-0,283	-0,268
155,546	129,173	-0,255	-0,227
156,560	513,707	-0,119	-0,194
157,575	103,721	-0,325	-0,266
158,589	266,021	-0,255	-0,311
159,604	36,975	-0,187	-0,115
160,619	202,252	-0,237	-0,255
161,633	399,702	-0,234	-0,343
162,648	396,316	-0,240	-0,350
163,662	61,014	-0,161	-0,111
164,677	-54,774	-0,142	-0,044
165,692	61,147	-0,159	-0,110
166,706	-19,651	-0,324	-0,139
167,721	423,914	-0,151	-0,227
168,735	225,695	-0,173	-0,195
169,750	263,886	-0,137	-0,167
170,764	46,143	-0,094	-0,061
171,779	-72,756	-0,247	-0,063
172,794	40,057	-0,218	-0,136
173,808	194,747	-0,219	-0,232
174,823	487,817	-0,129	-0,205
175,837	347,694	-0,142	-0,195
176,852	132,610	-0,245	-0,220
177,867	56,204	-0,251	-0,170
178,881	-89,180	-0,197	-0,040
179,896	-200,000	-0,033	-0,166
180,910	242,784	-0,257	-0,301
181,925	130,451	-0,224	-0,200
182,940	182,704	-0,162	-0,167
183,954	73,215	-0,221	-0,161
184,969	800,000	-0,090	-0,199
185,983	-14,870	-0,189	0,084
186,998	21,238	-0,183	-0,103
188,013	-48,801	-0,264	-0,088
189,027	44,559	-0,222	-0,142
190,042	36,272	-0,263	-0,161
191,056	92,697	-0,382	-0,300
192,071	-200,000	0,006	-0,104
193,086	71,447	-0,288	-0,207
194,100	-102,350	-0,115	0,019
195,115	-22,190	-0,205	-0,086
196,129	-40,470	-0,241	-0,087
197,144	-36,870	-0,284	-0,105
198,159	32,199	-0,325	-0,194
199,173	800,000	-0,085	-0,240
200,188	429,882	-0,149	-0,225
201,202	-0,600	-0,199	-0,098
202,217	294,659	-0,186	-0,237
203,232	144,820	-0,172	-0,159
204,246	13,024	-0,154	-0,083
205,261	196,854	-0,140	-0,149
206,275	183,459	-0,210	-0,215
207,290	800,000	-0,073	-0,188
208,304	111,453	-0,126	-0,106
209,319	163,994	-0,178	-0,174
210,334	-166,134	-0,280	-0,008
211,348	352,882	-0,121	-0,167
212,363	32,788	-0,266	-0,159
213,377	360,590	-0,123	-0,171
214,392	-193,844	-0,148	-0,001
215,407	-45,663	-0,285	-0,097
216,421	-45,153	-0,270	-0,092
217,436	73,615	-0,164	-0,119
218,450	-5,350	-0,265	-0,126
219,465	441,882	-0,134	-0,204
220,480	58,922	-0,286	-0,194
221,494	13,611	-0,251	-0,135
222,509	111,642	-0,158	-0,132
223,523	6,166	-0,255	-0,131
224,538	-14,155	-0,232	-0,103
225,553	129,900	-0,085	-0,076
226,567	-30,091	-0,181	-0,071
227,582	75,117	-0,187	-0,137
228,596	-65,536	-0,209	-0,058
229,611	73,887	-0,111	-0,080
230,626	-13,247	-0,160	-0,072
231,640	-85,555	-0,234	-0,050
232,655	668,848	-0,105	-0,189
233,669	528,658	-0,149	-0,244
234,684	-2,678	-0,227	-0,110
235,699	-105,393	-0,129	-0,020
236,713	-89,998	-0,123	-0,025
237,728	-200,000	-0,033	-0,125
238,742	419,650	-0,143	-0,212
239,757	77,657	-0,184	-0,135
240,772	187,448	-0,201	-0,207
241,786	9,825	-0,256	-0,134
242,801	800,000	-0,091	-0,223
243,815	31,423	-0,233	-0,138
244,830	800,000	-0,036	0,107
245,844	-82,516	-0,143	-0,032
246,859	732,331	-0,115	-0,213
247,874	-49,874	-0,349	-0,114
248,888	-200,000	-0,017	-0,176
249,903	112,038	-0,098	-0,082
250,917	-200,000	-0,064	-0,228
251,932	-200,000	0,008	-0,123
252,947	-8,098	-0,185	-0,086
253,961	323,032	-0,164	-0,217
254,976	559,746	-0,125	-0,209
255,990	-16,234	-0,177	-0,077
257,005	23,635	-0,281	-0,160
258,020	-200,000	-0,012	-0,054
259,034	-200,000	0,001	-0,178
260,049	635,569	-0,122	-0,215
261,063	-29,774	-0,192	-0,075
262,078	291,982	-0,140	-0,177
263,093	330,159	-0,189	-0,252
264,107	90,805	-0,281	-0,217
265,122	78,668	-0,151	-0,111
266,136	14,378	-0,059	-0,032
267,151	46,603	-0,170	-0,109
268,166	272,177	-0,093	-0,113
269,180	28,535	-0,130	-0,075
270,195	130,787	-0,233	-0,207
271,209	60,209	-0,153	-0,104
272,224	120,957	-0,120	-0,103
273,239	12,600	-0,250	-0,133
274,253	-60,650	-0,217	-0,063
275,268	120,574	-0,178	-0,153
276,282	136,256	-0,103	-0,092
277,297	-147,196	-0,202	0,012
278,312	274,814	-0,135	-0,166
279,326	70,789	-0,126	-0,090
280,341	38,250	-0,151	0,093
281,355	800,000	-0,049	-0,143
282,370	777,041	-0,047	-0,089
283,384	-149,444	-0,217	0,012
284,399	-57,766	-0,214	-0,064
285,414	-200,000	-0,069	-0,221
286,428	-91,167	-0,153	-0,030
287,443	140,553	-0,142	0,130
288,457	263,551	-0,164	-0,197
289,472	-20,552	-0,166	-0,070
290,487	203,876	-0,132	-0,141
291,501	312,684	-0,144	-0,187
292,516	222,871	-0,079	-0,088
293,530	800,000	-0,081	-0,194
294,545	423,503	-0,061	-0,090
295,560	273,787	-0,093	-0,114
296,574	-27,849	-0,126	-0,050
297,589	-136,574	-0,174	-0,014
298,603	507,005	-0,099	-0,158
299,618	43,450	-0,171	-0,107
300,633	800,000	-0,045	-0,094
301,647	-200,000	0,007	-0,205
302,662	-32,020	-0,200	-0,077
303,676	-200,000	0,017	-0,176
304,691	510,497	-0,114	-0,183
305,706	-23,628	-0,110	-0,045
306,720	-200,000	-0,076	-0,250
307,735	54,492	-0,157	-0,104
308,749	-80,609	-0,229	-0,052
309,764	-36,547	-0,089	-0,033
310,779	-19,771	-0,200	-0,085
311,793	193,473	-0,144	-0,150
312,808	29,286	-0,261	-0,152
313,822	79,728	-0,131	-0,096
314,837	-7,990	-0,133	-0,061
315,852	57,373	-0,099	-0,067
316,866	-200,000	-0,021	-0,097
317,881	-86,877	-0,231	-0,048
318,895	-82,149	-0,119	-0,026
319,910	178,984	-0,119	-0,120
320,925	185,380	-0,195	-0,199
321,939	-36,331	-0,219	-0,081
322,954	-200,000	0,006	-0,104
323,968	253,688	-0,135	-0,159
324,983	33,682	-0,066	-0,039
325,997	800,000	-0,075	-0,145
327,012	-200,000	-0,064	-0,212
328,027	-31,902	-0,208	-0,080
329,041	-82,043	-0,071	-0,016
330,056	-132,716	-0,017	-0,001
331,070	-10,595	-0,037	-0,017
332,085	417,873	-0,069	-0,101
333,100	-83,390	-0,191	-0,042
334,114	91,993	-0,244	-0,189
335,129	-200,000	-0,020	-0,149
336,143	320,195	-0,119	-0,155
337,158	85,598	-0,150	-0,113
338,173	-73,321	-0,085	-0,021
339,187	7,980	-0,098	-0,050
340,202	-200,000	-0,010	-0,092
341,216	114,751	-0,119	-0,100
342,231	756,636	-0,154	-0,287
343,246	62,604	-0,159	-0,109
344,260	56,235	-0,072	-0,048
345,275	190,423	-0,027	0,028
346,289	-168,466	-0,045	-0,001
347,304	-200,000	-0,030	-0,142
348,319	800,000	-0,079	-0,221
349,333	381,619	-0,200	-0,282
350,348	145,442	-0,115	-0,106
351,362	20,783	-0,138	-0,076
352,377	-161,844	-0,134	0,005
353,392	89,513	-0,026	-0,020
354,406	-111,079	-0,307	-0,043
355,421	208,294	1313,081	1408,347
356,435	160,256	1473,611	1408,804
