DTS Sentinel unit serial number:	SN410029Multiplexer serial number:	ORYXHardware model number:	OX2-SRSoftware version number:	ORYX F/W v4,00 Oryx Data Collector v3.7.2.0data status	okinstallation	B3 Nyhavnadifferential loss correction	single-endedforward channel	channel 1reverse channel	N/Adate	2023/11/29time	23:47:30forward acquisition time	300,00reverse acquisition time	0,00gamma	499,1914k internal	0,3210k external	0,3210temperature offset calibration	1,0000default loss term (dB/km)	0,3820temperature slope calibration	1,0000multiplexer offset coefficient	1,0000multiplexer slope coefficient	1,0000fibre end	0,00T internal ref (°C)	10,89T ext. ref 1 (°C)	-4,18T ext. ref 2 (°C)	-4,28length (m)	temperature (°C)	Stokes	anti-Stokes-744,400	254,145	-0,264	-0,328
-743,385	-200,000	-0,017	0,226
-742,371	-200,000	-0,026	-0,206
-741,356	800,000	-0,094	0,273
-740,342	259,743	-0,135	-0,169
-739,327	-200,000	-0,025	0,289
-738,312	161,733	-0,263	-0,268
-737,298	-200,000	0,019	0,346
-736,283	334,676	-0,185	-0,260
-735,269	-200,000	0,004	0,358
-734,254	191,530	-0,139	-0,152
-733,239	-43,694	-0,162	0,059
-732,225	-200,000	0,004	-0,067
-731,210	-46,679	0,125	-0,044
-730,196	661,088	-0,109	-0,205
-729,181	460,562	-0,050	-0,081
-728,167	800,000	-0,050	-0,124
-727,152	602,138	-0,042	0,076
-726,137	-200,000	0,034	-0,112
-725,123	-200,000	0,003	-0,052
-724,108	800,000	-0,036	-0,082
-723,094	-143,128	-0,116	-0,008
-722,079	231,790	0,077	0,092
-721,064	-200,000	0,003	0,034
-720,050	159,849	0,053	-0,054
-719,035	-28,106	-0,164	-0,068
-718,021	-73,994	0,157	-0,041
-717,006	-200,000	0,027	-0,103
-715,991	20,860	-0,184	-0,108
-714,977	-131,175	-0,084	0,008
-713,962	62,534	-0,034	-0,024
-712,948	53,547	-0,024	0,017
-711,933	496,258	0,015	0,024
-710,918	-61,715	0,109	0,033
-709,904	-75,106	-0,047	-0,012
-708,889	365,984	-0,050	-0,073
-707,875	-68,710	-0,188	0,052
-706,860	124,210	-0,067	0,061
-705,845	-34,971	0,103	-0,040
-704,831	565,456	-0,063	0,111
-703,816	-119,996	-0,066	0,008
-702,802	-61,235	-0,103	-0,031
-701,787	25,368	0,039	0,024
-700,772	26,966	-0,080	-0,049
-699,758	-12,008	-0,118	-0,056
-698,743	616,034	0,020	-0,036
-697,729	-200,000	-0,009	0,105
-696,714	43,737	-0,027	0,018
-695,699	800,000	-0,004	0,010
-694,685	-44,127	-0,101	0,036
-693,670	-23,928	-0,050	0,022
-692,656	-104,383	-0,069	0,012
-691,641	20,537	-0,133	0,077
-690,627	522,843	-0,053	0,090
-689,612	-200,000	-0,025	0,081
-688,597	-200,000	-0,019	-0,158
-687,583	-38,175	0,041	-0,016
-686,568	-42,453	-0,158	0,058
-685,554	-134,416	0,056	-0,005
-684,539	-66,793	0,068	0,019
-683,524	5,850	0,047	0,025
-682,510	531,855	-0,027	-0,047
-681,495	61,770	-0,083	-0,060
-680,481	-31,224	0,065	0,026
-679,466	-94,460	-0,120	-0,023
-678,451	1,657	-0,063	-0,033
-677,437	-84,205	0,049	0,011
-676,422	44,056	-0,116	0,077
-675,408	-50,139	-0,149	-0,051
-674,393	-200,000	-0,004	0,068
-673,378	-200,000	-0,014	-0,068
-672,364	-200,000	-0,009	-0,196
-671,349	-40,963	-0,119	-0,044
-670,335	192,462	-0,066	0,073
-669,320	218,399	-0,112	0,130
-668,305	-42,840	0,025	0,009
-667,291	147,249	0,066	-0,064
-666,276	330,146	0,024	-0,033
-665,262	0,727	-0,103	-0,053
-664,247	-43,777	-0,102	-0,037
-663,232	-200,000	0,004	0,033
-662,218	-3,752	-0,119	0,060
-661,203	4,798	-0,090	0,047
-660,189	36,282	-0,037	0,024
-659,174	-137,379	-0,117	-0,009
-658,159	261,087	0,091	-0,115
-657,145	-76,774	-0,031	0,008
-656,130	-120,302	-0,038	0,005
-655,116	-57,410	-0,029	0,009
-654,101	-200,000	0,035	0,118
-653,086	-125,055	-0,134	0,015
-652,072	-4,356	-0,068	-0,034
-651,057	7,868	0,067	0,036
-650,043	-200,000	-0,011	-0,044
-649,028	800,000	-0,045	0,104
-648,014	-200,000	0,000	0,011
-646,999	-63,263	-0,099	0,029
-645,984	-72,788	0,170	0,045
-644,970	100,593	-0,106	0,089
-643,955	197,407	0,035	-0,039
-642,941	209,501	-0,065	-0,074
-641,926	800,000	-0,045	-0,108
-640,911	-200,000	0,003	-0,051
-639,897	417,246	0,059	0,092
-638,882	-4,457	-0,080	0,040
-637,868	-54,268	-0,109	-0,035
-636,853	29,014	-0,085	-0,052
-635,838	800,000	-0,054	-0,126
-634,824	-58,138	-0,146	-0,046
-633,809	-173,189	-0,049	0,001
-632,795	800,000	-0,031	0,074
-631,780	23,298	0,110	-0,065
-630,765	-200,000	-0,023	0,093
-629,751	-95,687	-0,066	0,013
-628,736	-200,000	0,012	-0,051
-627,722	-86,162	0,125	0,028
-626,707	307,045	0,097	-0,130
-625,692	800,000	0,015	0,046
-624,678	416,771	-0,026	-0,041
-623,663	62,358	0,103	-0,074
-622,649	85,197	-0,014	-0,011
-621,634	136,364	-0,072	-0,067
-620,619	800,000	0,049	-0,121
-619,605	-200,000	0,016	-0,167
-618,590	-158,431	-0,030	-0,001
-617,576	109,157	-0,071	-0,061
-616,561	-125,241	-0,158	0,017
-615,546	-89,750	-0,056	0,012
-614,532	123,587	-0,108	-0,098
-613,517	-200,000	0,004	-0,093
-612,503	-32,005	0,166	0,067
-611,488	685,384	0,027	0,051
-610,474	622,833	-0,058	-0,105
-609,459	75,624	-0,124	0,094
-608,444	-200,000	0,003	0,051
-607,430	-95,464	-0,018	-0,003
-606,415	2,789	-0,063	-0,033
-605,401	-38,053	-0,160	0,061
-604,386	800,000	-0,049	-0,099
-603,371	22,713	-0,067	-0,039
-602,357	-200,000	0,012	-0,048
-601,342	273,580	0,094	-0,121
-600,328	150,603	0,083	-0,081
-599,313	-47,660	-0,022	0,008
-598,298	-23,655	0,146	-0,063
-597,284	49,069	0,099	-0,067
-596,269	-200,000	-0,021	-0,102
-595,255	167,717	0,084	0,087
-594,240	-109,889	-0,015	0,002
-593,225	-142,102	-0,020	-0,001
-592,211	192,998	0,087	-0,095
-591,196	25,216	-0,083	0,049
-590,182	57,233	0,099	0,069
-589,167	-142,244	0,038	0,003
-588,152	-23,036	0,120	-0,052
-587,138	-72,322	-0,050	0,013
-586,123	-116,977	-0,095	-0,012
-585,109	-200,000	-0,047	-0,225
-584,094	358,926	0,048	0,070
-583,079	-200,000	0,002	0,044
-582,065	284,590	0,061	0,080
-581,050	-200,000	-0,021	0,074
-580,036	-200,000	-0,012	-0,107
-579,021	211,898	-0,103	0,117
-578,006	800,000	0,028	-0,057
-576,992	-114,899	0,038	0,005
-575,977	207,227	0,027	-0,030
-574,963	151,658	-0,036	0,035
-573,948	-136,266	-0,066	0,005
-572,934	336,642	0,019	0,027
-571,919	-29,333	0,044	0,018
-570,904	548,147	0,035	0,061
-569,890	-200,000	0,024	0,164
-568,875	-200,000	-0,019	-0,073
-567,861	57,900	0,041	0,029
-566,846	-27,957	0,030	0,013
-565,831	14,783	-0,039	-0,022
-564,817	-62,557	-0,062	-0,018
-563,802	-60,603	-0,034	-0,010
-562,788	-200,000	-0,007	0,024
-561,773	-200,000	0,014	-0,046
-560,758	-7,532	-0,015	0,007
-559,744	-96,503	0,015	-0,003
-558,729	157,466	0,022	0,022
-557,715	607,894	-0,041	-0,074
-556,700	800,000	-0,056	-0,128
-555,685	-26,827	0,072	0,030
-554,671	-200,000	-0,005	0,032
-553,656	-100,208	0,168	0,030
-552,642	800,000	0,048	0,143
-551,627	-200,000	0,012	-0,063
-550,612	6,179	-0,093	-0,050
-549,598	2,417	0,041	-0,021
-548,583	769,595	0,061	-0,121
-547,569	-21,536	-0,051	-0,022
-546,554	-200,000	0,000	0,048
-545,539	-68,258	0,093	0,026
-544,525	-83,192	0,075	0,017
-543,510	101,171	-0,082	-0,069
-542,496	92,021	-0,027	-0,022
-541,481	-73,989	-0,054	0,014
-540,466	634,235	0,028	-0,052
-539,452	-73,549	0,068	-0,018
-538,437	-200,000	-0,004	0,051
-537,423	546,312	0,030	-0,052
-536,408	1,431	-0,061	-0,031
-535,393	476,008	-0,055	-0,090
-534,379	-30,136	-0,077	0,032
-533,364	-23,756	0,076	0,033
-532,350	-131,000	-0,057	0,005
-531,335	1,052	0,130	-0,067
-530,321	-200,000	-0,017	0,079
-529,306	162,625	0,097	-0,098
-528,291	-26,234	-0,169	-0,071
-527,277	800,000	-0,016	-0,035
-526,262	-34,888	0,102	-0,040
-525,248	-53,734	0,113	-0,037
-524,233	-40,258	0,117	0,043
-523,218	109,175	0,031	0,027
-522,204	-108,545	0,077	0,012
-521,189	-199,777	-0,168	0,001
-520,175	636,922	0,057	0,104
-519,160	305,501	-0,036	-0,049
-518,145	-200,000	-0,000	-0,062
-517,131	285,672	0,033	0,043
-516,116	135,329	-0,037	-0,035
-515,102	-200,000	0,003	0,029
-514,087	54,513	-0,053	-0,037
-513,072	800,000	-0,038	-0,098
-512,058	-200,000	-0,027	-0,161
-511,043	254,832	-0,093	0,114
-510,029	130,905	0,065	0,060
-509,014	-200,000	-0,005	-0,027
-507,999	-200,000	0,011	0,115
-506,985	-128,270	-0,061	-0,006
-505,970	800,000	0,013	0,037
-504,956	147,669	-0,059	0,057
-503,941	-113,134	0,046	-0,006
-502,926	260,704	0,084	0,105
-501,912	463,406	-0,035	-0,057
-500,897	-95,161	-0,117	0,022
-499,883	119,218	0,068	0,060
-498,868	262,182	0,021	-0,027
-497,853	68,726	-0,083	-0,061
-496,839	80,094	-0,063	-0,049
-495,824	626,853	0,099	0,180
-494,810	-61,344	-0,125	-0,037
-493,795	-200,000	0,004	0,026
-492,781	-200,000	-0,039	-0,149
-491,766	-200,000	0,014	0,054
-490,751	-77,826	0,024	-0,006
-489,737	554,241	0,043	-0,074
-488,722	-200,000	0,045	0,172
-487,708	43,010	0,079	0,051
-486,693	-136,874	-0,094	0,008
-485,678	-200,000	0,008	0,053
-484,664	94,659	-0,099	0,081
-483,649	91,203	-0,042	0,033
-482,635	-200,000	-0,023	-0,083
-481,620	41,717	-0,079	0,051
-480,605	-200,000	-0,021	0,209
-479,591	-200,000	0,004	0,084
-478,576	29,586	-0,076	-0,046
-477,562	508,835	-0,041	-0,069
-476,547	-200,000	-0,025	-0,162
-475,532	-153,751	0,052	-0,003
-474,518	-6,075	-0,075	0,037
-473,503	13,609	-0,075	0,041
-472,489	597,255	0,027	0,048
-471,474	247,593	-0,054	-0,065
-470,459	93,163	0,053	-0,043
-469,445	-96,001	-0,109	0,021
-468,430	73,462	-0,028	-0,021
-467,416	-200,000	0,032	-0,145
-466,401	-71,686	0,037	-0,010
-465,386	-200,000	0,022	0,086
-464,372	-35,756	-0,053	-0,021
-463,357	-101,329	0,106	0,018
-462,343	-91,187	-0,231	-0,047
-461,328	-200,000	-0,012	-0,171
-460,313	-64,962	-0,050	0,014
-459,299	-75,066	0,098	-0,025
-458,284	-102,487	-0,051	0,009
-457,270	-98,910	0,062	0,011
-456,255	-137,935	0,053	0,004
-455,241	-200,000	-0,002	-0,143
-454,226	800,000	-0,048	-0,117
-453,211	5,446	-0,077	-0,041
-452,197	350,145	0,039	0,056
-451,182	-200,000	-0,047	0,213
-450,168	-200,000	-0,015	-0,100
-449,153	-200,000	-0,002	-0,094
-448,138	303,519	-0,048	0,064
-447,124	76,026	0,037	-0,028
-446,109	-200,000	-0,007	0,055
-445,095	800,000	-0,016	-0,044
-444,080	194,623	0,091	-0,099
-443,065	669,576	-0,066	-0,123
-442,051	413,938	-0,054	0,082
-441,036	211,221	-0,090	0,101
-440,022	113,484	-0,057	-0,050
-439,007	-4,046	0,107	0,053
-437,992	258,661	-0,028	0,035
-436,978	800,000	0,025	0,051
-435,963	-100,479	0,099	0,017
-434,949	-200,000	0,038	0,166
-433,934	115,625	-0,051	-0,045
-432,919	-16,341	-0,105	-0,047
-431,905	-183,289	-0,075	-0,001
-430,890	-14,039	0,079	0,037
-429,876	138,432	0,031	-0,029
-428,861	5,743	0,115	0,061
-427,846	-200,000	0,006	0,113
-426,832	-65,531	-0,088	-0,025
-425,817	-200,000	-0,009	0,052
-424,803	382,367	-0,068	0,101
-423,788	182,747	-0,046	0,049
-422,773	-51,048	0,051	0,017
-421,759	-200,000	0,010	0,114
-420,744	-200,000	-0,000	0,156
-419,730	-169,248	-0,061	-0,002
-418,715	-6,123	0,057	-0,028
-417,701	-200,000	0,011	-0,132
-416,686	72,330	0,150	-0,112
-415,671	-200,000	0,042	0,149
-414,657	-34,898	0,076	0,029
-413,642	800,000	-0,043	0,100
-412,628	-200,000	0,007	-0,065
-411,613	456,682	0,037	0,059
-410,598	572,248	-0,079	-0,139
-409,584	10,399	0,044	0,024
-408,569	-200,000	0,039	0,156
-407,555	-45,593	0,011	-0,004
-406,540	-43,895	-0,077	0,027
-405,525	800,000	0,041	-0,087
-404,511	113,972	-0,076	0,066
-403,496	800,000	0,066	-0,160
-402,482	42,632	0,045	0,029
-401,467	559,347	-0,050	0,086
-400,452	-131,174	0,078	0,007
-399,438	-25,742	0,023	-0,010
-398,423	-119,727	0,032	-0,004
-397,409	-200,000	0,008	-0,061
-396,394	800,000	-0,060	-0,178
-395,379	-70,409	-0,103	-0,028
-394,365	464,192	-0,057	-0,091
-393,350	-200,000	0,004	0,017
-392,336	125,150	0,107	0,097
-391,321	161,373	0,082	0,082
-390,306	-200,000	0,016	0,095
-389,292	717,631	0,028	-0,053
-388,277	-200,000	0,007	-0,156
-387,263	-52,733	0,094	-0,031
-386,248	-142,137	0,009	0,001
-385,233	-200,000	0,031	0,121
-384,219	372,654	-0,060	0,088
-383,204	-200,000	0,003	-0,020
-382,190	1,953	-0,096	-0,050
-381,175	144,458	-0,092	-0,088
-380,160	800,000	-0,024	0,060
-379,146	-122,665	0,139	0,016
-378,131	-200,000	0,034	0,159
-377,117	44,486	0,041	-0,027
-376,102	-200,000	0,010	0,037
-375,088	24,478	-0,033	0,019
-374,073	187,833	0,131	0,140
-373,058	323,546	0,057	0,078
-372,044	-80,784	0,052	-0,012
-371,029	19,008	0,062	-0,036
-370,015	-200,000	-0,018	0,077
-369,000	-200,000	-0,003	-0,088
-367,985	-200,000	0,005	-0,121
-366,971	-200,000	-0,005	0,093
-365,956	-200,000	0,008	-0,068
-364,942	800,000	0,090	0,216
-363,927	268,448	0,086	-0,108
-362,912	-145,546	-0,032	-0,002
-361,898	9,386	-0,034	-0,018
-360,883	-200,000	-0,008	-0,197
-359,869	800,000	0,048	-0,123
-358,854	-33,896	0,099	0,039
-357,839	-42,996	-0,139	0,050
-356,825	-26,852	0,044	-0,018
-355,810	-200,000	-0,006	-0,028
-354,796	-200,000	-0,019	0,069
-353,781	101,509	-0,019	-0,016
-352,766	520,063	-0,073	-0,123
-351,752	90,431	0,049	0,039
-350,737	-200,000	0,023	0,122
-349,723	-200,000	0,012	0,123
-348,708	-101,339	0,111	0,019
-347,693	-67,840	0,039	-0,011
-346,679	-200,000	0,003	-0,064
-345,664	-50,890	-0,094	-0,031
-344,650	-126,939	-0,067	0,007
-343,635	4,977	0,093	-0,049
-342,620	800,000	0,033	-0,092
-341,606	157,560	0,042	-0,042
-340,591	-109,417	0,091	-0,014
-339,577	800,000	-0,027	-0,077
-338,562	-200,000	0,005	-0,140
-337,548	-89,484	0,079	-0,016
-336,533	28,873	0,048	0,029
-335,518	-179,857	-0,049	0,001
-334,504	57,830	0,167	-0,116
-333,489	-176,926	-0,054	0,001
-332,475	-183,580	-0,086	-0,001
-331,460	466,620	0,006	0,010
-330,445	389,148	-0,043	-0,064
-329,431	800,000	0,058	0,131
-328,416	12,401	-0,105	0,058
-327,402	-154,214	0,016	-0,001
-326,387	-200,000	-0,007	0,024
-325,372	617,717	-0,036	0,065
-324,358	800,000	-0,024	-0,074
-323,343	-96,588	-0,063	-0,012
-322,329	105,893	0,071	0,060
-321,314	416,891	-0,074	-0,113
-320,299	147,436	-0,109	-0,104
-319,285	800,000	0,052	0,154
-318,270	-145,395	0,122	0,008
-317,256	800,000	-0,046	0,110
-316,241	288,985	0,078	-0,101
-315,226	-200,000	-0,003	-0,039
-314,212	30,120	0,027	0,016
-313,197	-200,000	0,031	0,100
-312,183	368,277	-0,053	-0,076
-311,168	-200,000	-0,008	-0,064
-310,153	-27,322	0,033	0,014
-309,139	800,000	0,030	0,089
-308,124	-62,268	0,017	0,005
-307,110	154,914	0,097	-0,095
-306,095	-47,613	0,106	0,036
-305,080	343,443	-0,057	0,080
-304,066	800,000	0,056	0,144
-303,051	-200,000	-0,007	-0,061
-302,037	435,488	0,023	-0,035
-301,022	729,845	-0,050	0,097
-300,008	-200,000	0,019	0,076
-298,993	800,000	0,036	0,086
-297,978	723,741	-0,058	0,110
-296,964	800,000	-0,028	0,071
-295,949	-200,000	0,019	-0,095
-294,935	800,000	0,013	0,029
-293,920	-200,000	0,004	0,141
-292,905	800,000	0,026	0,060
-291,891	-98,115	0,039	0,007
-290,876	194,031	0,148	0,160
-289,862	-200,000	0,040	0,128
-288,847	-119,352	-0,114	0,014
-287,832	-175,587	0,071	0,001
-286,818	-68,203	0,044	-0,012
-285,803	-200,000	0,000	0,090
-284,789	15,584	0,083	0,046
-283,774	-102,313	-0,105	0,018
-282,759	-200,000	-0,007	-0,072
-281,745	800,000	-0,028	-0,062
-280,730	800,000	0,015	-0,047
-279,716	-71,017	0,092	-0,024
-278,701	23,510	-0,049	0,028
-277,686	190,617	-0,083	0,089
-276,672	-188,724	0,116	-0,001
-275,657	-100,253	-0,106	0,019
-274,643	363,253	0,026	-0,037
-273,628	-84,076	-0,044	-0,010
-272,613	218,966	-0,011	-0,013
-271,599	800,000	0,049	0,153
-270,584	226,176	-0,054	-0,063
-269,570	-200,000	-0,003	0,019
-268,555	-200,000	0,003	-0,037
-267,540	-61,616	-0,027	0,008
-266,526	45,475	-0,139	-0,091
-265,511	181,485	0,047	0,049
-264,497	-200,000	-0,006	-0,019
-263,482	563,567	-0,040	0,070
-262,467	-200,000	-0,004	0,039
-261,453	-200,000	-0,017	0,102
-260,438	793,960	-0,014	-0,028
-259,424	70,903	-0,147	0,108
-258,409	62,821	0,086	-0,061
-257,395	-200,000	-0,002	0,087
-256,380	165,116	0,064	0,064
-255,365	800,000	0,028	-0,072
-254,351	-166,437	-0,088	0,003
-253,336	498,868	-0,026	0,043
-252,322	-20,323	-0,151	-0,066
-251,307	-200,000	0,031	0,110
-250,292	-39,535	0,082	-0,030
-249,278	800,000	0,056	0,176
-248,263	800,000	-0,018	0,054
-247,249	-200,000	-0,004	0,063
-246,234	54,909	-0,096	-0,066
-245,219	-49,770	-0,025	0,008
-244,205	-88,251	0,028	-0,006
-243,190	800,000	0,050	-0,108
-242,176	193,108	0,120	-0,129
-241,161	214,639	-0,012	0,013
-240,146	3,074	-0,063	0,033
-239,132	-102,636	0,133	0,022
-238,117	-200,000	-0,016	-0,075
-237,103	800,000	0,019	-0,053
-236,088	169,528	-0,049	-0,050
-235,073	636,405	-0,022	-0,040
-234,059	136,045	-0,023	-0,021
-233,044	131,915	-0,098	0,090
-232,030	332,301	-0,076	0,105
-231,015	184,676	0,016	-0,017
-230,000	-14,789	-0,127	0,058
-228,986	-119,482	0,180	0,022
-227,971	118,754	0,145	0,127
-226,957	-200,000	-0,008	-0,069
-225,942	321,464	0,052	-0,071
-224,927	800,000	-0,005	-0,013
-223,913	-124,573	-0,041	-0,004
-222,898	800,000	-0,071	-0,165
-221,884	-5,379	-0,108	-0,053
-220,869	800,000	-0,025	0,055
-219,855	-43,780	0,147	-0,052
-218,840	-27,290	0,079	-0,033
-217,825	33,730	0,043	0,026
-216,811	464,306	0,012	-0,019
-215,796	-144,109	0,082	0,005
-214,782	-169,963	0,046	0,001
-213,767	173,550	-0,027	-0,028
-212,752	-60,595	0,108	-0,032
-211,738	28,810	-0,055	0,033
-210,723	-29,301	0,047	-0,019
-209,709	429,647	0,047	-0,073
-208,694	282,859	-0,085	-0,108
-207,679	47,120	-0,105	-0,069
-206,665	-179,072	0,101	-0,002
-205,650	-175,757	-0,121	0,002
-204,636	-175,240	0,082	-0,002
-203,621	42,013	-0,046	0,030
-202,606	2,660	0,113	0,058
-201,592	-200,000	-0,016	-0,151
-200,577	104,533	0,043	0,036
-199,563	90,073	-0,091	-0,072
-198,548	324,189	-0,050	0,069
-197,533	-200,000	0,025	0,120
-196,519	737,184	0,025	-0,048
-195,504	-27,266	0,053	0,022
-194,490	17,933	-0,191	-0,108
-193,475	-200,000	0,020	-0,069
-192,460	-57,029	0,076	-0,024
-191,446	-76,556	0,123	0,031
-190,431	-176,040	-0,056	0,001
-189,417	-84,071	-0,054	-0,012
-188,402	-81,727	-0,152	-0,035
-187,387	800,000	0,036	-0,090
-186,373	-200,000	-0,031	-0,137
-185,358	-200,000	0,001	0,139
-184,344	-200,000	0,053	0,221
-183,329	669,076	-0,037	-0,068
-182,315	-200,000	0,008	0,132
-181,300	800,000	-0,034	0,093
-180,285	72,297	-0,079	0,058
-179,271	80,910	0,054	-0,041
-178,256	-200,000	-0,008	0,088
-177,242	170,578	0,067	0,068
-176,227	-79,046	0,067	0,016
-175,212	-200,000	0,020	0,175
-174,198	372,131	0,031	0,045
-173,183	-114,102	-0,049	-0,007
-172,169	-45,402	-0,009	-0,003
-171,154	-200,000	-0,006	-0,041
-170,139	118,476	0,081	-0,071
-169,125	136,192	0,030	0,027
-168,110	267,788	-0,099	0,123
-167,096	800,000	0,031	-0,083
-166,081	-82,533	-0,141	0,032
-165,066	196,597	-0,061	0,066
-164,052	-200,000	0,016	-0,096
-163,037	-102,430	0,032	-0,005
-162,023	-28,634	0,093	-0,038
-161,008	30,751	0,049	-0,030
-159,993	645,318	0,080	-0,145
-158,979	156,603	-0,167	-0,164
-157,964	-84,163	-0,156	-0,035
-156,950	-129,462	0,076	0,007
-155,935	-200,000	-0,005	0,033
-154,920	800,000	0,023	0,063
-153,906	-200,000	-0,026	0,089
-152,891	-200,000	-0,006	-0,101
-151,877	-83,537	-0,042	-0,010
-150,862	-200,000	-0,010	-0,085
-149,847	800,000	-0,052	-0,109
-148,833	112,453	0,053	0,046
-147,818	-200,000	0,029	0,122
-146,804	800,000	0,026	0,072
-145,789	800,000	-0,020	0,062
-144,775	-9,037	-0,105	-0,050
-143,760	694,685	0,042	-0,078
-142,745	368,776	-0,077	-0,111
-141,731	416,769	0,068	0,103
-140,716	250,677	0,046	0,056
-139,702	-200,000	-0,048	0,169
-138,687	-200,000	-0,027	-0,134
-137,672	126,609	-0,189	-0,170
-136,658	-153,452	-0,090	-0,004
-135,643	-200,000	-0,019	0,065
-134,629	142,645	0,064	0,060
-133,614	-1,760	0,042	-0,021
-132,599	800,000	-0,038	0,100
-131,585	-114,416	0,218	-0,029
-130,570	13,481	-0,116	-0,063
-129,556	184,030	-0,116	0,122
-128,541	289,934	-0,089	0,114
-127,526	3,431	-0,077	0,040
-126,512	800,000	0,020	-0,060
-125,497	-116,828	0,085	-0,011
-124,483	116,490	0,070	0,061
-123,468	-80,126	-0,114	-0,027
-122,453	-200,000	-0,036	-0,154
-121,439	155,906	-0,050	-0,049
-120,424	42,952	-0,170	0,109
-119,410	-50,678	0,057	0,019
-118,395	-200,000	-0,029	0,106
-117,380	-200,000	0,005	0,119
-116,366	-63,609	-0,035	0,010
-115,351	-16,502	0,177	0,079
-114,337	-200,000	0,002	-0,025
-113,322	-62,582	0,089	0,026
-112,307	-200,000	0,022	0,091
-111,293	800,000	-0,034	0,097
-110,278	-3,824	0,101	0,050
-109,264	-200,000	-0,017	0,055
-108,249	18,958	-0,030	-0,017
-107,234	75,297	-0,046	-0,034
-106,220	-73,872	0,107	-0,027
-105,205	593,349	-0,034	0,060
-104,191	685,284	-0,045	-0,083
-103,176	11,444	-0,050	0,027
-102,162	800,000	-0,015	-0,037
-101,147	-60,054	-0,114	-0,034
-100,132	29,933	-0,041	-0,025
-99,118	-200,000	-0,050	-0,266
-98,103	538,953	0,086	0,145
-97,089	-173,953	0,050	-0,001
-96,074	-30,990	0,112	0,045
-95,059	-200,000	-0,007	0,034
-94,045	800,000	0,011	0,033
-93,030	-200,000	0,006	-0,021
-92,016	-142,477	-0,052	-0,004
-91,001	-93,977	0,095	-0,018
-89,986	112,739	-0,050	0,043
-88,972	-33,974	-0,015	0,006
-87,957	800,000	0,022	-0,054
-86,943	93,126	-0,153	-0,122
-85,928	276,293	-0,035	-0,043
-84,913	-14,177	-0,121	0,055
-83,899	-45,249	0,069	0,024
-82,884	-53,610	0,077	0,025
-81,870	-200,000	-0,020	-0,100
-80,855	-200,000	-0,019	0,169
-79,840	-130,521	0,052	-0,005
-78,826	800,000	-0,014	0,033
-77,811	143,572	-0,062	-0,058
-76,797	-200,000	-0,006	-0,054
-75,782	-150,086	-0,134	-0,007
-74,767	-21,465	0,020	0,009
-73,753	-69,635	0,073	0,020
-72,738	-6,298	-0,115	0,055
-71,724	69,892	0,064	0,047
-70,709	-200,000	0,017	-0,112
-69,694	-200,000	0,010	-0,094
-68,680	519,367	0,006	0,010
-67,665	778,477	-0,015	0,030
-66,651	225,085	0,060	-0,069
-65,636	210,417	-0,081	0,090
-64,622	-8,050	0,161	0,077
-63,607	48,368	-0,087	-0,058
-62,592	-200,000	0,025	0,198
-61,578	392,324	-0,059	-0,086
-60,563	-130,913	-0,133	0,012
-59,549	74,697	-0,098	0,072
-58,534	32,802	-1,758	-1,072
-57,519	458,395	-1,270	-2,001
-56,505	-200,000	-0,416	-4,477
-55,490	331,588	1,056	1,441
-54,476	800,000	5,124	11,191
-53,461	-200,000	20,796	328,431
-52,446	800,000	756,737	2321,788
-51,432	550,968	1661,798	2826,438
-50,417	73,586	1664,132	1229,269
-49,403	18,782	1537,207	866,557
-48,388	12,709	1460,098	793,693
-47,373	18,984	1450,893	818,803
-46,359	15,796	1440,391	797,665
-45,344	11,001	1436,100	772,409
-44,330	10,945	1434,288	771,136
-43,315	10,902	1432,256	769,805
-42,300	10,952	1430,482	769,060
-41,286	10,976	1428,883	768,285
-40,271	10,895	1427,925	767,353
-39,257	10,900	1426,892	766,793
-38,242	10,969	1425,644	766,419
-37,227	10,960	1424,423	765,689
-36,213	10,982	1423,288	765,150
-35,198	10,988	1422,158	764,543
-34,184	10,948	1421,309	763,869
-33,169	10,922	1419,985	763,004
-32,154	11,003	1418,675	762,650
-31,140	11,004	1417,663	762,079
-30,125	11,055	1416,580	761,708
-29,111	11,048	1415,400	761,009
-28,096	10,994	1414,310	760,140
-27,082	10,932	1413,073	759,153
-26,067	10,901	1412,135	758,475
-25,052	10,949	1411,041	758,084
-24,038	10,941	1410,122	757,521
-23,023	10,892	1409,282	756,808
-22,009	10,918	1407,830	756,119
-20,994	10,892	1406,997	755,524
-19,979	10,880	1406,269	755,045
-18,965	10,905	1405,157	754,535
-17,950	10,832	1404,277	753,693
-16,936	10,872	1403,367	753,361
-15,921	10,806	1402,370	752,488
-14,906	10,835	1401,567	752,163
-13,892	10,832	1400,574	751,584
-12,877	10,810	1399,806	751,042
-11,863	10,858	1398,876	750,737
-10,848	10,794	1398,143	750,015
-9,833	10,753	1397,087	749,230
-8,819	10,743	1396,203	748,677
-7,804	10,723	1395,284	748,062
-6,790	10,755	1394,229	747,616
-5,775	10,725	1393,407	747,008
-4,760	10,733	1392,476	746,516
-3,746	10,745	1391,418	745,975
-2,731	10,736	1390,712	745,526
-1,717	10,740	1389,853	745,051
-0,702	10,754	1387,785	743,980
0,313	14,787	1301,792	716,359
1,327	31,229	693,428	419,011
2,342	48,453	120,349	79,392
3,356	1,385	16,426	8,303
4,371	8,865	3,348	1,776
5,386	-23,783	0,907	0,381
6,400	800,000	0,104	0,278
7,415	-109,899	-0,272	0,040
8,429	-28,375	-0,286	-0,116
9,444	254,728	-0,258	-0,312
10,459	-6,690	-0,212	-0,101
11,473	23,125	-0,345	-0,199
12,488	-46,152	-0,227	-0,078
13,502	200,944	-0,281	-0,305
14,517	-89,957	-0,443	-0,090
15,531	53,099	-0,333	-0,225
16,546	117,794	-0,294	-0,255
17,561	11,211	-0,396	-0,213
18,575	67,676	-0,255	-0,183
19,590	37,705	-0,252	-0,157
20,604	-53,755	-0,338	-0,108
21,619	19,792	-0,413	-0,234
22,634	89,400	-0,318	-0,250
23,648	80,364	-0,386	-0,292
24,663	114,385	-0,328	-0,281
25,677	125,782	-0,306	-0,272
26,692	-4,528	-0,315	-0,153
27,707	-0,420	-0,328	-0,163
28,721	279,882	-0,328	-0,413
29,736	40,000	-0,416	-0,262
30,750	229,318	-0,290	-0,333
31,765	238,147	-0,275	-0,322
32,780	1,049	-0,395	-0,199
33,794	8,870	-0,309	-0,163
34,809	378,192	-0,296	-0,428
35,823	-5,968	-0,395	-0,189
36,838	163,110	-0,307	-0,304
37,853	13,685	-0,558	-0,304
38,867	4,454	-0,452	-0,232
39,882	133,148	-0,270	-0,245
40,896	37,986	-0,350	-0,219
41,911	62,299	-0,177	-0,124
42,926	-21,935	-0,339	-0,144
43,940	-16,773	-0,438	-0,194
44,955	48,931	-0,459	-0,302
45,969	117,613	-0,444	-0,384
46,984	46,548	-0,407	-0,265
47,999	14,267	-0,372	-0,203
49,013	-36,984	-0,302	-0,113
50,028	94,638	-0,197	-0,157
51,042	114,991	-0,295	-0,253
52,057	160,518	-0,361	-0,354
53,071	78,754	-0,312	-0,234
54,086	187,022	-0,274	-0,287
55,101	200,918	-0,212	-0,229
56,115	91,746	-0,347	-0,274
57,130	69,253	-0,300	-0,216
58,144	-54,939	-0,433	-0,136
59,159	-84,947	-0,361	-0,079
60,174	1,484	-0,395	-0,199
61,188	10,800	-0,412	-0,220
62,203	108,476	-0,281	-0,236
63,217	7,085	-0,357	-0,186
64,232	487,519	-0,217	-0,349
65,247	294,400	-0,287	-0,369
66,261	148,682	-0,408	-0,387
67,276	38,893	-0,367	-0,230
68,290	50,865	-0,318	-0,211
69,305	196,884	-0,205	-0,220
70,320	14,247	-0,445	-0,243
71,334	-48,442	-0,294	-0,099
72,349	90,038	-0,314	-0,246
73,363	208,570	-0,368	-0,405
74,378	201,176	-0,229	-0,247
75,393	20,993	-0,318	-0,181
76,407	-66,894	-0,381	-0,105
77,422	0,182	-0,312	-0,155
78,436	-95,943	-0,321	-0,059
79,451	-7,738	-0,322	-0,152
80,466	319,051	-0,176	-0,234
81,480	-6,600	-0,376	-0,179
82,495	85,969	-0,134	-0,103
83,509	364,219	-0,220	-0,311
84,524	-55,832	-0,247	-0,077
85,539	-79,148	-0,338	-0,080
86,553	-40,785	-0,175	-0,063
87,568	-41,927	-0,309	-0,110
88,582	238,239	-0,237	-0,276
89,597	132,313	-0,204	-0,184
90,611	61,684	-0,193	-0,135
91,626	-4,959	-0,251	-0,121
92,641	4,266	-0,316	-0,162
93,655	29,272	-0,291	-0,173
94,670	159,395	-0,314	-0,306
95,684	-59,819	-0,440	-0,131
96,699	-73,531	-0,298	-0,075
97,714	99,463	-0,227	-0,184
98,728	141,808	-0,257	-0,238
99,743	37,702	-0,308	-0,191
100,757	69,642	-0,314	-0,226
101,772	10,519	-0,248	-0,132
102,787	24,397	-0,305	-0,176
103,801	423,550	-0,102	-0,154
104,816	-45,736	-0,402	-0,138
105,830	41,487	-0,172	-0,109
106,845	160,939	-0,148	-0,145
107,860	50,808	-0,198	-0,131
108,874	159,856	-0,220	-0,214
109,889	-52,184	-0,367	-0,118
110,903	254,357	-0,182	-0,219
111,918	-50,218	-0,297	-0,098
112,933	211,240	-0,188	-0,207
113,947	-24,078	-0,318	-0,132
114,962	90,193	-0,233	-0,182
115,976	12,030	-0,310	-0,166
116,991	225,792	-0,157	-0,178
118,006	408,753	-0,195	-0,290
119,020	-29,922	-0,276	-0,109
120,035	800,000	-0,108	-0,229
121,049	12,409	-0,143	-0,077
122,064	-2,433	-0,186	-0,091
123,079	-12,312	-0,351	-0,159
124,093	88,625	-0,234	-0,181
125,108	-6,186	-0,381	-0,181
126,122	-23,686	-0,366	-0,152
127,137	-86,419	-0,237	-0,050
128,151	105,133	-0,231	-0,190
129,166	-49,629	-0,298	0,098
130,181	-35,671	-0,439	-0,165
131,195	42,346	-0,259	-0,164
132,210	151,407	-0,182	-0,173
133,224	130,028	-0,370	-0,330
134,239	67,322	-0,187	-0,133
135,254	32,807	-0,247	-0,149
136,268	90,228	-0,190	-0,148
137,283	-47,920	-0,269	-0,090
138,297	299,214	-0,169	-0,217
139,312	14,147	-0,264	-0,143
140,327	-48,655	-0,300	-0,100
141,341	800,000	-0,145	-0,297
142,356	134,287	-0,235	-0,213
143,370	63,481	-0,242	-0,169
144,385	-3,794	-0,200	-0,096
145,400	53,898	-0,280	-0,187
146,414	91,675	-0,307	-0,241
147,429	-77,376	-0,279	-0,067
148,443	76,412	-0,262	-0,193
149,458	296,871	-0,183	-0,235
150,473	69,921	-0,218	-0,156
151,487	124,154	-0,325	-0,284
152,502	21,964	-0,380	-0,215
153,516	4,487	-0,306	-0,156
154,531	56,304	-0,284	-0,192
155,546	51,826	-0,254	-0,168
156,560	61,178	-0,186	-0,128
157,575	109,800	-0,219	-0,183
158,589	46,239	-0,221	-0,143
159,604	-116,666	-0,281	-0,036
160,619	111,272	-0,314	-0,263
161,633	36,627	-0,218	-0,134
162,648	116,547	-0,263	-0,225
163,662	27,679	-0,247	-0,144
164,677	102,834	-0,218	-0,177
165,692	224,880	-0,186	-0,209
166,706	259,012	-0,141	-0,170
167,721	171,967	-0,228	-0,228
168,735	38,306	-0,147	-0,091
169,750	56,114	-0,176	-0,119
170,764	16,951	-0,145	-0,080
171,779	30,439	-0,306	-0,181
172,794	-103,016	-0,165	-0,027
173,808	26,222	-0,286	-0,165
174,823	-65,825	-0,390	-0,108
175,837	94,695	-0,214	-0,169
176,852	290,747	-0,164	-0,208
177,867	31,692	-0,233	-0,139
178,881	12,710	-0,207	-0,111
179,896	-24,256	-0,195	-0,080
180,910	333,556	-0,177	-0,238
181,925	108,853	-0,337	-0,280
182,940	711,245	-0,104	-0,191
183,954	7,802	-0,211	-0,109
184,969	718,384	-0,116	-0,215
185,983	215,298	-0,179	-0,197
186,998	348,166	-0,120	-0,165
188,013	118,724	-0,154	-0,132
189,027	303,988	-0,220	-0,284
190,042	160,524	-0,305	-0,295
191,056	381,891	-0,117	-0,167
192,071	277,274	-0,190	-0,236
193,086	-90,383	-0,233	-0,046
194,100	-156,746	-0,173	-0,007
195,115	102,487	-0,222	-0,180
196,129	65,110	-0,181	-0,127
197,144	102,367	-0,236	-0,191
198,159	74,476	-0,222	-0,161
199,173	-34,625	-0,215	-0,081
200,188	-20,173	-0,087	0,037
201,202	34,059	-0,186	-0,112
202,217	800,000	-0,068	-0,191
203,232	41,501	-0,171	-0,107
204,246	-19,673	-0,242	-0,103
205,261	35,487	-0,229	-0,139
206,275	468,244	-0,172	-0,268
207,290	38,536	-0,145	-0,090
208,304	-43,428	-0,289	-0,101
209,319	189,590	-0,199	-0,207
210,334	285,688	-0,133	-0,166
211,348	-120,057	-0,211	-0,025
212,363	-125,733	-0,214	-0,022
213,377	-30,988	-0,264	-0,103
214,392	40,341	-0,130	-0,081
215,407	129,372	-0,106	-0,094
216,421	-132,212	-0,214	-0,019
217,436	-29,840	-0,205	-0,080
218,450	78,658	-0,247	-0,182
219,465	18,815	-0,245	-0,135
220,480	-87,300	-0,242	-0,050
221,494	-50,182	-0,246	-0,080
222,509	152,636	-0,131	-0,124
223,523	800,000	-0,119	-0,279
224,538	27,525	-0,184	-0,107
225,553	293,995	-0,216	-0,273
226,567	-32,538	-0,264	-0,101
227,582	-70,708	-0,098	-0,025
228,596	-17,790	-0,260	-0,113
229,611	-125,154	-0,188	-0,020
230,626	333,761	-0,219	-0,294
231,640	189,052	-0,211	-0,219
232,655	22,169	-0,221	-0,124
233,669	43,188	-0,203	-0,128
234,684	800,000	-0,162	-0,354
235,699	-92,317	-0,277	-0,053
236,713	41,401	-0,130	-0,081
237,728	-31,949	-0,191	-0,074
238,742	579,308	-0,087	-0,147
239,757	-66,398	-0,231	-0,063
240,772	480,704	-0,124	-0,196
241,786	337,310	-0,141	-0,190
242,801	800,000	-0,081	-0,179
243,815	758,420	-0,057	-0,107
244,830	358,831	-0,085	-0,117
245,844	-148,443	-0,179	-0,010
246,859	355,133	-0,121	-0,166
247,874	800,000	-0,091	-0,275
248,888	-76,555	-0,172	-0,041
249,903	800,000	-0,188	-0,364
250,917	184,484	-0,127	-0,130
251,932	-23,344	-0,214	-0,089
252,947	212,659	-0,096	-0,104
253,961	78,651	-0,204	-0,150
254,976	-93,034	-0,264	-0,050
255,990	589,959	-0,139	-0,237
257,005	107,234	-0,182	-0,149
258,020	227,919	-0,188	-0,211
259,034	156,640	-0,072	-0,069
260,049	291,265	-0,101	-0,127
261,063	-54,276	-0,265	-0,083
262,078	-80,593	-0,205	-0,047
263,093	116,540	-0,154	-0,130
264,107	80,837	-0,147	-0,109
265,122	51,298	-0,116	-0,075
266,136	56,069	-0,213	-0,142
267,151	90,990	-0,103	-0,079
268,166	88,848	-0,173	-0,133
269,180	800,000	-0,024	-0,073
270,195	-153,041	-0,146	0,007
271,209	38,827	-0,184	-0,113
272,224	-200,000	-0,164	0,000
273,239	-200,000	0,003	-0,060
274,253	-177,167	-0,177	-0,003
275,268	202,861	-0,158	-0,169
276,282	154,275	-0,235	-0,222
277,297	-16,232	-0,062	-0,027
278,312	32,151	-0,136	-0,081
279,326	149,499	-0,082	-0,076
280,341	61,664	-0,192	-0,131
281,355	36,119	-0,152	-0,092
282,370	67,217	-0,250	-0,175
283,384	800,000	-0,030	0,066
284,399	-38,041	-0,152	-0,055
285,414	-77,216	-0,199	0,047
286,428	-119,669	-0,166	-0,019
287,443	29,675	-0,144	-0,084
288,457	-62,780	-0,155	0,044
289,472	467,173	-0,078	-0,121
290,487	119,990	-0,232	-0,198
291,501	196,788	-0,158	-0,166
292,516	-156,598	-0,189	-0,008
293,530	146,825	-0,169	-0,156
294,545	-183,634	-0,080	0,001
295,560	-200,000	0,023	-0,071
296,574	800,000	-0,057	-0,127
297,589	-121,602	-0,122	0,014
298,603	234,850	-0,179	-0,204
299,618	800,000	-0,069	-0,138
300,633	800,000	-0,036	-0,072
301,647	-104,371	-0,141	-0,022
302,662	800,000	-0,058	-0,134
303,676	223,040	-0,140	-0,155
304,691	43,703	-0,161	-0,101
305,706	-114,769	-0,216	-0,028
306,720	-11,868	-0,141	-0,063
307,735	-78,087	-0,232	0,055
308,749	674,906	-0,058	-0,103
309,764	-116,405	-0,224	0,028
310,779	-170,377	-0,149	-0,004
311,793	-56,014	-0,103	-0,031
312,808	800,000	-0,075	-0,161
313,822	186,499	-0,078	-0,080
314,837	35,169	-0,070	0,042
315,852	470,244	-0,084	-0,129
316,866	404,070	-0,104	-0,150
317,881	117,074	0,087	-0,073
318,895	800,000	-0,123	-0,314
319,910	-74,200	-0,218	-0,054
320,925	679,324	-0,119	-0,213
321,939	-164,796	-0,054	-0,002
322,954	800,000	-0,024	-0,059
323,968	-50,067	-0,119	0,038
324,983	182,619	-0,132	-0,133
325,997	800,000	-0,026	-0,075
327,012	-73,128	-0,073	-0,018
328,027	308,854	-0,108	-0,139
329,041	199,705	-0,166	-0,175
330,056	-107,990	-0,152	0,022
331,070	40,048	-0,136	-0,083
332,085	228,217	-0,135	-0,151
333,100	-44,513	-0,122	-0,042
334,114	259,456	-0,123	-0,145
335,129	-20,575	-0,162	-0,068
336,143	205,310	-0,092	0,098
337,158	-119,056	-0,111	-0,013
338,173	800,000	0,013	-0,029
339,187	-68,619	-0,079	0,021
340,202	-44,648	-0,176	-0,060
341,216	-67,000	-0,032	-0,009
342,231	800,000	-0,131	-0,253
343,246	190,957	-0,101	-0,104
344,260	474,333	-0,090	-0,139
345,275	608,142	-0,026	0,045
346,289	-151,189	-0,214	0,011
347,304	-96,428	-0,154	-0,028
348,319	-146,514	-0,181	-0,011
349,333	-1,946	-0,137	-0,066
350,348	800,000	-0,078	-0,187
351,362	800,000	-0,084	0,165
352,377	-146,404	-0,230	-0,014
353,392	17,677	-0,125	-0,068
354,406	-81,684	-0,163	-0,036
355,421	207,732	1309,697	1400,538
356,435	159,816	1469,787	1401,026
