DTS Sentinel unit serial number:	SN410029Multiplexer serial number:	ORYXHardware model number:	OX2-SRSoftware version number:	ORYX F/W v4,00 Oryx Data Collector v3.7.2.0data status	okinstallation	B3 Nyhavnadifferential loss correction	single-endedforward channel	channel 1reverse channel	N/Adate	2023/12/03time	06:17:30forward acquisition time	300,00reverse acquisition time	0,00gamma	499,1914k internal	0,3201k external	0,3201temperature offset calibration	1,0000default loss term (dB/km)	0,3820temperature slope calibration	1,0000multiplexer offset coefficient	1,0000multiplexer slope coefficient	1,0000fibre end	0,00T internal ref (°C)	13,31T ext. ref 1 (°C)	-1,72T ext. ref 2 (°C)	-1,73length (m)	temperature (°C)	Stokes	anti-Stokes-744,400	-6,110	-0,342	-0,170
-743,385	-200,000	0,054	0,314
-742,371	472,086	-0,199	-0,328
-741,356	-200,000	-0,065	0,308
-740,342	-44,754	-0,283	-0,102
-739,327	-200,000	0,016	0,365
-738,312	-200,000	-0,020	-0,381
-737,298	-200,000	0,035	0,240
-736,283	391,252	-0,185	-0,280
-735,269	260,597	-0,131	0,165
-734,254	182,797	-0,205	-0,220
-733,239	-57,491	-0,197	0,062
-732,225	357,650	-0,149	-0,217
-731,210	-200,000	0,021	0,146
-730,196	800,000	-0,052	0,123
-729,181	-200,000	-0,006	-0,063
-728,167	-24,922	-0,147	-0,063
-727,152	-100,592	-0,138	-0,025
-726,137	51,799	-0,037	0,025
-725,123	392,057	-0,050	0,076
-724,108	-200,000	-0,040	-0,143
-723,094	-200,000	-0,083	0,000
-722,079	433,112	-0,086	-0,136
-721,064	-16,351	-0,081	-0,037
-720,050	-200,000	0,006	-0,019
-719,035	-200,000	-0,010	-0,126
-718,021	-48,982	-0,123	0,043
-717,006	-200,000	-0,008	-0,082
-715,991	-200,000	0,003	-0,049
-714,977	334,215	-0,001	0,002
-713,962	-200,000	-0,019	0,102
-712,948	249,156	-0,026	-0,032
-711,933	-200,000	-0,016	0,110
-710,918	419,322	0,053	-0,082
-709,904	490,544	-0,061	-0,102
-708,889	-20,966	-0,214	-0,095
-707,875	26,433	0,061	0,037
-706,860	203,275	-0,126	-0,142
-705,845	800,000	0,013	0,033
-704,831	-200,000	-0,003	0,074
-703,816	-120,230	-0,021	-0,003
-702,802	442,457	0,096	-0,154
-701,787	-200,000	-0,014	-0,070
-700,772	-200,000	-0,024	-0,110
-699,758	328,868	0,074	-0,103
-698,743	-200,000	0,018	-0,064
-697,729	461,712	0,077	-0,125
-696,714	-0,493	-0,077	0,039
-695,699	36,056	-0,135	-0,086
-694,685	412,233	-0,040	-0,061
-693,670	-141,233	-0,040	0,003
-692,656	59,976	-0,115	0,082
-691,641	596,574	-0,057	0,103
-690,627	800,000	-0,043	-0,087
-689,612	-200,000	-0,005	-0,083
-688,597	-79,185	0,023	0,006
-687,583	159,675	0,061	-0,061
-686,568	-90,076	-0,068	-0,014
-685,554	143,131	-0,090	-0,087
-684,539	-200,000	0,002	-0,039
-683,524	162,994	0,105	-0,107
-682,510	363,879	0,016	-0,023
-681,495	-21,184	-0,067	0,030
-680,481	16,686	-0,170	-0,098
-679,466	-200,000	-0,044	-0,195
-678,451	273,405	0,031	0,040
-677,437	800,000	-0,010	0,027
-676,422	104,101	0,112	0,095
-675,408	654,608	-0,099	0,185
-674,393	48,407	0,085	-0,057
-673,378	800,000	-0,032	-0,085
-672,364	-27,712	-0,084	-0,035
-671,349	377,114	0,064	0,095
-670,335	-83,947	0,085	0,020
-669,320	239,092	0,093	0,113
-668,305	781,330	0,056	-0,111
-667,291	9,329	-0,052	0,029
-666,276	-5,300	0,068	-0,034
-665,262	-95,055	0,112	-0,022
-664,247	175,767	-0,069	0,073
-663,232	-200,000	0,005	0,063
-662,218	56,146	-0,055	0,039
-661,203	491,829	0,036	0,060
-660,189	-200,000	-0,010	0,048
-659,174	-54,924	0,042	0,014
-658,159	-108,835	0,045	0,007
-657,145	-46,951	-0,090	0,032
-656,130	207,980	0,063	-0,072
-655,116	-200,000	-0,011	-0,036
-654,101	7,746	-0,014	-0,008
-653,086	123,066	-0,071	-0,064
-652,072	-154,355	-0,170	-0,008
-651,057	242,709	-0,034	-0,042
-650,043	-200,000	-0,034	-0,170
-649,028	225,535	-0,056	-0,066
-648,014	800,000	0,034	0,068
-646,999	-2,129	-0,057	0,029
-645,984	-78,984	0,058	-0,014
-644,970	800,000	0,071	0,144
-643,955	62,438	-0,074	-0,053
-642,941	-200,000	-0,014	-0,092
-641,926	-200,000	-0,004	0,056
-640,911	-105,348	-0,067	0,011
-639,897	-136,596	0,191	-0,016
-638,882	-121,488	-0,197	0,023
-637,868	-128,856	0,057	0,006
-636,853	-64,818	-0,048	-0,014
-635,838	-200,000	-0,004	-0,104
-634,824	31,062	-0,094	-0,058
-633,809	262,151	-0,031	0,039
-632,795	115,428	0,090	-0,079
-631,780	-149,881	0,100	0,006
-630,765	191,803	-0,053	-0,058
-629,751	14,324	-0,046	0,026
-628,736	-89,485	-0,089	-0,019
-627,722	84,794	0,057	-0,045
-626,707	-63,415	-0,179	-0,053
-625,692	-53,468	0,059	0,019
-624,678	265,669	0,071	-0,090
-623,663	10,763	0,092	-0,051
-622,649	346,572	0,048	-0,068
-621,634	70,788	-0,088	-0,066
-620,619	367,612	0,063	-0,093
-619,605	-92,018	0,098	0,020
-618,590	31,134	-0,104	-0,064
-617,576	789,550	-0,049	-0,099
-616,561	26,214	-0,107	-0,064
-615,546	-126,277	-0,092	0,010
-614,532	-90,903	-0,128	-0,026
-613,517	-200,000	-0,006	-0,097
-612,503	-200,000	-0,005	-0,107
-611,488	111,646	0,041	-0,036
-610,474	81,109	-0,065	-0,051
-609,459	-8,189	-0,043	0,021
-608,444	-200,000	-0,000	-0,004
-607,430	-200,000	-0,008	-0,058
-606,415	659,362	0,099	-0,184
-605,401	81,410	0,108	0,085
-604,386	-200,000	0,015	0,068
-603,371	200,118	0,132	0,147
-602,357	800,000	0,072	0,192
-601,342	800,000	-0,022	0,050
-600,328	81,454	0,069	0,054
-599,313	122,370	-0,173	-0,157
-598,298	-14,246	-0,045	0,021
-597,284	-200,000	-0,013	0,064
-596,269	-200,000	0,015	0,133
-595,255	-200,000	-0,017	0,060
-594,240	-200,000	0,022	-0,216
-593,225	120,473	0,067	-0,060
-592,211	-200,000	0,026	-0,092
-591,196	800,000	-0,009	-0,018
-590,182	-29,254	0,013	0,005
-589,167	302,104	-0,036	0,048
-588,152	-58,437	0,093	0,029
-587,138	800,000	0,043	-0,092
-586,123	-118,624	-0,106	-0,013
-585,109	214,678	-0,031	0,035
-584,094	-200,000	-0,005	0,038
-583,079	800,000	-0,016	-0,038
-582,065	-200,000	-0,019	0,172
-581,050	197,749	-0,058	0,064
-580,036	-200,000	-0,000	-0,003
-579,021	515,960	0,018	0,030
-578,006	-200,000	-0,006	-0,072
-576,992	122,581	0,106	-0,096
-575,977	274,540	0,085	-0,109
-574,963	39,740	0,046	-0,030
-573,948	800,000	0,039	0,119
-572,934	-57,119	0,062	0,020
-571,919	-62,733	-0,080	-0,024
-570,904	-200,000	-0,015	-0,058
-569,890	-200,000	0,028	-0,114
-568,875	-4,277	-0,058	-0,029
-567,861	800,000	-0,012	-0,035
-566,846	-21,954	-0,109	0,047
-565,831	-56,811	-0,083	0,026
-564,817	195,877	0,064	-0,070
-563,802	-145,318	-0,096	-0,006
-562,788	-200,000	0,011	0,037
-561,773	-25,140	0,108	0,046
-560,758	-110,147	-0,039	-0,006
-559,744	800,000	0,047	0,115
-558,729	99,930	0,057	0,048
-557,715	-45,531	-0,092	-0,033
-556,700	-109,863	-0,098	0,015
-555,685	-105,895	-0,105	-0,017
-554,671	-200,000	0,038	-0,180
-553,656	266,905	0,029	0,036
-552,642	800,000	-0,016	0,041
-551,627	-36,793	-0,066	0,026
-550,612	-174,211	-0,128	-0,003
-549,598	285,630	0,077	-0,101
-548,583	-200,000	-0,019	0,066
-547,569	51,639	0,116	-0,080
-546,554	208,302	-0,049	-0,055
-545,539	-36,958	0,085	0,033
-544,525	137,511	-0,129	0,122
-543,510	-200,000	-0,003	-0,094
-542,496	-200,000	-0,011	0,036
-541,481	-79,742	-0,192	0,046
-540,466	-7,973	-0,103	-0,050
-539,452	462,726	-0,081	0,130
-538,437	-200,000	0,006	0,148
-537,423	43,059	0,064	-0,042
-536,408	26,946	-0,121	-0,073
-535,393	274,489	-0,055	0,070
-534,379	800,000	0,013	0,029
-533,364	-200,000	-0,006	-0,069
-532,350	39,148	0,098	0,063
-531,335	-54,864	-0,098	0,032
-530,321	129,122	-0,038	0,035
-529,306	800,000	0,046	0,135
-528,291	14,421	-0,046	0,026
-527,277	770,568	-0,031	-0,061
-526,262	-197,610	0,066	0,000
-525,248	468,414	-0,006	0,009
-524,233	-88,802	0,104	0,022
-523,218	370,082	-0,064	0,093
-522,204	2,280	-0,143	-0,074
-521,189	195,554	-0,117	0,129
-520,175	-59,389	0,097	-0,030
-519,160	196,156	-0,053	-0,058
-518,145	-133,824	0,108	-0,010
-517,131	0,335	0,056	0,029
-516,116	-36,681	-0,103	-0,040
-515,102	-81,242	0,012	-0,003
-514,087	-200,000	-0,057	0,181
-513,072	-76,653	-0,159	0,040
-512,058	758,423	0,053	-0,104
-511,043	233,032	-0,043	-0,051
-510,029	226,718	0,081	0,094
-509,014	-68,367	0,056	-0,016
-507,999	560,949	0,042	0,073
-506,985	-125,994	-0,057	-0,006
-505,970	447,308	-0,005	0,008
-504,956	317,360	-0,029	0,040
-503,941	26,261	-0,082	0,050
-502,926	429,772	0,021	0,032
-501,912	-200,000	-0,002	-0,106
-500,897	-79,745	0,032	-0,008
-499,883	181,161	-0,066	-0,070
-498,868	-200,000	-0,013	-0,076
-497,853	800,000	-0,049	-0,108
-496,839	-123,862	-0,058	0,007
-495,824	687,471	0,051	0,097
-494,810	83,319	-0,042	0,033
-493,795	453,937	-0,055	0,088
-492,781	-142,994	0,051	-0,003
-491,766	800,000	-0,026	-0,083
-490,751	14,241	-0,066	-0,037
-489,737	800,000	-0,017	0,041
-488,722	800,000	0,067	-0,153
-487,708	-83,424	0,051	-0,012
-486,693	800,000	0,041	-0,128
-485,678	432,101	0,075	-0,118
-484,664	64,360	-0,083	0,060
-483,649	800,000	0,021	-0,060
-482,635	-125,019	-0,176	0,019
-481,620	-200,000	-0,001	-0,009
-480,605	326,588	0,061	0,085
-479,591	15,121	-0,090	-0,051
-478,576	452,642	0,017	-0,028
-477,562	565,828	-0,052	-0,091
-476,547	250,191	-0,057	-0,070
-475,532	-16,515	0,117	0,053
-474,518	-200,000	-0,019	0,105
-473,503	-34,958	0,127	-0,050
-472,489	109,895	0,017	-0,015
-471,474	-200,000	0,008	0,026
-470,459	-16,801	-0,063	0,028
-469,445	-8,386	-0,131	0,063
-468,430	45,799	0,172	-0,114
-467,416	265,483	0,012	0,016
-466,401	-200,000	0,001	0,028
-465,386	161,753	-0,063	-0,064
-464,372	69,874	0,125	0,093
-463,357	-169,443	-0,132	0,003
-462,343	25,197	-0,064	0,038
-461,328	800,000	0,040	0,093
-460,313	303,600	-0,049	-0,065
-459,299	-76,289	0,148	0,037
-458,284	48,208	0,070	-0,047
-457,270	-200,000	0,000	0,006
-456,255	-200,000	-0,016	0,065
-455,241	-88,373	-0,042	0,009
-454,226	148,168	-0,064	0,062
-453,211	800,000	0,011	-0,024
-452,197	267,343	0,035	-0,045
-451,182	-144,730	0,101	0,007
-450,168	-200,000	0,002	0,044
-449,153	97,358	-0,072	0,060
-448,138	-200,000	0,024	0,096
-447,124	-200,000	0,006	-0,172
-446,109	-200,000	-0,021	-0,097
-445,095	76,957	-0,058	0,044
-444,080	-117,267	0,040	-0,005
-443,065	-200,000	-0,005	0,155
-442,051	225,303	0,087	0,102
-441,036	61,442	-0,046	0,033
-440,022	-40,524	0,043	0,016
-439,007	14,948	0,050	0,028
-437,992	110,254	0,049	-0,043
-436,978	212,003	0,121	0,137
-435,963	-200,000	0,001	0,092
-434,949	-59,599	0,115	0,035
-433,934	-20,710	0,069	0,030
-432,919	800,000	0,013	-0,040
-431,905	53,057	0,094	0,064
-430,890	158,128	-0,074	0,074
-429,876	477,175	-0,048	-0,078
-428,861	-200,000	0,013	-0,087
-427,846	164,837	-0,025	-0,025
-426,832	36,338	-0,064	-0,040
-425,817	-124,161	-0,070	-0,008
-424,803	-55,491	0,139	0,044
-423,788	411,954	-0,032	0,048
-422,773	800,000	-0,018	0,046
-421,759	-93,431	0,059	-0,012
-420,744	-99,580	0,029	-0,005
-419,730	435,596	-0,037	0,058
-418,715	800,000	0,032	-0,083
-417,701	300,979	-0,048	-0,063
-416,686	21,014	-0,092	0,053
-415,671	-200,000	-0,000	-0,025
-414,657	0,985	-0,099	-0,051
-413,642	31,990	0,038	0,023
-412,628	800,000	0,047	0,125
-411,613	418,267	0,030	-0,047
-410,598	800,000	-0,062	-0,153
-409,584	-70,086	-0,044	0,012
-408,569	182,615	0,035	-0,037
-407,555	29,176	0,072	-0,044
-406,540	79,251	0,080	-0,061
-405,525	-200,000	0,025	0,096
-404,511	-200,000	-0,031	-0,148
-403,496	58,491	0,091	0,064
-402,482	-200,000	-0,057	-0,217
-401,467	800,000	-0,038	0,086
-400,452	517,712	0,058	0,097
-399,438	-200,000	-0,037	-0,144
-398,423	304,105	-0,049	-0,065
-397,409	-37,487	-0,063	-0,024
-396,394	399,773	0,054	0,082
-395,379	-200,000	-0,019	0,080
-394,365	-29,844	-0,099	-0,040
-393,350	-62,085	-0,033	0,010
-392,336	-71,277	0,096	0,026
-391,321	800,000	-0,029	-0,090
-390,306	-98,247	-0,018	0,003
-389,292	-59,401	0,018	-0,005
-388,277	78,837	0,061	-0,047
-387,263	800,000	-0,018	0,055
-386,248	73,247	-0,080	0,060
-385,233	-124,749	0,128	-0,014
-384,219	-13,534	-0,122	-0,057
-383,204	-200,000	-0,010	-0,071
-382,190	-200,000	-0,008	-0,047
-381,175	-37,890	-0,025	0,010
-380,160	76,474	0,035	-0,026
-379,146	800,000	0,047	0,129
-378,131	-200,000	-0,016	0,153
-377,117	474,375	0,052	0,085
-376,102	-0,861	0,050	-0,025
-375,088	-67,892	-0,129	-0,036
-374,073	-200,000	0,026	-0,105
-373,058	0,387	0,166	0,085
-372,044	155,062	-0,096	0,095
-371,029	-200,000	0,009	-0,087
-370,015	198,505	-0,064	0,070
-369,000	-200,000	0,042	-0,212
-367,985	-200,000	0,008	-0,084
-366,971	800,000	-0,053	-0,106
-365,956	240,770	0,108	-0,129
-364,942	800,000	0,018	0,056
-363,927	-200,000	-0,016	0,109
-362,912	27,265	-0,070	-0,042
-361,898	64,989	-0,077	0,056
-360,883	-125,586	0,118	-0,013
-359,869	-115,509	-0,181	-0,024
-358,854	-113,051	0,064	-0,009
-357,839	189,208	0,047	0,050
-356,825	-31,208	0,076	-0,031
-355,810	800,000	-0,028	0,089
-354,796	-200,000	0,003	-0,019
-353,781	-200,000	-0,008	-0,084
-352,766	-200,000	0,021	-0,070
-351,752	179,477	0,109	-0,115
-350,737	-200,000	0,042	-0,137
-349,723	61,677	0,022	-0,016
-348,708	-200,000	-0,016	-0,069
-347,693	70,135	0,059	0,044
-346,679	-32,126	0,053	-0,021
-345,664	3,259	-0,151	0,079
-344,650	-115,066	-0,035	-0,005
-343,635	36,946	0,013	0,008
-342,620	-200,000	0,006	0,027
-341,606	158,502	0,069	0,069
-340,591	590,184	0,061	-0,109
-339,577	7,088	-0,043	-0,023
-338,562	-200,000	-0,007	-0,068
-337,548	-200,000	0,003	-0,042
-336,533	-95,380	0,107	0,020
-335,518	342,143	0,041	-0,057
-334,504	324,763	-0,030	0,041
-333,489	165,309	0,019	-0,020
-332,475	-200,000	-0,012	0,085
-331,460	-200,000	-0,031	-0,183
-330,445	800,000	-0,034	-0,086
-329,431	63,832	0,135	0,097
-328,416	26,038	0,022	0,013
-327,402	67,050	0,128	0,093
-326,387	127,494	-0,035	0,031
-325,372	27,046	0,033	-0,019
-324,358	-103,203	-0,128	0,021
-323,343	800,000	0,047	-0,108
-322,329	152,264	-0,043	0,042
-321,314	292,906	0,092	0,120
-320,299	-200,000	0,002	0,123
-319,285	-143,431	-0,081	0,005
-318,270	-135,089	0,046	-0,004
-317,256	-145,219	-0,152	0,010
-316,241	-200,000	0,025	-0,122
-315,226	31,584	0,151	-0,093
-314,212	-200,000	-0,047	0,158
-313,197	-68,701	0,018	-0,005
-312,183	176,300	0,047	-0,049
-311,168	-21,718	-0,037	0,016
-310,153	-32,633	-0,189	-0,075
-309,139	-119,162	0,088	0,011
-308,124	0,827	-0,039	-0,020
-307,110	-14,080	0,142	-0,065
-306,095	-200,000	0,020	0,188
-305,080	-87,870	0,026	0,005
-304,066	-80,864	0,184	0,043
-303,051	502,355	-0,067	0,110
-302,037	-149,745	-0,098	-0,005
-301,022	800,000	0,015	-0,032
-300,008	743,958	-0,018	-0,035
-298,993	800,000	-0,032	0,067
-297,978	580,725	0,081	0,142
-296,964	156,732	-0,039	-0,039
-295,949	800,000	-0,044	-0,109
-294,935	-98,666	0,053	-0,010
-293,920	67,733	-0,079	0,057
-292,905	-154,913	-0,134	0,006
-291,891	-200,000	0,019	-0,115
-290,876	800,000	-0,074	0,169
-289,862	-200,000	0,004	0,085
-288,847	54,568	-0,082	-0,056
-287,832	31,195	-0,056	-0,034
-286,818	-49,008	-0,112	0,038
-285,803	-29,988	0,137	0,055
-284,789	-67,894	-0,059	0,016
-283,774	-200,000	0,024	0,083
-282,759	-112,480	-0,022	0,003
-281,745	-46,013	-0,083	-0,029
-280,730	-155,567	-0,166	-0,007
-279,716	241,673	0,050	-0,060
-278,701	-132,232	0,098	0,009
-277,686	386,891	0,021	-0,030
-276,672	730,369	0,072	-0,138
-275,657	-200,000	0,004	0,143
-274,643	-172,076	0,083	-0,002
-273,628	6,235	-0,059	-0,031
-272,613	115,432	-0,049	0,043
-271,599	800,000	-0,040	0,097
-270,584	-51,213	0,043	-0,014
-269,570	-200,000	0,005	0,017
-268,555	48,022	-0,046	0,030
-267,540	-138,892	-0,113	0,009
-266,526	-162,782	-0,061	-0,002
-265,511	-200,000	0,020	-0,085
-264,497	15,818	-0,020	0,011
-263,482	-110,629	0,101	-0,015
-262,467	-110,287	0,174	-0,026
-261,453	-200,000	0,046	-0,196
-260,438	-200,000	0,000	-0,046
-259,424	800,000	-0,024	0,055
-258,409	800,000	-0,003	0,010
-257,395	800,000	0,021	0,048
-256,380	-200,000	0,001	0,171
-255,365	-158,489	-0,053	0,002
-254,351	-95,871	-0,165	0,031
-253,336	-34,736	0,034	0,013
-252,322	197,358	-0,041	-0,045
-251,307	-21,372	-0,073	0,032
-250,292	-58,328	0,091	-0,028
-249,278	57,858	0,072	-0,050
-248,263	-54,383	0,201	-0,065
-247,249	-0,409	0,124	-0,062
-246,234	642,493	0,039	0,071
-245,219	-122,555	0,067	0,008
-244,205	544,815	-0,069	-0,119
-243,190	97,993	-0,067	-0,055
-242,176	800,000	0,028	0,085
-241,161	800,000	-0,038	0,102
-240,146	-103,313	-0,022	0,004
-239,132	-132,166	0,054	-0,005
-238,117	800,000	-0,026	-0,080
-237,103	800,000	-0,038	-0,092
-236,088	24,167	0,121	0,071
-235,073	-49,936	-0,148	0,050
-234,059	-115,461	0,173	0,023
-233,044	-200,000	-0,050	0,174
-232,030	-200,000	0,027	-0,125
-231,015	-200,000	0,020	-0,092
-230,000	800,000	-0,049	-0,137
-228,986	-200,000	-0,047	0,180
-227,971	103,948	0,125	0,105
-226,957	254,522	0,081	0,099
-225,942	-200,000	0,026	0,102
-224,927	142,772	0,010	-0,009
-223,913	-10,170	-0,042	-0,020
-222,898	-200,000	-0,003	-0,096
-221,884	-170,344	-0,245	0,006
-220,869	68,468	-0,014	-0,010
-219,855	-200,000	0,007	-0,051
-218,840	417,504	0,073	0,111
-217,825	800,000	-0,038	0,089
-216,811	99,268	-0,044	0,036
-215,796	272,813	0,065	-0,082
-214,782	393,194	0,056	-0,084
-213,767	800,000	-0,045	0,095
-212,752	27,881	0,082	-0,049
-211,738	122,961	-0,075	0,067
-210,723	800,000	0,021	-0,052
-209,709	-200,000	0,015	0,055
-208,694	-53,772	0,106	-0,034
-207,679	69,756	0,063	0,047
-206,665	-106,557	0,042	-0,007
-205,650	135,834	0,080	0,074
-204,636	524,236	0,032	0,054
-203,621	-75,325	-0,088	-0,022
-202,606	800,000	0,017	-0,046
-201,592	172,219	-0,016	-0,016
-200,577	-200,000	-0,017	-0,082
-199,563	800,000	-0,033	0,085
-198,548	-200,000	-0,009	0,112
-197,533	4,164	0,014	0,007
-196,519	8,074	-0,075	-0,040
-195,504	-200,000	-0,003	-0,057
-194,490	-147,144	-0,074	0,004
-193,475	144,801	-0,050	-0,048
-192,460	-20,193	0,096	-0,042
-191,446	72,261	0,061	0,045
-190,431	-113,946	-0,126	-0,017
-189,417	-200,000	-0,019	0,099
-188,402	-200,000	0,003	0,062
-187,387	68,832	-0,065	-0,048
-186,373	-27,447	0,177	0,073
-185,358	50,798	0,067	0,045
-184,344	-2,056	0,075	-0,038
-183,329	-141,524	-0,126	0,009
-182,315	800,000	0,057	0,125
-181,300	311,879	-0,053	-0,071
-180,285	-200,000	0,018	0,105
-179,271	-110,228	0,028	0,004
-178,256	-86,091	-0,117	0,026
-177,242	267,049	0,057	-0,071
-176,227	25,129	0,076	0,045
-175,212	146,224	0,102	0,098
-174,198	-98,334	0,018	-0,003
-173,183	136,889	-0,068	-0,063
-172,169	-57,406	0,016	0,005
-171,154	-56,516	-0,126	-0,039
-170,139	101,061	0,045	-0,037
-169,125	-200,000	-0,005	0,045
-168,110	800,000	0,061	0,122
-167,096	-127,699	-0,054	0,005
-166,081	800,000	-0,005	-0,012
-165,066	60,133	-0,103	-0,072
-164,052	-200,000	0,007	-0,129
-163,037	-183,784	0,097	0,001
-162,023	-10,534	0,144	0,068
-161,008	-200,000	-0,016	0,052
-159,993	-200,000	-0,002	-0,026
-158,979	-75,170	0,093	-0,023
-157,964	-174,993	0,118	-0,002
-156,950	194,766	0,111	-0,120
-155,935	-84,109	-0,028	-0,006
-154,920	800,000	-0,073	0,156
-153,906	438,999	0,090	0,140
-152,891	-95,352	0,019	0,004
-151,877	285,494	-0,052	-0,067
-150,862	-200,000	-0,092	-0,000
-149,847	-32,774	0,138	0,054
-148,833	75,733	-0,071	-0,054
-147,818	403,596	0,083	0,125
-146,804	-95,440	0,093	0,018
-145,789	-200,000	0,012	0,107
-144,775	-129,726	-0,097	0,009
-143,760	28,046	-0,171	-0,102
-142,745	800,000	-0,040	0,123
-141,731	-30,130	-0,112	0,045
-140,716	-41,438	0,062	-0,022
-139,702	227,902	-0,021	0,024
-138,687	-83,640	-0,138	-0,031
-137,672	-200,000	0,038	-0,130
-136,658	-20,122	-0,035	0,015
-135,643	-200,000	-0,033	-0,126
-134,629	-200,000	0,004	-0,119
-133,614	800,000	-0,030	-0,087
-132,599	171,611	-0,041	0,042
-131,585	-200,000	0,007	0,032
-130,570	800,000	-0,024	0,060
-129,556	-19,958	0,039	-0,017
-128,541	800,000	0,016	-0,036
-127,526	800,000	0,061	0,124
-126,512	-34,522	0,035	0,014
-125,497	-200,000	0,014	0,047
-124,483	-200,000	-0,020	-0,082
-123,468	-200,000	0,010	0,061
-122,453	800,000	-0,035	-0,102
-121,439	204,846	-0,110	-0,121
-120,424	800,000	-0,051	0,102
-119,410	-138,463	0,056	0,004
-118,395	-78,759	0,058	0,014
-117,380	800,000	-0,046	0,118
-116,366	-37,066	-0,144	0,054
-115,351	-200,000	-0,007	0,041
-114,337	-103,260	-0,096	0,016
-113,322	-48,130	0,134	-0,046
-112,307	11,368	-0,108	0,058
-111,293	75,823	0,083	0,062
-110,278	-200,000	-0,023	0,102
-109,264	110,353	0,075	0,064
-108,249	-102,617	-0,045	-0,007
-107,234	-200,000	0,012	-0,086
-106,220	-38,433	0,131	0,049
-105,205	40,764	-0,095	-0,060
-104,191	526,870	0,025	0,042
-103,176	68,140	-0,052	-0,038
-102,162	-6,406	0,125	0,060
-101,147	-200,000	0,026	0,164
-100,132	800,000	0,031	0,065
-99,118	-200,000	-0,043	-0,157
-98,103	800,000	-0,027	-0,081
-97,089	169,708	0,112	0,114
-96,074	-34,268	-0,059	-0,023
-95,059	246,093	-0,030	-0,036
-94,045	-108,563	-0,058	-0,009
-93,030	-65,192	0,059	-0,017
-92,016	-52,204	-0,092	-0,030
-91,001	-200,000	-0,006	-0,062
-89,986	43,039	0,046	-0,030
-88,972	-112,458	-0,021	0,003
-87,957	301,815	0,071	0,093
-86,943	-190,198	-0,166	0,001
-85,928	668,810	0,066	-0,122
-84,913	-200,000	0,007	-0,130
-83,899	-26,224	-0,050	0,021
-82,884	54,633	0,069	0,047
-81,870	102,002	-0,098	-0,081
-80,855	131,783	-0,036	-0,033
-79,840	68,023	0,180	0,130
-78,826	800,000	0,011	-0,031
-77,811	504,414	0,019	-0,032
-76,797	532,360	-0,090	0,152
-75,782	-200,000	-0,010	0,039
-74,767	-49,792	0,137	0,046
-73,753	-200,000	-0,003	0,108
-72,738	-14,312	-0,042	-0,019
-71,724	75,339	-0,038	-0,028
-70,709	140,666	-0,026	-0,025
-69,694	800,000	-0,038	0,111
-68,680	800,000	0,026	0,063
-67,665	-200,000	-0,021	0,081
-66,651	524,258	0,067	0,111
-65,636	-124,374	-0,056	0,006
-64,622	-200,000	-0,010	0,044
-63,607	257,307	0,016	-0,019
-62,592	-200,000	-0,002	0,185
-61,578	-200,000	-0,013	0,084
-60,563	12,601	0,168	0,091
-59,549	800,000	0,033	0,073
-58,534	-16,120	-1,653	-0,741
-57,519	471,370	-1,315	-2,103
-56,505	-200,000	-0,486	-4,661
-55,490	182,196	1,035	1,081
-54,476	800,000	5,036	11,428
-53,461	-200,000	19,280	320,531
-52,446	-200,000	740,968	2334,284
-51,432	573,014	1655,673	2868,274
-50,417	78,243	1670,966	1261,379
-49,403	21,308	1543,932	885,515
-48,388	15,146	1466,402	811,085
-47,373	17,935	1456,635	819,128
-46,359	16,663	1446,570	807,337
-45,344	13,451	1441,855	789,287
-44,330	13,341	1440,083	787,763
-43,315	13,317	1438,543	786,773
-42,300	13,350	1436,693	785,886
-41,286	13,391	1435,450	785,372
-40,271	13,366	1433,957	784,406
-39,257	13,298	1432,828	783,430
-38,242	13,413	1431,195	783,054
-37,227	13,369	1430,255	782,298
-36,213	13,431	1428,787	781,762
-35,198	13,420	1427,692	781,078
-34,184	13,419	1426,918	780,617
-33,169	13,392	1425,361	779,608
-32,154	13,438	1424,207	779,163
-31,140	13,445	1423,070	778,544
-30,125	13,388	1422,111	777,721
-29,111	13,409	1420,810	777,078
-28,096	13,379	1419,864	776,384
-27,082	13,367	1418,476	775,540
-26,067	13,343	1417,393	774,806
-25,052	13,344	1416,414	774,242
-24,038	13,317	1415,428	773,547
-23,023	13,346	1414,349	773,063
-22,009	13,334	1413,347	772,426
-20,994	13,293	1412,749	771,877
-19,979	13,298	1411,704	771,300
-18,965	13,298	1410,787	770,769
-17,950	13,277	1409,910	770,161
-16,936	13,275	1408,740	769,482
-15,921	13,238	1407,779	768,752
-14,906	13,266	1406,756	768,295
-13,892	13,293	1405,915	767,927
-12,877	13,218	1405,235	767,177
-11,863	13,261	1404,169	766,764
-10,848	13,237	1403,244	766,118
-9,833	13,188	1402,479	765,440
-8,819	13,175	1401,619	764,882
-7,804	13,163	1400,755	764,326
-6,790	13,166	1399,422	763,582
-5,775	13,156	1398,586	763,048
-4,760	13,145	1397,581	762,416
-3,746	13,171	1396,527	761,933
-2,731	13,144	1395,916	761,443
-1,717	13,156	1394,951	760,945
-0,702	13,134	1393,079	759,791
0,313	16,978	1309,882	732,216
1,327	33,226	703,476	430,772
2,342	51,371	123,154	82,598
3,356	0,816	16,690	8,427
4,371	14,947	3,160	1,745
5,386	5,456	0,600	0,312
6,400	-200,000	-0,005	0,389
7,415	65,040	-0,253	-0,180
8,429	-0,500	-0,369	-0,185
9,444	95,783	-0,209	-0,169
10,459	150,296	-0,220	-0,211
11,473	-51,967	-0,285	-0,093
12,488	118,029	-0,189	-0,164
13,502	-23,610	-0,347	-0,147
14,517	-73,124	-0,450	-0,116
15,531	-18,800	-0,436	-0,191
16,546	239,663	-0,275	-0,323
17,561	13,815	-0,367	-0,201
18,575	-147,105	-0,264	-0,016
19,590	195,542	-0,264	-0,284
20,604	74,501	-0,174	-0,129
21,619	96,694	-0,481	-0,389
22,634	130,796	-0,413	-0,374
23,648	64,309	-0,501	-0,356
24,663	-4,846	-0,457	-0,222
25,677	205,929	-0,301	-0,331
26,692	97,968	-0,332	-0,270
27,707	-14,235	-0,508	-0,230
28,721	274,938	-0,254	-0,318
29,736	76,232	-0,427	-0,318
30,750	51,064	-0,474	-0,317
31,765	468,983	-0,298	-0,474
32,780	262,885	-0,288	-0,353
33,794	-21,098	-0,357	-0,154
34,809	108,452	-0,286	-0,241
35,823	-35,868	-0,375	-0,142
36,838	29,758	-0,360	-0,216
37,853	195,042	-0,280	-0,300
38,867	-18,399	-0,394	-0,173
39,882	86,883	-0,318	-0,247
40,896	200,287	-0,299	-0,324
41,911	223,574	-0,213	-0,242
42,926	132,852	-0,460	-0,419
43,940	109,074	-0,297	-0,250
44,955	140,774	-0,298	-0,278
45,969	95,405	-0,455	-0,366
46,984	71,784	-0,396	-0,290
47,999	140,022	-0,278	-0,258
49,013	261,976	-0,228	-0,279
50,028	-35,698	-0,378	-0,144
51,042	-35,858	-0,434	-0,165
52,057	-69,426	-0,464	-0,124
53,071	417,228	-0,176	-0,266
54,086	-45,204	-0,370	-0,129
55,101	42,390	-0,384	-0,245
56,115	182,162	-0,244	-0,254
57,130	106,779	-0,286	-0,239
58,144	133,126	-0,312	-0,284
59,159	43,985	-0,383	-0,247
60,174	128,662	-0,282	-0,253
61,188	800,000	-0,196	-0,436
62,203	-12,637	-0,331	-0,151
63,217	-0,112	-0,333	-0,166
64,232	53,347	-0,305	-0,205
65,247	55,242	-0,331	-0,225
66,261	136,701	-0,234	-0,215
67,276	11,663	-0,509	-0,274
68,290	46,112	-0,286	-0,186
69,305	51,742	-0,264	-0,177
70,320	-57,841	-0,278	-0,085
71,334	660,541	-0,146	-0,265
72,349	76,101	-0,226	-0,168
73,363	96,850	-0,301	-0,243
74,378	92,617	-0,310	-0,246
75,393	82,598	-0,297	-0,226
76,407	-173,810	-0,272	-0,006
77,422	5,455	-0,286	-0,148
78,436	63,258	-0,265	-0,186
79,451	-115,581	-0,277	-0,036
80,466	274,383	-0,211	-0,263
81,480	126,480	-0,239	-0,213
82,495	30,143	-0,195	-0,117
83,509	99,784	-0,179	-0,146
84,524	-118,986	-0,236	-0,029
85,539	8,792	-0,175	-0,092
86,553	128,207	-0,188	-0,168
87,568	62,694	-0,270	-0,190
88,582	89,843	-0,351	-0,275
89,597	-13,459	-0,380	-0,172
90,611	53,734	-0,298	-0,201
91,626	-89,049	-0,219	-0,045
92,641	34,424	-0,335	-0,205
93,655	-88,863	-0,217	-0,045
94,670	-11,385	-0,305	-0,140
95,684	11,815	-0,300	-0,161
96,699	534,483	-0,154	-0,257
97,714	7,589	-0,304	-0,159
98,728	132,452	-0,309	-0,280
99,743	-134,778	-0,238	0,020
100,757	317,273	-0,082	-0,109
101,772	93,492	-0,315	-0,250
102,787	155,292	-0,337	-0,325
103,801	402,734	-0,290	-0,428
104,816	41,287	-0,283	-0,179
105,830	1,564	-0,253	-0,127
106,845	131,112	-0,118	-0,106
107,860	55,765	-0,281	-0,191
108,874	85,950	-0,285	-0,220
109,889	130,445	-0,348	-0,312
110,903	50,599	-0,389	-0,258
111,918	11,093	-0,281	-0,150
112,933	-122,756	-0,297	0,033
113,947	114,969	-0,210	-0,180
114,962	2,121	-0,284	-0,143
115,976	218,015	-0,248	-0,277
116,991	31,757	-0,247	-0,148
118,006	712,972	-0,154	-0,287
119,020	33,917	-0,342	-0,208
120,035	-29,563	-0,258	-0,103
121,049	-164,106	-0,168	-0,005
122,064	-64,628	-0,199	-0,056
123,079	16,672	-0,411	-0,227
124,093	-52,134	-0,378	-0,122
125,108	45,701	-0,207	-0,134
126,122	33,793	-0,279	-0,170
127,137	22,981	-0,182	-0,104
128,151	-101,505	-0,212	-0,036
129,166	98,166	-0,211	-0,170
130,181	-103,382	-0,266	0,043
131,195	35,312	-0,251	-0,154
132,210	99,819	-0,255	-0,206
133,224	136,392	-0,277	-0,253
134,239	72,216	-0,237	-0,172
135,254	221,711	-0,242	-0,272
136,268	126,874	-0,189	-0,168
137,283	94,899	-0,252	-0,201
138,297	-24,763	-0,350	-0,145
139,312	206,992	-0,272	-0,296
140,327	254,395	-0,246	-0,295
141,341	11,495	-0,286	-0,153
142,356	222,859	-0,199	-0,224
143,370	-165,456	-0,222	0,007
144,385	114,151	-0,213	-0,181
145,400	73,496	-0,365	-0,267
146,414	28,045	-0,300	-0,176
147,429	188,951	-0,237	-0,248
148,443	49,927	-0,160	-0,105
149,458	118,168	-0,237	-0,204
150,473	159,769	-0,184	-0,180
151,487	-14,006	-0,321	-0,144
152,502	-90,030	-0,199	-0,040
153,516	-48,713	-0,111	-0,037
154,531	69,084	-0,354	-0,254
155,546	125,683	-0,257	-0,226
156,560	-42,210	-0,209	-0,074
157,575	20,928	-0,209	-0,118
158,589	32,932	-0,282	-0,170
159,604	85,723	-0,241	-0,184
160,619	106,841	-0,165	-0,136
161,633	414,499	-0,138	-0,206
162,648	146,758	-0,270	-0,253
163,662	-93,703	-0,184	-0,035
164,677	36,058	-0,292	-0,179
165,692	800,000	-0,099	-0,200
166,706	-46,162	-0,236	-0,080
167,721	-18,102	-0,283	-0,123
168,735	25,429	-0,365	-0,211
169,750	2,501	-0,312	-0,157
170,764	19,598	-0,239	-0,134
171,779	718,930	-0,156	-0,290
172,794	127,059	-0,217	-0,192
173,808	88,158	-0,103	-0,080
174,823	57,245	-0,212	-0,144
175,837	75,998	-0,143	-0,105
176,852	157,388	-0,259	-0,250
177,867	268,289	-0,139	-0,170
178,881	367,067	-0,137	-0,193
179,896	120,042	-0,196	-0,169
180,910	87,653	-0,157	-0,121
181,925	800,000	-0,133	-0,363
182,940	-0,973	-0,397	-0,195
183,954	196,676	-0,269	-0,286
184,969	103,732	-0,204	-0,166
185,983	-200,000	-0,013	-0,047
186,998	44,882	-0,176	-0,113
188,013	244,605	-0,200	-0,234
189,027	-5,449	-0,189	-0,090
190,042	111,522	-0,235	-0,197
191,056	800,000	-0,154	-0,335
192,071	-1,577	-0,130	-0,063
193,086	-200,000	-0,021	-0,149
194,100	800,000	-0,063	-0,185
195,115	485,523	-0,192	-0,305
196,129	-0,458	-0,160	-0,079
197,144	-106,488	-0,274	-0,042
198,159	101,215	-0,234	-0,189
199,173	348,866	-0,116	-0,159
200,188	691,725	-0,204	-0,374
201,202	102,017	-0,209	-0,170
202,217	789,223	-0,059	-0,113
203,232	-200,000	-0,037	-0,201
204,246	103,095	-0,244	-0,199
205,261	445,771	-0,215	-0,330
206,275	-200,000	-0,085	-0,279
207,290	-21,766	-0,273	-0,115
208,304	20,167	-0,192	-0,107
209,319	800,000	-0,145	-0,304
210,334	36,518	-0,118	-0,072
211,348	311,357	-0,168	-0,220
212,363	800,000	-0,102	-0,235
213,377	195,881	-0,174	-0,184
214,392	430,325	-0,106	-0,159
215,407	-52,893	-0,157	-0,050
216,421	209,570	-0,213	-0,232
217,436	40,607	-0,293	-0,183
218,450	52,076	-0,279	-0,184
219,465	-51,132	-0,203	-0,066
220,480	-200,000	-0,081	-0,269
221,494	379,170	-0,139	-0,199
222,509	-102,329	-0,192	-0,032
223,523	-155,739	-0,118	0,005
224,538	184,782	-0,093	-0,096
225,553	-106,948	-0,277	-0,042
226,567	120,087	-0,191	-0,165
227,582	53,071	-0,191	-0,127
228,596	13,302	-0,117	-0,062
229,611	512,858	-0,111	-0,180
230,626	-10,360	-0,124	-0,057
231,640	-26,677	-0,200	-0,081
232,655	-5,386	-0,111	-0,053
233,669	-26,458	-0,257	-0,104
234,684	-200,000	-0,064	-0,297
235,699	-41,642	-0,241	-0,085
236,713	191,881	-0,089	-0,093
237,728	171,858	-0,139	-0,139
238,742	129,797	-0,113	-0,101
239,757	64,658	-0,171	-0,119
240,772	39,749	-0,247	-0,153
241,786	-71,108	-0,242	-0,062
242,801	383,303	-0,122	-0,174
243,815	-86,394	-0,147	-0,031
244,830	55,897	-0,191	-0,128
245,844	114,926	-0,315	-0,266
246,859	195,395	-0,214	-0,226
247,874	-26,118	-0,291	-0,118
248,888	178,481	-0,258	-0,261
249,903	429,233	-0,115	-0,172
250,917	92,241	-0,247	-0,193
251,932	-64,967	-0,168	-0,047
252,947	-46,109	-0,140	-0,047
253,961	110,243	-0,180	-0,149
254,976	404,970	-0,150	-0,219
255,990	5,675	-0,104	-0,053
257,005	472,820	-0,174	-0,272
258,020	165,513	-0,139	-0,136
259,034	-99,688	-0,148	0,025
260,049	-7,615	-0,178	-0,083
261,063	293,130	-0,200	-0,253
262,078	-62,193	-0,271	-0,078
263,093	235,954	-0,268	-0,307
264,107	12,522	-0,147	-0,078
265,122	-200,000	-0,006	-0,113
266,136	800,000	-0,089	-0,239
267,151	111,945	-0,146	-0,122
268,166	-53,375	-0,334	-0,105
269,180	127,598	-0,200	-0,176
270,195	800,000	-0,079	-0,178
271,209	185,790	-0,166	-0,171
272,224	21,642	-0,276	-0,155
273,239	-12,144	-0,157	-0,071
274,253	164,510	-0,065	-0,064
275,268	135,256	-0,209	-0,188
276,282	255,995	-0,123	-0,146
277,297	313,541	-0,210	-0,274
278,312	192,760	-0,212	-0,222
279,326	489,601	-0,049	-0,078
280,341	351,460	-0,080	-0,110
281,355	-121,778	-0,118	0,013
282,370	39,092	-0,093	0,057
283,384	205,958	-0,161	-0,173
284,399	-12,007	-0,165	-0,074
285,414	-200,000	-0,017	-0,256
286,428	-13,121	-0,228	-0,102
287,443	6,098	-0,249	-0,127
288,457	-2,972	-0,081	0,039
289,472	194,819	-0,177	-0,185
290,487	179,236	-0,141	-0,142
291,501	126,190	-0,194	-0,169
292,516	186,317	-0,258	-0,265
293,530	-45,945	-0,156	-0,053
294,545	-76,173	-0,181	0,044
295,560	114,008	-0,094	-0,079
296,574	84,033	-0,184	-0,139
297,589	202,255	-0,113	-0,120
298,603	39,905	-0,241	-0,149
299,618	466,201	-0,157	-0,244
300,633	-111,872	-0,213	-0,029
301,647	-200,000	-0,068	-0,238
302,662	-128,210	-0,069	0,007
303,676	-78,847	-0,211	-0,049
304,691	126,252	-0,204	-0,178
305,706	408,047	-0,166	-0,242
306,720	47,024	-0,176	-0,112
307,735	391,196	-0,099	-0,141
308,749	-2,150	-0,194	-0,094
309,764	-79,692	-0,158	0,036
310,779	120,381	-0,246	-0,210
311,793	137,442	-0,141	-0,127
312,808	352,690	-0,148	-0,203
313,822	120,576	-0,107	-0,091
314,837	-200,000	-0,041	-0,202
315,852	-200,000	-0,033	-0,126
316,866	47,191	-0,251	-0,161
317,881	118,085	-0,175	-0,148
318,895	800,000	-0,101	-0,198
319,910	-172,916	-0,112	0,002
320,925	-200,000	-0,058	-0,200
321,939	74,106	-0,135	-0,097
322,954	89,571	-0,128	-0,099
323,968	-134,496	-0,080	0,007
324,983	52,491	-0,190	-0,125
325,997	10,453	-0,192	-0,100
327,012	33,427	-0,226	-0,134
328,027	132,821	-0,111	-0,098
329,041	134,126	-0,194	-0,173
330,056	-200,000	-0,031	-0,192
331,070	-200,000	-0,031	-0,128
332,085	-88,801	-0,068	-0,014
333,100	-168,522	-0,052	-0,001
334,114	434,543	-0,123	-0,185
335,129	329,251	-0,153	-0,203
336,143	381,752	-0,026	0,037
337,158	-12,954	-0,217	-0,096
338,173	102,386	-0,113	-0,090
339,187	78,780	-0,210	0,154
340,202	-104,344	-0,236	0,037
341,216	43,547	-0,167	-0,104
342,231	83,606	-0,293	-0,219
343,246	121,838	-0,184	-0,157
344,260	800,000	-0,074	-0,185
345,275	55,496	-0,159	-0,106
346,289	-200,000	-0,028	-0,122
347,304	-4,333	-0,060	-0,028
348,319	164,719	-0,151	-0,146
349,333	133,796	-0,149	-0,133
350,348	-200,000	-0,026	-0,098
351,362	-200,000	-0,029	-0,145
352,377	104,383	-0,175	-0,141
353,392	-2,336	-0,124	-0,059
354,406	-143,260	-0,204	0,013
355,421	209,650	1312,687	1413,210
356,435	161,358	1473,180	1413,695
