DTS Sentinel unit serial number:	SN410029Multiplexer serial number:	ORYXHardware model number:	OX2-SRSoftware version number:	ORYX F/W v4,00 Oryx Data Collector v3.7.2.0data status	okinstallation	B3 Nyhavnadifferential loss correction	single-endedforward channel	channel 1reverse channel	N/Adate	2023/12/02time	07:12:30forward acquisition time	300,00reverse acquisition time	0,00gamma	499,1914k internal	0,3194k external	0,3194temperature offset calibration	1,0000default loss term (dB/km)	0,3820temperature slope calibration	1,0000multiplexer offset coefficient	1,0000multiplexer slope coefficient	1,0000fibre end	0,00T internal ref (°C)	15,73T ext. ref 1 (°C)	0,51T ext. ref 2 (°C)	0,49length (m)	temperature (°C)	Stokes	anti-Stokes-744,400	800,000	-0,146	-0,339
-743,385	-200,000	0,010	0,302
-742,371	63,248	-0,368	-0,269
-741,356	-200,000	0,105	0,365
-740,342	41,417	-0,240	-0,158
-739,327	800,000	0,061	0,186
-738,312	159,830	-0,257	-0,261
-737,298	-200,000	-0,016	0,326
-736,283	323,317	-0,220	-0,307
-735,269	-200,000	0,010	0,396
-734,254	39,583	-0,241	-0,157
-733,239	-66,174	-0,116	0,034
-732,225	800,000	-0,061	-0,154
-731,210	90,333	0,059	0,048
-730,196	116,486	-0,133	-0,119
-729,181	17,529	0,209	0,121
-728,167	109,334	0,024	0,021
-727,152	779,836	0,002	0,004
-726,137	-174,297	-0,138	-0,003
-725,123	286,999	-0,082	-0,108
-724,108	-200,000	-0,014	-0,082
-723,094	108,665	-0,085	-0,074
-722,079	415,183	0,043	-0,067
-721,064	181,271	-0,055	0,059
-720,050	245,542	-0,034	0,042
-719,035	-112,492	-0,097	0,014
-718,021	800,000	-0,049	-0,118
-717,006	-32,150	-0,084	-0,034
-715,991	-47,736	-0,171	-0,060
-714,977	-200,000	-0,004	-0,205
-713,962	-200,000	-0,057	-0,000
-712,948	-200,000	0,034	0,164
-711,933	-200,000	0,012	0,095
-710,918	800,000	0,031	0,085
-709,904	-43,692	0,069	0,025
-708,889	-200,000	-0,028	-0,194
-707,875	-184,401	-0,136	0,002
-706,860	-200,000	-0,052	0,222
-705,845	800,000	-0,014	-0,039
-704,831	191,273	-0,025	-0,028
-703,816	311,339	0,017	0,023
-702,802	800,000	0,014	0,038
-701,787	-94,346	-0,069	0,014
-700,772	226,605	0,030	-0,035
-699,758	-45,407	-0,033	-0,012
-698,743	83,343	-0,049	0,039
-697,729	-200,000	0,001	0,120
-696,714	-158,803	0,173	-0,007
-695,699	676,275	0,018	0,034
-694,685	115,658	-0,041	-0,037
-693,670	-200,000	0,035	-0,160
-692,656	280,921	0,050	0,066
-691,641	-114,973	0,099	0,014
-690,627	182,279	0,070	0,075
-689,612	12,045	0,114	0,064
-688,597	-138,857	0,078	0,006
-687,583	65,040	0,077	0,056
-686,568	27,430	0,107	-0,065
-685,554	-162,103	-0,061	-0,002
-684,539	-39,237	-0,042	-0,016
-683,524	-93,726	0,087	0,017
-682,510	-79,273	-0,053	0,013
-681,495	800,000	-0,037	0,100
-680,481	298,033	-0,043	-0,057
-679,466	-200,000	-0,020	0,065
-678,451	637,040	0,031	-0,058
-677,437	-68,584	0,038	-0,011
-676,422	-22,479	-0,170	-0,074
-675,408	108,846	0,020	0,018
-674,393	114,895	-0,086	0,076
-673,378	147,632	-0,110	-0,107
-672,364	-9,834	-0,131	-0,063
-671,349	-200,000	0,007	0,121
-670,335	306,122	0,054	-0,074
-669,320	-62,734	0,038	-0,011
-668,305	-163,083	-0,133	0,005
-667,291	-81,287	-0,070	-0,017
-666,276	246,001	0,033	-0,040
-665,262	800,000	0,028	-0,079
-664,247	18,572	0,140	-0,081
-663,232	664,450	-0,056	-0,105
-662,218	-1,463	0,069	0,035
-661,203	-200,000	0,014	0,089
-660,189	489,964	-0,072	0,120
-659,174	196,048	-0,124	-0,137
-658,159	-93,853	-0,168	-0,033
-657,145	389,905	0,001	-0,002
-656,130	-200,000	-0,009	-0,065
-655,116	-137,977	-0,006	0,000
-654,101	186,000	-0,067	-0,073
-653,086	93,068	-0,006	0,005
-652,072	385,531	0,063	-0,094
-651,057	-101,885	-0,077	0,013
-650,043	-44,615	-0,060	-0,022
-649,028	47,769	0,063	-0,043
-648,014	439,517	-0,021	0,034
-646,999	77,412	0,119	0,092
-645,984	98,803	-0,126	0,105
-644,970	800,000	-0,032	-0,071
-643,955	-200,000	-0,019	-0,127
-642,941	-200,000	-0,017	-0,076
-641,926	-200,000	0,028	-0,097
-640,911	526,858	0,006	0,010
-639,897	-200,000	0,018	0,067
-638,882	800,000	-0,035	0,089
-637,868	800,000	-0,035	0,091
-636,853	-200,000	-0,045	0,146
-635,838	800,000	-0,043	-0,093
-634,824	-200,000	-0,052	-0,241
-633,809	-97,879	-0,197	-0,037
-632,795	800,000	0,056	0,118
-631,780	-200,000	-0,020	0,201
-630,765	-200,000	0,019	0,114
-629,751	-27,136	-0,053	0,022
-628,736	-74,720	-0,045	-0,012
-627,722	800,000	0,036	0,097
-626,707	13,436	0,107	-0,060
-625,692	54,889	0,025	0,018
-624,678	-177,768	0,059	-0,001
-623,663	-200,000	-0,010	-0,050
-622,649	729,242	-0,013	-0,025
-621,634	-200,000	-0,024	-0,086
-620,619	-200,000	0,010	0,049
-619,605	-35,305	-0,082	-0,032
-618,590	520,097	-0,044	0,075
-617,576	20,186	-0,021	-0,012
-616,561	40,661	0,044	-0,029
-615,546	-31,616	-0,145	-0,059
-614,532	-8,920	-0,095	-0,046
-613,517	800,000	0,046	-0,119
-612,503	281,338	-0,096	0,125
-611,488	205,157	0,072	0,081
-610,474	-86,459	-0,088	-0,019
-609,459	375,593	0,066	0,097
-608,444	800,000	-0,037	-0,085
-607,430	-200,000	-0,000	-0,063
-606,415	-92,958	-0,177	-0,035
-605,401	-200,000	-0,040	-0,171
-604,386	10,418	0,111	-0,061
-603,371	800,000	0,065	0,135
-602,357	363,852	-0,090	0,132
-601,342	71,156	0,111	-0,084
-600,328	136,999	-0,073	-0,069
-599,313	-28,647	-0,053	0,022
-598,298	-200,000	-0,008	0,123
-597,284	-200,000	-0,028	-0,156
-596,269	-200,000	-0,034	-0,117
-595,255	1,849	0,010	-0,005
-594,240	-169,647	-0,099	0,003
-593,225	542,048	-0,009	0,015
-592,211	25,614	0,071	0,043
-591,196	-86,941	0,101	0,022
-590,182	172,074	0,090	0,094
-589,167	800,000	0,027	0,063
-588,152	187,632	-0,058	-0,063
-587,138	-200,000	-0,023	-0,091
-586,123	38,096	-0,142	-0,091
-585,109	-22,140	-0,101	-0,044
-584,094	58,495	-0,106	-0,075
-583,079	118,372	0,103	-0,092
-582,065	373,091	0,015	0,022
-581,050	-158,687	-0,081	0,003
-580,036	-8,484	-0,143	-0,070
-579,021	135,712	-0,055	0,052
-578,006	372,492	-0,033	-0,048
-576,992	-116,196	0,085	-0,011
-575,977	-200,000	-0,018	0,102
-574,963	-50,871	0,073	-0,025
-573,948	14,476	-0,178	-0,100
-572,934	800,000	0,036	-0,104
-571,919	482,708	-0,049	-0,081
-570,904	182,410	-0,096	-0,102
-569,890	-141,268	-0,179	-0,013
-568,875	-200,000	-0,019	-0,088
-567,861	-173,155	0,101	-0,002
-566,846	-141,431	-0,092	0,007
-565,831	312,466	0,024	-0,033
-564,817	-124,682	-0,135	0,015
-563,802	-112,731	-0,134	-0,019
-562,788	-81,928	-0,124	-0,029
-561,773	505,236	0,011	0,019
-560,758	-200,000	-0,005	0,070
-559,744	800,000	-0,015	-0,038
-558,729	476,882	0,043	0,071
-557,715	-200,000	0,011	-0,062
-556,700	-200,000	-0,015	-0,058
-555,685	282,371	-0,059	-0,077
-554,671	41,125	0,091	-0,060
-553,656	473,826	-0,058	-0,094
-552,642	-71,494	0,111	-0,030
-551,627	-200,000	-0,020	0,066
-550,612	54,066	-0,071	0,049
-549,598	213,501	-0,042	0,048
-548,583	602,213	0,037	0,066
-547,569	-144,591	0,066	-0,004
-546,554	-200,000	-0,006	-0,057
-545,539	-8,861	0,027	-0,013
-544,525	390,823	-0,105	0,158
-543,510	27,338	-0,053	-0,032
-542,496	800,000	-0,023	0,058
-541,481	402,967	-0,109	-0,167
-540,466	67,920	-0,061	-0,045
-539,452	800,000	0,039	-0,120
-538,437	116,279	0,094	0,084
-537,423	-200,000	0,002	0,088
-536,408	-200,000	-0,003	0,093
-535,393	333,236	0,027	-0,038
-534,379	-9,590	-0,032	0,015
-533,364	-0,825	-0,067	-0,034
-532,350	-33,379	0,011	-0,004
-531,335	269,458	0,043	0,054
-530,321	10,551	-0,082	0,045
-529,306	-64,543	-0,085	-0,025
-528,291	67,706	-0,033	0,025
-527,277	388,836	0,032	0,049
-526,262	-85,607	-0,065	0,015
-525,248	-41,579	0,232	0,086
-524,233	530,828	0,055	0,094
-523,218	-200,000	-0,020	0,139
-522,204	400,920	0,013	-0,020
-521,189	280,363	-0,033	0,043
-520,175	-200,000	-0,010	-0,086
-519,160	-200,000	-0,006	0,113
-518,145	528,859	0,063	0,107
-517,131	-63,584	-0,123	-0,036
-516,116	-200,000	-0,004	-0,045
-515,102	33,084	0,080	0,050
-514,087	-200,000	0,004	-0,132
-513,072	-61,853	-0,141	0,042
-512,058	197,039	0,022	-0,025
-511,043	51,266	0,137	-0,094
-510,029	-44,525	0,084	-0,030
-509,014	112,434	-0,027	-0,023
-507,999	-43,099	-0,081	0,029
-506,985	41,711	-0,109	0,071
-505,970	71,729	0,100	-0,075
-504,956	-69,428	-0,063	-0,017
-503,941	327,473	0,061	-0,085
-502,926	386,328	0,045	-0,067
-501,912	614,689	0,035	0,064
-500,897	-33,684	-0,123	0,049
-499,883	-200,000	-0,034	-0,146
-498,868	-106,375	0,082	0,013
-497,853	-0,999	0,075	-0,038
-496,839	-153,254	0,031	-0,002
-495,824	-200,000	-0,003	-0,038
-494,810	-30,443	0,126	0,051
-493,795	22,588	0,054	0,032
-492,781	800,000	-0,031	-0,070
-491,766	63,983	-0,145	-0,105
-490,751	800,000	0,025	-0,073
-489,737	386,242	-0,032	-0,049
-488,722	146,770	0,050	-0,049
-487,708	56,732	-0,067	-0,047
-486,693	303,727	-0,055	0,073
-485,678	-40,337	-0,186	0,070
-484,664	-200,000	-0,007	-0,116
-483,649	526,429	-0,022	-0,038
-482,635	220,412	-0,012	-0,014
-481,620	800,000	-0,065	-0,157
-480,605	-200,000	0,002	-0,049
-479,591	408,309	0,039	0,060
-478,576	586,559	0,061	-0,109
-477,562	-134,099	-0,117	0,010
-476,547	800,000	0,036	-0,102
-475,532	800,000	0,030	-0,078
-474,518	-27,224	0,114	0,048
-473,503	585,045	0,086	0,154
-472,489	710,675	-0,072	0,137
-471,474	527,273	-0,041	-0,070
-470,459	800,000	0,032	-0,083
-469,445	800,000	-0,020	-0,042
-468,430	-200,000	0,011	-0,078
-467,416	336,293	0,057	0,080
-466,401	-29,172	0,052	0,022
-465,386	-88,319	0,123	0,026
-464,372	-40,942	-0,066	-0,025
-463,357	204,188	0,088	0,098
-462,343	95,250	0,013	-0,010
-461,328	390,357	-0,117	-0,176
-460,313	-200,000	-0,024	-0,076
-459,299	-109,134	0,111	0,017
-458,284	-14,286	0,059	0,027
-457,270	78,836	0,040	0,031
-456,255	446,808	0,064	-0,102
-455,241	316,801	-0,067	-0,092
-454,226	66,727	0,071	-0,052
-453,211	-68,850	0,148	0,041
-452,197	36,547	0,071	0,045
-451,182	800,000	0,052	0,123
-450,168	800,000	-0,025	0,069
-449,153	150,099	0,043	-0,042
-448,138	-70,550	0,120	0,033
-447,124	-0,323	-0,121	0,062
-446,109	-49,121	0,088	0,030
-445,095	-144,706	-0,031	0,002
-444,080	-200,000	0,027	-0,106
-443,065	99,227	0,055	0,045
-442,051	-200,000	-0,018	-0,180
-441,036	-200,000	-0,010	-0,038
-440,022	-72,441	-0,046	-0,012
-439,007	243,280	-0,093	-0,112
-437,992	135,825	-0,044	0,041
-436,978	19,338	0,124	0,072
-435,963	68,585	-0,022	-0,016
-434,949	-200,000	-0,026	0,179
-433,934	-200,000	0,033	-0,118
-432,919	574,386	-0,055	-0,097
-431,905	-63,911	0,034	0,010
-430,890	263,209	0,030	-0,038
-429,876	390,645	-0,044	0,065
-428,861	-200,000	-0,001	0,156
-427,846	-200,000	0,031	0,120
-426,832	385,734	-0,044	0,066
-425,817	71,827	-0,048	0,036
-424,803	577,738	0,065	0,115
-423,788	-200,000	-0,000	0,055
-422,773	-97,215	0,151	-0,028
-421,759	198,830	0,086	0,095
-420,744	-200,000	-0,005	0,106
-419,730	-200,000	-0,006	-0,043
-418,715	-200,000	0,015	0,162
-417,701	117,862	-0,089	0,079
-416,686	-200,000	-0,001	-0,064
-415,671	91,043	0,039	-0,031
-414,657	800,000	0,042	0,121
-413,642	800,000	0,059	-0,117
-412,628	-50,503	0,106	-0,036
-411,613	134,651	-0,015	-0,014
-410,598	105,044	0,043	-0,037
-409,584	-200,000	0,001	0,035
-408,569	208,220	-0,043	-0,048
-407,555	549,253	0,031	0,053
-406,540	-200,000	0,023	-0,094
-405,525	643,466	0,034	0,063
-404,511	3,460	-0,070	-0,037
-403,496	228,454	-0,064	-0,076
-402,482	-126,878	-0,075	-0,008
-401,467	-68,623	0,202	-0,056
-400,452	-145,882	0,106	-0,007
-399,438	-200,000	0,016	-0,083
-398,423	-100,422	-0,091	0,016
-397,409	1,063	0,067	-0,034
-396,394	-61,199	-0,054	0,016
-395,379	-7,500	0,149	0,072
-394,365	357,888	0,053	0,076
-393,350	-34,263	-0,008	-0,003
-392,336	-200,000	-0,004	0,014
-391,321	199,429	-0,071	0,078
-390,306	800,000	-0,032	-0,066
-389,292	-4,577	-0,037	0,018
-388,277	115,943	0,060	-0,053
-387,263	-200,000	-0,015	-0,086
-386,248	384,038	0,013	0,019
-385,233	-95,861	0,056	-0,011
-384,219	-200,000	0,001	0,073
-383,204	202,387	-0,089	0,098
-382,190	-200,000	-0,016	0,146
-381,175	298,719	-0,169	0,223
-380,160	-172,113	0,136	0,003
-379,146	-3,310	0,067	-0,033
-378,131	99,347	-0,050	0,041
-377,117	-110,741	-0,122	0,018
-376,102	-135,264	0,034	0,003
-375,088	-105,589	-0,095	-0,015
-374,073	-31,103	0,019	-0,008
-373,058	800,000	0,070	0,144
-372,044	-43,619	0,113	-0,041
-371,029	-67,859	-0,104	-0,029
-370,015	758,470	0,052	0,102
-369,000	800,000	-0,007	-0,016
-367,985	-147,999	-0,043	-0,003
-366,971	-122,367	0,082	0,009
-365,956	800,000	-0,051	0,119
-364,942	-52,381	0,093	0,031
-363,927	-170,247	-0,006	-0,000
-362,912	800,000	0,086	0,197
-361,898	-75,532	-0,222	-0,056
-360,883	-46,326	-0,047	0,016
-359,869	-200,000	-0,030	-0,155
-358,854	87,633	0,047	-0,038
-357,839	-173,281	0,088	-0,002
-356,825	-161,669	0,088	-0,003
-355,810	224,633	-0,024	0,028
-354,796	-200,000	0,003	0,036
-353,781	-200,000	0,005	-0,042
-352,766	800,000	0,012	-0,029
-351,752	159,151	0,060	0,060
-350,737	-34,884	-0,040	-0,016
-349,723	134,728	-0,075	0,070
-348,708	344,275	-0,015	0,022
-347,693	-127,695	0,111	0,011
-346,679	-12,306	0,090	-0,042
-345,664	557,544	-0,121	-0,210
-344,650	-184,787	-0,168	-0,002
-343,635	552,666	0,060	0,104
-342,620	295,685	0,029	0,038
-341,606	-200,000	0,003	0,034
-340,591	-92,999	-0,062	-0,012
-339,577	152,639	-0,074	-0,073
-338,562	-200,000	0,008	-0,149
-337,548	-50,846	0,094	-0,032
-336,533	123,510	0,103	0,093
-335,518	220,118	0,049	0,057
-334,504	800,000	0,064	0,161
-333,489	-62,120	-0,033	0,010
-332,475	-95,122	-0,065	0,012
-331,460	144,695	-0,064	0,061
-330,445	800,000	0,064	-0,128
-329,431	63,831	0,026	-0,019
-328,416	143,367	-0,041	0,039
-327,402	-42,980	0,116	0,042
-326,387	-128,408	0,087	0,009
-325,372	-16,033	-0,051	-0,023
-324,358	112,708	0,087	-0,076
-323,343	-200,000	-0,039	-0,155
-322,329	-112,978	0,127	-0,018
-321,314	-117,375	0,180	0,023
-320,299	641,996	-0,029	0,053
-319,285	42,917	-0,050	0,033
-318,270	-200,000	0,022	0,105
-317,256	388,179	-0,054	-0,081
-316,241	-98,065	0,056	-0,010
-315,226	-200,000	-0,041	0,136
-314,212	-200,000	-0,034	0,124
-313,197	87,332	0,196	0,156
-312,183	-200,000	-0,013	-0,047
-311,168	-54,182	-0,106	-0,034
-310,153	14,342	-0,083	-0,046
-309,139	800,000	0,051	-0,124
-308,124	401,893	0,035	0,054
-307,110	-200,000	0,002	0,137
-306,095	-200,000	0,005	-0,072
-305,080	-10,728	0,008	0,004
-304,066	-140,822	0,042	-0,003
-303,051	-84,487	0,060	-0,014
-302,037	18,347	-0,088	-0,050
-301,022	-200,000	-0,002	-0,079
-300,008	-200,000	0,025	0,107
-298,993	800,000	0,037	0,112
-297,978	348,133	-0,045	-0,063
-296,964	-86,769	0,071	0,015
-295,949	-26,679	-0,132	0,055
-294,935	165,332	0,053	-0,053
-293,920	10,552	0,111	-0,060
-292,905	496,244	-0,026	0,043
-291,891	-122,575	0,059	-0,007
-290,876	32,994	0,132	0,082
-289,862	-156,525	-0,041	0,002
-288,847	-50,780	-0,061	-0,021
-287,832	-57,534	-0,024	0,007
-286,818	-2,975	-0,051	0,026
-285,803	-200,000	-0,007	-0,079
-284,789	-52,206	0,084	0,028
-283,774	174,418	0,010	0,011
-282,759	800,000	-0,046	0,112
-281,745	-200,000	0,022	0,118
-280,730	-30,228	0,165	-0,067
-279,716	-200,000	-0,003	-0,065
-278,701	-200,000	-0,026	0,131
-277,686	150,215	0,041	0,039
-276,672	-200,000	-0,042	-0,156
-275,657	-200,000	0,003	-0,042
-274,643	372,402	-0,058	-0,085
-273,628	-69,069	-0,053	0,015
-272,613	24,247	0,061	-0,036
-271,599	-200,000	-0,003	0,014
-270,584	-200,000	-0,001	0,137
-269,570	211,696	0,077	0,087
-268,555	-104,236	-0,064	-0,011
-267,540	90,420	0,037	0,030
-266,526	-200,000	0,003	-0,051
-265,511	-48,778	0,054	-0,018
-264,497	-11,500	0,056	-0,026
-263,482	-200,000	-0,002	0,089
-262,467	-33,020	0,030	-0,012
-261,453	-145,239	-0,013	-0,001
-260,438	8,633	-0,059	-0,031
-259,424	64,823	-0,041	-0,029
-258,409	143,273	-0,030	-0,029
-257,395	-118,424	0,033	-0,004
-256,380	-33,502	-0,061	-0,024
-255,365	-178,789	-0,057	-0,001
-254,351	-48,217	0,023	-0,008
-253,336	-200,000	0,022	0,070
-252,322	180,775	-0,073	-0,077
-251,307	31,751	-0,070	0,043
-250,292	-136,791	0,136	0,011
-249,278	-200,000	-0,003	0,096
-248,263	-200,000	0,003	0,071
-247,249	159,011	0,071	-0,071
-246,234	114,915	-0,075	0,066
-245,219	-200,000	0,000	0,038
-244,205	-200,000	0,013	-0,054
-243,190	109,907	-0,049	0,042
-242,176	800,000	-0,006	0,018
-241,161	253,657	0,110	0,134
-240,146	243,334	-0,069	-0,083
-239,132	-200,000	0,043	0,231
-238,117	800,000	0,028	-0,061
-237,103	-51,693	-0,176	-0,058
-236,088	-200,000	0,001	-0,029
-235,073	28,064	-0,022	-0,013
-234,059	-200,000	0,024	0,134
-233,044	800,000	0,009	0,028
-232,030	212,691	0,081	-0,092
-231,015	-200,000	0,038	-0,139
-230,000	800,000	-0,031	0,071
-228,986	-102,349	0,088	0,015
-227,971	-127,999	-0,152	-0,015
-226,957	-57,683	0,034	0,011
-225,942	-19,018	0,063	0,028
-224,927	-200,000	-0,039	0,136
-223,913	800,000	-0,028	-0,085
-222,898	26,106	-0,165	-0,098
-221,884	-200,000	-0,009	-0,116
-220,869	-79,575	0,062	-0,015
-219,855	-200,000	-0,012	-0,052
-218,840	9,682	-0,009	0,005
-217,825	-18,164	-0,109	0,048
-216,811	75,765	0,006	0,005
-215,796	-200,000	0,020	0,096
-214,782	-153,801	0,062	0,003
-213,767	800,000	-0,061	0,149
-212,752	145,760	0,105	0,101
-211,738	97,992	-0,039	0,032
-210,723	163,665	0,088	-0,089
-209,709	-145,401	-0,088	0,006
-208,694	110,136	0,018	-0,015
-207,679	395,716	0,070	-0,105
-206,665	-91,376	0,066	-0,013
-205,650	-200,000	0,007	-0,024
-204,636	128,216	0,023	-0,021
-203,621	-200,000	-0,053	0,253
-202,606	800,000	-0,063	-0,132
-201,592	-74,194	-0,049	0,012
-200,577	-200,000	0,008	-0,049
-199,563	-200,000	-0,002	-0,069
-198,548	-10,410	0,182	-0,086
-197,533	97,910	0,070	-0,058
-196,519	53,852	-0,155	0,106
-195,504	1,183	-0,083	-0,042
-194,490	772,901	0,064	-0,125
-193,475	-200,000	-0,046	-0,165
-192,460	-144,253	0,009	-0,001
-191,446	107,240	0,008	-0,007
-190,431	-200,000	0,016	0,070
-189,417	289,355	0,039	0,051
-188,402	82,456	0,025	-0,019
-187,387	19,543	-0,161	0,092
-186,373	800,000	-0,056	-0,126
-185,358	-200,000	0,049	0,000
-184,344	-200,000	0,003	0,094
-183,329	-11,511	0,127	-0,059
-182,315	108,470	0,058	0,049
-181,300	-200,000	0,021	0,070
-180,285	119,272	-0,100	-0,088
-179,271	-200,000	-0,029	-0,144
-178,256	-169,225	-0,019	0,000
-177,242	-133,968	0,060	-0,005
-176,227	658,630	0,040	-0,074
-175,212	179,381	-0,063	-0,065
-174,198	-62,846	0,098	0,029
-173,183	800,000	0,026	0,055
-172,169	82,694	-0,112	0,087
-171,154	800,000	0,034	-0,100
-170,139	172,275	-0,103	0,106
-169,125	800,000	0,004	0,014
-168,110	-37,425	0,097	0,037
-167,096	105,173	0,028	0,024
-166,081	-180,934	-0,088	-0,001
-165,066	188,509	0,126	-0,135
-164,052	104,356	-0,072	-0,060
-163,037	289,380	0,094	0,121
-162,023	159,887	0,125	-0,124
-161,008	-42,620	0,064	-0,023
-159,993	-200,000	-0,013	0,069
-158,979	162,227	-0,038	0,038
-157,964	800,000	0,017	-0,040
-156,950	-115,325	-0,104	-0,014
-155,935	-200,000	0,005	-0,067
-154,920	505,770	0,039	-0,065
-153,906	-9,927	0,045	-0,021
-152,891	-200,000	0,002	0,152
-151,877	-133,640	-0,078	-0,007
-150,862	685,525	0,025	-0,046
-149,847	403,983	-0,048	0,072
-148,833	231,807	-0,066	0,077
-147,818	-200,000	-0,004	0,163
-146,804	-62,542	-0,074	-0,022
-145,789	-14,150	-0,057	-0,026
-144,775	-143,580	-0,002	0,000
-143,760	-76,002	-0,078	0,020
-142,745	-200,000	0,005	0,024
-141,731	19,901	0,088	0,050
-140,716	-8,105	-0,112	0,054
-139,702	800,000	0,052	0,135
-138,687	-139,082	-0,130	0,010
-137,672	287,023	0,106	-0,137
-136,658	-200,000	-0,029	-0,111
-135,643	800,000	0,031	-0,096
-134,629	-38,063	-0,024	-0,009
-133,614	-77,569	0,148	0,036
-132,599	181,327	-0,077	0,080
-131,585	483,040	0,044	0,072
-130,570	182,483	0,071	0,075
-129,556	-48,682	-0,106	-0,036
-128,541	87,857	-0,078	-0,061
-127,526	-73,138	-0,089	0,023
-126,512	-16,683	0,119	-0,053
-125,497	800,000	-0,062	0,161
-124,483	-200,000	-0,017	0,100
-123,468	-200,000	-0,003	0,113
-122,453	-50,893	-0,154	0,051
-121,439	327,372	-0,041	-0,056
-120,424	-102,885	0,147	0,025
-119,410	204,645	0,025	-0,028
-118,395	-200,000	0,007	0,172
-117,380	-200,000	-0,049	0,180
-116,366	800,000	-0,027	-0,079
-115,351	-200,000	-0,014	0,052
-114,337	99,072	-0,089	-0,073
-113,322	41,613	-0,051	-0,033
-112,307	800,000	-0,011	0,029
-111,293	-14,903	-0,118	-0,054
-110,278	11,919	0,056	-0,031
-109,264	162,967	-0,068	-0,068
-108,249	400,369	-0,070	-0,105
-107,234	-54,738	-0,031	0,010
-106,220	76,211	-0,118	-0,089
-105,205	-56,814	0,081	0,025
-104,191	293,947	0,067	0,087
-103,176	103,590	0,060	0,050
-102,162	223,720	0,060	-0,069
-101,147	220,208	-0,100	-0,114
-100,132	1,715	-0,048	0,025
-99,118	43,510	-0,079	-0,051
-98,103	800,000	0,051	0,122
-97,089	-93,680	-0,034	-0,007
-96,074	134,998	-0,026	-0,024
-95,059	9,654	0,030	-0,016
-94,045	-49,023	-0,093	0,032
-93,030	800,000	-0,027	-0,062
-92,016	-19,247	0,052	-0,023
-91,001	-116,978	0,096	0,012
-89,986	66,527	0,065	0,047
-88,972	-200,000	-0,001	-0,161
-87,957	-151,163	0,166	-0,009
-86,943	341,957	-0,043	0,059
-85,928	-200,000	-0,009	-0,058
-84,913	-200,000	0,012	-0,075
-83,899	0,221	0,051	-0,026
-82,884	800,000	0,040	-0,092
-81,870	-61,861	0,117	-0,035
-80,855	39,148	0,015	0,009
-79,840	800,000	-0,017	0,051
-78,826	-200,000	-0,020	-0,096
-77,811	-200,000	-0,008	-0,062
-76,797	170,692	0,114	-0,116
-75,782	-86,459	0,117	-0,025
-74,767	-200,000	-0,005	0,181
-73,753	800,000	0,030	0,066
-72,738	800,000	0,051	0,124
-71,724	162,294	0,076	-0,076
-70,709	-74,821	-0,116	-0,029
-69,694	-80,064	-0,109	-0,026
-68,680	255,150	0,011	0,013
-67,665	-200,000	-0,034	0,109
-66,651	172,992	-0,109	0,111
-65,636	4,106	-0,062	0,032
-64,622	15,741	-0,186	0,104
-63,607	566,594	-0,049	-0,084
-62,592	182,090	0,051	-0,054
-61,578	86,594	-0,077	-0,061
-60,563	104,424	-0,073	0,061
-59,549	-200,000	-0,001	0,306
-58,534	-60,901	-1,468	-0,438
-57,519	629,769	-1,362	-2,455
-56,505	-200,000	-0,555	-4,373
-55,490	106,452	1,009	0,848
-54,476	800,000	4,868	11,156
-53,461	-200,000	17,881	285,351
-52,446	800,000	722,647	2232,985
-51,432	563,896	1637,582	2825,046
-50,417	80,735	1660,338	1268,778
-49,403	23,616	1534,427	893,730
-48,388	17,544	1457,983	819,853
-47,373	18,202	1447,332	816,995
-46,359	17,754	1437,891	809,492
-45,344	15,820	1433,476	797,763
-44,330	15,787	1431,342	796,386
-43,315	15,738	1429,813	795,269
-42,300	15,796	1428,127	794,578
-41,286	15,815	1427,046	794,032
-40,271	15,787	1425,779	793,165
-39,257	15,813	1424,312	792,440
-38,242	15,847	1423,153	791,925
-37,227	15,858	1421,809	791,199
-36,213	15,842	1420,560	790,397
-35,198	15,804	1419,451	789,565
-34,184	15,856	1418,513	789,260
-33,169	15,783	1417,245	788,178
-32,154	15,832	1416,140	787,764
-31,140	15,859	1414,793	787,108
-30,125	15,852	1413,703	786,439
-29,111	15,869	1412,520	785,828
-28,096	15,815	1411,538	784,998
-27,082	15,814	1410,295	784,274
-26,067	15,738	1409,308	783,337
-25,052	15,775	1408,240	782,886
-24,038	15,775	1407,318	782,341
-23,023	15,752	1406,088	781,519
-22,009	15,726	1405,123	780,828
-20,994	15,696	1404,387	780,250
-19,979	15,715	1403,391	779,753
-18,965	15,683	1402,612	779,143
-17,950	15,668	1401,365	778,347
-16,936	15,680	1400,364	777,815
-15,921	15,630	1399,312	776,970
-14,906	15,642	1398,319	776,441
-13,892	15,678	1397,431	776,084
-12,877	15,685	1396,502	775,570
-11,863	15,670	1395,621	774,981
-10,848	15,668	1394,547	774,344
-9,833	15,605	1393,845	773,632
-8,819	15,589	1392,717	772,902
-7,804	15,542	1391,901	772,202
-6,790	15,552	1390,944	771,688
-5,775	15,591	1389,711	771,149
-4,760	15,529	1388,904	770,385
-3,746	15,510	1388,215	769,885
-2,731	15,527	1387,459	769,513
-1,717	15,550	1386,284	768,938
-0,702	15,505	1384,516	767,723
0,313	19,310	1304,936	741,176
1,327	35,701	706,791	439,465
2,342	54,697	125,121	85,428
3,356	3,868	16,478	8,507
4,371	18,666	3,056	1,728
5,386	7,414	0,607	0,321
6,400	-200,000	0,006	0,033
7,415	204,180	-0,192	-0,212
8,429	169,796	-0,235	-0,238
9,444	14,174	-0,369	-0,203
10,459	3,668	-0,249	-0,129
11,473	71,987	-0,274	-0,202
12,488	-37,156	-0,392	-0,148
13,502	-79,329	-0,267	-0,064
14,517	86,446	-0,312	-0,244
15,531	113,566	-0,342	-0,294
16,546	99,946	-0,377	-0,309
17,561	77,821	-0,426	-0,321
18,575	-6,195	-0,229	-0,110
19,590	28,952	-0,242	-0,145
20,604	-7,578	-0,263	-0,126
21,619	119,836	-0,445	-0,391
22,634	129,122	-0,542	-0,489
23,648	9,103	-0,496	-0,264
24,663	69,795	-0,340	-0,248
25,677	-43,120	-0,399	-0,142
26,692	49,566	-0,344	-0,229
27,707	262,075	-0,222	-0,273
28,721	36,095	-0,390	-0,243
29,736	91,015	-0,509	-0,403
30,750	33,670	-0,474	-0,291
31,765	202,011	-0,271	-0,296
32,780	168,870	-0,341	-0,344
33,794	-2,261	-0,478	-0,237
34,809	-44,079	-0,478	-0,169
35,823	79,968	-0,355	-0,269
36,838	102,141	-0,406	-0,335
37,853	14,632	-0,465	-0,256
38,867	81,506	-0,367	-0,280
39,882	107,370	-0,288	-0,242
40,896	56,203	-0,285	-0,195
41,911	-17,760	-0,278	-0,123
42,926	95,108	-0,443	-0,356
43,940	-58,146	-0,351	-0,107
44,955	-49,490	-0,417	-0,140
45,969	123,322	-0,329	-0,291
46,984	33,854	-0,352	-0,216
47,999	48,228	-0,314	-0,207
49,013	-11,883	-0,280	-0,129
50,028	53,410	-0,234	-0,158
51,042	5,888	-0,361	-0,188
52,057	150,652	-0,318	-0,305
53,071	54,602	-0,341	-0,232
54,086	189,437	-0,211	-0,223
55,101	83,691	-0,360	-0,277
56,115	194,469	-0,295	-0,316
57,130	22,025	-0,477	-0,274
58,144	26,991	-0,426	-0,252
59,159	-21,171	-0,443	-0,190
60,174	0,340	-0,326	-0,164
61,188	81,671	-0,268	-0,205
62,203	6,369	-0,403	-0,210
63,217	-52,396	-0,323	-0,105
64,232	146,126	-0,376	-0,356
65,247	306,608	-0,231	-0,303
66,261	-11,371	-0,457	-0,211
67,276	302,730	-0,242	-0,317
68,290	-41,313	-0,322	-0,116
69,305	-7,736	-0,272	-0,129
70,320	68,735	-0,148	-0,107
71,334	126,314	-0,324	-0,289
72,349	36,951	-0,321	-0,199
73,363	147,470	-0,343	-0,326
74,378	78,844	-0,362	-0,273
75,393	8,973	-0,377	-0,200
76,407	219,313	-0,276	-0,311
77,422	143,714	-0,233	-0,218
78,436	149,593	-0,235	-0,224
79,451	37,643	-0,318	-0,199
80,466	68,358	-0,304	-0,219
81,480	53,497	-0,352	-0,237
82,495	107,300	-0,194	-0,163
83,509	28,666	-0,330	-0,196
84,524	-60,613	-0,373	-0,111
85,539	-75,924	-0,348	-0,086
86,553	36,504	-0,258	-0,160
87,568	260,894	-0,272	-0,332
88,582	110,988	-0,326	-0,276
89,597	234,155	-0,227	-0,264
90,611	8,154	-0,241	-0,127
91,626	5,422	-0,330	-0,171
92,641	83,541	-0,228	-0,175
93,655	-66,813	-0,299	-0,083
94,670	140,210	-0,288	-0,268
95,684	-63,244	-0,345	-0,099
96,699	248,735	-0,232	-0,277
97,714	118,490	-0,212	-0,184
98,728	172,479	-0,294	-0,298
99,743	-200,000	-0,075	-0,303
100,757	137,827	-0,261	-0,240
101,772	223,127	-0,300	-0,341
102,787	-7,570	-0,345	-0,163
103,801	233,091	-0,252	-0,291
104,816	86,388	-0,235	-0,182
105,830	148,223	-0,222	-0,210
106,845	-68,726	-0,277	-0,075
107,860	20,406	-0,292	-0,165
108,874	28,513	-0,268	-0,159
109,889	51,761	-0,327	-0,218
110,903	44,255	-0,256	-0,165
111,918	19,593	-0,318	-0,179
112,933	-44,526	-0,177	-0,062
113,947	800,000	-0,111	-0,269
114,962	94,485	-0,269	-0,214
115,976	-34,714	-0,258	-0,099
116,991	51,976	-0,309	-0,206
118,006	125,410	-0,339	-0,300
119,020	143,267	-0,265	-0,248
120,035	90,346	-0,225	-0,177
121,049	117,351	-0,204	-0,176
122,064	4,048	-0,381	-0,195
123,079	21,781	-0,228	-0,130
124,093	25,859	-0,265	-0,155
125,108	40,111	-0,172	-0,108
126,122	-31,908	-0,357	-0,139
127,137	499,625	-0,116	-0,189
128,151	61,867	-0,242	-0,169
129,166	1,229	-0,307	-0,154
130,181	-3,995	-0,316	-0,153
131,195	-64,192	-0,303	-0,086
132,210	50,788	-0,341	-0,226
133,224	-22,891	-0,319	-0,134
134,239	135,557	-0,167	-0,153
135,254	208,593	-0,161	-0,176
136,268	-21,527	-0,201	-0,085
137,283	800,000	-0,108	-0,233
138,297	105,100	-0,284	-0,235
139,312	-2,951	-0,363	-0,177
140,327	152,660	-0,221	-0,211
141,341	59,994	-0,269	-0,186
142,356	553,736	-0,153	-0,259
143,370	136,406	-0,129	-0,118
144,385	247,670	-0,162	-0,192
145,400	135,321	-0,225	-0,205
146,414	-31,145	-0,358	-0,141
147,429	302,296	-0,181	-0,235
148,443	-75,907	-0,209	-0,051
149,458	254,059	-0,246	-0,294
150,473	6,350	-0,157	-0,082
151,487	268,702	-0,201	-0,247
152,502	9,611	-0,348	-0,184
153,516	226,391	-0,241	-0,274
154,531	88,920	-0,292	-0,227
155,546	-200,000	-0,070	-0,243
156,560	-38,691	-0,271	-0,100
157,575	-3,415	-0,220	-0,107
158,589	-45,394	-0,214	-0,074
159,604	59,749	-0,366	-0,252
160,619	99,946	-0,235	-0,191
161,633	-34,832	-0,207	-0,079
162,648	170,887	-0,152	-0,152
163,662	55,557	-0,205	-0,138
164,677	-79,484	-0,210	-0,049
165,692	38,567	-0,284	-0,177
166,706	149,741	-0,221	-0,210
167,721	-200,000	0,012	-0,243
168,735	475,509	-0,147	-0,233
169,750	167,873	-0,204	-0,203
170,764	-92,140	-0,245	-0,048
171,779	-38,532	-0,138	-0,051
172,794	800,000	-0,079	-0,164
173,808	44,724	-0,218	-0,140
174,823	66,397	-0,197	-0,140
175,837	136,398	-0,144	-0,132
176,852	-44,276	-0,302	-0,105
177,867	35,680	-0,289	-0,177
178,881	-30,042	-0,156	-0,062
179,896	17,810	-0,125	-0,069
180,910	88,289	-0,193	-0,149
181,925	97,799	-0,256	-0,205
182,940	74,496	-0,359	-0,263
183,954	421,599	-0,166	-0,249
184,969	-73,364	-0,279	-0,071
185,983	-2,109	-0,155	-0,076
186,998	109,682	-0,129	-0,108
188,013	289,744	-0,220	-0,279
189,027	-163,271	-0,321	-0,011
190,042	205,590	-0,235	-0,255
191,056	204,494	-0,228	-0,247
192,071	-93,417	-0,392	-0,075
193,086	29,143	-0,186	-0,110
194,100	489,801	-0,068	-0,108
195,115	179,953	-0,134	-0,137
196,129	238,575	-0,194	-0,225
197,144	119,462	-0,207	-0,179
198,159	126,086	-0,242	-0,213
199,173	553,196	-0,183	-0,307
200,188	379,592	-0,116	-0,166
201,202	-9,745	-0,198	-0,091
202,217	225,226	-0,174	-0,196
203,232	-4,037	-0,198	-0,095
204,246	32,967	-0,133	-0,080
205,261	84,860	-0,277	-0,211
206,275	298,358	-0,212	-0,273
207,290	72,388	-0,156	-0,113
208,304	10,057	-0,283	-0,149
209,319	-33,218	-0,215	-0,082
210,334	800,000	-0,134	-0,263
211,348	140,982	-0,237	-0,218
212,363	573,368	-0,129	-0,220
213,377	-58,268	-0,212	-0,064
214,392	33,968	-0,171	-0,104
215,407	141,377	-0,216	-0,199
216,421	103,784	-0,191	-0,156
217,436	-53,922	-0,256	-0,081
218,450	800,000	-0,049	-0,110
219,465	-200,000	-0,047	-0,270
220,480	51,655	-0,223	-0,147
221,494	-29,003	-0,197	-0,078
222,509	61,708	-0,156	-0,108
223,523	-43,233	-0,207	-0,072
224,538	-34,345	-0,256	-0,097
225,553	-25,854	-0,186	-0,076
226,567	138,417	-0,289	-0,264
227,582	60,726	-0,151	-0,104
228,596	546,017	-0,175	-0,292
229,611	297,709	-0,134	-0,171
230,626	-105,548	-0,112	-0,018
231,640	-200,000	-0,052	-0,198
232,655	521,393	-0,180	-0,295
233,669	271,514	-0,250	-0,307
234,684	146,173	-0,180	-0,168
235,699	-35,541	-0,243	-0,091
236,713	212,287	-0,108	-0,119
237,728	-152,501	-0,122	-0,006
238,742	218,014	-0,144	-0,160
239,757	800,000	-0,115	-0,303
240,772	424,935	-0,141	-0,212
241,786	-46,206	-0,198	-0,067
242,801	34,304	-0,220	-0,133
243,815	800,000	0,022	-0,061
244,830	-68,869	-0,132	-0,035
245,844	800,000	-0,119	-0,260
246,859	-95,941	-0,226	0,041
247,874	213,831	-0,238	-0,261
248,888	126,041	-0,137	-0,121
249,903	-45,766	-0,266	-0,091
250,917	241,639	-0,169	-0,197
251,932	97,241	-0,140	-0,112
252,947	-200,000	-0,011	-0,112
253,961	-94,384	-0,316	-0,059
254,976	-27,115	-0,216	-0,087
255,990	-84,279	-0,310	-0,067
257,005	-102,349	-0,288	-0,047
258,020	-26,328	-0,155	0,063
259,034	-189,117	-0,208	0,002
260,049	-105,735	-0,139	-0,022
261,063	-47,555	-0,227	-0,076
262,078	92,930	-0,233	-0,182
263,093	262,195	-0,199	-0,240
264,107	203,206	-0,138	-0,148
265,122	800,000	0,005	-0,013
266,136	128,380	-0,146	-0,129
267,151	800,000	-0,127	-0,255
268,166	-63,040	-0,223	-0,063
269,180	800,000	-0,150	-0,309
270,195	139,557	-0,287	-0,261
271,209	-69,314	-0,199	-0,053
272,224	-9,839	-0,071	-0,033
273,239	-200,000	0,003	-0,060
274,253	434,637	-0,111	-0,167
275,268	344,168	-0,093	-0,127
276,282	239,678	-0,093	-0,107
277,297	231,023	-0,127	-0,145
278,312	800,000	-0,064	-0,153
279,326	-111,532	-0,126	-0,018
280,341	-189,553	-0,158	-0,001
281,355	-200,000	0,044	-0,148
282,370	69,795	-0,200	-0,143
283,384	214,206	-0,140	-0,154
284,399	-77,543	-0,186	-0,044
285,414	171,831	-0,113	-0,112
286,428	-140,704	-0,188	0,013
287,443	-75,273	-0,208	-0,051
288,457	-74,301	-0,273	-0,068
289,472	-35,413	-0,229	-0,086
290,487	800,000	-0,085	-0,173
291,501	436,721	-0,117	-0,177
292,516	800,000	-0,071	-0,162
293,530	800,000	-0,054	-0,136
294,545	13,490	-0,132	-0,070
295,560	-56,246	-0,092	-0,028
296,574	-52,013	-0,142	-0,045
297,589	-62,085	-0,191	0,055
298,603	566,944	-0,107	-0,181
299,618	61,146	-0,281	-0,192
300,633	281,716	-0,145	-0,180
301,647	723,635	-0,127	-0,234
302,662	321,087	-0,095	-0,125
303,676	-27,536	-0,236	-0,094
304,691	-200,000	-0,036	-0,129
305,706	9,578	-0,131	-0,068
306,720	24,325	-0,214	-0,122
307,735	325,820	-0,138	-0,182
308,749	82,009	-0,153	-0,114
309,764	9,440	-0,187	0,098
310,779	-83,646	-0,103	-0,023
311,793	501,614	-0,034	-0,055
312,808	-9,716	-0,271	-0,124
313,822	-67,319	-0,191	-0,052
314,837	34,056	-0,175	-0,105
315,852	-200,000	-0,025	-0,089
316,866	293,547	-0,021	-0,026
317,881	-41,532	-0,170	-0,060
318,895	-147,131	-0,150	-0,009
319,910	112,298	-0,155	-0,129
320,925	-13,754	-0,209	0,093
321,939	-50,595	-0,103	-0,033
322,954	46,492	-0,107	-0,068
323,968	394,840	-0,083	-0,120
324,983	313,962	-0,120	-0,156
325,997	127,527	-0,137	-0,120
327,012	283,290	-0,128	-0,159
328,027	9,474	-0,192	-0,100
329,041	-200,000	-0,037	-0,173
330,056	266,486	-0,066	-0,080
331,070	228,544	-0,134	-0,150
332,085	53,088	-0,107	-0,070
333,100	-47,407	-0,201	-0,067
334,114	-138,879	-0,103	0,008
335,129	-51,142	-0,230	-0,074
336,143	33,419	-0,072	0,043
337,158	-200,000	-0,035	-0,148
338,173	-50,687	-0,114	-0,037
339,187	-27,119	0,027	0,011
340,202	-116,291	-0,107	-0,013
341,216	14,567	-0,155	-0,083
342,231	16,470	-0,225	-0,122
343,246	346,010	-0,173	-0,234
344,260	715,123	-0,053	-0,096
345,275	-141,642	-0,130	-0,009
346,289	-200,000	0,023	-0,125
347,304	-37,126	-0,229	-0,084
348,319	131,818	-0,104	-0,092
349,333	-200,000	-0,025	-0,277
350,348	800,000	-0,094	-0,256
351,362	271,700	-0,153	-0,185
352,377	-200,000	-0,020	-0,135
353,392	-200,000	0,000	-0,068
354,406	-47,530	-0,170	-0,056
355,421	209,493	1312,334	1415,504
356,435	161,233	1472,816	1416,028
