DTS Sentinel unit serial number:	SN410029Multiplexer serial number:	ORYXHardware model number:	OX2-SRSoftware version number:	ORYX F/W v4,00 Oryx Data Collector v3.7.2.0data status	okinstallation	B3 Nyhavnadifferential loss correction	single-endedforward channel	channel 1reverse channel	N/Adate	2023/11/30time	22:42:30forward acquisition time	300,00reverse acquisition time	0,00gamma	499,1914k internal	0,3210k external	0,3210temperature offset calibration	1,0000default loss term (dB/km)	0,3820temperature slope calibration	1,0000multiplexer offset coefficient	1,0000multiplexer slope coefficient	1,0000fibre end	0,00T internal ref (°C)	9,96T ext. ref 1 (°C)	-5,11T ext. ref 2 (°C)	-5,25length (m)	temperature (°C)	Stokes	anti-Stokes-744,400	80,297	-0,319	-0,249
-743,385	-200,000	-0,075	0,275
-742,371	800,000	-0,083	-0,202
-741,356	-200,000	-0,055	0,187
-740,342	800,000	-0,075	-0,234
-739,327	-200,000	-0,042	0,380
-738,312	800,000	-0,129	-0,321
-737,298	800,000	0,079	0,227
-736,283	90,887	-0,194	-0,157
-735,269	-200,000	-0,021	0,144
-734,254	524,708	-0,156	-0,266
-733,239	116,494	-0,205	0,182
-732,225	-200,000	-0,003	-0,130
-731,210	371,267	0,121	0,179
-730,196	301,972	-0,037	-0,049
-729,181	-200,000	0,018	0,069
-728,167	-24,719	0,042	-0,018
-727,152	87,670	-0,087	0,070
-726,137	-176,519	-0,083	-0,002
-725,123	800,000	0,077	-0,184
-724,108	525,539	-0,045	-0,078
-723,094	130,099	-0,117	-0,109
-722,079	227,258	0,038	-0,045
-721,064	751,366	0,026	-0,051
-720,050	66,406	0,061	0,045
-719,035	142,494	-0,102	-0,099
-718,021	800,000	0,063	0,132
-717,006	-91,799	-0,133	0,027
-715,991	800,000	-0,010	-0,027
-714,977	-20,438	-0,142	0,063
-713,962	64,259	0,111	-0,081
-712,948	-81,918	-0,038	0,009
-711,933	-115,980	-0,037	0,005
-710,918	-46,003	0,080	-0,028
-709,904	36,784	-0,121	-0,077
-708,889	-45,633	-0,041	-0,015
-707,875	-107,371	0,141	-0,022
-706,860	152,340	0,135	-0,133
-705,845	685,834	0,047	0,089
-704,831	-30,444	0,053	-0,022
-703,816	-60,129	0,078	-0,024
-702,802	-107,031	-0,163	0,026
-701,787	-73,899	0,065	0,017
-700,772	800,000	0,015	-0,043
-699,758	-97,675	-0,143	0,027
-698,743	800,000	-0,019	0,056
-697,729	97,716	0,024	-0,020
-696,714	237,853	-0,086	-0,104
-695,699	84,890	0,099	-0,078
-694,685	340,518	-0,035	0,049
-693,670	636,013	-0,030	0,055
-692,656	133,812	0,021	-0,020
-691,641	800,000	0,012	0,027
-690,627	2,635	0,073	0,038
-689,612	5,663	-0,072	0,039
-688,597	345,119	-0,066	-0,095
-687,583	800,000	-0,047	-0,118
-686,568	-200,000	-0,018	0,099
-685,554	-200,000	0,001	0,043
-684,539	-200,000	-0,013	0,047
-683,524	800,000	0,009	0,023
-682,510	279,494	0,031	0,040
-681,495	800,000	0,043	-0,108
-680,481	-200,000	0,006	-0,026
-679,466	4,528	-0,149	-0,079
-678,451	-103,461	0,107	-0,018
-677,437	165,001	-0,061	0,063
-676,422	-200,000	0,049	0,000
-675,408	354,257	0,101	0,145
-674,393	800,000	0,038	0,087
-673,378	-47,828	-0,049	-0,017
-672,364	-200,000	-0,010	-0,169
-671,349	-200,000	-0,012	0,123
-670,335	-200,000	0,013	0,103
-669,320	498,098	-0,060	0,100
-668,305	415,891	-0,008	0,012
-667,291	225,834	-0,069	-0,081
-666,276	296,076	-0,075	-0,099
-665,262	-200,000	-0,036	-0,140
-664,247	-40,844	-0,113	-0,042
-663,232	-200,000	0,011	-0,069
-662,218	-40,647	0,069	-0,026
-661,203	-70,028	0,132	-0,036
-660,189	298,797	-0,068	0,090
-659,174	-72,069	-0,090	0,024
-658,159	34,222	-0,003	-0,002
-657,145	-54,518	-0,133	0,043
-656,130	443,588	0,053	-0,085
-655,116	-200,000	0,010	0,066
-654,101	14,153	0,112	0,063
-653,086	-200,000	-0,015	0,118
-652,072	443,966	-0,036	-0,058
-651,057	283,820	-0,110	-0,143
-650,043	800,000	-0,040	-0,108
-649,028	-180,823	-0,204	0,003
-648,014	83,633	0,103	0,081
-646,999	-7,559	0,131	0,064
-645,984	-200,000	0,010	-0,110
-644,970	800,000	-0,062	-0,126
-643,955	22,855	-0,200	-0,118
-642,941	-200,000	-0,019	-0,130
-641,926	-200,000	-0,005	0,027
-640,911	172,422	-0,101	0,105
-639,897	-164,569	0,220	0,007
-638,882	800,000	-0,039	0,123
-637,868	113,998	-0,072	-0,064
-636,853	47,806	-0,171	0,115
-635,838	148,152	-0,020	-0,019
-634,824	111,330	-0,034	-0,030
-633,809	365,546	0,097	-0,141
-632,795	-116,246	0,117	0,016
-631,780	97,495	-0,088	0,073
-630,765	252,870	-0,074	0,091
-629,751	-44,049	0,012	0,004
-628,736	-3,136	-0,132	0,066
-627,722	-108,916	-0,039	0,006
-626,707	-200,000	0,005	0,130
-625,692	167,978	0,106	0,109
-624,678	-200,000	0,001	0,012
-623,663	-101,736	-0,091	-0,016
-622,649	330,278	-0,056	-0,078
-621,634	800,000	-0,027	-0,062
-620,619	-27,820	-0,062	-0,026
-619,605	-200,000	-0,003	-0,038
-618,590	233,948	0,073	0,087
-617,576	-200,000	-0,003	0,123
-616,561	71,345	-0,131	-0,098
-615,546	555,335	0,063	-0,109
-614,532	-200,000	0,013	-0,150
-613,517	-27,002	0,062	0,026
-612,503	800,000	-0,022	-0,051
-611,488	664,172	0,033	0,061
-610,474	-42,843	0,104	0,038
-609,459	-200,000	0,008	0,032
-608,444	-33,066	-0,097	0,039
-607,430	-96,375	-0,081	0,015
-606,415	800,000	0,006	-0,013
-605,401	-200,000	0,024	-0,161
-604,386	-200,000	0,017	-0,078
-603,371	-200,000	-0,011	-0,050
-602,357	-200,000	-0,005	0,034
-601,342	-81,936	-0,045	-0,011
-600,328	-145,801	0,075	-0,005
-599,313	468,063	0,073	-0,119
-598,298	800,000	-0,080	-0,182
-597,284	92,101	0,042	0,034
-596,269	34,451	0,054	-0,034
-595,255	-9,722	-0,066	0,031
-594,240	-200,000	-0,001	-0,008
-593,225	177,428	-0,052	-0,054
-592,211	-200,000	0,006	0,078
-591,196	172,247	-0,110	0,114
-590,182	-43,680	0,042	-0,015
-589,167	800,000	-0,030	0,061
-588,152	70,848	-0,040	0,030
-587,138	125,677	0,074	-0,067
-586,123	800,000	0,048	-0,102
-585,109	-200,000	-0,014	0,064
-584,094	-200,000	0,008	-0,051
-583,079	-105,177	0,088	0,014
-582,065	456,775	-0,025	0,040
-581,050	636,745	-0,028	-0,051
-580,036	-200,000	0,003	-0,012
-579,021	272,837	-0,078	0,099
-578,006	493,122	0,052	-0,087
-576,992	167,221	-0,069	0,071
-575,977	51,510	0,144	-0,098
-574,963	800,000	-0,015	0,038
-573,948	-120,153	0,070	0,009
-572,934	800,000	0,049	0,115
-571,919	-64,260	-0,040	0,012
-570,904	288,636	-0,031	-0,040
-569,890	800,000	-0,036	0,079
-568,875	7,025	0,064	0,034
-567,861	-139,223	-0,072	0,006
-566,846	-32,179	0,148	0,059
-565,831	-190,751	-0,203	0,002
-564,817	-100,839	0,031	-0,005
-563,802	800,000	-0,118	-0,275
-562,788	800,000	-0,046	-0,130
-561,773	76,437	0,050	0,038
-560,758	126,485	-0,157	0,143
-559,744	-200,000	0,054	0,291
-558,729	73,323	-0,152	0,114
-557,715	-200,000	-0,004	-0,012
-556,700	-91,651	0,074	-0,015
-555,685	-200,000	-0,012	-0,105
-554,671	-89,579	-0,144	0,030
-553,656	-200,000	-0,005	0,081
-552,642	-200,000	0,007	0,120
-551,627	800,000	0,037	0,091
-550,612	140,462	-0,047	0,045
-549,598	800,000	0,059	0,175
-548,583	295,071	-0,050	-0,067
-547,569	98,119	0,039	0,033
-546,554	-34,809	-0,043	-0,017
-545,539	95,853	-0,131	0,108
-544,525	23,847	0,102	-0,060
-543,510	-135,530	0,120	0,010
-542,496	-15,714	-0,181	-0,083
-541,481	132,765	-0,070	-0,065
-540,466	88,624	0,070	-0,056
-539,452	149,978	0,112	0,110
-538,437	-55,729	0,108	0,034
-537,423	-128,534	0,153	0,015
-536,408	-200,000	-0,021	-0,153
-535,393	-200,000	-0,051	-0,205
-534,379	444,188	-0,039	-0,062
-533,364	-62,411	0,074	0,022
-532,350	-65,755	0,072	-0,021
-531,335	800,000	0,042	-0,101
-530,321	89,244	0,179	0,144
-529,306	120,014	-0,079	-0,071
-528,291	800,000	-0,034	0,085
-527,277	89,925	-0,063	-0,051
-526,262	583,068	-0,090	-0,160
-525,248	105,665	0,066	-0,056
-524,233	433,538	0,043	-0,068
-523,218	-13,916	0,034	0,016
-522,204	30,521	0,023	0,014
-521,189	39,850	-0,061	-0,039
-520,175	417,612	-0,026	-0,040
-519,160	273,593	-0,037	0,048
-518,145	-138,064	-0,025	-0,002
-517,131	800,000	-0,023	0,047
-516,116	36,274	0,151	0,096
-515,102	83,020	-0,123	0,096
-514,087	364,081	0,036	-0,053
-513,072	800,000	0,006	0,011
-512,058	-200,000	-0,008	0,140
-511,043	17,010	-0,035	0,020
-510,029	400,723	0,035	-0,053
-509,014	9,567	-0,013	0,007
-507,999	-200,000	-0,007	-0,083
-506,985	-200,000	0,004	-0,044
-505,970	-200,000	0,021	-0,126
-504,956	6,322	-0,044	-0,023
-503,941	-163,574	0,177	-0,006
-502,926	-200,000	-0,013	0,094
-501,912	-12,166	0,120	0,056
-500,897	-200,000	0,013	0,103
-499,883	34,759	-0,046	0,029
-498,868	-200,000	0,017	-0,060
-497,853	800,000	0,033	-0,068
-496,839	-69,348	0,136	-0,037
-495,824	-200,000	0,010	0,051
-494,810	-38,049	0,108	0,041
-493,795	144,620	0,015	0,014
-492,781	-142,184	0,108	-0,008
-491,766	644,910	0,023	-0,043
-490,751	173,323	0,046	-0,047
-489,737	-200,000	-0,008	-0,032
-488,722	-200,000	0,005	0,029
-487,708	-168,678	0,083	-0,002
-486,693	368,040	0,067	0,098
-485,678	-16,732	-0,044	-0,020
-484,664	800,000	0,031	-0,085
-483,649	27,620	-0,107	0,065
-482,635	87,641	0,041	0,033
-481,620	493,834	0,044	0,072
-480,605	-57,270	0,158	0,050
-479,591	31,325	-0,117	-0,072
-478,576	-30,567	0,117	-0,047
-477,562	70,508	-0,073	0,054
-476,547	-200,000	-0,027	-0,145
-475,532	800,000	-0,036	0,095
-474,518	-173,720	0,098	0,002
-473,503	181,011	0,063	0,067
-472,489	4,953	0,052	-0,027
-471,474	0,289	-0,108	0,055
-470,459	33,359	0,117	-0,073
-469,445	-19,967	-0,019	-0,008
-468,430	-145,139	0,140	0,009
-467,416	313,502	0,022	-0,030
-466,401	74,337	0,089	0,067
-465,386	-27,232	0,188	0,078
-464,372	77,866	0,068	0,052
-463,357	-200,000	0,004	-0,024
-462,343	-76,684	-0,083	-0,021
-461,328	-64,204	-0,054	-0,016
-460,313	57,129	-0,077	0,054
-459,299	-67,174	0,106	-0,030
-458,284	800,000	0,068	-0,153
-457,270	546,441	-0,051	0,087
-456,255	-165,863	0,061	0,002
-455,241	-200,000	0,019	0,094
-454,226	800,000	0,020	0,062
-453,211	-96,173	0,097	-0,018
-452,197	52,447	-0,024	0,016
-451,182	353,217	0,041	-0,059
-450,168	22,891	0,078	-0,046
-449,153	-6,795	-0,111	-0,054
-448,138	244,808	-0,072	-0,086
-447,124	-200,000	-0,029	-0,092
-446,109	672,943	0,007	-0,012
-445,095	389,553	-0,028	-0,042
-444,080	234,626	0,111	0,132
-443,065	800,000	0,024	0,060
-442,051	260,618	0,027	-0,033
-441,036	800,000	-0,103	-0,208
-440,022	-200,000	0,021	-0,125
-439,007	-119,875	-0,027	0,003
-437,992	60,544	0,079	-0,056
-436,978	-80,402	-0,054	0,013
-435,963	800,000	0,041	0,085
-434,949	-200,000	0,037	-0,152
-433,934	6,810	-0,059	-0,031
-432,919	-105,187	-0,084	-0,014
-431,905	-200,000	0,004	0,038
-430,890	-64,409	-0,082	-0,024
-429,876	-200,000	0,011	0,227
-428,861	31,520	0,060	0,037
-427,846	-14,569	0,132	0,061
-426,832	-103,080	-0,150	-0,025
-425,817	43,521	-0,150	-0,098
-424,803	800,000	0,024	-0,054
-423,788	-200,000	0,010	0,105
-422,773	-200,000	0,016	0,084
-421,759	-40,302	-0,126	-0,047
-420,744	-39,602	-0,069	0,026
-419,730	-51,640	0,075	0,025
-418,715	-186,644	0,038	0,000
-417,701	-137,805	0,074	0,006
-416,686	-200,000	-0,019	-0,156
-415,671	-179,697	0,071	0,001
-414,657	161,840	-0,014	0,014
-413,642	-49,942	-0,087	-0,029
-412,628	-73,713	-0,112	-0,029
-411,613	-14,948	0,109	-0,050
-410,598	-38,889	0,072	-0,027
-409,584	-48,184	0,131	-0,045
-408,569	-200,000	0,011	0,077
-407,555	-200,000	0,029	-0,104
-406,540	-91,337	-0,114	0,023
-405,525	-200,000	-0,006	0,047
-404,511	42,132	-0,056	0,036
-403,496	68,568	-0,076	-0,056
-402,482	-200,000	0,025	-0,088
-401,467	-125,785	0,171	0,018
-400,452	74,852	-0,007	0,005
-399,438	-200,000	0,001	0,031
-398,423	-70,329	-0,153	-0,041
-397,409	-200,000	0,007	0,065
-396,394	-200,000	-0,040	-0,128
-395,379	-58,709	0,106	-0,033
-394,365	-200,000	0,004	0,061
-393,350	-200,000	0,006	0,130
-392,336	800,000	0,034	0,098
-391,321	-200,000	0,002	0,082
-390,306	-200,000	0,030	-0,116
-389,292	-5,610	-0,194	-0,095
-388,277	160,521	-0,054	0,053
-387,263	800,000	0,032	0,069
-386,248	-200,000	-0,022	0,082
-385,233	65,917	0,049	-0,036
-384,219	-200,000	-0,016	0,062
-383,204	-200,000	0,017	0,069
-382,190	-35,508	-0,107	0,042
-381,175	-200,000	-0,029	0,130
-380,160	-99,648	0,138	0,025
-379,146	394,727	-0,067	-0,100
-378,131	800,000	0,043	-0,110
-377,117	8,972	0,067	-0,036
-376,102	231,792	0,070	-0,083
-375,088	-10,808	0,060	-0,028
-374,073	-200,000	0,027	-0,132
-373,058	-200,000	-0,000	-0,049
-372,044	-32,919	-0,060	0,024
-371,029	31,686	-0,237	0,145
-370,015	800,000	-0,048	0,150
-369,000	766,314	-0,049	-0,096
-367,985	800,000	0,004	-0,010
-366,971	-86,503	0,093	0,020
-365,956	800,000	0,010	-0,025
-364,942	-200,000	0,014	0,087
-363,927	-200,000	-0,001	-0,027
-362,912	-28,277	0,055	0,023
-361,898	-55,106	-0,107	0,034
-360,883	-86,221	-0,037	0,008
-359,869	-29,389	0,071	-0,029
-358,854	240,239	-0,078	-0,093
-357,839	237,810	-0,027	-0,032
-356,825	-200,000	-0,010	0,068
-355,810	201,010	0,040	0,044
-354,796	202,920	-0,100	0,111
-353,781	-32,813	-0,021	0,008
-352,766	75,664	-0,105	-0,079
-351,752	-62,673	0,209	-0,061
-350,737	173,026	0,023	0,024
-349,723	800,000	0,022	0,056
-348,708	504,016	-0,023	0,038
-347,693	-19,558	-0,062	0,027
-346,679	146,529	-0,030	-0,029
-345,664	-200,000	0,007	-0,108
-344,650	-67,601	-0,141	0,039
-343,635	800,000	-0,038	0,107
-342,620	265,856	0,019	0,024
-341,606	-200,000	-0,021	0,076
-340,591	-53,390	0,130	-0,042
-339,577	139,085	-0,102	-0,096
-338,562	258,474	-0,034	-0,042
-337,548	-200,000	0,012	0,061
-336,533	-121,142	0,028	-0,003
-335,518	-200,000	0,008	0,093
-334,504	124,349	0,106	0,095
-333,489	800,000	0,051	0,103
-332,475	77,613	-0,104	0,079
-331,460	-146,149	-0,132	0,008
-330,445	-15,385	-0,080	-0,036
-329,431	67,798	0,087	0,064
-328,416	-200,000	-0,017	0,055
-327,402	-200,000	-0,009	0,037
-326,387	684,145	-0,076	-0,141
-325,372	800,000	0,044	-0,107
-324,358	2,035	0,038	0,019
-323,343	-200,000	0,004	0,126
-322,329	-30,489	0,049	-0,020
-321,314	36,174	0,074	0,047
-320,299	663,390	-0,020	0,037
-319,285	-200,000	0,009	-0,057
-318,270	-200,000	0,019	-0,105
-317,256	-147,141	-0,131	0,008
-316,241	101,340	-0,037	0,031
-315,226	-128,120	0,202	-0,020
-314,212	193,274	-0,070	0,075
-313,197	20,794	0,118	0,068
-312,183	-16,722	0,016	0,007
-311,168	132,205	-0,089	-0,081
-310,153	716,669	-0,062	-0,118
-309,139	800,000	0,005	-0,013
-308,124	745,193	0,035	-0,067
-307,110	-9,215	0,135	-0,064
-306,095	-200,000	-0,012	0,062
-305,080	-200,000	-0,021	-0,100
-304,066	-28,940	0,085	-0,035
-303,051	800,000	0,024	-0,052
-302,037	-138,940	-0,125	-0,010
-301,022	428,986	0,077	-0,119
-300,008	800,000	-0,040	0,085
-298,993	-200,000	-0,007	0,117
-297,978	57,790	-0,093	0,064
-296,964	-200,000	0,011	-0,100
-295,949	206,685	0,017	0,019
-294,935	-134,875	-0,166	0,014
-293,920	1,954	0,143	0,074
-292,905	-200,000	0,036	0,200
-291,891	40,656	0,179	0,115
-290,876	691,870	0,052	0,097
-289,862	78,051	-0,040	0,030
-288,847	-200,000	-0,016	0,133
-287,832	126,687	0,054	-0,049
-286,818	-54,090	0,037	0,012
-285,803	800,000	-0,082	-0,187
-284,789	-29,866	0,056	-0,023
-283,774	615,613	0,057	-0,102
-282,759	800,000	-0,015	-0,042
-281,745	-93,892	-0,090	-0,017
-280,730	28,216	-0,069	0,041
-279,716	-10,370	0,063	0,030
-278,701	800,000	-0,031	0,087
-277,686	-200,000	0,054	0,170
-276,672	333,449	0,056	-0,077
-275,657	25,054	-0,132	-0,078
-274,643	-99,107	0,085	-0,015
-273,628	-200,000	0,027	-0,159
-272,613	-200,000	-0,017	-0,122
-271,599	-41,676	0,133	-0,048
-270,584	-174,019	0,077	-0,002
-269,570	419,664	-0,085	0,129
-268,555	-200,000	0,010	0,034
-267,540	-44,790	-0,117	0,041
-266,526	-121,980	0,064	0,007
-265,511	-51,363	0,054	-0,018
-264,497	-164,116	0,072	-0,002
-263,482	121,156	-0,026	-0,023
-262,467	-200,000	-0,006	0,053
-261,453	136,546	-0,094	-0,087
-260,438	800,000	0,054	-0,168
-259,424	451,952	-0,010	-0,016
-258,409	-14,122	-0,094	-0,043
-257,395	-101,183	0,058	-0,010
-256,380	800,000	0,068	0,190
-255,365	-200,000	-0,018	0,089
-254,351	-200,000	0,009	0,049
-253,336	-132,184	-0,116	0,011
-252,322	136,771	-0,079	-0,073
-251,307	21,945	-0,151	-0,087
-250,292	34,497	0,055	-0,034
-249,278	-200,000	0,008	0,084
-248,263	-155,620	0,076	-0,003
-247,249	800,000	0,033	0,100
-246,234	-129,376	-0,090	-0,009
-245,219	-200,000	-0,034	-0,167
-244,205	-124,847	0,045	-0,005
-243,190	86,576	-0,065	-0,051
-242,176	-16,534	0,046	-0,021
-241,161	-122,237	0,116	-0,013
-240,146	-200,000	0,017	0,103
-239,132	33,402	-0,075	0,046
-238,117	446,815	0,016	0,026
-237,103	327,189	0,006	0,008
-236,088	29,179	-0,032	0,019
-235,073	210,961	0,015	-0,017
-234,059	-200,000	0,020	-0,141
-233,044	316,698	0,097	0,131
-232,030	-200,000	-0,010	0,033
-231,015	462,808	-0,090	-0,144
-230,000	800,000	-0,035	0,072
-228,986	292,776	0,053	0,069
-227,971	734,344	0,014	0,027
-226,957	369,751	0,082	0,119
-225,942	3,028	0,106	0,054
-224,927	-200,000	-0,020	-0,126
-223,913	-200,000	-0,001	0,017
-222,898	418,492	0,038	-0,058
-221,884	-90,017	-0,112	0,023
-220,869	-92,303	-0,079	0,016
-219,855	79,926	-0,010	0,008
-218,840	-88,253	0,033	-0,007
-217,825	31,022	0,074	-0,045
-216,811	-32,600	0,059	-0,023
-215,796	800,000	-0,040	-0,097
-214,782	80,054	-0,116	-0,089
-213,767	800,000	0,010	0,021
-212,752	398,925	0,040	0,060
-211,738	324,794	0,023	-0,032
-210,723	800,000	0,015	0,037
-209,709	173,089	-0,121	-0,124
-208,694	-200,000	-0,014	-0,051
-207,679	-200,000	0,028	-0,106
-206,665	5,537	-0,023	-0,012
-205,650	800,000	0,069	0,171
-204,636	-200,000	-0,009	0,116
-203,621	-200,000	-0,023	0,092
-202,606	800,000	0,012	-0,036
-201,592	-87,141	0,024	-0,005
-200,577	-18,049	-0,125	-0,056
-199,563	800,000	-0,005	0,013
-198,548	-80,465	0,210	-0,049
-197,533	800,000	-0,023	0,072
-196,519	55,838	0,049	-0,033
-195,504	-17,619	-0,046	-0,020
-194,490	313,771	-0,042	-0,056
-193,475	-200,000	0,011	0,097
-192,460	302,337	0,043	0,057
-191,446	-200,000	-0,007	0,033
-190,431	-32,750	-0,014	-0,006
-189,417	569,883	0,060	-0,105
-188,402	-131,338	0,044	0,004
-187,387	-85,620	-0,089	0,019
-186,373	800,000	-0,053	-0,115
-185,358	403,706	-0,043	0,065
-184,344	-137,614	0,052	-0,004
-183,329	-130,265	-0,032	0,003
-182,315	-2,401	0,107	0,053
-181,300	-28,614	0,059	0,024
-180,285	180,851	-0,187	-0,195
-179,271	800,000	-0,039	-0,106
-178,256	-200,000	-0,002	-0,070
-177,242	429,474	-0,095	0,146
-176,227	-10,742	0,067	-0,031
-175,212	-175,407	-0,111	0,002
-174,198	800,000	-0,054	0,136
-173,183	-116,433	-0,099	-0,013
-172,169	300,641	0,063	0,082
-171,154	800,000	0,060	-0,130
-170,139	97,484	0,139	0,113
-169,125	555,136	0,045	-0,077
-168,110	-95,066	-0,197	-0,037
-167,096	668,025	-0,056	0,104
-166,081	177,642	0,017	0,017
-165,066	-200,000	-0,053	-0,221
-164,052	-200,000	-0,011	0,039
-163,037	-200,000	-0,018	0,105
-162,023	136,494	-0,057	0,053
-161,008	319,369	0,069	-0,093
-159,993	-67,092	-0,076	0,021
-158,979	-19,128	0,068	-0,030
-157,964	-159,772	-0,195	-0,007
-156,950	736,446	-0,021	0,040
-155,935	136,369	-0,115	-0,107
-154,920	800,000	0,017	-0,035
-153,906	-200,000	-0,004	-0,015
-152,891	517,794	0,092	0,153
-151,877	-4,612	-0,019	-0,009
-150,862	800,000	-0,013	0,040
-149,847	-200,000	-0,022	0,071
-148,833	800,000	-0,030	0,064
-147,818	-50,895	-0,023	0,008
-146,804	-121,587	0,070	0,008
-145,789	-127,823	0,034	-0,003
-144,775	-191,613	-0,150	-0,001
-143,760	101,047	0,040	0,033
-142,745	-125,626	0,022	-0,002
-141,731	127,644	0,051	0,046
-140,716	145,138	0,026	0,025
-139,702	271,785	-0,107	0,134
-138,687	-200,000	-0,006	0,100
-137,672	-115,645	-0,184	-0,024
-136,658	-200,000	0,013	-0,041
-135,643	-100,251	-0,023	-0,004
-134,629	-200,000	-0,002	-0,030
-133,614	-200,000	0,000	-0,042
-132,599	-19,499	-0,041	0,018
-131,585	-65,217	0,096	0,027
-130,570	218,438	0,041	-0,047
-129,556	149,957	0,013	-0,012
-128,541	59,061	-0,147	-0,102
-127,526	362,383	0,026	-0,037
-126,512	669,659	0,036	-0,065
-125,497	-101,820	0,057	-0,010
-124,483	-4,451	-0,017	-0,008
-123,468	45,231	0,089	0,058
-122,453	197,075	-0,017	-0,018
-121,439	45,729	-0,061	-0,040
-120,424	800,000	-0,009	0,023
-119,410	-46,122	0,085	0,029
-118,395	0,788	0,127	-0,064
-117,380	-112,270	0,103	0,014
-116,366	148,496	-0,034	0,032
-115,351	800,000	0,013	0,034
-114,337	125,415	-0,055	-0,049
-113,322	-200,000	0,026	-0,141
-112,307	206,234	-0,099	0,109
-111,293	-200,000	-0,016	0,056
-110,278	175,685	0,054	0,055
-109,264	-112,152	-0,087	0,012
-108,249	86,912	-0,067	0,053
-107,234	-49,118	-0,019	-0,006
-106,220	-132,412	-0,041	0,004
-105,205	-100,019	0,046	-0,008
-104,191	-131,556	0,098	0,009
-103,176	-3,806	-0,084	0,041
-102,162	308,589	0,055	0,073
-101,147	36,940	0,039	0,025
-100,132	110,940	-0,046	-0,039
-99,118	601,813	0,041	0,073
-98,103	-169,980	-0,120	0,003
-97,089	647,108	0,040	0,072
-96,074	175,347	0,132	0,135
-95,059	800,000	-0,066	-0,165
-94,045	-25,879	-0,082	0,034
-93,030	33,535	-0,048	0,029
-92,016	800,000	0,031	0,070
-91,001	4,666	0,059	0,031
-89,986	-200,000	0,026	0,150
-88,972	-200,000	-0,023	0,132
-87,957	-41,652	-0,049	0,018
-86,943	-87,656	-0,072	-0,015
-85,928	-193,377	-0,100	-0,001
-84,913	-49,140	-0,113	-0,038
-83,899	-27,902	-0,103	0,042
-82,884	-200,000	-0,000	0,066
-81,870	375,213	-0,110	0,159
-80,855	164,709	0,079	0,079
-79,840	-200,000	0,026	0,089
-78,826	2,014	-0,061	-0,031
-77,811	89,710	0,079	-0,062
-76,797	66,204	-0,046	0,033
-75,782	33,992	0,042	0,026
-74,767	800,000	-0,030	-0,084
-73,753	120,113	-0,056	0,049
-72,738	800,000	-0,041	0,085
-71,724	-200,000	0,002	-0,012
-70,709	-16,243	-0,033	-0,015
-69,694	-200,000	0,006	0,045
-68,680	590,473	0,081	0,141
-67,665	-3,147	0,024	0,012
-66,651	146,314	0,008	-0,007
-65,636	-200,000	0,014	-0,083
-64,622	-93,363	-0,075	-0,014
-63,607	388,154	-0,024	-0,035
-62,592	-28,349	0,056	-0,023
-61,578	-74,657	-0,112	0,028
-60,563	185,040	-0,021	0,022
-59,549	70,424	-0,099	0,072
-58,534	28,375	-2,088	-1,243
-57,519	464,641	-1,258	-1,993
-56,505	-200,000	-0,574	-4,540
-55,490	343,617	0,991	1,375
-54,476	800,000	5,236	11,773
-53,461	-200,000	21,649	346,227
-52,446	800,000	763,155	2368,597
-51,432	556,833	1666,338	2845,990
-50,417	73,141	1663,368	1226,297
-49,403	17,834	1536,907	861,480
-48,388	11,790	1460,657	789,446
-47,373	19,620	1451,828	822,285
-46,359	15,361	1440,914	795,789
-45,344	10,084	1436,816	768,318
-44,330	10,012	1434,893	766,915
-43,315	10,023	1433,040	765,950
-42,300	10,000	1431,541	765,008
-41,286	10,015	1430,267	764,368
-40,271	9,995	1428,941	763,535
-39,257	9,997	1427,778	762,892
-38,242	10,069	1426,510	762,527
-37,227	10,031	1425,447	761,749
-36,213	10,051	1424,101	761,091
-35,198	10,062	1423,064	760,560
-34,184	10,095	1421,987	760,110
-33,169	9,992	1420,901	759,012
-32,154	10,057	1419,641	758,618
-31,140	10,050	1418,443	757,912
-30,125	10,075	1417,389	757,438
-29,111	10,050	1416,156	756,632
-28,096	10,017	1414,945	755,799
-27,082	9,958	1413,750	754,852
-26,067	9,985	1412,839	754,463
-25,052	10,042	1411,707	754,098
-24,038	9,996	1410,879	753,410
-23,023	9,973	1410,072	752,839
-22,009	10,005	1408,809	752,286
-20,994	10,010	1407,753	751,717
-19,979	9,976	1406,908	751,076
-18,965	9,979	1406,003	750,575
-17,950	9,927	1405,051	749,797
-16,936	9,901	1404,229	749,205
-15,921	9,874	1403,443	748,631
-14,906	9,940	1402,187	748,237
-13,892	9,907	1401,484	747,681
-12,877	9,857	1400,785	747,045
-11,863	9,925	1399,704	746,757
-10,848	9,885	1398,873	746,097
-9,833	9,835	1397,986	745,362
-8,819	9,773	1397,149	744,599
-7,804	9,777	1396,286	744,126
-6,790	9,776	1395,227	743,529
-5,775	9,800	1393,983	742,947
-4,760	9,818	1392,932	742,439
-3,746	9,785	1392,203	741,868
-2,731	9,778	1391,285	741,320
-1,717	9,797	1390,531	740,975
-0,702	9,738	1388,780	739,743
0,313	13,859	1300,723	711,688
1,327	30,087	690,273	414,487
2,342	46,465	119,558	78,103
3,356	-0,248	16,475	8,237
4,371	5,127	3,713	1,923
5,386	-10,279	1,071	0,499
6,400	800,000	0,245	0,498
7,415	-40,447	-0,260	-0,095
8,429	137,312	-0,265	-0,244
9,444	315,006	-0,324	-0,432
10,459	4,769	-0,261	-0,135
11,473	22,890	-0,317	-0,183
12,488	61,404	-0,293	-0,205
13,502	74,574	-0,283	-0,209
14,517	5,304	-0,248	-0,128
15,531	77,697	-0,426	-0,319
16,546	-97,414	-0,409	-0,074
17,561	178,102	-0,245	-0,253
18,575	4,778	-0,145	-0,075
19,590	-7,477	-0,155	-0,074
20,604	5,150	-0,318	-0,165
21,619	121,241	-0,331	-0,290
22,634	58,565	-0,470	-0,324
23,648	-3,485	-0,382	-0,187
24,663	78,421	-0,327	-0,245
25,677	-3,371	-0,450	-0,220
26,692	109,785	-0,281	-0,237
27,707	-84,170	-0,430	-0,095
28,721	52,018	-0,407	-0,273
29,736	-36,682	-0,483	-0,182
30,750	155,733	-0,434	-0,421
31,765	75,423	-0,440	-0,327
32,780	69,940	-0,333	-0,242
33,794	34,192	-0,239	-0,147
34,809	50,531	-0,392	-0,260
35,823	140,711	-0,299	-0,278
36,838	108,392	-0,367	-0,308
37,853	200,593	-0,327	-0,354
38,867	42,715	-0,312	-0,199
39,882	-5,578	-0,319	-0,153
40,896	207,416	-0,301	-0,330
41,911	103,211	-0,307	-0,253
42,926	111,324	-0,318	-0,270
43,940	96,374	-0,411	-0,331
44,955	-11,386	-0,374	-0,172
45,969	274,934	-0,204	-0,255
46,984	185,915	-0,305	-0,319
47,999	60,152	-0,328	-0,228
49,013	-48,931	-0,353	-0,118
50,028	20,414	-0,293	-0,166
51,042	77,713	-0,433	-0,324
52,057	149,677	-0,351	-0,335
53,071	194,805	-0,284	-0,303
54,086	163,925	-0,333	-0,330
55,101	162,245	-0,216	-0,213
56,115	80,903	-0,240	-0,182
57,130	136,555	-0,373	-0,342
58,144	53,089	-0,330	-0,221
59,159	16,984	-0,447	-0,248
60,174	-21,489	-0,431	-0,184
61,188	84,095	-0,291	-0,223
62,203	19,865	-0,339	-0,191
63,217	97,296	-0,211	-0,170
64,232	35,001	-0,357	-0,219
65,247	-65,827	-0,438	-0,122
66,261	-69,544	-0,303	-0,081
67,276	135,450	-0,273	-0,249
68,290	-57,875	-0,399	-0,121
69,305	-99,061	-0,334	-0,059
70,320	157,980	-0,278	-0,270
71,334	124,081	-0,173	-0,152
72,349	62,065	-0,271	-0,190
73,363	327,325	-0,285	-0,384
74,378	-59,364	-0,352	-0,105
75,393	186,669	-0,264	-0,276
76,407	-40,781	-0,280	-0,101
77,422	83,114	-0,280	-0,214
78,436	112,848	-0,268	-0,227
79,451	-100,370	-0,385	-0,066
80,466	259,932	-0,201	-0,244
81,480	68,449	-0,273	-0,196
82,495	-27,625	-0,411	-0,166
83,509	54,464	-0,303	-0,204
84,524	145,445	-0,293	-0,275
85,539	174,992	-0,214	-0,217
86,553	-61,838	-0,266	-0,077
87,568	117,553	-0,177	-0,152
88,582	59,003	-0,330	-0,227
89,597	63,360	-0,276	-0,194
90,611	-10,381	-0,334	-0,154
91,626	-81,596	-0,238	-0,054
92,641	-51,308	-0,321	-0,105
93,655	-162,073	-0,222	0,008
94,670	-95,341	-0,389	-0,073
95,684	-31,219	-0,257	-0,101
96,699	339,954	-0,239	-0,326
97,714	121,469	-0,216	-0,188
98,728	413,554	-0,126	-0,189
99,743	-11,033	-0,271	-0,124
100,757	-5,378	-0,196	-0,094
101,772	26,974	-0,232	-0,136
102,787	2,273	-0,220	-0,111
103,801	-1,805	-0,225	-0,110
104,816	170,721	-0,234	-0,235
105,830	-14,632	-0,277	-0,124
106,845	-42,244	-0,223	-0,079
107,860	118,278	-0,207	-0,178
108,874	-74,829	-0,407	-0,101
109,889	327,351	-0,211	-0,283
110,903	44,686	-0,364	-0,234
111,918	168,789	-0,263	-0,262
112,933	55,526	-0,153	-0,104
113,947	-200,000	-0,005	-0,173
114,962	703,982	-0,163	-0,301
115,976	-21,692	-0,310	-0,131
116,991	45,599	-0,348	-0,224
118,006	49,875	-0,227	-0,149
119,020	28,575	-0,297	-0,175
120,035	-18,872	-0,223	-0,097
121,049	-29,759	-0,157	-0,062
122,064	312,048	-0,219	-0,288
123,079	-121,654	-0,278	-0,032
124,093	159,510	-0,244	-0,237
125,108	357,481	-0,195	-0,273
126,122	238,187	-0,263	-0,305
127,137	135,835	-0,332	-0,302
128,151	-39,433	-0,240	-0,087
129,166	48,658	-0,171	-0,112
130,181	84,620	-0,275	-0,210
131,195	173,244	-0,229	-0,231
132,210	61,759	-0,345	-0,239
133,224	79,602	-0,249	-0,186
134,239	-38,225	-0,192	-0,071
135,254	35,515	-0,165	-0,101
136,268	-45,614	-0,320	-0,110
137,283	-63,729	-0,224	-0,064
138,297	-86,341	-0,224	-0,048
139,312	174,168	-0,161	-0,163
140,327	17,437	-0,233	-0,129
141,341	274,717	-0,203	-0,251
142,356	369,683	-0,205	-0,290
143,370	160,650	-0,168	-0,163
144,385	58,303	-0,277	-0,189
145,400	279,549	-0,261	-0,325
146,414	800,000	-0,119	-0,280
147,429	88,684	-0,318	-0,246
148,443	17,839	-0,309	-0,171
149,458	139,117	-0,113	-0,103
150,473	228,549	-0,164	-0,187
151,487	-55,922	-0,354	-0,109
152,502	48,082	-0,299	-0,194
153,516	104,042	-0,192	-0,157
154,531	46,515	-0,380	-0,245
155,546	375,407	-0,056	-0,079
156,560	-15,428	-0,225	-0,100
157,575	-25,935	-0,211	-0,086
158,589	84,228	-0,220	-0,167
159,604	2,711	-0,254	-0,128
160,619	321,377	-0,198	-0,262
161,633	203,458	-0,296	-0,319
162,648	86,334	-0,205	-0,157
163,662	-26,337	-0,199	-0,081
164,677	39,179	-0,228	-0,141
165,692	323,865	-0,144	-0,192
166,706	-40,569	-0,271	-0,097
167,721	85,760	-0,182	-0,139
168,735	275,771	-0,185	-0,229
169,750	42,628	-0,288	-0,182
170,764	-49,669	-0,216	-0,071
171,779	245,393	-0,217	-0,254
172,794	24,182	-0,187	-0,107
173,808	3,386	-0,346	-0,175
174,823	14,664	-0,174	-0,094
175,837	-57,307	-0,294	-0,089
176,852	49,462	-0,172	-0,112
177,867	800,000	-0,116	-0,234
178,881	249,062	-0,146	-0,172
179,896	-102,598	-0,255	-0,042
180,910	7,060	-0,282	-0,146
181,925	171,843	-0,175	-0,175
182,940	-73,870	-0,312	-0,078
183,954	634,344	-0,178	-0,315
184,969	735,438	-0,132	-0,246
185,983	120,839	-0,273	-0,236
186,998	4,309	-0,175	-0,089
188,013	-46,824	-0,279	-0,094
189,027	245,760	-0,183	-0,214
190,042	-20,820	-0,205	-0,087
191,056	112,911	-0,155	-0,130
192,071	6,583	-0,229	-0,118
193,086	59,756	-0,196	-0,134
194,100	163,797	-0,133	-0,130
195,115	-26,189	-0,113	-0,046
196,129	-10,817	-0,352	-0,161
197,144	41,560	-0,238	-0,149
198,159	3,824	-0,181	-0,091
199,173	-138,902	-0,266	-0,020
200,188	187,494	-0,038	-0,039
201,202	-11,888	-0,237	-0,107
202,217	-40,692	-0,245	-0,087
203,232	62,873	-0,205	-0,142
204,246	-11,102	-0,275	-0,125
205,261	-13,772	-0,193	-0,086
206,275	63,945	-0,201	-0,140
207,290	-52,099	-0,208	-0,066
208,304	10,653	-0,123	-0,065
209,319	347,726	-0,152	-0,208
210,334	342,938	-0,174	-0,236
211,348	-11,570	-0,161	-0,073
212,363	-17,357	-0,125	-0,054
213,377	35,577	-0,229	-0,139
214,392	-200,000	-0,048	-0,150
215,407	-69,607	-0,203	-0,053
216,421	-55,444	-0,213	-0,066
217,436	800,000	-0,062	-0,167
218,450	-68,570	-0,139	-0,037
219,465	41,292	-0,237	-0,148
220,480	65,478	-0,243	-0,170
221,494	-36,640	-0,176	-0,065
222,509	-176,543	-0,227	-0,004
223,523	-170,903	-0,140	-0,003
224,538	-61,736	-0,275	-0,079
225,553	206,721	-0,174	-0,188
226,567	21,951	-0,259	-0,146
227,582	136,849	-0,128	-0,116
228,596	30,040	-0,072	0,042
229,611	-194,478	-0,041	-0,000
230,626	56,840	-0,145	-0,097
231,640	24,561	-0,196	-0,112
232,655	-200,000	-0,043	-0,156
233,669	232,866	-0,250	-0,285
234,684	-121,383	-0,349	-0,040
235,699	34,907	-0,075	0,045
236,713	59,077	-0,173	-0,118
237,728	-200,000	-0,047	-0,233
238,742	67,981	-0,211	-0,149
239,757	549,792	-0,169	-0,282
240,772	315,116	-0,176	-0,230
241,786	800,000	-0,068	-0,133
242,801	56,925	-0,209	-0,141
243,815	156,385	-0,085	-0,081
244,830	-89,948	-0,302	-0,060
245,844	-159,777	-0,191	-0,007
246,859	155,285	-0,268	-0,255
247,874	70,003	-0,153	-0,109
248,888	199,833	-0,188	-0,199
249,903	-49,609	-0,246	-0,080
250,917	-115,821	-0,212	0,027
251,932	-66,903	-0,301	-0,081
252,947	45,712	-0,161	-0,103
253,961	-191,810	-0,148	-0,001
254,976	45,749	-0,065	0,041
255,990	800,000	-0,056	-0,130
257,005	229,229	-0,164	-0,184
258,020	210,865	-0,147	-0,159
259,034	305,562	-0,096	-0,124
260,049	67,092	-0,234	-0,164
261,063	112,126	-0,124	-0,103
262,078	742,332	-0,050	-0,093
263,093	-120,886	-0,162	0,019
264,107	-200,000	-0,016	-0,103
265,122	39,292	-0,186	-0,115
266,136	32,895	-0,110	-0,065
267,151	-200,000	-0,017	-0,129
268,166	-42,397	-0,141	-0,049
269,180	151,443	-0,051	-0,048
270,195	-2,115	-0,251	-0,121
271,209	-12,100	-0,301	-0,135
272,224	128,363	-0,201	-0,176
273,239	29,843	-0,137	-0,080
274,253	292,398	-0,032	0,041
275,268	-43,383	-0,257	-0,089
276,282	389,243	-0,223	-0,319
277,297	61,946	-0,171	-0,117
278,312	800,000	-0,067	-0,140
279,326	-55,431	-0,153	-0,047
280,341	-107,456	-0,090	0,013
281,355	-89,074	-0,211	-0,042
282,370	800,000	-0,096	-0,184
283,384	96,780	-0,259	-0,204
284,399	202,400	-0,117	-0,124
285,414	-141,568	-0,163	-0,011
286,428	153,717	-0,199	-0,188
287,443	578,058	-0,079	-0,133
288,457	-122,553	-0,174	-0,019
289,472	-158,178	-0,176	-0,007
290,487	800,000	-0,056	-0,144
291,501	227,056	-0,163	-0,183
292,516	-23,202	-0,200	-0,082
293,530	-67,524	-0,056	0,015
294,545	800,000	0,028	-0,053
295,560	-92,164	-0,153	-0,029
296,574	-54,761	-0,114	0,035
297,589	149,545	-0,153	-0,142
298,603	283,479	-0,182	-0,225
299,618	110,157	-0,214	-0,177
300,633	143,787	-0,206	-0,189
301,647	-47,434	-0,181	-0,060
302,662	800,000	-0,021	0,041
303,676	-75,829	-0,227	-0,055
304,691	-129,003	-0,161	-0,015
305,706	-13,387	-0,251	-0,111
306,720	260,314	-0,075	-0,089
307,735	197,412	-0,118	-0,124
308,749	800,000	-0,067	-0,151
309,764	-61,482	-0,102	-0,029
310,779	11,254	-0,199	0,104
311,793	-27,411	-0,206	-0,082
312,808	-102,296	-0,234	-0,038
313,822	712,821	-0,086	-0,157
314,837	26,666	-0,093	-0,053
315,852	-200,000	-0,052	-0,174
316,866	-66,594	-0,125	-0,034
317,881	-73,648	-0,105	-0,026
318,895	-154,308	-0,257	-0,012
319,910	-200,000	-0,068	-0,339
320,925	113,921	-0,145	-0,121
321,939	-200,000	-0,068	-0,247
322,954	-200,000	-0,035	-0,160
323,968	288,754	-0,092	-0,115
324,983	19,489	-0,086	-0,048
325,997	65,451	-0,161	0,111
327,012	-75,014	-0,143	-0,035
328,027	83,706	-0,229	-0,171
329,041	154,021	-0,118	-0,111
330,056	-114,355	-0,180	-0,023
331,070	115,510	-0,068	0,057
332,085	800,000	-0,024	-0,049
333,100	-158,096	-0,109	0,004
334,114	11,698	-0,184	-0,097
335,129	217,876	-0,131	-0,143
336,143	49,635	-0,082	-0,053
337,158	800,000	-0,053	-0,109
338,173	-62,904	-0,122	0,034
339,187	-127,406	-0,037	-0,004
340,202	127,973	-0,070	0,061
341,216	-128,828	-0,169	-0,016
342,231	-200,000	-0,034	-0,143
343,246	327,396	-0,157	-0,207
344,260	800,000	-0,073	-0,142
345,275	3,312	-0,190	-0,094
346,289	22,595	-0,120	-0,067
347,304	6,268	-0,142	-0,072
348,319	557,835	-0,071	-0,118
349,333	105,720	-0,225	-0,182
350,348	710,967	-0,122	-0,221
351,362	206,274	-0,137	-0,146
352,377	800,000	-0,056	-0,110
353,392	-171,228	-0,168	0,004
354,406	4,570	-0,175	-0,087
355,421	209,300	1309,476	1404,872
356,435	161,087	1469,521	1405,347
