DTS Sentinel unit serial number:	SN410029Multiplexer serial number:	ORYXHardware model number:	OX2-SRSoftware version number:	ORYX F/W v4,00 Oryx Data Collector v3.7.2.0data status	okinstallation	B3 Nyhavnadifferential loss correction	single-endedforward channel	channel 1reverse channel	N/Adate	2023/11/30time	06:47:31forward acquisition time	300,00reverse acquisition time	0,00gamma	499,1914k internal	0,3210k external	0,3210temperature offset calibration	1,0000default loss term (dB/km)	0,3820temperature slope calibration	1,0000multiplexer offset coefficient	1,0000multiplexer slope coefficient	1,0000fibre end	0,00T internal ref (°C)	10,18T ext. ref 1 (°C)	-5,57T ext. ref 2 (°C)	-5,69length (m)	temperature (°C)	Stokes	anti-Stokes-744,400	800,000	-0,143	-0,299
-743,385	800,000	0,044	0,113
-742,371	-200,000	-0,041	-0,212
-741,356	-200,000	-0,021	0,312
-740,342	166,701	-0,143	-0,147
-739,327	-200,000	-0,008	0,451
-738,312	800,000	-0,072	-0,164
-737,298	-200,000	-0,064	0,323
-736,283	391,978	-0,275	-0,415
-735,269	-200,000	-0,023	0,257
-734,254	-63,787	-0,160	-0,047
-733,239	-76,812	-0,245	0,062
-732,225	-200,000	-0,028	-0,209
-731,210	78,030	0,088	0,068
-730,196	-118,710	-0,056	0,007
-729,181	-200,000	0,004	0,086
-728,167	286,099	-0,107	-0,140
-727,152	-200,000	0,001	-0,062
-726,137	-200,000	-0,034	-0,181
-725,123	-111,289	-0,090	-0,013
-724,108	61,182	0,009	-0,007
-723,094	43,557	-0,117	-0,077
-722,079	87,773	0,036	-0,029
-721,064	-200,000	0,002	0,019
-720,050	285,947	-0,126	-0,165
-719,035	-55,126	0,108	0,035
-718,021	800,000	-0,011	0,034
-717,006	55,616	-0,135	-0,094
-715,991	144,886	0,057	-0,055
-714,977	-200,000	-0,032	-0,187
-713,962	-200,000	-0,007	0,085
-712,948	-62,881	0,064	0,019
-711,933	800,000	-0,039	-0,085
-710,918	-200,000	0,005	-0,128
-709,904	-200,000	0,000	-0,050
-708,889	800,000	-0,102	-0,209
-707,875	-200,000	0,003	0,082
-706,860	800,000	0,034	-0,109
-705,845	-149,670	-0,100	0,006
-704,831	-200,000	-0,007	0,059
-703,816	800,000	-0,027	-0,087
-702,802	-200,000	-0,003	-0,053
-701,787	187,701	0,066	0,072
-700,772	157,322	0,034	0,034
-699,758	-200,000	-0,007	0,021
-698,743	-107,494	0,073	0,011
-697,729	-200,000	0,003	-0,017
-696,714	-122,780	-0,039	-0,005
-695,699	-200,000	0,011	-0,182
-694,685	800,000	0,039	-0,087
-693,670	-200,000	0,037	-0,142
-692,656	-126,734	-0,027	-0,003
-691,641	-116,516	0,100	-0,013
-690,627	28,509	-0,112	0,068
-689,612	-200,000	0,010	0,073
-688,597	42,489	-0,018	-0,012
-687,583	90,712	-0,128	-0,104
-686,568	-77,821	0,092	0,023
-685,554	392,181	0,100	-0,151
-684,539	800,000	-0,012	0,028
-683,524	229,959	-0,073	0,087
-682,510	559,304	0,037	-0,065
-681,495	-200,000	0,028	0,091
-680,481	104,236	-0,074	-0,063
-679,466	-9,783	-0,149	-0,071
-678,451	-26,718	-0,013	-0,005
-677,437	-25,851	0,176	0,075
-676,422	338,871	-0,090	0,128
-675,408	462,304	-0,009	0,015
-674,393	36,706	-0,044	-0,028
-673,378	-32,298	-0,165	-0,066
-672,364	-39,898	-0,164	-0,062
-671,349	800,000	-0,035	0,085
-670,335	116,081	-0,055	0,049
-669,320	-148,726	-0,010	-0,001
-668,305	-25,308	-0,079	-0,034
-667,291	-200,000	0,004	-0,048
-666,276	70,651	-0,100	0,075
-665,262	-200,000	-0,008	-0,091
-664,247	-135,030	0,047	-0,004
-663,232	-200,000	0,047	-0,185
-662,218	-57,006	-0,066	0,021
-661,203	800,000	-0,028	0,059
-660,189	-160,265	-0,125	0,005
-659,174	-200,000	-0,003	0,052
-658,159	-105,733	-0,072	0,012
-657,145	800,000	0,030	0,078
-656,130	76,790	-0,127	-0,097
-655,116	91,935	-0,073	0,059
-654,101	-133,145	0,134	0,012
-653,086	-76,434	-0,096	0,024
-652,072	432,526	0,056	-0,088
-651,057	195,159	0,057	-0,062
-650,043	780,558	-0,082	-0,164
-649,028	-200,000	0,003	-0,139
-648,014	253,309	-0,069	0,085
-646,999	-80,382	-0,018	0,004
-645,984	738,548	0,030	0,059
-644,970	121,481	-0,072	-0,065
-643,955	612,395	-0,111	-0,202
-642,941	-40,921	-0,056	-0,021
-641,926	-200,000	0,015	0,077
-640,911	-87,021	0,065	-0,014
-639,897	85,933	0,088	0,070
-638,882	348,957	-0,036	-0,052
-637,868	-134,325	-0,149	-0,013
-636,853	101,477	-0,084	-0,071
-635,838	-200,000	-0,002	-0,034
-634,824	202,125	-0,107	0,119
-633,809	-120,850	0,233	-0,028
-632,795	-100,322	-0,071	0,013
-631,780	356,402	-0,067	-0,097
-630,765	-20,643	0,068	-0,030
-629,751	160,708	-0,015	-0,015
-628,736	512,957	-0,020	-0,033
-627,722	-200,000	-0,003	-0,018
-626,707	35,697	0,053	-0,034
-625,692	213,368	0,098	0,112
-624,678	776,242	0,044	0,088
-623,663	181,599	0,042	0,045
-622,649	-44,150	0,048	-0,017
-621,634	229,397	0,013	-0,015
-620,619	800,000	-0,047	-0,101
-619,605	76,815	0,070	-0,054
-618,590	-200,000	0,016	0,055
-617,576	-200,000	0,019	-0,143
-616,561	197,881	-0,068	-0,075
-615,546	267,031	0,063	0,079
-614,532	269,255	-0,058	-0,074
-613,517	460,185	0,090	-0,145
-612,503	-5,118	0,043	-0,021
-611,488	-114,756	-0,129	0,018
-610,474	251,642	0,024	-0,030
-609,459	83,626	-0,075	-0,059
-608,444	-200,000	-0,020	0,102
-607,430	195,572	-0,064	-0,070
-606,415	40,130	-0,120	0,077
-605,401	-77,870	-0,032	-0,008
-604,386	115,401	-0,056	-0,049
-603,371	38,011	-0,081	0,052
-602,357	87,513	-0,068	-0,054
-601,342	800,000	0,048	-0,108
-600,328	-83,684	-0,157	-0,036
-599,313	67,431	-0,031	0,023
-598,298	335,527	-0,026	-0,036
-597,284	109,865	0,076	-0,066
-596,269	-200,000	-0,002	-0,073
-595,255	-200,000	0,008	0,133
-594,240	418,573	0,025	0,038
-593,225	701,961	0,043	-0,083
-592,211	-166,028	-0,223	-0,007
-591,196	-99,044	0,206	0,037
-590,182	-104,740	-0,084	0,014
-589,167	800,000	0,081	0,187
-588,152	-200,000	-0,007	0,078
-587,138	750,825	-0,045	0,088
-586,123	-200,000	-0,088	0,000
-585,109	109,051	-0,029	0,025
-584,094	111,336	-0,049	0,043
-583,079	-55,057	0,097	-0,031
-582,065	-200,000	-0,012	-0,084
-581,050	-200,000	0,009	0,069
-580,036	800,000	-0,043	0,114
-579,021	-116,333	-0,060	-0,008
-578,006	-83,037	-0,071	-0,016
-576,992	712,425	-0,047	-0,091
-575,977	-81,983	0,071	0,017
-574,963	322,211	0,016	-0,022
-573,948	78,087	0,147	0,113
-572,934	128,414	-0,004	0,004
-571,919	152,426	-0,142	0,139
-570,904	800,000	-0,026	-0,064
-569,890	800,000	0,041	-0,094
-568,875	-79,274	0,095	-0,023
-567,861	-110,304	-0,039	0,006
-566,846	17,563	-0,070	-0,040
-565,831	572,193	0,082	-0,144
-564,817	167,100	0,044	-0,045
-563,802	60,598	-0,061	-0,044
-562,788	-39,480	0,058	-0,022
-561,773	417,555	0,038	0,059
-560,758	411,750	0,043	0,066
-559,744	-25,370	0,109	-0,046
-558,729	-121,594	-0,048	0,006
-557,715	428,912	0,039	-0,061
-556,700	19,659	-0,135	-0,078
-555,685	148,875	0,088	-0,086
-554,671	167,311	0,027	0,027
-553,656	-116,180	-0,073	0,010
-552,642	270,553	-0,065	-0,082
-551,627	-200,000	0,012	0,048
-550,612	131,902	-0,025	-0,023
-549,598	-173,002	0,059	0,001
-548,583	-25,859	-0,165	-0,070
-547,569	137,961	0,020	0,019
-546,554	-184,161	-0,026	-0,000
-545,539	58,099	0,081	0,057
-544,525	-200,000	-0,021	0,117
-543,510	-81,114	0,042	0,010
-542,496	800,000	-0,068	-0,164
-541,481	-44,672	-0,082	0,029
-540,466	-200,000	0,019	0,090
-539,452	-52,027	0,061	0,020
-538,437	-111,987	0,052	0,007
-537,423	309,798	0,080	0,108
-536,408	16,651	-0,096	0,055
-535,393	346,765	-0,057	-0,081
-534,379	800,000	0,035	-0,079
-533,364	92,799	-0,070	-0,057
-532,350	-200,000	0,016	-0,107
-531,335	800,000	0,063	0,137
-530,321	-14,237	-0,089	-0,041
-529,306	-97,777	0,041	-0,008
-528,291	-80,776	-0,088	-0,021
-527,277	-200,000	-0,009	-0,050
-526,262	-3,094	0,036	0,018
-525,248	-51,522	0,144	-0,048
-524,233	113,186	-0,080	-0,070
-523,218	7,258	-0,019	-0,010
-522,204	366,586	-0,029	0,042
-521,189	164,222	0,035	0,035
-520,175	93,601	-0,098	-0,080
-519,160	98,466	0,128	-0,106
-518,145	-112,973	-0,049	-0,007
-517,131	-200,000	-0,001	0,005
-516,116	147,561	0,046	0,044
-515,102	-200,000	-0,012	0,069
-514,087	-200,000	-0,007	-0,146
-513,072	-123,295	0,213	0,024
-512,058	105,415	-0,046	0,039
-511,043	-151,660	0,052	0,003
-510,029	130,759	0,151	0,139
-509,014	570,096	0,055	-0,096
-507,999	47,639	0,020	-0,014
-506,985	-106,642	0,046	-0,007
-505,970	-19,543	-0,102	-0,045
-504,956	-84,649	-0,051	0,011
-503,941	-200,000	-0,005	-0,100
-502,926	345,472	-0,068	-0,096
-501,912	800,000	0,020	0,051
-500,897	-200,000	0,002	0,135
-499,883	294,311	-0,087	-0,114
-498,868	-200,000	0,003	-0,126
-497,853	-200,000	-0,032	-0,151
-496,839	482,509	-0,045	-0,073
-495,824	-25,390	-0,065	0,028
-494,810	-35,017	0,083	0,032
-493,795	-200,000	0,019	0,196
-492,781	-200,000	0,046	-0,180
-491,766	-200,000	0,045	-0,152
-490,751	44,589	-0,059	-0,039
-489,737	-200,000	-0,001	0,078
-488,722	-116,316	0,144	0,019
-487,708	589,910	0,052	-0,092
-486,693	800,000	0,075	0,163
-485,678	-51,045	0,095	0,032
-484,664	212,681	-0,077	-0,087
-483,649	8,846	-0,091	-0,049
-482,635	38,315	-0,137	-0,088
-481,620	2,746	0,057	-0,030
-480,605	92,361	0,064	-0,052
-479,591	-200,000	0,015	0,118
-478,576	-200,000	-0,020	0,081
-477,562	274,916	-0,087	0,111
-476,547	-200,000	0,013	-0,162
-475,532	-33,057	-0,068	0,027
-474,518	-200,000	-0,027	0,146
-473,503	-200,000	0,013	0,147
-472,489	800,000	-0,037	0,086
-471,474	62,580	0,106	-0,076
-470,459	-95,990	-0,100	-0,019
-469,445	233,417	-0,052	-0,062
-468,430	7,445	-0,216	-0,115
-467,416	-194,810	-0,064	0,000
-466,401	-80,074	0,224	-0,054
-465,386	-200,000	-0,001	-0,006
-464,372	-126,961	0,090	-0,009
-463,357	-91,186	0,139	-0,028
-462,343	121,127	0,072	-0,064
-461,328	567,523	0,044	-0,077
-460,313	66,572	-0,047	0,034
-459,299	800,000	-0,022	0,051
-458,284	800,000	0,057	0,126
-457,270	800,000	0,030	0,074
-456,255	-170,149	0,079	-0,002
-455,241	-56,522	-0,129	0,041
-454,226	-200,000	-0,005	-0,112
-453,211	-200,000	0,003	0,035
-452,197	16,809	0,157	0,089
-451,182	375,364	-0,096	0,141
-450,168	-143,325	-0,075	0,005
-449,153	800,000	0,050	-0,120
-448,138	-10,548	-0,052	0,024
-447,124	800,000	-0,027	-0,071
-446,109	-200,000	0,017	0,080
-445,095	-200,000	0,025	0,087
-444,080	-12,989	-0,016	0,008
-443,065	449,669	-0,031	0,048
-442,051	-29,125	-0,029	-0,012
-441,036	-200,000	-0,008	-0,063
-440,022	594,698	-0,044	-0,079
-439,007	67,418	0,112	0,082
-437,992	147,036	-0,089	-0,086
-436,978	-200,000	-0,012	-0,088
-435,963	38,717	-0,109	0,069
-434,949	-87,743	0,042	-0,009
-433,934	800,000	-0,016	-0,044
-432,919	-200,000	-0,037	-0,131
-431,905	-200,000	0,013	0,075
-430,890	-27,559	0,038	-0,016
-429,876	-200,000	-0,037	-0,132
-428,861	-200,000	-0,001	0,105
-427,846	714,192	-0,051	-0,098
-426,832	156,046	-0,087	0,086
-425,817	10,925	-0,064	-0,035
-424,803	45,431	-0,057	-0,038
-423,788	-105,934	-0,062	-0,010
-422,773	-68,143	0,107	-0,030
-421,759	428,025	-0,096	-0,149
-420,744	-200,000	-0,009	-0,080
-419,730	800,000	-0,043	-0,103
-418,715	-30,495	-0,084	-0,034
-417,701	233,357	0,047	-0,056
-416,686	-200,000	-0,054	-0,192
-415,671	267,722	0,117	0,148
-414,657	800,000	-0,052	0,112
-413,642	199,977	0,078	-0,086
-412,628	2,718	0,016	-0,008
-411,613	113,760	0,071	-0,062
-410,598	800,000	-0,034	0,103
-409,584	-200,000	0,010	0,104
-408,569	-61,272	0,141	-0,042
-407,555	490,726	0,022	-0,036
-406,540	287,759	0,127	0,164
-405,525	108,603	0,026	0,023
-404,511	138,366	-0,022	0,021
-403,496	106,845	-0,031	0,026
-402,482	59,953	-0,071	0,050
-401,467	-66,124	0,074	-0,021
-400,452	-137,519	-0,054	-0,004
-399,438	31,531	0,082	-0,050
-398,423	-0,790	0,061	0,031
-397,409	124,619	0,141	0,127
-396,394	94,245	-0,081	0,065
-395,379	-115,961	0,206	0,027
-394,365	106,508	-0,066	0,056
-393,350	261,795	0,016	-0,020
-392,336	-77,659	-0,036	0,009
-391,321	-157,116	-0,081	0,003
-390,306	93,202	0,057	-0,046
-389,292	-14,262	-0,025	0,011
-388,277	16,739	0,072	0,041
-387,263	-200,000	0,011	0,086
-386,248	122,669	0,068	-0,061
-385,233	335,415	0,070	0,097
-384,219	-84,482	0,068	0,015
-383,204	-200,000	-0,053	-0,189
-382,190	-200,000	0,023	-0,072
-381,175	674,468	0,016	-0,031
-380,160	800,000	0,012	0,028
-379,146	-200,000	0,013	0,044
-378,131	26,329	-0,053	0,031
-377,117	300,516	-0,106	-0,140
-376,102	715,896	-0,029	-0,055
-375,088	-104,870	-0,164	-0,027
-374,073	-200,000	-0,003	-0,016
-373,058	800,000	0,020	0,062
-372,044	-15,328	-0,123	0,056
-371,029	-40,001	0,096	-0,036
-370,015	800,000	-0,057	0,154
-369,000	247,223	-0,033	0,040
-367,985	198,062	-0,067	-0,073
-366,971	800,000	0,041	-0,090
-365,956	165,364	0,109	0,110
-364,942	-65,922	0,133	0,038
-363,927	-160,905	0,030	0,001
-362,912	-147,417	-0,076	-0,005
-361,898	-200,000	0,000	-0,074
-360,883	-136,122	-0,060	-0,005
-359,869	-45,093	0,106	-0,037
-358,854	-200,000	-0,005	-0,018
-357,839	-12,780	0,068	-0,032
-356,825	-48,300	0,051	-0,017
-355,810	800,000	-0,035	0,110
-354,796	-200,000	-0,023	-0,115
-353,781	230,413	-0,085	-0,100
-352,766	800,000	0,033	-0,083
-351,752	800,000	0,030	-0,072
-350,737	800,000	0,047	0,104
-349,723	-3,775	0,223	-0,110
-348,708	106,472	-0,098	0,083
-347,693	-102,430	0,052	0,009
-346,679	69,267	0,121	0,089
-345,664	-83,527	-0,114	-0,026
-344,650	794,120	-0,061	0,121
-343,635	46,196	0,098	0,064
-342,620	800,000	0,014	0,032
-341,606	452,983	-0,016	0,026
-340,591	49,178	0,066	0,044
-339,577	-200,000	0,007	-0,078
-338,562	-200,000	-0,012	0,067
-337,548	-135,797	0,067	-0,006
-336,533	87,788	0,061	-0,048
-335,518	-61,020	-0,019	-0,006
-334,504	266,674	-0,079	0,098
-333,489	-5,678	0,025	-0,012
-332,475	-200,000	0,024	0,166
-331,460	436,793	-0,073	-0,114
-330,445	688,159	-0,047	-0,087
-329,431	44,484	0,051	-0,034
-328,416	239,392	0,027	-0,032
-327,402	-119,016	0,103	-0,013
-326,387	-200,000	0,039	-0,136
-325,372	-20,374	-0,149	-0,065
-324,358	372,458	0,091	-0,132
-323,343	-200,000	-0,023	0,138
-322,329	-78,919	0,090	0,022
-321,314	-110,180	-0,060	-0,009
-320,299	-200,000	-0,017	-0,086
-319,285	800,000	0,040	0,115
-318,270	16,941	0,117	0,066
-317,256	-77,388	0,063	0,015
-316,241	-200,000	0,005	0,037
-315,226	27,444	-0,058	0,035
-314,212	50,220	0,085	0,057
-313,197	-34,858	-0,213	0,083
-312,183	37,147	-0,019	-0,012
-311,168	-176,928	0,079	-0,001
-310,153	510,607	0,039	-0,065
-309,139	507,679	0,036	0,060
-308,124	-200,000	0,026	0,089
-307,110	646,282	0,077	0,141
-306,095	647,409	-0,090	0,166
-305,080	-200,000	-0,026	-0,094
-304,066	-46,980	-0,033	-0,011
-303,051	-200,000	-0,033	-0,125
-302,037	-200,000	0,008	-0,044
-301,022	455,355	0,050	-0,080
-300,008	-48,412	-0,081	0,028
-298,993	160,969	0,130	0,130
-297,978	261,022	-0,077	0,096
-296,964	-200,000	0,023	0,171
-295,949	317,872	0,111	0,151
-294,935	-79,646	-0,038	-0,009
-293,920	-200,000	0,010	-0,079
-292,905	-200,000	-0,028	0,180
-291,891	800,000	0,021	0,042
-290,876	-200,000	0,146	-0,000
-289,862	800,000	0,015	0,032
-288,847	800,000	0,062	-0,162
-287,832	-50,287	-0,134	-0,045
-286,818	-200,000	0,023	-0,080
-285,803	-200,000	-0,041	-0,150
-284,789	173,015	0,133	0,137
-283,774	467,197	-0,060	0,096
-282,759	566,363	-0,029	-0,050
-281,745	800,000	0,025	-0,065
-280,730	516,420	-0,046	-0,078
-279,716	-200,000	0,001	-0,054
-278,701	-83,153	0,106	-0,024
-277,686	167,596	-0,052	0,053
-276,672	596,469	0,038	0,068
-275,657	-47,027	-0,079	0,027
-274,643	-200,000	0,000	-0,118
-273,628	-200,000	0,008	-0,034
-272,613	-118,838	0,061	0,008
-271,599	-200,000	-0,032	0,133
-270,584	-200,000	0,004	0,053
-269,570	122,882	0,127	0,113
-268,555	-200,000	0,024	0,082
-267,540	-160,261	-0,097	0,004
-266,526	-67,275	-0,166	0,046
-265,511	-200,000	0,005	0,024
-264,497	800,000	0,033	-0,086
-263,482	-30,364	-0,044	0,018
-262,467	-200,000	-0,003	0,136
-261,453	145,052	0,047	0,044
-260,438	9,263	0,012	-0,006
-259,424	800,000	-0,030	0,082
-258,409	-69,670	0,114	0,031
-257,395	-149,726	-0,043	0,002
-256,380	182,166	-0,033	-0,035
-255,365	-76,644	0,149	0,037
-254,351	-200,000	-0,010	0,034
-253,336	-75,917	-0,074	0,019
-252,322	800,000	0,017	-0,036
-251,307	-166,528	-0,045	-0,001
-250,292	58,549	-0,109	-0,076
-249,278	-200,000	0,013	-0,068
-248,263	-200,000	-0,029	0,250
-247,249	800,000	0,033	0,074
-246,234	330,651	-0,053	-0,072
-245,219	-104,675	-0,036	-0,006
-244,205	-200,000	0,014	-0,073
-243,190	53,885	0,172	0,117
-242,176	-106,492	-0,106	-0,017
-241,161	-32,587	0,113	0,044
-240,146	-200,000	0,023	0,089
-239,132	306,643	0,029	0,039
-238,117	-200,000	0,024	-0,092
-237,103	-79,977	-0,099	0,023
-236,088	93,516	-0,033	0,026
-235,073	5,379	0,040	-0,021
-234,059	-37,151	0,077	0,029
-233,044	195,493	-0,047	0,050
-232,030	247,822	-0,070	-0,084
-231,015	173,584	-0,050	0,051
-230,000	-91,119	0,106	0,021
-228,986	-200,000	-0,004	-0,038
-227,971	-200,000	-0,003	-0,039
-226,957	19,966	0,122	0,070
-225,942	-200,000	-0,008	0,122
-224,927	84,861	-0,033	-0,026
-223,913	65,699	0,059	-0,042
-222,898	69,852	-0,090	-0,066
-221,884	-97,781	0,186	0,034
-220,869	800,000	-0,020	0,063
-219,855	-58,702	0,060	0,018
-218,840	-2,105	0,165	-0,082
-217,825	-0,945	-0,082	0,041
-216,811	-200,000	-0,006	0,192
-215,796	-136,083	-0,102	-0,008
-214,782	-144,750	0,170	-0,011
-213,767	-68,943	-0,032	-0,009
-212,752	800,000	-0,027	0,061
-211,738	264,298	-0,096	0,119
-210,723	-40,217	0,087	0,032
-209,709	412,625	-0,034	-0,051
-208,694	134,368	-0,128	-0,118
-207,679	-200,000	-0,033	-0,121
-206,665	800,000	-0,064	-0,149
-205,650	-63,691	0,082	-0,024
-204,636	-200,000	0,001	-0,062
-203,621	-200,000	0,006	0,060
-202,606	190,008	-0,047	0,050
-201,592	800,000	0,080	-0,158
-200,577	724,167	-0,044	-0,084
-199,563	514,484	0,039	-0,065
-198,548	-138,723	-0,108	-0,008
-197,533	800,000	0,025	0,068
-196,519	484,422	0,073	0,118
-195,504	-200,000	-0,028	0,100
-194,490	-19,500	-0,046	-0,020
-193,475	-45,508	-0,088	0,031
-192,460	142,902	0,093	-0,088
-191,446	9,727	0,063	0,034
-190,431	243,060	-0,075	0,090
-189,417	-200,000	-0,002	0,027
-188,402	221,922	-0,080	-0,092
-187,387	-200,000	-0,007	-0,175
-186,373	557,959	-0,008	0,014
-185,358	-69,297	-0,068	0,018
-184,344	-120,273	0,116	0,014
-183,329	-68,006	0,043	-0,012
-182,315	-200,000	0,057	0,211
-181,300	-200,000	0,010	0,059
-180,285	-50,522	0,059	-0,020
-179,271	-91,412	0,111	-0,022
-178,256	-120,890	-0,185	-0,022
-177,242	93,796	0,094	-0,075
-176,227	800,000	-0,031	0,081
-175,212	800,000	-0,048	-0,099
-174,198	46,656	-0,127	0,083
-173,183	58,469	0,063	-0,044
-172,169	15,250	0,076	-0,042
-171,154	-88,387	0,033	-0,007
-170,139	4,398	0,059	-0,030
-169,125	-200,000	-0,032	0,178
-168,110	-200,000	0,008	-0,096
-167,096	22,950	-0,042	0,024
-166,081	800,000	-0,044	-0,130
-165,066	272,062	-0,112	-0,140
-164,052	-13,469	-0,070	-0,032
-163,037	-0,477	-0,120	0,060
-162,023	-200,000	0,011	-0,084
-161,008	262,598	-0,045	-0,055
-159,993	73,093	-0,230	0,170
-158,979	102,189	-0,053	0,044
-157,964	59,568	0,061	0,042
-156,950	800,000	-0,048	0,097
-155,935	228,712	0,061	0,070
-154,920	-200,000	-0,011	0,205
-153,906	-63,196	-0,043	-0,012
-152,891	39,386	-0,025	0,016
-151,877	-200,000	-0,007	-0,048
-150,862	-56,468	-0,052	-0,016
-149,847	-100,205	-0,089	0,016
-148,833	-35,918	-0,061	0,023
-147,818	613,803	0,043	-0,076
-146,804	-63,289	0,069	-0,020
-145,789	-200,000	-0,022	0,158
-144,775	-200,000	0,000	0,026
-143,760	273,023	-0,024	-0,030
-142,745	-29,499	0,091	0,037
-141,731	52,710	0,081	0,055
-140,716	-148,330	-0,076	0,004
-139,702	213,058	0,168	0,188
-138,687	233,734	-0,019	0,022
-137,672	86,074	-0,062	-0,048
-136,658	-200,000	0,053	-0,192
-135,643	-158,192	-0,107	-0,004
-134,629	720,631	0,060	0,113
-133,614	161,937	0,037	0,037
-132,599	-200,000	-0,037	-0,120
-131,585	800,000	-0,012	0,034
-130,570	-200,000	0,037	0,131
-129,556	-200,000	-0,003	0,052
-128,541	359,563	-0,042	-0,060
-127,526	-53,077	0,139	-0,045
-126,512	800,000	-0,004	-0,013
-125,497	573,812	0,073	0,126
-124,483	-7,293	0,051	-0,024
-123,468	800,000	-0,048	0,102
-122,453	169,116	-0,092	-0,093
-121,439	259,678	-0,040	-0,049
-120,424	754,100	0,073	0,140
-119,410	54,883	0,057	-0,039
-118,395	800,000	0,035	0,075
-117,380	-3,341	-0,045	-0,022
-116,366	-86,936	0,145	-0,031
-115,351	-87,564	-0,107	-0,023
-114,337	569,763	-0,027	0,047
-113,322	-3,116	-0,082	-0,040
-112,307	-200,000	0,005	0,030
-111,293	142,092	0,160	0,150
-110,278	800,000	-0,047	-0,117
-109,264	102,962	0,032	0,026
-108,249	73,581	-0,088	0,065
-107,234	-42,466	0,097	0,035
-106,220	156,820	-0,041	0,040
-105,205	200,599	0,015	0,017
-104,191	-98,913	0,113	0,020
-103,176	19,428	0,044	-0,025
-102,162	-16,442	-0,063	0,028
-101,147	231,397	0,064	-0,074
-100,132	-133,607	-0,105	-0,009
-99,118	68,246	-0,063	-0,046
-98,103	-125,155	-0,105	0,011
-97,089	-200,000	0,004	0,125
-96,074	-200,000	-0,007	0,032
-95,059	138,733	-0,059	0,055
-94,045	186,302	0,069	0,072
-93,030	-72,018	-0,158	-0,041
-92,016	-200,000	0,011	-0,104
-91,001	12,793	-0,177	0,096
-89,986	-19,459	0,024	-0,011
-88,972	-200,000	0,030	0,153
-87,957	231,608	0,080	0,093
-86,943	124,616	-0,084	-0,074
-85,928	-96,150	-0,062	0,012
-84,913	-153,891	-0,103	-0,005
-83,899	525,374	-0,020	0,034
-82,884	-200,000	0,083	0,000
-81,870	-20,095	0,181	-0,078
-80,855	667,947	-0,030	0,055
-79,840	494,595	0,032	0,051
-78,826	389,384	-0,056	-0,082
-77,811	18,201	0,058	-0,033
-76,797	-200,000	-0,027	0,132
-75,782	116,719	0,052	-0,045
-74,767	393,884	0,075	0,110
-73,753	94,397	0,056	0,045
-72,738	-44,816	-0,161	0,056
-71,724	-60,834	-0,106	0,032
-70,709	800,000	0,047	-0,139
-69,694	-200,000	0,007	0,069
-68,680	-154,524	0,075	-0,003
-67,665	-200,000	0,004	0,018
-66,651	-52,563	0,056	0,018
-65,636	-200,000	-0,038	-0,120
-64,622	71,293	-0,042	0,031
-63,607	-200,000	0,001	-0,155
-62,592	694,937	-0,021	-0,039
-61,578	53,478	0,025	0,017
-60,563	-200,000	-0,031	0,139
-59,549	800,000	0,034	0,082
-58,534	32,779	-1,938	-1,182
-57,519	474,796	-1,279	-2,045
-56,505	-200,000	-0,354	-4,305
-55,490	350,916	1,026	1,436
-54,476	800,000	5,067	11,226
-53,461	-200,000	21,088	339,712
-52,446	800,000	759,625	2357,405
-51,432	559,017	1662,221	2843,300
-50,417	73,640	1661,304	1227,255
-49,403	18,079	1534,915	861,562
-48,388	12,011	1458,344	789,231
-47,373	19,312	1449,618	819,521
-46,359	15,461	1438,755	795,032
-45,344	10,311	1434,421	768,085
-44,330	10,272	1432,696	766,946
-43,315	10,226	1430,888	765,728
-42,300	10,260	1428,876	764,783
-41,286	10,268	1427,804	764,215
-40,271	10,204	1426,695	763,290
-39,257	10,218	1425,548	762,709
-38,242	10,278	1424,131	762,204
-37,227	10,245	1423,313	761,580
-36,213	10,247	1421,954	760,832
-35,198	10,268	1421,049	760,418
-34,184	10,287	1420,010	759,922
-33,169	10,246	1418,433	758,854
-32,154	10,252	1417,430	758,317
-31,140	10,315	1416,204	757,926
-30,125	10,360	1415,055	757,495
-29,111	10,286	1414,118	756,616
-28,096	10,258	1412,821	755,758
-27,082	10,219	1411,599	754,895
-26,067	10,209	1410,603	754,284
-25,052	10,229	1409,680	753,855
-24,038	10,238	1408,576	753,274
-23,023	10,196	1407,703	752,584
-22,009	10,200	1406,635	751,998
-20,994	10,189	1405,546	751,335
-19,979	10,169	1404,680	750,752
-18,965	10,170	1403,782	750,244
-17,950	10,157	1402,927	749,696
-16,936	10,129	1402,349	749,228
-15,921	10,095	1401,285	748,471
-14,906	10,151	1400,189	748,118
-13,892	10,190	1398,976	747,621
-12,877	10,113	1398,550	747,007
-11,863	10,125	1397,643	746,546
-10,848	10,107	1396,552	745,849
-9,833	10,120	1395,658	745,406
-8,819	10,042	1394,926	744,621
-7,804	9,997	1394,217	744,006
-6,790	10,054	1393,032	743,608
-5,775	10,045	1391,832	742,897
-4,760	10,057	1390,843	742,392
-3,746	10,056	1389,873	741,844
-2,731	10,042	1389,131	741,351
-1,717	9,998	1388,327	740,690
-0,702	10,035	1386,502	739,861
0,313	14,064	1299,219	711,714
1,327	30,196	689,816	414,438
2,342	47,037	119,309	78,154
3,356	-0,813	16,490	8,213
4,371	5,737	3,529	1,835
5,386	21,953	0,893	0,512
6,400	-200,000	0,175	0,714
7,415	33,737	-0,235	-0,144
8,429	86,139	-0,242	-0,187
9,444	208,000	-0,229	-0,253
10,459	282,341	-0,122	-0,154
11,473	-34,497	-0,316	-0,121
12,488	5,918	-0,108	-0,056
13,502	146,217	-0,425	-0,402
14,517	92,582	-0,252	-0,200
15,531	9,470	-0,403	-0,214
16,546	-22,844	-0,430	-0,182
17,561	145,295	-0,259	-0,245
18,575	61,897	-0,068	-0,048
19,590	150,036	-0,255	-0,244
20,604	31,509	-0,206	-0,124
21,619	82,596	-0,430	-0,329
22,634	221,935	-0,357	-0,405
23,648	68,519	-0,283	-0,204
24,663	59,530	-0,338	-0,235
25,677	121,391	-0,286	-0,251
26,692	-10,161	-0,314	-0,146
27,707	68,080	-0,320	-0,230
28,721	78,588	-0,334	-0,251
29,736	17,968	-0,295	-0,165
30,750	33,158	-0,365	-0,222
31,765	-1,187	-0,417	-0,207
32,780	35,590	-0,281	-0,173
33,794	62,749	-0,349	-0,246
34,809	78,421	-0,346	-0,260
35,823	-10,308	-0,483	-0,224
36,838	200,836	-0,309	-0,334
37,853	-2,234	-0,351	-0,173
38,867	133,822	-0,254	-0,231
39,882	70,662	-0,438	-0,318
40,896	0,533	-0,364	-0,182
41,911	1,167	-0,253	-0,127
42,926	82,443	-0,413	-0,315
43,940	45,152	-0,418	-0,270
44,955	74,235	-0,397	-0,292
45,969	-64,476	-0,312	-0,088
46,984	-46,555	-0,347	-0,119
47,999	-78,510	-0,366	-0,087
49,013	52,703	-0,246	-0,165
50,028	6,388	-0,299	-0,156
51,042	-33,155	-0,343	-0,133
52,057	306,930	-0,218	-0,286
53,071	91,363	-0,303	-0,239
54,086	64,096	-0,273	-0,193
55,101	93,731	-0,262	-0,208
56,115	-74,499	-0,351	-0,088
57,130	-65,686	-0,312	-0,087
58,144	194,085	-0,348	-0,371
59,159	-30,788	-0,479	-0,189
60,174	45,934	-0,544	-0,353
61,188	260,604	-0,275	-0,334
62,203	-23,833	-0,363	-0,152
63,217	165,441	-0,367	-0,364
64,232	46,024	-0,316	-0,205
65,247	62,794	-0,360	-0,252
66,261	148,068	-0,298	-0,282
67,276	84,917	-0,299	-0,230
68,290	119,379	-0,273	-0,237
69,305	-20,985	-0,446	-0,191
70,320	49,262	-0,328	-0,216
71,334	-69,460	-0,342	-0,091
72,349	18,945	-0,364	-0,204
73,363	-117,678	-0,353	-0,044
74,378	191,399	-0,274	-0,289
75,393	-4,341	-0,325	-0,157
76,407	-143,686	-0,323	-0,021
77,422	-9,937	-0,371	-0,172
78,436	159,642	-0,255	-0,249
79,451	87,411	-0,377	-0,292
80,466	49,821	-0,407	-0,268
81,480	276,499	-0,262	-0,327
82,495	119,612	-0,252	-0,219
83,509	73,175	-0,185	-0,135
84,524	-28,085	-0,243	-0,098
85,539	-99,439	-0,311	0,054
86,553	40,822	-0,338	-0,213
87,568	35,538	-0,386	-0,237
88,582	-20,465	-0,349	-0,150
89,597	-5,575	-0,417	-0,200
90,611	-87,449	-0,204	-0,043
91,626	-6,406	-0,375	-0,178
92,641	65,167	-0,233	-0,165
93,655	-77,317	-0,288	-0,070
94,670	13,063	-0,323	-0,175
95,684	260,834	-0,231	-0,281
96,699	166,143	-0,218	-0,216
97,714	-56,721	-0,345	-0,106
98,728	361,190	-0,165	-0,232
99,743	-26,102	-0,270	-0,110
100,757	42,443	-0,322	-0,204
101,772	-27,846	-0,394	-0,159
102,787	100,922	-0,152	-0,123
103,801	-6,872	-0,331	-0,157
104,816	148,548	-0,249	-0,236
105,830	-56,224	-0,228	-0,070
106,845	-36,031	-0,263	-0,099
107,860	-21,689	-0,275	-0,117
108,874	65,743	-0,315	-0,223
109,889	69,222	-0,423	-0,303
110,903	278,531	-0,172	-0,215
111,918	-27,696	-0,222	-0,090
112,933	156,744	-0,126	-0,122
113,947	200,535	-0,175	-0,188
114,962	-84,982	-0,235	-0,051
115,976	237,988	-0,164	-0,190
116,991	10,359	-0,287	-0,152
118,006	-70,729	-0,270	-0,071
119,020	134,323	-0,253	-0,229
120,035	360,806	-0,171	-0,239
121,049	-84,780	-0,313	-0,068
122,064	152,179	-0,266	-0,254
123,079	-61,401	-0,217	-0,063
124,093	73,911	-0,153	-0,112
125,108	10,797	-0,294	-0,156
126,122	215,797	-0,206	-0,228
127,137	-11,463	-0,298	-0,136
128,151	-63,729	-0,246	-0,070
129,166	11,572	-0,292	-0,156
130,181	730,235	-0,067	-0,126
131,195	65,612	-0,317	-0,223
132,210	-66,602	-0,350	-0,096
133,224	-62,314	-0,310	-0,090
134,239	15,436	-0,217	-0,118
135,254	196,488	-0,118	-0,126
136,268	-155,807	-0,186	-0,008
137,283	114,182	-0,229	-0,194
138,297	93,537	-0,279	-0,220
139,312	-12,541	-0,418	-0,190
140,327	171,555	-0,248	-0,248
141,341	-97,911	-0,287	-0,051
142,356	-144,815	-0,171	0,011
143,370	107,465	-0,188	-0,156
144,385	26,579	-0,315	-0,183
145,400	18,988	-0,239	-0,133
146,414	220,618	-0,231	-0,259
147,429	265,666	-0,246	-0,300
148,443	479,292	-0,142	-0,225
149,458	217,282	-0,205	-0,227
150,473	69,246	-0,276	-0,198
151,487	2,981	-0,266	-0,134
152,502	161,409	-0,271	-0,264
153,516	340,459	-0,246	-0,335
154,531	20,565	-0,214	-0,120
155,546	-22,607	-0,244	-0,102
156,560	248,152	-0,252	-0,298
157,575	-61,793	-0,192	-0,056
158,589	-73,770	-0,203	-0,051
159,604	228,969	-0,207	-0,235
160,619	-62,425	-0,405	-0,116
161,633	229,467	-0,217	-0,246
162,648	179,169	-0,206	-0,209
163,662	-94,378	-0,159	-0,030
164,677	179,003	-0,149	-0,152
165,692	-122,493	-0,174	-0,019
166,706	22,053	-0,276	-0,156
167,721	27,895	-0,197	-0,115
168,735	-2,633	-0,254	-0,123
169,750	73,566	-0,303	-0,221
170,764	635,785	-0,040	-0,070
171,779	-35,316	-0,134	-0,050
172,794	435,643	-0,173	-0,263
173,808	110,216	-0,204	-0,170
174,823	406,097	-0,144	-0,212
175,837	218,384	-0,118	-0,131
176,852	127,404	-0,226	-0,199
177,867	72,977	-0,180	-0,131
178,881	-129,168	-0,148	-0,014
179,896	65,368	-0,170	-0,119
180,910	393,772	-0,187	-0,272
181,925	62,076	-0,234	-0,162
182,940	-33,941	-0,322	-0,123
183,954	-200,000	-0,013	-0,056
184,969	40,444	-0,293	-0,183
185,983	-103,653	-0,244	-0,039
186,998	35,576	-0,191	-0,116
188,013	399,399	-0,167	-0,243
189,027	92,627	-0,174	-0,136
190,042	215,263	-0,236	-0,260
191,056	-30,757	-0,222	-0,087
192,071	-200,000	-0,096	-0,327
193,086	56,308	-0,295	-0,199
194,100	111,985	-0,170	-0,142
195,115	65,465	-0,236	-0,165
196,129	-66,503	-0,220	-0,060
197,144	11,105	-0,323	-0,171
198,159	98,202	-0,224	-0,179
199,173	-2,096	-0,077	-0,038
200,188	-89,524	-0,230	-0,047
201,202	88,220	-0,192	-0,148
202,217	58,272	-0,255	-0,173
203,232	51,011	-0,200	-0,131
204,246	-46,692	-0,230	-0,078
205,261	800,000	-0,115	-0,256
206,275	451,655	-0,166	-0,255
207,290	-142,573	-0,071	0,005
208,304	56,087	-0,158	-0,106
209,319	-11,956	-0,260	-0,118
210,334	438,051	-0,166	-0,252
211,348	107,647	-0,215	-0,177
212,363	187,373	-0,209	-0,216
213,377	95,422	-0,187	-0,147
214,392	-8,316	-0,243	-0,113
215,407	318,146	-0,155	-0,204
216,421	-43,750	-0,277	-0,096
217,436	-75,563	-0,256	-0,063
218,450	166,875	-0,187	-0,184
219,465	98,083	-0,245	-0,195
220,480	-176,645	-0,226	0,004
221,494	566,373	-0,126	-0,212
222,509	-1,672	-0,153	-0,074
223,523	-78,987	-0,286	-0,067
224,538	128,628	-0,236	-0,208
225,553	154,633	-0,150	-0,143
226,567	127,374	-0,233	-0,205
227,582	63,381	-0,118	-0,082
228,596	567,686	-0,114	-0,192
229,611	-12,608	-0,230	-0,103
230,626	52,441	-0,122	-0,080
231,640	-58,182	-0,208	-0,062
232,655	131,471	-0,100	-0,089
233,669	-61,632	-0,191	-0,055
234,684	-117,307	-0,214	-0,027
235,699	366,497	-0,165	-0,230
236,713	-50,205	-0,220	-0,071
237,728	-103,496	-0,134	-0,022
238,742	5,609	-0,208	-0,106
239,757	-89,475	-0,219	-0,044
240,772	329,071	-0,195	-0,260
241,786	630,656	-0,081	-0,141
242,801	54,096	-0,237	-0,157
243,815	396,746	-0,107	-0,155
244,830	-200,000	-0,068	-0,228
245,844	-39,790	-0,148	-0,053
246,859	350,698	-0,100	-0,137
247,874	-44,004	-0,306	-0,106
248,888	-48,573	-0,067	-0,022
249,903	102,825	-0,288	-0,232
250,917	695,820	-0,150	-0,274
251,932	800,000	-0,120	-0,231
252,947	-39,457	-0,194	-0,070
253,961	-46,160	-0,263	-0,089
254,976	216,694	-0,210	-0,231
255,990	264,937	-0,118	-0,142
257,005	18,581	-0,078	-0,043
258,020	-59,193	-0,048	0,014
259,034	-106,415	-0,255	-0,039
260,049	40,327	-0,165	-0,102
261,063	-129,679	-0,307	-0,029
262,078	231,962	-0,207	-0,234
263,093	800,000	-0,108	-0,230
264,107	445,878	-0,080	-0,121
265,122	89,740	-0,202	-0,156
266,136	-138,421	-0,209	0,016
267,151	44,324	-0,224	-0,142
268,166	-20,351	-0,183	-0,077
269,180	-69,103	-0,264	-0,070
270,195	653,703	-0,163	-0,290
271,209	271,229	-0,148	-0,180
272,224	-58,233	-0,167	0,050
273,239	-86,629	-0,190	-0,040
274,253	1,592	-0,275	-0,136
275,268	147,058	-0,202	-0,187
276,282	7,230	-0,062	-0,032
277,297	800,000	-0,086	-0,226
278,312	-52,061	-0,179	-0,057
279,326	-45,425	-0,197	-0,067
280,341	121,262	-0,114	-0,097
281,355	-200,000	-0,061	-0,220
282,370	119,487	-0,137	-0,117
283,384	327,225	-0,217	-0,287
284,399	90,662	-0,195	-0,150
285,414	63,096	-0,300	-0,206
286,428	-59,107	-0,132	-0,039
287,443	96,567	-0,144	-0,114
288,457	-29,834	-0,195	-0,076
289,472	78,472	-0,225	-0,165
290,487	-200,000	-0,173	0,000
291,501	419,000	-0,150	-0,222
292,516	469,335	-0,155	-0,240
293,530	136,705	-0,138	-0,124
294,545	-163,078	-0,175	0,006
295,560	-200,000	0,007	-0,055
296,574	-10,433	-0,154	-0,070
297,589	25,090	-0,267	-0,152
298,603	86,051	-0,181	-0,137
299,618	96,182	-0,254	-0,200
300,633	-82,035	-0,172	0,038
301,647	-132,584	-0,100	-0,009
302,662	76,334	-0,171	-0,124
303,676	-50,948	-0,241	-0,077
304,691	-69,000	-0,122	-0,032
305,706	86,500	-0,222	-0,168
306,720	450,787	-0,123	-0,187
307,735	-45,029	-0,180	-0,061
308,749	1,273	-0,229	-0,113
309,764	-118,187	-0,151	0,018
310,779	-33,810	-0,120	0,045
311,793	-88,487	-0,207	-0,042
312,808	-102,075	-0,239	-0,039
313,822	-125,468	-0,158	-0,016
314,837	-121,344	-0,186	-0,021
315,852	-187,179	-0,128	-0,001
316,866	77,531	-0,109	-0,079
317,881	-25,615	-0,138	-0,056
318,895	-72,498	-0,068	-0,017
319,910	-39,485	-0,148	-0,053
320,925	291,939	-0,121	-0,151
321,939	-162,809	-0,168	0,006
322,954	800,000	-0,101	-0,220
323,968	-200,000	-0,020	-0,113
324,983	476,120	-0,061	-0,094
325,997	-44,485	-0,182	0,062
327,012	144,044	-0,132	-0,121
328,027	103,585	-0,059	-0,047
329,041	-25,652	-0,194	-0,078
330,056	-200,000	-0,023	0,152
331,070	57,144	-0,097	-0,065
332,085	-130,497	-0,123	0,011
333,100	40,070	-0,111	-0,068
334,114	-11,907	-0,292	-0,131
335,129	-38,262	-0,234	-0,084
336,143	326,420	-0,134	-0,177
337,158	800,000	-0,071	-0,148
338,173	43,837	-0,134	0,084
339,187	-20,751	-0,045	-0,019
340,202	-104,011	-0,163	-0,026
341,216	-200,000	0,017	-0,199
342,231	72,884	-0,221	-0,158
343,246	-200,000	-0,060	-0,240
344,260	-138,762	-0,083	-0,006
345,275	-169,081	-0,113	-0,003
346,289	-85,793	-0,104	0,022
347,304	-11,673	-0,105	-0,047
348,319	-134,630	-0,110	-0,009
349,333	-39,588	-0,231	-0,082
350,348	17,098	-0,171	-0,092
351,362	463,990	-0,120	-0,184
352,377	-5,286	-0,082	-0,038
353,392	-114,520	-0,078	0,010
354,406	-27,866	-0,133	0,052
355,421	207,203	1309,885	1398,909
356,435	159,385	1469,989	1399,380
