DTS Sentinel unit serial number:	SN410029Multiplexer serial number:	ORYXHardware model number:	OX2-SRSoftware version number:	ORYX F/W v4,00 Oryx Data Collector v3.7.2.0data status	okinstallation	B3 Nyhavnadifferential loss correction	single-endedforward channel	channel 1reverse channel	N/Adate	2023/12/01time	18:27:30forward acquisition time	300,00reverse acquisition time	0,00gamma	499,1914k internal	0,3202k external	0,3202temperature offset calibration	1,0000default loss term (dB/km)	0,3820temperature slope calibration	1,0000multiplexer offset coefficient	1,0000multiplexer slope coefficient	1,0000fibre end	0,00T internal ref (°C)	14,85T ext. ref 1 (°C)	0,89T ext. ref 2 (°C)	0,87length (m)	temperature (°C)	Stokes	anti-Stokes-744,400	251,353	-0,139	-0,173
-743,385	-200,000	-0,036	0,346
-742,371	696,615	-0,080	-0,153
-741,356	-200,000	0,058	0,419
-740,342	-96,879	-0,235	-0,044
-739,327	800,000	0,058	0,177
-738,312	17,505	-0,322	-0,186
-737,298	-200,000	0,040	0,238
-736,283	193,243	-0,273	-0,300
-735,269	-200,000	-0,030	0,281
-734,254	256,769	-0,253	-0,317
-733,239	124,568	-0,195	0,178
-732,225	569,025	-0,181	-0,321
-731,210	19,432	0,078	0,046
-730,196	-200,000	0,005	-0,018
-729,181	38,225	-0,080	-0,051
-728,167	800,000	0,012	-0,032
-727,152	178,682	-0,083	0,088
-726,137	146,163	-0,085	0,083
-725,123	-200,000	0,000	-0,089
-724,108	800,000	-0,049	-0,102
-723,094	414,941	-0,081	-0,125
-722,079	-200,000	0,030	-0,224
-721,064	112,196	-0,053	-0,047
-720,050	242,974	-0,029	0,036
-719,035	-53,984	-0,053	0,017
-718,021	51,367	0,014	-0,009
-717,006	77,252	-0,030	-0,023
-715,991	192,145	-0,072	-0,079
-714,977	-200,000	0,020	-0,151
-713,962	-106,533	-0,136	0,022
-712,948	482,608	0,071	0,118
-711,933	-127,648	0,124	0,013
-710,918	166,169	-0,063	-0,065
-709,904	-63,728	0,062	0,018
-708,889	-200,000	-0,015	-0,078
-707,875	41,427	-0,054	0,035
-706,860	-200,000	0,001	-0,006
-705,845	-61,097	0,094	0,029
-704,831	262,163	-0,093	0,117
-703,816	-53,662	-0,065	0,021
-702,802	-200,000	0,023	-0,077
-701,787	-154,919	-0,107	0,005
-700,772	183,142	-0,028	0,030
-699,758	-200,000	-0,052	-0,232
-698,743	-9,794	0,023	-0,011
-697,729	-200,000	0,030	0,145
-696,714	-159,493	0,129	-0,005
-695,699	114,958	-0,080	0,071
-694,685	44,079	-0,049	-0,032
-693,670	16,645	0,144	-0,082
-692,656	16,090	0,102	-0,058
-691,641	800,000	-0,021	-0,051
-690,627	-76,740	0,014	-0,004
-689,612	55,567	-0,099	0,069
-688,597	-200,000	0,003	-0,081
-687,583	800,000	-0,092	-0,187
-686,568	173,473	-0,075	-0,079
-685,554	272,242	-0,035	0,045
-684,539	-176,478	-0,056	0,001
-683,524	-143,281	-0,135	-0,009
-682,510	800,000	0,080	0,194
-681,495	685,834	-0,099	-0,188
-680,481	39,670	-0,168	-0,109
-679,466	800,000	-0,028	-0,086
-678,451	780,010	-0,034	0,069
-677,437	-13,295	0,094	0,044
-676,422	800,000	0,018	-0,046
-675,408	119,721	0,012	-0,011
-674,393	-200,000	-0,011	0,072
-673,378	-200,000	0,002	0,065
-672,364	17,864	-0,103	-0,059
-671,349	800,000	-0,038	-0,087
-670,335	400,539	0,090	-0,138
-669,320	-9,231	0,114	0,055
-668,305	-39,532	-0,080	-0,030
-667,291	-116,240	-0,071	-0,009
-666,276	-200,000	0,027	-0,205
-665,262	388,373	-0,026	0,040
-664,247	334,562	-0,139	-0,195
-663,232	58,619	-0,010	-0,007
-662,218	-200,000	0,022	-0,078
-661,203	-68,795	-0,097	0,027
-660,189	43,177	0,124	-0,082
-659,174	-55,419	0,031	0,010
-658,159	800,000	0,044	0,099
-657,145	-173,679	-0,044	-0,001
-656,130	-132,929	0,212	0,019
-655,116	-145,958	-0,081	0,005
-654,101	800,000	-0,037	0,090
-653,086	-72,128	0,150	0,040
-652,072	-158,476	-0,054	0,002
-651,057	-200,000	0,023	0,113
-650,043	130,525	-0,180	-0,167
-649,028	-97,561	0,043	0,008
-648,014	55,280	0,043	0,030
-646,999	800,000	0,058	-0,135
-645,984	239,658	-0,011	-0,013
-644,970	-136,572	-0,179	0,015
-643,955	214,070	-0,064	-0,073
-642,941	800,000	-0,022	-0,056
-641,926	-125,699	0,108	0,012
-640,911	331,150	0,052	0,073
-639,897	800,000	-0,017	0,050
-638,882	800,000	-0,030	-0,069
-637,868	-200,000	-0,004	0,097
-636,853	761,804	-0,049	-0,097
-635,838	-200,000	0,014	0,107
-634,824	377,463	0,070	0,103
-633,809	45,314	-0,100	0,067
-632,795	-200,000	-0,007	0,034
-631,780	327,773	-0,045	-0,062
-630,765	-24,927	-0,049	-0,021
-629,751	-42,309	0,101	-0,037
-628,736	308,246	-0,047	-0,064
-627,722	225,140	0,141	-0,166
-626,707	-176,053	0,084	-0,002
-625,692	-81,250	-0,097	-0,023
-624,678	-63,738	-0,098	-0,029
-623,663	-37,365	0,022	0,008
-622,649	284,282	-0,060	-0,078
-621,634	26,000	-0,110	-0,066
-620,619	-74,313	0,084	0,022
-619,605	-123,794	0,055	-0,006
-618,590	-91,414	-0,102	-0,021
-617,576	239,038	0,053	0,063
-616,561	421,387	-0,052	0,080
-615,546	22,352	-0,025	-0,015
-614,532	13,020	0,061	0,034
-613,517	267,188	0,024	0,031
-612,503	-200,000	-0,021	-0,106
-611,488	321,566	-0,061	0,084
-610,474	-200,000	0,046	0,180
-609,459	167,266	0,038	-0,039
-608,444	-20,392	-0,217	0,096
-607,430	139,278	0,099	-0,094
-606,415	261,433	-0,114	-0,143
-605,401	-77,993	-0,052	0,013
-604,386	214,846	0,061	-0,070
-603,371	800,000	0,037	0,100
-602,357	-200,000	-0,010	0,051
-601,342	38,049	-0,129	0,083
-600,328	-116,556	0,057	0,007
-599,313	-35,784	-0,049	-0,019
-598,298	28,543	-0,032	-0,020
-597,284	-200,000	-0,026	0,179
-596,269	-200,000	0,025	0,170
-595,255	-68,694	0,045	0,013
-594,240	-200,000	-0,011	0,056
-593,225	800,000	-0,028	-0,057
-592,211	-200,000	-0,003	-0,065
-591,196	76,349	-0,086	-0,066
-590,182	-200,000	-0,032	-0,196
-589,167	-186,190	-0,037	0,000
-588,152	800,000	0,042	0,092
-587,138	66,139	-0,068	0,050
-586,123	-45,876	-0,137	0,049
-585,109	83,126	-0,116	-0,091
-584,094	274,630	-0,050	-0,064
-583,079	572,686	0,112	-0,197
-582,065	-38,815	0,024	0,009
-581,050	-200,000	-0,010	0,050
-580,036	378,356	-0,033	0,049
-579,021	-200,000	0,012	-0,045
-578,006	87,146	0,051	-0,040
-576,992	51,297	-0,072	0,049
-575,977	-200,000	0,057	-0,200
-574,963	361,079	0,062	0,090
-573,948	-89,856	-0,063	0,013
-572,934	8,797	0,109	0,059
-571,919	67,297	-0,109	0,080
-570,904	800,000	-0,061	-0,133
-569,890	94,968	-0,046	-0,037
-568,875	364,291	-0,104	0,152
-567,861	-200,000	-0,035	0,126
-566,846	-106,737	0,096	-0,015
-565,831	800,000	-0,024	0,051
-564,817	-200,000	0,012	-0,160
-563,802	192,703	-0,107	-0,117
-562,788	-200,000	0,019	0,080
-561,773	23,481	0,047	-0,028
-560,758	117,206	0,108	0,096
-559,744	800,000	-0,049	0,117
-558,729	264,522	0,066	0,083
-557,715	-200,000	0,001	0,145
-556,700	199,910	-0,070	-0,078
-555,685	-9,910	0,067	-0,032
-554,671	17,314	0,127	-0,073
-553,656	48,741	0,060	0,040
-552,642	34,083	0,049	0,031
-551,627	-71,026	-0,110	-0,030
-550,612	-74,959	0,045	-0,012
-549,598	800,000	0,044	-0,102
-548,583	153,346	0,028	0,028
-547,569	-200,000	-0,027	0,133
-546,554	-200,000	-0,027	0,181
-545,539	165,289	0,120	-0,122
-544,525	-200,000	0,024	-0,117
-543,510	-83,171	-0,025	0,006
-542,496	-60,134	0,101	-0,031
-541,481	-60,463	-0,121	0,037
-540,466	800,000	-0,058	-0,139
-539,452	800,000	-0,011	0,025
-538,437	734,471	-0,047	0,092
-537,423	123,176	0,086	0,078
-536,408	-200,000	0,011	0,049
-535,393	257,666	-0,026	0,032
-534,379	-200,000	-0,025	-0,103
-533,364	-200,000	-0,007	0,025
-532,350	54,766	0,087	-0,061
-531,335	-85,645	0,099	0,022
-530,321	-124,290	-0,104	-0,012
-529,306	-200,000	-0,017	-0,093
-528,291	-119,452	-0,080	-0,010
-527,277	638,556	-0,054	-0,100
-526,262	800,000	-0,061	-0,124
-525,248	-200,000	-0,006	-0,021
-524,233	-71,534	0,097	0,026
-523,218	-91,536	-0,185	-0,038
-522,204	800,000	0,039	-0,078
-521,189	-60,347	-0,091	-0,028
-520,175	-200,000	0,000	-0,072
-519,160	245,696	0,059	0,072
-518,145	-76,749	-0,044	0,011
-517,131	40,578	0,029	0,019
-516,116	-104,499	-0,037	-0,006
-515,102	433,221	0,012	0,019
-514,087	800,000	-0,030	0,065
-513,072	-7,921	0,074	0,036
-512,058	-200,000	-0,008	-0,037
-511,043	-10,876	0,109	0,052
-510,029	-14,130	-0,044	-0,021
-509,014	-200,000	-0,013	-0,060
-507,999	2,221	0,109	0,057
-506,985	10,964	0,088	-0,049
-505,970	-123,452	-0,097	-0,011
-504,956	-68,339	-0,192	-0,053
-503,941	520,768	0,050	-0,084
-502,926	-200,000	-0,003	0,075
-501,912	-200,000	-0,004	-0,059
-500,897	800,000	-0,006	0,017
-499,883	-178,173	-0,186	0,003
-498,868	230,097	-0,076	-0,089
-497,853	298,603	-0,078	0,103
-496,839	219,325	0,044	0,050
-495,824	316,696	0,025	0,034
-494,810	-200,000	0,000	0,134
-493,795	-200,000	-0,021	0,251
-492,781	-88,473	-0,057	-0,012
-491,766	-38,504	-0,154	0,058
-490,751	365,805	0,051	0,075
-489,737	707,993	0,036	0,069
-488,722	91,542	0,074	-0,060
-487,708	800,000	0,037	-0,090
-486,693	-182,676	0,140	-0,002
-485,678	88,174	-0,112	-0,089
-484,664	1,848	-0,132	-0,068
-483,649	238,980	-0,084	0,101
-482,635	800,000	-0,018	-0,044
-481,620	192,967	-0,080	0,088
-480,605	-200,000	0,002	0,083
-479,591	-15,922	0,176	-0,080
-478,576	-200,000	-0,020	-0,070
-477,562	748,070	-0,112	-0,218
-476,547	389,386	-0,008	0,012
-475,532	-200,000	0,020	-0,078
-474,518	-69,059	0,133	-0,037
-473,503	371,540	0,020	-0,029
-472,489	-25,220	0,046	0,020
-471,474	-200,000	-0,008	-0,110
-470,459	156,603	-0,132	-0,131
-469,445	-200,000	-0,010	-0,084
-468,430	86,937	-0,055	-0,044
-467,416	-2,468	0,108	0,054
-466,401	-200,000	0,033	0,128
-465,386	86,714	-0,093	0,074
-464,372	-36,264	0,096	0,037
-463,357	800,000	-0,058	-0,132
-462,343	737,947	0,069	-0,134
-461,328	800,000	-0,015	0,040
-460,313	185,285	-0,061	-0,065
-459,299	526,076	0,042	0,071
-458,284	-126,350	0,072	0,008
-457,270	28,789	0,086	-0,052
-456,255	-200,000	-0,004	-0,088
-455,241	248,988	-0,114	-0,139
-454,226	255,160	0,036	-0,044
-453,211	78,056	-0,094	0,072
-452,197	13,415	0,042	-0,024
-451,182	-200,000	-0,043	0,141
-450,168	485,247	-0,013	-0,021
-449,153	800,000	-0,058	-0,117
-448,138	2,249	-0,046	-0,024
-447,124	434,986	0,018	0,029
-446,109	800,000	0,013	0,038
-445,095	-48,030	-0,048	0,017
-444,080	-200,000	0,012	0,058
-443,065	324,451	0,086	-0,118
-442,051	167,835	-0,083	0,085
-441,036	168,616	0,004	-0,004
-440,022	-200,000	-0,002	-0,025
-439,007	371,062	0,010	0,014
-437,992	-15,459	-0,058	-0,026
-436,978	800,000	-0,012	-0,025
-435,963	-200,000	0,019	0,126
-434,949	-50,901	-0,101	0,034
-433,934	-25,184	-0,051	-0,022
-432,919	-50,959	-0,142	-0,048
-431,905	6,202	0,050	0,027
-430,890	-200,000	0,005	-0,091
-429,876	-200,000	0,003	0,155
-428,861	-4,375	0,123	0,061
-427,846	-200,000	0,008	0,055
-426,832	292,701	-0,051	-0,067
-425,817	-53,570	-0,097	0,032
-424,803	-158,971	-0,066	0,003
-423,788	416,342	0,046	-0,071
-422,773	800,000	-0,046	-0,136
-421,759	-124,256	0,065	-0,007
-420,744	800,000	-0,045	0,094
-419,730	-32,209	-0,043	0,017
-418,715	189,834	0,048	-0,052
-417,701	-200,000	-0,005	0,026
-416,686	34,867	-0,058	0,036
-415,671	-61,701	0,108	0,032
-414,657	88,267	-0,083	-0,066
-413,642	-148,265	0,159	-0,009
-412,628	-2,598	0,097	-0,049
-411,613	800,000	-0,045	0,100
-410,598	313,646	0,063	0,086
-409,584	444,711	-0,011	-0,018
-408,569	207,562	0,013	0,015
-407,555	-200,000	0,013	0,053
-406,540	11,836	0,184	-0,101
-405,525	-105,105	0,100	0,016
-404,511	66,624	-0,118	-0,086
-403,496	-200,000	0,027	-0,088
-402,482	22,672	-0,072	-0,042
-401,467	-1,842	0,207	0,104
-400,452	245,958	0,049	-0,059
-399,438	375,621	-0,036	0,052
-398,423	45,745	-0,061	0,041
-397,409	800,000	-0,058	-0,133
-396,394	-200,000	0,016	-0,070
-395,379	-200,000	0,003	0,038
-394,365	-88,264	0,154	-0,033
-393,350	-200,000	0,005	0,147
-392,336	-200,000	-0,007	0,061
-391,321	325,048	0,049	0,067
-390,306	141,023	-0,119	-0,113
-389,292	-142,195	0,107	0,007
-388,277	800,000	0,021	-0,062
-387,263	800,000	0,016	-0,037
-386,248	-85,546	0,052	0,012
-385,233	23,652	0,140	0,082
-384,219	-10,270	0,113	-0,054
-383,204	-8,627	-0,092	-0,044
-382,190	-12,919	-0,129	0,060
-381,175	-200,000	-0,006	-0,040
-380,160	12,119	-0,105	-0,058
-379,146	-24,810	0,186	-0,079
-378,131	-40,116	0,013	-0,005
-377,117	-200,000	-0,015	-0,071
-376,102	107,407	-0,052	0,044
-375,088	-153,825	0,066	0,003
-374,073	-200,000	-0,017	-0,137
-373,058	286,014	-0,007	0,009
-372,044	341,361	0,020	-0,028
-371,029	521,402	0,038	0,065
-370,015	-8,424	0,080	-0,038
-369,000	-25,588	-0,136	-0,057
-367,985	800,000	-0,037	-0,098
-366,971	77,561	-0,030	0,023
-365,956	441,398	0,084	0,132
-364,942	166,287	-0,109	-0,110
-363,927	-179,589	0,110	0,002
-362,912	-147,246	0,051	-0,003
-361,898	45,751	-0,172	0,114
-360,883	228,157	0,071	-0,083
-359,869	-56,413	0,065	-0,021
-358,854	141,988	0,051	-0,048
-357,839	7,896	0,112	0,060
-356,825	11,483	0,071	0,039
-355,810	800,000	0,029	0,081
-354,796	100,762	0,070	-0,058
-353,781	134,518	0,012	-0,012
-352,766	-79,930	-0,040	-0,009
-351,752	112,534	0,070	0,060
-350,737	-200,000	0,029	0,144
-349,723	-20,690	0,148	0,065
-348,708	-200,000	0,018	0,067
-347,693	-200,000	0,026	0,149
-346,679	653,458	-0,025	-0,046
-345,664	40,145	-0,073	-0,047
-344,650	-114,130	0,037	-0,005
-343,635	286,474	0,138	0,178
-342,620	122,106	-0,065	-0,058
-341,606	-200,000	0,024	0,089
-340,591	590,643	0,018	-0,032
-339,577	-200,000	0,004	-0,020
-338,562	612,385	-0,054	-0,097
-337,548	58,039	0,078	-0,055
-336,533	-111,132	0,140	0,020
-335,518	-80,056	0,027	-0,006
-334,504	800,000	-0,031	0,084
-333,489	-200,000	0,004	-0,033
-332,475	-200,000	-0,017	-0,073
-331,460	800,000	0,039	-0,096
-330,445	-91,941	0,068	0,014
-329,431	-71,526	0,096	0,026
-328,416	800,000	-0,034	0,096
-327,402	327,699	-0,022	-0,030
-326,387	-200,000	0,031	-0,114
-325,372	-135,393	-0,051	0,004
-324,358	800,000	0,024	0,051
-323,343	149,194	0,014	-0,014
-322,329	220,372	-0,085	-0,098
-321,314	-58,509	0,102	-0,031
-320,299	64,274	-0,126	-0,091
-319,285	163,758	-0,092	-0,093
-318,270	-19,753	-0,039	0,017
-317,256	-85,853	-0,154	-0,034
-316,241	-49,374	0,022	-0,007
-315,226	-57,192	-0,120	-0,037
-314,212	-56,748	0,204	-0,064
-313,197	203,178	-0,049	0,054
-312,183	159,282	-0,053	0,052
-311,168	395,615	-0,042	0,063
-310,153	-72,190	-0,071	0,019
-309,139	168,780	0,053	-0,054
-308,124	-200,000	0,000	-0,009
-307,110	186,025	0,072	-0,077
-306,095	126,387	0,026	0,023
-305,080	20,279	0,056	-0,032
-304,066	789,206	-0,056	0,110
-303,051	800,000	-0,032	-0,077
-302,037	-200,000	0,008	-0,105
-301,022	226,296	0,178	-0,207
-300,008	8,249	-0,070	0,038
-298,993	800,000	0,028	0,085
-297,978	800,000	-0,031	0,062
-296,964	-200,000	0,028	0,106
-295,949	419,074	-0,025	-0,038
-294,935	-71,014	-0,084	0,023
-293,920	-200,000	0,037	0,141
-292,905	800,000	0,009	-0,021
-291,891	-118,525	-0,122	0,015
-290,876	-189,822	0,020	-0,000
-289,862	148,938	-0,072	0,070
-288,847	-158,476	-0,052	-0,002
-287,832	800,000	0,036	-0,099
-286,818	21,682	-0,062	-0,036
-285,803	-200,000	-0,004	-0,096
-284,789	380,359	0,100	0,147
-283,774	208,302	0,089	0,100
-282,759	-14,771	0,027	0,012
-281,745	-200,000	0,002	-0,072
-280,730	-200,000	-0,021	0,126
-279,716	78,281	0,044	-0,033
-278,701	105,480	0,054	0,045
-277,686	-81,301	-0,058	0,014
-276,672	660,524	0,060	-0,112
-275,657	181,020	0,044	0,046
-274,643	745,619	0,015	0,029
-273,628	-200,000	0,004	-0,042
-272,613	-48,067	0,048	0,017
-271,599	-7,654	0,031	-0,015
-270,584	-68,503	0,019	0,005
-269,570	359,838	0,046	-0,066
-268,555	-200,000	-0,016	0,064
-267,540	40,881	-0,052	0,033
-266,526	-200,000	0,005	0,021
-265,511	-200,000	0,046	0,170
-264,497	307,477	-0,053	0,070
-263,482	-200,000	0,014	-0,087
-262,467	-144,487	0,024	0,002
-261,453	800,000	0,016	0,043
-260,438	-76,431	0,040	0,010
-259,424	502,019	-0,051	-0,084
-258,409	-43,263	0,012	-0,004
-257,395	-65,574	0,160	-0,046
-256,380	-200,000	-0,006	0,054
-255,365	-26,296	0,022	0,009
-254,351	800,000	-0,047	0,115
-253,336	96,239	-0,049	0,040
-252,322	-45,385	-0,105	-0,037
-251,307	-75,672	-0,047	-0,012
-250,292	-56,413	-0,075	0,023
-249,278	800,000	0,009	-0,021
-248,263	332,449	0,046	0,063
-247,249	-75,117	-0,155	0,039
-246,234	97,569	-0,098	-0,080
-245,219	-6,216	-0,057	-0,028
-244,205	-68,095	-0,089	0,025
-243,190	-200,000	0,012	-0,112
-242,176	164,192	0,080	0,081
-241,161	-74,230	0,087	-0,022
-240,146	231,764	-0,073	0,085
-239,132	-79,769	-0,058	-0,014
-238,117	-58,209	0,016	0,005
-237,103	-200,000	0,014	0,075
-236,088	-200,000	0,033	0,141
-235,073	-55,258	-0,107	0,034
-234,059	-41,455	-0,035	-0,013
-233,044	-4,627	0,024	0,012
-232,030	451,848	-0,014	-0,022
-231,015	126,375	-0,051	-0,046
-230,000	-168,177	-0,082	-0,002
-228,986	-146,343	-0,048	0,003
-227,971	61,160	0,064	0,045
-226,957	11,696	0,102	-0,056
-225,942	-90,387	0,051	-0,011
-224,927	800,000	-0,013	0,041
-223,913	283,489	0,020	-0,026
-222,898	-6,149	0,172	-0,084
-221,884	-200,000	-0,006	0,111
-220,869	48,776	-0,132	0,088
-219,855	-200,000	-0,009	0,066
-218,840	74,536	-0,075	0,056
-217,825	-200,000	0,013	0,042
-216,811	-158,386	-0,116	0,005
-215,796	-14,768	-0,115	-0,052
-214,782	178,312	-0,071	-0,074
-213,767	-200,000	0,011	0,044
-212,752	-5,942	0,150	0,073
-211,738	-36,822	0,098	0,037
-210,723	349,404	0,080	0,113
-209,709	800,000	-0,054	0,140
-208,694	-156,838	-0,097	-0,004
-207,679	281,191	0,097	-0,124
-206,665	800,000	0,009	-0,019
-205,650	746,541	0,051	-0,099
-204,636	166,093	0,053	0,053
-203,621	-200,000	0,007	0,054
-202,606	493,724	-0,065	0,107
-201,592	702,179	0,065	-0,122
-200,577	-148,750	0,050	0,003
-199,563	-200,000	0,009	0,161
-198,548	-33,040	-0,021	-0,008
-197,533	11,630	0,066	0,036
-196,519	121,992	0,027	0,024
-195,504	800,000	0,073	0,177
-194,490	-23,889	-0,220	0,093
-193,475	194,924	-0,043	0,046
-192,460	115,047	0,037	-0,032
-191,446	-200,000	-0,024	-0,090
-190,431	79,182	-0,095	0,072
-189,417	-145,339	0,014	-0,001
-188,402	800,000	-0,025	-0,068
-187,387	-30,741	-0,196	-0,079
-186,373	800,000	-0,024	0,063
-185,358	358,991	0,024	-0,034
-184,344	-16,832	0,046	0,021
-183,329	281,903	-0,086	-0,110
-182,315	-0,548	0,086	-0,043
-181,300	46,880	0,068	0,045
-180,285	-136,679	0,013	-0,001
-179,271	800,000	-0,026	0,058
-178,256	100,542	0,100	0,083
-177,242	-43,100	0,074	-0,027
-176,227	109,681	0,022	0,019
-175,212	-200,000	-0,003	-0,063
-174,198	-199,475	-0,043	0,000
-173,183	-200,000	0,008	-0,097
-172,169	-128,345	0,062	-0,006
-171,154	128,301	-0,030	-0,027
-170,139	231,280	0,067	-0,078
-169,125	-129,634	-0,158	-0,015
-168,110	196,491	-0,043	0,047
-167,096	-20,773	0,017	-0,007
-166,081	-200,000	-0,024	-0,123
-165,066	21,792	-0,044	-0,026
-164,052	119,652	0,082	-0,072
-163,037	-200,000	-0,024	0,095
-162,023	128,931	0,106	-0,096
-161,008	228,285	0,088	0,102
-159,993	-26,060	0,062	-0,026
-158,979	800,000	0,051	0,120
-157,964	492,644	-0,068	-0,112
-156,950	18,336	0,058	-0,033
-155,935	247,900	0,075	0,091
-154,920	141,512	0,111	-0,104
-153,906	-200,000	0,006	-0,022
-152,891	-25,276	0,124	0,052
-151,877	646,849	0,048	0,087
-150,862	181,541	-0,028	-0,030
-149,847	28,073	-0,101	0,061
-148,833	-156,365	-0,105	-0,005
-147,818	469,522	0,066	0,105
-146,804	-120,758	-0,093	0,011
-145,789	800,000	-0,039	-0,097
-144,775	-200,000	-0,008	0,085
-143,760	-127,458	0,093	-0,009
-142,745	589,088	-0,067	-0,118
-141,731	-200,000	-0,043	-0,193
-140,716	-107,705	-0,017	-0,003
-139,702	768,268	0,059	0,114
-138,687	-200,000	-0,025	0,083
-137,672	-200,000	0,019	-0,163
-136,658	-200,000	0,011	-0,187
-135,643	279,452	-0,025	-0,032
-134,629	-108,121	-0,056	-0,008
-133,614	-200,000	-0,012	-0,052
-132,599	526,136	-0,026	-0,044
-131,585	800,000	0,033	0,102
-130,570	-200,000	-0,013	-0,165
-129,556	-37,691	-0,035	0,013
-128,541	193,034	-0,023	-0,025
-127,526	-200,000	0,001	0,010
-126,512	155,386	0,077	0,076
-125,497	95,018	0,048	0,038
-124,483	-200,000	0,038	0,122
-123,468	-200,000	-0,007	0,098
-122,453	-82,253	-0,173	0,040
-121,439	-200,000	0,022	-0,106
-120,424	-200,000	0,018	0,090
-119,410	483,565	-0,011	0,019
-118,395	71,981	0,042	0,031
-117,380	754,880	-0,020	0,038
-116,366	800,000	-0,066	0,134
-115,351	11,018	-0,078	0,042
-114,337	-151,879	-0,079	-0,004
-113,322	84,601	0,077	0,060
-112,307	409,087	-0,073	0,111
-111,293	800,000	-0,034	0,091
-110,278	-200,000	0,029	0,189
-109,264	800,000	0,024	0,060
-108,249	-15,773	-0,083	-0,037
-107,234	-200,000	-0,028	-0,203
-106,220	-123,985	-0,073	0,008
-105,205	24,506	0,094	-0,055
-104,191	432,171	-0,099	0,152
-103,176	-66,273	0,061	0,017
-102,162	-178,699	0,044	-0,001
-101,147	29,059	0,085	-0,051
-100,132	255,316	-0,007	0,009
-99,118	23,740	-0,094	-0,055
-98,103	234,049	-0,062	0,073
-97,089	33,635	0,052	0,032
-96,074	-200,000	0,005	0,102
-95,059	-200,000	-0,008	0,030
-94,045	149,569	0,020	0,019
-93,030	-100,655	-0,051	0,009
-92,016	402,513	-0,064	-0,095
-91,001	-96,149	-0,095	0,018
-89,986	191,150	0,083	-0,088
-88,972	800,000	-0,015	0,040
-87,957	-4,903	0,080	-0,039
-86,943	-61,944	-0,158	0,046
-85,928	-4,148	-0,101	-0,050
-84,913	115,728	-0,073	0,063
-83,899	-200,000	0,005	0,051
-82,884	800,000	-0,040	0,114
-81,870	-200,000	0,009	-0,067
-80,855	-34,815	-0,069	0,027
-79,840	-137,699	0,082	-0,006
-78,826	413,584	-0,021	-0,031
-77,811	123,080	-0,153	-0,136
-76,797	-78,250	-0,079	0,019
-75,782	800,000	0,087	-0,173
-74,767	-200,000	0,013	0,074
-73,753	800,000	0,066	-0,140
-72,738	229,042	0,062	-0,072
-71,724	-174,321	0,105	0,002
-70,709	-200,000	0,022	0,096
-69,694	353,820	-0,044	-0,062
-68,680	1,396	0,101	-0,051
-67,665	-64,327	-0,055	0,016
-66,651	86,702	0,028	-0,022
-65,636	-6,142	0,107	-0,052
-64,622	-34,641	0,111	-0,043
-63,607	116,949	-0,113	0,098
-62,592	-70,099	-0,111	0,030
-61,578	800,000	-0,017	-0,039
-60,563	-200,000	-0,011	0,070
-59,549	800,000	-0,033	0,090
-58,534	-46,563	-1,509	-0,521
-57,519	389,344	-1,476	-2,171
-56,505	-200,000	-0,393	-4,341
-55,490	247,359	0,843	1,010
-54,476	800,000	5,029	11,215
-53,461	-200,000	18,246	287,279
-52,446	800,000	725,709	2225,577
-51,432	555,830	1639,938	2805,778
-50,417	79,256	1661,968	1259,402
-49,403	22,690	1536,294	887,919
-48,388	16,696	1459,444	814,539
-47,373	17,782	1449,456	814,150
-46,359	17,182	1439,920	805,900
-45,344	14,965	1435,296	792,721
-44,330	14,838	1433,390	791,035
-43,315	14,892	1431,433	790,180
-42,300	14,962	1429,772	789,563
-41,286	14,937	1428,931	788,952
-40,271	14,897	1427,586	787,987
-39,257	14,900	1426,346	787,284
-38,242	14,993	1424,820	786,849
-37,227	15,003	1423,603	786,196
-36,213	14,984	1422,498	785,465
-35,198	14,934	1421,356	784,568
-34,184	14,971	1420,464	784,215
-33,169	14,855	1418,990	782,827
-32,154	14,973	1418,102	782,859
-31,140	15,025	1416,824	782,369
-30,125	14,991	1415,733	781,574
-29,111	14,965	1414,473	780,728
-28,096	14,920	1413,411	779,898
-27,082	14,893	1412,291	779,123
-26,067	14,919	1411,088	778,548
-25,052	14,888	1410,276	777,928
-24,038	14,807	1409,356	777,008
-23,023	14,850	1408,333	776,614
-22,009	14,888	1407,026	776,041
-20,994	14,848	1406,307	775,427
-19,979	14,820	1405,496	774,820
-18,965	14,796	1404,483	774,119
-17,950	14,818	1403,323	773,549
-16,936	14,876	1402,228	773,186
-15,921	14,823	1401,259	772,373
-14,906	14,781	1400,391	771,668
-13,892	14,825	1399,482	771,344
-12,877	14,782	1398,548	770,597
-11,863	14,779	1397,803	770,141
-10,848	14,764	1396,905	769,548
-9,833	14,720	1395,976	768,802
-8,819	14,681	1395,215	768,172
-7,804	14,723	1394,158	767,753
-6,790	14,695	1393,062	766,991
-5,775	14,659	1392,257	766,349
-4,760	14,708	1391,255	765,994
-3,746	14,658	1390,515	765,324
-2,731	14,661	1389,728	764,877
-1,717	14,666	1388,652	764,278
-0,702	14,705	1386,824	763,419
0,313	18,461	1306,068	736,314
1,327	34,748	705,415	435,341
2,342	53,775	124,375	84,345
3,356	4,010	16,582	8,548
4,371	3,886	3,225	1,661
5,386	30,129	0,522	0,314
6,400	800,000	0,042	0,130
7,415	139,194	-0,352	-0,327
8,429	-9,662	-0,383	-0,180
9,444	21,719	-0,408	-0,234
10,459	-99,478	-0,329	-0,058
11,473	18,475	-0,235	-0,133
12,488	19,847	-0,271	-0,154
13,502	42,592	-0,320	-0,205
14,517	13,763	-0,300	-0,164
15,531	54,347	-0,402	-0,273
16,546	25,075	-0,393	-0,230
17,561	200,645	-0,345	-0,375
18,575	44,161	-0,197	-0,127
19,590	-7,619	-0,285	-0,135
20,604	4,488	-0,336	-0,173
21,619	18,356	-0,456	-0,257
22,634	137,617	-0,359	-0,332
23,648	99,568	-0,321	-0,262
24,663	60,346	-0,401	-0,280
25,677	-38,301	-0,404	-0,150
26,692	146,826	-0,309	-0,293
27,707	-10,870	-0,343	-0,159
28,721	67,355	-0,367	-0,264
29,736	-3,837	-0,342	-0,167
30,750	40,644	-0,481	-0,305
31,765	151,648	-0,297	-0,286
32,780	-0,226	-0,365	-0,183
33,794	-32,093	-0,449	-0,176
34,809	-66,080	-0,315	-0,088
35,823	18,137	-0,344	-0,193
36,838	9,732	-0,350	-0,187
37,853	57,730	-0,298	-0,205
38,867	21,761	-0,430	-0,246
39,882	183,384	-0,314	-0,328
40,896	173,518	-0,330	-0,336
41,911	51,223	-0,230	-0,154
42,926	-6,909	-0,437	-0,208
43,940	72,632	-0,455	-0,334
44,955	185,377	-0,290	-0,304
45,969	102,110	-0,508	-0,418
46,984	112,440	-0,413	-0,352
47,999	146,663	-0,259	-0,245
49,013	-6,009	-0,331	-0,159
50,028	127,727	-0,246	-0,220
51,042	221,492	-0,288	-0,326
52,057	261,653	-0,320	-0,391
53,071	251,797	-0,292	-0,351
54,086	100,625	-0,382	-0,313
55,101	4,969	-0,307	-0,159
56,115	362,144	-0,222	-0,315
57,130	77,525	-0,328	-0,245
58,144	116,015	-0,339	-0,292
59,159	204,189	-0,361	-0,395
60,174	192,854	-0,273	-0,291
61,188	-15,379	-0,451	-0,202
62,203	44,689	-0,247	-0,159
63,217	2,575	-0,276	-0,140
64,232	102,774	-0,376	-0,309
65,247	22,754	-0,325	-0,187
66,261	137,738	-0,352	-0,324
67,276	119,325	-0,331	-0,288
68,290	1,046	-0,318	-0,160
69,305	222,283	-0,277	-0,314
70,320	32,605	-0,382	-0,231
71,334	165,363	-0,297	-0,295
72,349	107,983	-0,413	-0,346
73,363	64,344	-0,302	-0,213
74,378	86,839	-0,261	-0,203
75,393	-16,765	-0,295	-0,131
76,407	24,717	-0,218	-0,126
77,422	-14,551	-0,158	-0,071
78,436	2,962	-0,322	-0,164
79,451	-59,174	-0,356	-0,107
80,466	-6,253	-0,231	-0,111
81,480	229,567	-0,243	-0,279
82,495	542,380	-0,205	-0,345
83,509	-58,035	-0,453	-0,138
84,524	38,894	-0,186	-0,117
85,539	96,183	-0,359	-0,288
86,553	114,922	-0,397	-0,340
87,568	-29,677	-0,376	-0,150
88,582	694,402	-0,188	-0,348
89,597	-17,058	-0,231	-0,102
90,611	96,035	-0,254	-0,204
91,626	186,185	-0,224	-0,234
92,641	186,213	-0,191	-0,199
93,655	181,548	-0,168	-0,174
94,670	79,000	-0,218	-0,164
95,684	-28,289	-0,236	-0,095
96,699	-28,131	-0,276	-0,112
97,714	-44,346	-0,208	-0,073
98,728	122,416	-0,289	-0,253
99,743	-55,455	-0,269	-0,084
100,757	48,299	-0,228	-0,149
101,772	90,726	-0,325	-0,255
102,787	98,794	-0,185	-0,150
103,801	107,322	-0,268	-0,223
104,816	800,000	-0,111	-0,249
105,830	-55,114	-0,388	-0,122
106,845	29,391	-0,203	-0,121
107,860	152,976	-0,232	-0,222
108,874	200,265	-0,317	-0,342
109,889	143,232	-0,275	-0,256
110,903	19,431	-0,354	-0,199
111,918	-1,516	-0,250	-0,123
112,933	-10,526	-0,211	-0,098
113,947	-138,423	-0,251	0,019
114,962	-21,541	-0,188	-0,080
115,976	44,852	-0,332	-0,213
116,991	48,777	-0,357	-0,234
118,006	247,431	-0,199	-0,236
119,020	61,347	-0,348	-0,242
120,035	53,966	-0,304	-0,204
121,049	-2,503	-0,201	-0,098
122,064	-95,108	-0,310	-0,058
123,079	235,197	-0,243	-0,282
124,093	486,441	-0,181	-0,290
125,108	173,672	-0,259	-0,262
126,122	287,968	-0,235	-0,299
127,137	473,979	-0,174	-0,275
128,151	219,985	-0,211	-0,237
129,166	-38,307	-0,145	-0,053
130,181	110,195	-0,217	-0,182
131,195	216,679	-0,137	-0,153
132,210	129,029	-0,339	-0,302
133,224	192,985	-0,257	-0,272
134,239	199,368	-0,242	-0,260
135,254	74,655	-0,099	-0,073
136,268	12,024	-0,162	-0,087
137,283	-15,620	-0,232	-0,103
138,297	151,811	-0,261	-0,249
139,312	-21,713	-0,168	-0,071
140,327	344,993	-0,126	-0,173
141,341	-32,735	-0,225	-0,087
142,356	0,507	-0,188	-0,094
143,370	390,934	-0,129	-0,188
144,385	800,000	-0,157	-0,379
145,400	161,961	-0,189	-0,185
146,414	19,878	-0,199	-0,111
147,429	145,598	-0,344	-0,322
148,443	89,671	-0,341	-0,265
149,458	-105,127	-0,273	-0,043
150,473	102,843	-0,212	-0,173
151,487	638,173	-0,103	-0,184
152,502	-21,849	-0,192	-0,081
153,516	198,634	-0,236	-0,253
154,531	234,410	-0,223	-0,257
155,546	23,566	-0,286	-0,164
156,560	-70,682	-0,185	-0,048
157,575	53,976	-0,222	-0,149
158,589	124,665	-0,232	-0,203
159,604	99,712	-0,192	-0,155
160,619	75,487	-0,277	-0,204
161,633	800,000	-0,132	-0,257
162,648	79,589	-0,279	-0,208
163,662	137,911	-0,179	-0,164
164,677	137,805	-0,190	-0,174
165,692	166,591	-0,262	-0,259
166,706	71,888	-0,243	-0,176
167,721	800,000	-0,123	-0,243
168,735	71,786	-0,146	-0,105
169,750	775,155	-0,144	-0,276
170,764	83,859	-0,184	-0,140
171,779	19,749	-0,239	-0,134
172,794	160,391	-0,202	-0,196
173,808	176,567	-0,182	-0,184
174,823	-59,428	-0,407	-0,121
175,837	207,970	-0,121	-0,132
176,852	312,439	-0,267	-0,351
177,867	152,850	-0,177	-0,169
178,881	359,080	-0,148	-0,206
179,896	40,100	-0,313	-0,196
180,910	-61,966	-0,344	-0,100
181,925	151,622	-0,294	-0,279
182,940	756,178	-0,142	-0,269
183,954	442,444	-0,226	-0,346
184,969	800,000	-0,160	-0,329
185,983	1,561	-0,282	-0,141
186,998	-0,605	-0,252	-0,124
188,013	109,291	-0,305	-0,254
189,027	168,971	-0,249	-0,247
190,042	800,000	-0,084	-0,208
191,056	240,507	-0,225	-0,261
192,071	106,303	-0,239	-0,197
193,086	588,250	-0,102	-0,176
194,100	25,212	-0,282	-0,163
195,115	260,331	-0,181	-0,218
196,129	182,491	-0,277	-0,284
197,144	498,466	-0,146	-0,235
198,159	86,498	-0,214	-0,164
199,173	52,922	-0,149	-0,099
200,188	800,000	-0,107	-0,258
201,202	-111,465	-0,221	-0,031
202,217	196,031	-0,090	-0,095
203,232	98,200	-0,243	-0,194
204,246	202,959	-0,202	-0,218
205,261	-34,749	-0,268	-0,101
206,275	14,216	-0,221	-0,119
207,290	616,816	-0,060	-0,104
208,304	306,867	-0,161	-0,208
209,319	-200,000	-0,041	-0,140
210,334	626,539	-0,154	-0,271
211,348	-99,566	-0,282	-0,049
212,363	73,349	-0,243	-0,177
213,377	56,750	-0,248	-0,168
214,392	-130,610	-0,234	-0,022
215,407	-91,296	-0,181	0,036
216,421	-60,730	-0,125	-0,037
217,436	800,000	-0,072	-0,153
218,450	35,552	-0,247	-0,150
219,465	-59,437	-0,282	-0,084
220,480	28,770	-0,251	-0,147
221,494	109,599	-0,160	-0,133
222,509	9,039	-0,132	-0,069
223,523	77,380	-0,083	0,061
224,538	58,027	-0,216	-0,146
225,553	124,149	-0,102	-0,089
226,567	133,353	-0,211	-0,189
227,582	53,396	-0,172	-0,114
228,596	-65,938	-0,237	-0,065
229,611	-162,027	-0,244	0,008
230,626	210,986	-0,218	-0,238
231,640	107,476	-0,125	-0,103
232,655	-17,755	-0,262	-0,114
233,669	136,315	-0,192	-0,173
234,684	254,751	-0,075	-0,089
235,699	16,574	-0,200	-0,109
236,713	800,000	-0,050	-0,143
237,728	-60,530	-0,340	-0,099
238,742	-102,344	-0,134	-0,022
239,757	-0,930	-0,184	-0,090
240,772	212,376	-0,225	-0,246
241,786	330,468	-0,213	-0,284
242,801	230,255	-0,135	-0,153
243,815	-162,131	-0,109	0,004
244,830	84,607	-0,125	-0,095
245,844	141,107	-0,187	-0,171
246,859	-3,002	-0,232	-0,112
247,874	76,619	-0,323	-0,237
248,888	316,185	-0,157	-0,205
249,903	109,525	-0,241	-0,200
250,917	1,838	-0,216	-0,107
251,932	16,542	-0,167	-0,091
252,947	-101,719	-0,297	-0,049
253,961	89,953	-0,146	-0,113
254,976	5,473	-0,256	-0,130
255,990	800,000	-0,117	-0,226
257,005	800,000	-0,122	-0,246
258,020	481,443	-0,156	-0,245
259,034	800,000	-0,094	-0,226
260,049	-102,411	-0,181	-0,030
261,063	-86,004	-0,218	-0,046
262,078	800,000	-0,155	-0,304
263,093	58,738	-0,231	-0,157
264,107	-141,247	-0,316	-0,022
265,122	583,305	-0,130	-0,221
266,136	800,000	-0,099	-0,277
267,151	138,534	-0,241	-0,219
268,166	64,679	-0,244	-0,170
269,180	800,000	-0,125	-0,247
270,195	-4,634	-0,211	-0,100
271,209	345,085	-0,125	-0,170
272,224	134,473	-0,157	-0,141
273,239	149,071	-0,215	-0,201
274,253	12,355	-0,270	-0,143
275,268	-154,788	-0,150	-0,007
276,282	367,949	-0,154	-0,216
277,297	206,457	-0,199	-0,214
278,312	193,838	-0,255	-0,267
279,326	-58,846	-0,158	-0,047
280,341	282,571	-0,093	-0,115
281,355	800,000	-0,114	-0,238
282,370	53,017	-0,248	-0,163
283,384	108,822	-0,230	-0,190
284,399	263,515	-0,204	-0,245
285,414	175,710	-0,128	-0,128
286,428	151,602	-0,114	-0,107
287,443	800,000	-0,061	-0,144
288,457	-7,811	-0,192	-0,089
289,472	-61,540	-0,132	-0,038
290,487	-51,371	-0,206	-0,066
291,501	184,876	-0,144	-0,148
292,516	-57,853	-0,056	-0,017
293,530	-200,000	0,023	-0,146
294,545	114,608	-0,176	-0,148
295,560	108,715	-0,159	-0,130
296,574	800,000	-0,109	-0,226
297,589	383,583	-0,135	-0,192
298,603	297,797	-0,151	-0,192
299,618	0,392	-0,134	-0,065
300,633	431,845	-0,148	-0,222
301,647	175,002	-0,190	-0,190
302,662	121,954	-0,109	-0,094
303,676	165,647	-0,062	0,060
304,691	50,765	-0,165	-0,108
305,706	223,338	-0,187	-0,208
306,720	-200,000	-0,092	-0,279
307,735	12,364	-0,131	-0,069
308,749	-200,000	-0,001	-0,113
309,764	-66,586	-0,143	-0,039
310,779	80,083	-0,226	-0,167
311,793	-200,000	-0,033	-0,107
312,808	22,348	-0,221	-0,124
313,822	-90,073	-0,316	-0,063
314,837	121,919	-0,092	-0,079
315,852	63,635	-0,132	-0,091
316,866	-11,733	-0,236	-0,106
317,881	800,000	-0,054	-0,125
318,895	-103,470	-0,063	0,010
319,910	-58,852	-0,308	-0,091
320,925	-84,217	-0,136	-0,029
321,939	-59,948	-0,140	-0,041
322,954	-108,888	-0,116	-0,017
323,968	-113,733	-0,067	-0,009
324,983	-118,122	-0,173	-0,021
325,997	-200,000	-0,012	-0,110
327,012	-200,000	-0,008	-0,031
328,027	-200,000	-0,007	-0,040
329,041	-128,351	-0,089	-0,009
330,056	775,614	-0,125	-0,236
331,070	315,228	-0,053	-0,068
332,085	464,797	-0,063	-0,097
333,100	-4,042	-0,134	-0,064
334,114	0,982	-0,172	-0,085
335,129	147,872	-0,096	-0,088
336,143	800,000	-0,117	-0,293
337,158	297,284	-0,059	-0,075
338,173	258,107	-0,133	-0,158
339,187	43,442	-0,137	-0,086
340,202	800,000	-0,105	-0,273
341,216	221,948	-0,130	-0,144
342,231	255,368	-0,087	-0,102
343,246	-200,000	0,007	-0,022
344,260	-18,929	-0,134	-0,057
345,275	159,222	-0,170	-0,163
346,289	-200,000	-0,029	-0,100
347,304	190,425	-0,045	-0,047
348,319	144,980	-0,166	-0,152
349,333	41,227	-0,088	-0,054
350,348	24,945	-0,180	-0,102
351,362	-113,803	-0,113	-0,015
352,377	318,500	-0,060	-0,078
353,392	-31,171	-0,123	-0,047
354,406	107,359	-0,174	-0,142
355,421	208,831	1312,008	1409,646
356,435	160,695	1472,440	1410,153
