DTS Sentinel unit serial number:	SN410029Multiplexer serial number:	ORYXHardware model number:	OX2-SRSoftware version number:	ORYX F/W v4,00 Oryx Data Collector v3.7.2.0data status	okinstallation	B3 Nyhavnadifferential loss correction	single-endedforward channel	channel 1reverse channel	N/Adate	2023/12/04time	15:17:30forward acquisition time	300,00reverse acquisition time	0,00gamma	499,1914k internal	0,3200k external	0,3200temperature offset calibration	1,0000default loss term (dB/km)	0,3820temperature slope calibration	1,0000multiplexer offset coefficient	1,0000multiplexer slope coefficient	1,0000fibre end	0,00T internal ref (°C)	15,10T ext. ref 1 (°C)	0,39T ext. ref 2 (°C)	0,39length (m)	temperature (°C)	Stokes	anti-Stokes-744,400	306,161	-0,225	-0,305
-743,385	800,000	0,122	0,352
-742,371	334,264	-0,129	-0,183
-741,356	-200,000	0,031	0,303
-740,342	176,251	-0,173	-0,182
-739,327	-200,000	-0,029	0,360
-738,312	298,666	-0,189	-0,253
-737,298	-200,000	-0,072	0,271
-736,283	209,870	-0,167	-0,191
-735,269	-200,000	0,041	0,239
-734,254	800,000	-0,090	-0,181
-733,239	110,146	-0,105	0,092
-732,225	800,000	-0,134	-0,345
-731,210	218,746	0,064	0,074
-730,196	-200,000	-0,036	0,136
-729,181	800,000	-0,044	0,097
-728,167	-200,000	-0,007	0,146
-727,152	161,872	-0,058	0,059
-726,137	-200,000	0,004	-0,027
-725,123	-131,778	-0,209	0,020
-724,108	-200,000	-0,008	-0,119
-723,094	492,917	-0,075	-0,125
-722,079	-87,215	-0,255	-0,056
-721,064	120,219	0,105	-0,095
-720,050	-200,000	0,007	-0,039
-719,035	-101,319	0,040	-0,007
-718,021	-90,152	-0,119	-0,025
-717,006	272,702	-0,083	-0,107
-715,991	-200,000	0,016	-0,098
-714,977	-139,848	-0,074	-0,006
-713,962	19,797	0,078	0,045
-712,948	341,374	0,036	0,051
-711,933	608,105	-0,010	0,018
-710,918	130,398	-0,040	-0,037
-709,904	305,447	0,006	0,008
-708,889	-200,000	0,032	-0,142
-707,875	328,412	0,083	-0,117
-706,860	800,000	0,022	-0,068
-705,845	-200,000	-0,005	0,037
-704,831	79,063	0,218	-0,169
-703,816	-91,848	0,042	-0,009
-702,802	-200,000	0,005	-0,040
-701,787	-110,916	-0,121	0,018
-700,772	-63,629	-0,221	-0,065
-699,758	800,000	0,014	-0,036
-698,743	-20,195	0,226	0,101
-697,729	-200,000	-0,032	0,108
-696,714	800,000	0,014	-0,028
-695,699	-200,000	-0,009	0,138
-694,685	800,000	0,037	-0,107
-693,670	-200,000	0,021	-0,134
-692,656	387,347	0,044	-0,066
-691,641	98,210	-0,040	-0,034
-690,627	-200,000	-0,006	-0,052
-689,612	-200,000	0,004	0,110
-688,597	212,658	-0,046	0,052
-687,583	-144,371	-0,049	-0,003
-686,568	-21,802	0,065	-0,029
-685,554	-200,000	0,024	0,092
-684,539	-30,233	-0,126	-0,052
-683,524	-200,000	0,006	0,047
-682,510	160,506	0,076	0,077
-681,495	800,000	0,019	-0,059
-680,481	-150,541	-0,186	-0,010
-679,466	800,000	-0,035	-0,075
-678,451	-200,000	-0,017	-0,154
-677,437	-39,629	-0,043	0,016
-676,422	151,804	-0,056	-0,056
-675,408	299,921	0,018	-0,024
-674,393	800,000	-0,091	-0,218
-673,378	167,614	-0,047	-0,048
-672,364	200,686	-0,078	-0,087
-671,349	800,000	-0,016	0,050
-670,335	-200,000	-0,011	0,041
-669,320	-200,000	0,014	0,069
-668,305	341,045	-0,033	-0,047
-667,291	-97,168	0,064	-0,012
-666,276	-154,255	-0,260	0,013
-665,262	-200,000	0,010	-0,043
-664,247	-200,000	0,004	-0,086
-663,232	-33,783	-0,073	0,029
-662,218	-113,506	0,193	-0,027
-661,203	137,866	-0,067	0,064
-660,189	800,000	-0,028	0,063
-659,174	0,253	-0,225	0,116
-658,159	-200,000	0,015	-0,099
-657,145	800,000	0,043	-0,094
-656,130	800,000	-0,023	-0,051
-655,116	-56,297	0,060	0,019
-654,101	138,002	0,088	0,084
-653,086	-49,747	-0,180	0,062
-652,072	800,000	0,025	-0,079
-651,057	516,974	-0,120	-0,204
-650,043	-200,000	-0,002	-0,066
-649,028	-97,231	0,056	-0,010
-648,014	194,648	-0,046	-0,050
-646,999	-200,000	0,017	0,096
-645,984	177,667	-0,061	0,064
-644,970	313,196	0,062	-0,085
-643,955	42,614	-0,037	-0,025
-642,941	246,254	-0,027	-0,033
-641,926	-43,962	0,051	-0,019
-640,911	-8,059	-0,138	-0,067
-639,897	-200,000	0,061	0,205
-638,882	-200,000	0,004	0,159
-637,868	-200,000	-0,034	-0,111
-636,853	800,000	0,069	-0,206
-635,838	-200,000	0,002	-0,135
-634,824	272,266	0,031	0,040
-633,809	85,570	-0,098	-0,078
-632,795	113,947	0,107	0,094
-631,780	131,923	-0,073	0,068
-630,765	-82,475	0,038	0,009
-629,751	113,828	0,081	-0,072
-628,736	-200,000	0,010	0,033
-627,722	336,634	0,044	-0,062
-626,707	-200,000	0,005	-0,046
-625,692	313,855	0,049	0,066
-624,678	96,891	-0,126	0,105
-623,663	-48,634	0,007	-0,002
-622,649	-149,597	-0,027	-0,001
-621,634	800,000	-0,092	-0,186
-620,619	99,500	-0,128	-0,107
-619,605	466,239	0,026	-0,043
-618,590	-200,000	0,026	0,146
-617,576	-200,000	-0,012	-0,082
-616,561	-200,000	-0,016	0,065
-615,546	-4,939	-0,108	-0,054
-614,532	-200,000	0,020	-0,142
-613,517	800,000	-0,037	-0,078
-612,503	-181,376	-0,118	0,002
-611,488	-200,000	0,011	0,133
-610,474	-7,587	-0,100	0,049
-609,459	241,071	0,067	0,081
-608,444	178,410	-0,049	0,052
-607,430	63,409	-0,077	-0,056
-606,415	-200,000	0,004	-0,041
-605,401	-127,178	-0,005	0,001
-604,386	-200,000	-0,014	-0,055
-603,371	-200,000	-0,026	0,096
-602,357	51,938	0,125	0,086
-601,342	113,333	-0,056	0,050
-600,328	800,000	-0,052	-0,107
-599,313	27,180	-0,135	-0,082
-598,298	33,356	0,033	0,021
-597,284	479,269	0,058	-0,095
-596,269	800,000	0,049	-0,125
-595,255	-49,448	0,073	-0,025
-594,240	-135,511	-0,043	-0,004
-593,225	21,607	-0,105	0,062
-592,211	-98,417	-0,057	0,010
-591,196	-121,204	0,158	-0,019
-590,182	-200,000	0,009	-0,031
-589,167	37,690	0,036	-0,023
-588,152	-60,229	0,083	-0,025
-587,138	-200,000	-0,011	-0,048
-586,123	-121,831	-0,027	0,003
-585,109	-97,953	0,053	-0,010
-584,094	-108,704	-0,024	-0,004
-583,079	-200,000	-0,015	-0,060
-582,065	-94,225	-0,073	0,014
-581,050	-200,000	-0,005	-0,070
-580,036	46,307	-0,127	-0,085
-579,021	-200,000	0,019	-0,138
-578,006	0,234	-0,119	-0,061
-576,992	-4,424	0,047	0,023
-575,977	-100,827	-0,075	0,013
-574,963	800,000	0,028	0,068
-573,948	160,132	-0,052	-0,052
-572,934	22,250	-0,187	0,110
-571,919	330,929	-0,059	-0,083
-570,904	-115,775	-0,129	-0,017
-569,890	88,517	-0,078	-0,063
-568,875	69,834	-0,055	0,041
-567,861	-127,635	-0,130	0,013
-566,846	-200,000	0,003	0,112
-565,831	-200,000	-0,011	-0,036
-564,817	457,350	-0,014	-0,023
-563,802	-200,000	-0,053	-0,198
-562,788	249,011	0,090	-0,110
-561,773	29,805	-0,099	0,061
-560,758	-200,000	0,018	0,072
-559,744	800,000	0,037	-0,076
-558,729	743,538	-0,040	-0,079
-557,715	-180,474	-0,155	-0,002
-556,700	-200,000	-0,015	-0,105
-555,685	427,674	0,050	0,078
-554,671	-116,875	0,129	-0,017
-553,656	62,737	0,093	0,067
-552,642	-93,135	-0,147	0,029
-551,627	-88,106	-0,043	-0,009
-550,612	-200,000	-0,002	-0,058
-549,598	327,695	0,017	-0,023
-548,583	800,000	0,011	0,025
-547,569	37,945	-0,008	0,005
-546,554	800,000	-0,029	0,060
-545,539	-200,000	-0,021	0,153
-544,525	13,550	0,130	0,073
-543,510	155,691	-0,088	-0,088
-542,496	0,199	0,099	-0,051
-541,481	-53,994	-0,142	-0,046
-540,466	291,684	0,049	-0,065
-539,452	120,101	-0,106	0,095
-538,437	309,886	0,043	0,058
-537,423	-200,000	-0,041	0,175
-536,408	59,356	-0,077	-0,055
-535,393	-200,000	-0,028	0,176
-534,379	543,517	0,059	-0,102
-533,364	578,963	-0,052	0,092
-532,350	296,365	-0,126	0,167
-531,335	800,000	0,034	0,109
-530,321	-140,869	-0,079	-0,006
-529,306	108,383	0,124	-0,107
-528,291	205,184	0,034	-0,038
-527,277	800,000	0,015	-0,032
-526,262	-200,000	-0,011	0,041
-525,248	-200,000	0,043	0,172
-524,233	326,197	0,027	0,038
-523,218	-200,000	0,001	-0,004
-522,204	48,160	-0,131	-0,088
-521,189	23,738	0,048	0,028
-520,175	70,651	0,105	0,078
-519,160	800,000	0,073	-0,171
-518,145	283,412	-0,073	-0,095
-517,131	-112,659	0,129	-0,018
-516,116	179,656	0,076	0,081
-515,102	800,000	0,019	0,045
-514,087	-33,541	0,146	0,058
-513,072	102,575	-0,135	-0,114
-512,058	40,218	0,096	-0,062
-511,043	-200,000	-0,007	-0,078
-510,029	71,012	0,029	-0,022
-509,014	-63,079	-0,084	0,025
-507,999	-200,000	0,026	0,100
-506,985	-150,748	0,090	0,005
-505,970	113,074	-0,062	-0,054
-504,956	114,413	-0,114	-0,100
-503,941	162,962	-0,068	0,069
-502,926	-52,312	-0,065	0,022
-501,912	186,341	-0,062	0,066
-500,897	111,747	-0,096	-0,084
-499,883	-148,011	-0,094	-0,006
-498,868	181,431	0,021	-0,022
-497,853	-200,000	0,001	-0,032
-496,839	-200,000	-0,002	-0,022
-495,824	-17,247	-0,096	-0,044
-494,810	-200,000	-0,001	0,087
-493,795	551,121	-0,041	0,071
-492,781	800,000	-0,023	-0,070
-491,766	46,604	-0,144	-0,096
-490,751	-200,000	-0,028	-0,107
-489,737	168,052	-0,090	-0,093
-488,722	172,328	-0,079	0,082
-487,708	218,966	0,079	0,091
-486,693	800,000	0,053	0,148
-485,678	36,700	-0,119	0,075
-484,664	-2,761	-0,036	0,018
-483,649	33,772	-0,057	-0,036
-482,635	-4,914	-0,065	0,032
-481,620	366,179	0,012	-0,017
-480,605	-112,983	0,205	-0,029
-479,591	-129,497	-0,116	0,011
-478,576	-200,000	0,031	0,135
-477,562	-200,000	0,003	-0,087
-476,547	-28,375	-0,082	0,034
-475,532	-61,020	0,087	-0,026
-474,518	800,000	0,017	-0,037
-473,503	-122,109	-0,064	0,007
-472,489	-13,458	0,201	0,093
-471,474	400,023	0,017	-0,026
-470,459	3,316	0,147	-0,077
-469,445	-46,854	-0,097	-0,034
-468,430	-185,801	-0,184	-0,002
-467,416	-200,000	0,021	0,109
-466,401	-200,000	0,026	0,116
-465,386	800,000	0,046	-0,103
-464,372	577,808	0,033	-0,057
-463,357	328,060	0,076	0,105
-462,343	268,219	-0,007	-0,009
-461,328	277,155	-0,007	0,008
-460,313	158,448	0,015	-0,015
-459,299	800,000	-0,022	0,050
-458,284	800,000	0,048	0,099
-457,270	34,228	-0,134	0,084
-456,255	773,554	0,049	-0,097
-455,241	-116,287	-0,017	0,002
-454,226	-9,488	-0,121	0,058
-453,211	243,381	-0,043	0,051
-452,197	-200,000	-0,006	0,090
-451,182	735,394	-0,050	0,096
-450,168	512,910	0,048	0,081
-449,153	46,792	0,102	-0,068
-448,138	-114,634	0,036	-0,005
-447,124	344,321	-0,045	0,064
-446,109	175,104	0,053	-0,055
-445,095	-66,078	0,137	-0,039
-444,080	555,365	0,041	0,072
-443,065	-200,000	-0,002	-0,034
-442,051	746,714	-0,018	-0,035
-441,036	-200,000	0,011	-0,076
-440,022	-200,000	-0,026	-0,086
-439,007	321,785	-0,050	-0,069
-437,992	-137,163	0,137	0,011
-436,978	393,161	0,079	-0,118
-435,963	800,000	-0,008	0,020
-434,949	1,053	0,079	0,040
-433,934	672,695	0,026	-0,049
-432,919	294,813	0,100	-0,131
-431,905	-200,000	-0,017	0,079
-430,890	-164,075	0,059	0,002
-429,876	800,000	-0,064	0,155
-428,861	88,306	-0,067	-0,054
-427,846	-136,492	-0,059	-0,005
-426,832	392,771	-0,022	0,033
-425,817	-19,288	-0,049	-0,022
-424,803	-200,000	0,037	0,150
-423,788	-179,802	-0,051	0,001
-422,773	328,754	0,028	0,038
-421,759	-200,000	-0,003	-0,085
-420,744	-77,928	0,061	0,015
-419,730	526,823	0,028	0,048
-418,715	-112,782	-0,002	0,000
-417,701	800,000	-0,064	0,179
-416,686	47,227	0,064	0,042
-415,671	-152,840	-0,043	0,002
-414,657	-151,272	-0,029	-0,002
-413,642	800,000	0,039	0,103
-412,628	685,688	-0,028	-0,053
-411,613	-55,398	0,086	-0,028
-410,598	404,270	0,058	-0,087
-409,584	12,692	0,081	0,045
-408,569	135,177	-0,137	-0,128
-407,555	9,366	0,078	0,042
-406,540	-200,000	-0,023	-0,094
-405,525	-90,652	0,040	0,008
-404,511	49,971	0,102	-0,069
-403,496	83,375	0,118	-0,092
-402,482	800,000	0,024	0,073
-401,467	800,000	0,006	0,016
-400,452	-32,049	0,060	0,024
-399,438	-74,361	-0,035	0,009
-398,423	-200,000	0,021	0,073
-397,409	800,000	-0,049	-0,119
-396,394	-73,193	0,098	0,025
-395,379	-200,000	-0,005	0,106
-394,365	-66,604	-0,139	0,039
-393,350	-144,409	0,145	-0,009
-392,336	260,641	0,057	0,070
-391,321	-101,970	0,042	-0,007
-390,306	-119,506	-0,196	-0,024
-389,292	57,220	-0,091	-0,063
-388,277	-13,045	0,124	-0,058
-387,263	-136,195	0,132	0,011
-386,248	100,535	0,130	0,108
-385,233	99,533	0,062	0,052
-384,219	-16,378	-0,066	0,030
-383,204	800,000	0,006	0,014
-382,190	103,845	0,078	-0,066
-381,175	103,601	-0,051	0,043
-380,160	351,249	-0,027	-0,039
-379,146	66,104	0,029	0,021
-378,131	151,670	0,071	0,069
-377,117	74,111	0,034	-0,026
-376,102	800,000	-0,018	-0,044
-375,088	124,449	-0,027	-0,024
-374,073	-76,478	-0,061	-0,015
-373,058	-200,000	0,006	0,054
-372,044	-200,000	0,020	0,072
-371,029	-200,000	0,059	0,229
-370,015	482,592	0,029	0,047
-369,000	-200,000	-0,010	-0,049
-367,985	800,000	-0,042	0,099
-366,971	800,000	0,020	-0,052
-365,956	-146,635	-0,062	-0,004
-364,942	-140,354	0,211	-0,016
-363,927	-200,000	0,013	0,115
-362,912	112,037	0,084	0,073
-361,898	-200,000	-0,024	-0,093
-360,883	6,781	0,047	-0,025
-359,869	416,176	0,059	0,090
-358,854	-200,000	-0,001	-0,160
-357,839	-145,809	0,025	0,002
-356,825	-155,122	0,133	-0,006
-355,810	-200,000	0,002	-0,051
-354,796	-110,416	-0,123	0,018
-353,781	-200,000	0,012	0,146
-352,766	452,072	0,053	-0,084
-351,752	800,000	0,066	-0,167
-350,737	56,213	0,079	-0,055
-349,723	-129,624	0,041	-0,004
-348,708	800,000	-0,023	0,060
-347,693	14,120	0,094	0,052
-346,679	21,531	-0,176	-0,102
-345,664	334,748	-0,032	-0,045
-344,650	-131,926	0,065	-0,006
-343,635	-200,000	-0,011	0,076
-342,620	800,000	0,020	-0,055
-341,606	-200,000	-0,009	-0,086
-340,591	-200,000	-0,006	-0,041
-339,577	624,896	0,062	-0,112
-338,562	413,963	-0,067	-0,103
-337,548	-46,751	-0,104	-0,036
-336,533	199,301	0,041	-0,045
-335,518	-200,000	-0,001	-0,085
-334,504	-27,469	-0,049	0,020
-333,489	374,932	-0,053	0,078
-332,475	-200,000	0,013	-0,098
-331,460	537,811	-0,015	0,026
-330,445	-144,551	-0,169	-0,011
-329,431	800,000	-0,046	-0,104
-328,416	-147,095	0,041	-0,002
-327,402	366,994	0,026	0,037
-326,387	-120,169	-0,132	-0,016
-325,372	-57,553	-0,093	-0,029
-324,358	139,686	-0,091	-0,086
-323,343	-161,513	-0,114	-0,004
-322,329	145,491	0,126	0,120
-321,314	-200,000	-0,010	-0,073
-320,299	-71,472	0,074	-0,020
-319,285	185,860	-0,087	0,093
-318,270	-200,000	0,011	-0,067
-317,256	0,454	-0,062	-0,031
-316,241	39,730	0,081	-0,052
-315,226	16,507	0,091	-0,051
-314,212	-17,193	0,136	0,061
-313,197	274,346	-0,091	0,115
-312,183	132,473	-0,032	0,029
-311,168	-200,000	0,003	-0,078
-310,153	-77,242	0,141	-0,035
-309,139	800,000	0,050	0,147
-308,124	6,540	-0,036	0,019
-307,110	83,841	0,077	-0,060
-306,095	800,000	-0,047	0,107
-305,080	-70,373	0,092	-0,025
-304,066	183,943	0,059	0,062
-303,051	-41,678	-0,093	0,034
-302,037	800,000	-0,022	-0,046
-301,022	73,224	0,073	-0,055
-300,008	21,290	0,090	-0,052
-298,993	-110,534	0,064	-0,009
-297,978	36,388	0,161	-0,101
-296,964	-86,979	0,035	-0,007
-295,949	124,447	-0,040	0,036
-294,935	272,216	-0,107	-0,135
-293,920	74,046	0,025	0,019
-292,905	-41,649	0,133	0,049
-291,891	-200,000	0,010	0,045
-290,876	83,605	-0,123	0,096
-289,862	-150,200	0,111	-0,006
-288,847	197,880	-0,043	0,047
-287,832	-200,000	-0,022	-0,144
-286,818	-16,665	0,165	0,074
-285,803	800,000	-0,038	-0,075
-284,789	84,955	0,118	0,092
-283,774	-122,495	0,029	0,003
-282,759	78,890	0,147	0,112
-281,745	53,244	-0,042	-0,029
-280,730	-200,000	0,004	-0,154
-279,716	170,344	0,041	-0,042
-278,701	-64,278	-0,058	-0,017
-277,686	75,115	0,067	0,050
-276,672	44,187	-0,017	0,011
-275,657	-200,000	-0,014	-0,055
-274,643	558,854	0,096	-0,165
-273,628	-135,086	-0,063	0,005
-272,613	-200,000	0,036	-0,128
-271,599	-39,304	0,104	-0,039
-270,584	-200,000	-0,022	0,098
-269,570	10,987	0,061	-0,033
-268,555	-116,949	0,116	0,015
-267,540	-6,500	-0,149	0,072
-266,526	652,311	-0,058	0,106
-265,511	89,282	0,052	-0,041
-264,497	302,703	0,116	-0,154
-263,482	800,000	0,071	0,143
-262,467	-200,000	-0,025	0,084
-261,453	251,988	-0,104	0,127
-260,438	502,451	-0,063	0,104
-259,424	-200,000	-0,035	-0,115
-258,409	27,291	-0,089	0,054
-257,395	130,694	-0,047	-0,043
-256,380	78,044	0,130	-0,099
-255,365	-200,000	-0,006	0,020
-254,351	196,231	-0,106	0,115
-253,336	-160,086	-0,094	0,004
-252,322	101,233	0,034	-0,028
-251,307	-18,058	0,050	0,022
-250,292	-200,000	-0,014	-0,056
-249,278	767,518	-0,082	-0,160
-248,263	320,274	0,027	0,037
-247,249	-29,418	-0,177	0,072
-246,234	800,000	-0,039	0,093
-245,219	26,729	0,097	0,058
-244,205	745,148	0,004	0,009
-243,190	800,000	0,027	-0,075
-242,176	37,822	-0,094	-0,060
-241,161	-91,245	0,091	-0,018
-240,146	-200,000	0,001	0,078
-239,132	-200,000	-0,004	-0,032
-238,117	-200,000	0,013	-0,187
-237,103	-200,000	-0,007	-0,152
-236,088	6,255	-0,141	-0,074
-235,073	236,640	-0,074	-0,087
-234,059	-200,000	-0,013	0,135
-233,044	-54,295	-0,042	0,014
-232,030	-200,000	0,051	0,178
-231,015	-200,000	-0,028	-0,095
-230,000	5,223	-0,058	-0,031
-228,986	-166,693	-0,124	0,004
-227,971	-90,562	-0,027	-0,005
-226,957	688,742	-0,043	-0,080
-225,942	58,395	0,127	0,089
-224,927	-11,623	0,082	0,038
-223,913	402,251	0,064	-0,095
-222,898	67,714	0,036	0,026
-221,884	672,573	-0,036	0,068
-220,869	-126,795	0,086	0,009
-219,855	-111,632	0,150	-0,021
-218,840	501,451	-0,023	0,038
-217,825	-200,000	0,007	-0,123
-216,811	-130,945	-0,018	-0,002
-215,796	800,000	-0,046	0,131
-214,782	27,836	0,127	0,076
-213,767	-200,000	0,028	-0,121
-212,752	-200,000	0,023	-0,160
-211,738	-200,000	-0,030	0,107
-210,723	-28,971	0,091	0,037
-209,709	-200,000	-0,019	-0,162
-208,694	800,000	0,047	0,096
-207,679	-57,896	-0,101	0,031
-206,665	-71,052	0,073	-0,020
-205,650	-126,996	0,048	-0,005
-204,636	-200,000	0,030	0,109
-203,621	334,660	0,084	0,117
-202,606	-200,000	-0,004	0,082
-201,592	-152,987	-0,061	0,003
-200,577	61,753	0,089	-0,063
-199,563	80,541	0,080	-0,061
-198,548	-200,000	-0,007	0,058
-197,533	136,898	0,169	0,157
-196,519	653,481	0,038	-0,070
-195,504	184,096	0,011	0,011
-194,490	-200,000	-0,181	0,000
-193,475	800,000	-0,065	-0,137
-192,460	-138,339	0,050	0,004
-191,446	-20,090	0,067	0,029
-190,431	132,768	-0,038	0,035
-189,417	-200,000	0,033	-0,107
-188,402	-40,834	0,106	0,039
-187,387	459,335	-0,024	0,038
-186,373	85,649	-0,049	0,038
-185,358	-200,000	-0,028	0,144
-184,344	-48,364	0,040	-0,014
-183,329	677,910	0,074	0,138
-182,315	191,823	-0,135	0,145
-181,300	156,439	-0,060	-0,059
-180,285	-169,825	-0,156	0,004
-179,271	-6,765	0,067	-0,032
-178,256	-0,289	-0,074	-0,037
-177,242	144,053	0,103	-0,098
-176,227	800,000	0,036	0,079
-175,212	-200,000	0,000	0,067
-174,198	-158,894	-0,101	0,004
-173,183	184,437	-0,089	0,093
-172,169	-200,000	-0,010	-0,042
-171,154	800,000	-0,067	0,174
-170,139	85,840	0,074	-0,058
-169,125	-200,000	0,009	-0,046
-168,110	-200,000	0,017	-0,052
-167,096	-200,000	0,006	0,051
-166,081	800,000	-0,022	0,069
-165,066	-151,957	-0,091	-0,005
-164,052	-91,977	-0,096	-0,019
-163,037	25,654	-0,067	-0,039
-162,023	-49,447	0,080	0,027
-161,008	77,486	-0,090	0,068
-159,993	22,043	-0,073	-0,042
-158,979	-43,193	-0,093	-0,033
-157,964	-200,000	0,040	0,140
-156,950	-147,508	0,123	-0,007
-155,935	224,769	0,102	0,117
-154,920	-149,862	0,148	-0,008
-153,906	-200,000	0,019	-0,086
-152,891	-49,042	-0,026	0,009
-151,877	800,000	0,019	0,043
-150,862	299,391	-0,054	-0,072
-149,847	143,141	-0,166	-0,157
-148,833	-116,054	-0,042	-0,006
-147,818	-111,148	0,083	-0,012
-146,804	-6,497	-0,016	0,008
-145,789	800,000	-0,045	-0,092
-144,775	-4,149	-0,086	-0,042
-143,760	-95,003	-0,111	-0,021
-142,745	144,275	-0,070	-0,067
-141,731	-2,781	-0,134	-0,066
-140,716	181,736	0,115	-0,120
-139,702	432,247	0,062	0,095
-138,687	-45,334	0,044	-0,016
-137,672	-200,000	-0,027	-0,106
-136,658	-200,000	-0,010	0,039
-135,643	319,555	0,078	0,106
-134,629	-130,292	0,080	-0,008
-133,614	14,737	-0,093	-0,052
-132,599	13,288	0,075	-0,041
-131,585	-166,923	-0,114	0,003
-130,570	270,810	-0,083	-0,104
-129,556	-85,164	0,063	-0,014
-128,541	144,106	-0,073	-0,069
-127,526	148,041	0,055	-0,053
-126,512	-150,670	0,019	-0,001
-125,497	800,000	0,041	0,097
-124,483	-58,542	-0,093	0,029
-123,468	118,766	0,090	0,079
-122,453	-56,522	-0,056	-0,018
-121,439	-200,000	-0,023	-0,187
-120,424	800,000	-0,030	-0,076
-119,410	98,894	0,088	-0,072
-118,395	376,092	0,006	0,009
-117,380	333,342	0,084	0,115
-116,366	-52,518	-0,106	-0,034
-115,351	793,785	0,090	0,176
-114,337	26,171	-0,054	-0,032
-113,322	-151,302	0,033	-0,002
-112,307	23,482	-0,043	-0,025
-111,293	264,888	0,087	0,108
-110,278	456,313	-0,076	0,119
-109,264	-3,199	0,029	0,014
-108,249	63,440	-0,026	-0,019
-107,234	283,185	0,081	-0,103
-106,220	-137,739	0,114	0,009
-105,205	-200,000	-0,004	0,056
-104,191	32,661	0,056	0,034
-103,176	-200,000	0,007	0,084
-102,162	-200,000	0,017	0,114
-101,147	-0,384	-0,018	-0,009
-100,132	-137,458	-0,197	-0,016
-99,118	-103,460	0,073	-0,012
-98,103	512,118	0,066	-0,109
-97,089	800,000	0,043	0,128
-96,074	-153,567	0,026	0,001
-95,059	800,000	0,030	0,077
-94,045	363,793	0,106	0,152
-93,030	55,368	-0,120	0,082
-92,016	44,625	-0,020	0,013
-91,001	352,447	0,088	-0,124
-89,986	800,000	-0,027	0,070
-88,972	-200,000	-0,005	0,022
-87,957	344,161	0,014	0,020
-86,943	800,000	0,025	-0,057
-85,928	42,421	-0,004	-0,003
-84,913	758,372	0,085	0,165
-83,899	652,999	-0,008	0,015
-82,884	-8,709	-0,052	-0,025
-81,870	-39,246	0,195	0,072
-80,855	684,302	0,062	0,116
-79,840	310,268	0,100	0,133
-78,826	-200,000	-0,003	0,111
-77,811	-200,000	-0,007	-0,109
-76,797	442,813	-0,010	-0,016
-75,782	-142,118	0,101	0,007
-74,767	-34,650	0,065	0,025
-73,753	-102,549	0,052	-0,009
-72,738	-200,000	-0,006	-0,042
-71,724	438,492	-0,040	0,061
-70,709	31,207	-0,133	-0,081
-69,694	800,000	-0,044	-0,126
-68,680	-200,000	0,016	0,050
-67,665	-200,000	0,033	0,118
-66,651	137,691	-0,129	0,120
-65,636	-200,000	-0,011	0,092
-64,622	184,624	-0,049	0,051
-63,607	10,542	-0,108	-0,058
-62,592	-167,231	-0,130	-0,004
-61,578	72,219	0,097	0,072
-60,563	519,810	0,033	-0,056
-59,549	-119,536	0,049	-0,006
-58,534	-54,493	-1,522	-0,485
-57,519	429,952	-1,431	-2,200
-56,505	-200,000	-0,702	-4,443
-55,490	170,016	0,958	0,971
-54,476	800,000	4,754	11,304
-53,461	-200,000	18,359	286,996
-52,446	800,000	727,264	2224,685
-51,432	553,708	1642,669	2807,642
-50,417	79,303	1664,845	1262,509
-49,403	23,001	1538,528	891,269
-48,388	16,976	1461,847	817,685
-47,373	17,892	1451,838	816,467
-46,359	17,310	1442,235	808,251
-45,344	15,209	1437,630	795,613
-44,330	15,154	1435,764	794,283
-43,315	15,137	1434,074	793,236
-42,300	15,125	1432,767	792,424
-41,286	15,190	1431,289	791,885
-40,271	15,170	1429,949	791,021
-39,257	15,150	1428,829	790,271
-38,242	15,251	1427,327	789,888
-37,227	15,250	1426,051	789,146
-36,213	15,224	1424,807	788,304
-35,198	15,195	1423,967	787,670
-34,184	15,271	1422,832	787,372
-33,169	15,152	1421,694	786,149
-32,154	15,199	1420,575	785,722
-31,140	15,231	1419,345	785,161
-30,125	15,270	1418,081	784,614
-29,111	15,247	1417,016	783,883
-28,096	15,202	1415,818	782,980
-27,082	15,146	1414,826	782,138
-26,067	15,147	1413,630	781,450
-25,052	15,149	1412,598	780,857
-24,038	15,093	1411,777	780,109
-23,023	15,082	1410,598	779,373
-22,009	15,125	1409,687	779,042
-20,994	15,081	1408,766	778,297
-19,979	15,052	1407,756	777,573
-18,965	15,048	1406,751	776,969
-17,950	15,086	1405,769	776,574
-16,936	15,073	1404,908	776,002
-15,921	15,027	1403,872	775,185
-14,906	15,004	1403,019	774,577
-13,892	15,038	1401,930	774,104
-12,877	15,064	1400,927	773,641
-11,863	14,985	1400,263	772,877
-10,848	14,989	1399,381	772,377
-9,833	15,019	1398,387	771,938
-8,819	14,954	1397,552	771,147
-7,804	14,912	1396,668	770,429
-6,790	14,874	1395,702	769,694
-5,775	14,952	1394,646	769,442
-4,760	14,942	1393,493	768,726
-3,746	14,938	1392,925	768,365
-2,731	14,966	1392,105	768,010
-1,717	14,928	1390,989	767,191
-0,702	14,918	1389,338	766,201
0,313	18,740	1308,447	739,268
1,327	35,072	706,888	437,234
2,342	54,050	124,789	84,781
3,356	1,425	16,647	8,442
4,371	0,628	3,188	1,608
5,386	-21,290	0,379	0,163
6,400	-99,346	0,041	0,007
7,415	29,601	-0,245	-0,147
8,429	28,946	-0,280	-0,168
9,444	-39,581	-0,387	-0,143
10,459	-80,457	-0,402	-0,094
11,473	-70,021	-0,402	-0,107
12,488	55,776	-0,244	-0,167
13,502	85,713	-0,184	-0,143
14,517	-20,747	-0,312	-0,135
15,531	296,061	-0,291	-0,378
16,546	-31,752	-0,469	-0,185
17,561	42,048	-0,380	-0,243
18,575	-13,420	-0,214	-0,098
19,590	232,547	-0,119	-0,138
20,604	-28,678	-0,263	-0,106
21,619	-25,631	-0,491	-0,204
22,634	23,407	-0,375	-0,217
23,648	78,606	-0,376	-0,284
24,663	99,325	-0,303	-0,247
25,677	126,395	-0,217	-0,194
26,692	106,555	-0,289	-0,242
27,707	104,880	-0,182	-0,152
28,721	-8,708	-0,415	-0,196
29,736	68,572	-0,411	-0,297
30,750	36,296	-0,334	-0,208
31,765	-1,319	-0,556	-0,276
32,780	70,537	-0,290	-0,211
33,794	222,711	-0,205	-0,233
34,809	188,981	-0,310	-0,328
35,823	136,346	-0,276	-0,254
36,838	65,813	-0,391	-0,279
37,853	120,043	-0,390	-0,342
38,867	33,178	-0,384	-0,234
39,882	65,042	-0,287	-0,204
40,896	-2,438	-0,313	-0,154
41,911	95,835	-0,418	-0,336
42,926	10,706	-0,323	-0,173
43,940	-20,665	-0,348	-0,150
44,955	114,697	-0,310	-0,267
45,969	32,862	-0,345	-0,210
46,984	311,222	-0,266	-0,352
47,999	-89,693	-0,391	-0,080
49,013	55,927	-0,372	-0,254
50,028	41,990	-0,333	-0,213
51,042	350,724	-0,261	-0,365
52,057	75,890	-0,390	-0,290
53,071	72,719	-0,395	-0,290
54,086	414,309	-0,206	-0,310
55,101	334,887	-0,179	-0,244
56,115	45,586	-0,360	-0,234
57,130	141,741	-0,380	-0,354
58,144	-14,990	-0,338	-0,152
59,159	153,112	-0,422	-0,407
60,174	208,782	-0,329	-0,363
61,188	48,589	-0,304	-0,200
62,203	-21,255	-0,360	-0,154
63,217	198,578	-0,264	-0,285
64,232	-7,159	-0,374	-0,178
65,247	-29,035	-0,364	-0,146
66,261	78,134	-0,322	-0,241
67,276	95,065	-0,343	-0,274
68,290	-38,834	-0,428	-0,158
69,305	-88,994	-0,328	-0,068
70,320	65,729	-0,413	-0,294
71,334	134,457	-0,238	-0,217
72,349	-22,208	-0,321	-0,136
73,363	42,811	-0,411	-0,263
74,378	15,106	-0,340	-0,187
75,393	31,453	-0,386	-0,233
76,407	15,898	-0,342	-0,189
77,422	88,039	-0,259	-0,202
78,436	13,453	-0,335	-0,182
79,451	193,975	-0,173	-0,184
80,466	-17,271	-0,408	-0,180
81,480	-22,254	-0,353	-0,150
82,495	-14,594	-0,364	-0,164
83,509	266,538	-0,192	-0,236
84,524	-80,755	-0,298	-0,069
85,539	70,868	-0,249	-0,181
86,553	49,608	-0,335	-0,221
87,568	-3,182	-0,357	-0,174
88,582	333,319	-0,238	-0,324
89,597	161,461	-0,347	-0,341
90,611	169,060	-0,222	-0,223
91,626	-61,742	-0,243	-0,071
92,641	56,811	-0,284	-0,194
93,655	-112,930	-0,335	-0,046
94,670	107,461	-0,174	-0,145
95,684	62,581	-0,291	-0,204
96,699	127,984	-0,239	-0,213
97,714	316,062	-0,181	-0,241
98,728	65,832	-0,244	-0,173
99,743	92,548	-0,255	-0,202
100,757	173,001	-0,206	-0,209
101,772	182,171	-0,314	-0,325
102,787	441,388	-0,153	-0,236
103,801	175,758	-0,355	-0,362
104,816	70,448	-0,204	-0,148
105,830	478,503	-0,150	-0,240
106,845	51,114	-0,307	-0,204
107,860	181,740	-0,194	-0,200
108,874	43,912	-0,174	-0,112
109,889	-131,525	-0,313	-0,028
110,903	126,951	-0,297	-0,264
111,918	-33,859	-0,264	-0,101
112,933	-148,162	-0,162	0,009
113,947	99,409	-0,160	-0,130
114,962	28,458	-0,331	-0,195
115,976	231,199	-0,088	-0,101
116,991	34,814	-0,328	-0,201
118,006	71,336	-0,343	-0,249
119,020	138,787	-0,152	-0,140
120,035	20,255	-0,271	-0,153
121,049	343,808	-0,161	-0,221
122,064	-102,081	-0,310	-0,052
123,079	219,330	-0,158	-0,177
124,093	150,380	-0,267	-0,254
125,108	291,340	-0,232	-0,296
126,122	140,485	-0,278	-0,257
127,137	-59,899	-0,263	-0,078
128,151	98,491	-0,193	-0,155
129,166	-15,939	-0,220	-0,098
130,181	36,513	-0,310	-0,191
131,195	50,213	-0,281	-0,185
132,210	-43,553	-0,310	-0,109
133,224	255,651	-0,239	-0,287
134,239	47,222	-0,222	-0,144
135,254	32,406	-0,218	-0,131
136,268	-24,779	-0,312	-0,129
137,283	41,532	-0,234	-0,148
138,297	56,951	-0,266	-0,181
139,312	-64,003	-0,289	-0,082
140,327	30,392	-0,264	-0,157
141,341	79,763	-0,296	-0,222
142,356	55,789	-0,301	-0,204
143,370	-83,358	-0,408	-0,091
144,385	212,598	-0,237	-0,262
145,400	25,706	-0,337	-0,195
146,414	-1,646	-0,185	-0,091
147,429	25,312	-0,197	-0,114
148,443	249,236	-0,153	-0,181
149,458	222,762	-0,124	-0,140
150,473	-200,000	-0,050	-0,270
151,487	248,641	-0,109	-0,129
152,502	19,576	-0,305	-0,171
153,516	-43,288	-0,293	-0,103
154,531	263,779	-0,234	-0,285
155,546	255,183	-0,231	-0,277
156,560	-59,099	-0,198	-0,059
157,575	724,075	-0,100	-0,186
158,589	28,326	-0,265	-0,156
159,604	149,250	-0,279	-0,264
160,619	236,722	-0,151	-0,175
161,633	153,744	-0,204	-0,195
162,648	67,113	-0,249	-0,177
163,662	-45,430	-0,218	-0,075
164,677	97,144	-0,252	-0,201
165,692	-134,849	-0,318	-0,026
166,706	63,460	-0,192	-0,134
167,721	309,210	-0,216	-0,282
168,735	44,250	-0,289	-0,184
169,750	276,292	-0,159	-0,198
170,764	121,457	-0,172	-0,149
171,779	800,000	-0,102	-0,208
172,794	26,862	-0,186	-0,108
173,808	-22,750	-0,256	-0,107
174,823	26,047	-0,322	-0,187
175,837	-23,003	-0,372	-0,155
176,852	141,173	-0,222	-0,205
177,867	33,904	-0,303	-0,184
178,881	800,000	-0,082	-0,177
179,896	49,733	-0,197	-0,129
180,910	17,111	-0,222	-0,122
181,925	160,097	-0,255	-0,248
182,940	19,611	-0,207	-0,116
183,954	-56,473	-0,209	-0,064
184,969	99,483	-0,151	-0,121
185,983	122,170	-0,185	-0,161
186,998	-46,156	-0,310	-0,106
188,013	18,026	-0,188	-0,104
189,027	-36,087	-0,158	-0,059
190,042	139,919	-0,205	-0,188
191,056	44,456	-0,338	-0,216
192,071	51,519	-0,277	-0,183
193,086	-26,623	-0,228	-0,093
194,100	496,988	-0,105	-0,168
195,115	-1,465	-0,187	-0,091
196,129	112,795	-0,227	-0,191
197,144	-22,422	-0,354	-0,148
198,159	84,106	-0,350	-0,266
199,173	30,440	-0,203	-0,120
200,188	-36,966	-0,204	-0,076
201,202	-20,581	-0,176	0,075
202,217	-16,252	-0,283	-0,124
203,232	79,488	-0,243	-0,181
204,246	222,394	-0,140	-0,157
205,261	254,282	-0,186	-0,222
206,275	37,197	-0,159	-0,098
207,290	31,809	-0,166	-0,099
208,304	55,231	-0,213	-0,143
209,319	547,899	-0,106	-0,178
210,334	800,000	-0,084	-0,209
211,348	152,918	-0,244	-0,232
212,363	114,516	-0,298	-0,252
213,377	-28,194	-0,240	-0,096
214,392	3,808	-0,198	-0,100
215,407	377,105	-0,121	-0,172
216,421	31,039	-0,261	-0,155
217,436	197,118	-0,166	-0,176
218,450	146,430	-0,193	-0,180
219,465	148,433	-0,271	-0,254
220,480	56,021	-0,169	-0,114
221,494	91,368	-0,185	-0,144
222,509	392,423	-0,226	-0,328
223,523	134,725	-0,189	-0,170
224,538	235,476	-0,178	-0,204
225,553	42,394	-0,251	-0,158
226,567	93,506	-0,273	-0,214
227,582	190,502	-0,159	-0,166
228,596	372,731	-0,125	-0,177
229,611	489,916	-0,094	-0,150
230,626	-51,156	-0,095	-0,031
231,640	-11,047	-0,248	-0,113
232,655	412,857	-0,087	-0,129
233,669	-200,000	-0,018	-0,259
234,684	112,818	-0,189	-0,158
235,699	335,185	-0,166	-0,224
236,713	81,478	-0,126	-0,094
237,728	30,567	-0,178	-0,105
238,742	126,993	-0,173	-0,152
239,757	-7,218	-0,299	-0,140
240,772	800,000	-0,111	-0,237
241,786	281,567	-0,194	-0,241
242,801	-91,658	-0,166	0,032
243,815	66,851	-0,144	-0,101
244,830	-184,057	-0,276	0,003
245,844	37,628	-0,234	-0,143
246,859	800,000	-0,192	-0,384
247,874	479,641	-0,104	-0,164
248,888	95,933	-0,252	-0,199
249,903	694,442	-0,085	-0,155
250,917	301,128	-0,107	-0,137
251,932	172,473	-0,090	-0,090
252,947	208,861	-0,108	-0,117
253,961	0,726	-0,215	-0,106
254,976	764,214	-0,095	-0,180
255,990	49,677	-0,201	-0,131
257,005	96,327	-0,124	-0,098
258,020	-102,483	-0,159	0,026
259,034	800,000	-0,039	-0,098
260,049	187,789	-0,204	-0,211
261,063	356,011	-0,124	-0,171
262,078	93,739	-0,273	-0,214
263,093	101,821	-0,147	-0,119
264,107	236,273	-0,162	-0,185
265,122	800,000	-0,082	-0,214
266,136	-71,442	-0,150	-0,039
267,151	-28,268	-0,186	-0,074
268,166	47,419	0,021	0,014
269,180	187,950	-0,254	-0,262
270,195	-10,646	-0,204	-0,093
271,209	-38,999	-0,147	-0,053
272,224	697,751	-0,041	-0,074
273,239	243,659	-0,153	-0,177
274,253	58,274	-0,143	-0,096
275,268	392,179	-0,101	-0,145
276,282	178,459	-0,191	-0,192
277,297	112,765	-0,152	-0,127
278,312	56,526	-0,216	-0,145
279,326	260,313	-0,100	-0,120
280,341	800,000	-0,083	-0,162
281,355	-147,403	-0,137	-0,008
282,370	-53,948	-0,272	-0,085
283,384	83,313	-0,189	-0,142
284,399	-8,980	-0,261	-0,120
285,414	-35,230	-0,194	-0,072
286,428	-39,317	-0,246	-0,089
287,443	466,414	-0,070	-0,109
288,457	40,466	-0,143	-0,089
289,472	21,767	-0,213	-0,120
290,487	94,067	-0,191	-0,149
291,501	-115,207	-0,202	0,026
292,516	-66,100	-0,227	0,062
293,530	-200,000	-0,023	-0,099
294,545	-90,551	-0,187	0,037
295,560	100,074	-0,102	-0,082
296,574	149,235	-0,132	-0,123
297,589	-7,149	-0,302	-0,141
298,603	4,873	-0,121	-0,061
299,618	3,267	-0,215	-0,107
300,633	107,230	-0,178	-0,146
301,647	163,528	-0,179	-0,174
302,662	-200,000	-0,045	-0,244
303,676	-77,488	-0,233	-0,055
304,691	150,254	-0,225	-0,210
305,706	-132,876	-0,220	-0,019
306,720	-57,068	-0,221	-0,067
307,735	44,517	-0,144	-0,091
308,749	55,318	-0,165	-0,110
309,764	-200,000	-0,224	0,000
310,779	-57,980	-0,117	-0,035
311,793	251,207	-0,099	-0,116
312,808	605,567	-0,133	-0,229
313,822	800,000	-0,101	-0,238
314,837	38,690	-0,198	-0,121
315,852	-200,000	-0,013	-0,133
316,866	-0,495	-0,147	-0,071
317,881	-95,189	-0,167	-0,031
318,895	-85,784	-0,112	-0,024
319,910	-172,954	-0,185	0,004
320,925	-200,000	-0,064	-0,225
321,939	118,157	-0,173	-0,147
322,954	-78,263	-0,142	0,033
323,968	-112,129	-0,040	-0,005
324,983	-40,021	-0,206	-0,073
325,997	137,372	-0,237	-0,213
327,012	-197,904	-0,084	0,000
328,027	226,086	-0,073	-0,082
329,041	-179,709	-0,252	-0,004
330,056	55,865	-0,137	-0,091
331,070	383,182	-0,048	-0,068
332,085	79,408	-0,105	-0,077
333,100	229,398	-0,086	-0,097
334,114	-71,242	-0,290	-0,074
335,129	88,857	-0,117	-0,090
336,143	800,000	-0,086	-0,212
337,158	-197,507	-0,160	0,001
338,173	66,532	0,013	0,009
339,187	200,475	-0,117	-0,124
340,202	-200,000	-0,064	-0,254
341,216	108,974	-0,162	-0,133
342,231	-179,533	-0,319	-0,005
343,246	-200,000	0,011	-0,139
344,260	79,988	-0,176	-0,130
345,275	774,816	-0,087	-0,163
346,289	776,583	-0,035	0,066
347,304	15,415	-0,185	0,099
348,319	233,737	-0,099	-0,112
349,333	-0,494	-0,096	-0,046
350,348	587,361	-0,094	-0,160
351,362	-200,000	-0,012	-0,041
352,377	800,000	-0,071	-0,156
353,392	-182,025	-0,095	0,001
354,406	33,729	-0,190	-0,113
355,421	208,866	1318,095	1417,065
356,435	160,723	1479,255	1417,558
