DTS Sentinel unit serial number:	SN410029Multiplexer serial number:	ORYXHardware model number:	OX2-SRSoftware version number:	ORYX F/W v4,00 Oryx Data Collector v3.7.2.0data status	okinstallation	B3 Nyhavnadifferential loss correction	single-endedforward channel	channel 1reverse channel	N/Adate	2023/12/03time	00:37:30forward acquisition time	300,00reverse acquisition time	0,00gamma	499,1914k internal	0,3201k external	0,3201temperature offset calibration	1,0000default loss term (dB/km)	0,3820temperature slope calibration	1,0000multiplexer offset coefficient	1,0000multiplexer slope coefficient	1,0000fibre end	0,00T internal ref (°C)	13,31T ext. ref 1 (°C)	-1,62T ext. ref 2 (°C)	-1,62length (m)	temperature (°C)	Stokes	anti-Stokes-744,400	125,150	-0,201	-0,184
-743,385	800,000	0,067	0,179
-742,371	208,777	-0,223	-0,254
-741,356	-200,000	0,025	0,331
-740,342	800,000	-0,081	-0,247
-739,327	-200,000	0,025	0,180
-738,312	33,299	-0,226	-0,143
-737,298	675,544	-0,105	0,199
-736,283	127,788	-0,226	-0,208
-735,269	-200,000	-0,012	0,322
-734,254	277,337	-0,161	-0,209
-733,239	207,666	-0,208	0,237
-732,225	343,974	-0,071	-0,102
-731,210	-200,000	0,011	0,097
-730,196	-200,000	0,022	-0,095
-729,181	-13,951	-0,162	-0,076
-728,167	-41,708	0,045	0,017
-727,152	-27,865	0,042	-0,017
-726,137	-200,000	0,048	-0,205
-725,123	-48,331	-0,047	-0,016
-724,108	364,118	0,018	0,026
-723,094	99,200	0,081	-0,068
-722,079	-105,669	-0,173	-0,028
-721,064	-5,810	-0,078	-0,039
-720,050	800,000	-0,045	0,111
-719,035	260,316	-0,058	-0,073
-718,021	147,582	-0,110	-0,108
-717,006	800,000	-0,069	-0,139
-715,991	308,742	-0,049	-0,067
-714,977	-200,000	0,007	-0,040
-713,962	191,197	-0,051	0,056
-712,948	274,806	0,029	-0,037
-711,933	775,248	0,016	0,032
-710,918	680,955	0,020	-0,039
-709,904	67,441	-0,150	-0,111
-708,889	-200,000	0,021	-0,124
-707,875	-53,485	0,093	0,031
-706,860	800,000	0,031	0,094
-705,845	108,288	0,072	-0,063
-704,831	12,533	0,048	0,027
-703,816	-182,855	-0,257	0,003
-702,802	140,903	0,048	-0,046
-701,787	-50,647	-0,085	0,029
-700,772	83,207	-0,067	-0,053
-699,758	18,188	-0,084	-0,049
-698,743	-21,625	0,204	0,090
-697,729	78,269	0,164	-0,127
-696,714	76,465	0,079	-0,061
-695,699	-37,109	0,081	-0,031
-694,685	-146,029	-0,068	0,004
-693,670	800,000	-0,013	-0,040
-692,656	11,294	-0,110	0,061
-691,641	638,953	0,027	-0,050
-690,627	228,887	0,096	-0,114
-689,612	-12,053	0,065	0,031
-688,597	-123,930	-0,097	0,011
-687,583	-56,257	0,093	0,030
-686,568	-117,318	-0,113	0,015
-685,554	647,514	0,027	0,050
-684,539	-146,150	-0,113	0,007
-683,524	-200,000	0,019	-0,068
-682,510	195,929	-0,089	0,098
-681,495	-200,000	-0,021	0,088
-680,481	-31,127	-0,097	-0,040
-679,466	239,702	-0,105	0,127
-678,451	800,000	-0,041	-0,088
-677,437	39,773	0,043	-0,028
-676,422	-124,000	-0,126	0,014
-675,408	17,776	0,098	-0,057
-674,393	800,000	-0,023	0,053
-673,378	280,709	-0,068	-0,088
-672,364	800,000	0,027	-0,067
-671,349	-200,000	-0,023	-0,184
-670,335	-32,225	0,068	-0,027
-669,320	-200,000	-0,033	0,131
-668,305	-147,797	0,124	-0,007
-667,291	-200,000	-0,023	-0,074
-666,276	16,793	0,069	-0,039
-665,262	-200,000	0,022	-0,155
-664,247	427,407	0,045	-0,071
-663,232	191,562	0,080	0,087
-662,218	30,265	0,020	-0,012
-661,203	-200,000	0,013	-0,049
-660,189	-54,964	-0,099	-0,032
-659,174	421,183	-0,025	-0,040
-658,159	163,428	-0,084	-0,085
-657,145	-27,214	0,041	0,017
-656,130	-167,820	0,087	0,002
-655,116	-97,593	0,143	-0,027
-654,101	800,000	0,039	-0,080
-653,086	-200,000	0,008	0,100
-652,072	431,304	-0,060	-0,095
-651,057	-30,960	-0,132	0,054
-650,043	91,289	-0,071	-0,058
-649,028	772,680	0,034	-0,067
-648,014	-130,152	0,118	-0,011
-646,999	95,339	0,068	-0,056
-645,984	639,404	-0,078	0,144
-644,970	800,000	-0,038	-0,077
-643,955	800,000	0,017	0,051
-642,941	-200,000	-0,024	0,130
-641,926	415,870	-0,089	0,138
-640,911	160,531	-0,064	-0,065
-639,897	-200,000	-0,021	-0,124
-638,882	-93,629	0,132	-0,026
-637,868	-43,632	-0,081	-0,029
-636,853	-200,000	-0,023	-0,082
-635,838	558,672	-0,042	-0,074
-634,824	-151,460	-0,054	0,003
-633,809	-163,540	0,162	-0,005
-632,795	306,312	0,020	0,027
-631,780	75,130	0,064	-0,048
-630,765	126,087	-0,066	0,060
-629,751	-49,416	-0,096	0,033
-628,736	800,000	-0,086	-0,183
-627,722	-135,974	0,098	0,008
-626,707	-31,317	-0,136	-0,055
-625,692	800,000	0,019	-0,056
-624,678	-4,377	-0,017	-0,008
-623,663	-200,000	0,013	-0,049
-622,649	-31,516	-0,135	-0,055
-621,634	-200,000	-0,005	-0,157
-620,619	271,016	-0,062	0,079
-619,605	235,157	0,036	-0,043
-618,590	670,969	0,073	0,138
-617,576	253,291	-0,035	0,043
-616,561	-200,000	0,017	-0,076
-615,546	800,000	0,038	-0,116
-614,532	-169,917	-0,097	-0,002
-613,517	6,216	0,051	-0,027
-612,503	-62,325	-0,105	0,031
-611,488	-175,001	0,074	0,001
-610,474	-96,071	0,063	-0,012
-609,459	-200,000	0,008	0,059
-608,444	-200,000	-0,011	-0,071
-607,430	-200,000	-0,000	0,046
-606,415	800,000	0,054	-0,114
-605,401	-200,000	0,007	0,115
-604,386	24,284	-0,012	0,007
-603,371	800,000	0,022	0,055
-602,357	-200,000	-0,049	0,173
-601,342	800,000	0,021	-0,050
-600,328	-200,000	0,009	-0,092
-599,313	-200,000	-0,045	-0,188
-598,298	800,000	0,018	-0,035
-597,284	-200,000	-0,047	0,159
-596,269	-89,804	0,156	-0,033
-595,255	-200,000	0,020	0,191
-594,240	291,842	0,069	-0,092
-593,225	-200,000	-0,031	-0,126
-592,211	-106,215	-0,123	0,020
-591,196	-33,653	-0,018	-0,007
-590,182	-200,000	0,004	0,034
-589,167	-91,797	0,102	0,021
-588,152	-163,420	-0,071	0,002
-587,138	172,441	0,088	-0,091
-586,123	117,306	0,070	-0,062
-585,109	28,239	0,053	0,033
-584,094	-200,000	0,005	-0,028
-583,079	-56,767	-0,081	0,026
-582,065	386,046	0,121	0,181
-581,050	377,071	0,026	-0,039
-580,036	8,321	0,013	0,007
-579,021	-149,857	0,207	-0,011
-578,006	800,000	-0,105	-0,292
-576,992	-126,777	-0,013	0,001
-575,977	45,396	0,127	0,085
-574,963	-200,000	-0,015	0,115
-573,948	16,197	0,029	0,016
-572,934	-55,813	-0,174	0,056
-571,919	800,000	0,034	0,103
-570,904	325,202	-0,109	-0,151
-569,890	-200,000	0,013	-0,102
-568,875	800,000	0,011	0,030
-567,861	-85,835	0,143	0,032
-566,846	-95,814	-0,075	0,014
-565,831	-124,140	0,050	0,006
-564,817	566,937	-0,025	-0,044
-563,802	-200,000	-0,026	-0,205
-562,788	88,679	-0,093	-0,075
-561,773	-46,889	0,129	0,045
-560,758	168,928	0,110	0,114
-559,744	-97,820	0,055	-0,010
-558,729	-200,000	-0,004	0,032
-557,715	391,197	-0,074	0,111
-556,700	-106,202	-0,045	-0,007
-555,685	-200,000	0,029	-0,095
-554,671	-103,642	-0,164	0,027
-553,656	181,819	-0,069	-0,074
-552,642	-200,000	-0,003	-0,101
-551,627	22,712	0,164	0,097
-550,612	753,732	-0,017	0,033
-549,598	-4,492	-0,097	0,048
-548,583	-200,000	0,040	-0,136
-547,569	509,913	-0,030	0,050
-546,554	-200,000	-0,008	-0,121
-545,539	50,196	0,217	0,148
-544,525	28,151	-0,063	-0,038
-543,510	-10,141	-0,065	0,031
-542,496	-78,085	-0,099	0,024
-541,481	-112,964	-0,074	0,010
-540,466	145,230	-0,065	-0,063
-539,452	270,599	-0,015	-0,019
-538,437	-200,000	0,014	0,203
-537,423	15,450	0,101	-0,057
-536,408	800,000	0,026	-0,053
-535,393	251,873	-0,082	-0,101
-534,379	-200,000	0,018	-0,064
-533,364	-13,049	0,120	-0,056
-532,350	447,154	0,102	0,162
-531,335	800,000	-0,050	0,130
-530,321	-178,335	-0,069	-0,001
-529,306	-200,000	0,001	0,188
-528,291	800,000	-0,063	-0,157
-527,277	-66,501	-0,144	-0,041
-526,262	26,915	0,043	0,026
-525,248	-143,094	-0,043	0,003
-524,233	485,884	-0,061	-0,100
-523,218	143,886	0,099	0,095
-522,204	173,452	-0,038	0,040
-521,189	105,062	-0,129	-0,110
-520,175	104,273	0,118	-0,100
-519,160	398,965	-0,045	-0,068
-518,145	120,251	-0,065	0,058
-517,131	-200,000	-0,002	0,021
-516,116	55,890	0,030	0,021
-515,102	-200,000	-0,002	0,124
-514,087	151,151	-0,049	-0,048
-513,072	28,539	-0,078	0,047
-512,058	712,495	-0,065	-0,124
-511,043	-26,780	0,040	-0,017
-510,029	400,594	0,083	0,126
-509,014	68,163	-0,080	0,059
-507,999	-200,000	-0,001	-0,103
-506,985	-45,385	0,073	-0,026
-505,970	-200,000	-0,004	0,034
-504,956	-200,000	-0,001	0,071
-503,941	-28,005	0,146	0,061
-502,926	25,890	0,094	0,057
-501,912	-35,690	0,112	0,043
-500,897	277,302	-0,012	-0,015
-499,883	-181,940	-0,085	-0,001
-498,868	75,016	-0,025	-0,019
-497,853	94,171	-0,056	-0,046
-496,839	-200,000	-0,013	0,089
-495,824	-200,000	-0,001	-0,012
-494,810	616,421	-0,020	-0,037
-493,795	362,594	-0,105	0,152
-492,781	155,672	0,022	-0,022
-491,766	262,838	-0,068	-0,085
-490,751	-102,592	0,055	-0,009
-489,737	-52,097	0,092	0,031
-488,722	230,670	0,012	-0,014
-487,708	210,357	0,161	0,183
-486,693	60,569	-0,040	0,028
-485,678	742,500	0,062	0,120
-484,664	109,297	-0,187	-0,161
-483,649	572,755	-0,079	-0,138
-482,635	-105,272	0,136	0,022
-481,620	656,378	0,042	0,078
-480,605	62,892	0,038	0,027
-479,591	800,000	-0,020	0,045
-478,576	-200,000	-0,001	0,007
-477,562	-0,933	-0,083	-0,042
-476,547	-137,670	-0,118	0,009
-475,532	88,089	0,052	-0,042
-474,518	-140,517	-0,076	-0,006
-473,503	176,272	0,050	-0,052
-472,489	-88,954	0,086	-0,018
-471,474	287,248	-0,028	-0,037
-470,459	224,593	-0,087	-0,101
-469,445	800,000	-0,024	-0,056
-468,430	4,718	-0,046	0,024
-467,416	800,000	0,028	0,065
-466,401	-158,208	0,116	0,005
-465,386	-79,216	0,137	0,033
-464,372	12,983	0,048	-0,027
-463,357	-200,000	-0,039	-0,140
-462,343	9,477	-0,047	-0,026
-461,328	800,000	0,032	0,069
-460,313	-200,000	0,012	0,040
-459,299	567,828	-0,056	-0,098
-458,284	-138,380	-0,089	-0,007
-457,270	-200,000	0,012	0,078
-456,255	504,878	-0,082	-0,136
-455,241	97,028	-0,116	-0,096
-454,226	-200,000	0,012	-0,091
-453,211	158,167	-0,020	0,020
-452,197	786,351	-0,032	0,063
-451,182	800,000	0,016	0,033
-450,168	772,999	-0,033	0,066
-449,153	70,272	0,075	-0,056
-448,138	31,313	-0,029	-0,018
-447,124	800,000	0,063	-0,137
-446,109	111,725	0,086	0,075
-445,095	-200,000	0,007	0,050
-444,080	328,569	0,015	-0,021
-443,065	6,001	-0,081	0,043
-442,051	48,416	-0,058	-0,039
-441,036	435,324	0,048	-0,075
-440,022	-15,128	0,050	-0,023
-439,007	-4,142	-0,028	-0,014
-437,992	766,868	-0,042	0,083
-436,978	800,000	-0,003	0,007
-435,963	800,000	-0,035	-0,083
-434,949	800,000	0,033	-0,084
-433,934	-102,310	-0,029	-0,005
-432,919	10,287	0,135	-0,074
-431,905	-54,835	0,053	-0,017
-430,890	628,784	0,070	0,127
-429,876	-87,078	0,063	0,014
-428,861	-200,000	-0,004	-0,022
-427,846	-200,000	-0,026	0,150
-426,832	7,529	0,079	-0,042
-425,817	-200,000	-0,040	-0,141
-424,803	209,448	-0,033	-0,037
-423,788	-138,277	-0,016	-0,001
-422,773	3,455	-0,097	-0,051
-421,759	60,703	-0,055	0,039
-420,744	800,000	0,027	0,075
-419,730	268,607	-0,046	0,058
-418,715	81,900	-0,057	0,044
-417,701	771,350	-0,009	-0,018
-416,686	-200,000	-0,001	-0,091
-415,671	143,808	-0,088	0,084
-414,657	800,000	0,030	0,090
-413,642	-7,467	-0,090	-0,044
-412,628	620,735	0,001	-0,002
-411,613	-200,000	-0,002	0,015
-410,598	299,927	0,030	0,040
-409,584	800,000	-0,017	0,040
-408,569	453,254	0,033	0,053
-407,555	-96,377	0,142	-0,027
-406,540	312,949	0,042	0,057
-405,525	378,199	0,010	-0,015
-404,511	-200,000	0,027	-0,137
-403,496	269,564	-0,066	-0,083
-402,482	-198,099	0,065	-0,000
-401,467	69,496	0,088	0,065
-400,452	-200,000	-0,005	0,259
-399,438	-12,036	0,093	-0,044
-398,423	-34,080	-0,098	-0,038
-397,409	800,000	-0,040	-0,085
-396,394	-200,000	0,013	-0,043
-395,379	399,570	-0,014	-0,020
-394,365	86,529	0,057	0,045
-393,350	-185,133	0,122	0,001
-392,336	-200,000	0,000	-0,054
-391,321	517,798	-0,073	-0,124
-390,306	-68,651	-0,036	0,010
-389,292	-7,626	0,038	0,018
-388,277	566,075	0,052	-0,091
-387,263	17,679	0,024	-0,014
-386,248	573,198	-0,070	0,123
-385,233	134,035	0,069	-0,065
-384,219	232,966	0,084	-0,099
-383,204	-105,392	-0,131	-0,021
-382,190	-72,322	-0,156	-0,041
-381,175	80,459	0,129	-0,099
-380,160	178,400	-0,069	-0,072
-379,146	-120,021	0,234	0,028
-378,131	151,331	-0,016	0,015
-377,117	-200,000	-0,011	-0,069
-376,102	-200,000	0,005	-0,042
-375,088	48,020	-0,057	-0,038
-374,073	-200,000	-0,019	-0,090
-373,058	355,265	-0,039	0,055
-372,044	800,000	0,056	0,114
-371,029	-98,535	-0,042	-0,008
-370,015	800,000	-0,025	0,068
-369,000	-2,779	-0,115	0,057
-367,985	-74,340	-0,027	-0,007
-366,971	-200,000	-0,008	0,067
-365,956	138,865	0,064	0,061
-364,942	-200,000	-0,025	0,175
-363,927	21,353	-0,062	0,036
-362,912	83,724	-0,054	0,042
-361,898	-200,000	0,017	0,097
-360,883	-200,000	-0,019	-0,109
-359,869	496,302	-0,036	-0,059
-358,854	-109,953	0,057	-0,009
-357,839	-200,000	-0,027	0,152
-356,825	-50,260	0,092	-0,031
-355,810	-19,084	0,057	-0,025
-354,796	328,602	0,110	-0,152
-353,781	-57,445	0,211	0,066
-352,766	301,553	0,088	0,117
-351,752	-129,517	0,129	-0,013
-350,737	83,557	0,079	-0,062
-349,723	-115,618	0,044	0,006
-348,708	-200,000	-0,006	-0,070
-347,693	231,606	0,026	0,031
-346,679	-200,000	-0,009	0,097
-345,664	71,834	-0,086	0,064
-344,650	26,843	0,151	-0,090
-343,635	800,000	0,022	-0,053
-342,620	-49,996	0,022	0,007
-341,606	-98,573	0,091	0,016
-340,591	383,478	0,027	0,040
-339,577	251,166	-0,030	-0,037
-338,562	326,356	0,044	-0,060
-337,548	141,726	-0,039	-0,037
-336,533	-200,000	-0,005	0,062
-335,518	306,884	0,037	0,050
-334,504	472,940	0,098	0,159
-333,489	-17,494	-0,176	-0,079
-332,475	-84,496	0,044	0,010
-331,460	101,140	0,116	-0,096
-330,445	154,730	-0,108	-0,106
-329,431	800,000	-0,036	-0,108
-328,416	-134,619	0,047	0,004
-327,402	-200,000	-0,001	0,095
-326,387	-3,063	-0,141	0,070
-325,372	-200,000	-0,006	-0,026
-324,358	-200,000	-0,016	0,231
-323,343	428,818	0,033	-0,052
-322,329	-87,852	0,030	0,007
-321,314	734,391	-0,063	0,122
-320,299	324,652	0,032	0,044
-319,285	210,287	-0,075	0,084
-318,270	183,979	0,048	-0,051
-317,256	800,000	-0,098	0,274
-316,241	614,751	0,036	-0,065
-315,226	101,987	0,020	-0,017
-314,212	800,000	-0,010	-0,031
-313,197	-200,000	-0,022	0,167
-312,183	-174,576	0,123	-0,002
-311,168	-200,000	0,024	0,082
-310,153	-126,985	-0,113	-0,012
-309,139	9,878	0,048	-0,026
-308,124	-200,000	0,007	0,085
-307,110	155,287	0,018	0,018
-306,095	189,858	0,134	0,144
-305,080	-200,000	-0,024	-0,167
-304,066	187,059	-0,042	-0,045
-303,051	63,006	-0,090	-0,064
-302,037	-200,000	-0,020	-0,127
-301,022	-148,505	0,132	-0,008
-300,008	-200,000	0,005	-0,044
-298,993	-200,000	-0,016	0,153
-297,978	-23,791	-0,129	-0,055
-296,964	800,000	-0,034	-0,100
-295,949	83,337	0,013	-0,010
-294,935	-200,000	-0,030	-0,094
-293,920	-200,000	-0,015	0,088
-292,905	-196,802	0,106	-0,000
-291,891	-200,000	0,007	0,050
-290,876	-105,941	-0,120	0,019
-289,862	-98,679	-0,040	-0,007
-288,847	-200,000	-0,011	0,117
-287,832	92,569	-0,109	-0,088
-286,818	-112,404	-0,052	0,007
-285,803	301,552	0,117	-0,155
-284,789	-200,000	-0,024	0,147
-283,774	800,000	0,080	0,177
-282,759	50,290	-0,123	-0,083
-281,745	3,412	-0,045	0,024
-280,730	131,076	-0,088	-0,081
-279,716	82,821	0,042	-0,033
-278,701	-129,713	-0,175	0,017
-277,686	-200,000	0,019	0,150
-276,672	78,351	-0,021	0,016
-275,657	-124,531	0,046	-0,005
-274,643	32,984	-0,024	0,015
-273,628	-95,446	-0,139	0,026
-272,613	-34,785	0,060	0,023
-271,599	800,000	0,023	0,056
-270,584	800,000	0,009	0,028
-269,570	800,000	0,035	-0,084
-268,555	50,832	-0,058	0,039
-267,540	368,572	-0,022	-0,031
-266,526	800,000	-0,029	0,064
-265,511	-61,092	-0,046	0,014
-264,497	-127,090	0,091	0,009
-263,482	-73,803	0,102	-0,026
-262,467	-131,884	-0,089	0,008
-261,453	-200,000	-0,006	-0,107
-260,438	473,264	0,039	-0,062
-259,424	800,000	0,085	-0,186
-258,409	409,814	0,066	-0,100
-257,395	-127,407	-0,070	-0,007
-256,380	800,000	0,045	0,112
-255,365	26,249	-0,027	-0,016
-254,351	-200,000	-0,002	0,043
-253,336	-200,000	0,024	0,232
-252,322	-200,000	-0,003	0,086
-251,307	666,125	-0,060	0,111
-250,292	215,701	0,041	0,046
-249,278	800,000	0,021	-0,056
-248,263	258,459	0,095	0,117
-247,249	375,759	0,090	0,132
-246,234	800,000	-0,043	0,097
-245,219	-88,546	-0,091	0,019
-244,205	232,119	0,124	-0,146
-243,190	-200,000	0,008	-0,042
-242,176	-106,552	0,104	0,016
-241,161	-16,706	-0,074	0,033
-240,146	-176,771	0,027	-0,000
-239,132	-159,106	0,095	-0,004
-238,117	800,000	-0,006	0,014
-237,103	-200,000	-0,009	0,059
-236,088	800,000	-0,052	-0,112
-235,073	544,192	0,065	0,111
-234,059	154,087	-0,062	0,061
-233,044	-71,957	0,130	0,034
-232,030	287,237	-0,077	-0,099
-231,015	-56,517	-0,146	-0,046
-230,000	-148,228	-0,053	-0,003
-228,986	-134,911	0,019	-0,002
-227,971	19,731	0,022	0,013
-226,957	68,847	0,088	0,064
-225,942	133,603	0,031	-0,029
-224,927	319,394	0,043	0,058
-223,913	-47,727	-0,162	-0,056
-222,898	-131,226	-0,120	-0,011
-221,884	-172,729	0,042	-0,001
-220,869	-144,473	-0,034	0,002
-219,855	-200,000	-0,007	0,022
-218,840	-79,552	0,058	-0,014
-217,825	800,000	0,066	-0,132
-216,811	-42,495	-0,120	0,043
-215,796	490,775	-0,060	-0,098
-214,782	-200,000	-0,012	-0,110
-213,767	-4,917	0,050	0,024
-212,752	16,461	0,051	-0,028
-211,738	713,256	0,044	0,084
-210,723	-200,000	-0,020	0,109
-209,709	552,004	-0,082	-0,140
-208,694	-175,132	-0,110	-0,002
-207,679	800,000	-0,038	-0,099
-206,665	17,738	0,045	0,025
-205,650	800,000	-0,031	-0,064
-204,636	23,802	0,170	0,100
-203,621	679,242	0,011	-0,021
-202,606	634,963	0,027	-0,048
-201,592	484,315	-0,035	-0,057
-200,577	356,909	-0,048	-0,068
-199,563	295,316	-0,076	-0,100
-198,548	-200,000	0,016	0,108
-197,533	-200,000	-0,025	0,107
-196,519	-200,000	0,035	-0,142
-195,504	99,287	0,135	-0,111
-194,490	125,344	-0,085	0,077
-193,475	-22,037	-0,071	0,031
-192,460	-73,119	-0,063	0,016
-191,446	575,525	0,065	-0,114
-190,431	203,559	-0,043	0,047
-189,417	-22,048	0,080	0,034
-188,402	-24,285	-0,088	-0,037
-187,387	-97,003	-0,075	0,014
-186,373	-200,000	0,023	0,148
-185,358	-16,977	-0,031	0,014
-184,344	-200,000	-0,009	0,045
-183,329	-200,000	0,024	-0,132
-182,315	-95,779	-0,041	0,008
-181,300	50,762	0,158	0,106
-180,285	12,981	0,049	0,027
-179,271	-169,768	-0,131	-0,003
-178,256	-200,000	0,003	-0,081
-177,242	-106,650	0,144	-0,023
-176,227	800,000	0,025	-0,075
-175,212	137,832	0,020	0,019
-174,198	-200,000	0,011	-0,071
-173,183	-60,083	-0,046	-0,014
-172,169	-58,066	-0,191	-0,059
-171,154	528,378	-0,034	-0,057
-170,139	-181,455	0,022	-0,000
-169,125	800,000	0,058	0,159
-168,110	-79,700	-0,057	0,014
-167,096	-200,000	-0,023	0,125
-166,081	-200,000	0,001	-0,030
-165,066	-121,502	-0,055	0,006
-164,052	-200,000	0,007	0,083
-163,037	9,238	-0,131	0,070
-162,023	562,233	0,107	0,184
-161,008	-69,475	0,127	0,034
-159,993	565,575	-0,049	-0,085
-158,979	11,650	0,071	-0,039
-157,964	94,341	-0,119	-0,096
-156,950	104,781	-0,073	0,062
-155,935	-66,443	-0,016	-0,005
-154,920	-114,005	0,085	0,012
-153,906	-200,000	0,016	-0,108
-152,891	578,996	-0,037	-0,065
-151,877	396,344	0,038	0,057
-150,862	-157,437	-0,127	0,005
-149,847	-62,667	-0,094	0,028
-148,833	-146,803	-0,017	0,001
-147,818	-85,139	0,063	0,014
-146,804	51,750	0,037	0,025
-145,789	745,554	0,029	0,056
-144,775	140,456	-0,041	-0,038
-143,760	-200,000	-0,008	0,057
-142,745	-200,000	0,011	0,045
-141,731	310,101	0,060	0,080
-140,716	514,902	-0,056	-0,094
-139,702	-109,496	0,082	-0,012
-138,687	-49,739	-0,157	-0,053
-137,672	-175,761	0,074	-0,001
-136,658	-200,000	-0,003	-0,095
-135,643	283,629	-0,051	0,065
-134,629	-46,201	0,143	0,050
-133,614	392,621	0,096	0,142
-132,599	-127,959	-0,192	-0,019
-131,585	48,167	0,106	0,070
-130,570	-165,284	-0,072	0,002
-129,556	-123,536	-0,086	0,010
-128,541	117,655	-0,134	-0,117
-127,526	800,000	0,017	-0,050
-126,512	-174,232	0,045	-0,001
-125,497	800,000	-0,014	0,029
-124,483	-3,067	0,103	0,051
-123,468	-2,958	-0,047	0,023
-122,453	66,115	-0,102	0,073
-121,439	800,000	-0,102	-0,214
-120,424	77,857	-0,029	0,022
-119,410	522,803	0,050	0,083
-118,395	800,000	0,004	-0,011
-117,380	-200,000	-0,006	0,070
-116,366	657,684	0,053	0,098
-115,351	326,992	-0,009	-0,013
-114,337	800,000	-0,055	-0,114
-113,322	800,000	-0,015	0,039
-112,307	800,000	0,051	0,101
-111,293	235,297	0,082	-0,097
-110,278	-200,000	0,006	0,095
-109,264	-200,000	0,001	-0,077
-108,249	-200,000	0,005	0,050
-107,234	800,000	-0,059	-0,156
-106,220	-200,000	-0,055	-0,196
-105,205	-116,296	0,153	-0,020
-104,191	-200,000	-0,050	-0,169
-103,176	-200,000	-0,009	0,079
-102,162	-108,909	-0,160	0,024
-101,147	-39,826	0,156	0,057
-100,132	14,160	0,072	-0,040
-99,118	-200,000	-0,018	0,075
-98,103	727,164	-0,025	-0,048
-97,089	66,148	0,108	0,077
-96,074	-200,000	-0,040	0,140
-95,059	-139,743	0,085	-0,006
-94,045	-200,000	-0,030	-0,100
-93,030	-200,000	0,005	-0,023
-92,016	-115,086	-0,099	0,013
-91,001	135,380	-0,082	-0,076
-89,986	109,701	0,044	-0,038
-88,972	82,222	-0,078	0,060
-87,957	800,000	0,034	0,084
-86,943	508,534	0,033	-0,054
-85,928	151,462	-0,039	0,038
-84,913	-200,000	0,041	-0,186
-83,899	-26,620	-0,135	0,056
-82,884	-200,000	0,013	0,062
-81,870	-102,102	-0,147	0,025
-80,855	-91,488	0,103	0,021
-79,840	-63,238	-0,069	0,020
-78,826	-200,000	-0,003	-0,073
-77,811	-200,000	0,013	-0,075
-76,797	-200,000	-0,003	0,099
-75,782	-113,945	0,064	0,009
-74,767	-20,508	0,073	0,032
-73,753	-200,000	-0,036	-0,151
-72,738	-168,180	0,057	0,002
-71,724	-200,000	0,003	-0,134
-70,709	143,503	-0,085	-0,080
-69,694	420,022	0,080	-0,121
-68,680	-200,000	-0,030	-0,118
-67,665	-90,710	0,013	0,003
-66,651	-94,153	0,191	0,037
-65,636	800,000	0,019	0,042
-64,622	183,294	-0,040	0,042
-63,607	71,466	-0,088	0,065
-62,592	-123,604	0,103	0,011
-61,578	-49,388	0,162	0,054
-60,563	212,784	0,123	0,138
-59,549	-200,000	-0,013	0,142
-58,534	-18,752	-1,682	-0,739
-57,519	443,496	-1,300	-2,025
-56,505	-200,000	-0,494	-4,565
-55,490	203,484	1,020	1,119
-54,476	800,000	4,964	11,323
-53,461	-200,000	19,243	319,691
-52,446	-200,000	740,802	2334,250
-51,432	573,658	1655,760	2870,037
-50,417	78,230	1671,030	1261,503
-49,403	21,292	1544,101	885,632
-48,388	15,167	1466,433	811,295
-47,373	17,928	1456,659	819,203
-46,359	16,649	1446,480	807,311
-45,344	13,458	1441,808	789,387
-44,330	13,334	1440,005	787,771
-43,315	13,357	1438,209	786,868
-42,300	13,368	1436,502	785,956
-41,286	13,404	1435,254	785,417
-40,271	13,368	1433,697	784,360
-39,257	13,342	1432,708	783,666
-38,242	13,391	1431,267	783,080
-37,227	13,401	1430,127	782,469
-36,213	13,406	1428,834	781,755
-35,198	13,398	1427,553	780,985
-34,184	13,455	1426,752	780,787
-33,169	13,385	1425,475	779,724
-32,154	13,425	1424,294	779,240
-31,140	13,408	1423,055	778,451
-30,125	13,438	1421,926	777,944
-29,111	13,419	1420,938	777,284
-28,096	13,411	1419,671	776,517
-27,082	13,350	1418,805	775,730
-26,067	13,332	1417,541	774,918
-25,052	13,317	1416,675	774,346
-24,038	13,306	1415,528	773,638
-23,023	13,351	1414,348	773,171
-22,009	13,290	1413,611	772,451
-20,994	13,302	1412,474	771,855
-19,979	13,311	1411,772	771,483
-18,965	13,274	1410,822	770,760
-17,950	13,274	1409,774	770,156
-16,936	13,323	1408,957	769,912
-15,921	13,241	1407,796	768,862
-14,906	13,254	1406,877	768,391
-13,892	13,270	1405,876	767,889
-12,877	13,285	1404,958	767,425
-11,863	13,253	1404,125	766,790
-10,848	13,246	1403,331	766,294
-9,833	13,212	1402,420	765,606
-8,819	13,181	1401,544	764,957
-7,804	13,211	1400,664	764,585
-6,790	13,155	1399,569	763,698
-5,775	13,143	1398,584	763,072
-4,760	13,183	1397,533	762,655
-3,746	13,165	1396,711	762,091
-2,731	13,138	1395,853	761,467
-1,717	13,083	1395,061	760,749
-0,702	13,088	1393,265	759,767
0,313	16,971	1310,104	732,394
1,327	33,322	703,622	431,129
2,342	51,291	123,190	82,600
3,356	1,629	16,658	8,457
4,371	10,667	3,206	1,724
5,386	-58,472	0,716	0,219
6,400	800,000	-0,118	0,301
7,415	67,525	-0,233	-0,168
8,429	128,640	-0,338	-0,305
9,444	315,441	-0,188	-0,251
10,459	7,604	-0,227	-0,120
11,473	-102,691	-0,356	-0,059
12,488	45,657	-0,400	-0,261
13,502	27,123	-0,325	-0,193
14,517	-10,223	-0,373	-0,174
15,531	111,315	-0,322	-0,274
16,546	67,546	-0,350	-0,252
17,561	131,750	-0,450	-0,409
18,575	427,821	-0,123	-0,188
19,590	75,714	-0,288	-0,215
20,604	-14,549	-0,296	-0,134
21,619	-60,079	-0,350	-0,105
22,634	58,550	-0,581	-0,402
23,648	241,787	-0,290	-0,343
24,663	-121,446	-0,314	-0,036
25,677	95,554	-0,314	-0,253
26,692	205,447	-0,265	-0,291
27,707	209,969	-0,285	-0,316
28,721	20,273	-0,447	-0,254
29,736	65,414	-0,409	-0,292
30,750	-17,526	-0,463	-0,205
31,765	162,854	-0,313	-0,310
32,780	62,352	-0,404	-0,284
33,794	36,492	-0,449	-0,279
34,809	168,038	-0,316	-0,317
35,823	-24,845	-0,347	-0,145
36,838	-10,551	-0,376	-0,175
37,853	26,728	-0,482	-0,284
38,867	145,191	-0,292	-0,276
39,882	18,682	-0,425	-0,239
40,896	33,098	-0,333	-0,203
41,911	205,712	-0,337	-0,370
42,926	45,128	-0,482	-0,313
43,940	166,988	-0,287	-0,287
44,955	22,806	-0,506	-0,292
45,969	284,392	-0,294	-0,373
46,984	70,835	-0,331	-0,241
47,999	-79,852	-0,304	-0,071
49,013	-11,870	-0,295	-0,136
50,028	86,751	-0,329	-0,255
51,042	3,386	-0,449	-0,230
52,057	664,400	-0,208	-0,380
53,071	89,809	-0,342	-0,269
54,086	512,151	-0,206	-0,339
55,101	326,444	-0,252	-0,340
56,115	127,722	-0,277	-0,248
57,130	-36,149	-0,284	-0,107
58,144	-162,062	-0,362	-0,013
59,159	-0,386	-0,438	-0,218
60,174	414,062	-0,253	-0,380
61,188	147,847	-0,387	-0,367
62,203	84,107	-0,303	-0,233
63,217	70,760	-0,221	-0,161
64,232	-20,954	-0,369	-0,158
65,247	229,301	-0,226	-0,260
66,261	-27,207	-0,413	-0,169
67,276	76,329	-0,374	-0,278
68,290	38,797	-0,385	-0,241
69,305	49,984	-0,306	-0,203
70,320	231,668	-0,151	-0,175
71,334	226,019	-0,162	-0,185
72,349	89,726	-0,313	-0,245
73,363	35,911	-0,325	-0,201
74,378	57,625	-0,316	-0,217
75,393	142,702	-0,338	-0,316
76,407	-27,698	-0,321	-0,130
77,422	43,524	-0,267	-0,171
78,436	203,865	-0,230	-0,251
79,451	42,959	-0,286	-0,183
80,466	56,475	-0,204	-0,139
81,480	-49,153	-0,399	-0,133
82,495	163,297	-0,184	-0,182
83,509	800,000	-0,074	-0,215
84,524	-80,057	-0,268	0,063
85,539	123,628	-0,191	-0,168
86,553	100,188	-0,281	-0,229
87,568	-87,444	-0,411	-0,087
88,582	326,115	-0,164	-0,220
89,597	140,384	-0,267	-0,247
90,611	85,119	-0,200	-0,154
91,626	-42,897	-0,299	-0,106
92,641	274,620	-0,190	-0,237
93,655	-49,672	-0,345	-0,115
94,670	87,304	-0,329	-0,255
95,684	188,975	-0,274	-0,288
96,699	264,219	-0,275	-0,337
97,714	28,901	-0,251	-0,149
98,728	72,260	-0,222	-0,162
99,743	125,958	-0,200	-0,177
100,757	7,108	-0,311	-0,162
101,772	51,837	-0,413	-0,275
102,787	74,523	-0,242	-0,179
103,801	69,862	-0,248	-0,179
104,816	59,012	-0,291	-0,201
105,830	279,359	-0,172	-0,216
106,845	350,262	-0,219	-0,304
107,860	129,085	-0,334	-0,298
108,874	71,941	-0,340	-0,248
109,889	-7,130	-0,299	-0,142
110,903	99,757	-0,240	-0,195
111,918	221,539	-0,230	-0,259
112,933	-23,553	-0,238	-0,100
113,947	87,889	-0,260	-0,202
114,962	-49,813	-0,246	-0,081
115,976	152,038	-0,164	-0,157
116,991	191,361	-0,249	-0,263
118,006	150,916	-0,338	-0,322
119,020	122,096	-0,248	-0,216
120,035	-29,762	-0,223	-0,089
121,049	53,139	-0,226	-0,151
122,064	214,528	-0,257	-0,285
123,079	73,083	-0,208	-0,152
124,093	51,099	-0,280	-0,185
125,108	64,519	-0,342	-0,241
126,122	42,457	-0,318	-0,202
127,137	274,735	-0,134	-0,167
128,151	302,422	-0,105	-0,136
129,166	206,514	-0,174	-0,190
130,181	49,556	-0,271	-0,178
131,195	15,634	-0,227	-0,124
132,210	44,542	-0,197	-0,126
133,224	175,544	-0,328	-0,333
134,239	31,886	-0,324	-0,194
135,254	-32,604	-0,273	-0,106
136,268	85,513	-0,284	-0,218
137,283	-5,878	-0,227	-0,108
138,297	223,221	-0,198	-0,223
139,312	39,506	-0,265	-0,165
140,327	76,180	-0,337	-0,249
141,341	158,631	-0,180	-0,175
142,356	49,463	-0,261	-0,171
143,370	21,888	-0,208	-0,118
144,385	-19,093	-0,264	-0,114
145,400	141,297	-0,243	-0,225
146,414	229,816	-0,182	-0,208
147,429	-29,763	-0,226	-0,090
148,443	69,159	-0,281	-0,202
149,458	2,737	-0,164	-0,083
150,473	55,088	-0,240	-0,162
151,487	-13,910	-0,223	-0,100
152,502	166,713	-0,295	-0,292
153,516	81,199	-0,309	-0,232
154,531	-7,730	-0,245	-0,115
155,546	111,651	-0,204	-0,172
156,560	79,597	-0,154	-0,115
157,575	142,168	-0,249	-0,230
158,589	-26,878	-0,313	-0,127
159,604	132,818	-0,196	-0,177
160,619	-78,742	-0,188	-0,044
161,633	145,610	-0,312	-0,292
162,648	137,941	-0,297	-0,272
163,662	-19,006	-0,293	-0,127
164,677	242,648	-0,218	-0,256
165,692	24,236	-0,239	-0,137
166,706	117,068	-0,266	-0,228
167,721	33,061	-0,255	-0,154
168,735	86,070	-0,123	-0,094
169,750	-130,362	-0,102	-0,010
170,764	2,986	-0,257	-0,130
171,779	217,533	-0,206	-0,230
172,794	-131,584	-0,287	-0,026
173,808	402,393	-0,141	-0,207
174,823	105,400	-0,233	-0,192
175,837	174,548	-0,259	-0,261
176,852	65,559	-0,226	-0,159
177,867	1,142	-0,249	-0,124
178,881	75,877	-0,128	-0,094
179,896	-183,392	-0,114	-0,001
180,910	380,860	-0,135	-0,194
181,925	-89,336	-0,388	-0,079
182,940	131,697	-0,207	-0,185
183,954	52,164	-0,161	-0,107
184,969	-178,404	-0,329	0,005
185,983	-129,660	-0,201	-0,019
186,998	214,500	-0,229	-0,253
188,013	583,735	-0,199	-0,341
189,027	79,264	-0,227	-0,169
190,042	-73,564	-0,313	-0,079
191,056	-32,775	-0,143	-0,055
192,071	198,298	-0,167	-0,178
193,086	-14,039	-0,341	-0,152
194,100	87,651	-0,257	-0,198
195,115	-1,763	-0,335	-0,164
196,129	14,108	-0,203	-0,110
197,144	17,171	-0,329	-0,181
198,159	-135,769	-0,192	-0,016
199,173	800,000	-0,094	-0,184
200,188	800,000	-0,029	-0,075
201,202	98,920	-0,148	-0,119
202,217	156,709	-0,163	-0,156
203,232	487,760	-0,177	-0,282
204,246	113,889	-0,142	-0,120
205,261	108,776	-0,322	-0,267
206,275	326,280	-0,221	-0,295
207,290	23,698	-0,201	-0,115
208,304	448,605	-0,134	-0,205
209,319	-59,278	-0,264	-0,078
210,334	95,581	-0,224	-0,177
211,348	216,261	-0,161	-0,178
212,363	-128,046	-0,281	0,028
213,377	-91,315	-0,283	-0,056
214,392	93,701	-0,283	-0,223
215,407	65,469	-0,195	-0,137
216,421	58,277	-0,110	-0,075
217,436	-15,370	-0,179	-0,079
218,450	400,284	-0,119	-0,174
219,465	378,290	-0,161	-0,230
220,480	316,950	-0,145	-0,191
221,494	621,339	-0,064	-0,113
222,509	-200,000	-0,097	-0,298
223,523	28,962	-0,231	-0,136
224,538	-105,363	-0,237	-0,037
225,553	800,000	-0,131	-0,282
226,567	192,244	-0,188	-0,197
227,582	45,969	-0,197	-0,127
228,596	-43,371	-0,238	-0,083
229,611	-30,240	-0,211	-0,083
230,626	525,253	-0,093	-0,152
231,640	-65,910	-0,208	-0,057
232,655	-26,434	-0,108	-0,044
233,669	430,089	-0,130	-0,195
234,684	-1,823	-0,162	-0,079
235,699	-200,000	-0,059	-0,250
236,713	-52,479	-0,163	-0,052
237,728	74,423	-0,233	-0,170
238,742	319,541	-0,134	-0,177
239,757	41,355	-0,224	-0,140
240,772	-182,448	-0,308	-0,004
241,786	107,903	-0,263	-0,217
242,801	667,113	-0,137	-0,246
243,815	-72,896	-0,261	-0,066
244,830	-154,839	-0,268	-0,012
245,844	190,251	-0,141	-0,146
246,859	37,682	-0,264	-0,162
247,874	62,759	-0,172	-0,119
248,888	180,180	-0,170	-0,173
249,903	132,113	-0,164	-0,146
250,917	-62,212	-0,103	-0,029
251,932	-15,705	-0,103	-0,045
252,947	52,678	-0,147	-0,097
253,961	43,853	-0,155	-0,098
254,976	207,861	-0,257	-0,278
255,990	61,458	-0,244	-0,168
257,005	221,360	-0,248	-0,276
258,020	-101,447	-0,107	-0,018
259,034	512,126	-0,086	-0,139
260,049	733,191	-0,129	-0,241
261,063	145,002	-0,180	-0,167
262,078	18,305	-0,269	-0,148
263,093	36,213	-0,310	-0,188
264,107	-200,000	-0,039	-0,230
265,122	151,220	-0,258	-0,243
266,136	-80,675	-0,160	-0,036
267,151	-46,013	-0,156	0,053
268,166	284,372	-0,116	0,144
269,180	360,031	-0,179	-0,249
270,195	112,214	-0,211	-0,176
271,209	800,000	-0,037	-0,086
272,224	-49,175	-0,148	-0,049
273,239	113,499	-0,050	-0,042
274,253	532,874	-0,095	-0,155
275,268	93,236	-0,101	-0,079
276,282	111,862	-0,148	-0,123
277,297	258,198	-0,186	-0,221
278,312	548,299	-0,095	-0,158
279,326	39,124	-0,177	-0,109
280,341	45,518	-0,232	-0,147
281,355	-6,138	-0,186	-0,087
282,370	40,536	-0,200	-0,124
283,384	106,394	-0,197	-0,161
284,399	20,392	-0,246	-0,137
285,414	-43,831	-0,170	-0,059
286,428	800,000	-0,029	-0,087
287,443	16,961	-0,152	-0,083
288,457	423,892	-0,094	-0,139
289,472	249,517	-0,018	-0,022
290,487	127,917	-0,111	-0,097
291,501	75,649	-0,214	-0,156
292,516	251,057	-0,200	-0,235
293,530	-99,618	-0,126	0,022
294,545	-118,714	-0,213	-0,026
295,560	-182,234	-0,082	0,001
296,574	610,665	-0,009	-0,016
297,589	-42,985	-0,196	-0,068
298,603	684,900	-0,108	-0,194
299,618	800,000	-0,102	-0,239
300,633	-37,624	-0,282	-0,103
301,647	-136,254	-0,182	-0,014
302,662	48,277	-0,162	-0,105
303,676	86,646	-0,118	-0,090
304,691	134,255	-0,105	-0,094
305,706	52,132	-0,202	-0,132
306,720	-40,442	-0,149	-0,053
307,735	-20,545	-0,221	-0,093
308,749	-146,241	-0,193	0,011
309,764	-25,972	-0,101	0,041
310,779	67,615	-0,104	0,073
311,793	2,251	-0,199	-0,099
312,808	395,572	-0,123	-0,177
313,822	-30,090	-0,327	-0,127
314,837	-64,777	-0,168	-0,046
315,852	-185,643	-0,090	-0,001
316,866	-21,848	-0,085	-0,035
317,881	433,900	-0,067	-0,101
318,895	-16,135	-0,166	-0,072
319,910	263,025	-0,184	-0,220
320,925	761,797	-0,081	-0,151
321,939	-200,000	0,003	-0,136
322,954	-60,120	-0,213	0,062
323,968	380,522	-0,040	-0,056
324,983	-200,000	-0,016	-0,140
325,997	-114,364	-0,196	-0,026
327,012	58,715	-0,106	-0,072
328,027	206,164	-0,141	-0,151
329,041	216,091	-0,114	-0,125
330,056	140,203	-0,091	-0,083
331,070	-62,853	-0,057	0,016
332,085	-42,936	-0,188	-0,065
333,100	-5,060	-0,084	0,040
334,114	-200,000	-0,041	-0,248
335,129	-6,143	-0,146	-0,068
336,143	-116,629	-0,283	0,035
337,158	-94,506	-0,093	0,017
338,173	-65,824	-0,106	-0,029
339,187	34,905	-0,119	-0,071
340,202	-66,082	-0,180	0,049
341,216	185,345	-0,146	-0,149
342,231	-154,223	-0,148	0,007
343,246	303,485	-0,098	-0,125
344,260	800,000	-0,075	-0,150
345,275	-126,059	-0,123	-0,012
346,289	-73,907	-0,088	-0,022
347,304	97,456	-0,176	-0,139
348,319	307,953	-0,104	-0,134
349,333	-77,780	-0,297	0,070
350,348	112,603	-0,120	-0,099
351,362	-117,033	-0,203	-0,025
352,377	162,530	-0,081	-0,078
353,392	38,446	-0,154	-0,094
354,406	165,343	-0,097	-0,095
355,421	210,492	1313,054	1416,315
356,435	162,049	1473,568	1416,811
