DTS Sentinel unit serial number:	SN410029Multiplexer serial number:	ORYXHardware model number:	OX2-SRSoftware version number:	ORYX F/W v4,00 Oryx Data Collector v3.7.2.0data status	okinstallation	B3 Nyhavnadifferential loss correction	single-endedforward channel	channel 1reverse channel	N/Adate	2023/12/03time	19:07:30forward acquisition time	300,00reverse acquisition time	0,00gamma	499,1914k internal	0,3198k external	0,3198temperature offset calibration	1,0000default loss term (dB/km)	0,3820temperature slope calibration	1,0000multiplexer offset coefficient	1,0000multiplexer slope coefficient	1,0000fibre end	0,00T internal ref (°C)	14,37T ext. ref 1 (°C)	-0,96T ext. ref 2 (°C)	-0,97length (m)	temperature (°C)	Stokes	anti-Stokes-744,400	-30,046	-0,311	-0,128
-743,385	-200,000	0,010	0,230
-742,371	479,609	-0,087	-0,145
-741,356	-200,000	0,003	0,305
-740,342	72,539	-0,202	-0,153
-739,327	-200,000	-0,057	0,275
-738,312	232,504	-0,203	-0,243
-737,298	-200,000	0,016	0,222
-736,283	268,158	-0,225	-0,287
-735,269	-200,000	-0,039	0,197
-734,254	19,674	-0,272	-0,159
-733,239	800,000	-0,041	0,099
-732,225	-200,000	-0,047	-0,236
-731,210	-200,000	-0,005	0,110
-730,196	-200,000	-0,010	0,052
-729,181	-105,766	-0,041	-0,007
-728,167	44,067	-0,043	-0,028
-727,152	800,000	-0,043	-0,097
-726,137	84,591	0,110	-0,087
-725,123	632,612	-0,089	-0,165
-724,108	125,245	0,070	0,064
-723,094	-87,297	-0,071	0,015
-722,079	-111,321	-0,085	-0,012
-721,064	800,000	0,029	0,086
-720,050	745,980	-0,067	-0,133
-719,035	-200,000	0,009	0,078
-718,021	32,409	-0,125	-0,078
-717,006	-118,143	-0,146	-0,019
-715,991	-46,392	-0,082	0,029
-714,977	800,000	0,044	0,103
-713,962	-200,000	0,000	0,047
-712,948	-104,888	-0,086	-0,014
-711,933	83,790	-0,025	0,020
-710,918	-33,522	0,120	0,048
-709,904	77,486	-0,174	-0,134
-708,889	376,214	-0,073	-0,109
-707,875	-100,544	-0,116	-0,021
-706,860	288,494	-0,022	0,029
-705,845	800,000	-0,095	0,218
-704,831	11,520	-0,071	-0,040
-703,816	358,728	0,052	-0,075
-702,802	-200,000	0,005	0,058
-701,787	-60,665	-0,134	0,041
-700,772	-142,720	-0,113	-0,008
-699,758	-115,036	0,089	-0,012
-698,743	800,000	0,038	-0,088
-697,729	96,488	0,090	-0,075
-696,714	-15,444	0,046	-0,021
-695,699	800,000	0,055	0,147
-694,685	174,866	-0,060	0,063
-693,670	168,121	-0,082	-0,085
-692,656	-173,137	-0,065	0,001
-691,641	-200,000	0,015	-0,151
-690,627	-200,000	0,016	0,087
-689,612	800,000	0,047	0,098
-688,597	800,000	-0,012	0,035
-687,583	113,989	0,040	-0,035
-686,568	-131,977	-0,209	-0,020
-685,554	36,354	-0,042	0,027
-684,539	-97,350	0,058	-0,011
-683,524	800,000	-0,032	0,096
-682,510	64,774	0,085	0,062
-681,495	-200,000	-0,009	-0,052
-680,481	458,158	-0,016	-0,025
-679,466	28,337	-0,044	-0,027
-678,451	419,181	0,025	-0,039
-677,437	800,000	-0,055	0,160
-676,422	126,263	0,052	0,047
-675,408	233,092	-0,086	0,103
-674,393	-200,000	0,007	0,070
-673,378	-89,812	-0,110	-0,023
-672,364	205,199	-0,044	0,049
-671,349	-200,000	-0,015	-0,092
-670,335	341,246	0,018	0,026
-669,320	-127,562	-0,021	-0,002
-668,305	-21,012	0,100	0,044
-667,291	800,000	-0,060	0,130
-666,276	-21,973	-0,064	-0,028
-665,262	165,643	-0,128	0,131
-664,247	106,428	-0,145	0,125
-663,232	800,000	0,013	0,036
-662,218	-142,893	-0,129	-0,009
-661,203	0,964	-0,064	0,033
-660,189	-165,492	0,021	0,001
-659,174	272,141	-0,052	0,067
-658,159	-37,076	-0,080	-0,031
-657,145	-200,000	-0,003	-0,080
-656,130	-200,000	-0,024	-0,182
-655,116	102,314	0,042	-0,036
-654,101	800,000	-0,013	-0,032
-653,086	83,783	0,083	0,066
-652,072	-36,293	0,036	-0,014
-651,057	592,678	-0,076	-0,137
-650,043	144,439	-0,049	-0,048
-649,028	800,000	-0,039	-0,109
-648,014	-200,000	0,036	0,124
-646,999	455,885	-0,055	-0,089
-645,984	-200,000	-0,014	-0,078
-644,970	-200,000	0,014	0,078
-643,955	155,524	-0,107	0,107
-642,941	49,529	-0,116	-0,079
-641,926	209,673	0,040	0,045
-640,911	800,000	-0,040	0,081
-639,897	135,101	0,126	0,118
-638,882	-200,000	-0,001	0,013
-637,868	-22,664	-0,056	-0,024
-636,853	-200,000	-0,012	0,044
-635,838	32,757	-0,085	-0,053
-634,824	409,196	0,061	0,093
-633,809	539,440	0,061	0,105
-632,795	71,824	-0,005	-0,003
-631,780	553,351	0,034	-0,060
-630,765	-135,179	-0,031	0,003
-629,751	-70,014	-0,040	-0,011
-628,736	-200,000	0,005	0,020
-627,722	274,170	0,050	-0,064
-626,707	800,000	0,012	0,035
-625,692	667,345	0,049	-0,091
-624,678	-97,846	0,098	0,018
-623,663	-200,000	0,004	0,045
-622,649	-38,349	0,055	0,021
-621,634	-64,196	-0,191	-0,056
-620,619	-200,000	0,008	-0,108
-619,605	-121,928	0,106	0,012
-618,590	44,342	0,157	0,104
-617,576	-108,862	0,109	0,017
-616,561	45,407	-0,054	-0,036
-615,546	-3,187	-0,136	0,068
-614,532	275,982	0,090	0,116
-613,517	25,716	0,055	0,033
-612,503	40,177	0,059	-0,038
-611,488	800,000	-0,025	-0,062
-610,474	72,333	0,087	-0,066
-609,459	222,726	0,050	-0,058
-608,444	96,783	-0,037	0,030
-607,430	800,000	-0,035	0,080
-606,415	-200,000	0,015	0,064
-605,401	-139,213	0,081	-0,006
-604,386	370,916	0,048	0,071
-603,371	256,142	0,051	-0,063
-602,357	40,933	0,051	-0,033
-601,342	800,000	-0,027	0,056
-600,328	-56,813	-0,061	0,020
-599,313	-182,911	-0,127	-0,002
-598,298	-200,000	-0,017	0,065
-597,284	509,068	-0,016	-0,028
-596,269	-1,874	-0,058	0,030
-595,255	-97,785	0,038	-0,007
-594,240	-118,278	0,046	0,006
-593,225	92,161	0,117	-0,095
-592,211	714,447	-0,070	-0,135
-591,196	-64,817	0,064	-0,019
-590,182	-200,000	-0,003	-0,085
-589,167	199,868	-0,112	0,125
-588,152	56,214	0,033	0,023
-587,138	800,000	0,023	0,054
-586,123	70,853	-0,151	-0,113
-585,109	-200,000	-0,020	-0,167
-584,094	-200,000	0,023	-0,093
-583,079	800,000	-0,028	0,083
-582,065	800,000	0,074	-0,153
-581,050	23,802	-0,171	-0,102
-580,036	-200,000	-0,017	-0,078
-579,021	526,339	-0,062	-0,107
-578,006	800,000	-0,081	-0,209
-576,992	223,815	0,101	-0,118
-575,977	-200,000	-0,005	-0,134
-574,963	766,300	0,030	0,060
-573,948	-200,000	0,133	0,000
-572,934	-168,472	-0,131	-0,004
-571,919	635,869	-0,046	-0,086
-570,904	121,179	-0,042	-0,038
-569,890	8,747	0,067	-0,037
-568,875	-3,943	0,087	-0,044
-567,861	-16,055	0,057	0,026
-566,846	701,546	0,111	0,213
-565,831	-200,000	0,024	0,134
-564,817	-27,693	-0,087	-0,036
-563,802	474,613	0,080	-0,130
-562,788	161,928	-0,040	-0,040
-561,773	57,280	-0,059	-0,042
-560,758	-46,987	0,151	0,053
-559,744	-21,920	0,151	-0,066
-558,729	131,407	-0,070	-0,065
-557,715	-143,034	-0,017	-0,001
-556,700	-43,694	-0,011	-0,004
-555,685	-200,000	-0,001	-0,126
-554,671	-52,084	-0,075	0,025
-553,656	601,732	0,070	0,126
-552,642	800,000	-0,047	0,099
-551,627	-6,804	-0,137	-0,067
-550,612	800,000	-0,032	-0,076
-549,598	205,467	-0,168	-0,189
-548,583	482,397	0,082	-0,135
-547,569	3,640	-0,020	-0,011
-546,554	-126,132	0,146	0,016
-545,539	392,006	-0,072	0,108
-544,525	359,731	0,036	-0,051
-543,510	20,888	0,018	-0,010
-542,496	-200,000	-0,002	-0,142
-541,481	-200,000	-0,011	0,080
-540,466	-189,930	-0,189	-0,001
-539,452	800,000	-0,033	0,074
-538,437	721,005	-0,020	0,038
-537,423	800,000	-0,010	-0,023
-536,408	-109,984	0,092	0,014
-535,393	-61,399	-0,044	-0,013
-534,379	800,000	-0,014	0,030
-533,364	79,653	-0,024	-0,018
-532,350	604,268	-0,037	0,068
-531,335	-61,563	0,084	-0,025
-530,321	-39,810	0,101	0,038
-529,306	-200,000	-0,004	-0,199
-528,291	-154,083	-0,088	0,004
-527,277	44,601	0,103	-0,068
-526,262	800,000	-0,029	-0,058
-525,248	800,000	-0,049	0,115
-524,233	-108,864	-0,076	-0,012
-523,218	-13,235	-0,013	0,006
-522,204	-49,688	-0,089	-0,030
-521,189	-106,184	0,104	0,017
-520,175	-200,000	0,020	0,111
-519,160	-200,000	-0,020	-0,125
-518,145	800,000	-0,017	-0,039
-517,131	-200,000	0,032	0,175
-516,116	34,127	-0,149	0,093
-515,102	425,099	0,017	0,027
-514,087	432,306	-0,074	-0,116
-513,072	180,839	0,033	-0,035
-512,058	241,778	0,016	-0,019
-511,043	-200,000	0,023	-0,138
-510,029	-120,613	0,130	-0,016
-509,014	456,186	-0,045	-0,073
-507,999	-200,000	-0,006	-0,032
-506,985	-108,727	-0,126	-0,019
-505,970	-200,000	0,011	-0,138
-504,956	92,659	0,018	-0,015
-503,941	358,401	-0,033	-0,048
-502,926	-118,005	-0,071	-0,009
-501,912	-200,000	0,030	0,222
-500,897	-90,378	-0,035	-0,007
-499,883	124,602	-0,078	-0,071
-498,868	-200,000	0,016	-0,087
-497,853	-40,541	-0,078	0,029
-496,839	-174,689	0,044	-0,001
-495,824	-57,728	-0,038	0,012
-494,810	-79,522	0,164	0,040
-493,795	-200,000	-0,024	0,095
-492,781	-200,000	-0,003	0,037
-491,766	-200,000	0,020	-0,085
-490,751	-26,271	-0,081	-0,034
-489,737	-200,000	-0,004	-0,025
-488,722	202,249	0,052	0,058
-487,708	290,613	0,015	0,020
-486,693	292,883	0,060	0,079
-485,678	-48,168	-0,039	-0,013
-484,664	73,926	0,065	0,049
-483,649	-200,000	0,017	-0,203
-482,635	-137,288	0,058	-0,005
-481,620	190,131	0,027	0,030
-480,605	-5,973	-0,081	-0,040
-479,591	-200,000	0,044	-0,152
-478,576	800,000	-0,060	-0,142
-477,562	800,000	0,046	-0,116
-476,547	-79,460	-0,033	0,008
-475,532	48,697	-0,017	-0,011
-474,518	-126,316	-0,038	-0,004
-473,503	99,262	0,046	0,038
-472,489	800,000	-0,027	0,073
-471,474	77,466	-0,052	-0,040
-470,459	800,000	-0,028	-0,067
-469,445	319,279	0,005	0,007
-468,430	-200,000	0,006	-0,032
-467,416	-36,071	-0,071	0,028
-466,401	-166,745	0,104	-0,003
-465,386	789,755	0,020	-0,039
-464,372	118,829	-0,066	0,059
-463,357	-76,209	-0,100	0,025
-462,343	800,000	0,046	0,100
-461,328	726,224	0,046	-0,089
-460,313	-200,000	0,000	-0,147
-459,299	-200,000	0,007	-0,092
-458,284	31,592	0,083	0,051
-457,270	470,864	0,037	0,060
-456,255	-97,984	0,052	0,010
-455,241	-117,794	-0,089	-0,011
-454,226	-200,000	0,002	0,044
-453,211	37,802	-0,047	-0,030
-452,197	323,890	-0,022	0,030
-451,182	-200,000	0,004	-0,021
-450,168	800,000	-0,021	0,062
-449,153	800,000	-0,056	-0,155
-448,138	-55,382	0,049	-0,016
-447,124	-69,579	0,050	-0,014
-446,109	-19,581	-0,102	0,045
-445,095	311,150	0,074	0,100
-444,080	-75,219	-0,095	0,024
-443,065	800,000	0,105	0,218
-442,051	696,679	0,047	0,088
-441,036	94,608	0,058	0,047
-440,022	39,317	0,049	-0,031
-439,007	800,000	0,028	0,081
-437,992	-200,000	0,020	0,113
-436,978	200,778	0,063	0,070
-435,963	-91,589	-0,138	-0,028
-434,949	226,394	0,036	-0,042
-433,934	-33,967	-0,081	-0,032
-432,919	130,047	-0,043	0,040
-431,905	-200,000	-0,028	0,148
-430,890	447,983	0,078	0,124
-429,876	800,000	0,048	-0,148
-428,861	-200,000	0,009	0,033
-427,846	171,245	0,092	0,095
-426,832	187,831	0,075	0,081
-425,817	800,000	-0,025	0,065
-424,803	-22,114	-0,083	-0,036
-423,788	140,738	0,096	-0,091
-422,773	144,540	-0,033	-0,032
-421,759	104,632	0,015	-0,013
-420,744	72,325	-0,098	0,073
-419,730	41,527	-0,088	-0,057
-418,715	589,973	-0,020	-0,035
-417,701	-200,000	-0,018	0,060
-416,686	273,782	0,051	0,065
-415,671	-200,000	-0,001	0,004
-414,657	-200,000	-0,011	0,201
-413,642	-200,000	-0,009	0,047
-412,628	161,560	-0,101	-0,101
-411,613	97,316	-0,096	-0,079
-410,598	144,229	-0,053	-0,051
-409,584	-190,612	-0,085	0,001
-408,569	-200,000	-0,023	0,108
-407,555	399,535	0,059	-0,089
-406,540	-200,000	0,024	-0,142
-405,525	-102,453	0,073	0,013
-404,511	-168,492	0,011	-0,000
-403,496	800,000	-0,021	0,062
-402,482	-105,154	-0,099	0,016
-401,467	208,026	-0,070	0,079
-400,452	800,000	0,100	0,254
-399,438	-54,631	0,148	0,048
-398,423	800,000	0,023	-0,060
-397,409	-200,000	-0,026	-0,253
-396,394	-200,000	0,026	-0,114
-395,379	-163,353	-0,039	-0,001
-394,365	-200,000	-0,003	0,172
-393,350	-66,411	-0,063	0,018
-392,336	-8,888	0,061	-0,029
-391,321	-88,138	0,053	0,011
-390,306	161,373	0,040	-0,040
-389,292	151,286	-0,038	0,037
-388,277	473,678	0,056	-0,091
-387,263	622,343	0,082	0,148
-386,248	-89,526	0,049	0,010
-385,233	-141,272	0,138	-0,010
-384,219	99,390	0,053	-0,044
-383,204	-107,954	-0,109	0,017
-382,190	-200,000	0,028	-0,129
-381,175	8,427	-0,115	-0,062
-380,160	-200,000	0,076	0,000
-379,146	39,143	-0,062	-0,040
-378,131	-200,000	-0,039	0,124
-377,117	-6,412	0,170	-0,083
-376,102	124,751	-0,099	-0,089
-375,088	-95,679	0,013	-0,002
-374,073	40,233	0,033	-0,021
-373,058	-200,000	-0,015	0,154
-372,044	-63,143	0,070	0,021
-371,029	-71,038	-0,156	-0,042
-370,015	-74,291	0,116	0,030
-369,000	195,770	-0,016	-0,017
-367,985	-28,714	-0,047	0,019
-366,971	-174,537	0,119	-0,002
-365,956	-135,071	0,096	-0,008
-364,942	115,956	0,058	0,051
-363,927	511,135	-0,019	-0,032
-362,912	-170,108	0,086	0,002
-361,898	-200,000	-0,028	0,107
-360,883	-200,000	-0,052	-0,173
-359,869	-167,733	0,039	0,001
-358,854	-200,000	-0,048	-0,253
-357,839	-59,562	-0,103	0,031
-356,825	-7,857	0,110	-0,053
-355,810	-200,000	0,013	0,156
-354,796	-105,625	0,125	-0,020
-353,781	43,051	0,027	-0,018
-352,766	-115,888	-0,055	0,007
-351,752	-200,000	-0,021	0,083
-350,737	123,199	0,071	0,063
-349,723	-107,951	0,069	0,011
-348,708	90,888	-0,038	0,031
-347,693	-104,395	0,144	-0,024
-346,679	29,558	-0,118	0,072
-345,664	-144,025	-0,142	0,009
-344,650	800,000	-0,024	-0,052
-343,635	-200,000	0,006	0,125
-342,620	334,397	-0,125	0,174
-341,606	606,220	0,029	0,052
-340,591	800,000	-0,075	0,159
-339,577	341,646	0,034	0,048
-338,562	-65,977	-0,142	0,040
-337,548	28,232	-0,049	-0,029
-336,533	81,397	0,081	-0,063
-335,518	165,513	-0,072	0,073
-334,504	30,990	-0,045	0,027
-333,489	355,055	0,028	-0,040
-332,475	-110,622	-0,113	0,017
-331,460	-200,000	0,022	0,073
-330,445	102,642	0,061	-0,051
-329,431	-169,256	0,066	-0,002
-328,416	333,167	-0,048	-0,066
-327,402	-200,000	-0,030	-0,164
-326,387	800,000	0,021	0,065
-325,372	-200,000	-0,024	-0,090
-324,358	-33,341	-0,199	-0,078
-323,343	-200,000	-0,004	-0,074
-322,329	7,908	0,061	-0,033
-321,314	-90,019	0,100	0,021
-320,299	800,000	-0,047	-0,132
-319,285	800,000	-0,059	0,132
-318,270	490,868	0,095	0,156
-317,256	-200,000	-0,012	0,043
-316,241	-200,000	0,000	-0,096
-315,226	-159,720	-0,078	0,003
-314,212	292,934	-0,084	0,110
-313,197	150,591	0,080	0,078
-312,183	-73,639	-0,066	-0,017
-311,168	309,711	-0,019	0,026
-310,153	-200,000	0,023	-0,127
-309,139	-117,087	-0,166	-0,021
-308,124	-3,704	0,049	-0,024
-307,110	-200,000	-0,029	0,113
-306,095	800,000	-0,058	0,125
-305,080	42,531	-0,029	-0,019
-304,066	121,235	-0,020	0,017
-303,051	-91,308	0,053	-0,011
-302,037	-200,000	0,007	-0,171
-301,022	150,363	0,055	-0,053
-300,008	149,387	0,061	0,059
-298,993	108,857	0,031	0,027
-297,978	-200,000	-0,032	0,192
-296,964	358,451	-0,093	0,133
-295,949	-200,000	0,003	-0,010
-294,935	-9,130	-0,180	-0,086
-293,920	188,401	0,053	-0,057
-292,905	346,609	0,043	0,061
-291,891	166,377	0,029	-0,029
-290,876	-200,000	0,001	-0,008
-289,862	800,000	0,022	-0,060
-288,847	-130,096	-0,135	0,013
-287,832	-14,025	0,024	0,011
-286,818	-200,000	-0,010	-0,072
-285,803	-200,000	0,001	-0,136
-284,789	404,702	0,040	-0,060
-283,774	-22,031	-0,108	0,047
-282,759	800,000	0,021	-0,052
-281,745	3,086	-0,082	-0,043
-280,730	259,581	0,105	-0,130
-279,716	-200,000	0,029	-0,106
-278,701	-200,000	0,012	-0,085
-277,686	66,583	0,156	0,113
-276,672	95,389	-0,013	0,011
-275,657	290,219	0,065	0,085
-274,643	800,000	-0,049	0,144
-273,628	-35,413	-0,067	-0,026
-272,613	-200,000	-0,031	-0,126
-271,599	171,150	-0,059	0,061
-270,584	791,288	0,087	0,172
-269,570	325,030	-0,078	-0,107
-268,555	800,000	-0,038	0,088
-267,540	-31,250	-0,135	0,054
-266,526	-47,039	0,044	0,015
-265,511	-200,000	0,011	0,052
-264,497	-76,008	0,237	0,059
-263,482	153,989	-0,065	0,063
-262,467	-122,391	0,097	-0,011
-261,453	194,062	-0,030	0,032
-260,438	-80,096	-0,128	-0,030
-259,424	-19,936	-0,041	0,018
-258,409	800,000	-0,045	0,093
-257,395	800,000	-0,037	0,100
-256,380	-200,000	0,019	-0,118
-255,365	262,217	0,107	0,133
-254,351	-200,000	0,026	-0,092
-253,336	90,632	0,076	0,061
-252,322	800,000	0,024	-0,069
-251,307	288,497	-0,051	-0,066
-250,292	800,000	0,046	0,103
-249,278	800,000	0,126	0,276
-248,263	-25,154	0,088	-0,037
-247,249	-71,088	-0,083	-0,022
-246,234	-27,655	-0,091	0,037
-245,219	85,375	0,028	-0,022
-244,205	85,398	0,059	-0,047
-243,190	-88,619	0,059	-0,012
-242,176	-10,056	0,087	-0,041
-241,161	368,544	0,083	0,120
-240,146	-200,000	0,010	0,041
-239,132	-4,024	0,075	0,037
-238,117	117,970	-0,034	-0,030
-237,103	-200,000	0,000	0,143
-236,088	302,255	-0,074	0,097
-235,073	39,956	0,122	0,078
-234,059	-200,000	0,000	-0,122
-233,044	-1,717	0,060	-0,030
-232,030	109,257	-0,067	-0,058
-231,015	-200,000	-0,002	0,033
-230,000	-200,000	-0,013	-0,061
-228,986	538,146	0,024	-0,041
-227,971	239,215	-0,145	0,173
-226,957	800,000	-0,044	0,089
-225,942	-41,372	-0,082	0,030
-224,927	111,508	0,025	0,022
-223,913	800,000	-0,048	-0,112
-222,898	264,600	-0,066	-0,082
-221,884	-200,000	0,025	-0,149
-220,869	-92,800	-0,192	-0,038
-219,855	-57,505	-0,043	-0,013
-218,840	-200,000	-0,013	0,121
-217,825	-152,416	0,052	0,003
-216,811	123,593	0,034	-0,030
-215,796	606,839	0,025	0,044
-214,782	-200,000	-0,014	0,094
-213,767	-200,000	-0,032	-0,165
-212,752	45,687	0,070	-0,046
-211,738	42,606	-0,060	-0,039
-210,723	-200,000	0,000	0,051
-209,709	-101,409	0,107	-0,018
-208,694	158,118	0,042	-0,042
-207,679	-200,000	-0,001	0,038
-206,665	62,516	-0,097	-0,069
-205,650	-200,000	-0,009	0,126
-204,636	-200,000	0,007	-0,098
-203,621	53,294	0,045	0,031
-202,606	-27,443	-0,048	-0,020
-201,592	-45,963	-0,123	-0,043
-200,577	39,499	0,068	0,043
-199,563	-31,100	0,044	-0,018
-198,548	84,910	0,034	0,027
-197,533	44,041	0,063	0,041
-196,519	-38,655	-0,040	0,015
-195,504	-200,000	0,016	0,118
-194,490	-101,641	-0,051	-0,009
-193,475	43,397	-0,072	-0,047
-192,460	-200,000	-0,009	0,088
-191,446	-41,167	-0,027	0,010
-190,431	633,485	0,057	-0,102
-189,417	-89,904	0,069	-0,014
-188,402	-23,943	0,097	0,041
-187,387	627,128	-0,007	0,013
-186,373	800,000	-0,034	-0,104
-185,358	-200,000	-0,012	-0,052
-184,344	-200,000	-0,032	0,112
-183,329	574,567	0,048	-0,084
-182,315	324,938	-0,023	0,031
-181,300	-118,753	0,029	-0,004
-180,285	-200,000	0,021	-0,073
-179,271	-200,000	-0,019	-0,092
-178,256	-60,155	0,020	-0,006
-177,242	-99,142	0,154	-0,028
-176,227	800,000	0,039	-0,110
-175,212	-54,614	0,062	0,020
-174,198	800,000	0,035	0,075
-173,183	282,831	0,038	-0,049
-172,169	75,283	-0,082	-0,062
-171,154	184,134	0,078	-0,082
-170,139	-200,000	-0,007	0,061
-169,125	-97,587	-0,031	0,006
-168,110	800,000	0,029	0,061
-167,096	-200,000	0,002	-0,144
-166,081	-125,661	-0,153	0,016
-165,066	800,000	0,017	-0,037
-164,052	82,432	0,049	-0,038
-163,037	-133,188	0,053	-0,005
-162,023	126,066	0,106	0,095
-161,008	-200,000	-0,050	0,192
-159,993	-48,524	0,052	0,018
-158,979	106,868	-0,019	0,016
-157,964	51,361	0,041	0,027
-156,950	-200,000	-0,021	0,069
-155,935	-200,000	0,000	0,029
-154,920	283,056	-0,055	0,071
-153,906	62,781	0,084	0,060
-152,891	800,000	-0,042	0,089
-151,877	-26,094	-0,156	0,065
-150,862	463,325	-0,039	0,062
-149,847	193,881	-0,017	0,018
-148,833	-103,986	-0,094	-0,015
-147,818	-88,407	-0,063	-0,013
-146,804	-61,457	0,068	-0,020
-145,789	133,017	-0,055	-0,051
-144,775	-200,000	0,003	-0,009
-143,760	306,590	-0,064	0,086
-142,745	26,661	0,016	0,009
-141,731	-200,000	-0,018	-0,097
-140,716	-136,264	0,227	0,019
-139,702	560,397	0,046	-0,079
-138,687	140,729	0,186	0,175
-137,672	268,733	-0,080	-0,100
-136,658	56,427	0,025	0,017
-135,643	410,324	0,037	-0,056
-134,629	-18,061	-0,074	-0,033
-133,614	-129,333	0,084	-0,008
-132,599	30,891	0,027	0,017
-131,585	-200,000	0,027	0,123
-130,570	216,456	0,140	0,158
-129,556	271,215	-0,116	0,145
-128,541	-115,474	-0,051	-0,007
-127,526	-200,000	0,002	-0,112
-126,512	274,571	0,103	0,129
-125,497	55,011	0,085	0,058
-124,483	-200,000	0,045	0,155
-123,468	-167,451	-0,100	0,003
-122,453	-32,624	-0,061	-0,024
-121,439	421,968	0,093	-0,142
-120,424	-200,000	-0,043	-0,233
-119,410	77,413	-0,039	0,030
-118,395	-62,942	0,131	0,038
-117,380	227,076	-0,114	0,132
-116,366	78,263	-0,104	-0,079
-115,351	116,030	-0,052	0,045
-114,337	-200,000	0,001	-0,043
-113,322	6,567	0,008	-0,004
-112,307	-18,198	0,055	-0,024
-111,293	219,743	0,119	0,135
-110,278	-200,000	0,006	0,075
-109,264	408,275	0,021	0,032
-108,249	-200,000	-0,016	-0,110
-107,234	-200,000	-0,025	-0,180
-106,220	-200,000	-0,010	-0,073
-105,205	203,770	0,069	0,076
-104,191	572,446	0,044	-0,076
-103,176	-12,977	0,117	-0,054
-102,162	-155,781	-0,071	0,003
-101,147	-200,000	0,000	-0,020
-100,132	-53,360	-0,234	0,076
-99,118	-34,040	0,207	-0,081
-98,103	-200,000	-0,012	-0,127
-97,089	-72,436	-0,066	0,017
-96,074	164,157	0,016	0,016
-95,059	75,309	-0,047	0,035
-94,045	-200,000	-0,009	0,049
-93,030	86,567	-0,074	-0,058
-92,016	-14,874	-0,071	-0,032
-91,001	753,219	0,035	0,067
-89,986	-126,586	-0,136	-0,014
-88,972	138,457	0,037	-0,034
-87,957	-200,000	0,017	0,057
-86,943	735,089	-0,021	0,040
-85,928	230,342	-0,088	-0,103
-84,913	-59,413	0,113	-0,034
-83,899	353,181	-0,025	-0,036
-82,884	236,663	-0,080	0,094
-81,870	66,305	0,110	0,079
-80,855	231,169	0,126	0,146
-79,840	-200,000	0,008	0,083
-78,826	46,506	-0,078	-0,051
-77,811	-19,993	0,080	0,035
-76,797	-200,000	-0,020	0,187
-75,782	30,451	-0,051	-0,031
-74,767	640,044	0,030	0,054
-73,753	800,000	0,007	-0,018
-72,738	517,493	-0,042	0,071
-71,724	-200,000	0,022	-0,079
-70,709	-200,000	-0,007	-0,047
-69,694	800,000	0,022	0,047
-68,680	75,574	0,061	0,046
-67,665	800,000	0,066	0,150
-66,651	24,936	-0,053	-0,031
-65,636	28,332	0,178	0,106
-64,622	800,000	0,029	-0,083
-63,607	-200,000	0,019	0,076
-62,592	60,205	-0,073	-0,051
-61,578	68,515	-0,040	0,029
-60,563	-34,837	-0,091	0,035
-59,549	-200,000	0,023	0,117
-58,534	-23,723	-1,557	-0,659
-57,519	363,076	-1,408	-2,011
-56,505	-200,000	-0,547	-4,342
-55,490	203,283	1,119	1,227
-54,476	800,000	4,773	10,932
-53,461	-200,000	18,588	300,146
-52,446	800,000	734,068	2270,378
-51,432	561,823	1649,817	2838,559
-50,417	78,767	1668,455	1263,456
-49,403	22,307	1541,397	890,064
-48,388	16,243	1464,357	816,132
-47,373	17,821	1454,349	818,139
-46,359	16,980	1444,523	808,550
-45,344	14,487	1439,809	793,951
-44,330	14,410	1438,092	792,604
-43,315	14,396	1436,510	791,633
-42,300	14,481	1434,456	790,878
-41,286	14,470	1433,366	790,190
-40,271	14,444	1432,067	789,319
-39,257	14,410	1430,741	788,395
-38,242	14,457	1429,596	787,956
-37,227	14,468	1428,482	787,366
-36,213	14,490	1427,127	786,690
-35,198	14,469	1425,910	785,887
-34,184	14,520	1425,040	785,620
-33,169	14,445	1423,631	784,456
-32,154	14,466	1422,763	784,048
-31,140	14,495	1421,193	783,289
-30,125	14,551	1420,113	782,924
-29,111	14,521	1418,927	782,098
-28,096	14,470	1417,971	781,299
-27,082	14,434	1416,801	780,455
-26,067	14,385	1415,895	779,693
-25,052	14,380	1414,910	779,098
-24,038	14,358	1413,823	778,367
-23,023	14,383	1412,840	777,910
-22,009	14,366	1411,743	777,197
-20,994	14,368	1410,996	776,764
-19,979	14,351	1410,034	776,124
-18,965	14,306	1409,103	775,368
-17,950	14,315	1408,157	774,862
-16,936	14,350	1407,313	774,528
-15,921	14,290	1406,053	773,526
-14,906	14,311	1405,137	773,089
-13,892	14,285	1404,354	772,505
-12,877	14,318	1403,340	772,070
-11,863	14,291	1402,543	771,477
-10,848	14,307	1401,656	771,030
-9,833	14,274	1400,574	770,253
-8,819	14,232	1399,851	769,628
-7,804	14,230	1398,754	768,987
-6,790	14,182	1397,895	768,258
-5,775	14,210	1396,595	767,642
-4,760	14,176	1395,911	767,081
-3,746	14,154	1395,032	766,464
-2,731	14,200	1394,199	766,188
-1,717	14,170	1393,530	765,651
-0,702	14,163	1391,554	764,503
0,313	17,987	1309,852	737,343
1,327	34,277	705,505	434,877
2,342	52,962	123,853	83,780
3,356	1,909	16,551	8,426
4,371	-13,562	3,273	1,495
5,386	-43,083	0,689	0,246
6,400	-18,059	0,013	-0,006
7,415	800,000	-0,094	-0,215
8,429	24,614	-0,269	-0,157
9,444	80,035	-0,342	-0,260
10,459	-58,093	-0,338	-0,104
11,473	345,619	-0,186	-0,259
12,488	-28,357	-0,158	-0,064
13,502	-102,780	-0,287	-0,048
14,517	-69,367	-0,375	-0,101
15,531	57,077	-0,292	-0,201
16,546	34,930	-0,392	-0,242
17,561	269,253	-0,235	-0,292
18,575	-109,235	-0,260	0,039
19,590	-150,783	-0,239	-0,013
20,604	-178,459	-0,216	-0,003
21,619	142,375	-0,280	-0,263
22,634	186,361	-0,421	-0,443
23,648	74,485	-0,395	-0,294
24,663	88,937	-0,400	-0,314
25,677	-56,023	-0,352	-0,110
26,692	37,918	-0,319	-0,200
27,707	25,725	-0,315	-0,185
28,721	-6,406	-0,290	-0,139
29,736	-5,359	-0,387	-0,187
30,750	173,106	-0,349	-0,355
31,765	577,034	-0,223	-0,386
32,780	333,271	-0,275	-0,376
33,794	-59,106	-0,432	-0,131
34,809	-31,035	-0,374	-0,149
35,823	68,676	-0,233	-0,169
36,838	267,920	-0,220	-0,273
37,853	121,528	-0,405	-0,356
38,867	56,445	-0,325	-0,222
39,882	-17,037	-0,457	-0,203
40,896	97,508	-0,274	-0,222
41,911	49,892	-0,299	-0,198
42,926	76,056	-0,327	-0,244
43,940	140,308	-0,298	-0,277
44,955	173,264	-0,311	-0,316
45,969	45,530	-0,363	-0,236
46,984	251,566	-0,248	-0,299
47,999	41,909	-0,331	-0,211
49,013	41,432	-0,302	-0,193
50,028	41,393	-0,237	-0,151
51,042	19,658	-0,427	-0,241
52,057	88,251	-0,463	-0,362
53,071	92,535	-0,268	-0,213
54,086	237,435	-0,256	-0,300
55,101	39,799	-0,358	-0,226
56,115	148,764	-0,318	-0,303
57,130	-24,265	-0,355	-0,149
58,144	800,000	-0,171	-0,374
59,159	30,501	-0,398	-0,239
60,174	220,200	-0,299	-0,339
61,188	100,327	-0,323	-0,264
62,203	25,581	-0,354	-0,207
63,217	56,746	-0,292	-0,200
64,232	-8,572	-0,386	-0,182
65,247	117,339	-0,277	-0,240
66,261	-39,296	-0,533	-0,196
67,276	47,337	-0,376	-0,246
68,290	61,458	-0,287	-0,201
69,305	183,207	-0,281	-0,293
70,320	-53,833	-0,310	-0,099
71,334	-25,663	-0,379	-0,157
72,349	44,633	-0,344	-0,222
73,363	2,482	-0,403	-0,205
74,378	221,701	-0,294	-0,333
75,393	173,967	-0,388	-0,395
76,407	0,533	-0,291	-0,146
77,422	11,973	-0,317	-0,171
78,436	35,164	-0,216	-0,133
79,451	231,003	-0,323	-0,372
80,466	184,953	-0,271	-0,283
81,480	143,460	-0,386	-0,362
82,495	-33,084	-0,344	-0,134
83,509	53,223	-0,205	-0,138
84,524	-40,446	-0,155	-0,056
85,539	-0,118	-0,345	-0,172
86,553	-138,280	-0,320	-0,024
87,568	109,683	-0,280	-0,236
88,582	82,980	-0,391	-0,299
89,597	120,189	-0,438	-0,382
90,611	-42,551	-0,228	-0,081
91,626	110,504	-0,286	-0,242
92,641	75,482	-0,278	-0,206
93,655	63,529	-0,149	-0,105
94,670	-15,896	-0,368	-0,164
95,684	115,383	-0,271	-0,232
96,699	116,903	-0,205	-0,177
97,714	-7,799	-0,401	-0,190
98,728	11,449	-0,332	-0,178
99,743	394,528	-0,169	-0,248
100,757	41,383	-0,297	-0,188
101,772	34,794	-0,326	-0,200
102,787	83,716	-0,254	-0,195
103,801	-86,280	-0,386	-0,083
104,816	2,889	-0,246	-0,125
105,830	-133,505	-0,183	0,016
106,845	-13,936	-0,252	-0,114
107,860	-45,986	-0,196	-0,067
108,874	-36,972	-0,332	-0,124
109,889	44,459	-0,309	-0,199
110,903	-25,387	-0,322	-0,133
111,918	38,810	-0,302	-0,189
112,933	771,966	-0,141	-0,271
113,947	182,739	-0,270	-0,279
114,962	93,100	-0,279	-0,221
115,976	50,652	-0,433	-0,287
116,991	100,589	-0,224	-0,182
118,006	99,430	-0,344	-0,279
119,020	800,000	-0,091	-0,202
120,035	49,315	-0,166	-0,109
121,049	-20,047	-0,185	-0,080
122,064	-32,573	-0,268	-0,104
123,079	322,947	-0,160	-0,214
124,093	85,279	-0,274	-0,210
125,108	396,903	-0,236	-0,346
126,122	139,860	-0,313	-0,289
127,137	582,859	-0,123	-0,211
128,151	73,749	-0,256	-0,187
129,166	-6,805	-0,297	-0,141
130,181	-136,593	-0,187	-0,015
131,195	3,695	-0,163	-0,083
132,210	119,331	-0,275	-0,238
133,224	214,634	-0,250	-0,277
134,239	493,867	-0,151	-0,243
135,254	41,373	-0,234	-0,148
136,268	-125,735	-0,318	-0,033
137,283	-22,396	-0,227	-0,096
138,297	-33,637	-0,215	-0,083
139,312	160,692	-0,206	-0,202
140,327	45,129	-0,351	-0,226
141,341	-200,000	-0,081	-0,275
142,356	139,643	-0,211	-0,195
143,370	306,293	-0,196	-0,255
144,385	194,141	-0,274	-0,290
145,400	626,122	-0,179	-0,316
146,414	146,968	-0,235	-0,222
147,429	36,290	-0,173	-0,106
148,443	338,392	-0,201	-0,274
149,458	171,379	-0,187	-0,188
150,473	69,087	-0,212	-0,152
151,487	25,829	-0,371	-0,216
152,502	118,049	-0,193	-0,166
153,516	800,000	-0,161	-0,466
154,531	131,530	-0,287	-0,258
155,546	225,637	-0,159	-0,181
156,560	-17,638	-0,189	-0,083
157,575	661,133	-0,154	-0,279
158,589	23,278	-0,226	-0,130
159,604	26,070	-0,395	-0,230
160,619	46,113	-0,313	-0,202
161,633	109,066	-0,284	-0,237
162,648	332,947	-0,126	-0,170
163,662	-123,491	-0,287	-0,032
164,677	109,264	-0,091	-0,076
165,692	50,989	-0,357	-0,236
166,706	-60,916	-0,361	-0,106
167,721	-25,019	-0,249	-0,103
168,735	-200,000	-0,060	-0,284
169,750	766,736	-0,088	-0,168
170,764	226,303	-0,094	-0,106
171,779	-143,953	-0,328	0,021
172,794	159,716	-0,237	-0,230
173,808	-36,267	-0,336	-0,126
174,823	183,108	-0,192	-0,198
175,837	241,411	-0,174	-0,203
176,852	56,135	-0,172	-0,116
177,867	-24,466	-0,305	-0,126
178,881	218,493	-0,110	-0,122
179,896	104,353	-0,200	-0,164
180,910	223,102	-0,176	-0,198
181,925	-11,478	-0,310	-0,142
182,940	102,652	-0,268	-0,218
183,954	77,065	-0,349	-0,258
184,969	76,584	-0,188	-0,139
185,983	60,768	-0,274	-0,189
186,998	56,252	-0,223	-0,151
188,013	62,180	-0,205	-0,142
189,027	10,814	-0,336	-0,178
190,042	80,220	-0,285	-0,213
191,056	210,592	-0,257	-0,281
192,071	4,649	-0,127	-0,065
193,086	270,343	-0,157	-0,193
194,100	609,100	-0,125	-0,219
195,115	395,459	-0,084	-0,123
196,129	146,325	-0,222	-0,208
197,144	-31,658	-0,344	-0,134
198,159	-148,919	-0,179	-0,010
199,173	43,213	-0,134	-0,085
200,188	207,570	-0,169	-0,184
201,202	22,739	-0,253	-0,144
202,217	13,881	-0,182	-0,098
203,232	58,640	-0,188	-0,128
204,246	93,372	-0,223	-0,175
205,261	711,452	-0,098	-0,182
206,275	61,571	-0,161	-0,111
207,290	61,812	-0,191	-0,132
208,304	-14,901	-0,129	-0,057
209,319	55,932	-0,152	-0,102
210,334	30,466	-0,186	-0,110
211,348	296,184	-0,181	-0,231
212,363	800,000	-0,085	-0,196
213,377	77,477	-0,211	-0,156
214,392	800,000	-0,061	-0,169
215,407	91,032	-0,091	-0,071
216,421	150,687	-0,255	-0,241
217,436	445,321	-0,133	-0,203
218,450	206,138	-0,226	-0,244
219,465	27,918	-0,131	-0,076
220,480	27,441	-0,267	-0,155
221,494	137,920	-0,151	-0,138
222,509	58,773	-0,231	-0,157
223,523	99,137	-0,236	-0,189
224,538	226,895	-0,193	-0,219
225,553	64,914	-0,203	-0,142
226,567	0,444	-0,134	-0,066
227,582	1,757	-0,218	-0,109
228,596	348,530	-0,077	-0,106
229,611	249,096	-0,102	-0,120
230,626	30,985	-0,182	-0,108
231,640	167,423	-0,164	-0,161
232,655	67,340	-0,291	-0,206
233,669	279,748	-0,197	-0,245
234,684	11,561	-0,088	-0,047
235,699	83,062	-0,134	-0,101
236,713	-200,000	-0,005	-0,138
237,728	46,720	-0,297	-0,191
238,742	246,959	-0,148	-0,174
239,757	28,607	-0,289	-0,169
240,772	145,939	-0,080	-0,074
241,786	131,419	-0,182	-0,162
242,801	252,709	-0,066	-0,078
243,815	35,761	-0,204	-0,124
244,830	124,551	-0,136	-0,119
245,844	-152,432	-0,181	0,009
246,859	800,000	-0,045	-0,099
247,874	340,303	-0,190	-0,258
248,888	-55,663	-0,235	-0,072
249,903	-2,114	-0,125	-0,061
250,917	-77,313	-0,124	-0,030
251,932	800,000	-0,039	-0,096
252,947	98,926	-0,273	-0,218
253,961	-61,399	-0,181	0,052
254,976	99,613	-0,205	-0,164
255,990	-54,008	-0,222	-0,070
257,005	364,194	-0,137	-0,191
258,020	155,577	-0,140	-0,133
259,034	-75,982	-0,151	-0,037
260,049	239,259	-0,125	-0,144
261,063	84,066	-0,162	-0,122
262,078	317,762	-0,155	-0,204
263,093	44,187	-0,240	-0,152
264,107	-22,932	-0,221	-0,092
265,122	-192,781	-0,103	-0,001
266,136	28,858	-0,153	-0,090
267,151	35,679	-0,216	-0,131
268,166	66,622	-0,279	-0,196
269,180	101,365	-0,165	-0,133
270,195	4,255	-0,165	-0,083
271,209	-89,622	-0,126	-0,025
272,224	67,882	-0,252	-0,178
273,239	-26,149	-0,141	-0,057
274,253	-88,377	-0,217	-0,044
275,268	29,201	-0,169	-0,099
276,282	-37,918	-0,176	-0,064
277,297	165,249	-0,280	-0,273
278,312	-98,394	-0,184	0,032
279,326	-118,289	-0,141	0,017
280,341	15,746	-0,115	-0,062
281,355	-136,253	-0,349	-0,028
282,370	306,031	-0,182	-0,235
283,384	81,959	-0,133	-0,100
284,399	203,871	-0,116	-0,124
285,414	-200,000	-0,209	0,001
286,428	-123,118	-0,110	0,012
287,443	-200,000	0,000	-0,046
288,457	-111,347	-0,234	-0,033
289,472	12,011	-0,163	-0,086
290,487	44,957	-0,258	-0,164
291,501	-138,626	-0,265	-0,020
292,516	686,884	-0,112	-0,202
293,530	610,997	-0,116	-0,201
294,545	-141,054	-0,014	-0,001
295,560	-200,000	-0,003	-0,010
296,574	526,486	-0,038	-0,062
297,589	273,033	-0,213	-0,260
298,603	174,314	-0,237	-0,237
299,618	215,685	-0,123	-0,134
300,633	-131,031	-0,165	0,015
301,647	50,280	-0,152	-0,099
302,662	132,522	-0,146	-0,130
303,676	503,381	-0,110	-0,176
304,691	104,716	-0,165	-0,134
305,706	194,021	-0,206	-0,215
306,720	2,752	-0,207	-0,103
307,735	329,357	-0,101	-0,134
308,749	497,820	-0,066	-0,105
309,764	71,751	-0,072	0,051
310,779	-78,658	-0,135	0,032
311,793	-30,411	-0,101	-0,039
312,808	800,000	-0,091	-0,192
313,822	800,000	-0,092	-0,186
314,837	-14,678	-0,172	-0,076
315,852	-192,084	-0,098	-0,001
316,866	-83,272	-0,093	0,020
317,881	473,564	-0,068	-0,106
318,895	-136,093	-0,212	-0,017
319,910	46,345	-0,237	-0,151
320,925	-48,227	-0,306	-0,101
321,939	-126,926	-0,224	-0,022
322,954	375,404	-0,042	-0,059
323,968	111,044	-0,046	-0,038
324,983	-67,402	-0,078	-0,021
325,997	21,106	-0,153	-0,085
327,012	-155,805	-0,212	0,009
328,027	800,000	-0,064	-0,189
329,041	800,000	-0,068	-0,145
330,056	800,000	0,047	-0,134
331,070	135,853	-0,215	-0,193
332,085	406,955	-0,128	-0,187
333,100	148,994	-0,092	0,086
334,114	-97,742	-0,137	0,024
335,129	-1,680	-0,200	-0,097
336,143	800,000	-0,051	-0,118
337,158	-74,122	-0,154	-0,038
338,173	-174,177	-0,111	0,002
339,187	-174,550	-0,164	-0,003
340,202	53,565	-0,193	-0,127
341,216	557,319	-0,113	-0,189
342,231	741,831	-0,061	-0,113
343,246	10,970	-0,175	-0,091
344,260	240,076	-0,064	-0,074
345,275	-94,155	-0,149	-0,028
346,289	-142,063	-0,123	-0,008
347,304	9,371	-0,112	-0,058
348,319	-200,000	-0,020	-0,084
349,333	-200,000	-0,019	-0,258
350,348	-22,904	-0,077	-0,032
351,362	800,000	-0,078	-0,206
352,377	75,526	-0,112	-0,081
353,392	-200,000	-0,109	0,000
354,406	-23,543	-0,114	0,047
355,421	208,091	1316,891	1414,462
356,435	160,099	1477,896	1414,959
