DTS Sentinel unit serial number:	SN410029Multiplexer serial number:	ORYXHardware model number:	OX2-SRSoftware version number:	ORYX F/W v4,00 Oryx Data Collector v3.7.2.0data status	okinstallation	B3 Nyhavnadifferential loss correction	single-endedforward channel	channel 1reverse channel	N/Adate	2023/11/30time	04:07:30forward acquisition time	300,00reverse acquisition time	0,00gamma	499,1914k internal	0,3211k external	0,3211temperature offset calibration	1,0000default loss term (dB/km)	0,3820temperature slope calibration	1,0000multiplexer offset coefficient	1,0000multiplexer slope coefficient	1,0000fibre end	0,00T internal ref (°C)	10,14T ext. ref 1 (°C)	-5,36T ext. ref 2 (°C)	-5,46length (m)	temperature (°C)	Stokes	anti-Stokes-744,400	178,865	-0,224	-0,238
-743,385	800,000	-0,085	0,226
-742,371	273,141	-0,141	-0,181
-741,356	-200,000	-0,055	0,231
-740,342	-200,000	-0,063	-0,305
-739,327	173,715	0,058	0,061
-738,312	800,000	-0,092	-0,245
-737,298	-200,000	-0,042	0,213
-736,283	170,398	-0,201	-0,209
-735,269	-200,000	-0,038	0,261
-734,254	-200,000	-0,082	-0,322
-733,239	166,895	-0,202	0,208
-732,225	-200,000	0,031	-0,315
-731,210	124,668	-0,017	-0,015
-730,196	-114,387	0,048	-0,007
-729,181	22,531	-0,021	-0,012
-728,167	-200,000	-0,011	0,049
-727,152	-18,203	-0,057	0,026
-726,137	-108,472	-0,110	0,017
-725,123	309,615	-0,100	-0,135
-724,108	-200,000	-0,022	-0,176
-723,094	79,883	-0,053	0,041
-722,079	205,454	-0,027	0,031
-721,064	-200,000	0,027	-0,185
-720,050	800,000	-0,018	0,042
-719,035	-200,000	-0,041	0,133
-718,021	-200,000	-0,014	0,056
-717,006	-22,143	-0,159	-0,070
-715,991	-53,526	-0,114	-0,038
-714,977	-200,000	-0,002	-0,080
-713,962	-141,940	-0,061	-0,004
-712,948	-39,550	-0,083	-0,031
-711,933	425,293	0,033	-0,052
-710,918	452,858	0,035	0,056
-709,904	90,475	-0,090	-0,073
-708,889	334,172	-0,058	-0,081
-707,875	-200,000	-0,051	-0,169
-706,860	-145,010	0,036	0,002
-705,845	800,000	0,022	-0,053
-704,831	-52,261	0,127	0,043
-703,816	-200,000	-0,012	0,061
-702,802	800,000	-0,025	-0,052
-701,787	-22,084	-0,153	-0,067
-700,772	214,823	-0,035	-0,040
-699,758	48,573	-0,015	0,010
-698,743	-200,000	0,018	-0,080
-697,729	-200,000	-0,004	0,032
-696,714	-102,509	0,114	0,020
-695,699	800,000	0,024	-0,071
-694,685	71,424	-0,081	-0,061
-693,670	-36,213	-0,049	-0,019
-692,656	-200,000	0,012	-0,084
-691,641	2,781	0,099	0,052
-690,627	-54,552	0,053	-0,017
-689,612	-130,022	-0,031	0,003
-688,597	-110,725	0,059	-0,009
-687,583	62,559	-0,098	-0,070
-686,568	533,859	-0,060	-0,103
-685,554	-200,000	0,024	-0,103
-684,539	0,741	0,197	0,102
-683,524	-147,231	0,095	-0,006
-682,510	229,207	-0,063	0,075
-681,495	181,943	-0,062	-0,066
-680,481	800,000	0,018	-0,045
-679,466	565,638	-0,049	-0,085
-678,451	77,070	-0,023	0,018
-677,437	111,743	0,076	0,066
-676,422	-0,771	0,171	0,087
-675,408	271,894	-0,090	-0,115
-674,393	94,253	-0,046	0,038
-673,378	-52,263	-0,082	-0,027
-672,364	-60,119	-0,106	-0,033
-671,349	800,000	0,038	-0,107
-670,335	-200,000	-0,014	-0,106
-669,320	76,422	-0,094	0,072
-668,305	472,786	-0,038	0,063
-667,291	-96,255	0,095	0,018
-666,276	12,972	-0,152	-0,084
-665,262	-200,000	-0,029	-0,229
-664,247	800,000	-0,032	-0,067
-663,232	485,392	-0,050	0,083
-662,218	11,100	0,067	0,037
-661,203	225,539	-0,029	-0,034
-660,189	-200,000	0,000	0,054
-659,174	207,774	-0,078	-0,088
-658,159	800,000	-0,012	0,025
-657,145	363,506	-0,044	-0,064
-656,130	460,088	-0,050	0,080
-655,116	28,645	0,111	-0,068
-654,101	-200,000	0,017	-0,145
-653,086	18,666	0,109	0,063
-652,072	-61,965	-0,083	0,025
-651,057	393,774	-0,040	-0,060
-650,043	5,065	-0,078	-0,041
-649,028	-200,000	-0,006	-0,127
-648,014	68,673	-0,049	-0,037
-646,999	-200,000	0,020	-0,069
-645,984	-152,197	-0,058	0,003
-644,970	697,738	0,094	-0,180
-643,955	-200,000	0,000	0,006
-642,941	157,260	0,039	0,039
-641,926	260,967	-0,133	-0,167
-640,911	800,000	-0,042	-0,092
-639,897	-200,000	0,001	0,200
-638,882	58,420	0,089	0,063
-637,868	-200,000	0,004	-0,037
-636,853	-200,000	-0,012	-0,061
-635,838	-200,000	0,001	-0,062
-634,824	302,805	-0,020	0,027
-633,809	14,449	0,108	0,061
-632,795	136,587	-0,118	0,111
-631,780	-200,000	-0,005	0,025
-630,765	-160,400	-0,107	0,004
-629,751	-141,051	-0,144	-0,011
-628,736	-86,588	0,045	0,010
-627,722	800,000	-0,073	-0,194
-626,707	-131,605	0,035	-0,003
-625,692	-105,411	-0,037	0,006
-624,678	-79,383	0,055	-0,013
-623,663	800,000	0,029	0,091
-622,649	226,114	-0,043	0,051
-621,634	213,947	0,019	0,022
-620,619	-200,000	-0,017	0,060
-619,605	3,024	0,075	-0,039
-618,590	-200,000	-0,020	0,126
-617,576	85,304	0,159	0,126
-616,561	183,707	0,054	0,057
-615,546	-70,760	-0,086	-0,023
-614,532	-102,397	-0,205	0,035
-613,517	179,552	0,097	0,102
-612,503	255,836	0,074	-0,091
-611,488	800,000	-0,062	0,145
-610,474	-200,000	0,002	0,051
-609,459	429,982	-0,057	-0,089
-608,444	78,845	-0,132	-0,102
-607,430	312,581	-0,065	-0,088
-606,415	226,955	-0,082	-0,096
-605,401	17,813	0,138	0,079
-604,386	-58,062	0,097	0,030
-603,371	-200,000	0,008	0,084
-602,357	146,113	0,010	0,010
-601,342	142,386	0,056	-0,053
-600,328	-186,192	-0,102	0,001
-599,313	639,803	0,046	-0,085
-598,298	365,141	0,103	-0,150
-597,284	79,245	-0,115	0,089
-596,269	93,247	0,049	-0,040
-595,255	-115,195	-0,078	0,011
-594,240	800,000	0,029	0,091
-593,225	800,000	-0,052	-0,115
-592,211	-73,006	0,094	-0,025
-591,196	4,279	-0,051	-0,027
-590,182	-200,000	0,016	-0,074
-589,167	35,373	-0,100	0,063
-588,152	-200,000	0,023	0,087
-587,138	66,327	-0,050	-0,036
-586,123	800,000	0,072	-0,158
-585,109	142,780	-0,017	-0,016
-584,094	233,954	-0,070	-0,084
-583,079	-48,586	-0,067	-0,023
-582,065	-95,800	0,105	0,020
-581,050	-200,000	0,002	0,081
-580,036	589,878	0,079	-0,141
-579,021	59,949	-0,058	-0,041
-578,006	-23,193	-0,104	-0,045
-576,992	784,685	-0,068	0,136
-575,977	198,711	0,019	-0,021
-574,963	800,000	-0,013	-0,030
-573,948	-200,000	-0,008	0,038
-572,934	62,096	-0,048	0,034
-571,919	-69,922	-0,230	0,063
-570,904	10,454	0,051	-0,028
-569,890	-200,000	0,000	-0,177
-568,875	-70,545	-0,025	-0,007
-567,861	-101,830	0,151	0,026
-566,846	800,000	-0,036	0,096
-565,831	800,000	-0,053	-0,123
-564,817	198,913	-0,017	0,019
-563,802	2,168	-0,050	-0,026
-562,788	2,074	-0,158	-0,082
-561,773	185,019	0,021	-0,023
-560,758	107,755	0,156	-0,134
-559,744	-200,000	0,005	0,031
-558,729	-97,851	-0,048	0,009
-557,715	87,009	0,077	0,061
-556,700	-172,165	-0,059	-0,001
-555,685	26,423	-0,034	-0,020
-554,671	189,467	0,075	0,081
-553,656	-200,000	-0,003	-0,104
-552,642	-200,000	-0,001	-0,022
-551,627	-200,000	-0,019	-0,096
-550,612	93,785	-0,064	-0,052
-549,598	569,051	0,043	-0,076
-548,583	-200,000	0,010	0,067
-547,569	-92,956	0,134	-0,027
-546,554	39,447	0,021	-0,013
-545,539	6,503	0,121	-0,064
-544,525	148,755	-0,074	-0,072
-543,510	-200,000	-0,004	-0,037
-542,496	-200,000	-0,016	-0,231
-541,481	509,061	0,072	-0,120
-540,466	89,015	-0,110	-0,088
-539,452	-200,000	0,020	0,070
-538,437	644,637	0,034	0,063
-537,423	-200,000	-0,029	-0,110
-536,408	396,992	-0,020	0,030
-535,393	-106,954	-0,081	0,013
-534,379	800,000	-0,045	0,102
-533,364	675,472	-0,034	0,064
-532,350	23,953	0,114	0,067
-531,335	-200,000	0,026	-0,103
-530,321	-200,000	0,004	-0,114
-529,306	104,914	0,035	0,030
-528,291	4,421	-0,025	-0,013
-527,277	110,310	-0,009	0,008
-526,262	61,023	0,097	-0,069
-525,248	707,051	-0,051	-0,096
-524,233	197,722	0,103	-0,113
-523,218	-159,370	0,040	0,002
-522,204	-91,610	-0,181	0,037
-521,189	110,401	-0,048	-0,042
-520,175	66,248	-0,138	0,101
-519,160	-200,000	-0,005	-0,024
-518,145	571,128	-0,124	0,219
-517,131	-200,000	-0,000	-0,012
-516,116	332,178	0,013	0,019
-515,102	-47,587	-0,070	0,024
-514,087	-200,000	-0,004	-0,091
-513,072	-200,000	0,011	0,140
-512,058	-82,421	0,116	0,027
-511,043	266,041	0,058	0,073
-510,029	-200,000	0,036	-0,122
-509,014	204,460	0,014	-0,015
-507,999	-33,410	0,037	0,014
-506,985	221,242	-0,022	-0,025
-505,970	149,171	0,015	-0,015
-504,956	80,616	-0,066	-0,051
-503,941	-31,940	0,005	-0,002
-502,926	800,000	0,031	0,063
-501,912	195,011	-0,057	0,063
-500,897	-119,613	0,132	0,016
-499,883	800,000	-0,043	-0,113
-498,868	-56,452	-0,085	0,027
-497,853	284,787	-0,106	0,138
-496,839	800,000	-0,014	-0,028
-495,824	284,723	-0,043	0,056
-494,810	-109,861	0,183	0,027
-493,795	-13,167	-0,080	0,037
-492,781	-200,000	0,022	-0,095
-491,766	5,659	0,049	-0,026
-490,751	-200,000	0,024	-0,120
-489,737	800,000	0,013	-0,027
-488,722	249,347	0,032	-0,039
-487,708	-55,222	-0,040	-0,013
-486,693	154,181	0,127	0,125
-485,678	-2,608	-0,119	-0,060
-484,664	573,095	-0,035	-0,062
-483,649	14,290	0,069	-0,039
-482,635	9,723	-0,081	-0,044
-481,620	-196,661	0,180	0,001
-480,605	-36,715	0,122	0,047
-479,591	279,472	0,087	-0,112
-478,576	-200,000	-0,031	-0,125
-477,562	43,297	0,059	0,038
-476,547	-37,283	-0,082	-0,031
-475,532	-47,412	0,049	-0,017
-474,518	-200,000	-0,001	0,069
-473,503	-200,000	-0,038	0,133
-472,489	800,000	-0,020	-0,046
-471,474	-200,000	-0,004	-0,025
-470,459	59,628	-0,060	-0,042
-469,445	383,822	-0,038	0,057
-468,430	-78,438	-0,120	-0,029
-467,416	304,939	0,123	0,164
-466,401	41,740	-0,115	-0,074
-465,386	101,828	-0,064	-0,054
-464,372	-200,000	-0,003	0,081
-463,357	-200,000	-0,020	-0,084
-462,343	131,076	-0,167	-0,154
-461,328	109,959	-0,062	0,053
-460,313	489,460	0,050	-0,082
-459,299	-90,663	-0,119	-0,024
-458,284	46,761	0,141	0,094
-457,270	24,637	-0,022	0,013
-456,255	-21,220	-0,038	-0,017
-455,241	372,379	-0,022	0,032
-454,226	-149,387	-0,125	0,007
-453,211	-110,803	0,059	-0,009
-452,197	483,264	0,044	0,072
-451,182	-200,000	-0,012	-0,062
-450,168	-167,078	-0,010	0,000
-449,153	420,755	-0,057	-0,088
-448,138	-57,656	0,083	0,026
-447,124	3,865	-0,050	0,026
-446,109	455,297	0,016	-0,026
-445,095	-54,829	0,070	0,023
-444,080	-200,000	0,024	0,162
-443,065	233,931	-0,024	-0,028
-442,051	800,000	-0,043	0,119
-441,036	-200,000	0,005	0,070
-440,022	388,500	-0,130	-0,193
-439,007	-55,295	0,138	-0,044
-437,992	318,186	0,041	-0,055
-436,978	-200,000	0,001	-0,108
-435,963	-90,805	-0,132	0,027
-434,949	82,188	-0,067	0,052
-433,934	-46,422	-0,065	-0,023
-432,919	-200,000	0,006	-0,056
-431,905	325,795	0,023	-0,032
-430,890	31,115	0,127	0,078
-429,876	173,909	-0,064	-0,066
-428,861	800,000	0,033	0,083
-427,846	-200,000	0,019	-0,110
-426,832	150,566	-0,096	-0,093
-425,817	52,805	-0,073	-0,050
-424,803	16,947	0,108	0,061
-423,788	53,849	-0,034	0,024
-422,773	-46,643	0,046	0,016
-421,759	-64,384	0,127	-0,037
-420,744	160,896	0,064	0,064
-419,730	-0,981	-0,108	0,054
-418,715	-200,000	-0,007	0,103
-417,701	800,000	-0,013	-0,032
-416,686	-20,741	0,060	0,026
-415,671	-103,801	0,078	0,013
-414,657	17,001	0,042	0,024
-413,642	-110,476	0,038	0,006
-412,628	178,287	-0,048	-0,050
-411,613	-200,000	0,017	0,099
-410,598	-200,000	-0,002	-0,032
-409,584	-80,329	0,031	-0,007
-408,569	-117,078	0,112	-0,014
-407,555	-91,669	0,115	-0,023
-406,540	-110,471	0,099	0,015
-405,525	729,320	-0,027	-0,053
-404,511	82,329	-0,117	0,090
-403,496	-200,000	0,016	-0,157
-402,482	117,120	0,023	-0,020
-401,467	567,171	0,048	-0,084
-400,452	800,000	-0,072	0,167
-399,438	800,000	0,060	0,183
-398,423	74,509	-0,121	-0,091
-397,409	-139,669	0,068	-0,005
-396,394	800,000	0,042	-0,105
-395,379	-159,316	-0,117	0,005
-394,365	218,969	0,063	0,072
-393,350	391,214	-0,050	0,075
-392,336	28,976	0,098	0,059
-391,321	800,000	-0,013	0,038
-390,306	9,410	-0,017	0,009
-389,292	65,313	-0,147	-0,106
-388,277	112,309	-0,071	-0,061
-387,263	-200,000	0,001	-0,100
-386,248	-200,000	0,046	-0,154
-385,233	-25,896	0,135	0,056
-384,219	-200,000	0,030	-0,112
-383,204	-32,642	0,067	0,027
-382,190	-200,000	0,049	-0,180
-381,175	137,020	-0,026	0,024
-380,160	-200,000	-0,022	0,116
-379,146	3,536	0,140	0,073
-378,131	-200,000	0,006	0,150
-377,117	800,000	-0,032	0,071
-376,102	-200,000	-0,003	-0,190
-375,088	82,455	-0,034	0,026
-374,073	800,000	-0,017	0,041
-373,058	-200,000	0,014	0,093
-372,044	800,000	0,046	-0,137
-371,029	-41,155	-0,103	0,038
-370,015	800,000	-0,027	0,055
-369,000	-4,510	-0,061	0,030
-367,985	-10,240	-0,067	-0,032
-366,971	800,000	0,034	-0,096
-365,956	45,893	0,043	0,028
-364,942	120,559	0,079	0,070
-363,927	312,526	0,040	-0,054
-362,912	140,832	0,080	0,075
-361,898	68,355	-0,127	-0,093
-360,883	200,343	-0,083	0,092
-359,869	-200,000	-0,001	-0,162
-358,854	-200,000	-0,012	0,056
-357,839	-86,998	0,075	-0,016
-356,825	79,636	0,103	0,079
-355,810	800,000	0,056	0,112
-354,796	-200,000	0,008	-0,042
-353,781	5,048	0,032	-0,017
-352,766	329,453	0,064	-0,089
-351,752	314,633	0,116	-0,157
-350,737	-3,616	0,137	0,068
-349,723	337,530	0,168	0,234
-348,708	133,618	-0,096	0,089
-347,693	18,577	-0,059	0,033
-346,679	8,952	-0,096	-0,052
-345,664	285,339	-0,038	-0,049
-344,650	800,000	0,002	-0,006
-343,635	-200,000	0,044	0,205
-342,620	800,000	0,029	-0,083
-341,606	45,769	-0,067	0,044
-340,591	800,000	-0,044	0,096
-339,577	-50,373	0,113	0,038
-338,562	800,000	-0,049	-0,115
-337,548	-200,000	-0,039	0,141
-336,533	93,015	0,130	0,105
-335,518	192,945	0,048	0,052
-334,504	-31,281	-0,049	-0,020
-333,489	30,193	-0,064	0,039
-332,475	18,139	-0,107	-0,061
-331,460	151,933	-0,092	-0,090
-330,445	34,798	-0,073	-0,045
-329,431	302,740	-0,055	0,072
-328,416	-41,470	0,084	0,031
-327,402	100,478	0,049	0,041
-326,387	-17,040	0,080	0,036
-325,372	-181,356	-0,073	-0,001
-324,358	-27,063	0,151	0,063
-323,343	-119,152	-0,077	-0,010
-322,329	-200,000	-0,001	-0,092
-321,314	145,716	0,081	-0,078
-320,299	-200,000	0,017	0,149
-319,285	800,000	0,043	0,110
-318,270	676,274	0,031	-0,058
-317,256	800,000	0,011	0,033
-316,241	490,285	-0,030	0,049
-315,226	25,278	0,135	-0,080
-314,212	-117,936	-0,170	0,021
-313,197	175,622	-0,061	0,063
-312,183	-200,000	0,013	-0,069
-311,168	-200,000	0,002	-0,094
-310,153	-200,000	0,024	-0,119
-309,139	235,129	-0,085	-0,101
-308,124	800,000	0,017	0,049
-307,110	466,295	0,066	0,106
-306,095	290,182	0,103	0,134
-305,080	456,984	0,011	-0,018
-304,066	-200,000	-0,007	0,032
-303,051	-200,000	-0,005	0,036
-302,037	-49,708	-0,046	-0,016
-301,022	-32,569	0,110	-0,043
-300,008	-200,000	0,003	-0,023
-298,993	60,093	0,043	-0,030
-297,978	232,749	-0,055	0,064
-296,964	21,042	0,025	-0,014
-295,949	68,221	0,054	-0,039
-294,935	800,000	-0,008	-0,023
-293,920	-80,080	-0,175	-0,042
-292,905	-174,498	0,056	-0,001
-291,891	800,000	0,060	0,144
-290,876	-102,090	0,190	-0,032
-289,862	355,882	0,060	0,086
-288,847	795,832	0,023	-0,045
-287,832	-200,000	-0,022	0,071
-286,818	800,000	-0,092	-0,206
-285,803	93,281	-0,029	0,024
-284,789	-88,259	0,046	-0,010
-283,774	192,106	-0,042	0,045
-282,759	-107,419	0,094	-0,015
-281,745	-200,000	-0,012	0,080
-280,730	-132,708	-0,009	0,001
-279,716	-148,351	-0,061	0,004
-278,701	75,520	0,084	0,063
-277,686	-200,000	0,026	0,169
-276,672	117,830	-0,049	0,043
-275,657	-200,000	0,002	0,090
-274,643	105,002	-0,130	-0,109
-273,628	-35,741	0,136	0,052
-272,613	-200,000	-0,021	0,067
-271,599	-79,332	0,030	0,007
-270,584	800,000	-0,024	0,059
-269,570	-108,467	-0,054	-0,008
-268,555	55,493	-0,027	-0,019
-267,540	-31,677	0,091	0,036
-266,526	-200,000	-0,013	-0,112
-265,511	-78,621	0,061	-0,015
-264,497	443,448	0,053	0,082
-263,482	-200,000	0,008	0,024
-262,467	800,000	0,040	0,090
-261,453	-113,632	-0,081	0,011
-260,438	-22,009	0,095	0,041
-259,424	800,000	0,038	-0,089
-258,409	20,025	-0,027	-0,016
-257,395	264,266	-0,061	0,076
-256,380	113,332	-0,068	0,059
-255,365	-200,000	0,010	0,085
-254,351	39,153	-0,079	-0,050
-253,336	90,651	-0,045	-0,036
-252,322	413,788	-0,041	-0,062
-251,307	37,618	-0,107	-0,067
-250,292	-68,955	0,013	-0,004
-249,278	-106,363	0,118	0,019
-248,263	166,422	0,131	0,132
-247,249	-131,540	0,055	0,005
-246,234	333,551	-0,085	0,117
-245,219	-26,249	-0,152	0,063
-244,205	-19,014	-0,067	0,030
-243,190	-139,740	-0,103	0,008
-242,176	-122,314	0,092	-0,011
-241,161	20,580	0,143	0,082
-240,146	395,800	-0,089	-0,132
-239,132	232,964	-0,071	0,083
-238,117	154,835	0,065	0,064
-237,103	-200,000	0,004	0,028
-236,088	265,435	0,048	-0,059
-235,073	-200,000	0,218	0,001
-234,059	-200,000	-0,015	0,113
-233,044	-57,875	0,030	0,009
-232,030	-41,550	0,125	0,045
-231,015	-178,019	0,109	0,002
-230,000	-47,356	-0,048	-0,016
-228,986	-145,564	-0,073	0,005
-227,971	-200,000	0,003	0,073
-226,957	-64,614	0,163	0,047
-225,942	-78,403	-0,010	0,002
-224,927	-200,000	0,016	-0,059
-223,913	-200,000	-0,008	-0,087
-222,898	-127,482	-0,098	0,010
-221,884	35,070	0,147	0,091
-220,869	309,112	-0,107	0,143
-219,855	-200,000	0,016	-0,051
-218,840	14,261	-0,115	0,063
-217,825	800,000	-0,044	0,099
-216,811	-120,272	-0,048	-0,006
-215,796	-83,526	-0,140	-0,031
-214,782	-200,000	-0,007	0,094
-213,767	-159,337	0,109	-0,004
-212,752	-200,000	0,030	0,120
-211,738	25,609	0,051	-0,030
-210,723	-51,023	0,050	-0,016
-209,709	202,021	0,114	-0,125
-208,694	-200,000	-0,030	-0,110
-207,679	392,340	-0,059	0,088
-206,665	151,390	-0,043	-0,042
-205,650	-200,000	0,016	-0,069
-204,636	106,177	-0,052	0,044
-203,621	495,974	0,025	-0,041
-202,606	59,843	-0,052	-0,037
-201,592	42,792	0,055	0,036
-200,577	-200,000	0,009	-0,071
-199,563	-200,000	0,015	0,119
-198,548	-132,853	0,159	-0,014
-197,533	622,997	-0,138	-0,248
-196,519	-200,000	0,019	-0,124
-195,504	54,285	-0,150	-0,103
-194,490	-200,000	0,016	0,058
-193,475	-200,000	0,003	0,066
-192,460	800,000	-0,006	0,012
-191,446	570,267	0,033	-0,057
-190,431	702,973	0,037	-0,069
-189,417	-21,649	-0,085	-0,037
-188,402	54,581	0,059	0,040
-187,387	-43,144	-0,143	-0,051
-186,373	56,033	0,065	-0,045
-185,358	-13,224	-0,044	-0,020
-184,344	776,597	0,067	-0,131
-183,329	77,863	0,061	0,046
-182,315	35,861	0,057	-0,035
-181,300	800,000	-0,009	0,022
-180,285	49,017	-0,126	-0,084
-179,271	-200,000	-0,008	0,051
-178,256	-18,813	-0,077	0,034
-177,242	-76,388	0,156	0,039
-176,227	-129,557	-0,077	0,007
-175,212	56,077	-0,051	0,035
-174,198	-5,402	-0,167	-0,081
-173,183	800,000	-0,024	0,048
-172,169	26,402	-0,168	0,100
-171,154	-67,048	0,044	-0,012
-170,139	65,081	0,110	0,079
-169,125	-29,356	0,022	-0,009
-168,110	-200,000	-0,009	-0,094
-167,096	-74,931	-0,132	0,033
-166,081	712,098	-0,028	0,053
-165,066	324,015	-0,058	-0,078
-164,052	70,253	0,065	0,047
-163,037	-47,897	0,144	-0,049
-162,023	-200,000	0,011	0,098
-161,008	-14,120	0,041	0,019
-159,993	10,378	-0,126	0,068
-158,979	355,966	-0,012	-0,017
-157,964	21,880	-0,101	0,058
-156,950	-200,000	-0,010	-0,038
-155,935	-11,953	0,061	-0,028
-154,920	480,817	0,045	0,072
-153,906	800,000	0,066	0,163
-152,891	84,935	0,068	0,053
-151,877	82,557	-0,036	-0,028
-150,862	-200,000	0,015	-0,074
-149,847	-44,683	-0,054	-0,019
-148,833	114,909	0,086	-0,074
-147,818	-137,498	-0,086	0,007
-146,804	800,000	0,041	-0,105
-145,789	800,000	-0,019	-0,043
-144,775	188,039	0,057	0,061
-143,760	-36,734	-0,092	0,035
-142,745	191,456	-0,010	-0,011
-141,731	92,500	0,102	0,082
-140,716	540,006	0,052	0,088
-139,702	276,957	0,044	0,055
-138,687	-86,675	0,161	-0,035
-137,672	26,829	0,160	0,095
-136,658	-200,000	0,049	-0,207
-135,643	129,527	-0,068	-0,062
-134,629	-24,449	-0,093	-0,039
-133,614	-200,000	-0,020	0,133
-132,599	234,788	0,072	0,084
-131,585	129,168	0,053	-0,048
-130,570	390,904	-0,071	0,104
-129,556	228,579	-0,028	0,032
-128,541	181,178	-0,046	0,048
-127,526	7,475	-0,120	-0,063
-126,512	-16,186	0,062	-0,028
-125,497	264,593	0,079	0,098
-124,483	-200,000	0,017	0,141
-123,468	800,000	0,058	0,116
-122,453	-137,436	0,117	-0,009
-121,439	-200,000	-0,009	0,068
-120,424	-10,937	0,104	-0,049
-119,410	-22,680	0,141	0,060
-118,395	159,129	0,069	-0,068
-117,380	143,419	0,034	0,032
-116,366	800,000	0,023	0,052
-115,351	-122,700	-0,016	0,002
-114,337	81,842	-0,044	-0,034
-113,322	800,000	-0,049	0,136
-112,307	170,262	-0,061	-0,061
-111,293	-70,908	0,053	-0,014
-110,278	-200,000	0,006	0,042
-109,264	-200,000	0,029	0,101
-108,249	-109,891	-0,009	0,001
-107,234	-200,000	-0,011	0,055
-106,220	-200,000	-0,026	-0,144
-105,205	-200,000	-0,041	0,147
-104,191	23,425	0,049	0,028
-103,176	204,708	0,145	0,159
-102,162	299,658	0,086	-0,112
-101,147	800,000	0,050	-0,131
-100,132	101,865	-0,113	-0,093
-99,118	339,883	0,065	0,090
-98,103	360,783	-0,092	-0,130
-97,089	-114,576	0,140	0,019
-96,074	-200,000	0,009	-0,050
-95,059	-120,611	-0,044	0,005
-94,045	800,000	-0,027	0,060
-93,030	800,000	-0,081	-0,166
-92,016	800,000	-0,008	-0,019
-91,001	160,011	0,015	0,015
-89,986	-42,066	0,061	0,022
-88,972	123,679	0,124	0,110
-87,957	15,619	-0,050	-0,028
-86,943	14,913	-0,086	-0,048
-85,928	161,259	-0,079	0,078
-84,913	-200,000	-0,060	0,000
-83,899	-200,000	0,084	-0,000
-82,884	-1,177	0,081	0,040
-81,870	-200,000	-0,000	0,056
-80,855	-81,631	0,160	-0,037
-79,840	-3,136	-0,094	0,046
-78,826	-200,000	0,006	0,110
-77,811	-10,790	-0,119	-0,055
-76,797	-80,350	0,072	0,017
-75,782	-63,909	0,079	0,023
-74,767	-200,000	-0,012	0,047
-73,753	800,000	0,027	-0,074
-72,738	-200,000	-0,018	0,084
-71,724	60,293	0,017	-0,012
-70,709	135,634	-0,002	0,002
-69,694	723,861	0,030	-0,056
-68,680	209,324	-0,074	0,082
-67,665	33,880	0,150	0,092
-66,651	-200,000	0,021	0,141
-65,636	240,142	0,065	0,077
-64,622	-4,718	-0,125	-0,061
-63,607	-59,776	-0,079	-0,024
-62,592	428,683	0,069	0,106
-61,578	362,088	0,040	0,057
-60,563	-200,000	-0,009	0,081
-59,549	800,000	0,075	0,170
-58,534	31,302	-1,940	-1,174
-57,519	454,576	-1,290	-2,024
-56,505	-200,000	-0,489	-4,478
-55,490	473,601	0,943	1,506
-54,476	800,000	5,200	11,197
-53,461	-200,000	21,231	340,631
-52,446	800,000	760,163	2360,908
-51,432	560,309	1662,799	2846,624
-50,417	73,601	1661,471	1227,045
-49,403	18,023	1535,014	861,236
-48,388	11,960	1458,636	789,055
-47,373	19,397	1449,500	819,770
-46,359	15,415	1438,841	794,773
-45,344	10,250	1434,907	767,969
-44,330	10,176	1432,800	766,459
-43,315	10,190	1430,830	765,443
-42,300	10,184	1429,297	764,561
-41,286	10,178	1427,964	763,789
-40,271	10,134	1426,933	763,000
-39,257	10,166	1425,717	762,470
-38,242	10,225	1424,264	761,945
-37,227	10,153	1423,547	761,187
-36,213	10,244	1421,953	760,738
-35,198	10,211	1420,909	759,993
-34,184	10,277	1419,996	759,783
-33,169	10,200	1418,602	758,643
-32,154	10,228	1417,717	758,274
-31,140	10,251	1416,383	757,638
-30,125	10,300	1415,275	757,247
-29,111	10,232	1414,125	756,281
-28,096	10,187	1412,941	755,407
-27,082	10,187	1411,734	754,733
-26,067	10,154	1411,018	754,163
-25,052	10,186	1409,707	753,582
-24,038	10,173	1408,605	752,904
-23,023	10,137	1407,816	752,284
-22,009	10,161	1406,912	751,884
-20,994	10,188	1405,603	751,281
-19,979	10,150	1404,927	750,713
-18,965	10,144	1403,756	750,029
-17,950	10,135	1403,092	749,600
-16,936	10,075	1402,207	748,821
-15,921	10,076	1401,367	748,344
-14,906	10,091	1400,415	747,875
-13,892	10,171	1398,886	747,402
-12,877	10,084	1398,378	746,700
-11,863	10,089	1397,558	746,255
-10,848	10,043	1396,744	745,575
-9,833	10,004	1395,965	744,951
-8,819	10,013	1394,968	744,428
-7,804	9,997	1394,092	743,857
-6,790	10,014	1393,047	743,347
-5,775	9,980	1392,186	742,702
-4,760	9,949	1391,095	741,950
-3,746	10,010	1389,965	741,598
-2,731	9,975	1389,216	741,007
-1,717	9,944	1388,546	740,478
-0,702	9,957	1386,658	739,503
0,313	14,061	1299,493	711,774
1,327	30,442	689,792	414,931
2,342	47,690	119,361	78,428
3,356	-0,769	16,417	8,178
4,371	4,191	3,492	1,797
5,386	-29,642	0,986	0,395
6,400	-200,000	0,139	0,498
7,415	285,664	-0,140	-0,178
8,429	151,399	-0,296	-0,285
9,444	54,077	-0,329	-0,223
10,459	56,755	-0,275	-0,188
11,473	-101,246	-0,346	-0,059
12,488	2,826	-0,264	-0,135
13,502	35,481	-0,370	-0,228
14,517	74,560	-0,291	-0,215
15,531	47,922	-0,367	-0,241
16,546	174,335	-0,198	-0,202
17,561	289,042	-0,325	-0,416
18,575	54,548	-0,227	-0,154
19,590	389,390	-0,130	-0,190
20,604	-89,762	-0,249	-0,051
21,619	3,862	-0,469	-0,241
22,634	39,447	-0,423	-0,266
23,648	604,243	-0,241	-0,424
24,663	0,805	-0,375	-0,189
25,677	98,566	-0,353	-0,287
26,692	13,403	-0,317	-0,173
27,707	86,974	-0,423	-0,329
28,721	98,904	-0,365	-0,297
29,736	210,019	-0,277	-0,306
30,750	103,120	-0,409	-0,337
31,765	-21,847	-0,465	-0,198
32,780	45,192	-0,338	-0,219
33,794	50,932	-0,365	-0,243
34,809	113,767	-0,380	-0,324
35,823	363,861	-0,289	-0,410
36,838	257,484	-0,331	-0,402
37,853	175,825	-0,325	-0,331
38,867	208,569	-0,303	-0,334
39,882	435,192	-0,254	-0,389
40,896	19,243	-0,376	-0,212
41,911	54,597	-0,387	-0,262
42,926	-1,857	-0,429	-0,212
43,940	-48,329	-0,478	-0,161
44,955	-14,017	-0,426	-0,193
45,969	-42,030	-0,325	-0,116
46,984	-26,730	-0,395	-0,162
47,999	23,237	-0,281	-0,162
49,013	114,730	-0,297	-0,255
50,028	-28,662	-0,428	-0,172
51,042	94,061	-0,347	-0,277
52,057	41,721	-0,356	-0,226
53,071	23,281	-0,366	-0,211
54,086	61,441	-0,323	-0,225
55,101	30,337	-0,323	-0,193
56,115	-24,162	-0,344	-0,143
57,130	38,108	-0,299	-0,186
58,144	5,383	-0,472	-0,244
59,159	-60,637	-0,392	-0,116
60,174	-41,335	-0,460	-0,165
61,188	161,472	-0,284	-0,279
62,203	204,828	-0,281	-0,306
63,217	58,698	-0,372	-0,256
64,232	3,328	-0,404	-0,206
65,247	44,044	-0,366	-0,235
66,261	79,638	-0,244	-0,184
67,276	-52,467	-0,297	-0,096
68,290	52,537	-0,302	-0,202
69,305	71,156	-0,369	-0,268
70,320	93,225	-0,285	-0,226
71,334	26,575	-0,288	-0,169
72,349	-33,403	-0,284	-0,110
73,363	-5,987	-0,294	-0,140
74,378	326,719	-0,270	-0,363
75,393	178,637	-0,320	-0,328
76,407	352,041	-0,208	-0,290
77,422	-41,792	-0,286	-0,102
78,436	-79,687	-0,245	-0,057
79,451	-37,351	-0,283	-0,105
80,466	99,546	-0,240	-0,195
81,480	81,154	-0,285	-0,215
82,495	-61,084	-0,413	-0,121
83,509	10,690	-0,363	-0,193
84,524	54,850	-0,319	-0,215
85,539	4,334	-0,248	-0,127
86,553	139,830	-0,298	-0,275
87,568	-73,743	-0,133	-0,034
88,582	45,277	-0,293	-0,189
89,597	141,027	-0,181	-0,167
90,611	-15,320	-0,275	-0,123
91,626	53,473	-0,265	-0,178
92,641	68,048	-0,320	-0,229
93,655	-29,312	-0,264	-0,105
94,670	-26,599	-0,378	-0,154
95,684	-17,038	-0,272	-0,120
96,699	-2,717	-0,324	-0,158
97,714	79,489	-0,222	-0,167
98,728	429,959	-0,168	-0,254
99,743	-68,197	-0,321	-0,087
100,757	203,194	-0,220	-0,238
101,772	73,633	-0,282	-0,207
102,787	185,052	-0,237	-0,246
103,801	-53,310	-0,339	-0,108
104,816	-67,518	-0,332	-0,090
105,830	-10,305	-0,237	-0,109
106,845	81,492	-0,173	-0,131
107,860	-33,510	-0,253	-0,097
108,874	148,904	-0,271	-0,257
109,889	-33,663	-0,352	-0,135
110,903	228,982	-0,339	-0,387
111,918	299,182	-0,204	-0,263
112,933	37,295	-0,326	-0,201
113,947	-16,913	-0,225	-0,099
114,962	412,368	-0,184	-0,273
115,976	800,000	-0,098	-0,216
116,991	198,407	-0,210	-0,225
118,006	89,447	-0,407	-0,317
119,020	45,613	-0,270	-0,174
120,035	-42,971	-0,234	-0,083
121,049	71,588	-0,221	-0,160
122,064	113,460	-0,270	-0,228
123,079	509,288	-0,151	-0,246
124,093	37,236	-0,273	-0,168
125,108	103,653	-0,277	-0,227
126,122	-45,484	-0,235	-0,081
127,137	229,643	-0,147	-0,168
128,151	-41,066	-0,332	-0,119
129,166	50,231	-0,166	-0,109
130,181	99,401	-0,184	-0,148
131,195	91,233	-0,250	-0,196
132,210	276,328	-0,183	-0,227
133,224	-5,343	-0,312	-0,149
134,239	36,438	-0,120	-0,074
135,254	6,080	-0,199	-0,102
136,268	526,913	-0,112	-0,184
137,283	-19,456	-0,339	-0,146
138,297	-73,384	-0,318	-0,080
139,312	292,070	-0,225	-0,286
140,327	138,796	-0,212	-0,194
141,341	206,784	-0,102	-0,111
142,356	-113,926	-0,271	-0,036
143,370	-119,533	-0,236	-0,028
144,385	-19,163	-0,360	-0,155
145,400	116,951	-0,246	-0,210
146,414	128,240	-0,302	-0,268
147,429	8,986	-0,350	-0,183
148,443	1,489	-0,276	-0,138
149,458	-66,068	-0,243	-0,067
150,473	4,787	-0,159	-0,081
151,487	-100,807	-0,205	0,035
152,502	97,479	-0,218	-0,174
153,516	76,180	-0,285	-0,210
154,531	71,117	-0,237	-0,170
155,546	-147,588	-0,237	-0,014
156,560	492,869	-0,101	-0,162
157,575	519,950	-0,145	-0,237
158,589	68,580	-0,342	-0,244
159,604	265,624	-0,179	-0,218
160,619	290,706	-0,211	-0,267
161,633	36,106	-0,376	-0,230
162,648	80,632	-0,222	-0,167
163,662	344,309	-0,145	-0,199
164,677	-42,823	-0,209	-0,073
165,692	119,999	-0,190	-0,164
166,706	9,420	-0,375	-0,196
167,721	0,526	-0,256	-0,127
168,735	-18,053	-0,228	-0,099
169,750	455,025	-0,131	-0,203
170,764	26,196	-0,231	-0,134
171,779	46,791	-0,185	-0,119
172,794	153,280	-0,148	-0,141
173,808	-30,486	-0,214	-0,084
174,823	197,673	-0,208	-0,221
175,837	104,559	-0,228	-0,186
176,852	120,107	-0,241	-0,208
177,867	-79,096	-0,308	-0,072
178,881	-139,948	-0,137	0,010
179,896	64,252	-0,300	-0,210
180,910	28,046	-0,211	-0,124
181,925	5,105	-0,205	-0,105
182,940	131,377	-0,220	-0,196
183,954	-40,605	-0,240	-0,086
184,969	219,775	-0,215	-0,240
185,983	256,153	-0,138	-0,165
186,998	125,390	-0,206	-0,180
188,013	-127,706	-0,229	0,023
189,027	-3,227	-0,153	0,074
190,042	453,497	-0,096	-0,148
191,056	89,178	-0,183	-0,141
192,071	16,457	-0,143	-0,078
193,086	96,780	-0,095	-0,076
194,100	259,264	-0,192	-0,230
195,115	558,745	-0,172	-0,289
196,129	-10,326	-0,166	-0,076
197,144	-30,078	-0,270	-0,106
198,159	-130,187	-0,174	-0,016
199,173	-37,328	-0,076	-0,028
200,188	-197,935	-0,331	-0,001
201,202	254,470	-0,096	-0,115
202,217	222,626	-0,148	-0,166
203,232	-30,130	-0,242	-0,095
204,246	-200,000	-0,050	-0,210
205,261	-200,000	-0,075	-0,268
206,275	666,961	-0,116	-0,208
207,290	-101,424	-0,243	-0,041
208,304	-70,525	-0,169	0,044
209,319	28,979	-0,212	-0,124
210,334	170,876	-0,260	-0,258
211,348	-77,616	-0,347	-0,083
212,363	-10,872	-0,226	-0,103
213,377	575,004	-0,132	-0,224
214,392	800,000	-0,049	-0,094
215,407	272,840	-0,138	-0,169
216,421	250,639	-0,232	-0,273
217,436	-25,960	-0,170	-0,069
218,450	27,748	-0,200	-0,116
219,465	-61,808	-0,224	-0,065
220,480	196,468	-0,235	-0,248
221,494	36,984	-0,238	-0,145
222,509	-61,551	-0,163	-0,047
223,523	-15,656	-0,176	-0,077
224,538	177,405	-0,231	-0,233
225,553	-31,365	-0,121	-0,047
226,567	-67,320	-0,224	-0,061
227,582	800,000	-0,071	-0,185
228,596	-200,000	-0,016	-0,182
229,611	214,991	-0,200	-0,219
230,626	-127,789	-0,234	-0,023
231,640	96,302	-0,202	-0,160
232,655	173,219	-0,245	-0,244
233,669	387,640	-0,177	-0,253
234,684	148,462	-0,173	-0,161
235,699	16,438	-0,146	-0,079
236,713	-20,049	-0,277	-0,117
237,728	10,004	-0,249	-0,130
238,742	-72,094	-0,191	-0,049
239,757	116,988	-0,243	-0,206
240,772	50,901	-0,146	-0,096
241,786	36,115	-0,180	-0,109
242,801	278,026	-0,228	-0,281
243,815	-136,958	-0,154	-0,012
244,830	-200,000	-0,036	-0,126
245,844	-61,738	-0,182	-0,052
246,859	86,365	-0,243	-0,185
247,874	800,000	-0,139	-0,275
248,888	428,659	-0,169	-0,253
249,903	59,768	-0,181	-0,123
250,917	-170,187	-0,180	0,004
251,932	-96,071	-0,143	-0,026
252,947	4,811	-0,155	-0,078
253,961	800,000	-0,084	-0,172
254,976	-8,601	-0,232	-0,107
255,990	-47,328	-0,166	-0,056
257,005	-80,812	-0,160	0,036
258,020	105,656	-0,084	-0,068
259,034	-25,298	-0,298	-0,121
260,049	-12,130	-0,092	-0,041
261,063	657,007	-0,091	-0,162
262,078	180,524	-0,124	-0,126
263,093	136,162	-0,164	-0,147
264,107	121,631	-0,125	-0,107
265,122	48,414	-0,080	-0,052
266,136	-200,000	-0,014	-0,175
267,151	95,647	-0,256	-0,201
268,166	-200,000	-0,015	-0,103
269,180	448,954	-0,133	-0,203
270,195	330,350	-0,169	-0,225
271,209	800,000	-0,065	-0,169
272,224	-200,000	-0,007	-0,118
273,239	-106,516	-0,129	-0,020
274,253	12,113	-0,181	-0,096
275,268	-38,305	-0,235	-0,085
276,282	-37,108	-0,214	-0,079
277,297	281,066	-0,174	-0,215
278,312	800,000	-0,095	-0,201
279,326	-24,110	-0,154	0,063
280,341	116,696	-0,183	0,155
281,355	-122,112	-0,176	-0,020
282,370	42,596	-0,237	-0,148
283,384	300,151	-0,188	-0,240
284,399	-200,000	-0,048	-0,181
285,414	211,945	-0,213	-0,231
286,428	76,473	-0,115	-0,084
287,443	-108,844	0,035	-0,005
288,457	196,577	-0,124	-0,131
289,472	-131,322	-0,152	-0,014
290,487	800,000	-0,115	-0,268
291,501	432,680	-0,158	-0,237
292,516	-200,000	0,004	-0,147
293,530	-132,956	-0,228	-0,020
294,545	-151,290	-0,164	0,008
295,560	-7,463	-0,101	-0,047
296,574	-98,364	-0,132	-0,023
297,589	331,157	-0,163	-0,216
298,603	800,000	-0,073	-0,145
299,618	-200,000	-0,037	-0,126
300,633	47,703	-0,102	-0,065
301,647	122,309	-0,080	-0,068
302,662	800,000	-0,096	-0,188
303,676	346,400	-0,170	-0,230
304,691	13,644	-0,212	-0,113
305,706	-59,776	-0,200	-0,059
306,720	67,713	-0,154	-0,108
307,735	-200,000	-0,065	-0,241
308,749	30,213	-0,012	-0,007
309,764	800,000	-0,030	-0,072
310,779	58,070	-0,086	-0,057
311,793	509,931	-0,099	-0,158
312,808	800,000	-0,091	-0,206
313,822	-200,000	-0,046	-0,209
314,837	655,135	-0,059	-0,105
315,852	123,557	-0,004	-0,004
316,866	38,538	-0,072	-0,044
317,881	-80,657	-0,121	-0,027
318,895	-26,966	-0,132	-0,053
319,910	67,608	-0,184	-0,129
320,925	58,788	-0,128	-0,086
321,939	566,888	-0,141	-0,235
322,954	425,772	-0,022	-0,032
323,968	-31,410	-0,106	-0,041
324,983	22,628	-0,128	-0,071
325,997	-200,000	-0,017	-0,104
327,012	317,498	-0,090	-0,117
328,027	-54,145	-0,216	-0,067
329,041	-79,515	-0,168	0,039
330,056	592,906	-0,034	-0,058
331,070	123,807	-0,086	-0,074
332,085	686,960	-0,052	-0,094
333,100	200,187	-0,122	-0,129
334,114	132,909	-0,133	-0,118
335,129	261,430	-0,197	-0,234
336,143	78,912	-0,171	-0,126
337,158	177,292	-0,124	-0,124
338,173	17,320	-0,025	0,013
339,187	144,807	-0,056	-0,052
340,202	800,000	-0,067	-0,192
341,216	800,000	-0,049	-0,103
342,231	123,511	-0,214	-0,184
343,246	167,465	-0,081	-0,079
344,260	-46,062	-0,022	0,007
345,275	118,234	-0,163	-0,138
346,289	28,452	-0,103	-0,060
347,304	-105,033	-0,204	-0,032
348,319	-29,663	-0,298	-0,116
349,333	82,249	-0,161	-0,119
350,348	715,716	-0,095	-0,174
351,362	-81,389	-0,108	-0,024
352,377	88,340	-0,156	-0,118
353,392	26,541	-0,131	0,075
354,406	103,085	-0,240	-0,192
355,421	208,977	1310,703	1404,991
356,435	160,817	1470,920	1405,457
