DTS Sentinel unit serial number:	SN410029Multiplexer serial number:	ORYXHardware model number:	OX2-SRSoftware version number:	ORYX F/W v4,00 Oryx Data Collector v3.7.2.0data status	okinstallation	B3 Nyhavnadifferential loss correction	single-endedforward channel	channel 1reverse channel	N/Adate	2023/12/05time	03:47:30forward acquisition time	300,00reverse acquisition time	0,00gamma	499,1914k internal	0,3201k external	0,3201temperature offset calibration	1,0000default loss term (dB/km)	0,3820temperature slope calibration	1,0000multiplexer offset coefficient	1,0000multiplexer slope coefficient	1,0000fibre end	0,00T internal ref (°C)	14,13T ext. ref 1 (°C)	-0,63T ext. ref 2 (°C)	-0,67length (m)	temperature (°C)	Stokes	anti-Stokes-744,400	223,571	-0,245	-0,288
-743,385	-200,000	-0,038	0,295
-742,371	-51,793	-0,266	-0,090
-741,356	-200,000	0,067	0,223
-740,342	181,029	-0,176	-0,188
-739,327	-200,000	-0,111	0,398
-738,312	78,625	-0,262	-0,204
-737,298	-200,000	-0,055	0,324
-736,283	107,832	-0,282	-0,244
-735,269	800,000	-0,117	0,237
-734,254	98,016	-0,143	-0,119
-733,239	80,307	-0,273	0,213
-732,225	298,419	-0,148	-0,199
-731,210	-200,000	0,026	0,137
-730,196	7,697	-0,034	0,019
-729,181	-55,019	-0,086	-0,028
-728,167	34,369	0,064	-0,040
-727,152	-15,780	-0,021	0,010
-726,137	97,583	0,031	0,026
-725,123	-200,000	-0,030	-0,137
-724,108	230,076	-0,102	-0,121
-723,094	-106,211	-0,162	-0,026
-722,079	221,028	-0,095	-0,111
-721,064	-171,037	-0,117	-0,003
-720,050	476,181	0,029	-0,047
-719,035	-131,538	0,104	-0,010
-718,021	-200,000	0,010	0,043
-717,006	-45,254	-0,046	-0,016
-715,991	-177,194	-0,099	-0,002
-714,977	38,527	-0,094	0,061
-713,962	-121,170	-0,139	-0,017
-712,948	-200,000	-0,000	-0,023
-711,933	152,730	-0,043	0,043
-710,918	-44,115	-0,107	-0,039
-709,904	-200,000	-0,003	-0,020
-708,889	36,517	-0,090	-0,057
-707,875	-200,000	0,002	-0,028
-706,860	750,369	0,047	0,092
-705,845	-200,000	-0,014	0,083
-704,831	-200,000	0,033	0,128
-703,816	-200,000	-0,022	-0,086
-702,802	800,000	0,006	-0,013
-701,787	800,000	0,011	0,031
-700,772	800,000	0,076	0,162
-699,758	-200,000	-0,005	-0,114
-698,743	492,124	-0,027	0,046
-697,729	-168,185	0,035	0,001
-696,714	124,043	0,044	0,040
-695,699	266,635	-0,003	-0,003
-694,685	140,806	0,050	0,048
-693,670	-81,719	-0,080	-0,019
-692,656	-111,970	-0,175	0,025
-691,641	146,133	0,036	0,036
-690,627	800,000	0,019	0,047
-689,612	-200,000	-0,018	-0,062
-688,597	-19,236	-0,058	0,026
-687,583	-50,650	0,055	0,019
-686,568	132,313	-0,064	-0,060
-685,554	59,161	0,054	-0,038
-684,539	478,978	0,020	-0,033
-683,524	429,930	-0,043	0,068
-682,510	-92,542	-0,159	0,032
-681,495	171,768	-0,064	-0,067
-680,481	355,252	-0,058	0,084
-679,466	800,000	-0,047	-0,117
-678,451	30,158	-0,180	-0,111
-677,437	-19,689	-0,095	0,043
-676,422	297,103	-0,047	0,063
-675,408	464,992	0,038	-0,061
-674,393	-200,000	0,002	0,009
-673,378	-200,000	-0,007	-0,035
-672,364	-200,000	-0,019	0,065
-671,349	-200,000	-0,027	-0,121
-670,335	-94,167	-0,139	-0,027
-669,320	-200,000	0,009	-0,039
-668,305	800,000	-0,019	0,057
-667,291	233,612	0,052	0,062
-666,276	-127,763	-0,195	-0,020
-665,262	-200,000	0,001	-0,037
-664,247	800,000	-0,010	0,022
-663,232	-53,521	-0,142	-0,047
-662,218	40,927	0,104	0,068
-661,203	-68,476	-0,057	-0,016
-660,189	-3,479	-0,122	0,061
-659,174	-99,733	0,006	-0,001
-658,159	87,174	0,038	0,031
-657,145	-200,000	0,008	0,045
-656,130	-81,876	-0,102	-0,024
-655,116	79,115	-0,114	-0,089
-654,101	-29,215	0,038	0,016
-653,086	360,164	-0,033	0,048
-652,072	-200,000	0,020	-0,120
-651,057	87,156	-0,143	-0,114
-650,043	-3,699	-0,063	-0,031
-649,028	76,874	-0,128	-0,098
-648,014	424,712	-0,060	-0,095
-646,999	-200,000	-0,010	0,096
-645,984	-200,000	0,017	0,099
-644,970	228,615	-0,053	0,062
-643,955	10,950	-0,070	0,039
-642,941	-61,013	0,030	-0,009
-641,926	-200,000	0,011	-0,041
-640,911	327,182	-0,017	-0,023
-639,897	567,397	-0,047	-0,084
-638,882	800,000	0,028	-0,057
-637,868	-200,000	0,024	0,146
-636,853	-200,000	0,016	0,147
-635,838	-200,000	0,010	-0,088
-634,824	39,560	-0,072	-0,047
-633,809	-70,268	-0,104	-0,028
-632,795	-56,953	0,140	-0,045
-631,780	32,882	0,199	0,125
-630,765	800,000	0,042	-0,093
-629,751	249,569	-0,135	-0,167
-628,736	-92,234	-0,093	0,019
-627,722	-13,983	0,013	0,006
-626,707	-41,275	0,090	0,033
-625,692	107,120	0,078	-0,067
-624,678	127,623	-0,072	0,067
-623,663	-49,920	-0,087	0,030
-622,649	579,378	-0,055	-0,098
-621,634	327,056	-0,108	-0,150
-620,619	26,347	0,027	-0,016
-619,605	-8,332	0,081	-0,039
-618,590	-200,000	-0,018	-0,110
-617,576	132,985	0,156	-0,146
-616,561	800,000	-0,037	-0,077
-615,546	-99,331	-0,052	-0,009
-614,532	29,228	0,057	0,035
-613,517	55,503	0,126	0,088
-612,503	173,032	-0,098	-0,102
-611,488	609,254	0,027	-0,049
-610,474	800,000	0,034	0,098
-609,459	622,226	0,075	-0,136
-608,444	800,000	-0,051	-0,142
-607,430	-200,000	-0,043	-0,165
-606,415	800,000	0,043	-0,110
-605,401	124,620	-0,044	-0,040
-604,386	-170,485	0,088	-0,002
-603,371	-122,933	-0,062	-0,007
-602,357	77,651	-0,128	0,098
-601,342	6,917	-0,054	-0,029
-600,328	267,740	-0,093	-0,118
-599,313	248,243	0,069	-0,085
-598,298	-200,000	0,008	-0,172
-597,284	172,118	-0,073	0,076
-596,269	-200,000	0,006	-0,082
-595,255	-52,067	0,051	0,017
-594,240	-200,000	0,007	-0,061
-593,225	-26,728	-0,077	-0,033
-592,211	-200,000	-0,034	-0,171
-591,196	-11,971	0,163	-0,077
-590,182	125,204	-0,136	-0,124
-589,167	115,775	-0,022	0,020
-588,152	53,461	-0,087	0,060
-587,138	-200,000	0,008	-0,065
-586,123	142,144	-0,155	-0,149
-585,109	25,366	-0,089	0,053
-584,094	-102,318	0,080	0,014
-583,079	-200,000	0,041	0,166
-582,065	-135,304	-0,069	0,006
-581,050	-200,000	0,011	0,053
-580,036	26,868	-0,156	-0,094
-579,021	93,067	0,015	0,012
-578,006	36,605	-0,057	-0,036
-576,992	-100,164	0,172	-0,031
-575,977	-200,000	-0,014	-0,056
-574,963	298,535	0,067	0,089
-573,948	-200,000	0,005	0,076
-572,934	159,927	0,024	-0,024
-571,919	49,747	-0,114	0,078
-570,904	110,125	-0,060	-0,052
-569,890	370,417	-0,046	0,067
-568,875	-200,000	-0,021	0,067
-567,861	800,000	-0,041	0,095
-566,846	105,508	0,017	0,014
-565,831	82,124	-0,135	0,106
-564,817	228,185	-0,053	0,062
-563,802	800,000	-0,039	-0,105
-562,788	-168,506	-0,049	-0,001
-561,773	-200,000	0,004	0,067
-560,758	5,134	-0,096	0,051
-559,744	71,017	0,034	0,025
-558,729	800,000	-0,053	0,110
-557,715	800,000	0,030	-0,061
-556,700	152,719	-0,048	0,047
-555,685	800,000	-0,038	0,103
-554,671	-112,101	0,035	0,005
-553,656	-4,129	0,061	0,030
-552,642	-104,049	0,120	-0,020
-551,627	-200,000	-0,007	0,055
-550,612	-9,200	-0,090	0,043
-549,598	-169,467	-0,105	-0,003
-548,583	-111,121	-0,036	-0,005
-547,569	211,876	0,010	-0,011
-546,554	-132,018	0,021	-0,002
-545,539	143,915	-0,030	-0,029
-544,525	-200,000	-0,024	0,093
-543,510	-9,592	-0,029	-0,014
-542,496	800,000	-0,073	-0,165
-541,481	-63,876	0,074	-0,022
-540,466	194,745	0,096	-0,105
-539,452	-96,406	0,118	-0,022
-538,437	72,048	0,027	-0,020
-537,423	-105,041	-0,088	0,014
-536,408	-66,747	-0,174	-0,049
-535,393	-4,961	-0,065	0,032
-534,379	-128,112	-0,074	0,008
-533,364	41,883	0,152	-0,099
-532,350	-135,405	0,031	0,003
-531,335	112,267	0,117	-0,102
-530,321	216,260	0,114	0,131
-529,306	-21,933	-0,036	-0,016
-528,291	-200,000	0,009	0,033
-527,277	-85,278	-0,181	-0,041
-526,262	70,002	0,121	-0,090
-525,248	28,953	0,078	-0,048
-524,233	-200,000	0,025	-0,131
-523,218	800,000	0,041	0,095
-522,204	-65,139	-0,106	0,031
-521,189	-16,598	0,080	-0,037
-520,175	800,000	-0,039	-0,090
-519,160	542,232	-0,004	0,006
-518,145	14,922	0,076	0,043
-517,131	800,000	-0,011	-0,023
-516,116	-6,359	0,066	-0,032
-515,102	86,077	0,059	-0,047
-514,087	-13,061	-0,047	-0,022
-513,072	93,211	0,003	0,003
-512,058	-200,000	0,015	-0,125
-511,043	22,687	-0,096	0,057
-510,029	187,651	0,068	0,073
-509,014	-66,827	-0,146	-0,041
-507,999	405,652	0,047	0,072
-506,985	10,852	-0,071	0,039
-505,970	126,035	-0,052	-0,048
-504,956	54,392	0,034	-0,023
-503,941	-4,576	0,015	-0,007
-502,926	-161,202	-0,052	0,002
-501,912	-67,956	0,129	0,036
-500,897	201,954	0,066	0,073
-499,883	-134,296	-0,085	0,007
-498,868	147,989	0,030	0,029
-497,853	222,843	-0,080	-0,093
-496,839	336,490	0,025	0,036
-495,824	-200,000	0,122	-0,000
-494,810	159,458	-0,047	0,048
-493,795	-200,000	-0,008	0,071
-492,781	573,434	-0,028	0,049
-491,766	-200,000	-0,003	-0,043
-490,751	601,227	0,034	-0,062
-489,737	63,815	-0,112	0,081
-488,722	-153,356	0,050	0,002
-487,708	332,092	-0,047	0,066
-486,693	-200,000	0,008	0,069
-485,678	220,674	0,109	0,126
-484,664	-200,000	0,012	-0,043
-483,649	-82,725	-0,127	0,029
-482,635	33,800	0,039	0,025
-481,620	38,410	0,078	-0,050
-480,605	792,842	-0,023	0,047
-479,591	19,015	0,129	-0,074
-478,576	-200,000	0,007	-0,034
-477,562	-200,000	0,000	-0,099
-476,547	800,000	0,026	0,065
-475,532	-42,776	0,097	-0,035
-474,518	-80,485	0,107	0,026
-473,503	-200,000	-0,011	0,085
-472,489	-3,234	0,071	-0,035
-471,474	-67,430	-0,124	0,035
-470,459	-200,000	0,003	-0,012
-469,445	48,131	0,046	-0,031
-468,430	-0,417	0,116	0,059
-467,416	-200,000	-0,011	-0,038
-466,401	272,291	0,131	0,167
-465,386	800,000	-0,018	-0,043
-464,372	211,330	0,006	-0,007
-463,357	-200,000	-0,012	0,185
-462,343	282,777	-0,059	-0,076
-461,328	-43,845	0,127	0,046
-460,313	800,000	0,042	0,133
-459,299	-108,368	0,110	-0,017
-458,284	-167,669	0,127	0,004
-457,270	-124,187	0,162	0,018
-456,255	38,590	-0,047	0,030
-455,241	-146,284	-0,187	-0,012
-454,226	-83,054	0,095	-0,022
-453,211	800,000	0,025	0,057
-452,197	-200,000	0,000	-0,075
-451,182	3,536	-0,007	-0,004
-450,168	171,874	0,042	0,044
-449,153	363,398	-0,072	0,104
-448,138	370,232	0,042	-0,061
-447,124	40,756	-0,053	0,034
-446,109	-23,513	0,118	-0,051
-445,095	47,004	0,051	0,034
-444,080	-200,000	0,006	-0,102
-443,065	-79,931	-0,014	0,003
-442,051	73,867	0,035	0,026
-441,036	-40,089	-0,122	0,045
-440,022	800,000	-0,057	0,130
-439,007	-76,636	-0,068	-0,017
-437,992	-137,028	0,077	0,006
-436,978	-185,466	-0,134	-0,001
-435,963	729,929	0,037	0,071
-434,949	177,378	-0,017	0,017
-433,934	-138,965	-0,101	0,008
-432,919	748,039	-0,107	-0,208
-431,905	-51,213	0,057	-0,019
-430,890	800,000	0,037	-0,107
-429,876	-62,919	0,146	0,043
-428,861	176,214	-0,045	0,047
-427,846	-200,000	-0,031	0,142
-426,832	-31,090	-0,099	-0,040
-425,817	-200,000	-0,022	-0,178
-424,803	399,882	0,050	-0,075
-423,788	239,128	0,039	0,047
-422,773	-200,000	0,015	0,088
-421,759	-93,637	-0,115	0,023
-420,744	800,000	-0,054	0,109
-419,730	-112,286	-0,087	0,012
-418,715	691,564	-0,039	-0,073
-417,701	-66,799	-0,114	0,032
-416,686	461,187	-0,018	0,030
-415,671	-200,000	0,010	0,052
-414,657	91,954	0,146	0,118
-413,642	-79,478	-0,047	0,011
-412,628	-200,000	0,002	0,050
-411,613	-26,027	-0,060	-0,025
-410,598	95,403	-0,016	0,013
-409,584	-142,654	0,085	-0,006
-408,569	-200,000	-0,016	-0,056
-407,555	-27,170	0,070	0,029
-406,540	168,307	-0,039	0,040
-405,525	388,321	-0,071	-0,106
-404,511	-14,429	-0,103	-0,047
-403,496	800,000	0,040	-0,082
-402,482	-51,616	0,069	-0,023
-401,467	418,732	0,045	0,069
-400,452	-44,537	0,064	0,023
-399,438	188,706	-0,036	0,039
-398,423	-91,571	-0,052	0,010
-397,409	-97,122	0,012	-0,002
-396,394	-117,578	-0,141	-0,018
-395,379	800,000	0,046	0,117
-394,365	-1,581	0,094	0,047
-393,350	67,005	0,024	-0,018
-392,336	-94,928	0,178	-0,034
-391,321	273,498	0,052	-0,066
-390,306	-6,118	-0,009	-0,004
-389,292	-200,000	0,025	0,086
-388,277	391,361	0,011	0,017
-387,263	100,992	-0,066	0,055
-386,248	800,000	0,023	-0,046
-385,233	57,522	0,096	0,067
-384,219	-200,000	-0,030	0,136
-383,204	158,389	-0,069	0,068
-382,190	-200,000	0,017	0,100
-381,175	732,032	0,058	0,111
-380,160	-68,917	0,128	0,035
-379,146	114,925	0,080	-0,070
-378,131	-200,000	-0,031	0,127
-377,117	43,250	0,078	0,051
-376,102	800,000	-0,016	0,047
-375,088	-58,426	-0,141	0,044
-374,073	-64,286	0,205	0,060
-373,058	137,840	0,018	-0,017
-372,044	-109,381	0,093	-0,014
-371,029	-200,000	0,010	0,138
-370,015	-200,000	0,032	-0,136
-369,000	348,447	-0,117	-0,166
-367,985	179,904	0,071	-0,074
-366,971	-200,000	0,010	0,129
-365,956	-94,433	0,070	-0,014
-364,942	-200,000	-0,006	0,047
-363,927	-19,891	0,134	-0,059
-362,912	-89,201	0,162	0,034
-361,898	54,150	-0,121	-0,083
-360,883	-200,000	0,046	-0,155
-359,869	-125,972	0,102	-0,011
-358,854	800,000	0,065	0,168
-357,839	-138,512	0,053	-0,004
-356,825	135,112	0,026	-0,024
-355,810	-200,000	0,017	0,132
-354,796	318,305	0,035	0,047
-353,781	-113,578	-0,105	-0,015
-352,766	-200,000	0,017	-0,095
-351,752	-6,005	0,145	-0,071
-350,737	319,272	0,015	0,020
-349,723	-8,307	0,057	0,028
-348,708	-140,092	0,035	-0,003
-347,693	-72,954	-0,042	0,011
-346,679	-200,000	0,009	-0,059
-345,664	-27,733	0,053	-0,022
-344,650	42,488	0,040	0,026
-343,635	-156,384	0,115	0,005
-342,620	234,406	-0,033	0,039
-341,606	-200,000	0,027	0,116
-340,591	-7,369	0,058	-0,028
-339,577	-200,000	0,000	-0,021
-338,562	201,313	0,044	-0,049
-337,548	443,353	0,019	0,029
-336,533	800,000	0,023	0,070
-335,518	-176,298	-0,061	-0,001
-334,504	346,932	0,001	-0,001
-333,489	68,275	-0,157	-0,115
-332,475	24,665	-0,065	0,038
-331,460	-200,000	-0,005	-0,156
-330,445	56,330	-0,032	0,022
-329,431	-28,013	-0,182	0,075
-328,416	-92,824	0,158	0,031
-327,402	283,062	0,064	-0,082
-326,387	-77,020	-0,091	0,022
-325,372	-58,199	-0,067	-0,021
-324,358	-121,873	0,055	0,006
-323,343	800,000	0,047	-0,135
-322,329	-112,685	0,107	0,015
-321,314	-5,411	0,088	0,043
-320,299	48,783	-0,103	0,069
-319,285	56,948	-0,035	-0,025
-318,270	300,210	-0,038	0,050
-317,256	-200,000	0,012	-0,067
-316,241	180,830	0,078	0,082
-315,226	-200,000	0,021	0,096
-314,212	800,000	0,039	0,098
-313,197	-200,000	0,052	0,244
-312,183	632,787	-0,065	0,118
-311,168	-200,000	-0,019	-0,107
-310,153	177,695	-0,109	-0,113
-309,139	76,472	0,076	0,058
-308,124	-29,623	-0,091	0,037
-307,110	152,127	0,071	0,070
-306,095	800,000	-0,041	0,081
-305,080	105,073	-0,085	0,072
-304,066	64,071	0,076	-0,054
-303,051	254,706	-0,104	0,128
-302,037	201,350	0,021	-0,023
-301,022	-89,182	-0,065	-0,014
-300,008	-156,136	0,093	-0,004
-298,993	-200,000	0,033	0,158
-297,978	800,000	0,012	0,027
-296,964	-13,694	0,028	0,013
-295,949	-100,670	0,022	0,004
-294,935	-158,330	-0,112	-0,005
-293,920	23,819	0,077	-0,045
-292,905	-10,646	0,062	-0,029
-291,891	-200,000	0,009	0,051
-290,876	-200,000	0,016	0,093
-289,862	-200,000	0,015	-0,051
-288,847	-174,311	-0,156	-0,003
-287,832	-88,446	0,057	-0,012
-286,818	-16,859	-0,084	0,038
-285,803	-92,288	0,075	0,015
-284,789	-200,000	-0,002	-0,075
-283,774	-200,000	-0,014	0,109
-282,759	800,000	-0,028	-0,067
-281,745	197,072	0,007	-0,007
-280,730	155,396	-0,011	0,011
-279,716	169,097	-0,013	0,013
-278,701	800,000	-0,045	0,111
-277,686	450,568	0,041	-0,064
-276,672	-200,000	-0,025	0,191
-275,657	152,433	-0,042	-0,041
-274,643	63,016	0,040	-0,028
-273,628	-200,000	-0,016	-0,163
-272,613	-98,243	-0,016	-0,003
-271,599	139,228	0,030	0,028
-270,584	359,993	0,088	-0,126
-269,570	411,745	-0,034	0,052
-268,555	-111,422	-0,146	0,021
-267,540	164,139	-0,055	0,056
-266,526	-200,000	-0,042	0,173
-265,511	-127,116	-0,123	-0,013
-264,497	800,000	0,035	-0,081
-263,482	-54,741	-0,070	-0,023
-262,467	507,913	-0,089	0,148
-261,453	155,748	0,038	0,038
-260,438	800,000	-0,034	0,072
-259,424	415,435	-0,064	-0,097
-258,409	189,219	-0,129	0,139
-257,395	-88,742	-0,048	0,010
-256,380	37,925	0,074	0,047
-255,365	-200,000	-0,006	-0,054
-254,351	-117,913	-0,026	0,003
-253,336	-48,326	-0,108	-0,037
-252,322	121,491	0,017	-0,015
-251,307	586,395	-0,046	0,080
-250,292	800,000	0,009	0,021
-249,278	-200,000	-0,013	-0,070
-248,263	-200,000	0,010	0,099
-247,249	334,085	-0,048	-0,066
-246,234	-200,000	-0,008	-0,035
-245,219	800,000	0,031	-0,065
-244,205	800,000	-0,038	-0,111
-243,190	-200,000	0,002	-0,054
-242,176	-121,135	-0,067	-0,008
-241,161	-42,292	0,056	0,020
-240,146	-52,118	-0,124	-0,041
-239,132	4,461	-0,113	-0,059
-238,117	200,625	-0,056	0,061
-237,103	25,255	-0,111	0,065
-236,088	800,000	0,037	-0,078
-235,073	-25,320	0,069	-0,029
-234,059	275,845	-0,075	0,095
-233,044	-200,000	0,015	0,120
-232,030	44,469	0,164	0,107
-231,015	75,805	-0,037	0,028
-230,000	-200,000	0,011	-0,186
-228,986	-106,049	0,055	-0,009
-227,971	167,476	-0,086	-0,087
-226,957	-200,000	0,003	0,009
-225,942	517,022	-0,041	0,069
-224,927	800,000	-0,006	0,016
-223,913	606,053	-0,071	-0,127
-222,898	-59,231	0,126	0,038
-221,884	76,064	0,035	0,026
-220,869	301,062	0,046	0,061
-219,855	-200,000	-0,034	0,134
-218,840	67,111	-0,112	0,082
-217,825	-200,000	-0,002	-0,075
-216,811	-200,000	-0,030	-0,151
-215,796	-121,799	-0,102	-0,012
-214,782	-166,019	0,051	-0,002
-213,767	-200,000	-0,009	0,076
-212,752	-8,558	0,044	0,021
-211,738	800,000	0,064	-0,144
-210,723	65,919	-0,046	0,033
-209,709	-200,000	-0,020	-0,123
-208,694	-200,000	0,007	-0,247
-207,679	-200,000	0,035	0,114
-206,665	-43,011	0,050	0,018
-205,650	237,258	0,046	-0,054
-204,636	146,249	0,100	-0,095
-203,621	18,522	0,037	-0,021
-202,606	55,898	0,067	0,046
-201,592	179,871	-0,119	-0,124
-200,577	800,000	-0,116	-0,257
-199,563	39,148	0,051	0,032
-198,548	-13,248	0,124	0,057
-197,533	55,329	-0,066	0,045
-196,519	45,969	-0,118	0,078
-195,504	23,330	-0,127	-0,074
-194,490	-200,000	0,003	-0,050
-193,475	24,742	0,040	-0,023
-192,460	77,252	-0,062	-0,047
-191,446	-89,694	0,045	0,009
-190,431	795,504	0,068	0,134
-189,417	-31,147	0,146	-0,058
-188,402	509,901	-0,013	0,022
-187,387	800,000	0,016	0,045
-186,373	-200,000	-0,010	-0,162
-185,358	-200,000	0,028	0,097
-184,344	-200,000	0,023	0,082
-183,329	-200,000	-0,014	0,109
-182,315	-200,000	0,014	-0,112
-181,300	137,198	0,074	0,069
-180,285	-200,000	-0,037	-0,204
-179,271	21,938	-0,161	-0,093
-178,256	5,117	0,053	-0,028
-177,242	157,958	0,128	0,126
-176,227	-79,115	0,161	0,039
-175,212	550,535	-0,019	-0,033
-174,198	-200,000	-0,008	0,130
-173,183	743,002	-0,027	-0,052
-172,169	-200,000	-0,008	-0,041
-171,154	-86,753	-0,174	-0,038
-170,139	-16,064	0,065	0,029
-169,125	231,135	0,033	-0,039
-168,110	-200,000	-0,001	0,006
-167,096	-87,912	0,140	0,030
-166,081	-68,716	-0,135	0,037
-165,066	-200,000	-0,019	-0,141
-164,052	241,166	0,060	0,071
-163,037	-200,000	-0,014	-0,096
-162,023	-134,768	-0,042	-0,004
-161,008	350,656	-0,022	-0,031
-159,993	-21,487	0,027	-0,012
-158,979	152,492	0,084	-0,082
-157,964	-200,000	-0,012	-0,086
-156,950	233,731	0,037	-0,043
-155,935	208,996	-0,137	0,153
-154,920	28,023	0,149	-0,089
-153,906	380,191	-0,027	0,039
-152,891	400,646	0,043	-0,064
-151,877	-161,204	-0,071	0,003
-150,862	800,000	0,073	-0,162
-149,847	800,000	0,042	-0,096
-148,833	800,000	0,047	0,094
-147,818	-48,412	0,072	0,025
-146,804	-200,000	0,014	0,080
-145,789	16,228	-0,079	-0,044
-144,775	-122,862	0,036	0,004
-143,760	800,000	-0,014	-0,032
-142,745	-77,505	0,097	-0,024
-141,731	800,000	-0,050	-0,139
-140,716	-102,479	0,084	-0,014
-139,702	101,728	0,205	0,170
-138,687	429,814	0,061	0,094
-137,672	24,279	0,029	0,017
-136,658	438,697	0,046	-0,071
-135,643	-174,076	0,097	-0,002
-134,629	-107,474	-0,146	0,022
-133,614	-10,776	0,134	0,063
-132,599	80,110	0,038	0,029
-131,585	428,068	0,037	0,057
-130,570	258,144	0,067	-0,083
-129,556	173,243	-0,064	-0,066
-128,541	-200,000	0,041	-0,194
-127,526	-136,401	0,045	-0,004
-126,512	-73,228	0,161	-0,042
-125,497	800,000	0,029	-0,063
-124,483	-200,000	-0,013	0,068
-123,468	61,061	-0,033	0,024
-122,453	184,673	-0,082	0,086
-121,439	178,757	-0,063	0,065
-120,424	664,614	-0,031	0,057
-119,410	-73,572	-0,012	-0,003
-118,395	-200,000	0,005	0,026
-117,380	-127,152	-0,062	0,006
-116,366	421,834	-0,018	0,028
-115,351	234,845	0,099	-0,116
-114,337	60,095	-0,030	-0,021
-113,322	42,334	-0,032	0,021
-112,307	-17,366	-0,049	0,022
-111,293	-79,566	0,090	-0,021
-110,278	-13,282	0,118	0,054
-109,264	800,000	0,034	0,082
-108,249	-200,000	-0,002	0,161
-107,234	116,091	-0,073	0,063
-106,220	26,798	0,163	-0,096
-105,205	122,619	0,032	-0,028
-104,191	291,465	-0,077	-0,100
-103,176	-200,000	0,008	0,040
-102,162	-200,000	-0,010	0,072
-101,147	800,000	0,018	-0,040
-100,132	-45,237	-0,008	0,003
-99,118	429,274	-0,036	-0,056
-98,103	129,763	-0,070	-0,063
-97,089	-200,000	0,105	-0,000
-96,074	-132,236	-0,095	0,009
-95,059	64,611	-0,046	-0,033
-94,045	800,000	0,042	-0,104
-93,030	-200,000	0,043	-0,190
-92,016	-46,585	-0,081	0,028
-91,001	306,747	0,049	0,065
-89,986	-200,000	0,001	-0,048
-88,972	569,860	0,065	-0,112
-87,957	93,714	-0,017	0,014
-86,943	268,805	-0,041	0,051
-85,928	-200,000	0,032	0,123
-84,913	-200,000	-0,026	-0,085
-83,899	-200,000	0,011	0,049
-82,884	-200,000	0,039	0,155
-81,870	400,675	0,028	-0,042
-80,855	723,063	0,035	0,067
-79,840	177,091	-0,078	0,080
-78,826	666,935	0,055	-0,101
-77,811	246,904	-0,048	-0,058
-76,797	35,513	0,073	0,046
-75,782	-200,000	-0,006	-0,095
-74,767	-145,768	0,110	-0,007
-73,753	-200,000	-0,018	0,066
-72,738	487,005	-0,074	0,119
-71,724	303,384	0,041	-0,053
-70,709	413,498	-0,109	-0,164
-69,694	800,000	-0,010	-0,027
-68,680	212,467	0,035	-0,039
-67,665	337,603	-0,081	-0,111
-66,651	-200,000	0,005	-0,115
-65,636	-200,000	-0,004	-0,050
-64,622	800,000	-0,008	-0,021
-63,607	-156,260	-0,160	0,007
-62,592	800,000	0,044	-0,115
-61,578	-200,000	-0,027	-0,154
-60,563	0,520	0,038	0,019
-59,549	220,770	0,017	0,019
-58,534	-31,792	-1,511	-0,597
-57,519	345,597	-1,459	-2,035
-56,505	-200,000	-0,632	-4,729
-55,490	119,567	1,072	0,940
-54,476	800,000	4,941	11,463
-53,461	-200,000	18,685	303,978
-52,446	800,000	735,838	2288,590
-51,432	566,861	1651,795	2849,536
-50,417	78,940	1669,833	1264,211
-49,403	22,151	1542,652	889,171
-48,388	16,016	1465,592	814,963
-47,373	17,717	1455,510	817,537
-46,359	16,861	1445,889	807,998
-45,344	14,284	1441,117	792,968
-44,330	14,193	1439,409	791,560
-43,315	14,181	1437,563	790,455
-42,300	14,211	1436,054	789,738
-41,286	14,236	1434,845	789,160
-40,271	14,206	1433,545	788,269
-39,257	14,224	1432,248	787,613
-38,242	14,238	1430,679	786,784
-37,227	14,297	1429,588	786,434
-36,213	14,216	1428,385	785,355
-35,198	14,271	1427,033	784,843
-34,184	14,279	1426,603	784,612
-33,169	14,180	1424,988	783,225
-32,154	14,219	1423,979	782,821
-31,140	14,249	1422,634	782,194
-30,125	14,228	1421,635	781,517
-29,111	14,240	1420,297	780,808
-28,096	14,234	1419,318	780,208
-27,082	14,165	1418,224	779,252
-26,067	14,189	1417,074	778,701
-25,052	14,192	1416,017	778,101
-24,038	14,111	1415,145	777,213
-23,023	14,160	1414,005	776,787
-22,009	14,142	1413,114	776,179
-20,994	14,103	1412,419	775,585
-19,979	14,061	1411,646	774,931
-18,965	14,106	1410,315	774,381
-17,950	14,100	1409,410	773,826
-16,936	14,091	1408,462	773,234
-15,921	14,041	1407,558	772,473
-14,906	14,062	1406,429	771,920
-13,892	14,079	1405,701	771,569
-12,877	14,061	1404,706	770,909
-11,863	14,038	1403,943	770,353
-10,848	14,064	1402,870	769,855
-9,833	14,047	1402,030	769,281
-8,819	13,987	1401,227	768,531
-7,804	13,971	1400,203	767,867
-6,790	13,987	1399,151	767,334
-5,775	13,982	1398,167	766,739
-4,760	13,988	1397,252	766,236
-3,746	13,964	1396,347	765,596
-2,731	14,000	1395,406	765,217
-1,717	13,943	1394,772	764,578
-0,702	13,945	1392,934	763,548
0,313	17,743	1310,912	736,199
1,327	33,955	706,109	434,107
2,342	52,273	124,196	83,662
3,356	5,602	16,550	8,623
4,371	12,354	3,138	1,705
5,386	-57,561	0,696	0,215
6,400	800,000	0,032	0,098
7,415	42,277	-0,225	-0,144
8,429	32,221	-0,240	-0,146
9,444	-11,380	-0,339	-0,157
10,459	-33,098	-0,271	-0,106
11,473	154,639	-0,207	-0,201
12,488	-104,828	-0,306	-0,049
13,502	55,387	-0,304	-0,208
14,517	167,020	-0,244	-0,244
15,531	13,748	-0,381	-0,209
16,546	151,009	-0,206	-0,198
17,561	115,199	-0,344	-0,296
18,575	-131,598	-0,199	0,018
19,590	-101,360	-0,335	-0,057
20,604	104,326	-0,225	-0,187
21,619	124,262	-0,462	-0,410
22,634	115,921	-0,472	-0,408
23,648	49,579	-0,428	-0,284
24,663	24,731	-0,380	-0,222
25,677	21,621	-0,377	-0,216
26,692	74,443	-0,262	-0,194
27,707	64,311	-0,330	-0,234
28,721	22,063	-0,271	-0,156
29,736	-90,736	-0,500	-0,101
30,750	174,099	-0,364	-0,371
31,765	83,014	-0,430	-0,330
32,780	17,718	-0,398	-0,223
33,794	111,311	-0,404	-0,343
34,809	30,608	-0,421	-0,254
35,823	267,840	-0,308	-0,382
36,838	88,225	-0,270	-0,211
37,853	128,590	-0,300	-0,269
38,867	2,038	-0,438	-0,223
39,882	488,759	-0,250	-0,404
40,896	530,619	-0,199	-0,333
41,911	40,730	-0,377	-0,239
42,926	118,984	-0,333	-0,290
43,940	-102,110	-0,417	-0,070
44,955	32,832	-0,409	-0,249
45,969	122,586	-0,332	-0,292
46,984	34,097	-0,225	-0,138
47,999	80,357	-0,305	-0,231
49,013	1,354	-0,314	-0,158
50,028	58,646	-0,445	-0,308
51,042	180,547	-0,341	-0,352
52,057	206,129	-0,341	-0,374
53,071	135,119	-0,327	-0,300
54,086	-1,052	-0,323	-0,160
55,101	166,890	-0,246	-0,246
56,115	378,099	-0,229	-0,331
57,130	29,626	-0,350	-0,209
58,144	45,268	-0,296	-0,192
59,159	110,877	-0,376	-0,319
60,174	142,580	-0,277	-0,259
61,188	0,137	-0,448	-0,224
62,203	-8,041	-0,329	-0,155
63,217	16,462	-0,237	-0,131
64,232	-12,438	-0,358	-0,164
65,247	16,924	-0,443	-0,246
66,261	106,966	-0,306	-0,256
67,276	-61,164	-0,521	-0,153
68,290	99,028	-0,326	-0,264
69,305	-30,302	-0,333	-0,132
70,320	202,143	-0,197	-0,214
71,334	38,526	-0,418	-0,262
72,349	95,747	-0,329	-0,264
73,363	245,191	-0,186	-0,221
74,378	109,296	-0,451	-0,379
75,393	214,278	-0,200	-0,222
76,407	182,650	-0,239	-0,248
77,422	16,452	-0,270	-0,149
78,436	-126,014	-0,224	-0,023
79,451	73,740	-0,355	-0,261
80,466	68,856	-0,384	-0,277
81,480	-27,977	-0,342	-0,139
82,495	-115,594	-0,357	-0,047
83,509	430,858	-0,135	-0,206
84,524	-141,270	-0,253	-0,018
85,539	-48,512	-0,234	-0,079
86,553	84,014	-0,350	-0,268
87,568	-70,458	-0,404	-0,107
88,582	293,650	-0,256	-0,329
89,597	290,216	-0,269	-0,344
90,611	-67,167	-0,347	-0,095
91,626	297,472	-0,227	-0,293
92,641	-1,381	-0,287	-0,142
93,655	33,816	-0,257	-0,157
94,670	105,240	-0,196	-0,162
95,684	88,712	-0,289	-0,226
96,699	105,204	-0,198	-0,164
97,714	49,164	-0,293	-0,193
98,728	-8,334	-0,179	-0,084
99,743	-63,963	-0,310	-0,088
100,757	65,862	-0,271	-0,193
101,772	34,741	-0,237	-0,145
102,787	99,421	-0,333	-0,270
103,801	308,217	-0,262	-0,344
104,816	-8,913	-0,370	-0,173
105,830	147,234	-0,188	-0,177
106,845	190,206	-0,206	-0,217
107,860	114,621	-0,222	-0,189
108,874	-16,977	-0,269	-0,119
109,889	219,755	-0,284	-0,319
110,903	462,004	-0,183	-0,287
111,918	10,000	-0,311	-0,165
112,933	174,110	-0,149	-0,151
113,947	8,013	-0,292	-0,153
114,962	-118,057	-0,236	0,029
115,976	-39,083	-0,371	-0,136
116,991	-99,414	-0,229	-0,040
118,006	9,507	-0,273	-0,145
119,020	-16,760	-0,374	-0,165
120,035	-150,516	-0,197	-0,010
121,049	108,916	-0,216	-0,181
122,064	63,985	-0,293	-0,206
123,079	275,054	-0,114	-0,141
124,093	60,429	-0,352	-0,244
125,108	88,970	-0,336	-0,262
126,122	-66,932	-0,218	-0,060
127,137	-34,252	-0,242	-0,093
128,151	11,363	-0,200	-0,107
129,166	-111,655	-0,227	0,032
130,181	9,442	-0,224	-0,118
131,195	82,478	-0,244	-0,185
132,210	13,486	-0,345	-0,187
133,224	180,846	-0,263	-0,271
134,239	41,999	-0,172	-0,109
135,254	104,401	-0,160	-0,132
136,268	62,521	-0,211	-0,147
137,283	54,461	-0,225	-0,151
138,297	101,442	-0,291	-0,237
139,312	302,595	-0,133	-0,173
140,327	179,008	-0,156	-0,159
141,341	36,060	-0,262	-0,161
142,356	300,499	-0,167	-0,216
143,370	326,299	-0,186	-0,250
144,385	169,383	-0,230	-0,230
145,400	120,290	-0,249	-0,216
146,414	11,105	-0,260	-0,139
147,429	5,100	-0,260	-0,133
148,443	-27,640	-0,143	-0,058
149,458	-58,945	-0,302	-0,090
150,473	59,667	-0,135	-0,093
151,487	-92,227	-0,271	-0,053
152,502	128,132	-0,253	-0,224
153,516	144,559	-0,183	-0,171
154,531	4,769	-0,276	-0,141
155,546	179,796	-0,225	-0,230
156,560	-18,529	-0,190	-0,082
157,575	-88,275	-0,301	-0,062
158,589	277,949	-0,146	-0,182
159,604	-60,401	-0,222	-0,066
160,619	271,877	-0,303	-0,374
161,633	79,053	-0,287	-0,214
162,648	-73,829	-0,136	0,034
163,662	263,757	-0,133	-0,161
164,677	-69,607	-0,209	-0,055
165,692	165,200	-0,224	-0,220
166,706	11,881	-0,235	-0,125
167,721	-19,669	-0,278	-0,120
168,735	44,490	-0,233	-0,149
169,750	129,918	-0,231	-0,206
170,764	52,984	-0,200	-0,133
171,779	-100,764	-0,301	-0,051
172,794	106,158	-0,185	-0,153
173,808	276,606	-0,135	-0,168
174,823	24,097	-0,214	-0,123
175,837	128,390	-0,149	-0,132
176,852	-31,240	-0,333	-0,130
177,867	-55,173	-0,180	-0,056
178,881	182,667	-0,144	-0,148
179,896	586,982	-0,130	-0,224
180,910	215,037	-0,169	-0,187
181,925	-38,007	-0,195	-0,072
182,940	-12,302	-0,292	-0,132
183,954	6,455	-0,409	-0,211
184,969	87,364	-0,263	-0,202
185,983	53,164	-0,186	-0,123
186,998	-16,337	-0,349	-0,153
188,013	11,255	-0,292	-0,155
189,027	126,549	-0,209	-0,184
190,042	192,909	-0,152	-0,161
191,056	108,387	-0,203	-0,169
192,071	-48,365	-0,321	-0,107
193,086	-80,091	-0,087	0,020
194,100	-195,380	-0,189	0,001
195,115	111,937	-0,172	-0,144
196,129	353,292	-0,178	-0,246
197,144	166,550	-0,198	-0,195
198,159	109,580	-0,102	-0,085
199,173	116,527	-0,190	-0,162
200,188	-200,000	0,005	-0,130
201,202	-90,703	-0,263	0,052
202,217	-37,156	-0,188	-0,070
203,232	112,536	-0,235	-0,198
204,246	11,777	-0,253	-0,134
205,261	96,950	-0,258	-0,205
206,275	-24,626	-0,111	-0,046
207,290	-95,666	-0,086	-0,016
208,304	138,274	-0,057	-0,052
209,319	-11,034	-0,161	-0,074
210,334	-10,562	-0,143	-0,065
211,348	179,049	-0,196	-0,199
212,363	109,215	-0,283	-0,235
213,377	54,254	-0,222	-0,148
214,392	-85,280	-0,157	-0,034
215,407	87,402	-0,117	-0,090
216,421	-24,034	-0,250	-0,103
217,436	513,049	-0,112	-0,182
218,450	36,145	-0,293	-0,179
219,465	-42,704	-0,291	-0,102
220,480	111,902	-0,225	-0,189
221,494	84,817	-0,246	-0,187
222,509	0,049	-0,203	-0,100
223,523	-41,544	-0,226	-0,080
224,538	103,398	-0,116	-0,095
225,553	41,171	-0,295	-0,184
226,567	9,325	-0,213	-0,111
227,582	361,487	-0,144	-0,200
228,596	-4,086	-0,193	-0,092
229,611	-200,000	-0,051	-0,300
230,626	-94,535	-0,221	-0,041
231,640	37,685	-0,229	-0,141
232,655	152,089	-0,229	-0,216
233,669	-200,000	-0,056	-0,230
234,684	171,901	-0,181	-0,180
235,699	326,914	-0,169	-0,225
236,713	800,000	-0,108	-0,212
237,728	59,374	-0,064	-0,044
238,742	6,547	-0,266	-0,136
239,757	-111,724	-0,198	-0,028
240,772	156,309	-0,213	-0,203
241,786	800,000	-0,046	-0,114
242,801	-200,000	-0,017	-0,067
243,815	-82,067	-0,133	-0,030
244,830	147,071	-0,141	-0,131
245,844	-200,000	-0,040	-0,133
246,859	78,999	-0,172	-0,127
247,874	135,862	-0,192	-0,173
248,888	-35,593	-0,212	-0,079
249,903	150,786	-0,233	-0,219
250,917	522,894	-0,110	-0,179
251,932	296,381	-0,041	-0,052
252,947	-38,070	-0,229	-0,084
253,961	70,918	-0,212	-0,152
254,976	80,982	-0,229	-0,171
255,990	800,000	-0,056	-0,164
257,005	95,733	-0,089	-0,071
258,020	-109,831	-0,134	-0,019
259,034	-169,211	-0,208	-0,005
260,049	82,895	-0,258	-0,194
261,063	81,429	-0,185	-0,138
262,078	-2,438	-0,140	0,068
263,093	179,533	-0,165	-0,168
264,107	578,139	-0,092	-0,156
265,122	237,258	-0,114	-0,131
266,136	35,838	-0,128	-0,077
267,151	31,771	-0,108	-0,064
268,166	-57,875	-0,102	0,031
269,180	224,376	-0,082	-0,091
270,195	112,510	-0,215	-0,180
271,209	167,908	-0,237	-0,233
272,224	-48,696	-0,217	-0,072
273,239	-46,912	-0,124	-0,041
274,253	800,000	-0,070	-0,156
275,268	-107,786	-0,128	0,019
276,282	128,233	-0,172	-0,151
277,297	55,531	-0,187	-0,125
278,312	800,000	-0,087	-0,199
279,326	246,219	-0,119	-0,139
280,341	65,500	-0,156	-0,109
281,355	22,168	-0,214	-0,120
282,370	209,700	-0,152	-0,165
283,384	-5,884	-0,285	-0,134
284,399	-27,590	-0,074	-0,030
285,414	591,111	-0,073	-0,125
286,428	-36,510	-0,201	-0,074
287,443	800,000	-0,052	-0,105
288,457	503,875	-0,158	-0,253
289,472	765,018	-0,207	-0,390
290,487	-67,800	-0,255	-0,068
291,501	19,009	-0,169	-0,093
292,516	81,888	-0,213	-0,159
293,530	-200,000	0,006	-0,083
294,545	-26,018	-0,094	-0,038
295,560	83,074	-0,153	-0,115
296,574	102,503	-0,052	0,042
297,589	266,781	-0,137	-0,166
298,603	513,685	-0,064	-0,103
299,618	183,420	-0,173	-0,177
300,633	3,268	-0,177	-0,089
301,647	-136,995	-0,118	-0,009
302,662	92,720	-0,153	-0,119
303,676	-39,282	-0,088	-0,032
304,691	209,568	-0,162	-0,176
305,706	-200,000	-0,009	-0,091
306,720	767,200	-0,170	-0,319
307,735	-37,061	-0,190	-0,070
308,749	-7,408	-0,179	-0,083
309,764	-79,233	-0,149	0,034
310,779	47,331	-0,127	-0,082
311,793	-102,662	-0,219	-0,036
312,808	-37,796	-0,159	-0,058
313,822	52,484	-0,168	-0,111
314,837	559,934	-0,126	-0,210
315,852	-200,000	-0,020	-0,071
316,866	36,758	-0,159	0,096
317,881	-142,018	-0,170	-0,011
318,895	388,380	-0,095	-0,136
319,910	-63,342	-0,100	-0,028
320,925	800,000	-0,016	-0,047
321,939	100,288	-0,181	-0,144
322,954	66,055	-0,173	-0,121
323,968	-174,253	-0,143	0,003
324,983	-144,455	-0,186	-0,012
325,997	95,315	-0,084	-0,066
327,012	13,163	-0,210	-0,112
328,027	346,861	-0,122	-0,165
329,041	138,338	-0,170	-0,153
330,056	224,078	-0,090	-0,101
331,070	-188,722	-0,103	0,001
332,085	30,450	-0,191	-0,112
333,100	606,364	-0,103	-0,178
334,114	28,577	-0,230	-0,134
335,129	310,214	-0,066	-0,085
336,143	22,299	-0,247	-0,138
337,158	800,000	-0,095	-0,245
338,173	321,926	-0,108	-0,142
339,187	21,021	-0,102	-0,057
340,202	6,605	-0,208	-0,106
341,216	28,578	-0,174	-0,101
342,231	-200,000	-0,007	-0,151
343,246	272,040	-0,101	-0,123
344,260	525,657	-0,056	-0,091
345,275	87,976	-0,105	-0,080
346,289	-133,334	0,033	0,003
347,304	-78,196	-0,142	-0,033
348,319	44,016	-0,114	0,071
349,333	106,511	-0,100	-0,081
350,348	-75,805	-0,236	-0,057
351,362	172,827	-0,145	-0,143
352,377	-92,685	-0,164	-0,031
353,392	106,194	-0,087	-0,071
354,406	-200,000	-0,019	-0,092
355,421	209,668	1314,855	1415,757
356,435	161,381	1475,580	1416,244
