DTS Sentinel unit serial number:	SN410029Multiplexer serial number:	ORYXHardware model number:	OX2-SRSoftware version number:	ORYX F/W v4,00 Oryx Data Collector v3.7.2.0data status	okinstallation	B3 Nyhavnadifferential loss correction	single-endedforward channel	channel 1reverse channel	N/Adate	2023/11/30time	22:27:30forward acquisition time	300,00reverse acquisition time	0,00gamma	499,1914k internal	0,3210k external	0,3210temperature offset calibration	1,0000default loss term (dB/km)	0,3820temperature slope calibration	1,0000multiplexer offset coefficient	1,0000multiplexer slope coefficient	1,0000fibre end	0,00T internal ref (°C)	10,06T ext. ref 1 (°C)	-5,03T ext. ref 2 (°C)	-5,17length (m)	temperature (°C)	Stokes	anti-Stokes-744,400	411,332	-0,200	-0,310
-743,385	-200,000	0,082	0,315
-742,371	52,350	-0,087	-0,060
-741,356	-200,000	-0,091	0,324
-740,342	196,403	-0,167	-0,184
-739,327	-200,000	0,059	0,192
-738,312	102,408	-0,165	-0,140
-737,298	-200,000	0,002	0,271
-736,283	122,324	-0,220	-0,200
-735,269	-200,000	0,037	0,317
-734,254	-200,000	-0,043	-0,243
-733,239	32,822	-0,228	0,143
-732,225	-200,000	0,010	-0,283
-731,210	-84,755	0,095	0,021
-730,196	-84,938	-0,126	0,029
-729,181	-101,747	-0,050	-0,009
-728,167	-200,000	0,001	-0,049
-727,152	417,738	-0,087	-0,136
-726,137	-36,267	-0,032	0,012
-725,123	376,165	-0,081	-0,121
-724,108	-200,000	0,018	-0,072
-723,094	-97,175	-0,108	-0,020
-722,079	21,265	-0,044	-0,026
-721,064	67,566	0,019	-0,014
-720,050	-200,000	0,005	0,069
-719,035	800,000	0,035	-0,076
-718,021	-39,949	-0,127	-0,048
-717,006	190,174	-0,047	-0,052
-715,991	-18,221	-0,140	-0,063
-714,977	-23,077	0,103	0,045
-713,962	120,929	-0,097	-0,087
-712,948	-143,270	0,200	0,014
-711,933	-149,973	-0,091	-0,005
-710,918	531,310	0,072	-0,123
-709,904	34,826	-0,203	-0,128
-708,889	683,799	0,067	-0,128
-707,875	-143,732	-0,106	-0,007
-706,860	255,437	-0,046	-0,057
-705,845	-200,000	-0,020	0,169
-704,831	-200,000	-0,009	-0,031
-703,816	232,429	-0,094	0,112
-702,802	73,558	-0,182	-0,138
-701,787	27,316	0,068	-0,041
-700,772	-74,213	-0,051	0,013
-699,758	-95,604	-0,046	-0,009
-698,743	-104,997	0,228	0,037
-697,729	-200,000	-0,070	0,000
-696,714	-200,000	0,048	-0,167
-695,699	800,000	-0,017	-0,052
-694,685	238,339	-0,075	-0,090
-693,670	800,000	-0,053	-0,142
-692,656	498,263	0,052	-0,087
-691,641	198,057	0,046	-0,051
-690,627	106,841	0,068	0,059
-689,612	-39,661	-0,124	-0,047
-688,597	-143,509	0,113	-0,008
-687,583	-200,000	-0,036	-0,238
-686,568	800,000	-0,072	-0,153
-685,554	286,049	0,041	-0,054
-684,539	-141,904	0,028	0,002
-683,524	-200,000	0,012	0,049
-682,510	72,494	0,031	-0,024
-681,495	42,276	-0,064	-0,042
-680,481	168,278	0,081	-0,084
-679,466	-86,914	-0,207	-0,045
-678,451	800,000	-0,047	0,113
-677,437	-96,110	-0,031	-0,006
-676,422	-200,000	-0,004	-0,040
-675,408	-32,436	-0,067	-0,027
-674,393	-200,000	-0,015	0,066
-673,378	-200,000	-0,023	0,103
-672,364	-200,000	-0,002	-0,025
-671,349	800,000	-0,044	-0,138
-670,335	175,465	0,074	0,078
-669,320	-200,000	-0,000	0,078
-668,305	800,000	-0,053	-0,157
-667,291	272,435	-0,090	-0,115
-666,276	-200,000	-0,023	-0,137
-665,262	-200,000	-0,005	-0,115
-664,247	-200,000	0,047	-0,178
-663,232	640,812	0,029	-0,054
-662,218	-200,000	0,017	0,078
-661,203	-93,280	0,112	0,022
-660,189	401,299	0,045	0,069
-659,174	-12,516	-0,110	-0,052
-658,159	466,833	-0,036	-0,059
-657,145	-41,943	-0,086	0,032
-656,130	78,207	0,134	-0,103
-655,116	-33,670	-0,135	-0,054
-654,101	312,463	-0,079	0,107
-653,086	-200,000	0,001	0,046
-652,072	-106,278	-0,043	0,007
-651,057	-200,000	0,047	-0,173
-650,043	452,574	-0,074	0,119
-649,028	292,473	0,021	0,027
-648,014	-200,000	-0,001	0,166
-646,999	-35,984	0,049	0,019
-645,984	4,361	0,086	0,046
-644,970	-105,809	-0,068	-0,011
-643,955	8,537	-0,093	0,050
-642,941	-200,000	-0,006	-0,043
-641,926	800,000	-0,028	-0,057
-640,911	-200,000	0,068	-0,223
-639,897	676,123	-0,057	-0,108
-638,882	800,000	-0,025	-0,072
-637,868	800,000	-0,037	-0,106
-636,853	-169,967	-0,136	0,003
-635,838	-107,049	0,147	-0,023
-634,824	69,534	-0,071	-0,052
-633,809	31,546	0,069	0,043
-632,795	-19,924	0,031	0,014
-631,780	29,127	0,095	0,058
-630,765	-140,133	-0,046	-0,003
-629,751	304,270	-0,041	-0,055
-628,736	-83,579	-0,188	0,043
-627,722	40,799	0,022	-0,014
-626,707	393,297	-0,041	-0,062
-625,692	96,908	-0,042	-0,035
-624,678	-103,197	-0,035	-0,006
-623,663	44,090	0,019	-0,012
-622,649	5,827	0,073	0,039
-621,634	-200,000	-0,012	0,107
-620,619	-25,544	-0,090	-0,038
-619,605	-200,000	0,019	0,118
-618,590	219,214	-0,148	0,171
-617,576	800,000	-0,067	-0,143
-616,561	26,617	-0,086	-0,052
-615,546	-200,000	0,013	-0,136
-614,532	800,000	-0,044	-0,126
-613,517	-143,902	0,072	0,005
-612,503	-200,000	0,032	0,197
-611,488	-121,556	0,007	0,001
-610,474	-109,788	-0,040	0,006
-609,459	-200,000	-0,036	0,147
-608,444	58,437	0,050	-0,035
-607,430	-200,000	-0,044	-0,174
-606,415	370,123	-0,042	-0,062
-605,401	-200,000	-0,017	0,088
-604,386	22,910	0,082	-0,048
-603,371	76,885	-0,060	-0,046
-602,357	-34,099	-0,212	0,084
-601,342	-111,885	-0,115	-0,017
-600,328	-200,000	-0,003	-0,053
-599,313	20,869	0,109	0,063
-598,298	-200,000	0,009	-0,080
-597,284	-200,000	-0,001	-0,032
-596,269	753,735	-0,023	0,045
-595,255	-200,000	-0,006	-0,019
-594,240	-200,000	-0,005	-0,091
-593,225	-200,000	-0,009	0,086
-592,211	4,792	-0,079	-0,042
-591,196	-49,220	0,123	0,042
-590,182	-200,000	-0,019	-0,175
-589,167	-36,824	0,151	0,058
-588,152	-200,000	-0,026	0,101
-587,138	474,885	0,053	0,087
-586,123	-114,547	-0,079	0,011
-585,109	800,000	0,012	0,028
-584,094	-136,364	-0,142	-0,012
-583,079	112,126	-0,042	-0,036
-582,065	79,586	0,115	0,089
-581,050	228,850	-0,024	-0,029
-580,036	-200,000	0,009	0,050
-579,021	262,762	-0,125	-0,156
-578,006	800,000	-0,079	-0,159
-576,992	170,712	0,030	-0,031
-575,977	22,095	-0,064	0,038
-574,963	318,921	0,100	0,137
-573,948	203,086	-0,084	0,094
-572,934	800,000	-0,030	0,085
-571,919	-200,000	-0,009	-0,089
-570,904	-18,207	-0,055	-0,025
-569,890	244,685	-0,098	-0,119
-568,875	-1,365	-0,083	0,042
-567,861	-84,184	-0,082	0,019
-566,846	-162,526	-0,109	-0,004
-565,831	192,668	0,069	-0,075
-564,817	221,361	-0,131	0,152
-563,802	-100,298	-0,076	0,013
-562,788	-103,677	0,141	0,024
-561,773	608,139	-0,030	-0,055
-560,758	800,000	-0,010	0,032
-559,744	197,837	0,044	-0,048
-558,729	-200,000	0,027	0,148
-557,715	-109,298	-0,039	-0,006
-556,700	-168,400	0,139	0,004
-555,685	-200,000	-0,001	0,019
-554,671	-52,193	0,012	0,004
-553,656	800,000	0,028	0,071
-552,642	-200,000	-0,058	-0,000
-551,627	304,508	0,056	0,075
-550,612	-200,000	-0,021	0,069
-549,598	-200,000	-0,036	-0,122
-548,583	27,425	-0,107	-0,064
-547,569	729,084	0,052	0,101
-546,554	-200,000	0,019	-0,077
-545,539	224,223	0,102	-0,119
-544,525	115,491	-0,091	0,080
-543,510	-8,772	0,076	-0,037
-542,496	-94,526	-0,109	-0,021
-541,481	-200,000	-0,006	-0,082
-540,466	13,179	-0,094	-0,052
-539,452	320,975	0,027	0,037
-538,437	-58,818	0,059	0,018
-537,423	-135,359	-0,116	0,010
-536,408	-117,775	-0,087	0,011
-535,393	114,175	0,029	-0,025
-534,379	219,755	0,037	-0,042
-533,364	169,131	-0,040	0,041
-532,350	800,000	0,024	0,076
-531,335	-122,987	0,088	-0,010
-530,321	-200,000	0,005	-0,084
-529,306	-87,763	0,076	0,016
-528,291	28,433	-0,090	-0,054
-527,277	-200,000	-0,002	-0,149
-526,262	-200,000	-0,016	-0,131
-525,248	-149,870	-0,123	0,007
-524,233	-38,828	0,118	0,044
-523,218	-62,536	0,069	0,021
-522,204	800,000	0,054	-0,111
-521,189	38,177	-0,123	-0,079
-520,175	-122,458	-0,021	0,002
-519,160	251,446	-0,045	-0,055
-518,145	-59,339	-0,023	-0,007
-517,131	-200,000	-0,039	0,162
-516,116	403,665	0,099	0,151
-515,102	-68,641	0,075	0,021
-514,087	-27,332	-0,066	-0,028
-513,072	-106,572	-0,116	-0,018
-512,058	145,990	0,082	0,079
-511,043	-59,230	0,109	-0,034
-510,029	107,147	0,041	-0,035
-509,014	-200,000	-0,014	-0,115
-507,999	800,000	0,061	-0,159
-506,985	53,673	-0,038	-0,026
-505,970	-200,000	0,025	-0,097
-504,956	247,162	-0,061	0,074
-503,941	-200,000	0,017	-0,064
-502,926	247,963	0,079	0,097
-501,912	131,247	0,066	0,061
-500,897	-109,376	-0,116	0,017
-499,883	1,070	0,069	-0,036
-498,868	471,518	-0,026	-0,043
-497,853	-90,163	0,030	-0,006
-496,839	472,471	-0,072	0,116
-495,824	-98,871	-0,060	-0,011
-494,810	9,915	0,090	0,049
-493,795	46,843	0,037	0,024
-492,781	-200,000	-0,012	-0,070
-491,766	-55,131	-0,020	0,006
-490,751	293,185	-0,084	0,110
-489,737	149,329	0,036	0,035
-488,722	134,253	0,185	0,172
-487,708	-39,445	0,132	-0,049
-486,693	-200,000	0,001	0,056
-485,678	-200,000	-0,006	0,180
-484,664	95,250	-0,079	-0,065
-483,649	-200,000	0,007	-0,109
-482,635	312,810	0,061	-0,082
-481,620	690,304	-0,053	0,101
-480,605	712,664	-0,053	0,101
-479,591	800,000	0,073	0,193
-478,576	-22,940	0,115	0,050
-477,562	98,299	-0,097	-0,080
-476,547	-200,000	-0,023	0,113
-475,532	-143,899	0,136	0,009
-474,518	800,000	0,023	-0,063
-473,503	-110,103	0,098	-0,014
-472,489	800,000	-0,036	0,103
-471,474	91,618	0,054	0,043
-470,459	-79,006	0,119	0,029
-469,445	84,130	-0,009	0,007
-468,430	515,674	-0,052	-0,087
-467,416	113,789	-0,117	0,102
-466,401	800,000	0,018	0,054
-465,386	-57,157	-0,085	-0,027
-464,372	73,607	-0,058	-0,043
-463,357	-149,836	-0,053	-0,003
-462,343	-127,120	-0,166	-0,017
-461,328	800,000	0,019	-0,040
-460,313	1,758	0,063	0,032
-459,299	-200,000	-0,006	0,033
-458,284	147,668	0,075	-0,073
-457,270	-52,463	0,053	-0,017
-456,255	-26,513	-0,065	-0,027
-455,241	-60,320	-0,018	0,005
-454,226	800,000	-0,027	-0,058
-453,211	-200,000	-0,013	0,069
-452,197	800,000	0,030	0,076
-451,182	-200,000	0,005	-0,021
-450,168	597,343	0,003	0,006
-449,153	175,891	0,005	0,005
-448,138	48,425	-0,034	-0,023
-447,124	378,614	0,099	0,145
-446,109	-200,000	-0,013	0,094
-445,095	124,254	0,073	-0,066
-444,080	-200,000	-0,016	0,053
-443,065	-200,000	-0,004	0,022
-442,051	800,000	-0,022	-0,052
-441,036	176,726	-0,145	-0,151
-440,022	-200,000	-0,002	-0,129
-439,007	-200,000	-0,010	-0,034
-437,992	-80,020	0,108	0,026
-436,978	451,445	-0,046	0,074
-435,963	800,000	-0,035	-0,079
-434,949	23,486	-0,119	-0,070
-433,934	-155,962	0,106	0,005
-432,919	9,953	-0,067	0,036
-431,905	-200,000	-0,024	0,117
-430,890	-200,000	0,009	0,114
-429,876	-39,483	0,172	-0,064
-428,861	36,869	-0,128	0,081
-427,846	-49,385	0,028	-0,010
-426,832	-148,653	-0,095	-0,005
-425,817	-200,000	-0,017	-0,069
-424,803	800,000	-0,040	-0,079
-423,788	430,021	0,075	0,117
-422,773	-86,450	-0,202	0,044
-421,759	4,418	0,048	-0,025
-420,744	-128,464	0,156	-0,016
-419,730	800,000	-0,048	-0,116
-418,715	800,000	-0,061	0,150
-417,701	-200,000	-0,021	0,075
-416,686	-200,000	-0,008	0,108
-415,671	121,302	-0,022	0,020
-414,657	652,056	0,080	0,148
-413,642	800,000	-0,068	-0,138
-412,628	-85,208	0,088	-0,019
-411,613	270,370	0,076	-0,096
-410,598	158,242	-0,057	0,057
-409,584	-33,385	-0,059	0,023
-408,569	397,336	-0,055	0,082
-407,555	-11,981	0,045	0,021
-406,540	-87,740	-0,095	0,020
-405,525	52,334	0,090	0,061
-404,511	383,199	-0,068	-0,101
-403,496	-102,583	-0,163	0,028
-402,482	800,000	0,039	0,093
-401,467	13,062	0,040	-0,022
-400,452	11,358	0,088	0,048
-399,438	-200,000	0,020	0,113
-398,423	800,000	0,033	-0,090
-397,409	239,748	-0,036	0,043
-396,394	55,416	-0,028	0,019
-395,379	-121,456	0,012	-0,001
-394,365	-138,037	-0,050	-0,004
-393,350	-151,641	0,106	0,006
-392,336	268,230	-0,049	-0,061
-391,321	-200,000	-0,005	-0,018
-390,306	-200,000	0,024	-0,162
-389,292	-200,000	0,002	-0,130
-388,277	85,402	-0,049	-0,039
-387,263	800,000	0,016	0,049
-386,248	682,596	0,068	-0,128
-385,233	507,446	0,100	-0,166
-384,219	-200,000	-0,024	-0,103
-383,204	437,733	-0,069	0,108
-382,190	-200,000	-0,002	-0,117
-381,175	-117,937	-0,030	0,004
-380,160	-94,885	0,117	-0,022
-379,146	-200,000	-0,022	-0,132
-378,131	-162,057	-0,077	-0,003
-377,117	18,151	-0,066	-0,038
-376,102	-200,000	0,017	-0,142
-375,088	-111,224	-0,031	-0,004
-374,073	-35,267	-0,133	0,051
-373,058	53,300	0,108	-0,074
-372,044	149,993	-0,081	0,078
-371,029	-200,000	0,010	0,049
-370,015	-66,618	0,062	0,017
-369,000	184,714	-0,068	0,072
-367,985	-200,000	-0,015	-0,167
-366,971	800,000	0,052	-0,125
-365,956	-68,685	0,035	-0,010
-364,942	-200,000	-0,017	0,078
-363,927	38,358	-0,048	-0,030
-362,912	-200,000	0,003	-0,051
-361,898	38,349	0,080	-0,051
-360,883	644,990	0,039	-0,071
-359,869	54,284	-0,038	0,026
-358,854	72,476	-0,034	-0,025
-357,839	480,375	0,083	-0,136
-356,825	-200,000	0,001	0,223
-355,810	-200,000	0,014	0,068
-354,796	56,945	0,030	0,021
-353,781	223,765	-0,112	0,129
-352,766	-200,000	-0,003	-0,088
-351,752	-200,000	0,021	0,078
-350,737	64,491	0,047	0,033
-349,723	-68,322	-0,116	0,032
-348,708	333,665	0,022	0,030
-347,693	-200,000	-0,049	-0,175
-346,679	581,911	-0,098	-0,172
-345,664	162,693	0,013	-0,013
-344,650	741,413	-0,035	-0,068
-343,635	800,000	-0,015	-0,036
-342,620	-200,000	-0,015	0,106
-341,606	-200,000	0,005	0,110
-340,591	-200,000	-0,022	0,102
-339,577	-47,605	0,132	0,046
-338,562	-200,000	-0,036	-0,137
-337,548	121,289	-0,079	0,070
-336,533	199,627	0,036	0,039
-335,518	54,632	0,052	-0,036
-334,504	-73,738	-0,031	0,008
-333,489	142,922	0,068	0,065
-332,475	6,624	-0,048	0,025
-331,460	269,169	-0,143	-0,179
-330,445	-200,000	-0,031	-0,181
-329,431	-200,000	0,008	-0,173
-328,416	101,168	0,071	-0,059
-327,402	-200,000	0,009	0,112
-326,387	800,000	-0,026	-0,072
-325,372	744,139	-0,042	-0,082
-324,358	-22,647	-0,124	-0,053
-323,343	-37,434	0,064	0,024
-322,329	800,000	0,052	0,124
-321,314	457,023	0,072	0,115
-320,299	-200,000	0,032	0,131
-319,285	93,547	0,073	0,059
-318,270	800,000	-0,042	0,114
-317,256	143,734	-0,024	-0,023
-316,241	-200,000	-0,023	0,079
-315,226	182,987	0,078	0,082
-314,212	330,955	0,062	0,086
-313,197	-53,528	-0,087	0,028
-312,183	-200,000	-0,033	0,154
-311,168	-137,722	-0,104	0,008
-310,153	133,527	-0,008	0,008
-309,139	-200,000	-0,003	-0,068
-308,124	-73,500	0,189	-0,049
-307,110	776,033	0,041	-0,079
-306,095	274,701	0,094	0,119
-305,080	800,000	0,044	-0,126
-304,066	-84,230	0,105	-0,024
-303,051	242,596	-0,129	-0,154
-302,037	17,546	0,130	-0,074
-301,022	-33,274	-0,084	-0,033
-300,008	800,000	-0,030	0,083
-298,993	540,952	-0,054	0,092
-297,978	155,892	0,046	0,045
-296,964	-126,991	0,057	0,006
-295,949	-200,000	-0,038	0,130
-294,935	-52,965	0,031	-0,010
-293,920	493,934	-0,017	0,027
-292,905	18,463	-0,050	-0,029
-291,891	18,407	-0,115	0,065
-290,876	361,312	0,073	0,105
-289,862	-200,000	0,003	0,042
-288,847	652,110	-0,052	0,096
-287,832	183,895	-0,063	0,066
-286,818	61,678	0,107	-0,076
-285,803	800,000	0,016	-0,043
-284,789	755,258	0,067	0,130
-283,774	446,430	0,025	0,039
-282,759	338,828	-0,063	0,088
-281,745	-81,586	-0,059	-0,014
-280,730	200,298	0,073	-0,080
-279,716	277,940	-0,072	0,092
-278,701	205,716	0,038	-0,042
-277,686	-200,000	0,008	0,055
-276,672	-200,000	0,020	-0,066
-275,657	10,251	-0,018	-0,010
-274,643	-86,495	-0,027	0,006
-273,628	-159,204	0,036	-0,001
-272,613	-24,385	0,080	0,034
-271,599	-14,899	-0,122	0,056
-270,584	73,908	0,117	0,088
-269,570	137,064	0,078	-0,073
-268,555	12,829	0,110	0,060
-267,540	1,713	-0,053	0,027
-266,526	800,000	0,079	-0,183
-265,511	170,236	0,033	-0,034
-264,497	-143,940	0,113	-0,007
-263,482	261,001	0,052	-0,064
-262,467	-200,000	-0,001	0,016
-261,453	150,714	0,135	0,130
-260,438	-85,849	0,084	-0,018
-259,424	191,585	-0,142	-0,152
-258,409	800,000	-0,029	-0,066
-257,395	-200,000	-0,022	0,163
-256,380	-40,851	0,124	0,045
-255,365	162,557	0,005	-0,005
-254,351	-51,169	-0,069	-0,023
-253,336	183,522	-0,031	-0,033
-252,322	-200,000	-0,015	0,074
-251,307	800,000	0,036	-0,091
-250,292	46,775	0,063	-0,042
-249,278	35,797	0,051	-0,032
-248,263	-200,000	-0,015	0,113
-247,249	4,437	0,097	-0,051
-246,234	417,915	-0,091	0,139
-245,219	-200,000	0,025	-0,100
-244,205	282,927	-0,084	-0,107
-243,190	-40,476	-0,043	0,016
-242,176	472,533	0,066	-0,106
-241,161	13,025	0,044	0,024
-240,146	-64,173	0,071	-0,020
-239,132	-42,799	0,050	0,018
-238,117	-98,231	-0,108	-0,019
-237,103	800,000	-0,013	-0,031
-236,088	-200,000	-0,013	-0,161
-235,073	-200,000	-0,003	0,031
-234,059	-108,731	0,119	0,018
-233,044	278,273	0,091	0,115
-232,030	-200,000	0,026	-0,096
-231,015	139,663	-0,064	-0,060
-230,000	-200,000	0,016	-0,158
-228,986	-10,676	0,055	0,026
-227,971	-69,485	0,111	0,030
-226,957	-200,000	0,011	0,117
-225,942	-200,000	0,004	0,138
-224,927	-151,563	0,079	-0,004
-223,913	-85,478	-0,138	-0,030
-222,898	-19,299	0,106	0,046
-221,884	-11,635	0,132	0,061
-220,869	-200,000	-0,009	0,103
-219,855	-123,982	0,104	0,012
-218,840	800,000	0,017	-0,043
-217,825	-130,304	-0,198	-0,019
-216,811	50,638	-0,019	-0,013
-215,796	88,869	-0,029	-0,023
-214,782	800,000	-0,052	-0,128
-213,767	-200,000	0,015	-0,095
-212,752	-130,481	0,139	0,013
-211,738	-200,000	0,014	-0,111
-210,723	-177,049	-0,131	-0,002
-209,709	80,760	0,112	-0,086
-208,694	-200,000	-0,029	-0,102
-207,679	16,433	-0,090	0,050
-206,665	495,904	0,032	-0,053
-205,650	344,443	0,031	-0,043
-204,636	-200,000	0,008	-0,064
-203,621	-126,192	0,129	-0,014
-202,606	100,582	-0,114	-0,094
-201,592	271,384	0,075	-0,094
-200,577	-200,000	-0,005	-0,029
-199,563	-111,488	-0,057	-0,008
-198,548	800,000	0,037	0,109
-197,533	552,602	-0,113	0,193
-196,519	-109,439	0,161	-0,024
-195,504	291,373	-0,004	-0,005
-194,490	-200,000	-0,001	-0,009
-193,475	556,740	0,051	-0,088
-192,460	-200,000	-0,003	0,080
-191,446	34,757	-0,054	0,033
-190,431	440,127	0,121	0,189
-189,417	-200,000	0,001	0,041
-188,402	-59,440	0,094	0,029
-187,387	91,935	-0,098	0,078
-186,373	34,987	-0,068	-0,042
-185,358	-200,000	0,003	0,013
-184,344	441,668	-0,052	0,081
-183,329	36,670	-0,176	0,110
-182,315	19,032	0,085	0,048
-181,300	800,000	-0,037	0,102
-180,285	-80,913	0,055	-0,013
-179,271	800,000	-0,111	-0,238
-178,256	364,411	0,049	0,071
-177,242	225,076	0,125	0,144
-176,227	441,957	0,009	-0,014
-175,212	748,950	-0,032	0,062
-174,198	-39,943	0,116	-0,043
-173,183	-107,010	-0,074	0,012
-172,169	195,605	0,071	-0,076
-171,154	213,716	-0,048	-0,054
-170,139	-80,418	0,054	0,013
-169,125	657,382	-0,031	0,057
-168,110	-119,510	0,126	0,015
-167,096	-45,183	0,102	0,036
-166,081	-100,447	-0,083	-0,014
-165,066	-200,000	-0,013	0,076
-164,052	-34,775	0,031	0,012
-163,037	-143,127	0,079	-0,005
-162,023	-123,867	0,164	-0,018
-161,008	193,582	-0,028	-0,030
-159,993	183,131	-0,077	-0,080
-158,979	-200,000	-0,028	-0,165
-157,964	-92,461	-0,005	-0,001
-156,950	224,460	0,044	-0,051
-155,935	-200,000	-0,019	-0,061
-154,920	-200,000	-0,045	0,191
-153,906	559,491	0,033	0,057
-152,891	800,000	0,027	-0,062
-151,877	-18,715	-0,168	-0,074
-150,862	-51,334	0,111	0,037
-149,847	800,000	0,040	-0,094
-148,833	-200,000	0,004	-0,033
-147,818	231,279	-0,061	-0,071
-146,804	197,270	0,110	0,119
-145,789	-153,538	-0,063	0,003
-144,775	-43,011	0,038	-0,014
-143,760	-166,448	0,096	0,003
-142,745	-180,716	-0,090	0,001
-141,731	61,254	0,033	-0,023
-140,716	-200,000	0,022	-0,087
-139,702	14,770	0,038	0,021
-138,687	789,115	0,064	0,125
-137,672	800,000	-0,016	-0,047
-136,658	-96,676	-0,070	-0,013
-135,643	-200,000	-0,004	-0,052
-134,629	139,545	-0,055	0,051
-133,614	800,000	0,022	0,053
-132,599	147,703	0,080	-0,077
-131,585	800,000	0,044	-0,105
-130,570	82,317	0,106	-0,082
-129,556	-26,975	-0,116	-0,048
-128,541	-70,711	0,057	-0,015
-127,526	200,194	-0,092	0,101
-126,512	-179,997	0,090	-0,001
-125,497	-61,393	-0,069	0,021
-124,483	346,406	0,042	0,058
-123,468	22,305	0,173	-0,100
-122,453	-10,204	-0,206	-0,097
-121,439	-200,000	0,037	-0,147
-120,424	-200,000	0,001	-0,120
-119,410	61,323	0,025	-0,018
-118,395	-51,124	0,065	-0,022
-117,380	21,627	0,128	0,074
-116,366	-86,924	-0,059	0,013
-115,351	-96,097	-0,161	-0,030
-114,337	-200,000	0,008	-0,027
-113,322	-84,642	-0,026	0,006
-112,307	800,000	0,039	-0,077
-111,293	67,601	0,059	-0,042
-110,278	104,000	0,068	-0,057
-109,264	8,230	0,025	0,013
-108,249	800,000	0,008	0,018
-107,234	137,128	-0,076	-0,071
-106,220	800,000	-0,032	-0,086
-105,205	659,982	-0,059	-0,107
-104,191	318,416	-0,132	0,177
-103,176	29,885	0,131	0,079
-102,162	-158,571	0,044	-0,002
-101,147	-200,000	-0,021	-0,122
-100,132	800,000	0,068	-0,148
-99,118	5,107	-0,087	0,045
-98,103	800,000	0,017	-0,035
-97,089	800,000	0,037	-0,107
-96,074	469,485	0,069	0,110
-95,059	-96,955	-0,080	-0,015
-94,045	125,337	0,067	0,060
-93,030	-59,456	-0,119	-0,036
-92,016	359,761	0,025	-0,035
-91,001	-154,163	-0,039	-0,002
-89,986	219,048	-0,044	0,050
-88,972	-200,000	-0,013	0,113
-87,957	282,334	0,043	0,055
-86,943	236,800	-0,034	0,040
-85,928	-123,758	0,101	0,011
-84,913	-51,384	-0,122	0,040
-83,899	-63,060	0,149	-0,043
-82,884	105,596	-0,067	0,056
-81,870	-163,594	0,067	-0,002
-80,855	526,196	-0,065	-0,108
-79,840	52,791	-0,028	0,019
-78,826	217,026	0,128	-0,144
-77,811	-4,676	0,136	-0,066
-76,797	-157,065	-0,038	0,002
-75,782	-52,449	0,053	0,017
-74,767	-182,199	-0,135	-0,002
-73,753	-62,963	0,062	0,018
-72,738	-20,041	0,065	-0,028
-71,724	-200,000	-0,017	0,054
-70,709	721,282	0,047	0,088
-69,694	156,053	0,037	-0,036
-68,680	238,170	-0,082	0,097
-67,665	-200,000	-0,022	0,197
-66,651	-200,000	0,001	0,124
-65,636	19,706	0,025	-0,014
-64,622	5,204	-0,038	-0,020
-63,607	113,771	0,080	-0,068
-62,592	533,439	-0,015	0,026
-61,578	132,910	-0,072	-0,066
-60,563	28,269	0,100	0,059
-59,549	800,000	-0,046	0,096
-58,534	38,058	-1,943	-1,218
-57,519	632,939	-1,099	-1,975
-56,505	-200,000	-0,596	-4,457
-55,490	494,915	0,812	1,321
-54,476	800,000	5,193	11,936
-53,461	-200,000	21,350	344,542
-52,446	800,000	762,472	2368,384
-51,432	558,858	1665,833	2849,348
-50,417	73,484	1663,478	1228,148
-49,403	17,943	1537,192	862,207
-48,388	11,911	1460,763	790,109
-47,373	19,609	1451,846	822,259
-46,359	15,452	1441,011	796,291
-45,344	10,174	1437,057	768,892
-44,330	10,099	1435,147	767,484
-43,315	10,072	1433,264	766,318
-42,300	10,118	1431,432	765,527
-41,286	10,062	1430,384	764,668
-40,271	10,106	1429,005	764,110
-39,257	10,052	1427,984	763,279
-38,242	10,194	1426,769	763,270
-37,227	10,128	1425,606	762,307
-36,213	10,113	1424,531	761,629
-35,198	10,136	1423,205	761,001
-34,184	10,170	1422,266	760,631
-33,169	10,119	1420,747	759,543
-32,154	10,132	1420,035	759,195
-31,140	10,132	1418,754	758,479
-30,125	10,225	1417,559	758,252
-29,111	10,172	1416,522	757,416
-28,096	10,114	1415,139	756,373
-27,082	10,093	1413,995	755,631
-26,067	10,069	1413,076	755,001
-25,052	10,068	1412,018	754,400
-24,038	10,126	1411,103	754,155
-23,023	10,107	1410,132	753,516
-22,009	10,056	1409,095	752,692
-20,994	10,108	1407,846	752,236
-19,979	10,092	1407,207	751,791
-18,965	10,014	1406,427	750,980
-17,950	10,048	1405,316	750,518
-16,936	10,042	1404,593	750,074
-15,921	9,989	1403,564	749,246
-14,906	10,014	1402,505	748,767
-13,892	10,034	1401,503	748,295
-12,877	10,034	1400,736	747,857
-11,863	10,015	1399,961	747,323
-10,848	9,990	1398,962	746,645
-9,833	9,947	1398,150	745,981
-8,819	9,919	1397,248	745,342
-7,804	9,939	1396,289	744,894
-6,790	9,919	1395,242	744,210
-5,775	9,948	1394,126	743,722
-4,760	9,919	1393,320	743,129
-3,746	9,918	1392,313	742,557
-2,731	9,880	1391,604	741,973
-1,717	9,837	1390,727	741,277
-0,702	9,817	1388,965	740,215
0,313	13,895	1301,429	712,244
1,327	30,142	691,023	415,071
2,342	46,839	119,519	78,221
3,356	2,198	16,422	8,345
4,371	9,935	3,548	1,894
5,386	-25,298	0,990	0,411
6,400	800,000	0,220	0,571
7,415	-164,263	-0,120	-0,004
8,429	255,644	-0,270	-0,327
9,444	158,418	-0,349	-0,342
10,459	120,315	-0,184	-0,161
11,473	130,861	-0,248	-0,224
12,488	7,015	-0,333	-0,174
13,502	-42,178	-0,289	-0,103
14,517	50,555	-0,339	-0,226
15,531	77,889	-0,357	-0,268
16,546	27,594	-0,312	-0,184
17,561	95,500	-0,331	-0,266
18,575	-46,385	-0,198	-0,068
19,590	174,771	-0,238	-0,243
20,604	-2,338	-0,267	-0,132
21,619	167,070	-0,377	-0,378
22,634	317,420	-0,321	-0,429
23,648	146,163	-0,388	-0,367
24,663	89,896	-0,422	-0,331
25,677	42,983	-0,402	-0,258
26,692	72,934	-0,303	-0,222
27,707	21,459	-0,308	-0,176
28,721	86,441	-0,386	-0,299
29,736	404,049	-0,173	-0,257
30,750	97,164	-0,415	-0,335
31,765	89,354	-0,379	-0,297
32,780	77,084	-0,276	-0,206
33,794	63,831	-0,293	-0,207
34,809	367,473	-0,275	-0,392
35,823	46,454	-0,394	-0,257
36,838	214,783	-0,341	-0,381
37,853	122,163	-0,392	-0,344
38,867	186,047	-0,312	-0,327
39,882	41,067	-0,283	-0,179
40,896	-5,945	-0,463	-0,222
41,911	114,538	-0,322	-0,276
42,926	78,554	-0,182	-0,137
43,940	163,391	-0,345	-0,341
44,955	166,352	-0,405	-0,404
45,969	150,454	-0,344	-0,328
46,984	133,642	-0,440	-0,400
47,999	31,616	-0,340	-0,205
49,013	-28,887	-0,426	-0,171
50,028	-199,326	-0,385	0,001
51,042	-82,042	-0,438	-0,100
52,057	413,889	-0,145	-0,218
53,071	-33,839	-0,463	-0,178
54,086	60,491	-0,375	-0,260
55,101	644,243	-0,146	-0,263
56,115	110,836	-0,300	-0,254
57,130	-29,484	-0,395	-0,158
58,144	168,362	-0,282	-0,282
59,159	-28,369	-0,432	-0,174
60,174	30,400	-0,373	-0,223
61,188	170,211	-0,305	-0,306
62,203	85,485	-0,234	-0,180
63,217	108,774	-0,238	-0,200
64,232	-81,693	-0,278	-0,064
65,247	-41,033	-0,373	-0,135
66,261	13,986	-0,399	-0,217
67,276	-103,483	-0,383	-0,063
68,290	-45,406	-0,451	-0,156
69,305	27,093	-0,329	-0,193
70,320	244,589	-0,244	-0,288
71,334	-0,215	-0,297	-0,148
72,349	14,604	-0,354	-0,193
73,363	81,402	-0,330	-0,250
74,378	47,590	-0,338	-0,220
75,393	-5,141	-0,272	-0,131
76,407	25,560	-0,230	-0,134
77,422	39,658	-0,297	-0,186
78,436	136,532	-0,264	-0,241
79,451	104,875	-0,332	-0,274
80,466	-56,269	-0,360	-0,112
81,480	106,682	-0,217	-0,181
82,495	71,408	-0,201	-0,146
83,509	139,660	-0,187	-0,173
84,524	800,000	-0,120	-0,280
85,539	-47,802	-0,259	-0,087
86,553	-2,707	-0,325	-0,158
87,568	61,248	-0,285	-0,198
88,582	130,798	-0,319	-0,286
89,597	28,308	-0,300	-0,177
90,611	87,961	-0,211	-0,163
91,626	75,464	-0,374	-0,276
92,641	-15,413	-0,237	-0,106
93,655	48,222	-0,336	-0,220
94,670	136,775	-0,199	-0,182
95,684	45,811	-0,323	-0,209
96,699	113,917	-0,167	-0,142
97,714	61,025	-0,320	-0,222
98,728	-44,888	-0,319	-0,111
99,743	-98,118	-0,181	-0,032
100,757	167,965	-0,240	-0,239
101,772	53,470	-0,318	-0,213
102,787	152,591	-0,386	-0,369
103,801	168,758	-0,278	-0,277
104,816	348,696	-0,118	-0,163
105,830	-47,966	-0,177	-0,060
106,845	78,906	-0,229	-0,171
107,860	-22,194	-0,257	-0,108
108,874	-168,962	-0,347	-0,009
109,889	320,298	-0,230	-0,306
110,903	62,989	-0,271	-0,190
111,918	73,047	-0,312	-0,228
112,933	101,488	-0,187	-0,152
113,947	-0,895	-0,253	-0,125
114,962	269,880	-0,184	-0,226
115,976	81,145	-0,209	-0,158
116,991	-38,196	-0,282	-0,104
118,006	103,057	-0,186	-0,152
119,020	189,205	-0,191	-0,200
120,035	-40,013	-0,310	-0,112
121,049	-133,427	-0,181	-0,016
122,064	191,387	-0,194	-0,204
123,079	-46,922	-0,347	-0,118
124,093	189,206	-0,174	-0,182
125,108	27,728	-0,434	-0,255
126,122	97,014	-0,291	-0,233
127,137	-0,428	-0,276	-0,137
128,151	199,663	-0,168	-0,180
129,166	164,484	-0,173	-0,170
130,181	-19,031	-0,303	-0,131
131,195	-35,530	-0,311	-0,117
132,210	77,766	-0,353	-0,262
133,224	121,825	-0,149	-0,130
134,239	54,781	-0,211	-0,142
135,254	13,780	-0,192	-0,104
136,268	410,296	-0,154	-0,228
137,283	149,296	-0,187	-0,176
138,297	-102,906	-0,296	-0,048
139,312	267,549	-0,170	-0,207
140,327	24,430	-0,317	-0,182
141,341	-79,181	-0,353	-0,083
142,356	167,263	-0,226	-0,223
143,370	-6,412	-0,218	0,103
144,385	-64,706	-0,337	-0,094
145,400	-6,507	-0,164	-0,078
146,414	116,527	-0,329	-0,281
147,429	108,120	-0,305	-0,253
148,443	95,706	-0,127	-0,101
149,458	211,729	-0,210	-0,231
150,473	-97,660	-0,266	-0,048
151,487	373,399	-0,208	-0,295
152,502	277,657	-0,218	-0,271
153,516	273,832	-0,170	-0,209
154,531	-17,528	-0,360	-0,157
155,546	101,268	-0,172	-0,139
156,560	364,879	-0,175	-0,246
157,575	214,375	-0,260	-0,287
158,589	133,757	-0,189	-0,170
159,604	188,778	-0,260	-0,271
160,619	34,980	-0,250	-0,152
161,633	390,268	-0,224	-0,324
162,648	330,937	-0,136	-0,183
163,662	170,539	-0,187	-0,186
164,677	-77,022	-0,207	-0,050
165,692	40,079	-0,167	-0,104
166,706	-40,297	-0,254	-0,091
167,721	-25,513	-0,237	-0,097
168,735	-9,829	-0,236	-0,109
169,750	-31,315	-0,229	-0,089
170,764	-54,872	-0,369	-0,115
171,779	332,330	-0,161	-0,216
172,794	800,000	-0,069	-0,156
173,808	800,000	-0,073	-0,161
174,823	158,196	-0,266	-0,256
175,837	49,444	-0,369	-0,241
176,852	182,074	-0,230	-0,236
177,867	-51,466	-0,142	-0,046
178,881	181,923	-0,179	-0,183
179,896	101,963	-0,205	-0,166
180,910	-200,000	-0,056	-0,191
181,925	522,694	-0,142	-0,232
182,940	143,086	-0,302	-0,279
183,954	-4,425	-0,177	-0,085
184,969	222,322	-0,155	-0,173
185,983	604,012	-0,129	-0,224
186,998	84,020	-0,202	-0,153
188,013	240,406	-0,127	-0,147
189,027	543,404	-0,133	-0,221
190,042	296,208	-0,165	-0,210
191,056	133,129	-0,249	-0,223
192,071	-4,347	-0,374	-0,179
193,086	-51,577	-0,146	-0,047
194,100	255,163	-0,107	-0,128
195,115	133,438	-0,162	-0,146
196,129	334,180	-0,142	-0,192
197,144	-85,093	-0,190	-0,041
198,159	51,576	-0,219	-0,144
199,173	234,702	-0,191	-0,219
200,188	301,120	-0,128	-0,165
201,202	-186,758	-0,205	0,002
202,217	49,014	-0,055	-0,036
203,232	356,864	-0,176	-0,244
204,246	158,500	-0,216	-0,208
205,261	38,691	-0,160	-0,098
206,275	143,888	-0,216	-0,199
207,290	24,025	-0,153	-0,087
208,304	-158,748	-0,257	0,010
209,319	57,028	-0,179	-0,121
210,334	-75,616	-0,274	-0,067
211,348	25,260	-0,224	-0,129
212,363	123,756	-0,231	-0,201
213,377	89,741	-0,280	-0,216
214,392	-200,000	-0,074	-0,270
215,407	800,000	-0,076	-0,215
216,421	77,379	-0,216	-0,159
217,436	431,190	-0,192	-0,289
218,450	-0,982	-0,261	-0,127
219,465	80,322	-0,228	-0,169
220,480	-65,802	-0,288	-0,079
221,494	-16,070	-0,302	-0,133
222,509	-29,963	-0,097	-0,038
223,523	55,914	-0,160	-0,107
224,538	-200,000	0,036	-0,151
225,553	532,298	-0,123	-0,202
226,567	364,630	-0,184	-0,257
227,582	800,000	-0,045	-0,136
228,596	146,821	-0,183	-0,170
229,611	-63,797	-0,110	-0,031
230,626	800,000	-0,088	-0,207
231,640	-187,771	-0,195	0,002
232,655	-200,000	-0,056	-0,290
233,669	10,909	-0,194	-0,102
234,684	138,062	-0,148	-0,134
235,699	370,073	-0,142	-0,199
236,713	155,946	-0,102	-0,097
237,728	-182,199	-0,111	0,001
238,742	16,191	-0,134	-0,073
239,757	115,569	-0,098	-0,083
240,772	-84,286	-0,156	-0,034
241,786	450,509	-0,109	-0,167
242,801	800,000	-0,052	-0,137
243,815	-57,417	-0,339	-0,102
244,830	51,224	-0,203	-0,133
245,844	-60,051	-0,327	-0,096
246,859	-38,183	-0,201	-0,073
247,874	96,576	-0,197	-0,155
248,888	384,300	-0,173	-0,247
249,903	171,784	-0,257	-0,255
250,917	585,363	-0,131	-0,224
251,932	278,584	-0,164	-0,203
252,947	93,424	-0,257	-0,201
253,961	57,766	-0,171	-0,115
254,976	26,516	-0,130	-0,075
255,990	92,429	-0,178	-0,138
257,005	111,218	-0,235	-0,195
258,020	140,289	-0,115	-0,105
259,034	267,852	-0,095	-0,115
260,049	15,497	-0,131	-0,071
261,063	112,129	-0,090	-0,075
262,078	44,885	-0,096	-0,061
263,093	310,248	-0,181	-0,234
264,107	471,629	-0,124	-0,192
265,122	-33,997	-0,203	-0,077
266,136	-33,911	-0,053	0,020
267,151	70,124	-0,122	-0,087
268,166	-112,709	-0,147	0,020
269,180	723,410	-0,121	-0,224
270,195	393,337	-0,151	-0,217
271,209	-46,871	-0,276	-0,093
272,224	40,738	-0,139	-0,086
273,239	72,792	-0,097	-0,069
274,253	-121,432	-0,220	-0,025
275,268	-12,983	-0,227	-0,101
276,282	6,340	-0,199	-0,101
277,297	304,288	-0,172	-0,220
278,312	107,755	-0,183	-0,150
279,326	53,679	-0,225	-0,149
280,341	78,384	-0,137	-0,101
281,355	76,014	-0,078	-0,057
282,370	485,900	-0,042	-0,066
283,384	800,000	-0,121	-0,280
284,399	-73,400	-0,117	-0,029
285,414	32,655	-0,232	-0,138
286,428	20,233	-0,125	-0,069
287,443	184,509	-0,136	-0,139
288,457	-49,434	-0,024	0,008
289,472	-200,000	-0,010	-0,044
290,487	253,153	-0,200	-0,235
291,501	-200,000	-0,008	-0,281
292,516	157,403	-0,169	-0,161
293,530	-200,000	-0,023	-0,152
294,545	112,473	-0,109	-0,091
295,560	-37,582	-0,178	-0,065
296,574	-10,859	-0,111	-0,050
297,589	-39,639	-0,158	-0,056
298,603	-200,000	-0,015	-0,258
299,618	225,045	-0,177	-0,197
300,633	212,683	-0,175	-0,190
301,647	-100,195	-0,141	-0,024
302,662	-47,023	-0,141	-0,047
303,676	-200,000	-0,015	0,137
304,691	612,778	-0,108	-0,186
305,706	95,729	-0,215	-0,169
306,720	261,256	-0,159	-0,189
307,735	1,621	-0,203	-0,100
308,749	104,124	-0,123	-0,099
309,764	-9,175	-0,176	-0,081
310,779	249,660	-0,084	0,098
311,793	5,244	-0,182	0,092
312,808	100,241	-0,227	-0,180
313,822	7,843	-0,169	-0,087
314,837	190,767	-0,181	-0,187
315,852	800,000	-0,068	-0,131
316,866	175,374	-0,153	-0,152
317,881	182,465	-0,068	-0,069
318,895	231,109	-0,177	-0,199
319,910	-40,762	-0,276	-0,098
320,925	6,900	-0,303	-0,154
321,939	62,579	-0,125	-0,086
322,954	212,481	-0,109	-0,118
323,968	-49,002	-0,112	0,036
324,983	114,359	-0,020	0,017
325,997	43,632	-0,121	-0,076
327,012	121,677	-0,125	-0,107
328,027	18,557	-0,183	-0,100
329,041	223,842	-0,094	-0,105
330,056	299,967	-0,149	-0,189
331,070	-26,691	-0,058	0,023
332,085	-200,000	-0,013	-0,120
333,100	475,411	-0,108	-0,168
334,114	218,169	-0,177	-0,194
335,129	77,822	-0,169	-0,123
336,143	113,947	-0,171	-0,142
337,158	-123,099	-0,175	0,019
338,173	-155,482	-0,152	-0,007
339,187	178,827	-0,175	-0,176
340,202	64,723	-0,115	-0,080
341,216	-110,551	-0,149	-0,021
342,231	800,000	-0,043	-0,084
343,246	46,615	-0,202	-0,128
344,260	-57,622	-0,201	-0,060
345,275	800,000	-0,120	-0,232
346,289	-51,796	-0,094	-0,030
347,304	170,593	-0,070	0,069
348,319	-74,295	-0,102	-0,025
349,333	-200,000	-0,003	-0,117
350,348	232,684	-0,099	-0,111
351,362	53,877	-0,118	-0,078
352,377	-56,645	-0,170	0,051
353,392	28,771	0,014	-0,008
354,406	126,983	-0,195	-0,169
355,421	208,253	1310,282	1402,603
356,435	160,233	1470,443	1403,074
