DTS Sentinel unit serial number:	SN410029Multiplexer serial number:	ORYXHardware model number:	OX2-SRSoftware version number:	ORYX F/W v4,00 Oryx Data Collector v3.7.2.0data status	okinstallation	B3 Nyhavnadifferential loss correction	single-endedforward channel	channel 1reverse channel	N/Adate	2023/12/02time	05:12:30forward acquisition time	300,00reverse acquisition time	0,00gamma	499,1914k internal	0,3194k external	0,3194temperature offset calibration	1,0000default loss term (dB/km)	0,3820temperature slope calibration	1,0000multiplexer offset coefficient	1,0000multiplexer slope coefficient	1,0000fibre end	0,00T internal ref (°C)	16,31T ext. ref 1 (°C)	1,08T ext. ref 2 (°C)	1,07length (m)	temperature (°C)	Stokes	anti-Stokes-744,400	107,538	-0,284	-0,247
-743,385	-200,000	0,072	0,325
-742,371	800,000	-0,099	-0,262
-741,356	800,000	0,105	0,324
-740,342	37,533	-0,200	-0,129
-739,327	-200,000	0,023	0,329
-738,312	103,043	-0,221	-0,189
-737,298	-200,000	0,020	0,281
-736,283	52,181	-0,319	-0,221
-735,269	-200,000	0,103	0,353
-734,254	178,222	-0,299	-0,318
-733,239	-75,677	-0,180	0,046
-732,225	210,465	-0,111	-0,127
-731,210	-78,710	0,118	-0,029
-730,196	800,000	0,079	-0,173
-729,181	-97,013	-0,077	-0,015
-728,167	-100,122	0,119	0,021
-727,152	-200,000	0,002	0,027
-726,137	-7,303	-0,037	-0,018
-725,123	122,680	-0,057	-0,052
-724,108	-200,000	0,002	0,031
-723,094	78,120	-0,089	-0,069
-722,079	-28,971	-0,116	-0,048
-721,064	-200,000	0,022	-0,097
-720,050	175,711	-0,086	-0,091
-719,035	666,666	-0,064	0,120
-718,021	87,830	-0,030	0,024
-717,006	-124,192	0,046	0,005
-715,991	-61,673	-0,091	-0,028
-714,977	44,792	0,044	-0,029
-713,962	-200,000	0,018	0,153
-712,948	481,460	0,069	-0,114
-711,933	800,000	0,030	0,086
-710,918	7,968	-0,036	0,020
-709,904	-29,747	-0,123	-0,051
-708,889	665,408	-0,024	-0,045
-707,875	-153,192	-0,131	-0,007
-706,860	-30,828	-0,143	-0,059
-705,845	-64,083	0,114	-0,034
-704,831	-200,000	-0,022	0,149
-703,816	-200,000	-0,006	-0,137
-702,802	-200,000	-0,026	-0,098
-701,787	221,062	-0,019	-0,022
-700,772	800,000	0,019	0,050
-699,758	-200,000	-0,015	0,068
-698,743	-78,441	0,080	-0,020
-697,729	-200,000	0,006	0,091
-696,714	-200,000	0,005	-0,067
-695,699	-87,019	-0,141	-0,031
-694,685	104,228	-0,093	-0,080
-693,670	-139,971	-0,123	0,009
-692,656	800,000	0,046	-0,113
-691,641	361,241	-0,033	0,049
-690,627	800,000	-0,037	0,082
-689,612	-97,789	-0,120	-0,022
-688,597	51,579	0,045	0,031
-687,583	322,871	0,032	0,045
-686,568	-9,947	-0,022	-0,010
-685,554	131,737	-0,130	-0,122
-684,539	163,026	-0,139	-0,142
-683,524	0,513	0,044	-0,023
-682,510	80,556	-0,028	0,022
-681,495	559,988	0,052	-0,092
-680,481	319,284	-0,116	0,160
-679,466	-200,000	0,007	-0,102
-678,451	-101,049	-0,067	-0,012
-677,437	-22,014	-0,063	0,028
-676,422	28,001	-0,055	0,034
-675,408	534,272	0,002	-0,004
-674,393	-130,766	-0,156	0,015
-673,378	433,837	-0,031	-0,049
-672,364	425,199	-0,015	0,024
-671,349	-200,000	-0,002	-0,093
-670,335	-200,000	-0,018	-0,068
-669,320	-200,000	-0,016	0,107
-668,305	-200,000	0,015	0,185
-667,291	-92,079	-0,169	-0,035
-666,276	341,854	0,054	-0,077
-665,262	800,000	-0,042	-0,096
-664,247	-80,363	0,141	-0,034
-663,232	800,000	0,032	-0,093
-662,218	-129,079	0,060	0,006
-661,203	299,765	0,074	-0,100
-660,189	-63,398	-0,057	0,017
-659,174	-200,000	0,007	-0,065
-658,159	-10,453	0,028	-0,014
-657,145	137,795	0,040	0,038
-656,130	-8,078	0,016	-0,008
-655,116	45,381	0,051	0,034
-654,101	441,210	-0,053	0,085
-653,086	50,809	-0,072	-0,049
-652,072	800,000	0,025	-0,064
-651,057	-200,000	-0,003	0,061
-650,043	39,595	-0,085	0,055
-649,028	100,123	-0,067	0,057
-648,014	548,768	0,021	0,036
-646,999	277,585	0,042	0,054
-645,984	-88,362	0,132	0,029
-644,970	-14,538	-0,172	-0,080
-643,955	-127,706	-0,051	-0,005
-642,941	800,000	-0,073	-0,159
-641,926	-11,664	-0,024	-0,012
-640,911	396,791	0,104	0,159
-639,897	686,684	0,009	0,016
-638,882	-200,000	0,008	-0,095
-637,868	496,362	-0,036	-0,060
-636,853	-178,274	-0,075	-0,001
-635,838	-42,223	-0,116	-0,043
-634,824	-51,643	-0,094	0,032
-633,809	250,169	0,021	0,026
-632,795	800,000	0,026	0,077
-631,780	-167,971	-0,085	0,002
-630,765	800,000	-0,026	-0,079
-629,751	604,206	-0,093	-0,168
-628,736	800,000	-0,016	0,035
-627,722	43,846	-0,073	0,049
-626,707	290,273	0,047	0,062
-625,692	12,636	-0,094	0,052
-624,678	28,703	-0,040	-0,024
-623,663	-200,000	0,034	-0,225
-622,649	35,661	-0,062	-0,039
-621,634	-122,302	-0,152	0,018
-620,619	24,272	0,136	0,081
-619,605	800,000	0,034	-0,109
-618,590	-200,000	-0,031	-0,101
-617,576	-84,251	0,105	0,024
-616,561	-200,000	-0,006	0,137
-615,546	-177,917	-0,057	0,001
-614,532	-113,777	-0,034	0,005
-613,517	-139,898	-0,061	-0,005
-612,503	118,508	-0,036	-0,032
-611,488	222,250	0,023	-0,027
-610,474	127,598	-0,045	-0,042
-609,459	18,203	0,087	-0,050
-608,444	-108,033	-0,122	0,019
-607,430	-200,000	-0,024	-0,146
-606,415	800,000	-0,020	-0,056
-605,401	-23,525	0,097	-0,042
-604,386	364,827	-0,051	-0,074
-603,371	-160,015	-0,197	0,008
-602,357	-200,000	-0,000	-0,066
-601,342	-200,000	-0,002	-0,113
-600,328	164,935	0,059	-0,061
-599,313	-30,514	-0,097	0,040
-598,298	366,201	0,095	0,140
-597,284	-177,788	0,095	0,002
-596,269	50,641	0,082	0,056
-595,255	135,863	0,081	0,076
-594,240	800,000	-0,038	-0,085
-593,225	150,004	-0,093	-0,092
-592,211	-200,000	-0,011	-0,050
-591,196	225,378	0,016	0,018
-590,182	-200,000	0,008	-0,095
-589,167	-102,031	0,081	-0,014
-588,152	-200,000	-0,002	0,040
-587,138	800,000	-0,024	0,061
-586,123	6,385	0,044	-0,024
-585,109	-200,000	-0,038	-0,201
-584,094	-9,842	-0,063	0,030
-583,079	-200,000	0,021	-0,075
-582,065	-200,000	-0,016	0,096
-581,050	-150,202	-0,162	0,009
-580,036	-31,131	0,047	-0,019
-579,021	622,465	-0,094	-0,172
-578,006	-200,000	0,005	-0,072
-576,992	14,962	0,148	-0,084
-575,977	-121,587	0,125	-0,015
-574,963	-181,081	-0,015	0,000
-573,948	543,795	-0,069	0,120
-572,934	-115,559	-0,034	-0,005
-571,919	-90,329	0,112	-0,023
-570,904	183,823	-0,041	-0,044
-569,890	-81,344	-0,064	-0,015
-568,875	-200,000	0,043	-0,151
-567,861	800,000	0,020	0,045
-566,846	222,958	0,092	-0,108
-565,831	800,000	0,026	-0,074
-564,817	-200,000	0,005	-0,052
-563,802	-101,431	-0,135	0,024
-562,788	-147,512	-0,104	-0,006
-561,773	800,000	0,039	0,100
-560,758	-96,484	0,086	0,016
-559,744	324,585	0,063	0,088
-558,729	-44,483	0,018	0,006
-557,715	-135,737	-0,136	-0,012
-556,700	800,000	0,031	-0,071
-555,685	180,822	-0,111	0,118
-554,671	14,429	-0,013	0,008
-553,656	-3,250	0,040	-0,020
-552,642	-95,528	0,044	0,009
-551,627	-200,000	-0,015	0,060
-550,612	74,716	0,111	0,084
-549,598	181,574	-0,028	0,029
-548,583	-200,000	-0,002	-0,037
-547,569	85,932	-0,060	0,048
-546,554	-104,974	0,185	0,030
-545,539	77,972	-0,054	0,042
-544,525	255,394	0,033	0,041
-543,510	247,627	-0,103	-0,126
-542,496	425,350	-0,075	-0,118
-541,481	-200,000	-0,014	-0,106
-540,466	109,452	0,043	-0,037
-539,452	800,000	-0,018	0,036
-538,437	245,404	-0,059	-0,072
-537,423	76,456	-0,087	-0,066
-536,408	20,434	0,081	0,047
-535,393	-83,030	-0,102	0,023
-534,379	185,630	0,129	-0,139
-533,364	156,445	-0,007	-0,007
-532,350	24,320	-0,065	0,039
-531,335	55,581	-0,035	0,025
-530,321	-144,878	-0,080	-0,005
-529,306	115,315	-0,141	0,125
-528,291	303,292	0,008	-0,011
-527,277	516,610	-0,070	0,119
-526,262	100,898	-0,079	-0,066
-525,248	-34,919	0,115	0,045
-524,233	-200,000	0,002	-0,024
-523,218	120,846	-0,093	-0,084
-522,204	45,732	-0,070	0,047
-521,189	-66,954	-0,127	0,036
-520,175	-102,358	-0,133	0,023
-519,160	654,786	-0,056	-0,104
-518,145	47,881	0,069	-0,046
-517,131	97,398	-0,058	-0,048
-516,116	190,965	-0,079	0,086
-515,102	677,159	-0,060	0,113
-514,087	800,000	-0,047	-0,126
-513,072	800,000	0,023	-0,074
-512,058	284,483	0,016	-0,021
-511,043	48,089	-0,073	-0,049
-510,029	-133,035	0,030	-0,003
-509,014	161,178	-0,020	-0,020
-507,999	-68,856	-0,228	0,063
-506,985	-200,000	-0,005	-0,032
-505,970	-200,000	-0,027	-0,096
-504,956	-200,000	0,001	-0,210
-503,941	36,722	0,115	0,073
-502,926	492,600	-0,018	-0,030
-501,912	81,936	0,178	0,139
-500,897	-124,775	0,094	0,010
-499,883	-70,741	0,128	-0,035
-498,868	-97,220	0,189	0,035
-497,853	800,000	-0,060	-0,126
-496,839	89,439	0,032	-0,026
-495,824	39,783	0,120	0,077
-494,810	-200,000	-0,021	0,195
-493,795	58,319	-0,112	0,079
-492,781	80,267	-0,011	-0,008
-491,766	800,000	-0,057	-0,153
-490,751	480,154	-0,031	-0,051
-489,737	-37,123	-0,033	0,013
-488,722	-200,000	0,011	0,083
-487,708	524,916	-0,039	0,067
-486,693	411,253	-0,057	0,088
-485,678	-200,000	-0,033	-0,122
-484,664	-114,821	-0,063	-0,009
-483,649	-61,267	-0,111	0,033
-482,635	123,912	0,119	0,107
-481,620	128,206	0,184	0,169
-480,605	230,077	0,032	-0,038
-479,591	800,000	0,009	0,023
-478,576	-200,000	0,006	0,069
-477,562	-95,984	-0,040	-0,008
-476,547	296,696	-0,039	0,052
-475,532	-43,102	0,089	-0,033
-474,518	96,492	-0,056	0,046
-473,503	-200,000	0,008	-0,126
-472,489	742,071	0,019	0,037
-471,474	757,366	0,041	0,081
-470,459	62,513	-0,034	-0,024
-469,445	60,622	0,046	0,033
-468,430	671,491	0,061	0,114
-467,416	7,363	-0,027	0,015
-466,401	77,452	0,092	-0,070
-465,386	-59,572	-0,162	0,050
-464,372	-38,454	-0,067	0,025
-463,357	3,650	0,051	0,027
-462,343	-87,456	-0,154	0,033
-461,328	-58,709	0,156	-0,048
-460,313	5,144	0,049	-0,026
-459,299	-200,000	-0,005	0,093
-458,284	-67,577	-0,114	-0,032
-457,270	-200,000	0,019	-0,085
-456,255	185,780	-0,082	-0,088
-455,241	103,963	0,041	-0,035
-454,226	-80,762	0,205	-0,049
-453,211	-22,654	0,059	-0,026
-452,197	-200,000	0,053	0,173
-451,182	223,558	0,041	0,048
-450,168	-19,801	0,053	-0,023
-449,153	-131,389	-0,116	-0,011
-448,138	-31,278	0,013	-0,005
-447,124	-200,000	-0,013	-0,067
-446,109	210,145	0,020	-0,022
-445,095	347,570	0,071	0,101
-444,080	-59,610	0,045	0,014
-443,065	-176,277	0,094	-0,002
-442,051	-122,198	0,036	-0,004
-441,036	-58,887	-0,056	-0,017
-440,022	125,747	-0,157	-0,143
-439,007	262,361	0,018	-0,022
-437,992	-78,712	0,181	-0,044
-436,978	-200,000	-0,004	0,156
-435,963	800,000	-0,038	0,105
-434,949	77,090	0,116	-0,089
-433,934	800,000	-0,009	-0,018
-432,919	-160,316	-0,111	-0,004
-431,905	114,669	-0,065	-0,057
-430,890	20,401	0,130	0,076
-429,876	-53,719	0,067	0,022
-428,861	-188,206	0,073	-0,001
-427,846	-44,107	-0,080	-0,029
-426,832	136,910	-0,053	-0,050
-425,817	-200,000	-0,004	-0,143
-424,803	-16,445	0,043	-0,019
-423,788	-28,151	0,068	0,028
-422,773	408,120	0,023	-0,035
-421,759	196,099	-0,059	0,064
-420,744	2,107	0,078	-0,040
-419,730	74,588	-0,100	0,076
-418,715	800,000	-0,018	-0,053
-417,701	-113,128	0,032	-0,004
-416,686	-87,687	0,103	0,022
-415,671	-200,000	0,001	0,024
-414,657	-68,663	0,074	0,021
-413,642	-200,000	-0,001	0,077
-412,628	324,740	-0,064	0,088
-411,613	-200,000	-0,001	0,047
-410,598	99,877	0,091	0,076
-409,584	-200,000	0,018	-0,131
-408,569	-200,000	0,025	0,176
-407,555	268,367	0,054	0,068
-406,540	-133,367	-0,085	0,008
-405,525	70,092	-0,075	-0,056
-404,511	5,420	-0,070	0,037
-403,496	-84,417	0,119	-0,027
-402,482	31,242	-0,054	0,033
-401,467	56,763	0,110	-0,077
-400,452	148,139	0,182	0,177
-399,438	800,000	0,018	0,050
-398,423	37,764	0,095	0,060
-397,409	216,792	-0,143	-0,164
-396,394	439,386	-0,111	-0,174
-395,379	-5,319	0,142	-0,070
-394,365	224,400	-0,071	0,083
-393,350	-90,763	0,160	0,033
-392,336	-17,179	0,060	0,027
-391,321	-159,344	-0,050	0,002
-390,306	245,152	-0,058	0,070
-389,292	-200,000	-0,036	0,179
-388,277	489,160	0,053	0,087
-387,263	800,000	-0,060	0,131
-386,248	-116,812	-0,137	0,018
-385,233	-142,338	-0,079	0,006
-384,219	-63,291	0,084	-0,025
-383,204	1,060	-0,159	0,082
-382,190	-200,000	-0,007	0,065
-381,175	34,788	0,066	-0,041
-380,160	-200,000	-0,016	-0,102
-379,146	-95,682	0,064	0,012
-378,131	-200,000	0,001	0,059
-377,117	800,000	0,006	0,016
-376,102	15,371	-0,134	-0,075
-375,088	261,623	-0,031	-0,039
-374,073	109,323	-0,027	0,023
-373,058	646,504	-0,048	-0,089
-372,044	-43,320	0,069	0,025
-371,029	-200,000	0,012	-0,050
-370,015	-191,125	-0,044	0,000
-369,000	-200,000	0,028	-0,123
-367,985	800,000	0,038	0,095
-366,971	95,746	-0,068	-0,055
-365,956	22,764	0,070	-0,041
-364,942	-6,944	0,167	0,081
-363,927	156,218	0,086	0,085
-362,912	-119,789	0,089	-0,011
-361,898	59,459	-0,034	-0,024
-360,883	585,233	0,029	-0,051
-359,869	667,545	-0,007	0,013
-358,854	800,000	0,017	-0,047
-357,839	800,000	0,030	0,064
-356,825	190,941	0,084	-0,091
-355,810	-172,914	-0,060	-0,001
-354,796	800,000	0,021	-0,043
-353,781	-60,241	-0,103	-0,031
-352,766	-180,673	-0,086	0,001
-351,752	-45,519	0,052	0,018
-350,737	317,738	-0,082	0,111
-349,723	-112,093	-0,085	-0,012
-348,708	-200,000	0,051	0,183
-347,693	56,704	0,098	0,068
-346,679	-200,000	0,038	-0,185
-345,664	-200,000	-0,010	-0,097
-344,650	-87,696	0,064	0,014
-343,635	800,000	-0,069	0,193
-342,620	-200,000	0,005	0,038
-341,606	144,430	0,057	0,055
-340,591	-200,000	-0,007	-0,029
-339,577	57,555	-0,072	-0,051
-338,562	-143,595	0,076	0,005
-337,548	73,695	0,069	-0,052
-336,533	-158,380	0,142	-0,006
-335,518	-200,000	0,018	0,090
-334,504	431,818	0,111	0,173
-333,489	344,046	-0,033	-0,047
-332,475	-58,548	0,080	0,025
-331,460	-200,000	-0,006	0,019
-330,445	131,089	0,122	-0,112
-329,431	542,860	0,026	0,045
-328,416	-200,000	0,001	-0,054
-327,402	-200,000	-0,000	-0,097
-326,387	147,531	0,038	-0,037
-325,372	-200,000	-0,013	-0,120
-324,358	-200,000	-0,021	0,070
-323,343	-57,726	0,097	-0,030
-322,329	159,289	-0,073	0,073
-321,314	-4,479	0,086	0,042
-320,299	800,000	0,021	0,050
-319,285	519,919	0,031	0,052
-318,270	-167,771	-0,092	-0,003
-317,256	-200,000	-0,002	-0,061
-316,241	30,940	0,078	0,048
-315,226	-21,145	-0,163	0,071
-314,212	-68,322	0,104	0,029
-313,197	721,042	0,005	0,009
-312,183	14,955	0,140	-0,079
-311,168	96,489	0,048	0,040
-310,153	-148,034	-0,137	0,008
-309,139	369,779	-0,019	-0,028
-308,124	710,909	0,021	-0,039
-307,110	268,627	-0,094	-0,118
-306,095	42,780	0,062	-0,040
-305,080	-200,000	-0,007	0,146
-304,066	-78,604	-0,130	0,032
-303,051	800,000	-0,031	-0,069
-302,037	-200,000	0,006	-0,143
-301,022	276,052	-0,107	0,136
-300,008	800,000	0,050	0,102
-298,993	187,466	0,047	-0,050
-297,978	800,000	0,028	-0,056
-296,964	-200,000	0,007	0,051
-295,949	121,136	0,017	-0,015
-294,935	-4,592	-0,116	-0,057
-293,920	723,888	0,055	-0,105
-292,905	-200,000	0,003	-0,043
-291,891	-200,000	-0,019	-0,118
-290,876	176,719	-0,050	0,052
-289,862	130,849	0,041	-0,038
-288,847	-91,744	0,087	0,017
-287,832	-200,000	-0,016	-0,150
-286,818	-130,429	-0,115	-0,011
-285,803	-200,000	0,010	0,092
-284,789	-200,000	0,006	0,028
-283,774	-200,000	0,009	-0,097
-282,759	-34,529	-0,122	-0,048
-281,745	6,379	0,086	-0,046
-280,730	-37,455	-0,161	-0,061
-279,716	-25,518	-0,016	-0,007
-278,701	-16,036	0,010	0,005
-277,686	102,789	-0,034	-0,028
-276,672	-129,882	0,079	-0,008
-275,657	-44,637	-0,075	0,027
-274,643	-200,000	0,005	0,042
-273,628	-122,798	0,013	0,001
-272,613	419,337	-0,050	-0,078
-271,599	128,729	0,113	0,103
-270,584	84,706	0,107	0,084
-269,570	790,775	-0,072	-0,142
-268,555	59,639	-0,070	0,049
-267,540	-127,449	-0,184	0,019
-266,526	-43,540	0,114	0,041
-265,511	-40,841	-0,097	-0,036
-264,497	42,241	0,051	-0,033
-263,482	-48,780	0,040	0,014
-262,467	-200,000	0,008	0,081
-261,453	-116,706	0,103	-0,013
-260,438	-200,000	-0,008	-0,144
-259,424	-200,000	0,004	-0,029
-258,409	15,468	0,099	-0,056
-257,395	-200,000	-0,003	-0,071
-256,380	-200,000	-0,057	-0,000
-255,365	-112,114	0,092	0,013
-254,351	236,654	0,091	0,108
-253,336	395,207	0,010	-0,015
-252,322	-123,997	-0,040	-0,004
-251,307	569,962	-0,057	-0,099
-250,292	-200,000	-0,031	0,153
-249,278	-200,000	0,001	-0,043
-248,263	200,978	0,124	0,136
-247,249	-11,362	-0,052	0,024
-246,234	-61,587	-0,097	-0,029
-245,219	-200,000	0,040	-0,142
-244,205	-9,788	-0,097	-0,046
-243,190	-200,000	-0,000	0,092
-242,176	-53,271	0,086	-0,028
-241,161	-109,090	-0,058	0,009
-240,146	125,064	0,070	0,063
-239,132	474,845	0,028	-0,045
-238,117	800,000	0,026	0,057
-237,103	-200,000	-0,026	0,082
-236,088	-68,812	0,063	0,017
-235,073	301,268	0,086	-0,114
-234,059	552,987	0,056	0,096
-233,044	359,978	0,027	0,039
-232,030	-135,197	-0,045	0,004
-231,015	-25,938	-0,167	0,070
-230,000	-200,000	-0,028	-0,090
-228,986	45,619	-0,118	-0,078
-227,971	800,000	0,032	-0,087
-226,957	-68,978	0,158	0,043
-225,942	800,000	-0,038	0,085
-224,927	49,887	0,172	-0,116
-223,913	800,000	-0,040	0,123
-222,898	409,450	-0,110	-0,166
-221,884	-200,000	0,022	-0,070
-220,869	-54,539	0,062	-0,020
-219,855	-200,000	0,012	0,063
-218,840	-200,000	-0,028	0,100
-217,825	-138,350	0,071	-0,006
-216,811	-9,735	-0,217	0,103
-215,796	192,120	-0,024	0,026
-214,782	-122,191	-0,059	-0,007
-213,767	-200,000	-0,020	-0,066
-212,752	13,102	0,123	0,068
-211,738	593,176	0,063	0,112
-210,723	395,952	0,043	0,065
-209,709	-60,214	0,035	0,010
-208,694	597,557	-0,084	0,149
-207,679	366,445	0,085	-0,123
-206,665	105,710	-0,042	0,036
-205,650	-200,000	0,131	0,000
-204,636	-200,000	0,024	0,077
-203,621	442,066	-0,069	0,108
-202,606	-39,543	0,110	-0,041
-201,592	-200,000	0,018	0,095
-200,577	-200,000	0,009	0,048
-199,563	-60,180	-0,107	0,032
-198,548	505,939	0,090	0,149
-197,533	182,221	0,050	0,052
-196,519	-95,908	0,017	0,003
-195,504	252,454	-0,062	-0,076
-194,490	274,829	0,061	0,077
-193,475	-37,249	0,137	0,052
-192,460	124,413	-0,030	0,027
-191,446	-163,872	0,116	-0,004
-190,431	-105,083	-0,078	0,013
-189,417	-80,011	0,086	-0,020
-188,402	94,531	0,105	0,085
-187,387	-39,440	-0,157	-0,058
-186,373	-125,283	0,009	0,001
-185,358	-200,000	0,041	0,142
-184,344	-150,661	-0,059	0,003
-183,329	387,240	0,043	-0,064
-182,315	167,245	0,128	0,130
-181,300	-28,423	-0,118	-0,048
-180,285	658,800	-0,101	-0,187
-179,271	800,000	-0,077	-0,220
-178,256	624,416	-0,033	0,059
-177,242	148,788	0,069	0,067
-176,227	-13,814	0,108	0,050
-175,212	-74,513	-0,075	-0,019
-174,198	409,384	-0,083	0,126
-173,183	39,662	-0,130	-0,083
-172,169	-200,000	-0,006	-0,141
-171,154	-200,000	0,028	-0,164
-170,139	800,000	0,037	-0,090
-169,125	465,877	0,094	0,150
-168,110	794,578	0,038	-0,075
-167,096	-200,000	0,013	0,125
-166,081	351,151	-0,048	0,068
-165,066	71,655	-0,076	0,056
-164,052	152,835	0,033	-0,032
-163,037	-75,235	-0,111	0,028
-162,023	278,243	0,126	0,160
-161,008	527,880	-0,060	0,100
-159,993	0,282	-0,096	0,048
-158,979	-200,000	0,036	-0,217
-157,964	-200,000	0,002	-0,107
-156,950	-28,652	-0,107	0,044
-155,935	-174,562	0,105	0,002
-154,920	800,000	-0,029	0,069
-153,906	800,000	0,023	-0,053
-152,891	-200,000	0,028	0,112
-151,877	-200,000	0,021	0,090
-150,862	161,732	-0,062	-0,062
-149,847	109,570	0,012	0,011
-148,833	757,951	-0,017	0,032
-147,818	271,290	0,019	0,024
-146,804	-200,000	0,029	-0,189
-145,789	-3,700	0,105	0,052
-144,775	-200,000	0,009	0,049
-143,760	96,386	0,039	-0,032
-142,745	-200,000	-0,003	0,049
-141,731	73,855	0,023	-0,017
-140,716	-200,000	0,011	0,068
-139,702	7,388	-0,036	0,019
-138,687	-45,217	-0,086	-0,030
-137,672	-200,000	-0,004	-0,075
-136,658	-68,477	-0,032	0,009
-135,643	2,266	-0,064	-0,033
-134,629	10,843	-0,064	-0,035
-133,614	128,530	0,058	0,053
-132,599	-200,000	-0,011	0,188
-131,585	-200,000	-0,011	0,069
-130,570	800,000	0,031	-0,088
-129,556	261,189	-0,068	-0,084
-128,541	-130,714	0,082	-0,008
-127,526	319,752	-0,065	-0,088
-126,512	-200,000	0,046	-0,147
-125,497	-200,000	-0,007	0,068
-124,483	-65,600	0,086	-0,025
-123,468	-200,000	0,028	0,134
-122,453	-200,000	0,001	-0,075
-121,439	800,000	0,018	-0,047
-120,424	-132,750	-0,024	-0,002
-119,410	800,000	0,059	0,152
-118,395	151,941	0,069	0,067
-117,380	-200,000	-0,015	-0,088
-116,366	616,909	-0,063	-0,112
-115,351	-109,405	-0,066	0,010
-114,337	35,238	-0,091	0,057
-113,322	4,597	-0,037	0,019
-112,307	101,431	0,094	-0,078
-111,293	-200,000	0,012	0,075
-110,278	-179,666	-0,079	0,001
-109,264	-200,000	0,013	-0,061
-108,249	131,909	-0,011	-0,010
-107,234	800,000	-0,027	-0,065
-106,220	-157,101	0,094	-0,004
-105,205	-200,000	-0,002	-0,082
-104,191	-57,976	-0,057	0,018
-103,176	-200,000	0,026	0,098
-102,162	97,179	-0,017	-0,014
-101,147	-9,336	-0,036	0,017
-100,132	188,658	-0,155	-0,165
-99,118	50,931	0,010	0,006
-98,103	-187,377	-0,150	0,001
-97,089	-94,785	0,095	0,018
-96,074	-64,364	0,027	-0,008
-95,059	74,866	-0,030	-0,023
-94,045	-200,000	-0,016	-0,148
-93,030	800,000	-0,017	0,036
-92,016	11,514	-0,135	-0,073
-91,001	168,741	0,112	-0,113
-89,986	32,818	0,089	0,055
-88,972	-200,000	-0,008	0,144
-87,957	-13,914	-0,030	0,013
-86,943	8,075	0,112	0,059
-85,928	-38,156	-0,075	-0,028
-84,913	-200,000	0,023	0,098
-83,899	800,000	-0,010	0,027
-82,884	107,665	-0,032	0,027
-81,870	472,304	0,019	0,031
-80,855	256,279	-0,109	-0,133
-79,840	231,590	0,034	0,040
-78,826	-6,403	0,128	-0,062
-77,811	-83,923	-0,176	0,040
-76,797	104,109	-0,066	0,055
-75,782	207,480	-0,067	-0,074
-74,767	-200,000	0,031	0,128
-73,753	-194,440	0,098	-0,001
-72,738	-200,000	-0,016	0,064
-71,724	-200,000	0,006	-0,064
-70,709	-37,198	-0,084	0,032
-69,694	125,248	-0,090	-0,081
-68,680	-119,780	0,014	0,002
-67,665	-200,000	0,077	0,000
-66,651	109,439	-0,109	0,093
-65,636	-135,593	0,009	0,001
-64,622	-200,000	-0,032	0,107
-63,607	-200,000	-0,020	-0,102
-62,592	-200,000	0,006	-0,130
-61,578	248,234	0,060	0,072
-60,563	153,995	-0,109	0,106
-59,549	800,000	-0,039	0,101
-58,534	-87,047	-1,444	-0,309
-57,519	313,773	-1,630	-2,181
-56,505	-200,000	-0,477	-4,542
-55,490	63,397	0,981	0,697
-54,476	800,000	4,883	11,460
-53,461	-200,000	17,463	276,657
-52,446	800,000	718,731	2207,657
-51,432	558,598	1632,824	2806,655
-50,417	81,271	1657,254	1269,349
-49,403	24,158	1531,433	894,884
-48,388	18,147	1454,603	821,011
-47,373	18,468	1443,996	816,529
-46,359	18,140	1434,714	809,688
-45,344	16,436	1430,106	798,956
-44,330	16,372	1428,359	797,646
-43,315	16,426	1426,535	796,850
-42,300	16,446	1424,742	795,914
-41,286	16,444	1423,747	795,317
-40,271	16,392	1422,446	794,310
-39,257	16,417	1421,274	793,746
-38,242	16,443	1419,825	793,026
-37,227	16,478	1418,540	792,443
-36,213	16,415	1417,547	791,558
-35,198	16,437	1415,968	790,751
-34,184	16,419	1415,171	790,188
-33,169	16,332	1414,047	789,121
-32,154	16,418	1412,955	788,883
-31,140	16,391	1411,519	787,925
-30,125	16,465	1410,455	787,647
-29,111	16,419	1409,334	786,772
-28,096	16,402	1408,310	786,092
-27,082	16,322	1407,129	785,026
-26,067	16,349	1405,871	784,421
-25,052	16,380	1404,888	783,985
-24,038	16,317	1403,994	783,163
-23,023	16,317	1403,040	782,598
-22,009	16,284	1402,063	781,870
-20,994	16,246	1401,008	781,072
-19,979	16,233	1400,312	780,591
-18,965	16,268	1399,186	780,097
-17,950	16,290	1398,078	779,548
-16,936	16,280	1397,116	778,935
-15,921	16,270	1395,962	778,213
-14,906	16,267	1394,964	777,615
-13,892	16,280	1394,118	777,170
-12,877	16,204	1393,395	776,387
-11,863	16,214	1392,418	775,858
-10,848	16,279	1391,373	775,544
-9,833	16,214	1390,382	774,662
-8,819	16,188	1389,653	774,105
-7,804	16,181	1388,470	773,382
-6,790	16,162	1387,707	772,839
-5,775	16,180	1386,532	772,235
-4,760	16,126	1385,823	771,565
-3,746	16,137	1384,924	771,083
-2,731	16,166	1384,044	770,695
-1,717	16,144	1382,971	769,965
-0,702	16,119	1381,267	768,873
0,313	19,961	1302,705	742,854
1,327	36,498	707,456	441,792
2,342	55,970	125,733	86,368
3,356	4,887	16,642	8,650
4,371	1,989	3,183	1,623
5,386	20,689	0,599	0,343
6,400	800,000	-0,074	0,176
7,415	91,737	-0,169	-0,134
8,429	150,032	-0,328	-0,315
9,444	173,330	-0,332	-0,340
10,459	4,795	-0,401	-0,208
11,473	132,469	-0,246	-0,224
12,488	-7,457	-0,361	-0,172
13,502	-75,280	-0,367	-0,092
14,517	14,103	-0,309	-0,170
15,531	80,480	-0,284	-0,217
16,546	140,970	-0,252	-0,236
17,561	27,775	-0,408	-0,243
18,575	140,514	-0,173	-0,162
19,590	55,204	-0,286	-0,195
20,604	33,045	-0,328	-0,201
21,619	86,509	-0,399	-0,311
22,634	128,780	-0,450	-0,407
23,648	160,300	-0,363	-0,358
24,663	147,392	-0,396	-0,378
25,677	79,326	-0,289	-0,219
26,692	76,342	-0,400	-0,300
27,707	118,816	-0,317	-0,277
28,721	62,457	-0,383	-0,270
29,736	49,779	-0,387	-0,258
30,750	-36,291	-0,471	-0,179
31,765	175,069	-0,294	-0,302
32,780	-10,713	-0,349	-0,163
33,794	147,395	-0,349	-0,333
34,809	46,020	-0,346	-0,226
35,823	147,828	-0,380	-0,363
36,838	304,531	-0,288	-0,378
37,853	129,735	-0,403	-0,364
38,867	63,875	-0,387	-0,275
39,882	98,984	-0,305	-0,249
40,896	-73,531	-0,341	-0,087
41,911	83,787	-0,358	-0,276
42,926	177,806	-0,350	-0,361
43,940	11,179	-0,588	-0,317
44,955	71,960	-0,394	-0,289
45,969	117,762	-0,403	-0,351
46,984	777,771	-0,191	-0,370
47,999	206,435	-0,293	-0,323
49,013	218,254	-0,240	-0,271
50,028	154,453	-0,270	-0,262
51,042	1,385	-0,461	-0,233
52,057	129,937	-0,321	-0,290
53,071	187,368	-0,291	-0,307
54,086	-63,436	-0,240	-0,069
55,101	-42,292	-0,408	-0,146
56,115	10,313	-0,272	-0,146
57,130	32,810	-0,348	-0,212
58,144	28,240	-0,324	-0,193
59,159	31,833	-0,450	-0,273
60,174	160,991	-0,243	-0,240
61,188	-2,444	-0,387	-0,191
62,203	8,360	-0,373	-0,197
63,217	-121,280	-0,287	-0,033
64,232	239,603	-0,197	-0,231
65,247	-45,953	-0,380	-0,132
66,261	25,556	-0,209	-0,122
67,276	161,449	-0,336	-0,331
68,290	67,397	-0,342	-0,246
69,305	-39,598	-0,434	-0,159
70,320	198,498	-0,215	-0,232
71,334	122,301	-0,323	-0,285
72,349	32,694	-0,325	-0,198
73,363	74,717	-0,383	-0,284
74,378	-33,737	-0,506	-0,196
75,393	-17,549	-0,332	-0,147
76,407	-51,087	-0,245	-0,080
77,422	10,429	-0,390	-0,208
78,436	65,153	-0,299	-0,212
79,451	248,783	-0,182	-0,217
80,466	39,875	-0,323	-0,204
81,480	135,066	-0,286	-0,262
82,495	-27,507	-0,391	-0,159
83,509	51,945	-0,345	-0,231
84,524	-20,029	-0,276	-0,119
85,539	85,575	-0,231	-0,179
86,553	-15,457	-0,348	-0,156
87,568	385,878	-0,238	-0,346
88,582	58,230	-0,388	-0,268
89,597	73,021	-0,355	-0,261
90,611	-65,807	-0,363	-0,102
91,626	99,567	-0,224	-0,183
92,641	-144,719	-0,293	-0,019
93,655	20,116	-0,357	-0,202
94,670	118,018	-0,230	-0,200
95,684	53,485	-0,320	-0,215
96,699	43,164	-0,313	-0,201
97,714	-102,375	-0,362	-0,060
98,728	-22,064	-0,250	-0,106
99,743	133,030	-0,226	-0,205
100,757	187,266	-0,236	-0,248
101,772	-66,493	-0,274	-0,076
102,787	78,580	-0,303	-0,228
103,801	104,237	-0,336	-0,278
104,816	-15,486	-0,403	-0,180
105,830	216,457	-0,208	-0,232
106,845	-74,076	-0,209	-0,053
107,860	197,546	-0,226	-0,243
108,874	-62,862	-0,231	-0,067
109,889	87,444	-0,372	-0,289
110,903	83,907	-0,329	-0,252
111,918	133,764	-0,279	-0,254
112,933	-6,848	-0,291	-0,138
113,947	267,862	-0,195	-0,240
114,962	-13,705	-0,219	-0,099
115,976	46,284	-0,346	-0,224
116,991	-38,539	-0,343	-0,127
118,006	297,928	-0,234	-0,303
119,020	191,948	-0,277	-0,293
120,035	-89,396	-0,246	-0,050
121,049	108,254	-0,248	-0,208
122,064	9,973	-0,277	-0,147
123,079	-32,985	-0,217	-0,084
124,093	9,680	-0,299	-0,158
125,108	-16,695	-0,467	-0,207
126,122	-45,903	-0,276	-0,095
127,137	26,963	-0,244	-0,143
128,151	425,500	-0,200	-0,302
129,166	75,359	-0,332	-0,245
130,181	-125,536	-0,219	0,023
131,195	90,595	-0,227	-0,178
132,210	312,253	-0,205	-0,270
133,224	39,179	-0,265	-0,166
134,239	43,858	-0,264	-0,169
135,254	-45,798	-0,262	-0,090
136,268	180,337	-0,193	-0,198
137,283	-47,693	-0,319	-0,108
138,297	64,581	-0,332	-0,234
139,312	-93,765	-0,349	-0,067
140,327	437,092	-0,149	-0,228
141,341	229,849	-0,198	-0,227
142,356	117,924	-0,241	-0,208
143,370	84,894	-0,239	-0,183
144,385	318,114	-0,230	-0,306
145,400	44,223	-0,293	-0,188
146,414	60,278	-0,238	-0,165
147,429	66,482	-0,270	-0,192
148,443	17,147	-0,258	-0,143
149,458	-25,314	-0,298	-0,123
150,473	28,160	-0,218	-0,129
151,487	193,352	-0,191	-0,203
152,502	92,831	-0,346	-0,274
153,516	46,801	-0,311	-0,202
154,531	19,546	-0,298	-0,167
155,546	335,591	-0,256	-0,348
156,560	67,448	-0,244	-0,174
157,575	-97,944	-0,123	-0,022
158,589	293,303	-0,189	-0,242
159,604	-41,355	-0,182	-0,065
160,619	65,182	-0,165	-0,117
161,633	36,315	-0,175	-0,108
162,648	-12,149	-0,282	-0,128
163,662	-114,161	-0,263	-0,035
164,677	-81,209	-0,221	0,051
165,692	343,472	-0,120	-0,164
166,706	218,770	-0,168	-0,188
167,721	65,003	-0,331	-0,233
168,735	171,337	-0,233	-0,234
169,750	29,184	-0,245	-0,145
170,764	3,424	-0,306	-0,155
171,779	265,940	-0,191	-0,234
172,794	205,743	-0,185	-0,201
173,808	179,617	-0,198	-0,203
174,823	178,836	-0,301	-0,308
175,837	57,602	-0,180	-0,122
176,852	230,827	-0,192	-0,220
177,867	32,584	-0,181	-0,109
178,881	-118,846	-0,198	-0,024
179,896	224,865	-0,113	-0,127
180,910	197,762	-0,195	-0,209
181,925	39,328	-0,226	-0,141
182,940	603,490	-0,088	-0,154
183,954	64,730	-0,309	-0,217
184,969	40,846	-0,277	-0,174
185,983	-161,239	-0,322	0,011
186,998	-102,435	-0,243	-0,040
188,013	180,425	-0,231	-0,237
189,027	4,976	-0,312	-0,160
190,042	175,134	-0,210	-0,213
191,056	-97,474	-0,112	-0,020
192,071	306,154	-0,200	-0,260
193,086	70,040	-0,256	-0,184
194,100	23,542	-0,200	-0,115
195,115	169,683	-0,247	-0,246
196,129	152,091	-0,209	-0,199
197,144	56,292	-0,289	-0,195
198,159	143,871	-0,309	-0,287
199,173	-2,212	-0,273	-0,133
200,188	-200,000	-0,053	-0,257
201,202	4,917	-0,142	-0,073
202,217	231,611	-0,200	-0,228
203,232	-69,675	-0,258	-0,068
204,246	35,733	-0,214	-0,131
205,261	241,804	-0,217	-0,253
206,275	30,590	-0,189	-0,112
207,290	-66,637	-0,263	-0,072
208,304	9,149	-0,109	-0,057
209,319	-153,564	-0,263	0,012
210,334	210,153	-0,138	-0,151
211,348	-134,262	-0,323	0,027
212,363	608,492	-0,134	-0,234
213,377	247,662	-0,158	-0,186
214,392	37,028	-0,132	-0,081
215,407	-140,091	-0,288	-0,021
216,421	-57,033	-0,195	-0,060
217,436	-31,788	-0,284	-0,110
218,450	343,623	-0,167	-0,228
219,465	148,795	-0,240	-0,226
220,480	-32,600	-0,186	-0,072
221,494	90,924	-0,230	-0,179
222,509	-200,000	-0,044	-0,154
223,523	101,159	-0,053	-0,043
224,538	83,096	-0,238	-0,180
225,553	417,803	-0,119	-0,177
226,567	398,719	-0,111	-0,162
227,582	154,224	-0,164	-0,157
228,596	-4,511	-0,159	-0,076
229,611	36,475	-0,155	-0,095
230,626	170,630	-0,162	-0,161
231,640	352,812	-0,118	-0,163
232,655	491,086	-0,160	-0,255
233,669	192,973	-0,265	-0,279
234,684	453,786	-0,128	-0,198
235,699	120,610	-0,211	-0,182
236,713	324,619	-0,112	-0,148
237,728	69,046	-0,169	-0,120
238,742	120,164	-0,084	-0,072
239,757	46,628	-0,188	-0,121
240,772	42,270	-0,187	-0,118
241,786	8,887	-0,228	-0,119
242,801	115,406	-0,123	-0,104
243,815	-170,986	-0,165	0,004
244,830	-93,772	-0,214	-0,041
245,844	317,162	-0,162	-0,213
246,859	199,644	-0,116	-0,124
247,874	32,536	-0,079	-0,047
248,888	800,000	-0,092	-0,281
249,903	11,044	-0,195	-0,103
250,917	122,175	-0,186	-0,161
251,932	800,000	-0,068	-0,161
252,947	-95,257	-0,160	-0,030
253,961	753,678	-0,098	-0,184
254,976	800,000	-0,130	-0,252
255,990	29,374	-0,190	-0,112
257,005	38,520	-0,201	-0,124
258,020	62,491	-0,226	-0,156
259,034	-114,029	-0,138	-0,018
260,049	88,785	-0,067	-0,052
261,063	131,406	-0,200	-0,179
262,078	546,007	-0,142	-0,236
263,093	127,736	-0,138	-0,122
264,107	80,466	-0,204	-0,152
265,122	-42,793	-0,155	-0,054
266,136	121,439	-0,146	-0,126
267,151	-1,132	-0,243	-0,119
268,166	-8,521	-0,365	-0,169
269,180	-33,683	-0,189	-0,072
270,195	68,225	-0,210	-0,149
271,209	84,959	-0,172	-0,131
272,224	288,230	-0,125	-0,157
273,239	-69,831	-0,218	0,057
274,253	800,000	0,021	-0,046
275,268	465,302	-0,103	-0,159
276,282	-27,801	-0,273	-0,109
277,297	74,423	-0,134	-0,098
278,312	367,184	-0,148	-0,207
279,326	292,303	-0,116	-0,146
280,341	38,435	-0,184	-0,113
281,355	18,548	-0,190	-0,105
282,370	-200,000	-0,085	-0,280
283,384	101,403	-0,152	-0,122
284,399	736,191	-0,195	-0,364
285,414	18,258	-0,174	-0,096
286,428	-100,119	-0,217	-0,037
287,443	142,758	-0,102	-0,094
288,457	-6,385	-0,138	-0,065
289,472	18,759	-0,163	-0,090
290,487	-200,000	-0,030	-0,186
291,501	197,185	-0,247	-0,261
292,516	-200,000	-0,153	0,000
293,530	-200,000	-0,036	-0,173
294,545	101,542	-0,158	-0,127
295,560	-70,421	-0,096	-0,025
296,574	800,000	-0,067	-0,140
297,589	25,850	-0,122	-0,070
298,603	223,969	-0,177	-0,197
299,618	467,889	-0,079	-0,122
300,633	-67,594	-0,222	-0,060
301,647	762,197	-0,109	-0,206
302,662	221,651	-0,105	-0,116
303,676	-115,986	-0,061	0,008
304,691	140,062	-0,083	-0,076
305,706	-125,625	-0,235	-0,024
306,720	-91,364	-0,121	0,024
307,735	14,595	-0,221	-0,119
308,749	0,263	-0,205	-0,100
309,764	800,000	-0,028	0,053
310,779	800,000	-0,052	-0,138
311,793	203,627	-0,208	-0,222
312,808	35,114	-0,179	-0,108
313,822	-31,331	-0,196	-0,076
314,837	0,989	-0,135	-0,066
315,852	161,070	-0,136	-0,131
316,866	-86,982	-0,109	-0,023
317,881	130,681	-0,152	-0,134
318,895	-103,170	-0,173	-0,028
319,910	45,999	-0,191	-0,122
320,925	100,869	-0,050	-0,040
321,939	165,498	-0,220	-0,215
322,954	408,919	-0,127	-0,186
323,968	-95,905	-0,188	-0,034
324,983	-157,962	-0,218	-0,009
325,997	-166,444	-0,080	0,002
327,012	-200,000	-0,042	-0,274
328,027	282,920	-0,124	-0,154
329,041	-80,560	-0,266	-0,061
330,056	428,921	-0,101	-0,151
331,070	800,000	-0,034	-0,065
332,085	58,123	-0,164	-0,111
333,100	714,908	-0,087	-0,160
334,114	-53,888	-0,253	-0,079
335,129	90,278	-0,186	-0,143
336,143	84,937	-0,149	-0,113
337,158	-49,061	-0,053	0,017
338,173	97,738	-0,100	-0,079
339,187	-7,019	-0,119	-0,056
340,202	40,981	-0,245	-0,152
341,216	570,320	-0,120	-0,202
342,231	131,790	-0,178	-0,157
343,246	-103,087	-0,254	-0,041
344,260	-135,778	-0,131	0,010
345,275	-85,243	-0,172	-0,037
346,289	89,756	-0,135	-0,103
347,304	39,641	-0,101	-0,062
348,319	280,369	-0,084	-0,104
349,333	173,122	-0,155	-0,154
350,348	78,027	-0,150	-0,110
351,362	282,094	-0,113	-0,140
352,377	120,445	-0,062	-0,053
353,392	59,435	-0,050	0,034
354,406	176,679	-0,161	-0,162
355,421	210,468	1313,089	1419,528
356,435	162,024	1473,661	1420,056
