DTS Sentinel unit serial number:	SN410029Multiplexer serial number:	ORYXHardware model number:	OX2-SRSoftware version number:	ORYX F/W v4,00 Oryx Data Collector v3.7.2.0data status	okinstallation	B3 Nyhavnadifferential loss correction	single-endedforward channel	channel 1reverse channel	N/Adate	2023/11/29time	03:47:30forward acquisition time	300,00reverse acquisition time	0,00gamma	499,1914k internal	0,3211k external	0,3211temperature offset calibration	1,0000default loss term (dB/km)	0,3820temperature slope calibration	1,0000multiplexer offset coefficient	1,0000multiplexer slope coefficient	1,0000fibre end	0,00T internal ref (°C)	9,44T ext. ref 1 (°C)	-6,03T ext. ref 2 (°C)	-6,13length (m)	temperature (°C)	Stokes	anti-Stokes-744,400	-200,000	-0,114	-0,364
-743,385	-200,000	0,005	0,162
-742,371	56,928	-0,234	-0,165
-741,356	-200,000	-0,016	0,299
-740,342	15,230	-0,159	-0,090
-739,327	501,015	-0,056	0,094
-738,312	800,000	-0,155	-0,336
-737,298	639,803	-0,063	0,116
-736,283	127,532	-0,188	-0,173
-735,269	-200,000	0,022	0,349
-734,254	800,000	-0,074	-0,212
-733,239	71,249	-0,225	0,169
-732,225	800,000	0,094	-0,194
-731,210	376,173	0,077	0,115
-730,196	-200,000	0,044	-0,145
-729,181	67,975	-0,040	0,029
-728,167	97,986	0,073	0,061
-727,152	-62,752	0,109	0,033
-726,137	-16,541	-0,088	0,040
-725,123	175,280	-0,052	-0,055
-724,108	800,000	-0,036	-0,090
-723,094	-72,953	-0,206	-0,055
-722,079	-191,190	-0,074	-0,001
-721,064	39,965	-0,060	0,039
-720,050	100,353	0,013	0,011
-719,035	-196,500	-0,047	0,000
-718,021	-93,096	-0,185	0,037
-717,006	215,236	-0,057	-0,066
-715,991	179,704	-0,118	-0,126
-714,977	592,501	-0,067	-0,121
-713,962	-66,399	0,022	0,006
-712,948	-61,885	0,013	-0,004
-711,933	18,248	-0,041	0,024
-710,918	441,802	0,033	-0,053
-709,904	-200,000	0,004	-0,041
-708,889	-81,087	0,085	-0,020
-707,875	-33,651	-0,143	-0,057
-706,860	6,098	-0,079	-0,042
-705,845	668,317	0,045	0,084
-704,831	141,980	-0,137	0,132
-703,816	212,180	-0,043	-0,049
-702,802	-40,461	0,052	-0,020
-701,787	105,744	-0,015	-0,013
-700,772	35,596	-0,133	0,084
-699,758	-62,352	-0,118	0,035
-698,743	800,000	0,084	0,190
-697,729	-115,312	-0,100	-0,013
-696,714	65,644	-0,053	0,039
-695,699	-15,460	0,029	0,013
-694,685	47,280	-0,104	-0,070
-693,670	31,359	-0,040	-0,025
-692,656	-156,148	0,164	0,007
-691,641	139,543	0,051	-0,049
-690,627	-91,563	-0,069	-0,014
-689,612	73,652	-0,082	0,062
-688,597	399,367	-0,093	-0,141
-687,583	64,028	-0,051	-0,037
-686,568	470,502	-0,046	-0,074
-685,554	-184,792	0,125	0,001
-684,539	-82,769	-0,114	-0,026
-683,524	-200,000	0,004	0,016
-682,510	228,582	0,057	-0,067
-681,495	-200,000	0,003	0,010
-680,481	-92,200	-0,181	0,037
-679,466	265,352	-0,096	-0,121
-678,451	-200,000	-0,009	0,040
-677,437	641,109	-0,039	0,073
-676,422	142,293	0,037	0,035
-675,408	-200,000	-0,022	-0,092
-674,393	-200,000	0,024	-0,089
-673,378	201,602	-0,066	-0,074
-672,364	262,678	-0,066	-0,084
-671,349	125,825	0,002	0,002
-670,335	-84,220	0,081	0,018
-669,320	-200,000	0,017	0,089
-668,305	-200,000	-0,007	0,127
-667,291	800,000	-0,055	0,146
-666,276	127,586	-0,055	-0,050
-665,262	-200,000	0,000	-0,126
-664,247	-200,000	-0,034	-0,172
-663,232	-200,000	0,033	-0,106
-662,218	-121,473	-0,091	-0,011
-661,203	357,345	0,060	0,087
-660,189	81,445	0,064	0,050
-659,174	-43,085	-0,119	-0,043
-658,159	800,000	-0,015	-0,039
-657,145	118,468	-0,116	-0,103
-656,130	295,696	-0,072	0,095
-655,116	-200,000	-0,004	-0,022
-654,101	126,801	-0,031	-0,029
-653,086	592,154	-0,071	0,128
-652,072	-200,000	0,018	-0,104
-651,057	660,985	-0,077	-0,144
-650,043	177,624	-0,109	-0,115
-649,028	-200,000	-0,011	-0,051
-648,014	-29,942	0,046	-0,019
-646,999	-161,501	-0,045	0,002
-645,984	-200,000	-0,008	0,072
-644,970	174,191	-0,118	0,124
-643,955	800,000	0,010	-0,028
-642,941	-158,812	-0,064	-0,003
-641,926	800,000	0,043	-0,090
-640,911	15,050	-0,056	0,031
-639,897	-200,000	-0,020	0,068
-638,882	800,000	0,053	-0,112
-637,868	800,000	-0,001	0,002
-636,853	49,029	-0,134	-0,091
-635,838	534,285	-0,078	-0,133
-634,824	-121,709	-0,071	0,008
-633,809	322,590	0,026	0,036
-632,795	555,638	0,086	-0,150
-631,780	283,745	-0,047	0,061
-630,765	-95,978	0,150	-0,029
-629,751	-151,320	-0,055	0,003
-628,736	800,000	0,025	-0,051
-627,722	-73,719	0,048	-0,012
-626,707	-200,000	-0,038	0,126
-625,692	-200,000	-0,017	0,098
-624,678	125,715	-0,090	0,082
-623,663	-49,511	0,061	0,021
-622,649	-132,624	-0,033	-0,003
-621,634	800,000	0,054	-0,131
-620,619	13,216	-0,042	-0,024
-619,605	390,299	0,078	-0,117
-618,590	47,259	0,139	0,093
-617,576	-112,656	0,039	0,006
-616,561	-21,745	0,086	0,038
-615,546	800,000	-0,032	-0,085
-614,532	-0,616	0,079	-0,040
-613,517	-200,000	-0,006	-0,027
-612,503	30,251	-0,046	-0,028
-611,488	-61,972	-0,085	0,026
-610,474	-138,007	0,031	0,002
-609,459	-4,993	-0,046	0,023
-608,444	-200,000	-0,005	0,103
-607,430	-100,831	-0,095	-0,017
-606,415	-118,734	0,032	-0,004
-605,401	-138,540	-0,049	0,004
-604,386	163,734	0,117	0,119
-603,371	-4,705	-0,108	0,053
-602,357	800,000	0,031	0,086
-601,342	123,681	-0,004	-0,004
-600,328	51,039	0,009	0,006
-599,313	170,261	-0,078	-0,080
-598,298	42,133	0,034	-0,022
-597,284	54,015	-0,023	0,016
-596,269	254,970	-0,020	0,024
-595,255	730,650	-0,099	0,191
-594,240	134,623	0,093	-0,087
-593,225	796,712	-0,050	-0,100
-592,211	19,062	-0,128	-0,074
-591,196	-200,000	0,005	0,031
-590,182	85,866	0,115	0,091
-589,167	169,325	0,063	0,065
-588,152	-200,000	0,022	0,147
-587,138	471,966	0,021	-0,034
-586,123	402,578	-0,051	-0,078
-585,109	466,132	-0,069	0,111
-584,094	355,803	0,057	-0,081
-583,079	-135,164	0,097	-0,008
-582,065	-200,000	-0,032	0,163
-581,050	-200,000	0,005	0,034
-580,036	567,080	-0,090	0,159
-579,021	-10,211	-0,067	0,032
-578,006	457,892	-0,083	0,134
-576,992	579,856	-0,036	0,063
-575,977	-39,325	-0,091	0,034
-574,963	785,557	0,058	0,115
-573,948	4,076	0,128	0,067
-572,934	205,364	-0,050	0,056
-571,919	25,186	0,032	0,019
-570,904	160,682	-0,165	-0,166
-569,890	-200,000	0,020	0,074
-568,875	-200,000	-0,021	0,202
-567,861	-136,173	0,073	-0,006
-566,846	-200,000	0,026	0,128
-565,831	64,077	-0,044	0,032
-564,817	171,166	0,030	0,031
-563,802	198,770	0,066	-0,073
-562,788	800,000	0,028	-0,061
-561,773	-48,543	-0,019	-0,007
-560,758	-177,357	-0,081	0,001
-559,744	170,774	0,056	-0,058
-558,729	-95,835	-0,051	-0,010
-557,715	-200,000	0,027	-0,086
-556,700	800,000	-0,023	-0,054
-555,685	-200,000	0,007	-0,027
-554,671	100,239	-0,060	-0,050
-553,656	-1,296	-0,091	0,046
-552,642	261,085	0,091	0,114
-551,627	-23,112	-0,076	-0,033
-550,612	-200,000	-0,024	-0,099
-549,598	-143,402	-0,045	0,003
-548,583	-200,000	-0,005	-0,055
-547,569	580,120	-0,024	0,042
-546,554	-47,026	0,059	-0,021
-545,539	23,896	0,096	-0,057
-544,525	-34,064	0,024	0,009
-543,510	-200,000	0,006	-0,031
-542,496	478,240	0,075	-0,122
-541,481	-188,244	-0,145	-0,001
-540,466	-200,000	-0,054	-0,234
-539,452	201,993	0,105	-0,117
-538,437	33,707	-0,041	0,026
-537,423	415,708	0,031	0,047
-536,408	338,542	-0,061	0,085
-535,393	43,614	-0,064	0,042
-534,379	800,000	0,033	-0,073
-533,364	417,126	-0,031	-0,047
-532,350	800,000	0,056	0,142
-531,335	-119,307	-0,156	-0,019
-530,321	800,000	0,051	0,128
-529,306	243,531	-0,084	0,101
-528,291	-13,340	-0,142	-0,066
-527,277	286,951	-0,075	-0,097
-526,262	373,576	-0,099	-0,145
-525,248	800,000	-0,033	0,077
-524,233	176,522	-0,025	-0,026
-523,218	322,019	0,050	0,069
-522,204	485,190	-0,076	0,126
-521,189	38,906	0,055	-0,035
-520,175	-161,716	-0,144	0,005
-519,160	-41,274	-0,043	0,016
-518,145	752,566	-0,050	-0,097
-517,131	-200,000	0,005	0,030
-516,116	-200,000	-0,004	0,083
-515,102	113,270	0,072	0,063
-514,087	-62,260	-0,078	0,023
-513,072	88,358	-0,167	-0,133
-512,058	-153,598	-0,042	0,002
-511,043	-200,000	0,009	0,082
-510,029	-19,366	0,108	-0,048
-509,014	77,179	0,086	-0,066
-507,999	-200,000	0,004	0,015
-506,985	-200,000	0,004	-0,195
-505,970	-14,550	-0,142	0,065
-504,956	-200,000	-0,006	-0,155
-503,941	37,600	0,147	0,093
-502,926	-157,536	-0,033	0,001
-501,912	800,000	0,048	0,121
-500,897	-102,986	0,099	0,017
-499,883	-200,000	0,007	-0,065
-498,868	-5,778	0,071	0,035
-497,853	21,300	-0,098	-0,057
-496,839	-200,000	-0,005	0,196
-495,824	800,000	-0,039	0,090
-494,810	-61,411	-0,093	0,028
-493,795	7,224	-0,055	0,029
-492,781	59,322	-0,113	-0,080
-491,766	-116,688	0,054	-0,007
-490,751	432,485	-0,047	0,073
-489,737	327,753	-0,034	0,046
-488,722	387,279	0,095	0,141
-487,708	-200,000	0,007	-0,079
-486,693	-200,000	0,028	0,098
-485,678	-97,221	0,066	-0,012
-484,664	229,246	0,078	-0,092
-483,649	800,000	0,043	0,086
-482,635	-200,000	0,002	-0,016
-481,620	400,368	-0,053	0,080
-480,605	91,120	0,081	-0,066
-479,591	112,435	0,078	-0,067
-478,576	-126,007	-0,153	0,016
-477,562	-200,000	0,003	-0,129
-476,547	-2,240	-0,063	0,032
-475,532	-200,000	-0,007	0,102
-474,518	-200,000	0,021	-0,068
-473,503	178,690	0,088	-0,092
-472,489	124,300	0,074	-0,067
-471,474	-84,027	0,119	-0,027
-470,459	800,000	0,017	-0,046
-469,445	282,187	0,079	-0,102
-468,430	-151,268	-0,014	0,001
-467,416	272,347	-0,084	-0,106
-466,401	-18,757	0,172	-0,077
-465,386	-1,729	0,089	0,045
-464,372	164,467	-0,080	-0,081
-463,357	346,503	-0,023	0,032
-462,343	38,330	-0,039	0,025
-461,328	-83,574	0,173	-0,039
-460,313	481,840	0,090	-0,147
-459,299	265,931	-0,069	-0,087
-458,284	348,360	-0,024	0,033
-457,270	-32,370	-0,064	0,026
-456,255	192,912	-0,114	0,123
-455,241	-200,000	-0,021	-0,143
-454,226	52,126	0,051	0,035
-453,211	-147,832	-0,156	0,009
-452,197	116,517	0,112	0,098
-451,182	800,000	0,052	0,145
-450,168	-200,000	-0,014	-0,189
-449,153	-91,229	-0,032	-0,006
-448,138	11,685	-0,043	-0,024
-447,124	-200,000	-0,003	0,139
-446,109	-200,000	0,000	0,120
-445,095	-171,620	-0,088	-0,002
-444,080	28,988	0,085	0,052
-443,065	-114,741	0,081	-0,011
-442,051	185,843	0,044	-0,047
-441,036	256,055	-0,130	-0,160
-440,022	800,000	0,032	-0,090
-439,007	118,167	0,096	-0,085
-437,992	-64,294	0,170	0,049
-436,978	-36,702	0,075	0,029
-435,963	-73,927	0,138	-0,036
-434,949	152,285	-0,011	0,011
-433,934	-68,162	-0,038	-0,010
-432,919	800,000	0,040	-0,095
-431,905	-39,200	0,065	-0,024
-430,890	800,000	0,039	0,122
-429,876	487,467	0,087	0,143
-428,861	-68,195	-0,119	0,033
-427,846	8,381	-0,076	0,041
-426,832	650,720	-0,072	-0,133
-425,817	-123,241	0,171	0,019
-424,803	-10,231	-0,087	-0,041
-423,788	131,192	-0,022	-0,020
-422,773	122,790	0,073	-0,066
-421,759	-89,113	0,075	0,016
-420,744	135,793	-0,050	-0,047
-419,730	-115,154	0,015	0,002
-418,715	800,000	-0,015	-0,039
-417,701	-200,000	-0,034	-0,228
-416,686	16,427	0,095	0,054
-415,671	90,520	-0,093	0,075
-414,657	14,910	-0,122	0,068
-413,642	533,752	-0,068	0,115
-412,628	-200,000	-0,009	-0,065
-411,613	-43,870	-0,010	-0,004
-410,598	800,000	-0,038	-0,100
-409,584	-15,968	0,094	0,043
-408,569	281,827	0,186	0,239
-407,555	800,000	0,062	-0,137
-406,540	800,000	-0,025	-0,070
-405,525	71,517	-0,124	-0,092
-404,511	552,858	-0,056	-0,097
-403,496	-200,000	0,005	0,036
-402,482	28,327	-0,103	0,062
-401,467	-200,000	0,014	0,116
-400,452	-102,276	0,051	-0,009
-399,438	68,118	0,072	0,052
-398,423	-200,000	-0,003	-0,047
-397,409	800,000	-0,048	-0,115
-396,394	-200,000	0,029	0,155
-395,379	5,734	0,156	0,082
-394,365	154,073	0,127	0,125
-393,350	-200,000	-0,009	0,125
-392,336	-54,593	0,066	0,021
-391,321	-200,000	0,011	-0,144
-390,306	-200,000	-0,023	-0,151
-389,292	800,000	-0,052	0,112
-388,277	293,582	0,063	0,082
-387,263	89,711	-0,048	-0,038
-386,248	800,000	0,041	0,123
-385,233	350,768	0,129	0,183
-384,219	-200,000	-0,035	0,141
-383,204	48,715	-0,057	0,038
-382,190	24,981	-0,167	0,099
-381,175	-139,884	0,081	0,006
-380,160	-141,314	-0,026	-0,002
-379,146	-155,566	0,074	-0,003
-378,131	71,711	-0,130	0,097
-377,117	2,443	0,106	0,055
-376,102	43,944	0,025	0,016
-375,088	800,000	-0,043	-0,124
-374,073	-200,000	0,035	0,118
-373,058	-120,141	0,054	-0,006
-372,044	-200,000	-0,007	0,083
-371,029	-142,277	-0,084	0,006
-370,015	-189,810	-0,040	-0,000
-369,000	-94,827	-0,228	0,044
-367,985	-200,000	-0,024	-0,155
-366,971	-97,295	-0,080	-0,015
-365,956	-7,059	0,106	-0,051
-364,942	156,553	0,059	0,058
-363,927	-51,011	0,073	-0,024
-362,912	175,794	-0,044	0,045
-361,898	800,000	-0,015	0,042
-360,883	354,528	-0,055	-0,079
-359,869	-60,504	0,049	0,015
-358,854	-200,000	0,004	0,115
-357,839	7,269	0,147	0,078
-356,825	5,145	-0,130	-0,068
-355,810	800,000	-0,037	0,113
-354,796	-155,297	-0,106	-0,005
-353,781	-105,728	0,059	0,009
-352,766	18,078	-0,050	0,029
-351,752	800,000	-0,037	0,080
-350,737	-200,000	0,044	0,143
-349,723	-200,000	0,002	0,101
-348,708	230,625	-0,092	0,108
-347,693	-200,000	0,019	-0,173
-346,679	-200,000	0,002	-0,040
-345,664	-200,000	0,005	-0,054
-344,650	-93,341	0,068	0,013
-343,635	135,815	0,056	0,052
-342,620	800,000	-0,033	0,080
-341,606	-156,747	0,080	0,003
-340,591	800,000	0,046	-0,144
-339,577	283,505	-0,038	0,049
-338,562	-117,043	-0,056	-0,007
-337,548	-200,000	-0,005	-0,076
-336,533	-200,000	0,029	0,106
-335,518	57,765	0,108	-0,075
-334,504	-200,000	-0,015	-0,092
-333,489	-14,011	-0,069	-0,032
-332,475	471,117	0,028	-0,045
-331,460	0,893	0,080	-0,041
-330,445	-200,000	-0,033	-0,107
-329,431	777,873	0,022	0,042
-328,416	236,693	0,161	0,191
-327,402	-141,446	-0,091	0,006
-326,387	-200,000	-0,001	-0,051
-325,372	800,000	-0,061	-0,139
-324,358	-200,000	-0,006	-0,033
-323,343	422,729	-0,061	-0,094
-322,329	-139,972	-0,051	-0,004
-321,314	-200,000	0,027	0,141
-320,299	632,384	-0,039	-0,071
-319,285	278,622	-0,019	-0,024
-318,270	419,341	0,015	0,024
-317,256	-200,000	-0,021	-0,126
-316,241	313,581	-0,051	-0,069
-315,226	28,022	-0,080	-0,048
-314,212	78,084	0,108	0,082
-313,197	-6,459	0,146	0,071
-312,183	-51,754	-0,067	0,022
-311,168	800,000	0,060	-0,132
-310,153	-154,213	0,116	-0,006
-309,139	-19,339	0,036	-0,016
-308,124	-200,000	-0,008	-0,132
-307,110	-66,876	-0,048	0,013
-306,095	155,046	0,023	0,022
-305,080	-43,165	0,123	-0,044
-304,066	174,226	-0,028	0,029
-303,051	-90,721	-0,056	-0,011
-302,037	-200,000	0,023	-0,086
-301,022	-37,146	-0,063	-0,024
-300,008	-191,415	0,138	-0,001
-298,993	-132,121	0,054	0,005
-297,978	800,000	0,041	0,100
-296,964	800,000	0,015	-0,043
-295,949	-57,884	-0,067	-0,021
-294,935	133,021	-0,077	-0,071
-293,920	13,930	0,176	-0,097
-292,905	12,052	-0,104	0,057
-291,891	-200,000	-0,000	0,108
-290,876	-200,000	-0,002	0,049
-289,862	800,000	-0,044	-0,103
-288,847	-62,556	-0,035	-0,010
-287,832	514,677	-0,033	-0,055
-286,818	800,000	-0,031	0,063
-285,803	119,363	0,023	-0,020
-284,789	-200,000	0,029	0,177
-283,774	57,246	-0,054	0,038
-282,759	-27,353	0,102	-0,042
-281,745	-54,667	-0,201	-0,064
-280,730	-101,270	0,035	-0,006
-279,716	-116,895	0,054	-0,007
-278,701	153,367	0,094	0,092
-277,686	-200,000	0,014	-0,096
-276,672	256,614	0,018	-0,022
-275,657	800,000	-0,025	-0,064
-274,643	-200,000	0,003	0,049
-273,628	-52,746	0,129	0,042
-272,613	800,000	-0,052	-0,120
-271,599	-200,000	0,012	0,123
-270,584	140,746	0,071	-0,067
-269,570	-14,249	0,206	-0,094
-268,555	-71,088	0,017	0,004
-267,540	-200,000	-0,047	-0,191
-266,526	-200,000	-0,017	0,085
-265,511	-40,017	-0,036	-0,013
-264,497	622,881	0,052	-0,094
-263,482	-200,000	0,028	0,113
-262,467	-200,000	-0,008	0,078
-261,453	-200,000	0,008	-0,055
-260,438	800,000	-0,034	-0,104
-259,424	-95,142	-0,068	0,013
-258,409	800,000	0,047	-0,145
-257,395	-1,552	-0,035	-0,017
-256,380	67,998	-0,119	0,086
-255,365	-162,645	-0,101	0,003
-254,351	602,039	-0,015	-0,026
-253,336	-200,000	0,027	-0,104
-252,322	60,071	-0,192	-0,135
-251,307	-200,000	0,014	-0,101
-250,292	-104,925	0,165	0,027
-249,278	168,150	-0,156	0,158
-248,263	16,088	0,114	0,064
-247,249	635,684	-0,023	0,042
-246,234	800,000	-0,031	0,067
-245,219	-200,000	-0,036	-0,120
-244,205	796,304	-0,054	-0,107
-243,190	-160,229	-0,037	0,001
-242,176	-200,000	-0,002	0,111
-241,161	-96,304	0,099	-0,018
-240,146	553,679	0,008	0,014
-239,132	168,254	0,106	-0,108
-238,117	-93,357	0,175	-0,034
-237,103	113,125	-0,133	-0,115
-236,088	-200,000	0,034	-0,140
-235,073	-200,000	0,008	0,045
-234,059	-200,000	0,004	0,094
-233,044	-62,775	0,121	-0,035
-232,030	79,625	-0,043	-0,033
-231,015	212,349	-0,090	0,101
-230,000	-44,694	0,037	-0,013
-228,986	800,000	-0,053	0,128
-227,971	800,000	0,062	0,161
-226,957	385,993	0,057	-0,084
-225,942	153,216	0,062	0,060
-224,927	800,000	0,063	-0,154
-223,913	800,000	0,019	0,055
-222,898	70,429	0,006	0,005
-221,884	-122,870	-0,111	0,013
-220,869	353,737	0,059	0,083
-219,855	-12,242	0,184	0,085
-218,840	325,012	-0,057	0,077
-217,825	800,000	-0,027	0,084
-216,811	-98,933	-0,094	0,017
-215,796	800,000	-0,027	-0,081
-214,782	-1,401	-0,103	0,052
-213,767	568,582	0,054	-0,093
-212,752	-85,036	0,037	0,008
-211,738	-200,000	-0,005	-0,113
-210,723	-66,658	-0,028	-0,008
-209,709	-200,000	-0,006	-0,068
-208,694	735,800	-0,030	0,058
-207,679	-22,840	-0,055	0,023
-206,665	-112,402	-0,081	0,011
-205,650	115,990	-0,028	-0,025
-204,636	46,176	0,060	0,040
-203,621	300,098	-0,034	0,045
-202,606	-200,000	-0,002	-0,062
-201,592	800,000	0,045	-0,091
-200,577	331,078	-0,008	-0,012
-199,563	-200,000	0,002	0,036
-198,548	800,000	-0,058	0,141
-197,533	81,504	0,046	-0,035
-196,519	-114,092	-0,149	0,020
-195,504	274,767	0,099	-0,124
-194,490	67,173	0,079	-0,057
-193,475	763,803	-0,040	-0,078
-192,460	313,861	0,105	-0,141
-191,446	-9,223	0,023	-0,011
-190,431	340,990	-0,021	-0,029
-189,417	78,982	0,041	-0,031
-188,402	-200,000	0,008	0,131
-187,387	-200,000	-0,016	0,097
-186,373	532,550	-0,051	-0,086
-185,358	-137,798	-0,153	0,012
-184,344	800,000	0,017	0,049
-183,329	238,041	-0,040	0,047
-182,315	218,070	0,089	0,101
-181,300	-200,000	0,003	0,145
-180,285	123,740	-0,058	0,052
-179,271	-200,000	-0,044	-0,181
-178,256	-200,000	0,010	-0,038
-177,242	-200,000	-0,002	-0,082
-176,227	484,033	-0,059	0,096
-175,212	-200,000	0,016	0,111
-174,198	800,000	0,011	0,033
-173,183	-200,000	0,011	-0,058
-172,169	-200,000	-0,017	-0,149
-171,154	800,000	0,032	-0,095
-170,139	-200,000	0,006	-0,023
-169,125	58,407	0,155	0,107
-168,110	439,451	0,027	-0,042
-167,096	-200,000	-0,004	0,038
-166,081	35,730	-0,078	0,048
-165,066	194,077	-0,052	-0,056
-164,052	-200,000	0,002	0,018
-163,037	509,312	-0,053	-0,087
-162,023	-200,000	0,022	-0,158
-161,008	333,249	-0,078	0,107
-159,993	281,045	-0,090	-0,114
-158,979	-0,705	0,145	-0,073
-157,964	-200,000	0,005	-0,035
-156,950	88,008	0,056	-0,044
-155,935	800,000	0,014	-0,038
-154,920	596,691	0,069	0,122
-153,906	100,382	-0,038	0,031
-152,891	-28,084	0,114	0,046
-151,877	-62,109	-0,112	-0,033
-150,862	173,355	-0,050	-0,051
-149,847	-200,000	-0,029	-0,135
-148,833	-62,427	0,089	0,026
-147,818	662,749	-0,060	0,110
-146,804	-200,000	-0,020	0,076
-145,789	-95,506	0,094	0,018
-144,775	260,777	-0,031	0,038
-143,760	115,478	-0,091	0,079
-142,745	800,000	-0,043	-0,088
-141,731	563,311	0,008	-0,014
-140,716	132,592	-0,073	0,067
-139,702	-146,517	0,116	-0,007
-138,687	-3,123	-0,106	0,052
-137,672	101,497	0,109	0,090
-136,658	800,000	-0,050	-0,131
-135,643	495,977	0,111	-0,181
-134,629	-200,000	-0,019	0,062
-133,614	-200,000	-0,002	0,033
-132,599	800,000	-0,088	0,204
-131,585	680,829	0,102	0,190
-130,570	-120,203	-0,130	0,016
-129,556	11,300	-0,067	0,036
-128,541	62,967	-0,096	0,068
-127,526	800,000	-0,042	-0,100
-126,512	-14,065	0,050	0,023
-125,497	-200,000	-0,002	0,025
-124,483	-79,838	0,059	0,014
-123,468	-132,486	0,101	-0,009
-122,453	756,272	-0,051	0,098
-121,439	800,000	0,009	-0,025
-120,424	-200,000	-0,010	0,066
-119,410	64,851	0,122	0,087
-118,395	-170,309	0,111	0,003
-117,380	51,274	0,098	-0,066
-116,366	-200,000	-0,024	0,090
-115,351	312,957	0,083	0,111
-114,337	133,261	-0,122	-0,112
-113,322	144,145	0,043	0,040
-112,307	-200,000	-0,011	-0,119
-111,293	-8,532	0,090	-0,043
-110,278	158,795	0,069	-0,068
-109,264	800,000	-0,029	0,084
-108,249	578,950	-0,060	-0,105
-107,234	800,000	-0,038	-0,082
-106,220	-89,770	-0,038	-0,008
-105,205	-200,000	-0,021	0,076
-104,191	-200,000	0,002	0,093
-103,176	204,263	-0,021	-0,023
-102,162	-49,176	0,059	0,020
-101,147	564,356	-0,091	-0,157
-100,132	800,000	0,026	-0,076
-99,118	53,740	-0,092	-0,063
-98,103	-200,000	-0,005	-0,022
-97,089	-127,957	0,013	-0,001
-96,074	-200,000	0,026	0,206
-95,059	2,992	0,130	-0,067
-94,045	800,000	-0,045	-0,104
-93,030	32,656	-0,111	-0,068
-92,016	485,035	-0,033	-0,053
-91,001	-200,000	-0,001	0,045
-89,986	-200,000	-0,014	0,073
-88,972	175,643	0,075	0,077
-87,957	-36,612	0,093	0,035
-86,943	18,026	-0,083	-0,047
-85,928	-135,731	-0,026	-0,002
-84,913	610,812	-0,039	-0,069
-83,899	-87,702	0,078	-0,016
-82,884	-146,973	0,036	0,002
-81,870	-53,153	-0,128	0,041
-80,855	405,733	-0,070	-0,105
-79,840	-51,737	-0,084	0,028
-78,826	0,850	0,058	-0,029
-77,811	-103,348	-0,092	-0,015
-76,797	-200,000	-0,012	-0,051
-75,782	317,660	-0,111	-0,149
-74,767	800,000	0,025	0,050
-73,753	-101,305	0,074	0,013
-72,738	555,881	0,065	-0,111
-71,724	-200,000	-0,010	0,120
-70,709	800,000	0,053	-0,113
-69,694	-171,065	0,125	0,003
-68,680	144,449	-0,065	-0,061
-67,665	-200,000	-0,002	0,025
-66,651	-62,509	0,076	-0,022
-65,636	800,000	-0,070	-0,150
-64,622	605,930	-0,034	-0,060
-63,607	-200,000	-0,013	-0,049
-62,592	-200,000	0,017	-0,081
-61,578	800,000	0,029	0,061
-60,563	800,000	0,072	0,151
-59,549	800,000	-0,048	0,118
-58,534	36,778	-1,987	-1,237
-57,519	499,551	-1,225	-2,002
-56,505	-200,000	-0,305	-4,334
-55,490	409,388	1,048	1,572
-54,476	800,000	5,067	11,125
-53,461	-200,000	21,602	342,102
-52,446	800,000	762,488	2338,109
-51,432	546,038	1660,321	2812,831
-50,417	71,275	1656,392	1211,440
-49,403	17,198	1529,715	854,081
-48,388	11,245	1454,036	783,098
-47,373	19,266	1445,458	816,847
-46,359	14,696	1434,649	789,025
-45,344	9,522	1430,682	762,231
-44,330	9,488	1428,383	760,811
-43,315	9,489	1426,645	759,862
-42,300	9,515	1425,034	759,095
-41,286	9,503	1423,743	758,322
-40,271	9,479	1422,582	757,562
-39,257	9,492	1421,395	756,959
-38,242	9,520	1420,295	756,476
-37,227	9,504	1419,157	755,764
-36,213	9,534	1417,955	755,235
-35,198	9,538	1416,734	754,573
-34,184	9,530	1415,802	754,009
-33,169	9,461	1414,565	752,997
-32,154	9,501	1413,585	752,633
-31,140	9,522	1412,199	751,962
-30,125	9,534	1410,901	751,301
-29,111	9,533	1409,937	750,752
-28,096	9,523	1408,710	750,022
-27,082	9,469	1407,486	749,089
-26,067	9,428	1406,433	748,307
-25,052	9,531	1405,179	748,090
-24,038	9,439	1404,579	747,311
-23,023	9,464	1403,564	746,858
-22,009	9,447	1402,450	746,158
-20,994	9,428	1401,559	745,563
-19,979	9,482	1400,528	745,240
-18,965	9,459	1399,565	744,590
-17,950	9,472	1398,560	744,084
-16,936	9,411	1397,718	743,324
-15,921	9,363	1396,864	742,617
-14,906	9,363	1395,974	742,113
-13,892	9,442	1394,683	741,767
-12,877	9,400	1394,166	741,265
-11,863	9,384	1393,313	740,711
-10,848	9,382	1392,258	740,111
-9,833	9,344	1391,429	739,466
-8,819	9,304	1390,531	738,771
-7,804	9,261	1389,707	738,105
-6,790	9,275	1388,702	737,607
-5,775	9,266	1387,767	737,041
-4,760	9,332	1386,561	736,676
-3,746	9,322	1385,605	736,091
-2,731	9,283	1384,939	735,528
-1,717	9,269	1384,140	735,014
-0,702	9,266	1382,336	734,008
0,313	13,329	1294,673	705,979
1,327	29,442	685,949	410,377
2,342	45,761	118,346	77,031
3,356	-0,625	16,525	8,240
4,371	-3,162	3,745	1,835
5,386	13,930	1,080	0,591
6,400	800,000	0,305	0,778
7,415	-13,587	-0,216	-0,098
8,429	9,135	-0,305	-0,162
9,444	-36,056	-0,407	-0,154
10,459	-27,513	-0,354	-0,144
11,473	-59,236	-0,307	-0,093
12,488	-16,045	-0,275	-0,123
13,502	-59,542	-0,409	-0,123
14,517	-21,486	-0,334	-0,143
15,531	130,928	-0,289	-0,261
16,546	179,641	-0,255	-0,264
17,561	155,228	-0,312	-0,302
18,575	-43,325	-0,235	-0,083
19,590	120,267	-0,263	-0,230
20,604	322,626	-0,097	-0,130
21,619	63,288	-0,492	-0,347
22,634	-14,002	-0,572	-0,259
23,648	47,485	-0,468	-0,307
24,663	86,558	-0,290	-0,225
25,677	83,000	-0,410	-0,314
26,692	134,016	-0,206	-0,188
27,707	667,714	-0,208	-0,380
28,721	0,595	-0,448	-0,225
29,736	209,556	-0,338	-0,373
30,750	178,383	-0,381	-0,392
31,765	75,093	-0,412	-0,305
32,780	281,305	-0,225	-0,284
33,794	-16,842	-0,401	-0,178
34,809	290,850	-0,251	-0,322
35,823	54,640	-0,385	-0,261
36,838	170,692	-0,385	-0,388
37,853	177,803	-0,336	-0,345
38,867	196,894	-0,330	-0,354
39,882	17,461	-0,475	-0,264
40,896	-123,464	-0,241	-0,027
41,911	169,960	-0,296	-0,298
42,926	141,971	-0,352	-0,328
43,940	-52,013	-0,403	-0,131
44,955	97,710	-0,448	-0,361
45,969	116,340	-0,302	-0,260
46,984	189,639	-0,332	-0,351
47,999	69,234	-0,253	-0,183
49,013	70,715	-0,268	-0,195
50,028	9,742	-0,434	-0,230
51,042	137,419	-0,336	-0,308
52,057	66,781	-0,347	-0,248
53,071	77,614	-0,296	-0,221
54,086	-66,375	-0,423	-0,117
55,101	109,246	-0,222	-0,187
56,115	33,610	-0,354	-0,215
57,130	11,489	-0,343	-0,184
58,144	0,056	-0,459	-0,229
59,159	228,884	-0,350	-0,401
60,174	93,344	-0,463	-0,368
61,188	-9,730	-0,261	-0,121
62,203	42,057	-0,348	-0,221
63,217	179,002	-0,269	-0,277
64,232	102,249	-0,291	-0,239
65,247	-35,008	-0,294	-0,112
66,261	32,016	-0,339	-0,204
67,276	-44,999	-0,336	-0,117
68,290	113,139	-0,414	-0,352
69,305	49,194	-0,329	-0,216
70,320	-38,874	-0,298	-0,110
71,334	170,328	-0,242	-0,243
72,349	194,251	-0,340	-0,361
73,363	183,398	-0,427	-0,443
74,378	-5,152	-0,424	-0,204
75,393	477,738	-0,149	-0,238
76,407	-58,163	-0,340	-0,103
77,422	68,093	-0,203	-0,145
78,436	223,504	-0,236	-0,267
79,451	-80,297	-0,392	-0,091
80,466	566,052	-0,063	-0,108
81,480	107,279	-0,208	-0,173
82,495	398,000	-0,244	-0,358
83,509	-59,742	-0,192	-0,057
84,524	10,521	-0,322	-0,171
85,539	-106,896	-0,300	-0,046
86,553	141,976	-0,300	-0,278
87,568	105,234	-0,297	-0,245
88,582	-16,722	-0,336	-0,148
89,597	-75,307	-0,374	-0,093
90,611	-67,703	-0,242	-0,066
91,626	331,132	-0,154	-0,209
92,641	-66,028	-0,325	-0,090
93,655	-25,442	-0,195	-0,080
94,670	185,734	-0,286	-0,297
95,684	74,978	-0,320	-0,236
96,699	43,042	-0,287	-0,183
97,714	-10,951	-0,180	-0,083
98,728	364,668	-0,144	-0,203
99,743	-159,325	-0,194	0,007
100,757	100,687	-0,215	-0,175
101,772	120,380	-0,277	-0,241
102,787	12,322	-0,253	-0,136
103,801	40,210	-0,254	-0,159
104,816	385,295	-0,243	-0,352
105,830	144,350	-0,192	-0,180
106,845	-5,451	-0,175	-0,083
107,860	183,222	-0,142	-0,147
108,874	39,144	-0,350	-0,218
109,889	-83,827	-0,368	-0,081
110,903	57,436	-0,328	-0,224
111,918	180,864	-0,257	-0,264
112,933	35,574	-0,199	-0,122
113,947	-67,598	-0,079	0,021
114,962	-37,710	-0,298	-0,110
115,976	689,040	-0,121	-0,222
116,991	193,948	-0,325	-0,344
118,006	192,775	-0,212	-0,223
119,020	469,005	-0,137	-0,215
120,035	-114,354	-0,329	-0,044
121,049	336,489	-0,193	-0,262
122,064	12,342	-0,232	-0,125
123,079	-2,227	-0,264	-0,129
124,093	9,560	-0,178	-0,094
125,108	123,579	-0,299	-0,262
126,122	71,647	-0,343	-0,248
127,137	-20,688	-0,195	-0,083
128,151	-151,019	-0,198	-0,010
129,166	31,689	-0,119	-0,071
130,181	32,945	-0,256	-0,154
131,195	218,976	-0,291	-0,325
132,210	-23,140	-0,319	-0,133
133,224	800,000	-0,151	-0,303
134,239	46,338	-0,252	-0,162
135,254	-90,805	-0,319	0,064
136,268	-69,780	-0,232	-0,061
137,283	36,825	-0,293	-0,180
138,297	245,664	-0,182	-0,214
139,312	147,041	-0,266	-0,250
140,327	-118,822	-0,229	-0,028
141,341	2,663	-0,123	-0,062
142,356	211,922	-0,189	-0,208
143,370	162,911	-0,102	-0,100
144,385	-21,896	-0,293	-0,124
145,400	80,640	-0,320	-0,240
146,414	25,198	-0,215	-0,124
147,429	179,510	-0,180	-0,184
148,443	94,103	-0,134	-0,106
149,458	183,393	-0,223	-0,230
150,473	369,360	-0,083	-0,117
151,487	52,733	-0,247	-0,164
152,502	126,122	-0,348	-0,306
153,516	171,821	-0,210	-0,210
154,531	77,439	-0,208	-0,154
155,546	353,097	-0,144	-0,199
156,560	70,002	-0,176	-0,126
157,575	487,675	-0,161	-0,257
158,589	-200,000	-0,072	-0,330
159,604	800,000	-0,098	-0,230
160,619	400,531	-0,123	-0,181
161,633	311,672	-0,166	-0,217
162,648	150,915	-0,218	-0,206
163,662	-200,000	-0,095	-0,301
164,677	433,368	-0,100	-0,151
165,692	122,363	-0,117	-0,102
166,706	-156,869	-0,211	-0,009
167,721	139,202	-0,320	-0,293
168,735	234,604	-0,218	-0,250
169,750	540,559	-0,110	-0,183
170,764	78,504	-0,145	-0,107
171,779	24,459	-0,337	-0,193
172,794	10,900	-0,238	-0,126
173,808	430,572	-0,224	-0,338
174,823	-54,960	-0,369	-0,115
175,837	229,959	-0,228	-0,259
176,852	730,583	-0,094	-0,175
177,867	-200,000	0,003	-0,131
178,881	392,647	-0,131	-0,190
179,896	800,000	-0,108	-0,246
180,910	41,613	-0,237	-0,149
181,925	131,650	-0,263	-0,235
182,940	-8,940	-0,219	-0,101
183,954	23,046	-0,266	-0,151
184,969	40,552	-0,230	-0,143
185,983	-93,833	-0,206	-0,039
186,998	-76,798	-0,106	-0,025
188,013	53,893	-0,244	-0,162
189,027	-151,724	-0,305	-0,015
190,042	472,192	-0,172	-0,270
191,056	-77,247	-0,339	-0,081
192,071	168,836	-0,206	-0,204
193,086	-50,263	-0,152	-0,050
194,100	149,503	-0,248	-0,233
195,115	254,558	-0,141	-0,168
196,129	100,144	-0,166	-0,134
197,144	104,761	-0,175	-0,143
198,159	760,228	-0,179	-0,337
199,173	47,647	-0,171	-0,110
200,188	-115,072	-0,205	0,027
201,202	111,348	-0,212	-0,177
202,217	358,264	-0,167	-0,232
203,232	-200,000	-0,064	-0,273
204,246	128,106	-0,259	-0,228
205,261	292,763	-0,158	-0,200
206,275	36,002	-0,171	-0,104
207,290	-9,476	-0,219	-0,101
208,304	-66,303	-0,231	-0,063
209,319	-89,060	-0,262	-0,053
210,334	-1,639	-0,220	-0,107
211,348	17,252	-0,135	-0,074
212,363	543,389	-0,059	-0,097
213,377	159,343	-0,147	-0,142
214,392	127,035	-0,231	-0,203
215,407	-90,520	-0,127	-0,025
216,421	18,072	-0,233	-0,128
217,436	69,366	-0,177	-0,126
218,450	-49,597	-0,281	-0,092
219,465	131,063	-0,135	-0,120
220,480	84,629	-0,293	-0,222
221,494	-17,913	-0,155	-0,067
222,509	-119,148	-0,287	-0,034
223,523	-97,581	-0,185	-0,033
224,538	-67,191	-0,194	-0,053
225,553	227,365	-0,179	-0,202
226,567	126,236	-0,151	-0,132
227,582	79,281	-0,193	-0,143
228,596	5,028	-0,197	-0,100
229,611	-164,474	-0,213	-0,007
230,626	-170,630	-0,193	-0,005
231,640	-6,026	-0,080	-0,038
232,655	-78,830	-0,335	-0,078
233,669	-24,161	-0,167	-0,069
234,684	195,296	-0,171	-0,180
235,699	238,478	-0,139	-0,159
236,713	-125,168	-0,233	-0,024
237,728	-88,932	-0,218	-0,044
238,742	-189,700	-0,181	-0,001
239,757	-58,434	-0,271	-0,081
240,772	-106,261	-0,257	-0,039
241,786	238,529	-0,145	-0,167
242,801	-200,000	0,029	-0,123
243,815	-69,851	-0,180	0,047
244,830	46,170	-0,166	-0,106
245,844	-156,403	-0,125	-0,005
246,859	196,769	-0,185	-0,195
247,874	41,497	-0,126	-0,078
248,888	273,985	-0,137	-0,168
249,903	-58,789	-0,169	-0,050
250,917	221,348	-0,109	-0,121
251,932	-32,781	-0,090	-0,035
252,947	-47,288	-0,235	-0,078
253,961	800,000	-0,104	-0,200
254,976	55,078	-0,245	-0,163
255,990	8,641	-0,233	-0,121
257,005	-167,383	-0,271	0,007
258,020	-76,323	-0,117	0,028
259,034	-124,264	-0,157	0,017
260,049	59,087	-0,122	-0,083
261,063	800,000	-0,116	-0,238
262,078	135,148	-0,130	-0,117
263,093	274,945	-0,174	-0,213
264,107	-74,839	-0,167	-0,041
265,122	-59,717	-0,208	-0,061
266,136	71,097	-0,165	-0,117
267,151	191,652	-0,138	-0,143
268,166	333,186	-0,050	-0,067
269,180	87,734	-0,098	-0,074
270,195	76,428	-0,077	-0,056
271,209	239,346	-0,132	-0,151
272,224	99,473	-0,160	-0,128
273,239	-73,907	-0,202	0,050
274,253	-28,871	-0,166	-0,066
275,268	42,636	-0,197	-0,123
276,282	-129,948	-0,261	-0,024
277,297	96,433	-0,215	-0,169
278,312	305,121	-0,170	-0,218
279,326	800,000	-0,040	-0,109
280,341	800,000	-0,073	-0,159
281,355	-45,614	-0,178	-0,060
282,370	-171,636	-0,088	0,002
283,384	317,825	-0,119	-0,155
284,399	359,921	-0,157	-0,216
285,414	83,772	-0,211	-0,158
286,428	4,962	-0,130	-0,066
287,443	7,372	-0,103	-0,053
288,457	-57,645	-0,173	-0,052
289,472	-51,092	-0,242	-0,078
290,487	10,737	-0,191	-0,100
291,501	800,000	-0,036	-0,095
292,516	86,424	-0,225	-0,170
293,530	120,371	-0,248	-0,212
294,545	743,889	-0,085	-0,158
295,560	800,000	-0,048	-0,138
296,574	800,000	-0,075	-0,164
297,589	113,375	-0,241	-0,201
298,603	268,157	-0,176	-0,213
299,618	-91,735	-0,063	-0,012
300,633	571,406	-0,211	-0,355
301,647	-35,404	-0,072	0,027
302,662	184,796	-0,120	-0,123
303,676	-152,152	-0,104	0,005
304,691	65,921	-0,181	-0,126
305,706	377,819	-0,172	-0,242
306,720	-78,491	-0,209	-0,049
307,735	427,376	-0,129	-0,192
308,749	800,000	-0,052	-0,128
309,764	-200,000	-0,056	-0,181
310,779	-38,193	-0,081	-0,029
311,793	-36,716	-0,198	-0,073
312,808	-93,689	-0,127	-0,024
313,822	129,011	-0,104	-0,091
314,837	-104,585	-0,176	-0,028
315,852	382,231	-0,145	-0,205
316,866	100,352	-0,116	-0,092
317,881	44,112	-0,256	-0,161
318,895	-35,442	-0,156	0,058
319,910	800,000	-0,052	-0,101
320,925	800,000	-0,122	-0,244
321,939	107,744	-0,154	-0,126
322,954	108,956	-0,229	-0,188
323,968	-135,654	-0,170	-0,014
324,983	527,991	-0,076	-0,123
325,997	409,102	-0,154	-0,224
327,012	37,219	-0,160	-0,097
328,027	-15,827	-0,237	-0,103
329,041	800,000	-0,046	-0,106
330,056	121,236	-0,129	-0,110
331,070	33,135	-0,166	-0,098
332,085	342,239	-0,083	-0,112
333,100	-162,115	-0,183	0,006
334,114	47,155	-0,246	-0,157
335,129	102,671	-0,183	-0,147
336,143	46,027	-0,169	-0,107
337,158	-7,768	-0,096	-0,044
338,173	197,475	-0,012	-0,012
339,187	-15,153	-0,088	-0,038
340,202	371,546	-0,100	-0,139
341,216	276,051	-0,144	-0,176
342,231	247,526	-0,141	-0,163
343,246	184,709	-0,062	-0,063
344,260	418,089	-0,064	-0,094
345,275	-200,000	-0,018	0,055
346,289	38,414	-0,128	-0,078
347,304	443,027	-0,150	-0,225
348,319	-1,499	-0,134	-0,065
349,333	210,694	-0,050	-0,054
350,348	-124,788	-0,143	-0,015
351,362	800,000	-0,037	-0,074
352,377	67,447	-0,114	-0,079
353,392	203,513	-0,084	-0,089
354,406	-77,201	-0,062	0,015
355,421	208,868	1306,992	1400,662
356,435	160,739	1466,728	1401,137
