DTS Sentinel unit serial number:	SN410029Multiplexer serial number:	ORYXHardware model number:	OX2-SRSoftware version number:	ORYX F/W v4,00 Oryx Data Collector v3.7.2.0data status	okinstallation	B3 Nyhavnadifferential loss correction	single-endedforward channel	channel 1reverse channel	N/Adate	2023/12/02time	10:52:30forward acquisition time	300,00reverse acquisition time	0,00gamma	499,1914k internal	0,3197k external	0,3197temperature offset calibration	1,0000default loss term (dB/km)	0,3820temperature slope calibration	1,0000multiplexer offset coefficient	1,0000multiplexer slope coefficient	1,0000fibre end	0,00T internal ref (°C)	14,32T ext. ref 1 (°C)	-1,26T ext. ref 2 (°C)	-1,29length (m)	temperature (°C)	Stokes	anti-Stokes-744,400	461,148	-0,087	-0,142
-743,385	800,000	0,106	0,318
-742,371	-200,000	-0,089	-0,335
-741,356	-200,000	-0,051	0,298
-740,342	337,317	-0,171	-0,243
-739,327	800,000	0,107	0,327
-738,312	146,559	-0,129	-0,126
-737,298	530,960	-0,115	0,199
-736,283	513,816	-0,110	-0,188
-735,269	800,000	-0,072	0,215
-734,254	153,385	-0,217	-0,217
-733,239	800,000	-0,071	0,176
-732,225	591,788	-0,138	-0,248
-731,210	62,534	0,128	0,093
-730,196	-200,000	-0,034	-0,124
-729,181	514,606	-0,044	-0,075
-728,167	-17,407	-0,102	-0,047
-727,152	60,652	-0,033	-0,024
-726,137	341,165	-0,057	0,081
-725,123	219,619	-0,124	-0,145
-724,108	75,828	-0,039	0,030
-723,094	564,790	-0,055	-0,097
-722,079	767,856	-0,040	-0,079
-721,064	-200,000	-0,030	-0,115
-720,050	52,209	0,124	-0,086
-719,035	73,785	-0,058	0,044
-718,021	-168,874	-0,108	-0,003
-717,006	-53,911	-0,023	0,008
-715,991	223,915	-0,153	-0,180
-714,977	-200,000	0,009	-0,058
-713,962	-8,436	-0,063	0,031
-712,948	21,475	-0,056	-0,033
-711,933	-200,000	0,001	-0,032
-710,918	-200,000	-0,022	0,122
-709,904	800,000	-0,044	-0,094
-708,889	61,139	-0,033	-0,024
-707,875	800,000	0,040	-0,105
-706,860	566,842	-0,077	0,137
-705,845	800,000	0,010	-0,026
-704,831	-181,030	0,160	0,002
-703,816	-112,831	-0,010	-0,001
-702,802	-200,000	0,004	-0,038
-701,787	512,210	-0,084	-0,143
-700,772	-5,807	-0,116	0,058
-699,758	-200,000	0,023	-0,119
-698,743	800,000	0,017	-0,040
-697,729	-172,491	-0,061	-0,001
-696,714	175,012	-0,021	0,022
-695,699	-200,000	-0,007	-0,031
-694,685	4,859	-0,103	0,055
-693,670	-200,000	-0,031	-0,176
-692,656	137,764	-0,017	-0,016
-691,641	-200,000	0,008	0,043
-690,627	347,768	-0,035	-0,051
-689,612	88,788	0,045	0,036
-688,597	-200,000	-0,006	-0,036
-687,583	-43,021	0,007	-0,003
-686,568	310,960	0,068	-0,092
-685,554	21,817	-0,021	0,012
-684,539	47,436	-0,004	0,003
-683,524	571,531	0,044	0,079
-682,510	-200,000	-0,010	0,188
-681,495	-30,977	-0,073	-0,030
-680,481	-76,894	-0,035	0,009
-679,466	755,350	-0,034	-0,067
-678,451	-200,000	0,027	-0,126
-677,437	800,000	-0,035	0,097
-676,422	-70,492	0,063	0,017
-675,408	603,744	-0,042	-0,076
-674,393	-109,290	0,094	-0,014
-673,378	113,958	0,078	0,069
-672,364	-78,653	-0,203	0,050
-671,349	-95,894	-0,210	-0,040
-670,335	-83,129	-0,072	-0,017
-669,320	-116,787	0,054	0,007
-668,305	-106,076	-0,088	-0,014
-667,291	135,200	-0,063	-0,060
-666,276	758,676	-0,050	-0,099
-665,262	12,827	0,135	-0,076
-664,247	800,000	-0,062	0,141
-663,232	-92,358	-0,102	-0,021
-662,218	468,321	-0,114	0,187
-661,203	90,613	0,071	0,058
-660,189	-200,000	-0,001	-0,129
-659,174	-168,902	-0,147	0,004
-658,159	-200,000	0,002	-0,114
-657,145	-120,900	0,074	-0,009
-656,130	91,540	0,118	-0,096
-655,116	-200,000	0,010	-0,176
-654,101	103,300	0,105	-0,090
-653,086	5,821	-0,110	0,059
-652,072	678,366	-0,017	0,032
-651,057	285,207	-0,053	0,070
-650,043	379,775	-0,092	-0,137
-649,028	-200,000	-0,027	-0,112
-648,014	175,654	0,091	0,095
-646,999	22,658	0,096	0,057
-645,984	33,339	0,058	0,036
-644,970	271,391	0,061	-0,078
-643,955	-200,000	-0,025	-0,089
-642,941	57,920	-0,175	-0,124
-641,926	389,179	-0,041	0,061
-640,911	-200,000	0,020	-0,097
-639,897	-88,111	0,058	0,012
-638,882	-200,000	0,015	0,095
-637,868	126,314	-0,154	-0,142
-636,853	88,821	-0,104	-0,084
-635,838	337,063	-0,012	0,017
-634,824	800,000	-0,037	-0,101
-633,809	-200,000	0,017	-0,160
-632,795	3,813	-0,046	0,025
-631,780	800,000	-0,016	-0,050
-630,765	-200,000	-0,007	-0,093
-629,751	-149,862	0,077	0,004
-628,736	-66,107	-0,178	0,051
-627,722	-75,875	-0,074	-0,019
-626,707	-200,000	0,016	-0,069
-625,692	231,350	0,012	-0,015
-624,678	35,906	0,108	0,069
-623,663	339,606	-0,020	-0,028
-622,649	357,205	-0,097	-0,141
-621,634	58,395	0,091	-0,064
-620,619	6,614	-0,051	-0,027
-619,605	-44,653	0,084	-0,030
-618,590	-129,933	-0,168	-0,016
-617,576	800,000	-0,043	0,127
-616,561	428,683	-0,076	-0,119
-615,546	14,354	-0,056	-0,032
-614,532	800,000	0,011	-0,024
-613,517	800,000	-0,055	0,125
-612,503	800,000	0,097	0,220
-611,488	554,747	-0,022	0,039
-610,474	-200,000	-0,010	-0,036
-609,459	122,945	-0,134	0,122
-608,444	789,699	-0,036	-0,072
-607,430	-200,000	-0,025	-0,106
-606,415	-17,163	-0,081	0,037
-605,401	344,893	-0,046	-0,065
-604,386	-200,000	-0,041	-0,137
-603,371	531,195	0,027	0,046
-602,357	61,213	-0,097	0,070
-601,342	624,641	-0,026	-0,048
-600,328	97,042	-0,071	-0,059
-599,313	-32,299	-0,106	-0,043
-598,298	-156,300	0,071	0,003
-597,284	97,484	0,080	0,066
-596,269	81,267	0,044	-0,034
-595,255	49,255	0,098	-0,066
-594,240	-18,821	0,089	-0,040
-593,225	562,396	-0,062	-0,109
-592,211	-131,181	0,021	-0,002
-591,196	-32,551	-0,120	-0,048
-590,182	-200,000	-0,002	0,027
-589,167	800,000	0,037	0,077
-588,152	-200,000	0,034	0,120
-587,138	201,706	-0,060	-0,067
-586,123	-200,000	0,007	0,046
-585,109	-200,000	-0,002	-0,119
-584,094	-200,000	0,031	-0,135
-583,079	233,124	0,115	-0,136
-582,065	-59,003	0,026	-0,008
-581,050	255,328	0,069	0,086
-580,036	800,000	0,027	-0,058
-579,021	69,100	-0,183	-0,136
-578,006	800,000	-0,054	-0,119
-576,992	277,898	-0,094	-0,121
-575,977	594,043	0,023	-0,041
-574,963	110,320	-0,068	0,059
-573,948	800,000	0,015	0,046
-572,934	105,505	0,037	0,032
-571,919	19,611	-0,115	-0,067
-570,904	800,000	0,029	0,093
-569,890	-200,000	0,009	0,038
-568,875	800,000	-0,042	0,107
-567,861	-200,000	0,014	-0,070
-566,846	4,760	-0,028	0,015
-565,831	515,479	0,030	-0,050
-564,817	4,806	-0,026	-0,014
-563,802	612,463	0,017	0,031
-562,788	-18,604	-0,127	-0,057
-561,773	-200,000	0,003	-0,092
-560,758	800,000	0,037	0,090
-559,744	357,223	0,062	-0,090
-558,729	-91,897	0,086	0,017
-557,715	-200,000	0,001	0,067
-556,700	-13,003	-0,068	0,032
-555,685	-200,000	0,007	0,074
-554,671	-24,256	0,057	-0,025
-553,656	-23,720	0,152	0,065
-552,642	-200,000	0,014	-0,088
-551,627	50,527	0,067	0,046
-550,612	25,875	-0,104	-0,062
-549,598	-48,086	-0,147	-0,051
-548,583	-132,544	0,055	-0,005
-547,569	800,000	-0,011	-0,033
-546,554	-13,910	0,146	0,068
-545,539	120,368	-0,085	0,077
-544,525	168,277	0,060	-0,062
-543,510	-200,000	-0,053	-0,172
-542,496	67,428	-0,090	-0,067
-541,481	164,431	-0,074	-0,076
-540,466	-12,417	-0,119	0,056
-539,452	-200,000	0,011	0,120
-538,437	68,604	-0,023	0,017
-537,423	-96,246	0,058	-0,011
-536,408	470,132	-0,012	0,020
-535,393	-200,000	0,006	0,048
-534,379	47,722	0,082	0,055
-533,364	-182,854	-0,087	0,001
-532,350	-85,059	0,087	-0,020
-531,335	421,919	0,028	-0,044
-530,321	800,000	0,025	-0,056
-529,306	-17,997	0,072	-0,033
-528,291	172,493	-0,058	-0,060
-527,277	-118,950	-0,103	0,013
-526,262	-139,286	0,114	-0,009
-525,248	-200,000	0,002	0,052
-524,233	90,626	-0,099	-0,080
-523,218	80,532	0,125	-0,097
-522,204	101,457	-0,090	0,076
-521,189	277,782	-0,062	-0,080
-520,175	-80,291	0,096	0,023
-519,160	79,026	-0,042	0,032
-518,145	136,707	0,052	0,049
-517,131	-200,000	0,001	0,068
-516,116	-19,765	0,035	0,016
-515,102	-11,014	0,110	0,052
-514,087	-150,811	-0,072	-0,004
-513,072	527,033	0,030	-0,051
-512,058	-200,000	-0,021	-0,069
-511,043	800,000	0,022	-0,061
-510,029	98,625	0,070	-0,058
-509,014	-200,000	-0,004	0,116
-507,999	-125,698	-0,137	-0,015
-506,985	784,521	0,061	-0,121
-505,970	14,780	-0,061	-0,034
-504,956	416,929	-0,043	0,067
-503,941	266,078	0,083	0,105
-502,926	-139,106	-0,051	0,004
-501,912	800,000	-0,069	0,184
-500,897	36,097	0,125	0,079
-499,883	127,429	0,048	0,044
-498,868	279,335	0,020	0,026
-497,853	-200,000	-0,007	-0,116
-496,839	13,553	0,058	-0,033
-495,824	362,138	0,057	0,082
-494,810	-200,000	0,002	-0,051
-493,795	48,773	-0,062	0,042
-492,781	-200,000	0,004	-0,113
-491,766	-200,000	-0,007	-0,050
-490,751	712,628	-0,073	0,139
-489,737	14,073	-0,057	0,032
-488,722	371,285	0,044	-0,065
-487,708	-200,000	0,004	-0,120
-486,693	-200,000	0,012	0,119
-485,678	-128,355	-0,159	-0,016
-484,664	800,000	0,013	0,034
-483,649	800,000	0,042	-0,098
-482,635	205,157	-0,076	-0,086
-481,620	41,512	0,027	0,018
-480,605	381,580	0,042	0,063
-479,591	-43,058	0,085	-0,031
-478,576	189,015	-0,053	0,058
-477,562	780,527	0,080	-0,158
-476,547	149,224	-0,088	-0,086
-475,532	-73,117	-0,046	-0,012
-474,518	185,594	-0,071	-0,076
-473,503	-69,190	0,104	0,029
-472,489	316,512	0,058	-0,079
-471,474	-200,000	-0,014	0,112
-470,459	695,861	-0,028	-0,054
-469,445	546,453	-0,006	-0,010
-468,430	800,000	-0,017	0,036
-467,416	182,137	0,039	-0,041
-466,401	49,717	0,045	0,030
-465,386	64,397	-0,090	0,066
-464,372	-48,442	-0,029	0,010
-463,357	-143,503	-0,123	-0,008
-462,343	800,000	0,010	0,030
-461,328	-100,916	-0,020	0,004
-460,313	-129,363	0,071	0,007
-459,299	-1,727	-0,033	-0,017
-458,284	-200,000	0,008	0,107
-457,270	-125,086	0,050	0,005
-456,255	800,000	0,035	-0,096
-455,241	98,981	-0,121	-0,100
-454,226	-200,000	-0,014	-0,113
-453,211	-63,171	-0,024	-0,007
-452,197	670,746	-0,014	0,027
-451,182	-200,000	-0,030	0,156
-450,168	-139,037	0,087	-0,007
-449,153	290,648	0,037	0,048
-448,138	0,662	-0,045	-0,023
-447,124	318,284	-0,072	-0,099
-446,109	-200,000	0,012	-0,087
-445,095	579,961	0,018	0,031
-444,080	40,423	0,098	0,064
-443,065	-1,712	0,102	0,052
-442,051	-98,258	-0,069	-0,013
-441,036	-135,388	0,069	0,006
-440,022	53,121	-0,087	-0,060
-439,007	171,550	-0,049	-0,051
-437,992	-200,000	0,044	-0,141
-436,978	800,000	-0,054	-0,137
-435,963	117,605	0,101	0,090
-434,949	-200,000	0,007	-0,127
-433,934	-32,843	-0,063	-0,025
-432,919	800,000	0,020	0,048
-431,905	-45,562	0,134	-0,047
-430,890	25,219	0,090	-0,054
-429,876	-6,963	-0,029	-0,014
-428,861	47,447	-0,078	-0,052
-427,846	-132,249	-0,104	0,010
-426,832	-200,000	-0,003	0,016
-425,817	800,000	-0,057	0,141
-424,803	-117,653	0,200	0,026
-423,788	10,405	0,020	-0,011
-422,773	-200,000	0,002	-0,040
-421,759	271,014	0,027	-0,034
-420,744	491,396	-0,124	0,205
-419,730	800,000	0,031	-0,067
-418,715	-146,237	-0,054	0,003
-417,701	125,015	0,069	-0,062
-416,686	349,275	0,074	-0,105
-415,671	82,648	-0,041	0,032
-414,657	-171,890	-0,076	0,002
-413,642	-183,335	-0,037	0,000
-412,628	800,000	-0,065	-0,175
-411,613	-200,000	-0,001	-0,027
-410,598	-105,337	-0,085	-0,014
-409,584	162,807	0,091	-0,092
-408,569	426,122	0,061	0,094
-407,555	-114,322	0,023	0,003
-406,540	-114,831	0,099	-0,013
-405,525	800,000	0,030	-0,069
-404,511	-200,000	0,003	-0,043
-403,496	394,556	-0,028	-0,042
-402,482	324,174	0,083	-0,114
-401,467	34,465	-0,035	-0,022
-400,452	-200,000	0,019	0,131
-399,438	800,000	-0,060	0,134
-398,423	800,000	-0,059	0,149
-397,409	15,076	-0,118	0,066
-396,394	762,222	-0,057	0,112
-395,379	-200,000	0,004	0,040
-394,365	215,313	0,049	-0,056
-393,350	800,000	0,060	0,146
-392,336	-200,000	0,019	0,146
-391,321	617,716	-0,079	0,142
-390,306	515,017	-0,025	0,041
-389,292	303,672	-0,103	-0,138
-388,277	665,870	-0,022	0,041
-387,263	-200,000	0,030	0,154
-386,248	800,000	0,023	-0,055
-385,233	-69,851	0,046	0,012
-384,219	178,179	-0,025	-0,026
-383,204	294,649	0,003	0,004
-382,190	800,000	0,029	0,075
-381,175	-87,189	0,066	-0,014
-380,160	-171,199	0,032	-0,001
-379,146	-200,000	0,004	0,120
-378,131	-65,364	0,090	0,026
-377,117	-161,518	0,025	0,001
-376,102	-46,901	-0,101	0,035
-375,088	518,122	0,061	-0,104
-374,073	2,677	-0,085	0,044
-373,058	-200,000	0,025	-0,130
-372,044	-200,000	0,018	0,077
-371,029	-200,000	0,018	-0,111
-370,015	26,976	-0,069	0,041
-369,000	396,683	-0,060	-0,090
-367,985	800,000	0,010	0,026
-366,971	96,391	0,036	0,029
-365,956	173,043	0,113	0,117
-364,942	-40,855	0,069	-0,025
-363,927	272,089	0,030	0,038
-362,912	-200,000	0,039	-0,209
-361,898	269,582	-0,056	-0,070
-360,883	-200,000	-0,019	-0,092
-359,869	-200,000	-0,013	0,113
-358,854	-200,000	0,011	0,076
-357,839	-30,226	0,157	0,064
-356,825	47,828	0,022	-0,015
-355,810	0,312	0,066	0,034
-354,796	155,130	-0,090	-0,089
-353,781	-200,000	-0,000	-0,038
-352,766	-122,574	0,124	-0,014
-351,752	800,000	-0,013	-0,033
-350,737	-200,000	0,007	0,097
-349,723	800,000	0,011	-0,030
-348,708	426,896	0,073	-0,113
-347,693	526,297	0,080	0,136
-346,679	800,000	-0,051	-0,102
-345,664	-200,000	-0,020	-0,090
-344,650	-200,000	-0,011	0,152
-343,635	286,418	-0,063	0,081
-342,620	800,000	-0,058	0,131
-341,606	800,000	-0,035	0,075
-340,591	-117,412	-0,100	0,013
-339,577	-64,348	0,070	0,020
-338,562	430,695	0,038	0,059
-337,548	347,362	-0,056	0,079
-336,533	422,607	0,043	-0,066
-335,518	-46,712	-0,050	0,017
-334,504	-95,073	-0,048	0,009
-333,489	-200,000	-0,002	-0,032
-332,475	47,202	0,019	0,013
-331,460	-200,000	-0,021	-0,113
-330,445	96,514	-0,052	0,042
-329,431	502,655	-0,039	0,065
-328,416	-200,000	-0,007	-0,045
-327,402	-39,295	0,031	0,011
-326,387	193,812	-0,040	0,043
-325,372	-100,799	-0,074	0,013
-324,358	-144,474	-0,219	-0,014
-323,343	-14,356	0,030	-0,014
-322,329	-57,909	-0,042	-0,013
-321,314	-67,816	0,052	0,014
-320,299	-31,261	0,141	0,057
-319,285	210,890	-0,063	-0,071
-318,270	-158,676	-0,156	0,006
-317,256	800,000	-0,028	-0,086
-316,241	-91,853	0,049	-0,010
-315,226	800,000	-0,057	0,145
-314,212	390,593	0,029	0,043
-313,197	-70,817	0,135	0,036
-312,183	456,126	-0,094	0,150
-311,168	39,228	-0,071	-0,045
-310,153	800,000	0,034	0,102
-309,139	270,851	0,072	-0,091
-308,124	-200,000	-0,015	0,093
-307,110	65,063	0,056	-0,041
-306,095	375,474	-0,067	0,098
-305,080	-85,220	0,120	-0,027
-304,066	-99,760	0,066	0,012
-303,051	-22,001	0,099	-0,043
-302,037	800,000	-0,016	0,052
-301,022	343,120	-0,003	-0,004
-300,008	-76,095	0,104	0,026
-298,993	-200,000	-0,008	0,164
-297,978	-78,325	0,058	0,014
-296,964	85,676	-0,080	-0,063
-295,949	616,752	-0,060	0,108
-294,935	800,000	0,004	-0,010
-293,920	34,067	-0,067	-0,042
-292,905	800,000	0,037	-0,088
-291,891	-109,412	-0,133	-0,020
-290,876	-72,506	-0,038	0,010
-289,862	154,523	-0,040	0,039
-288,847	800,000	-0,037	-0,083
-287,832	481,098	0,062	-0,101
-286,818	-200,000	-0,023	0,076
-285,803	-120,108	0,202	0,024
-284,789	-200,000	0,021	-0,107
-283,774	-200,000	-0,025	0,086
-282,759	-43,269	-0,118	-0,042
-281,745	-91,990	0,182	-0,037
-280,730	-200,000	-0,031	-0,145
-279,716	800,000	0,044	-0,124
-278,701	85,660	0,119	0,093
-277,686	-172,823	0,145	0,003
-276,672	800,000	-0,029	0,060
-275,657	-151,216	0,134	0,007
-274,643	800,000	0,028	-0,075
-273,628	-3,716	0,033	0,016
-272,613	-87,057	-0,136	0,029
-271,599	375,255	-0,083	0,121
-270,584	-200,000	0,012	-0,049
-269,570	800,000	-0,013	0,040
-268,555	-50,978	-0,166	0,056
-267,540	-9,451	-0,061	0,029
-266,526	437,948	0,041	-0,064
-265,511	288,197	-0,028	-0,036
-264,497	645,836	0,061	0,112
-263,482	-200,000	0,022	0,073
-262,467	-200,000	-0,008	0,249
-261,453	365,962	-0,049	0,070
-260,438	-200,000	-0,002	-0,068
-259,424	377,493	-0,003	-0,004
-258,409	681,466	-0,022	-0,041
-257,395	471,131	0,079	0,128
-256,380	-200,000	-0,019	-0,062
-255,365	-0,726	-0,035	-0,017
-254,351	-200,000	0,013	0,103
-253,336	25,329	0,065	0,039
-252,322	128,299	-0,155	0,141
-251,307	372,136	-0,021	-0,031
-250,292	540,878	0,075	-0,128
-249,278	-42,902	0,183	0,066
-248,263	104,475	0,109	0,092
-247,249	800,000	0,012	0,027
-246,234	-80,834	-0,084	-0,020
-245,219	175,878	0,076	-0,079
-244,205	-94,102	-0,079	-0,015
-243,190	-200,000	0,018	-0,073
-242,176	95,638	0,075	-0,061
-241,161	440,103	0,062	0,098
-240,146	-108,311	0,139	-0,021
-239,132	-151,366	-0,015	0,001
-238,117	664,437	-0,041	-0,077
-237,103	-200,000	-0,012	-0,042
-236,088	202,469	0,037	-0,041
-235,073	-6,126	0,043	0,021
-234,059	244,579	-0,061	0,074
-233,044	-48,197	0,104	-0,036
-232,030	137,462	0,037	-0,035
-231,015	-103,575	0,025	-0,004
-230,000	416,717	0,039	-0,060
-228,986	-116,395	-0,083	0,011
-227,971	265,928	-0,089	-0,112
-226,957	190,256	-0,043	0,046
-225,942	63,868	-0,071	0,051
-224,927	-108,998	0,091	0,014
-223,913	508,783	-0,102	-0,169
-222,898	30,036	-0,054	0,033
-221,884	-85,947	-0,031	-0,007
-220,869	-45,551	0,090	0,032
-219,855	-151,221	0,070	0,004
-218,840	-200,000	-0,039	0,187
-217,825	-23,595	0,079	-0,034
-216,811	-116,400	-0,059	0,008
-215,796	800,000	0,046	-0,127
-214,782	-200,000	0,039	0,130
-213,767	-200,000	-0,032	0,132
-212,752	6,897	0,071	0,037
-211,738	-200,000	-0,014	0,128
-210,723	-91,911	-0,038	0,008
-209,709	467,945	-0,070	0,113
-208,694	114,518	0,150	-0,130
-207,679	-129,267	0,087	-0,009
-206,665	-200,000	0,012	-0,068
-205,650	25,015	0,016	-0,010
-204,636	-33,856	0,196	0,077
-203,621	100,593	0,088	0,073
-202,606	-146,387	-0,072	-0,004
-201,592	-200,000	-0,009	-0,034
-200,577	165,797	-0,072	-0,073
-199,563	-87,813	0,158	-0,034
-198,548	800,000	0,014	0,031
-197,533	-200,000	-0,006	0,059
-196,519	-148,206	-0,115	-0,007
-195,504	463,181	-0,122	-0,195
-194,490	-161,368	-0,069	0,003
-193,475	-64,080	-0,007	-0,002
-192,460	-200,000	0,008	-0,052
-191,446	126,412	0,025	-0,022
-190,431	232,825	-0,116	0,136
-189,417	-102,692	0,186	-0,031
-188,402	-200,000	-0,001	-0,015
-187,387	394,032	-0,042	-0,063
-186,373	-200,000	0,003	-0,070
-185,358	-200,000	-0,031	-0,186
-184,344	234,445	0,060	-0,071
-183,329	481,854	0,068	0,110
-182,315	341,872	0,031	0,044
-181,300	-27,558	-0,115	-0,047
-180,285	-80,893	-0,151	-0,036
-179,271	-113,772	0,052	0,007
-178,256	-200,000	0,000	0,042
-177,242	127,121	0,118	0,107
-176,227	173,924	0,076	0,078
-175,212	155,691	0,055	0,054
-174,198	-95,733	-0,082	0,015
-173,183	800,000	-0,062	0,137
-172,169	142,046	-0,033	-0,031
-171,154	800,000	0,059	0,141
-170,139	-200,000	-0,011	0,132
-169,125	-200,000	-0,018	0,104
-168,110	122,764	0,071	0,063
-167,096	-200,000	0,012	0,052
-166,081	-77,637	-0,133	0,033
-165,066	-200,000	0,021	-0,139
-164,052	-200,000	-0,012	0,052
-163,037	-3,742	0,078	-0,039
-162,023	-200,000	0,008	-0,048
-161,008	128,174	0,101	0,092
-159,993	486,327	0,045	-0,073
-158,979	800,000	-0,014	-0,030
-157,964	-101,208	-0,159	0,027
-156,950	-0,891	0,087	0,044
-155,935	-200,000	-0,022	0,079
-154,920	-95,429	0,092	0,017
-153,906	297,929	0,034	0,045
-152,891	-200,000	-0,008	0,062
-151,877	-15,546	-0,068	0,031
-150,862	299,623	0,061	-0,081
-149,847	290,854	0,067	0,086
-148,833	-200,000	-0,044	0,141
-147,818	167,006	0,090	0,091
-146,804	16,807	0,025	-0,014
-145,789	-200,000	-0,008	0,111
-144,775	241,427	-0,057	0,068
-143,760	-200,000	0,020	-0,101
-142,745	-72,206	0,054	0,014
-141,731	78,848	0,037	0,028
-140,716	-43,970	0,093	0,033
-139,702	-200,000	-0,026	0,109
-138,687	40,045	0,111	0,071
-137,672	800,000	0,011	0,023
-136,658	18,265	0,083	0,047
-135,643	712,081	-0,027	-0,051
-134,629	-34,808	0,052	-0,020
-133,614	36,987	0,021	0,013
-132,599	-39,828	0,130	-0,048
-131,585	42,990	-0,086	-0,056
-130,570	-200,000	-0,018	-0,128
-129,556	-200,000	0,006	0,059
-128,541	158,655	-0,111	0,110
-127,526	-66,970	0,122	-0,034
-126,512	502,064	0,039	0,065
-125,497	-200,000	0,025	0,186
-124,483	800,000	0,021	-0,057
-123,468	682,651	-0,005	-0,009
-122,453	-200,000	-0,036	-0,129
-121,439	-79,957	-0,169	-0,040
-120,424	800,000	-0,019	0,051
-119,410	486,933	0,071	0,115
-118,395	-200,000	0,020	0,095
-117,380	117,871	0,080	-0,070
-116,366	800,000	0,005	-0,014
-115,351	-22,004	0,099	0,043
-114,337	-114,338	-0,074	0,010
-113,322	-200,000	-0,016	-0,066
-112,307	800,000	-0,030	-0,074
-111,293	11,759	0,098	0,053
-110,278	-124,415	0,156	-0,017
-109,264	187,350	-0,032	0,034
-108,249	480,732	-0,071	0,116
-107,234	167,173	0,049	-0,049
-106,220	800,000	-0,035	0,103
-105,205	800,000	-0,028	-0,060
-104,191	-200,000	-0,025	0,079
-103,176	227,941	0,091	0,105
-102,162	270,239	-0,134	-0,168
-101,147	271,922	-0,039	-0,049
-100,132	-126,530	-0,052	0,005
-99,118	88,136	-0,082	-0,065
-98,103	800,000	-0,042	0,093
-97,089	-50,330	0,095	-0,032
-96,074	800,000	0,032	0,072
-95,059	39,203	0,042	0,027
-94,045	-153,649	-0,050	0,002
-93,030	800,000	-0,049	-0,127
-92,016	88,694	0,046	-0,036
-91,001	335,871	0,051	0,071
-89,986	108,466	-0,048	-0,040
-88,972	-199,012	0,036	0,000
-87,957	46,054	-0,040	0,026
-86,943	34,810	-0,065	0,040
-85,928	-37,193	0,099	-0,037
-84,913	-38,696	-0,084	0,031
-83,899	-200,000	0,027	-0,172
-82,884	800,000	-0,040	0,096
-81,870	-40,977	0,154	0,056
-80,855	314,308	0,075	0,101
-79,840	442,093	-0,016	0,025
-78,826	103,400	0,046	0,038
-77,811	-200,000	0,015	0,051
-76,797	268,296	-0,125	-0,156
-75,782	770,429	-0,045	-0,086
-74,767	-200,000	0,019	-0,101
-73,753	-200,000	0,025	0,133
-72,738	-200,000	-0,036	-0,136
-71,724	179,332	-0,048	-0,050
-70,709	56,151	0,061	0,042
-69,694	4,593	0,087	-0,045
-68,680	11,744	-0,103	-0,056
-67,665	800,000	0,019	-0,058
-66,651	213,571	-0,065	-0,073
-65,636	-7,525	0,092	0,044
-64,622	465,525	0,006	0,010
-63,607	-64,930	-0,060	0,017
-62,592	-65,046	0,027	0,008
-61,578	69,119	0,083	-0,061
-60,563	119,648	0,069	0,061
-59,549	70,225	0,101	0,074
-58,534	-42,543	-1,588	-0,570
-57,519	515,140	-1,303	-2,164
-56,505	-200,000	-0,591	-4,591
-55,490	146,606	0,995	0,948
-54,476	800,000	4,992	11,240
-53,461	-200,000	18,722	299,980
-52,446	800,000	734,703	2273,807
-51,432	562,942	1650,901	2843,516
-50,417	78,744	1668,537	1263,767
-49,403	22,239	1541,269	889,900
-48,388	16,175	1464,334	816,023
-47,373	17,778	1454,441	818,220
-46,359	17,002	1444,374	808,806
-45,344	14,505	1439,789	794,255
-44,330	14,395	1438,060	792,741
-43,315	14,408	1436,056	791,667
-42,300	14,380	1434,568	790,683
-41,286	14,411	1433,493	790,209
-40,271	14,397	1431,992	789,283
-39,257	14,393	1430,551	788,437
-38,242	14,484	1429,305	788,151
-37,227	14,429	1428,308	787,311
-36,213	14,408	1426,996	786,458
-35,198	14,464	1425,705	785,981
-34,184	14,446	1424,883	785,409
-33,169	14,364	1423,469	784,211
-32,154	14,449	1422,438	784,012
-31,140	14,411	1421,289	783,170
-30,125	14,419	1420,222	782,585
-29,111	14,486	1418,771	782,075
-28,096	14,421	1417,833	781,219
-27,082	14,343	1416,775	780,236
-26,067	14,349	1415,600	779,588
-25,052	14,387	1414,729	779,256
-24,038	14,326	1413,757	778,403
-23,023	14,329	1412,668	777,787
-22,009	14,388	1411,499	777,390
-20,994	14,289	1410,765	776,491
-19,979	14,346	1409,719	776,150
-18,965	14,264	1408,946	775,309
-17,950	14,296	1407,954	774,882
-16,936	14,307	1406,943	774,348
-15,921	14,205	1406,057	773,352
-14,906	14,236	1405,057	772,915
-13,892	14,254	1404,029	772,404
-12,877	14,269	1403,218	771,996
-11,863	14,287	1402,136	771,453
-10,848	14,215	1401,514	770,747
-9,833	14,207	1400,485	770,115
-8,819	14,190	1399,742	769,592
-7,804	14,163	1398,744	768,890
-6,790	14,199	1397,644	768,422
-5,775	14,163	1396,661	767,684
-4,760	14,167	1395,639	767,110
-3,746	14,152	1394,658	766,471
-2,731	14,144	1394,151	766,126
-1,717	14,129	1393,277	765,542
-0,702	14,104	1391,473	764,406
0,313	17,977	1309,649	737,396
1,327	34,375	705,552	435,257
2,342	52,873	123,994	83,864
3,356	2,725	16,660	8,530
4,371	2,268	3,187	1,627
5,386	-92,559	0,609	0,120
6,400	-11,482	0,193	0,090
7,415	-42,022	-0,299	-0,108
8,429	4,922	-0,373	-0,193
9,444	607,681	-0,200	-0,355
10,459	-4,248	-0,335	-0,164
11,473	-27,851	-0,333	-0,136
12,488	19,854	-0,297	-0,169
13,502	215,865	-0,269	-0,303
14,517	51,579	-0,312	-0,210
15,531	108,871	-0,296	-0,250
16,546	75,102	-0,304	-0,227
17,561	166,566	-0,378	-0,380
18,575	128,834	-0,205	-0,185
19,590	47,302	-0,339	-0,223
20,604	10,912	-0,343	-0,185
21,619	18,255	-0,465	-0,262
22,634	81,755	-0,455	-0,348
23,648	54,820	-0,467	-0,318
24,663	162,902	-0,257	-0,255
25,677	69,121	-0,449	-0,326
26,692	147,248	-0,300	-0,286
27,707	-21,363	-0,384	-0,165
28,721	35,786	-0,364	-0,226
29,736	-29,477	-0,331	-0,133
30,750	54,809	-0,408	-0,278
31,765	85,577	-0,478	-0,371
32,780	207,959	-0,351	-0,388
33,794	66,503	-0,405	-0,290
34,809	-43,485	-0,350	-0,124
35,823	273,578	-0,154	-0,192
36,838	60,305	-0,455	-0,318
37,853	10,826	-0,452	-0,243
38,867	56,421	-0,352	-0,241
39,882	-76,385	-0,413	-0,102
40,896	258,409	-0,183	-0,223
41,911	27,781	-0,313	-0,186
42,926	28,448	-0,441	-0,262
43,940	43,440	-0,389	-0,251
44,955	85,278	-0,365	-0,282
45,969	-4,965	-0,390	-0,189
46,984	49,112	-0,310	-0,205
47,999	19,345	-0,374	-0,211
49,013	1,857	-0,398	-0,202
50,028	292,497	-0,261	-0,336
51,042	62,951	-0,504	-0,355
52,057	-53,646	-0,494	-0,158
53,071	-46,782	-0,332	-0,114
54,086	103,241	-0,346	-0,286
55,101	92,053	-0,260	-0,207
56,115	244,451	-0,177	-0,210
57,130	12,188	-0,364	-0,197
58,144	167,482	-0,283	-0,284
59,159	164,822	-0,340	-0,339
60,174	-14,163	-0,417	-0,189
61,188	55,041	-0,219	-0,149
62,203	-28,874	-0,277	-0,112
63,217	189,294	-0,289	-0,305
64,232	54,569	-0,338	-0,229
65,247	97,967	-0,311	-0,252
66,261	22,355	-0,421	-0,242
67,276	191,608	-0,224	-0,237
68,290	-24,868	-0,300	-0,125
69,305	76,113	-0,299	-0,223
70,320	65,387	-0,244	-0,174
71,334	19,166	-0,230	-0,129
72,349	52,764	-0,382	-0,257
73,363	232,610	-0,310	-0,359
74,378	8,535	-0,394	-0,208
75,393	-66,131	-0,269	-0,075
76,407	800,000	-0,120	-0,248
77,422	-24,664	-0,312	-0,130
78,436	-4,215	-0,212	-0,103
79,451	511,781	-0,228	-0,375
80,466	26,657	-0,423	-0,249
81,480	290,311	-0,271	-0,347
82,495	163,128	-0,257	-0,254
83,509	4,822	-0,274	-0,141
84,524	40,441	-0,254	-0,161
85,539	214,245	-0,194	-0,216
86,553	374,428	-0,175	-0,252
87,568	147,388	-0,262	-0,248
88,582	172,464	-0,322	-0,326
89,597	233,471	-0,244	-0,283
90,611	190,899	-0,400	-0,424
91,626	-85,801	-0,257	-0,055
92,641	57,983	-0,336	-0,231
93,655	3,536	-0,350	-0,179
94,670	55,859	-0,336	-0,229
95,684	-33,119	-0,375	-0,146
96,699	140,854	-0,272	-0,253
97,714	105,806	-0,256	-0,213
98,728	-90,596	-0,257	-0,052
99,743	118,272	-0,252	-0,218
100,757	244,229	-0,203	-0,240
101,772	259,650	-0,278	-0,337
102,787	127,361	-0,260	-0,232
103,801	28,081	-0,291	-0,172
104,816	477,731	-0,182	-0,291
105,830	4,838	-0,237	-0,122
106,845	124,920	-0,231	-0,204
107,860	73,418	-0,257	-0,189
108,874	8,604	-0,323	-0,170
109,889	132,210	-0,303	-0,274
110,903	40,947	-0,303	-0,191
111,918	-126,969	-0,198	-0,020
112,933	59,006	-0,267	-0,184
113,947	-49,499	-0,230	-0,076
114,962	-41,444	-0,175	-0,063
115,976	-40,582	-0,269	-0,097
116,991	31,977	-0,340	-0,205
118,006	201,531	-0,227	-0,246
119,020	44,171	-0,249	-0,160
120,035	85,212	-0,283	-0,217
121,049	489,601	-0,179	-0,287
122,064	269,832	-0,205	-0,253
123,079	-73,178	-0,292	-0,074
124,093	62,747	-0,246	-0,172
125,108	91,864	-0,297	-0,234
126,122	20,675	-0,246	-0,139
127,137	94,901	-0,184	-0,146
128,151	-21,068	-0,265	-0,113
129,166	39,286	-0,169	-0,105
130,181	41,940	-0,249	-0,158
131,195	60,371	-0,366	-0,253
132,210	20,675	-0,269	-0,152
133,224	9,951	-0,253	-0,134
134,239	179,525	-0,108	-0,110
135,254	-13,050	-0,103	-0,047
136,268	-108,668	-0,239	-0,036
137,283	-37,244	-0,287	-0,107
138,297	29,316	-0,287	-0,170
139,312	151,826	-0,223	-0,213
140,327	185,009	-0,195	-0,203
141,341	183,476	-0,188	-0,194
142,356	93,263	-0,320	-0,253
143,370	155,869	-0,242	-0,234
144,385	-156,240	-0,288	0,012
145,400	48,314	-0,316	-0,207
146,414	86,537	-0,224	-0,173
147,429	-92,373	-0,302	-0,059
148,443	9,348	-0,327	-0,172
149,458	-84,227	-0,184	-0,040
150,473	339,960	-0,166	-0,227
151,487	336,682	-0,184	-0,250
152,502	227,703	-0,261	-0,297
153,516	146,978	-0,210	-0,197
154,531	345,894	-0,203	-0,279
155,546	318,373	-0,095	-0,126
156,560	44,710	-0,279	-0,179
157,575	57,839	-0,255	-0,174
158,589	107,576	-0,214	-0,178
159,604	268,492	-0,196	-0,241
160,619	-29,082	-0,227	-0,091
161,633	146,130	-0,279	-0,262
162,648	49,750	-0,199	-0,131
163,662	3,413	-0,161	0,082
164,677	30,470	-0,200	-0,119
165,692	294,438	-0,191	-0,244
166,706	80,299	-0,224	-0,168
167,721	476,707	-0,155	-0,245
168,735	-27,331	-0,340	-0,137
169,750	137,605	-0,241	-0,220
170,764	-104,222	-0,169	-0,027
171,779	80,053	-0,220	-0,165
172,794	56,103	-0,186	-0,126
173,808	23,251	-0,261	-0,149
174,823	133,507	-0,281	-0,254
175,837	-35,576	-0,296	-0,112
176,852	28,915	-0,350	-0,207
177,867	119,350	-0,236	-0,204
178,881	-150,841	-0,082	0,004
179,896	271,293	-0,221	-0,272
180,910	-138,187	-0,172	0,013
181,925	258,334	-0,223	-0,269
182,940	125,203	-0,277	-0,243
183,954	210,743	-0,276	-0,303
184,969	236,637	-0,190	-0,220
185,983	453,136	-0,198	-0,306
186,998	-85,464	-0,398	-0,086
188,013	-67,152	-0,201	-0,055
189,027	150,086	-0,220	-0,208
190,042	43,055	-0,254	-0,161
191,056	215,154	-0,120	-0,133
192,071	218,895	-0,209	-0,234
193,086	37,092	-0,309	-0,190
194,100	192,870	-0,128	-0,135
195,115	-8,154	-0,109	-0,051
196,129	622,044	-0,155	-0,273
197,144	70,418	-0,205	-0,147
198,159	800,000	-0,151	-0,297
199,173	141,977	-0,170	-0,157
200,188	-128,365	-0,245	0,024
201,202	-21,691	-0,143	-0,060
202,217	37,210	-0,041	-0,025
203,232	108,354	-0,244	-0,203
204,246	315,143	-0,139	-0,183
205,261	24,947	-0,223	-0,128
206,275	-44,744	-0,131	-0,045
207,290	279,273	-0,112	-0,139
208,304	211,818	-0,225	-0,247
209,319	6,551	-0,208	-0,107
210,334	800,000	-0,071	-0,146
211,348	800,000	-0,093	-0,190
212,363	53,100	-0,226	-0,150
213,377	-14,690	-0,204	-0,091
214,392	-30,397	-0,275	-0,108
215,407	165,156	-0,136	-0,133
216,421	-53,471	-0,396	-0,125
217,436	240,697	-0,166	-0,192
218,450	178,671	-0,218	-0,221
219,465	109,426	-0,233	-0,194
220,480	259,620	-0,165	-0,198
221,494	-85,998	-0,241	-0,051
222,509	800,000	-0,059	-0,160
223,523	-200,000	-0,091	-0,332
224,538	39,565	-0,182	-0,113
225,553	33,739	-0,307	-0,185
226,567	230,104	-0,225	-0,255
227,582	332,724	-0,125	-0,168
228,596	221,732	-0,118	-0,132
229,611	-165,935	-0,216	0,006
230,626	-84,356	-0,289	-0,063
231,640	282,477	-0,167	-0,208
232,655	294,500	-0,207	-0,263
233,669	192,510	-0,244	-0,256
234,684	218,279	-0,134	-0,149
235,699	483,388	-0,146	-0,231
236,713	194,954	-0,108	-0,114
237,728	-53,776	-0,223	-0,070
238,742	20,062	-0,255	-0,142
239,757	59,884	-0,217	-0,149
240,772	-77,510	-0,213	-0,051
241,786	183,628	-0,219	-0,225
242,801	246,021	-0,124	-0,145
243,815	-34,535	-0,206	-0,078
244,830	46,634	-0,213	-0,137
245,844	-200,000	-0,006	-0,242
246,859	800,000	-0,083	-0,197
247,874	-18,739	-0,171	-0,074
248,888	800,000	-0,089	-0,173
249,903	208,008	-0,089	-0,097
250,917	61,779	-0,186	-0,128
251,932	123,846	-0,175	-0,152
252,947	215,717	-0,164	-0,181
253,961	-7,642	-0,207	-0,097
254,976	45,570	-0,201	-0,129
255,990	-112,135	-0,143	-0,020
257,005	293,047	-0,181	-0,229
258,020	733,099	-0,146	-0,271
259,034	178,752	0,045	0,045
260,049	10,859	-0,231	-0,122
261,063	77,499	-0,174	-0,128
262,078	694,933	-0,153	-0,279
263,093	-7,500	-0,202	-0,094
264,107	557,092	-0,119	-0,200
265,122	-59,622	-0,102	-0,030
266,136	-20,879	-0,186	-0,078
267,151	114,607	-0,145	-0,123
268,166	101,299	-0,136	-0,110
269,180	158,771	-0,208	-0,200
270,195	-15,318	-0,161	-0,071
271,209	-117,246	-0,169	-0,021
272,224	-182,159	-0,134	-0,002
273,239	49,715	-0,109	-0,071
274,253	-114,695	-0,081	0,011
275,268	48,587	-0,161	-0,104
276,282	215,657	-0,161	-0,177
277,297	-67,790	-0,201	-0,054
278,312	800,000	-0,054	-0,148
279,326	-200,000	0,034	-0,182
280,341	38,748	-0,030	-0,019
281,355	-59,147	-0,188	-0,056
282,370	424,633	-0,165	-0,246
283,384	-12,416	-0,234	-0,105
284,399	13,719	-0,058	0,031
285,414	3,189	-0,182	-0,091
286,428	418,745	-0,176	-0,262
287,443	800,000	-0,050	-0,148
288,457	-72,299	-0,153	-0,039
289,472	107,655	-0,155	-0,128
290,487	-58,527	-0,170	-0,051
291,501	-106,316	-0,102	-0,016
292,516	-200,000	-0,096	-0,376
293,530	-200,000	0,011	-0,119
294,545	37,650	-0,016	0,010
295,560	29,999	-0,225	-0,132
296,574	96,875	-0,202	-0,159
297,589	1,057	-0,179	-0,088
298,603	-72,681	-0,097	-0,024
299,618	-83,149	-0,210	-0,046
300,633	-132,545	-0,258	-0,023
301,647	-200,000	-0,010	0,047
302,662	-95,279	-0,121	-0,022
303,676	26,136	-0,146	-0,084
304,691	-75,006	-0,212	-0,052
305,706	-200,000	-0,026	-0,198
306,720	701,539	-0,054	-0,099
307,735	266,182	-0,096	-0,115
308,749	800,000	-0,055	-0,126
309,764	-132,782	-0,101	0,009
310,779	257,841	-0,160	-0,191
311,793	-176,292	-0,154	0,003
312,808	492,532	-0,103	-0,164
313,822	488,249	-0,149	-0,236
314,837	-161,291	-0,056	0,002
315,852	337,724	-0,023	0,031
316,866	8,666	-0,229	-0,119
317,881	515,739	-0,142	-0,229
318,895	162,831	-0,121	-0,117
319,910	800,000	-0,105	-0,205
320,925	800,000	-0,064	-0,155
321,939	-104,946	-0,102	0,016
322,954	-34,079	-0,084	0,032
323,968	113,249	-0,037	-0,031
324,983	800,000	-0,035	-0,104
325,997	156,930	-0,087	-0,083
327,012	536,390	-0,071	-0,117
328,027	-135,129	-0,168	-0,014
329,041	315,034	-0,160	-0,207
330,056	800,000	-0,118	-0,264
331,070	-72,475	-0,113	0,029
332,085	-70,998	-0,281	-0,072
333,100	20,254	-0,238	-0,132
334,114	-200,000	-0,007	-0,108
335,129	-115,956	-0,270	0,034
336,143	372,464	-0,113	-0,159
337,158	27,288	-0,208	-0,120
338,173	-91,897	-0,124	-0,024
339,187	216,958	-0,076	-0,083
340,202	800,000	-0,032	-0,094
341,216	-3,606	-0,180	-0,086
342,231	2,925	-0,196	-0,098
343,246	21,666	-0,094	-0,053
344,260	-92,782	-0,083	0,016
345,275	-146,264	-0,027	-0,002
346,289	200,912	-0,062	0,066
347,304	-18,844	-0,143	-0,061
348,319	-16,954	-0,169	-0,073
349,333	-85,765	-0,185	0,039
350,348	380,761	-0,088	-0,125
351,362	42,018	-0,206	-0,128
352,377	-200,000	0,002	-0,063
353,392	-193,059	-0,204	0,001
354,406	-33,866	-0,195	-0,073
355,421	208,926	1311,577	1411,694
356,435	160,775	1471,943	1412,197
