DTS Sentinel unit serial number:	SN410029Multiplexer serial number:	ORYXHardware model number:	OX2-SRSoftware version number:	ORYX F/W v4,00 Oryx Data Collector v3.7.2.0data status	okinstallation	B3 Nyhavnadifferential loss correction	single-endedforward channel	channel 1reverse channel	N/Adate	2023/12/01time	09:57:30forward acquisition time	300,00reverse acquisition time	0,00gamma	499,1914k internal	0,3213k external	0,3213temperature offset calibration	1,0000default loss term (dB/km)	0,3820temperature slope calibration	1,0000multiplexer offset coefficient	1,0000multiplexer slope coefficient	1,0000fibre end	0,00T internal ref (°C)	8,00T ext. ref 1 (°C)	-6,34T ext. ref 2 (°C)	-6,47length (m)	temperature (°C)	Stokes	anti-Stokes-744,400	800,000	-0,104	-0,245
-743,385	-200,000	-0,023	0,257
-742,371	-78,550	-0,340	-0,084
-741,356	-200,000	0,061	0,350
-740,342	138,331	-0,133	-0,126
-739,327	-200,000	-0,063	0,268
-738,312	362,049	-0,162	-0,236
-737,298	-200,000	0,015	0,260
-736,283	216,344	-0,340	-0,392
-735,269	800,000	0,091	0,271
-734,254	104,648	-0,157	-0,134
-733,239	565,340	-0,118	0,208
-732,225	244,715	-0,151	-0,184
-731,210	98,241	0,144	0,120
-730,196	-200,000	-0,012	-0,091
-729,181	-200,000	-0,003	-0,107
-728,167	-200,000	0,015	-0,136
-727,152	-200,000	0,007	-0,061
-726,137	126,322	-0,128	-0,118
-725,123	-200,000	-0,015	-0,079
-724,108	132,913	-0,155	-0,145
-723,094	-68,347	-0,139	-0,039
-722,079	139,322	-0,118	-0,112
-721,064	312,285	-0,025	-0,034
-720,050	279,882	-0,083	-0,108
-719,035	354,434	-0,050	0,072
-718,021	0,111	0,160	-0,082
-717,006	-200,000	-0,004	-0,099
-715,991	-173,114	-0,161	0,004
-714,977	90,671	-0,040	-0,033
-713,962	-200,000	0,026	0,086
-712,948	-31,550	0,080	0,033
-711,933	149,231	-0,099	-0,097
-710,918	-200,000	-0,011	-0,080
-709,904	-200,000	-0,054	-0,199
-708,889	-200,000	-0,006	-0,125
-707,875	-200,000	0,007	-0,090
-706,860	-200,000	-0,016	-0,123
-705,845	-200,000	0,008	0,046
-704,831	83,307	0,029	0,023
-703,816	-20,311	-0,076	-0,034
-702,802	-156,472	0,123	-0,005
-701,787	-16,761	-0,082	-0,037
-700,772	-174,484	-0,141	0,003
-699,758	-32,961	0,151	-0,061
-698,743	-39,201	-0,017	0,006
-697,729	3,589	0,072	-0,038
-696,714	-93,179	-0,102	0,020
-695,699	86,361	-0,042	-0,033
-694,685	-200,000	-0,001	-0,063
-693,670	348,254	-0,079	-0,113
-692,656	-58,812	-0,145	-0,045
-691,641	-200,000	0,014	-0,147
-690,627	-84,987	-0,014	-0,003
-689,612	22,525	-0,052	0,031
-688,597	-200,000	-0,004	0,019
-687,583	161,901	-0,062	-0,063
-686,568	182,438	-0,122	-0,131
-685,554	-31,259	0,092	0,037
-684,539	-95,984	-0,081	-0,015
-683,524	-71,457	0,081	0,022
-682,510	-92,959	0,159	0,032
-681,495	723,073	-0,036	-0,069
-680,481	-8,737	0,022	0,011
-679,466	181,507	0,026	-0,027
-678,451	284,537	-0,048	-0,063
-677,437	800,000	-0,022	-0,051
-676,422	-200,000	0,024	0,079
-675,408	168,006	-0,121	-0,124
-674,393	0,393	0,120	-0,062
-673,378	114,688	-0,070	0,062
-672,364	800,000	-0,005	0,011
-671,349	147,614	-0,055	-0,054
-670,335	-95,661	0,065	-0,012
-669,320	-55,344	-0,041	0,013
-668,305	800,000	-0,053	-0,125
-667,291	18,549	0,024	0,014
-666,276	383,351	-0,123	-0,183
-665,262	527,951	-0,044	-0,075
-664,247	103,954	0,054	-0,046
-663,232	-152,013	-0,049	0,003
-662,218	75,512	0,126	0,096
-661,203	215,040	0,084	0,096
-660,189	61,954	-0,049	0,035
-659,174	800,000	-0,045	-0,118
-658,159	800,000	0,029	-0,065
-657,145	-9,980	0,068	-0,033
-656,130	-200,000	0,012	-0,119
-655,116	-200,000	0,007	-0,101
-654,101	-102,071	0,128	0,022
-653,086	-73,174	-0,105	0,027
-652,072	166,316	0,040	0,041
-651,057	488,267	-0,054	0,089
-650,043	800,000	-0,042	0,122
-649,028	800,000	-0,019	0,043
-648,014	-200,000	-0,012	0,090
-646,999	-76,914	0,111	-0,028
-645,984	696,750	-0,014	0,026
-644,970	-200,000	-0,026	-0,087
-643,955	-96,114	-0,116	-0,022
-642,941	177,561	-0,118	-0,124
-641,926	435,287	-0,118	-0,187
-640,911	128,356	-0,070	0,064
-639,897	-200,000	0,001	-0,058
-638,882	79,610	0,017	0,013
-637,868	246,745	-0,131	0,160
-636,853	-34,352	-0,182	-0,072
-635,838	0,128	0,026	0,013
-634,824	111,315	-0,059	-0,051
-633,809	-44,361	0,046	0,017
-632,795	-200,000	0,016	-0,091
-631,780	465,931	0,012	-0,019
-630,765	58,895	-0,064	0,045
-629,751	381,448	-0,022	-0,033
-628,736	800,000	-0,031	-0,093
-627,722	733,381	0,077	-0,149
-626,707	-200,000	0,004	0,101
-625,692	-200,000	0,004	-0,080
-624,678	-200,000	-0,011	-0,065
-623,663	571,908	-0,056	-0,099
-622,649	231,616	-0,046	-0,055
-621,634	-67,602	-0,150	0,042
-620,619	-94,649	-0,061	-0,012
-619,605	-106,788	0,104	-0,016
-618,590	196,160	0,092	-0,101
-617,576	800,000	0,021	0,064
-616,561	3,470	-0,096	0,050
-615,546	800,000	-0,013	0,036
-614,532	-200,000	-0,030	0,103
-613,517	-58,392	0,137	0,043
-612,503	130,722	-0,075	0,069
-611,488	155,144	-0,025	-0,025
-610,474	-29,753	-0,115	0,047
-609,459	-132,821	0,035	0,003
-608,444	106,099	0,020	-0,017
-607,430	-117,532	-0,054	-0,007
-606,415	20,533	0,049	0,029
-605,401	90,768	0,079	-0,064
-604,386	800,000	0,038	-0,101
-603,371	-109,086	0,052	-0,008
-602,357	-35,226	-0,083	-0,032
-601,342	-101,404	0,043	-0,008
-600,328	-200,000	0,009	-0,038
-599,313	570,267	-0,055	-0,097
-598,298	159,881	-0,135	0,135
-597,284	-200,000	-0,043	0,148
-596,269	-100,420	-0,059	0,010
-595,255	800,000	0,054	0,112
-594,240	-147,084	0,022	-0,001
-593,225	-40,194	-0,030	0,011
-592,211	-200,000	0,008	0,028
-591,196	289,359	0,017	0,023
-590,182	685,016	0,029	-0,055
-589,167	273,742	-0,089	0,113
-588,152	737,905	0,033	-0,064
-587,138	-200,000	-0,050	-0,189
-586,123	800,000	0,020	-0,055
-585,109	42,387	0,077	-0,050
-584,094	800,000	0,012	-0,031
-583,079	-121,922	-0,074	-0,009
-582,065	-128,408	-0,145	0,015
-581,050	381,694	-0,088	0,130
-580,036	-200,000	0,015	0,072
-579,021	800,000	0,032	-0,076
-578,006	-70,707	-0,100	-0,027
-576,992	-115,342	0,062	-0,008
-575,977	-130,625	-0,032	-0,003
-574,963	-200,000	-0,003	-0,092
-573,948	139,507	-0,021	0,020
-572,934	170,060	-0,079	0,081
-571,919	347,522	0,010	0,014
-570,904	-97,510	-0,032	-0,006
-569,890	-200,000	-0,008	-0,076
-568,875	30,621	-0,165	-0,101
-567,861	800,000	-0,026	-0,054
-566,846	-39,748	0,068	0,026
-565,831	-142,849	-0,112	-0,008
-564,817	-162,391	-0,134	0,005
-563,802	-31,352	-0,104	-0,042
-562,788	800,000	0,041	-0,089
-561,773	-196,815	0,106	-0,000
-560,758	-48,504	-0,096	-0,033
-559,744	392,198	0,067	0,100
-558,729	-200,000	0,002	0,028
-557,715	-137,315	-0,121	0,010
-556,700	-38,838	-0,090	-0,034
-555,685	-12,187	0,065	-0,030
-554,671	-3,381	-0,015	-0,007
-553,656	70,228	-0,039	0,029
-552,642	26,214	-0,048	0,029
-551,627	-200,000	0,005	-0,123
-550,612	140,589	-0,095	-0,090
-549,598	-73,028	-0,090	0,023
-548,583	-200,000	-0,005	-0,077
-547,569	-200,000	-0,003	0,072
-546,554	-200,000	0,002	0,143
-545,539	-149,661	0,117	0,007
-544,525	174,032	-0,052	0,054
-543,510	-54,143	0,029	0,009
-542,496	244,573	-0,081	-0,098
-541,481	-200,000	-0,001	-0,107
-540,466	662,653	0,108	-0,201
-539,452	-98,656	0,117	0,021
-538,437	-200,000	0,023	-0,102
-537,423	-97,725	0,057	0,010
-536,408	800,000	0,042	0,106
-535,393	-26,997	-0,227	-0,095
-534,379	222,572	0,074	-0,085
-533,364	-126,409	-0,040	-0,004
-532,350	-57,545	0,015	-0,005
-531,335	279,459	0,142	0,183
-530,321	-200,000	-0,006	-0,045
-529,306	-52,145	-0,104	-0,034
-528,291	-4,091	0,139	-0,069
-527,277	-200,000	-0,005	0,057
-526,262	-142,547	0,127	0,009
-525,248	-68,262	-0,111	0,031
-524,233	-49,099	-0,150	-0,051
-523,218	-200,000	0,014	0,105
-522,204	-200,000	-0,002	-0,095
-521,189	800,000	0,062	-0,134
-520,175	49,206	-0,139	-0,094
-519,160	22,916	0,035	-0,021
-518,145	-200,000	0,021	0,083
-517,131	-50,693	0,064	-0,022
-516,116	386,218	0,079	0,117
-515,102	179,104	0,082	0,086
-514,087	133,438	-0,094	-0,087
-513,072	211,106	0,121	-0,137
-512,058	30,197	-0,085	-0,052
-511,043	-200,000	0,014	0,126
-510,029	126,180	0,070	-0,063
-509,014	212,231	-0,119	-0,135
-507,999	507,109	0,053	-0,089
-506,985	800,000	-0,033	-0,096
-505,970	-139,020	-0,051	-0,004
-504,956	331,790	-0,083	-0,116
-503,941	-200,000	0,004	-0,167
-502,926	14,401	-0,087	-0,049
-501,912	-82,638	0,146	-0,034
-500,897	97,893	-0,056	-0,047
-499,883	-93,465	-0,119	-0,023
-498,868	800,000	0,046	0,107
-497,853	800,000	-0,036	0,081
-496,839	800,000	0,058	0,171
-495,824	-0,174	0,098	-0,050
-494,810	147,811	-0,062	0,060
-493,795	1,679	0,103	0,053
-492,781	599,592	-0,028	-0,050
-491,766	350,687	-0,019	0,027
-490,751	108,147	0,066	-0,057
-489,737	20,008	-0,103	0,060
-488,722	-64,007	-0,144	-0,042
-487,708	453,286	0,030	-0,048
-486,693	41,021	0,050	-0,033
-485,678	800,000	0,033	0,091
-484,664	-24,789	0,079	-0,033
-483,649	55,067	-0,101	-0,070
-482,635	-200,000	-0,022	0,102
-481,620	80,153	0,080	-0,062
-480,605	537,293	0,052	0,089
-479,591	-200,000	0,017	0,058
-478,576	235,773	-0,014	-0,016
-477,562	-200,000	0,013	-0,090
-476,547	48,199	0,046	0,031
-475,532	282,097	0,061	-0,078
-474,518	5,983	0,007	0,004
-473,503	669,796	0,073	0,137
-472,489	87,929	0,135	0,108
-471,474	438,208	-0,032	-0,050
-470,459	463,574	0,089	-0,143
-469,445	376,716	-0,090	-0,132
-468,430	-200,000	-0,031	0,128
-467,416	-29,997	0,090	-0,037
-466,401	395,841	-0,047	0,070
-465,386	-70,441	0,081	0,022
-464,372	15,621	0,062	-0,035
-463,357	-63,154	-0,140	0,041
-462,343	-200,000	-0,002	-0,027
-461,328	-109,565	-0,093	0,014
-460,313	-38,701	-0,048	-0,018
-459,299	37,104	0,012	0,008
-458,284	-13,424	0,174	0,081
-457,270	56,354	-0,015	0,010
-456,255	81,377	0,032	-0,025
-455,241	327,932	0,070	-0,097
-454,226	800,000	0,013	-0,029
-453,211	-200,000	-0,013	0,100
-452,197	-109,338	0,087	-0,013
-451,182	800,000	0,048	0,127
-450,168	136,005	-0,043	0,040
-449,153	-200,000	-0,004	0,058
-448,138	80,773	0,124	-0,096
-447,124	800,000	0,015	-0,035
-446,109	-200,000	0,022	-0,088
-445,095	69,422	0,128	-0,095
-444,080	298,372	-0,037	-0,049
-443,065	-200,000	-0,012	0,068
-442,051	57,078	0,103	0,072
-441,036	778,215	-0,042	-0,083
-440,022	234,026	-0,071	-0,083
-439,007	-200,000	0,002	-0,014
-437,992	-200,000	0,012	0,111
-436,978	41,935	0,081	0,052
-435,963	800,000	0,015	0,038
-434,949	800,000	-0,031	-0,089
-433,934	-10,260	0,043	-0,020
-432,919	-200,000	-0,013	-0,147
-431,905	-131,152	0,042	0,004
-430,890	49,672	0,075	0,051
-429,876	400,361	0,072	0,108
-428,861	507,302	0,058	0,096
-427,846	-113,737	0,182	-0,025
-426,832	-90,777	-0,104	-0,021
-425,817	-81,267	0,083	-0,019
-424,803	227,381	-0,065	-0,075
-423,788	6,736	0,085	0,045
-422,773	542,060	0,100	0,172
-421,759	800,000	0,010	-0,032
-420,744	-50,274	-0,038	-0,013
-419,730	800,000	0,056	0,155
-418,715	19,042	-0,039	0,023
-417,701	-200,000	-0,021	-0,069
-416,686	-200,000	0,013	0,100
-415,671	-200,000	-0,009	0,058
-414,657	-154,884	0,136	-0,006
-413,642	800,000	0,035	-0,079
-412,628	63,991	-0,110	-0,079
-411,613	330,428	0,033	0,045
-410,598	16,768	0,094	-0,053
-409,584	-46,654	-0,087	0,030
-408,569	-118,440	0,097	-0,012
-407,555	-200,000	0,002	0,024
-406,540	-13,079	0,092	-0,043
-405,525	-6,555	0,079	-0,038
-404,511	209,678	-0,068	0,076
-403,496	-4,631	0,062	0,031
-402,482	-109,304	0,110	-0,016
-401,467	-125,721	-0,100	0,011
-400,452	225,437	-0,051	0,060
-399,438	-200,000	0,013	0,188
-398,423	-200,000	0,013	0,045
-397,409	29,218	-0,100	-0,061
-396,394	-200,000	0,006	0,027
-395,379	38,949	-0,121	-0,077
-394,365	-200,000	-0,024	0,000
-393,350	32,055	0,043	-0,027
-392,336	-200,000	0,007	0,200
-391,321	64,963	0,060	0,043
-390,306	-13,400	-0,105	0,049
-389,292	-200,000	-0,004	-0,136
-388,277	-200,000	0,028	0,126
-387,263	-125,234	-0,143	0,015
-386,248	-200,000	-0,003	0,099
-385,233	-10,566	0,091	-0,043
-384,219	800,000	0,046	0,092
-383,204	-167,659	0,033	-0,001
-382,190	-200,000	-0,021	-0,116
-381,175	800,000	0,013	-0,039
-380,160	-89,566	-0,127	0,027
-379,146	186,100	0,100	-0,107
-378,131	-200,000	-0,016	0,078
-377,117	4,006	0,093	0,048
-376,102	693,537	-0,080	-0,151
-375,088	47,966	-0,116	-0,077
-374,073	-26,000	0,089	-0,037
-373,058	-14,684	0,017	-0,008
-372,044	800,000	-0,007	0,015
-371,029	-92,523	-0,006	0,001
-370,015	311,670	-0,072	0,097
-369,000	478,649	-0,013	-0,020
-367,985	321,365	-0,071	-0,096
-366,971	-115,861	-0,125	0,016
-365,956	-42,369	0,222	-0,081
-364,942	-200,000	-0,032	0,194
-363,927	800,000	-0,044	0,126
-362,912	-23,355	0,089	0,038
-361,898	-200,000	0,019	-0,063
-360,883	35,035	-0,085	-0,053
-359,869	-200,000	-0,019	-0,118
-358,854	12,653	0,031	-0,017
-357,839	53,332	-0,057	0,039
-356,825	127,019	-0,031	0,028
-355,810	-51,207	0,092	0,031
-354,796	-155,798	0,018	0,001
-353,781	-102,983	-0,105	-0,018
-352,766	-1,635	0,172	-0,086
-351,752	303,233	-0,057	0,075
-350,737	-200,000	-0,009	0,069
-349,723	398,594	0,043	-0,064
-348,708	117,857	-0,068	0,060
-347,693	-200,000	0,009	-0,040
-346,679	800,000	-0,057	-0,128
-345,664	-200,000	0,014	-0,076
-344,650	-59,448	0,125	-0,038
-343,635	98,422	-0,061	-0,050
-342,620	-79,388	-0,111	0,027
-341,606	51,993	0,055	-0,038
-340,591	266,562	0,089	-0,111
-339,577	17,220	-0,077	0,043
-338,562	56,962	-0,043	-0,030
-337,548	-200,000	-0,012	0,107
-336,533	-65,093	0,086	0,025
-335,518	216,572	-0,072	0,082
-334,504	72,423	-0,012	-0,009
-333,489	-200,000	-0,003	0,018
-332,475	-200,000	-0,033	0,121
-331,460	235,361	-0,052	0,062
-330,445	800,000	0,060	0,123
-329,431	228,942	-0,072	0,083
-328,416	-18,254	0,137	-0,061
-327,402	87,266	-0,100	-0,079
-326,387	-200,000	-0,004	-0,151
-325,372	-200,000	-0,003	0,021
-324,358	-29,678	-0,077	-0,031
-323,343	-200,000	0,055	-0,219
-322,329	800,000	-0,035	-0,078
-321,314	-151,976	0,060	0,003
-320,299	-11,930	0,203	-0,094
-319,285	68,538	0,097	0,071
-318,270	27,851	0,036	-0,021
-317,256	-200,000	-0,005	0,028
-316,241	189,104	-0,045	-0,048
-315,226	600,816	0,010	0,017
-314,212	257,392	-0,040	0,049
-313,197	-200,000	0,011	-0,043
-312,183	194,329	-0,086	-0,093
-311,168	-200,000	0,019	-0,097
-310,153	800,000	0,012	-0,035
-309,139	130,713	0,087	0,079
-308,124	147,037	-0,111	-0,106
-307,110	-200,000	0,029	0,127
-306,095	-200,000	-0,090	0,000
-305,080	800,000	0,097	0,222
-304,066	-9,260	0,129	0,061
-303,051	-200,000	0,006	0,027
-302,037	-52,153	-0,062	-0,020
-301,022	-200,000	-0,059	0,205
-300,008	-200,000	0,030	0,120
-298,993	-200,000	0,009	-0,097
-297,978	800,000	-0,087	-0,191
-296,964	-200,000	0,017	0,103
-295,949	427,391	-0,063	0,097
-294,935	-200,000	-0,012	0,087
-293,920	-200,000	0,048	0,267
-292,905	615,246	0,050	-0,090
-291,891	464,855	-0,112	0,179
-290,876	-110,473	0,047	-0,007
-289,862	-136,226	0,064	-0,005
-288,847	165,546	-0,047	0,047
-287,832	196,592	0,096	0,104
-286,818	38,268	-0,024	-0,015
-285,803	-40,026	0,117	-0,043
-284,789	-171,270	0,044	0,001
-283,774	-13,556	-0,050	0,023
-282,759	-129,457	-0,089	0,009
-281,745	-111,446	-0,104	0,015
-280,730	348,530	-0,050	-0,070
-279,716	-200,000	-0,001	0,127
-278,701	-138,814	0,086	-0,007
-277,686	-28,437	0,076	-0,031
-276,672	-45,352	0,026	0,009
-275,657	-113,870	-0,133	0,018
-274,643	-115,993	-0,057	-0,008
-273,628	460,069	-0,010	0,016
-272,613	-200,000	-0,030	0,112
-271,599	800,000	-0,051	0,151
-270,584	-110,976	0,092	0,013
-269,570	-9,584	0,042	0,020
-268,555	-128,030	-0,105	-0,011
-267,540	420,222	-0,080	-0,123
-266,526	-28,216	-0,097	-0,040
-265,511	19,495	0,067	0,038
-264,497	715,286	0,060	0,113
-263,482	79,495	-0,061	-0,046
-262,467	-119,738	-0,015	-0,002
-261,453	-200,000	-0,031	0,145
-260,438	-200,000	-0,013	-0,047
-259,424	-200,000	-0,005	-0,095
-258,409	-58,095	-0,140	-0,043
-257,395	-140,940	0,145	-0,010
-256,380	-75,924	0,114	0,029
-255,365	800,000	0,055	0,111
-254,351	-200,000	-0,011	0,100
-253,336	-200,000	0,013	0,061
-252,322	-52,072	0,113	-0,037
-251,307	-200,000	0,035	-0,225
-250,292	246,640	0,034	0,041
-249,278	800,000	-0,042	-0,089
-248,263	-200,000	0,026	0,150
-247,249	-172,661	-0,111	0,002
-246,234	-200,000	0,004	-0,100
-245,219	-200,000	-0,009	0,067
-244,205	2,374	0,061	0,031
-243,190	116,102	0,022	0,019
-242,176	-200,000	0,015	0,075
-241,161	212,721	0,061	-0,068
-240,146	-157,607	-0,118	0,005
-239,132	106,963	-0,131	-0,110
-238,117	11,262	-0,200	-0,108
-237,103	469,036	0,033	-0,053
-236,088	-186,961	0,153	-0,001
-235,073	-200,000	0,003	-0,075
-234,059	243,177	0,117	0,139
-233,044	130,062	0,066	-0,060
-232,030	-200,000	0,003	-0,011
-231,015	-200,000	0,003	0,033
-230,000	391,343	0,043	-0,063
-228,986	-108,913	-0,059	-0,009
-227,971	-86,680	0,156	-0,034
-226,957	-48,866	0,151	0,051
-225,942	800,000	-0,027	0,059
-224,927	-200,000	0,018	0,082
-223,913	800,000	0,040	-0,101
-222,898	207,151	-0,107	-0,119
-221,884	387,884	0,005	0,007
-220,869	796,390	0,054	0,105
-219,855	-200,000	-0,003	-0,111
-218,840	-63,840	0,026	0,007
-217,825	-104,975	0,057	-0,009
-216,811	169,440	0,061	0,062
-215,796	-13,960	0,018	-0,008
-214,782	202,371	0,057	0,063
-213,767	-34,847	0,044	-0,017
-212,752	400,261	-0,018	0,027
-211,738	800,000	-0,058	0,140
-210,723	463,119	0,027	0,043
-209,709	-200,000	-0,047	-0,182
-208,694	-200,000	0,015	-0,136
-207,679	-200,000	-0,000	-0,095
-206,665	491,622	0,049	0,081
-205,650	536,767	-0,032	0,054
-204,636	337,795	0,057	0,078
-203,621	257,398	0,063	0,077
-202,606	-200,000	0,006	0,033
-201,592	-200,000	-0,013	0,079
-200,577	-128,428	-0,107	0,011
-199,563	-139,671	0,168	0,012
-198,548	113,929	-0,124	0,107
-197,533	461,529	0,025	0,040
-196,519	-124,324	0,147	-0,016
-195,504	-200,000	-0,025	-0,152
-194,490	-200,000	-0,004	-0,156
-193,475	-127,651	-0,179	-0,018
-192,460	-200,000	0,009	0,051
-191,446	115,211	-0,094	0,081
-190,431	19,988	-0,079	0,045
-189,417	-200,000	0,004	0,174
-188,402	-200,000	-0,014	-0,059
-187,387	269,704	-0,095	-0,119
-186,373	-21,029	-0,139	-0,060
-185,358	-200,000	0,008	-0,053
-184,344	13,209	-0,057	0,031
-183,329	-200,000	0,027	0,227
-182,315	66,636	-0,056	-0,040
-181,300	-90,490	0,174	0,035
-180,285	-162,877	0,014	-0,000
-179,271	113,191	-0,036	-0,031
-178,256	296,300	0,075	0,098
-177,242	-200,000	-0,001	0,015
-176,227	-31,086	0,138	-0,055
-175,212	56,819	-0,072	-0,049
-174,198	-200,000	0,019	-0,161
-173,183	63,022	-0,069	-0,049
-172,169	-72,814	-0,073	-0,019
-171,154	-200,000	-0,014	-0,134
-170,139	-78,559	0,032	-0,008
-169,125	800,000	0,067	0,146
-168,110	766,023	-0,035	0,068
-167,096	800,000	-0,018	0,037
-166,081	517,211	-0,024	-0,041
-165,066	-200,000	-0,011	-0,049
-164,052	-154,663	-0,099	0,005
-163,037	89,106	0,100	0,079
-162,023	-200,000	-0,005	-0,084
-161,008	480,389	0,023	0,038
-159,993	37,127	0,074	0,046
-158,979	-200,000	-0,013	-0,078
-157,964	800,000	-0,039	0,122
-156,950	-200,000	0,018	0,071
-155,935	-4,395	-0,035	0,017
-154,920	113,520	0,039	0,034
-153,906	223,916	0,214	0,245
-152,891	109,914	0,071	-0,060
-151,877	800,000	-0,040	-0,098
-150,862	-69,273	-0,186	-0,050
-149,847	-35,057	-0,102	-0,039
-148,833	181,854	0,029	-0,031
-147,818	-30,740	0,067	0,027
-146,804	662,648	0,068	0,125
-145,789	-200,000	-0,009	0,148
-144,775	-200,000	-0,013	0,070
-143,760	800,000	0,022	0,060
-142,745	28,737	-0,118	0,070
-141,731	-37,772	-0,013	-0,005
-140,716	-183,506	0,095	-0,001
-139,702	-200,000	-0,044	0,174
-138,687	300,143	-0,077	0,100
-137,672	-69,806	0,119	0,032
-136,658	-200,000	0,025	0,121
-135,643	-171,319	-0,109	0,003
-134,629	12,806	-0,206	-0,112
-133,614	-91,244	0,106	-0,021
-132,599	190,964	-0,079	-0,085
-131,585	800,000	0,051	0,105
-130,570	606,070	-0,041	-0,073
-129,556	-39,035	0,104	-0,039
-128,541	800,000	0,008	-0,021
-127,526	-98,109	-0,094	0,017
-126,512	-88,051	0,016	-0,003
-125,497	-200,000	0,026	-0,119
-124,483	627,874	0,061	0,109
-123,468	518,352	-0,042	0,070
-122,453	627,880	-0,019	-0,034
-121,439	-200,000	-0,009	0,165
-120,424	800,000	0,042	0,098
-119,410	106,775	-0,047	0,039
-118,395	-88,464	0,039	0,008
-117,380	-128,818	-0,049	0,005
-116,366	800,000	0,024	-0,053
-115,351	800,000	-0,033	-0,072
-114,337	94,750	-0,146	-0,118
-113,322	-84,804	0,027	-0,006
-112,307	347,451	0,015	-0,021
-111,293	-38,319	-0,028	-0,011
-110,278	-47,589	0,085	-0,029
-109,264	85,116	-0,129	0,100
-108,249	800,000	0,062	0,146
-107,234	-200,000	0,008	0,074
-106,220	-148,907	0,068	-0,004
-105,205	213,038	0,092	0,103
-104,191	-200,000	0,025	0,194
-103,176	655,497	0,057	0,103
-102,162	-200,000	0,008	-0,041
-101,147	-125,035	0,046	-0,005
-100,132	-6,069	0,046	0,022
-99,118	130,906	0,032	-0,029
-98,103	84,023	-0,023	0,018
-97,089	-99,230	0,146	0,026
-96,074	-3,730	0,143	0,070
-95,059	-41,092	0,009	0,003
-94,045	564,925	0,041	0,070
-93,030	-200,000	0,003	-0,041
-92,016	800,000	-0,026	-0,054
-91,001	13,343	0,057	0,031
-89,986	582,300	0,084	-0,147
-88,972	295,192	-0,099	0,129
-87,957	-200,000	0,033	-0,158
-86,943	108,567	0,059	-0,050
-85,928	-200,000	-0,013	-0,150
-84,913	90,062	-0,050	0,039
-83,899	-200,000	-0,033	-0,128
-82,884	233,152	-0,039	0,045
-81,870	-142,693	-0,096	0,007
-80,855	800,000	0,036	0,076
-79,840	274,293	-0,133	-0,166
-78,826	800,000	0,052	-0,113
-77,811	299,316	-0,072	-0,093
-76,797	-42,403	0,058	0,021
-75,782	-19,015	0,147	0,064
-74,767	113,269	0,090	0,077
-73,753	-86,061	-0,034	-0,007
-72,738	12,581	0,092	0,050
-71,724	-165,741	-0,204	-0,006
-70,709	106,550	-0,091	-0,076
-69,694	-5,666	0,087	-0,042
-68,680	612,699	-0,071	0,126
-67,665	119,179	-0,012	-0,010
-66,651	220,088	0,074	0,084
-65,636	800,000	-0,029	0,070
-64,622	-26,090	0,216	0,089
-63,607	-200,000	0,012	-0,081
-62,592	306,893	-0,013	-0,016
-61,578	133,035	0,038	-0,035
-60,563	-102,827	-0,027	-0,004
-59,549	629,415	0,018	-0,032
-58,534	64,492	-2,189	-1,555
-57,519	570,365	-1,131	-1,949
-56,505	-200,000	-0,494	-4,448
-55,490	654,932	0,979	1,780
-54,476	800,000	5,219	11,452
-53,461	-200,000	22,545	347,017
-52,446	800,000	757,818	2293,130
-51,432	533,346	1643,970	2756,924
-50,417	67,877	1642,667	1183,479
-49,403	15,623	1519,935	840,205
-48,388	9,878	1445,770	771,616
-47,373	19,224	1438,787	812,396
-46,359	13,363	1427,044	778,076
-45,344	8,185	1422,871	751,289
-44,330	8,147	1421,065	750,128
-43,315	8,030	1419,513	748,723
-42,300	8,083	1417,612	747,944
-41,286	8,117	1416,213	747,334
-40,271	8,042	1415,125	746,378
-39,257	8,099	1413,948	745,994
-38,242	8,105	1412,789	745,380
-37,227	8,092	1411,714	744,726
-36,213	8,087	1410,327	743,942
-35,198	8,103	1409,158	743,370
-34,184	8,105	1408,278	742,883
-33,169	8,026	1406,956	741,788
-32,154	8,103	1405,908	741,569
-31,140	8,094	1404,471	740,738
-30,125	8,121	1403,441	740,290
-29,111	8,093	1402,368	739,562
-28,096	8,103	1401,188	738,960
-27,082	8,034	1400,011	737,989
-26,067	8,011	1399,216	737,433
-25,052	8,059	1397,630	736,790
-24,038	8,049	1396,926	736,343
-23,023	8,027	1395,949	735,697
-22,009	7,986	1395,155	735,059
-20,994	8,026	1393,839	734,523
-19,979	7,998	1393,090	733,967
-18,965	8,015	1392,070	733,480
-17,950	7,966	1391,167	732,750
-16,936	7,974	1390,382	732,344
-15,921	7,888	1389,408	731,405
-14,906	7,930	1388,268	730,968
-13,892	7,997	1387,145	730,659
-12,877	7,951	1386,664	730,164
-11,863	7,968	1385,914	729,817
-10,848	7,915	1385,018	729,070
-9,833	7,896	1384,088	728,467
-8,819	7,826	1383,175	727,634
-7,804	7,830	1382,195	727,108
-6,790	7,800	1381,325	726,483
-5,775	7,868	1380,100	726,121
-4,760	7,886	1379,202	725,702
-3,746	7,895	1378,102	725,137
-2,731	7,863	1377,337	724,560
-1,717	7,849	1376,716	724,143
-0,702	7,865	1374,741	723,148
0,313	11,755	1285,112	693,644
1,327	27,369	677,079	400,251
2,342	42,392	116,515	74,538
3,356	0,909	16,592	8,354
4,371	-2,385	3,888	1,914
5,386	-8,701	1,421	0,669
6,400	800,000	0,212	0,593
7,415	161,504	-0,159	-0,157
8,429	-25,224	-0,215	-0,089
9,444	208,001	-0,192	-0,212
10,459	21,278	-0,333	-0,190
11,473	-123,837	-0,320	-0,035
12,488	127,509	-0,241	-0,215
13,502	-106,068	-0,388	-0,061
14,517	76,089	-0,176	-0,131
15,531	-38,468	-0,359	-0,133
16,546	228,723	-0,268	-0,308
17,561	49,009	-0,414	-0,273
18,575	91,785	-0,138	-0,109
19,590	245,858	-0,200	-0,238
20,604	43,141	-0,250	-0,160
21,619	18,406	-0,301	-0,169
22,634	159,838	-0,344	-0,338
23,648	22,118	-0,387	-0,222
24,663	386,073	-0,213	-0,310
25,677	143,717	-0,331	-0,311
26,692	55,151	-0,315	-0,214
27,707	80,541	-0,252	-0,191
28,721	90,650	-0,395	-0,311
29,736	148,196	-0,338	-0,321
30,750	84,196	-0,456	-0,350
31,765	196,153	-0,342	-0,366
32,780	311,591	-0,246	-0,325
33,794	185,243	-0,248	-0,259
34,809	19,785	-0,283	-0,160
35,823	193,757	-0,286	-0,304
36,838	-31,346	-0,378	-0,149
37,853	187,993	-0,401	-0,421
38,867	198,748	-0,247	-0,266
39,882	-114,942	-0,389	-0,051
40,896	125,749	-0,275	-0,244
41,911	55,669	-0,326	-0,222
42,926	296,629	-0,250	-0,323
43,940	63,464	-0,342	-0,240
44,955	-178,921	-0,386	-0,006
45,969	106,453	-0,381	-0,317
46,984	800,000	-0,160	-0,342
47,999	64,434	-0,364	-0,257
49,013	-52,424	-0,365	-0,118
50,028	101,176	-0,311	-0,254
51,042	-86,704	-0,349	-0,074
52,057	-0,475	-0,432	-0,214
53,071	-105,760	-0,362	-0,057
54,086	281,071	-0,243	-0,306
55,101	-80,118	-0,319	-0,074
56,115	272,189	-0,265	-0,328
57,130	182,111	-0,348	-0,360
58,144	106,350	-0,330	-0,274
59,159	-33,250	-0,345	-0,133
60,174	29,698	-0,492	-0,293
61,188	200,330	-0,257	-0,277
62,203	-53,882	-0,298	-0,095
63,217	86,002	-0,342	-0,263
64,232	218,558	-0,220	-0,247
65,247	25,910	-0,353	-0,206
66,261	351,796	-0,281	-0,391
67,276	70,870	-0,398	-0,289
68,290	61,219	-0,275	-0,191
69,305	15,844	-0,262	-0,144
70,320	213,181	-0,260	-0,288
71,334	42,723	-0,272	-0,173
72,349	-56,269	-0,251	-0,078
73,363	63,401	-0,396	-0,278
74,378	91,692	-0,282	-0,222
75,393	42,581	-0,178	-0,113
76,407	216,391	-0,257	-0,287
77,422	-35,418	-0,439	-0,166
78,436	100,872	-0,238	-0,194
79,451	103,658	-0,286	-0,235
80,466	-5,486	-0,334	-0,160
81,480	-10,636	-0,303	-0,140
82,495	141,154	-0,209	-0,194
83,509	11,627	-0,282	-0,151
84,524	23,187	-0,276	-0,158
85,539	11,446	-0,341	-0,183
86,553	-35,744	-0,292	-0,110
87,568	-95,098	-0,209	-0,039
88,582	259,031	-0,218	-0,263
89,597	10,066	-0,308	-0,163
90,611	102,805	-0,214	-0,175
91,626	-29,174	-0,245	-0,098
92,641	34,267	-0,219	-0,134
93,655	-89,257	-0,364	-0,074
94,670	62,764	-0,256	-0,179
95,684	-65,653	-0,236	-0,066
96,699	444,226	-0,140	-0,215
97,714	800,000	-0,092	-0,241
98,728	10,554	-0,243	-0,129
99,743	7,419	-0,337	-0,176
100,757	135,516	-0,223	-0,203
101,772	283,056	-0,221	-0,277
102,787	33,830	-0,252	-0,153
103,801	82,848	-0,372	-0,282
104,816	78,618	-0,291	-0,217
105,830	33,121	-0,247	-0,150
106,845	373,287	-0,090	-0,129
107,860	63,532	-0,252	-0,176
108,874	-48,469	-0,268	-0,090
109,889	75,271	-0,302	-0,222
110,903	64,010	-0,246	-0,173
111,918	46,412	-0,332	-0,215
112,933	-105,653	-0,238	-0,037
113,947	-52,758	-0,172	-0,055
114,962	101,019	-0,202	-0,164
115,976	298,136	-0,211	-0,271
116,991	109,247	-0,282	-0,236
118,006	-1,679	-0,306	-0,150
119,020	-29,449	-0,266	-0,106
120,035	2,467	-0,206	-0,104
121,049	158,032	-0,174	-0,168
122,064	-17,064	-0,177	-0,078
123,079	73,827	-0,292	-0,213
124,093	442,829	-0,190	-0,291
125,108	123,737	-0,247	-0,216
126,122	154,134	-0,193	-0,185
127,137	-142,150	-0,251	-0,017
128,151	204,131	-0,107	-0,116
129,166	-114,404	-0,286	-0,038
130,181	120,111	-0,183	-0,158
131,195	-80,323	-0,323	-0,075
132,210	27,976	-0,299	-0,175
133,224	138,119	-0,294	-0,269
134,239	125,915	-0,182	-0,160
135,254	-157,966	-0,138	0,006
136,268	62,567	-0,211	-0,146
137,283	3,853	-0,235	-0,119
138,297	-200,000	-0,040	-0,178
139,312	19,042	-0,347	-0,193
140,327	-27,089	-0,148	-0,060
141,341	-21,734	-0,337	-0,142
142,356	99,181	-0,195	-0,157
143,370	234,627	-0,186	-0,214
144,385	228,154	-0,211	-0,239
145,400	139,612	-0,262	-0,240
146,414	104,290	-0,228	-0,187
147,429	100,693	-0,269	-0,217
148,443	82,421	-0,211	-0,159
149,458	186,020	-0,268	-0,277
150,473	107,405	-0,249	-0,206
151,487	-24,722	-0,287	-0,118
152,502	419,571	-0,191	-0,286
153,516	79,802	-0,260	-0,194
154,531	163,585	-0,212	-0,207
155,546	276,637	-0,190	-0,235
156,560	332,288	-0,148	-0,199
157,575	1,293	-0,138	0,069
158,589	72,155	-0,199	-0,144
159,604	38,999	-0,237	-0,147
160,619	180,248	-0,244	-0,250
161,633	70,692	-0,195	-0,140
162,648	325,984	-0,189	-0,251
163,662	76,383	-0,194	-0,143
164,677	291,716	-0,117	-0,149
165,692	87,295	-0,283	-0,217
166,706	-200,000	-0,029	-0,130
167,721	285,641	-0,222	-0,279
168,735	-173,396	-0,312	-0,006
169,750	292,777	-0,198	-0,251
170,764	296,020	-0,178	-0,227
171,779	27,006	-0,245	-0,142
172,794	62,537	-0,150	-0,104
173,808	72,800	-0,264	-0,191
174,823	126,721	-0,326	-0,287
175,837	419,566	-0,208	-0,310
176,852	-10,724	-0,188	-0,086
177,867	446,383	-0,152	-0,232
178,881	174,513	-0,106	-0,107
179,896	18,892	-0,200	-0,111
180,910	203,017	-0,235	-0,252
181,925	31,529	-0,286	-0,170
182,940	470,886	-0,215	-0,336
183,954	-31,050	-0,342	-0,133
184,969	165,757	-0,236	-0,232
185,983	11,003	-0,109	-0,057
186,998	-72,285	-0,197	-0,050
188,013	27,755	-0,306	-0,178
189,027	179,627	-0,239	-0,243
190,042	225,039	-0,204	-0,229
191,056	47,628	-0,301	-0,195
192,071	-200,000	-0,026	-0,137
193,086	100,915	-0,163	-0,131
194,100	97,567	-0,181	-0,144
195,115	252,203	-0,112	-0,132
196,129	-53,826	-0,309	-0,097
197,144	-87,296	-0,334	-0,070
198,159	110,728	-0,297	-0,247
199,173	-200,000	0,001	-0,065
200,188	272,985	-0,102	-0,126
201,202	184,960	-0,204	-0,210
202,217	-82,754	-0,252	0,056
203,232	-13,315	-0,203	0,091
204,246	34,672	-0,249	-0,150
205,261	124,335	-0,204	-0,177
206,275	94,436	-0,155	-0,122
207,290	-185,819	-0,199	-0,002
208,304	38,781	-0,182	-0,112
209,319	84,898	-0,170	-0,129
210,334	281,324	-0,119	-0,148
211,348	116,194	-0,219	-0,186
212,363	-99,810	-0,241	-0,041
213,377	-158,800	-0,202	-0,008
214,392	83,884	-0,139	-0,105
215,407	569,271	-0,019	-0,032
216,421	81,006	-0,161	-0,120
217,436	266,860	-0,178	-0,215
218,450	21,070	-0,240	-0,134
219,465	115,046	-0,203	-0,171
220,480	40,359	-0,250	-0,155
221,494	207,117	-0,069	-0,075
222,509	114,399	-0,145	-0,122
223,523	699,216	-0,092	-0,168
224,538	40,178	-0,169	-0,105
225,553	59,683	-0,286	-0,195
226,567	48,045	-0,203	-0,131
227,582	106,786	-0,137	-0,112
228,596	372,766	-0,150	-0,212
229,611	-87,186	-0,255	-0,053
230,626	-125,434	-0,242	-0,025
231,640	-200,000	-0,054	-0,209
232,655	126,777	-0,164	-0,144
233,669	138,265	-0,187	-0,170
234,684	205,805	-0,163	-0,175
235,699	-200,000	-0,002	-0,356
236,713	150,925	-0,089	-0,084
237,728	-19,718	-0,264	-0,112
238,742	455,522	-0,154	-0,237
239,757	101,357	-0,196	-0,158
240,772	121,105	-0,229	-0,197
241,786	-113,013	-0,207	-0,028
242,801	55,596	-0,173	-0,116
243,815	-200,000	-0,035	-0,158
244,830	144,261	-0,205	-0,189
245,844	24,089	-0,280	-0,159
246,859	335,250	-0,133	-0,179
247,874	194,347	-0,229	-0,240
248,888	239,743	-0,152	-0,175
249,903	-22,619	-0,221	-0,092
250,917	-200,000	-0,064	-0,233
251,932	-44,931	-0,118	-0,040
252,947	175,730	-0,173	-0,173
253,961	174,486	-0,119	-0,119
254,976	243,616	-0,188	-0,218
255,990	-144,014	-0,141	-0,009
257,005	800,000	-0,089	-0,195
258,020	329,755	-0,125	-0,166
259,034	-2,422	-0,058	-0,028
260,049	170,777	-0,195	-0,192
261,063	26,856	-0,178	-0,102
262,078	464,197	-0,085	-0,132
263,093	-35,354	-0,273	-0,102
264,107	93,402	-0,183	-0,143
265,122	0,996	-0,279	-0,137
266,136	86,813	-0,192	-0,146
267,151	-69,681	-0,132	-0,035
268,166	-51,545	-0,263	-0,084
269,180	88,721	-0,084	-0,065
270,195	124,798	-0,178	-0,155
271,209	32,417	-0,182	-0,108
272,224	-14,126	-0,060	-0,027
273,239	-164,052	-0,129	0,004
274,253	130,488	-0,157	-0,138
275,268	147,522	-0,123	-0,114
276,282	-70,919	-0,139	-0,036
277,297	10,209	-0,171	-0,089
278,312	21,290	-0,254	-0,142
279,326	198,665	-0,190	-0,201
280,341	-200,000	-0,090	-0,290
281,355	113,137	-0,119	-0,100
282,370	-200,000	-0,011	-0,107
283,384	202,621	-0,115	-0,122
284,399	49,914	-0,329	-0,213
285,414	-200,000	0,004	-0,126
286,428	-98,854	-0,158	-0,027
287,443	-123,426	-0,085	0,009
288,457	-77,614	-0,117	-0,028
289,472	-200,000	0,005	-0,069
290,487	116,844	-0,184	-0,155
291,501	179,579	-0,150	-0,151
292,516	-63,939	-0,006	-0,002
293,530	81,603	-0,219	-0,163
294,545	7,836	-0,114	-0,058
295,560	103,903	-0,057	0,046
296,574	41,662	-0,107	-0,066
297,589	29,121	-0,176	-0,102
298,603	800,000	-0,110	-0,219
299,618	230,819	-0,094	-0,106
300,633	-200,000	-0,037	-0,204
301,647	-25,297	-0,138	-0,056
302,662	27,403	-0,081	0,047
303,676	-200,000	-0,024	-0,093
304,691	800,000	-0,065	-0,132
305,706	-91,195	-0,134	-0,026
306,720	800,000	-0,065	-0,173
307,735	402,701	-0,132	-0,191
308,749	-0,739	-0,077	-0,037
309,764	-16,975	-0,171	-0,074
310,779	-200,000	-0,057	-0,177
311,793	27,746	-0,171	-0,099
312,808	-130,980	-0,176	-0,016
313,822	-29,940	-0,200	-0,078
314,837	-95,133	-0,216	-0,040
315,852	-23,072	-0,052	-0,021
316,866	8,725	-0,151	0,078
317,881	-123,156	-0,205	-0,022
318,895	176,692	-0,065	0,065
319,910	259,414	-0,077	-0,091
320,925	-74,372	-0,162	-0,040
321,939	322,754	-0,045	-0,059
322,954	-108,380	-0,188	0,027
323,968	-45,237	-0,111	-0,038
324,983	76,086	-0,093	-0,067
325,997	-192,749	-0,116	-0,001
327,012	70,767	-0,167	-0,119
328,027	800,000	-0,082	-0,180
329,041	17,848	-0,223	-0,121
330,056	-74,080	-0,138	-0,034
331,070	9,651	-0,047	-0,024
332,085	-79,593	-0,080	-0,018
333,100	74,744	-0,156	-0,112
334,114	392,072	-0,111	-0,158
335,129	800,000	-0,061	-0,130
336,143	174,300	-0,070	-0,069
337,158	381,180	-0,145	-0,204
338,173	50,730	-0,175	-0,113
339,187	36,450	-0,021	0,013
340,202	183,921	-0,123	-0,125
341,216	206,021	-0,172	-0,184
342,231	-137,671	-0,209	-0,016
343,246	-200,000	-0,011	-0,103
344,260	315,786	-0,148	-0,191
345,275	-138,804	-0,136	-0,010
346,289	-200,000	-0,055	-0,192
347,304	22,628	-0,112	-0,063
348,319	-92,115	-0,194	-0,037
349,333	-200,000	-0,012	-0,177
350,348	-27,225	-0,229	-0,091
351,362	636,229	-0,101	-0,176
352,377	441,728	-0,037	-0,055
353,392	17,782	-0,061	-0,033
354,406	-84,722	-0,131	-0,028
355,421	208,380	1311,651	1403,351
356,435	160,338	1471,933	1403,784
