DTS Sentinel unit serial number:	SN410029Multiplexer serial number:	ORYXHardware model number:	OX2-SRSoftware version number:	ORYX F/W v4,00 Oryx Data Collector v3.7.2.0data status	okinstallation	B3 Nyhavnadifferential loss correction	single-endedforward channel	channel 1reverse channel	N/Adate	2023/12/01time	22:07:30forward acquisition time	300,00reverse acquisition time	0,00gamma	499,1914k internal	0,3196k external	0,3196temperature offset calibration	1,0000default loss term (dB/km)	0,3820temperature slope calibration	1,0000multiplexer offset coefficient	1,0000multiplexer slope coefficient	1,0000fibre end	0,00T internal ref (°C)	15,93T ext. ref 1 (°C)	0,82T ext. ref 2 (°C)	0,81length (m)	temperature (°C)	Stokes	anti-Stokes-744,400	800,000	-0,116	-0,340
-743,385	-200,000	0,025	0,275
-742,371	72,372	-0,160	-0,121
-741,356	800,000	0,092	0,295
-740,342	-61,187	-0,266	-0,081
-739,327	800,000	0,122	0,333
-738,312	-23,255	-0,267	-0,116
-737,298	-200,000	0,058	0,342
-736,283	54,518	-0,235	-0,164
-735,269	-200,000	0,038	0,245
-734,254	277,637	-0,226	-0,294
-733,239	142,342	-0,194	0,188
-732,225	-200,000	-0,047	-0,184
-731,210	1,439	0,119	0,062
-730,196	-68,929	0,135	-0,038
-729,181	-200,000	-0,006	-0,142
-728,167	515,413	0,032	0,054
-727,152	290,370	0,076	0,101
-726,137	50,023	-0,070	0,048
-725,123	-200,000	-0,013	-0,099
-724,108	182,066	-0,140	-0,150
-723,094	-123,211	-0,153	-0,018
-722,079	-200,000	-0,015	-0,107
-721,064	-200,000	-0,013	0,066
-720,050	-145,055	-0,134	-0,009
-719,035	502,271	0,101	0,170
-718,021	-200,000	0,038	0,000
-717,006	216,348	0,026	0,030
-715,991	234,641	-0,055	0,066
-714,977	619,298	-0,100	-0,184
-713,962	307,270	0,021	-0,029
-712,948	160,611	0,009	0,009
-711,933	-200,000	0,018	0,129
-710,918	-200,000	-0,007	-0,054
-709,904	-200,000	-0,003	-0,098
-708,889	-110,869	-0,122	-0,018
-707,875	793,468	0,009	-0,017
-706,860	-200,000	-0,001	-0,007
-705,845	247,491	-0,092	0,114
-704,831	-200,000	0,007	0,175
-703,816	-157,450	-0,092	-0,004
-702,802	-89,463	-0,140	0,030
-701,787	-200,000	-0,002	-0,044
-700,772	-200,000	-0,064	-0,212
-699,758	-2,412	0,168	-0,086
-698,743	-74,918	0,081	0,021
-697,729	-167,793	-0,085	0,002
-696,714	364,309	-0,026	0,039
-695,699	646,084	0,055	-0,102
-694,685	-167,535	-0,011	-0,000
-693,670	-132,432	0,081	-0,008
-692,656	-27,451	-0,096	0,040
-691,641	-200,000	0,004	-0,023
-690,627	13,994	-0,147	0,083
-689,612	800,000	0,038	0,077
-688,597	-200,000	-0,038	-0,161
-687,583	-19,449	0,096	0,043
-686,568	-19,973	-0,131	-0,059
-685,554	800,000	0,032	-0,071
-684,539	25,166	0,131	-0,079
-683,524	-200,000	0,020	-0,064
-682,510	171,784	0,039	0,041
-681,495	241,436	0,074	0,090
-680,481	-200,000	0,032	-0,111
-679,466	-8,338	-0,101	-0,049
-678,451	-200,000	-0,032	-0,132
-677,437	800,000	0,044	0,102
-676,422	-137,836	0,213	-0,017
-675,408	622,748	0,096	-0,176
-674,393	2,143	0,061	-0,032
-673,378	118,781	-0,092	0,083
-672,364	487,085	-0,068	-0,113
-671,349	-200,000	-0,008	0,149
-670,335	154,457	0,089	0,089
-669,320	-54,393	-0,033	-0,011
-668,305	-200,000	-0,008	-0,084
-667,291	-200,000	-0,003	-0,049
-666,276	800,000	-0,022	0,046
-665,262	56,697	-0,031	-0,022
-664,247	88,682	0,034	-0,027
-663,232	96,260	-0,077	0,064
-662,218	34,786	0,060	-0,038
-661,203	-200,000	0,018	0,070
-660,189	-200,000	-0,013	0,122
-659,174	800,000	0,014	0,034
-658,159	-200,000	-0,023	-0,084
-657,145	800,000	0,028	-0,082
-656,130	800,000	0,015	-0,047
-655,116	-66,937	0,097	-0,028
-654,101	-64,180	-0,077	0,023
-653,086	-52,911	-0,130	0,043
-652,072	-200,000	-0,024	-0,192
-651,057	8,612	0,116	-0,063
-650,043	241,416	-0,081	-0,099
-649,028	800,000	-0,061	0,132
-648,014	-200,000	0,035	0,156
-646,999	397,781	-0,021	-0,032
-645,984	-200,000	0,027	-0,109
-644,970	-46,390	-0,090	0,032
-643,955	162,154	-0,047	0,048
-642,941	24,913	-0,077	-0,047
-641,926	-200,000	-0,041	-0,138
-640,911	-200,000	-0,008	0,075
-639,897	-34,940	-0,080	-0,031
-638,882	800,000	0,029	-0,088
-637,868	-200,000	0,035	0,237
-636,853	-87,313	-0,106	0,023
-635,838	12,839	0,078	0,044
-634,824	267,272	0,079	0,101
-633,809	-87,499	-0,029	0,006
-632,795	-200,000	-0,020	-0,097
-631,780	800,000	0,013	-0,035
-630,765	800,000	-0,027	-0,079
-629,751	-73,298	-0,068	0,018
-628,736	-21,540	-0,049	-0,022
-627,722	-164,837	0,084	-0,003
-626,707	-200,000	-0,006	-0,038
-625,692	-200,000	0,009	-0,048
-624,678	194,451	-0,012	-0,013
-623,663	66,613	-0,080	-0,059
-622,649	-200,000	-0,040	-0,155
-621,634	60,322	-0,159	-0,114
-620,619	-114,829	0,137	-0,019
-619,605	6,827	0,013	-0,007
-618,590	-200,000	0,009	-0,079
-617,576	800,000	0,031	0,097
-616,561	-200,000	0,003	0,182
-615,546	-76,228	0,085	0,021
-614,532	-153,488	0,133	-0,007
-613,517	60,140	0,036	-0,026
-612,503	-87,973	0,038	0,008
-611,488	800,000	0,070	0,149
-610,474	-200,000	0,013	0,162
-609,459	265,975	0,056	-0,071
-608,444	-200,000	0,029	0,131
-607,430	-111,367	-0,087	0,013
-606,415	-163,293	-0,094	-0,003
-605,401	82,921	-0,077	0,061
-604,386	-32,644	-0,143	-0,057
-603,371	-200,000	0,039	0,156
-602,357	50,469	-0,109	0,074
-601,342	24,974	0,054	-0,033
-600,328	-91,969	-0,099	0,020
-599,313	107,243	-0,097	-0,083
-598,298	361,409	-0,070	0,102
-597,284	-200,000	0,004	0,073
-596,269	-200,000	0,027	0,125
-595,255	800,000	-0,035	0,076
-594,240	800,000	0,019	0,056
-593,225	-28,028	0,076	-0,032
-592,211	485,366	0,016	-0,027
-591,196	-200,000	0,017	-0,057
-590,182	-157,657	0,050	-0,002
-589,167	-200,000	0,011	0,095
-588,152	30,381	0,081	0,050
-587,138	0,988	-0,125	-0,065
-586,123	409,735	-0,054	-0,082
-585,109	266,116	-0,027	0,034
-584,094	-200,000	0,011	-0,080
-583,079	170,432	0,039	0,040
-582,065	800,000	0,020	0,063
-581,050	-133,400	-0,149	0,013
-580,036	-200,000	-0,002	0,106
-579,021	800,000	-0,010	-0,023
-578,006	-19,747	-0,032	-0,014
-576,992	-23,897	0,088	-0,038
-575,977	28,391	-0,123	-0,075
-574,963	-17,141	0,100	0,045
-573,948	34,978	0,061	0,038
-572,934	800,000	-0,085	0,217
-571,919	-180,732	-0,058	-0,001
-570,904	-200,000	0,013	-0,128
-569,890	94,292	-0,010	-0,008
-568,875	-200,000	0,010	-0,038
-567,861	-45,640	0,096	0,034
-566,846	-2,168	0,073	0,037
-565,831	-0,022	0,076	0,039
-564,817	-191,777	0,015	-0,000
-563,802	92,552	-0,049	0,040
-562,788	406,169	0,102	-0,156
-561,773	-200,000	-0,021	-0,085
-560,758	168,551	0,056	-0,058
-559,744	443,515	-0,041	0,066
-558,729	186,625	0,076	0,082
-557,715	271,938	0,061	-0,078
-556,700	-104,179	-0,051	-0,009
-555,685	800,000	0,050	0,106
-554,671	96,072	-0,005	-0,004
-553,656	800,000	0,030	0,077
-552,642	469,495	0,055	-0,089
-551,627	267,184	0,096	0,122
-550,612	288,685	0,062	-0,081
-549,598	718,596	-0,054	-0,105
-548,583	-200,000	-0,019	-0,093
-547,569	-200,000	-0,005	-0,017
-546,554	800,000	-0,008	-0,021
-545,539	-19,354	0,097	0,043
-544,525	-93,868	-0,043	-0,008
-543,510	264,698	0,039	-0,050
-542,496	43,482	-0,054	0,035
-541,481	-31,279	-0,015	-0,006
-540,466	-200,000	-0,002	0,057
-539,452	-71,121	-0,116	0,031
-538,437	147,264	0,095	0,093
-537,423	-29,888	-0,060	-0,025
-536,408	-24,628	-0,015	-0,007
-535,393	123,081	0,090	-0,081
-534,379	677,196	0,056	-0,105
-533,364	28,545	0,024	0,015
-532,350	180,236	0,016	-0,017
-531,335	316,437	-0,007	0,009
-530,321	800,000	0,032	0,070
-529,306	-200,000	-0,003	0,143
-528,291	100,681	-0,062	-0,052
-527,277	800,000	0,037	-0,098
-526,262	800,000	-0,029	0,083
-525,248	569,870	0,012	0,021
-524,233	-96,725	-0,109	0,021
-523,218	-58,769	0,066	-0,020
-522,204	25,465	-0,041	-0,025
-521,189	-135,020	0,057	-0,005
-520,175	-131,538	-0,063	0,006
-519,160	55,187	-0,111	-0,078
-518,145	-142,223	0,121	0,009
-517,131	-89,933	-0,025	0,005
-516,116	-200,000	-0,019	0,067
-515,102	12,839	-0,068	0,038
-514,087	365,084	0,056	-0,081
-513,072	69,907	-0,057	-0,042
-512,058	-18,614	-0,161	-0,072
-511,043	-200,000	0,021	0,071
-510,029	-200,000	-0,008	0,041
-509,014	-150,814	0,064	-0,003
-507,999	51,311	0,061	0,042
-506,985	67,065	-0,007	0,005
-505,970	-200,000	0,040	-0,132
-504,956	116,460	0,026	-0,023
-503,941	800,000	0,050	-0,121
-502,926	445,168	0,056	0,090
-501,912	215,646	-0,062	-0,071
-500,897	-200,000	-0,024	-0,086
-499,883	800,000	-0,063	-0,127
-498,868	800,000	-0,010	0,024
-497,853	176,114	-0,035	0,037
-496,839	279,894	-0,049	0,063
-495,824	-200,000	0,024	-0,095
-494,810	-200,000	-0,008	-0,153
-493,795	-200,000	0,024	-0,123
-492,781	-200,000	0,014	-0,094
-491,766	33,821	-0,091	-0,057
-490,751	49,858	-0,131	-0,089
-489,737	800,000	0,034	0,089
-488,722	-1,631	-0,016	-0,008
-487,708	521,283	-0,015	-0,025
-486,693	-200,000	-0,034	0,157
-485,678	-73,323	0,072	0,019
-484,664	-10,479	0,162	-0,077
-483,649	476,736	-0,061	-0,099
-482,635	-13,757	-0,156	0,073
-481,620	68,155	0,059	-0,043
-480,605	-63,414	0,078	0,023
-479,591	800,000	0,046	-0,095
-478,576	11,888	0,112	0,062
-477,562	606,649	-0,053	0,096
-476,547	-200,000	0,002	0,011
-475,532	-129,641	0,129	-0,013
-474,518	-121,274	-0,260	-0,031
-473,503	-135,385	0,140	0,012
-472,489	-55,355	0,090	-0,029
-471,474	-200,000	0,023	0,158
-470,459	-200,000	-0,009	0,041
-469,445	-103,532	-0,068	0,011
-468,430	63,289	0,021	-0,015
-467,416	337,954	0,098	0,138
-466,401	-52,915	0,058	0,019
-465,386	-46,558	0,135	-0,048
-464,372	206,085	-0,032	-0,036
-463,357	-22,053	-0,072	0,031
-462,343	-0,860	-0,118	0,060
-461,328	-200,000	-0,008	-0,042
-460,313	127,034	-0,055	-0,050
-459,299	-17,596	-0,158	0,071
-458,284	-147,569	-0,036	-0,002
-457,270	232,256	-0,093	-0,111
-456,255	490,760	-0,062	-0,103
-455,241	57,354	0,014	0,010
-454,226	-153,695	-0,103	0,005
-453,211	114,539	0,063	-0,056
-452,197	-200,000	0,006	0,059
-451,182	578,810	-0,020	0,035
-450,168	800,000	-0,040	0,088
-449,153	-200,000	0,061	-0,197
-448,138	115,464	-0,117	-0,103
-447,124	800,000	-0,033	-0,099
-446,109	76,260	0,065	0,050
-445,095	-200,000	0,015	0,051
-444,080	-200,000	-0,005	0,028
-443,065	-117,489	-0,085	-0,011
-442,051	11,848	-0,082	-0,045
-441,036	-15,242	-0,137	0,063
-440,022	-118,163	-0,088	-0,011
-439,007	-162,460	-0,034	0,001
-437,992	-200,000	-0,042	-0,156
-436,978	-200,000	-0,001	0,054
-435,963	800,000	-0,022	0,060
-434,949	246,925	0,039	0,047
-433,934	121,474	0,065	-0,058
-432,919	800,000	0,020	-0,051
-431,905	24,056	-0,100	-0,059
-430,890	-200,000	0,012	0,117
-429,876	-200,000	0,030	0,103
-428,861	800,000	-0,018	0,053
-427,846	115,977	0,097	0,086
-426,832	-53,142	-0,057	-0,019
-425,817	-8,298	0,049	-0,024
-424,803	-200,000	0,017	-0,071
-423,788	800,000	0,028	-0,079
-422,773	220,543	-0,049	0,057
-421,759	149,379	-0,074	0,072
-420,744	-92,597	0,012	-0,002
-419,730	181,972	-0,086	-0,091
-418,715	-200,000	0,001	-0,067
-417,701	219,567	-0,023	-0,027
-416,686	-46,084	0,200	-0,071
-415,671	800,000	-0,049	-0,142
-414,657	186,641	0,092	0,098
-413,642	318,947	-0,125	0,171
-412,628	41,155	-0,084	-0,054
-411,613	-200,000	0,020	-0,128
-410,598	-200,000	-0,019	-0,073
-409,584	50,091	-0,119	0,081
-408,569	797,320	-0,059	0,118
-407,555	46,144	0,060	0,040
-406,540	94,760	-0,077	0,063
-405,525	163,727	0,054	-0,055
-404,511	-33,488	-0,105	0,042
-403,496	19,081	-0,008	-0,005
-402,482	800,000	0,025	0,062
-401,467	136,928	-0,043	0,041
-400,452	800,000	0,022	0,050
-399,438	757,133	0,023	0,045
-398,423	730,286	0,031	-0,060
-397,409	800,000	-0,026	-0,056
-396,394	45,849	-0,069	-0,045
-395,379	-44,274	0,122	0,044
-394,365	29,679	-0,067	0,041
-393,350	-200,000	0,030	0,140
-392,336	-99,863	0,161	-0,029
-391,321	800,000	-0,026	-0,064
-390,306	290,255	-0,063	-0,083
-389,292	-200,000	0,003	0,051
-388,277	-82,128	0,058	-0,014
-387,263	-125,356	0,096	-0,010
-386,248	-200,000	-0,002	0,086
-385,233	381,873	-0,025	0,038
-384,219	110,460	-0,109	-0,094
-383,204	-27,300	0,057	0,024
-382,190	-200,000	-0,004	-0,052
-381,175	-20,871	0,110	0,048
-380,160	-139,969	-0,062	0,005
-379,146	646,929	-0,105	0,194
-378,131	-85,002	0,014	0,003
-377,117	-63,867	-0,135	0,040
-376,102	-63,388	-0,112	0,033
-375,088	-121,770	-0,112	-0,013
-374,073	-67,456	0,191	-0,053
-373,058	800,000	-0,017	-0,047
-372,044	-200,000	-0,021	-0,159
-371,029	800,000	0,025	0,066
-370,015	191,135	0,040	-0,043
-369,000	-200,000	-0,029	-0,115
-367,985	134,618	-0,132	-0,123
-366,971	800,000	0,018	0,038
-365,956	208,535	-0,078	0,088
-364,942	186,146	0,061	0,065
-363,927	-200,000	0,008	0,132
-362,912	-200,000	0,003	0,046
-361,898	20,502	-0,021	-0,012
-360,883	456,535	0,028	-0,045
-359,869	22,083	0,007	-0,004
-358,854	800,000	-0,016	0,042
-357,839	-32,247	-0,103	-0,041
-356,825	-53,355	0,164	-0,054
-355,810	-137,270	-0,103	0,008
-354,796	408,952	-0,040	-0,061
-353,781	223,537	0,094	0,109
-352,766	183,304	0,037	0,039
-351,752	-146,466	-0,149	-0,009
-350,737	326,947	-0,017	-0,023
-349,723	250,390	0,094	-0,114
-348,708	12,690	-0,058	-0,032
-347,693	-119,231	-0,068	0,008
-346,679	-50,402	-0,126	0,042
-345,664	373,775	0,051	-0,075
-344,650	650,773	-0,073	0,135
-343,635	800,000	0,026	0,059
-342,620	800,000	0,087	-0,225
-341,606	566,709	-0,047	0,082
-340,591	20,843	0,130	0,076
-339,577	93,566	-0,082	0,066
-338,562	800,000	0,045	-0,094
-337,548	-200,000	-0,006	0,098
-336,533	800,000	0,014	-0,030
-335,518	-71,926	-0,079	-0,021
-334,504	-200,000	0,022	0,211
-333,489	-200,000	0,018	-0,072
-332,475	-15,191	-0,013	-0,006
-331,460	-48,952	-0,077	-0,026
-330,445	-200,000	0,010	-0,161
-329,431	-200,000	-0,010	-0,060
-328,416	123,624	-0,122	0,109
-327,402	800,000	-0,042	0,102
-326,387	-119,209	-0,025	-0,003
-325,372	-12,924	0,087	-0,040
-324,358	-85,826	0,114	0,025
-323,343	22,517	0,101	-0,059
-322,329	-92,570	-0,081	0,016
-321,314	176,015	-0,093	0,097
-320,299	87,666	0,115	0,091
-319,285	-165,334	0,049	0,002
-318,270	-105,135	-0,202	-0,033
-317,256	-49,140	-0,029	0,010
-316,241	329,720	0,033	0,046
-315,226	354,370	0,090	-0,129
-314,212	39,650	0,082	0,053
-313,197	800,000	-0,045	0,090
-312,183	-80,359	0,145	-0,034
-311,168	-200,000	0,022	-0,127
-310,153	800,000	0,032	-0,077
-309,139	-137,312	0,105	0,008
-308,124	313,086	-0,024	-0,033
-307,110	-194,515	0,018	-0,000
-306,095	-200,000	-0,027	0,120
-305,080	-200,000	-0,007	0,072
-304,066	-200,000	-0,011	-0,038
-303,051	800,000	-0,019	-0,041
-302,037	0,984	-0,059	0,030
-301,022	558,334	0,034	-0,059
-300,008	-200,000	-0,013	-0,067
-298,993	356,278	0,118	0,168
-297,978	-114,708	0,044	-0,006
-296,964	-127,619	-0,078	-0,008
-295,949	-200,000	0,016	-0,162
-294,935	-137,673	-0,154	-0,012
-293,920	327,374	-0,034	0,046
-292,905	-54,599	0,116	-0,037
-291,891	-185,490	0,104	0,001
-290,876	-200,000	-0,132	0,000
-289,862	75,381	-0,049	-0,037
-288,847	736,998	0,027	0,053
-287,832	-21,238	0,052	0,023
-286,818	-200,000	0,012	0,043
-285,803	-164,368	0,038	0,001
-284,789	52,287	-0,094	0,064
-283,774	174,852	0,116	-0,120
-282,759	666,129	0,046	0,086
-281,745	-39,280	0,077	-0,029
-280,730	-160,119	-0,037	0,001
-279,716	-140,112	0,029	-0,002
-278,701	142,851	0,030	0,029
-277,686	-61,409	0,060	-0,018
-276,672	-200,000	-0,012	0,045
-275,657	-200,000	0,005	0,048
-274,643	-138,029	-0,138	0,011
-273,628	-200,000	-0,009	-0,068
-272,613	800,000	0,031	0,068
-271,599	-200,000	0,030	-0,164
-270,584	120,479	0,115	-0,102
-269,570	-41,291	-0,092	-0,034
-268,555	99,051	-0,063	0,052
-267,540	-61,888	0,191	0,057
-266,526	-200,000	-0,017	-0,154
-265,511	-200,000	0,007	-0,125
-264,497	280,138	0,044	0,056
-263,482	167,625	0,043	0,044
-262,467	-40,477	0,073	-0,027
-261,453	85,006	0,069	0,054
-260,438	17,581	-0,067	-0,038
-259,424	-200,000	-0,037	-0,126
-258,409	-200,000	-0,005	-0,113
-257,395	-200,000	-0,031	-0,104
-256,380	-38,474	0,055	0,021
-255,365	800,000	0,072	0,158
-254,351	800,000	-0,031	0,067
-253,336	1,435	-0,052	-0,027
-252,322	-200,000	0,003	-0,072
-251,307	-68,478	-0,086	-0,024
-250,292	-80,107	-0,066	0,016
-249,278	-85,290	0,124	0,027
-248,263	668,477	0,041	0,076
-247,249	98,425	0,022	-0,018
-246,234	166,256	-0,023	0,023
-245,219	-200,000	-0,033	0,118
-244,205	197,506	0,043	-0,046
-243,190	-63,496	0,109	0,032
-242,176	-117,021	0,082	0,011
-241,161	-200,000	0,003	-0,018
-240,146	36,758	-0,087	0,055
-239,132	800,000	0,053	-0,145
-238,117	-200,000	0,015	-0,132
-237,103	-32,278	0,022	-0,009
-236,088	-92,934	0,148	0,029
-235,073	375,254	0,025	-0,037
-234,059	-164,105	0,176	-0,006
-233,044	260,602	0,046	-0,056
-232,030	-3,700	0,064	0,031
-231,015	-41,298	0,081	-0,030
-230,000	-200,000	-0,033	-0,132
-228,986	103,777	-0,002	-0,002
-227,971	318,905	0,128	-0,174
-226,957	-200,000	-0,008	0,027
-225,942	133,231	-0,013	0,012
-224,927	75,854	0,018	-0,014
-223,913	-42,699	-0,131	0,047
-222,898	505,020	-0,031	0,051
-221,884	-170,871	-0,067	-0,002
-220,869	800,000	-0,014	0,030
-219,855	59,238	0,035	0,024
-218,840	-107,513	0,198	0,031
-217,825	124,754	0,021	-0,019
-216,811	-49,666	-0,048	-0,016
-215,796	-68,374	-0,049	0,014
-214,782	133,057	0,031	-0,029
-213,767	800,000	0,040	0,081
-212,752	-200,000	0,005	0,183
-211,738	292,686	0,121	0,158
-210,723	49,466	-0,082	0,055
-209,709	-9,038	-0,091	-0,043
-208,694	117,959	-0,130	-0,114
-207,679	-200,000	0,011	0,088
-206,665	-104,587	0,122	-0,020
-205,650	-58,954	0,099	0,030
-204,636	-200,000	-0,005	0,066
-203,621	18,213	0,034	-0,019
-202,606	518,885	0,105	0,176
-201,592	80,628	-0,054	0,042
-200,577	-200,000	-0,005	0,020
-199,563	349,323	0,074	0,105
-198,548	-62,710	0,022	-0,006
-197,533	-61,933	-0,048	0,014
-196,519	-200,000	0,020	-0,099
-195,504	130,519	0,054	-0,049
-194,490	22,911	-0,128	-0,075
-193,475	-83,843	-0,034	0,008
-192,460	296,770	0,027	0,036
-191,446	800,000	0,030	0,064
-190,431	132,061	0,102	0,094
-189,417	-85,680	-0,181	0,040
-188,402	-88,315	-0,046	-0,010
-187,387	17,070	0,077	-0,043
-186,373	58,425	-0,071	0,050
-185,358	215,295	0,067	-0,076
-184,344	-200,000	-0,016	-0,117
-183,329	208,140	0,101	0,112
-182,315	800,000	-0,018	0,053
-181,300	13,169	0,113	0,062
-180,285	800,000	-0,068	-0,168
-179,271	-200,000	0,005	-0,188
-178,256	-200,000	-0,017	-0,118
-177,242	144,762	0,063	-0,060
-176,227	301,357	-0,017	0,023
-175,212	419,755	0,043	0,065
-174,198	-122,310	0,073	-0,008
-173,183	476,970	0,054	0,087
-172,169	348,024	-0,046	-0,065
-171,154	-105,138	-0,092	0,015
-170,139	161,720	-0,072	0,072
-169,125	-158,653	0,040	-0,002
-168,110	20,246	0,158	-0,091
-167,096	-200,000	-0,012	0,046
-166,081	800,000	-0,028	0,064
-165,066	-70,897	-0,128	-0,034
-164,052	-200,000	-0,013	-0,063
-163,037	-160,511	-0,081	0,003
-162,023	-122,754	0,076	0,009
-161,008	-200,000	-0,011	0,065
-159,993	145,494	-0,024	0,023
-158,979	-50,611	0,063	0,021
-157,964	800,000	-0,040	-0,084
-156,950	313,645	-0,003	0,004
-155,935	4,748	0,113	-0,059
-154,920	-101,984	0,036	-0,006
-153,906	144,032	-0,067	-0,063
-152,891	-77,822	-0,039	-0,009
-151,877	800,000	-0,031	-0,074
-150,862	191,842	-0,061	-0,065
-149,847	-17,313	-0,024	-0,011
-148,833	800,000	-0,009	0,027
-147,818	-153,179	0,126	0,006
-146,804	165,297	-0,077	-0,077
-145,789	-200,000	0,041	0,183
-144,775	-200,000	-0,007	0,038
-143,760	-200,000	0,026	-0,088
-142,745	18,883	-0,076	-0,043
-141,731	137,573	0,062	0,058
-140,716	-64,749	-0,096	-0,028
-139,702	-55,958	0,084	0,026
-138,687	-14,592	0,053	-0,024
-137,672	195,273	0,033	-0,036
-136,658	19,093	-0,069	0,039
-135,643	247,141	-0,027	-0,033
-134,629	458,848	-0,019	0,030
-133,614	-65,863	-0,049	-0,014
-132,599	93,449	0,053	0,043
-131,585	-200,000	0,017	0,080
-130,570	-200,000	0,011	0,067
-129,556	38,984	-0,059	0,037
-128,541	-54,338	-0,039	-0,012
-127,526	21,219	-0,138	0,080
-126,512	320,003	-0,059	0,080
-125,497	-58,749	0,090	0,028
-124,483	-200,000	-0,004	-0,065
-123,468	-200,000	0,009	-0,116
-122,453	-200,000	-0,002	-0,030
-121,439	800,000	-0,053	-0,158
-120,424	466,450	-0,034	0,054
-119,410	122,656	0,120	-0,106
-118,395	-200,000	0,003	-0,023
-117,380	359,507	-0,056	-0,079
-116,366	43,462	-0,069	0,045
-115,351	-200,000	-0,002	-0,026
-114,337	769,186	-0,057	-0,112
-113,322	800,000	-0,026	0,062
-112,307	-42,524	0,100	-0,036
-111,293	210,554	-0,082	0,092
-110,278	42,012	0,155	0,099
-109,264	-20,713	0,040	-0,017
-108,249	121,877	-0,074	0,065
-107,234	-200,000	-0,003	-0,048
-106,220	-200,000	0,000	-0,052
-105,205	-39,884	0,019	-0,007
-104,191	86,156	0,043	0,034
-103,176	-92,777	0,152	-0,030
-102,162	196,449	0,081	-0,087
-101,147	-200,000	0,005	-0,084
-100,132	705,745	-0,024	-0,045
-99,118	800,000	-0,010	-0,033
-98,103	-36,479	0,089	0,034
-97,089	35,579	-0,033	0,021
-96,074	-50,985	0,091	0,030
-95,059	-200,000	-0,018	0,065
-94,045	-200,000	-0,022	-0,075
-93,030	-200,000	0,108	-0,000
-92,016	-200,000	0,018	-0,069
-91,001	96,372	0,007	-0,006
-89,986	-34,957	-0,052	0,020
-88,972	-28,163	-0,131	-0,054
-87,957	-31,385	0,103	0,041
-86,943	-200,000	-0,001	-0,024
-85,928	-200,000	-0,023	-0,092
-84,913	-76,012	0,014	-0,003
-83,899	493,831	0,060	0,099
-82,884	-200,000	-0,030	0,170
-81,870	800,000	-0,047	0,094
-80,855	800,000	-0,056	0,120
-79,840	800,000	-0,026	0,052
-78,826	-200,000	0,012	-0,039
-77,811	711,619	-0,057	-0,107
-76,797	-171,401	0,104	0,002
-75,782	-200,000	-0,012	0,045
-74,767	-24,691	0,139	0,059
-73,753	-44,709	-0,100	0,035
-72,738	664,949	-0,008	-0,014
-71,724	-68,618	0,125	-0,034
-70,709	800,000	-0,051	-0,126
-69,694	220,965	-0,069	0,079
-68,680	800,000	0,034	-0,079
-67,665	800,000	-0,051	-0,139
-66,651	-200,000	0,017	0,132
-65,636	-200,000	-0,026	-0,137
-64,622	561,275	0,052	-0,090
-63,607	800,000	-0,034	0,071
-62,592	-157,305	-0,125	-0,005
-61,578	493,306	0,007	-0,011
-60,563	-72,787	-0,109	0,028
-59,549	221,649	0,045	0,052
-58,534	-75,538	-1,413	-0,354
-57,519	435,741	-1,482	-2,295
-56,505	-200,000	-0,309	-4,409
-55,490	190,844	0,751	0,802
-54,476	800,000	4,844	11,462
-53,461	-200,000	17,727	281,507
-52,446	800,000	720,444	2223,110
-51,432	561,834	1634,780	2814,876
-50,417	80,962	1657,966	1267,577
-49,403	23,787	1532,291	892,975
-48,388	17,768	1455,626	819,268
-47,373	18,240	1445,182	815,619
-46,359	17,840	1436,045	808,526
-45,344	16,027	1431,268	797,182
-44,330	15,995	1429,446	795,984
-43,315	15,994	1427,787	795,025
-42,300	16,005	1425,985	794,044
-41,286	16,097	1424,749	793,758
-40,271	16,036	1423,723	792,868
-39,257	16,018	1422,258	791,935
-38,242	16,100	1420,747	791,448
-37,227	16,065	1419,721	790,682
-36,213	16,062	1418,417	789,909
-35,198	16,053	1417,121	789,114
-34,184	16,020	1416,520	788,593
-33,169	15,933	1415,330	787,491
-32,154	15,976	1414,147	787,002
-31,140	16,054	1412,894	786,637
-30,125	16,062	1411,635	785,946
-29,111	16,024	1410,525	785,118
-28,096	16,020	1409,333	784,404
-27,082	15,961	1408,385	783,569
-26,067	15,981	1407,145	782,941
-25,052	16,014	1405,945	782,395
-24,038	15,911	1405,346	781,549
-23,023	15,957	1404,069	781,023
-22,009	15,926	1402,924	780,214
-20,994	15,950	1402,054	779,811
-19,979	15,911	1401,328	779,193
-18,965	15,877	1400,150	778,348
-17,950	15,875	1399,400	777,891
-16,936	15,911	1398,255	777,392
-15,921	15,883	1397,056	776,565
-14,906	15,815	1396,184	775,735
-13,892	15,881	1395,258	775,494
-12,877	15,840	1394,386	774,787
-11,863	15,862	1393,377	774,297
-10,848	15,885	1392,386	773,824
-9,833	15,792	1391,784	773,027
-8,819	15,794	1390,628	772,366
-7,804	15,783	1389,736	771,790
-6,790	15,767	1388,712	771,117
-5,775	15,729	1387,749	770,375
-4,760	15,710	1386,946	769,810
-3,746	15,729	1386,385	769,556
-2,731	15,757	1385,395	769,106
-1,717	15,712	1384,236	768,225
-0,702	15,739	1382,416	767,309
0,313	19,510	1303,199	740,742
1,327	35,861	706,308	439,348
2,342	55,080	125,146	85,561
3,356	4,053	16,567	8,560
4,371	15,521	3,136	1,740
5,386	-134,405	0,561	0,048
6,400	-48,197	-0,054	-0,018
7,415	800,000	-0,104	-0,221
8,429	17,132	-0,301	-0,168
9,444	15,734	-0,336	-0,186
10,459	60,217	-0,295	-0,206
11,473	98,607	-0,300	-0,244
12,488	53,910	-0,236	-0,161
13,502	-27,475	-0,330	-0,135
14,517	7,985	-0,464	-0,246
15,531	106,532	-0,321	-0,269
16,546	95,843	-0,395	-0,319
17,561	489,293	-0,260	-0,422
18,575	-192,711	-0,201	-0,001
19,590	65,260	-0,251	-0,180
20,604	-154,354	-0,312	0,015
21,619	80,419	-0,399	-0,303
22,634	176,385	-0,369	-0,379
23,648	144,383	-0,324	-0,306
24,663	181,538	-0,384	-0,400
25,677	245,044	-0,337	-0,401
26,692	17,537	-0,454	-0,255
27,707	23,690	-0,308	-0,179
28,721	38,625	-0,448	-0,282
29,736	76,303	-0,365	-0,273
30,750	-52,265	-0,361	-0,118
31,765	168,159	-0,411	-0,413
32,780	-15,951	-0,436	-0,195
33,794	141,391	-0,397	-0,371
34,809	194,015	-0,338	-0,363
35,823	53,804	-0,461	-0,312
36,838	130,629	-0,328	-0,297
37,853	250,096	-0,311	-0,373
38,867	19,607	-0,507	-0,287
39,882	73,189	-0,325	-0,240
40,896	13,722	-0,367	-0,201
41,911	207,999	-0,250	-0,276
42,926	92,327	-0,365	-0,291
43,940	254,799	-0,360	-0,435
44,955	274,851	-0,313	-0,392
45,969	109,293	-0,370	-0,313
46,984	76,244	-0,377	-0,282
47,999	62,879	-0,271	-0,191
49,013	284,079	-0,212	-0,270
50,028	272,510	-0,256	-0,320
51,042	123,536	-0,320	-0,283
52,057	557,420	-0,243	-0,416
53,071	144,843	-0,372	-0,351
54,086	396,428	-0,184	-0,272
55,101	175,336	-0,334	-0,342
56,115	66,192	-0,294	-0,210
57,130	61,859	-0,463	-0,325
58,144	-14,538	-0,445	-0,201
59,159	-12,460	-0,364	-0,167
60,174	223,502	-0,348	-0,396
61,188	373,936	-0,259	-0,373
62,203	-12,761	-0,413	-0,189
63,217	183,316	-0,253	-0,264
64,232	12,977	-0,368	-0,200
65,247	26,411	-0,319	-0,188
66,261	82,919	-0,323	-0,248
67,276	13,583	-0,509	-0,277
68,290	79,033	-0,298	-0,224
69,305	16,581	-0,224	-0,124
70,320	27,972	-0,373	-0,221
71,334	134,482	-0,251	-0,229
72,349	100,083	-0,296	-0,242
73,363	127,653	-0,279	-0,250
74,378	79,069	-0,317	-0,239
75,393	97,401	-0,306	-0,247
76,407	33,823	-0,264	-0,161
77,422	-79,399	-0,336	-0,079
78,436	51,798	-0,280	-0,187
79,451	24,965	-0,271	-0,158
80,466	-64,192	-0,310	-0,088
81,480	-30,764	-0,390	-0,154
82,495	-5,836	-0,298	-0,143
83,509	228,907	-0,232	-0,266
84,524	112,548	-0,328	-0,279
85,539	25,756	-0,345	-0,202
86,553	-15,713	-0,237	-0,106
87,568	-16,894	-0,352	-0,156
88,582	85,605	-0,222	-0,171
89,597	34,464	-0,360	-0,221
90,611	134,781	-0,228	-0,208
91,626	15,913	-0,286	-0,158
92,641	-0,652	-0,256	-0,127
93,655	-75,223	-0,277	-0,069
94,670	92,544	-0,205	-0,163
95,684	-13,581	-0,304	-0,138
96,699	31,925	-0,329	-0,198
97,714	33,687	-0,253	-0,154
98,728	24,507	-0,279	-0,162
99,743	-200,000	-0,229	0,000
100,757	244,364	-0,144	-0,170
101,772	-82,740	-0,320	-0,072
102,787	76,505	-0,306	-0,227
103,801	-38,797	-0,349	-0,128
104,816	78,115	-0,263	-0,197
105,830	217,801	-0,176	-0,197
106,845	236,627	-0,255	-0,297
107,860	21,822	-0,250	-0,143
108,874	128,213	-0,261	-0,233
109,889	63,262	-0,286	-0,201
110,903	70,379	-0,285	-0,206
111,918	34,599	-0,233	-0,143
112,933	158,294	-0,198	-0,193
113,947	-193,431	-0,251	-0,001
114,962	-7,256	-0,328	-0,155
115,976	8,979	-0,324	-0,171
116,991	42,811	-0,253	-0,161
118,006	21,338	-0,340	-0,193
119,020	-28,219	-0,209	-0,084
120,035	248,685	-0,117	-0,139
121,049	10,364	-0,147	-0,078
122,064	138,276	-0,296	-0,272
123,079	97,514	-0,249	-0,201
124,093	-99,869	-0,292	-0,051
125,108	-1,057	-0,331	-0,164
126,122	231,305	-0,217	-0,250
127,137	112,897	-0,228	-0,193
128,151	70,353	-0,212	-0,154
129,166	72,052	-0,225	-0,164
130,181	73,349	-0,248	-0,182
131,195	72,970	-0,312	-0,228
132,210	-116,488	-0,258	-0,033
133,224	32,922	-0,250	-0,152
134,239	358,851	-0,237	-0,333
135,254	-64,137	-0,299	-0,085
136,268	-124,529	-0,302	-0,032
137,283	60,963	-0,327	-0,227
138,297	191,363	-0,229	-0,241
139,312	-35,605	-0,337	-0,128
140,327	280,640	-0,227	-0,285
141,341	15,271	-0,222	-0,121
142,356	-116,465	-0,106	-0,014
143,370	326,160	-0,155	-0,208
144,385	-180,839	-0,287	-0,004
145,400	-23,942	-0,226	-0,094
146,414	36,087	-0,267	-0,164
147,429	80,527	-0,297	-0,224
148,443	357,988	-0,168	-0,235
149,458	-150,022	-0,282	0,015
150,473	248,990	-0,113	-0,134
151,487	95,290	-0,260	-0,207
152,502	88,024	-0,216	-0,167
153,516	47,956	-0,260	-0,170
154,531	-62,085	-0,245	-0,071
155,546	65,271	-0,255	-0,180
156,560	335,553	-0,224	-0,304
157,575	55,077	-0,226	-0,152
158,589	-91,097	-0,365	-0,073
159,604	110,265	-0,222	-0,187
160,619	-53,014	-0,222	-0,071
161,633	147,759	-0,252	-0,237
162,648	343,949	-0,176	-0,242
163,662	1,304	-0,230	-0,115
164,677	146,856	-0,203	-0,190
165,692	8,682	-0,246	-0,129
166,706	50,179	-0,292	-0,192
167,721	14,718	-0,336	-0,183
168,735	16,997	-0,290	-0,160
169,750	44,064	-0,195	-0,125
170,764	99,247	-0,240	-0,194
171,779	178,171	-0,113	-0,115
172,794	-44,396	-0,289	-0,101
173,808	-25,051	-0,261	-0,107
174,823	251,916	-0,251	-0,299
175,837	48,401	-0,407	-0,265
176,852	173,427	-0,186	-0,188
177,867	-1,023	-0,308	-0,152
178,881	-7,547	-0,261	-0,123
179,896	-115,216	-0,245	-0,032
180,910	-39,570	-0,230	-0,084
181,925	358,355	-0,214	-0,299
182,940	350,160	-0,176	-0,243
183,954	300,856	-0,151	-0,195
184,969	361,452	-0,079	-0,111
185,983	15,652	-0,293	-0,160
186,998	60,352	-0,220	-0,152
188,013	18,300	-0,327	-0,182
189,027	-86,096	-0,146	-0,031
190,042	-100,902	-0,225	-0,038
191,056	121,005	-0,301	-0,261
192,071	-92,556	-0,263	-0,051
193,086	452,718	-0,155	-0,239
194,100	-42,032	-0,243	-0,086
195,115	80,535	-0,126	-0,094
196,129	506,997	-0,174	-0,282
197,144	611,740	-0,216	-0,378
198,159	68,112	-0,138	-0,098
199,173	757,124	-0,059	-0,111
200,188	-200,000	-0,009	-0,244
201,202	80,236	-0,166	-0,124
202,217	78,439	-0,172	-0,128
203,232	123,611	-0,149	-0,130
204,246	800,000	-0,106	-0,276
205,261	498,178	-0,178	-0,286
206,275	56,770	-0,248	-0,168
207,290	-68,551	-0,116	-0,031
208,304	-147,726	-0,128	-0,007
209,319	89,730	-0,174	-0,135
210,334	-6,071	-0,303	-0,144
211,348	54,298	-0,243	-0,163
212,363	800,000	-0,058	-0,138
213,377	-42,952	-0,231	-0,081
214,392	323,351	-0,159	-0,211
215,407	-200,000	-0,002	-0,092
216,421	-26,901	-0,175	-0,071
217,436	73,347	-0,231	-0,168
218,450	79,173	-0,215	-0,160
219,465	256,695	-0,190	-0,227
220,480	3,669	-0,251	-0,127
221,494	-200,000	-0,037	-0,167
222,509	259,737	-0,189	-0,228
223,523	56,535	-0,205	-0,138
224,538	104,459	-0,085	-0,070
225,553	159,280	-0,148	-0,143
226,567	112,763	-0,262	-0,220
227,582	139,486	-0,078	-0,071
228,596	-23,224	-0,047	0,020
229,611	83,277	-0,218	-0,165
230,626	101,999	-0,210	-0,170
231,640	64,194	-0,226	-0,158
232,655	35,227	-0,314	-0,191
233,669	-47,382	-0,243	-0,082
234,684	153,044	-0,243	-0,231
235,699	29,843	-0,193	-0,114
236,713	2,539	-0,183	-0,092
237,728	-101,426	-0,106	0,018
238,742	1,944	-0,131	-0,065
239,757	542,504	-0,070	-0,117
240,772	-200,000	-0,032	-0,273
241,786	156,044	-0,176	-0,168
242,801	19,794	-0,158	-0,088
243,815	28,353	-0,144	-0,084
244,830	579,705	-0,049	-0,083
245,844	488,682	-0,160	-0,255
246,859	-25,080	-0,197	-0,081
247,874	126,430	-0,162	-0,142
248,888	287,405	-0,141	-0,178
249,903	243,821	-0,171	-0,200
250,917	84,498	-0,203	-0,154
251,932	-200,000	-0,167	0,000
252,947	121,628	-0,220	-0,190
253,961	-71,318	-0,154	0,040
254,976	-53,723	-0,266	-0,084
255,990	47,162	-0,204	-0,131
257,005	362,707	-0,135	-0,189
258,020	800,000	-0,107	-0,268
259,034	-23,327	-0,191	-0,079
260,049	39,700	-0,141	-0,087
261,063	99,440	-0,257	-0,206
262,078	198,402	-0,193	-0,205
263,093	-108,497	-0,293	-0,043
264,107	94,731	-0,150	-0,118
265,122	-200,000	-0,025	-0,183
266,136	23,235	-0,143	-0,081
267,151	313,458	-0,076	-0,099
268,166	-200,000	0,007	0,028
269,180	-200,000	-0,009	-0,193
270,195	56,169	-0,092	-0,062
271,209	151,925	-0,279	-0,264
272,224	147,719	-0,122	-0,113
273,239	425,561	-0,045	-0,068
274,253	-106,470	-0,176	-0,027
275,268	18,913	-0,120	-0,066
276,282	203,800	-0,091	-0,097
277,297	51,026	-0,285	-0,187
278,312	76,647	-0,167	-0,122
279,326	161,528	-0,052	-0,050
280,341	45,474	-0,073	-0,047
281,355	126,996	-0,129	-0,113
282,370	-118,335	-0,255	0,031
283,384	-45,395	-0,103	0,035
284,399	-37,102	-0,292	-0,108
285,414	168,040	-0,108	-0,106
286,428	60,770	-0,258	-0,177
287,443	94,356	-0,085	-0,067
288,457	255,376	-0,182	-0,216
289,472	135,353	-0,102	-0,092
290,487	-200,000	-0,001	-0,195
291,501	-12,307	-0,125	-0,056
292,516	161,487	-0,142	-0,138
293,530	-120,110	-0,126	-0,015
294,545	-134,020	-0,148	-0,012
295,560	34,482	-0,165	-0,099
296,574	-170,407	-0,300	-0,007
297,589	343,493	-0,152	-0,206
298,603	173,399	-0,169	-0,168
299,618	76,521	-0,241	-0,177
300,633	228,789	-0,179	-0,202
301,647	5,509	-0,105	-0,053
302,662	239,741	-0,132	-0,152
303,676	-67,124	-0,147	0,040
304,691	81,633	-0,161	-0,120
305,706	-60,700	-0,222	-0,064
306,720	-167,334	-0,193	-0,005
307,735	27,629	-0,146	-0,085
308,749	-146,195	-0,202	-0,012
309,764	800,000	-0,080	-0,178
310,779	800,000	-0,094	-0,243
311,793	157,715	-0,183	-0,175
312,808	711,437	-0,102	-0,188
313,822	800,000	-0,123	-0,245
314,837	201,873	-0,125	-0,133
315,852	356,972	-0,061	-0,084
316,866	122,268	-0,228	-0,196
317,881	101,575	-0,267	-0,214
318,895	250,525	-0,122	-0,143
319,910	527,167	-0,158	-0,258
320,925	-117,719	-0,274	-0,034
321,939	-26,571	-0,214	-0,086
322,954	-47,990	-0,027	-0,009
323,968	21,081	-0,124	-0,069
324,983	-82,250	-0,198	0,044
325,997	508,844	-0,128	-0,206
327,012	225,123	-0,114	-0,128
328,027	-144,654	-0,202	0,013
329,041	466,081	-0,112	-0,173
330,056	-200,000	-0,017	-0,112
331,070	409,535	-0,134	-0,196
332,085	-7,144	-0,055	-0,025
333,100	800,000	-0,070	-0,147
334,114	599,606	-0,077	-0,132
335,129	800,000	-0,079	-0,155
336,143	800,000	0,025	-0,051
337,158	-200,000	-0,034	-0,125
338,173	-200,000	0,023	-0,190
339,187	800,000	-0,054	-0,109
340,202	-45,630	-0,139	0,047
341,216	-141,604	-0,131	-0,009
342,231	503,802	-0,159	-0,254
343,246	-11,433	-0,294	-0,133
344,260	0,882	-0,110	0,054
345,275	-200,000	0,000	-0,064
346,289	63,593	-0,092	-0,064
347,304	430,120	-0,092	-0,137
348,319	85,180	-0,221	-0,167
349,333	295,948	-0,094	-0,118
350,348	-56,408	-0,196	-0,059
351,362	78,055	-0,175	-0,128
352,377	-200,000	-0,040	-0,127
353,392	800,000	-0,048	-0,126
354,406	800,000	-0,092	-0,199
355,421	209,744	1312,375	1415,714
356,435	161,437	1472,850	1416,231
