DTS Sentinel unit serial number:	SN410029Multiplexer serial number:	ORYXHardware model number:	OX2-SRSoftware version number:	ORYX F/W v4,00 Oryx Data Collector v3.7.2.0data status	okinstallation	B3 Nyhavnadifferential loss correction	single-endedforward channel	channel 1reverse channel	N/Adate	2023/12/02time	20:52:30forward acquisition time	300,00reverse acquisition time	0,00gamma	499,1914k internal	0,3201k external	0,3201temperature offset calibration	1,0000default loss term (dB/km)	0,3820temperature slope calibration	1,0000multiplexer offset coefficient	1,0000multiplexer slope coefficient	1,0000fibre end	0,00T internal ref (°C)	13,26T ext. ref 1 (°C)	-1,79T ext. ref 2 (°C)	-1,80length (m)	temperature (°C)	Stokes	anti-Stokes-744,400	123,583	-0,220	-0,201
-743,385	800,000	0,091	0,226
-742,371	-200,000	-0,028	-0,248
-741,356	800,000	0,112	0,324
-740,342	21,899	-0,193	-0,114
-739,327	-200,000	0,053	0,294
-738,312	240,676	-0,248	-0,302
-737,298	-200,000	-0,051	0,198
-736,283	331,612	-0,153	-0,215
-735,269	800,000	-0,093	0,265
-734,254	245,291	-0,135	-0,165
-733,239	-78,200	-0,210	0,052
-732,225	-200,000	-0,023	-0,138
-731,210	33,662	0,107	0,068
-730,196	-200,000	0,011	0,097
-729,181	-41,169	0,124	-0,046
-728,167	800,000	0,026	0,063
-727,152	-5,885	0,021	0,010
-726,137	-200,000	-0,052	0,277
-725,123	148,717	-0,108	-0,106
-724,108	323,072	-0,031	-0,043
-723,094	-114,257	-0,048	-0,007
-722,079	-82,186	0,060	0,014
-721,064	490,949	-0,079	-0,131
-720,050	119,208	-0,011	-0,010
-719,035	72,674	0,048	0,036
-718,021	800,000	0,048	0,099
-717,006	-2,422	-0,007	0,003
-715,991	-65,604	-0,185	0,054
-714,977	-200,000	0,044	-0,145
-713,962	162,315	0,112	-0,115
-712,948	647,708	0,077	0,144
-711,933	65,399	-0,061	0,045
-710,918	-200,000	0,029	0,129
-709,904	467,688	-0,095	-0,155
-708,889	9,845	-0,128	0,071
-707,875	259,851	-0,068	-0,085
-706,860	-37,337	0,120	-0,046
-705,845	10,244	-0,093	0,051
-704,831	-200,000	-0,003	0,019
-703,816	-200,000	-0,011	0,043
-702,802	-200,000	0,006	0,153
-701,787	-110,091	-0,176	-0,026
-700,772	800,000	0,051	-0,116
-699,758	-200,000	-0,016	0,072
-698,743	375,752	-0,028	0,041
-697,729	800,000	0,026	-0,064
-696,714	-100,734	0,045	-0,008
-695,699	405,988	-0,036	-0,056
-694,685	-200,000	0,016	-0,081
-693,670	513,538	0,080	-0,136
-692,656	800,000	-0,016	-0,037
-691,641	800,000	-0,052	-0,109
-690,627	303,237	0,073	-0,098
-689,612	-38,323	-0,021	0,008
-688,597	-104,334	-0,124	-0,021
-687,583	-99,130	-0,082	-0,015
-686,568	192,887	0,096	-0,106
-685,554	69,622	-0,052	0,039
-684,539	-28,486	-0,030	0,013
-683,524	105,585	-0,042	0,036
-682,510	800,000	0,021	-0,042
-681,495	-1,681	-0,081	-0,041
-680,481	-38,102	-0,109	-0,042
-679,466	-200,000	-0,018	-0,128
-678,451	147,867	-0,102	-0,100
-677,437	-10,426	-0,059	-0,028
-676,422	148,987	0,035	0,035
-675,408	69,919	0,034	0,026
-674,393	15,058	-0,021	0,012
-673,378	92,479	-0,078	-0,064
-672,364	-74,262	-0,157	-0,041
-671,349	-42,296	-0,069	0,025
-670,335	-17,731	-0,084	0,038
-669,320	708,734	-0,009	-0,017
-668,305	-200,000	0,015	0,051
-667,291	-50,916	0,025	0,008
-666,276	90,353	0,067	-0,054
-665,262	303,182	0,070	-0,095
-664,247	129,387	-0,068	-0,063
-663,232	-120,156	-0,056	0,007
-662,218	800,000	-0,020	-0,055
-661,203	85,006	0,069	0,055
-660,189	-152,712	-0,067	0,003
-659,174	-200,000	-0,036	-0,125
-658,159	487,636	-0,016	-0,026
-657,145	-16,840	-0,120	-0,055
-656,130	-200,000	0,019	0,154
-655,116	-4,559	0,162	0,081
-654,101	-200,000	0,009	0,104
-653,086	800,000	-0,009	0,019
-652,072	800,000	-0,022	0,052
-651,057	39,443	0,072	0,047
-650,043	800,000	-0,061	-0,144
-649,028	93,029	-0,074	-0,061
-648,014	800,000	-0,020	-0,047
-646,999	-200,000	0,026	0,103
-645,984	-96,809	0,110	-0,021
-644,970	-115,001	-0,042	0,006
-643,955	123,530	-0,083	-0,075
-642,941	636,786	-0,017	-0,032
-641,926	-31,789	-0,079	-0,032
-640,911	682,129	-0,076	0,144
-639,897	-78,308	-0,067	-0,017
-638,882	-200,000	-0,002	-0,042
-637,868	26,058	-0,173	0,104
-636,853	230,162	-0,019	-0,023
-635,838	-200,000	0,001	-0,058
-634,824	800,000	0,004	0,009
-633,809	577,410	0,039	0,069
-632,795	665,677	0,054	0,102
-631,780	33,019	-0,140	-0,088
-630,765	-27,158	-0,032	-0,014
-629,751	199,233	-0,095	-0,106
-628,736	238,346	0,100	-0,121
-627,722	-200,000	-0,027	-0,120
-626,707	237,267	-0,043	0,052
-625,692	800,000	0,021	-0,061
-624,678	-132,315	0,026	0,002
-623,663	-200,000	0,004	0,084
-622,649	-200,000	-0,006	-0,026
-621,634	53,458	0,070	0,048
-620,619	-70,998	-0,133	-0,036
-619,605	142,895	-0,105	-0,101
-618,590	-200,000	0,024	0,091
-617,576	-177,287	-0,035	-0,001
-616,561	800,000	-0,039	0,086
-615,546	-200,000	0,081	0,000
-614,532	-200,000	-0,000	-0,022
-613,517	-91,284	0,010	0,002
-612,503	31,462	0,129	0,080
-611,488	134,138	-0,058	-0,054
-610,474	262,417	0,058	0,073
-609,459	-200,000	0,002	-0,019
-608,444	-60,193	-0,081	-0,025
-607,430	800,000	-0,068	-0,138
-606,415	109,935	0,086	0,074
-605,401	-102,173	0,062	-0,011
-604,386	321,623	-0,004	0,005
-603,371	-200,000	0,049	0,172
-602,357	116,696	-0,059	0,052
-601,342	41,178	-0,054	0,036
-600,328	104,147	-0,175	-0,149
-599,313	-200,000	0,011	0,061
-598,298	-9,258	0,108	-0,052
-597,284	-113,948	-0,077	-0,011
-596,269	-200,000	0,006	-0,028
-595,255	794,275	0,024	-0,048
-594,240	54,511	-0,093	0,065
-593,225	-167,664	-0,047	0,001
-592,211	55,717	-0,094	0,066
-591,196	138,441	-0,069	0,065
-590,182	-112,189	-0,039	0,006
-589,167	-200,000	0,001	0,027
-588,152	332,621	0,029	0,040
-587,138	168,522	-0,087	-0,090
-586,123	-31,156	-0,012	0,005
-585,109	-36,435	0,074	0,029
-584,094	-61,290	0,051	-0,015
-583,079	-200,000	-0,007	-0,048
-582,065	-111,291	0,077	-0,011
-581,050	43,716	0,049	0,032
-580,036	-50,698	0,070	0,024
-579,021	800,000	-0,019	-0,051
-578,006	326,888	-0,037	-0,051
-576,992	-23,157	0,075	0,032
-575,977	-200,000	0,005	0,088
-574,963	-107,371	0,064	-0,010
-573,948	800,000	-0,041	0,121
-572,934	-200,000	0,059	-0,232
-571,919	800,000	-0,046	-0,102
-570,904	800,000	0,041	-0,091
-569,890	-44,310	-0,197	-0,071
-568,875	150,042	0,042	-0,042
-567,861	424,220	-0,066	-0,102
-566,846	624,940	0,053	-0,096
-565,831	195,304	-0,056	-0,061
-564,817	65,810	0,075	-0,055
-563,802	-95,637	-0,112	-0,021
-562,788	-200,000	-0,033	-0,109
-561,773	26,781	0,040	0,024
-560,758	800,000	-0,033	0,074
-559,744	800,000	0,039	0,104
-558,729	91,950	0,018	-0,014
-557,715	-200,000	-0,019	-0,122
-556,700	-200,000	0,001	-0,040
-555,685	-200,000	0,010	-0,067
-554,671	-200,000	-0,088	0,000
-553,656	-11,716	0,047	0,022
-552,642	-200,000	0,036	0,152
-551,627	187,740	0,081	-0,087
-550,612	115,167	-0,095	0,084
-549,598	780,053	-0,083	-0,165
-548,583	-55,812	-0,013	0,004
-547,569	-63,716	-0,016	-0,005
-546,554	-200,000	-0,008	0,198
-545,539	-85,934	0,042	-0,009
-544,525	-200,000	0,007	0,030
-543,510	207,586	0,078	0,088
-542,496	-158,692	0,118	0,005
-541,481	-24,866	-0,093	0,040
-540,466	139,588	-0,042	-0,040
-539,452	-200,000	0,009	-0,085
-538,437	-57,464	-0,064	-0,020
-537,423	-200,000	0,016	0,064
-536,408	-154,714	-0,109	0,005
-535,393	-200,000	0,007	0,066
-534,379	-200,000	0,021	-0,169
-533,364	800,000	-0,032	-0,072
-532,350	460,075	0,022	0,035
-531,335	-200,000	0,005	-0,067
-530,321	249,906	0,020	0,024
-529,306	-133,445	-0,069	-0,006
-528,291	-37,238	-0,042	0,016
-527,277	-200,000	-0,015	-0,048
-526,262	800,000	-0,084	-0,188
-525,248	405,646	0,074	0,113
-524,233	-200,000	0,017	-0,058
-523,218	39,565	-0,062	0,040
-522,204	336,523	-0,013	-0,018
-521,189	-200,000	0,008	-0,130
-520,175	19,044	-0,019	0,011
-519,160	-136,032	-0,159	-0,013
-518,145	800,000	0,032	-0,087
-517,131	96,275	-0,131	0,108
-516,116	27,556	0,206	0,125
-515,102	-200,000	-0,006	0,027
-514,087	-19,768	-0,094	0,042
-513,072	537,500	-0,055	-0,095
-512,058	281,069	-0,062	-0,080
-511,043	-21,635	0,080	-0,035
-510,029	277,626	-0,013	0,016
-509,014	800,000	0,036	0,077
-507,999	800,000	-0,049	0,120
-506,985	132,454	-0,148	-0,138
-505,970	-200,000	0,012	-0,084
-504,956	370,882	-0,053	0,078
-503,941	301,650	0,039	0,052
-502,926	800,000	0,017	-0,044
-501,912	210,074	-0,065	0,074
-500,897	299,735	-0,030	0,040
-499,883	101,515	-0,109	-0,091
-498,868	-200,000	0,023	0,158
-497,853	8,390	-0,110	0,060
-496,839	-200,000	0,001	-0,069
-495,824	-77,936	0,060	-0,015
-494,810	422,040	-0,101	0,156
-493,795	635,938	-0,012	-0,023
-492,781	-12,502	0,023	-0,011
-491,766	117,231	-0,053	-0,047
-490,751	454,134	-0,014	-0,023
-489,737	-200,000	0,003	0,017
-488,722	3,785	-0,108	0,057
-487,708	45,404	-0,038	0,025
-486,693	439,016	0,020	0,031
-485,678	-69,122	0,102	-0,028
-484,664	-200,000	0,006	-0,031
-483,649	24,687	0,022	0,013
-482,635	-200,000	-0,010	-0,033
-481,620	603,548	0,018	0,032
-480,605	264,995	0,102	0,128
-479,591	111,578	0,005	0,004
-478,576	177,028	0,047	-0,049
-477,562	8,554	0,103	-0,056
-476,547	800,000	-0,053	0,136
-475,532	-200,000	0,014	0,051
-474,518	-38,252	0,052	0,020
-473,503	234,809	0,066	0,078
-472,489	308,722	-0,020	0,028
-471,474	800,000	0,032	0,070
-470,459	-200,000	0,027	-0,242
-469,445	-127,730	-0,155	0,016
-468,430	-200,000	0,004	0,046
-467,416	119,260	-0,036	0,032
-466,401	4,053	0,111	0,058
-465,386	737,854	0,034	0,066
-464,372	-38,459	-0,069	0,026
-463,357	165,093	0,141	0,143
-462,343	800,000	-0,025	-0,058
-461,328	-200,000	0,015	-0,163
-460,313	800,000	-0,048	0,150
-459,299	111,975	0,094	0,082
-458,284	147,859	0,069	0,067
-457,270	149,979	0,031	0,031
-456,255	576,450	0,047	0,082
-455,241	-200,000	0,023	-0,073
-454,226	-200,000	-0,025	-0,135
-453,211	-200,000	-0,009	-0,073
-452,197	1,242	0,154	-0,079
-451,182	-108,005	-0,089	-0,014
-450,168	-200,000	-0,003	0,038
-449,153	-81,115	-0,049	0,011
-448,138	136,483	-0,051	-0,048
-447,124	-200,000	0,042	-0,204
-446,109	197,268	-0,068	-0,075
-445,095	93,976	-0,012	-0,010
-444,080	-67,296	0,120	0,034
-443,065	-30,274	-0,044	0,018
-442,051	36,153	0,032	-0,021
-441,036	74,862	0,133	0,100
-440,022	800,000	-0,062	-0,141
-439,007	117,497	-0,035	-0,031
-437,992	268,294	0,067	0,084
-436,978	133,375	-0,022	0,020
-435,963	72,016	0,020	-0,015
-434,949	227,019	-0,111	-0,130
-433,934	86,715	-0,043	-0,034
-432,919	193,717	0,062	-0,068
-431,905	-131,608	0,090	0,008
-430,890	77,718	-0,053	0,041
-429,876	678,289	-0,029	0,054
-428,861	53,089	0,149	0,102
-427,846	-200,000	0,020	-0,103
-426,832	-200,000	-0,058	-0,193
-425,817	203,684	-0,040	-0,044
-424,803	134,685	0,056	0,052
-423,788	100,233	-0,029	0,024
-422,773	154,795	0,062	0,061
-421,759	-200,000	-0,010	-0,084
-420,744	-68,129	-0,041	0,011
-419,730	800,000	-0,046	-0,121
-418,715	-59,222	0,067	0,021
-417,701	-86,178	0,092	0,020
-416,686	553,282	-0,018	-0,031
-415,671	-200,000	0,035	0,127
-414,657	-98,781	0,025	0,004
-413,642	107,052	0,055	0,047
-412,628	-200,000	0,010	-0,128
-411,613	-92,553	-0,060	-0,012
-410,598	66,500	-0,044	0,032
-409,584	-200,000	0,018	-0,077
-408,569	114,134	0,083	0,072
-407,555	-160,323	-0,108	0,004
-406,540	-23,394	-0,070	0,030
-405,525	212,582	0,012	-0,014
-404,511	-200,000	0,016	-0,058
-403,496	-24,007	0,170	0,073
-402,482	176,196	0,030	0,031
-401,467	-200,000	0,007	0,054
-400,452	-74,637	0,100	-0,026
-399,438	-200,000	-0,000	0,005
-398,423	-146,521	-0,087	-0,005
-397,409	800,000	0,005	-0,017
-396,394	255,314	0,057	-0,070
-395,379	102,719	0,051	-0,043
-394,365	-95,805	0,048	0,009
-393,350	-172,560	0,186	-0,004
-392,336	-125,856	0,004	-0,000
-391,321	86,679	-0,029	-0,023
-390,306	800,000	-0,005	0,014
-389,292	30,399	-0,088	-0,054
-388,277	626,561	0,021	0,038
-387,263	-160,626	0,075	-0,003
-386,248	66,102	0,072	-0,053
-385,233	145,815	0,139	-0,133
-384,219	-200,000	0,007	-0,131
-383,204	-200,000	-0,010	-0,048
-382,190	-64,194	-0,121	-0,035
-381,175	82,159	0,117	-0,091
-380,160	-4,503	-0,009	0,004
-379,146	277,079	0,055	0,070
-378,131	-200,000	0,000	-0,063
-377,117	766,900	0,089	-0,174
-376,102	800,000	-0,052	-0,105
-375,088	225,923	0,070	-0,082
-374,073	-200,000	-0,011	0,048
-373,058	543,046	0,084	0,145
-372,044	88,435	-0,006	0,005
-371,029	33,246	-0,073	0,045
-370,015	115,404	-0,060	0,053
-369,000	-200,000	0,012	0,085
-367,985	-172,727	-0,095	0,002
-366,971	260,250	-0,081	-0,101
-365,956	-28,980	-0,130	0,053
-364,942	169,585	0,092	0,094
-363,927	-159,405	0,127	0,005
-362,912	-104,335	-0,173	-0,029
-361,898	-200,000	0,033	-0,176
-360,883	106,063	-0,092	-0,078
-359,869	-29,615	-0,109	0,044
-358,854	-200,000	0,020	-0,068
-357,839	33,599	0,045	0,028
-356,825	53,393	0,093	0,064
-355,810	-170,227	0,064	-0,002
-354,796	-200,000	-0,030	-0,101
-353,781	800,000	0,032	-0,067
-352,766	-200,000	0,001	-0,052
-351,752	-200,000	-0,017	0,135
-350,737	668,971	-0,010	-0,019
-349,723	80,674	0,040	-0,031
-348,708	203,749	0,053	0,059
-347,693	-63,534	-0,094	0,028
-346,679	135,203	-0,031	-0,029
-345,664	-49,344	-0,018	0,006
-344,650	800,000	0,036	0,084
-343,635	-53,391	0,077	0,025
-342,620	800,000	0,023	0,057
-341,606	-200,000	-0,020	-0,085
-340,591	9,864	0,148	-0,080
-339,577	-200,000	-0,012	0,105
-338,562	-123,199	-0,177	0,020
-337,548	-70,237	-0,017	-0,005
-336,533	77,547	0,085	-0,065
-335,518	-53,217	-0,047	0,015
-334,504	-28,358	-0,029	0,012
-333,489	69,452	-0,029	0,021
-332,475	313,964	-0,019	0,026
-331,460	800,000	0,021	0,054
-330,445	126,727	-0,071	-0,064
-329,431	584,056	-0,081	0,143
-328,416	800,000	-0,032	0,088
-327,402	73,024	0,174	0,130
-326,387	118,915	-0,096	0,085
-325,372	-124,772	0,074	-0,008
-324,358	31,238	-0,069	0,042
-323,343	592,546	-0,054	-0,096
-322,329	-9,290	0,065	-0,031
-321,314	149,677	0,100	-0,097
-320,299	-68,520	0,093	0,026
-319,285	-200,000	-0,011	-0,109
-318,270	-200,000	0,002	-0,024
-317,256	-200,000	-0,013	-0,068
-316,241	-200,000	-0,024	-0,148
-315,226	-200,000	-0,006	0,051
-314,212	290,835	-0,039	0,051
-313,197	-200,000	-0,009	0,072
-312,183	-200,000	-0,014	0,171
-311,168	-17,168	-0,028	-0,013
-310,153	280,579	-0,041	-0,053
-309,139	-134,387	-0,038	0,003
-308,124	800,000	-0,075	-0,163
-307,110	-200,000	-0,023	0,094
-306,095	11,757	0,089	-0,049
-305,080	-185,560	-0,037	-0,000
-304,066	800,000	0,030	-0,093
-303,051	388,584	0,023	-0,034
-302,037	-200,000	0,010	-0,131
-301,022	-56,558	0,106	0,034
-300,008	-21,707	0,111	0,048
-298,993	44,530	0,150	0,099
-297,978	120,742	0,137	0,122
-296,964	-54,800	-0,126	0,040
-295,949	-108,876	-0,080	0,012
-294,935	-78,185	0,139	-0,034
-293,920	-200,000	0,006	0,102
-292,905	-103,114	-0,175	0,029
-291,891	800,000	0,024	-0,070
-290,876	-200,000	-0,037	-0,168
-289,862	286,958	-0,095	-0,124
-288,847	17,984	0,114	-0,065
-287,832	-200,000	0,000	-0,098
-286,818	23,239	0,017	0,010
-285,803	-78,969	0,069	-0,017
-284,789	98,375	-0,055	-0,045
-283,774	68,480	-0,132	0,097
-282,759	-200,000	-0,020	0,144
-281,745	800,000	0,054	0,121
-280,730	-131,776	-0,059	-0,005
-279,716	-200,000	-0,020	-0,105
-278,701	28,816	0,165	0,099
-277,686	65,046	0,066	0,048
-276,672	-200,000	-0,034	0,157
-275,657	-3,554	-0,145	0,072
-274,643	-35,852	0,013	-0,005
-273,628	310,032	-0,067	-0,090
-272,613	560,799	-0,035	-0,061
-271,599	633,740	0,058	0,105
-270,584	8,347	0,079	0,042
-269,570	-26,358	-0,148	0,062
-268,555	240,877	-0,029	0,035
-267,540	73,666	-0,061	0,045
-266,526	-69,156	0,092	0,025
-265,511	-19,243	-0,071	-0,031
-264,497	1,402	-0,056	0,028
-263,482	291,134	0,072	0,093
-262,467	-200,000	-0,051	0,163
-261,453	-200,000	0,001	-0,113
-260,438	129,394	0,078	-0,071
-259,424	60,434	-0,026	0,018
-258,409	-200,000	0,003	0,026
-257,395	800,000	-0,041	0,121
-256,380	175,454	-0,048	-0,050
-255,365	160,432	0,059	0,059
-254,351	-200,000	-0,013	0,123
-253,336	-200,000	-0,021	-0,097
-252,322	222,812	-0,077	-0,089
-251,307	-80,123	-0,040	0,009
-250,292	184,522	0,024	0,026
-249,278	-200,000	0,014	0,069
-248,263	-200,000	-0,028	0,091
-247,249	-129,275	-0,102	0,010
-246,234	-60,633	0,073	-0,022
-245,219	116,268	0,043	-0,037
-244,205	173,117	-0,100	-0,103
-243,190	161,492	0,060	-0,060
-242,176	-15,652	-0,057	0,026
-241,161	315,439	0,090	0,122
-240,146	-200,000	-0,024	0,167
-239,132	58,443	0,066	0,046
-238,117	771,804	-0,034	-0,066
-237,103	485,003	-0,061	-0,099
-236,088	-16,692	0,174	-0,078
-235,073	-200,000	0,001	0,080
-234,059	-200,000	-0,029	0,105
-233,044	800,000	0,121	0,275
-232,030	800,000	-0,044	-0,108
-231,015	800,000	-0,025	-0,055
-230,000	-24,376	0,038	-0,016
-228,986	250,253	-0,047	0,056
-227,971	8,691	-0,055	0,029
-226,957	373,292	0,046	-0,067
-225,942	102,948	0,035	0,029
-224,927	800,000	-0,006	0,016
-223,913	-200,000	0,007	0,025
-222,898	-200,000	0,014	0,055
-221,884	524,943	0,033	0,056
-220,869	-129,094	0,077	-0,008
-219,855	-113,501	0,062	-0,009
-218,840	302,807	0,066	0,087
-217,825	249,884	0,050	-0,061
-216,811	800,000	0,019	0,059
-215,796	254,354	-0,031	0,038
-214,782	-112,816	0,106	0,015
-213,767	161,970	0,086	0,086
-212,752	171,286	0,047	0,048
-211,738	278,693	-0,015	-0,020
-210,723	-41,072	-0,049	-0,018
-209,709	-200,000	-0,007	0,121
-208,694	352,653	-0,082	-0,116
-207,679	434,543	0,028	0,044
-206,665	66,679	-0,022	0,016
-205,650	431,650	0,060	-0,093
-204,636	247,036	0,015	0,018
-203,621	-175,659	-0,048	0,001
-202,606	-129,677	-0,102	-0,010
-201,592	-159,284	0,111	0,004
-200,577	43,029	-0,110	-0,071
-199,563	321,286	-0,055	0,075
-198,548	522,332	0,079	-0,133
-197,533	800,000	0,064	-0,126
-196,519	-110,796	0,150	0,022
-195,504	501,540	-0,043	0,071
-194,490	800,000	0,067	-0,147
-193,475	-49,676	-0,195	-0,066
-192,460	709,696	-0,026	0,050
-191,446	-200,000	-0,033	0,108
-190,431	167,751	0,100	0,101
-189,417	-200,000	0,018	0,084
-188,402	122,640	0,045	-0,040
-187,387	534,689	-0,085	-0,144
-186,373	80,633	0,041	-0,031
-185,358	142,439	0,055	-0,052
-184,344	-200,000	-0,001	0,034
-183,329	180,170	0,104	0,109
-182,315	-200,000	-0,013	0,051
-181,300	40,497	-0,079	0,051
-180,285	-112,316	-0,110	-0,015
-179,271	127,389	0,025	0,022
-178,256	260,297	-0,028	0,034
-177,242	3,115	0,084	0,043
-176,227	209,485	0,019	-0,021
-175,212	39,666	0,183	0,116
-174,198	659,763	-0,044	0,081
-173,183	-200,000	-0,009	0,081
-172,169	-31,349	-0,038	-0,015
-171,154	-113,579	-0,188	-0,026
-170,139	28,045	-0,083	0,050
-169,125	-83,609	0,173	0,039
-168,110	-67,313	0,083	-0,023
-167,096	491,470	0,068	0,111
-166,081	-154,544	0,058	0,003
-165,066	-33,903	0,029	0,011
-164,052	152,081	0,018	0,018
-163,037	7,779	0,087	-0,046
-162,023	-134,795	-0,064	-0,005
-161,008	38,297	0,023	0,015
-159,993	195,158	-0,021	-0,023
-158,979	-200,000	-0,001	-0,146
-157,964	224,797	0,105	-0,121
-156,950	-12,281	-0,122	-0,057
-155,935	-75,401	0,049	0,012
-154,920	-200,000	-0,026	-0,116
-153,906	-143,905	0,030	-0,002
-152,891	560,428	-0,062	0,106
-151,877	-51,097	-0,084	0,028
-150,862	-40,939	0,094	-0,035
-149,847	-200,000	0,013	0,051
-148,833	-48,231	-0,138	0,047
-147,818	645,322	-0,119	0,216
-146,804	800,000	-0,048	0,104
-145,789	69,855	-0,073	0,054
-144,775	646,964	0,049	0,088
-143,760	207,377	0,058	0,064
-142,745	-149,301	0,025	-0,001
-141,731	265,255	0,116	-0,144
-140,716	800,000	0,021	0,052
-139,702	800,000	0,005	0,013
-138,687	-200,000	0,001	0,067
-137,672	-60,249	0,109	0,033
-136,658	399,496	0,052	-0,077
-135,643	800,000	-0,023	0,048
-134,629	-200,000	0,011	0,068
-133,614	625,360	-0,103	0,186
-132,599	27,121	0,104	0,062
-131,585	160,458	-0,094	0,093
-130,570	-99,717	0,102	-0,018
-129,556	224,733	-0,083	-0,096
-128,541	-15,468	-0,090	-0,041
-127,526	800,000	-0,023	-0,064
-126,512	-200,000	-0,003	0,107
-125,497	304,353	0,048	0,064
-124,483	227,278	-0,053	-0,061
-123,468	-46,786	0,097	0,033
-122,453	800,000	-0,039	-0,109
-121,439	-148,449	0,096	0,005
-120,424	-200,000	-0,001	-0,053
-119,410	235,556	-0,063	0,074
-118,395	68,511	0,134	-0,098
-117,380	800,000	-0,039	0,097
-116,366	-200,000	0,001	0,024
-115,351	-167,623	0,082	0,002
-114,337	116,580	-0,068	-0,059
-113,322	-36,880	0,040	0,015
-112,307	264,836	-0,059	0,073
-111,293	-4,402	0,138	0,067
-110,278	78,246	-0,061	-0,046
-109,264	-200,000	0,004	-0,089
-108,249	-200,000	-0,027	0,172
-107,234	-200,000	0,037	0,138
-106,220	800,000	-0,014	0,040
-105,205	-200,000	-0,005	0,031
-104,191	-119,373	0,121	0,015
-103,176	-48,820	0,117	-0,040
-102,162	-200,000	0,009	0,100
-101,147	-200,000	-0,019	0,094
-100,132	338,918	-0,057	0,079
-99,118	167,252	0,057	-0,057
-98,103	-53,469	-0,043	0,014
-97,089	215,401	0,045	0,051
-96,074	-63,204	0,262	0,076
-95,059	78,330	0,146	-0,110
-94,045	20,390	0,104	-0,059
-93,030	89,573	-0,060	0,048
-92,016	-200,000	0,012	0,065
-91,001	-200,000	-0,009	-0,064
-89,986	-200,000	0,030	0,170
-88,972	623,019	0,093	0,168
-87,957	-71,130	-0,130	0,034
-86,943	800,000	0,027	-0,053
-85,928	338,752	-0,069	-0,095
-84,913	-22,731	-0,109	-0,047
-83,899	281,373	0,089	-0,113
-82,884	45,737	-0,036	0,024
-81,870	293,195	0,073	0,095
-80,855	390,276	0,033	-0,048
-79,840	-200,000	0,033	0,138
-78,826	800,000	-0,015	0,037
-77,811	-48,995	-0,116	0,039
-76,797	-145,024	0,044	0,003
-75,782	-200,000	-0,027	0,141
-74,767	-3,642	-0,120	0,059
-73,753	218,969	0,092	0,105
-72,738	234,711	0,050	0,059
-71,724	800,000	-0,074	0,174
-70,709	-200,000	0,011	-0,095
-69,694	-12,653	-0,104	-0,048
-68,680	800,000	0,040	0,079
-67,665	-93,238	-0,070	0,014
-66,651	391,887	0,070	-0,103
-65,636	-200,000	-0,003	0,052
-64,622	-200,000	-0,015	-0,111
-63,607	-119,415	-0,084	0,010
-62,592	-200,000	0,017	0,090
-61,578	222,708	-0,025	0,029
-60,563	-79,435	-0,071	-0,017
-59,549	-200,000	-0,012	0,061
-58,534	-56,176	-1,613	-0,505
-57,519	372,913	-1,306	-1,885
-56,505	-200,000	-0,493	-4,518
-55,490	193,548	0,962	1,032
-54,476	800,000	4,997	11,409
-53,461	-200,000	19,050	320,620
-52,446	-200,000	740,942	2334,758
-51,432	572,707	1655,781	2868,549
-50,417	78,165	1671,363	1261,587
-49,403	21,232	1544,212	885,505
-48,388	15,162	1466,447	811,385
-47,373	17,974	1456,962	819,702
-46,359	16,692	1446,776	807,788
-45,344	13,379	1442,015	789,225
-44,330	13,311	1440,135	787,838
-43,315	13,319	1438,468	786,933
-42,300	13,354	1436,471	785,979
-41,286	13,340	1435,599	785,401
-40,271	13,275	1434,151	784,270
-39,257	13,292	1432,629	783,484
-38,242	13,304	1431,769	783,041
-37,227	13,334	1430,506	782,463
-36,213	13,355	1429,132	781,782
-35,198	13,349	1428,076	781,142
-34,184	13,364	1427,077	780,638
-33,169	13,326	1425,520	779,575
-32,154	13,360	1424,576	779,189
-31,140	13,401	1423,173	778,585
-30,125	13,355	1422,240	777,825
-29,111	13,416	1421,094	777,454
-28,096	13,352	1419,989	776,517
-27,082	13,294	1418,871	775,599
-26,067	13,293	1417,822	774,992
-25,052	13,295	1416,564	774,281
-24,038	13,275	1415,705	773,689
-23,023	13,268	1414,677	773,066
-22,009	13,277	1413,627	772,502
-20,994	13,295	1412,668	772,030
-19,979	13,289	1411,843	771,519
-18,965	13,270	1410,774	770,819
-17,950	13,220	1409,958	770,105
-16,936	13,239	1409,075	769,681
-15,921	13,206	1407,923	768,870
-14,906	13,245	1406,780	768,398
-13,892	13,167	1406,108	767,634
-12,877	13,178	1405,190	767,156
-11,863	13,222	1404,278	766,828
-10,848	13,146	1403,596	766,075
-9,833	13,153	1402,703	765,591
-8,819	13,125	1401,728	764,895
-7,804	13,081	1401,014	764,271
-6,790	13,122	1399,833	763,788
-5,775	13,098	1398,885	763,126
-4,760	13,163	1397,546	762,666
-3,746	13,114	1397,016	762,121
-2,731	13,055	1396,268	761,412
-1,717	13,085	1395,191	760,932
-0,702	13,067	1393,186	759,724
0,313	16,967	1310,129	732,486
1,327	33,206	703,795	431,026
2,342	51,115	123,316	82,627
3,356	2,505	16,714	8,536
4,371	-4,823	3,335	1,621
5,386	-47,620	0,707	0,241
6,400	-200,000	0,066	0,395
7,415	202,641	-0,164	-0,179
8,429	17,204	-0,299	-0,167
9,444	106,215	-0,282	-0,236
10,459	87,872	-0,310	-0,243
11,473	98,077	-0,270	-0,220
12,488	-66,905	-0,246	-0,068
13,502	1,039	-0,313	-0,158
14,517	142,369	-0,311	-0,291
15,531	-38,613	-0,393	-0,146
16,546	92,257	-0,266	-0,212
17,561	247,976	-0,301	-0,361
18,575	-141,178	-0,186	-0,013
19,590	35,361	-0,191	-0,118
20,604	-37,611	-0,263	0,099
21,619	41,507	-0,452	-0,288
22,634	28,559	-0,491	-0,293
23,648	117,614	-0,351	-0,305
24,663	101,273	-0,433	-0,356
25,677	81,350	-0,269	-0,205
26,692	-7,885	-0,429	-0,203
27,707	-48,846	-0,401	-0,135
28,721	98,250	-0,403	-0,328
29,736	40,702	-0,401	-0,255
30,750	117,740	-0,362	-0,315
31,765	187,122	-0,307	-0,323
32,780	93,414	-0,340	-0,271
33,794	-74,652	-0,406	-0,102
34,809	94,236	-0,281	-0,225
35,823	86,394	-0,388	-0,301
36,838	73,991	-0,450	-0,332
37,853	93,187	-0,320	-0,255
38,867	66,397	-0,428	-0,307
39,882	76,989	-0,366	-0,274
40,896	41,596	-0,339	-0,216
41,911	312,211	-0,269	-0,357
42,926	-36,657	-0,439	-0,166
43,940	0,550	-0,298	-0,150
44,955	177,311	-0,323	-0,331
45,969	-29,368	-0,323	-0,130
46,984	120,566	-0,220	-0,193
47,999	15,532	-0,240	-0,133
49,013	64,182	-0,396	-0,281
50,028	162,377	-0,297	-0,294
51,042	146,772	-0,354	-0,335
52,057	31,597	-0,406	-0,245
53,071	253,551	-0,341	-0,411
54,086	84,024	-0,335	-0,257
55,101	61,527	-0,306	-0,214
56,115	323,120	-0,207	-0,278
57,130	195,402	-0,331	-0,355
58,144	90,548	-0,372	-0,293
59,159	31,130	-0,502	-0,302
60,174	68,699	-0,327	-0,236
61,188	55,368	-0,274	-0,186
62,203	25,490	-0,308	-0,180
63,217	120,658	-0,322	-0,281
64,232	151,792	-0,203	-0,194
65,247	-52,516	-0,489	-0,158
66,261	8,774	-0,443	-0,234
67,276	-26,201	-0,308	-0,127
68,290	0,924	-0,310	-0,156
69,305	18,606	-0,326	-0,183
70,320	135,027	-0,338	-0,309
71,334	467,419	-0,129	-0,204
72,349	97,453	-0,308	-0,249
73,363	61,551	-0,290	-0,203
74,378	-34,150	-0,304	-0,117
75,393	85,247	-0,284	-0,219
76,407	71,254	-0,260	-0,190
77,422	51,323	-0,353	-0,235
78,436	-14,446	-0,348	-0,157
79,451	221,934	-0,168	-0,190
80,466	-5,530	-0,440	-0,211
81,480	73,987	-0,303	-0,223
82,495	-58,113	-0,311	-0,095
83,509	121,470	-0,280	-0,245
84,524	94,623	-0,226	-0,181
85,539	-6,980	-0,185	-0,088
86,553	-104,961	-0,259	-0,041
87,568	102,178	-0,171	-0,140
88,582	47,898	-0,247	-0,161
89,597	100,349	-0,229	-0,187
90,611	-21,862	-0,256	-0,109
91,626	-65,264	-0,251	-0,070
92,641	-39,746	-0,332	-0,121
93,655	-11,533	-0,245	-0,113
94,670	101,125	-0,308	-0,251
95,684	-0,612	-0,439	-0,218
96,699	91,445	-0,364	-0,287
97,714	10,946	-0,375	-0,201
98,728	115,649	-0,280	-0,241
99,743	115,508	-0,324	-0,277
100,757	330,166	-0,212	-0,287
101,772	60,507	-0,254	-0,176
102,787	173,328	-0,245	-0,248
103,801	78,665	-0,379	-0,284
104,816	75,999	-0,330	-0,244
105,830	99,500	-0,241	-0,195
106,845	29,005	-0,262	-0,155
107,860	74,278	-0,277	-0,204
108,874	308,526	-0,286	-0,376
109,889	-15,914	-0,408	-0,181
110,903	242,964	-0,259	-0,305
111,918	-38,843	-0,342	-0,126
112,933	-4,213	-0,247	-0,119
113,947	202,282	-0,158	-0,171
114,962	-87,809	-0,229	-0,048
115,976	6,394	-0,178	-0,093
116,991	10,970	-0,376	-0,201
118,006	126,360	-0,157	-0,140
119,020	-3,114	-0,435	-0,212
120,035	-165,054	-0,199	-0,006
121,049	-7,379	-0,243	-0,115
122,064	53,476	-0,204	-0,137
123,079	36,234	-0,250	-0,154
124,093	88,592	-0,244	-0,190
125,108	24,128	-0,285	-0,165
126,122	83,727	-0,174	-0,133
127,137	-183,921	-0,100	-0,001
128,151	491,170	-0,137	-0,220
129,166	163,152	-0,191	-0,188
130,181	216,188	-0,217	-0,241
131,195	104,241	-0,230	-0,189
132,210	62,207	-0,337	-0,235
133,224	29,989	-0,334	-0,199
134,239	248,327	-0,211	-0,250
135,254	-56,960	-0,243	-0,075
136,268	327,542	-0,190	-0,256
137,283	129,287	-0,204	-0,182
138,297	152,238	-0,240	-0,229
139,312	299,578	-0,101	-0,130
140,327	214,186	-0,259	-0,287
141,341	-29,637	-0,251	-0,100
142,356	102,720	-0,148	-0,121
143,370	89,003	-0,280	-0,217
144,385	289,417	-0,189	-0,240
145,400	376,355	-0,207	-0,296
146,414	126,215	-0,295	-0,261
147,429	95,636	-0,261	-0,208
148,443	89,034	-0,255	-0,198
149,458	314,218	-0,166	-0,219
150,473	-16,609	-0,270	-0,119
151,487	-26,247	-0,366	-0,149
152,502	241,075	-0,190	-0,222
153,516	12,089	-0,322	-0,172
154,531	55,271	-0,173	-0,116
155,546	-66,328	-0,236	-0,065
156,560	26,911	-0,175	-0,102
157,575	196,905	-0,139	-0,148
158,589	302,317	-0,174	-0,225
159,604	269,388	-0,233	-0,286
160,619	-34,326	-0,302	-0,115
161,633	83,143	-0,332	-0,252
162,648	40,100	-0,234	-0,147
163,662	128,936	-0,235	-0,209
164,677	2,952	-0,270	-0,136
165,692	110,706	-0,213	-0,179
166,706	253,887	-0,202	-0,242
167,721	142,852	-0,194	-0,180
168,735	60,382	-0,182	-0,125
169,750	31,467	-0,216	-0,129
170,764	161,144	-0,096	-0,094
171,779	186,099	-0,152	-0,158
172,794	232,301	-0,202	-0,231
173,808	800,000	-0,122	-0,261
174,823	298,291	-0,179	-0,230
175,837	-19,852	-0,264	-0,113
176,852	94,778	-0,249	-0,197
177,867	-25,270	-0,275	-0,113
178,881	-3,298	-0,270	-0,131
179,896	48,221	-0,136	-0,089
180,910	146,866	-0,201	-0,189
181,925	353,803	-0,172	-0,238
182,940	90,771	-0,236	-0,184
183,954	36,356	-0,283	-0,173
184,969	-89,791	-0,213	-0,043
185,983	43,937	-0,188	-0,120
186,998	-157,484	-0,165	0,007
188,013	-107,786	-0,224	-0,034
189,027	287,158	-0,102	-0,129
190,042	-22,779	-0,242	-0,101
191,056	42,760	-0,232	-0,147
192,071	40,463	-0,241	-0,151
193,086	800,000	-0,098	-0,229
194,100	-15,260	-0,252	-0,112
195,115	81,024	-0,245	-0,183
196,129	113,306	-0,126	-0,106
197,144	54,930	-0,247	-0,165
198,159	188,871	-0,271	-0,283
199,173	-200,000	-0,044	-0,251
200,188	70,412	-0,167	-0,120
201,202	110,807	-0,129	-0,108
202,217	-174,347	-0,196	-0,004
203,232	-22,378	-0,150	-0,063
204,246	95,404	-0,314	-0,248
205,261	14,438	-0,222	-0,120
206,275	800,000	-0,111	-0,237
207,290	-45,310	-0,144	-0,049
208,304	-200,000	-0,069	-0,235
209,319	78,473	-0,196	-0,145
210,334	77,238	-0,127	-0,094
211,348	-200,000	-0,037	-0,196
212,363	-61,019	-0,242	-0,071
213,377	301,426	-0,140	-0,179
214,392	37,059	-0,325	-0,199
215,407	315,641	-0,093	-0,122
216,421	-70,981	-0,240	-0,062
217,436	-110,355	-0,145	-0,021
218,450	4,769	-0,217	-0,110
219,465	129,579	-0,157	-0,139
220,480	93,789	-0,211	-0,166
221,494	40,559	-0,207	-0,129
222,509	30,770	-0,186	-0,110
223,523	133,613	-0,162	-0,145
224,538	12,676	-0,188	-0,100
225,553	9,146	-0,150	-0,079
226,567	-77,502	-0,229	-0,055
227,582	-36,527	-0,136	0,051
228,596	214,127	-0,141	-0,155
229,611	-144,387	-0,187	-0,012
230,626	-26,891	-0,226	-0,091
231,640	97,502	-0,219	-0,174
232,655	140,615	-0,230	-0,210
233,669	2,979	-0,226	-0,113
234,684	93,531	-0,189	-0,148
235,699	96,779	-0,068	-0,054
236,713	-122,968	-0,101	-0,011
237,728	512,807	-0,094	-0,152
238,742	800,000	-0,160	-0,331
239,757	47,389	-0,256	-0,165
240,772	157,067	-0,279	-0,268
241,786	-200,000	-0,037	-0,226
242,801	488,773	-0,104	-0,166
243,815	800,000	-0,098	-0,208
244,830	167,120	-0,162	-0,160
245,844	-25,759	-0,143	-0,058
246,859	-46,444	-0,274	-0,092
247,874	800,000	-0,086	-0,169
248,888	59,161	-0,182	-0,124
249,903	571,582	-0,099	-0,167
250,917	22,205	-0,132	-0,075
251,932	64,318	-0,158	-0,110
252,947	-131,829	-0,236	-0,021
253,961	100,025	-0,190	-0,152
254,976	43,524	-0,133	-0,084
255,990	105,847	-0,178	-0,146
257,005	217,522	-0,158	-0,174
258,020	-200,000	-0,009	-0,200
259,034	-74,054	-0,105	-0,026
260,049	-104,539	-0,141	0,022
261,063	800,000	-0,170	-0,334
262,078	51,398	-0,223	-0,147
263,093	300,327	-0,188	-0,240
264,107	222,776	-0,090	-0,101
265,122	-200,000	0,011	-0,161
266,136	-179,570	-0,140	-0,002
267,151	800,000	-0,111	-0,226
268,166	-46,290	-0,260	-0,088
269,180	12,120	-0,142	-0,076
270,195	240,718	-0,156	-0,180
271,209	22,699	-0,127	-0,072
272,224	191,046	-0,127	-0,132
273,239	72,423	-0,199	-0,143
274,253	-200,000	-0,007	-0,112
275,268	25,551	-0,075	-0,043
276,282	386,497	-0,102	-0,146
277,297	-23,735	-0,055	-0,023
278,312	148,403	-0,158	-0,147
279,326	383,933	-0,160	-0,228
280,341	71,350	-0,155	-0,111
281,355	-150,975	-0,086	-0,004
282,370	106,864	-0,259	-0,212
283,384	800,000	-0,120	-0,237
284,399	7,557	-0,098	-0,051
285,414	-200,000	-0,052	-0,160
286,428	-14,499	-0,106	-0,047
287,443	370,316	-0,141	-0,197
288,457	462,906	-0,106	-0,164
289,472	14,491	-0,214	-0,115
290,487	-200,000	-0,061	-0,230
291,501	231,633	-0,244	-0,277
292,516	-42,705	-0,264	-0,092
293,530	105,252	-0,205	-0,167
294,545	-160,524	-0,147	-0,005
295,560	-66,495	-0,292	-0,079
296,574	-16,465	-0,248	-0,108
297,589	66,866	-0,205	-0,143
298,603	-32,425	-0,243	-0,093
299,618	16,007	-0,258	-0,140
300,633	-161,769	-0,120	-0,004
301,647	-67,247	-0,155	-0,042
302,662	263,872	-0,086	0,103
303,676	-42,064	-0,120	0,042
304,691	-123,214	-0,286	-0,031
305,706	196,206	-0,120	-0,127
306,720	-140,530	-0,239	-0,017
307,735	13,599	-0,245	-0,131
308,749	-140,235	-0,097	-0,007
309,764	-69,318	-0,249	-0,065
310,779	244,971	-0,127	-0,148
311,793	800,000	-0,089	-0,228
312,808	-200,000	-0,043	-0,171
313,822	-9,784	-0,234	-0,107
314,837	12,010	-0,168	-0,089
315,852	105,046	-0,170	0,138
316,866	200,470	-0,067	0,071
317,881	-57,881	-0,092	0,027
318,895	800,000	-0,098	-0,242
319,910	21,355	-0,150	-0,084
320,925	300,429	-0,092	-0,117
321,939	14,914	-0,097	-0,052
322,954	-95,518	-0,157	0,029
323,968	60,099	-0,132	0,090
324,983	-68,067	-0,077	0,021
325,997	62,544	-0,174	-0,120
327,012	372,851	-0,243	-0,340
328,027	617,866	-0,159	-0,276
329,041	800,000	-0,021	0,057
330,056	-12,474	-0,110	-0,049
331,070	78,270	-0,209	-0,153
332,085	204,075	-0,066	-0,070
333,100	121,422	-0,118	-0,101
334,114	197,669	-0,116	-0,122
335,129	-95,224	-0,089	0,016
336,143	301,133	-0,104	-0,132
337,158	347,997	-0,080	-0,109
338,173	51,304	-0,081	0,053
339,187	-59,702	-0,180	-0,053
340,202	673,707	-0,040	-0,072
341,216	98,069	-0,162	-0,128
342,231	137,418	-0,142	-0,127
343,246	229,700	-0,203	-0,228
344,260	800,000	-0,034	-0,084
345,275	-6,396	0,018	0,009
346,289	-200,000	0,012	-0,115
347,304	-200,000	0,029	-0,166
348,319	-106,877	-0,207	-0,031
349,333	538,414	-0,148	-0,243
350,348	358,332	-0,087	-0,119
351,362	-87,533	-0,227	0,047
352,377	33,084	-0,095	-0,056
353,392	-200,000	-0,032	-0,121
354,406	231,303	-0,130	-0,146
355,421	209,103	1312,346	1411,532
356,435	160,919	1472,785	1412,019
