DTS Sentinel unit serial number:	SN410029Multiplexer serial number:	ORYXHardware model number:	OX2-SRSoftware version number:	ORYX F/W v4,00 Oryx Data Collector v3.7.2.0data status	okinstallation	B3 Nyhavnadifferential loss correction	single-endedforward channel	channel 1reverse channel	N/Adate	2023/12/01time	20:07:30forward acquisition time	300,00reverse acquisition time	0,00gamma	499,1914k internal	0,3198k external	0,3198temperature offset calibration	1,0000default loss term (dB/km)	0,3820temperature slope calibration	1,0000multiplexer offset coefficient	1,0000multiplexer slope coefficient	1,0000fibre end	0,00T internal ref (°C)	15,75T ext. ref 1 (°C)	1,42T ext. ref 2 (°C)	1,41length (m)	temperature (°C)	Stokes	anti-Stokes-744,400	800,000	-0,146	-0,307
-743,385	-200,000	-0,024	0,234
-742,371	800,000	-0,115	-0,250
-741,356	-200,000	-0,041	0,360
-740,342	80,387	-0,169	-0,132
-739,327	-200,000	0,065	0,267
-738,312	315,133	-0,184	-0,254
-737,298	800,000	0,092	0,199
-736,283	10,778	-0,355	-0,196
-735,269	-200,000	0,006	0,461
-734,254	269,186	-0,176	-0,226
-733,239	-60,747	-0,198	0,061
-732,225	281,751	-0,241	-0,315
-731,210	-28,607	0,106	0,044
-730,196	800,000	-0,027	-0,080
-729,181	38,923	0,055	-0,036
-728,167	45,819	-0,098	-0,066
-727,152	-43,607	0,072	0,026
-726,137	-185,017	-0,098	0,001
-725,123	145,239	-0,105	-0,102
-724,108	-200,000	-0,027	-0,113
-723,094	347,803	-0,119	-0,171
-722,079	296,459	-0,095	-0,127
-721,064	146,811	0,143	-0,140
-720,050	-200,000	-0,033	-0,114
-719,035	478,067	-0,057	-0,095
-718,021	800,000	0,022	0,064
-717,006	69,560	-0,051	-0,038
-715,991	185,406	0,079	-0,085
-714,977	72,357	-0,098	-0,074
-713,962	-92,830	-0,082	-0,017
-712,948	727,979	0,110	0,214
-711,933	210,578	-0,094	0,107
-710,918	197,431	0,043	0,047
-709,904	-180,953	-0,099	0,001
-708,889	800,000	-0,028	-0,059
-707,875	-200,000	-0,018	-0,119
-706,860	446,904	0,050	-0,081
-705,845	-200,000	-0,015	-0,109
-704,831	226,150	-0,057	-0,067
-703,816	-15,782	0,030	0,014
-702,802	131,179	-0,056	0,052
-701,787	-200,000	0,013	-0,141
-700,772	17,687	0,112	-0,065
-699,758	-46,755	-0,049	-0,017
-698,743	-47,816	0,081	0,028
-697,729	-157,790	0,135	0,006
-696,714	134,405	0,058	-0,055
-695,699	80,950	-0,020	0,015
-694,685	-13,309	-0,100	-0,047
-693,670	171,579	-0,045	-0,047
-692,656	134,122	0,044	-0,041
-691,641	-151,232	0,174	0,009
-690,627	-39,847	0,199	0,075
-689,612	-200,000	0,037	0,158
-688,597	57,130	-0,124	0,088
-687,583	346,004	-0,040	-0,058
-686,568	-151,081	0,075	-0,004
-685,554	-136,032	0,006	-0,001
-684,539	-166,274	0,079	0,002
-683,524	-81,657	0,065	-0,015
-682,510	-74,069	-0,072	-0,019
-681,495	-131,330	-0,151	-0,014
-680,481	-2,864	-0,071	0,036
-679,466	71,668	-0,044	0,033
-678,451	149,227	0,070	-0,068
-677,437	-200,000	0,007	0,080
-676,422	152,999	-0,091	0,090
-675,408	-7,164	-0,122	-0,060
-674,393	104,942	-0,078	0,067
-673,378	-13,039	-0,162	-0,076
-672,364	-58,474	-0,124	-0,039
-671,349	-121,714	-0,024	0,003
-670,335	173,863	-0,046	-0,048
-669,320	800,000	-0,039	0,084
-668,305	235,948	-0,116	0,140
-667,291	232,077	-0,049	-0,058
-666,276	279,666	0,027	-0,035
-665,262	-200,000	-0,052	-0,171
-664,247	-182,995	-0,018	-0,000
-663,232	409,299	-0,034	-0,052
-662,218	202,321	0,096	-0,108
-661,203	-200,000	0,008	0,045
-660,189	108,431	-0,122	-0,106
-659,174	-106,358	0,110	0,018
-658,159	84,098	-0,103	-0,082
-657,145	-49,358	0,112	-0,038
-656,130	14,536	-0,091	-0,052
-655,116	800,000	-0,024	0,064
-654,101	-117,321	-0,124	0,016
-653,086	222,980	0,100	-0,118
-652,072	127,125	0,067	-0,062
-651,057	-200,000	-0,014	-0,070
-650,043	690,064	-0,080	-0,152
-649,028	-200,000	-0,022	0,089
-648,014	709,727	-0,051	0,099
-646,999	54,428	-0,087	0,060
-645,984	57,110	0,004	-0,003
-644,970	312,015	0,072	0,098
-643,955	-120,301	-0,069	-0,008
-642,941	653,100	0,049	-0,092
-641,926	-115,720	-0,133	-0,018
-640,911	45,826	-0,111	0,075
-639,897	-200,000	0,005	0,052
-638,882	46,764	0,108	-0,072
-637,868	800,000	0,035	-0,098
-636,853	-200,000	0,000	-0,096
-635,838	327,733	-0,053	-0,074
-634,824	-200,000	-0,024	-0,117
-633,809	25,247	0,029	0,017
-632,795	-85,833	-0,103	-0,023
-631,780	-200,000	0,022	0,114
-630,765	-77,242	-0,087	0,022
-629,751	602,923	0,026	0,047
-628,736	487,009	-0,068	-0,113
-627,722	178,657	-0,075	-0,080
-626,707	-200,000	0,024	0,090
-625,692	221,915	0,028	-0,033
-624,678	109,360	0,186	0,162
-623,663	-34,057	-0,081	-0,032
-622,649	-200,000	0,023	-0,103
-621,634	-200,000	-0,003	-0,113
-620,619	776,897	-0,048	-0,095
-619,605	-200,000	-0,018	0,062
-618,590	-200,000	0,004	0,036
-617,576	240,194	0,048	0,059
-616,561	-81,441	-0,131	0,031
-615,546	800,000	0,044	-0,125
-614,532	-48,310	0,082	-0,029
-613,517	376,444	-0,063	0,094
-612,503	-200,000	-0,013	-0,066
-611,488	11,477	-0,055	-0,031
-610,474	-74,512	-0,018	0,005
-609,459	-200,000	0,034	-0,123
-608,444	62,228	-0,113	-0,081
-607,430	115,175	0,102	-0,090
-606,415	220,642	-0,129	0,150
-605,401	-72,053	0,160	0,043
-604,386	-200,000	0,026	0,190
-603,371	592,486	0,095	0,170
-602,357	52,775	-0,125	0,086
-601,342	-119,122	0,014	-0,002
-600,328	800,000	-0,045	-0,101
-599,313	800,000	-0,035	-0,075
-598,298	-140,565	0,051	-0,004
-597,284	661,569	-0,010	0,018
-596,269	800,000	-0,034	-0,100
-595,255	-200,000	0,001	0,095
-594,240	-175,835	-0,102	-0,002
-593,225	407,801	0,059	-0,091
-592,211	433,243	-0,073	-0,115
-591,196	-200,000	0,000	-0,076
-590,182	-200,000	0,009	0,101
-589,167	-12,344	0,063	-0,030
-588,152	-17,289	0,185	0,084
-587,138	-200,000	-0,017	-0,101
-586,123	-50,510	-0,042	-0,014
-585,109	800,000	0,023	0,070
-584,094	800,000	-0,030	-0,096
-583,079	-200,000	0,002	-0,101
-582,065	-56,034	-0,056	-0,018
-581,050	106,864	-0,058	0,049
-580,036	-74,919	0,073	0,019
-579,021	-200,000	0,013	-0,127
-578,006	-10,789	0,127	0,060
-576,992	2,540	0,008	-0,004
-575,977	312,589	0,134	-0,182
-574,963	-20,517	0,050	-0,022
-573,948	-163,847	0,088	0,003
-572,934	-91,808	-0,092	0,019
-571,919	119,712	-0,101	-0,091
-570,904	410,360	-0,016	0,024
-569,890	377,537	0,060	0,089
-568,875	-200,000	0,022	0,103
-567,861	-38,225	-0,018	-0,007
-566,846	-200,000	0,017	0,073
-565,831	-99,048	-0,048	-0,009
-564,817	-200,000	-0,025	-0,106
-563,802	800,000	0,024	0,062
-562,788	800,000	0,052	-0,122
-561,773	-200,000	-0,004	0,040
-560,758	-132,780	0,098	0,009
-559,744	652,012	0,033	0,062
-558,729	-200,000	-0,035	-0,132
-557,715	-34,854	-0,098	-0,039
-556,700	546,620	-0,066	-0,115
-555,685	213,206	0,106	-0,121
-554,671	413,063	0,017	0,027
-553,656	-53,975	-0,035	0,011
-552,642	115,743	0,032	-0,029
-551,627	570,967	-0,056	0,099
-550,612	-27,654	-0,042	-0,018
-549,598	7,377	-0,092	-0,050
-548,583	-96,147	-0,063	-0,012
-547,569	427,474	0,056	0,087
-546,554	426,378	0,064	0,100
-545,539	375,865	0,046	0,067
-544,525	-200,000	-0,006	-0,071
-543,510	416,641	-0,106	0,164
-542,496	-200,000	-0,020	-0,068
-541,481	413,601	-0,045	-0,069
-540,466	589,475	-0,019	0,033
-539,452	-200,000	-0,022	-0,108
-538,437	800,000	-0,027	0,063
-537,423	800,000	-0,022	-0,052
-536,408	-200,000	0,009	-0,030
-535,393	-200,000	0,012	-0,064
-534,379	350,352	-0,108	0,155
-533,364	-200,000	0,005	-0,042
-532,350	57,297	-0,101	-0,071
-531,335	-153,887	0,089	-0,004
-530,321	800,000	0,048	0,098
-529,306	-200,000	0,044	0,201
-528,291	800,000	0,028	0,061
-527,277	666,271	-0,020	0,038
-526,262	-200,000	0,004	0,020
-525,248	279,409	0,038	0,049
-524,233	-200,000	-0,003	0,020
-523,218	-200,000	0,026	-0,104
-522,204	488,160	0,039	-0,065
-521,189	83,913	-0,066	-0,052
-520,175	40,533	-0,105	0,068
-519,160	43,502	0,062	0,041
-518,145	190,882	0,117	0,127
-517,131	32,624	0,056	0,035
-516,116	-200,000	-0,001	0,072
-515,102	-124,069	-0,074	-0,008
-514,087	482,264	-0,070	-0,115
-513,072	800,000	0,020	-0,043
-512,058	-82,848	-0,058	0,013
-511,043	119,847	-0,004	0,004
-510,029	14,164	0,034	0,019
-509,014	9,292	-0,080	-0,044
-507,999	42,050	-0,041	0,027
-506,985	98,552	0,105	-0,087
-505,970	455,216	-0,031	-0,049
-504,956	-111,126	-0,021	-0,003
-503,941	751,709	0,091	0,179
-502,926	-79,965	-0,094	0,023
-501,912	196,129	-0,089	0,098
-500,897	-3,825	0,114	0,057
-499,883	-73,786	-0,068	-0,018
-498,868	6,185	-0,069	-0,037
-497,853	112,351	0,045	-0,040
-496,839	-110,241	-0,065	-0,010
-495,824	-200,000	-0,000	0,138
-494,810	109,295	-0,038	0,033
-493,795	223,575	0,064	-0,074
-492,781	-200,000	-0,001	-0,056
-491,766	-200,000	-0,028	-0,148
-490,751	-123,727	-0,090	0,010
-489,737	-200,000	-0,018	-0,123
-488,722	43,056	0,041	-0,027
-487,708	800,000	0,029	0,070
-486,693	-124,786	-0,098	-0,011
-485,678	30,829	0,045	-0,028
-484,664	-200,000	0,001	-0,176
-483,649	62,640	-0,163	-0,117
-482,635	379,367	0,032	0,047
-481,620	-200,000	0,006	0,076
-480,605	755,382	-0,017	0,034
-479,591	314,170	0,137	0,187
-478,576	-53,789	-0,066	0,022
-477,562	228,001	0,033	-0,039
-476,547	-200,000	0,001	0,100
-475,532	800,000	-0,074	-0,195
-474,518	-200,000	0,000	0,035
-473,503	98,371	0,029	0,024
-472,489	800,000	0,050	-0,104
-471,474	-11,333	0,067	0,032
-470,459	255,074	-0,034	-0,043
-469,445	-200,000	-0,022	-0,089
-468,430	-18,934	0,072	-0,032
-467,416	533,297	0,035	0,060
-466,401	-200,000	-0,005	0,038
-465,386	249,669	0,039	0,047
-464,372	301,198	-0,080	-0,106
-463,357	493,269	-0,055	-0,091
-462,343	-200,000	0,001	-0,137
-461,328	-200,000	-0,010	-0,066
-460,313	429,113	-0,052	-0,081
-459,299	-121,938	0,040	0,005
-458,284	800,000	-0,029	0,084
-457,270	800,000	0,078	0,193
-456,255	119,691	-0,097	-0,086
-455,241	284,191	-0,059	-0,077
-454,226	243,114	-0,110	-0,133
-453,211	-200,000	0,017	-0,146
-452,197	800,000	0,052	0,111
-451,182	512,535	0,028	-0,048
-450,168	-19,637	-0,043	-0,019
-449,153	49,335	0,132	-0,089
-448,138	-107,456	-0,081	-0,013
-447,124	-150,886	0,141	-0,008
-446,109	-77,268	0,053	0,013
-445,095	304,508	0,081	0,108
-444,080	-200,000	0,039	0,169
-443,065	800,000	0,060	0,164
-442,051	-200,000	0,006	-0,135
-441,036	-71,110	-0,104	0,028
-440,022	6,325	-0,114	-0,061
-439,007	559,586	0,047	-0,083
-437,992	-200,000	-0,007	0,075
-436,978	800,000	0,028	0,077
-435,963	-159,147	-0,008	-0,000
-434,949	1,282	0,066	-0,034
-433,934	-63,015	-0,070	-0,021
-432,919	129,350	-0,021	-0,020
-431,905	-37,253	-0,034	-0,013
-430,890	800,000	0,043	0,134
-429,876	800,000	0,040	0,121
-428,861	-68,822	0,041	0,011
-427,846	17,375	0,101	0,057
-426,832	86,399	-0,132	0,105
-425,817	6,639	-0,077	-0,041
-424,803	134,323	0,016	0,015
-423,788	240,208	0,070	-0,084
-422,773	-200,000	0,006	0,020
-421,759	-200,000	-0,001	-0,031
-420,744	533,884	-0,035	-0,060
-419,730	-102,097	0,065	0,011
-418,715	-200,000	-0,026	-0,107
-417,701	220,428	-0,101	-0,117
-416,686	326,740	-0,127	0,175
-415,671	-159,169	-0,024	-0,001
-414,657	-200,000	0,007	-0,055
-413,642	66,336	-0,100	-0,073
-412,628	800,000	-0,040	-0,111
-411,613	-113,291	0,073	-0,010
-410,598	-65,435	0,099	0,028
-409,584	-200,000	-0,006	0,032
-408,569	73,398	0,063	0,048
-407,555	256,521	-0,064	0,079
-406,540	-70,967	0,065	-0,017
-405,525	-200,000	-0,000	-0,019
-404,511	21,870	-0,112	-0,065
-403,496	56,810	0,106	0,074
-402,482	196,065	0,046	-0,050
-401,467	-200,000	0,000	0,048
-400,452	497,971	0,075	-0,125
-399,438	515,512	0,059	0,099
-398,423	621,826	-0,051	0,092
-397,409	38,790	-0,101	-0,064
-396,394	330,110	0,076	-0,105
-395,379	-200,000	0,032	-0,127
-394,365	106,529	0,027	-0,023
-393,350	800,000	0,033	0,071
-392,336	-10,263	0,078	-0,037
-391,321	174,379	0,123	0,128
-390,306	-200,000	0,005	0,021
-389,292	351,753	0,062	0,089
-388,277	-129,733	-0,122	-0,012
-387,263	101,084	0,040	0,034
-386,248	383,959	0,049	0,073
-385,233	230,575	0,074	0,087
-384,219	174,932	0,084	-0,087
-383,204	328,887	0,044	0,061
-382,190	230,245	0,018	-0,021
-381,175	95,904	0,162	-0,133
-380,160	-111,467	0,063	-0,009
-379,146	-36,949	0,019	-0,007
-378,131	-200,000	-0,001	-0,030
-377,117	-14,820	-0,092	-0,042
-376,102	-200,000	-0,013	-0,040
-375,088	14,377	0,043	-0,024
-374,073	284,682	-0,041	-0,053
-373,058	-200,000	-0,002	0,128
-372,044	-200,000	-0,022	0,093
-371,029	716,750	-0,016	0,030
-370,015	-200,000	-0,001	-0,101
-369,000	-54,371	-0,018	0,006
-367,985	800,000	0,015	-0,030
-366,971	-16,808	0,031	-0,014
-365,956	-155,987	-0,070	-0,003
-364,942	22,279	0,151	-0,088
-363,927	-192,803	-0,053	-0,000
-362,912	10,841	0,013	-0,007
-361,898	800,000	-0,031	-0,074
-360,883	800,000	0,017	0,039
-359,869	-88,926	0,017	0,004
-358,854	800,000	0,025	-0,071
-357,839	96,268	-0,020	-0,017
-356,825	-40,092	0,095	0,035
-355,810	-75,592	0,086	-0,022
-354,796	800,000	0,009	0,026
-353,781	-200,000	-0,003	0,020
-352,766	800,000	-0,052	-0,117
-351,752	-17,669	0,094	-0,042
-350,737	-56,283	0,133	0,042
-349,723	203,246	-0,082	0,091
-348,708	42,153	0,107	0,069
-347,693	-67,197	0,042	0,012
-346,679	235,219	0,089	-0,105
-345,664	104,633	-0,079	0,067
-344,650	327,888	0,030	-0,041
-343,635	800,000	-0,006	0,014
-342,620	-200,000	0,012	0,054
-341,606	494,684	0,076	0,125
-340,591	800,000	-0,021	-0,065
-339,577	-83,263	0,068	-0,015
-338,562	198,141	-0,074	0,081
-337,548	800,000	0,055	-0,139
-336,533	507,875	-0,017	-0,028
-335,518	-57,776	0,124	0,039
-334,504	-157,919	0,039	0,002
-333,489	70,189	-0,112	0,083
-332,475	-200,000	0,013	-0,077
-331,460	183,726	0,022	-0,023
-330,445	-49,759	-0,124	0,042
-329,431	132,894	-0,064	0,059
-328,416	13,276	-0,125	0,069
-327,402	375,846	-0,105	0,154
-326,387	-200,000	-0,011	0,081
-325,372	800,000	-0,049	0,107
-324,358	-129,603	-0,096	0,009
-323,343	-6,998	0,083	-0,040
-322,329	-200,000	-0,025	-0,195
-321,314	117,812	0,088	-0,078
-320,299	23,559	0,115	0,068
-319,285	55,343	-0,048	0,033
-318,270	275,530	-0,031	-0,040
-317,256	171,642	-0,054	0,056
-316,241	-200,000	-0,002	-0,191
-315,226	-68,538	-0,111	-0,031
-314,212	-200,000	-0,021	0,169
-313,197	-200,000	0,017	-0,100
-312,183	-200,000	0,023	0,092
-311,168	46,643	-0,149	-0,099
-310,153	204,090	-0,081	-0,089
-309,139	-68,697	-0,144	-0,040
-308,124	-200,000	0,010	0,037
-307,110	95,826	0,032	0,026
-306,095	-97,418	0,075	0,014
-305,080	-127,454	0,037	-0,004
-304,066	-31,111	-0,061	0,025
-303,051	243,187	-0,057	0,068
-302,037	84,263	0,004	0,003
-301,022	659,188	0,008	0,016
-300,008	129,953	0,062	0,057
-298,993	65,100	0,128	0,092
-297,978	-200,000	-0,007	-0,084
-296,964	-25,219	0,058	-0,025
-295,949	109,941	-0,090	-0,078
-294,935	-68,823	0,186	-0,051
-293,920	-200,000	-0,006	-0,054
-292,905	16,650	0,094	-0,053
-291,891	117,330	-0,084	0,074
-290,876	-132,146	-0,099	-0,009
-289,862	29,967	-0,086	0,052
-288,847	-200,000	-0,005	0,043
-287,832	-149,061	0,069	0,004
-286,818	800,000	0,019	0,058
-285,803	-200,000	-0,012	0,047
-284,789	800,000	0,074	0,166
-283,774	-200,000	-0,019	0,085
-282,759	333,263	-0,062	0,086
-281,745	-26,393	-0,031	-0,013
-280,730	-99,158	0,084	0,015
-279,716	266,394	0,032	0,040
-278,701	-92,312	0,090	-0,018
-277,686	60,272	-0,023	0,016
-276,672	479,440	0,064	0,104
-275,657	465,073	-0,048	0,078
-274,643	-200,000	0,012	-0,105
-273,628	-82,765	-0,047	-0,011
-272,613	-14,868	-0,077	0,035
-271,599	800,000	0,035	0,111
-270,584	-83,158	-0,106	0,024
-269,570	-158,698	-0,045	-0,002
-268,555	-70,561	-0,085	0,023
-267,540	-103,454	-0,062	0,010
-266,526	276,795	-0,047	0,059
-265,511	-200,000	0,021	-0,118
-264,497	-200,000	0,005	-0,046
-263,482	451,096	0,044	0,070
-262,467	139,381	0,007	0,007
-261,453	109,447	-0,037	-0,032
-260,438	-61,064	-0,019	-0,006
-259,424	800,000	-0,016	-0,037
-258,409	207,315	-0,118	-0,132
-257,395	-129,147	0,057	0,006
-256,380	526,440	-0,020	-0,033
-255,365	-200,000	-0,000	-0,076
-254,351	-200,000	0,008	0,063
-253,336	-82,474	0,168	-0,039
-252,322	-200,000	-0,017	-0,058
-251,307	58,765	-0,061	-0,043
-250,292	-61,852	0,080	0,024
-249,278	197,169	-0,071	0,077
-248,263	65,094	0,073	0,052
-247,249	663,764	-0,045	0,084
-246,234	34,171	-0,096	0,059
-245,219	82,750	0,082	-0,063
-244,205	434,108	-0,048	-0,074
-243,190	-200,000	0,003	0,102
-242,176	464,663	-0,062	0,099
-241,161	285,612	0,057	0,074
-240,146	63,610	-0,093	0,067
-239,132	35,872	-0,039	-0,024
-238,117	-200,000	0,038	-0,121
-237,103	296,603	0,039	0,051
-236,088	57,683	0,072	-0,050
-235,073	93,361	0,016	0,013
-234,059	47,186	0,056	-0,037
-233,044	-55,199	-0,090	0,029
-232,030	-200,000	0,004	-0,065
-231,015	472,517	-0,029	-0,047
-230,000	800,000	-0,014	-0,043
-228,986	-126,025	0,044	0,005
-227,971	650,674	0,066	-0,121
-226,957	639,921	0,058	0,105
-225,942	800,000	0,020	-0,056
-224,927	800,000	-0,021	-0,054
-223,913	-83,870	-0,147	0,033
-222,898	-200,000	-0,002	-0,105
-221,884	-106,822	-0,051	-0,008
-220,869	-200,000	0,003	0,056
-219,855	-200,000	-0,021	0,119
-218,840	800,000	-0,006	0,020
-217,825	800,000	0,054	0,125
-216,811	-85,447	-0,159	0,035
-215,796	325,853	0,065	0,089
-214,782	39,146	0,078	0,049
-213,767	-200,000	0,020	0,076
-212,752	-105,758	0,055	0,009
-211,738	-80,409	0,077	0,018
-210,723	800,000	-0,064	-0,165
-209,709	462,418	-0,081	-0,129
-208,694	-200,000	-0,031	-0,247
-207,679	103,325	-0,074	-0,062
-206,665	-200,000	-0,007	0,130
-205,650	17,794	-0,040	-0,023
-204,636	-52,723	-0,106	-0,035
-203,621	-200,000	0,029	0,116
-202,606	800,000	-0,024	-0,064
-201,592	355,628	-0,056	-0,080
-200,577	-5,797	0,004	-0,002
-199,563	-200,000	-0,017	0,149
-198,548	-200,000	0,013	0,106
-197,533	-200,000	0,009	-0,037
-196,519	235,636	0,021	0,025
-195,504	71,385	0,053	-0,039
-194,490	438,914	0,080	-0,125
-193,475	-200,000	-0,018	0,060
-192,460	800,000	-0,033	0,077
-191,446	-200,000	-0,012	-0,077
-190,431	166,004	-0,016	-0,017
-189,417	113,470	0,096	-0,083
-188,402	800,000	0,046	0,108
-187,387	-45,210	-0,050	-0,018
-186,373	-177,221	-0,107	0,002
-185,358	-53,192	-0,021	-0,007
-184,344	-21,105	0,060	-0,026
-183,329	414,800	0,069	0,105
-182,315	-40,379	0,055	0,020
-181,300	649,269	-0,109	0,199
-180,285	-175,875	0,030	0,001
-179,271	-19,945	-0,054	0,024
-178,256	8,291	0,169	-0,090
-177,242	83,254	0,035	0,027
-176,227	-200,000	0,008	-0,098
-175,212	-116,057	-0,161	0,021
-174,198	52,353	0,085	-0,058
-173,183	375,932	0,057	-0,082
-172,169	-200,000	-0,006	-0,073
-171,154	800,000	0,034	-0,081
-170,139	-38,906	-0,025	-0,009
-169,125	-200,000	0,009	-0,048
-168,110	321,067	0,074	0,100
-167,096	-47,909	-0,137	0,047
-166,081	-133,162	0,071	0,006
-165,066	-197,815	-0,127	0,001
-164,052	-131,549	-0,042	-0,004
-163,037	171,415	0,045	-0,046
-162,023	12,911	0,135	0,074
-161,008	-200,000	-0,008	-0,098
-159,993	32,288	0,084	0,051
-158,979	113,241	0,073	0,063
-157,964	60,505	0,033	0,023
-156,950	211,585	0,047	-0,053
-155,935	-113,662	0,069	0,009
-154,920	337,725	-0,072	0,100
-153,906	800,000	0,047	0,142
-152,891	-200,000	0,021	0,092
-151,877	800,000	0,109	-0,230
-150,862	254,020	0,104	-0,127
-149,847	129,610	-0,033	-0,030
-148,833	0,070	-0,057	0,029
-147,818	314,249	-0,031	-0,041
-146,804	-200,000	-0,002	0,064
-145,789	512,459	-0,074	0,123
-144,775	-200,000	-0,016	-0,116
-143,760	800,000	-0,073	-0,155
-142,745	-40,555	0,140	-0,051
-141,731	308,995	0,022	0,029
-140,716	2,965	-0,100	0,051
-139,702	615,491	-0,021	-0,038
-138,687	-121,210	-0,101	-0,012
-137,672	-2,438	0,030	-0,015
-136,658	800,000	-0,064	-0,127
-135,643	-200,000	-0,021	-0,070
-134,629	-103,070	0,102	0,017
-133,614	369,515	-0,053	0,076
-132,599	-200,000	0,012	-0,059
-131,585	265,817	0,029	-0,036
-130,570	-200,000	0,019	0,147
-129,556	240,444	-0,142	-0,169
-128,541	141,219	-0,017	0,016
-127,526	21,798	-0,066	-0,038
-126,512	-83,102	-0,080	-0,018
-125,497	-131,472	0,144	0,013
-124,483	-200,000	-0,007	0,194
-123,468	-200,000	0,001	0,124
-122,453	89,721	0,011	-0,009
-121,439	-3,008	0,056	-0,028
-120,424	-116,645	-0,073	0,009
-119,410	116,749	0,028	-0,024
-118,395	-81,919	0,078	0,018
-117,380	800,000	0,027	-0,069
-116,366	186,461	0,057	0,061
-115,351	-200,000	0,014	-0,056
-114,337	800,000	-0,059	0,155
-113,322	-138,540	-0,097	0,007
-112,307	-75,583	0,032	0,008
-111,293	-200,000	0,017	0,125
-110,278	431,142	-0,025	0,039
-109,264	112,529	0,024	0,021
-108,249	136,589	-0,055	-0,051
-107,234	-200,000	0,044	-0,175
-106,220	-98,493	0,035	0,006
-105,205	-14,022	0,076	0,035
-104,191	800,000	-0,019	-0,058
-103,176	800,000	0,052	-0,139
-102,162	-200,000	-0,013	-0,131
-101,147	78,020	-0,034	0,026
-100,132	-200,000	-0,000	-0,101
-99,118	11,330	0,068	-0,037
-98,103	169,992	-0,025	0,025
-97,089	-200,000	-0,003	0,080
-96,074	800,000	0,073	0,177
-95,059	-122,711	0,050	-0,006
-94,045	-128,011	-0,156	-0,016
-93,030	364,903	0,102	-0,146
-92,016	-200,000	0,010	-0,072
-91,001	25,466	-0,102	0,060
-89,986	800,000	-0,047	0,114
-88,972	-200,000	0,026	0,102
-87,957	-31,818	-0,123	0,049
-86,943	-4,932	-0,005	0,002
-85,928	-4,415	-0,143	0,070
-84,913	-200,000	-0,013	0,097
-83,899	449,525	-0,028	-0,044
-82,884	-154,072	0,016	-0,001
-81,870	29,456	0,097	0,058
-80,855	-75,836	-0,046	0,012
-79,840	69,151	-0,056	-0,041
-78,826	261,094	0,101	0,124
-77,811	109,715	-0,045	0,038
-76,797	-200,000	-0,007	0,036
-75,782	206,649	0,064	0,071
-74,767	101,385	-0,124	0,102
-73,753	-71,792	-0,042	0,011
-72,738	-200,000	-0,011	0,047
-71,724	-70,467	-0,094	-0,025
-70,709	308,172	-0,038	-0,051
-69,694	-2,341	0,074	0,036
-68,680	0,586	-0,013	-0,006
-67,665	-78,453	0,116	0,028
-66,651	-97,750	-0,130	0,024
-65,636	-200,000	0,000	0,014
-64,622	-200,000	-0,026	0,092
-63,607	-5,400	-0,034	0,017
-62,592	-88,026	0,098	0,021
-61,578	321,647	-0,162	0,219
-60,563	-200,000	-0,003	0,108
-59,549	-200,000	0,002	0,079
-58,534	-55,515	-1,442	-0,455
-57,519	369,956	-1,575	-2,268
-56,505	-200,000	-0,352	-4,137
-55,490	136,580	0,900	0,832
-54,476	800,000	4,857	11,267
-53,461	-200,000	17,676	283,668
-52,446	800,000	721,147	2227,092
-51,432	562,034	1635,249	2814,263
-50,417	80,830	1658,559	1266,542
-49,403	23,600	1532,775	891,732
-48,388	17,606	1456,005	818,168
-47,373	18,167	1445,892	815,141
-46,359	17,698	1436,424	807,536
-45,344	15,879	1431,615	796,156
-44,330	15,810	1429,542	794,644
-43,315	15,749	1428,247	793,601
-42,300	15,817	1426,316	792,819
-41,286	15,861	1425,051	792,294
-40,271	15,864	1423,756	791,558
-39,257	15,845	1422,519	790,747
-38,242	15,909	1421,262	790,320
-37,227	15,895	1419,953	789,493
-36,213	15,872	1418,700	788,657
-35,198	15,851	1417,482	787,851
-34,184	15,857	1416,695	787,412
-33,169	15,793	1415,381	786,351
-32,154	15,839	1414,459	786,020
-31,140	15,860	1413,043	785,302
-30,125	15,885	1411,750	784,669
-29,111	15,880	1410,766	784,069
-28,096	15,887	1409,505	783,368
-27,082	15,777	1408,613	782,329
-26,067	15,763	1407,487	781,604
-25,052	15,816	1406,341	781,186
-24,038	15,771	1405,519	780,488
-23,023	15,792	1404,353	779,907
-22,009	15,730	1403,453	779,089
-20,994	15,699	1402,401	778,330
-19,979	15,715	1401,652	777,957
-18,965	15,725	1400,508	777,339
-17,950	15,718	1399,665	776,804
-16,936	15,742	1398,560	776,274
-15,921	15,697	1397,215	775,287
-14,906	15,714	1396,354	774,857
-13,892	15,685	1395,755	774,360
-12,877	15,699	1394,838	773,883
-11,863	15,683	1393,678	773,136
-10,848	15,665	1393,093	772,698
-9,833	15,674	1391,972	772,089
-8,819	15,594	1391,130	771,218
-7,804	15,562	1390,132	770,487
-6,790	15,587	1389,043	769,969
-5,775	15,576	1387,908	769,261
-4,760	15,542	1387,328	768,752
-3,746	15,564	1386,453	768,338
-2,731	15,573	1385,603	767,876
-1,717	15,550	1384,517	767,139
-0,702	15,560	1382,694	766,142
0,313	19,418	1303,660	740,126
1,327	35,776	706,523	439,003
2,342	55,135	125,019	85,440
3,356	2,950	16,509	8,463
4,371	3,978	3,108	1,604
5,386	-50,140	0,558	0,186
6,400	-200,000	-0,022	0,258
7,415	-39,323	-0,241	-0,089
8,429	-36,457	-0,301	-0,114
9,444	151,210	-0,285	-0,274
10,459	-25,461	-0,132	-0,055
11,473	59,738	-0,222	-0,155
12,488	-38,310	-0,328	-0,122
13,502	61,251	-0,276	-0,194
14,517	-7,819	-0,295	-0,140
15,531	176,231	-0,355	-0,365
16,546	-132,560	-0,415	-0,037
17,561	-32,891	-0,396	-0,155
18,575	70,812	-0,229	-0,167
19,590	-35,337	-0,166	-0,064
20,604	-74,950	-0,323	-0,081
21,619	131,506	-0,464	-0,422
22,634	209,569	-0,459	-0,509
23,648	134,342	-0,502	-0,460
24,663	50,973	-0,369	-0,247
25,677	-22,059	-0,272	-0,116
26,692	-29,279	-0,392	-0,158
27,707	-43,322	-0,350	-0,124
28,721	32,552	-0,457	-0,279
29,736	54,168	-0,447	-0,303
30,750	92,162	-0,446	-0,355
31,765	141,646	-0,406	-0,380
32,780	70,262	-0,337	-0,246
33,794	-23,330	-0,384	-0,162
34,809	219,140	-0,313	-0,354
35,823	60,160	-0,401	-0,279
36,838	188,440	-0,293	-0,309
37,853	151,860	-0,426	-0,410
38,867	134,293	-0,238	-0,218
39,882	11,649	-0,336	-0,181
40,896	-23,548	-0,286	-0,120
41,911	7,899	-0,401	-0,212
42,926	31,758	-0,236	-0,143
43,940	136,674	-0,292	-0,269
44,955	-5,710	-0,378	-0,182
45,969	-22,391	-0,476	-0,202
46,984	98,398	-0,456	-0,371
47,999	225,152	-0,248	-0,284
49,013	112,157	-0,198	-0,168
50,028	-19,521	-0,296	-0,129
51,042	97,538	-0,398	-0,322
52,057	10,217	-0,524	-0,280
53,071	141,458	-0,334	-0,312
54,086	118,074	-0,307	-0,267
55,101	357,121	-0,256	-0,361
56,115	-40,616	-0,425	-0,155
57,130	46,449	-0,372	-0,243
58,144	-6,874	-0,279	-0,133
59,159	27,167	-0,352	-0,208
60,174	50,694	-0,373	-0,248
61,188	75,271	-0,398	-0,295
62,203	-12,816	-0,332	-0,152
63,217	142,129	-0,320	-0,299
64,232	8,827	-0,381	-0,202
65,247	192,911	-0,332	-0,354
66,261	2,758	-0,438	-0,223
67,276	90,552	-0,373	-0,294
68,290	50,695	-0,371	-0,247
69,305	205,074	-0,217	-0,237
70,320	-55,939	-0,315	-0,098
71,334	174,842	-0,153	-0,156
72,349	-61,929	-0,348	-0,102
73,363	155,693	-0,284	-0,275
74,378	-66,201	-0,433	-0,121
75,393	178,667	-0,208	-0,214
76,407	2,619	-0,306	-0,155
77,422	154,677	-0,203	-0,196
78,436	-1,138	-0,261	-0,130
79,451	-108,620	-0,185	-0,028
80,466	-101,798	-0,415	-0,070
81,480	228,213	-0,244	-0,280
82,495	54,200	-0,168	-0,114
83,509	-7,684	-0,379	-0,180
84,524	-107,221	-0,383	-0,059
85,539	28,875	-0,237	-0,141
86,553	-29,124	-0,300	-0,120
87,568	-16,384	-0,297	-0,132
88,582	60,762	-0,275	-0,192
89,597	13,231	-0,354	-0,192
90,611	-137,930	-0,306	-0,024
91,626	-107,099	-0,348	-0,053
92,641	339,292	-0,073	-0,100
93,655	120,567	-0,228	-0,199
94,670	59,795	-0,326	-0,226
95,684	19,522	-0,372	-0,209
96,699	158,639	-0,239	-0,234
97,714	-160,676	-0,410	0,015
98,728	17,860	-0,299	-0,167
99,743	-17,411	-0,207	-0,091
100,757	-46,077	-0,347	-0,119
101,772	1,933	-0,183	-0,092
102,787	-123,735	-0,400	-0,044
103,801	-99,283	-0,382	-0,067
104,816	23,556	-0,168	-0,097
105,830	-59,282	-0,288	-0,086
106,845	-137,584	-0,334	0,026
107,860	337,095	-0,200	-0,273
108,874	97,543	-0,365	-0,294
109,889	385,074	-0,202	-0,293
110,903	322,845	-0,280	-0,375
111,918	149,577	-0,186	-0,177
112,933	-103,198	-0,337	0,055
113,947	-0,960	-0,276	-0,137
114,962	-17,354	-0,308	-0,136
115,976	-107,475	-0,319	-0,049
116,991	34,862	-0,340	-0,208
118,006	15,813	-0,224	-0,123
119,020	14,833	-0,375	-0,205
120,035	228,121	-0,175	-0,200
121,049	91,758	-0,255	-0,201
122,064	99,797	-0,151	-0,123
123,079	23,455	-0,337	-0,194
124,093	142,185	-0,176	-0,164
125,108	-99,956	-0,239	-0,041
126,122	119,826	-0,229	-0,199
127,137	203,536	-0,213	-0,231
128,151	-40,712	-0,185	-0,067
129,166	120,407	-0,197	-0,171
130,181	88,379	-0,256	-0,199
131,195	800,000	-0,142	-0,339
132,210	66,695	-0,347	-0,247
133,224	139,168	-0,275	-0,253
134,239	-34,127	-0,251	-0,096
135,254	238,123	-0,159	-0,185
136,268	142,959	-0,275	-0,256
137,283	-83,224	-0,260	-0,058
138,297	-38,905	-0,198	-0,072
139,312	-52,614	-0,350	-0,113
140,327	150,123	-0,285	-0,271
141,341	45,704	-0,211	-0,136
142,356	-42,949	-0,276	-0,098
143,370	97,497	-0,229	-0,184
144,385	274,495	-0,286	-0,355
145,400	230,743	-0,221	-0,253
146,414	-41,146	-0,352	-0,126
147,429	-123,435	-0,247	-0,027
148,443	-24,654	-0,200	-0,083
149,458	293,984	-0,143	-0,183
150,473	123,219	-0,187	-0,164
151,487	528,413	-0,136	-0,224
152,502	83,754	-0,242	-0,185
153,516	-72,108	-0,228	-0,059
154,531	269,976	-0,235	-0,289
155,546	511,068	-0,197	-0,321
156,560	113,156	-0,196	-0,166
157,575	-142,530	-0,091	-0,006
158,589	-56,490	-0,265	-0,082
159,604	111,490	-0,241	-0,203
160,619	-73,671	-0,299	-0,075
161,633	82,717	-0,268	-0,203
162,648	247,845	-0,224	-0,265
163,662	735,083	-0,150	-0,282
164,677	77,859	-0,218	-0,162
165,692	-33,288	-0,279	-0,107
166,706	449,730	-0,120	-0,185
167,721	93,121	-0,189	-0,149
168,735	14,962	-0,195	-0,106
169,750	158,259	-0,176	-0,170
170,764	360,488	-0,215	-0,301
171,779	-54,719	-0,325	-0,102
172,794	11,428	-0,206	-0,110
173,808	-73,568	-0,198	-0,050
174,823	421,081	-0,186	-0,280
175,837	34,800	-0,288	-0,175
176,852	-51,898	-0,336	-0,108
177,867	-200,000	-0,039	-0,122
178,881	227,256	-0,116	-0,132
179,896	28,322	-0,165	-0,097
180,910	295,665	-0,124	-0,159
181,925	78,506	-0,202	-0,151
182,940	123,391	-0,195	-0,170
183,954	212,657	-0,181	-0,200
184,969	8,538	-0,342	-0,179
185,983	-14,592	-0,240	-0,107
186,998	227,070	-0,162	-0,184
188,013	475,819	-0,168	-0,265
189,027	-187,209	-0,201	0,002
190,042	-21,953	-0,267	-0,113
191,056	400,920	-0,174	-0,255
192,071	95,421	-0,216	-0,172
193,086	800,000	-0,069	-0,169
194,100	357,343	-0,134	-0,186
195,115	45,673	-0,101	-0,065
196,129	800,000	-0,064	-0,124
197,144	45,470	-0,287	-0,184
198,159	440,663	-0,138	-0,210
199,173	49,382	-0,188	-0,123
200,188	179,701	-0,231	-0,235
201,202	119,706	-0,112	-0,097
202,217	-44,079	-0,170	-0,059
203,232	-11,658	-0,256	-0,117
204,246	99,919	-0,180	-0,145
205,261	20,219	-0,240	-0,135
206,275	0,868	-0,300	-0,149
207,290	-135,108	-0,268	-0,022
208,304	-162,295	-0,191	-0,006
209,319	-14,279	-0,219	-0,098
210,334	-68,247	-0,244	-0,066
211,348	251,735	-0,160	-0,189
212,363	86,554	-0,186	-0,143
213,377	254,932	-0,187	-0,224
214,392	84,752	-0,146	-0,111
215,407	-12,235	-0,316	-0,143
216,421	68,132	-0,143	-0,102
217,436	81,432	-0,203	-0,153
218,450	232,534	-0,114	-0,131
219,465	314,426	-0,184	-0,241
220,480	90,320	-0,180	-0,140
221,494	32,156	-0,086	-0,051
222,509	140,342	-0,125	-0,115
223,523	146,057	-0,217	-0,202
224,538	14,718	-0,387	-0,209
225,553	800,000	-0,103	-0,202
226,567	-80,291	-0,183	-0,042
227,582	-198,484	-0,193	-0,001
228,596	-91,921	-0,298	-0,058
229,611	81,223	-0,184	-0,138
230,626	19,085	-0,248	-0,138
231,640	81,572	-0,306	-0,230
232,655	104,235	-0,224	-0,183
233,669	276,673	-0,216	-0,267
234,684	-1,479	-0,105	-0,051
235,699	51,458	-0,171	-0,113
236,713	96,437	-0,244	-0,194
237,728	384,191	-0,120	-0,172
238,742	381,913	-0,090	-0,128
239,757	-0,025	-0,179	-0,088
240,772	79,460	-0,231	-0,172
241,786	-60,425	-0,327	-0,096
242,801	241,579	-0,130	-0,151
243,815	90,168	-0,061	-0,047
244,830	-11,061	-0,270	-0,123
245,844	-200,000	-0,080	-0,252
246,859	79,935	-0,261	-0,194
247,874	104,615	-0,149	-0,121
248,888	-2,684	-0,244	-0,118
249,903	800,000	-0,128	-0,325
250,917	42,333	-0,286	-0,180
251,932	-114,164	-0,307	-0,041
252,947	-81,208	-0,064	0,014
253,961	800,000	-0,082	-0,165
254,976	143,242	-0,288	-0,265
255,990	-52,995	-0,210	-0,067
257,005	310,249	-0,152	-0,197
258,020	-27,641	-0,191	-0,076
259,034	137,545	-0,157	-0,143
260,049	77,883	-0,217	-0,160
261,063	-139,194	-0,195	-0,014
262,078	153,060	-0,132	-0,125
263,093	800,000	-0,105	-0,219
264,107	-9,585	-0,189	-0,087
265,122	98,322	-0,227	-0,181
266,136	35,394	-0,135	-0,082
267,151	800,000	-0,061	-0,121
268,166	-200,000	-0,064	-0,198
269,180	-125,106	-0,068	-0,007
270,195	66,546	-0,198	-0,139
271,209	-30,660	-0,150	-0,059
272,224	-51,421	-0,244	-0,078
273,239	-169,921	-0,129	0,003
274,253	-148,528	-0,055	0,003
275,268	311,724	-0,172	-0,223
276,282	800,000	-0,115	-0,287
277,297	72,352	-0,194	-0,140
278,312	-110,350	-0,141	0,020
279,326	-31,347	-0,107	-0,042
280,341	395,802	-0,153	-0,221
281,355	-60,363	-0,285	-0,083
282,370	-75,114	-0,290	-0,071
283,384	80,871	-0,234	-0,174
284,399	23,048	-0,226	-0,128
285,414	313,375	-0,173	-0,226
286,428	-200,000	0,016	-0,111
287,443	-36,560	-0,130	-0,048
288,457	186,088	-0,139	-0,143
289,472	800,000	-0,119	-0,256
290,487	-200,000	-0,028	-0,139
291,501	452,129	-0,053	-0,082
292,516	800,000	-0,114	-0,251
293,530	-200,000	-0,049	-0,162
294,545	-188,978	-0,215	0,002
295,560	-10,485	-0,175	-0,080
296,574	127,283	-0,111	-0,097
297,589	135,407	-0,227	-0,204
298,603	-74,243	-0,211	-0,052
299,618	378,976	-0,102	-0,144
300,633	24,176	-0,193	-0,110
301,647	800,000	-0,029	0,080
302,662	126,534	-0,145	-0,126
303,676	71,990	-0,077	-0,056
304,691	-11,322	-0,243	0,110
305,706	294,741	-0,101	-0,128
306,720	800,000	-0,108	-0,209
307,735	524,916	-0,093	-0,151
308,749	-36,080	-0,045	0,017
309,764	464,016	-0,077	-0,118
310,779	-46,574	-0,180	-0,060
311,793	185,114	-0,111	-0,113
312,808	800,000	-0,090	-0,187
313,822	-48,462	-0,110	-0,036
314,837	34,291	-0,172	-0,103
315,852	-180,012	-0,180	0,003
316,866	129,265	-0,196	-0,173
317,881	-8,886	-0,127	-0,058
318,895	126,569	-0,087	-0,076
319,910	66,172	-0,123	-0,086
320,925	-63,592	-0,068	-0,019
321,939	66,024	-0,141	-0,099
322,954	-200,000	-0,028	-0,204
323,968	137,648	-0,068	-0,062
324,983	-200,000	-0,029	-0,214
325,997	547,537	-0,134	-0,221
327,012	97,137	-0,163	-0,129
328,027	236,455	-0,255	-0,291
329,041	295,090	-0,123	-0,155
330,056	-126,221	-0,211	0,021
331,070	-7,559	-0,088	0,041
332,085	-3,457	-0,111	0,053
333,100	-75,652	-0,213	-0,052
334,114	376,824	-0,092	-0,129
335,129	694,564	-0,147	-0,266
336,143	800,000	-0,059	-0,142
337,158	96,840	-0,210	-0,165
338,173	424,744	-0,097	-0,144
339,187	-47,036	-0,175	0,058
340,202	-159,873	-0,049	0,002
341,216	-48,858	-0,242	-0,079
342,231	-37,291	-0,224	-0,082
343,246	-31,166	-0,093	-0,036
344,260	-52,120	-0,185	-0,059
345,275	-98,040	-0,163	0,029
346,289	173,250	-0,049	-0,049
347,304	-200,000	-0,057	-0,219
348,319	101,083	-0,123	-0,098
349,333	153,220	-0,158	-0,148
350,348	-170,253	-0,209	0,005
351,362	800,000	-0,084	-0,245
352,377	467,483	-0,055	-0,086
353,392	380,653	-0,062	-0,087
354,406	-108,652	-0,179	-0,026
355,421	209,635	1312,524	1414,630
356,435	161,353	1473,021	1415,164
