DTS Sentinel unit serial number:	SN410029Multiplexer serial number:	ORYXHardware model number:	OX2-SRSoftware version number:	ORYX F/W v4,00 Oryx Data Collector v3.7.2.0data status	okinstallation	B3 Nyhavnadifferential loss correction	single-endedforward channel	channel 1reverse channel	N/Adate	2023/11/29time	23:52:30forward acquisition time	300,00reverse acquisition time	0,00gamma	499,1914k internal	0,3210k external	0,3210temperature offset calibration	1,0000default loss term (dB/km)	0,3820temperature slope calibration	1,0000multiplexer offset coefficient	1,0000multiplexer slope coefficient	1,0000fibre end	0,00T internal ref (°C)	10,88T ext. ref 1 (°C)	-4,26T ext. ref 2 (°C)	-4,37length (m)	temperature (°C)	Stokes	anti-Stokes-744,400	275,061	-0,206	-0,265
-743,385	-200,000	-0,084	0,281
-742,371	-200,000	0,033	-0,138
-741,356	479,106	-0,128	0,210
-740,342	-200,000	-0,066	-0,251
-739,327	-200,000	-0,033	0,247
-738,312	-200,000	-0,074	-0,411
-737,298	-200,000	-0,076	0,436
-736,283	33,916	-0,351	-0,221
-735,269	-200,000	0,096	0,330
-734,254	469,641	-0,172	-0,281
-733,239	-151,031	-0,246	-0,013
-732,225	-200,000	0,005	-0,274
-731,210	-200,000	-0,003	0,081
-730,196	800,000	0,033	0,104
-729,181	-26,089	-0,070	0,030
-728,167	-145,744	-0,039	0,003
-727,152	-6,925	-0,116	0,057
-726,137	-77,632	-0,061	0,015
-725,123	-57,050	0,028	0,009
-724,108	68,302	-0,070	-0,052
-723,094	-200,000	0,016	-0,125
-722,079	97,565	-0,183	-0,152
-721,064	-49,672	0,089	-0,031
-720,050	419,146	0,074	-0,115
-719,035	-68,800	-0,083	0,023
-718,021	800,000	0,019	-0,043
-717,006	800,000	-0,083	-0,167
-715,991	19,293	-0,072	-0,042
-714,977	-50,329	-0,079	0,027
-713,962	-163,628	-0,028	-0,001
-712,948	800,000	0,050	0,115
-711,933	-200,000	-0,008	-0,065
-710,918	413,335	0,062	-0,096
-709,904	-200,000	0,001	0,015
-708,889	-200,000	0,010	0,042
-707,875	424,476	0,067	-0,105
-706,860	130,356	-0,044	0,041
-705,845	592,271	0,027	-0,048
-704,831	107,602	-0,057	-0,049
-703,816	281,905	0,079	0,103
-702,802	-134,173	-0,121	0,011
-701,787	286,253	-0,145	-0,189
-700,772	800,000	-0,017	-0,037
-699,758	43,828	-0,017	0,011
-698,743	459,857	-0,039	0,062
-697,729	-20,986	0,121	-0,053
-696,714	-200,000	-0,002	0,052
-695,699	39,639	-0,101	0,065
-694,685	-187,221	-0,084	-0,001
-693,670	-200,000	-0,008	-0,096
-692,656	224,309	-0,036	-0,042
-691,641	-157,846	0,062	0,003
-690,627	800,000	-0,024	-0,071
-689,612	-12,011	0,023	-0,011
-688,597	-113,847	-0,076	0,011
-687,583	116,964	-0,040	-0,036
-686,568	-200,000	-0,013	-0,052
-685,554	800,000	-0,012	-0,036
-684,539	800,000	-0,027	-0,054
-683,524	-47,626	-0,038	0,013
-682,510	-7,366	-0,074	0,036
-681,495	-53,508	-0,048	-0,016
-680,481	170,541	-0,028	-0,029
-679,466	9,963	-0,063	-0,034
-678,451	-200,000	0,015	-0,135
-677,437	39,601	-0,023	-0,015
-676,422	-99,733	0,052	0,009
-675,408	-200,000	0,004	0,060
-674,393	800,000	0,075	0,215
-673,378	-200,000	-0,012	0,162
-672,364	-200,000	0,001	0,085
-671,349	545,583	-0,029	0,051
-670,335	800,000	-0,038	-0,105
-669,320	175,870	-0,068	-0,072
-668,305	-200,000	-0,027	0,169
-667,291	-200,000	0,006	-0,036
-666,276	800,000	-0,058	-0,163
-665,262	261,517	-0,061	-0,077
-664,247	47,730	0,069	0,046
-663,232	-155,292	0,064	0,003
-662,218	36,186	0,048	-0,031
-661,203	-200,000	0,002	0,070
-660,189	800,000	0,056	0,143
-659,174	167,862	-0,049	0,051
-658,159	800,000	-0,040	0,082
-657,145	-71,963	-0,053	-0,014
-656,130	-200,000	0,009	-0,146
-655,116	227,230	-0,040	0,048
-654,101	-33,814	-0,142	-0,056
-653,086	-200,000	-0,002	-0,072
-652,072	32,187	-0,016	0,010
-651,057	79,470	-0,013	0,010
-650,043	-200,000	-0,005	-0,155
-649,028	2,336	0,109	-0,057
-648,014	332,773	0,045	0,063
-646,999	-200,000	-0,018	0,130
-645,984	37,627	-0,014	0,009
-644,970	222,145	0,057	0,067
-643,955	132,235	-0,100	-0,093
-642,941	-16,333	0,098	-0,045
-641,926	-40,423	-0,107	0,040
-640,911	78,889	0,061	0,047
-639,897	-200,000	-0,043	0,168
-638,882	168,379	0,033	0,034
-637,868	26,827	0,056	-0,034
-636,853	-21,720	0,030	-0,013
-635,838	-32,779	0,127	-0,051
-634,824	222,660	-0,060	0,070
-633,809	149,858	-0,056	0,054
-632,795	800,000	-0,017	-0,040
-631,780	-200,000	0,009	-0,067
-630,765	-200,000	-0,016	-0,065
-629,751	512,378	-0,038	-0,065
-628,736	800,000	-0,051	-0,132
-627,722	357,220	0,078	-0,113
-626,707	-51,072	0,101	0,034
-625,692	273,555	-0,059	0,075
-624,678	-200,000	0,012	0,041
-623,663	-45,311	0,045	0,016
-622,649	-59,854	-0,105	0,032
-621,634	154,695	-0,079	-0,078
-620,619	-74,050	-0,092	-0,024
-619,605	752,346	0,035	0,069
-618,590	-200,000	-0,024	-0,084
-617,576	136,011	-0,050	0,047
-616,561	-118,414	-0,090	-0,011
-615,546	55,639	-0,128	0,089
-614,532	800,000	-0,031	-0,077
-613,517	35,400	0,112	0,071
-612,503	-69,529	0,056	0,015
-611,488	20,002	0,117	0,068
-610,474	-200,000	0,019	0,085
-609,459	-200,000	-0,004	-0,040
-608,444	-45,641	-0,046	0,016
-607,430	225,949	0,038	-0,045
-606,415	-200,000	0,015	-0,087
-605,401	433,468	0,077	0,121
-604,386	-200,000	-0,040	0,140
-603,371	-176,223	0,108	-0,002
-602,357	263,360	-0,046	0,058
-601,342	274,818	-0,041	-0,053
-600,328	800,000	-0,046	-0,113
-599,313	-156,312	0,062	-0,003
-598,298	102,499	0,059	-0,050
-597,284	800,000	0,013	-0,038
-596,269	-200,000	0,018	-0,060
-595,255	-94,469	0,068	0,013
-594,240	800,000	-0,038	0,097
-593,225	66,776	0,016	-0,012
-592,211	87,036	-0,168	-0,134
-591,196	-200,000	0,004	0,055
-590,182	-200,000	-0,025	-0,089
-589,167	178,309	0,063	-0,067
-588,152	11,414	-0,052	-0,028
-587,138	18,386	-0,070	-0,040
-586,123	-13,803	-0,086	0,040
-585,109	138,342	0,071	-0,067
-584,094	141,450	-0,062	-0,059
-583,079	4,576	0,043	-0,023
-582,065	-200,000	0,022	0,088
-581,050	311,032	0,072	0,098
-580,036	246,648	-0,037	0,045
-579,021	-98,793	-0,132	-0,024
-578,006	51,287	-0,010	-0,007
-576,992	-200,000	-0,001	-0,032
-575,977	-52,541	0,059	-0,020
-574,963	-131,301	0,147	0,014
-573,948	-200,000	-0,014	0,059
-572,934	599,908	-0,077	0,139
-571,919	800,000	-0,044	-0,090
-570,904	-200,000	-0,008	-0,054
-569,890	-147,404	0,100	-0,006
-568,875	800,000	0,060	0,127
-567,861	215,798	0,047	0,054
-566,846	-200,000	-0,025	0,108
-565,831	-70,763	-0,072	0,019
-564,817	-200,000	-0,003	-0,097
-563,802	800,000	-0,034	-0,106
-562,788	800,000	-0,041	0,084
-561,773	800,000	0,031	0,065
-560,758	-182,329	0,063	0,001
-559,744	-147,498	-0,080	0,005
-558,729	-47,644	-0,021	-0,007
-557,715	42,619	0,127	-0,083
-556,700	51,633	-0,065	-0,044
-555,685	-124,137	-0,089	-0,010
-554,671	-75,549	0,115	-0,029
-553,656	-95,134	0,159	-0,031
-552,642	-110,260	-0,019	0,003
-551,627	-1,707	0,075	0,038
-550,612	800,000	0,027	-0,071
-549,598	-41,820	-0,077	0,028
-548,583	800,000	-0,075	0,184
-547,569	-65,559	-0,071	0,020
-546,554	3,246	-0,122	-0,064
-545,539	-9,175	0,084	0,040
-544,525	800,000	-0,017	0,042
-543,510	469,553	-0,006	0,010
-542,496	-120,475	-0,134	0,016
-541,481	66,601	0,073	-0,053
-540,466	8,233	-0,066	-0,036
-539,452	413,898	0,024	-0,037
-538,437	3,133	0,070	0,037
-537,423	111,652	0,090	0,078
-536,408	-31,948	0,069	-0,028
-535,393	144,210	-0,118	-0,113
-534,379	-200,000	-0,008	0,068
-533,364	497,490	-0,076	-0,127
-532,350	-200,000	-0,022	0,114
-531,335	547,166	-0,045	-0,078
-530,321	-62,919	0,130	0,038
-529,306	-198,130	-0,126	-0,001
-528,291	124,192	-0,158	-0,143
-527,277	5,456	0,054	-0,029
-526,262	-47,114	-0,052	-0,018
-525,248	800,000	0,059	0,146
-524,233	-200,000	0,032	0,138
-523,218	540,402	-0,012	-0,020
-522,204	800,000	-0,045	0,098
-521,189	-200,000	0,001	0,062
-520,175	-36,614	-0,165	-0,063
-519,160	146,522	-0,026	-0,025
-518,145	382,646	0,038	-0,057
-517,131	-148,813	-0,035	-0,002
-516,116	-200,000	0,047	0,175
-515,102	-200,000	-0,039	0,179
-514,087	800,000	-0,078	-0,173
-513,072	699,923	-0,067	-0,127
-512,058	-22,117	-0,087	-0,038
-511,043	-47,262	0,076	-0,026
-510,029	534,371	-0,073	-0,125
-509,014	233,554	-0,062	-0,073
-507,999	350,472	-0,060	-0,085
-506,985	-115,537	-0,101	0,014
-505,970	-112,296	0,006	0,001
-504,956	282,410	0,022	0,029
-503,941	-64,495	-0,094	-0,027
-502,926	-200,000	0,017	0,125
-501,912	800,000	0,031	-0,098
-500,897	122,537	0,037	0,033
-499,883	-164,691	-0,083	0,003
-498,868	-200,000	0,028	-0,105
-497,853	210,783	-0,052	-0,059
-496,839	64,047	-0,046	0,033
-495,824	-200,000	-0,010	0,045
-494,810	260,297	-0,066	-0,082
-493,795	81,297	-0,063	0,049
-492,781	384,109	-0,074	-0,110
-491,766	123,413	-0,072	-0,065
-490,751	16,898	0,069	0,039
-489,737	-10,137	-0,096	-0,046
-488,722	-200,000	0,006	0,083
-487,708	-74,823	0,050	-0,013
-486,693	287,891	0,010	0,013
-485,678	-200,000	0,005	0,076
-484,664	238,024	-0,083	-0,100
-483,649	110,969	-0,018	-0,015
-482,635	-200,000	-0,015	-0,134
-481,620	90,265	0,069	-0,055
-480,605	-0,208	0,116	0,059
-479,591	-86,398	0,046	-0,010
-478,576	3,526	0,078	0,041
-477,562	478,990	0,035	0,057
-476,547	300,264	0,045	-0,060
-475,532	-113,025	-0,151	0,021
-474,518	-106,688	0,084	0,013
-473,503	-94,215	-0,054	0,010
-472,489	687,347	0,083	0,156
-471,474	-104,149	0,046	0,008
-470,459	-200,000	0,015	-0,067
-469,445	-200,000	-0,016	-0,116
-468,430	-3,271	0,048	-0,024
-467,416	800,000	0,038	0,107
-466,401	-147,831	0,171	0,010
-465,386	-200,000	-0,008	0,101
-464,372	437,856	0,057	0,090
-463,357	-60,626	-0,078	0,024
-462,343	-100,753	-0,105	-0,018
-461,328	174,160	0,070	-0,073
-460,313	158,770	0,106	0,106
-459,299	0,263	-0,026	-0,013
-458,284	672,542	0,079	0,147
-457,270	800,000	-0,012	-0,027
-456,255	791,998	-0,033	0,066
-455,241	-200,000	-0,003	-0,019
-454,226	-137,286	0,137	-0,011
-453,211	-94,550	0,081	0,016
-452,197	573,531	0,068	-0,119
-451,182	-200,000	-0,015	0,140
-450,168	800,000	0,056	0,136
-449,153	800,000	-0,028	-0,080
-448,138	-60,225	0,114	0,035
-447,124	242,718	0,086	-0,103
-446,109	-200,000	0,006	0,082
-445,095	-3,159	0,059	0,029
-444,080	117,880	0,030	-0,026
-443,065	-200,000	0,002	-0,101
-442,051	-200,000	-0,003	0,021
-441,036	-14,812	-0,100	-0,046
-440,022	-95,921	0,135	-0,026
-439,007	-200,000	-0,016	0,053
-437,992	-200,000	0,029	0,125
-436,978	-72,588	0,164	-0,043
-435,963	-103,719	0,073	0,012
-434,949	-200,000	-0,010	-0,130
-433,934	483,866	-0,053	-0,087
-432,919	63,785	-0,153	-0,110
-431,905	-96,885	-0,104	0,019
-430,890	431,532	0,035	-0,055
-429,876	-200,000	0,194	-0,001
-428,861	-95,092	-0,041	-0,008
-427,846	-200,000	-0,019	-0,063
-426,832	-200,000	-0,028	-0,200
-425,817	800,000	-0,023	-0,053
-424,803	194,888	-0,099	0,108
-423,788	800,000	0,027	-0,085
-422,773	-75,857	-0,061	0,015
-421,759	-200,000	0,065	0,233
-420,744	-64,962	-0,122	-0,035
-419,730	-165,771	-0,103	-0,003
-418,715	-200,000	0,031	-0,175
-417,701	-131,184	-0,128	0,012
-416,686	686,506	-0,059	-0,110
-415,671	-111,008	0,014	0,002
-414,657	-90,985	0,057	0,012
-413,642	332,926	-0,057	0,079
-412,628	-200,000	-0,028	-0,143
-411,613	800,000	-0,027	-0,077
-410,598	-141,410	-0,048	-0,003
-409,584	-23,369	0,070	0,030
-408,569	-200,000	-0,029	0,203
-407,555	9,068	-0,131	0,071
-406,540	287,769	-0,027	0,035
-405,525	-200,000	0,007	-0,027
-404,511	-136,981	-0,066	0,005
-403,496	182,470	0,022	-0,024
-402,482	-115,745	-0,121	-0,016
-401,467	-15,948	0,081	0,037
-400,452	-28,570	0,061	0,025
-399,438	-200,000	-0,014	0,139
-398,423	-22,762	0,114	0,049
-397,409	174,434	-0,084	-0,087
-396,394	153,356	-0,101	-0,099
-395,379	-164,515	-0,102	0,003
-394,365	-49,781	0,051	0,017
-393,350	36,018	0,057	-0,036
-392,336	-17,638	0,087	-0,039
-391,321	800,000	-0,021	-0,056
-390,306	-40,231	-0,087	0,032
-389,292	-163,297	-0,145	0,005
-388,277	706,140	-0,014	-0,027
-387,263	595,987	0,044	0,079
-386,248	800,000	0,051	0,138
-385,233	-200,000	0,027	-0,155
-384,219	86,919	-0,054	-0,043
-383,204	218,998	-0,056	0,064
-382,190	-200,000	0,017	-0,102
-381,175	800,000	0,038	-0,119
-380,160	639,692	-0,070	0,127
-379,146	-53,487	0,218	0,071
-378,131	800,000	0,023	0,053
-377,117	546,604	-0,069	0,119
-376,102	-120,698	0,026	0,003
-375,088	491,434	0,061	-0,101
-374,073	800,000	-0,016	-0,047
-373,058	377,336	0,015	-0,022
-372,044	776,187	-0,060	0,117
-371,029	282,481	-0,082	0,105
-370,015	197,649	0,021	0,023
-369,000	-41,023	-0,088	-0,032
-367,985	97,520	0,094	-0,077
-366,971	-68,100	-0,007	-0,002
-365,956	12,709	0,010	-0,005
-364,942	-16,225	0,140	0,064
-363,927	-33,502	0,032	0,012
-362,912	-200,000	-0,007	-0,040
-361,898	287,020	0,013	-0,016
-360,883	76,516	0,115	-0,087
-359,869	800,000	-0,010	0,029
-358,854	186,163	-0,067	-0,072
-357,839	-86,547	-0,041	-0,009
-356,825	-9,941	0,119	0,056
-355,810	111,799	0,025	0,022
-354,796	-200,000	0,008	-0,024
-353,781	-163,882	-0,084	0,003
-352,766	369,173	-0,065	-0,094
-351,752	-90,003	0,121	0,025
-350,737	-57,735	0,114	-0,036
-349,723	800,000	0,019	-0,053
-348,708	228,093	0,047	-0,055
-347,693	614,238	0,022	0,040
-346,679	261,646	-0,134	0,167
-345,664	101,216	0,053	0,044
-344,650	-45,277	0,096	0,034
-343,635	562,930	0,092	0,160
-342,620	189,033	0,078	0,084
-341,606	-83,653	-0,018	0,004
-340,591	41,761	0,058	0,038
-339,577	325,343	-0,118	-0,161
-338,562	95,475	-0,070	-0,057
-337,548	225,445	-0,024	0,028
-336,533	-65,873	0,126	0,036
-335,518	44,748	0,106	-0,069
-334,504	-200,000	0,014	-0,047
-333,489	-200,000	-0,000	-0,010
-332,475	-133,109	-0,159	0,014
-331,460	-126,078	-0,072	0,008
-330,445	-8,603	-0,037	-0,018
-329,431	204,968	-0,042	0,047
-328,416	58,840	0,167	0,117
-327,402	800,000	0,051	0,136
-326,387	322,607	0,039	-0,053
-325,372	187,890	-0,031	-0,034
-324,358	27,898	-0,039	-0,023
-323,343	800,000	-0,013	0,033
-322,329	-35,010	-0,130	-0,050
-321,314	472,685	-0,025	0,040
-320,299	99,848	0,034	-0,028
-319,285	800,000	0,019	-0,056
-318,270	800,000	0,034	-0,097
-317,256	-128,019	-0,163	-0,016
-316,241	-79,423	0,102	0,025
-315,226	351,993	0,078	-0,111
-314,212	800,000	0,047	0,116
-313,197	381,003	0,069	0,102
-312,183	117,456	-0,116	0,102
-311,168	186,824	-0,128	0,136
-310,153	-80,284	-0,080	-0,019
-309,139	-77,102	-0,076	-0,019
-308,124	325,884	0,036	0,050
-307,110	77,500	0,135	0,102
-306,095	158,475	0,070	-0,069
-305,080	-174,549	0,095	0,002
-304,066	508,582	0,041	-0,068
-303,051	-189,548	-0,087	-0,001
-302,037	800,000	-0,060	0,148
-301,022	-200,000	-0,017	-0,150
-300,008	-200,000	0,020	-0,102
-298,993	-200,000	0,020	0,157
-297,978	-108,598	0,117	-0,018
-296,964	49,506	0,015	-0,010
-295,949	-200,000	0,008	-0,091
-294,935	-200,000	0,038	-0,215
-293,920	226,903	0,076	-0,088
-292,905	163,372	0,017	-0,017
-291,891	800,000	0,032	-0,089
-290,876	-200,000	-0,010	0,046
-289,862	263,166	-0,091	0,113
-288,847	299,381	-0,035	0,046
-287,832	-200,000	-0,035	-0,197
-286,818	-200,000	-0,006	0,022
-285,803	-200,000	0,033	0,151
-284,789	-165,443	0,122	-0,004
-283,774	-200,000	0,030	0,141
-282,759	-158,052	0,122	0,005
-281,745	5,641	-0,028	-0,014
-280,730	-200,000	0,016	-0,103
-279,716	553,242	0,032	-0,054
-278,701	289,641	-0,105	-0,137
-277,686	190,656	0,051	-0,054
-276,672	91,992	-0,046	0,037
-275,657	-108,858	-0,047	0,007
-274,643	714,036	-0,058	-0,110
-273,628	58,002	-0,057	0,040
-272,613	112,333	0,027	-0,023
-271,599	-163,640	-0,022	-0,001
-270,584	-37,298	0,086	0,033
-269,570	800,000	0,046	-0,126
-268,555	-200,000	0,009	0,050
-267,540	163,003	0,019	0,019
-266,526	214,057	0,038	0,043
-265,511	105,400	-0,072	0,061
-264,497	-139,138	0,082	-0,006
-263,482	18,408	-0,059	0,033
-262,467	321,049	0,095	0,129
-261,453	-200,000	-0,024	0,083
-260,438	-81,437	-0,067	-0,015
-259,424	-200,000	0,001	-0,039
-258,409	-47,047	-0,090	-0,031
-257,395	168,977	-0,040	-0,040
-256,380	515,722	0,027	0,044
-255,365	-151,249	0,041	-0,002
-254,351	-200,000	-0,003	-0,011
-253,336	-200,000	0,012	0,132
-252,322	186,396	0,057	0,060
-251,307	-92,819	-0,085	-0,017
-250,292	-200,000	-0,023	0,084
-249,278	800,000	0,009	0,026
-248,263	98,656	-0,033	-0,027
-247,249	-83,392	0,050	0,011
-246,234	-100,905	0,077	-0,013
-245,219	-12,191	-0,133	-0,062
-244,205	80,530	0,091	-0,070
-243,190	-200,000	-0,040	-0,139
-242,176	-200,000	0,009	0,065
-241,161	-200,000	-0,013	0,116
-240,146	14,419	0,106	0,059
-239,132	436,578	-0,097	-0,151
-238,117	708,645	-0,030	-0,057
-237,103	-163,342	-0,062	0,002
-236,088	-32,045	0,133	-0,053
-235,073	485,186	0,024	0,039
-234,059	83,292	0,090	0,070
-233,044	800,000	0,059	0,119
-232,030	-99,837	-0,066	-0,012
-231,015	102,515	-0,015	-0,013
-230,000	-134,851	-0,132	0,011
-228,986	-156,214	0,123	0,005
-227,971	-200,000	-0,031	-0,100
-226,957	-200,000	-0,005	-0,039
-225,942	252,896	-0,072	0,088
-224,927	267,546	0,104	-0,129
-223,913	109,297	-0,102	-0,087
-222,898	800,000	0,020	0,050
-221,884	-137,986	-0,084	-0,007
-220,869	620,144	-0,020	0,035
-219,855	-108,494	0,162	-0,025
-218,840	-68,349	-0,177	0,048
-217,825	800,000	0,060	0,139
-216,811	47,312	-0,110	0,073
-215,796	374,734	0,022	0,032
-214,782	43,209	-0,042	0,027
-213,767	426,265	-0,009	0,014
-212,752	-200,000	0,000	0,014
-211,738	-200,000	0,011	0,038
-210,723	800,000	-0,039	0,086
-209,709	-78,338	0,170	-0,041
-208,694	-90,061	-0,160	-0,033
-207,679	-111,555	0,062	0,009
-206,665	-21,971	-0,061	0,026
-205,650	-107,560	0,158	0,024
-204,636	-75,438	-0,099	0,025
-203,621	117,792	-0,063	0,055
-202,606	-55,603	-0,078	-0,025
-201,592	428,656	-0,038	-0,059
-200,577	162,242	-0,088	-0,087
-199,563	-143,245	-0,132	-0,009
-198,548	440,900	-0,033	0,052
-197,533	50,396	0,059	0,039
-196,519	800,000	0,005	0,012
-195,504	-200,000	-0,012	-0,092
-194,490	383,952	-0,047	-0,069
-193,475	800,000	-0,036	-0,113
-192,460	562,285	0,086	-0,147
-191,446	308,526	-0,034	-0,046
-190,431	80,822	0,081	0,062
-189,417	132,148	0,027	0,025
-188,402	-200,000	-0,016	-0,083
-187,387	313,274	0,052	-0,070
-186,373	61,266	0,034	-0,024
-185,358	-66,023	0,075	-0,021
-184,344	51,922	0,075	0,050
-183,329	-37,959	0,056	-0,021
-182,315	639,886	0,053	-0,097
-181,300	176,897	-0,070	-0,072
-180,285	248,815	0,036	-0,044
-179,271	787,729	-0,063	0,124
-178,256	-122,186	0,052	-0,006
-177,242	338,664	0,069	0,096
-176,227	-151,055	0,089	0,005
-175,212	16,865	0,115	0,064
-174,198	-18,313	0,117	-0,052
-173,183	243,530	-0,064	-0,077
-172,169	64,613	0,020	-0,014
-171,154	91,112	-0,033	0,027
-170,139	-47,930	0,064	-0,022
-169,125	397,068	0,049	0,073
-168,110	-200,000	-0,016	0,137
-167,096	-12,069	-0,081	0,037
-166,081	290,236	-0,034	-0,044
-165,066	369,327	0,066	-0,095
-164,052	230,331	-0,031	-0,036
-163,037	800,000	0,037	0,112
-162,023	-200,000	0,026	0,174
-161,008	227,962	0,140	0,161
-159,993	-18,499	-0,237	-0,105
-158,979	-200,000	-0,022	-0,100
-157,964	-54,730	-0,112	-0,036
-156,950	-200,000	-0,014	-0,142
-155,935	-84,083	-0,117	-0,026
-154,920	173,149	0,065	0,066
-153,906	800,000	-0,045	0,091
-152,891	-110,838	0,065	0,009
-151,877	-200,000	0,008	-0,064
-150,862	-38,320	0,030	-0,011
-149,847	188,269	-0,032	-0,034
-148,833	172,736	0,114	0,117
-147,818	800,000	0,014	-0,027
-146,804	800,000	-0,045	0,088
-145,789	-92,674	0,075	0,015
-144,775	77,458	0,072	-0,054
-143,760	11,214	0,082	0,044
-142,745	-165,640	-0,031	0,001
-141,731	209,545	0,068	0,075
-140,716	-200,000	-0,002	-0,057
-139,702	-200,000	-0,006	0,109
-138,687	-60,361	0,095	0,028
-137,672	-43,308	0,161	-0,057
-136,658	416,104	0,048	0,073
-135,643	46,195	-0,063	0,041
-134,629	268,559	0,123	0,153
-133,614	-31,660	0,137	-0,054
-132,599	800,000	0,007	0,020
-131,585	-65,690	-0,094	-0,027
-130,570	160,704	0,036	-0,036
-129,556	363,641	-0,011	-0,015
-128,541	-36,246	0,060	-0,023
-127,526	-150,150	-0,112	0,006
-126,512	-128,206	-0,031	-0,003
-125,497	-93,269	0,123	-0,024
-124,483	-200,000	0,017	0,066
-123,468	-121,487	0,058	0,007
-122,453	-200,000	-0,001	0,017
-121,439	-200,000	-0,053	-0,175
-120,424	455,894	0,054	0,085
-119,410	-200,000	-0,010	0,089
-118,395	53,520	-0,049	-0,033
-117,380	-159,471	0,095	0,004
-116,366	7,494	-0,064	-0,034
-115,351	-66,369	-0,026	0,007
-114,337	179,008	0,037	-0,039
-113,322	229,730	-0,063	-0,073
-112,307	138,550	0,097	0,090
-111,293	-200,000	-0,050	0,169
-110,278	178,799	0,099	-0,103
-109,264	608,119	0,013	0,024
-108,249	800,000	-0,012	-0,027
-107,234	-72,057	0,027	-0,007
-106,220	-153,710	-0,146	-0,007
-105,205	-200,000	0,007	-0,071
-104,191	713,729	0,053	0,100
-103,176	90,579	0,107	0,085
-102,162	-200,000	-0,018	0,098
-101,147	571,338	0,076	0,132
-100,132	-160,416	-0,085	-0,003
-99,118	-200,000	0,021	-0,069
-98,103	800,000	0,016	0,048
-97,089	800,000	0,012	0,023
-96,074	420,361	0,059	-0,089
-95,059	-9,810	0,033	0,015
-94,045	-73,988	0,048	0,012
-93,030	-74,105	-0,114	0,029
-92,016	-200,000	-0,020	-0,103
-91,001	65,249	-0,076	-0,055
-89,986	-97,472	0,069	0,013
-88,972	685,681	0,064	0,118
-87,957	800,000	0,064	0,146
-86,943	452,061	-0,031	-0,048
-85,928	221,687	-0,061	-0,069
-84,913	-200,000	-0,003	0,197
-83,899	163,448	0,051	0,051
-82,884	284,085	0,040	-0,051
-81,870	-200,000	0,010	0,095
-80,855	800,000	-0,005	-0,014
-79,840	208,945	-0,104	-0,115
-78,826	-200,000	0,012	-0,047
-77,811	-200,000	-0,017	-0,128
-76,797	214,982	-0,050	-0,056
-75,782	-166,456	-0,117	-0,003
-74,767	-60,737	-0,028	0,008
-73,753	-113,520	-0,060	-0,008
-72,738	262,391	-0,078	-0,096
-71,724	416,315	0,043	-0,065
-70,709	-66,063	-0,122	0,034
-69,694	244,740	0,001	0,001
-68,680	-36,896	0,197	0,074
-67,665	-132,771	0,016	-0,001
-66,651	800,000	0,024	-0,052
-65,636	-88,937	-0,060	0,012
-64,622	-45,374	0,085	0,030
-63,607	90,932	-0,114	-0,090
-62,592	-200,000	0,014	0,068
-61,578	-67,258	0,119	-0,033
-60,563	19,002	-0,096	0,054
-59,549	-200,000	0,026	0,208
-58,534	-5,288	-1,933	-0,935
-57,519	565,293	-1,150	-1,977
-56,505	-200,000	-0,446	-4,235
-55,490	451,455	1,015	1,589
-54,476	800,000	4,989	11,068
-53,461	-200,000	20,912	328,870
-52,446	800,000	757,060	2322,036
-51,432	550,604	1662,037	2826,019
-50,417	73,443	1664,513	1228,796
-49,403	18,693	1537,434	866,214
-48,388	12,713	1460,352	793,834
-47,373	19,022	1450,947	818,998
-46,359	15,830	1440,347	797,785
-45,344	10,983	1436,099	772,302
-44,330	10,935	1434,304	771,075
-43,315	10,920	1432,328	769,911
-42,300	10,939	1430,461	768,969
-41,286	10,942	1429,380	768,371
-40,271	10,902	1427,966	767,392
-39,257	10,920	1426,913	766,880
-38,242	10,972	1425,625	766,403
-37,227	10,957	1424,573	765,736
-36,213	10,920	1423,350	764,876
-35,198	10,951	1422,285	764,419
-34,184	11,027	1421,316	764,224
-33,169	10,948	1419,904	763,064
-32,154	11,023	1418,896	762,843
-31,140	10,996	1417,600	761,992
-30,125	10,982	1416,780	761,455
-29,111	11,011	1415,694	760,974
-28,096	11,033	1414,204	760,249
-27,082	10,930	1413,237	759,217
-26,067	10,920	1412,037	758,495
-25,052	10,923	1411,256	758,058
-24,038	10,976	1410,156	757,685
-23,023	10,920	1409,213	756,886
-22,009	10,896	1408,214	756,206
-20,994	10,874	1407,161	755,509
-19,979	10,888	1406,158	755,005
-18,965	10,865	1405,194	754,353
-17,950	10,819	1404,487	753,725
-16,936	10,826	1403,741	753,328
-15,921	10,780	1402,453	752,392
-14,906	10,812	1401,545	752,027
-13,892	10,853	1400,507	751,629
-12,877	10,833	1399,808	751,133
-11,863	10,823	1399,014	750,629
-10,848	10,814	1398,018	750,023
-9,833	10,764	1397,133	749,289
-8,819	10,761	1396,362	748,830
-7,804	10,706	1395,516	748,090
-6,790	10,761	1394,509	747,776
-5,775	10,731	1393,493	747,063
-4,760	10,723	1392,462	746,443
-3,746	10,759	1391,409	746,015
-2,731	10,697	1390,761	745,354
-1,717	10,719	1389,782	744,902
-0,702	10,736	1387,919	743,951
0,313	14,786	1301,735	716,310
1,327	31,225	693,207	418,857
2,342	48,665	120,220	79,385
3,356	-1,651	16,579	8,212
4,371	4,051	3,367	1,732
5,386	15,273	0,802	0,442
6,400	800,000	0,220	0,532
7,415	13,259	-0,180	-0,098
8,429	800,000	-0,155	-0,305
9,444	-35,462	-0,342	-0,130
10,459	-89,741	-0,230	-0,047
11,473	-35,619	-0,289	-0,110
12,488	9,904	-0,379	-0,202
13,502	5,506	-0,295	-0,153
14,517	-19,040	-0,208	-0,091
15,531	-75,222	-0,445	-0,111
16,546	-7,318	-0,344	-0,164
17,561	83,277	-0,453	-0,347
18,575	-97,848	-0,158	0,029
19,590	164,755	-0,174	-0,173
20,604	-87,664	-0,267	-0,056
21,619	33,530	-0,434	-0,265
22,634	8,847	-0,467	-0,247
23,648	-3,179	-0,574	-0,281
24,663	23,366	-0,364	-0,210
25,677	-40,449	-0,433	-0,158
26,692	-43,022	-0,350	-0,124
27,707	197,240	-0,314	-0,338
28,721	2,459	-0,408	-0,207
29,736	93,388	-0,346	-0,276
30,750	120,667	-0,423	-0,370
31,765	122,779	-0,318	-0,280
32,780	-22,444	-0,406	-0,172
33,794	5,271	-0,376	-0,194
34,809	110,934	-0,385	-0,326
35,823	-22,078	-0,444	-0,189
36,838	159,882	-0,275	-0,270
37,853	142,270	-0,250	-0,233
38,867	125,284	-0,421	-0,373
39,882	109,264	-0,385	-0,324
40,896	236,723	-0,261	-0,304
41,911	-25,981	-0,505	-0,208
42,926	127,563	-0,287	-0,256
43,940	50,523	-0,341	-0,227
44,955	38,728	-0,377	-0,236
45,969	273,394	-0,311	-0,387
46,984	102,370	-0,368	-0,302
47,999	363,865	-0,182	-0,258
49,013	85,926	-0,230	-0,178
50,028	53,544	-0,258	-0,174
51,042	45,251	-0,397	-0,257
52,057	1,896	-0,433	-0,219
53,071	103,016	-0,345	-0,284
54,086	-200,000	-0,079	-0,279
55,101	-78,803	-0,380	-0,090
56,115	-162,299	-0,294	-0,010
57,130	102,179	-0,215	-0,177
58,144	411,490	-0,254	-0,380
59,159	0,772	-0,375	-0,188
60,174	23,008	-0,388	-0,223
61,188	50,199	-0,331	-0,219
62,203	-29,592	-0,410	-0,164
63,217	141,769	-0,254	-0,236
64,232	289,773	-0,193	-0,246
65,247	-29,121	-0,364	-0,146
66,261	204,845	-0,321	-0,350
67,276	73,421	-0,318	-0,233
68,290	100,004	-0,257	-0,209
69,305	131,620	-0,256	-0,231
70,320	70,515	-0,194	-0,141
71,334	116,586	-0,311	-0,267
72,349	53,060	-0,396	-0,265
73,363	229,313	-0,234	-0,268
74,378	-85,761	-0,380	-0,082
75,393	32,887	-0,275	-0,166
76,407	342,328	-0,246	-0,339
77,422	36,667	-0,287	-0,178
78,436	291,383	-0,223	-0,285
79,451	-6,721	-0,220	-0,105
80,466	90,566	-0,302	-0,236
81,480	-75,397	-0,425	-0,105
82,495	199,765	-0,280	-0,301
83,509	45,520	-0,182	-0,117
84,524	-109,046	-0,205	-0,030
85,539	-92,176	-0,253	-0,050
86,553	83,516	-0,190	-0,145
87,568	142,427	-0,256	-0,238
88,582	374,188	-0,204	-0,292
89,597	8,932	-0,418	-0,220
90,611	179,544	-0,136	-0,139
91,626	6,038	-0,279	-0,144
92,641	-80,444	-0,161	-0,037
93,655	78,288	-0,346	-0,258
94,670	50,087	-0,287	-0,189
95,684	156,749	-0,338	-0,327
96,699	133,458	-0,248	-0,224
97,714	739,727	-0,165	-0,311
98,728	-4,855	-0,265	-0,127
99,743	-38,422	-0,360	-0,133
100,757	136,374	-0,312	-0,284
101,772	196,750	-0,199	-0,213
102,787	59,590	-0,268	-0,185
103,801	164,855	-0,308	-0,305
104,816	219,271	-0,177	-0,198
105,830	17,657	-0,206	-0,114
106,845	-10,842	-0,279	-0,128
107,860	763,918	-0,164	-0,313
108,874	169,232	-0,240	-0,240
109,889	96,713	-0,252	-0,202
110,903	-25,789	-0,246	-0,101
111,918	92,710	-0,222	-0,175
112,933	-71,638	-0,297	-0,077
113,947	-65,141	-0,235	-0,066
114,962	-11,665	-0,289	-0,132
115,976	318,439	-0,186	-0,247
116,991	100,595	-0,207	-0,168
118,006	108,580	-0,268	-0,223
119,020	21,606	-0,325	-0,184
120,035	68,933	-0,227	-0,163
121,049	195,541	-0,159	-0,169
122,064	163,854	-0,282	-0,278
123,079	97,419	-0,276	-0,221
124,093	252,124	-0,120	-0,143
125,108	141,222	-0,217	-0,201
126,122	204,191	-0,240	-0,260
127,137	46,077	-0,279	-0,180
128,151	93,624	-0,247	-0,195
129,166	1,059	-0,224	-0,112
130,181	577,309	-0,134	-0,229
131,195	-77,068	-0,231	-0,056
132,210	-28,866	-0,295	-0,118
133,224	98,819	-0,182	-0,146
134,239	-34,884	-0,185	-0,070
135,254	127,329	-0,158	-0,140
136,268	76,412	-0,271	-0,200
137,283	276,316	-0,157	-0,195
138,297	39,628	-0,329	-0,205
139,312	159,127	-0,251	-0,243
140,327	58,613	-0,321	-0,219
141,341	-40,969	-0,352	-0,126
142,356	-126,275	-0,182	0,019
143,370	123,394	-0,162	-0,141
144,385	245,212	-0,193	-0,226
145,400	-126,823	-0,329	0,033
146,414	412,561	-0,190	-0,282
147,429	-54,724	-0,287	-0,090
148,443	83,735	-0,287	-0,218
149,458	0,934	-0,344	-0,171
150,473	13,291	-0,241	-0,129
151,487	117,911	-0,202	-0,174
152,502	191,857	-0,265	-0,278
153,516	338,570	-0,270	-0,368
154,531	110,810	-0,326	-0,273
155,546	40,144	-0,216	-0,135
156,560	28,065	-0,178	-0,105
157,575	6,015	-0,258	-0,132
158,589	-134,619	-0,276	-0,023
159,604	108,530	-0,212	-0,176
160,619	20,132	-0,348	-0,195
161,633	-23,986	-0,329	-0,136
162,648	112,415	-0,177	-0,149
163,662	94,562	-0,211	-0,167
164,677	-9,000	-0,247	-0,115
165,692	576,420	-0,122	-0,208
166,706	60,813	-0,241	-0,166
167,721	44,842	-0,311	-0,199
168,735	284,257	-0,181	-0,227
169,750	-33,513	-0,207	-0,079
170,764	-14,103	-0,212	-0,095
171,779	672,243	-0,139	-0,252
172,794	800,000	-0,091	-0,185
173,808	124,857	-0,154	-0,135
174,823	102,122	-0,215	-0,174
175,837	800,000	-0,085	-0,259
176,852	179,738	-0,201	-0,205
177,867	49,786	-0,158	-0,103
178,881	-35,081	-0,195	0,074
179,896	800,000	-0,133	-0,305
180,910	156,273	-0,334	-0,321
181,925	55,107	-0,250	-0,168
182,940	135,191	-0,243	-0,219
183,954	-46,175	-0,184	-0,062
184,969	272,322	-0,178	-0,218
185,983	-89,482	-0,187	-0,038
186,998	-53,849	-0,212	-0,067
188,013	5,178	-0,220	-0,112
189,027	110,265	-0,218	-0,182
190,042	99,802	-0,235	-0,189
191,056	214,387	-0,091	-0,100
192,071	115,000	-0,214	-0,181
193,086	-143,570	-0,230	-0,015
194,100	800,000	-0,084	-0,217
195,115	119,135	-0,222	-0,190
196,129	-63,017	-0,297	-0,085
197,144	30,205	-0,284	-0,168
198,159	130,920	-0,190	-0,169
199,173	496,283	-0,168	-0,269
200,188	-200,000	-0,202	-0,000
201,202	134,059	-0,133	-0,119
202,217	-0,267	-0,255	-0,125
203,232	617,363	-0,124	-0,216
204,246	114,877	-0,236	-0,200
205,261	117,040	-0,208	-0,177
206,275	680,615	-0,194	-0,352
207,290	-200,000	-0,034	-0,122
208,304	-34,388	-0,180	-0,068
209,319	304,233	-0,131	-0,169
210,334	117,927	-0,193	-0,164
211,348	119,779	-0,218	-0,188
212,363	-12,973	-0,193	-0,087
213,377	324,726	-0,216	-0,287
214,392	314,716	-0,137	-0,179
215,407	4,534	-0,198	-0,101
216,421	771,871	-0,076	-0,144
217,436	3,022	-0,264	-0,132
218,450	800,000	-0,084	-0,162
219,465	302,433	-0,156	-0,201
220,480	24,574	-0,192	-0,110
221,494	-23,458	-0,176	-0,073
222,509	375,769	-0,114	-0,162
223,523	-81,722	-0,129	-0,029
224,538	78,064	-0,302	-0,223
225,553	63,485	-0,297	-0,206
226,567	-94,948	-0,274	-0,051
227,582	358,810	-0,111	-0,154
228,596	75,469	-0,115	-0,084
229,611	-46,821	-0,227	-0,076
230,626	28,868	-0,106	-0,062
231,640	331,956	-0,146	-0,196
232,655	0,864	-0,242	-0,119
233,669	55,593	-0,275	-0,184
234,684	212,837	-0,176	-0,192
235,699	319,643	-0,151	-0,198
236,713	-138,040	-0,147	0,011
237,728	800,000	-0,082	-0,181
238,742	800,000	-0,080	-0,164
239,757	252,237	-0,198	-0,233
240,772	679,236	-0,153	-0,276
241,786	251,548	-0,158	-0,186
242,801	543,710	-0,143	-0,237
243,815	-5,251	-0,130	0,062
244,830	334,806	-0,100	-0,134
245,844	800,000	-0,049	-0,123
246,859	202,017	-0,208	-0,222
247,874	52,899	-0,228	-0,151
248,888	-41,615	-0,222	-0,078
249,903	80,926	-0,122	-0,090
250,917	-200,000	-0,061	-0,208
251,932	238,993	-0,121	-0,139
252,947	45,442	-0,143	-0,091
253,961	347,771	-0,149	-0,203
254,976	456,194	-0,162	-0,248
255,990	71,031	-0,212	-0,151
257,005	323,936	-0,134	-0,177
258,020	123,845	-0,181	-0,157
259,034	-200,000	-0,009	-0,181
260,049	-77,679	-0,155	-0,037
261,063	177,904	-0,081	-0,081
262,078	559,285	-0,162	-0,270
263,093	77,647	-0,125	-0,092
264,107	800,000	-0,074	-0,165
265,122	-200,000	-0,019	-0,081
266,136	-197,299	-0,071	-0,000
267,151	-77,765	-0,124	-0,029
268,166	245,742	-0,142	-0,165
269,180	466,473	-0,172	-0,266
270,195	-117,581	-0,123	0,015
271,209	-73,318	-0,260	-0,065
272,224	9,648	-0,132	-0,069
273,239	38,093	0,029	-0,018
274,253	-37,730	-0,084	-0,031
275,268	-120,842	-0,017	-0,002
276,282	-81,624	-0,160	-0,036
277,297	86,813	-0,180	-0,136
278,312	800,000	-0,057	-0,164
279,326	460,620	-0,114	-0,176
280,341	-136,849	-0,190	0,015
281,355	-79,373	-0,166	-0,038
282,370	-200,000	-0,025	-0,174
283,384	-200,000	-0,009	-0,037
284,399	-31,795	-0,244	-0,094
285,414	-90,204	-0,236	0,047
286,428	-73,052	-0,216	-0,054
287,443	-142,451	-0,200	0,013
288,457	-150,974	-0,243	-0,012
289,472	-172,430	-0,139	-0,003
290,487	-200,000	-0,019	-0,063
291,501	205,414	-0,165	-0,177
292,516	48,659	-0,189	-0,122
293,530	46,676	-0,155	-0,099
294,545	20,008	0,057	-0,031
295,560	86,307	-0,092	-0,069
296,574	62,472	-0,244	-0,167
297,589	-16,588	-0,120	-0,052
298,603	18,394	-0,054	-0,030
299,618	92,636	-0,183	-0,142
300,633	105,085	-0,136	-0,110
301,647	199,408	-0,094	-0,099
302,662	-13,528	-0,184	0,082
303,676	13,926	-0,064	0,034
304,691	95,286	-0,169	-0,133
305,706	1,966	-0,151	-0,075
306,720	-200,000	-0,071	-0,264
307,735	800,000	-0,133	-0,275
308,749	800,000	-0,085	-0,169
309,764	-16,866	-0,110	0,047
310,779	-200,000	0,003	-0,173
311,793	29,411	-0,176	-0,103
312,808	800,000	-0,085	-0,170
313,822	31,290	-0,264	-0,155
314,837	-200,000	-0,003	-0,178
315,852	-112,018	-0,193	0,026
316,866	-200,000	-0,025	-0,091
317,881	19,053	-0,160	-0,088
318,895	283,496	-0,083	-0,103
319,910	147,947	-0,085	-0,079
320,925	800,000	-0,073	-0,165
321,939	-85,077	-0,139	-0,030
322,954	529,590	-0,075	-0,121
323,968	-200,000	0,004	-0,065
324,983	268,232	-0,086	-0,103
325,997	145,980	-0,150	-0,138
327,012	137,486	-0,107	-0,096
328,027	215,095	-0,113	-0,123
329,041	800,000	-0,072	-0,189
330,056	-86,651	-0,146	-0,030
331,070	800,000	-0,052	-0,101
332,085	-200,000	-0,041	-0,159
333,100	178,438	-0,089	-0,089
334,114	-200,000	-0,001	-0,065
335,129	-85,304	-0,131	-0,028
336,143	-119,117	-0,116	0,014
337,158	-55,504	-0,124	-0,038
338,173	800,000	0,021	0,047
339,187	64,909	-0,024	0,017
340,202	224,002	-0,132	-0,146
341,216	296,140	-0,174	-0,219
342,231	800,000	-0,063	-0,152
343,246	800,000	-0,045	-0,118
344,260	-28,126	-0,059	0,023
345,275	104,609	-0,030	0,024
346,289	-135,059	-0,064	0,005
347,304	800,000	-0,102	-0,282
348,319	-35,410	-0,233	0,086
349,333	-26,122	-0,153	-0,061
350,348	296,099	-0,126	-0,158
351,362	800,000	-0,103	-0,237
352,377	100,294	-0,114	-0,091
353,392	-132,538	-0,052	-0,005
354,406	498,823	-0,117	-0,184
355,421	207,507	1309,908	1400,050
356,435	159,632	1470,026	1400,534
