DTS Sentinel unit serial number:	SN410029Multiplexer serial number:	ORYXHardware model number:	OX2-SRSoftware version number:	ORYX F/W v4,00 Oryx Data Collector v3.7.2.0data status	okinstallation	B3 Nyhavnadifferential loss correction	single-endedforward channel	channel 1reverse channel	N/Adate	2023/11/29time	06:22:30forward acquisition time	300,00reverse acquisition time	0,00gamma	499,1914k internal	0,3211k external	0,3211temperature offset calibration	1,0000default loss term (dB/km)	0,3820temperature slope calibration	1,0000multiplexer offset coefficient	1,0000multiplexer slope coefficient	1,0000fibre end	0,00T internal ref (°C)	8,95T ext. ref 1 (°C)	-6,54T ext. ref 2 (°C)	-6,63length (m)	temperature (°C)	Stokes	anti-Stokes-744,400	148,960	-0,272	-0,267
-743,385	800,000	-0,043	0,122
-742,371	-13,133	-0,195	-0,091
-741,356	-200,000	0,088	0,319
-740,342	123,941	-0,189	-0,172
-739,327	-200,000	-0,017	0,205
-738,312	307,050	-0,223	-0,302
-737,298	800,000	-0,119	0,278
-736,283	800,000	-0,078	-0,208
-735,269	509,728	-0,116	0,196
-734,254	65,022	-0,169	-0,124
-733,239	181,630	-0,135	0,144
-732,225	-200,000	-0,014	-0,163
-731,210	-31,135	0,238	0,097
-730,196	-200,000	-0,010	-0,110
-729,181	42,169	0,094	-0,062
-728,167	-100,665	-0,021	-0,004
-727,152	258,850	0,049	-0,061
-726,137	46,299	0,068	0,045
-725,123	23,092	-0,094	-0,056
-724,108	-151,612	-0,055	-0,003
-723,094	-200,000	-0,026	-0,110
-722,079	-200,000	-0,017	-0,118
-721,064	-200,000	-0,018	-0,072
-720,050	155,268	0,064	-0,063
-719,035	800,000	0,016	-0,034
-718,021	92,350	-0,097	-0,079
-717,006	295,338	-0,050	-0,066
-715,991	703,985	-0,035	-0,066
-714,977	-200,000	0,001	-0,069
-713,962	76,740	0,116	-0,089
-712,948	-102,864	0,139	-0,024
-711,933	-200,000	-0,006	0,093
-710,918	28,589	-0,132	-0,081
-709,904	-112,216	-0,211	-0,030
-708,889	335,945	-0,032	0,045
-707,875	-9,098	0,011	0,005
-706,860	-200,000	0,009	0,078
-705,845	102,132	-0,028	0,024
-704,831	148,407	-0,029	-0,028
-703,816	-200,000	-0,029	0,119
-702,802	412,980	-0,072	-0,111
-701,787	78,493	-0,063	0,049
-700,772	437,897	-0,085	-0,135
-699,758	-200,000	0,008	-0,156
-698,743	68,015	-0,079	0,058
-697,729	81,624	-0,035	0,028
-696,714	-200,000	-0,017	-0,054
-695,699	-148,808	-0,094	-0,005
-694,685	250,941	0,009	-0,011
-693,670	800,000	-0,037	-0,081
-692,656	437,519	-0,041	-0,065
-691,641	-200,000	0,003	-0,044
-690,627	-200,000	-0,008	0,045
-689,612	250,500	0,094	-0,115
-688,597	469,777	-0,062	-0,101
-687,583	-58,458	-0,063	-0,020
-686,568	41,589	-0,059	-0,039
-685,554	6,691	-0,066	0,035
-684,539	39,532	0,019	-0,012
-683,524	20,936	-0,085	-0,050
-682,510	280,710	-0,062	0,080
-681,495	23,427	-0,069	0,041
-680,481	-129,525	0,023	-0,002
-679,466	-85,800	-0,113	0,025
-678,451	-108,546	-0,015	-0,002
-677,437	514,590	-0,019	0,032
-676,422	-200,000	-0,023	0,076
-675,408	203,005	-0,059	0,067
-674,393	-200,000	0,007	-0,040
-673,378	800,000	0,056	-0,116
-672,364	43,440	-0,122	-0,081
-671,349	-2,362	-0,077	-0,039
-670,335	-90,365	-0,136	-0,028
-669,320	800,000	-0,008	-0,021
-668,305	13,223	0,075	-0,042
-667,291	-42,315	-0,102	0,037
-666,276	-200,000	0,016	-0,136
-665,262	756,914	-0,044	-0,087
-664,247	49,282	0,077	-0,053
-663,232	-200,000	-0,002	-0,086
-662,218	-200,000	0,001	-0,112
-661,203	296,806	0,051	-0,068
-660,189	800,000	-0,032	-0,102
-659,174	-200,000	-0,030	-0,103
-658,159	377,571	-0,071	-0,105
-657,145	-147,979	-0,020	0,001
-656,130	800,000	0,006	-0,016
-655,116	38,570	0,072	0,046
-654,101	36,590	0,040	-0,025
-653,086	800,000	-0,054	0,124
-652,072	91,782	-0,089	0,073
-651,057	-30,314	-0,042	0,017
-650,043	296,179	0,065	-0,087
-649,028	-48,910	-0,055	0,019
-648,014	-200,000	-0,022	0,167
-646,999	-107,841	0,107	-0,017
-645,984	35,396	0,035	-0,022
-644,970	-33,359	-0,094	-0,037
-643,955	580,969	0,075	-0,134
-642,941	245,786	-0,103	-0,125
-641,926	-151,852	-0,168	-0,009
-640,911	-185,852	0,062	0,001
-639,897	-90,090	-0,054	-0,011
-638,882	-200,000	0,008	0,104
-637,868	-200,000	-0,018	-0,119
-636,853	800,000	-0,016	-0,035
-635,838	800,000	0,022	-0,060
-634,824	-200,000	-0,003	-0,088
-633,809	-19,225	0,124	-0,055
-632,795	-57,675	0,073	-0,023
-631,780	-97,103	0,086	0,016
-630,765	382,611	-0,078	0,116
-629,751	136,014	0,033	0,031
-628,736	94,660	-0,095	0,078
-627,722	412,536	-0,090	-0,139
-626,707	-200,000	-0,011	0,044
-625,692	116,706	0,127	0,112
-624,678	24,304	0,092	-0,055
-623,663	79,342	-0,044	0,034
-622,649	61,538	-0,054	-0,038
-621,634	13,033	-0,057	0,032
-620,619	167,955	-0,120	-0,123
-619,605	88,025	-0,126	-0,101
-618,590	163,423	0,046	-0,046
-617,576	102,450	-0,016	-0,013
-616,561	800,000	0,028	-0,070
-615,546	163,929	-0,093	-0,094
-614,532	-149,583	0,060	-0,003
-613,517	800,000	-0,062	0,131
-612,503	-200,000	0,039	0,152
-611,488	165,957	-0,038	0,039
-610,474	800,000	0,057	0,128
-609,459	-146,001	0,134	0,008
-608,444	640,581	-0,044	0,080
-607,430	589,852	-0,016	0,028
-606,415	225,497	0,092	-0,107
-605,401	-200,000	0,003	0,020
-604,386	250,659	0,088	0,109
-603,371	633,332	0,040	0,074
-602,357	-11,157	0,077	0,036
-601,342	492,932	-0,021	0,035
-600,328	98,776	-0,118	-0,098
-599,313	-200,000	-0,004	-0,104
-598,298	567,249	-0,016	-0,028
-597,284	-72,116	-0,095	-0,025
-596,269	-200,000	0,007	0,037
-595,255	631,639	0,071	0,130
-594,240	-71,146	0,084	-0,022
-593,225	160,598	-0,067	-0,067
-592,211	-104,021	0,132	-0,022
-591,196	734,355	-0,028	0,055
-590,182	-200,000	0,030	0,138
-589,167	-145,802	0,011	0,001
-588,152	-200,000	0,013	-0,054
-587,138	139,331	-0,053	0,051
-586,123	-200,000	-0,059	-0,262
-585,109	146,509	-0,008	0,008
-584,094	482,951	-0,045	0,074
-583,079	141,880	0,039	0,037
-582,065	220,069	-0,047	0,054
-581,050	-38,480	0,083	-0,032
-580,036	29,390	-0,072	-0,044
-579,021	234,643	-0,189	-0,225
-578,006	171,256	-0,071	-0,073
-576,992	-200,000	0,010	-0,044
-575,977	-200,000	-0,011	-0,037
-574,963	175,512	0,071	0,074
-573,948	-200,000	-0,036	0,130
-572,934	-11,846	-0,149	-0,070
-571,919	47,113	-0,135	-0,090
-570,904	-200,000	0,001	-0,080
-569,890	-137,899	-0,034	0,003
-568,875	166,444	0,131	0,133
-567,861	800,000	0,051	-0,105
-566,846	123,907	0,052	0,047
-565,831	-135,170	0,059	-0,005
-564,817	-38,358	-0,200	0,076
-563,802	68,366	-0,022	-0,016
-562,788	-107,730	-0,082	-0,013
-561,773	43,850	0,029	0,019
-560,758	-200,000	0,013	0,064
-559,744	356,913	0,066	0,095
-558,729	632,579	-0,024	0,043
-557,715	800,000	0,026	-0,064
-556,700	800,000	0,025	-0,068
-555,685	-200,000	0,068	-0,289
-554,671	-30,990	0,089	-0,036
-553,656	-91,419	0,158	0,032
-552,642	800,000	-0,017	0,050
-551,627	83,374	0,066	0,052
-550,612	127,279	-0,054	0,049
-549,598	0,194	0,072	-0,037
-548,583	792,184	-0,023	-0,045
-547,569	335,459	0,043	0,061
-546,554	419,166	0,011	-0,018
-545,539	-146,801	-0,092	-0,006
-544,525	65,559	0,055	-0,040
-543,510	362,021	-0,056	0,081
-542,496	800,000	0,020	-0,041
-541,481	93,800	-0,055	-0,045
-540,466	-36,523	-0,128	0,049
-539,452	176,273	-0,058	0,060
-538,437	-70,343	0,068	-0,018
-537,423	-59,269	-0,122	-0,037
-536,408	-133,992	0,097	0,009
-535,393	-55,344	-0,129	0,041
-534,379	329,623	0,078	0,108
-533,364	-108,462	-0,116	0,018
-532,350	646,743	-0,051	0,094
-531,335	-200,000	0,022	0,071
-530,321	-198,042	-0,110	0,000
-529,306	67,530	-0,110	-0,080
-528,291	800,000	-0,033	0,094
-527,277	533,818	-0,035	0,059
-526,262	427,095	-0,010	0,016
-525,248	-160,489	0,023	0,001
-524,233	-168,473	0,115	-0,003
-523,218	800,000	0,031	-0,077
-522,204	-143,712	0,042	-0,003
-521,189	235,650	0,074	-0,088
-520,175	-200,000	0,004	0,012
-519,160	800,000	0,039	0,094
-518,145	-37,545	0,137	0,052
-517,131	516,378	-0,051	0,086
-516,116	800,000	-0,037	-0,094
-515,102	-200,000	0,010	0,084
-514,087	-102,979	0,083	0,014
-513,072	-118,023	-0,069	-0,009
-512,058	-118,229	-0,074	0,009
-511,043	800,000	-0,015	0,030
-510,029	800,000	0,015	0,035
-509,014	-7,111	0,032	-0,016
-507,999	-72,646	-0,056	0,015
-506,985	-27,040	-0,095	-0,040
-505,970	42,276	0,037	-0,024
-504,956	-86,840	-0,054	0,012
-503,941	50,733	0,086	-0,059
-502,926	-76,856	-0,065	-0,016
-501,912	800,000	0,022	-0,068
-500,897	-200,000	-0,012	0,135
-499,883	-200,000	0,005	-0,016
-498,868	-135,355	-0,134	-0,011
-497,853	800,000	-0,033	-0,074
-496,839	-32,550	0,060	-0,024
-495,824	22,564	0,051	0,030
-494,810	-92,607	0,041	-0,008
-493,795	-200,000	-0,007	-0,059
-492,781	7,652	-0,043	-0,023
-491,766	769,881	-0,043	-0,085
-490,751	306,455	0,069	-0,092
-489,737	-147,414	-0,071	0,004
-488,722	52,361	0,079	-0,054
-487,708	27,384	0,138	-0,083
-486,693	489,378	-0,010	0,016
-485,678	28,549	-0,097	-0,059
-484,664	-200,000	0,023	-0,150
-483,649	-26,271	0,056	0,023
-482,635	34,175	-0,027	0,017
-481,620	-200,000	0,029	0,157
-480,605	-200,000	-0,007	0,155
-479,591	-157,252	-0,103	-0,004
-478,576	12,427	0,096	0,053
-477,562	-200,000	0,001	0,049
-476,547	99,635	-0,078	0,065
-475,532	16,295	-0,029	-0,016
-474,518	7,094	0,023	-0,012
-473,503	-200,000	0,005	0,037
-472,489	19,680	-0,163	0,094
-471,474	-152,743	0,151	0,008
-470,459	590,290	0,008	0,014
-469,445	-200,000	-0,005	-0,089
-468,430	800,000	0,066	0,155
-467,416	59,367	0,089	-0,063
-466,401	78,947	-0,034	0,026
-465,386	-200,000	0,002	0,096
-464,372	-199,623	0,090	-0,000
-463,357	115,732	-0,092	0,080
-462,343	74,389	-0,069	-0,052
-461,328	320,909	0,059	0,080
-460,313	-200,000	0,008	0,132
-459,299	-39,036	0,131	0,049
-458,284	27,887	0,019	0,012
-457,270	-200,000	0,002	0,033
-456,255	800,000	0,032	0,091
-455,241	-200,000	-0,018	0,071
-454,226	96,817	0,046	0,038
-453,211	80,545	0,129	0,100
-452,197	-139,572	0,099	0,007
-451,182	800,000	0,012	0,031
-450,168	-113,730	-0,065	-0,009
-449,153	115,899	0,038	0,033
-448,138	-73,308	-0,083	0,022
-447,124	-53,049	0,067	0,022
-446,109	-200,000	0,013	-0,061
-445,095	-200,000	0,015	-0,084
-444,080	-200,000	0,031	0,187
-443,065	57,798	0,092	0,064
-442,051	-93,124	-0,188	0,037
-441,036	-200,000	-0,005	0,113
-440,022	383,032	0,044	-0,065
-439,007	-200,000	0,012	0,062
-437,992	800,000	-0,016	0,042
-436,978	-200,000	-0,003	0,061
-435,963	84,907	-0,038	-0,030
-434,949	228,971	-0,079	0,092
-433,934	-200,000	0,011	0,063
-432,919	12,705	0,003	0,002
-431,905	308,830	0,050	-0,067
-430,890	-1,111	0,127	-0,064
-429,876	433,851	0,024	0,037
-428,861	103,487	-0,080	0,067
-427,846	-164,441	-0,101	-0,003
-426,832	-133,858	-0,092	0,008
-425,817	-98,561	-0,069	-0,012
-424,803	-125,182	-0,304	-0,033
-423,788	-200,000	0,048	-0,215
-422,773	-78,052	0,103	-0,025
-421,759	-27,835	-0,158	-0,065
-420,744	-200,000	-0,050	-0,205
-419,730	-117,414	-0,142	-0,018
-418,715	270,520	-0,043	-0,055
-417,701	72,756	0,088	0,065
-416,686	451,472	0,035	0,055
-415,671	-200,000	0,023	-0,166
-414,657	-200,000	0,005	0,044
-413,642	800,000	0,082	0,235
-412,628	63,268	-0,084	0,060
-411,613	-200,000	0,002	-0,058
-410,598	-56,191	0,075	-0,024
-409,584	-200,000	0,014	0,094
-408,569	106,075	0,026	-0,022
-407,555	-200,000	-0,027	0,121
-406,540	-25,200	-0,087	0,037
-405,525	-200,000	0,003	-0,057
-404,511	64,902	-0,142	0,102
-403,496	-200,000	-0,025	-0,081
-402,482	800,000	0,074	0,149
-401,467	-36,011	0,079	-0,030
-400,452	800,000	-0,050	0,108
-399,438	164,071	0,046	0,046
-398,423	-200,000	-0,014	-0,046
-397,409	469,528	-0,038	-0,061
-396,394	11,979	-0,094	0,051
-395,379	225,713	0,042	0,049
-394,365	365,931	0,056	0,080
-393,350	193,193	0,097	-0,105
-392,336	-76,562	-0,150	-0,037
-391,321	-150,333	-0,107	-0,006
-390,306	800,000	-0,032	0,099
-389,292	-200,000	-0,026	-0,139
-388,277	-200,000	-0,007	-0,049
-387,263	331,900	0,023	-0,032
-386,248	4,296	-0,128	0,067
-385,233	325,142	-0,046	-0,064
-384,219	3,175	0,056	-0,029
-383,204	37,804	-0,114	0,072
-382,190	10,299	0,147	-0,080
-381,175	321,748	0,097	0,133
-380,160	-200,000	-0,014	0,201
-379,146	-7,831	0,117	0,056
-378,131	269,358	0,026	-0,033
-377,117	231,312	0,033	0,038
-376,102	-3,934	-0,055	-0,027
-375,088	-200,000	0,004	0,036
-374,073	-200,000	0,021	-0,083
-373,058	-200,000	-0,002	0,173
-372,044	-50,625	0,125	-0,042
-371,029	-88,245	0,049	0,010
-370,015	-45,965	-0,086	0,030
-369,000	-200,000	-0,005	0,075
-367,985	775,973	0,060	-0,117
-366,971	800,000	-0,043	-0,133
-365,956	383,923	0,068	0,100
-364,942	-200,000	-0,021	0,073
-363,927	-99,819	0,068	-0,012
-362,912	26,502	0,125	0,075
-361,898	586,551	0,021	-0,037
-360,883	-43,711	-0,043	0,015
-359,869	455,203	-0,023	-0,037
-358,854	88,746	0,087	0,069
-357,839	-20,295	0,138	-0,060
-356,825	-134,579	-0,087	-0,007
-355,810	200,678	-0,075	-0,083
-354,796	-200,000	-0,010	-0,035
-353,781	800,000	-0,044	-0,128
-352,766	62,441	-0,095	0,067
-351,752	800,000	-0,013	0,036
-350,737	80,632	0,163	0,125
-349,723	130,515	0,088	0,081
-348,708	-200,000	-0,001	-0,008
-347,693	265,884	-0,052	-0,065
-346,679	66,466	-0,056	-0,041
-345,664	30,925	0,118	-0,072
-344,650	50,518	-0,131	0,089
-343,635	-200,000	0,026	0,157
-342,620	-200,000	-0,010	-0,063
-341,606	42,626	0,052	-0,034
-340,591	217,476	-0,017	-0,020
-339,577	-200,000	-0,010	-0,096
-338,562	-13,907	-0,047	-0,022
-337,548	800,000	-0,023	-0,049
-336,533	800,000	0,043	0,086
-335,518	-15,807	0,141	0,064
-334,504	-200,000	-0,025	-0,116
-333,489	9,339	-0,076	-0,041
-332,475	36,700	-0,082	-0,052
-331,460	-18,945	-0,087	-0,038
-330,445	800,000	0,014	0,037
-329,431	800,000	-0,003	0,007
-328,416	-200,000	-0,026	0,148
-327,402	800,000	-0,040	0,088
-326,387	800,000	0,029	-0,084
-325,372	-200,000	-0,003	-0,013
-324,358	-200,000	0,019	-0,219
-323,343	-200,000	-0,012	0,067
-322,329	800,000	-0,019	0,060
-321,314	800,000	-0,068	0,135
-320,299	-24,268	0,064	0,027
-319,285	759,184	-0,017	-0,034
-318,270	-126,012	0,035	0,004
-317,256	567,164	0,065	-0,112
-316,241	-200,000	0,039	-0,129
-315,226	-63,096	-0,126	-0,037
-314,212	-117,439	-0,054	-0,007
-313,197	-200,000	-0,005	-0,142
-312,183	-71,640	-0,133	0,035
-311,168	295,561	-0,043	-0,057
-310,153	73,545	-0,023	-0,017
-309,139	800,000	-0,020	0,051
-308,124	1,132	0,150	-0,076
-307,110	739,532	-0,044	0,085
-306,095	139,037	0,097	-0,091
-305,080	35,652	0,148	0,093
-304,066	69,658	0,070	-0,051
-303,051	800,000	-0,023	-0,061
-302,037	538,626	-0,027	0,045
-301,022	2,151	-0,036	0,018
-300,008	-200,000	0,004	0,068
-298,993	52,456	0,071	-0,048
-297,978	-200,000	0,009	0,104
-296,964	47,140	-0,083	-0,055
-295,949	49,749	0,097	-0,065
-294,935	4,563	0,036	0,019
-293,920	154,744	-0,113	-0,111
-292,905	131,821	0,133	-0,122
-291,891	-41,800	0,154	0,056
-290,876	210,899	-0,069	0,077
-289,862	184,158	-0,057	0,060
-288,847	-23,393	0,042	-0,018
-287,832	-132,202	-0,216	0,020
-286,818	51,087	0,040	-0,027
-285,803	-60,756	0,088	-0,026
-284,789	-200,000	0,008	0,107
-283,774	-200,000	-0,016	0,145
-282,759	800,000	-0,033	0,084
-281,745	224,665	-0,048	-0,056
-280,730	416,283	-0,029	-0,044
-279,716	-200,000	-0,005	-0,091
-278,701	-200,000	0,007	-0,062
-277,686	-200,000	0,006	0,064
-276,672	42,275	0,057	-0,037
-275,657	133,021	0,046	-0,043
-274,643	-200,000	-0,091	-0,000
-273,628	186,642	0,091	-0,096
-272,613	63,174	0,156	-0,111
-271,599	272,981	0,032	0,040
-270,584	66,870	0,150	0,109
-269,570	-25,907	-0,090	0,038
-268,555	800,000	-0,018	-0,044
-267,540	800,000	0,012	-0,027
-266,526	148,866	-0,131	0,126
-265,511	-51,592	0,040	-0,013
-264,497	800,000	0,024	-0,052
-263,482	-73,875	0,063	-0,016
-262,467	-76,185	-0,024	0,006
-261,453	800,000	0,055	-0,159
-260,438	-64,596	-0,033	-0,009
-259,424	210,457	0,030	-0,034
-258,409	-200,000	-0,036	0,129
-257,395	-200,000	0,006	0,134
-256,380	-200,000	-0,008	-0,046
-255,365	-200,000	0,023	0,209
-254,351	-132,783	0,109	0,010
-253,336	-200,000	-0,013	-0,088
-252,322	-23,379	-0,141	0,060
-251,307	32,926	0,084	-0,052
-250,292	-154,079	-0,061	-0,003
-249,278	644,740	0,055	0,100
-248,263	-94,708	0,149	-0,029
-247,249	-52,917	0,052	0,017
-246,234	-96,329	-0,123	0,023
-245,219	140,933	-0,026	0,025
-244,205	800,000	-0,050	-0,124
-243,190	95,845	0,039	-0,032
-242,176	785,818	-0,077	0,150
-241,161	-200,000	0,002	0,067
-240,146	-200,000	-0,015	0,146
-239,132	680,645	-0,051	-0,094
-238,117	-200,000	0,041	-0,147
-237,103	-155,458	0,050	-0,002
-236,088	-81,379	-0,044	-0,010
-235,073	-200,000	0,020	-0,084
-234,059	-200,000	0,009	0,028
-233,044	599,029	0,021	0,037
-232,030	800,000	0,029	0,069
-231,015	-19,383	-0,036	0,016
-230,000	-88,600	-0,027	0,006
-228,986	-93,177	-0,085	0,017
-227,971	151,506	0,123	0,119
-226,957	221,537	0,065	0,074
-225,942	800,000	-0,016	0,051
-224,927	45,152	0,042	-0,027
-223,913	-200,000	0,003	-0,059
-222,898	-200,000	0,026	-0,224
-221,884	-120,670	0,131	0,016
-220,869	12,702	-0,054	-0,030
-219,855	800,000	-0,030	0,077
-218,840	354,725	-0,047	-0,067
-217,825	800,000	-0,028	-0,064
-216,811	800,000	-0,036	0,099
-215,796	446,251	0,045	-0,070
-214,782	-200,000	0,048	-0,302
-213,767	555,810	-0,046	0,079
-212,752	19,932	-0,036	-0,021
-211,738	800,000	0,030	-0,073
-210,723	-200,000	-0,006	-0,039
-209,709	-200,000	-0,025	-0,154
-208,694	-196,258	-0,068	-0,000
-207,679	800,000	-0,085	-0,182
-206,665	40,803	0,079	0,050
-205,650	-200,000	-0,018	-0,075
-204,636	800,000	-0,051	0,142
-203,621	78,677	0,108	-0,082
-202,606	13,843	0,159	-0,087
-201,592	-200,000	0,021	-0,119
-200,577	-200,000	-0,016	-0,180
-199,563	141,224	-0,009	-0,008
-198,548	-24,838	0,071	-0,030
-197,533	-200,000	0,016	0,098
-196,519	444,832	0,110	0,171
-195,504	350,486	-0,059	-0,083
-194,490	663,740	-0,049	-0,090
-193,475	548,029	0,013	-0,023
-192,460	-200,000	0,017	-0,127
-191,446	700,034	0,009	-0,016
-190,431	185,060	-0,083	-0,088
-189,417	-200,000	0,025	-0,089
-188,402	-181,374	-0,071	-0,001
-187,387	-79,337	-0,099	-0,024
-186,373	-89,288	-0,042	-0,009
-185,358	-200,000	0,059	-0,202
-184,344	-17,689	-0,111	-0,049
-183,329	-10,039	0,061	0,028
-182,315	330,157	0,067	0,091
-181,300	-2,610	-0,042	-0,021
-180,285	70,863	-0,074	-0,054
-179,271	800,000	-0,029	-0,066
-178,256	-188,734	0,090	0,001
-177,242	-37,053	0,111	-0,042
-176,227	-52,599	-0,030	0,010
-175,212	-57,318	-0,081	0,025
-174,198	800,000	-0,051	-0,127
-173,183	800,000	-0,058	-0,114
-172,169	-200,000	0,010	0,065
-171,154	-142,614	-0,069	-0,005
-170,139	225,277	0,021	0,024
-169,125	800,000	0,113	0,252
-168,110	800,000	0,027	0,080
-167,096	778,475	0,049	-0,095
-166,081	-95,620	0,072	-0,013
-165,066	-200,000	-0,008	-0,052
-164,052	-200,000	-0,009	0,100
-163,037	-200,000	0,010	0,087
-162,023	800,000	0,024	-0,067
-161,008	-137,224	-0,076	-0,006
-159,993	-51,114	0,056	-0,018
-158,979	-200,000	-0,006	-0,060
-157,964	134,647	0,009	-0,008
-156,950	-107,066	0,044	-0,007
-155,935	429,724	0,064	0,098
-154,920	-200,000	0,010	0,039
-153,906	-200,000	0,021	0,144
-152,891	180,106	-0,012	0,013
-151,877	135,905	-0,072	0,067
-150,862	800,000	-0,024	0,074
-149,847	602,376	-0,023	0,040
-148,833	110,588	-0,045	-0,038
-147,818	800,000	0,064	0,155
-146,804	-99,168	0,079	-0,014
-145,789	574,302	0,062	0,108
-144,775	265,301	-0,024	0,030
-143,760	156,929	0,029	-0,029
-142,745	-200,000	0,014	-0,119
-141,731	-140,990	-0,053	0,004
-140,716	-200,000	0,030	0,096
-139,702	800,000	0,021	0,057
-138,687	-126,901	0,093	-0,010
-137,672	34,705	-0,062	0,038
-136,658	-120,630	0,091	-0,011
-135,643	301,839	-0,025	-0,033
-134,629	77,749	0,105	-0,079
-133,614	-80,438	-0,039	-0,009
-132,599	293,670	-0,024	0,031
-131,585	-178,394	-0,054	0,001
-130,570	-200,000	-0,012	-0,038
-129,556	170,821	-0,018	-0,018
-128,541	17,618	0,037	0,021
-127,526	-200,000	0,007	-0,022
-126,512	-188,463	0,135	-0,001
-125,497	-200,000	0,012	0,093
-124,483	-69,831	-0,016	-0,004
-123,468	-48,450	0,024	0,008
-122,453	161,452	-0,194	-0,192
-121,439	-50,416	-0,050	-0,017
-120,424	208,156	-0,080	-0,088
-119,410	-200,000	-0,000	0,005
-118,395	255,136	0,124	0,150
-117,380	-69,292	-0,070	0,019
-116,366	-156,971	-0,087	0,004
-115,351	237,376	0,041	0,048
-114,337	-200,000	-0,013	-0,214
-113,322	-200,000	-0,004	-0,031
-112,307	-131,796	-0,077	0,007
-111,293	41,592	0,095	-0,061
-110,278	-200,000	-0,031	0,177
-109,264	-47,386	0,141	0,048
-108,249	252,262	0,062	-0,075
-107,234	-116,484	-0,063	0,008
-106,220	332,594	-0,052	0,071
-105,205	70,671	0,062	0,045
-104,191	-29,012	0,038	-0,015
-103,176	157,858	0,085	0,084
-102,162	800,000	0,045	-0,103
-101,147	21,106	-0,056	0,032
-100,132	800,000	-0,013	-0,026
-99,118	-147,384	-0,093	0,006
-98,103	-200,000	-0,002	-0,059
-97,089	800,000	0,069	0,195
-96,074	257,568	-0,133	0,162
-95,059	-116,526	0,155	-0,020
-94,045	526,909	-0,041	-0,069
-93,030	-200,000	0,007	-0,035
-92,016	-200,000	-0,012	-0,104
-91,001	-35,252	0,075	-0,029
-89,986	100,196	0,079	-0,065
-88,972	800,000	-0,035	0,095
-87,957	30,925	0,035	0,021
-86,943	650,525	-0,027	-0,048
-85,928	230,282	-0,102	-0,118
-84,913	218,883	0,158	-0,178
-83,899	-44,451	-0,081	0,028
-82,884	759,962	-0,055	0,107
-81,870	-156,788	0,107	0,005
-80,855	388,217	0,084	-0,124
-79,840	800,000	0,012	-0,032
-78,826	-200,000	-0,009	-0,068
-77,811	54,313	-0,081	-0,055
-76,797	-182,073	-0,141	-0,002
-75,782	-64,464	-0,133	0,038
-74,767	-88,005	0,094	-0,020
-73,753	44,565	-0,034	0,022
-72,738	800,000	-0,086	0,219
-71,724	162,724	0,070	0,069
-70,709	-200,000	0,007	-0,086
-69,694	800,000	-0,018	0,041
-68,680	-13,950	-0,118	-0,054
-67,665	-113,218	-0,095	0,013
-66,651	800,000	-0,052	0,148
-65,636	10,836	0,043	0,023
-64,622	89,374	-0,010	-0,008
-63,607	-32,339	0,052	-0,020
-62,592	-200,000	0,026	-0,112
-61,578	-59,242	-0,111	-0,034
-60,563	290,318	0,113	0,146
-59,549	-128,820	0,137	0,013
-58,534	40,215	-1,935	-1,226
-57,519	653,029	-1,047	-1,904
-56,505	-200,000	-0,255	-4,459
-55,490	654,528	0,881	1,604
-54,476	800,000	5,208	11,270
-53,461	-200,000	21,964	337,243
-52,446	800,000	759,059	2296,974
-51,432	533,275	1652,922	2773,064
-50,417	69,220	1650,636	1196,618
-49,403	16,602	1525,368	848,537
-48,388	10,800	1449,826	778,585
-47,373	18,967	1441,992	813,362
-46,359	14,114	1430,652	783,966
-45,344	9,110	1426,637	758,021
-44,330	9,013	1424,748	756,529
-43,315	8,968	1423,066	755,393
-42,300	8,986	1421,278	754,499
-41,286	9,063	1420,027	754,167
-40,271	9,041	1418,728	753,344
-39,257	9,007	1417,593	752,551
-38,242	9,033	1416,602	752,115
-37,227	9,026	1415,453	751,444
-36,213	9,026	1414,138	750,717
-35,198	9,043	1412,925	750,124
-34,184	9,073	1411,978	749,729
-33,169	8,973	1410,483	748,439
-32,154	9,039	1409,508	748,202
-31,140	9,028	1408,384	747,523
-30,125	9,045	1407,278	746,987
-29,111	9,040	1405,902	746,200
-28,096	9,029	1404,785	745,527
-27,082	8,983	1403,718	744,719
-26,067	8,943	1402,608	743,912
-25,052	9,018	1401,569	743,683
-24,038	8,974	1400,772	743,022
-23,023	8,961	1399,948	742,499
-22,009	8,979	1398,640	741,857
-20,994	8,927	1397,663	741,068
-19,979	8,997	1396,697	740,850
-18,965	8,984	1395,598	740,181
-17,950	8,934	1394,791	739,488
-16,936	8,900	1393,885	738,822
-15,921	8,847	1392,942	738,047
-14,906	8,895	1392,256	737,878
-13,892	8,940	1391,119	737,454
-12,877	8,914	1390,347	736,895
-11,863	8,882	1389,772	736,412
-10,848	8,878	1388,668	735,779
-9,833	8,856	1387,717	735,145
-8,819	8,800	1386,838	734,395
-7,804	8,817	1385,944	733,968
-6,790	8,834	1384,768	733,396
-5,775	8,808	1383,753	732,710
-4,760	8,841	1382,710	732,281
-3,746	8,802	1381,956	731,671
-2,731	8,822	1381,033	731,246
-1,717	8,825	1380,299	730,842
-0,702	8,797	1378,632	729,803
0,313	12,806	1289,993	701,099
1,327	28,709	682,147	406,419
2,342	44,266	117,630	75,994
3,356	1,764	16,468	8,342
4,371	8,600	3,701	1,959
5,386	4,720	1,335	0,689
6,400	480,663	0,248	0,397
7,415	216,841	-0,172	-0,193
8,429	317,351	-0,206	-0,275
9,444	108,091	-0,283	-0,238
10,459	141,217	-0,200	-0,187
11,473	22,481	-0,334	-0,192
12,488	-62,233	-0,298	-0,087
13,502	140,845	-0,213	-0,198
14,517	77,194	-0,250	-0,187
15,531	2,344	-0,413	-0,210
16,546	-25,570	-0,337	-0,140
17,561	414,652	-0,241	-0,362
18,575	167,954	-0,222	-0,223
19,590	183,761	-0,169	-0,176
20,604	-69,761	-0,231	0,062
21,619	327,506	-0,358	-0,485
22,634	90,414	-0,491	-0,386
23,648	186,214	-0,483	-0,507
24,663	159,004	-0,332	-0,325
25,677	71,155	-0,315	-0,230
26,692	256,084	-0,175	-0,211
27,707	97,095	-0,269	-0,217
28,721	22,236	-0,479	-0,274
29,736	10,221	-0,534	-0,285
30,750	46,873	-0,352	-0,230
31,765	1,602	-0,440	-0,222
32,780	-27,632	-0,332	-0,135
33,794	22,536	-0,368	-0,211
34,809	49,167	-0,378	-0,249
35,823	280,938	-0,264	-0,333
36,838	139,681	-0,383	-0,355
37,853	57,786	-0,512	-0,352
38,867	260,541	-0,271	-0,330
39,882	87,367	-0,286	-0,222
40,896	25,344	-0,291	-0,169
41,911	225,745	-0,212	-0,242
42,926	80,370	-0,343	-0,259
43,940	-61,102	-0,347	-0,102
44,955	453,452	-0,204	-0,318
45,969	-33,333	-0,393	-0,152
46,984	68,372	-0,285	-0,205
47,999	234,157	-0,241	-0,280
49,013	-108,384	-0,343	-0,051
50,028	405,859	-0,202	-0,300
51,042	67,956	-0,407	-0,292
52,057	355,174	-0,252	-0,353
53,071	109,806	-0,328	-0,276
54,086	206,851	-0,290	-0,317
55,101	-5,222	-0,443	-0,213
56,115	215,747	-0,266	-0,296
57,130	226,841	-0,296	-0,338
58,144	84,222	-0,351	-0,269
59,159	15,704	-0,434	-0,239
60,174	66,535	-0,384	-0,273
61,188	53,550	-0,362	-0,243
62,203	1,431	-0,249	-0,125
63,217	124,144	-0,337	-0,297
64,232	413,660	-0,220	-0,330
65,247	33,027	-0,334	-0,203
66,261	77,058	-0,317	-0,236
67,276	137,447	-0,272	-0,250
68,290	40,126	-0,291	-0,183
69,305	-29,389	-0,343	-0,137
70,320	54,514	-0,332	-0,224
71,334	-24,877	-0,275	-0,114
72,349	10,781	-0,277	-0,148
73,363	137,097	-0,431	-0,395
74,378	94,483	-0,346	-0,275
75,393	16,406	-0,412	-0,227
76,407	1,435	-0,311	-0,156
77,422	-21,507	-0,234	-0,100
78,436	18,145	-0,199	-0,111
79,451	-103,083	-0,372	-0,061
80,466	165,632	-0,353	-0,350
81,480	59,941	-0,309	-0,214
82,495	130,924	-0,287	-0,258
83,509	62,718	-0,377	-0,264
84,524	315,266	-0,230	-0,305
85,539	80,222	-0,252	-0,190
86,553	-12,572	-0,251	-0,114
87,568	4,628	-0,378	-0,194
88,582	167,832	-0,321	-0,320
89,597	331,768	-0,182	-0,246
90,611	178,273	-0,211	-0,215
91,626	53,403	-0,310	-0,207
92,641	16,768	-0,235	-0,130
93,655	264,880	-0,194	-0,237
94,670	171,014	-0,261	-0,262
95,684	90,353	-0,258	-0,202
96,699	13,813	-0,299	-0,162
97,714	-32,263	-0,210	-0,082
98,728	50,113	-0,309	-0,204
99,743	37,007	-0,288	-0,178
100,757	48,982	-0,301	-0,197
101,772	222,933	-0,195	-0,220
102,787	3,823	-0,266	-0,136
103,801	-34,766	-0,245	-0,093
104,816	279,643	-0,259	-0,324
105,830	800,000	-0,115	-0,247
106,845	-9,012	-0,249	-0,116
107,860	254,167	-0,289	-0,346
108,874	96,371	-0,397	-0,317
109,889	136,402	-0,202	-0,184
110,903	210,368	-0,241	-0,265
111,918	-73,330	-0,161	-0,041
112,933	94,718	-0,213	-0,169
113,947	251,986	-0,160	-0,190
114,962	548,866	-0,187	-0,314
115,976	171,176	-0,325	-0,326
116,991	81,458	-0,246	-0,185
118,006	-49,467	-0,220	-0,073
119,020	274,920	-0,236	-0,292
120,035	447,591	-0,152	-0,234
121,049	53,463	-0,270	-0,180
122,064	-68,869	-0,150	-0,040
123,079	31,804	-0,231	-0,138
124,093	40,041	-0,193	-0,121
125,108	41,929	-0,289	-0,182
126,122	-7,479	-0,266	-0,125
127,137	21,489	-0,184	-0,104
128,151	-145,815	-0,382	-0,023
129,166	-3,015	-0,108	-0,053
130,181	21,646	-0,346	-0,196
131,195	343,609	-0,206	-0,283
132,210	338,265	-0,199	-0,271
133,224	8,551	-0,195	-0,102
134,239	24,546	-0,200	-0,115
135,254	-41,746	-0,217	-0,077
136,268	289,554	-0,127	-0,161
137,283	140,077	-0,301	-0,276
138,297	-85,814	-0,264	-0,056
139,312	-87,645	-0,270	-0,056
140,327	-16,050	-0,167	-0,074
141,341	135,948	-0,195	-0,177
142,356	158,350	-0,178	-0,172
143,370	-11,115	-0,217	-0,099
144,385	29,627	-0,249	-0,148
145,400	110,703	-0,174	-0,146
146,414	215,507	-0,251	-0,278
147,429	231,793	-0,222	-0,254
148,443	-17,031	-0,245	-0,107
149,458	30,722	-0,208	-0,123
150,473	38,129	-0,305	-0,189
151,487	214,374	-0,127	-0,140
152,502	45,381	-0,322	-0,206
153,516	-4,860	-0,248	-0,119
154,531	26,329	-0,349	-0,202
155,546	88,352	-0,268	-0,207
156,560	49,276	-0,215	-0,140
157,575	62,561	-0,217	-0,150
158,589	153,639	-0,239	-0,228
159,604	-200,000	-0,028	-0,194
160,619	-50,281	-0,337	-0,110
161,633	3,176	-0,298	-0,150
162,648	83,328	-0,213	-0,161
163,662	432,222	-0,178	-0,270
164,677	-116,285	-0,299	-0,038
165,692	-30,749	-0,205	-0,080
166,706	-120,065	-0,169	0,020
167,721	19,559	-0,196	-0,109
168,735	360,515	-0,254	-0,355
169,750	-24,761	-0,198	-0,081
170,764	-12,930	-0,248	-0,112
171,779	-57,740	-0,209	-0,063
172,794	-70,233	-0,141	-0,037
173,808	150,103	-0,146	-0,137
174,823	-182,297	-0,206	0,003
175,837	412,793	-0,260	-0,385
176,852	-75,537	-0,195	0,048
177,867	167,786	-0,189	-0,187
178,881	117,801	-0,211	-0,180
179,896	-48,807	-0,153	-0,051
180,910	-108,401	-0,202	-0,030
181,925	206,155	-0,233	-0,252
182,940	227,602	-0,292	-0,330
183,954	1,449	-0,255	-0,127
184,969	623,609	-0,148	-0,260
185,983	7,483	-0,271	-0,140
186,998	704,016	-0,093	-0,171
188,013	315,884	-0,150	-0,197
189,027	0,801	-0,277	-0,137
190,042	348,535	-0,125	-0,171
191,056	800,000	-0,146	-0,291
192,071	344,086	-0,093	-0,127
193,086	-35,708	-0,206	-0,077
194,100	116,539	-0,309	-0,262
195,115	129,665	-0,219	-0,194
196,129	162,639	-0,234	-0,228
197,144	-38,421	-0,303	-0,110
198,159	245,536	-0,213	-0,249
199,173	122,879	-0,156	-0,136
200,188	-111,528	-0,209	-0,029
201,202	-78,646	-0,245	-0,058
202,217	-200,000	-0,047	-0,153
203,232	-17,514	-0,106	-0,046
204,246	303,145	-0,249	-0,321
205,261	65,266	-0,248	-0,174
206,275	-19,144	-0,112	-0,048
207,290	-50,819	-0,206	-0,067
208,304	575,785	-0,132	-0,224
209,319	347,573	-0,196	-0,268
210,334	-107,619	-0,174	-0,026
211,348	138,233	-0,235	-0,213
212,363	42,408	-0,244	-0,153
213,377	221,686	-0,158	-0,176
214,392	131,705	-0,118	-0,105
215,407	800,000	-0,143	-0,312
216,421	146,272	-0,185	-0,172
217,436	43,617	-0,152	-0,096
218,450	1,118	-0,278	-0,138
219,465	258,998	-0,072	-0,086
220,480	35,874	-0,172	-0,104
221,494	115,082	-0,183	-0,155
222,509	114,497	-0,184	-0,155
223,523	-200,000	-0,045	-0,153
224,538	-117,882	-0,279	-0,034
225,553	-200,000	-0,073	-0,384
226,567	61,877	-0,267	-0,184
227,582	-103,522	-0,276	-0,044
228,596	-36,399	-0,113	-0,042
229,611	122,859	-0,171	-0,148
230,626	-13,664	-0,225	-0,100
231,640	8,798	-0,216	-0,112
232,655	800,000	-0,077	-0,194
233,669	111,534	-0,137	-0,114
234,684	239,000	-0,212	-0,243
235,699	-82,911	-0,157	-0,035
236,713	113,914	-0,163	-0,137
237,728	-51,946	-0,236	-0,075
238,742	-54,597	-0,288	-0,090
239,757	271,448	-0,165	-0,201
240,772	112,966	-0,294	-0,246
241,786	53,768	-0,179	-0,119
242,801	-24,547	-0,131	-0,054
243,815	-114,437	-0,154	-0,020
244,830	224,407	-0,243	-0,271
245,844	247,842	-0,135	-0,158
246,859	114,566	-0,113	-0,095
247,874	22,674	-0,187	-0,106
248,888	-48,673	-0,155	-0,051
249,903	281,119	-0,075	-0,093
250,917	47,043	-0,184	-0,118
251,932	281,176	-0,169	-0,209
252,947	214,643	-0,139	-0,152
253,961	-124,555	-0,198	-0,021
254,976	81,186	-0,208	-0,155
255,990	186,863	-0,288	-0,296
257,005	377,230	-0,117	-0,166
258,020	-200,000	-0,002	-0,135
259,034	54,724	-0,136	-0,090
260,049	-34,261	-0,123	-0,046
261,063	-111,228	-0,179	-0,025
262,078	157,412	-0,175	-0,167
263,093	133,754	-0,191	-0,170
264,107	800,000	-0,104	-0,215
265,122	40,705	-0,208	-0,129
266,136	344,502	-0,078	-0,106
267,151	-200,000	-0,009	0,069
268,166	-98,940	-0,341	-0,059
269,180	82,012	-0,188	-0,140
270,195	-60,981	-0,276	-0,080
271,209	145,135	-0,195	-0,180
272,224	111,407	-0,262	-0,217
273,239	268,364	-0,106	-0,128
274,253	7,049	-0,192	-0,098
275,268	26,843	-0,122	-0,070
276,282	-135,803	-0,250	0,020
277,297	307,246	-0,177	-0,227
278,312	711,566	-0,082	-0,150
279,326	33,676	-0,173	-0,103
280,341	-36,501	-0,138	-0,051
281,355	39,693	-0,108	-0,066
282,370	-29,706	-0,128	-0,050
283,384	796,250	-0,083	-0,157
284,399	188,799	-0,168	-0,173
285,414	-117,699	-0,200	0,025
286,428	12,137	-0,230	-0,121
287,443	-10,404	-0,065	-0,029
288,457	46,292	-0,220	-0,140
289,472	83,069	-0,105	-0,078
290,487	107,343	-0,122	-0,099
291,501	4,838	-0,311	-0,157
292,516	31,587	-0,115	-0,068
293,530	363,298	-0,079	-0,109
294,545	-137,510	-0,186	-0,014
295,560	-200,000	0,025	-0,098
296,574	800,000	0,033	-0,087
297,589	127,482	-0,156	-0,136
298,603	-167,782	-0,236	-0,006
299,618	-61,364	-0,289	-0,083
300,633	51,407	-0,192	-0,125
301,647	-3,584	-0,110	-0,053
302,662	-59,487	-0,118	-0,035
303,676	20,906	-0,127	-0,071
304,691	-200,000	-0,029	-0,155
305,706	147,408	-0,123	-0,114
306,720	17,788	-0,212	-0,116
307,735	-98,498	-0,166	-0,029
308,749	193,783	-0,064	-0,066
309,764	56,165	-0,127	-0,084
310,779	19,213	-0,080	-0,044
311,793	-127,673	-0,110	-0,011
312,808	-2,082	-0,083	-0,040
313,822	22,219	-0,257	-0,144
314,837	18,552	-0,141	-0,077
315,852	61,089	-0,104	-0,071
316,866	-105,702	-0,192	-0,029
317,881	5,004	-0,177	-0,089
318,895	800,000	-0,051	-0,124
319,910	-82,210	-0,160	0,035
320,925	-92,589	-0,281	-0,054
321,939	800,000	-0,062	-0,181
322,954	28,805	-0,208	-0,121
323,968	-109,404	-0,194	-0,028
324,983	-42,576	-0,206	-0,072
325,997	-200,000	-0,123	0,000
327,012	-200,000	-0,001	-0,070
328,027	70,251	-0,157	-0,111
329,041	728,990	-0,063	-0,116
330,056	-176,925	-0,212	0,004
331,070	-113,015	-0,158	-0,021
332,085	150,717	0,021	-0,019
333,100	-97,127	-0,201	0,036
334,114	-116,983	-0,225	-0,028
335,129	448,749	-0,141	-0,213
336,143	61,754	-0,105	-0,071
337,158	-22,315	-0,109	0,045
338,173	-200,000	0,004	-0,108
339,187	7,152	-0,110	-0,056
340,202	800,000	-0,024	-0,051
341,216	395,775	-0,174	-0,250
342,231	-88,394	-0,157	-0,032
343,246	-200,000	0,017	-0,123
344,260	-200,000	-0,013	-0,242
345,275	89,335	-0,042	-0,032
346,289	-200,000	-0,041	-0,124
347,304	-44,048	-0,112	0,038
348,319	51,659	-0,180	-0,117
349,333	-92,622	-0,192	-0,037
350,348	-57,227	-0,114	0,034
351,362	-36,742	-0,036	-0,013
352,377	-183,396	-0,142	0,002
353,392	258,514	-0,080	-0,094
354,406	-109,287	-0,151	0,022
355,421	208,030	1305,895	1396,784
356,435	160,054	1465,512	1397,253
