DTS Sentinel unit serial number:	SN410029Multiplexer serial number:	ORYXHardware model number:	OX2-SRSoftware version number:	ORYX F/W v4,00 Oryx Data Collector v3.7.2.0data status	okinstallation	B3 Nyhavnadifferential loss correction	single-endedforward channel	channel 1reverse channel	N/Adate	2023/12/03time	23:17:30forward acquisition time	300,00reverse acquisition time	0,00gamma	499,1914k internal	0,3201k external	0,3201temperature offset calibration	1,0000default loss term (dB/km)	0,3820temperature slope calibration	1,0000multiplexer offset coefficient	1,0000multiplexer slope coefficient	1,0000fibre end	0,00T internal ref (°C)	12,96T ext. ref 1 (°C)	-2,34T ext. ref 2 (°C)	-2,36length (m)	temperature (°C)	Stokes	anti-Stokes-744,400	8,076	-0,309	-0,168
-743,385	-200,000	-0,001	0,401
-742,371	483,117	-0,069	-0,114
-741,356	-200,000	-0,083	0,391
-740,342	623,656	-0,157	-0,289
-739,327	-200,000	0,008	0,327
-738,312	110,294	-0,243	-0,212
-737,298	-200,000	-0,026	0,386
-736,283	143,450	-0,213	-0,206
-735,269	800,000	0,089	0,277
-734,254	276,251	-0,195	-0,253
-733,239	-28,529	-0,275	0,114
-732,225	413,551	-0,099	-0,154
-731,210	20,520	0,065	0,038
-730,196	-200,000	0,014	-0,065
-729,181	136,814	-0,037	-0,036
-728,167	395,785	0,057	-0,087
-727,152	47,968	-0,109	0,074
-726,137	619,993	0,040	0,074
-725,123	37,422	0,003	0,002
-724,108	-138,144	-0,010	0,001
-723,094	190,461	-0,109	-0,119
-722,079	292,658	0,014	-0,019
-721,064	-33,875	0,011	-0,004
-720,050	104,690	0,129	-0,110
-719,035	-87,110	-0,061	0,013
-718,021	16,104	-0,137	-0,078
-717,006	190,791	-0,050	-0,055
-715,991	800,000	-0,046	-0,110
-714,977	-91,103	-0,067	-0,014
-713,962	-200,000	-0,001	0,069
-712,948	-162,924	0,143	-0,005
-711,933	58,367	-0,085	-0,060
-710,918	87,229	-0,067	-0,054
-709,904	455,886	-0,059	0,095
-708,889	3,003	-0,163	0,086
-707,875	-200,000	0,036	-0,142
-706,860	-151,452	-0,156	-0,008
-705,845	-200,000	-0,022	0,141
-704,831	611,780	0,062	0,112
-703,816	41,208	0,120	0,079
-702,802	-27,638	-0,160	-0,067
-701,787	330,884	-0,085	-0,120
-700,772	189,491	0,025	0,027
-699,758	-19,258	0,081	-0,037
-698,743	287,495	-0,044	-0,058
-697,729	-84,129	0,056	-0,013
-696,714	800,000	0,057	-0,146
-695,699	415,681	-0,089	0,139
-694,685	-200,000	0,009	0,060
-693,670	285,995	-0,094	0,123
-692,656	28,283	0,097	-0,059
-691,641	0,438	-0,073	-0,038
-690,627	595,956	0,043	-0,078
-689,612	-200,000	-0,025	0,123
-688,597	293,939	-0,072	-0,096
-687,583	-64,665	0,038	-0,011
-686,568	464,853	-0,116	-0,189
-685,554	-200,000	-0,018	0,097
-684,539	-200,000	0,014	0,095
-683,524	-100,614	-0,070	0,012
-682,510	12,470	0,052	0,029
-681,495	-24,033	0,111	-0,048
-680,481	-104,163	-0,080	-0,013
-679,466	137,513	-0,064	-0,061
-678,451	56,669	-0,104	0,073
-677,437	-55,550	0,072	-0,023
-676,422	-200,000	-0,022	-0,090
-675,408	-21,149	-0,058	-0,026
-674,393	460,684	-0,032	0,052
-673,378	-200,000	-0,020	-0,095
-672,364	371,338	-0,080	-0,119
-671,349	-200,000	0,011	0,107
-670,335	800,000	-0,033	-0,096
-669,320	-96,116	0,143	0,027
-668,305	63,089	-0,032	-0,024
-667,291	554,542	0,044	0,077
-666,276	21,032	-0,034	0,020
-665,262	800,000	-0,018	-0,043
-664,247	193,485	-0,028	0,030
-663,232	-200,000	-0,003	-0,026
-662,218	-200,000	-0,015	-0,081
-661,203	311,628	-0,041	-0,056
-660,189	-114,684	-0,160	0,022
-659,174	268,993	0,085	-0,108
-658,159	346,663	-0,089	-0,127
-657,145	157,061	0,037	0,037
-656,130	-146,374	0,100	-0,006
-655,116	35,397	0,135	0,086
-654,101	800,000	0,072	0,154
-653,086	107,766	-0,105	0,090
-652,072	-200,000	0,009	-0,100
-651,057	233,136	-0,025	-0,029
-650,043	-200,000	0,006	0,055
-649,028	-134,950	0,016	-0,001
-648,014	-200,000	0,010	-0,077
-646,999	-122,867	0,134	-0,016
-645,984	503,229	0,021	0,035
-644,970	-200,000	-0,041	-0,177
-643,955	-200,000	-0,003	-0,117
-642,941	800,000	0,014	-0,043
-641,926	-129,801	0,211	-0,021
-640,911	-56,653	-0,097	0,031
-639,897	800,000	-0,014	-0,039
-638,882	216,325	0,051	0,058
-637,868	335,764	-0,045	0,063
-636,853	263,554	-0,054	0,069
-635,838	-124,195	0,031	0,003
-634,824	-200,000	-0,001	0,024
-633,809	100,014	0,102	0,085
-632,795	-98,402	-0,058	-0,011
-631,780	-200,000	0,002	-0,085
-630,765	-102,513	-0,079	0,014
-629,751	81,597	0,084	-0,066
-628,736	273,658	-0,098	-0,126
-627,722	344,726	-0,076	0,109
-626,707	352,983	-0,044	0,063
-625,692	-82,499	0,129	0,030
-624,678	-103,368	0,047	-0,008
-623,663	-84,809	-0,171	-0,039
-622,649	-154,117	-0,028	-0,001
-621,634	519,459	-0,068	-0,116
-620,619	-200,000	-0,011	0,062
-619,605	-200,000	-0,004	0,057
-618,590	311,037	0,032	0,044
-617,576	800,000	-0,035	0,099
-616,561	-200,000	0,003	0,144
-615,546	-200,000	-0,003	-0,046
-614,532	59,947	-0,083	0,060
-613,517	-200,000	0,026	-0,161
-612,503	-200,000	-0,003	-0,048
-611,488	601,982	0,064	0,115
-610,474	-7,482	-0,043	0,021
-609,459	-200,000	-0,006	0,039
-608,444	122,585	-0,124	0,112
-607,430	800,000	-0,060	-0,181
-606,415	639,808	-0,086	-0,159
-605,401	800,000	0,021	-0,056
-604,386	-200,000	0,000	-0,106
-603,371	-200,000	-0,055	0,177
-602,357	800,000	0,016	0,040
-601,342	-182,540	-0,098	-0,001
-600,328	-184,798	-0,168	0,002
-599,313	-57,671	0,130	0,041
-598,298	800,000	0,023	0,047
-597,284	-72,312	0,036	-0,010
-596,269	104,754	0,108	-0,092
-595,255	-200,000	0,008	0,054
-594,240	28,337	-0,143	-0,087
-593,225	145,292	-0,141	-0,136
-592,211	-73,205	-0,062	-0,016
-591,196	149,655	0,090	0,088
-590,182	800,000	0,008	0,017
-589,167	170,206	-0,109	-0,113
-588,152	164,437	0,103	0,105
-587,138	31,845	0,004	0,002
-586,123	-200,000	-0,009	-0,148
-585,109	-200,000	0,000	0,100
-584,094	-110,394	-0,085	0,013
-583,079	800,000	-0,053	-0,154
-582,065	524,198	-0,105	-0,180
-581,050	19,645	0,056	-0,032
-580,036	-6,227	-0,035	-0,017
-579,021	-200,000	0,004	0,018
-578,006	-200,000	-0,008	0,095
-576,992	-29,375	0,094	0,039
-575,977	284,604	0,068	-0,088
-574,963	70,778	0,032	-0,024
-573,948	-200,000	0,051	0,167
-572,934	-22,863	-0,067	-0,029
-571,919	-200,000	-0,004	-0,075
-570,904	800,000	-0,090	-0,220
-569,890	-22,166	-0,066	-0,029
-568,875	-200,000	0,026	0,083
-567,861	161,686	0,064	0,065
-566,846	-17,969	0,042	-0,019
-565,831	800,000	0,012	-0,034
-564,817	-11,937	-0,093	0,044
-563,802	54,159	0,091	-0,063
-562,788	-200,000	-0,005	-0,021
-561,773	-145,405	-0,077	0,005
-560,758	-5,647	0,115	0,057
-559,744	651,550	0,047	-0,088
-558,729	-200,000	0,014	0,114
-557,715	-126,035	-0,146	0,016
-556,700	133,312	-0,142	-0,132
-555,685	273,554	0,038	0,048
-554,671	96,357	-0,022	0,018
-553,656	269,675	0,023	0,029
-552,642	800,000	0,035	0,103
-551,627	27,904	-0,062	-0,038
-550,612	67,794	0,007	0,005
-549,598	76,224	-0,079	-0,061
-548,583	-168,637	-0,085	0,002
-547,569	800,000	0,051	-0,118
-546,554	-92,705	-0,061	0,012
-545,539	313,393	-0,015	0,020
-544,525	-200,000	0,012	0,084
-543,510	-74,199	0,051	0,013
-542,496	-16,261	-0,162	-0,074
-541,481	-200,000	-0,035	-0,115
-540,466	20,632	0,055	-0,032
-539,452	-117,648	-0,073	0,009
-538,437	-62,486	0,107	0,032
-537,423	516,544	-0,035	-0,059
-536,408	-200,000	-0,022	-0,079
-535,393	-7,811	-0,021	0,010
-534,379	-200,000	-0,011	-0,158
-533,364	-33,814	0,062	0,025
-532,350	-26,577	-0,056	-0,024
-531,335	800,000	-0,035	-0,069
-530,321	-200,000	0,030	0,098
-529,306	-200,000	0,010	0,051
-528,291	84,021	-0,079	0,062
-527,277	-200,000	-0,013	-0,045
-526,262	800,000	0,050	0,104
-525,248	-23,533	-0,082	0,035
-524,233	-200,000	-0,014	0,088
-523,218	42,979	-0,081	-0,053
-522,204	-70,006	-0,057	-0,016
-521,189	79,375	-0,078	-0,060
-520,175	176,370	-0,094	0,098
-519,160	800,000	0,014	-0,038
-518,145	800,000	0,069	0,207
-517,131	800,000	0,047	0,103
-516,116	187,901	-0,100	0,108
-515,102	-115,091	-0,092	0,012
-514,087	46,135	-0,013	-0,009
-513,072	-128,359	-0,068	0,007
-512,058	-38,068	-0,069	-0,026
-511,043	-200,000	0,018	-0,071
-510,029	-136,307	0,133	0,011
-509,014	534,833	0,103	0,177
-507,999	-200,000	0,041	0,250
-506,985	-200,000	-0,016	0,149
-505,970	-86,231	-0,114	-0,025
-504,956	-60,221	-0,053	-0,016
-503,941	362,513	0,054	-0,079
-502,926	648,612	0,053	0,098
-501,912	30,919	-0,080	-0,049
-500,897	800,000	0,002	-0,004
-499,883	764,006	0,065	-0,128
-498,868	-200,000	0,005	-0,108
-497,853	501,413	-0,018	-0,030
-496,839	-124,004	-0,052	0,006
-495,824	-200,000	-0,008	-0,041
-494,810	136,477	0,090	-0,085
-493,795	563,911	-0,014	-0,025
-492,781	132,631	0,024	0,023
-491,766	782,046	0,056	-0,111
-490,751	-200,000	-0,006	-0,020
-489,737	-76,439	-0,037	0,009
-488,722	-40,959	0,119	0,044
-487,708	-200,000	0,050	-0,184
-486,693	127,532	-0,073	0,067
-485,678	-200,000	-0,001	-0,095
-484,664	578,501	-0,064	-0,114
-483,649	92,037	-0,100	-0,081
-482,635	103,808	0,067	-0,057
-481,620	-47,183	0,230	0,080
-480,605	800,000	0,026	0,058
-479,591	800,000	0,011	0,027
-478,576	800,000	-0,041	-0,109
-477,562	91,067	-0,032	0,026
-476,547	44,235	0,008	0,005
-475,532	-43,499	-0,069	-0,025
-474,518	33,499	-0,106	0,066
-473,503	-83,412	0,072	0,017
-472,489	-200,000	0,024	0,087
-471,474	648,870	0,115	0,213
-470,459	-101,039	-0,081	0,014
-469,445	-200,000	0,001	-0,034
-468,430	96,828	-0,168	0,138
-467,416	41,108	0,084	0,055
-466,401	-136,278	0,112	-0,009
-465,386	800,000	-0,052	0,160
-464,372	332,506	0,008	-0,011
-463,357	-37,061	-0,020	-0,008
-462,343	-200,000	-0,007	0,103
-461,328	-81,269	-0,097	-0,023
-460,313	-139,333	0,030	0,002
-459,299	800,000	0,048	-0,102
-458,284	111,198	0,047	-0,041
-457,270	455,761	0,019	0,030
-456,255	11,794	0,102	-0,056
-455,241	-92,059	0,052	-0,011
-454,226	-200,000	-0,009	-0,184
-453,211	124,308	0,094	0,085
-452,197	54,001	0,076	-0,052
-451,182	-100,535	0,150	0,026
-450,168	-164,588	0,130	-0,004
-449,153	382,882	0,048	-0,071
-448,138	-200,000	-0,007	-0,087
-447,124	201,201	-0,059	-0,065
-446,109	29,518	0,084	0,051
-445,095	800,000	-0,035	0,091
-444,080	-56,506	0,203	0,064
-443,065	362,413	-0,017	-0,025
-442,051	287,369	0,005	0,007
-441,036	5,690	-0,135	-0,072
-440,022	800,000	0,054	-0,146
-439,007	-200,000	0,005	-0,082
-437,992	119,077	0,111	-0,099
-436,978	190,995	-0,079	0,085
-435,963	586,132	0,036	-0,064
-434,949	-200,000	0,001	-0,053
-433,934	-132,988	-0,056	0,005
-432,919	-200,000	0,012	-0,113
-431,905	58,875	0,112	-0,079
-430,890	-131,830	0,145	0,013
-429,876	800,000	0,050	-0,130
-428,861	-200,000	-0,013	0,044
-427,846	-120,706	0,100	-0,012
-426,832	356,343	0,034	-0,049
-425,817	197,368	0,017	-0,018
-424,803	-33,924	-0,057	0,022
-423,788	83,767	0,061	0,048
-422,773	-200,000	-0,027	0,214
-421,759	-200,000	-0,023	0,095
-420,744	146,523	-0,134	-0,130
-419,730	328,581	-0,057	0,078
-418,715	119,061	0,063	0,056
-417,701	47,441	-0,081	0,054
-416,686	-90,822	0,141	0,029
-415,671	-108,058	-0,098	-0,015
-414,657	-200,000	0,009	-0,056
-413,642	190,091	-0,108	-0,117
-412,628	555,464	-0,017	-0,029
-411,613	180,761	-0,082	-0,087
-410,598	-200,000	0,040	-0,144
-409,584	800,000	-0,019	0,043
-408,569	93,878	0,070	0,057
-407,555	-41,108	0,023	0,009
-406,540	800,000	-0,049	0,108
-405,525	129,837	-0,040	0,036
-404,511	-200,000	0,010	-0,260
-403,496	800,000	-0,055	-0,140
-402,482	520,891	0,034	0,057
-401,467	-200,000	-0,003	0,044
-400,452	111,269	0,014	0,012
-399,438	266,262	0,038	-0,047
-398,423	800,000	0,018	-0,053
-397,409	70,841	-0,036	-0,026
-396,394	800,000	-0,057	0,134
-395,379	476,820	-0,022	0,035
-394,365	15,219	0,069	-0,039
-393,350	-6,689	0,118	0,057
-392,336	-99,171	-0,079	-0,014
-391,321	154,746	0,063	0,062
-390,306	-200,000	-0,044	0,000
-389,292	138,460	-0,041	-0,038
-388,277	-200,000	-0,036	0,136
-387,263	125,856	-0,111	0,100
-386,248	-9,102	0,117	0,056
-385,233	-200,000	-0,012	0,092
-384,219	-117,948	0,070	0,009
-383,204	-107,114	-0,140	-0,022
-382,190	725,979	-0,051	0,097
-381,175	800,000	-0,045	-0,096
-380,160	47,908	0,020	0,013
-379,146	800,000	-0,034	0,078
-378,131	-100,245	0,044	0,008
-377,117	800,000	-0,023	-0,062
-376,102	88,029	-0,114	0,090
-375,088	800,000	-0,027	0,072
-374,073	-18,344	-0,035	-0,016
-373,058	34,950	0,096	0,060
-372,044	-200,000	0,017	-0,053
-371,029	-200,000	-0,008	-0,074
-370,015	80,758	0,053	-0,041
-369,000	-105,357	0,048	0,008
-367,985	-75,919	0,078	-0,020
-366,971	46,062	0,113	0,075
-365,956	-45,280	-0,033	-0,012
-364,942	192,827	0,081	0,088
-363,927	-22,883	-0,031	-0,013
-362,912	-200,000	0,012	-0,080
-361,898	40,533	0,089	-0,057
-360,883	637,615	-0,020	-0,036
-359,869	11,191	-0,188	0,103
-358,854	-200,000	-0,012	-0,039
-357,839	61,968	0,166	-0,118
-356,825	-200,000	-0,013	0,197
-355,810	-103,878	-0,050	0,008
-354,796	-61,486	0,082	0,025
-353,781	-200,000	0,012	-0,065
-352,766	656,494	-0,099	0,184
-351,752	-200,000	0,026	0,174
-350,737	47,064	0,086	0,057
-349,723	-61,289	-0,065	-0,020
-348,708	-140,887	0,191	-0,014
-347,693	-63,293	-0,115	0,034
-346,679	445,137	-0,070	-0,111
-345,664	800,000	-0,053	-0,107
-344,650	-84,365	0,065	0,015
-343,635	-19,585	0,061	-0,027
-342,620	-200,000	-0,003	0,032
-341,606	-33,527	0,094	-0,037
-340,591	-200,000	-0,018	0,080
-339,577	-200,000	-0,001	0,078
-338,562	22,565	0,061	-0,036
-337,548	-200,000	0,021	-0,092
-336,533	237,819	0,081	0,096
-335,518	-58,254	0,002	-0,001
-334,504	255,140	-0,046	0,056
-333,489	-200,000	-0,022	-0,131
-332,475	-200,000	-0,012	-0,125
-331,460	-200,000	0,004	-0,080
-330,445	-14,802	-0,146	-0,067
-329,431	62,411	0,116	0,083
-328,416	299,672	0,057	0,075
-327,402	48,595	0,046	-0,031
-326,387	-200,000	0,031	-0,123
-325,372	93,610	0,020	0,016
-324,358	207,980	0,076	-0,085
-323,343	190,454	0,063	0,068
-322,329	-62,181	0,163	-0,048
-321,314	-77,126	0,030	-0,007
-320,299	157,712	-0,026	0,026
-319,285	732,885	0,039	-0,075
-318,270	-16,891	0,027	-0,012
-317,256	-91,552	-0,052	0,011
-316,241	-125,859	0,064	0,007
-315,226	-6,325	-0,073	-0,036
-314,212	442,328	-0,051	0,080
-313,197	103,366	0,054	-0,045
-312,183	244,449	0,082	0,099
-311,168	174,691	-0,035	-0,036
-310,153	-200,000	0,015	-0,117
-309,139	68,919	-0,148	0,108
-308,124	800,000	0,100	-0,206
-307,110	-200,000	-0,002	0,046
-306,095	188,993	-0,007	0,008
-305,080	128,480	0,082	0,074
-304,066	-200,000	-0,010	0,083
-303,051	-173,060	-0,137	0,003
-302,037	-140,386	0,201	-0,015
-301,022	350,195	-0,053	0,075
-300,008	487,438	0,040	-0,065
-298,993	-200,000	0,000	-0,010
-297,978	86,631	0,112	0,088
-296,964	181,231	0,107	0,113
-295,949	702,338	0,014	-0,027
-294,935	800,000	0,056	-0,130
-293,920	-200,000	-0,016	0,082
-292,905	-200,000	-0,000	0,040
-291,891	-200,000	-0,016	0,081
-290,876	-165,005	0,051	-0,002
-289,862	-92,523	-0,007	0,001
-288,847	-200,000	-0,009	-0,043
-287,832	342,652	-0,097	-0,137
-286,818	305,436	-0,076	0,101
-285,803	-82,724	0,095	-0,022
-284,789	-200,000	-0,002	0,057
-283,774	800,000	0,034	0,104
-282,759	378,571	-0,049	0,072
-281,745	10,922	0,129	0,070
-280,730	50,106	-0,116	-0,078
-279,716	120,304	0,099	-0,088
-278,701	387,738	0,006	0,008
-277,686	150,253	0,085	-0,083
-276,672	-200,000	-0,005	-0,082
-275,657	32,074	-0,115	-0,071
-274,643	-200,000	-0,024	0,076
-273,628	393,646	-0,082	-0,122
-272,613	-142,664	-0,088	-0,006
-271,599	-75,544	0,161	0,041
-270,584	180,077	0,055	0,058
-269,570	-24,979	-0,093	-0,039
-268,555	-102,865	-0,096	-0,016
-267,540	800,000	-0,049	0,098
-266,526	351,548	-0,063	0,090
-265,511	629,151	0,030	0,054
-264,497	-69,278	0,028	-0,008
-263,482	-61,972	0,188	-0,056
-262,467	-200,000	-0,005	-0,016
-261,453	98,880	-0,058	-0,047
-260,438	-91,132	-0,118	0,024
-259,424	-122,531	0,100	-0,011
-258,409	14,153	-0,127	0,071
-257,395	120,115	0,093	0,083
-256,380	-200,000	-0,002	0,172
-255,365	457,486	-0,023	0,037
-254,351	-117,758	0,031	0,004
-253,336	285,325	-0,040	0,052
-252,322	53,936	-0,147	0,101
-251,307	358,745	0,038	-0,054
-250,292	28,361	-0,025	0,015
-249,278	203,907	-0,019	-0,021
-248,263	252,580	0,077	0,094
-247,249	63,773	0,051	0,036
-246,234	110,134	0,133	-0,114
-245,219	-58,272	-0,132	0,041
-244,205	56,274	0,049	-0,034
-243,190	-36,205	-0,137	-0,053
-242,176	383,947	-0,040	0,059
-241,161	163,743	0,074	0,075
-240,146	509,418	-0,060	0,100
-239,132	217,468	0,051	0,058
-238,117	-79,860	0,151	-0,036
-237,103	-54,768	0,096	0,031
-236,088	59,813	0,119	-0,084
-235,073	800,000	0,059	0,146
-234,059	-46,364	0,153	0,053
-233,044	-62,035	0,137	0,041
-232,030	-90,792	0,138	-0,028
-231,015	742,616	-0,060	0,116
-230,000	357,789	-0,119	-0,170
-228,986	-37,944	-0,095	0,036
-227,971	-200,000	-0,005	0,023
-226,957	-88,055	-0,056	-0,012
-225,942	18,931	0,107	0,061
-224,927	-36,581	-0,164	-0,063
-223,913	-40,895	-0,084	-0,031
-222,898	24,142	-0,138	-0,081
-221,884	-200,000	-0,012	0,049
-220,869	24,486	-0,065	0,038
-219,855	310,973	0,039	0,052
-218,840	-200,000	-0,001	-0,006
-217,825	-200,000	-0,017	-0,102
-216,811	29,510	-0,219	-0,132
-215,796	-200,000	0,025	-0,081
-214,782	-200,000	-0,019	0,104
-213,767	800,000	0,059	0,176
-212,752	58,656	0,053	0,037
-211,738	-200,000	-0,037	-0,211
-210,723	800,000	0,018	-0,041
-209,709	-200,000	-0,001	-0,131
-208,694	147,831	0,071	0,069
-207,679	800,000	0,003	0,008
-206,665	-200,000	-0,036	0,138
-205,650	800,000	-0,026	0,079
-204,636	33,999	-0,065	0,040
-203,621	-200,000	-0,016	0,083
-202,606	800,000	-0,033	-0,077
-201,592	243,679	-0,018	0,022
-200,577	-72,160	0,084	0,022
-199,563	29,698	-0,075	-0,045
-198,548	-200,000	0,002	0,019
-197,533	800,000	0,032	0,094
-196,519	560,918	-0,016	-0,028
-195,504	247,164	-0,075	0,091
-194,490	-200,000	0,013	-0,064
-193,475	-30,156	-0,126	-0,051
-192,460	-38,991	-0,030	-0,011
-191,446	-200,000	0,013	0,058
-190,431	138,461	0,061	0,057
-189,417	-37,627	0,090	0,034
-188,402	-200,000	-0,007	-0,039
-187,387	142,735	-0,037	-0,035
-186,373	800,000	-0,062	0,178
-185,358	574,972	-0,045	-0,079
-184,344	-75,771	0,132	0,033
-183,329	39,839	-0,086	0,055
-182,315	204,564	0,071	-0,079
-181,300	-89,077	0,049	0,010
-180,285	7,244	-0,060	-0,032
-179,271	55,826	0,095	0,065
-178,256	-200,000	-0,011	-0,073
-177,242	800,000	-0,020	0,047
-176,227	497,673	-0,045	-0,073
-175,212	155,723	0,039	-0,038
-174,198	667,251	0,084	0,154
-173,183	800,000	-0,065	-0,188
-172,169	800,000	-0,021	-0,054
-171,154	-107,841	0,026	-0,004
-170,139	-35,536	-0,093	-0,036
-169,125	-154,796	0,011	-0,001
-168,110	800,000	0,054	-0,134
-167,096	106,993	-0,056	-0,048
-166,081	-71,089	0,081	0,022
-165,066	-200,000	0,013	-0,220
-164,052	638,009	-0,060	-0,108
-163,037	800,000	-0,041	-0,103
-162,023	-200,000	0,011	0,136
-161,008	3,272	0,085	0,044
-159,993	389,014	-0,094	0,139
-158,979	-200,000	0,004	-0,067
-157,964	-200,000	-0,015	0,053
-156,950	11,205	-0,090	-0,049
-155,935	-112,107	-0,154	-0,022
-154,920	-84,309	0,106	-0,024
-153,906	103,967	-0,093	0,078
-152,891	413,054	0,044	0,067
-151,877	-96,454	-0,096	-0,018
-150,862	-200,000	0,024	-0,108
-149,847	556,899	-0,058	-0,099
-148,833	-200,000	0,043	-0,147
-147,818	-122,014	0,134	-0,016
-146,804	586,206	-0,044	0,077
-145,789	800,000	-0,056	0,158
-144,775	-200,000	-0,041	0,134
-143,760	-200,000	0,001	-0,030
-142,745	800,000	-0,115	-0,241
-141,731	-200,000	-0,041	-0,170
-140,716	-200,000	0,005	0,025
-139,702	-114,589	0,070	-0,009
-138,687	-72,245	-0,125	-0,033
-137,672	27,783	0,088	-0,053
-136,658	-178,990	-0,088	-0,001
-135,643	-40,248	-0,175	0,064
-134,629	-200,000	0,011	0,039
-133,614	-96,144	0,076	0,014
-132,599	-56,914	0,048	0,015
-131,585	380,628	-0,034	-0,049
-130,570	800,000	0,051	0,121
-129,556	-129,757	0,148	-0,014
-128,541	220,302	-0,082	-0,093
-127,526	-24,741	0,118	0,050
-126,512	216,796	-0,049	0,055
-125,497	282,438	-0,071	-0,090
-124,483	-147,274	-0,099	0,006
-123,468	4,120	-0,062	0,032
-122,453	-63,630	-0,069	-0,020
-121,439	168,529	-0,035	0,035
-120,424	-112,178	-0,154	0,022
-119,410	-104,255	-0,105	0,017
-118,395	-200,000	0,029	0,169
-117,380	98,916	0,087	0,071
-116,366	-200,000	-0,014	-0,092
-115,351	202,575	-0,045	-0,049
-114,337	-200,000	0,028	-0,094
-113,322	352,008	0,046	0,065
-112,307	7,342	-0,080	0,042
-111,293	-200,000	0,019	0,088
-110,278	52,002	0,052	-0,035
-109,264	-200,000	-0,011	0,044
-108,249	-200,000	-0,010	0,061
-107,234	800,000	0,018	0,038
-106,220	-131,448	-0,061	0,006
-105,205	-200,000	0,004	-0,043
-104,191	-141,633	0,110	-0,008
-103,176	7,695	0,098	0,052
-102,162	190,996	0,020	-0,022
-101,147	-142,948	0,034	-0,002
-100,132	235,628	0,081	-0,095
-99,118	-200,000	-0,014	-0,079
-98,103	800,000	-0,010	0,027
-97,089	68,529	0,101	-0,073
-96,074	-44,425	-0,006	0,002
-95,059	42,189	0,080	0,051
-94,045	759,207	0,052	0,100
-93,030	35,258	-0,058	0,036
-92,016	-200,000	0,006	-0,028
-91,001	274,752	-0,099	0,125
-89,986	46,468	0,084	0,055
-88,972	-200,000	0,009	0,229
-87,957	-87,631	0,026	-0,006
-86,943	-77,939	-0,118	-0,029
-85,928	-32,199	-0,021	-0,008
-84,913	195,684	0,131	-0,142
-83,899	800,000	-0,015	0,047
-82,884	154,434	-0,127	0,124
-81,870	353,606	0,065	0,091
-80,855	-30,765	-0,081	0,032
-79,840	800,000	0,040	0,084
-78,826	-2,865	-0,028	-0,014
-77,811	-200,000	0,008	0,027
-76,797	88,830	-0,108	-0,085
-75,782	51,485	0,080	0,053
-74,767	44,163	0,055	0,036
-73,753	-52,364	0,139	0,045
-72,738	51,592	-0,104	-0,070
-71,724	-200,000	-0,020	0,142
-70,709	35,282	0,055	-0,034
-69,694	38,112	-0,064	-0,040
-68,680	-200,000	0,015	0,114
-67,665	-200,000	0,020	0,189
-66,651	-200,000	0,022	0,147
-65,636	164,027	0,121	-0,121
-64,622	-20,261	-0,093	0,040
-63,607	-74,607	-0,151	0,038
-62,592	-132,761	0,053	0,005
-61,578	42,931	-0,015	-0,009
-60,563	-6,605	0,059	-0,028
-59,549	166,170	-0,064	0,064
-58,534	-26,126	-1,820	-0,754
-57,519	379,165	-1,346	-1,957
-56,505	-200,000	-0,490	-4,586
-55,490	336,609	0,895	1,234
-54,476	800,000	4,968	11,245
-53,461	-200,000	19,519	323,394
-52,446	-200,000	744,193	2333,830
-51,432	567,932	1657,234	2860,798
-50,417	77,470	1670,950	1257,438
-49,403	20,900	1544,458	883,743
-48,388	14,827	1466,995	809,870
-47,373	18,095	1456,957	820,092
-46,359	16,613	1446,825	807,250
-45,344	13,094	1442,136	787,741
-44,330	13,023	1440,348	786,393
-43,315	12,989	1438,422	785,144
-42,300	13,028	1436,851	784,442
-41,286	13,046	1435,415	783,715
-40,271	12,965	1434,309	782,692
-39,257	13,010	1432,975	782,146
-38,242	13,056	1431,808	781,700
-37,227	13,073	1430,444	781,006
-36,213	13,064	1429,216	780,259
-35,198	13,028	1428,000	779,396
-34,184	13,075	1427,064	779,074
-33,169	13,026	1425,843	778,145
-32,154	13,062	1424,700	777,664
-31,140	13,073	1423,334	776,936
-30,125	13,123	1422,157	776,502
-29,111	13,052	1421,165	775,592
-28,096	13,026	1420,231	774,929
-27,082	12,999	1419,032	774,119
-26,067	12,969	1417,961	773,360
-25,052	12,997	1416,764	772,808
-24,038	12,955	1415,861	772,087
-23,023	12,968	1414,982	771,638
-22,009	12,978	1413,889	771,057
-20,994	12,916	1412,954	770,229
-19,979	12,911	1412,087	769,700
-18,965	12,911	1411,129	769,150
-17,950	12,910	1410,196	768,604
-16,936	12,934	1409,209	768,148
-15,921	12,881	1408,153	767,296
-14,906	12,891	1407,311	766,852
-13,892	12,918	1406,269	766,382
-12,877	12,922	1405,410	765,900
-11,863	12,921	1404,557	765,398
-10,848	12,880	1403,755	764,741
-9,833	12,860	1402,906	764,156
-8,819	12,831	1402,024	763,509
-7,804	12,800	1401,304	762,943
-6,790	12,805	1400,138	762,303
-5,775	12,828	1399,065	761,795
-4,760	12,817	1397,796	761,020
-3,746	12,787	1397,310	760,586
-2,731	12,802	1396,138	759,991
-1,717	12,761	1395,359	759,345
-0,702	12,744	1393,795	758,384
0,313	16,628	1309,705	730,607
1,327	32,898	702,206	429,247
2,342	50,594	122,952	82,160
3,356	1,996	16,509	8,401
4,371	5,393	3,254	1,693
5,386	19,861	0,635	0,361
6,400	800,000	0,098	0,291
7,415	0,954	-0,262	-0,132
8,429	185,224	-0,280	-0,294
9,444	104,347	-0,329	-0,274
10,459	-41,248	-0,324	-0,117
11,473	-28,706	-0,344	-0,139
12,488	-122,500	-0,398	-0,045
13,502	100,055	-0,259	-0,212
14,517	18,140	-0,337	-0,190
15,531	96,607	-0,414	-0,335
16,546	225,424	-0,385	-0,441
17,561	158,090	-0,350	-0,343
18,575	4,367	-0,201	-0,104
19,590	4,127	-0,250	-0,129
20,604	-84,767	-0,126	-0,028
21,619	61,110	-0,471	-0,330
22,634	88,071	-0,437	-0,342
23,648	97,797	-0,356	-0,289
24,663	-9,911	-0,458	-0,214
25,677	69,456	-0,396	-0,288
26,692	-24,382	-0,385	-0,161
27,707	127,896	-0,256	-0,230
28,721	16,785	-0,400	-0,223
29,736	47,511	-0,297	-0,195
30,750	-10,054	-0,342	-0,160
31,765	148,847	-0,361	-0,345
32,780	131,531	-0,294	-0,267
33,794	-0,412	-0,348	-0,174
34,809	9,050	-0,270	-0,143
35,823	-32,557	-0,440	-0,172
36,838	25,672	-0,326	-0,191
37,853	157,533	-0,407	-0,398
38,867	228,167	-0,278	-0,320
39,882	-2,780	-0,422	-0,207
40,896	-30,273	-0,399	-0,159
41,911	158,555	-0,280	-0,274
42,926	71,787	-0,502	-0,368
43,940	52,512	-0,417	-0,280
44,955	73,938	-0,366	-0,270
45,969	59,729	-0,367	-0,255
46,984	48,297	-0,348	-0,229
47,999	-75,184	-0,311	-0,078
49,013	342,841	-0,251	-0,346
50,028	-50,720	-0,300	-0,099
51,042	59,715	-0,305	-0,212
52,057	102,004	-0,339	-0,278
53,071	59,304	-0,341	-0,236
54,086	7,763	-0,303	-0,159
55,101	97,342	-0,273	-0,221
56,115	128,287	-0,301	-0,270
57,130	86,329	-0,390	-0,302
58,144	32,592	-0,384	-0,233
59,159	117,389	-0,462	-0,400
60,174	50,996	-0,331	-0,220
61,188	-125,238	-0,306	-0,033
62,203	-63,552	-0,252	-0,072
63,217	-37,500	-0,297	-0,111
64,232	134,915	-0,204	-0,186
65,247	-11,464	-0,454	-0,209
66,261	160,611	-0,379	-0,373
67,276	-11,693	-0,499	-0,230
68,290	129,067	-0,308	-0,277
69,305	258,054	-0,193	-0,234
70,320	9,239	-0,314	-0,166
71,334	-42,627	-0,333	-0,118
72,349	129,028	-0,321	-0,288
73,363	189,528	-0,253	-0,267
74,378	17,272	-0,274	-0,152
75,393	28,332	-0,357	-0,211
76,407	107,942	-0,318	-0,266
77,422	-0,192	-0,221	-0,110
78,436	-53,865	-0,419	-0,133
79,451	165,016	-0,341	-0,338
80,466	65,833	-0,377	-0,268
81,480	135,723	-0,313	-0,286
82,495	10,356	-0,228	-0,122
83,509	144,954	-0,309	-0,290
84,524	-86,966	-0,305	-0,065
85,539	-88,695	-0,303	-0,063
86,553	-22,318	-0,224	-0,095
87,568	-55,935	-0,349	-0,109
88,582	261,636	-0,137	-0,167
89,597	26,457	-0,338	-0,198
90,611	21,727	-0,215	-0,122
91,626	23,886	-0,329	-0,190
92,641	-44,822	-0,272	-0,095
93,655	-51,796	-0,362	-0,118
94,670	1,252	-0,286	-0,144
95,684	51,964	-0,317	-0,212
96,699	254,165	-0,147	-0,177
97,714	104,345	-0,203	-0,167
98,728	100,554	-0,285	-0,232
99,743	30,364	-0,291	-0,174
100,757	-153,960	-0,268	-0,013
101,772	-44,791	-0,300	-0,104
102,787	-22,906	-0,430	-0,181
103,801	118,326	-0,284	-0,245
104,816	262,986	-0,292	-0,356
105,830	101,807	-0,323	-0,264
106,845	-118,786	-0,275	-0,034
107,860	173,528	-0,178	-0,181
108,874	-122,803	-0,451	-0,050
109,889	116,663	-0,364	-0,313
110,903	25,375	-0,342	-0,199
111,918	-8,347	-0,217	-0,102
112,933	161,812	-0,130	-0,128
113,947	151,066	-0,191	-0,182
114,962	8,821	-0,352	-0,185
115,976	-22,297	-0,316	-0,134
116,991	253,457	-0,310	-0,371
118,006	-78,564	-0,250	-0,059
119,020	35,813	-0,371	-0,228
120,035	-87,432	-0,311	-0,065
121,049	-6,157	-0,196	-0,093
122,064	-147,276	-0,252	-0,015
123,079	-68,291	-0,262	-0,071
124,093	105,634	-0,193	-0,160
125,108	324,611	-0,176	-0,236
126,122	119,603	-0,216	-0,187
127,137	-44,845	-0,286	-0,099
128,151	769,019	-0,161	-0,309
129,166	-29,318	-0,205	-0,082
130,181	-30,357	-0,271	-0,107
131,195	301,854	-0,197	-0,256
132,210	3,825	-0,233	-0,119
133,224	22,954	-0,291	-0,166
134,239	599,875	-0,153	-0,267
135,254	747,721	-0,085	-0,161
136,268	15,846	-0,294	-0,161
137,283	-83,955	-0,183	-0,040
138,297	-68,597	-0,396	-0,107
139,312	-22,637	-0,313	-0,132
140,327	76,347	-0,232	-0,172
141,341	15,169	-0,314	-0,172
142,356	13,722	-0,346	-0,188
143,370	118,397	-0,194	-0,167
144,385	-108,595	-0,187	-0,028
145,400	191,168	-0,235	-0,247
146,414	128,152	-0,221	-0,197
147,429	266,207	-0,189	-0,231
148,443	186,828	-0,210	-0,219
149,458	103,028	-0,154	-0,126
150,473	164,094	-0,179	-0,176
151,487	-13,598	-0,203	-0,092
152,502	756,054	-0,178	-0,338
153,516	28,620	-0,299	-0,176
154,531	94,268	-0,246	-0,195
155,546	75,143	-0,255	-0,188
156,560	172,732	-0,125	-0,126
157,575	574,025	-0,141	-0,241
158,589	38,294	-0,237	-0,147
159,604	-20,562	-0,221	-0,094
160,619	-37,371	-0,285	-0,106
161,633	63,159	-0,211	-0,147
162,648	9,667	-0,286	-0,151
163,662	-37,937	-0,252	-0,093
164,677	253,269	-0,145	-0,173
165,692	-14,935	-0,241	-0,107
166,706	85,238	-0,287	-0,220
167,721	-76,544	-0,229	-0,056
168,735	278,560	-0,235	-0,293
169,750	-4,982	-0,362	-0,173
170,764	87,040	-0,243	-0,187
171,779	41,830	-0,217	-0,137
172,794	9,320	-0,271	-0,142
173,808	-4,855	-0,228	-0,109
174,823	138,440	-0,263	-0,241
175,837	16,745	-0,200	-0,110
176,852	594,081	-0,119	-0,206
177,867	8,728	-0,273	-0,143
178,881	-200,000	-0,179	-0,000
179,896	9,394	-0,284	-0,149
180,910	224,258	-0,245	-0,276
181,925	-11,602	-0,187	-0,085
182,940	-32,172	-0,300	-0,116
183,954	47,370	-0,267	-0,173
184,969	3,441	-0,243	-0,123
185,983	-14,327	-0,186	-0,083
186,998	-86,052	-0,199	-0,042
188,013	-42,478	-0,352	-0,124
189,027	634,607	-0,085	-0,151
190,042	-18,130	-0,259	-0,112
191,056	72,795	-0,202	-0,147
192,071	-46,192	-0,166	-0,057
193,086	108,972	-0,252	-0,210
194,100	-35,610	-0,244	-0,092
195,115	-25,273	-0,261	-0,107
196,129	-110,885	-0,261	-0,037
197,144	-36,381	-0,188	-0,070
198,159	103,527	-0,235	-0,191
199,173	-171,275	-0,248	0,006
200,188	-12,244	-0,188	-0,085
201,202	-6,625	-0,255	-0,120
202,217	-81,397	-0,315	-0,071
203,232	-24,777	-0,206	-0,085
204,246	-22,576	-0,328	-0,137
205,261	49,007	-0,273	-0,178
206,275	-92,689	-0,321	-0,062
207,290	251,949	-0,083	-0,098
208,304	-95,057	-0,201	-0,037
209,319	463,979	-0,170	-0,264
210,334	114,391	-0,198	-0,168
211,348	41,337	-0,287	-0,180
212,363	110,779	-0,205	-0,171
213,377	-33,558	-0,270	-0,103
214,392	173,586	-0,115	-0,115
215,407	370,269	-0,131	-0,184
216,421	558,975	-0,105	-0,177
217,436	75,775	-0,245	-0,180
218,450	88,294	-0,244	-0,188
219,465	800,000	-0,117	-0,231
220,480	-22,153	-0,330	-0,138
221,494	4,929	-0,103	-0,052
222,509	94,499	-0,127	-0,100
223,523	136,972	-0,293	-0,266
224,538	99,048	-0,215	-0,172
225,553	800,000	-0,107	-0,247
226,567	-4,034	-0,299	-0,143
227,582	-24,273	-0,229	-0,094
228,596	79,340	-0,207	-0,153
229,611	77,132	-0,260	-0,192
230,626	502,774	-0,099	-0,160
231,640	-97,109	-0,207	-0,037
232,655	136,149	-0,187	-0,169
233,669	12,983	-0,215	-0,115
234,684	-51,781	-0,040	-0,013
235,699	155,388	-0,171	-0,163
236,713	31,301	-0,161	-0,096
237,728	-143,829	-0,236	-0,015
238,742	-30,437	-0,211	-0,083
239,757	60,607	-0,120	-0,083
240,772	103,681	-0,152	-0,124
241,786	3,766	-0,299	-0,151
242,801	691,967	-0,091	-0,165
243,815	59,217	-0,098	-0,067
244,830	-49,752	-0,200	-0,065
245,844	103,826	-0,165	-0,134
246,859	116,624	-0,225	-0,191
247,874	27,362	-0,260	-0,151
248,888	-45,666	-0,214	-0,073
249,903	135,627	-0,248	-0,224
250,917	6,931	-0,070	0,036
251,932	631,451	-0,096	-0,169
252,947	716,499	-0,112	-0,207
253,961	-163,167	-0,068	-0,002
254,976	549,931	-0,169	-0,281
255,990	74,851	-0,275	-0,200
257,005	-143,863	-0,153	0,010
258,020	800,000	-0,042	-0,087
259,034	103,321	-0,120	-0,098
260,049	11,770	-0,180	-0,095
261,063	-34,090	-0,269	-0,102
262,078	254,126	-0,213	-0,252
263,093	172,517	-0,213	-0,212
264,107	153,621	-0,154	-0,146
265,122	-142,215	-0,136	-0,009
266,136	470,171	-0,060	-0,094
267,151	-132,164	-0,274	0,024
268,166	-200,000	-0,077	-0,292
269,180	217,325	-0,190	-0,209
270,195	30,372	-0,182	-0,107
271,209	129,168	-0,135	-0,119
272,224	800,000	-0,113	-0,228
273,239	-65,385	-0,159	-0,044
274,253	190,188	-0,105	-0,109
275,268	314,918	-0,184	-0,240
276,282	133,747	-0,158	-0,141
277,297	187,426	-0,208	-0,215
278,312	-117,532	-0,179	-0,022
279,326	-83,673	-0,192	-0,042
280,341	-80,444	-0,193	-0,044
281,355	163,128	-0,111	-0,108
282,370	-85,137	-0,243	-0,052
283,384	112,898	-0,263	-0,220
284,399	403,076	-0,029	0,042
285,414	-66,928	-0,122	0,033
286,428	219,749	-0,077	-0,085
287,443	503,038	-0,114	-0,182
288,457	492,079	-0,075	-0,119
289,472	800,000	-0,154	-0,296
290,487	587,238	-0,106	-0,180
291,501	185,279	-0,120	-0,123
292,516	-200,000	-0,074	-0,257
293,530	194,872	-0,099	-0,104
294,545	171,258	-0,106	-0,105
295,560	-97,543	-0,146	-0,026
296,574	43,715	-0,065	0,041
297,589	29,049	-0,254	-0,148
298,603	82,856	-0,180	-0,135
299,618	-147,673	-0,088	0,005
300,633	730,490	-0,035	-0,065
301,647	-40,655	-0,108	0,038
302,662	-111,380	-0,088	-0,012
303,676	-94,635	-0,165	-0,031
304,691	345,392	-0,133	-0,181
305,706	-137,442	-0,149	0,011
306,720	800,000	-0,100	-0,215
307,735	-200,000	-0,061	-0,216
308,749	-19,053	-0,281	-0,120
309,764	-18,016	-0,201	-0,086
310,779	-14,778	-0,082	-0,036
311,793	99,577	-0,198	-0,158
312,808	105,547	-0,230	-0,187
313,822	-179,365	-0,180	-0,003
314,837	30,822	-0,104	-0,061
315,852	9,621	-0,104	-0,054
316,866	-6,260	-0,115	-0,054
317,881	295,607	-0,084	-0,106
318,895	469,728	-0,059	-0,092
319,910	94,294	-0,149	-0,116
320,925	-200,000	-0,072	-0,316
321,939	-127,855	-0,122	-0,012
322,954	-42,392	-0,121	-0,042
323,968	5,776	-0,283	-0,143
324,983	-119,196	-0,212	0,025
325,997	60,276	-0,199	-0,135
327,012	417,090	-0,157	-0,231
328,027	-41,315	-0,253	-0,089
329,041	48,515	-0,130	-0,084
330,056	76,962	-0,168	-0,123
331,070	-171,964	-0,107	-0,002
332,085	113,361	-0,065	0,054
333,100	-132,491	-0,137	-0,012
334,114	214,903	-0,127	-0,138
335,129	68,575	-0,166	-0,117
336,143	70,118	-0,159	-0,113
337,158	-86,192	-0,183	-0,039
338,173	-200,000	-0,001	0,023
339,187	131,051	-0,040	0,035
340,202	542,878	-0,056	-0,093
341,216	-58,463	-0,210	-0,062
342,231	212,577	-0,093	-0,101
343,246	-163,226	-0,152	-0,005
344,260	-12,169	-0,129	-0,058
345,275	302,985	-0,069	0,088
346,289	-185,027	-0,116	0,001
347,304	63,090	-0,195	-0,134
348,319	212,343	-0,127	-0,138
349,333	-75,048	-0,216	-0,053
350,348	-124,818	-0,126	-0,013
351,362	324,433	-0,084	-0,110
352,377	-46,482	-0,133	0,045
353,392	800,000	-0,055	-0,145
354,406	-79,638	-0,162	-0,037
355,421	207,827	1314,256	1409,385
356,435	159,886	1474,921	1409,867
