DTS Sentinel unit serial number:	SN410029Multiplexer serial number:	ORYXHardware model number:	OX2-SRSoftware version number:	ORYX F/W v4,00 Oryx Data Collector v3.7.2.0data status	okinstallation	B3 Nyhavnadifferential loss correction	single-endedforward channel	channel 1reverse channel	N/Adate	2023/12/01time	00:22:30forward acquisition time	300,00reverse acquisition time	0,00gamma	499,1914k internal	0,3211k external	0,3211temperature offset calibration	1,0000default loss term (dB/km)	0,3820temperature slope calibration	1,0000multiplexer offset coefficient	1,0000multiplexer slope coefficient	1,0000fibre end	0,00T internal ref (°C)	9,25T ext. ref 1 (°C)	-5,83T ext. ref 2 (°C)	-5,95length (m)	temperature (°C)	Stokes	anti-Stokes-744,400	800,000	-0,074	-0,181
-743,385	-200,000	-0,017	0,205
-742,371	68,061	-0,188	-0,139
-741,356	-200,000	-0,046	0,377
-740,342	-200,000	-0,072	-0,233
-739,327	-200,000	-0,045	0,254
-738,312	128,178	-0,282	-0,260
-737,298	712,851	-0,107	0,207
-736,283	32,275	-0,214	-0,134
-735,269	-200,000	-0,041	0,208
-734,254	49,573	-0,207	-0,141
-733,239	181,218	-0,106	0,113
-732,225	-200,000	-0,030	-0,161
-731,210	-200,000	0,010	0,199
-730,196	602,977	-0,083	-0,149
-729,181	800,000	0,050	-0,102
-728,167	-6,630	-0,042	0,021
-727,152	800,000	0,011	0,028
-726,137	800,000	-0,065	-0,164
-725,123	-113,041	0,132	0,019
-724,108	-58,207	-0,217	-0,068
-723,094	600,878	-0,078	-0,141
-722,079	303,474	0,056	0,076
-721,064	-200,000	-0,003	0,121
-720,050	-200,000	0,035	0,158
-719,035	108,383	-0,064	0,056
-718,021	-200,000	0,029	-0,108
-717,006	-32,797	-0,171	-0,069
-715,991	-200,000	-0,022	-0,085
-714,977	-67,919	-0,096	0,027
-713,962	-200,000	-0,006	0,020
-712,948	-200,000	0,008	0,041
-711,933	222,949	0,038	-0,045
-710,918	-48,149	-0,081	0,028
-709,904	-112,505	-0,080	-0,012
-708,889	306,464	-0,082	-0,111
-707,875	800,000	-0,027	-0,079
-706,860	-38,255	0,109	-0,042
-705,845	-200,000	0,013	0,070
-704,831	-200,000	-0,022	-0,101
-703,816	-135,982	0,073	-0,006
-702,802	211,316	-0,102	0,116
-701,787	-44,522	0,178	-0,064
-700,772	-200,000	-0,052	-0,176
-699,758	-200,000	0,021	-0,088
-698,743	-29,417	0,039	-0,016
-697,729	-200,000	-0,011	0,114
-696,714	-132,787	0,141	0,013
-695,699	93,821	-0,111	-0,091
-694,685	-200,000	-0,019	0,162
-693,670	-138,334	-0,135	0,011
-692,656	456,838	0,072	-0,117
-691,641	-81,421	0,094	-0,022
-690,627	-200,000	-0,011	0,046
-689,612	-200,000	-0,029	-0,092
-688,597	-80,001	-0,049	0,012
-687,583	-177,424	0,053	-0,001
-686,568	406,534	-0,058	0,089
-685,554	-200,000	-0,006	-0,027
-684,539	294,969	0,168	0,223
-683,524	800,000	0,074	0,151
-682,510	-200,000	-0,007	0,050
-681,495	-6,920	0,099	0,049
-680,481	-78,461	-0,128	0,031
-679,466	800,000	0,027	0,073
-678,451	800,000	-0,052	0,155
-677,437	122,216	-0,028	0,025
-676,422	-200,000	-0,013	0,048
-675,408	85,850	-0,121	0,096
-674,393	223,640	-0,125	-0,146
-673,378	-106,819	0,149	-0,024
-672,364	28,223	-0,086	-0,052
-671,349	415,352	-0,085	0,131
-670,335	67,258	0,151	0,111
-669,320	-200,000	-0,017	0,105
-668,305	-200,000	0,014	0,110
-667,291	22,824	0,016	0,010
-666,276	73,249	-0,138	-0,104
-665,262	-200,000	0,009	0,048
-664,247	-10,140	-0,054	0,026
-663,232	252,783	0,017	0,021
-662,218	131,270	0,090	0,083
-661,203	145,833	-0,056	0,055
-660,189	720,376	-0,047	-0,092
-659,174	33,367	0,103	-0,065
-658,159	312,529	-0,092	-0,126
-657,145	-65,044	-0,057	0,017
-656,130	-165,066	0,065	0,002
-655,116	297,479	0,108	0,144
-654,101	-200,000	-0,035	0,164
-653,086	-200,000	-0,002	-0,042
-652,072	510,325	0,022	0,038
-651,057	7,850	-0,070	-0,038
-650,043	-97,321	-0,106	-0,020
-649,028	800,000	-0,017	0,046
-648,014	-27,967	-0,060	0,025
-646,999	-20,376	0,018	0,008
-645,984	20,691	-0,055	0,032
-644,970	79,606	-0,053	0,041
-643,955	23,326	-0,094	-0,056
-642,941	-74,856	-0,018	-0,005
-641,926	-66,978	-0,166	0,047
-640,911	303,213	-0,027	0,036
-639,897	520,608	0,092	0,156
-638,882	713,139	0,019	-0,036
-637,868	123,758	-0,046	0,041
-636,853	254,108	0,112	-0,139
-635,838	343,311	0,102	-0,144
-634,824	-54,201	-0,098	-0,032
-633,809	428,338	-0,018	-0,029
-632,795	361,968	0,051	0,074
-631,780	395,546	-0,034	-0,051
-630,765	-200,000	-0,010	-0,089
-629,751	-200,000	0,039	0,142
-628,736	-200,000	-0,028	-0,102
-627,722	109,348	0,067	-0,058
-626,707	31,192	-0,131	0,081
-625,692	-200,000	0,024	-0,102
-624,678	-200,000	0,007	-0,052
-623,663	-51,420	-0,078	0,026
-622,649	406,184	-0,040	0,061
-621,634	31,326	0,047	0,029
-620,619	-200,000	-0,003	-0,081
-619,605	83,853	-0,127	-0,100
-618,590	-200,000	0,002	0,123
-617,576	157,403	-0,115	-0,115
-616,561	800,000	0,033	-0,070
-615,546	-80,655	-0,086	0,020
-614,532	-74,184	-0,126	-0,033
-613,517	34,348	-0,084	0,052
-612,503	-114,616	-0,091	-0,012
-611,488	-137,555	-0,024	-0,002
-610,474	-200,000	-0,006	-0,119
-609,459	-200,000	-0,020	-0,088
-608,444	288,786	-0,115	-0,151
-607,430	381,032	-0,075	-0,111
-606,415	222,559	-0,033	-0,039
-605,401	-120,409	0,096	-0,012
-604,386	187,283	0,032	-0,035
-603,371	159,200	-0,102	0,102
-602,357	800,000	-0,030	0,089
-601,342	-123,594	-0,060	0,007
-600,328	-138,783	0,150	0,012
-599,313	235,712	0,063	0,076
-598,298	800,000	0,068	-0,215
-597,284	278,963	-0,070	-0,091
-596,269	-85,599	-0,061	-0,014
-595,255	-10,293	-0,100	0,048
-594,240	-43,964	-0,132	-0,047
-593,225	-200,000	-0,016	0,063
-592,211	519,824	-0,028	-0,048
-591,196	8,136	-0,101	-0,055
-590,182	-90,594	0,047	0,010
-589,167	800,000	0,064	0,196
-588,152	-200,000	0,003	0,028
-587,138	-53,494	0,076	-0,025
-586,123	313,322	-0,036	0,048
-585,109	11,089	-0,055	0,030
-584,094	800,000	0,012	-0,035
-583,079	800,000	0,027	0,059
-582,065	800,000	0,019	0,048
-581,050	-200,000	-0,020	0,116
-580,036	267,674	0,064	-0,081
-579,021	116,220	-0,084	-0,074
-578,006	800,000	-0,038	0,083
-576,992	-60,401	0,110	-0,034
-575,977	69,380	-0,103	-0,076
-574,963	-27,636	-0,032	-0,013
-573,948	-200,000	-0,002	-0,064
-572,934	-200,000	0,015	0,076
-571,919	-27,998	-0,146	-0,061
-570,904	-103,823	0,004	0,001
-569,890	-61,700	-0,212	0,064
-568,875	-49,844	0,053	0,018
-567,861	-164,686	-0,113	0,004
-566,846	332,853	-0,051	0,071
-565,831	-186,499	0,026	0,000
-564,817	46,704	-0,130	-0,087
-563,802	531,035	-0,068	-0,116
-562,788	30,798	0,066	-0,041
-561,773	-62,700	0,167	-0,050
-560,758	6,464	0,108	-0,058
-559,744	126,764	-0,076	0,070
-558,729	-58,136	0,131	0,041
-557,715	-103,032	-0,118	0,020
-556,700	-71,024	-0,081	-0,022
-555,685	588,764	0,041	0,074
-554,671	96,059	0,031	-0,025
-553,656	-200,000	0,018	0,142
-552,642	-200,000	-0,029	0,135
-551,627	189,381	0,030	-0,032
-550,612	800,000	-0,023	0,054
-549,598	51,938	-0,072	-0,049
-548,583	-77,297	-0,216	-0,054
-547,569	121,835	0,065	0,058
-546,554	-75,527	-0,060	-0,015
-545,539	-200,000	0,043	0,158
-544,525	-0,239	0,051	-0,026
-543,510	201,251	0,141	0,157
-542,496	19,908	-0,098	-0,057
-541,481	-200,000	-0,024	-0,123
-540,466	800,000	-0,026	0,076
-539,452	288,347	0,074	0,097
-538,437	137,731	0,076	-0,071
-537,423	270,784	0,061	0,077
-536,408	-115,986	-0,126	0,017
-535,393	377,814	0,019	-0,028
-534,379	800,000	-0,038	-0,090
-533,364	-135,666	-0,134	0,011
-532,350	96,283	0,071	-0,058
-531,335	-23,540	-0,063	0,027
-530,321	565,078	-0,046	0,080
-529,306	37,496	-0,105	0,067
-528,291	239,519	-0,085	0,102
-527,277	-200,000	-0,005	-0,029
-526,262	112,895	0,020	0,018
-525,248	-78,291	0,064	0,016
-524,233	-200,000	0,004	-0,132
-523,218	-47,697	-0,100	-0,035
-522,204	800,000	-0,098	-0,218
-521,189	-54,732	-0,093	0,030
-520,175	143,962	-0,060	0,057
-519,160	-200,000	0,026	-0,124
-518,145	-60,310	0,073	-0,022
-517,131	393,239	0,042	-0,063
-516,116	36,263	0,068	-0,043
-515,102	389,791	-0,022	0,033
-514,087	800,000	-0,024	-0,058
-513,072	77,735	-0,029	-0,022
-512,058	509,127	0,020	-0,033
-511,043	-91,675	-0,039	0,008
-510,029	51,494	-0,020	-0,014
-509,014	271,977	0,045	0,057
-507,999	374,108	0,049	-0,072
-506,985	-200,000	-0,014	0,052
-505,970	800,000	0,030	-0,069
-504,956	-200,000	-0,019	-0,066
-503,941	458,797	-0,023	0,037
-502,926	-128,146	0,073	0,007
-501,912	144,250	-0,057	0,055
-500,897	800,000	-0,047	-0,105
-499,883	171,099	-0,102	-0,105
-498,868	-105,085	0,050	-0,008
-497,853	-56,534	0,017	0,006
-496,839	-62,034	0,130	0,039
-495,824	-10,381	-0,058	0,028
-494,810	157,394	0,043	0,043
-493,795	-124,654	-0,094	0,010
-492,781	35,821	0,062	-0,039
-491,766	-200,000	-0,036	-0,156
-490,751	-200,000	0,022	-0,151
-489,737	-200,000	-0,004	0,108
-488,722	800,000	-0,039	0,117
-487,708	-117,223	0,131	0,017
-486,693	-200,000	-0,005	0,031
-485,678	196,404	0,122	-0,133
-484,664	-109,570	-0,125	0,019
-483,649	-200,000	0,003	-0,062
-482,635	446,661	-0,080	-0,126
-481,620	800,000	0,020	0,060
-480,605	-200,000	0,031	0,123
-479,591	800,000	0,013	-0,040
-478,576	-200,000	0,043	-0,139
-477,562	-1,261	-0,023	-0,012
-476,547	187,556	0,049	-0,053
-475,532	425,978	0,020	0,031
-474,518	219,723	0,069	-0,080
-473,503	800,000	-0,025	0,064
-472,489	63,190	-0,049	-0,035
-471,474	-200,000	0,033	-0,146
-470,459	100,926	-0,018	0,015
-469,445	122,249	0,064	0,057
-468,430	265,106	-0,032	-0,040
-467,416	403,166	0,062	0,094
-466,401	800,000	-0,030	0,079
-465,386	16,042	0,067	0,038
-464,372	53,807	0,061	0,042
-463,357	10,935	-0,158	-0,086
-462,343	-129,068	-0,019	-0,002
-461,328	-53,149	-0,034	0,011
-460,313	-200,000	-0,005	-0,017
-459,299	17,157	0,076	-0,043
-458,284	738,087	-0,040	-0,078
-457,270	-12,105	0,104	0,049
-456,255	-200,000	0,001	0,065
-455,241	800,000	-0,052	-0,129
-454,226	81,791	-0,103	-0,080
-453,211	412,708	0,053	0,081
-452,197	-5,092	0,095	0,047
-451,182	143,304	0,122	0,116
-450,168	-11,673	0,101	0,047
-449,153	-149,469	-0,073	0,004
-448,138	-105,066	-0,025	-0,004
-447,124	-5,514	-0,135	-0,066
-446,109	800,000	-0,055	-0,139
-445,095	55,743	0,081	0,056
-444,080	166,259	0,087	-0,089
-443,065	800,000	-0,041	0,083
-442,051	375,353	0,056	-0,082
-441,036	16,166	0,056	-0,031
-440,022	-39,777	0,042	0,016
-439,007	-200,000	0,020	-0,096
-437,992	10,292	0,040	-0,022
-436,978	230,958	0,051	0,060
-435,963	-200,000	-0,005	0,100
-434,949	-200,000	0,015	0,265
-433,934	800,000	-0,006	-0,015
-432,919	-24,718	-0,030	0,013
-431,905	76,584	-0,058	-0,044
-430,890	52,073	0,030	-0,020
-429,876	160,040	0,022	0,022
-428,861	-172,941	-0,075	0,002
-427,846	-200,000	-0,006	0,084
-426,832	85,329	-0,061	0,048
-425,817	425,112	0,064	0,099
-424,803	254,306	0,067	0,082
-423,788	800,000	-0,050	-0,119
-422,773	800,000	-0,022	-0,061
-421,759	-110,852	-0,049	-0,007
-420,744	45,542	0,107	0,071
-419,730	800,000	-0,011	0,034
-418,715	-94,547	0,037	-0,007
-417,701	536,518	0,048	-0,081
-416,686	43,987	0,075	0,049
-415,671	154,331	-0,141	0,139
-414,657	-100,633	-0,049	0,009
-413,642	-84,725	0,025	0,006
-412,628	323,395	-0,108	-0,148
-411,613	800,000	0,019	-0,048
-410,598	800,000	-0,048	0,109
-409,584	-15,888	-0,073	-0,033
-408,569	400,625	-0,007	-0,011
-407,555	800,000	-0,008	-0,018
-406,540	-200,000	-0,002	-0,035
-405,525	135,020	-0,038	0,036
-404,511	469,932	0,064	0,103
-403,496	-79,944	0,062	-0,015
-402,482	36,498	0,110	-0,069
-401,467	75,877	0,106	0,080
-400,452	800,000	0,029	0,084
-399,438	195,772	-0,001	-0,002
-398,423	800,000	0,014	-0,036
-397,409	55,681	-0,095	-0,065
-396,394	-200,000	-0,026	-0,194
-395,379	-9,395	0,004	0,002
-394,365	-200,000	-0,022	0,107
-393,350	-200,000	0,037	0,313
-392,336	68,882	-0,029	-0,021
-391,321	145,824	-0,010	-0,010
-390,306	458,281	0,060	-0,096
-389,292	-144,753	-0,058	-0,004
-388,277	-200,000	0,026	0,097
-387,263	-86,756	0,036	-0,008
-386,248	-36,766	0,121	0,046
-385,233	-23,718	-0,190	-0,081
-384,219	1,856	0,046	0,023
-383,204	188,548	0,015	-0,016
-382,190	-118,691	0,215	-0,027
-381,175	-99,292	0,086	-0,015
-380,160	-200,000	-0,016	0,082
-379,146	205,562	0,042	-0,047
-378,131	-16,775	0,064	-0,029
-377,117	-200,000	0,016	0,126
-376,102	206,268	-0,051	0,057
-375,088	37,664	-0,019	0,012
-374,073	8,579	-0,129	-0,069
-373,058	-104,028	-0,079	0,013
-372,044	-200,000	-0,002	0,070
-371,029	270,806	0,080	0,101
-370,015	800,000	0,039	0,099
-369,000	441,289	0,051	0,080
-367,985	-131,090	-0,081	0,008
-366,971	-20,539	-0,072	-0,032
-365,956	52,624	-0,118	-0,080
-364,942	-135,475	0,071	-0,006
-363,927	619,620	0,048	0,086
-362,912	-60,051	0,142	0,043
-361,898	41,061	0,100	-0,064
-360,883	-133,466	-0,097	-0,009
-359,869	758,866	-0,053	-0,103
-358,854	488,741	-0,058	0,095
-357,839	-200,000	0,016	0,106
-356,825	-200,000	0,002	0,013
-355,810	189,104	-0,119	-0,128
-354,796	800,000	-0,011	0,025
-353,781	-200,000	0,000	-0,083
-352,766	197,783	-0,086	-0,093
-351,752	-200,000	-0,009	-0,055
-350,737	-200,000	-0,028	0,117
-349,723	149,748	-0,060	0,058
-348,708	-200,000	0,005	0,120
-347,693	63,447	-0,071	-0,051
-346,679	33,611	-0,128	-0,080
-345,664	-105,252	0,033	0,005
-344,650	56,383	0,088	-0,061
-343,635	49,254	-0,061	0,041
-342,620	-141,344	-0,138	0,010
-341,606	125,114	0,118	0,106
-340,591	-200,000	0,012	0,103
-339,577	-200,000	0,013	0,108
-338,562	367,601	-0,126	-0,182
-337,548	-173,745	-0,093	-0,002
-336,533	-47,484	0,098	0,034
-335,518	-1,896	0,116	-0,058
-334,504	-9,336	0,124	0,059
-333,489	-165,679	0,028	-0,001
-332,475	-191,449	0,024	-0,000
-331,460	-200,000	-0,001	0,081
-330,445	-178,063	-0,069	-0,001
-329,431	-200,000	0,016	0,128
-328,416	-200,000	-0,003	0,042
-327,402	380,111	0,067	-0,099
-326,387	-180,270	-0,063	-0,001
-325,372	-200,000	0,023	0,106
-324,358	11,251	-0,048	-0,026
-323,343	361,291	0,094	-0,135
-322,329	-200,000	0,010	-0,073
-321,314	-68,188	0,147	0,040
-320,299	-56,722	-0,081	0,025
-319,285	800,000	0,069	-0,158
-318,270	74,204	-0,087	-0,065
-317,256	-90,575	0,125	0,025
-316,241	800,000	-0,019	-0,049
-315,226	-77,118	-0,012	0,003
-314,212	5,068	0,100	-0,053
-313,197	144,670	-0,087	0,083
-312,183	800,000	0,025	-0,068
-311,168	-200,000	-0,003	-0,107
-310,153	-200,000	0,004	-0,078
-309,139	88,283	-0,060	-0,047
-308,124	800,000	0,043	-0,105
-307,110	800,000	-0,020	0,047
-306,095	-200,000	0,008	0,034
-305,080	199,729	0,086	0,094
-304,066	423,852	-0,032	-0,049
-303,051	-200,000	0,001	-0,020
-302,037	26,240	-0,076	-0,045
-301,022	-49,584	0,147	-0,049
-300,008	-37,040	-0,057	-0,022
-298,993	504,888	0,058	0,096
-297,978	309,871	-0,044	0,059
-296,964	-134,567	-0,088	0,008
-295,949	32,442	-0,004	-0,003
-294,935	82,449	-0,064	-0,049
-293,920	-200,000	0,004	0,022
-292,905	83,174	0,114	-0,089
-291,891	507,200	0,071	0,117
-290,876	1,366	0,070	-0,036
-289,862	-200,000	0,008	0,076
-288,847	-129,945	-0,115	-0,011
-287,832	-200,000	0,015	-0,161
-286,818	35,264	-0,115	-0,072
-285,803	-37,539	0,062	0,023
-284,789	-28,713	-0,048	0,020
-283,774	-31,210	0,137	-0,055
-282,759	708,898	0,019	0,037
-281,745	-34,371	-0,053	0,020
-280,730	-28,451	-0,043	-0,017
-279,716	106,257	0,104	0,087
-278,701	373,115	0,085	-0,123
-277,686	800,000	0,016	0,050
-276,672	-58,133	-0,118	-0,036
-275,657	56,946	-0,063	0,043
-274,643	-200,000	-0,001	0,084
-273,628	-200,000	-0,014	-0,059
-272,613	-55,819	0,110	-0,035
-271,599	312,379	0,061	-0,082
-270,584	-200,000	-0,004	0,061
-269,570	500,279	0,027	0,044
-268,555	768,090	-0,038	0,075
-267,540	-9,908	0,040	0,019
-266,526	261,493	-0,063	-0,078
-265,511	16,324	0,123	-0,069
-264,497	690,961	0,065	-0,121
-263,482	622,257	0,042	0,075
-262,467	-75,700	0,164	-0,041
-261,453	-200,000	-0,029	-0,134
-260,438	478,691	-0,034	-0,055
-259,424	275,499	-0,065	-0,082
-258,409	-138,849	0,009	0,001
-257,395	-200,000	-0,017	0,056
-256,380	-172,397	0,029	-0,001
-255,365	-5,791	0,111	0,054
-254,351	114,962	0,140	0,121
-253,336	106,933	0,050	-0,042
-252,322	-193,880	-0,057	0,000
-251,307	778,230	-0,051	-0,100
-250,292	166,664	0,054	0,055
-249,278	-200,000	0,014	0,075
-248,263	-141,936	0,156	-0,011
-247,249	8,992	-0,013	0,007
-246,234	800,000	-0,046	0,134
-245,219	800,000	-0,030	-0,065
-244,205	-63,456	0,114	0,033
-243,190	-200,000	-0,003	0,069
-242,176	51,705	0,134	-0,091
-241,161	-200,000	0,002	0,086
-240,146	-10,752	0,175	0,082
-239,132	5,615	0,047	-0,024
-238,117	800,000	-0,048	-0,108
-237,103	546,104	0,045	0,077
-236,088	-200,000	-0,038	-0,122
-235,073	-200,000	0,034	0,138
-234,059	-200,000	0,013	0,140
-233,044	800,000	0,035	0,078
-232,030	-200,000	0,079	0,000
-231,015	-141,570	-0,062	-0,004
-230,000	-119,661	0,070	-0,009
-228,986	-106,119	0,098	-0,016
-227,971	-3,733	0,083	-0,041
-226,957	-156,074	0,229	0,010
-225,942	-200,000	0,031	-0,139
-224,927	641,954	-0,064	0,116
-223,913	-66,485	-0,109	-0,031
-222,898	29,878	0,081	0,049
-221,884	147,315	0,144	0,137
-220,869	800,000	0,025	-0,070
-219,855	-44,357	0,020	-0,007
-218,840	82,042	0,052	0,040
-217,825	-130,238	-0,164	-0,016
-216,811	-112,897	0,087	-0,012
-215,796	125,475	-0,158	-0,142
-214,782	602,494	0,048	-0,086
-213,767	394,595	-0,053	0,079
-212,752	-97,962	0,193	0,035
-211,738	99,024	-0,125	-0,103
-210,723	494,443	-0,028	0,046
-209,709	-108,260	0,031	-0,005
-208,694	291,850	-0,025	0,033
-207,679	-43,051	-0,109	0,039
-206,665	-200,000	0,054	0,208
-205,650	140,278	0,069	0,065
-204,636	78,110	-0,069	0,052
-203,621	-200,000	-0,024	0,101
-202,606	8,929	-0,053	-0,029
-201,592	270,098	0,034	0,042
-200,577	800,000	0,019	0,048
-199,563	88,965	-0,096	-0,076
-198,548	699,469	0,047	0,088
-197,533	123,188	0,143	-0,127
-196,519	336,053	0,062	-0,086
-195,504	-32,377	-0,019	0,007
-194,490	-200,000	0,037	0,119
-193,475	-6,772	-0,061	0,029
-192,460	-200,000	0,006	0,076
-191,446	-200,000	0,009	0,038
-190,431	-184,606	-0,140	0,002
-189,417	200,837	0,054	0,059
-188,402	-96,542	0,078	0,015
-187,387	800,000	-0,021	-0,059
-186,373	800,000	-0,085	-0,184
-185,358	219,317	0,043	0,049
-184,344	60,551	0,073	0,051
-183,329	-139,838	0,045	0,003
-182,315	147,593	0,077	0,074
-181,300	-125,327	-0,009	0,001
-180,285	800,000	0,020	-0,052
-179,271	-200,000	0,011	-0,090
-178,256	242,819	-0,034	-0,040
-177,242	215,474	0,032	0,036
-176,227	-126,403	-0,125	0,013
-175,212	333,364	0,009	0,013
-174,198	-59,812	0,144	-0,043
-173,183	-94,101	-0,056	-0,011
-172,169	-200,000	-0,017	-0,119
-171,154	-85,148	0,045	-0,010
-170,139	202,142	0,039	0,043
-169,125	-200,000	-0,020	0,073
-168,110	229,647	0,013	0,015
-167,096	129,479	-0,048	0,043
-166,081	180,203	0,029	-0,030
-165,066	-4,549	-0,115	0,056
-164,052	310,972	0,025	0,033
-163,037	-74,035	0,130	-0,033
-162,023	151,670	-0,042	0,040
-161,008	-200,000	-0,007	-0,049
-159,993	800,000	-0,026	0,082
-158,979	185,173	-0,113	0,119
-157,964	157,811	-0,061	-0,060
-156,950	200,785	-0,097	-0,106
-155,935	68,766	0,057	-0,042
-154,920	-200,000	-0,001	0,185
-153,906	242,512	0,079	-0,094
-152,891	-149,425	-0,049	-0,003
-151,877	355,001	0,022	-0,031
-150,862	800,000	0,065	0,153
-149,847	-57,398	0,030	-0,009
-148,833	119,099	0,100	0,087
-147,818	-41,725	0,033	-0,012
-146,804	-55,574	0,104	0,033
-145,789	619,739	0,039	0,070
-144,775	-200,000	-0,025	-0,111
-143,760	766,417	0,047	-0,092
-142,745	190,565	-0,020	-0,021
-141,731	195,263	-0,063	0,068
-140,716	107,286	0,140	0,118
-139,702	-67,999	0,086	-0,024
-138,687	-200,000	0,006	0,041
-137,672	-62,150	0,039	0,011
-136,658	106,748	-0,047	0,040
-135,643	-84,333	-0,039	0,009
-134,629	3,564	0,069	0,036
-133,614	-112,850	0,060	0,008
-132,599	533,092	0,045	-0,075
-131,585	228,669	-0,086	0,099
-130,570	689,571	0,033	-0,062
-129,556	-200,000	0,025	0,207
-128,541	-30,584	0,061	0,024
-127,526	208,598	0,049	-0,054
-126,512	-200,000	0,025	-0,133
-125,497	-131,320	0,170	0,016
-124,483	289,388	-0,055	0,071
-123,468	-58,896	0,025	0,008
-122,453	-38,608	-0,104	-0,039
-121,439	183,949	-0,047	-0,050
-120,424	-111,020	0,088	0,013
-119,410	464,573	0,073	-0,116
-118,395	527,668	-0,068	0,114
-117,380	-200,000	0,005	0,017
-116,366	-72,211	-0,084	0,022
-115,351	-65,859	-0,166	-0,047
-114,337	-159,901	-0,173	0,007
-113,322	800,000	0,004	0,010
-112,307	800,000	0,030	-0,088
-111,293	-165,201	0,083	0,003
-110,278	-172,029	0,063	0,001
-109,264	284,775	0,155	0,197
-108,249	151,677	-0,047	0,046
-107,234	-200,000	-0,014	-0,059
-106,220	-21,968	-0,064	-0,028
-105,205	-200,000	-0,015	0,225
-104,191	-75,692	-0,118	0,029
-103,176	800,000	0,084	0,234
-102,162	800,000	-0,025	0,060
-101,147	-135,975	-0,106	0,009
-100,132	87,462	0,082	0,064
-99,118	-200,000	-0,001	-0,024
-98,103	-200,000	-0,027	0,121
-97,089	-98,053	0,287	0,052
-96,074	208,065	0,066	-0,073
-95,059	800,000	-0,026	-0,059
-94,045	-200,000	0,002	0,078
-93,030	-2,895	-0,052	0,026
-92,016	518,356	0,022	0,037
-91,001	800,000	-0,042	-0,085
-89,986	94,940	-0,021	-0,017
-88,972	-13,767	-0,119	0,054
-87,957	-200,000	-0,122	0,000
-86,943	34,539	0,082	0,051
-85,928	-90,541	-0,161	0,033
-84,913	-200,000	0,035	-0,109
-83,899	458,432	0,044	0,070
-82,884	800,000	0,032	-0,076
-81,870	-33,648	0,054	-0,021
-80,855	511,665	0,097	0,160
-79,840	391,293	-0,120	-0,177
-78,826	-200,000	-0,020	-0,097
-77,811	132,971	0,035	-0,032
-76,797	-69,271	0,042	-0,011
-75,782	-72,103	0,186	0,048
-74,767	74,195	0,040	0,029
-73,753	-200,000	0,003	0,083
-72,738	291,149	0,020	-0,025
-71,724	-8,099	-0,058	-0,028
-70,709	115,992	-0,033	-0,028
-69,694	800,000	0,028	0,063
-68,680	-200,000	-0,002	0,019
-67,665	-200,000	0,001	0,068
-66,651	-200,000	-0,005	0,045
-65,636	384,095	0,061	0,090
-64,622	142,105	-0,053	0,050
-63,607	117,974	0,067	-0,058
-62,592	800,000	0,025	0,055
-61,578	800,000	0,034	0,090
-60,563	-67,593	-0,170	0,047
-59,549	-200,000	-0,015	0,053
-58,534	55,287	-2,015	-1,374
-57,519	587,648	-1,103	-1,926
-56,505	-200,000	-0,530	-4,464
-55,490	257,647	0,930	1,131
-54,476	800,000	5,331	11,908
-53,461	-200,000	21,787	340,654
-52,446	800,000	761,500	2311,218
-51,432	536,892	1657,909	2789,517
-50,417	70,084	1655,551	1204,762
-49,403	16,936	1529,637	852,722
-48,388	11,102	1453,988	782,392
-47,373	19,173	1445,776	816,589
-46,359	14,453	1434,938	788,040
-45,344	9,382	1430,764	761,614
-44,330	9,336	1428,873	760,361
-43,315	9,286	1426,963	759,073
-42,300	9,342	1425,222	758,384
-41,286	9,359	1423,922	757,744
-40,271	9,268	1422,686	756,625
-39,257	9,358	1421,610	756,450
-38,242	9,319	1420,526	755,659
-37,227	9,345	1419,445	755,177
-36,213	9,315	1417,992	754,232
-35,198	9,350	1416,840	753,755
-34,184	9,388	1415,737	753,313
-33,169	9,354	1414,298	752,361
-32,154	9,281	1413,670	751,653
-31,140	9,302	1412,389	751,039
-30,125	9,370	1411,186	750,691
-29,111	9,371	1409,897	749,978
-28,096	9,308	1408,903	749,124
-27,082	9,246	1407,718	748,174
-26,067	9,276	1406,689	747,740
-25,052	9,288	1405,491	747,128
-24,038	9,312	1404,644	746,762
-23,023	9,298	1403,620	746,119
-22,009	9,212	1402,793	745,251
-20,994	9,298	1401,698	745,040
-19,979	9,274	1400,714	744,376
-18,965	9,256	1399,828	743,794
-17,950	9,178	1398,830	742,870
-16,936	9,240	1397,908	742,638
-15,921	9,184	1397,141	741,940
-14,906	9,190	1396,228	741,455
-13,892	9,236	1395,129	741,056
-12,877	9,247	1394,378	740,678
-11,863	9,204	1393,583	740,026
-10,848	9,167	1392,819	739,423
-9,833	9,090	1391,792	738,491
-8,819	9,093	1390,743	737,918
-7,804	9,096	1389,876	737,442
-6,790	9,107	1389,099	737,052
-5,775	9,092	1387,778	736,253
-4,760	9,124	1386,532	735,711
-3,746	9,122	1385,846	735,308
-2,731	9,116	1385,122	734,867
-1,717	9,103	1384,355	734,372
-0,702	9,088	1382,569	733,324
0,313	13,038	1294,187	704,473
1,327	28,955	685,261	408,880
2,342	45,028	118,332	76,746
3,356	1,278	16,528	8,346
4,371	7,610	3,537	1,861
5,386	36,322	1,184	0,735
6,400	-200,000	0,165	0,543
7,415	-42,776	-0,295	-0,105
8,429	-39,930	-0,266	-0,097
9,444	166,673	-0,243	-0,243
10,459	23,281	-0,221	-0,127
11,473	-11,094	-0,349	-0,161
12,488	79,667	-0,253	-0,191
13,502	37,495	-0,229	-0,143
14,517	54,929	-0,220	-0,149
15,531	101,972	-0,274	-0,225
16,546	114,785	-0,290	-0,249
17,561	74,325	-0,284	-0,210
18,575	51,304	-0,201	-0,134
19,590	265,956	-0,162	-0,200
20,604	-85,749	-0,226	-0,049
21,619	69,888	-0,355	-0,258
22,634	-1,083	-0,452	-0,224
23,648	128,577	-0,400	-0,359
24,663	76,520	-0,463	-0,345
25,677	-71,033	-0,422	-0,111
26,692	-37,627	-0,426	-0,159
27,707	61,301	-0,460	-0,321
28,721	115,012	-0,280	-0,241
29,736	101,255	-0,372	-0,305
30,750	56,498	-0,391	-0,267
31,765	108,496	-0,415	-0,348
32,780	43,423	-0,338	-0,217
33,794	0,147	-0,454	-0,227
34,809	271,575	-0,324	-0,402
35,823	224,871	-0,334	-0,380
36,838	-51,381	-0,448	-0,146
37,853	173,429	-0,267	-0,271
38,867	-35,055	-0,463	-0,177
39,882	102,602	-0,341	-0,281
40,896	49,067	-0,357	-0,235
41,911	134,120	-0,258	-0,235
42,926	150,424	-0,352	-0,337
43,940	140,907	-0,347	-0,323
44,955	-14,237	-0,374	-0,169
45,969	216,085	-0,319	-0,357
46,984	-54,873	-0,383	-0,121
47,999	269,540	-0,187	-0,231
49,013	-58,653	-0,337	-0,102
50,028	20,901	-0,294	-0,167
51,042	119,181	-0,262	-0,227
52,057	41,886	-0,307	-0,195
53,071	166,240	-0,329	-0,328
54,086	80,933	-0,311	-0,235
55,101	71,179	-0,326	-0,237
56,115	-112,674	-0,291	-0,040
57,130	95,488	-0,318	-0,254
58,144	104,336	-0,393	-0,324
59,159	57,165	-0,315	-0,215
60,174	166,961	-0,400	-0,399
61,188	449,728	-0,177	-0,276
62,203	-19,163	-0,216	-0,094
63,217	31,270	-0,383	-0,230
64,232	-1,397	-0,398	-0,196
65,247	-25,805	-0,338	-0,139
66,261	16,517	-0,358	-0,198
67,276	131,844	-0,326	-0,294
68,290	-38,666	-0,283	-0,104
69,305	-62,642	-0,210	-0,061
70,320	-38,113	-0,291	-0,108
71,334	-27,234	-0,341	-0,139
72,349	6,779	-0,339	-0,177
73,363	-56,585	-0,432	-0,133
74,378	62,050	-0,337	-0,235
75,393	36,437	-0,336	-0,207
76,407	16,204	-0,278	-0,153
77,422	-77,256	-0,252	-0,061
78,436	-82,736	-0,438	-0,098
79,451	-25,159	-0,348	-0,144
80,466	349,363	-0,183	-0,254
81,480	-132,987	-0,322	-0,028
82,495	-67,542	-0,305	-0,083
83,509	-83,569	-0,318	-0,071
84,524	-49,677	-0,262	-0,087
85,539	125,778	-0,246	-0,218
86,553	-23,143	-0,231	-0,097
87,568	6,525	-0,218	-0,113
88,582	43,781	-0,305	-0,195
89,597	22,497	-0,262	-0,150
90,611	112,972	-0,194	-0,165
91,626	100,239	-0,297	-0,241
92,641	80,477	-0,271	-0,204
93,655	124,096	-0,276	-0,242
94,670	124,501	-0,276	-0,243
95,684	45,100	-0,378	-0,244
96,699	228,149	-0,147	-0,168
97,714	-7,505	-0,315	-0,148
98,728	-82,231	-0,234	-0,053
99,743	-29,258	-0,417	-0,166
100,757	5,764	-0,213	-0,110
101,772	55,945	-0,300	-0,203
102,787	39,964	-0,340	-0,213
103,801	218,757	-0,228	-0,255
104,816	26,828	-0,326	-0,190
105,830	51,803	-0,183	-0,121
106,845	-102,788	-0,279	-0,046
107,860	219,470	-0,191	-0,214
108,874	12,865	-0,350	-0,189
109,889	9,110	-0,334	-0,176
110,903	47,521	-0,268	-0,174
111,918	-67,219	-0,258	-0,070
112,933	64,346	-0,149	-0,105
113,947	109,312	-0,185	-0,154
114,962	135,279	-0,216	-0,197
115,976	23,723	-0,291	-0,167
116,991	-123,294	-0,346	-0,038
118,006	342,794	-0,191	-0,262
119,020	-46,445	-0,258	-0,088
120,035	-55,192	-0,194	-0,060
121,049	-72,768	-0,231	-0,059
122,064	45,033	-0,187	-0,120
123,079	-78,741	-0,236	-0,056
124,093	75,188	-0,239	-0,176
125,108	-106,728	-0,309	-0,047
126,122	528,237	-0,199	-0,329
127,137	55,320	-0,221	-0,149
128,151	-106,250	-0,254	-0,039
129,166	213,851	-0,103	-0,114
130,181	-11,965	-0,226	-0,103
131,195	-44,304	-0,217	-0,076
132,210	-4,757	-0,283	-0,136
133,224	107,497	-0,237	-0,197
134,239	17,794	-0,152	-0,084
135,254	65,001	-0,228	-0,160
136,268	154,357	-0,187	-0,179
137,283	109,813	-0,193	-0,161
138,297	396,201	-0,213	-0,311
139,312	-42,649	-0,294	-0,104
140,327	242,807	-0,169	-0,197
141,341	-58,559	-0,316	-0,095
142,356	-119,678	-0,179	-0,021
143,370	-49,725	-0,272	-0,090
144,385	82,660	-0,182	-0,137
145,400	316,394	-0,168	-0,222
146,414	-37,157	-0,290	-0,107
147,429	102,778	-0,347	-0,283
148,443	30,371	-0,261	-0,155
149,458	-133,722	-0,243	-0,021
150,473	150,378	-0,198	-0,187
151,487	18,722	-0,197	-0,109
152,502	-14,790	-0,152	-0,068
153,516	-87,402	-0,278	-0,058
154,531	119,756	-0,228	-0,197
155,546	-130,156	-0,259	-0,024
156,560	-148,428	-0,357	-0,020
157,575	153,290	-0,278	-0,265
158,589	357,822	-0,122	-0,170
159,604	-116,227	-0,228	-0,029
160,619	188,145	-0,301	-0,313
161,633	-200,000	-0,253	-0,001
162,648	-89,847	-0,129	-0,026
163,662	108,195	-0,266	-0,221
164,677	110,568	-0,139	-0,116
165,692	-24,928	-0,243	-0,100
166,706	11,888	-0,233	-0,124
167,721	124,496	-0,321	-0,281
168,735	63,668	-0,271	-0,189
169,750	4,670	-0,214	-0,109
170,764	-79,914	-0,228	-0,053
171,779	30,927	-0,279	-0,166
172,794	-120,424	-0,260	-0,030
173,808	-22,434	-0,173	-0,072
174,823	138,456	-0,218	-0,199
175,837	-72,743	-0,261	-0,066
176,852	50,793	-0,194	-0,127
177,867	59,401	-0,205	-0,140
178,881	-200,000	-0,086	-0,280
179,896	-27,624	-0,213	-0,085
180,910	-20,198	-0,170	-0,073
181,925	-16,648	-0,163	-0,071
182,940	-10,067	-0,178	-0,082
183,954	-37,032	-0,176	-0,065
184,969	103,144	-0,111	-0,090
185,983	-114,590	-0,227	-0,030
186,998	5,000	-0,171	-0,087
188,013	800,000	-0,165	-0,318
189,027	-52,892	-0,217	-0,069
190,042	43,743	-0,250	-0,159
191,056	8,189	-0,224	-0,117
192,071	35,602	-0,113	-0,069
193,086	85,461	-0,121	-0,092
194,100	290,236	-0,144	-0,182
195,115	22,534	-0,280	-0,159
196,129	276,501	-0,236	-0,292
197,144	229,339	-0,164	-0,186
198,159	283,579	-0,182	-0,227
199,173	-13,396	-0,186	-0,084
200,188	201,030	-0,169	-0,180
201,202	-59,382	-0,080	0,024
202,217	3,866	-0,215	-0,109
203,232	181,821	-0,178	-0,182
204,246	209,168	-0,184	-0,200
205,261	24,926	-0,211	-0,121
206,275	55,651	-0,213	-0,143
207,290	-0,314	-0,164	-0,081
208,304	-75,851	-0,276	-0,067
209,319	128,197	-0,226	-0,200
210,334	-117,435	-0,138	0,017
211,348	211,246	-0,207	-0,226
212,363	9,059	-0,234	-0,122
213,377	739,819	-0,085	-0,158
214,392	79,269	-0,161	-0,119
215,407	800,000	-0,030	-0,065
216,421	-69,909	-0,263	-0,069
217,436	-76,259	-0,200	-0,048
218,450	21,280	-0,248	-0,139
219,465	-144,670	-0,171	-0,011
220,480	-0,108	-0,179	-0,088
221,494	-190,568	-0,158	-0,001
222,509	18,887	-0,131	-0,072
223,523	-84,656	-0,277	0,060
224,538	63,954	-0,235	-0,163
225,553	107,482	-0,259	-0,213
226,567	318,313	-0,193	-0,254
227,582	-72,836	-0,260	-0,066
228,596	758,275	-0,075	-0,140
229,611	800,000	-0,048	-0,129
230,626	199,729	-0,158	-0,167
231,640	9,611	-0,166	-0,087
232,655	40,588	-0,179	-0,111
233,669	419,602	-0,100	-0,148
234,684	275,027	-0,208	-0,256
235,699	126,587	-0,155	-0,136
236,713	110,527	-0,036	-0,030
237,728	124,377	-0,166	-0,145
238,742	151,734	-0,159	-0,150
239,757	277,220	-0,285	-0,351
240,772	486,026	-0,183	-0,290
241,786	36,056	-0,262	-0,159
242,801	1,523	-0,146	-0,072
243,815	-56,541	-0,177	-0,054
244,830	800,000	-0,080	-0,191
245,844	220,465	-0,250	-0,277
246,859	-30,337	-0,224	-0,087
247,874	97,759	-0,129	-0,102
248,888	-99,577	-0,194	-0,033
249,903	557,657	-0,117	-0,195
250,917	-62,100	-0,159	0,046
251,932	-63,253	-0,170	-0,048
252,947	-12,011	-0,148	-0,067
253,961	-50,253	-0,250	-0,081
254,976	110,642	-0,090	-0,075
255,990	30,261	-0,181	-0,106
257,005	704,311	-0,105	-0,192
258,020	-32,257	-0,151	-0,058
259,034	800,000	-0,082	-0,184
260,049	275,113	-0,123	-0,151
261,063	263,409	-0,184	-0,221
262,078	3,762	-0,218	-0,109
263,093	141,590	-0,188	-0,171
264,107	32,248	-0,189	-0,112
265,122	360,879	-0,161	-0,223
266,136	88,102	-0,063	-0,048
267,151	-28,311	-0,219	-0,087
268,166	-200,000	-0,044	-0,159
269,180	25,284	-0,192	-0,110
270,195	67,678	-0,234	-0,164
271,209	-101,025	-0,103	0,017
272,224	399,394	-0,095	-0,137
273,239	-114,573	-0,171	0,022
274,253	-39,652	-0,169	-0,061
275,268	142,805	-0,145	-0,132
276,282	-95,602	-0,256	0,047
277,297	215,685	-0,175	-0,192
278,312	-200,000	-0,055	-0,180
279,326	-66,313	-0,241	-0,066
280,341	104,903	-0,158	-0,128
281,355	-12,753	-0,174	-0,078
282,370	-130,516	-0,151	-0,014
283,384	50,987	-0,147	-0,096
284,399	156,905	-0,175	-0,166
285,414	800,000	-0,064	-0,152
286,428	-200,000	0,004	-0,129
287,443	-200,000	-0,015	-0,063
288,457	17,860	-0,092	-0,050
289,472	-98,543	-0,156	0,027
290,487	-23,304	-0,089	-0,037
291,501	800,000	-0,038	-0,101
292,516	-108,981	-0,255	-0,037
293,530	-103,080	-0,147	-0,024
294,545	235,085	-0,083	-0,094
295,560	-55,412	-0,050	0,015
296,574	-117,322	-0,149	-0,018
297,589	35,851	-0,172	-0,104
298,603	713,700	-0,100	-0,183
299,618	-200,000	-0,006	-0,198
300,633	800,000	-0,082	-0,176
301,647	174,591	-0,194	-0,193
302,662	800,000	-0,023	-0,056
303,676	15,540	-0,192	-0,103
304,691	-5,148	-0,180	-0,085
305,706	-141,825	-0,196	-0,013
306,720	428,524	-0,154	-0,229
307,735	-57,487	-0,315	-0,094
308,749	-59,405	-0,140	-0,041
309,764	104,788	-0,210	-0,170
310,779	13,859	-0,243	-0,130
311,793	3,050	-0,184	-0,092
312,808	73,165	-0,121	-0,087
313,822	295,526	-0,107	-0,134
314,837	800,000	-0,036	-0,078
315,852	11,613	-0,247	0,130
316,866	-109,205	-0,121	0,017
317,881	-134,425	-0,133	-0,011
318,895	22,244	-0,130	-0,073
319,910	-77,511	-0,203	-0,048
320,925	99,347	-0,189	-0,150
321,939	184,538	-0,159	-0,162
322,954	-51,978	-0,218	0,069
323,968	-200,000	-0,002	-0,008
324,983	-6,128	-0,216	-0,101
325,997	-145,268	-0,248	0,015
327,012	88,763	-0,154	-0,117
328,027	800,000	-0,068	-0,153
329,041	345,051	-0,233	-0,315
330,056	-112,332	-0,087	-0,012
331,070	13,770	-0,208	-0,110
332,085	5,001	-0,193	0,097
333,100	-130,334	-0,301	-0,028
334,114	-143,137	-0,236	-0,015
335,129	-72,028	-0,093	-0,024
336,143	170,340	-0,096	-0,094
337,158	-165,764	-0,035	0,001
338,173	-74,424	-0,134	0,033
339,187	11,403	-0,059	-0,031
340,202	800,000	-0,050	-0,147
341,216	800,000	-0,102	-0,199
342,231	-78,784	-0,175	-0,040
343,246	-64,113	-0,205	-0,057
344,260	800,000	-0,041	-0,103
345,275	-146,284	-0,204	0,012
346,289	-8,781	-0,077	-0,035
347,304	161,555	-0,142	-0,136
348,319	800,000	-0,064	-0,165
349,333	115,870	-0,175	-0,146
350,348	54,262	-0,169	-0,111
351,362	-75,775	-0,144	-0,035
352,377	-140,944	-0,123	0,009
353,392	-53,096	-0,126	-0,039
354,406	-17,866	-0,215	-0,092
355,421	207,489	1311,348	1401,176
356,435	159,617	1471,621	1401,638
