DTS Sentinel unit serial number:	SN410029Multiplexer serial number:	ORYXHardware model number:	OX2-SRSoftware version number:	ORYX F/W v4,00 Oryx Data Collector v3.7.2.0data status	okinstallation	B3 Nyhavnadifferential loss correction	single-endedforward channel	channel 1reverse channel	N/Adate	2023/11/29time	15:17:30forward acquisition time	300,00reverse acquisition time	0,00gamma	499,1914k internal	0,3210k external	0,3210temperature offset calibration	1,0000default loss term (dB/km)	0,3820temperature slope calibration	1,0000multiplexer offset coefficient	1,0000multiplexer slope coefficient	1,0000fibre end	0,00T internal ref (°C)	11,22T ext. ref 1 (°C)	-3,20T ext. ref 2 (°C)	-3,34length (m)	temperature (°C)	Stokes	anti-Stokes-744,400	238,485	-0,226	-0,272
-743,385	-200,000	0,059	0,361
-742,371	312,482	-0,169	-0,230
-741,356	-200,000	0,059	0,281
-740,342	800,000	-0,109	-0,263
-739,327	-200,000	-0,002	0,212
-738,312	-42,288	-0,161	-0,059
-737,298	-200,000	-0,017	0,306
-736,283	199,675	-0,241	-0,269
-735,269	800,000	-0,081	0,185
-734,254	237,326	-0,253	-0,305
-733,239	283,267	-0,189	0,247
-732,225	330,360	-0,131	-0,183
-731,210	160,640	0,116	0,117
-730,196	-92,640	-0,144	-0,029
-729,181	-130,706	-0,119	0,011
-728,167	646,477	0,068	0,127
-727,152	-4,905	-0,025	0,013
-726,137	800,000	0,045	-0,097
-725,123	-16,841	-0,134	-0,061
-724,108	-118,862	-0,120	-0,015
-723,094	-200,000	-0,013	-0,052
-722,079	264,645	-0,112	-0,142
-721,064	68,475	0,156	-0,116
-720,050	-169,888	0,027	-0,001
-719,035	-119,675	0,063	0,008
-718,021	-200,000	0,000	-0,018
-717,006	-200,000	-0,024	-0,123
-715,991	-200,000	0,033	-0,140
-714,977	765,700	0,110	-0,218
-713,962	-16,383	-0,061	0,028
-712,948	203,322	-0,040	0,045
-711,933	-81,380	0,137	-0,033
-710,918	111,097	-0,061	0,053
-709,904	-8,728	-0,082	0,039
-708,889	-200,000	0,016	-0,056
-707,875	27,903	-0,091	-0,055
-706,860	140,522	0,034	0,032
-705,845	270,822	-0,055	0,070
-704,831	800,000	-0,052	0,153
-703,816	-124,788	-0,161	-0,018
-702,802	-14,304	-0,039	-0,018
-701,787	-121,497	-0,199	-0,024
-700,772	376,644	-0,039	0,057
-699,758	-166,981	-0,132	-0,004
-698,743	-38,198	0,140	0,054
-697,729	-182,998	0,014	0,000
-696,714	44,018	-0,058	0,038
-695,699	718,741	0,038	0,073
-694,685	-130,437	-0,134	0,013
-693,670	800,000	0,041	-0,090
-692,656	66,481	0,053	0,039
-691,641	351,755	0,057	-0,083
-690,627	165,265	0,104	0,107
-689,612	442,468	-0,059	0,093
-688,597	-130,457	0,114	0,011
-687,583	96,600	0,056	0,046
-686,568	169,627	-0,051	-0,053
-685,554	-34,152	-0,096	0,038
-684,539	327,834	0,063	-0,088
-683,524	3,165	-0,149	-0,078
-682,510	-200,000	0,025	0,135
-681,495	102,708	0,032	0,027
-680,481	800,000	0,028	-0,059
-679,466	-200,000	-0,005	-0,057
-678,451	-200,000	-0,016	-0,190
-677,437	193,346	-0,026	0,029
-676,422	-32,421	0,135	0,054
-675,408	466,721	-0,047	0,076
-674,393	-200,000	0,014	-0,098
-673,378	114,945	-0,075	-0,066
-672,364	157,251	-0,148	-0,148
-671,349	251,477	-0,031	-0,038
-670,335	108,390	0,042	-0,036
-669,320	-86,269	-0,182	-0,040
-668,305	39,841	-0,042	-0,027
-667,291	-200,000	-0,001	-0,027
-666,276	114,518	-0,178	-0,157
-665,262	-108,654	-0,035	0,005
-664,247	-45,860	0,131	0,047
-663,232	174,215	0,052	0,054
-662,218	373,286	0,082	-0,120
-661,203	330,888	0,124	0,174
-660,189	-200,000	0,003	-0,032
-659,174	-20,871	-0,145	-0,064
-658,159	-63,472	-0,064	-0,019
-657,145	530,484	0,059	0,102
-656,130	-200,000	-0,011	0,091
-655,116	-200,000	-0,039	-0,128
-654,101	-187,866	0,127	0,001
-653,086	-144,870	-0,186	-0,012
-652,072	644,278	-0,018	-0,033
-651,057	29,459	-0,104	0,064
-650,043	-96,575	0,074	-0,014
-649,028	-200,000	0,032	0,123
-648,014	-117,276	-0,014	-0,002
-646,999	800,000	0,017	0,048
-645,984	140,891	-0,067	0,064
-644,970	-200,000	0,196	-0,000
-643,955	-200,000	0,036	-0,197
-642,941	-41,719	-0,144	-0,053
-641,926	-22,648	0,049	-0,021
-640,911	228,473	-0,081	0,096
-639,897	-200,000	0,010	0,177
-638,882	-123,661	0,022	-0,003
-637,868	62,811	-0,070	-0,050
-636,853	-200,000	-0,002	-0,122
-635,838	-30,288	-0,117	0,048
-634,824	432,104	0,021	-0,033
-633,809	-200,000	-0,016	0,106
-632,795	48,633	0,082	-0,055
-631,780	142,537	-0,084	-0,080
-630,765	800,000	-0,042	-0,110
-629,751	19,117	0,075	0,043
-628,736	61,329	-0,126	0,091
-627,722	-44,947	0,089	0,032
-626,707	-112,329	0,060	0,009
-625,692	-127,329	-0,136	-0,014
-624,678	-25,053	-0,076	-0,033
-623,663	-139,313	-0,110	-0,008
-622,649	115,454	0,067	0,059
-621,634	447,488	-0,131	-0,209
-620,619	30,025	-0,089	-0,055
-619,605	229,337	0,085	0,100
-618,590	800,000	-0,014	0,040
-617,576	-200,000	-0,011	-0,105
-616,561	-79,781	-0,096	-0,023
-615,546	57,868	0,021	-0,014
-614,532	-200,000	0,001	-0,039
-613,517	800,000	-0,027	-0,077
-612,503	-200,000	-0,022	0,088
-611,488	-30,838	0,085	0,034
-610,474	208,461	0,057	-0,065
-609,459	25,966	-0,087	-0,052
-608,444	-39,103	0,105	0,039
-607,430	-133,373	0,044	-0,004
-606,415	235,132	0,061	-0,073
-605,401	-52,288	0,031	0,010
-604,386	-200,000	0,016	0,155
-603,371	-92,570	-0,042	0,008
-602,357	591,867	-0,006	0,010
-601,342	15,322	-0,118	-0,067
-600,328	-36,014	-0,067	-0,026
-599,313	-122,374	0,035	0,004
-598,298	-200,000	0,011	-0,083
-597,284	-87,160	-0,089	-0,019
-596,269	533,876	0,048	0,083
-595,255	153,548	0,096	0,094
-594,240	374,876	-0,010	-0,015
-593,225	800,000	-0,035	-0,093
-592,211	-138,958	-0,110	0,008
-591,196	132,220	-0,060	-0,056
-590,182	-8,626	0,064	-0,031
-589,167	-200,000	-0,017	0,108
-588,152	-99,140	-0,071	-0,013
-587,138	-24,282	0,019	-0,008
-586,123	356,485	-0,024	-0,035
-585,109	-200,000	-0,016	-0,070
-584,094	4,579	0,115	-0,060
-583,079	154,322	-0,051	0,051
-582,065	518,610	0,108	0,183
-581,050	66,903	-0,029	-0,021
-580,036	-34,317	-0,058	-0,023
-579,021	-200,000	0,008	-0,079
-578,006	-0,773	-0,021	-0,011
-576,992	-170,928	0,041	-0,001
-575,977	800,000	-0,041	0,087
-574,963	-200,000	0,066	0,240
-573,948	800,000	-0,070	0,170
-572,934	63,557	0,084	0,061
-571,919	-147,079	-0,071	0,004
-570,904	438,967	0,049	0,077
-569,890	-200,000	0,014	-0,147
-568,875	-58,349	-0,031	0,010
-567,861	160,716	0,028	-0,028
-566,846	22,133	0,027	0,016
-565,831	800,000	0,024	-0,060
-564,817	-94,966	0,017	0,003
-563,802	-200,000	-0,005	0,029
-562,788	48,247	0,036	-0,024
-561,773	-148,612	0,160	0,009
-560,758	126,283	-0,005	0,004
-559,744	34,464	-0,051	-0,032
-558,729	49,120	0,062	-0,042
-557,715	-130,892	-0,154	-0,015
-556,700	-200,000	0,018	-0,112
-555,685	553,639	-0,062	-0,108
-554,671	599,265	0,003	-0,005
-553,656	127,400	-0,014	-0,012
-552,642	54,641	0,081	0,056
-551,627	-138,313	0,086	0,007
-550,612	800,000	-0,016	-0,038
-549,598	800,000	-0,053	-0,128
-548,583	-200,000	0,017	-0,080
-547,569	94,382	-0,131	0,107
-546,554	800,000	0,023	0,065
-545,539	-36,778	0,148	0,057
-544,525	-200,000	0,002	0,109
-543,510	20,002	0,039	0,022
-542,496	433,915	0,056	-0,088
-541,481	-84,450	-0,070	-0,016
-540,466	12,125	0,009	0,005
-539,452	-200,000	-0,011	0,048
-538,437	175,020	0,070	-0,073
-537,423	-70,445	0,155	-0,042
-536,408	540,035	0,012	-0,020
-535,393	16,415	-0,134	-0,076
-534,379	800,000	0,068	0,158
-533,364	269,228	0,073	0,092
-532,350	649,008	0,050	0,093
-531,335	-156,982	-0,096	-0,004
-530,321	540,774	0,060	0,104
-529,306	111,382	0,076	0,066
-528,291	-88,105	-0,152	-0,032
-527,277	-55,669	0,119	-0,038
-526,262	649,003	0,088	0,163
-525,248	48,832	0,014	-0,009
-524,233	-121,086	-0,156	-0,019
-523,218	62,640	0,128	0,092
-522,204	-55,131	0,030	-0,010
-521,189	683,439	-0,045	-0,084
-520,175	-14,459	-0,033	0,015
-519,160	800,000	0,071	-0,222
-518,145	-200,000	0,176	0,000
-517,131	-13,111	0,009	-0,004
-516,116	-89,634	-0,109	-0,023
-515,102	-36,056	-0,066	0,026
-514,087	88,245	-0,101	-0,080
-513,072	142,089	0,036	-0,034
-512,058	168,113	0,048	0,049
-511,043	197,366	0,070	-0,077
-510,029	247,865	0,097	0,118
-509,014	-81,406	0,104	0,024
-507,999	-200,000	-0,011	-0,061
-506,985	-200,000	-0,000	-0,044
-505,970	-125,758	-0,084	-0,009
-504,956	-139,598	0,039	0,003
-503,941	128,827	0,124	0,114
-502,926	112,992	-0,043	0,038
-501,912	307,946	0,057	0,077
-500,897	-134,820	0,111	-0,010
-499,883	-200,000	0,018	-0,073
-498,868	-14,790	0,040	-0,018
-497,853	-61,576	-0,026	-0,008
-496,839	-92,030	0,107	0,022
-495,824	2,058	-0,063	-0,033
-494,810	800,000	0,021	-0,047
-493,795	51,755	0,090	0,061
-492,781	-21,659	0,083	0,036
-491,766	800,000	0,044	-0,126
-490,751	-13,493	-0,097	-0,045
-489,737	179,136	0,128	-0,135
-488,722	358,620	0,084	-0,121
-487,708	-64,794	-0,066	-0,019
-486,693	800,000	-0,011	-0,023
-485,678	316,372	0,042	0,057
-484,664	747,497	0,044	-0,086
-483,649	-60,632	-0,059	-0,018
-482,635	133,102	0,077	-0,071
-481,620	118,474	-0,026	-0,023
-480,605	-1,351	-0,038	-0,019
-479,591	-173,147	-0,114	0,002
-478,576	7,834	0,108	0,058
-477,562	128,081	0,036	-0,033
-476,547	-200,000	-0,027	-0,153
-475,532	-46,248	0,137	-0,048
-474,518	45,789	0,005	0,004
-473,503	800,000	0,020	0,041
-472,489	384,821	0,002	-0,003
-471,474	800,000	0,041	0,114
-470,459	-5,454	-0,114	-0,056
-469,445	-200,000	0,012	-0,044
-468,430	471,799	0,072	-0,116
-467,416	-200,000	0,009	0,043
-466,401	-200,000	0,043	0,157
-465,386	-200,000	-0,001	0,055
-464,372	-200,000	0,000	0,133
-463,357	-200,000	0,005	-0,074
-462,343	301,694	-0,047	-0,062
-461,328	147,875	0,082	0,079
-460,313	-102,975	0,025	-0,004
-459,299	-200,000	0,033	0,161
-458,284	-200,000	-0,000	0,087
-457,270	-200,000	-0,002	-0,032
-456,255	-200,000	-0,006	-0,123
-455,241	12,894	0,060	-0,033
-454,226	521,686	0,016	-0,028
-453,211	-15,344	-0,066	-0,030
-452,197	266,601	0,073	0,092
-451,182	-37,903	-0,049	0,019
-450,168	800,000	0,065	0,151
-449,153	-113,168	-0,065	-0,009
-448,138	-184,369	-0,145	-0,002
-447,124	439,998	-0,122	-0,191
-446,109	61,398	0,075	0,054
-445,095	-200,000	0,029	-0,165
-444,080	51,167	0,060	0,040
-443,065	-95,759	-0,077	0,015
-442,051	-200,000	-0,002	0,021
-441,036	301,183	-0,033	-0,044
-440,022	-200,000	0,010	-0,049
-439,007	-200,000	0,001	-0,051
-437,992	-27,551	0,083	0,034
-436,978	363,867	0,111	0,161
-435,963	-127,545	-0,183	-0,019
-434,949	-200,000	-0,005	-0,156
-433,934	-78,308	-0,098	-0,024
-432,919	7,244	-0,125	-0,066
-431,905	-113,196	0,112	-0,016
-430,890	115,343	0,014	0,013
-429,876	-74,045	-0,105	-0,027
-428,861	92,763	0,088	0,071
-427,846	-152,581	-0,145	0,007
-426,832	-56,339	0,080	-0,025
-425,817	-200,000	-0,003	-0,039
-424,803	-126,398	-0,148	-0,016
-423,788	216,899	-0,073	-0,084
-422,773	-89,716	0,091	0,019
-421,759	714,934	0,089	0,169
-420,744	-200,000	-0,002	0,017
-419,730	440,928	-0,058	-0,092
-418,715	-200,000	-0,015	-0,103
-417,701	-200,000	0,007	0,100
-416,686	397,877	-0,125	-0,187
-415,671	-200,000	-0,000	0,054
-414,657	36,708	0,096	0,060
-413,642	176,358	0,050	0,052
-412,628	800,000	-0,035	-0,087
-411,613	-200,000	-0,032	-0,210
-410,598	-98,146	0,163	0,030
-409,584	-200,000	-0,003	0,099
-408,569	62,036	0,069	0,049
-407,555	52,006	0,048	-0,033
-406,540	-200,000	-0,001	0,047
-405,525	30,691	-0,041	-0,025
-404,511	-73,959	0,124	0,032
-403,496	-105,078	-0,261	0,042
-402,482	59,109	0,049	-0,035
-401,467	690,900	0,040	-0,075
-400,452	-200,000	-0,005	0,115
-399,438	-200,000	0,004	0,084
-398,423	-200,000	-0,002	0,101
-397,409	415,014	0,052	0,079
-396,394	800,000	-0,068	-0,147
-395,379	-91,110	0,174	-0,035
-394,365	208,870	0,114	0,127
-393,350	122,694	0,125	-0,112
-392,336	-200,000	0,007	0,036
-391,321	800,000	-0,096	-0,203
-390,306	292,590	-0,042	-0,055
-389,292	297,370	-0,059	-0,078
-388,277	-136,915	-0,082	0,007
-387,263	-129,892	0,118	0,011
-386,248	-91,213	0,053	0,011
-385,233	15,115	-0,045	-0,025
-384,219	-200,000	-0,008	0,032
-383,204	60,124	-0,063	0,044
-382,190	738,206	-0,141	-0,272
-381,175	-38,184	-0,051	0,019
-380,160	-200,000	0,019	0,126
-379,146	-200,000	-0,026	0,089
-378,131	-66,159	0,104	-0,030
-377,117	23,600	-0,074	-0,044
-376,102	-23,295	-0,042	0,018
-375,088	21,448	-0,058	0,034
-374,073	-200,000	0,021	0,084
-373,058	-200,000	0,006	-0,098
-372,044	800,000	0,022	0,057
-371,029	800,000	-0,035	-0,087
-370,015	4,822	-0,086	0,045
-369,000	800,000	-0,061	-0,144
-367,985	-200,000	-0,003	-0,042
-366,971	-200,000	-0,020	-0,088
-365,956	-200,000	0,003	0,074
-364,942	33,039	-0,023	-0,014
-363,927	151,843	0,107	-0,104
-362,912	-200,000	-0,007	0,046
-361,898	-46,253	-0,115	0,040
-360,883	84,342	-0,091	-0,071
-359,869	800,000	-0,037	0,080
-358,854	71,451	-0,122	0,090
-357,839	800,000	0,058	0,179
-356,825	-200,000	0,006	-0,053
-355,810	-69,478	0,112	-0,030
-354,796	-187,107	-0,084	-0,001
-353,781	-200,000	-0,004	-0,137
-352,766	361,561	-0,033	0,047
-351,752	235,499	0,117	-0,138
-350,737	110,413	0,116	0,100
-349,723	-117,090	0,117	0,015
-348,708	-200,000	0,012	-0,068
-347,693	253,002	-0,077	0,094
-346,679	-113,391	-0,060	-0,008
-345,664	161,437	0,025	-0,025
-344,650	-200,000	0,002	0,167
-343,635	800,000	0,066	0,138
-342,620	160,880	-0,045	-0,044
-341,606	800,000	0,060	0,170
-340,591	571,584	0,023	-0,039
-339,577	-200,000	-0,027	-0,111
-338,562	-13,332	-0,104	0,048
-337,548	800,000	0,042	-0,106
-336,533	2,368	0,029	-0,015
-335,518	219,021	0,049	-0,056
-334,504	-200,000	0,023	0,091
-333,489	-86,598	-0,046	-0,010
-332,475	-2,040	-0,105	-0,052
-331,460	176,630	-0,097	-0,101
-330,445	-63,827	0,196	0,057
-329,431	-15,386	-0,090	0,041
-328,416	-200,000	-0,009	0,101
-327,402	71,953	0,016	-0,012
-326,387	99,467	0,082	-0,067
-325,372	-200,000	-0,013	0,056
-324,358	-93,033	-0,178	0,035
-323,343	573,810	0,046	0,080
-322,329	-200,000	-0,025	0,103
-321,314	411,978	-0,023	0,035
-320,299	44,933	0,040	-0,026
-319,285	-7,191	-0,051	0,025
-318,270	139,633	-0,089	0,083
-317,256	740,493	0,078	-0,149
-316,241	-200,000	0,030	0,128
-315,226	800,000	-0,010	-0,022
-314,212	-54,573	-0,061	0,020
-313,197	-200,000	-0,010	0,097
-312,183	800,000	-0,082	-0,169
-311,168	-200,000	0,007	0,137
-310,153	540,926	0,004	-0,007
-309,139	-200,000	-0,029	0,138
-308,124	-126,758	-0,028	-0,003
-307,110	207,480	-0,077	-0,086
-306,095	133,998	0,061	0,056
-305,080	-200,000	0,003	0,079
-304,066	177,669	-0,092	-0,096
-303,051	246,159	0,007	-0,008
-302,037	22,533	-0,040	0,023
-301,022	59,081	0,023	-0,016
-300,008	164,993	-0,067	0,067
-298,993	218,519	0,092	0,105
-297,978	-200,000	-0,009	-0,028
-296,964	-7,622	0,037	0,018
-295,949	164,524	-0,117	-0,118
-294,935	117,763	-0,043	0,038
-293,920	-200,000	0,025	-0,111
-292,905	224,881	-0,028	-0,032
-291,891	800,000	0,090	0,182
-290,876	-200,000	-0,011	0,066
-289,862	3,839	0,023	-0,012
-288,847	-123,854	-0,123	0,014
-287,832	800,000	0,020	0,063
-286,818	56,463	-0,085	-0,059
-285,803	-21,329	0,040	0,017
-284,789	455,327	0,025	-0,040
-283,774	-200,000	0,048	0,163
-282,759	-175,494	-0,161	-0,003
-281,745	-88,915	0,065	-0,014
-280,730	800,000	-0,033	-0,100
-279,716	800,000	0,047	0,128
-278,701	-116,524	-0,048	-0,006
-277,686	-119,157	0,194	-0,024
-276,672	800,000	-0,049	0,146
-275,657	-200,000	0,023	-0,091
-274,643	390,251	-0,068	-0,101
-273,628	758,200	0,027	0,053
-272,613	125,319	0,016	-0,014
-271,599	22,135	-0,133	0,077
-270,584	58,351	-0,065	-0,045
-269,570	7,915	0,105	0,056
-268,555	415,850	0,034	-0,052
-267,540	-143,742	0,061	0,004
-266,526	17,794	-0,138	0,078
-265,511	-48,724	-0,055	-0,019
-264,497	-200,000	0,002	0,067
-263,482	-49,120	-0,034	-0,012
-262,467	1,653	0,060	-0,031
-261,453	327,519	-0,101	0,138
-260,438	-31,262	-0,091	0,036
-259,424	-200,000	0,011	-0,114
-258,409	800,000	0,041	-0,115
-257,395	-200,000	-0,019	0,070
-256,380	-200,000	-0,013	-0,071
-255,365	-17,363	0,126	0,056
-254,351	298,337	0,031	0,041
-253,336	368,897	0,040	0,058
-252,322	246,726	-0,091	-0,109
-251,307	206,743	-0,078	-0,086
-250,292	-190,050	-0,143	-0,001
-249,278	-200,000	-0,018	-0,061
-248,263	515,054	0,086	0,143
-247,249	-67,318	0,118	-0,033
-246,234	-200,000	0,006	0,050
-245,219	-183,223	-0,092	-0,001
-244,205	94,650	-0,139	-0,113
-243,190	-100,296	0,141	0,025
-242,176	2,656	-0,039	0,020
-241,161	234,723	0,062	0,073
-240,146	45,062	0,108	-0,070
-239,132	-200,000	0,012	-0,133
-238,117	-19,456	-0,118	-0,052
-237,103	-200,000	0,024	0,087
-236,088	-116,980	0,032	0,004
-235,073	217,916	0,044	-0,050
-234,059	800,000	0,036	0,072
-233,044	159,190	-0,026	0,026
-232,030	800,000	-0,011	0,026
-231,015	800,000	-0,020	-0,043
-230,000	-200,000	0,016	0,213
-228,986	209,170	0,033	-0,036
-227,971	35,056	-0,081	-0,050
-226,957	16,267	-0,031	-0,017
-225,942	34,137	0,117	0,072
-224,927	-127,752	-0,092	0,009
-223,913	662,038	-0,035	0,064
-222,898	-200,000	0,012	0,155
-221,884	360,716	-0,039	0,056
-220,869	542,155	-0,071	0,120
-219,855	-200,000	0,031	-0,123
-218,840	-155,675	-0,084	0,004
-217,825	-200,000	-0,009	0,045
-216,811	-141,636	-0,096	-0,007
-215,796	532,224	-0,125	-0,211
-214,782	13,036	-0,017	-0,010
-213,767	-35,791	0,108	-0,041
-212,752	59,653	0,098	0,069
-211,738	-55,238	0,038	-0,012
-210,723	-112,623	-0,057	0,008
-209,709	800,000	0,058	0,115
-208,694	-47,503	-0,124	-0,042
-207,679	566,812	-0,041	0,071
-206,665	167,769	0,172	0,173
-205,650	-92,010	-0,079	0,016
-204,636	-143,780	0,069	-0,005
-203,621	800,000	0,040	-0,122
-202,606	-106,162	-0,197	-0,031
-201,592	691,368	0,081	-0,152
-200,577	-200,000	0,003	-0,015
-199,563	800,000	-0,020	0,049
-198,548	37,051	0,084	-0,053
-197,533	-200,000	-0,023	-0,087
-196,519	800,000	0,039	-0,099
-195,504	-16,388	0,145	-0,065
-194,490	457,520	0,010	-0,016
-193,475	800,000	0,036	-0,072
-192,460	-96,588	-0,162	0,030
-191,446	-107,545	0,119	-0,018
-190,431	144,116	-0,144	0,137
-189,417	-80,461	-0,131	0,031
-188,402	-28,543	0,130	-0,053
-187,387	-105,655	-0,149	0,024
-186,373	465,324	0,067	-0,107
-185,358	15,052	0,049	0,027
-184,344	69,617	-0,018	-0,013
-183,329	-14,819	0,132	0,060
-182,315	113,201	-0,032	0,028
-181,300	125,575	0,152	-0,136
-180,285	8,151	-0,067	-0,036
-179,271	-118,846	-0,065	0,008
-178,256	800,000	0,016	-0,049
-177,242	462,064	0,030	0,048
-176,227	-14,793	0,144	-0,065
-175,212	-91,958	-0,096	-0,019
-174,198	21,020	0,083	-0,047
-173,183	453,576	0,023	0,037
-172,169	-44,809	0,086	0,030
-171,154	-45,547	0,054	0,019
-170,139	718,933	-0,049	0,093
-169,125	-200,000	0,018	-0,090
-168,110	371,497	-0,026	-0,037
-167,096	-156,038	0,064	-0,003
-166,081	-200,000	-0,015	-0,074
-165,066	800,000	-0,068	-0,176
-164,052	-16,548	0,104	-0,046
-163,037	196,590	0,037	-0,040
-162,023	800,000	0,094	0,190
-161,008	410,211	0,069	0,105
-159,993	-200,000	-0,002	0,034
-158,979	-55,023	-0,140	-0,044
-157,964	330,316	-0,080	-0,110
-156,950	-24,325	-0,075	0,032
-155,935	173,464	-0,011	0,011
-154,920	-200,000	-0,004	0,166
-153,906	468,777	-0,042	0,067
-152,891	231,021	-0,019	-0,022
-151,877	382,470	-0,118	-0,172
-150,862	-200,000	-0,017	0,076
-149,847	512,417	0,059	-0,097
-148,833	-200,000	0,018	-0,140
-147,818	250,048	0,084	0,101
-146,804	800,000	-0,055	0,146
-145,789	340,075	0,043	-0,060
-144,775	724,806	0,010	0,020
-143,760	-174,946	-0,136	-0,003
-142,745	-81,415	0,028	0,006
-141,731	14,194	0,066	0,036
-140,716	-125,052	-0,143	0,015
-139,702	32,198	-0,067	0,041
-138,687	602,470	-0,015	-0,026
-137,672	-32,747	-0,050	-0,020
-136,658	800,000	-0,049	-0,108
-135,643	-86,869	-0,117	0,025
-134,629	336,410	0,034	0,047
-133,614	669,491	0,034	0,062
-132,599	800,000	0,026	-0,076
-131,585	90,315	0,062	-0,049
-130,570	394,088	-0,106	0,156
-129,556	274,181	0,056	-0,070
-128,541	-159,873	-0,133	0,005
-127,526	-82,142	0,021	-0,005
-126,512	-4,190	-0,099	0,048
-125,497	-116,518	-0,036	0,005
-124,483	145,982	-0,105	0,100
-123,468	714,042	0,054	-0,101
-122,453	555,255	0,060	-0,102
-121,439	35,090	-0,189	-0,117
-120,424	-29,319	-0,030	0,012
-119,410	800,000	0,050	0,142
-118,395	-66,745	-0,056	-0,015
-117,380	26,728	0,110	0,065
-116,366	-29,465	-0,129	-0,052
-115,351	31,617	-0,076	0,046
-114,337	-48,461	0,114	0,039
-113,322	-10,411	-0,037	-0,017
-112,307	-200,000	0,002	0,051
-111,293	-23,956	0,066	0,028
-110,278	-48,792	0,094	0,032
-109,264	-200,000	0,022	0,113
-108,249	93,753	-0,042	0,033
-107,234	-180,913	-0,034	-0,000
-106,220	-99,001	0,117	0,021
-105,205	31,692	-0,138	0,084
-104,191	-133,585	0,228	-0,020
-103,176	800,000	0,029	0,083
-102,162	-123,553	-0,158	0,018
-101,147	-1,206	-0,055	0,028
-100,132	98,728	-0,032	0,026
-99,118	-36,648	-0,072	-0,027
-98,103	32,028	-0,034	-0,021
-97,089	-132,882	-0,031	0,003
-96,074	427,242	0,049	0,075
-95,059	800,000	0,011	0,028
-94,045	-200,000	-0,013	-0,074
-93,030	6,585	-0,163	-0,085
-92,016	-16,928	0,201	-0,089
-91,001	-200,000	-0,007	-0,050
-89,986	81,595	-0,058	0,044
-88,972	-200,000	-0,047	0,152
-87,957	37,795	0,070	0,044
-86,943	338,057	0,061	0,084
-85,928	-125,028	0,155	0,017
-84,913	68,318	0,052	0,038
-83,899	-2,278	0,071	0,035
-82,884	27,015	0,071	0,042
-81,870	141,657	-0,078	0,073
-80,855	272,887	-0,063	0,078
-79,840	270,798	0,080	0,099
-78,826	11,689	-0,048	-0,026
-77,811	209,620	0,013	0,015
-76,797	-145,416	-0,140	-0,009
-75,782	101,587	0,151	0,124
-74,767	-200,000	-0,031	0,172
-73,753	48,676	0,122	0,080
-72,738	514,508	-0,052	-0,086
-71,724	-164,142	-0,207	-0,007
-70,709	-70,673	0,133	0,035
-69,694	-70,844	-0,096	0,025
-68,680	-5,371	0,047	0,023
-67,665	800,000	-0,041	-0,110
-66,651	187,770	0,031	0,032
-65,636	196,580	0,025	-0,027
-64,622	20,626	-0,114	-0,065
-63,607	-200,000	-0,005	-0,046
-62,592	-200,000	-0,030	-0,169
-61,578	-200,000	-0,005	-0,016
-60,563	-200,000	0,013	0,043
-59,549	-30,488	0,107	0,043
-58,534	16,698	-1,770	-0,986
-57,519	447,711	-1,341	-2,091
-56,505	-200,000	-0,365	-4,434
-55,490	345,646	0,893	1,242
-54,476	800,000	5,240	11,557
-53,461	-200,000	20,642	329,768
-52,446	800,000	753,974	2317,417
-51,432	550,929	1659,755	2822,306
-50,417	73,868	1664,167	1230,486
-49,403	19,093	1537,338	868,035
-48,388	13,024	1460,202	795,115
-47,373	19,049	1450,574	818,768
-46,359	16,084	1440,188	798,762
-45,344	11,373	1435,830	773,881
-44,330	11,263	1433,767	772,214
-43,315	11,246	1432,056	771,178
-42,300	11,254	1430,273	770,227
-41,286	11,286	1429,153	769,744
-40,271	11,292	1427,733	768,978
-39,257	11,192	1426,647	767,887
-38,242	11,253	1425,236	767,385
-37,227	11,279	1424,140	766,890
-36,213	11,287	1422,864	766,210
-35,198	11,325	1421,863	765,820
-34,184	11,326	1421,006	765,331
-33,169	11,263	1419,507	764,197
-32,154	11,356	1418,373	763,997
-31,140	11,337	1417,294	763,294
-30,125	11,391	1416,206	762,934
-29,111	11,346	1415,149	762,123
-28,096	11,357	1413,873	761,455
-27,082	11,283	1412,809	760,504
-26,067	11,239	1411,948	759,806
-25,052	11,269	1410,741	759,265
-24,038	11,291	1409,594	758,723
-23,023	11,197	1408,800	757,823
-22,009	11,253	1407,639	757,432
-20,994	11,264	1406,561	756,872
-19,979	11,252	1405,786	756,369
-18,965	11,234	1404,798	755,723
-17,950	11,213	1403,921	755,125
-16,936	11,192	1403,306	754,664
-15,921	11,141	1401,931	753,659
-14,906	11,155	1401,160	753,277
-13,892	11,221	1400,025	752,944
-12,877	11,159	1399,553	752,373
-11,863	11,175	1398,599	751,904
-10,848	11,155	1397,615	751,253
-9,833	11,097	1396,948	750,598
-8,819	11,068	1396,020	749,935
-7,804	11,047	1395,009	749,262
-6,790	11,087	1393,944	748,847
-5,775	11,092	1393,010	748,340
-4,760	11,092	1391,933	747,729
-3,746	11,087	1391,133	747,247
-2,731	11,055	1390,338	746,644
-1,717	11,047	1389,579	746,167
-0,702	11,067	1387,447	745,088
0,313	15,093	1301,858	717,570
1,327	31,266	694,129	419,432
2,342	48,726	120,577	79,631
3,356	1,703	16,441	8,327
4,371	-0,279	3,366	1,682
5,386	-23,273	0,821	0,347
6,400	-200,000	0,125	0,438
7,415	118,943	-0,246	-0,215
8,429	25,777	-0,313	-0,183
9,444	66,071	-0,314	-0,225
10,459	-61,993	-0,344	-0,101
11,473	-37,887	-0,256	-0,095
12,488	-28,159	-0,283	-0,115
13,502	-56,190	-0,261	-0,081
14,517	-39,463	-0,369	-0,135
15,531	51,520	-0,473	-0,316
16,546	-82,835	-0,385	-0,087
17,561	186,763	-0,350	-0,368
18,575	-116,174	-0,207	-0,027
19,590	-200,000	-0,066	-0,310
20,604	-147,766	-0,301	0,017
21,619	93,960	-0,339	-0,271
22,634	129,890	-0,495	-0,446
23,648	183,740	-0,338	-0,352
24,663	37,773	-0,472	-0,295
25,677	-26,938	-0,453	-0,185
26,692	99,385	-0,425	-0,345
27,707	39,884	-0,369	-0,233
28,721	82,684	-0,407	-0,311
29,736	91,049	-0,359	-0,283
30,750	146,913	-0,400	-0,379
31,765	498,029	-0,238	-0,387
32,780	22,142	-0,373	-0,214
33,794	203,737	-0,318	-0,346
34,809	8,640	-0,445	-0,235
35,823	34,046	-0,575	-0,352
36,838	177,196	-0,399	-0,409
37,853	124,550	-0,347	-0,307
38,867	55,135	-0,447	-0,303
39,882	149,979	-0,393	-0,375
40,896	127,318	-0,351	-0,314
41,911	-20,483	-0,451	-0,194
42,926	26,637	-0,328	-0,192
43,940	257,638	-0,307	-0,372
44,955	-1,765	-0,397	-0,196
45,969	11,258	-0,353	-0,189
46,984	3,619	-0,419	-0,214
47,999	73,403	-0,384	-0,282
49,013	-6,162	-0,382	-0,183
50,028	137,827	-0,248	-0,228
51,042	1,328	-0,334	-0,168
52,057	172,777	-0,294	-0,298
53,071	-76,152	-0,418	-0,103
54,086	53,263	-0,290	-0,195
55,101	14,427	-0,344	-0,188
56,115	252,402	-0,249	-0,299
57,130	-44,074	-0,486	-0,171
58,144	26,432	-0,351	-0,206
59,159	-15,653	-0,358	-0,160
60,174	490,430	-0,202	-0,325
61,188	47,668	-0,346	-0,226
62,203	128,198	-0,334	-0,298
63,217	64,049	-0,342	-0,241
64,232	-64,781	-0,455	-0,128
65,247	65,861	-0,299	-0,213
66,261	155,775	-0,335	-0,324
67,276	-22,365	-0,451	-0,191
68,290	-21,560	-0,293	-0,125
69,305	-0,420	-0,308	-0,153
70,320	58,994	-0,289	-0,199
71,334	99,291	-0,347	-0,281
72,349	145,333	-0,238	-0,224
73,363	78,396	-0,293	-0,219
74,378	-41,269	-0,377	-0,135
75,393	158,732	-0,296	-0,288
76,407	21,105	-0,326	-0,185
77,422	27,691	-0,312	-0,184
78,436	242,669	-0,183	-0,215
79,451	-38,381	-0,325	-0,120
80,466	189,788	-0,198	-0,208
81,480	-57,185	-0,429	-0,131
82,495	-18,633	-0,286	-0,125
83,509	65,253	-0,239	-0,169
84,524	-31,650	-0,267	-0,104
85,539	234,096	-0,138	-0,159
86,553	157,151	-0,237	-0,230
87,568	117,921	-0,270	-0,233
88,582	9,528	-0,267	-0,141
89,597	48,221	-0,315	-0,206
90,611	-9,224	-0,223	-0,104
91,626	25,920	-0,415	-0,242
92,641	-129,491	-0,193	-0,018
93,655	-31,566	-0,320	-0,125
94,670	-27,103	-0,417	-0,170
95,684	-70,769	-0,401	-0,105
96,699	54,199	-0,226	-0,152
97,714	247,731	-0,143	-0,169
98,728	63,679	-0,156	-0,109
99,743	17,571	-0,343	-0,190
100,757	-6,374	-0,360	-0,171
101,772	-73,215	-0,382	-0,097
102,787	187,736	-0,266	-0,278
103,801	-38,536	-0,292	-0,107
104,816	289,416	-0,190	-0,241
105,830	-51,721	-0,290	-0,094
106,845	50,658	-0,189	-0,125
107,860	413,709	-0,149	-0,222
108,874	-91,246	-0,229	-0,045
109,889	210,162	-0,221	-0,243
110,903	51,232	-0,363	-0,240
111,918	13,189	-0,236	-0,127
112,933	184,064	-0,173	-0,179
113,947	29,683	-0,241	-0,143
114,962	243,993	-0,127	-0,150
115,976	-27,018	-0,273	-0,111
116,991	381,886	-0,109	-0,157
118,006	81,853	-0,327	-0,247
119,020	130,599	-0,269	-0,241
120,035	21,106	-0,199	-0,112
121,049	68,861	-0,122	-0,087
122,064	117,824	-0,191	-0,164
123,079	132,432	-0,148	-0,134
124,093	24,232	-0,400	-0,230
125,108	207,167	-0,261	-0,284
126,122	152,613	-0,281	-0,268
127,137	101,845	-0,152	-0,124
128,151	102,360	-0,122	-0,099
129,166	35,210	-0,251	-0,153
130,181	75,467	-0,235	-0,173
131,195	167,056	-0,204	-0,202
132,210	-34,462	-0,400	-0,152
133,224	800,000	-0,061	-0,160
134,239	169,636	-0,253	-0,252
135,254	187,560	-0,178	-0,185
136,268	37,258	-0,259	-0,160
137,283	105,123	-0,271	-0,223
138,297	68,775	-0,392	-0,280
139,312	90,942	-0,203	-0,159
140,327	139,136	-0,413	-0,378
141,341	443,220	-0,134	-0,205
142,356	173,662	-0,243	-0,244
143,370	324,421	-0,190	-0,253
144,385	103,767	-0,274	-0,224
145,400	154,398	-0,170	-0,163
146,414	64,200	-0,374	-0,262
147,429	91,484	-0,172	-0,134
148,443	-57,504	-0,184	-0,056
149,458	61,704	-0,188	-0,130
150,473	24,357	-0,221	-0,127
151,487	68,156	-0,243	-0,173
152,502	17,467	-0,388	-0,214
153,516	515,028	-0,186	-0,304
154,531	91,289	-0,350	-0,273
155,546	351,541	-0,170	-0,235
156,560	96,202	-0,276	-0,220
157,575	75,149	-0,182	-0,133
158,589	329,858	-0,175	-0,235
159,604	-9,825	-0,240	-0,111
160,619	120,747	-0,236	-0,204
161,633	-6,725	-0,306	-0,144
162,648	-15,911	-0,245	-0,108
163,662	112,939	-0,126	-0,106
164,677	-13,234	-0,165	-0,074
165,692	-22,411	-0,176	-0,074
166,706	20,947	-0,082	-0,046
167,721	328,887	-0,140	-0,187
168,735	409,371	-0,213	-0,315
169,750	800,000	-0,151	-0,306
170,764	-11,717	-0,254	-0,115
171,779	-105,421	-0,172	-0,027
172,794	103,658	-0,118	-0,096
173,808	171,255	-0,160	-0,160
174,823	205,863	-0,235	-0,254
175,837	591,852	-0,144	-0,248
176,852	170,567	-0,199	-0,198
177,867	191,970	-0,231	-0,242
178,881	132,602	-0,145	-0,130
179,896	-106,821	-0,067	-0,010
180,910	22,297	-0,300	-0,170
181,925	62,854	-0,288	-0,200
182,940	-136,983	-0,301	-0,024
183,954	192,158	-0,219	-0,230
184,969	58,318	-0,288	-0,196
185,983	457,035	-0,158	-0,244
186,998	-148,367	-0,240	0,013
188,013	-94,079	-0,213	-0,040
189,027	368,257	-0,153	-0,215
190,042	79,595	-0,123	-0,091
191,056	46,310	-0,280	-0,180
192,071	14,268	-0,243	-0,131
193,086	-147,788	-0,243	0,014
194,100	56,992	-0,157	-0,106
195,115	113,743	-0,141	-0,118
196,129	390,272	-0,173	-0,249
197,144	196,072	-0,179	-0,189
198,159	200,160	-0,165	-0,176
199,173	77,046	-0,225	-0,165
200,188	800,000	-0,093	-0,234
201,202	12,121	-0,132	0,070
202,217	9,220	-0,202	-0,106
203,232	43,432	-0,236	-0,149
204,246	580,947	-0,106	-0,180
205,261	105,484	-0,239	-0,195
206,275	47,664	-0,266	-0,171
207,290	35,014	-0,256	-0,155
208,304	53,142	-0,184	-0,122
209,319	218,810	-0,160	-0,177
210,334	-59,170	-0,165	-0,049
211,348	22,244	-0,337	-0,190
212,363	102,661	-0,225	-0,183
213,377	69,698	-0,245	-0,174
214,392	423,144	-0,145	-0,216
215,407	442,440	-0,116	-0,177
216,421	-200,000	-0,009	-0,286
217,436	-31,082	-0,163	-0,063
218,450	381,823	-0,111	-0,158
219,465	-30,091	-0,300	-0,118
220,480	765,936	-0,124	-0,233
221,494	311,918	-0,243	-0,317
222,509	-27,370	-0,193	-0,077
223,523	-69,984	-0,096	-0,025
224,538	0,317	-0,196	-0,097
225,553	705,306	-0,128	-0,235
226,567	383,699	-0,118	-0,168
227,582	-1,063	-0,332	-0,162
228,596	209,834	-0,094	-0,103
229,611	-135,116	-0,205	-0,017
230,626	-200,000	-0,049	-0,159
231,640	-158,137	-0,156	0,006
232,655	-48,317	-0,121	-0,040
233,669	175,067	-0,112	-0,112
234,684	169,177	-0,222	-0,219
235,699	129,088	-0,079	-0,070
236,713	61,258	-0,052	0,036
237,728	-124,151	-0,249	-0,027
238,742	174,338	-0,108	-0,108
239,757	-95,285	-0,243	-0,045
240,772	471,923	-0,195	-0,304
241,786	-96,199	-0,296	-0,054
242,801	12,293	-0,201	-0,106
243,815	-6,793	-0,145	-0,068
244,830	195,300	-0,164	-0,172
245,844	182,762	-0,111	-0,113
246,859	-97,306	-0,209	0,037
247,874	-6,472	-0,286	-0,134
248,888	-147,465	-0,126	-0,007
249,903	73,718	-0,185	-0,134
250,917	-100,368	-0,296	0,050
251,932	251,999	-0,077	-0,091
252,947	51,331	-0,207	-0,135
253,961	-126,886	-0,218	0,022
254,976	334,916	-0,215	-0,287
255,990	-145,546	-0,356	0,022
257,005	800,000	-0,056	-0,130
258,020	53,899	-0,116	-0,077
259,034	800,000	-0,031	-0,069
260,049	136,839	-0,144	-0,130
261,063	92,711	-0,248	-0,193
262,078	-11,882	-0,313	-0,141
263,093	-147,451	-0,193	0,011
264,107	-70,253	-0,179	0,047
265,122	-5,144	-0,207	-0,098
266,136	-22,105	-0,095	-0,040
267,151	-200,000	-0,022	-0,077
268,166	-200,000	-0,012	-0,121
269,180	31,142	-0,164	-0,097
270,195	180,057	-0,270	-0,273
271,209	4,826	-0,092	-0,047
272,224	299,648	-0,098	-0,125
273,239	-105,979	-0,131	-0,020
274,253	-174,254	-0,096	-0,002
275,268	8,427	-0,208	-0,107
276,282	61,153	-0,220	-0,150
277,297	56,817	-0,142	-0,095
278,312	39,158	-0,164	-0,101
279,326	-30,863	-0,055	-0,021
280,341	99,992	-0,031	0,025
281,355	-9,957	-0,229	-0,105
282,370	20,138	-0,171	-0,095
283,384	181,995	-0,181	-0,184
284,399	517,864	-0,107	-0,173
285,414	-52,440	-0,123	-0,039
286,428	-4,527	-0,145	-0,069
287,443	800,000	-0,026	-0,056
288,457	3,943	-0,169	-0,085
289,472	106,574	-0,109	-0,089
290,487	-22,773	-0,297	-0,123
291,501	155,114	-0,145	-0,137
292,516	-123,624	-0,181	-0,019
293,530	-91,959	-0,112	0,022
294,545	-82,723	-0,037	0,008
295,560	-96,896	-0,165	0,029
296,574	121,887	-0,050	-0,043
297,589	80,975	-0,193	-0,143
298,603	137,800	-0,165	-0,149
299,618	80,941	-0,194	-0,143
300,633	-200,000	-0,026	-0,164
301,647	704,907	-0,061	-0,111
302,662	-101,290	-0,245	-0,041
303,676	-138,164	-0,066	-0,005
304,691	-9,330	-0,192	-0,088
305,706	130,174	-0,112	-0,098
306,720	-75,741	-0,173	-0,042
307,735	-110,931	-0,139	-0,019
308,749	-200,000	-0,007	-0,109
309,764	800,000	-0,073	-0,147
310,779	95,106	-0,120	-0,094
311,793	-109,661	-0,159	-0,023
312,808	77,271	-0,171	-0,125
313,822	100,018	-0,107	-0,085
314,837	210,217	-0,121	-0,131
315,852	-200,000	-0,026	-0,250
316,866	797,115	-0,036	-0,069
317,881	-45,469	-0,107	0,036
318,895	-173,877	-0,204	-0,004
319,910	-22,869	-0,222	-0,091
320,925	31,501	-0,153	-0,090
321,939	-21,421	-0,162	-0,068
322,954	-73,035	-0,234	-0,058
323,968	-200,000	-0,013	-0,067
324,983	-55,833	-0,256	-0,078
325,997	-58,478	-0,051	-0,015
327,012	220,445	-0,153	-0,169
328,027	73,003	-0,284	-0,203
329,041	61,663	-0,149	-0,102
330,056	800,000	-0,068	-0,174
331,070	191,690	-0,129	-0,134
332,085	0,532	-0,099	-0,048
333,100	143,888	-0,129	-0,118
334,114	370,813	-0,064	-0,089
335,129	-22,304	-0,209	-0,086
336,143	102,528	-0,122	-0,098
337,158	5,874	-0,110	-0,055
338,173	397,341	-0,044	-0,063
339,187	179,957	-0,085	-0,085
340,202	-200,000	0,039	-0,134
341,216	0,014	-0,070	-0,034
342,231	103,315	-0,136	-0,110
343,246	99,580	-0,109	0,087
344,260	167,838	-0,104	0,101
345,275	-28,884	-0,048	-0,019
346,289	-200,000	0,008	-0,033
347,304	108,868	-0,078	0,063
348,319	59,923	-0,167	-0,113
349,333	800,000	-0,054	-0,140
350,348	800,000	-0,117	-0,256
351,362	-66,723	-0,098	0,026
352,377	248,001	-0,041	-0,048
353,392	-56,743	-0,097	-0,029
354,406	36,462	-0,125	-0,075
355,421	206,831	1309,806	1397,643
356,435	159,078	1469,936	1398,130
