DTS Sentinel unit serial number:	SN410029Multiplexer serial number:	ORYXHardware model number:	OX2-SRSoftware version number:	ORYX F/W v4,00 Oryx Data Collector v3.7.2.0data status	okinstallation	B3 Nyhavnadifferential loss correction	single-endedforward channel	channel 1reverse channel	N/Adate	2023/11/29time	08:12:30forward acquisition time	300,00reverse acquisition time	0,00gamma	499,1914k internal	0,3212k external	0,3212temperature offset calibration	1,0000default loss term (dB/km)	0,3820temperature slope calibration	1,0000multiplexer offset coefficient	1,0000multiplexer slope coefficient	1,0000fibre end	0,00T internal ref (°C)	8,87T ext. ref 1 (°C)	-6,25T ext. ref 2 (°C)	-6,35length (m)	temperature (°C)	Stokes	anti-Stokes-744,400	800,000	-0,108	-0,235
-743,385	-200,000	-0,013	0,254
-742,371	-46,373	-0,115	-0,041
-741,356	-200,000	-0,015	0,374
-740,342	401,222	-0,158	-0,242
-739,327	-200,000	-0,023	0,213
-738,312	44,793	-0,254	-0,169
-737,298	177,663	-0,187	0,198
-736,283	497,747	-0,133	-0,222
-735,269	-200,000	0,013	0,079
-734,254	316,344	-0,153	-0,211
-733,239	-82,656	-0,211	0,049
-732,225	184,605	-0,112	-0,120
-731,210	-49,165	0,268	0,092
-730,196	149,546	0,046	-0,045
-729,181	8,963	-0,110	0,060
-728,167	276,955	-0,028	-0,036
-727,152	54,060	-0,055	0,038
-726,137	-30,279	-0,046	0,019
-725,123	444,707	-0,074	0,118
-724,108	33,166	-0,132	-0,083
-723,094	-200,000	0,013	-0,084
-722,079	-93,794	-0,062	0,012
-721,064	-22,421	0,150	-0,065
-720,050	176,529	-0,055	0,058
-719,035	111,876	0,084	0,073
-718,021	280,488	-0,092	-0,119
-717,006	527,794	0,025	-0,043
-715,991	-200,000	-0,026	-0,102
-714,977	-200,000	-0,032	-0,104
-713,962	-74,113	-0,185	0,048
-712,948	-200,000	-0,016	0,125
-711,933	204,877	-0,046	-0,052
-710,918	171,063	0,034	-0,036
-709,904	225,785	-0,094	-0,110
-708,889	-82,358	-0,072	-0,017
-707,875	800,000	-0,073	-0,149
-706,860	36,923	-0,065	-0,042
-705,845	-94,309	0,129	-0,025
-704,831	-200,000	0,030	0,139
-703,816	-200,000	-0,002	0,006
-702,802	459,047	0,022	-0,035
-701,787	294,211	0,109	-0,144
-700,772	-47,822	-0,079	0,028
-699,758	8,786	0,150	-0,082
-698,743	34,278	-0,041	0,026
-697,729	-135,988	0,129	-0,011
-696,714	295,463	0,013	-0,018
-695,699	800,000	0,010	-0,025
-694,685	259,049	0,017	0,021
-693,670	-89,518	-0,106	0,022
-692,656	295,468	-0,026	0,034
-691,641	114,897	-0,080	-0,071
-690,627	-176,738	-0,023	-0,000
-689,612	621,884	0,005	0,009
-688,597	-133,946	-0,193	0,017
-687,583	221,608	0,127	-0,148
-686,568	-56,727	0,043	0,014
-685,554	69,057	-0,121	0,090
-684,539	-200,000	0,016	0,125
-683,524	-200,000	0,025	0,210
-682,510	800,000	0,033	0,096
-681,495	-176,346	-0,182	-0,003
-680,481	103,878	0,085	-0,072
-679,466	-200,000	-0,012	-0,094
-678,451	91,399	0,029	-0,024
-677,437	-97,635	-0,193	0,036
-676,422	96,179	0,039	0,033
-675,408	-35,445	0,057	0,022
-674,393	515,262	0,005	-0,008
-673,378	193,289	0,043	-0,047
-672,364	-200,000	-0,027	-0,313
-671,349	302,738	0,030	-0,040
-670,335	-5,991	-0,101	-0,050
-669,320	800,000	-0,041	-0,128
-668,305	78,622	0,033	-0,026
-667,291	-63,188	-0,182	-0,054
-666,276	800,000	-0,007	-0,021
-665,262	-98,129	-0,067	-0,012
-664,247	-200,000	-0,016	-0,121
-663,232	-11,002	0,097	0,046
-662,218	-200,000	0,003	0,124
-661,203	-20,138	-0,093	0,041
-660,189	800,000	0,039	0,091
-659,174	-45,913	-0,101	-0,036
-658,159	800,000	-0,027	0,059
-657,145	800,000	-0,043	0,116
-656,130	267,982	-0,085	-0,108
-655,116	-200,000	0,011	-0,114
-654,101	-91,952	-0,104	-0,021
-653,086	24,458	0,112	-0,067
-652,072	163,505	-0,093	-0,094
-651,057	-200,000	0,017	-0,092
-650,043	-111,004	0,041	0,006
-649,028	800,000	-0,061	-0,162
-648,014	-200,000	-0,029	0,110
-646,999	795,271	0,011	-0,021
-645,984	78,276	-0,084	-0,064
-644,970	-37,580	-0,112	0,043
-643,955	40,561	-0,192	-0,125
-642,941	108,923	0,055	-0,047
-641,926	-45,229	-0,063	0,022
-640,911	29,883	0,036	-0,022
-639,897	-200,000	-0,017	0,125
-638,882	-200,000	-0,026	-0,098
-637,868	800,000	0,065	-0,169
-636,853	-46,104	-0,104	0,037
-635,838	8,953	-0,053	-0,029
-634,824	800,000	-0,058	-0,135
-633,809	800,000	0,042	-0,090
-632,795	-16,033	0,116	-0,053
-631,780	529,865	0,118	-0,202
-630,765	-200,000	-0,040	-0,132
-629,751	1,005	-0,089	-0,046
-628,736	185,619	0,067	-0,072
-627,722	800,000	0,050	-0,105
-626,707	-185,154	-0,246	0,003
-625,692	106,325	0,127	-0,109
-624,678	800,000	0,047	-0,104
-623,663	234,328	-0,032	-0,038
-622,649	-64,305	0,088	-0,026
-621,634	43,693	-0,073	-0,048
-620,619	45,149	-0,174	-0,115
-619,605	-166,508	0,146	-0,004
-618,590	125,503	0,036	-0,033
-617,576	800,000	0,025	-0,058
-616,561	-63,691	-0,141	0,042
-615,546	-37,296	-0,050	-0,019
-614,532	-111,070	-0,130	-0,019
-613,517	-125,039	-0,042	0,005
-612,503	-200,000	0,020	-0,074
-611,488	131,164	-0,084	0,078
-610,474	287,658	-0,004	0,005
-609,459	-60,945	0,058	0,018
-608,444	101,716	-0,170	-0,143
-607,430	-56,266	-0,029	-0,009
-606,415	-200,000	-0,046	-0,215
-605,401	-124,388	-0,106	-0,012
-604,386	543,659	0,027	0,046
-603,371	-42,993	-0,138	0,050
-602,357	-200,000	-0,015	-0,058
-601,342	325,559	-0,062	-0,085
-600,328	137,478	-0,116	-0,109
-599,313	57,195	0,047	-0,033
-598,298	-88,371	0,133	0,028
-597,284	49,693	-0,054	0,037
-596,269	214,710	-0,092	-0,105
-595,255	-200,000	-0,006	-0,056
-594,240	-200,000	0,007	-0,128
-593,225	800,000	0,038	-0,081
-592,211	270,860	-0,068	0,086
-591,196	-200,000	0,004	-0,052
-590,182	139,780	0,066	0,062
-589,167	34,673	0,202	0,127
-588,152	800,000	-0,049	0,118
-587,138	202,628	-0,038	-0,043
-586,123	695,519	0,021	0,039
-585,109	800,000	-0,069	-0,149
-584,094	16,616	-0,089	-0,050
-583,079	-67,102	0,108	-0,030
-582,065	200,496	-0,082	0,091
-581,050	563,594	-0,047	0,082
-580,036	695,798	0,062	0,117
-579,021	100,371	-0,113	-0,094
-578,006	137,126	-0,168	-0,158
-576,992	-12,696	0,036	-0,017
-575,977	101,716	-0,029	-0,024
-574,963	236,584	0,111	0,133
-573,948	-78,973	0,065	-0,016
-572,934	-200,000	0,005	-0,041
-571,919	-200,000	0,000	-0,178
-570,904	735,611	-0,007	-0,014
-569,890	-200,000	0,029	-0,098
-568,875	152,349	-0,088	0,086
-567,861	-102,143	0,184	-0,032
-566,846	-200,000	0,023	-0,125
-565,831	-200,000	0,015	-0,066
-564,817	167,386	-0,052	-0,053
-563,802	-200,000	-0,030	-0,112
-562,788	102,685	0,071	0,060
-561,773	800,000	0,053	-0,115
-560,758	-53,161	0,043	-0,014
-559,744	424,561	0,034	0,053
-558,729	149,520	-0,126	-0,123
-557,715	-200,000	-0,055	0,177
-556,700	800,000	-0,022	0,052
-555,685	106,136	-0,008	-0,006
-554,671	96,027	0,027	0,023
-553,656	800,000	-0,044	-0,113
-552,642	-131,309	0,134	-0,013
-551,627	-200,000	0,031	0,117
-550,612	-102,166	0,020	0,003
-549,598	-200,000	0,004	-0,108
-548,583	-200,000	-0,001	-0,096
-547,569	-200,000	0,012	-0,077
-546,554	-200,000	-0,001	0,027
-545,539	-106,955	0,125	-0,020
-544,525	135,466	0,137	0,129
-543,510	156,868	0,093	-0,092
-542,496	-135,322	-0,128	-0,011
-541,481	800,000	0,036	0,099
-540,466	800,000	0,041	-0,082
-539,452	-177,999	0,045	-0,001
-538,437	-200,000	-0,007	0,132
-537,423	-200,000	-0,010	0,091
-536,408	-72,087	-0,098	0,026
-535,393	61,200	-0,098	0,070
-534,379	-200,000	-0,017	-0,063
-533,364	34,441	0,079	-0,049
-532,350	307,125	0,060	-0,081
-531,335	45,724	-0,031	-0,021
-530,321	-139,383	0,166	0,013
-529,306	40,648	0,101	0,066
-528,291	111,366	-0,078	0,068
-527,277	70,311	0,039	0,029
-526,262	35,631	0,024	-0,015
-525,248	7,509	0,029	0,016
-524,233	-200,000	0,014	-0,062
-523,218	-8,429	0,109	-0,053
-522,204	-5,742	-0,039	-0,019
-521,189	560,802	0,022	-0,038
-520,175	473,074	0,129	0,210
-519,160	800,000	0,027	0,078
-518,145	-42,334	0,082	0,030
-517,131	-200,000	-0,040	-0,228
-516,116	-116,050	-0,057	-0,008
-515,102	235,842	-0,022	0,026
-514,087	518,580	-0,020	0,035
-513,072	247,939	0,067	0,081
-512,058	800,000	0,012	0,030
-511,043	-22,334	0,017	-0,007
-510,029	617,687	-0,052	0,094
-509,014	407,155	0,027	-0,041
-507,999	800,000	0,012	-0,027
-506,985	800,000	-0,048	0,143
-505,970	-35,034	0,072	0,028
-504,956	800,000	-0,054	-0,114
-503,941	800,000	-0,022	-0,048
-502,926	-108,257	-0,094	0,014
-501,912	643,962	0,068	0,125
-500,897	2,454	0,123	-0,064
-499,883	-5,770	0,096	-0,047
-498,868	-34,059	-0,159	-0,062
-497,853	-200,000	0,001	-0,037
-496,839	-200,000	0,211	-0,000
-495,824	645,380	-0,018	0,033
-494,810	309,128	-0,042	0,056
-493,795	-134,488	-0,083	-0,007
-492,781	-124,418	0,187	0,021
-491,766	-156,504	-0,059	-0,003
-490,751	-107,579	-0,121	0,019
-489,737	-16,757	-0,084	-0,038
-488,722	-200,000	-0,030	0,136
-487,708	510,927	-0,027	0,046
-486,693	800,000	0,031	0,067
-485,678	-43,844	0,154	0,055
-484,664	-168,008	-0,141	0,004
-483,649	31,051	0,157	-0,096
-482,635	236,906	0,026	0,031
-481,620	-43,849	0,081	-0,029
-480,605	-200,000	0,013	0,079
-479,591	800,000	0,119	0,238
-478,576	-2,142	-0,041	0,021
-477,562	-41,254	0,050	-0,018
-476,547	-3,368	0,040	0,020
-475,532	50,303	-0,118	0,080
-474,518	91,360	0,032	0,026
-473,503	-200,000	-0,012	0,077
-472,489	116,832	-0,062	0,054
-471,474	293,812	-0,044	0,058
-470,459	800,000	-0,023	0,059
-469,445	-200,000	-0,023	-0,111
-468,430	-140,647	0,068	0,005
-467,416	341,538	0,025	0,035
-466,401	800,000	0,040	0,112
-465,386	63,010	0,014	0,010
-464,372	800,000	0,016	0,037
-463,357	-85,747	-0,119	-0,026
-462,343	6,295	0,084	-0,045
-461,328	800,000	0,035	0,103
-460,313	-60,002	-0,097	-0,030
-459,299	-132,124	0,263	-0,024
-458,284	800,000	-0,087	0,177
-457,270	453,266	0,067	-0,106
-456,255	-200,000	0,007	-0,079
-455,241	-77,818	-0,145	-0,036
-454,226	560,046	-0,060	-0,104
-453,211	-115,628	-0,143	0,019
-452,197	-200,000	-0,007	-0,151
-451,182	-26,466	0,183	0,077
-450,168	-79,944	0,047	-0,011
-449,153	800,000	-0,004	-0,011
-448,138	-76,786	0,121	-0,030
-447,124	22,644	-0,034	-0,020
-446,109	-31,433	-0,099	0,040
-445,095	-200,000	0,002	0,104
-444,080	-200,000	0,039	0,149
-443,065	-200,000	0,000	0,117
-442,051	190,840	0,024	0,026
-441,036	70,034	-0,047	-0,035
-440,022	-20,583	-0,102	-0,045
-439,007	-200,000	-0,012	0,091
-437,992	-200,000	0,028	0,155
-436,978	-69,116	0,140	-0,038
-435,963	-43,052	-0,094	-0,034
-434,949	-168,739	-0,065	-0,002
-433,934	402,155	0,012	0,019
-432,919	800,000	-0,038	-0,114
-431,905	-200,000	-0,005	-0,095
-430,890	52,721	0,051	0,035
-429,876	-200,000	0,031	0,132
-428,861	-192,781	-0,134	-0,001
-427,846	-82,363	-0,074	-0,017
-426,832	-58,358	-0,095	-0,029
-425,817	190,988	-0,019	-0,020
-424,803	83,442	-0,075	-0,058
-423,788	767,241	0,067	0,131
-422,773	-200,000	0,020	0,070
-421,759	-114,273	-0,084	-0,011
-420,744	-200,000	-0,010	0,045
-419,730	15,528	0,042	-0,024
-418,715	351,504	-0,065	0,092
-417,701	-200,000	-0,001	0,090
-416,686	27,389	-0,073	-0,044
-415,671	800,000	0,054	-0,161
-414,657	18,899	-0,079	0,045
-413,642	-200,000	0,000	0,066
-412,628	108,615	-0,084	-0,071
-411,613	-200,000	0,011	-0,086
-410,598	-200,000	-0,021	0,241
-409,584	-200,000	0,028	0,219
-408,569	-98,508	0,207	-0,037
-407,555	-200,000	0,026	0,111
-406,540	-109,517	-0,114	0,017
-405,525	-82,423	0,073	-0,017
-404,511	148,247	-0,033	0,032
-403,496	-200,000	-0,031	-0,152
-402,482	-200,000	0,000	0,020
-401,467	-200,000	0,098	0,000
-400,452	-200,000	-0,010	0,106
-399,438	-200,000	0,025	-0,135
-398,423	-92,105	-0,050	0,010
-397,409	609,535	0,045	-0,081
-396,394	245,931	0,019	-0,022
-395,379	-200,000	-0,015	0,056
-394,365	-107,681	-0,059	0,009
-393,350	26,096	0,135	0,080
-392,336	-200,000	-0,022	0,101
-391,321	19,451	-0,115	-0,066
-390,306	59,323	0,016	0,011
-389,292	-38,280	-0,086	0,032
-388,277	793,471	-0,023	0,046
-387,263	-152,764	0,117	0,006
-386,248	-200,000	-0,021	0,090
-385,233	25,441	-0,047	-0,028
-384,219	-84,846	-0,090	-0,020
-383,204	331,326	-0,074	-0,102
-382,190	303,976	-0,047	0,063
-381,175	-200,000	0,056	0,186
-380,160	549,511	0,064	0,109
-379,146	-200,000	-0,001	0,061
-378,131	136,138	0,064	-0,060
-377,117	-125,508	0,030	-0,003
-376,102	264,308	-0,040	0,049
-375,088	101,036	0,152	0,127
-374,073	466,909	-0,083	-0,134
-373,058	211,032	0,143	0,161
-372,044	91,407	0,253	0,203
-371,029	-200,000	0,004	-0,018
-370,015	396,821	-0,077	-0,115
-369,000	274,028	0,067	-0,084
-367,985	-167,425	-0,050	0,001
-366,971	800,000	0,045	0,133
-365,956	-200,000	0,012	-0,062
-364,942	187,350	0,064	0,068
-363,927	800,000	-0,021	0,043
-362,912	65,135	0,012	0,009
-361,898	-75,528	-0,121	0,031
-360,883	800,000	-0,035	0,099
-359,869	83,131	-0,075	0,058
-358,854	64,879	0,129	-0,093
-357,839	-65,259	0,149	-0,042
-356,825	115,820	0,067	0,059
-355,810	194,847	-0,100	0,108
-354,796	77,793	-0,122	0,093
-353,781	-200,000	-0,016	0,139
-352,766	-103,034	-0,171	0,029
-351,752	-200,000	-0,023	0,098
-350,737	-99,087	0,159	-0,028
-349,723	-6,965	-0,143	-0,069
-348,708	-148,569	0,083	-0,005
-347,693	-177,830	0,077	-0,001
-346,679	-48,862	0,074	-0,025
-345,664	64,908	0,004	0,003
-344,650	64,939	0,120	-0,087
-343,635	226,433	0,070	-0,081
-342,620	-98,232	0,043	0,008
-341,606	348,096	-0,074	-0,104
-340,591	209,368	-0,085	-0,096
-339,577	202,279	-0,042	-0,047
-338,562	67,520	-0,014	0,010
-337,548	-200,000	-0,041	-0,166
-336,533	-200,000	-0,002	0,103
-335,518	262,270	0,093	0,115
-334,504	800,000	-0,040	-0,088
-333,489	216,559	0,019	0,021
-332,475	-30,833	-0,095	-0,038
-331,460	15,293	-0,089	0,050
-330,445	-46,202	-0,036	-0,012
-329,431	82,546	0,106	0,082
-328,416	-158,765	-0,092	0,004
-327,402	130,354	0,117	0,107
-326,387	800,000	-0,019	-0,056
-325,372	499,419	-0,063	-0,105
-324,358	156,695	0,042	-0,042
-323,343	-118,785	0,067	0,008
-322,329	268,820	-0,048	-0,060
-321,314	181,416	-0,146	-0,153
-320,299	43,623	0,056	0,036
-319,285	-107,197	-0,069	-0,011
-318,270	-37,841	0,019	0,007
-317,256	200,235	-0,035	-0,038
-316,241	-19,246	0,112	0,050
-315,226	-119,873	0,158	-0,019
-314,212	-113,972	0,163	0,022
-313,197	44,620	-0,066	0,043
-312,183	576,469	0,068	0,118
-311,168	-194,484	-0,119	0,001
-310,153	-119,073	0,152	0,019
-309,139	17,001	-0,146	-0,082
-308,124	658,790	0,004	0,006
-307,110	794,128	-0,064	-0,127
-306,095	-200,000	-0,008	0,072
-305,080	488,354	-0,004	-0,007
-304,066	79,662	-0,077	0,059
-303,051	97,277	0,026	0,021
-302,037	-134,416	-0,021	0,002
-301,022	-67,421	0,047	-0,013
-300,008	174,132	0,051	0,053
-298,993	-76,656	0,066	0,016
-297,978	-8,981	0,100	0,047
-296,964	-1,570	0,090	0,045
-295,949	-131,095	-0,106	0,010
-294,935	-76,629	-0,056	0,014
-293,920	-200,000	0,013	0,046
-292,905	-185,134	-0,041	0,000
-291,891	14,441	-0,038	0,021
-290,876	31,472	0,135	-0,083
-289,862	-70,683	-0,110	-0,029
-288,847	366,504	-0,072	-0,104
-287,832	-160,370	0,123	0,005
-286,818	795,075	-0,015	-0,030
-285,803	-200,000	-0,011	0,136
-284,789	-200,000	0,001	0,029
-283,774	18,185	-0,162	-0,092
-282,759	-200,000	-0,012	0,041
-281,745	-200,000	0,003	0,035
-280,730	-111,679	-0,073	-0,010
-279,716	-134,640	-0,039	-0,003
-278,701	8,054	0,122	0,065
-277,686	193,955	-0,077	0,083
-276,672	-200,000	-0,007	0,152
-275,657	800,000	0,039	-0,083
-274,643	136,895	-0,137	0,127
-273,628	-200,000	0,028	-0,093
-272,613	266,012	-0,039	0,049
-271,599	800,000	0,043	0,102
-270,584	-53,734	-0,097	-0,031
-269,570	245,064	0,011	-0,013
-268,555	-200,000	0,005	-0,045
-267,540	-82,037	-0,084	0,019
-266,526	407,533	-0,025	-0,038
-265,511	-11,815	0,064	-0,030
-264,497	800,000	0,028	0,086
-263,482	-68,383	-0,100	0,028
-262,467	272,301	-0,037	-0,047
-261,453	-70,860	0,117	-0,031
-260,438	-200,000	0,016	-0,110
-259,424	-200,000	-0,001	-0,170
-258,409	-71,799	-0,180	-0,047
-257,395	800,000	0,019	-0,054
-256,380	-200,000	0,018	-0,096
-255,365	-112,892	0,007	0,001
-254,351	-200,000	-0,006	0,092
-253,336	-153,537	0,038	-0,002
-252,322	319,430	0,085	0,115
-251,307	-200,000	-0,027	-0,131
-250,292	20,357	-0,066	-0,038
-249,278	800,000	0,053	0,151
-248,263	194,395	-0,017	-0,018
-247,249	141,837	-0,088	-0,082
-246,234	5,522	-0,137	-0,072
-245,219	-23,062	-0,090	-0,038
-244,205	-200,000	0,008	-0,033
-243,190	-152,519	0,114	-0,006
-242,176	708,658	0,011	-0,020
-241,161	-200,000	-0,016	0,107
-240,146	163,847	-0,043	0,043
-239,132	-149,273	-0,141	-0,008
-238,117	-200,000	0,016	0,066
-237,103	310,900	-0,055	0,073
-236,088	40,771	0,073	0,047
-235,073	184,745	-0,070	0,074
-234,059	205,024	0,034	0,037
-233,044	-47,305	-0,015	-0,005
-232,030	-200,000	-0,014	-0,082
-231,015	-169,539	-0,170	-0,004
-230,000	83,578	0,058	-0,045
-228,986	445,825	0,055	-0,087
-227,971	129,628	0,051	0,046
-226,957	280,391	-0,056	-0,072
-225,942	-200,000	0,003	0,075
-224,927	800,000	-0,046	0,112
-223,913	-200,000	0,042	-0,164
-222,898	-200,000	-0,011	0,088
-221,884	81,473	0,068	0,052
-220,869	-54,830	-0,072	-0,023
-219,855	232,172	0,029	0,034
-218,840	66,923	0,036	-0,026
-217,825	457,636	0,001	0,002
-216,811	800,000	-0,065	-0,194
-215,796	-134,797	0,041	-0,003
-214,782	-198,527	-0,028	0,000
-213,767	86,677	-0,091	-0,071
-212,752	263,993	-0,011	0,014
-211,738	800,000	-0,065	0,167
-210,723	-14,617	0,024	0,011
-209,709	266,000	0,137	-0,170
-208,694	-79,672	-0,176	-0,042
-207,679	-200,000	0,015	-0,167
-206,665	-27,660	0,106	0,043
-205,650	800,000	0,019	0,057
-204,636	-144,322	0,038	0,002
-203,621	-139,358	0,149	-0,011
-202,606	-200,000	0,011	0,048
-201,592	800,000	-0,062	0,124
-200,577	30,732	-0,020	-0,012
-199,563	800,000	0,034	-0,084
-198,548	-64,468	0,037	0,011
-197,533	-108,352	0,114	-0,017
-196,519	-53,612	0,193	-0,062
-195,504	52,718	-0,129	0,087
-194,490	-88,413	-0,033	-0,007
-193,475	800,000	0,007	-0,018
-192,460	-145,402	-0,041	-0,003
-191,446	800,000	0,046	0,119
-190,431	-68,951	-0,121	-0,033
-189,417	-80,611	-0,072	-0,017
-188,402	-140,020	0,012	-0,001
-187,387	-200,000	-0,009	-0,172
-186,373	-8,456	0,092	0,044
-185,358	389,131	0,049	0,073
-184,344	-43,682	-0,080	-0,029
-183,329	145,529	-0,084	0,080
-182,315	-200,000	0,031	0,122
-181,300	-42,604	0,050	0,018
-180,285	-26,833	-0,117	0,048
-179,271	85,409	0,080	0,062
-178,256	800,000	0,040	0,105
-177,242	-200,000	-0,003	0,021
-176,227	283,119	0,035	0,045
-175,212	1,256	0,180	-0,092
-174,198	339,729	0,077	-0,106
-173,183	-200,000	0,020	-0,073
-172,169	780,696	0,055	0,108
-171,154	-200,000	0,002	-0,014
-170,139	-174,083	0,080	0,002
-169,125	-138,915	0,023	-0,002
-168,110	-9,757	0,119	0,056
-167,096	-48,101	0,160	0,055
-166,081	596,298	-0,093	0,163
-165,066	-200,000	-0,008	-0,111
-164,052	-96,962	-0,032	-0,006
-163,037	-200,000	-0,006	-0,035
-162,023	-28,313	-0,075	-0,030
-161,008	23,515	0,078	0,045
-159,993	408,274	0,033	0,049
-158,979	144,999	0,103	-0,098
-157,964	101,871	-0,104	-0,086
-156,950	800,000	0,057	-0,129
-155,935	608,731	0,033	0,059
-154,920	-200,000	0,003	-0,079
-153,906	-200,000	-0,019	0,095
-152,891	101,414	0,110	0,091
-151,877	17,601	-0,087	-0,049
-150,862	-67,821	-0,075	0,021
-149,847	-200,000	0,035	0,121
-148,833	581,597	0,042	0,073
-147,818	-142,111	-0,059	-0,004
-146,804	-91,009	0,124	0,025
-145,789	32,877	0,181	-0,111
-144,775	408,762	-0,091	-0,137
-143,760	-56,677	-0,102	0,032
-142,745	393,138	-0,073	-0,108
-141,731	-103,088	0,102	0,017
-140,716	177,392	0,035	-0,036
-139,702	-200,000	0,010	0,054
-138,687	-20,313	-0,088	0,038
-137,672	800,000	0,062	-0,129
-136,658	486,682	-0,027	-0,043
-135,643	-200,000	-0,006	-0,056
-134,629	800,000	-0,055	0,129
-133,614	131,336	0,120	0,109
-132,599	-157,054	0,036	0,002
-131,585	-53,857	0,122	0,039
-130,570	-15,134	-0,137	0,062
-129,556	-100,446	0,103	-0,018
-128,541	-200,000	-0,006	-0,148
-127,526	800,000	-0,044	0,127
-126,512	194,538	0,091	0,098
-125,497	30,498	0,121	-0,073
-124,483	800,000	-0,043	0,113
-123,468	64,578	-0,052	0,037
-122,453	-5,610	-0,102	0,049
-121,439	125,858	-0,112	-0,101
-120,424	-200,000	0,010	0,067
-119,410	-200,000	-0,033	0,143
-118,395	21,393	0,102	0,058
-117,380	-21,586	0,046	0,020
-116,366	573,675	0,027	0,046
-115,351	800,000	0,018	0,042
-114,337	-46,267	0,025	0,009
-113,322	-200,000	-0,017	-0,084
-112,307	29,989	-0,050	-0,030
-111,293	-113,875	-0,072	0,010
-110,278	237,261	0,064	-0,075
-109,264	-10,869	0,048	0,022
-108,249	-65,123	-0,158	0,045
-107,234	-128,100	-0,094	0,009
-106,220	422,857	-0,024	0,036
-105,205	662,148	0,009	-0,017
-104,191	61,582	-0,054	0,038
-103,176	22,653	-0,074	-0,043
-102,162	-200,000	0,001	0,051
-101,147	22,721	-0,039	0,022
-100,132	29,792	-0,085	-0,051
-99,118	-98,779	0,055	0,010
-98,103	667,971	0,025	0,046
-97,089	800,000	0,062	0,129
-96,074	800,000	-0,036	0,086
-95,059	717,558	0,010	-0,018
-94,045	7,627	-0,163	-0,086
-93,030	-200,000	0,043	0,151
-92,016	-94,977	-0,059	-0,011
-91,001	132,445	-0,054	-0,049
-89,986	-25,716	-0,051	-0,021
-88,972	800,000	0,039	0,084
-87,957	800,000	-0,023	0,046
-86,943	270,892	-0,050	-0,063
-85,928	-127,079	-0,105	-0,011
-84,913	-161,686	-0,055	0,002
-83,899	-153,053	0,044	-0,002
-82,884	-10,838	0,100	0,046
-81,870	278,998	-0,033	0,041
-80,855	793,644	0,051	-0,100
-79,840	-104,674	-0,182	-0,029
-78,826	77,454	-0,052	-0,039
-77,811	-200,000	-0,020	0,071
-76,797	-200,000	-0,034	0,198
-75,782	418,002	-0,040	0,060
-74,767	216,238	-0,089	0,100
-73,753	-94,234	0,084	0,016
-72,738	166,640	0,022	-0,022
-71,724	-147,510	0,151	-0,009
-70,709	-34,097	-0,154	-0,059
-69,694	-200,000	0,096	-0,000
-68,680	800,000	-0,061	0,136
-67,665	-42,607	-0,062	0,022
-66,651	-17,706	0,048	0,021
-65,636	800,000	-0,060	0,117
-64,622	-200,000	0,015	0,074
-63,607	160,149	0,103	-0,101
-62,592	800,000	0,023	-0,065
-61,578	-200,000	0,110	-0,000
-60,563	443,896	-0,027	-0,042
-59,549	-5,457	0,055	-0,027
-58,534	49,568	-2,082	-1,381
-57,519	492,464	-1,192	-1,935
-56,505	-200,000	-0,367	-4,452
-55,490	584,270	0,901	1,568
-54,476	800,000	5,292	11,418
-53,461	-200,000	21,972	337,315
-52,446	800,000	758,543	2293,354
-51,432	532,343	1652,129	2769,286
-50,417	68,992	1650,044	1194,830
-49,403	16,495	1524,911	847,603
-48,388	10,717	1449,568	777,918
-47,373	19,032	1441,652	813,341
-46,359	14,078	1430,501	783,585
-45,344	8,988	1426,393	757,184
-44,330	8,974	1424,285	755,969
-43,315	8,932	1422,733	754,918
-42,300	8,968	1420,834	754,049
-41,286	8,980	1419,578	753,410
-40,271	8,912	1418,366	752,414
-39,257	8,942	1417,266	751,942
-38,242	8,948	1416,308	751,436
-37,227	8,933	1415,218	750,754
-36,213	8,916	1413,780	749,885
-35,198	8,983	1412,541	749,512
-34,184	9,005	1411,641	749,108
-33,169	8,922	1410,197	747,919
-32,154	8,933	1409,347	747,491
-31,140	8,980	1407,814	746,872
-30,125	9,014	1406,803	746,464
-29,111	8,962	1405,583	745,543
-28,096	8,946	1404,266	744,738
-27,082	8,890	1403,324	743,951
-26,067	8,855	1402,288	743,207
-25,052	8,917	1401,268	742,928
-24,038	8,904	1400,250	742,296
-23,023	8,881	1399,271	741,641
-22,009	8,896	1398,268	741,147
-20,994	8,959	1396,911	740,691
-19,979	8,913	1396,317	740,136
-18,965	8,941	1395,153	739,619
-17,950	8,872	1394,394	738,868
-16,936	8,824	1393,742	738,270
-15,921	8,782	1392,526	737,400
-14,906	8,858	1391,611	737,239
-13,892	8,880	1390,702	736,830
-12,877	8,830	1390,115	736,258
-11,863	8,792	1389,331	735,640
-10,848	8,786	1388,462	735,122
-9,833	8,746	1387,376	734,333
-8,819	8,758	1386,363	733,823
-7,804	8,739	1385,507	733,254
-6,790	8,705	1384,521	732,545
-5,775	8,687	1383,523	731,907
-4,760	8,754	1382,479	731,634
-3,746	8,717	1381,588	730,963
-2,731	8,766	1380,743	730,710
-1,717	8,731	1379,928	730,089
-0,702	8,755	1378,067	729,186
0,313	12,830	1289,584	700,862
1,327	28,840	681,774	406,419
2,342	44,979	117,446	76,129
3,356	1,048	16,446	8,290
4,371	20,223	3,551	2,016
5,386	1,755	1,232	0,624
6,400	800,000	0,218	0,632
7,415	368,912	-0,101	-0,144
8,429	71,768	-0,156	-0,114
9,444	-12,422	-0,371	-0,170
10,459	-41,871	-0,334	-0,120
11,473	-80,054	-0,436	-0,102
12,488	-164,513	-0,237	0,007
13,502	-98,573	-0,333	-0,059
14,517	231,634	-0,253	-0,292
15,531	166,666	-0,299	-0,299
16,546	368,092	-0,216	-0,309
17,561	153,137	-0,318	-0,307
18,575	-109,698	-0,233	-0,034
19,590	190,696	-0,214	-0,227
20,604	20,303	-0,341	-0,193
21,619	74,519	-0,471	-0,348
22,634	50,538	-0,483	-0,321
23,648	163,646	-0,400	-0,397
24,663	364,231	-0,246	-0,350
25,677	50,826	-0,419	-0,279
26,692	-37,698	-0,365	-0,136
27,707	162,709	-0,327	-0,323
28,721	217,033	-0,264	-0,296
29,736	25,088	-0,461	-0,268
30,750	-8,452	-0,523	-0,246
31,765	-81,737	-0,333	-0,076
32,780	31,746	-0,378	-0,228
33,794	75,437	-0,268	-0,199
34,809	148,947	-0,258	-0,245
35,823	37,758	-0,427	-0,266
36,838	102,995	-0,306	-0,252
37,853	-5,280	-0,414	-0,199
38,867	185,739	-0,342	-0,358
39,882	16,432	-0,337	-0,186
40,896	19,057	-0,384	-0,216
41,911	58,504	-0,379	-0,261
42,926	11,416	-0,437	-0,235
43,940	1,020	-0,289	-0,145
44,955	4,946	-0,378	-0,195
45,969	-17,170	-0,459	-0,202
46,984	150,026	-0,310	-0,296
47,999	58,427	-0,269	-0,185
49,013	-11,919	-0,383	-0,176
50,028	151,714	-0,298	-0,286
51,042	354,990	-0,263	-0,369
52,057	47,217	-0,412	-0,269
53,071	46,623	-0,377	-0,245
54,086	118,668	-0,194	-0,168
55,101	253,968	-0,293	-0,352
56,115	109,442	-0,303	-0,255
57,130	-26,326	-0,280	-0,115
58,144	-82,168	-0,412	-0,093
59,159	-48,446	-0,491	-0,165
60,174	86,517	-0,384	-0,297
61,188	0,324	-0,227	-0,113
62,203	99,087	-0,246	-0,200
63,217	20,758	-0,346	-0,196
64,232	-15,558	-0,240	-0,107
65,247	-7,063	-0,488	-0,232
66,261	-18,063	-0,386	-0,169
67,276	40,178	-0,372	-0,234
68,290	250,506	-0,255	-0,305
69,305	321,091	-0,324	-0,433
70,320	-27,263	-0,320	-0,130
71,334	146,382	-0,253	-0,239
72,349	-93,841	-0,398	-0,076
73,363	127,687	-0,224	-0,199
74,378	112,689	-0,346	-0,293
75,393	226,155	-0,177	-0,202
76,407	-10,445	-0,338	-0,156
77,422	147,783	-0,337	-0,318
78,436	94,574	-0,279	-0,222
79,451	1,051	-0,333	-0,167
80,466	-17,678	-0,217	-0,095
81,480	-107,072	-0,261	-0,040
82,495	-11,014	-0,153	-0,071
83,509	111,893	-0,231	-0,195
84,524	391,859	-0,102	-0,149
85,539	7,162	-0,274	-0,143
86,553	-2,188	-0,224	-0,110
87,568	152,857	-0,354	-0,339
88,582	-46,871	-0,405	-0,138
89,597	-35,477	-0,312	-0,118
90,611	-11,973	-0,264	-0,121
91,626	449,768	-0,161	-0,250
92,641	-55,916	-0,274	-0,085
93,655	-3,548	-0,266	-0,129
94,670	42,936	-0,200	-0,128
95,684	20,317	-0,359	-0,202
96,699	148,068	-0,220	-0,208
97,714	55,532	-0,295	-0,199
98,728	107,003	-0,366	-0,304
99,743	-14,517	-0,262	-0,118
100,757	-95,997	-0,337	-0,062
101,772	66,434	-0,260	-0,184
102,787	129,151	-0,235	-0,209
103,801	171,755	-0,205	-0,206
104,816	158,008	-0,167	-0,162
105,830	47,240	-0,218	-0,141
106,845	-95,738	-0,288	-0,053
107,860	-50,664	-0,172	-0,056
108,874	68,440	-0,349	-0,250
109,889	107,837	-0,264	-0,220
110,903	392,829	-0,113	-0,165
111,918	800,000	-0,109	-0,300
112,933	78,804	-0,295	-0,220
113,947	-50,279	-0,252	-0,083
114,962	-146,370	-0,375	-0,023
115,976	146,455	-0,208	-0,195
116,991	70,779	-0,228	-0,165
118,006	205,396	-0,207	-0,225
119,020	106,863	-0,239	-0,198
120,035	59,840	-0,286	-0,197
121,049	800,000	-0,093	-0,188
122,064	296,694	-0,142	-0,182
123,079	185,169	-0,277	-0,288
124,093	262,194	-0,197	-0,239
125,108	-43,205	-0,349	-0,123
126,122	85,152	-0,233	-0,178
127,137	-72,416	-0,169	-0,043
128,151	64,167	-0,238	-0,167
129,166	74,927	-0,275	-0,202
130,181	-100,588	-0,256	-0,044
131,195	800,000	-0,046	-0,120
132,210	71,632	-0,407	-0,295
133,224	170,900	-0,311	-0,311
134,239	117,585	-0,161	-0,138
135,254	291,036	-0,098	-0,124
136,268	-136,660	-0,226	-0,018
137,283	-131,761	-0,242	-0,022
138,297	88,187	-0,310	-0,240
139,312	18,400	-0,289	-0,160
140,327	-139,620	-0,093	0,007
141,341	-50,217	-0,397	-0,130
142,356	-92,541	-0,228	-0,044
143,370	15,234	-0,260	-0,142
144,385	110,658	-0,246	-0,206
145,400	320,342	-0,212	-0,282
146,414	61,750	-0,218	-0,151
147,429	95,475	-0,263	-0,209
148,443	61,805	-0,218	-0,151
149,458	-117,872	-0,236	-0,029
150,473	212,669	-0,177	-0,195
151,487	136,498	-0,174	-0,158
152,502	47,653	-0,245	-0,159
153,516	147,738	-0,193	-0,181
154,531	727,564	-0,181	-0,337
155,546	352,628	-0,156	-0,216
156,560	47,553	-0,186	-0,120
157,575	155,466	-0,212	-0,203
158,589	132,872	-0,203	-0,183
159,604	-24,315	-0,249	-0,103
160,619	152,379	-0,319	-0,303
161,633	62,534	-0,209	-0,145
162,648	-200,000	0,019	-0,156
163,662	-71,610	-0,319	-0,082
164,677	-97,623	-0,178	0,032
165,692	-142,104	-0,257	0,018
166,706	800,000	-0,140	-0,295
167,721	103,076	-0,235	-0,191
168,735	-9,163	-0,333	-0,154
169,750	465,389	-0,146	-0,227
170,764	1,769	-0,157	-0,078
171,779	5,826	-0,151	-0,077
172,794	-157,230	-0,415	-0,017
173,808	-22,970	-0,296	-0,123
174,823	57,904	-0,177	-0,120
175,837	21,470	-0,256	-0,144
176,852	39,828	-0,246	-0,153
177,867	179,677	0,082	-0,083
178,881	27,705	-0,241	-0,140
179,896	54,241	-0,223	-0,149
180,910	188,399	-0,181	-0,188
181,925	143,668	-0,261	-0,241
182,940	71,571	-0,287	-0,207
183,954	-69,868	-0,213	-0,056
184,969	145,034	-0,241	-0,224
185,983	-18,849	-0,268	-0,115
186,998	32,849	-0,182	-0,109
188,013	-68,712	-0,260	-0,069
189,027	164,239	-0,157	-0,154
190,042	73,548	-0,188	-0,136
191,056	98,378	-0,245	-0,196
192,071	183,430	-0,176	-0,181
193,086	261,792	-0,146	-0,176
194,100	355,026	-0,163	-0,225
195,115	332,204	-0,128	-0,172
196,129	-88,867	-0,307	-0,063
197,144	800,000	-0,089	-0,217
198,159	-73,190	-0,254	-0,064
199,173	105,759	-0,278	-0,228
200,188	138,165	-0,103	-0,093
201,202	-34,602	-0,256	-0,097
202,217	109,501	-0,315	-0,262
203,232	61,759	-0,202	-0,139
204,246	-45,421	-0,207	-0,071
205,261	345,728	-0,204	-0,278
206,275	-29,053	-0,333	-0,132
207,290	91,835	-0,163	-0,127
208,304	20,978	-0,158	-0,089
209,319	314,114	-0,101	-0,132
210,334	55,692	-0,207	-0,139
211,348	192,480	-0,079	-0,082
212,363	-200,000	0,012	-0,100
213,377	155,395	-0,185	-0,176
214,392	38,112	-0,154	-0,095
215,407	-200,000	-0,012	-0,142
216,421	-3,721	-0,205	-0,098
217,436	82,247	-0,248	-0,186
218,450	148,152	-0,113	-0,106
219,465	192,618	-0,156	-0,163
220,480	279,568	-0,119	-0,147
221,494	64,358	-0,268	-0,186
222,509	-200,000	-0,043	-0,172
223,523	51,948	-0,257	-0,169
224,538	289,649	-0,148	-0,186
225,553	-142,753	-0,294	0,020
226,567	357,042	-0,139	-0,192
227,582	800,000	-0,085	-0,259
228,596	68,165	-0,164	-0,116
229,611	-7,951	-0,168	-0,078
230,626	-11,953	-0,170	-0,077
231,640	235,151	-0,072	-0,082
232,655	-93,588	-0,205	-0,039
233,669	-16,191	-0,189	-0,083
234,684	-92,095	-0,134	-0,026
235,699	800,000	-0,075	-0,165
236,713	-200,000	-0,052	-0,275
237,728	145,309	-0,089	-0,083
238,742	-1,571	-0,124	0,060
239,757	-21,854	-0,307	-0,128
240,772	281,317	-0,254	-0,314
241,786	10,107	-0,172	-0,090
242,801	30,422	-0,221	-0,130
243,815	800,000	-0,079	-0,182
244,830	446,588	-0,103	-0,158
245,844	66,650	-0,180	-0,127
246,859	40,800	-0,183	-0,114
247,874	-22,105	-0,250	-0,104
248,888	-45,083	-0,228	-0,078
249,903	40,402	-0,157	-0,097
250,917	149,705	-0,097	-0,091
251,932	211,424	-0,107	-0,116
252,947	-167,660	-0,093	0,002
253,961	351,854	-0,188	-0,257
254,976	-78,277	-0,119	-0,028
255,990	48,089	-0,271	-0,174
257,005	-106,595	-0,210	-0,032
258,020	237,499	-0,161	-0,185
259,034	-2,315	-0,161	-0,078
260,049	-179,922	-0,180	-0,003
261,063	476,132	-0,126	-0,197
262,078	750,814	-0,086	-0,161
263,093	23,604	-0,203	-0,115
264,107	50,899	-0,159	-0,103
265,122	509,375	-0,093	-0,150
266,136	-57,766	-0,126	-0,038
267,151	24,852	-0,188	-0,107
268,166	-32,957	-0,064	-0,024
269,180	65,090	-0,188	-0,131
270,195	-200,000	-0,059	-0,204
271,209	94,072	-0,103	-0,080
272,224	-148,691	-0,190	0,010
273,239	49,915	-0,132	-0,085
274,253	-87,091	-0,182	-0,038
275,268	135,125	-0,165	-0,148
276,282	62,374	-0,193	-0,132
277,297	-95,022	-0,161	0,030
278,312	314,799	-0,127	-0,166
279,326	68,325	-0,182	-0,128
280,341	-110,687	-0,176	-0,025
281,355	147,455	-0,107	-0,100
282,370	231,828	-0,168	-0,190
283,384	318,134	-0,096	-0,125
284,399	309,285	-0,177	-0,229
285,414	502,667	-0,063	-0,100
286,428	78,655	-0,141	-0,104
287,443	357,000	-0,199	-0,273
288,457	-78,260	-0,048	0,011
289,472	5,431	-0,073	-0,037
290,487	-66,420	-0,215	-0,058
291,501	89,460	-0,149	-0,114
292,516	-56,931	-0,250	-0,075
293,530	171,133	-0,020	-0,020
294,545	375,343	-0,137	-0,192
295,560	-83,686	-0,141	-0,031
296,574	-37,998	-0,172	-0,062
297,589	10,755	-0,144	-0,075
298,603	57,200	-0,220	-0,147
299,618	-25,750	-0,223	-0,090
300,633	800,000	-0,056	-0,130
301,647	-173,155	-0,152	-0,003
302,662	168,767	-0,050	0,049
303,676	80,811	-0,127	-0,094
304,691	129,003	-0,149	-0,130
305,706	28,141	-0,052	-0,030
306,720	-6,298	-0,211	-0,098
307,735	15,274	-0,033	-0,018
308,749	-75,883	-0,199	-0,048
309,764	-87,164	-0,121	-0,025
310,779	-3,723	-0,162	-0,077
311,793	-200,000	-0,023	-0,097
312,808	340,142	-0,169	-0,227
313,822	416,340	-0,113	-0,166
314,837	398,249	-0,146	-0,210
315,852	68,207	-0,128	-0,090
316,866	800,000	-0,050	0,134
317,881	254,595	-0,066	-0,078
318,895	117,035	-0,265	-0,223
319,910	376,652	-0,099	-0,139
320,925	226,452	-0,117	-0,131
321,939	592,660	-0,144	-0,246
322,954	14,640	-0,248	-0,132
323,968	328,410	-0,100	-0,133
324,983	800,000	-0,103	-0,207
325,997	-78,718	-0,153	-0,036
327,012	126,886	-0,253	-0,220
328,027	326,622	-0,169	-0,222
329,041	-193,745	-0,153	0,001
330,056	472,277	-0,066	-0,102
331,070	-30,847	-0,200	-0,077
332,085	-200,000	0,047	-0,199
333,100	800,000	-0,081	-0,178
334,114	492,830	-0,096	-0,152
335,129	-15,487	-0,318	-0,138
336,143	201,275	-0,131	-0,139
337,158	768,339	-0,106	-0,198
338,173	2,566	-0,155	-0,077
339,187	-50,023	-0,095	0,031
340,202	-12,277	-0,209	0,093
341,216	-65,714	-0,248	-0,068
342,231	465,532	-0,099	-0,152
343,246	-106,530	-0,120	-0,018
344,260	-89,814	-0,150	-0,030
345,275	800,000	-0,077	-0,206
346,289	740,981	0,010	-0,019
347,304	87,802	-0,149	-0,113
348,319	366,086	-0,134	-0,185
349,333	-200,000	-0,033	-0,280
350,348	-67,430	-0,039	-0,010
351,362	-3,420	-0,048	-0,023
352,377	-158,368	-0,086	0,003
353,392	483,976	-0,087	-0,136
354,406	800,000	-0,063	-0,158
355,421	207,419	1306,283	1395,124
356,435	159,567	1465,924	1395,599
