DTS Sentinel unit serial number:	SN410029Multiplexer serial number:	ORYXHardware model number:	OX2-SRSoftware version number:	ORYX F/W v4,00 Oryx Data Collector v3.7.2.0data status	okinstallation	B3 Nyhavnadifferential loss correction	single-endedforward channel	channel 1reverse channel	N/Adate	2023/12/04time	22:27:30forward acquisition time	300,00reverse acquisition time	0,00gamma	499,1914k internal	0,3201k external	0,3201temperature offset calibration	1,0000default loss term (dB/km)	0,3820temperature slope calibration	1,0000multiplexer offset coefficient	1,0000multiplexer slope coefficient	1,0000fibre end	0,00T internal ref (°C)	14,50T ext. ref 1 (°C)	-0,75T ext. ref 2 (°C)	-0,75length (m)	temperature (°C)	Stokes	anti-Stokes-744,400	208,233	-0,284	-0,324
-743,385	-200,000	-0,005	0,284
-742,371	800,000	-0,082	-0,256
-741,356	-200,000	-0,003	0,254
-740,342	-66,079	-0,159	-0,046
-739,327	-200,000	0,005	0,180
-738,312	314,231	-0,214	-0,294
-737,298	-200,000	-0,055	0,238
-736,283	440,149	-0,138	-0,220
-735,269	-200,000	-0,063	0,349
-734,254	175,833	-0,206	-0,217
-733,239	414,597	-0,179	0,278
-732,225	-19,377	-0,072	-0,032
-731,210	800,000	0,048	0,145
-730,196	299,018	-0,097	-0,130
-729,181	-133,883	-0,121	0,011
-728,167	354,766	0,036	0,052
-727,152	119,543	-0,046	0,041
-726,137	-200,000	0,011	0,193
-725,123	800,000	-0,046	0,101
-724,108	-140,879	-0,085	0,006
-723,094	-200,000	0,011	-0,042
-722,079	111,726	-0,056	-0,049
-721,064	68,939	0,050	-0,037
-720,050	-103,056	-0,126	-0,021
-719,035	30,266	-0,099	0,061
-718,021	183,493	-0,082	0,089
-717,006	-127,499	-0,030	-0,003
-715,991	800,000	-0,060	-0,155
-714,977	800,000	-0,037	0,091
-713,962	-153,716	-0,097	-0,005
-712,948	-73,620	0,067	0,018
-711,933	-200,000	-0,018	0,085
-710,918	27,030	-0,177	-0,107
-709,904	88,166	-0,086	-0,069
-708,889	143,403	-0,099	-0,095
-707,875	-70,004	-0,013	0,004
-706,860	-58,694	-0,216	-0,068
-705,845	81,278	-0,050	0,039
-704,831	510,273	-0,090	0,153
-703,816	-158,857	0,062	-0,003
-702,802	-18,143	-0,115	0,052
-701,787	425,052	-0,064	-0,100
-700,772	115,108	0,099	-0,088
-699,758	-161,338	-0,115	-0,004
-698,743	-200,000	0,003	0,043
-697,729	233,759	0,076	0,091
-696,714	-200,000	0,020	0,166
-695,699	-26,549	0,148	0,063
-694,685	112,518	-0,041	-0,036
-693,670	51,553	-0,042	-0,029
-692,656	153,827	-0,065	-0,065
-691,641	-52,917	-0,099	0,033
-690,627	800,000	0,034	0,068
-689,612	411,569	0,029	-0,045
-688,597	34,076	-0,080	-0,051
-687,583	-200,000	-0,021	-0,079
-686,568	344,489	-0,058	-0,082
-685,554	100,850	-0,123	-0,104
-684,539	61,777	-0,081	-0,059
-683,524	-200,000	-0,003	0,116
-682,510	-200,000	-0,002	-0,070
-681,495	-181,401	-0,173	-0,002
-680,481	-130,824	-0,104	-0,010
-679,466	-64,510	-0,121	-0,036
-678,451	106,104	-0,111	-0,095
-677,437	258,898	0,104	-0,131
-676,422	-200,000	0,006	-0,070
-675,408	-200,000	0,019	-0,095
-674,393	65,820	-0,091	0,067
-673,378	-200,000	-0,008	-0,040
-672,364	503,596	-0,012	0,020
-671,349	-37,685	-0,088	-0,034
-670,335	300,931	-0,057	0,076
-669,320	-200,000	0,053	0,209
-668,305	-148,308	-0,070	-0,004
-667,291	404,738	-0,101	-0,155
-666,276	-3,184	-0,155	-0,078
-665,262	-16,167	-0,070	-0,032
-664,247	69,012	0,128	-0,095
-663,232	-58,788	-0,085	-0,027
-662,218	55,513	0,037	0,026
-661,203	-200,000	-0,004	0,119
-660,189	800,000	0,026	-0,059
-659,174	123,410	-0,109	0,099
-658,159	-131,907	-0,218	-0,020
-657,145	-200,000	0,015	0,049
-656,130	109,133	0,092	-0,080
-655,116	116,518	-0,054	0,048
-654,101	-200,000	-0,003	-0,033
-653,086	25,395	-0,052	-0,031
-652,072	20,989	0,117	-0,068
-651,057	-200,000	0,017	0,106
-650,043	800,000	0,057	-0,131
-649,028	-42,791	0,099	0,036
-648,014	-200,000	0,016	0,117
-646,999	-5,599	-0,088	0,043
-645,984	-200,000	-0,000	-0,018
-644,970	-149,992	0,066	-0,004
-643,955	800,000	-0,026	-0,055
-642,941	478,386	-0,031	-0,051
-641,926	-107,556	-0,093	-0,015
-640,911	-11,376	-0,102	0,048
-639,897	-55,453	0,077	0,025
-638,882	-33,332	0,048	-0,019
-637,868	-200,000	-0,006	-0,157
-636,853	-200,000	-0,023	0,080
-635,838	-102,822	0,086	-0,015
-634,824	259,346	0,040	-0,051
-633,809	800,000	0,021	-0,066
-632,795	-52,511	-0,058	-0,019
-631,780	111,195	-0,027	0,023
-630,765	126,746	0,094	-0,086
-629,751	-143,656	-0,200	0,014
-628,736	800,000	-0,061	-0,143
-627,722	-200,000	-0,035	-0,112
-626,707	-83,547	-0,021	-0,005
-625,692	480,188	-0,029	-0,047
-624,678	390,154	-0,074	0,112
-623,663	-200,000	0,005	-0,059
-622,649	800,000	0,043	-0,093
-621,634	-200,000	-0,018	-0,112
-620,619	-200,000	-0,019	0,143
-619,605	155,962	-0,113	0,113
-618,590	290,443	0,045	-0,059
-617,576	-200,000	0,019	0,093
-616,561	133,623	0,094	0,088
-615,546	458,225	-0,092	0,149
-614,532	607,439	-0,025	0,045
-613,517	-66,776	-0,092	0,026
-612,503	-138,427	-0,057	-0,004
-611,488	-200,000	0,006	0,164
-610,474	-200,000	0,027	0,091
-609,459	-200,000	-0,011	0,157
-608,444	-51,561	0,058	-0,020
-607,430	-170,760	-0,008	-0,000
-606,415	500,121	-0,140	-0,234
-605,401	32,454	-0,024	-0,015
-604,386	-139,458	0,161	0,012
-603,371	385,967	-0,033	0,049
-602,357	800,000	0,027	0,063
-601,342	180,842	0,069	-0,073
-600,328	-57,895	-0,092	-0,029
-599,313	-92,041	0,136	-0,028
-598,298	53,441	0,022	0,016
-597,284	-200,000	-0,012	-0,144
-596,269	-112,301	-0,095	-0,014
-595,255	-96,458	0,085	-0,016
-594,240	-72,169	-0,039	0,010
-593,225	15,261	-0,097	-0,055
-592,211	-22,914	-0,049	-0,021
-591,196	-200,000	0,009	-0,069
-590,182	277,083	-0,039	0,050
-589,167	-196,476	-0,021	0,000
-588,152	-52,006	0,052	-0,018
-587,138	528,403	0,010	0,017
-586,123	36,979	-0,045	-0,028
-585,109	-132,229	0,136	0,013
-584,094	157,839	0,027	-0,027
-583,079	153,543	0,088	-0,087
-582,065	800,000	0,029	0,066
-581,050	-85,282	0,195	0,044
-580,036	503,544	-0,078	-0,130
-579,021	-200,000	-0,043	-0,185
-578,006	97,842	-0,064	-0,053
-576,992	-200,000	-0,001	-0,022
-575,977	-56,832	-0,041	0,013
-574,963	10,737	0,095	0,052
-573,948	-200,000	0,019	0,075
-572,934	193,113	-0,064	0,070
-571,919	-178,595	0,078	0,001
-570,904	363,870	-0,007	-0,010
-569,890	514,795	-0,056	0,094
-568,875	24,951	0,115	0,069
-567,861	75,406	-0,078	-0,059
-566,846	642,149	-0,050	-0,093
-565,831	84,468	0,033	0,026
-564,817	57,861	-0,074	0,052
-563,802	85,996	-0,137	-0,109
-562,788	-200,000	0,000	0,162
-561,773	129,906	0,080	0,074
-560,758	800,000	0,014	0,037
-559,744	-62,467	-0,144	0,043
-558,729	-164,010	0,092	-0,003
-557,715	5,812	-0,101	-0,054
-556,700	-200,000	0,022	-0,094
-555,685	-200,000	-0,005	0,057
-554,671	721,387	0,056	-0,107
-553,656	118,246	0,055	0,049
-552,642	-200,000	-0,016	0,134
-551,627	-200,000	-0,004	-0,074
-550,612	-87,402	-0,066	0,014
-549,598	59,706	-0,066	0,047
-548,583	242,329	0,107	0,130
-547,569	459,695	0,029	0,046
-546,554	49,394	0,082	-0,055
-545,539	-63,182	0,098	-0,029
-544,525	573,754	0,070	-0,123
-543,510	-49,350	0,038	0,013
-542,496	-200,000	0,005	-0,104
-541,481	-97,642	-0,120	-0,022
-540,466	-84,810	0,079	-0,018
-539,452	800,000	0,010	0,028
-538,437	293,410	0,072	0,096
-537,423	77,254	-0,062	-0,047
-536,408	717,094	-0,021	0,041
-535,393	163,937	0,008	0,008
-534,379	91,574	-0,069	-0,056
-533,364	3,043	-0,088	-0,046
-532,350	-143,202	0,065	-0,004
-531,335	-138,326	0,108	-0,008
-530,321	574,213	-0,066	-0,117
-529,306	36,758	-0,097	-0,062
-528,291	-200,000	-0,034	-0,127
-527,277	282,246	-0,082	-0,106
-526,262	-200,000	-0,024	-0,130
-525,248	-200,000	-0,005	0,131
-524,233	3,357	0,089	0,046
-523,218	261,474	0,017	0,021
-522,204	800,000	0,044	0,107
-521,189	297,479	0,036	-0,048
-520,175	50,267	0,071	-0,049
-519,160	339,914	-0,043	0,061
-518,145	-200,000	0,013	0,133
-517,131	35,240	-0,031	0,020
-516,116	78,749	0,091	0,070
-515,102	-159,083	0,067	0,003
-514,087	-63,865	-0,102	0,030
-513,072	-75,463	0,114	-0,029
-512,058	4,490	0,090	-0,048
-511,043	66,110	0,080	-0,058
-510,029	800,000	0,015	-0,045
-509,014	-200,000	-0,008	0,029
-507,999	772,495	0,017	-0,034
-506,985	800,000	-0,052	-0,122
-505,970	244,910	-0,081	-0,098
-504,956	800,000	-0,037	-0,090
-503,941	800,000	-0,041	-0,119
-502,926	9,268	0,203	-0,110
-501,912	800,000	0,025	0,061
-500,897	-43,281	0,097	0,035
-499,883	130,435	0,071	0,066
-498,868	-47,404	-0,053	-0,018
-497,853	800,000	-0,018	0,041
-496,839	-143,451	-0,083	-0,006
-495,824	165,232	-0,049	-0,050
-494,810	59,814	-0,054	0,039
-493,795	-200,000	0,009	0,195
-492,781	62,951	0,085	0,061
-491,766	-107,438	-0,147	-0,023
-490,751	69,118	-0,040	-0,030
-489,737	-36,119	0,062	-0,024
-488,722	-20,746	-0,010	-0,004
-487,708	476,215	-0,060	0,098
-486,693	-81,986	-0,099	-0,023
-485,678	19,408	-0,127	-0,073
-484,664	273,956	-0,090	-0,115
-483,649	-124,021	-0,137	0,015
-482,635	14,112	0,067	-0,038
-481,620	-200,000	0,006	0,070
-480,605	-200,000	0,068	0,240
-479,591	-200,000	-0,001	0,081
-478,576	-200,000	0,053	0,178
-477,562	28,046	0,015	-0,009
-476,547	800,000	-0,060	-0,128
-475,532	-193,317	0,019	0,000
-474,518	17,492	0,099	-0,057
-473,503	-148,604	0,047	0,003
-472,489	63,400	0,156	0,113
-471,474	143,338	0,063	0,061
-470,459	-36,385	-0,045	-0,018
-469,445	729,576	0,035	-0,067
-468,430	637,746	0,057	0,104
-467,416	-200,000	0,003	0,025
-466,401	258,483	0,081	0,100
-465,386	78,175	0,136	0,104
-464,372	800,000	-0,039	0,090
-463,357	478,350	-0,021	-0,035
-462,343	338,461	0,047	-0,066
-461,328	-57,093	0,038	0,012
-460,313	-84,175	0,085	0,019
-459,299	-200,000	-0,049	-0,178
-458,284	-200,000	-0,006	-0,086
-457,270	218,825	0,025	-0,028
-456,255	-10,094	-0,090	-0,043
-455,241	364,908	-0,076	-0,110
-454,226	-67,863	-0,166	0,046
-453,211	-184,198	0,057	0,001
-452,197	27,075	-0,040	-0,024
-451,182	800,000	0,065	0,165
-450,168	79,601	0,055	0,043
-449,153	508,771	0,015	-0,026
-448,138	442,902	-0,061	-0,097
-447,124	-200,000	-0,019	-0,089
-446,109	-200,000	-0,007	-0,081
-445,095	800,000	0,029	-0,083
-444,080	117,601	0,061	0,054
-443,065	-200,000	0,004	0,092
-442,051	-6,219	0,051	-0,025
-441,036	-154,777	-0,039	-0,002
-440,022	687,366	-0,036	-0,068
-439,007	12,766	-0,161	-0,089
-437,992	128,581	0,020	-0,018
-436,978	87,812	-0,089	-0,071
-435,963	-49,976	0,147	0,050
-434,949	405,796	-0,091	0,138
-433,934	160,220	0,045	0,045
-432,919	371,898	-0,060	0,087
-431,905	-200,000	-0,025	-0,137
-430,890	-200,000	0,007	-0,041
-429,876	-200,000	0,020	0,118
-428,861	-0,023	-0,034	-0,017
-427,846	-114,875	0,048	-0,007
-426,832	225,819	0,074	-0,087
-425,817	-200,000	0,001	-0,014
-424,803	800,000	0,018	-0,051
-423,788	133,818	0,046	0,043
-422,773	34,875	0,108	0,068
-421,759	-107,475	0,047	-0,007
-420,744	259,876	-0,044	0,055
-419,730	-80,525	-0,076	0,018
-418,715	74,042	-0,110	-0,082
-417,701	-166,658	-0,125	0,004
-416,686	12,372	0,105	0,058
-415,671	-146,056	-0,058	0,004
-414,657	99,726	-0,087	0,072
-413,642	-65,707	-0,149	-0,043
-412,628	-101,526	-0,112	-0,019
-411,613	-79,571	-0,090	-0,022
-410,598	800,000	0,052	-0,128
-409,584	-36,431	0,057	0,022
-408,569	179,676	-0,071	-0,074
-407,555	109,410	-0,082	0,070
-406,540	263,944	0,040	0,050
-405,525	-200,000	-0,028	-0,097
-404,511	189,752	-0,089	0,096
-403,496	-200,000	0,007	-0,138
-402,482	99,413	-0,016	-0,013
-401,467	-45,346	0,034	0,012
-400,452	-132,379	0,096	-0,009
-399,438	-32,957	-0,111	0,044
-398,423	555,459	0,037	-0,064
-397,409	800,000	-0,037	-0,077
-396,394	7,176	-0,141	0,075
-395,379	10,549	-0,064	-0,035
-394,365	-200,000	0,010	-0,076
-393,350	376,639	0,050	0,073
-392,336	800,000	0,035	0,071
-391,321	-150,076	0,131	0,007
-390,306	-170,772	0,023	0,001
-389,292	32,558	-0,116	-0,072
-388,277	-141,057	0,106	0,008
-387,263	800,000	-0,006	0,014
-386,248	-65,607	0,099	0,028
-385,233	87,793	-0,059	0,047
-384,219	-200,000	0,004	0,036
-383,204	-200,000	0,011	0,063
-382,190	-200,000	0,051	-0,196
-381,175	-36,237	0,091	-0,035
-380,160	-74,061	0,067	0,017
-379,146	125,463	0,089	0,080
-378,131	800,000	-0,085	0,195
-377,117	92,218	0,099	0,080
-376,102	66,589	-0,070	-0,051
-375,088	121,902	-0,165	0,147
-374,073	800,000	-0,053	0,137
-373,058	800,000	0,034	-0,093
-372,044	14,177	-0,050	0,028
-371,029	-200,000	0,047	0,210
-370,015	-200,000	0,016	0,102
-369,000	231,669	-0,050	-0,059
-367,985	361,564	-0,051	0,074
-366,971	-117,395	0,068	-0,009
-365,956	800,000	0,093	-0,210
-364,942	-200,000	0,011	-0,041
-363,927	559,889	-0,050	0,087
-362,912	45,650	0,107	-0,070
-361,898	111,898	-0,135	-0,117
-360,883	493,115	0,030	-0,050
-359,869	57,281	0,058	0,041
-358,854	-200,000	-0,007	-0,040
-357,839	91,735	-0,045	0,036
-356,825	560,801	-0,039	0,067
-355,810	232,661	-0,045	-0,053
-354,796	-200,000	0,000	-0,178
-353,781	482,963	-0,059	-0,097
-352,766	-200,000	-0,020	-0,104
-351,752	203,910	0,062	-0,069
-350,737	110,664	0,089	0,077
-349,723	-200,000	-0,026	0,128
-348,708	-61,618	0,102	-0,030
-347,693	-163,027	0,083	0,003
-346,679	87,695	0,038	-0,030
-345,664	-200,000	0,001	-0,108
-344,650	224,472	0,041	-0,048
-343,635	-59,866	0,106	0,032
-342,620	59,662	0,074	-0,052
-341,606	119,977	-0,062	0,055
-340,591	55,758	0,043	0,029
-339,577	-44,905	-0,031	0,011
-338,562	-200,000	-0,008	-0,037
-337,548	-108,562	0,105	0,016
-336,533	800,000	-0,015	0,047
-335,518	74,077	-0,075	0,056
-334,504	-200,000	-0,008	-0,051
-333,489	-196,630	-0,091	-0,000
-332,475	800,000	0,048	-0,126
-331,460	-200,000	-0,018	-0,138
-330,445	59,474	0,124	0,087
-329,431	-75,560	0,043	-0,011
-328,416	33,065	0,107	-0,066
-327,402	-5,474	0,089	0,044
-326,387	-35,733	0,071	0,027
-325,372	134,439	-0,103	0,096
-324,358	-76,023	0,128	-0,032
-323,343	88,736	0,011	-0,009
-322,329	-106,669	0,062	-0,010
-321,314	-200,000	0,013	0,044
-320,299	-174,691	0,132	-0,003
-319,285	247,433	-0,097	0,117
-318,270	-75,044	0,062	0,016
-317,256	-200,000	0,018	0,068
-316,241	-134,762	-0,092	-0,008
-315,226	415,945	0,050	-0,077
-314,212	113,935	-0,051	-0,044
-313,197	112,226	0,064	-0,056
-312,183	800,000	-0,070	-0,148
-311,168	71,337	-0,060	0,045
-310,153	-61,359	0,056	0,017
-309,139	800,000	-0,057	-0,152
-308,124	405,332	-0,019	0,028
-307,110	153,686	0,030	0,029
-306,095	-200,000	0,020	0,124
-305,080	800,000	-0,060	-0,147
-304,066	45,652	0,009	0,006
-303,051	315,766	-0,108	0,146
-302,037	-200,000	-0,009	-0,155
-301,022	-200,000	0,005	0,022
-300,008	57,241	0,050	-0,035
-298,993	-45,497	0,078	-0,028
-297,978	373,709	-0,044	-0,064
-296,964	-200,000	-0,005	-0,207
-295,949	232,675	0,094	0,110
-294,935	451,331	-0,052	-0,082
-293,920	-200,000	0,005	-0,025
-292,905	-25,182	-0,137	0,058
-291,891	111,986	0,007	0,006
-290,876	112,229	-0,065	0,056
-289,862	800,000	-0,061	0,167
-288,847	-200,000	0,013	-0,067
-287,832	-200,000	-0,039	0,168
-286,818	-200,000	0,016	0,143
-285,803	79,910	0,139	0,106
-284,789	-92,794	-0,081	0,016
-283,774	77,923	-0,152	0,116
-282,759	-200,000	0,011	0,060
-281,745	182,678	-0,088	-0,093
-280,730	31,432	-0,140	-0,086
-279,716	-157,589	-0,055	-0,002
-278,701	552,302	0,007	0,012
-277,686	573,897	0,051	0,089
-276,672	519,612	0,040	0,067
-275,657	800,000	0,025	-0,078
-274,643	-16,923	-0,087	-0,039
-273,628	-200,000	0,017	0,179
-272,613	-98,963	0,021	-0,004
-271,599	301,441	-0,060	-0,079
-270,584	240,836	0,156	0,187
-269,570	800,000	0,056	0,114
-268,555	-200,000	-0,007	-0,039
-267,540	404,168	-0,027	-0,041
-266,526	800,000	0,045	-0,112
-265,511	-103,668	-0,051	0,008
-264,497	29,809	0,093	0,056
-263,482	565,961	0,029	0,051
-262,467	-200,000	0,003	-0,067
-261,453	-200,000	-0,039	0,165
-260,438	-186,782	-0,012	0,000
-259,424	17,435	-0,047	-0,027
-258,409	35,331	0,039	0,025
-257,395	-60,497	-0,100	-0,030
-256,380	-200,000	0,002	-0,135
-255,365	515,743	-0,056	0,093
-254,351	800,000	0,064	0,167
-253,336	-30,497	0,062	0,025
-252,322	800,000	-0,029	-0,066
-251,307	50,005	-0,123	-0,083
-250,292	67,459	0,080	-0,058
-249,278	269,700	0,064	0,080
-248,263	-134,565	0,027	0,002
-247,249	233,710	0,073	-0,086
-246,234	78,260	-0,066	0,050
-245,219	-101,253	0,055	0,009
-244,205	-200,000	-0,017	0,058
-243,190	800,000	-0,042	-0,103
-242,176	7,408	0,084	0,044
-241,161	-200,000	0,002	-0,086
-240,146	19,398	0,050	0,028
-239,132	73,261	-0,082	-0,061
-238,117	-200,000	-0,022	0,076
-237,103	-200,000	-0,025	-0,097
-236,088	-94,140	-0,051	0,010
-235,073	6,250	-0,073	-0,038
-234,059	112,152	0,052	0,045
-233,044	338,912	0,140	0,195
-232,030	136,180	0,042	0,039
-231,015	-6,051	-0,135	0,066
-230,000	-119,374	-0,126	-0,015
-228,986	2,006	-0,050	-0,026
-227,971	536,474	0,015	0,026
-226,957	431,342	0,064	0,099
-225,942	506,673	0,008	-0,014
-224,927	203,487	0,127	0,140
-223,913	-15,334	0,122	-0,055
-222,898	-72,385	-0,180	0,047
-221,884	-200,000	0,011	-0,044
-220,869	73,770	-0,105	-0,079
-219,855	-46,801	0,040	0,014
-218,840	-200,000	0,005	0,028
-217,825	800,000	-0,032	-0,095
-216,811	-200,000	0,010	-0,091
-215,796	2,868	-0,188	-0,097
-214,782	-16,231	-0,102	-0,046
-213,767	768,961	-0,027	-0,054
-212,752	-10,736	-0,051	-0,024
-211,738	263,437	-0,044	0,055
-210,723	40,804	0,085	-0,055
-209,709	-134,828	-0,159	0,014
-208,694	-35,329	0,023	-0,009
-207,679	29,613	0,086	0,052
-206,665	800,000	0,026	0,068
-205,650	-68,005	0,142	0,039
-204,636	16,214	-0,093	0,052
-203,621	-82,401	0,047	-0,011
-202,606	-7,196	0,084	-0,041
-201,592	411,378	-0,032	0,048
-200,577	-122,861	0,124	0,014
-199,563	260,519	0,012	0,015
-198,548	-107,333	-0,063	-0,010
-197,533	37,845	0,109	0,069
-196,519	-77,717	-0,065	-0,016
-195,504	96,274	-0,061	0,050
-194,490	-200,000	-0,012	-0,083
-193,475	773,527	0,088	-0,172
-192,460	-200,000	0,029	-0,158
-191,446	538,966	-0,033	-0,056
-190,431	-200,000	-0,004	-0,100
-189,417	-20,925	-0,097	-0,042
-188,402	55,113	-0,060	-0,041
-187,387	-200,000	0,021	-0,168
-186,373	784,137	0,067	-0,132
-185,358	-86,418	-0,081	-0,017
-184,344	95,522	0,045	-0,036
-183,329	-44,978	0,091	-0,032
-182,315	-102,417	0,060	0,010
-181,300	-2,972	0,086	-0,042
-180,285	207,713	0,016	0,017
-179,271	-3,513	-0,070	-0,035
-178,256	206,287	0,047	0,052
-177,242	-106,920	0,116	-0,018
-176,227	-30,851	0,058	0,023
-175,212	347,095	-0,075	0,105
-174,198	-98,684	0,059	-0,011
-173,183	791,741	0,006	-0,013
-172,169	-62,458	0,174	-0,051
-171,154	203,259	-0,112	-0,124
-170,139	800,000	0,040	0,092
-169,125	443,485	-0,016	0,026
-168,110	-117,070	-0,050	0,006
-167,096	-200,000	-0,005	0,050
-166,081	800,000	-0,019	0,059
-165,066	-200,000	0,004	0,011
-164,052	-200,000	-0,023	0,152
-163,037	-136,428	-0,057	-0,005
-162,023	800,000	0,062	0,134
-161,008	800,000	0,094	0,231
-159,993	245,166	-0,052	0,062
-158,979	-200,000	0,014	0,081
-157,964	139,915	-0,190	-0,178
-156,950	293,536	0,065	0,084
-155,935	-200,000	-0,017	0,096
-154,920	9,575	0,052	-0,028
-153,906	-5,566	-0,137	0,066
-152,891	121,166	0,045	0,040
-151,877	800,000	0,057	-0,121
-150,862	53,008	0,082	0,055
-149,847	-200,000	0,011	0,036
-148,833	113,959	-0,051	-0,044
-147,818	-113,755	0,154	0,021
-146,804	-200,000	0,033	0,158
-145,789	-115,507	0,061	0,008
-144,775	272,786	-0,040	0,050
-143,760	470,724	0,012	-0,019
-142,745	800,000	0,031	-0,083
-141,731	93,372	0,003	-0,002
-140,716	49,751	0,045	0,030
-139,702	500,806	-0,099	0,163
-138,687	800,000	0,051	0,115
-137,672	57,806	0,037	0,026
-136,658	800,000	0,018	0,054
-135,643	-169,610	-0,136	0,003
-134,629	32,553	0,118	0,072
-133,614	38,283	0,095	0,060
-132,599	13,595	0,124	-0,068
-131,585	457,063	-0,026	0,042
-130,570	-85,147	-0,064	-0,014
-129,556	-54,539	-0,052	-0,017
-128,541	-25,640	-0,055	-0,023
-127,526	310,284	0,051	0,068
-126,512	800,000	-0,074	-0,160
-125,497	-52,191	0,146	-0,048
-124,483	719,759	-0,086	0,164
-123,468	-200,000	0,002	0,096
-122,453	-37,142	-0,145	0,055
-121,439	-146,816	0,039	0,002
-120,424	-87,178	-0,062	0,013
-119,410	213,637	0,072	0,080
-118,395	-200,000	0,007	0,041
-117,380	347,815	-0,051	0,072
-116,366	-200,000	0,005	-0,057
-115,351	463,174	0,045	0,072
-114,337	-2,769	-0,152	0,075
-113,322	-17,580	0,102	-0,045
-112,307	28,449	0,081	0,049
-111,293	92,675	-0,107	0,086
-110,278	-200,000	0,047	0,156
-109,264	800,000	0,041	0,115
-108,249	-74,070	-0,061	0,016
-107,234	602,196	-0,058	-0,102
-106,220	0,692	0,083	-0,042
-105,205	54,248	-0,170	0,116
-104,191	-148,672	-0,181	-0,010
-103,176	346,902	0,050	-0,069
-102,162	310,262	0,128	0,170
-101,147	800,000	-0,044	0,106
-100,132	800,000	-0,030	-0,061
-99,118	620,352	-0,057	-0,102
-98,103	-81,563	-0,149	0,034
-97,089	-200,000	0,009	0,048
-96,074	402,430	-0,091	0,136
-95,059	-109,929	0,113	-0,017
-94,045	207,104	0,011	-0,013
-93,030	-111,154	-0,060	0,009
-92,016	-84,593	-0,100	-0,022
-91,001	-156,591	-0,164	0,007
-89,986	790,763	-0,033	0,065
-88,972	800,000	0,034	0,079
-87,957	-123,822	0,196	-0,022
-86,943	-72,099	-0,060	-0,016
-85,928	-200,000	0,024	0,162
-84,913	-200,000	-0,025	0,101
-83,899	345,461	0,043	-0,060
-82,884	-123,238	0,042	-0,005
-81,870	39,276	-0,058	-0,037
-80,855	-56,943	0,093	-0,029
-79,840	800,000	-0,044	0,098
-78,826	800,000	-0,035	-0,105
-77,811	-94,318	0,078	0,015
-76,797	800,000	-0,018	0,048
-75,782	800,000	-0,038	-0,083
-74,767	-167,031	0,064	0,002
-73,753	-200,000	0,016	0,079
-72,738	104,101	-0,062	0,052
-71,724	-32,095	-0,149	-0,059
-70,709	521,460	-0,039	0,065
-69,694	-200,000	-0,001	0,079
-68,680	41,437	-0,085	-0,054
-67,665	579,914	0,073	0,128
-66,651	-200,000	-0,009	0,171
-65,636	-93,852	-0,147	0,028
-64,622	-70,134	-0,048	0,013
-63,607	800,000	-0,054	-0,156
-62,592	756,000	-0,038	0,072
-61,578	-89,437	0,095	0,020
-60,563	800,000	-0,021	-0,056
-59,549	132,533	0,069	-0,063
-58,534	-47,166	-1,595	-0,548
-57,519	327,300	-1,561	-2,126
-56,505	-200,000	-0,500	-4,725
-55,490	104,525	0,979	0,816
-54,476	800,000	4,833	11,409
-53,461	-200,000	18,596	298,116
-52,446	800,000	732,026	2260,159
-51,432	558,689	1648,736	2828,126
-50,417	78,871	1668,445	1263,001
-49,403	22,435	1541,639	890,168
-48,388	16,414	1464,530	816,427
-47,373	17,801	1454,358	817,417
-46,359	17,045	1444,788	808,385
-45,344	14,648	1440,119	794,280
-44,330	14,535	1438,247	792,674
-43,315	14,622	1436,263	791,963
-42,300	14,553	1435,048	790,933
-41,286	14,583	1433,804	790,359
-40,271	14,617	1432,356	789,694
-39,257	14,556	1431,357	788,818
-38,242	14,576	1429,962	788,115
-37,227	14,625	1428,400	787,456
-36,213	14,643	1427,414	786,968
-35,198	14,598	1426,344	786,132
-34,184	14,638	1425,336	785,735
-33,169	14,550	1424,098	784,605
-32,154	14,655	1422,992	784,458
-31,140	14,623	1421,763	783,601
-30,125	14,659	1420,351	782,961
-29,111	14,610	1419,429	782,191
-28,096	14,613	1418,169	781,479
-27,082	14,535	1417,237	780,570
-26,067	14,529	1416,194	779,933
-25,052	14,557	1415,139	779,452
-24,038	14,489	1414,078	778,519
-23,023	14,509	1413,030	778,006
-22,009	14,453	1412,314	777,319
-20,994	14,434	1411,483	776,739
-19,979	14,482	1410,209	776,231
-18,965	14,438	1409,470	775,590
-17,950	14,456	1408,190	774,939
-16,936	14,476	1407,439	774,587
-15,921	14,453	1406,350	773,851
-14,906	14,452	1405,286	773,230
-13,892	14,436	1404,634	772,766
-12,877	14,461	1403,592	772,277
-11,863	14,419	1402,816	771,623
-10,848	14,416	1401,725	770,980
-9,833	14,362	1401,140	770,375
-8,819	14,338	1400,248	769,744
-7,804	14,323	1399,381	769,165
-6,790	14,315	1398,152	768,422
-5,775	14,366	1397,008	768,002
-4,760	14,390	1396,087	767,573
-3,746	14,365	1395,314	767,002
-2,731	14,310	1394,701	766,384
-1,717	14,365	1393,550	765,974
-0,702	14,367	1391,790	764,983
0,313	18,130	1310,089	737,528
1,327	34,477	705,979	435,292
2,342	52,932	124,213	83,946
3,356	4,037	16,575	8,550
4,371	5,155	3,182	1,653
5,386	16,789	0,567	0,317
6,400	800,000	0,079	0,216
7,415	103,330	-0,179	-0,149
8,429	234,545	-0,212	-0,248
9,444	73,896	-0,356	-0,264
10,459	61,572	-0,240	-0,169
11,473	-4,989	-0,349	-0,169
12,488	750,576	-0,113	-0,216
13,502	226,193	-0,287	-0,330
14,517	31,505	-0,375	-0,227
15,531	124,748	-0,293	-0,261
16,546	91,908	-0,267	-0,212
17,561	192,844	-0,362	-0,387
18,575	23,551	-0,178	-0,103
19,590	10,822	-0,260	-0,140
20,604	-16,735	-0,409	-0,182
21,619	53,691	-0,312	-0,211
22,634	91,800	-0,332	-0,264
23,648	312,675	-0,379	-0,504
24,663	144,982	-0,363	-0,343
25,677	49,241	-0,376	-0,249
26,692	6,129	-0,388	-0,202
27,707	-96,305	-0,416	-0,077
28,721	13,299	-0,375	-0,205
29,736	79,929	-0,492	-0,373
30,750	57,524	-0,506	-0,348
31,765	26,639	-0,453	-0,267
32,780	99,991	-0,306	-0,250
33,794	76,946	-0,379	-0,284
34,809	182,115	-0,387	-0,402
35,823	-18,193	-0,357	-0,157
36,838	11,014	-0,418	-0,225
37,853	34,152	-0,370	-0,227
38,867	62,787	-0,321	-0,226
39,882	15,734	-0,349	-0,193
40,896	29,993	-0,315	-0,189
41,911	60,430	-0,308	-0,215
42,926	169,896	-0,291	-0,293
43,940	75,324	-0,410	-0,305
44,955	151,730	-0,259	-0,249
45,969	97,506	-0,392	-0,317
46,984	51,683	-0,452	-0,302
47,999	365,037	-0,199	-0,283
49,013	152,111	-0,332	-0,319
50,028	35,717	-0,397	-0,245
51,042	175,592	-0,259	-0,264
52,057	69,317	-0,366	-0,265
53,071	261,593	-0,199	-0,244
54,086	75,458	-0,396	-0,294
55,101	66,883	-0,317	-0,227
56,115	193,506	-0,282	-0,301
57,130	-57,539	-0,473	-0,145
58,144	48,056	-0,457	-0,300
59,159	12,065	-0,415	-0,224
60,174	83,529	-0,404	-0,309
61,188	-61,765	-0,368	-0,108
62,203	83,233	-0,268	-0,205
63,217	15,884	-0,375	-0,207
64,232	17,128	-0,419	-0,233
65,247	95,325	-0,357	-0,287
66,261	66,789	-0,355	-0,254
67,276	320,501	-0,266	-0,357
68,290	71,655	-0,293	-0,214
69,305	286,734	-0,221	-0,281
70,320	47,020	-0,266	-0,174
71,334	26,583	-0,304	-0,178
72,349	170,326	-0,318	-0,320
73,363	113,671	-0,295	-0,252
74,378	91,017	-0,273	-0,215
75,393	155,580	-0,272	-0,263
76,407	196,269	-0,231	-0,247
77,422	573,921	-0,124	-0,213
78,436	0,694	-0,244	-0,122
79,451	150,918	-0,370	-0,354
80,466	-24,581	-0,237	-0,099
81,480	80,060	-0,380	-0,287
82,495	147,301	-0,215	-0,203
83,509	-117,760	-0,157	-0,020
84,524	-130,079	-0,283	-0,027
85,539	-34,710	-0,372	-0,142
86,553	79,295	-0,203	-0,153
87,568	75,178	-0,188	-0,139
88,582	270,368	-0,275	-0,340
89,597	30,596	-0,341	-0,204
90,611	-7,755	-0,307	-0,145
91,626	-27,291	-0,320	-0,130
92,641	251,849	-0,142	-0,170
93,655	88,985	-0,210	-0,164
94,670	9,779	-0,302	-0,160
95,684	76,857	-0,322	-0,239
96,699	252,235	-0,254	-0,305
97,714	800,000	-0,151	-0,350
98,728	41,636	-0,165	-0,105
99,743	-97,477	-0,298	-0,054
100,757	-58,780	-0,161	-0,048
101,772	27,298	-0,420	-0,247
102,787	123,931	-0,222	-0,196
103,801	184,824	-0,297	-0,309
104,816	-19,170	-0,228	-0,099
105,830	328,233	-0,162	-0,219
106,845	97,917	-0,224	-0,181
107,860	83,805	-0,221	-0,169
108,874	-98,610	-0,348	-0,062
109,889	193,770	-0,288	-0,306
110,903	439,963	-0,190	-0,291
111,918	107,928	-0,280	-0,234
112,933	-104,460	-0,329	-0,053
113,947	-4,318	-0,359	-0,174
114,962	529,501	-0,070	-0,116
115,976	133,609	-0,222	-0,201
116,991	179,317	-0,290	-0,298
118,006	164,589	-0,284	-0,281
119,020	122,434	-0,228	-0,200
120,035	55,148	-0,259	-0,175
121,049	-138,005	-0,236	0,018
122,064	488,598	-0,191	-0,307
123,079	99,354	-0,344	-0,279
124,093	-200,000	-0,067	-0,230
125,108	-23,473	-0,276	-0,115
126,122	277,097	-0,281	-0,350
127,137	-32,909	-0,223	-0,086
128,151	86,407	-0,224	-0,173
129,166	127,081	-0,302	-0,268
130,181	272,733	-0,090	-0,112
131,195	28,946	-0,216	-0,128
132,210	78,071	-0,229	-0,171
133,224	56,187	-0,283	-0,192
134,239	800,000	-0,184	-0,475
135,254	20,736	-0,229	-0,129
136,268	137,764	-0,228	-0,209
137,283	58,552	-0,251	-0,172
138,297	183,088	-0,174	-0,180
139,312	-43,675	-0,250	-0,087
140,327	252,211	-0,200	-0,238
141,341	91,523	-0,244	-0,192
142,356	381,716	-0,231	-0,332
143,370	-93,109	-0,305	-0,059
144,385	48,122	-0,229	-0,149
145,400	36,258	-0,389	-0,239
146,414	53,875	-0,322	-0,216
147,429	536,250	-0,127	-0,212
148,443	-136,230	-0,271	-0,022
149,458	-103,219	-0,264	-0,043
150,473	-110,758	-0,206	0,029
151,487	185,223	-0,311	-0,323
152,502	31,165	-0,186	-0,111
153,516	160,464	-0,276	-0,269
154,531	547,592	-0,068	-0,113
155,546	35,283	-0,270	-0,165
156,560	27,776	-0,150	-0,088
157,575	114,179	-0,137	-0,116
158,589	45,797	-0,331	-0,213
159,604	8,844	-0,204	-0,107
160,619	140,800	-0,321	-0,296
161,633	140,532	-0,299	-0,275
162,648	5,219	-0,270	-0,139
163,662	-118,722	-0,277	-0,034
164,677	-97,363	-0,205	-0,037
165,692	-7,031	-0,185	-0,087
166,706	39,311	-0,263	-0,164
167,721	-4,410	-0,172	-0,083
168,735	207,845	-0,243	-0,265
169,750	354,172	-0,149	-0,207
170,764	-141,375	-0,360	-0,025
171,779	425,077	-0,138	-0,208
172,794	471,371	-0,103	-0,162
173,808	92,222	-0,308	-0,242
174,823	219,217	-0,239	-0,267
175,837	17,975	-0,335	-0,185
176,852	208,005	-0,164	-0,179
177,867	-29,855	-0,146	-0,058
178,881	27,981	-0,185	-0,108
179,896	133,996	-0,200	-0,180
180,910	-200,000	-0,008	-0,226
181,925	112,130	-0,181	-0,152
182,940	81,303	-0,266	-0,200
183,954	75,767	-0,192	-0,141
184,969	-24,039	-0,284	-0,118
185,983	17,479	-0,151	-0,083
186,998	85,344	-0,271	-0,207
188,013	114,185	-0,207	-0,175
189,027	776,606	-0,151	-0,289
190,042	671,522	-0,121	-0,219
191,056	272,996	-0,201	-0,248
192,071	-98,103	-0,132	-0,023
193,086	93,821	-0,218	-0,172
194,100	331,533	-0,173	-0,233
195,115	573,713	-0,119	-0,202
196,129	65,804	-0,193	-0,136
197,144	25,236	-0,243	-0,140
198,159	-156,323	-0,282	-0,012
199,173	501,617	-0,144	-0,233
200,188	-30,097	-0,303	-0,119
201,202	-89,938	-0,185	-0,037
202,217	106,640	-0,199	-0,164
203,232	-200,000	-0,043	-0,136
204,246	-92,007	-0,219	-0,043
205,261	105,307	-0,210	-0,172
206,275	122,454	-0,190	-0,165
207,290	-87,768	-0,219	-0,045
208,304	96,077	-0,174	-0,138
209,319	360,545	-0,185	-0,258
210,334	274,941	-0,209	-0,257
211,348	21,325	-0,175	-0,099
212,363	89,772	-0,298	-0,231
213,377	214,004	-0,216	-0,237
214,392	536,338	-0,104	-0,172
215,407	265,981	-0,064	-0,078
216,421	252,688	-0,097	-0,116
217,436	-60,193	-0,226	-0,066
218,450	-77,897	-0,213	-0,051
219,465	28,760	-0,181	-0,106
220,480	174,294	-0,260	-0,261
221,494	59,566	-0,244	-0,166
222,509	-200,000	-0,017	-0,109
223,523	88,815	-0,117	-0,090
224,538	571,852	-0,164	-0,278
225,553	45,178	-0,272	-0,174
226,567	800,000	-0,114	-0,240
227,582	187,537	-0,212	-0,219
228,596	-67,568	-0,208	-0,056
229,611	335,934	-0,110	-0,149
230,626	80,768	-0,205	-0,153
231,640	245,871	-0,112	-0,131
232,655	39,927	-0,225	-0,140
233,669	800,000	-0,136	-0,348
234,684	116,549	-0,243	-0,207
235,699	800,000	-0,056	-0,114
236,713	354,471	-0,089	-0,123
237,728	82,058	-0,084	0,063
238,742	718,887	-0,124	-0,229
239,757	604,696	-0,139	-0,241
240,772	219,338	-0,250	-0,278
241,786	110,334	-0,262	-0,218
242,801	80,588	-0,220	-0,164
243,815	-78,938	-0,165	-0,039
244,830	-19,046	-0,123	-0,053
245,844	202,509	-0,155	-0,166
246,859	90,649	-0,281	-0,218
247,874	490,805	-0,141	-0,224
248,888	50,521	-0,259	-0,169
249,903	-71,117	-0,123	0,032
250,917	92,039	-0,135	-0,105
251,932	-169,733	-0,230	-0,006
252,947	67,966	-0,116	-0,082
253,961	372,847	-0,194	-0,274
254,976	-56,976	-0,245	-0,074
255,990	134,087	-0,175	-0,157
257,005	88,827	-0,215	-0,165
258,020	210,968	-0,140	-0,153
259,034	186,228	-0,151	-0,155
260,049	339,875	-0,103	-0,139
261,063	-32,290	-0,280	-0,108
262,078	55,227	-0,251	-0,168
263,093	401,254	-0,078	-0,114
264,107	274,902	-0,131	-0,161
265,122	-96,937	-0,238	-0,043
266,136	-78,796	-0,109	0,026
267,151	-14,338	-0,163	-0,072
268,166	-4,202	-0,149	-0,071
269,180	-108,169	-0,166	-0,025
270,195	142,155	-0,091	-0,083
271,209	800,000	-0,067	-0,176
272,224	114,433	-0,194	-0,164
273,239	32,186	-0,072	0,043
274,253	-69,709	-0,138	-0,036
275,268	193,822	-0,141	-0,147
276,282	18,041	-0,305	-0,167
277,297	394,124	-0,102	-0,147
278,312	-108,741	-0,091	0,013
279,326	218,331	-0,129	-0,143
280,341	-120,092	-0,117	-0,014
281,355	78,835	-0,106	-0,078
282,370	195,060	-0,188	-0,198
283,384	34,375	-0,262	-0,158
284,399	-113,069	-0,114	0,015
285,414	-39,506	-0,173	-0,062
286,428	800,000	-0,086	-0,186
287,443	-200,000	-0,008	-0,100
288,457	73,090	-0,297	-0,214
289,472	-97,489	-0,258	-0,046
290,487	234,293	-0,190	-0,216
291,501	279,275	-0,120	-0,148
292,516	30,564	-0,354	-0,208
293,530	-118,540	-0,196	-0,024
294,545	498,426	-0,076	-0,121
295,560	-200,000	-0,032	-0,168
296,574	173,392	-0,122	-0,122
297,589	323,564	-0,144	-0,189
298,603	-95,560	-0,212	-0,039
299,618	722,854	-0,128	-0,235
300,633	256,973	-0,109	-0,129
301,647	-52,500	-0,116	-0,037
302,662	-200,000	-0,006	0,023
303,676	-56,322	-0,161	-0,049
304,691	271,759	-0,114	-0,139
305,706	37,681	-0,124	-0,076
306,720	-39,305	-0,126	-0,045
307,735	101,876	-0,032	0,025
308,749	-80,076	-0,058	0,013
309,764	626,206	-0,070	-0,122
310,779	106,545	-0,169	-0,138
311,793	86,779	-0,253	-0,192
312,808	137,209	-0,281	-0,253
313,822	90,868	-0,213	-0,164
314,837	261,717	-0,100	-0,119
315,852	-200,000	-0,045	-0,167
316,866	223,461	-0,132	-0,147
317,881	-29,999	-0,122	-0,048
318,895	-13,286	-0,088	0,039
319,910	-82,043	-0,163	-0,036
320,925	800,000	-0,031	-0,082
321,939	-29,058	-0,110	-0,043
322,954	-25,487	-0,158	-0,064
323,968	58,447	0,047	0,032
324,983	-200,000	-0,015	-0,113
325,997	549,784	-0,119	-0,197
327,012	141,526	-0,102	-0,093
328,027	105,384	-0,148	-0,120
329,041	57,444	-0,096	-0,064
330,056	-55,203	-0,153	-0,047
331,070	-142,725	-0,134	-0,009
332,085	241,763	-0,063	-0,072
333,100	81,189	-0,158	-0,118
334,114	-105,231	-0,138	-0,021
335,129	-200,000	-0,098	-0,334
336,143	-200,000	-0,020	-0,086
337,158	214,386	-0,116	0,126
338,173	69,035	-0,116	-0,082
339,187	186,881	-0,114	-0,117
340,202	117,374	-0,057	0,048
341,216	-2,921	-0,160	-0,077
342,231	-87,179	-0,077	0,016
343,246	139,494	-0,164	-0,149
344,260	-154,938	-0,134	0,006
345,275	800,000	-0,022	0,054
346,289	162,497	-0,018	0,018
347,304	-144,567	-0,254	0,016
348,319	9,888	-0,266	-0,138
349,333	-68,598	-0,101	-0,027
350,348	-53,431	-0,145	-0,045
351,362	37,344	-0,099	-0,060
352,377	213,998	-0,168	-0,183
353,392	508,533	-0,090	-0,143
354,406	-120,468	-0,265	0,030
355,421	207,788	1318,337	1413,993
356,435	159,848	1479,531	1414,485
