DTS Sentinel unit serial number:	SN410029Multiplexer serial number:	ORYXHardware model number:	OX2-SRSoftware version number:	ORYX F/W v4,00 Oryx Data Collector v3.7.2.0data status	okinstallation	B3 Nyhavnadifferential loss correction	single-endedforward channel	channel 1reverse channel	N/Adate	2023/11/29time	20:07:30forward acquisition time	300,00reverse acquisition time	0,00gamma	499,1914k internal	0,3210k external	0,3210temperature offset calibration	1,0000default loss term (dB/km)	0,3820temperature slope calibration	1,0000multiplexer offset coefficient	1,0000multiplexer slope coefficient	1,0000fibre end	0,00T internal ref (°C)	10,87T ext. ref 1 (°C)	-4,28T ext. ref 2 (°C)	-4,37length (m)	temperature (°C)	Stokes	anti-Stokes-744,400	53,750	-0,186	-0,130
-743,385	-200,000	-0,021	0,189
-742,371	262,754	-0,139	-0,176
-741,356	800,000	0,114	0,235
-740,342	90,419	-0,147	-0,119
-739,327	-200,000	-0,013	0,286
-738,312	330,642	-0,177	-0,248
-737,298	-200,000	0,055	0,294
-736,283	329,448	-0,155	-0,217
-735,269	-200,000	-0,069	0,299
-734,254	-200,000	-0,059	-0,333
-733,239	-137,397	-0,383	0,031
-732,225	-200,000	-0,036	-0,195
-731,210	-137,741	0,258	-0,021
-730,196	315,025	-0,032	-0,044
-729,181	800,000	0,052	-0,112
-728,167	195,264	-0,065	-0,071
-727,152	800,000	-0,015	-0,042
-726,137	800,000	-0,024	-0,065
-725,123	800,000	-0,017	-0,053
-724,108	-155,142	-0,150	-0,007
-723,094	289,492	-0,073	-0,096
-722,079	126,323	0,075	-0,069
-721,064	-200,000	0,006	-0,029
-720,050	47,900	0,104	0,070
-719,035	-200,000	-0,012	-0,068
-718,021	104,212	-0,103	0,087
-717,006	737,906	-0,062	-0,121
-715,991	-200,000	-0,030	-0,179
-714,977	378,927	0,029	0,044
-713,962	256,517	-0,030	-0,037
-712,948	-153,375	0,124	-0,006
-711,933	800,000	0,027	-0,074
-710,918	-200,000	-0,003	-0,134
-709,904	-200,000	-0,004	0,029
-708,889	-35,039	-0,135	0,053
-707,875	-200,000	0,016	-0,147
-706,860	245,460	-0,052	-0,063
-705,845	578,288	0,013	-0,024
-704,831	800,000	0,041	0,107
-703,816	-200,000	-0,002	-0,054
-702,802	-200,000	0,023	0,199
-701,787	-14,592	-0,071	-0,033
-700,772	-200,000	-0,015	0,049
-699,758	294,416	0,031	0,041
-698,743	317,082	-0,072	-0,098
-697,729	-200,000	-0,018	-0,072
-696,714	15,700	0,049	-0,028
-695,699	-200,000	-0,033	-0,162
-694,685	31,561	0,062	0,039
-693,670	97,305	-0,206	-0,171
-692,656	637,051	0,056	-0,104
-691,641	-200,000	0,002	-0,063
-690,627	-155,783	-0,060	0,003
-689,612	344,695	-0,075	0,107
-688,597	582,805	0,121	-0,216
-687,583	-200,000	0,005	-0,057
-686,568	25,426	-0,177	-0,106
-685,554	-49,186	-0,051	0,018
-684,539	66,647	0,045	0,033
-683,524	-100,300	-0,094	0,017
-682,510	800,000	-0,080	0,174
-681,495	44,052	-0,060	0,039
-680,481	186,454	0,098	-0,105
-679,466	106,199	-0,106	-0,091
-678,451	-87,359	0,146	-0,032
-677,437	512,190	0,099	0,167
-676,422	27,024	0,077	0,047
-675,408	800,000	-0,053	0,139
-674,393	-200,000	-0,038	-0,137
-673,378	-106,092	-0,058	-0,009
-672,364	-62,742	-0,061	-0,018
-671,349	800,000	-0,036	0,098
-670,335	105,795	0,051	0,043
-669,320	-13,730	-0,112	0,052
-668,305	-112,681	0,112	0,016
-667,291	-132,430	-0,082	-0,008
-666,276	-77,481	-0,179	-0,045
-665,262	-200,000	-0,029	-0,171
-664,247	86,846	-0,107	0,086
-663,232	228,966	-0,053	-0,062
-662,218	8,607	-0,078	0,043
-661,203	182,994	-0,027	-0,029
-660,189	-181,460	-0,165	0,002
-659,174	800,000	-0,011	-0,027
-658,159	-96,539	-0,110	-0,021
-657,145	261,649	-0,029	0,037
-656,130	-45,607	-0,079	0,028
-655,116	77,191	0,047	-0,036
-654,101	-114,954	0,014	0,002
-653,086	165,669	-0,027	0,027
-652,072	0,489	-0,037	0,019
-651,057	176,918	0,057	0,060
-650,043	-163,670	-0,110	0,004
-649,028	-97,819	0,110	0,020
-648,014	-200,000	-0,008	-0,067
-646,999	-200,000	0,028	0,126
-645,984	-68,420	-0,088	-0,025
-644,970	-200,000	-0,013	-0,081
-643,955	-60,346	-0,090	0,028
-642,941	64,787	-0,027	-0,020
-641,926	110,106	-0,090	0,078
-640,911	-200,000	-0,011	-0,037
-639,897	-200,000	0,006	0,105
-638,882	-200,000	-0,004	0,124
-637,868	-200,000	0,001	-0,140
-636,853	800,000	0,008	-0,017
-635,838	334,999	-0,046	0,065
-634,824	800,000	0,026	-0,066
-633,809	373,245	-0,040	0,059
-632,795	800,000	0,052	0,125
-631,780	304,945	-0,053	-0,071
-630,765	-200,000	-0,016	-0,085
-629,751	800,000	-0,006	-0,018
-628,736	-93,804	0,081	0,016
-627,722	-143,701	-0,086	-0,006
-626,707	-200,000	-0,006	0,125
-625,692	-37,529	0,043	-0,017
-624,678	-36,222	-0,084	-0,032
-623,663	201,365	0,052	-0,058
-622,649	63,996	-0,118	0,086
-621,634	29,253	-0,034	-0,021
-620,619	-129,819	-0,103	0,010
-619,605	-151,624	0,091	0,005
-618,590	172,932	-0,059	-0,062
-617,576	241,782	0,105	-0,127
-616,561	-108,568	-0,136	0,021
-615,546	800,000	0,019	0,055
-614,532	42,181	-0,141	-0,092
-613,517	-200,000	-0,000	-0,056
-612,503	-200,000	0,008	0,076
-611,488	-200,000	0,001	-0,056
-610,474	-76,165	0,087	-0,022
-609,459	-200,000	0,002	-0,083
-608,444	-200,000	-0,001	-0,143
-607,430	-27,671	0,107	0,045
-606,415	402,227	-0,083	-0,126
-605,401	-200,000	0,004	0,165
-604,386	-200,000	-0,087	0,000
-603,371	118,989	0,042	-0,037
-602,357	608,638	0,018	0,033
-601,342	322,120	-0,062	0,086
-600,328	-56,670	-0,160	0,051
-599,313	-200,000	0,000	0,084
-598,298	14,420	-0,055	0,031
-597,284	-0,467	0,014	-0,007
-596,269	736,351	0,035	0,068
-595,255	-200,000	0,028	0,155
-594,240	72,121	-0,067	-0,050
-593,225	-52,188	-0,106	-0,035
-592,211	10,866	-0,108	-0,059
-591,196	800,000	0,010	-0,024
-590,182	171,924	0,045	-0,046
-589,167	-8,440	-0,069	0,033
-588,152	337,423	0,080	0,113
-587,138	356,237	-0,054	-0,078
-586,123	-110,592	-0,080	0,012
-585,109	-124,650	0,013	0,001
-584,094	800,000	0,046	-0,133
-583,079	-200,000	0,010	-0,045
-582,065	32,493	0,071	0,044
-581,050	-60,080	0,083	0,025
-580,036	226,883	0,145	-0,170
-579,021	-132,402	-0,068	-0,006
-578,006	800,000	-0,061	-0,137
-576,992	16,472	0,065	-0,037
-575,977	-114,040	-0,133	0,018
-574,963	117,948	0,049	0,043
-573,948	-200,000	-0,002	0,129
-572,934	800,000	0,034	0,085
-571,919	-200,000	-0,000	-0,165
-570,904	-5,136	0,136	-0,067
-569,890	103,819	-0,074	-0,063
-568,875	-22,896	0,033	0,014
-567,861	-81,655	0,033	0,008
-566,846	-69,080	0,083	0,023
-565,831	-137,926	-0,048	0,004
-564,817	800,000	-0,016	-0,036
-563,802	800,000	0,014	0,033
-562,788	-200,000	-0,003	0,108
-561,773	-148,813	0,123	0,007
-560,758	800,000	0,045	0,140
-559,744	-200,000	0,010	0,054
-558,729	244,536	-0,028	-0,034
-557,715	387,335	0,071	-0,106
-556,700	-200,000	-0,032	-0,126
-555,685	-137,599	-0,154	-0,012
-554,671	-90,324	0,037	-0,008
-553,656	-75,251	0,053	0,014
-552,642	-120,152	0,094	-0,011
-551,627	-200,000	-0,026	0,082
-550,612	-54,689	-0,056	-0,018
-549,598	346,493	-0,032	-0,046
-548,583	576,985	0,019	-0,034
-547,569	800,000	0,041	0,091
-546,554	-200,000	-0,004	0,095
-545,539	-111,463	0,084	0,012
-544,525	800,000	0,019	-0,060
-543,510	385,878	0,023	0,034
-542,496	-200,000	-0,006	-0,050
-541,481	434,492	0,045	-0,071
-540,466	-153,250	-0,043	-0,002
-539,452	168,290	0,090	-0,093
-538,437	345,520	0,045	0,064
-537,423	-11,097	0,092	0,043
-536,408	-150,534	-0,046	-0,002
-535,393	118,434	-0,135	-0,120
-534,379	-52,024	-0,092	0,031
-533,364	-200,000	0,029	-0,094
-532,350	452,178	0,139	0,221
-531,335	11,415	0,105	0,058
-530,321	-68,970	0,038	0,010
-529,306	-7,974	0,113	-0,055
-528,291	-90,631	-0,083	-0,017
-527,277	-112,043	-0,100	0,014
-526,262	-55,481	0,079	-0,025
-525,248	-75,315	0,059	0,015
-524,233	-51,263	-0,034	0,011
-523,218	-200,000	0,008	0,093
-522,204	2,739	-0,043	-0,022
-521,189	161,130	0,024	-0,024
-520,175	-78,751	-0,143	0,035
-519,160	-49,723	-0,143	-0,048
-518,145	-200,000	0,004	0,200
-517,131	110,341	0,092	0,080
-516,116	402,273	0,064	-0,097
-515,102	-200,000	0,019	-0,105
-514,087	277,717	-0,064	0,082
-513,072	254,722	0,083	0,103
-512,058	91,755	0,101	0,082
-511,043	74,654	0,102	-0,077
-510,029	271,640	-0,032	-0,041
-509,014	362,134	0,027	0,040
-507,999	-53,124	0,067	0,022
-506,985	307,363	0,111	0,149
-505,970	-41,879	-0,125	-0,046
-504,956	-145,377	-0,052	-0,003
-503,941	81,172	0,114	-0,088
-502,926	800,000	0,024	0,055
-501,912	70,349	0,093	-0,069
-500,897	-37,650	0,084	0,032
-499,883	173,691	-0,065	-0,067
-498,868	800,000	-0,009	-0,029
-497,853	800,000	0,030	-0,080
-496,839	-102,355	-0,135	-0,023
-495,824	800,000	0,045	-0,117
-494,810	-200,000	-0,038	0,148
-493,795	-200,000	0,022	0,159
-492,781	800,000	0,007	0,022
-491,766	800,000	0,052	-0,115
-490,751	188,270	-0,038	-0,041
-489,737	-19,846	-0,124	-0,055
-488,722	90,150	0,031	0,025
-487,708	-174,880	-0,083	0,002
-486,693	-200,000	-0,014	0,047
-485,678	-139,735	-0,045	0,003
-484,664	800,000	-0,096	-0,218
-483,649	13,743	0,069	-0,038
-482,635	41,408	-0,113	-0,073
-481,620	194,175	0,036	0,040
-480,605	285,623	0,036	-0,046
-479,591	-200,000	-0,034	0,185
-478,576	800,000	0,042	0,085
-477,562	-123,632	-0,033	-0,004
-476,547	244,051	-0,045	0,055
-475,532	-132,219	-0,063	0,006
-474,518	9,885	0,096	-0,052
-473,503	-16,737	0,075	-0,034
-472,489	-4,747	0,157	0,077
-471,474	156,278	-0,058	0,058
-470,459	-116,620	-0,134	-0,017
-469,445	39,766	0,133	-0,085
-468,430	-25,810	0,103	0,044
-467,416	70,356	0,065	0,048
-466,401	-200,000	0,009	0,143
-465,386	733,539	0,041	-0,080
-464,372	335,472	0,043	0,060
-463,357	-48,491	-0,099	-0,034
-462,343	800,000	0,064	-0,130
-461,328	187,876	-0,022	-0,024
-460,313	800,000	0,032	0,096
-459,299	800,000	-0,031	-0,065
-458,284	-143,871	-0,194	-0,013
-457,270	-116,750	-0,138	-0,018
-456,255	146,365	-0,093	-0,090
-455,241	131,241	-0,059	-0,055
-454,226	-87,166	0,107	-0,023
-453,211	-123,844	0,155	0,017
-452,197	-200,000	-0,027	0,098
-451,182	800,000	-0,021	0,044
-450,168	510,880	-0,071	-0,119
-449,153	-126,521	-0,046	0,005
-448,138	97,775	0,025	-0,021
-447,124	-132,522	-0,081	0,007
-446,109	-200,000	0,005	0,138
-445,095	-168,311	0,139	-0,004
-444,080	26,754	-0,063	0,038
-443,065	800,000	0,004	-0,010
-442,051	-63,986	-0,042	0,012
-441,036	507,070	0,056	-0,093
-440,022	-200,000	-0,025	-0,142
-439,007	-19,839	-0,026	-0,011
-437,992	-127,249	-0,051	-0,005
-436,978	589,563	-0,082	0,145
-435,963	-70,774	0,089	0,024
-434,949	-200,000	0,012	-0,064
-433,934	552,443	-0,050	-0,086
-432,919	-200,000	-0,013	-0,112
-431,905	-111,690	-0,103	0,015
-430,890	800,000	0,011	-0,032
-429,876	-67,758	0,090	0,025
-428,861	-80,885	0,079	0,019
-427,846	111,034	0,025	0,021
-426,832	800,000	-0,011	-0,026
-425,817	-134,798	-0,243	-0,021
-424,803	157,418	-0,054	0,053
-423,788	-200,000	0,000	-0,005
-422,773	511,340	-0,112	0,188
-421,759	-73,488	0,062	0,016
-420,744	-64,730	0,133	-0,038
-419,730	703,074	-0,056	0,106
-418,715	-158,689	-0,099	0,004
-417,701	-79,817	-0,184	-0,044
-416,686	800,000	0,104	0,213
-415,671	-200,000	0,017	0,095
-414,657	-200,000	-0,001	0,036
-413,642	-52,996	0,141	-0,046
-412,628	-52,158	0,018	0,006
-411,613	67,472	0,068	-0,050
-410,598	-200,000	-0,021	-0,082
-409,584	495,100	0,052	-0,086
-408,569	-147,294	0,074	0,004
-407,555	-82,638	0,053	0,012
-406,540	171,846	-0,062	-0,064
-405,525	800,000	0,046	-0,131
-404,511	800,000	-0,062	-0,162
-403,496	-35,636	0,039	-0,015
-402,482	-200,000	0,012	-0,042
-401,467	-129,147	0,089	0,009
-400,452	-21,323	0,051	0,022
-399,438	-200,000	-0,032	0,123
-398,423	255,204	0,056	0,069
-397,409	241,996	-0,074	0,089
-396,394	58,148	0,091	0,064
-395,379	-103,637	0,060	-0,010
-394,365	-21,350	0,022	-0,009
-393,350	800,000	-0,029	-0,090
-392,336	-111,817	-0,168	-0,024
-391,321	-200,000	0,030	-0,117
-390,306	-133,482	0,035	-0,003
-389,292	15,417	0,053	-0,030
-388,277	-40,845	0,121	-0,045
-387,263	-51,233	0,140	0,047
-386,248	-200,000	-0,010	0,039
-385,233	-34,151	0,019	-0,008
-384,219	108,821	0,037	0,032
-383,204	97,229	-0,088	-0,072
-382,190	443,090	-0,072	0,113
-381,175	-200,000	0,018	-0,128
-380,160	10,113	0,085	0,046
-379,146	800,000	0,044	0,116
-378,131	800,000	0,055	0,140
-377,117	-107,310	0,094	-0,015
-376,102	351,719	-0,039	0,056
-375,088	-86,891	-0,050	0,011
-374,073	526,591	-0,067	-0,114
-373,058	-4,083	0,119	-0,059
-372,044	243,403	0,041	-0,049
-371,029	332,057	-0,049	-0,068
-370,015	800,000	-0,025	0,052
-369,000	64,485	-0,123	-0,089
-367,985	800,000	0,042	-0,092
-366,971	81,128	0,083	0,064
-365,956	10,767	-0,029	-0,016
-364,942	-41,918	0,014	-0,005
-363,927	-200,000	0,019	0,110
-362,912	363,478	-0,040	0,057
-361,898	38,391	0,095	-0,060
-360,883	-39,246	-0,088	-0,033
-359,869	800,000	0,022	-0,048
-358,854	-130,875	-0,041	-0,004
-357,839	235,533	-0,070	-0,082
-356,825	-200,000	0,046	0,153
-355,810	182,498	0,093	0,098
-354,796	353,215	-0,074	0,105
-353,781	-66,196	0,096	-0,027
-352,766	-200,000	0,014	-0,057
-351,752	-200,000	0,044	-0,165
-350,737	-200,000	-0,005	-0,025
-349,723	79,719	0,056	-0,043
-348,708	-31,080	0,146	-0,058
-347,693	800,000	0,058	-0,117
-346,679	2,214	-0,092	0,047
-345,664	236,029	-0,070	-0,082
-344,650	-45,095	-0,123	0,043
-343,635	-200,000	-0,120	0,000
-342,620	-200,000	0,002	0,071
-341,606	-73,193	-0,141	0,037
-340,591	-111,949	-0,096	0,014
-339,577	26,933	-0,110	-0,066
-338,562	136,966	-0,059	-0,055
-337,548	161,033	0,006	-0,006
-336,533	800,000	-0,023	0,046
-335,518	525,349	0,055	0,092
-334,504	195,886	-0,071	0,078
-333,489	-200,000	0,015	-0,055
-332,475	-200,000	0,026	0,114
-331,460	-200,000	0,017	-0,071
-330,445	228,220	0,053	-0,061
-329,431	-20,317	0,080	-0,035
-328,416	8,171	-0,078	0,042
-327,402	-128,454	0,112	0,011
-326,387	9,824	0,103	0,055
-325,372	17,831	-0,027	0,015
-324,358	800,000	-0,084	-0,168
-323,343	165,146	-0,039	0,039
-322,329	50,820	-0,065	0,044
-321,314	-126,824	0,061	0,006
-320,299	634,621	-0,064	0,116
-319,285	-22,685	-0,112	-0,048
-318,270	166,830	-0,054	-0,055
-317,256	-94,650	-0,184	-0,035
-316,241	-102,480	0,140	-0,024
-315,226	-200,000	0,020	0,099
-314,212	91,805	0,147	0,118
-313,197	327,976	0,053	0,072
-312,183	2,502	-0,066	-0,034
-311,168	-40,239	0,025	0,009
-310,153	68,827	-0,063	-0,046
-309,139	-24,539	0,079	0,034
-308,124	-117,428	0,104	-0,013
-307,110	-17,552	0,087	0,039
-306,095	800,000	0,062	0,150
-305,080	-200,000	0,017	-0,133
-304,066	-1,777	-0,061	-0,031
-303,051	-138,577	-0,012	-0,001
-302,037	-114,629	0,092	-0,012
-301,022	-147,967	-0,039	0,002
-300,008	97,473	0,089	0,073
-298,993	56,210	-0,095	0,066
-297,978	407,272	0,085	0,129
-296,964	78,957	-0,064	-0,049
-295,949	35,072	-0,059	-0,037
-294,935	800,000	-0,042	-0,088
-293,920	50,911	-0,045	0,030
-292,905	-200,000	-0,032	0,102
-291,891	-200,000	-0,023	0,170
-290,876	219,661	-0,026	0,029
-289,862	688,417	-0,044	0,082
-288,847	85,259	-0,146	-0,114
-287,832	47,949	-0,060	-0,040
-286,818	-91,766	0,149	0,030
-285,803	800,000	-0,041	-0,090
-284,789	-200,000	0,010	-0,083
-283,774	-168,592	0,066	0,002
-282,759	-40,459	0,021	-0,008
-281,745	276,476	0,054	-0,069
-280,730	-24,378	-0,118	-0,050
-279,716	-200,000	0,016	-0,067
-278,701	-200,000	0,017	0,151
-277,686	-17,153	-0,148	0,066
-276,672	252,497	-0,085	0,104
-275,657	13,883	0,119	-0,066
-274,643	800,000	-0,103	-0,217
-273,628	153,338	-0,093	0,091
-272,613	682,531	-0,053	-0,099
-271,599	800,000	0,031	-0,062
-270,584	-200,000	0,004	0,076
-269,570	-127,231	0,023	-0,002
-268,555	124,592	0,026	0,023
-267,540	25,373	-0,068	-0,040
-266,526	213,099	-0,074	-0,084
-265,511	-200,000	-0,006	0,036
-264,497	-131,915	0,169	-0,016
-263,482	-31,382	-0,012	-0,005
-262,467	-159,390	0,146	-0,006
-261,453	83,147	-0,105	0,082
-260,438	-200,000	0,002	0,101
-259,424	-62,389	-0,122	0,036
-258,409	-140,517	0,012	-0,001
-257,395	-153,939	0,108	-0,005
-256,380	86,425	0,065	0,051
-255,365	34,198	0,082	-0,051
-254,351	306,335	-0,011	0,015
-253,336	462,005	-0,062	-0,098
-252,322	-29,549	-0,065	-0,026
-251,307	478,577	-0,023	0,037
-250,292	-200,000	0,006	-0,058
-249,278	9,028	0,117	0,062
-248,263	206,415	0,110	0,122
-247,249	55,858	-0,033	0,023
-246,234	41,511	-0,063	0,040
-245,219	-80,533	-0,061	-0,014
-244,205	39,075	0,065	-0,041
-243,190	-105,803	-0,192	0,031
-242,176	84,680	0,090	0,070
-241,161	342,306	0,076	0,106
-240,146	327,624	-0,090	0,122
-239,132	-47,063	-0,137	0,047
-238,117	436,069	-0,096	-0,149
-237,103	-200,000	0,008	-0,094
-236,088	44,958	-0,032	0,021
-235,073	-200,000	0,002	-0,047
-234,059	-20,413	-0,088	0,038
-233,044	-200,000	-0,005	-0,074
-232,030	15,170	-0,181	0,101
-231,015	106,404	-0,120	-0,101
-230,000	-2,863	-0,113	-0,056
-228,986	-110,398	0,058	-0,009
-227,971	439,696	0,082	0,128
-226,957	511,698	-0,019	-0,031
-225,942	800,000	0,017	0,046
-224,927	-200,000	-0,007	0,066
-223,913	-93,673	-0,075	0,015
-222,898	27,442	-0,133	-0,079
-221,884	-200,000	-0,036	-0,150
-220,869	-95,039	0,074	-0,014
-219,855	-200,000	0,013	0,093
-218,840	-200,000	0,006	-0,059
-217,825	-200,000	0,015	-0,116
-216,811	344,278	-0,056	-0,079
-215,796	-200,000	0,012	-0,049
-214,782	-156,100	-0,083	-0,004
-213,767	-200,000	-0,001	0,161
-212,752	61,566	0,177	0,125
-211,738	-43,913	0,154	-0,055
-210,723	83,085	-0,017	0,013
-209,709	-89,530	-0,136	-0,028
-208,694	-43,766	0,037	-0,013
-207,679	26,525	0,135	-0,080
-206,665	70,714	0,136	0,100
-205,650	-67,113	-0,030	-0,008
-204,636	-200,000	0,004	0,093
-203,621	-200,000	0,048	0,173
-202,606	247,839	0,035	0,042
-201,592	5,064	-0,044	0,023
-200,577	-200,000	0,006	-0,103
-199,563	800,000	0,052	-0,141
-198,548	83,897	-0,073	0,056
-197,533	-61,029	0,054	-0,016
-196,519	340,170	0,104	-0,145
-195,504	-118,086	-0,116	-0,015
-194,490	-200,000	0,023	-0,117
-193,475	-44,426	-0,090	0,032
-192,460	-40,918	-0,033	-0,012
-191,446	342,150	0,064	-0,089
-190,431	53,760	0,042	-0,029
-189,417	800,000	0,021	-0,046
-188,402	215,682	-0,034	0,039
-187,387	-110,246	0,134	0,020
-186,373	-1,107	-0,074	-0,037
-185,358	-94,903	0,010	0,002
-184,344	-2,504	0,156	0,077
-183,329	422,518	0,020	-0,031
-182,315	329,008	0,077	0,106
-181,300	800,000	-0,072	-0,197
-180,285	390,125	-0,072	0,106
-179,271	-88,884	-0,071	-0,015
-178,256	-200,000	-0,004	-0,045
-177,242	-10,225	0,062	-0,029
-176,227	-124,597	-0,117	-0,013
-175,212	389,981	0,022	-0,033
-174,198	-7,895	0,101	0,048
-173,183	1,587	0,017	-0,009
-172,169	-200,000	-0,005	-0,085
-171,154	375,408	0,021	-0,030
-170,139	-29,805	0,064	0,026
-169,125	-17,975	0,117	0,052
-168,110	-136,389	0,201	0,016
-167,096	-200,000	0,030	0,097
-166,081	68,054	0,115	-0,083
-165,066	151,165	-0,109	0,105
-164,052	17,345	0,084	0,047
-163,037	-200,000	-0,010	0,147
-162,023	-200,000	0,011	0,101
-161,008	800,000	-0,023	-0,055
-159,993	-200,000	0,023	-0,082
-158,979	-200,000	-0,040	0,128
-157,964	800,000	-0,040	-0,110
-156,950	-200,000	0,007	-0,074
-155,935	-176,201	0,090	0,002
-154,920	71,239	-0,022	-0,016
-153,906	800,000	0,029	-0,067
-152,891	-200,000	-0,013	0,054
-151,877	-200,000	-0,004	-0,015
-150,862	-54,116	0,179	-0,057
-149,847	89,231	-0,010	0,008
-148,833	-115,158	0,119	-0,016
-147,818	-2,375	-0,101	0,050
-146,804	-200,000	0,027	0,137
-145,789	15,630	-0,060	0,033
-144,775	33,810	0,062	0,038
-143,760	124,594	-0,054	0,048
-142,745	-93,030	0,012	0,002
-141,731	-112,249	-0,103	0,014
-140,716	297,026	0,067	-0,088
-139,702	-98,868	0,078	0,014
-138,687	-200,000	0,004	0,028
-137,672	-200,000	0,013	-0,062
-136,658	329,791	-0,108	-0,147
-135,643	800,000	-0,039	-0,106
-134,629	193,103	0,027	-0,029
-133,614	-142,410	0,060	0,004
-132,599	8,184	0,156	0,083
-131,585	800,000	0,010	0,023
-130,570	207,243	-0,045	-0,049
-129,556	138,093	0,049	0,046
-128,541	5,348	-0,085	-0,044
-127,526	639,988	0,008	0,015
-126,512	-112,601	0,107	0,015
-125,497	-200,000	0,010	0,048
-124,483	155,233	-0,064	0,062
-123,468	733,619	-0,034	0,066
-122,453	-200,000	-0,003	0,028
-121,439	-200,000	-0,017	-0,123
-120,424	800,000	0,004	-0,010
-119,410	209,105	0,012	0,014
-118,395	-200,000	-0,001	0,005
-117,380	241,231	-0,022	0,026
-116,366	-200,000	-0,010	0,117
-115,351	-200,000	-0,033	-0,117
-114,337	-200,000	0,050	-0,294
-113,322	28,650	-0,057	-0,034
-112,307	-200,000	-0,010	0,090
-111,293	-5,347	0,087	0,042
-110,278	254,168	-0,066	0,080
-109,264	800,000	0,032	0,074
-108,249	-200,000	-0,007	0,035
-107,234	800,000	0,049	-0,148
-106,220	-200,000	-0,013	-0,050
-105,205	-200,000	0,005	0,086
-104,191	480,629	0,064	-0,103
-103,176	307,332	0,012	-0,015
-102,162	-127,882	-0,077	-0,008
-101,147	-200,000	-0,013	0,062
-100,132	-67,882	-0,043	0,012
-99,118	124,629	-0,111	0,098
-98,103	368,657	-0,047	0,067
-97,089	62,760	-0,066	0,046
-96,074	-200,000	0,005	-0,032
-95,059	800,000	-0,040	0,096
-94,045	-32,389	-0,125	0,049
-93,030	800,000	0,029	0,082
-92,016	800,000	0,025	-0,058
-91,001	-200,000	0,005	-0,025
-89,986	-200,000	0,018	0,097
-88,972	-41,760	0,100	0,036
-87,957	-200,000	-0,013	-0,072
-86,943	477,281	0,028	0,045
-85,928	-84,185	-0,192	0,043
-84,913	73,908	-0,113	-0,084
-83,899	-200,000	-0,030	-0,110
-82,884	209,030	0,081	0,090
-81,870	-6,618	-0,070	-0,033
-80,855	624,097	-0,038	0,068
-79,840	-90,842	0,074	-0,015
-78,826	219,255	0,038	0,043
-77,811	-80,727	-0,122	-0,028
-76,797	-165,662	0,143	-0,004
-75,782	-200,000	0,035	0,158
-74,767	-16,547	0,018	0,008
-73,753	-27,179	-0,061	-0,025
-72,738	188,631	0,049	-0,051
-71,724	265,912	-0,116	0,144
-70,709	-200,000	-0,015	-0,061
-69,694	60,418	0,123	-0,086
-68,680	-200,000	0,038	0,192
-67,665	405,030	0,077	0,115
-66,651	177,063	0,090	-0,093
-65,636	-38,114	-0,116	0,043
-64,622	344,344	-0,045	-0,063
-63,607	-200,000	0,012	-0,043
-62,592	-123,582	0,108	-0,012
-61,578	-200,000	0,017	0,125
-60,563	546,331	0,034	0,058
-59,549	-200,000	0,023	0,086
-58,534	6,513	-1,929	-1,009
-57,519	548,550	-1,232	-2,093
-56,505	-200,000	-0,297	-4,392
-55,490	443,905	0,925	1,438
-54,476	800,000	5,015	11,094
-53,461	-200,000	20,892	328,755
-52,446	800,000	757,136	2322,791
-51,432	550,248	1662,327	2825,922
-50,417	73,548	1664,090	1229,080
-49,403	18,707	1537,280	866,243
-48,388	12,707	1459,955	793,628
-47,373	19,025	1450,830	818,989
-46,359	15,848	1440,319	797,897
-45,344	10,967	1436,147	772,294
-44,330	10,910	1434,176	770,932
-43,315	10,899	1432,141	769,751
-42,300	10,891	1430,577	768,842
-41,286	10,965	1429,098	768,370
-40,271	10,863	1428,044	767,290
-39,257	10,919	1426,680	766,792
-38,242	10,944	1425,628	766,313
-37,227	10,911	1424,654	765,601
-36,213	10,909	1423,224	764,795
-35,198	10,958	1422,087	764,385
-34,184	11,000	1421,317	764,140
-33,169	10,935	1419,932	763,056
-32,154	10,957	1418,954	762,606
-31,140	10,982	1417,613	761,970
-30,125	11,027	1416,527	761,572
-29,111	10,982	1415,467	760,758
-28,096	10,979	1414,353	760,113
-27,082	10,922	1413,315	759,261
-26,067	10,879	1412,177	758,418
-25,052	10,920	1410,998	757,943
-24,038	10,898	1409,977	757,262
-23,023	10,878	1409,219	756,731
-22,009	10,905	1408,046	756,198
-20,994	10,898	1406,886	755,514
-19,979	10,911	1406,018	755,076
-18,965	10,875	1405,080	754,377
-17,950	10,854	1404,212	753,783
-16,936	10,882	1403,182	753,328
-15,921	10,809	1402,486	752,587
-14,906	10,851	1401,469	752,206
-13,892	10,862	1400,433	751,670
-12,877	10,823	1399,750	751,094
-11,863	10,850	1398,720	750,639
-10,848	10,779	1398,077	749,932
-9,833	10,719	1397,173	749,141
-8,819	10,707	1396,420	748,649
-7,804	10,730	1395,348	748,153
-6,790	10,727	1394,328	747,562
-5,775	10,718	1393,356	746,968
-4,760	10,696	1392,373	746,310
-3,746	10,733	1391,444	745,952
-2,731	10,714	1390,807	745,496
-1,717	10,705	1389,818	744,894
-0,702	10,681	1387,936	743,745
0,313	14,755	1301,659	716,169
1,327	31,144	693,154	418,665
2,342	47,955	120,248	79,136
3,356	0,475	16,521	8,301
4,371	-0,280	3,497	1,748
5,386	-8,837	0,910	0,429
6,400	800,000	0,255	0,538
7,415	161,543	-0,234	-0,231
8,429	201,640	-0,270	-0,293
9,444	-21,773	-0,380	-0,162
10,459	-29,954	-0,366	-0,146
11,473	-7,395	-0,226	-0,108
12,488	354,048	-0,125	-0,175
13,502	138,594	-0,292	-0,271
14,517	62,517	-0,337	-0,237
15,531	161,841	-0,209	-0,207
16,546	1,475	-0,399	-0,202
17,561	57,220	-0,334	-0,229
18,575	-22,485	-0,229	-0,097
19,590	800,000	-0,109	-0,247
20,604	288,899	-0,179	-0,229
21,619	180,888	-0,369	-0,382
22,634	62,328	-0,507	-0,356
23,648	36,941	-0,419	-0,260
24,663	121,327	-0,378	-0,331
25,677	146,904	-0,272	-0,258
26,692	1,404	-0,429	-0,217
27,707	63,145	-0,310	-0,218
28,721	-35,569	-0,360	-0,137
29,736	99,466	-0,381	-0,310
30,750	96,709	-0,293	-0,236
31,765	160,935	-0,312	-0,307
32,780	76,338	-0,301	-0,224
33,794	93,847	-0,302	-0,241
34,809	-10,966	-0,262	-0,121
35,823	96,764	-0,288	-0,232
36,838	77,804	-0,315	-0,236
37,853	59,808	-0,510	-0,354
38,867	10,185	-0,360	-0,192
39,882	742,362	-0,168	-0,319
40,896	-15,597	-0,339	-0,151
41,911	-44,040	-0,244	-0,086
42,926	47,743	-0,288	-0,189
43,940	138,821	-0,361	-0,334
44,955	267,555	-0,269	-0,331
45,969	121,706	-0,374	-0,328
46,984	86,178	-0,304	-0,235
47,999	119,526	-0,201	-0,175
49,013	162,458	-0,329	-0,325
50,028	50,273	-0,310	-0,206
51,042	346,761	-0,314	-0,435
52,057	131,991	-0,299	-0,270
53,071	29,460	-0,250	-0,149
54,086	369,342	-0,232	-0,331
55,101	28,895	-0,308	-0,183
56,115	41,729	-0,305	-0,194
57,130	20,318	-0,360	-0,204
58,144	43,624	-0,419	-0,269
59,159	130,064	-0,318	-0,285
60,174	91,949	-0,333	-0,263
61,188	111,097	-0,304	-0,257
62,203	91,972	-0,308	-0,243
63,217	657,601	-0,174	-0,315
64,232	10,796	-0,313	-0,167
65,247	97,941	-0,368	-0,297
66,261	147,604	-0,386	-0,365
67,276	37,039	-0,371	-0,230
68,290	36,927	-0,461	-0,286
69,305	67,314	-0,331	-0,236
70,320	-6,143	-0,221	-0,105
71,334	270,021	-0,175	-0,216
72,349	-113,886	-0,197	0,027
73,363	55,914	-0,344	-0,234
74,378	212,233	-0,264	-0,293
75,393	-49,694	-0,384	-0,127
76,407	-53,120	-0,351	-0,112
77,422	360,063	-0,187	-0,263
78,436	28,008	-0,413	-0,244
79,451	103,791	-0,321	-0,264
80,466	75,102	-0,319	-0,235
81,480	64,874	-0,303	-0,214
82,495	256,058	-0,219	-0,263
83,509	96,512	-0,271	-0,218
84,524	50,878	-0,228	-0,151
85,539	302,696	-0,187	-0,244
86,553	-25,560	-0,325	-0,134
87,568	-56,822	-0,435	-0,134
88,582	136,918	-0,186	-0,170
89,597	-67,964	-0,361	-0,098
90,611	38,941	-0,294	-0,184
91,626	2,362	-0,348	-0,176
92,641	-73,980	-0,250	-0,063
93,655	54,018	-0,270	-0,181
94,670	89,597	-0,256	-0,199
95,684	177,296	-0,223	-0,228
96,699	3,623	-0,270	-0,137
97,714	202,357	-0,207	-0,223
98,728	66,483	-0,308	-0,219
99,743	54,926	-0,258	-0,174
100,757	10,536	-0,233	-0,124
101,772	124,436	-0,311	-0,274
102,787	117,033	-0,164	-0,140
103,801	-36,129	-0,344	-0,129
104,816	-2,199	-0,219	-0,107
105,830	-183,304	-0,315	-0,004
106,845	-75,364	-0,197	-0,049
107,860	-73,302	-0,316	-0,080
108,874	-0,566	-0,305	-0,151
109,889	44,304	-0,387	-0,248
110,903	144,849	-0,267	-0,250
111,918	117,686	-0,246	-0,212
112,933	-85,144	-0,232	-0,050
113,947	-0,128	-0,190	-0,094
114,962	93,675	-0,176	-0,139
115,976	-80,032	-0,305	-0,071
116,991	125,686	-0,176	-0,155
118,006	139,589	-0,185	-0,170
119,020	-32,384	-0,360	-0,140
120,035	156,972	-0,173	-0,167
121,049	28,529	-0,284	-0,167
122,064	-21,471	-0,239	-0,101
123,079	-96,800	-0,223	-0,041
124,093	66,223	-0,307	-0,217
125,108	142,438	-0,292	-0,271
126,122	71,629	-0,278	-0,201
127,137	-74,549	-0,352	-0,088
128,151	106,836	-0,254	-0,210
129,166	45,386	-0,189	-0,121
130,181	612,923	-0,213	-0,374
131,195	174,111	-0,295	-0,297
132,210	29,627	-0,300	-0,177
133,224	393,518	-0,138	-0,201
134,239	271,829	-0,177	-0,217
135,254	-22,367	-0,213	-0,090
136,268	7,542	-0,257	-0,134
137,283	-119,377	-0,173	-0,021
138,297	237,628	-0,142	-0,165
139,312	-58,418	-0,269	-0,081
140,327	94,285	-0,306	-0,242
141,341	46,816	-0,159	-0,103
142,356	31,736	-0,232	-0,139
143,370	5,976	-0,116	-0,060
144,385	0,328	-0,304	-0,151
145,400	79,713	-0,271	-0,202
146,414	143,042	-0,318	-0,294
147,429	194,298	-0,227	-0,240
148,443	318,022	-0,254	-0,336
149,458	100,605	-0,181	-0,146
150,473	-58,175	-0,167	-0,050
151,487	14,837	-0,213	-0,116
152,502	73,393	-0,306	-0,223
153,516	412,823	-0,132	-0,196
154,531	46,118	-0,270	-0,174
155,546	-54,847	-0,217	-0,068
156,560	97,919	-0,288	-0,230
157,575	-30,217	-0,284	-0,112
158,589	-82,525	-0,251	-0,056
159,604	107,328	-0,210	-0,174
160,619	-46,578	-0,356	-0,121
161,633	-19,209	-0,215	-0,092
162,648	390,449	-0,216	-0,313
163,662	800,000	-0,122	-0,283
164,677	-122,222	-0,252	-0,028
165,692	-137,699	-0,148	-0,011
166,706	693,363	-0,124	-0,226
167,721	-79,994	-0,296	-0,069
168,735	-25,031	-0,350	-0,144
169,750	108,488	-0,228	-0,189
170,764	-0,656	-0,223	-0,110
171,779	-141,885	-0,137	0,009
172,794	50,906	-0,312	-0,205
173,808	138,981	-0,232	-0,212
174,823	564,951	-0,100	-0,170
175,837	107,601	-0,304	-0,252
176,852	361,537	-0,158	-0,221
177,867	81,338	-0,259	-0,194
178,881	579,630	-0,140	-0,239
179,896	98,873	-0,189	-0,151
180,910	-44,101	-0,235	-0,082
181,925	143,501	-0,220	-0,204
182,940	102,792	-0,246	-0,200
183,954	170,516	-0,177	-0,177
184,969	-200,000	-0,015	-0,153
185,983	101,598	-0,229	-0,185
186,998	254,361	-0,119	-0,142
188,013	-38,474	-0,312	-0,114
189,027	-60,716	-0,279	-0,082
190,042	646,098	-0,132	-0,235
191,056	397,585	-0,125	-0,182
192,071	-6,420	-0,199	-0,094
193,086	474,618	-0,111	-0,175
194,100	-36,813	-0,256	-0,095
195,115	404,167	-0,127	-0,187
196,129	107,929	-0,210	-0,173
197,144	174,547	-0,150	-0,151
198,159	173,976	-0,239	-0,239
199,173	-85,039	-0,180	-0,039
200,188	684,057	-0,074	-0,134
201,202	800,000	-0,093	-0,247
202,217	-135,672	-0,180	0,015
203,232	119,657	-0,307	-0,263
204,246	65,983	-0,238	-0,167
205,261	-8,421	-0,222	-0,103
206,275	105,413	-0,234	-0,191
207,290	-42,553	-0,147	-0,051
208,304	181,440	-0,159	-0,162
209,319	-141,007	-0,094	0,007
210,334	800,000	-0,082	-0,165
211,348	98,960	-0,317	-0,254
212,363	611,922	-0,176	-0,307
213,377	379,739	-0,118	-0,168
214,392	800,000	-0,069	-0,206
215,407	89,742	-0,191	-0,148
216,421	-156,500	-0,237	-0,010
217,436	19,623	-0,245	-0,136
218,450	-105,626	-0,232	-0,036
219,465	390,883	-0,190	-0,274
220,480	-144,659	-0,114	0,007
221,494	-23,115	-0,106	-0,044
222,509	147,782	-0,235	-0,219
223,523	65,435	-0,131	-0,091
224,538	368,223	-0,093	-0,130
225,553	62,261	-0,289	-0,199
226,567	-61,226	-0,133	0,039
227,582	156,270	-0,185	-0,177
228,596	-200,000	-0,050	-0,201
229,611	75,933	-0,199	-0,145
230,626	-200,000	-0,010	-0,187
231,640	-102,401	-0,293	-0,048
232,655	167,257	-0,226	-0,222
233,669	79,232	-0,327	-0,242
234,684	84,566	-0,278	-0,210
235,699	-135,673	-0,207	-0,017
236,713	800,000	-0,106	-0,210
237,728	196,578	-0,122	-0,129
238,742	406,854	-0,216	-0,316
239,757	65,399	-0,221	-0,154
240,772	-46,215	-0,301	-0,102
241,786	176,005	-0,154	-0,155
242,801	86,108	-0,197	-0,149
243,815	246,099	-0,151	-0,176
244,830	201,746	-0,236	-0,251
245,844	-87,318	-0,206	-0,043
246,859	52,899	-0,163	-0,108
247,874	-55,596	-0,219	-0,067
248,888	61,564	-0,241	-0,166
249,903	-24,240	-0,222	-0,091
250,917	7,466	-0,157	-0,081
251,932	-47,911	-0,061	0,020
252,947	-30,421	-0,141	-0,055
253,961	-200,000	-0,023	-0,120
254,976	211,545	-0,172	-0,188
255,990	-164,924	-0,264	-0,008
257,005	-167,586	-0,213	0,006
258,020	-13,603	-0,163	-0,073
259,034	62,799	-0,204	-0,140
260,049	321,027	-0,175	-0,230
261,063	173,825	-0,173	-0,172
262,078	735,342	-0,182	-0,338
263,093	84,384	-0,155	-0,117
264,107	15,069	-0,192	-0,103
265,122	188,148	-0,033	-0,034
266,136	-46,926	-0,258	-0,086
267,151	71,379	-0,138	-0,099
268,166	-200,000	-0,058	-0,218
269,180	126,659	-0,189	-0,165
270,195	221,387	-0,153	-0,169
271,209	191,601	-0,170	-0,176
272,224	643,609	-0,181	-0,319
273,239	345,146	-0,119	-0,162
274,253	-91,860	-0,296	-0,057
275,268	7,737	-0,126	-0,065
276,282	198,018	-0,204	-0,215
277,297	-200,000	-0,154	0,000
278,312	51,896	-0,116	-0,076
279,326	313,670	-0,142	-0,184
280,341	28,428	-0,233	-0,135
281,355	-67,343	-0,183	-0,049
282,370	195,535	-0,155	-0,162
283,384	119,561	-0,193	-0,165
284,399	18,255	-0,265	-0,145
285,414	-200,000	-0,044	-0,183
286,428	-189,334	-0,231	-0,002
287,443	123,010	-0,073	-0,063
288,457	-26,734	-0,137	-0,055
289,472	83,693	-0,197	-0,148
290,487	444,310	-0,112	-0,169
291,501	97,594	-0,246	-0,195
292,516	165,245	-0,139	-0,136
293,530	29,090	-0,117	-0,068
294,545	-156,869	-0,169	-0,007
295,560	151,512	-0,189	-0,177
296,574	151,321	-0,178	-0,167
297,589	800,000	-0,044	-0,113
298,603	-33,229	-0,211	-0,080
299,618	-52,143	-0,133	-0,042
300,633	110,487	-0,181	-0,149
301,647	51,068	-0,153	-0,099
302,662	248,209	-0,059	-0,069
303,676	-6,570	-0,167	0,078
304,691	131,574	-0,253	-0,223
305,706	150,402	-0,135	-0,126
306,720	364,045	-0,068	-0,094
307,735	800,000	-0,046	-0,101
308,749	133,951	-0,142	-0,127
309,764	79,476	-0,122	-0,090
310,779	1,527	-0,056	0,028
311,793	-29,463	-0,068	0,027
312,808	258,197	-0,113	-0,134
313,822	-138,522	-0,161	0,012
314,837	-11,235	-0,169	-0,076
315,852	382,758	-0,104	-0,147
316,866	-143,178	-0,161	0,010
317,881	386,783	-0,037	0,053
318,895	800,000	-0,113	-0,298
319,910	167,088	-0,125	-0,122
320,925	389,383	-0,102	-0,146
321,939	51,151	-0,125	-0,081
322,954	401,932	-0,020	-0,029
323,968	-52,677	-0,048	-0,015
324,983	4,560	-0,064	-0,032
325,997	67,420	-0,212	-0,148
327,012	18,311	-0,200	-0,109
328,027	-101,722	-0,206	-0,034
329,041	107,739	-0,145	-0,118
330,056	-110,168	-0,084	0,012
331,070	148,809	-0,154	-0,142
332,085	-86,531	-0,172	-0,036
333,100	1,353	-0,198	-0,097
334,114	32,736	-0,266	-0,158
335,129	491,895	-0,138	-0,218
336,143	470,563	-0,122	-0,189
337,158	196,183	-0,171	-0,178
338,173	-103,584	-0,150	0,024
339,187	-73,004	-0,127	-0,032
340,202	92,915	-0,103	-0,080
341,216	213,964	-0,101	-0,110
342,231	24,511	-0,139	-0,078
343,246	-93,694	-0,223	-0,042
344,260	-25,294	-0,217	-0,088
345,275	-41,147	-0,138	-0,048
346,289	677,365	-0,092	-0,164
347,304	-163,164	-0,094	0,003
348,319	74,988	-0,102	-0,073
349,333	146,953	-0,157	-0,145
350,348	-200,000	-0,071	-0,225
351,362	319,119	-0,129	-0,167
352,377	276,376	-0,130	-0,158
353,392	-91,799	-0,091	-0,017
354,406	167,817	-0,052	0,051
355,421	206,247	1310,700	1397,152
356,435	158,614	1470,905	1397,641
