DTS Sentinel unit serial number:	SN410029Multiplexer serial number:	ORYXHardware model number:	OX2-SRSoftware version number:	ORYX F/W v4,00 Oryx Data Collector v3.7.2.0data status	okinstallation	B3 Nyhavnadifferential loss correction	single-endedforward channel	channel 1reverse channel	N/Adate	2023/11/30time	05:27:30forward acquisition time	300,00reverse acquisition time	0,00gamma	499,1914k internal	0,3211k external	0,3211temperature offset calibration	1,0000default loss term (dB/km)	0,3820temperature slope calibration	1,0000multiplexer offset coefficient	1,0000multiplexer slope coefficient	1,0000fibre end	0,00T internal ref (°C)	10,23T ext. ref 1 (°C)	-5,06T ext. ref 2 (°C)	-5,16length (m)	temperature (°C)	Stokes	anti-Stokes-744,400	-200,000	-0,032	-0,406
-743,385	-200,000	-0,050	0,367
-742,371	277,737	-0,151	-0,196
-741,356	-200,000	0,077	0,303
-740,342	-37,792	-0,216	-0,083
-739,327	-200,000	-0,000	0,294
-738,312	497,394	-0,090	-0,151
-737,298	-200,000	-0,004	0,243
-736,283	122,512	-0,102	-0,092
-735,269	-200,000	0,017	0,429
-734,254	-54,027	-0,170	-0,056
-733,239	-108,622	-0,217	0,033
-732,225	463,694	-0,114	-0,185
-731,210	158,831	0,128	0,129
-730,196	-86,706	0,072	0,016
-729,181	5,956	0,050	-0,027
-728,167	316,167	-0,039	-0,053
-727,152	-114,387	-0,153	-0,021
-726,137	9,996	-0,041	-0,022
-725,123	65,264	-0,058	0,042
-724,108	-23,317	-0,138	0,060
-723,094	73,845	-0,065	-0,049
-722,079	-54,056	-0,080	-0,026
-721,064	-200,000	0,001	-0,026
-720,050	800,000	-0,040	-0,082
-719,035	-200,000	0,016	-0,058
-718,021	-200,000	-0,006	0,039
-717,006	-62,298	-0,071	-0,021
-715,991	-22,191	-0,162	-0,071
-714,977	800,000	-0,067	-0,186
-713,962	354,996	-0,149	-0,215
-712,948	-200,000	0,012	0,038
-711,933	140,200	0,077	0,073
-710,918	-91,514	-0,066	0,014
-709,904	-200,000	-0,062	-0,234
-708,889	131,430	0,060	-0,056
-707,875	-5,622	-0,132	-0,065
-706,860	104,021	0,101	-0,086
-705,845	240,767	0,046	0,056
-704,831	-200,000	-0,029	0,123
-703,816	-13,917	-0,146	-0,068
-702,802	107,154	0,053	-0,046
-701,787	-40,830	-0,080	0,030
-700,772	800,000	-0,045	-0,137
-699,758	800,000	0,018	0,052
-698,743	-74,126	-0,094	0,025
-697,729	-135,258	0,082	0,007
-696,714	274,370	0,047	0,060
-695,699	-130,150	-0,117	0,011
-694,685	-33,118	-0,028	-0,011
-693,670	21,520	-0,178	-0,105
-692,656	36,909	0,139	-0,089
-691,641	406,194	-0,053	-0,081
-690,627	-200,000	-0,032	0,158
-689,612	642,171	-0,054	0,100
-688,597	76,971	0,048	0,037
-687,583	35,339	-0,087	0,055
-686,568	220,863	-0,110	-0,128
-685,554	-83,943	-0,048	0,011
-684,539	-200,000	0,002	-0,024
-683,524	-200,000	-0,003	0,043
-682,510	-52,070	-0,061	-0,021
-681,495	-42,564	-0,051	0,019
-680,481	-200,000	-0,004	-0,064
-679,466	-38,826	-0,105	-0,040
-678,451	711,236	0,061	-0,117
-677,437	800,000	0,064	0,185
-676,422	-200,000	0,010	-0,033
-675,408	324,359	0,034	0,048
-674,393	108,990	0,054	-0,047
-673,378	286,643	0,074	-0,097
-672,364	-200,000	-0,020	-0,110
-671,349	197,260	-0,059	-0,066
-670,335	-31,560	0,106	0,043
-669,320	-200,000	-0,010	0,070
-668,305	800,000	-0,020	0,049
-667,291	387,582	-0,041	-0,062
-666,276	-200,000	-0,035	-0,118
-665,262	27,356	-0,049	0,030
-664,247	-17,107	-0,158	-0,072
-663,232	171,387	-0,058	-0,061
-662,218	-166,119	0,068	-0,002
-661,203	-200,000	0,024	-0,088
-660,189	-200,000	0,020	0,138
-659,174	-32,984	-0,070	-0,028
-658,159	-30,161	-0,079	0,032
-657,145	204,728	0,070	0,079
-656,130	-62,309	-0,007	0,002
-655,116	-24,454	-0,120	-0,052
-654,101	37,787	0,186	0,119
-653,086	35,348	-0,053	-0,034
-652,072	-200,000	0,016	0,055
-651,057	-60,378	-0,075	-0,023
-650,043	460,706	0,065	0,105
-649,028	800,000	0,048	-0,142
-648,014	-68,667	0,091	-0,025
-646,999	800,000	-0,026	-0,052
-645,984	-25,934	-0,032	0,014
-644,970	226,839	0,027	-0,032
-643,955	-14,015	0,092	-0,043
-642,941	800,000	0,004	0,009
-641,926	419,928	0,061	0,095
-640,911	-200,000	-0,007	0,088
-639,897	-200,000	-0,012	-0,132
-638,882	800,000	-0,018	0,050
-637,868	625,625	-0,100	-0,182
-636,853	800,000	-0,033	-0,102
-635,838	-11,025	-0,151	-0,072
-634,824	-39,545	0,026	0,010
-633,809	-200,000	0,008	0,044
-632,795	520,159	0,061	0,104
-631,780	55,050	0,118	0,083
-630,765	-109,211	0,022	-0,003
-629,751	27,598	-0,079	-0,048
-628,736	109,879	-0,152	-0,132
-627,722	85,703	-0,096	0,076
-626,707	-200,000	0,010	-0,094
-625,692	91,458	-0,123	0,100
-624,678	800,000	-0,035	0,094
-623,663	-200,000	-0,016	0,108
-622,649	-200,000	0,031	-0,109
-621,634	800,000	0,018	0,056
-620,619	800,000	-0,033	-0,072
-619,605	800,000	-0,035	-0,076
-618,590	685,502	0,055	0,104
-617,576	-96,229	0,098	-0,019
-616,561	13,336	-0,109	-0,061
-615,546	364,718	0,055	-0,081
-614,532	0,943	-0,095	-0,049
-613,517	-85,199	-0,042	0,009
-612,503	-127,551	0,039	0,004
-611,488	-3,303	0,113	-0,057
-610,474	618,580	0,082	0,150
-609,459	-56,073	-0,138	0,044
-608,444	-57,669	-0,056	0,017
-607,430	800,000	-0,027	0,056
-606,415	-8,567	-0,087	-0,042
-605,401	800,000	0,013	0,039
-604,386	-143,335	0,105	-0,007
-603,371	-108,609	-0,087	-0,013
-602,357	-200,000	-0,012	0,061
-601,342	800,000	0,052	-0,163
-600,328	332,999	-0,120	-0,167
-599,313	800,000	-0,043	-0,108
-598,298	-160,772	-0,140	0,005
-597,284	46,018	0,082	0,055
-596,269	-120,607	0,076	-0,009
-595,255	125,340	0,095	0,087
-594,240	370,175	-0,065	-0,095
-593,225	5,738	-0,071	-0,038
-592,211	113,525	0,037	0,032
-591,196	-113,848	-0,059	0,008
-590,182	-131,588	-0,199	-0,019
-589,167	-200,000	-0,001	-0,056
-588,152	-200,000	0,015	-0,110
-587,138	195,715	-0,096	-0,105
-586,123	-200,000	0,001	0,065
-585,109	-162,812	-0,060	0,002
-584,094	442,416	-0,054	-0,085
-583,079	-200,000	-0,006	0,087
-582,065	800,000	-0,073	0,150
-581,050	800,000	0,032	0,075
-580,036	-170,094	-0,063	0,002
-579,021	800,000	-0,032	-0,084
-578,006	131,535	-0,068	-0,063
-576,992	251,506	0,049	-0,060
-575,977	800,000	0,041	-0,117
-574,963	-200,000	-0,032	0,108
-573,948	-136,003	0,015	-0,001
-572,934	-19,689	0,085	-0,038
-571,919	-200,000	-0,035	-0,134
-570,904	105,573	-0,071	-0,060
-569,890	780,847	0,011	-0,022
-568,875	-154,576	-0,103	0,005
-567,861	224,460	0,065	0,075
-566,846	-113,624	-0,112	-0,016
-565,831	800,000	0,041	0,106
-564,817	-200,000	0,010	-0,035
-563,802	189,152	-0,082	0,089
-562,788	800,000	0,038	-0,076
-561,773	-113,447	0,138	-0,019
-560,758	209,479	0,050	0,056
-559,744	104,501	0,054	0,046
-558,729	-200,000	-0,047	-0,000
-557,715	-200,000	-0,013	0,062
-556,700	-28,739	0,034	-0,014
-555,685	-24,606	-0,021	0,009
-554,671	-127,544	0,026	0,003
-553,656	-27,404	0,134	0,056
-552,642	-184,510	-0,020	0,000
-551,627	753,165	-0,051	-0,100
-550,612	-200,000	-0,001	-0,076
-549,598	312,225	-0,087	-0,118
-548,583	3,384	0,132	-0,069
-547,569	13,038	-0,039	0,021
-546,554	-84,217	0,075	-0,017
-545,539	-200,000	0,019	0,079
-544,525	800,000	-0,070	0,149
-543,510	115,071	-0,104	-0,091
-542,496	-200,000	-0,046	-0,187
-541,481	-39,325	0,100	-0,038
-540,466	800,000	0,020	-0,042
-539,452	800,000	0,055	0,110
-538,437	555,401	-0,082	0,143
-537,423	-200,000	-0,016	-0,078
-536,408	5,015	-0,135	0,071
-535,393	105,723	0,112	-0,095
-534,379	-200,000	-0,054	-0,230
-533,364	-50,947	0,013	-0,004
-532,350	-174,223	0,233	0,005
-531,335	-154,632	0,074	-0,003
-530,321	-200,000	-0,008	0,179
-529,306	-1,655	-0,062	0,031
-528,291	64,842	-0,086	0,062
-527,277	29,149	-0,083	0,051
-526,262	-5,951	0,056	-0,028
-525,248	94,002	0,033	-0,027
-524,233	-86,303	0,116	-0,025
-523,218	410,669	-0,072	0,109
-522,204	72,141	0,022	-0,016
-521,189	376,504	-0,037	-0,055
-520,175	-200,000	-0,006	-0,195
-519,160	737,044	0,019	-0,036
-518,145	-24,333	-0,092	0,039
-517,131	-200,000	0,033	0,129
-516,116	-69,301	-0,024	0,007
-515,102	193,205	-0,013	0,015
-514,087	-200,000	-0,006	0,051
-513,072	57,701	-0,118	0,083
-512,058	-200,000	-0,001	0,007
-511,043	800,000	0,046	0,098
-510,029	210,174	-0,055	-0,062
-509,014	83,082	0,106	0,083
-507,999	-96,152	0,105	-0,020
-506,985	62,611	-0,043	-0,030
-505,970	-41,237	-0,112	0,041
-504,956	-200,000	-0,026	-0,090
-503,941	800,000	-0,026	0,061
-502,926	-104,192	0,062	-0,010
-501,912	-114,681	0,121	0,016
-500,897	-31,221	-0,059	0,024
-499,883	-103,064	-0,165	0,028
-498,868	-200,000	0,018	0,104
-497,853	-122,821	0,113	0,013
-496,839	167,414	-0,025	0,026
-495,824	285,178	-0,035	-0,045
-494,810	-200,000	-0,002	0,257
-493,795	-200,000	-0,003	0,055
-492,781	-200,000	-0,031	0,110
-491,766	-200,000	-0,019	-0,238
-490,751	767,094	-0,048	-0,094
-489,737	-200,000	-0,014	0,110
-488,722	-200,000	-0,012	0,100
-487,708	-137,035	0,202	0,016
-486,693	-117,910	-0,082	0,010
-485,678	-200,000	0,015	-0,170
-484,664	800,000	-0,069	-0,201
-483,649	505,889	-0,003	0,005
-482,635	-47,373	-0,053	-0,018
-481,620	283,687	0,030	0,039
-480,605	-200,000	0,001	0,053
-479,591	110,988	-0,032	0,027
-478,576	598,236	-0,017	0,031
-477,562	562,406	-0,031	-0,053
-476,547	-200,000	-0,048	-0,219
-475,532	191,485	0,112	0,121
-474,518	-16,276	0,061	0,027
-473,503	-122,725	0,138	-0,016
-472,489	-200,000	-0,034	0,184
-471,474	102,436	0,112	-0,094
-470,459	135,572	-0,046	0,043
-469,445	104,713	-0,051	-0,044
-468,430	-200,000	0,021	-0,119
-467,416	27,028	0,048	0,029
-466,401	24,326	-0,080	-0,048
-465,386	39,821	0,127	0,082
-464,372	310,541	-0,055	0,074
-463,357	-200,000	-0,005	0,094
-462,343	665,252	-0,087	-0,162
-461,328	-42,807	-0,091	0,033
-460,313	436,066	-0,017	0,027
-459,299	-184,644	0,125	0,001
-458,284	-99,421	0,105	-0,019
-457,270	800,000	0,076	0,164
-456,255	-200,000	0,001	-0,049
-455,241	-200,000	-0,058	-0,210
-454,226	-39,254	0,079	-0,030
-453,211	37,475	0,114	0,073
-452,197	800,000	0,058	0,133
-451,182	-133,488	0,186	0,017
-450,168	-200,000	0,020	0,177
-449,153	-71,084	-0,162	0,043
-448,138	-119,976	-0,098	0,012
-447,124	-200,000	-0,003	-0,057
-446,109	-200,000	0,011	0,076
-445,095	-52,293	0,055	0,018
-444,080	494,405	0,023	-0,038
-443,065	-143,666	-0,053	0,004
-442,051	175,041	0,040	0,042
-441,036	-69,039	0,076	0,021
-440,022	217,952	0,022	-0,026
-439,007	-200,000	0,015	0,060
-437,992	4,283	0,041	-0,021
-436,978	68,940	0,084	0,062
-435,963	-66,260	0,068	-0,019
-434,949	13,188	-0,118	-0,065
-433,934	800,000	-0,026	-0,065
-432,919	-200,000	0,014	-0,127
-431,905	435,663	0,028	0,044
-430,890	-200,000	0,013	0,114
-429,876	-161,826	0,117	0,004
-428,861	-180,850	0,076	-0,001
-427,846	800,000	-0,041	-0,092
-426,832	800,000	0,023	-0,050
-425,817	220,303	-0,072	-0,083
-424,803	735,525	-0,051	-0,099
-423,788	-75,813	0,158	0,040
-422,773	-200,000	-0,016	-0,058
-421,759	123,148	0,043	0,038
-420,744	168,759	-0,027	0,027
-419,730	-13,289	-0,021	0,010
-418,715	225,062	-0,058	-0,067
-417,701	-200,000	-0,017	-0,057
-416,686	-200,000	0,004	-0,184
-415,671	362,931	0,034	0,049
-414,657	-170,072	0,078	0,002
-413,642	-35,991	0,047	-0,018
-412,628	157,998	-0,011	0,011
-411,613	102,415	-0,056	-0,047
-410,598	800,000	-0,038	-0,104
-409,584	178,287	0,088	-0,092
-408,569	-200,000	0,016	-0,095
-407,555	-200,000	-0,018	-0,065
-406,540	-144,846	0,085	0,006
-405,525	43,457	0,084	-0,055
-404,511	-50,968	-0,125	0,042
-403,496	-200,000	0,000	-0,144
-402,482	800,000	-0,045	0,120
-401,467	-62,893	-0,013	0,004
-400,452	-46,543	0,150	0,052
-399,438	-138,999	0,144	0,011
-398,423	-200,000	-0,010	-0,075
-397,409	800,000	-0,016	-0,036
-396,394	-57,475	0,104	-0,032
-395,379	25,962	0,069	0,041
-394,365	800,000	0,035	0,105
-393,350	-125,386	0,041	0,004
-392,336	36,597	0,036	0,022
-391,321	468,843	0,041	0,066
-390,306	-104,651	-0,151	-0,025
-389,292	-25,457	0,186	0,078
-388,277	-112,071	-0,071	0,010
-387,263	800,000	0,059	0,132
-386,248	-1,621	0,170	-0,085
-385,233	-200,000	-0,000	0,115
-384,219	23,533	0,070	-0,041
-383,204	-200,000	0,007	-0,087
-382,190	180,661	-0,009	-0,009
-381,175	-132,640	-0,012	-0,001
-380,160	92,201	-0,007	-0,005
-379,146	-200,000	0,018	0,097
-378,131	108,645	-0,080	-0,068
-377,117	-15,240	-0,062	0,028
-376,102	-200,000	-0,007	-0,025
-375,088	-200,000	0,024	0,081
-374,073	800,000	-0,056	0,138
-373,058	313,151	-0,030	-0,041
-372,044	-200,000	0,018	0,073
-371,029	-36,421	-0,060	-0,023
-370,015	800,000	0,019	0,055
-369,000	800,000	-0,033	0,075
-367,985	390,771	0,105	-0,156
-366,971	121,165	-0,054	-0,048
-365,956	371,485	0,050	0,073
-364,942	800,000	-0,067	0,153
-363,927	800,000	-0,051	0,132
-362,912	27,611	-0,044	-0,026
-361,898	-200,000	-0,010	-0,041
-360,883	228,655	-0,076	-0,089
-359,869	-200,000	-0,017	0,076
-358,854	-200,000	0,028	0,156
-357,839	-200,000	0,044	0,193
-356,825	-144,872	0,162	-0,010
-355,810	74,769	-0,056	0,042
-354,796	-33,383	0,143	-0,056
-353,781	-129,859	-0,135	-0,013
-352,766	121,619	-0,069	0,061
-351,752	-63,135	0,060	0,018
-350,737	-46,254	-0,071	-0,025
-349,723	800,000	0,015	0,041
-348,708	585,292	-0,036	-0,063
-347,693	800,000	-0,063	-0,151
-346,679	336,031	-0,059	0,082
-345,664	355,481	0,018	0,025
-344,650	51,007	-0,010	-0,007
-343,635	800,000	0,031	-0,070
-342,620	156,336	0,037	-0,036
-341,606	487,168	-0,064	0,105
-340,591	-200,000	0,009	0,115
-339,577	5,508	-0,053	-0,028
-338,562	800,000	0,023	-0,052
-337,548	-133,951	0,088	0,008
-336,533	94,920	-0,080	0,065
-335,518	-168,303	-0,176	-0,005
-334,504	201,128	-0,017	-0,019
-333,489	-200,000	-0,007	-0,066
-332,475	-200,000	0,005	0,058
-331,460	191,787	-0,113	-0,122
-330,445	-107,661	-0,088	-0,014
-329,431	-51,897	0,158	0,052
-328,416	-200,000	0,001	-0,056
-327,402	407,333	-0,069	0,105
-326,387	800,000	-0,015	0,047
-325,372	-29,955	-0,034	0,014
-324,358	365,056	0,073	-0,106
-323,343	76,309	-0,108	0,082
-322,329	-14,649	0,034	-0,016
-321,314	-200,000	-0,003	0,017
-320,299	-137,476	0,058	-0,005
-319,285	33,145	0,048	-0,030
-318,270	252,420	-0,152	-0,185
-317,256	-58,950	-0,124	-0,038
-316,241	800,000	0,022	-0,047
-315,226	629,673	-0,058	0,105
-314,212	578,216	0,017	0,030
-313,197	-126,426	0,102	0,011
-312,183	-150,141	0,064	-0,003
-311,168	-200,000	0,001	-0,088
-310,153	-166,668	-0,140	0,004
-309,139	10,177	0,095	0,051
-308,124	-200,000	-0,019	-0,153
-307,110	384,122	0,109	0,160
-306,095	-9,848	0,163	-0,077
-305,080	411,536	-0,048	0,073
-304,066	800,000	0,012	-0,033
-303,051	-50,073	-0,136	-0,046
-302,037	46,560	0,091	-0,060
-301,022	215,255	0,033	-0,038
-300,008	86,222	0,058	-0,045
-298,993	-200,000	0,024	0,157
-297,978	52,437	0,054	0,036
-296,964	-200,000	-0,008	0,049
-295,949	800,000	-0,020	-0,049
-294,935	-113,081	0,158	0,022
-293,920	311,055	0,059	-0,079
-292,905	-200,000	-0,013	0,049
-291,891	800,000	0,046	-0,113
-290,876	45,614	0,139	-0,091
-289,862	290,161	0,071	0,092
-288,847	-200,000	-0,005	0,075
-287,832	258,435	0,026	-0,032
-286,818	53,338	-0,049	-0,033
-285,803	-15,437	0,044	-0,020
-284,789	-66,313	0,046	0,013
-283,774	-200,000	-0,007	-0,038
-282,759	-200,000	0,009	-0,153
-281,745	69,525	-0,057	-0,042
-280,730	-38,162	-0,134	-0,050
-279,716	-34,529	0,106	-0,041
-278,701	213,342	0,065	0,073
-277,686	45,825	0,055	-0,036
-276,672	-200,000	-0,042	0,137
-275,657	-145,025	-0,124	0,008
-274,643	-108,303	0,079	-0,012
-273,628	-114,594	0,065	-0,009
-272,613	-43,484	-0,076	0,027
-271,599	800,000	-0,054	-0,122
-270,584	98,101	-0,065	0,053
-269,570	-65,760	0,052	-0,015
-268,555	-32,587	-0,105	-0,042
-267,540	-200,000	-0,029	-0,110
-266,526	-34,276	-0,075	0,029
-265,511	-200,000	0,007	0,028
-264,497	133,109	0,077	0,070
-263,482	-86,328	-0,042	0,009
-262,467	522,979	0,069	-0,115
-261,453	598,675	-0,005	0,009
-260,438	-200,000	-0,007	0,062
-259,424	759,103	-0,068	0,132
-258,409	314,775	-0,030	-0,040
-257,395	-200,000	-0,012	0,046
-256,380	-153,324	0,075	0,004
-255,365	-100,601	0,067	0,012
-254,351	122,157	0,125	0,111
-253,336	596,084	-0,096	-0,170
-252,322	492,802	0,040	-0,065
-251,307	-200,000	-0,013	-0,142
-250,292	-74,169	0,074	0,019
-249,278	800,000	0,004	-0,012
-248,263	51,605	0,021	0,014
-247,249	91,460	-0,045	-0,036
-246,234	140,627	-0,057	-0,053
-245,219	-40,248	-0,059	-0,022
-244,205	-200,000	0,027	-0,111
-243,190	-200,000	0,012	0,178
-242,176	-112,586	0,078	-0,011
-241,161	174,448	0,009	0,009
-240,146	800,000	-0,050	-0,114
-239,132	-28,929	-0,142	0,058
-238,117	-200,000	-0,010	0,074
-237,103	-147,947	-0,098	0,006
-236,088	-168,929	-0,104	0,003
-235,073	618,281	-0,039	0,071
-234,059	299,885	-0,068	0,089
-233,044	69,232	0,030	0,022
-232,030	-200,000	0,001	-0,103
-231,015	164,895	0,067	0,067
-230,000	-200,000	-0,006	-0,065
-228,986	235,330	-0,066	-0,077
-227,971	800,000	0,008	-0,025
-226,957	389,424	0,057	0,084
-225,942	10,389	0,004	0,002
-224,927	98,223	-0,067	-0,055
-223,913	97,117	-0,117	0,095
-222,898	54,759	-0,101	-0,069
-221,884	-200,000	0,018	0,072
-220,869	-95,808	0,104	0,020
-219,855	113,193	-0,031	-0,027
-218,840	-200,000	-0,008	0,159
-217,825	-200,000	-0,014	0,094
-216,811	-122,365	0,105	-0,012
-215,796	-59,286	0,079	0,024
-214,782	-2,466	-0,105	-0,052
-213,767	324,212	0,020	0,027
-212,752	-116,380	-0,107	-0,014
-211,738	800,000	0,045	0,136
-210,723	-94,537	-0,093	-0,018
-209,709	234,799	-0,073	-0,086
-208,694	-104,869	0,036	0,006
-207,679	-151,870	-0,162	-0,008
-206,665	-200,000	-0,018	0,139
-205,650	800,000	0,053	0,108
-204,636	-200,000	-0,018	0,063
-203,621	178,217	-0,138	0,143
-202,606	-200,000	0,025	0,107
-201,592	-16,273	-0,079	-0,036
-200,577	-55,914	-0,119	0,037
-199,563	50,921	0,102	0,068
-198,548	-115,528	0,092	-0,012
-197,533	314,873	-0,047	-0,063
-196,519	-200,000	0,008	0,133
-195,504	-200,000	0,002	-0,048
-194,490	-121,493	-0,092	-0,011
-193,475	81,161	-0,047	-0,036
-192,460	189,033	0,056	-0,060
-191,446	-72,353	0,113	0,029
-190,431	1,562	0,075	-0,038
-189,417	-200,000	-0,047	0,158
-188,402	-200,000	0,011	0,052
-187,387	348,292	-0,016	-0,023
-186,373	40,878	0,116	-0,074
-185,358	60,267	0,093	-0,065
-184,344	238,975	0,045	-0,053
-183,329	-200,000	0,020	-0,068
-182,315	-4,075	-0,019	0,009
-181,300	48,324	-0,007	-0,005
-180,285	104,692	0,033	-0,028
-179,271	69,788	0,032	0,023
-178,256	628,570	0,067	0,120
-177,242	465,843	-0,068	0,109
-176,227	-200,000	0,009	0,099
-175,212	-200,000	-0,024	-0,108
-174,198	8,438	0,026	0,014
-173,183	604,289	-0,101	-0,179
-172,169	121,808	0,105	-0,092
-171,154	-200,000	-0,010	-0,070
-170,139	-35,705	-0,060	-0,023
-169,125	-145,577	0,116	-0,007
-168,110	-200,000	0,024	0,083
-167,096	8,081	-0,025	0,014
-166,081	-4,641	-0,050	0,024
-165,066	-200,000	0,002	0,051
-164,052	55,846	0,053	-0,036
-163,037	-22,896	-0,081	-0,034
-162,023	800,000	0,066	0,189
-161,008	246,630	0,053	0,063
-159,993	32,877	0,092	-0,056
-158,979	108,371	-0,100	-0,084
-157,964	111,034	0,023	-0,019
-156,950	-200,000	0,021	-0,071
-155,935	71,206	-0,067	0,050
-154,920	800,000	-0,037	0,082
-153,906	800,000	0,018	0,036
-152,891	9,196	0,073	-0,039
-151,877	18,098	-0,188	0,106
-150,862	800,000	-0,039	-0,100
-149,847	800,000	0,012	0,035
-148,833	26,678	0,076	0,045
-147,818	14,121	0,086	0,047
-146,804	-75,461	0,172	0,043
-145,789	-118,331	-0,130	0,016
-144,775	85,515	0,076	-0,059
-143,760	-200,000	-0,004	-0,122
-142,745	-200,000	0,033	-0,132
-141,731	387,750	-0,057	-0,083
-140,716	-116,871	0,035	0,005
-139,702	55,607	0,104	0,071
-138,687	22,044	0,066	-0,038
-137,672	161,367	0,079	0,079
-136,658	185,026	0,069	-0,072
-135,643	-24,415	-0,093	0,039
-134,629	800,000	0,038	-0,095
-133,614	-122,528	0,153	0,017
-132,599	245,419	-0,089	0,106
-131,585	-19,664	0,049	-0,021
-130,570	800,000	-0,035	-0,076
-129,556	-200,000	-0,006	-0,031
-128,541	-200,000	-0,013	-0,062
-127,526	139,336	-0,132	-0,123
-126,512	307,275	-0,072	-0,096
-125,497	-200,000	-0,013	0,100
-124,483	-17,228	-0,041	0,018
-123,468	7,342	0,128	0,067
-122,453	246,795	-0,036	0,043
-121,439	-99,493	-0,073	0,013
-120,424	488,333	0,052	-0,085
-119,410	-200,000	0,001	-0,111
-118,395	-200,000	-0,014	0,067
-117,380	800,000	-0,028	0,074
-116,366	340,717	0,038	0,052
-115,351	-131,173	-0,048	-0,004
-114,337	-29,296	0,048	-0,019
-113,322	337,440	-0,058	-0,080
-112,307	-75,532	0,055	-0,014
-111,293	2,408	0,116	0,059
-110,278	-48,097	0,089	0,030
-109,264	169,665	0,067	-0,068
-108,249	-32,573	-0,120	-0,047
-107,234	-145,133	-0,039	0,002
-106,220	47,102	0,017	-0,011
-105,205	-0,329	-0,055	-0,028
-104,191	-20,739	0,075	0,032
-103,176	108,519	-0,147	0,124
-102,162	-200,000	-0,013	-0,042
-101,147	800,000	-0,035	0,072
-100,132	-200,000	0,001	0,010
-99,118	-57,015	-0,044	0,014
-98,103	286,993	0,080	-0,102
-97,089	114,644	-0,080	0,069
-96,074	-200,000	-0,005	0,064
-95,059	5,787	-0,047	0,024
-94,045	7,417	0,100	-0,053
-93,030	96,733	-0,100	0,081
-92,016	800,000	0,047	-0,098
-91,001	-200,000	-0,014	0,115
-89,986	800,000	0,064	0,148
-88,972	-200,000	-0,018	0,094
-87,957	-59,340	0,137	0,041
-86,943	132,660	-0,174	-0,159
-85,928	-200,000	0,016	0,191
-84,913	-200,000	-0,004	0,013
-83,899	570,486	-0,042	0,073
-82,884	800,000	0,055	-0,129
-81,870	800,000	-0,043	0,090
-80,855	-200,000	-0,003	-0,010
-79,840	-200,000	-0,011	-0,099
-78,826	40,192	-0,035	-0,022
-77,811	-89,560	-0,029	0,006
-76,797	-111,690	-0,121	0,017
-75,782	-10,754	0,065	0,030
-74,767	-200,000	-0,025	0,141
-73,753	63,023	-0,050	0,035
-72,738	-200,000	0,001	0,075
-71,724	-30,032	0,062	-0,025
-70,709	800,000	-0,045	-0,131
-69,694	-117,899	0,203	-0,025
-68,680	47,693	0,042	-0,028
-67,665	625,446	0,118	0,212
-66,651	148,756	0,048	-0,045
-65,636	54,258	0,096	0,065
-64,622	-156,533	-0,081	-0,003
-63,607	138,549	0,026	-0,024
-62,592	-32,524	-0,011	0,004
-61,578	387,728	0,092	0,134
-60,563	92,698	0,030	-0,024
-59,549	-200,000	0,005	0,116
-58,534	33,860	-1,922	-1,178
-57,519	498,285	-1,257	-2,051
-56,505	-200,000	-0,360	-4,400
-55,490	476,089	1,006	1,609
-54,476	800,000	5,020	11,219
-53,461	-200,000	21,080	338,382
-52,446	800,000	758,609	2353,545
-51,432	559,191	1661,634	2841,894
-50,417	73,646	1661,546	1227,139
-49,403	18,160	1534,780	861,666
-48,388	12,070	1458,391	789,329
-47,373	19,272	1449,294	818,926
-46,359	15,438	1438,642	794,649
-45,344	10,338	1434,421	768,008
-44,330	10,280	1432,482	766,662
-43,315	10,268	1430,698	765,621
-42,300	10,265	1429,091	764,717
-41,286	10,283	1427,788	764,072
-40,271	10,262	1426,620	763,322
-39,257	10,281	1425,275	762,660
-38,242	10,334	1424,161	762,283
-37,227	10,285	1423,281	761,552
-36,213	10,317	1421,961	760,966
-35,198	10,262	1420,763	760,035
-34,184	10,360	1419,769	759,935
-33,169	10,271	1418,448	758,781
-32,154	10,354	1417,383	758,568
-31,140	10,345	1416,205	757,865
-30,125	10,381	1415,089	757,409
-29,111	10,367	1414,038	756,749
-28,096	10,356	1412,483	755,838
-27,082	10,263	1411,487	754,837
-26,067	10,229	1410,723	754,237
-25,052	10,272	1409,541	753,777
-24,038	10,270	1408,537	753,202
-23,023	10,314	1407,452	752,798
-22,009	10,266	1406,536	752,056
-20,994	10,232	1405,668	751,403
-19,979	10,221	1404,871	750,893
-18,965	10,251	1403,677	750,365
-17,950	10,191	1403,005	749,696
-16,936	10,208	1402,030	749,226
-15,921	10,108	1401,199	748,289
-14,906	10,198	1400,077	748,077
-13,892	10,191	1399,022	747,452
-12,877	10,206	1398,386	747,152
-11,863	10,123	1397,559	746,293
-10,848	10,120	1396,544	745,706
-9,833	10,124	1395,678	745,236
-8,819	10,087	1394,898	744,619
-7,804	10,072	1393,925	743,998
-6,790	10,087	1392,910	743,498
-5,775	10,060	1391,926	742,819
-4,760	10,094	1390,748	742,317
-3,746	10,062	1389,881	741,676
-2,731	10,057	1389,145	741,229
-1,717	10,048	1388,351	740,738
-0,702	10,044	1386,656	739,786
0,313	14,198	1299,360	712,181
1,327	30,503	690,150	415,217
2,342	47,293	119,502	78,357
3,356	0,927	16,482	8,303
4,371	13,862	3,350	1,831
5,386	-14,771	0,799	0,360
6,400	800,000	0,197	0,590
7,415	12,421	-0,239	-0,129
8,429	-87,536	-0,347	-0,073
9,444	172,194	-0,223	-0,226
10,459	-39,781	-0,321	-0,118
11,473	-48,928	-0,278	-0,093
12,488	-83,403	-0,367	-0,082
13,502	415,835	-0,209	-0,315
14,517	20,090	-0,360	-0,204
15,531	136,992	-0,242	-0,223
16,546	56,940	-0,471	-0,323
17,561	111,942	-0,328	-0,279
18,575	91,614	-0,098	-0,077
19,590	105,246	-0,191	-0,159
20,604	90,913	-0,208	-0,164
21,619	45,544	-0,420	-0,272
22,634	227,450	-0,395	-0,453
23,648	27,020	-0,456	-0,269
24,663	-86,094	-0,343	-0,074
25,677	217,651	-0,246	-0,276
26,692	68,896	-0,336	-0,242
27,707	40,497	-0,361	-0,228
28,721	194,675	-0,291	-0,311
29,736	46,126	-0,377	-0,245
30,750	310,123	-0,327	-0,432
31,765	-19,521	-0,352	-0,153
32,780	105,539	-0,383	-0,318
33,794	29,795	-0,336	-0,201
34,809	-25,139	-0,393	-0,163
35,823	160,154	-0,220	-0,216
36,838	122,118	-0,409	-0,359
37,853	102,665	-0,438	-0,360
38,867	225,883	-0,302	-0,344
39,882	152,622	-0,286	-0,275
40,896	64,699	-0,309	-0,219
41,911	59,672	-0,355	-0,246
42,926	168,881	-0,263	-0,264
43,940	32,649	-0,345	-0,209
44,955	72,702	-0,403	-0,295
45,969	56,371	-0,320	-0,218
46,984	-61,364	-0,382	-0,112
47,999	165,024	-0,227	-0,225
49,013	-70,110	-0,403	-0,107
50,028	55,302	-0,271	-0,184
51,042	178,593	-0,318	-0,326
52,057	59,404	-0,228	-0,157
53,071	100,913	-0,417	-0,340
54,086	19,578	-0,321	-0,181
55,101	-4,226	-0,444	-0,215
56,115	3,793	-0,349	-0,178
57,130	36,981	-0,433	-0,269
58,144	276,847	-0,294	-0,367
59,159	168,140	-0,418	-0,418
60,174	325,919	-0,239	-0,322
61,188	652,008	-0,228	-0,413
62,203	148,794	-0,269	-0,256
63,217	118,014	-0,229	-0,198
64,232	48,072	-0,448	-0,293
65,247	-55,640	-0,335	-0,104
66,261	-23,923	-0,385	-0,161
67,276	185,354	-0,252	-0,262
68,290	-32,198	-0,377	-0,147
69,305	23,746	-0,272	-0,157
70,320	68,399	-0,274	-0,197
71,334	149,024	-0,396	-0,376
72,349	-131,592	-0,432	-0,039
73,363	92,710	-0,297	-0,235
74,378	446,673	-0,220	-0,341
75,393	41,343	-0,313	-0,198
76,407	91,417	-0,146	-0,115
77,422	-26,932	-0,307	-0,125
78,436	-133,779	-0,344	0,030
79,451	-61,531	-0,355	-0,104
80,466	200,715	-0,239	-0,258
81,480	-22,964	-0,304	-0,128
82,495	-177,547	-0,253	0,004
83,509	-144,684	-0,304	0,019
84,524	375,110	-0,148	-0,211
85,539	69,245	-0,303	-0,218
86,553	27,616	-0,275	-0,162
87,568	-75,863	-0,338	-0,083
88,582	-55,060	-0,352	-0,110
89,597	242,584	-0,229	-0,269
90,611	152,143	-0,133	-0,128
91,626	-108,523	-0,343	-0,051
92,641	-120,908	-0,245	-0,028
93,655	-69,006	-0,241	-0,065
94,670	7,119	-0,342	-0,178
95,684	1,670	-0,296	-0,148
96,699	-63,103	-0,385	-0,110
97,714	9,695	-0,243	-0,128
98,728	191,464	-0,237	-0,250
99,743	346,140	-0,208	-0,287
100,757	-109,316	-0,293	-0,043
101,772	134,261	-0,408	-0,370
102,787	146,536	-0,254	-0,239
103,801	-38,181	-0,433	-0,160
104,816	-88,250	-0,357	-0,074
105,830	190,415	-0,206	-0,217
106,845	645,597	-0,175	-0,313
107,860	-155,727	-0,325	-0,014
108,874	-164,802	-0,319	-0,010
109,889	30,381	-0,369	-0,219
110,903	-9,352	-0,236	-0,110
111,918	59,358	-0,281	-0,193
112,933	115,792	-0,230	-0,197
113,947	120,200	-0,255	-0,221
114,962	5,380	-0,181	-0,093
115,976	217,079	-0,162	-0,180
116,991	222,325	-0,276	-0,311
118,006	187,348	-0,239	-0,249
119,020	28,773	-0,241	-0,142
120,035	77,784	-0,250	-0,186
121,049	-45,323	-0,184	-0,063
122,064	226,483	-0,119	-0,135
123,079	-121,746	-0,298	-0,034
124,093	-18,993	-0,304	-0,131
125,108	9,452	-0,261	-0,138
126,122	206,585	-0,172	-0,187
127,137	-19,477	-0,268	-0,116
128,151	189,159	-0,106	-0,111
129,166	101,011	-0,286	-0,232
130,181	4,703	-0,282	-0,144
131,195	3,985	-0,334	-0,170
132,210	216,001	-0,226	-0,250
133,224	-2,452	-0,213	-0,104
134,239	52,643	-0,260	-0,173
135,254	-11,532	-0,190	-0,087
136,268	-1,431	-0,224	-0,110
137,283	115,223	-0,109	-0,093
138,297	124,554	-0,206	-0,181
139,312	118,748	-0,258	-0,222
140,327	185,104	-0,159	-0,164
141,341	-9,193	-0,294	-0,137
142,356	-55,821	-0,153	-0,047
143,370	71,766	-0,140	-0,101
144,385	-36,958	-0,270	-0,100
145,400	326,023	-0,205	-0,274
146,414	7,486	-0,329	-0,171
147,429	145,758	-0,275	-0,257
148,443	255,949	-0,158	-0,190
149,458	-33,565	-0,241	-0,092
150,473	51,804	-0,186	-0,123
151,487	-82,700	-0,274	-0,061
152,502	-7,319	-0,335	-0,157
153,516	13,682	-0,204	-0,110
154,531	54,144	-0,261	-0,175
155,546	296,848	-0,137	-0,176
156,560	-50,523	-0,314	-0,103
157,575	52,016	-0,222	-0,147
158,589	138,999	-0,257	-0,235
159,604	33,608	-0,288	-0,174
160,619	264,053	-0,212	-0,257
161,633	-97,291	-0,329	-0,059
162,648	106,518	-0,117	-0,097
163,662	14,951	-0,263	-0,143
164,677	-61,050	-0,188	-0,055
165,692	-94,224	-0,162	-0,031
166,706	137,054	-0,261	-0,237
167,721	-166,549	-0,391	-0,011
168,735	-5,646	-0,257	-0,122
169,750	-73,798	-0,208	-0,052
170,764	-58,669	-0,205	-0,061
171,779	-35,494	-0,320	-0,120
172,794	-0,026	-0,119	-0,059
173,808	146,063	-0,249	-0,232
174,823	51,598	-0,218	-0,144
175,837	-49,400	-0,294	-0,097
176,852	218,130	-0,189	-0,210
177,867	-166,736	-0,284	0,008
178,881	40,132	-0,147	-0,092
179,896	585,940	-0,114	-0,196
180,910	316,514	-0,211	-0,277
181,925	80,837	-0,255	-0,191
182,940	-142,260	-0,223	-0,015
183,954	91,773	-0,287	-0,224
184,969	-24,884	-0,219	-0,090
185,983	249,108	-0,172	-0,203
186,998	-19,395	-0,277	-0,119
188,013	567,449	-0,160	-0,270
189,027	-127,345	-0,209	0,021
190,042	670,707	-0,105	-0,189
191,056	-106,422	-0,267	-0,041
192,071	-81,608	-0,264	-0,060
193,086	-123,718	-0,149	0,016
194,100	-200,000	0,019	-0,119
195,115	8,201	-0,156	-0,081
196,129	-21,985	-0,295	-0,124
197,144	-20,466	-0,232	-0,099
198,159	81,692	-0,199	-0,149
199,173	-117,307	-0,186	0,023
200,188	8,616	-0,212	-0,110
201,202	-33,486	-0,106	-0,040
202,217	225,848	-0,085	-0,096
203,232	-64,130	-0,304	-0,085
204,246	-61,596	-0,150	0,043
205,261	-91,044	-0,201	0,040
206,275	-200,000	-0,019	-0,120
207,290	458,102	-0,121	-0,187
208,304	167,811	-0,077	-0,076
209,319	-134,998	-0,152	-0,013
210,334	800,000	-0,098	-0,234
211,348	110,946	-0,276	-0,230
212,363	75,883	-0,206	-0,150
213,377	233,723	-0,192	-0,219
214,392	127,613	-0,185	-0,163
215,407	-46,164	-0,203	0,069
216,421	-34,723	-0,184	-0,069
217,436	4,957	-0,335	-0,170
218,450	-111,804	-0,203	-0,028
219,465	-129,478	-0,318	-0,030
220,480	-127,600	-0,155	-0,015
221,494	7,607	-0,169	-0,087
222,509	-33,455	-0,151	-0,058
223,523	-199,523	-0,261	-0,001
224,538	77,895	-0,082	-0,060
225,553	-4,912	-0,201	-0,095
226,567	203,680	-0,187	-0,201
227,582	298,965	-0,171	-0,218
228,596	468,423	-0,136	-0,211
229,611	171,980	-0,136	-0,135
230,626	235,350	-0,069	0,079
231,640	61,130	-0,164	-0,112
232,655	128,788	-0,204	-0,180
233,669	159,318	-0,152	-0,146
234,684	271,445	-0,160	-0,196
235,699	89,392	-0,248	-0,191
236,713	82,852	-0,187	-0,141
237,728	301,312	-0,107	-0,137
238,742	-127,313	-0,152	-0,015
239,757	-62,292	-0,336	-0,096
240,772	7,928	-0,254	-0,131
241,786	800,000	-0,044	-0,100
242,801	27,705	-0,148	-0,086
243,815	97,945	-0,250	-0,198
244,830	-200,000	-0,036	-0,125
245,844	385,362	-0,221	-0,315
246,859	13,361	-0,180	-0,096
247,874	268,100	-0,231	-0,280
248,888	157,303	-0,184	-0,176
249,903	-57,213	-0,192	-0,058
250,917	800,000	-0,058	-0,131
251,932	-78,864	-0,184	0,043
252,947	800,000	-0,057	-0,130
253,961	248,739	-0,211	-0,247
254,976	82,265	-0,243	-0,182
255,990	23,742	-0,258	-0,146
257,005	20,317	-0,243	-0,135
258,020	800,000	-0,076	-0,156
259,034	156,720	-0,159	-0,152
260,049	147,674	-0,214	-0,199
261,063	639,793	-0,022	-0,038
262,078	800,000	-0,060	-0,166
263,093	284,410	-0,181	-0,224
264,107	-15,807	-0,131	-0,057
265,122	533,595	-0,085	-0,139
266,136	578,682	-0,069	-0,117
267,151	800,000	-0,086	-0,181
268,166	504,498	-0,073	-0,117
269,180	-47,705	-0,179	-0,060
270,195	-37,394	-0,206	-0,075
271,209	-200,000	-0,049	-0,184
272,224	540,114	-0,093	-0,153
273,239	3,557	-0,119	-0,060
274,253	-18,176	-0,198	-0,085
275,268	46,967	-0,147	-0,094
276,282	-35,941	-0,187	-0,069
277,297	11,354	-0,208	-0,109
278,312	-181,556	-0,171	0,002
279,326	7,240	-0,230	-0,118
280,341	-200,000	-0,023	-0,117
281,355	-177,083	-0,282	-0,005
282,370	-114,708	-0,133	0,017
283,384	-163,548	-0,244	0,008
284,399	-176,520	-0,183	-0,003
285,414	-42,398	-0,225	-0,079
286,428	158,798	-0,122	-0,116
287,443	67,038	-0,199	-0,139
288,457	-200,000	-0,012	-0,050
289,472	-95,388	-0,206	-0,038
290,487	-93,786	-0,097	0,018
291,501	-69,014	-0,229	0,060
292,516	0,055	-0,292	-0,142
293,530	135,976	-0,188	-0,168
294,545	-1,394	-0,192	-0,093
295,560	38,514	-0,106	-0,065
296,574	-71,102	-0,166	-0,042
297,589	-100,398	-0,241	-0,041
298,603	-27,943	-0,152	-0,060
299,618	11,806	-0,176	-0,093
300,633	-100,203	-0,212	0,036
301,647	54,087	-0,045	0,030
302,662	-135,609	-0,115	-0,009
303,676	295,572	-0,126	-0,159
304,691	-75,549	-0,246	-0,060
305,706	-71,133	-0,182	-0,047
306,720	391,498	-0,050	-0,072
307,735	55,004	-0,086	0,057
308,749	-133,543	-0,085	0,007
309,764	-147,222	-0,308	-0,018
310,779	-64,672	-0,186	-0,051
311,793	71,040	-0,147	-0,104
312,808	25,496	-0,240	-0,137
313,822	274,901	-0,120	-0,147
314,837	204,030	-0,214	-0,228
315,852	-200,000	0,043	-0,169
316,866	-78,209	-0,127	-0,030
317,881	-129,055	-0,200	-0,019
318,895	-39,401	-0,179	-0,064
319,910	192,834	-0,097	0,101
320,925	30,169	-0,198	-0,116
321,939	-107,789	-0,182	-0,027
322,954	-101,063	-0,124	0,021
323,968	-200,000	-0,038	-0,149
324,983	59,191	-0,151	-0,102
325,997	800,000	-0,051	-0,107
327,012	-44,985	-0,160	-0,054
328,027	5,281	-0,248	-0,125
329,041	3,461	-0,201	-0,100
330,056	-25,712	-0,151	-0,061
331,070	167,641	-0,125	-0,122
332,085	37,767	-0,191	-0,116
333,100	130,887	-0,087	-0,076
334,114	-200,000	-0,014	-0,135
335,129	210,646	-0,107	-0,115
336,143	-200,000	-0,025	-0,227
337,158	-200,000	-0,032	-0,135
338,173	-2,467	-0,049	-0,024
339,187	200,001	-0,113	-0,119
340,202	213,766	-0,137	-0,148
341,216	476,414	-0,123	-0,191
342,231	587,251	-0,140	-0,237
343,246	-78,351	-0,276	-0,064
344,260	-128,926	-0,080	-0,008
345,275	-10,609	-0,055	-0,025
346,289	154,780	-0,128	-0,120
347,304	47,809	-0,021	0,013
348,319	65,051	-0,131	-0,090
349,333	93,029	-0,183	-0,141
350,348	21,088	-0,069	0,038
351,362	233,457	-0,136	-0,153
352,377	118,711	-0,071	0,060
353,392	213,359	-0,133	0,143
354,406	-177,199	-0,124	0,002
355,421	207,378	1310,953	1400,204
356,435	159,523	1471,198	1400,672
