DTS Sentinel unit serial number:	SN410029Multiplexer serial number:	ORYXHardware model number:	OX2-SRSoftware version number:	ORYX F/W v4,00 Oryx Data Collector v3.7.2.0data status	okinstallation	B3 Nyhavnadifferential loss correction	single-endedforward channel	channel 1reverse channel	N/Adate	2023/11/30time	11:57:30forward acquisition time	300,00reverse acquisition time	0,00gamma	499,1914k internal	0,3211k external	0,3211temperature offset calibration	1,0000default loss term (dB/km)	0,3820temperature slope calibration	1,0000multiplexer offset coefficient	1,0000multiplexer slope coefficient	1,0000fibre end	0,00T internal ref (°C)	9,44T ext. ref 1 (°C)	-5,26T ext. ref 2 (°C)	-5,35length (m)	temperature (°C)	Stokes	anti-Stokes-744,400	142,871	-0,169	-0,163
-743,385	-200,000	0,053	0,325
-742,371	185,838	-0,163	-0,176
-741,356	334,824	0,153	0,215
-740,342	53,289	-0,219	-0,152
-739,327	-200,000	-0,012	0,212
-738,312	213,479	-0,179	-0,206
-737,298	-200,000	0,018	0,198
-736,283	230,834	-0,168	-0,200
-735,269	-200,000	0,074	0,262
-734,254	96,096	-0,195	-0,162
-733,239	-55,916	-0,296	0,095
-732,225	800,000	0,057	-0,180
-731,210	-21,405	0,164	0,072
-730,196	393,003	-0,104	-0,158
-729,181	-200,000	0,019	0,072
-728,167	-158,756	-0,148	-0,006
-727,152	161,311	-0,115	-0,116
-726,137	800,000	-0,004	0,012
-725,123	82,627	-0,121	-0,095
-724,108	-200,000	-0,000	-0,058
-723,094	-74,424	-0,172	-0,045
-722,079	158,876	-0,058	-0,058
-721,064	-74,307	0,008	-0,002
-720,050	175,782	0,086	-0,090
-719,035	45,213	-0,102	-0,068
-718,021	301,309	-0,029	-0,039
-717,006	13,108	-0,072	-0,040
-715,991	508,391	0,036	-0,061
-714,977	-57,007	-0,156	-0,049
-713,962	-3,242	0,095	0,048
-712,948	-122,441	-0,143	0,017
-711,933	-34,154	-0,029	-0,012
-710,918	-200,000	0,002	0,044
-709,904	800,000	-0,038	-0,102
-708,889	2,674	-0,149	-0,078
-707,875	-200,000	-0,000	0,010
-706,860	-200,000	-0,013	0,096
-705,845	227,448	0,063	-0,075
-704,831	266,462	-0,093	0,118
-703,816	409,352	-0,089	-0,137
-702,802	-200,000	-0,040	0,185
-701,787	-128,135	-0,051	-0,005
-700,772	-61,396	-0,119	0,036
-699,758	750,957	-0,018	0,035
-698,743	311,739	0,040	0,054
-697,729	249,006	-0,079	-0,098
-696,714	-146,802	-0,087	0,005
-695,699	-79,904	0,068	-0,017
-694,685	-41,111	-0,176	0,065
-693,670	242,147	-0,045	-0,054
-692,656	-152,242	-0,079	0,004
-691,641	-146,077	0,048	-0,003
-690,627	-127,635	-0,099	-0,010
-689,612	-200,000	-0,000	-0,022
-688,597	-200,000	-0,029	-0,102
-687,583	-78,855	0,010	-0,002
-686,568	609,678	-0,094	-0,170
-685,554	372,353	-0,054	0,080
-684,539	533,934	0,022	-0,038
-683,524	41,766	0,092	0,060
-682,510	-12,119	-0,167	0,079
-681,495	-179,881	-0,128	-0,002
-680,481	-200,000	-0,010	0,055
-679,466	-200,000	-0,004	-0,087
-678,451	39,315	-0,060	-0,039
-677,437	124,095	0,090	0,081
-676,422	312,163	0,106	-0,145
-675,408	800,000	-0,063	0,160
-674,393	-200,000	-0,005	0,126
-673,378	119,514	0,092	-0,082
-672,364	-65,705	-0,308	0,089
-671,349	-200,000	0,043	-0,175
-670,335	-118,549	0,026	0,003
-669,320	222,561	0,040	0,047
-668,305	176,777	0,046	0,048
-667,291	74,430	-0,055	-0,042
-666,276	-200,000	0,008	0,046
-665,262	-73,777	-0,012	-0,003
-664,247	-43,319	-0,150	-0,055
-663,232	-200,000	0,014	-0,062
-662,218	-78,315	-0,175	0,043
-661,203	671,955	-0,016	-0,030
-660,189	-2,123	0,036	0,018
-659,174	-108,365	-0,087	-0,013
-658,159	-81,941	-0,165	0,039
-657,145	-200,000	-0,024	0,113
-656,130	777,688	0,021	0,041
-655,116	-125,267	0,120	-0,013
-654,101	-0,483	-0,034	-0,017
-653,086	121,098	-0,075	0,067
-652,072	-93,447	0,066	0,013
-651,057	529,905	-0,023	-0,039
-650,043	-200,000	0,000	-0,090
-649,028	-24,642	0,192	0,082
-648,014	118,362	0,070	0,062
-646,999	-200,000	-0,004	-0,100
-645,984	-87,970	0,107	-0,023
-644,970	170,387	0,032	0,033
-643,955	259,511	-0,069	0,086
-642,941	267,126	-0,049	-0,062
-641,926	-99,237	0,060	0,011
-640,911	-115,464	0,079	-0,011
-639,897	-117,490	0,046	0,006
-638,882	120,231	0,046	0,041
-637,868	676,482	0,029	0,055
-636,853	159,783	0,038	0,038
-635,838	800,000	0,055	0,127
-634,824	177,456	0,019	-0,020
-633,809	-154,530	0,070	0,003
-632,795	-38,662	0,058	0,022
-631,780	11,352	-0,112	0,062
-630,765	-117,856	-0,050	0,006
-629,751	336,330	-0,022	0,031
-628,736	-58,535	-0,030	-0,009
-627,722	64,723	0,013	-0,009
-626,707	419,062	0,072	0,112
-625,692	31,004	-0,030	-0,019
-624,678	-141,490	-0,110	0,008
-623,663	-166,362	0,030	-0,001
-622,649	-91,006	-0,200	-0,041
-621,634	-91,303	-0,086	0,018
-620,619	-200,000	-0,016	-0,079
-619,605	-53,218	0,056	0,018
-618,590	800,000	-0,048	0,140
-617,576	-34,899	-0,064	0,025
-616,561	-148,463	-0,026	-0,002
-615,546	-69,675	-0,158	0,043
-614,532	291,409	-0,105	0,139
-613,517	217,171	-0,140	-0,161
-612,503	711,497	-0,020	-0,039
-611,488	800,000	0,022	-0,044
-610,474	-200,000	0,001	0,121
-609,459	-67,753	0,068	-0,019
-608,444	-73,681	-0,096	0,025
-607,430	131,479	0,016	-0,015
-606,415	484,939	0,030	-0,049
-605,401	15,875	-0,008	-0,005
-604,386	165,379	-0,059	-0,060
-603,371	-200,000	0,023	0,078
-602,357	-200,000	0,008	0,048
-601,342	800,000	0,025	-0,068
-600,328	-93,412	-0,075	0,015
-599,313	-67,273	0,016	-0,005
-598,298	48,498	-0,114	0,077
-597,284	149,179	0,066	0,065
-596,269	-52,980	-0,069	0,023
-595,255	-29,291	-0,102	-0,042
-594,240	-200,000	-0,003	0,033
-593,225	-67,792	0,123	-0,034
-592,211	-200,000	-0,029	-0,165
-591,196	88,053	-0,043	0,034
-590,182	-200,000	-0,037	0,204
-589,167	-200,000	-0,016	-0,123
-588,152	800,000	-0,019	0,038
-587,138	132,237	0,038	-0,035
-586,123	247,724	0,048	-0,059
-585,109	203,959	0,082	-0,092
-584,094	-200,000	0,025	-0,091
-583,079	-37,817	-0,130	-0,050
-582,065	466,839	0,033	0,053
-581,050	-200,000	-0,055	-0,190
-580,036	-98,063	0,055	-0,010
-579,021	113,519	-0,006	0,005
-578,006	-99,967	0,066	-0,012
-576,992	-89,406	-0,005	0,001
-575,977	75,241	-0,018	0,013
-574,963	164,324	-0,021	0,021
-573,948	-200,000	-0,033	0,152
-572,934	-96,555	-0,049	0,009
-571,919	-131,537	-0,181	0,017
-570,904	-106,376	0,065	0,010
-569,890	600,057	-0,039	0,069
-568,875	-200,000	0,030	0,138
-567,861	-161,316	0,103	0,004
-566,846	-93,606	-0,086	0,017
-565,831	83,229	0,053	0,042
-564,817	-93,590	-0,144	-0,028
-563,802	-200,000	-0,062	-0,258
-562,788	-116,208	-0,056	-0,007
-561,773	-28,645	0,147	0,061
-560,758	138,249	-0,035	-0,034
-559,744	800,000	0,047	0,107
-558,729	-200,000	-0,028	0,162
-557,715	413,745	0,045	0,070
-556,700	-200,000	-0,008	-0,042
-555,685	-200,000	0,005	-0,028
-554,671	800,000	-0,023	0,051
-553,656	-74,312	0,144	-0,037
-552,642	432,771	-0,010	0,016
-551,627	-81,725	-0,082	0,019
-550,612	-81,397	-0,086	0,020
-549,598	800,000	-0,046	-0,108
-548,583	312,371	-0,025	-0,034
-547,569	-164,503	-0,108	0,003
-546,554	-135,517	0,057	0,005
-545,539	23,604	0,126	0,074
-544,525	-200,000	0,002	-0,036
-543,510	-200,000	0,016	0,174
-542,496	-31,458	-0,105	-0,042
-541,481	19,841	-0,056	0,032
-540,466	800,000	0,031	-0,064
-539,452	-200,000	-0,001	0,052
-538,437	-167,976	0,065	0,002
-537,423	800,000	0,033	0,084
-536,408	789,966	0,047	-0,093
-535,393	-14,965	-0,092	-0,042
-534,379	165,961	-0,132	-0,135
-533,364	-46,981	0,106	-0,037
-532,350	524,476	-0,061	-0,104
-531,335	-136,064	0,027	0,002
-530,321	-200,000	0,012	0,216
-529,306	561,308	0,056	-0,097
-528,291	21,186	0,026	-0,015
-527,277	209,528	-0,024	0,027
-526,262	285,334	-0,073	-0,095
-525,248	-51,608	0,129	0,043
-524,233	-200,000	0,027	0,118
-523,218	-142,608	0,092	0,006
-522,204	800,000	-0,059	-0,128
-521,189	-200,000	0,044	-0,211
-520,175	225,140	-0,085	-0,100
-519,160	69,384	-0,112	0,083
-518,145	-135,161	0,049	-0,004
-517,131	170,657	0,094	0,096
-516,116	800,000	-0,008	-0,022
-515,102	136,612	-0,023	0,021
-514,087	-200,000	0,004	-0,069
-513,072	91,259	-0,120	-0,097
-512,058	507,597	0,032	-0,053
-511,043	-200,000	-0,009	0,042
-510,029	485,683	-0,024	-0,040
-509,014	455,488	-0,015	0,024
-507,999	-52,918	0,065	-0,021
-506,985	-200,000	-0,009	-0,113
-505,970	-200,000	-0,042	-0,169
-504,956	31,408	-0,060	-0,037
-503,941	637,585	-0,071	-0,130
-502,926	36,827	0,033	0,021
-501,912	800,000	0,009	0,018
-500,897	-107,900	-0,036	0,006
-499,883	139,720	-0,042	0,040
-498,868	531,228	0,051	-0,087
-497,853	-200,000	0,010	0,115
-496,839	800,000	0,026	0,066
-495,824	-128,503	0,082	0,008
-494,810	-0,884	0,089	-0,045
-493,795	307,227	0,062	-0,084
-492,781	584,774	-0,028	0,050
-491,766	118,075	0,039	0,035
-490,751	644,068	-0,047	-0,087
-489,737	-8,120	-0,022	0,011
-488,722	-200,000	0,019	0,100
-487,708	1,199	0,104	-0,053
-486,693	335,451	0,101	0,141
-485,678	-160,286	-0,132	0,005
-484,664	17,368	-0,035	-0,020
-483,649	536,244	-0,071	-0,122
-482,635	-200,000	-0,030	0,115
-481,620	-200,000	-0,047	0,244
-480,605	84,635	0,019	0,015
-479,591	142,970	0,026	0,024
-478,576	283,558	-0,052	0,067
-477,562	800,000	-0,063	0,195
-476,547	267,065	-0,041	-0,052
-475,532	-191,644	0,041	0,000
-474,518	-34,274	0,029	-0,011
-473,503	-42,011	-0,083	-0,030
-472,489	-19,161	-0,101	0,045
-471,474	351,620	-0,040	0,057
-470,459	-157,346	0,096	-0,004
-469,445	630,981	0,048	-0,087
-468,430	-200,000	-0,009	-0,194
-467,416	-66,742	0,072	0,020
-466,401	800,000	-0,040	0,121
-465,386	-200,000	0,006	0,120
-464,372	-112,314	-0,049	-0,007
-463,357	-200,000	-0,033	0,134
-462,343	-98,890	-0,064	0,012
-461,328	266,227	0,050	0,062
-460,313	800,000	-0,028	-0,083
-459,299	-48,857	0,082	0,028
-458,284	-134,026	-0,039	-0,003
-457,270	261,294	0,024	-0,030
-456,255	-200,000	0,014	-0,133
-455,241	-112,588	-0,080	-0,011
-454,226	47,114	-0,068	-0,045
-453,211	103,533	0,113	0,095
-452,197	-200,000	0,000	-0,013
-451,182	-55,313	-0,074	0,024
-450,168	-200,000	0,024	0,102
-449,153	-12,977	0,074	-0,034
-448,138	419,291	-0,052	-0,080
-447,124	-200,000	-0,016	-0,137
-446,109	800,000	-0,014	-0,039
-445,095	273,783	-0,082	0,104
-444,080	-200,000	-0,001	0,042
-443,065	-200,000	-0,029	0,119
-442,051	419,997	-0,021	0,033
-441,036	-22,574	-0,159	0,068
-440,022	-170,596	0,066	-0,002
-439,007	274,819	-0,078	0,100
-437,992	-96,593	0,134	-0,025
-436,978	-200,000	0,004	0,232
-435,963	-39,769	-0,117	-0,043
-434,949	-200,000	0,041	0,160
-433,934	259,955	-0,081	-0,101
-432,919	178,010	-0,094	-0,098
-431,905	374,746	-0,008	0,012
-430,890	75,973	0,053	0,040
-429,876	-200,000	0,023	0,119
-428,861	-107,597	0,042	-0,007
-427,846	85,003	-0,039	-0,030
-426,832	339,387	-0,018	-0,025
-425,817	347,274	0,093	-0,131
-424,803	444,496	0,050	-0,079
-423,788	223,664	-0,010	-0,012
-422,773	-88,889	0,084	0,018
-421,759	-200,000	0,009	0,084
-420,744	151,855	-0,033	-0,033
-419,730	-90,423	-0,102	0,021
-418,715	273,769	0,040	-0,050
-417,701	27,940	-0,054	-0,033
-416,686	-14,296	0,053	-0,024
-415,671	154,933	0,020	-0,020
-414,657	386,803	0,051	0,075
-413,642	188,703	0,041	0,044
-412,628	288,725	0,041	0,054
-411,613	3,850	-0,094	-0,049
-410,598	317,665	-0,019	0,025
-409,584	181,321	0,043	-0,045
-408,569	736,641	-0,047	0,090
-407,555	-10,091	0,067	0,032
-406,540	58,932	-0,034	0,024
-405,525	373,745	0,051	-0,074
-404,511	599,399	-0,033	0,058
-403,496	629,978	0,122	-0,222
-402,482	61,952	0,030	-0,022
-401,467	489,410	0,041	0,067
-400,452	139,645	0,036	-0,034
-399,438	-36,452	-0,050	0,019
-398,423	3,717	0,068	0,036
-397,409	-57,361	-0,097	-0,030
-396,394	800,000	-0,006	-0,015
-395,379	-156,916	-0,070	-0,003
-394,365	800,000	0,059	0,148
-393,350	-104,958	0,089	0,014
-392,336	-72,708	-0,146	0,038
-391,321	-200,000	0,032	0,124
-390,306	177,618	-0,107	-0,112
-389,292	-104,576	0,124	0,020
-388,277	121,435	-0,168	-0,150
-387,263	38,320	0,043	-0,027
-386,248	-41,319	0,116	0,042
-385,233	206,764	-0,095	-0,106
-384,219	-52,037	-0,152	-0,050
-383,204	-93,533	-0,077	-0,015
-382,190	-85,998	0,031	0,007
-381,175	-200,000	-0,008	-0,046
-380,160	143,887	0,161	0,154
-379,146	-19,105	-0,018	0,008
-378,131	305,161	-0,054	0,073
-377,117	75,337	0,069	-0,052
-376,102	-200,000	0,005	-0,074
-375,088	-200,000	-0,013	-0,069
-374,073	443,046	-0,058	-0,091
-373,058	-200,000	0,022	-0,170
-372,044	-70,374	0,088	0,024
-371,029	161,494	0,061	0,061
-370,015	-139,024	0,149	0,011
-369,000	318,283	-0,098	-0,133
-367,985	5,619	-0,105	-0,055
-366,971	-200,000	-0,027	-0,121
-365,956	22,407	-0,087	0,051
-364,942	28,333	0,066	0,040
-363,927	45,333	0,146	0,096
-362,912	295,163	0,044	0,058
-361,898	-118,658	-0,150	0,019
-360,883	83,946	-0,089	-0,069
-359,869	159,944	-0,058	-0,057
-358,854	-200,000	0,000	0,056
-357,839	-83,998	0,083	-0,019
-356,825	383,772	-0,048	0,070
-355,810	80,454	-0,027	0,021
-354,796	-200,000	-0,019	-0,061
-353,781	-83,712	-0,150	-0,034
-352,766	-200,000	-0,029	0,117
-351,752	-18,212	0,093	0,041
-350,737	-151,450	0,013	0,001
-349,723	-61,419	0,225	-0,067
-348,708	-200,000	-0,024	-0,131
-347,693	329,041	-0,099	-0,136
-346,679	75,828	-0,075	0,057
-345,664	800,000	0,036	-0,080
-344,650	95,363	0,055	0,045
-343,635	295,980	0,084	0,110
-342,620	154,507	-0,040	0,039
-341,606	13,127	0,104	-0,057
-340,591	-166,688	-0,018	-0,001
-339,577	747,290	0,053	-0,102
-338,562	-17,675	0,091	-0,040
-337,548	800,000	0,044	0,124
-336,533	23,391	0,062	-0,036
-335,518	309,740	-0,036	0,048
-334,504	406,534	-0,080	0,120
-333,489	99,138	-0,031	-0,025
-332,475	-38,179	0,011	-0,004
-331,460	-200,000	-0,008	-0,039
-330,445	800,000	-0,055	0,155
-329,431	157,633	0,075	-0,074
-328,416	-200,000	-0,031	0,124
-327,402	104,518	-0,138	-0,116
-326,387	800,000	0,056	-0,170
-325,372	-148,922	0,057	0,003
-324,358	44,213	-0,156	-0,102
-323,343	-22,059	0,176	-0,076
-322,329	-91,514	0,125	0,025
-321,314	659,718	0,019	-0,035
-320,299	59,993	0,105	-0,074
-319,285	800,000	0,071	0,146
-318,270	63,733	0,134	0,096
-317,256	9,556	0,017	-0,009
-316,241	-200,000	0,030	0,116
-315,226	-4,219	0,190	-0,094
-314,212	15,413	0,102	0,057
-313,197	-123,829	-0,166	0,018
-312,183	800,000	0,031	0,066
-311,168	-24,039	0,081	0,035
-310,153	-142,817	-0,063	0,004
-309,139	137,258	0,083	0,077
-308,124	-200,000	0,014	0,090
-307,110	215,500	0,143	0,162
-306,095	-23,311	0,115	0,049
-305,080	186,295	-0,067	0,071
-304,066	-103,536	0,044	-0,007
-303,051	-44,135	-0,089	0,032
-302,037	-50,681	0,033	0,011
-301,022	800,000	0,042	0,109
-300,008	127,819	0,051	0,047
-298,993	-200,000	-0,001	0,010
-297,978	152,604	0,090	-0,088
-296,964	97,409	0,034	-0,028
-295,949	-200,000	0,005	-0,092
-294,935	-200,000	-0,069	-0,232
-293,920	-200,000	-0,018	-0,158
-292,905	-84,787	0,090	-0,020
-291,891	-15,481	0,129	-0,058
-290,876	396,009	0,047	-0,069
-289,862	313,999	0,067	-0,090
-288,847	-138,029	-0,150	0,012
-287,832	50,498	0,051	-0,034
-286,818	-32,052	-0,040	-0,016
-285,803	461,107	-0,034	0,054
-284,789	169,300	0,062	-0,063
-283,774	-200,000	0,002	0,175
-282,759	-87,331	0,132	0,028
-281,745	-105,243	-0,079	0,013
-280,730	-1,496	0,113	0,056
-279,716	86,171	-0,008	-0,006
-278,701	82,648	0,080	-0,062
-277,686	-200,000	-0,022	-0,120
-276,672	800,000	-0,034	0,068
-275,657	54,284	-0,069	-0,047
-274,643	-17,808	-0,142	0,063
-273,628	14,217	-0,066	-0,036
-272,613	89,748	-0,079	-0,063
-271,599	-200,000	-0,019	0,070
-270,584	17,412	0,044	-0,025
-269,570	473,184	-0,022	0,036
-268,555	9,829	0,079	-0,043
-267,540	195,046	-0,111	-0,120
-266,526	-200,000	-0,015	-0,112
-265,511	-87,519	-0,134	0,029
-264,497	71,507	-0,039	0,029
-263,482	116,282	0,123	-0,107
-262,467	737,480	-0,022	-0,042
-261,453	243,277	0,123	0,147
-260,438	-6,650	-0,040	-0,019
-259,424	-200,000	-0,043	-0,155
-258,409	405,193	-0,052	0,078
-257,395	-122,113	-0,103	-0,012
-256,380	800,000	-0,057	0,112
-255,365	-79,287	0,056	0,014
-254,351	-71,471	0,137	-0,036
-253,336	-200,000	0,003	-0,035
-252,322	-200,000	-0,009	-0,214
-251,307	-200,000	-0,003	-0,084
-250,292	212,287	-0,046	-0,051
-249,278	5,803	-0,145	-0,076
-248,263	-200,000	0,017	0,133
-247,249	-200,000	0,032	0,121
-246,234	-71,807	-0,118	0,031
-245,219	-100,258	0,049	0,009
-244,205	573,007	0,071	0,124
-243,190	125,058	0,025	-0,022
-242,176	-11,845	0,108	0,050
-241,161	-200,000	-0,037	0,164
-240,146	-107,115	0,018	-0,003
-239,132	558,414	-0,040	0,069
-238,117	-200,000	-0,003	0,012
-237,103	-135,219	-0,176	0,015
-236,088	35,985	-0,069	0,043
-235,073	148,486	-0,028	-0,027
-234,059	-200,000	-0,010	0,046
-233,044	800,000	0,041	0,122
-232,030	-200,000	0,022	-0,131
-231,015	-118,503	-0,346	-0,043
-230,000	-21,159	0,116	0,050
-228,986	-111,151	0,034	0,005
-227,971	800,000	0,006	-0,016
-226,957	-56,421	0,170	-0,053
-225,942	-200,000	-0,030	-0,121
-224,927	-200,000	0,014	-0,133
-223,913	39,207	0,049	-0,031
-222,898	-145,343	-0,137	0,009
-221,884	656,716	-0,039	0,072
-220,869	-200,000	-0,034	-0,112
-219,855	-200,000	-0,019	-0,115
-218,840	790,440	-0,059	0,116
-217,825	148,197	0,039	0,037
-216,811	-200,000	-0,004	-0,026
-215,796	-130,094	-0,106	0,010
-214,782	-78,844	-0,052	0,013
-213,767	-149,877	0,072	0,004
-212,752	-165,172	0,179	-0,006
-211,738	800,000	0,028	-0,068
-210,723	-200,000	-0,032	-0,176
-209,709	-50,086	-0,010	0,003
-208,694	11,227	-0,046	-0,025
-207,679	-163,432	0,129	0,004
-206,665	292,103	0,088	0,114
-205,650	-6,308	-0,179	0,086
-204,636	11,440	-0,043	0,023
-203,621	46,371	-0,102	0,067
-202,606	-5,372	0,068	0,033
-201,592	-200,000	-0,016	-0,112
-200,577	117,199	-0,056	-0,049
-199,563	222,517	0,140	-0,161
-198,548	-128,085	-0,039	0,004
-197,533	60,249	0,082	0,057
-196,519	800,000	-0,075	0,153
-195,504	-117,165	-0,067	-0,009
-194,490	-200,000	-0,018	-0,141
-193,475	618,756	0,066	-0,118
-192,460	78,610	0,123	0,093
-191,446	-62,160	0,007	0,002
-190,431	-128,179	-0,029	0,003
-189,417	-200,000	0,001	0,154
-188,402	800,000	0,054	-0,170
-187,387	800,000	-0,029	0,072
-186,373	-200,000	0,003	-0,099
-185,358	800,000	-0,022	-0,047
-184,344	-200,000	0,004	-0,083
-183,329	-136,324	0,128	0,010
-182,315	125,120	0,147	0,131
-181,300	-200,000	-0,007	-0,023
-180,285	-200,000	0,002	-0,032
-179,271	-200,000	-0,007	-0,067
-178,256	504,716	0,054	0,089
-177,242	170,178	-0,054	-0,055
-176,227	-162,120	0,111	-0,004
-175,212	328,957	-0,040	-0,055
-174,198	-97,617	0,130	-0,024
-173,183	-156,380	-0,050	-0,002
-172,169	269,094	-0,039	-0,049
-171,154	-168,845	0,188	-0,005
-170,139	109,139	0,009	-0,008
-169,125	187,278	0,089	0,094
-168,110	-200,000	-0,028	0,125
-167,096	-200,000	0,030	0,114
-166,081	-49,586	0,116	-0,039
-165,066	104,833	-0,090	-0,075
-164,052	-145,204	-0,102	-0,006
-163,037	58,653	-0,049	-0,034
-162,023	-200,000	0,000	-0,021
-161,008	221,876	-0,075	-0,085
-159,993	-200,000	0,004	0,022
-158,979	113,259	-0,056	0,048
-157,964	800,000	0,016	-0,039
-156,950	-200,000	0,027	-0,162
-155,935	800,000	-0,041	0,083
-154,920	-144,818	-0,053	0,003
-153,906	190,181	0,102	0,108
-152,891	800,000	-0,044	0,121
-151,877	505,312	0,115	-0,189
-150,862	-200,000	-0,030	0,104
-149,847	389,934	0,061	-0,090
-148,833	189,097	0,084	0,089
-147,818	523,166	0,053	0,088
-146,804	6,902	0,033	0,017
-145,789	73,877	-0,125	0,093
-144,775	-18,332	0,065	-0,028
-143,760	322,748	0,028	-0,039
-142,745	-192,028	-0,075	0,001
-141,731	-134,668	0,116	-0,010
-140,716	50,580	0,022	-0,014
-139,702	78,074	0,114	0,086
-138,687	-200,000	-0,046	0,189
-137,672	552,845	-0,048	0,082
-136,658	72,924	-0,090	-0,066
-135,643	13,096	0,014	-0,008
-134,629	800,000	-0,064	-0,129
-133,614	630,997	0,097	-0,175
-132,599	139,413	-0,089	0,083
-131,585	-200,000	-0,020	0,091
-130,570	-54,234	-0,140	-0,045
-129,556	11,698	-0,120	-0,065
-128,541	205,310	-0,064	0,071
-127,526	-200,000	-0,002	0,015
-126,512	112,604	0,052	0,044
-125,497	-109,372	0,154	-0,023
-124,483	80,885	0,050	0,038
-123,468	-177,338	-0,070	0,001
-122,453	75,204	-0,141	0,105
-121,439	800,000	0,024	0,063
-120,424	-77,539	-0,173	-0,042
-119,410	346,494	0,016	-0,022
-118,395	309,130	0,043	0,057
-117,380	34,063	0,064	0,039
-116,366	-29,830	0,076	-0,030
-115,351	12,414	0,049	-0,027
-114,337	800,000	-0,012	-0,034
-113,322	-130,882	0,052	0,005
-112,307	-61,706	-0,108	-0,032
-111,293	-200,000	0,001	0,069
-110,278	140,299	-0,128	0,120
-109,264	800,000	0,054	0,158
-108,249	143,532	-0,047	0,044
-107,234	-200,000	0,004	-0,184
-106,220	-200,000	-0,018	-0,107
-105,205	-95,111	0,097	0,018
-104,191	-63,520	-0,067	-0,019
-103,176	-183,314	-0,054	0,001
-102,162	-200,000	0,005	-0,087
-101,147	-60,086	-0,110	0,033
-100,132	-74,190	-0,116	-0,030
-99,118	-12,880	-0,114	-0,052
-98,103	-120,889	0,103	-0,012
-97,089	-79,454	0,147	-0,035
-96,074	-200,000	0,009	0,035
-95,059	-200,000	-0,014	-0,103
-94,045	250,726	-0,048	0,058
-93,030	212,447	-0,101	-0,113
-92,016	-17,103	-0,183	-0,081
-91,001	126,456	0,103	0,092
-89,986	-67,121	-0,071	0,020
-88,972	-50,447	0,084	-0,028
-87,957	275,503	-0,070	0,088
-86,943	-200,000	0,039	0,137
-85,928	138,639	-0,051	-0,048
-84,913	-75,357	-0,015	0,004
-83,899	800,000	-0,005	-0,012
-82,884	-111,607	-0,046	0,007
-81,870	178,461	0,027	0,028
-80,855	-37,898	0,029	-0,011
-79,840	38,712	0,029	-0,018
-78,826	767,491	0,020	0,038
-77,811	381,262	-0,037	0,054
-76,797	361,774	-0,016	0,023
-75,782	399,719	0,053	0,079
-74,767	800,000	0,055	0,168
-73,753	89,922	0,130	0,102
-72,738	-149,829	-0,155	-0,008
-71,724	-174,045	0,110	0,002
-70,709	-130,500	0,163	0,015
-69,694	117,340	-0,026	0,023
-68,680	164,441	0,023	0,023
-67,665	-106,845	-0,125	-0,019
-66,651	21,859	0,091	0,052
-65,636	-200,000	-0,008	0,072
-64,622	-200,000	-0,012	-0,103
-63,607	-200,000	0,020	-0,130
-62,592	-200,000	0,015	-0,133
-61,578	800,000	0,015	-0,041
-60,563	88,440	-0,058	0,046
-59,549	-90,573	0,052	0,011
-58,534	61,953	-2,023	-1,421
-57,519	378,270	-1,297	-1,879
-56,505	-200,000	-0,365	-4,386
-55,490	800,000	0,798	1,662
-54,476	800,000	5,084	11,103
-53,461	-200,000	21,812	343,618
-52,446	800,000	762,727	2337,992
-51,432	545,297	1661,674	2812,933
-50,417	71,293	1658,371	1212,705
-49,403	17,162	1532,023	854,992
-48,388	11,284	1455,566	783,935
-47,373	19,388	1447,322	818,295
-46,359	14,807	1436,153	790,201
-45,344	9,554	1432,108	762,967
-44,330	9,504	1430,200	761,685
-43,315	9,502	1428,548	760,764
-42,300	9,569	1426,633	760,031
-41,286	9,539	1425,585	759,304
-40,271	9,492	1424,406	758,423
-39,257	9,487	1423,145	757,696
-38,242	9,509	1422,215	757,277
-37,227	9,510	1421,061	756,636
-36,213	9,543	1419,351	755,849
-35,198	9,541	1418,470	755,342
-34,184	9,552	1417,459	754,824
-33,169	9,441	1416,181	753,592
-32,154	9,486	1415,250	753,281
-31,140	9,526	1413,989	752,765
-30,125	9,591	1412,629	752,319
-29,111	9,532	1411,660	751,493
-28,096	9,533	1410,308	750,751
-27,082	9,468	1409,159	749,805
-26,067	9,407	1408,325	749,044
-25,052	9,471	1407,044	748,633
-24,038	9,541	1405,986	748,366
-23,023	9,474	1405,388	747,706
-22,009	9,504	1404,060	747,112
-20,994	9,495	1403,103	746,529
-19,979	9,453	1402,341	745,897
-18,965	9,445	1401,302	745,279
-17,950	9,441	1400,405	744,756
-16,936	9,460	1399,536	744,348
-15,921	9,366	1398,622	743,396
-14,906	9,398	1397,788	743,073
-13,892	9,418	1396,631	742,521
-12,877	9,387	1396,016	742,024
-11,863	9,399	1395,101	741,562
-10,848	9,343	1394,214	740,800
-9,833	9,311	1393,342	740,161
-8,819	9,265	1392,490	739,464
-7,804	9,308	1391,578	739,150
-6,790	9,326	1390,169	738,455
-5,775	9,289	1389,348	737,817
-4,760	9,268	1388,443	737,214
-3,746	9,327	1387,406	736,905
-2,731	9,292	1386,637	736,306
-1,717	9,265	1385,757	735,685
-0,702	9,255	1384,124	734,743
0,313	13,434	1296,376	707,199
1,327	29,578	687,114	411,284
2,342	46,098	118,708	77,378
3,356	0,165	16,573	8,306
4,371	11,453	3,649	1,966
5,386	-1,289	1,164	0,577
6,400	800,000	0,267	0,756
7,415	91,553	-0,244	-0,194
8,429	94,492	-0,349	-0,279
9,444	68,387	-0,354	-0,255
10,459	9,910	-0,341	-0,182
11,473	-141,920	-0,371	-0,026
12,488	225,695	-0,212	-0,242
13,502	209,501	-0,252	-0,279
14,517	62,939	-0,340	-0,240
15,531	75,259	-0,449	-0,333
16,546	96,272	-0,300	-0,241
17,561	122,193	-0,361	-0,318
18,575	-91,775	-0,150	0,030
19,590	-18,189	-0,333	-0,146
20,604	78,026	-0,256	-0,192
21,619	43,672	-0,304	-0,195
22,634	78,220	-0,443	-0,332
23,648	220,955	-0,442	-0,500
24,663	124,179	-0,403	-0,356
25,677	73,338	-0,274	-0,201
26,692	28,399	-0,249	-0,148
27,707	282,761	-0,194	-0,245
28,721	-65,449	-0,405	-0,114
29,736	211,149	-0,402	-0,446
30,750	136,264	-0,414	-0,380
31,765	139,874	-0,314	-0,291
32,780	32,530	-0,325	-0,197
33,794	78,063	-0,236	-0,177
34,809	61,911	-0,309	-0,216
35,823	135,871	-0,387	-0,355
36,838	141,908	-0,333	-0,311
37,853	193,976	-0,279	-0,298
38,867	184,555	-0,240	-0,251
39,882	43,913	-0,341	-0,219
40,896	115,846	-0,365	-0,313
41,911	87,146	-0,223	-0,173
42,926	72,546	-0,385	-0,282
43,940	-78,838	-0,467	-0,111
44,955	14,194	-0,308	-0,168
45,969	225,696	-0,353	-0,402
46,984	64,482	-0,304	-0,215
47,999	10,518	-0,370	-0,198
49,013	-61,644	-0,279	-0,082
50,028	61,494	-0,274	-0,191
51,042	51,105	-0,156	-0,104
52,057	24,732	-0,419	-0,243
53,071	152,915	-0,349	-0,335
54,086	118,406	-0,338	-0,293
55,101	0,944	-0,348	-0,175
56,115	-73,582	-0,370	-0,094
57,130	-9,753	-0,340	-0,159
58,144	113,967	-0,372	-0,318
59,159	156,742	-0,276	-0,268
60,174	70,267	-0,280	-0,203
61,188	78,319	-0,479	-0,358
62,203	62,385	-0,238	-0,167
63,217	-15,860	-0,310	-0,138
64,232	-46,780	-0,377	-0,129
65,247	94,439	-0,401	-0,319
66,261	26,952	-0,365	-0,214
67,276	-53,630	-0,242	-0,077
68,290	-48,042	-0,271	-0,091
69,305	164,567	-0,332	-0,328
70,320	295,671	-0,211	-0,271
71,334	63,268	-0,326	-0,228
72,349	152,005	-0,332	-0,318
73,363	40,546	-0,421	-0,266
74,378	133,274	-0,297	-0,269
75,393	166,458	-0,319	-0,317
76,407	201,699	-0,139	-0,150
77,422	-57,303	-0,293	-0,090
78,436	184,590	-0,279	-0,290
79,451	30,016	-0,373	-0,222
80,466	3,042	-0,298	-0,151
81,480	178,751	-0,285	-0,292
82,495	-4,467	-0,439	-0,212
83,509	-9,045	-0,293	-0,137
84,524	20,239	-0,269	-0,152
85,539	-8,348	-0,252	-0,118
86,553	145,440	-0,257	-0,241
87,568	36,601	-0,288	-0,177
88,582	50,389	-0,280	-0,185
89,597	6,825	-0,296	-0,154
90,611	61,755	-0,259	-0,180
91,626	14,418	-0,262	-0,143
92,641	-23,444	-0,379	-0,158
93,655	215,775	-0,237	-0,263
94,670	-1,169	-0,388	-0,191
95,684	13,881	-0,293	-0,159
96,699	20,401	-0,295	-0,167
97,714	231,451	-0,249	-0,285
98,728	94,264	-0,309	-0,245
99,743	461,212	-0,138	-0,215
100,757	101,792	-0,231	-0,188
101,772	-2,776	-0,395	-0,192
102,787	288,158	-0,210	-0,266
103,801	46,044	-0,299	-0,193
104,816	70,291	-0,163	-0,118
105,830	-112,215	-0,224	-0,031
106,845	16,014	-0,246	-0,135
107,860	21,534	-0,369	-0,209
108,874	109,748	-0,346	-0,290
109,889	-25,400	-0,180	-0,074
110,903	-40,417	-0,241	-0,087
111,918	312,940	-0,243	-0,320
112,933	96,337	-0,287	-0,229
113,947	109,167	-0,098	-0,082
114,962	625,284	-0,136	-0,240
115,976	16,992	-0,389	-0,215
116,991	52,535	-0,330	-0,220
118,006	0,447	-0,307	-0,153
119,020	-127,422	-0,269	-0,027
120,035	222,878	-0,156	-0,175
121,049	154,321	-0,279	-0,267
122,064	14,920	-0,211	-0,115
123,079	15,829	-0,270	-0,148
124,093	156,418	-0,224	-0,216
125,108	-21,612	-0,282	-0,119
126,122	112,545	-0,273	-0,230
127,137	-35,231	-0,281	-0,106
128,151	114,886	-0,209	-0,178
129,166	-182,542	-0,246	-0,003
130,181	672,464	-0,098	-0,179
131,195	41,538	-0,324	-0,204
132,210	225,187	-0,246	-0,278
133,224	-19,889	-0,293	-0,126
134,239	190,775	-0,228	-0,240
135,254	123,415	-0,269	-0,235
136,268	96,852	-0,137	-0,109
137,283	-58,778	-0,264	-0,079
138,297	128,791	-0,217	-0,193
139,312	42,608	-0,386	-0,244
140,327	-21,241	-0,369	-0,157
141,341	-36,161	-0,323	-0,121
142,356	559,971	-0,121	-0,205
143,370	109,806	-0,208	-0,174
144,385	4,351	-0,371	-0,189
145,400	-38,240	-0,332	-0,122
146,414	24,894	-0,265	-0,153
147,429	163,006	-0,229	-0,224
148,443	70,266	-0,254	-0,182
149,458	-12,336	-0,287	-0,130
150,473	23,575	-0,246	-0,140
151,487	181,411	-0,223	-0,229
152,502	386,742	-0,242	-0,349
153,516	98,058	-0,225	-0,180
154,531	139,148	-0,335	-0,307
155,546	109,307	-0,222	-0,185
156,560	-103,869	-0,205	-0,033
157,575	-198,345	-0,233	-0,001
158,589	-54,186	-0,133	-0,042
159,604	-13,650	-0,261	-0,117
160,619	167,822	-0,207	-0,205
161,633	52,724	-0,412	-0,273
162,648	249,385	-0,172	-0,203
163,662	115,409	-0,196	-0,166
164,677	23,290	-0,154	-0,087
165,692	322,919	-0,140	-0,186
166,706	-200,000	-0,042	-0,149
167,721	123,198	-0,238	-0,207
168,735	99,943	-0,269	-0,217
169,750	59,019	-0,316	-0,215
170,764	201,657	-0,238	-0,255
171,779	96,917	-0,098	-0,078
172,794	76,766	-0,252	-0,186
173,808	183,427	-0,252	-0,259
174,823	138,927	-0,191	-0,175
175,837	115,556	-0,272	-0,231
176,852	134,073	-0,266	-0,239
177,867	586,522	-0,120	-0,206
178,881	186,657	-0,175	-0,181
179,896	54,084	-0,232	-0,155
180,910	3,047	-0,232	-0,117
181,925	-35,256	-0,259	-0,097
182,940	-14,951	-0,193	-0,086
183,954	-73,545	-0,121	-0,030
184,969	-29,284	-0,258	-0,102
185,983	-200,000	0,003	-0,081
186,998	112,340	-0,127	-0,106
188,013	-165,062	-0,223	-0,007
189,027	-2,756	-0,274	-0,132
190,042	222,045	-0,224	-0,250
191,056	100,287	-0,195	-0,157
192,071	135,039	-0,222	-0,200
193,086	220,658	-0,181	-0,201
194,100	-30,540	-0,185	-0,072
195,115	-73,771	-0,177	0,044
196,129	447,506	-0,206	-0,315
197,144	149,612	-0,315	-0,296
198,159	79,548	-0,264	-0,196
199,173	800,000	-0,090	-0,177
200,188	-1,786	-0,100	-0,049
201,202	-5,714	-0,246	-0,116
202,217	41,956	-0,085	-0,054
203,232	20,980	-0,230	-0,129
204,246	156,306	-0,208	-0,199
205,261	29,393	-0,285	-0,167
206,275	29,807	-0,192	-0,113
207,290	-18,757	-0,213	-0,092
208,304	197,725	-0,168	-0,178
209,319	800,000	-0,041	-0,122
210,334	-64,548	-0,274	-0,076
211,348	57,085	-0,218	-0,147
212,363	215,811	-0,208	-0,229
213,377	121,588	-0,126	-0,109
214,392	-200,000	0,011	-0,042
215,407	-55,056	-0,203	-0,063
216,421	-97,776	-0,303	-0,054
217,436	-28,786	-0,224	-0,089
218,450	-8,703	-0,252	-0,116
219,465	76,532	-0,115	-0,084
220,480	441,619	-0,151	-0,229
221,494	163,322	-0,154	-0,150
222,509	-108,052	-0,090	0,013
223,523	149,612	-0,100	-0,094
224,538	69,096	-0,157	-0,111
225,553	29,322	-0,264	-0,155
226,567	186,445	-0,308	-0,317
227,582	187,548	-0,186	-0,193
228,596	800,000	-0,135	-0,268
229,611	644,022	-0,173	-0,307
230,626	-16,931	-0,168	-0,073
231,640	800,000	-0,087	-0,194
232,655	24,345	-0,192	-0,110
233,669	78,794	-0,279	-0,206
234,684	142,568	-0,140	-0,129
235,699	164,770	-0,178	-0,173
236,713	107,242	-0,122	-0,100
237,728	-29,239	-0,169	0,067
238,742	13,743	-0,156	-0,084
239,757	37,575	-0,212	-0,130
240,772	205,490	-0,176	-0,189
241,786	-134,073	-0,217	-0,018
242,801	46,081	-0,193	-0,123
243,815	387,079	-0,141	-0,202
244,830	-33,469	-0,190	-0,072
245,844	-106,893	-0,201	-0,030
246,859	43,662	-0,258	-0,162
247,874	39,294	-0,156	-0,096
248,888	280,955	-0,140	-0,174
249,903	241,404	-0,101	-0,116
250,917	800,000	-0,058	-0,159
251,932	7,646	-0,160	-0,083
252,947	251,824	-0,143	-0,168
253,961	132,035	-0,213	-0,189
254,976	-4,854	-0,244	-0,115
255,990	465,281	-0,138	-0,213
257,005	283,640	-0,114	-0,141
258,020	-23,607	-0,124	0,051
259,034	-198,545	-0,132	0,001
260,049	167,720	-0,110	-0,108
261,063	171,198	-0,241	-0,238
262,078	265,500	-0,110	-0,133
263,093	-27,397	-0,187	-0,075
264,107	800,000	-0,125	-0,244
265,122	151,915	-0,183	-0,172
266,136	-99,494	-0,138	0,024
267,151	-24,127	-0,141	-0,058
268,166	800,000	-0,127	-0,262
269,180	-23,497	-0,222	-0,092
270,195	696,247	-0,123	-0,224
271,209	197,450	-0,124	-0,130
272,224	-54,195	-0,135	-0,042
273,239	427,116	0,002	-0,003
274,253	-3,618	-0,146	-0,069
275,268	161,786	-0,142	-0,137
276,282	-40,255	-0,274	-0,098
277,297	703,805	-0,113	-0,205
278,312	-125,091	-0,137	0,014
279,326	111,427	-0,257	-0,214
280,341	569,007	-0,100	-0,168
281,355	315,921	-0,105	-0,137
282,370	-107,371	-0,110	-0,016
283,384	14,178	-0,217	-0,116
284,399	346,883	-0,110	-0,150
285,414	-50,310	-0,085	-0,028
286,428	-200,000	-0,051	-0,215
287,443	305,237	-0,078	-0,100
288,457	-76,318	-0,076	0,018
289,472	57,226	-0,086	-0,058
290,487	800,000	-0,052	-0,101
291,501	260,064	-0,234	-0,278
292,516	-6,546	-0,312	-0,145
293,530	-108,456	-0,071	-0,010
294,545	-98,004	-0,121	-0,021
295,560	-200,000	-0,035	-0,175
296,574	239,797	-0,194	-0,222
297,589	800,000	-0,110	-0,249
298,603	132,076	-0,144	-0,127
299,618	182,946	-0,210	-0,213
300,633	-127,365	-0,141	-0,014
301,647	17,893	-0,136	-0,074
302,662	-69,578	-0,182	-0,048
303,676	-127,926	-0,147	-0,014
304,691	-19,120	-0,143	-0,061
305,706	-81,919	-0,185	-0,041
306,720	542,906	-0,094	-0,154
307,735	138,460	-0,164	-0,148
308,749	277,910	-0,051	0,062
309,764	-58,385	-0,081	0,024
310,779	-188,174	-0,127	0,001
311,793	-6,654	-0,161	-0,075
312,808	24,560	-0,082	-0,046
313,822	61,613	-0,182	-0,124
314,837	-103,015	-0,105	0,017
315,852	-200,000	0,000	-0,159
316,866	39,736	-0,210	-0,129
317,881	-53,735	-0,095	0,029
318,895	12,234	-0,091	-0,048
319,910	-33,839	-0,189	-0,071
320,925	149,376	-0,152	-0,141
321,939	1,725	-0,251	-0,123
322,954	473,576	-0,027	-0,043
323,968	-128,774	-0,158	0,015
324,983	-54,947	-0,252	-0,078
325,997	130,178	-0,189	-0,166
327,012	-111,054	-0,193	0,027
328,027	11,841	-0,138	-0,072
329,041	265,069	-0,097	-0,117
330,056	-61,628	-0,197	-0,056
331,070	-44,416	-0,174	-0,059
332,085	22,092	-0,114	-0,064
333,100	-121,955	-0,111	-0,012
334,114	-59,412	-0,247	-0,072
335,129	-64,769	-0,229	-0,063
336,143	176,910	-0,168	-0,168
337,158	166,497	-0,110	-0,107
338,173	432,145	-0,061	-0,090
339,187	651,197	-0,086	-0,152
340,202	-6,393	-0,154	-0,072
341,216	-175,238	-0,076	-0,001
342,231	180,167	-0,106	-0,106
343,246	98,266	-0,175	-0,138
344,260	62,040	-0,087	-0,059
345,275	221,927	-0,059	0,065
346,289	-23,520	-0,102	-0,042
347,304	116,796	-0,032	-0,027
348,319	-200,000	0,014	-0,137
349,333	27,150	-0,109	-0,063
350,348	153,802	-0,122	-0,114
351,362	239,972	-0,115	-0,132
352,377	-64,120	-0,134	0,037
353,392	226,222	-0,054	0,060
354,406	800,000	0,034	-0,076
355,421	206,227	1311,221	1396,880
356,435	158,599	1471,453	1397,340
