DTS Sentinel unit serial number:	SN410029Multiplexer serial number:	ORYXHardware model number:	OX2-SRSoftware version number:	ORYX F/W v4,00 Oryx Data Collector v3.7.2.0data status	okinstallation	B3 Nyhavnadifferential loss correction	single-endedforward channel	channel 1reverse channel	N/Adate	2023/12/02time	21:12:30forward acquisition time	300,00reverse acquisition time	0,00gamma	499,1914k internal	0,3201k external	0,3201temperature offset calibration	1,0000default loss term (dB/km)	0,3820temperature slope calibration	1,0000multiplexer offset coefficient	1,0000multiplexer slope coefficient	1,0000fibre end	0,00T internal ref (°C)	13,27T ext. ref 1 (°C)	-1,86T ext. ref 2 (°C)	-1,87length (m)	temperature (°C)	Stokes	anti-Stokes-744,400	-3,193	-0,303	-0,153
-743,385	-200,000	0,013	0,434
-742,371	-61,663	-0,248	-0,075
-741,356	-200,000	0,122	0,394
-740,342	76,358	-0,216	-0,166
-739,327	317,275	-0,112	0,154
-738,312	522,028	-0,099	-0,170
-737,298	-200,000	-0,026	0,262
-736,283	219,346	-0,182	-0,212
-735,269	800,000	0,192	0,429
-734,254	360,922	-0,208	-0,304
-733,239	171,392	-0,198	0,206
-732,225	375,997	-0,068	-0,101
-731,210	4,441	0,138	0,073
-730,196	187,046	-0,041	0,045
-729,181	800,000	-0,029	-0,080
-728,167	-113,380	-0,238	-0,034
-727,152	634,811	-0,008	0,015
-726,137	100,625	0,057	0,048
-725,123	-161,884	-0,096	0,003
-724,108	512,689	-0,095	-0,161
-723,094	-19,748	-0,160	-0,072
-722,079	800,000	-0,013	-0,030
-721,064	-165,119	-0,105	-0,003
-720,050	-127,950	-0,219	-0,023
-719,035	-38,954	0,083	0,031
-718,021	28,871	0,127	0,078
-717,006	210,074	-0,120	-0,137
-715,991	-81,115	-0,087	0,021
-714,977	800,000	0,016	-0,032
-713,962	16,499	-0,148	0,085
-712,948	436,313	0,084	0,134
-711,933	27,449	-0,063	-0,038
-710,918	-45,229	-0,146	-0,052
-709,904	279,497	-0,147	-0,191
-708,889	425,204	-0,077	-0,121
-707,875	236,029	-0,079	-0,095
-706,860	426,431	-0,083	-0,131
-705,845	800,000	0,034	-0,070
-704,831	-32,761	0,046	-0,018
-703,816	-133,862	0,065	-0,006
-702,802	800,000	0,037	-0,083
-701,787	-146,207	-0,058	0,004
-700,772	800,000	0,015	0,041
-699,758	-200,000	-0,040	-0,132
-698,743	-200,000	0,017	-0,220
-697,729	603,128	0,039	-0,071
-696,714	-56,752	0,029	0,009
-695,699	-54,790	0,041	0,013
-694,685	-200,000	0,007	-0,080
-693,670	-200,000	-0,023	-0,080
-692,656	189,938	0,063	0,069
-691,641	52,851	0,043	0,030
-690,627	-200,000	0,005	0,116
-689,612	167,410	0,026	-0,027
-688,597	341,438	-0,030	-0,043
-687,583	-159,391	0,025	-0,001
-686,568	-200,000	0,005	-0,066
-685,554	-200,000	0,007	0,112
-684,539	-91,942	-0,118	-0,024
-683,524	195,871	0,159	0,176
-682,510	800,000	-0,011	-0,034
-681,495	25,567	-0,094	0,057
-680,481	-200,000	0,002	-0,041
-679,466	-200,000	-0,036	-0,163
-678,451	155,895	0,046	0,046
-677,437	-90,213	-0,128	-0,027
-676,422	-65,450	0,126	0,037
-675,408	-122,184	-0,118	-0,014
-674,393	796,122	-0,022	-0,044
-673,378	-200,000	-0,032	-0,130
-672,364	-200,000	0,014	-0,130
-671,349	-78,602	-0,031	0,008
-670,335	800,000	-0,094	-0,238
-669,320	-200,000	0,003	-0,104
-668,305	-200,000	0,026	0,109
-667,291	-200,000	-0,017	-0,082
-666,276	-157,255	-0,090	-0,004
-665,262	-69,328	-0,058	-0,016
-664,247	233,724	-0,038	-0,045
-663,232	157,494	-0,048	-0,048
-662,218	-112,222	0,168	-0,024
-661,203	-50,637	-0,027	0,009
-660,189	800,000	-0,018	0,041
-659,174	-200,000	-0,032	-0,133
-658,159	-200,000	0,010	-0,139
-657,145	152,561	-0,152	-0,151
-656,130	-200,000	-0,027	0,104
-655,116	-129,099	0,076	0,008
-654,101	38,438	0,057	-0,036
-653,086	-68,642	0,049	-0,014
-652,072	-96,642	-0,116	0,022
-651,057	-33,862	-0,081	0,032
-650,043	131,325	0,072	0,067
-649,028	-200,000	0,020	0,189
-648,014	69,289	0,061	0,045
-646,999	67,765	0,093	0,069
-645,984	-18,059	-0,057	-0,026
-644,970	-142,847	-0,091	-0,006
-643,955	-84,311	0,069	-0,016
-642,941	800,000	-0,020	-0,057
-641,926	104,892	0,055	-0,047
-640,911	-59,327	0,073	-0,023
-639,897	94,367	-0,025	0,020
-638,882	-200,000	0,010	-0,067
-637,868	255,742	0,080	-0,100
-636,853	-171,083	-0,222	-0,005
-635,838	800,000	-0,022	-0,060
-634,824	-71,756	0,194	-0,052
-633,809	-147,152	-0,087	-0,005
-632,795	800,000	-0,040	0,082
-631,780	-200,000	0,027	0,101
-630,765	-140,465	0,056	-0,004
-629,751	113,956	-0,056	-0,050
-628,736	53,740	-0,084	-0,058
-627,722	-26,245	-0,067	-0,028
-626,707	800,000	-0,041	0,117
-625,692	800,000	-0,031	0,091
-624,678	800,000	-0,014	0,042
-623,663	-200,000	0,028	0,129
-622,649	-200,000	-0,005	-0,061
-621,634	402,833	-0,072	-0,110
-620,619	372,264	0,035	-0,052
-619,605	183,144	-0,050	-0,054
-618,590	800,000	-0,039	0,113
-617,576	-200,000	-0,009	0,163
-616,561	29,306	-0,020	-0,012
-615,546	19,165	-0,099	-0,057
-614,532	-28,582	-0,082	-0,034
-613,517	100,252	0,104	-0,087
-612,503	208,708	0,033	-0,037
-611,488	-45,237	-0,044	-0,016
-610,474	-200,000	-0,004	0,124
-609,459	664,110	-0,041	0,076
-608,444	-185,564	-0,124	-0,001
-607,430	-200,000	-0,014	-0,060
-606,415	-200,000	-0,004	-0,026
-605,401	800,000	0,068	-0,201
-604,386	206,352	-0,046	-0,052
-603,371	-121,649	-0,079	0,009
-602,357	-200,000	0,029	0,113
-601,342	-104,753	-0,018	0,003
-600,328	800,000	0,021	-0,066
-599,313	-200,000	0,002	0,035
-598,298	14,404	0,058	-0,032
-597,284	-18,779	-0,125	-0,056
-596,269	-157,200	0,046	-0,002
-595,255	138,982	-0,062	-0,059
-594,240	649,142	0,062	0,116
-593,225	-155,310	-0,147	-0,007
-592,211	-200,000	-0,029	-0,105
-591,196	-129,720	0,044	0,004
-590,182	-159,536	-0,076	0,003
-589,167	-89,766	-0,094	0,020
-588,152	35,885	-0,046	-0,029
-587,138	-113,149	0,085	0,012
-586,123	-200,000	0,002	0,030
-585,109	9,628	-0,099	-0,054
-584,094	182,842	-0,097	-0,103
-583,079	-16,683	0,045	-0,021
-582,065	260,905	-0,103	0,130
-581,050	448,789	0,016	0,026
-580,036	-200,000	-0,008	0,055
-579,021	-22,237	-0,214	0,093
-578,006	670,765	0,030	0,057
-576,992	-96,335	-0,087	-0,017
-575,977	-200,000	0,009	-0,063
-574,963	-178,044	0,021	0,000
-573,948	-200,000	-0,019	-0,090
-572,934	-200,000	-0,041	-0,155
-571,919	-103,716	-0,017	0,003
-570,904	-104,536	0,132	0,022
-569,890	146,364	0,022	0,021
-568,875	-12,789	-0,034	0,016
-567,861	72,715	0,079	-0,059
-566,846	-66,319	-0,042	0,012
-565,831	-30,857	-0,030	0,012
-564,817	-200,000	-0,006	0,022
-563,802	800,000	-0,027	0,071
-562,788	208,724	-0,097	0,110
-561,773	149,624	0,077	0,076
-560,758	242,567	0,067	0,081
-559,744	104,260	0,032	0,027
-558,729	800,000	0,043	0,096
-557,715	-77,378	-0,108	-0,027
-556,700	106,916	0,014	-0,012
-555,685	95,219	0,062	-0,051
-554,671	380,364	0,037	-0,055
-553,656	170,089	-0,062	0,064
-552,642	-200,000	0,019	0,250
-551,627	-200,000	-0,028	0,171
-550,612	-79,961	0,128	-0,031
-549,598	71,896	-0,116	-0,087
-548,583	-121,985	-0,078	-0,009
-547,569	28,509	-0,027	0,017
-546,554	-36,494	0,084	0,032
-545,539	352,545	-0,023	0,033
-544,525	-159,327	0,150	0,006
-543,510	800,000	0,034	-0,071
-542,496	146,406	-0,054	-0,052
-541,481	-144,773	-0,090	-0,006
-540,466	151,928	0,033	0,032
-539,452	488,909	-0,042	-0,069
-538,437	-200,000	0,013	-0,099
-537,423	138,259	0,105	0,100
-536,408	-200,000	-0,011	0,126
-535,393	-49,109	-0,108	-0,037
-534,379	499,683	0,046	-0,078
-533,364	-200,000	-0,016	0,055
-532,350	-200,000	-0,012	-0,117
-531,335	643,127	-0,045	0,083
-530,321	-22,122	-0,076	0,033
-529,306	-200,000	0,010	0,052
-528,291	329,648	-0,041	0,057
-527,277	-200,000	0,005	-0,087
-526,262	-98,039	-0,092	0,017
-525,248	-129,280	0,201	0,020
-524,233	-131,296	-0,002	-0,000
-523,218	-200,000	0,019	0,155
-522,204	-9,711	-0,115	0,055
-521,189	369,455	-0,062	-0,091
-520,175	-200,000	0,004	-0,036
-519,160	39,796	-0,061	0,040
-518,145	315,710	0,034	-0,047
-517,131	-76,759	0,026	-0,006
-516,116	20,780	0,131	0,076
-515,102	-141,056	-0,078	-0,006
-514,087	-65,769	-0,100	0,029
-513,072	800,000	0,058	-0,118
-512,058	800,000	-0,043	-0,103
-511,043	-170,580	-0,131	0,003
-510,029	-56,019	0,089	-0,028
-509,014	-17,717	-0,069	-0,031
-507,999	273,651	-0,079	-0,100
-506,985	782,561	0,038	-0,076
-505,970	-48,078	0,051	-0,018
-504,956	43,276	-0,117	-0,077
-503,941	69,855	0,070	0,052
-502,926	264,152	-0,045	-0,056
-501,912	167,431	0,076	0,078
-500,897	800,000	-0,026	-0,055
-499,883	-167,079	-0,067	-0,002
-498,868	211,722	-0,088	-0,100
-497,853	-21,198	-0,070	-0,031
-496,839	63,641	0,117	-0,085
-495,824	-180,620	0,163	-0,002
-494,810	127,198	0,084	0,077
-493,795	-200,000	0,041	0,137
-492,781	800,000	-0,034	-0,081
-491,766	-200,000	0,013	0,206
-490,751	43,595	-0,089	0,059
-489,737	162,024	0,025	0,026
-488,722	-200,000	-0,000	-0,043
-487,708	-75,241	-0,032	-0,008
-486,693	443,249	-0,035	0,055
-485,678	-200,000	0,022	0,078
-484,664	-200,000	0,021	-0,087
-483,649	484,193	-0,016	-0,027
-482,635	-27,176	-0,085	-0,036
-481,620	308,244	0,032	0,042
-480,605	-200,000	0,005	0,113
-479,591	-133,355	-0,113	-0,010
-478,576	-200,000	-0,010	0,038
-477,562	800,000	-0,034	-0,095
-476,547	87,524	-0,051	-0,041
-475,532	800,000	0,060	-0,143
-474,518	15,412	-0,053	0,030
-473,503	800,000	0,072	0,179
-472,489	-95,128	-0,048	0,009
-471,474	751,516	0,077	-0,150
-470,459	-102,219	0,142	0,024
-469,445	421,582	-0,092	0,143
-468,430	800,000	-0,049	-0,101
-467,416	-200,000	0,009	0,041
-466,401	236,476	0,146	0,174
-465,386	-125,654	0,048	-0,005
-464,372	544,977	0,026	-0,045
-463,357	78,607	-0,075	0,058
-462,343	23,194	0,019	0,011
-461,328	42,572	-0,051	-0,033
-460,313	-146,261	0,083	0,005
-459,299	-47,337	0,140	0,049
-458,284	543,938	-0,064	0,110
-457,270	800,000	0,041	0,118
-456,255	800,000	0,020	-0,055
-455,241	-200,000	0,027	0,099
-454,226	335,534	-0,088	-0,123
-453,211	800,000	-0,004	0,008
-452,197	-25,371	0,183	-0,077
-451,182	-161,601	0,056	-0,002
-450,168	-200,000	-0,015	-0,174
-449,153	-166,523	0,100	0,003
-448,138	-200,000	0,009	-0,108
-447,124	-200,000	0,029	-0,121
-446,109	-200,000	-0,005	-0,026
-445,095	160,451	0,054	-0,054
-444,080	-200,000	-0,027	-0,088
-443,065	-164,394	0,071	0,002
-442,051	-200,000	0,008	0,039
-441,036	155,480	-0,070	-0,069
-440,022	800,000	0,013	0,041
-439,007	0,885	-0,091	-0,047
-437,992	159,120	-0,059	-0,059
-436,978	-200,000	-0,007	0,119
-435,963	-1,567	0,096	0,049
-434,949	-200,000	-0,004	-0,027
-433,934	160,132	-0,059	0,059
-432,919	-200,000	-0,004	-0,066
-431,905	272,578	0,067	-0,085
-430,890	800,000	0,037	0,118
-429,876	-200,000	-0,020	0,229
-428,861	-106,992	0,172	-0,027
-427,846	-99,986	-0,035	-0,006
-426,832	643,812	-0,052	-0,095
-425,817	11,743	-0,066	-0,036
-424,803	-200,000	0,029	-0,131
-423,788	269,078	0,051	0,064
-422,773	800,000	0,040	0,103
-421,759	114,122	0,082	-0,072
-420,744	-20,971	-0,090	-0,040
-419,730	-200,000	-0,011	0,063
-418,715	110,185	-0,067	0,057
-417,701	-200,000	-0,012	0,058
-416,686	800,000	-0,018	0,041
-415,671	-14,615	0,162	0,074
-414,657	462,123	0,059	0,095
-413,642	163,496	-0,112	-0,113
-412,628	-65,166	-0,162	0,047
-411,613	61,188	0,063	0,045
-410,598	-39,693	0,090	-0,034
-409,584	4,281	0,057	0,030
-408,569	10,307	0,017	0,010
-407,555	442,696	-0,036	-0,056
-406,540	-200,000	0,043	0,187
-405,525	-200,000	-0,019	0,083
-404,511	62,736	-0,094	-0,067
-403,496	-81,440	-0,034	0,008
-402,482	-79,675	-0,027	-0,006
-401,467	800,000	-0,031	0,078
-400,452	279,792	0,039	-0,050
-399,438	-31,674	0,004	0,002
-398,423	25,088	-0,056	0,034
-397,409	12,611	-0,098	-0,054
-396,394	-200,000	-0,065	-0,207
-395,379	80,564	-0,041	0,031
-394,365	-200,000	-0,045	0,000
-393,350	-92,401	-0,029	-0,006
-392,336	800,000	-0,016	-0,051
-391,321	182,837	-0,018	-0,019
-390,306	800,000	-0,012	0,034
-389,292	-51,681	0,152	0,050
-388,277	-200,000	-0,027	-0,102
-387,263	150,550	0,109	-0,106
-386,248	95,632	0,024	-0,020
-385,233	329,473	-0,038	0,053
-384,219	6,381	0,090	0,048
-383,204	-200,000	-0,012	-0,128
-382,190	222,450	-0,056	-0,064
-381,175	-56,688	0,024	-0,007
-380,160	-56,887	-0,106	-0,033
-379,146	-49,186	0,098	0,034
-378,131	-123,854	0,106	0,012
-377,117	760,982	0,058	-0,114
-376,102	-200,000	-0,008	0,029
-375,088	800,000	-0,053	-0,108
-374,073	-200,000	0,017	-0,162
-373,058	0,666	0,119	0,061
-372,044	-200,000	-0,001	0,081
-371,029	-104,155	-0,071	-0,012
-370,015	-42,146	0,104	0,038
-369,000	800,000	-0,017	-0,042
-367,985	-64,218	0,026	0,008
-366,971	-23,430	0,124	0,053
-365,956	212,866	0,067	-0,075
-364,942	-137,074	0,066	-0,005
-363,927	-109,673	-0,135	0,020
-362,912	-200,000	0,001	0,135
-361,898	800,000	-0,015	-0,039
-360,883	-200,000	0,013	-0,047
-359,869	-35,498	-0,135	-0,052
-358,854	-122,249	-0,119	0,014
-357,839	96,027	0,106	0,086
-356,825	800,000	-0,040	0,121
-355,810	391,762	-0,020	-0,030
-354,796	-95,696	0,105	0,020
-353,781	748,444	0,026	0,051
-352,766	-200,000	0,009	-0,133
-351,752	-200,000	0,044	0,160
-350,737	-173,366	0,161	0,003
-349,723	693,651	0,021	-0,040
-348,708	-42,826	0,012	0,004
-347,693	14,162	-0,151	-0,084
-346,679	-69,276	0,044	-0,012
-345,664	-200,000	0,025	-0,125
-344,650	800,000	-0,027	-0,061
-343,635	298,398	0,117	0,154
-342,620	-200,000	-0,035	0,140
-341,606	-137,750	0,123	0,010
-340,591	-200,000	-0,017	-0,074
-339,577	7,893	0,052	-0,028
-338,562	-200,000	0,008	-0,077
-337,548	-160,943	-0,072	-0,003
-336,533	484,041	0,014	0,023
-335,518	189,572	0,079	0,084
-334,504	463,879	-0,031	0,050
-333,489	20,267	-0,048	0,028
-332,475	-24,597	0,031	-0,013
-331,460	124,817	-0,047	-0,043
-330,445	-138,913	0,053	0,004
-329,431	-200,000	-0,009	0,102
-328,416	-200,000	-0,002	0,071
-327,402	405,429	-0,028	-0,043
-326,387	-173,673	-0,100	-0,002
-325,372	33,985	-0,121	0,075
-324,358	-200,000	0,012	-0,134
-323,343	152,432	0,015	-0,015
-322,329	800,000	-0,027	-0,068
-321,314	-122,102	0,150	-0,017
-320,299	-200,000	-0,003	0,139
-319,285	-200,000	-0,009	-0,041
-318,270	-200,000	-0,029	-0,095
-317,256	136,737	-0,114	-0,107
-316,241	-200,000	0,025	-0,182
-315,226	-200,000	-0,022	0,079
-314,212	118,263	0,093	-0,082
-313,197	-12,755	-0,075	0,035
-312,183	-200,000	-0,001	0,015
-311,168	-157,339	-0,068	-0,003
-310,153	-200,000	-0,029	-0,101
-309,139	-104,789	-0,150	-0,024
-308,124	-200,000	-0,042	-0,169
-307,110	-200,000	0,012	-0,099
-306,095	-114,200	-0,107	0,015
-305,080	63,034	0,095	-0,068
-304,066	-23,740	-0,093	0,040
-303,051	652,560	0,062	-0,114
-302,037	-15,059	0,031	0,014
-301,022	61,306	-0,045	-0,032
-300,008	-20,937	0,098	0,043
-298,993	800,000	0,028	-0,077
-297,978	585,471	-0,079	0,139
-296,964	223,541	0,090	-0,104
-295,949	-200,000	-0,009	-0,036
-294,935	357,647	-0,066	-0,095
-293,920	-35,732	-0,034	-0,013
-292,905	-76,842	0,059	0,015
-291,891	-69,786	0,081	0,022
-290,876	-11,252	-0,004	-0,002
-289,862	-23,586	-0,118	0,050
-288,847	-69,441	-0,038	-0,010
-287,832	-200,000	0,005	-0,113
-286,818	800,000	0,044	-0,101
-285,803	-200,000	0,018	0,070
-284,789	-200,000	0,039	0,199
-283,774	-11,520	-0,174	0,081
-282,759	647,158	0,008	0,015
-281,745	-34,298	-0,059	-0,023
-280,730	-200,000	-0,030	-0,096
-279,716	32,866	0,143	0,088
-278,701	-200,000	-0,036	0,155
-277,686	-200,000	-0,022	0,212
-276,672	-99,412	0,065	-0,012
-275,657	9,244	-0,024	-0,013
-274,643	-84,469	-0,061	0,014
-273,628	116,289	-0,029	-0,025
-272,613	800,000	-0,043	0,090
-271,599	-200,000	-0,001	0,030
-270,584	1,081	0,175	0,090
-269,570	800,000	0,057	0,167
-268,555	-108,650	0,139	-0,021
-267,540	800,000	-0,023	0,053
-266,526	-200,000	-0,001	-0,082
-265,511	140,162	-0,141	0,133
-264,497	297,133	-0,034	0,044
-263,482	800,000	0,069	0,158
-262,467	-200,000	0,005	-0,039
-261,453	800,000	-0,022	-0,060
-260,438	23,857	0,059	-0,035
-259,424	-105,053	0,025	-0,004
-258,409	800,000	-0,064	0,130
-257,395	322,974	-0,014	-0,019
-256,380	-161,957	0,162	0,006
-255,365	-200,000	-0,006	-0,022
-254,351	318,351	0,015	0,020
-253,336	-56,699	0,068	0,021
-252,322	70,700	0,045	-0,033
-251,307	800,000	0,004	-0,010
-250,292	-120,329	0,196	-0,024
-249,278	127,822	0,137	0,124
-248,263	-200,000	0,028	0,145
-247,249	-59,467	-0,035	0,011
-246,234	629,099	0,085	-0,153
-245,219	-149,897	-0,060	-0,003
-244,205	-29,033	-0,031	-0,013
-243,190	712,613	0,093	-0,177
-242,176	-92,065	-0,062	0,012
-241,161	-51,709	0,057	0,019
-240,146	143,113	-0,022	-0,021
-239,132	800,000	-0,057	0,158
-238,117	-35,336	-0,039	-0,015
-237,103	-155,779	-0,072	0,003
-236,088	369,761	0,040	0,058
-235,073	-31,016	0,155	-0,062
-234,059	-104,983	0,116	0,019
-233,044	-65,413	-0,105	0,030
-232,030	-200,000	0,008	0,213
-231,015	153,410	-0,060	-0,059
-230,000	-200,000	-0,012	0,049
-228,986	-200,000	0,008	-0,038
-227,971	-200,000	-0,002	0,075
-226,957	26,422	0,090	0,054
-225,942	111,526	-0,080	0,069
-224,927	-200,000	-0,013	0,075
-223,913	-200,000	0,000	-0,039
-222,898	-76,538	0,049	0,012
-221,884	-61,144	-0,126	-0,038
-220,869	114,249	0,127	0,110
-219,855	-200,000	0,034	0,191
-218,840	-137,111	0,136	0,011
-217,825	-66,668	-0,160	0,045
-216,811	10,715	0,041	0,022
-215,796	800,000	-0,009	0,022
-214,782	141,892	0,079	-0,075
-213,767	-166,320	0,030	0,001
-212,752	11,848	0,048	-0,026
-211,738	-132,602	0,056	-0,005
-210,723	-47,979	0,074	-0,026
-209,709	800,000	-0,029	0,081
-208,694	309,025	-0,074	0,099
-207,679	-36,095	0,043	0,016
-206,665	-200,000	0,003	-0,019
-205,650	-108,896	0,131	0,020
-204,636	-130,560	0,041	-0,004
-203,621	800,000	0,035	0,093
-202,606	-200,000	0,025	-0,106
-201,592	-129,516	-0,076	-0,007
-200,577	800,000	-0,074	-0,180
-199,563	51,271	-0,111	-0,075
-198,548	136,531	0,022	-0,020
-197,533	630,122	0,038	-0,070
-196,519	37,644	0,095	-0,060
-195,504	257,398	0,031	0,038
-194,490	-5,669	-0,133	0,065
-193,475	-27,477	0,090	-0,037
-192,460	319,894	-0,085	0,115
-191,446	800,000	-0,021	-0,047
-190,431	617,221	0,073	0,130
-189,417	-154,725	-0,044	-0,002
-188,402	-5,484	0,135	-0,066
-187,387	207,742	-0,144	-0,161
-186,373	109,594	0,132	-0,112
-185,358	800,000	-0,016	-0,045
-184,344	800,000	-0,026	0,072
-183,329	-147,095	-0,080	0,005
-182,315	-200,000	0,012	0,040
-181,300	433,577	0,053	-0,082
-180,285	-12,599	0,027	-0,013
-179,271	800,000	-0,016	-0,033
-178,256	-200,000	0,006	0,097
-177,242	-56,291	0,113	-0,035
-176,227	116,421	-0,073	-0,064
-175,212	46,800	-0,078	-0,051
-174,198	51,050	-0,044	-0,029
-173,183	800,000	0,052	-0,119
-172,169	800,000	-0,012	-0,027
-171,154	583,480	-0,116	-0,203
-170,139	-55,477	0,122	-0,039
-169,125	-200,000	0,014	0,110
-168,110	-200,000	-0,003	-0,011
-167,096	-56,052	-0,094	-0,029
-166,081	201,553	-0,108	-0,119
-165,066	102,467	0,073	-0,061
-164,052	194,642	-0,105	-0,114
-163,037	-200,000	0,001	0,084
-162,023	292,636	-0,074	-0,096
-161,008	39,262	-0,092	-0,059
-159,993	-200,000	-0,007	-0,074
-158,979	-200,000	-0,009	-0,036
-157,964	-146,429	0,060	0,004
-156,950	143,776	0,056	-0,053
-155,935	-158,353	0,143	0,006
-154,920	108,927	0,050	-0,042
-153,906	108,403	-0,084	0,072
-152,891	620,473	0,061	0,109
-151,877	-139,527	0,090	0,007
-150,862	800,000	-0,089	-0,186
-149,847	35,186	0,102	-0,063
-148,833	800,000	-0,060	-0,171
-147,818	-96,358	0,041	-0,008
-146,804	145,197	0,084	0,080
-145,789	-131,928	-0,101	-0,009
-144,775	49,137	0,076	0,051
-143,760	-103,107	-0,083	-0,014
-142,745	30,877	0,095	-0,058
-141,731	66,984	-0,081	0,059
-140,716	-200,000	0,003	-0,021
-139,702	-73,023	0,050	-0,013
-138,687	-200,000	-0,015	0,107
-137,672	-136,019	-0,138	-0,011
-136,658	-126,792	0,043	0,004
-135,643	800,000	0,045	-0,127
-134,629	13,171	-0,121	-0,066
-133,614	179,691	0,104	-0,108
-132,599	32,566	0,079	0,049
-131,585	800,000	0,052	0,158
-130,570	-200,000	-0,030	0,149
-129,556	-200,000	0,016	-0,115
-128,541	-200,000	-0,003	0,013
-127,526	-148,059	-0,060	-0,003
-126,512	204,542	0,092	-0,101
-125,497	115,793	0,111	-0,097
-124,483	-5,147	0,091	0,044
-123,468	-85,306	0,077	-0,017
-122,453	-200,000	-0,006	-0,189
-121,439	-93,202	-0,073	0,014
-120,424	108,698	-0,060	0,051
-119,410	-200,000	0,002	0,114
-118,395	176,621	-0,117	-0,121
-117,380	800,000	-0,006	-0,014
-116,366	-19,392	-0,043	0,019
-115,351	-138,481	0,110	-0,008
-114,337	98,401	-0,122	-0,099
-113,322	-200,000	0,005	0,087
-112,307	282,397	-0,029	-0,037
-111,293	687,762	-0,021	0,038
-110,278	800,000	0,048	0,104
-109,264	-164,528	0,090	-0,003
-108,249	-21,508	0,031	0,013
-107,234	-57,321	-0,149	0,046
-106,220	335,728	-0,050	-0,069
-105,205	-60,595	0,127	0,038
-104,191	191,662	-0,110	0,117
-103,176	-44,733	-0,101	0,036
-102,162	800,000	-0,029	-0,070
-101,147	800,000	-0,004	0,008
-100,132	-200,000	-0,023	-0,087
-99,118	184,309	0,029	-0,030
-98,103	513,040	0,025	0,041
-97,089	20,364	0,046	-0,026
-96,074	-200,000	0,012	0,050
-95,059	379,764	0,028	-0,042
-94,045	-6,226	-0,088	0,043
-93,030	-74,269	-0,066	-0,017
-92,016	290,141	-0,065	-0,083
-91,001	140,119	-0,153	0,143
-89,986	581,227	0,096	-0,168
-88,972	-200,000	0,028	0,109
-87,957	-200,000	-0,007	0,080
-86,943	-200,000	-0,022	0,088
-85,928	-159,011	0,079	-0,003
-84,913	-200,000	-0,042	-0,166
-83,899	88,837	-0,039	0,030
-82,884	-161,349	-0,055	-0,002
-81,870	52,884	0,157	-0,107
-80,855	319,955	-0,037	0,050
-79,840	412,895	0,075	-0,113
-78,826	-111,833	-0,116	0,016
-77,811	167,948	-0,105	-0,106
-76,797	-200,000	0,007	-0,042
-75,782	800,000	-0,009	-0,023
-74,767	21,536	0,085	-0,049
-73,753	-200,000	0,000	0,090
-72,738	-200,000	0,031	-0,152
-71,724	-200,000	0,022	-0,176
-70,709	335,016	0,037	-0,051
-69,694	-200,000	-0,022	-0,081
-68,680	-123,913	0,086	-0,010
-67,665	-19,641	-0,045	0,020
-66,651	590,597	0,088	0,154
-65,636	-75,128	0,094	0,024
-64,622	800,000	0,045	0,129
-63,607	473,195	-0,069	-0,111
-62,592	21,578	0,161	-0,092
-61,578	-148,001	0,109	0,006
-60,563	-154,634	-0,023	0,001
-59,549	-200,000	-0,016	0,127
-58,534	-42,192	-1,721	-0,620
-57,519	296,465	-1,463	-1,904
-56,505	-200,000	-0,523	-4,457
-55,490	207,499	1,017	1,126
-54,476	800,000	4,959	11,360
-53,461	-200,000	19,265	320,549
-52,446	-200,000	741,369	2334,165
-51,432	572,517	1656,081	2868,463
-50,417	78,139	1671,091	1261,152
-49,403	21,299	1543,939	885,619
-48,388	15,146	1466,489	811,271
-47,373	18,008	1456,732	819,674
-46,359	16,696	1446,467	807,571
-45,344	13,381	1441,763	789,036
-44,330	13,338	1439,984	787,825
-43,315	13,331	1438,224	786,796
-42,300	13,323	1436,470	785,764
-41,286	13,361	1435,351	785,305
-40,271	13,325	1433,947	784,333
-39,257	13,320	1432,636	783,560
-38,242	13,346	1431,263	782,905
-37,227	13,370	1429,930	782,258
-36,213	13,339	1428,861	781,496
-35,198	13,376	1427,697	781,000
-34,184	13,395	1426,620	780,472
-33,169	13,363	1425,506	779,682
-32,154	13,399	1424,293	779,157
-31,140	13,397	1423,050	778,434
-30,125	13,362	1422,098	777,720
-29,111	13,425	1420,663	777,199
-28,096	13,323	1419,708	776,167
-27,082	13,329	1418,585	775,547
-26,067	13,305	1417,671	774,904
-25,052	13,275	1416,419	774,048
-24,038	13,236	1415,633	773,407
-23,023	13,307	1414,412	773,043
-22,009	13,263	1413,433	772,271
-20,994	13,240	1412,668	771,712
-19,979	13,286	1411,692	771,364
-18,965	13,259	1410,820	770,733
-17,950	13,242	1409,947	770,144
-16,936	13,241	1408,828	769,496
-15,921	13,178	1407,713	768,565
-14,906	13,198	1407,034	768,256
-13,892	13,257	1405,840	767,848
-12,877	13,223	1405,088	767,249
-11,863	13,194	1404,318	766,661
-10,848	13,172	1403,411	766,035
-9,833	13,133	1402,495	765,322
-8,819	13,176	1401,564	764,983
-7,804	13,132	1400,511	764,174
-6,790	13,082	1399,811	763,528
-5,775	13,139	1398,355	762,968
-4,760	13,102	1397,535	762,319
-3,746	13,097	1396,715	761,817
-2,731	13,053	1395,943	761,164
-1,717	13,071	1395,129	760,774
-0,702	13,093	1393,183	759,783
0,313	17,002	1310,037	732,531
1,327	33,296	703,693	431,136
2,342	51,307	123,311	82,693
3,356	1,251	16,654	8,434
4,371	-9,527	3,454	1,624
5,386	-24,723	0,560	0,234
6,400	800,000	0,054	0,155
7,415	-28,806	-0,274	-0,111
8,429	13,153	-0,331	-0,181
9,444	286,059	-0,237	-0,302
10,459	-102,028	-0,199	-0,034
11,473	-58,165	-0,241	-0,074
12,488	119,774	-0,258	-0,226
13,502	-43,323	-0,234	-0,083
14,517	-53,338	-0,366	-0,118
15,531	-12,200	-0,317	-0,146
16,546	151,767	-0,376	-0,362
17,561	95,389	-0,368	-0,296
18,575	50,045	-0,182	-0,121
19,590	349,021	-0,231	-0,324
20,604	-66,983	-0,148	-0,041
21,619	134,246	-0,327	-0,300
22,634	56,888	-0,320	-0,220
23,648	-2,858	-0,388	-0,191
24,663	106,351	-0,490	-0,410
25,677	49,612	-0,323	-0,214
26,692	128,647	-0,387	-0,348
27,707	103,765	-0,293	-0,243
28,721	15,054	-0,362	-0,199
29,736	27,823	-0,464	-0,275
30,750	-49,906	-0,476	-0,158
31,765	8,069	-0,447	-0,236
32,780	10,634	-0,307	-0,165
33,794	44,337	-0,352	-0,228
34,809	63,141	-0,391	-0,276
35,823	-42,837	-0,361	-0,129
36,838	59,854	-0,365	-0,254
37,853	28,983	-0,293	-0,175
38,867	184,086	-0,359	-0,375
39,882	98,489	-0,356	-0,290
40,896	72,289	-0,271	-0,199
41,911	-45,794	-0,501	-0,174
42,926	136,592	-0,327	-0,301
43,940	297,646	-0,278	-0,360
44,955	-21,083	-0,384	-0,165
45,969	-72,866	-0,376	-0,097
46,984	-62,809	-0,399	-0,116
47,999	51,928	-0,346	-0,232
49,013	82,455	-0,284	-0,217
50,028	54,189	-0,291	-0,197
51,042	258,049	-0,282	-0,342
52,057	122,186	-0,315	-0,277
53,071	101,857	-0,389	-0,319
54,086	118,438	-0,336	-0,292
55,101	-1,743	-0,388	-0,192
56,115	8,258	-0,310	-0,163
57,130	17,959	-0,303	-0,169
58,144	2,587	-0,431	-0,219
59,159	-13,835	-0,432	-0,196
60,174	109,381	-0,313	-0,264
61,188	112,593	-0,360	-0,307
62,203	47,731	-0,292	-0,191
63,217	22,417	-0,323	-0,185
64,232	-7,170	-0,365	-0,174
65,247	30,551	-0,334	-0,200
66,261	135,448	-0,287	-0,263
67,276	26,708	-0,455	-0,267
68,290	58,121	-0,339	-0,233
69,305	15,274	-0,326	-0,180
70,320	-9,818	-0,258	-0,121
71,334	82,603	-0,385	-0,294
72,349	-42,871	-0,253	-0,090
73,363	25,589	-0,332	-0,194
74,378	-9,323	-0,231	-0,108
75,393	17,679	-0,319	-0,178
76,407	130,619	-0,335	-0,302
77,422	69,969	-0,286	-0,207
78,436	95,227	-0,227	-0,182
79,451	144,751	-0,165	-0,155
80,466	135,081	-0,264	-0,241
81,480	52,590	-0,326	-0,218
82,495	19,802	-0,264	-0,149
83,509	-56,005	-0,353	-0,110
84,524	-31,599	-0,235	-0,092
85,539	-81,683	-0,284	-0,065
86,553	200,426	-0,246	-0,266
87,568	201,096	-0,235	-0,254
88,582	76,764	-0,231	-0,172
89,597	57,155	-0,255	-0,175
90,611	179,457	-0,220	-0,226
91,626	203,429	-0,292	-0,318
92,641	293,678	-0,148	-0,190
93,655	34,510	-0,275	-0,168
94,670	77,918	-0,175	-0,131
95,684	148,779	-0,315	-0,299
96,699	-150,975	-0,360	-0,019
97,714	334,744	-0,206	-0,281
98,728	76,445	-0,299	-0,222
99,743	37,202	-0,322	-0,199
100,757	-33,566	-0,264	-0,102
101,772	-155,496	-0,377	-0,017
102,787	152,469	-0,268	-0,257
103,801	219,067	-0,199	-0,223
104,816	5,124	-0,259	-0,133
105,830	-83,467	-0,249	-0,056
106,845	-69,652	-0,250	-0,067
107,860	-99,651	-0,379	-0,066
108,874	-30,323	-0,290	-0,115
109,889	175,469	-0,285	-0,290
110,903	-139,212	-0,377	-0,028
111,918	137,470	-0,168	-0,154
112,933	29,039	-0,186	-0,110
113,947	182,923	-0,228	-0,236
114,962	-10,442	-0,281	-0,130
115,976	90,992	-0,233	-0,183
116,991	195,775	-0,275	-0,294
118,006	226,841	-0,234	-0,267
119,020	238,332	-0,170	-0,198
120,035	209,158	-0,114	-0,125
121,049	-6,272	-0,334	-0,159
122,064	-63,419	-0,322	0,092
123,079	122,837	-0,133	-0,117
124,093	582,630	-0,169	-0,291
125,108	350,645	-0,195	-0,271
126,122	112,146	-0,232	-0,196
127,137	172,439	-0,148	-0,149
128,151	-10,576	-0,193	-0,089
129,166	216,691	-0,265	-0,295
130,181	177,894	-0,220	-0,225
131,195	233,976	-0,212	-0,244
132,210	24,763	-0,342	-0,197
133,224	44,013	-0,106	-0,068
134,239	-25,876	-0,361	-0,148
135,254	-25,135	-0,339	-0,140
136,268	146,572	-0,190	-0,179
137,283	68,610	-0,249	-0,178
138,297	-39,581	-0,265	-0,097
139,312	549,625	-0,126	-0,212
140,327	28,488	-0,265	-0,157
141,341	-180,607	-0,379	0,005
142,356	29,393	-0,273	-0,162
143,370	95,042	-0,297	-0,236
144,385	-6,804	-0,283	-0,134
145,400	137,628	-0,239	-0,219
146,414	134,485	-0,247	-0,224
147,429	219,655	-0,154	-0,173
148,443	103,230	-0,233	-0,191
149,458	442,971	-0,160	-0,245
150,473	91,989	-0,190	-0,149
151,487	98,175	-0,195	-0,157
152,502	175,325	-0,186	-0,188
153,516	104,573	-0,221	-0,181
154,531	257,288	-0,276	-0,332
155,546	179,283	-0,205	-0,210
156,560	-186,680	-0,229	-0,002
157,575	-9,596	-0,288	-0,133
158,589	28,797	-0,259	-0,153
159,604	141,454	-0,253	-0,234
160,619	89,985	-0,301	-0,235
161,633	175,150	-0,341	-0,345
162,648	106,939	-0,270	-0,223
163,662	412,257	-0,241	-0,358
164,677	272,863	-0,186	-0,230
165,692	110,148	-0,247	-0,207
166,706	-4,182	-0,384	-0,185
167,721	66,482	-0,292	-0,207
168,735	81,287	-0,222	-0,167
169,750	199,035	-0,181	-0,193
170,764	-84,940	-0,195	-0,042
171,779	-200,000	-0,076	-0,241
172,794	10,956	-0,180	-0,095
173,808	132,032	-0,189	-0,170
174,823	139,943	-0,296	-0,272
175,837	21,259	-0,264	-0,149
176,852	487,558	-0,217	-0,347
177,867	232,011	-0,164	-0,188
178,881	303,699	-0,134	-0,174
179,896	-22,909	-0,155	-0,065
180,910	490,279	-0,113	-0,180
181,925	51,198	-0,179	-0,118
182,940	241,043	-0,200	-0,232
183,954	158,804	-0,182	-0,176
184,969	307,522	-0,230	-0,299
185,983	9,830	-0,149	-0,078
186,998	164,896	-0,124	-0,122
188,013	106,556	-0,266	-0,219
189,027	81,787	-0,209	-0,157
190,042	41,496	-0,214	-0,134
191,056	429,166	-0,156	-0,235
192,071	44,787	-0,338	-0,216
193,086	245,587	-0,102	-0,119
194,100	513,776	-0,119	-0,193
195,115	33,231	-0,246	-0,148
196,129	146,238	-0,218	-0,204
197,144	252,249	-0,165	-0,196
198,159	16,832	-0,243	-0,133
199,173	-1,457	-0,198	-0,097
200,188	55,903	-0,074	-0,050
201,202	104,795	-0,251	-0,206
202,217	6,719	-0,276	-0,142
203,232	42,930	-0,246	-0,156
204,246	141,911	-0,240	-0,221
205,261	60,806	-0,301	-0,207
206,275	800,000	-0,070	-0,163
207,290	-65,807	-0,082	0,023
208,304	-76,524	-0,194	-0,047
209,319	-25,767	-0,165	-0,067
210,334	59,994	-0,162	-0,111
211,348	800,000	-0,105	-0,220
212,363	53,604	-0,186	-0,124
213,377	9,115	-0,196	-0,102
214,392	800,000	-0,065	-0,147
215,407	-138,199	-0,279	-0,021
216,421	-20,437	-0,169	-0,072
217,436	337,807	-0,147	-0,199
218,450	148,555	-0,155	-0,145
219,465	326,213	-0,216	-0,288
220,480	-10,989	-0,249	-0,114
221,494	-49,737	-0,224	-0,074
222,509	-48,095	-0,161	-0,054
223,523	800,000	-0,102	-0,238
224,538	-114,725	-0,312	-0,041
225,553	24,494	-0,200	-0,115
226,567	-0,323	-0,197	-0,097
227,582	-130,798	-0,210	-0,019
228,596	-46,591	-0,129	-0,044
229,611	-39,759	-0,231	-0,083
230,626	-8,918	-0,267	-0,124
231,640	20,342	-0,181	-0,101
232,655	197,072	-0,183	-0,194
233,669	28,650	-0,160	-0,093
234,684	325,952	-0,104	-0,138
235,699	354,750	-0,081	-0,112
236,713	-109,896	-0,254	0,037
237,728	70,263	-0,230	-0,165
238,742	19,148	-0,250	-0,138
239,757	130,554	-0,209	-0,185
240,772	-34,387	-0,362	-0,137
241,786	36,334	-0,222	-0,135
242,801	23,327	-0,145	-0,082
243,815	106,530	-0,104	-0,086
244,830	56,811	-0,189	-0,127
245,844	-139,177	-0,218	0,016
246,859	-27,363	-0,285	-0,114
247,874	122,129	-0,147	-0,127
248,888	-15,554	-0,165	-0,072
249,903	-152,889	-0,161	0,008
250,917	-135,242	-0,192	0,016
251,932	-54,380	-0,082	-0,026
252,947	-17,488	-0,266	-0,116
253,961	-92,152	-0,187	0,036
254,976	-7,881	-0,130	-0,060
255,990	-118,677	-0,242	-0,029
257,005	-24,763	-0,203	-0,083
258,020	-41,872	-0,189	-0,067
259,034	-17,208	-0,105	-0,046
260,049	280,359	-0,147	-0,182
261,063	230,809	-0,088	-0,100
262,078	322,936	-0,204	-0,270
263,093	136,515	-0,321	-0,290
264,107	800,000	-0,074	-0,172
265,122	349,622	-0,128	-0,175
266,136	96,901	-0,262	-0,207
267,151	11,079	-0,125	-0,066
268,166	-31,892	-0,083	-0,032
269,180	800,000	-0,082	-0,222
270,195	89,689	-0,246	-0,189
271,209	352,993	-0,162	-0,222
272,224	76,140	-0,192	-0,140
273,239	95,352	-0,105	-0,083
274,253	-150,823	-0,242	-0,012
275,268	-103,909	-0,157	-0,025
276,282	800,000	-0,053	-0,141
277,297	53,498	-0,184	-0,122
278,312	5,889	-0,248	-0,127
279,326	78,779	-0,167	-0,123
280,341	119,984	-0,109	-0,094
281,355	98,662	-0,077	0,062
282,370	-156,193	-0,374	0,016
283,384	334,675	-0,178	-0,239
284,399	77,647	-0,114	-0,084
285,414	77,951	-0,160	-0,117
286,428	95,237	-0,160	-0,125
287,443	-105,447	-0,130	0,020
288,457	-124,194	-0,186	-0,020
289,472	-137,338	-0,197	-0,015
290,487	800,000	-0,111	-0,272
291,501	-200,000	-0,043	-0,134
292,516	617,012	-0,147	-0,255
293,530	64,706	-0,199	-0,138
294,545	-70,369	-0,181	0,047
295,560	317,689	-0,133	-0,174
296,574	-25,890	-0,154	-0,062
297,589	101,502	-0,185	-0,148
298,603	129,234	-0,227	-0,200
299,618	-143,905	-0,162	-0,010
300,633	627,054	-0,068	-0,120
301,647	319,276	-0,113	-0,148
302,662	32,144	-0,164	-0,097
303,676	45,134	-0,139	-0,088
304,691	48,504	-0,264	-0,170
305,706	375,519	-0,128	-0,181
306,720	800,000	-0,062	-0,176
307,735	18,803	-0,195	-0,107
308,749	-92,639	-0,150	-0,029
309,764	300,387	-0,051	-0,065
310,779	800,000	-0,080	-0,175
311,793	-29,405	-0,141	-0,055
312,808	-2,152	-0,164	-0,079
313,822	157,828	-0,156	-0,149
314,837	385,127	-0,051	-0,073
315,852	-31,800	-0,071	0,027
316,866	-200,000	-0,037	-0,252
317,881	800,000	-0,060	-0,141
318,895	14,889	-0,134	-0,072
319,910	355,734	-0,116	-0,160
320,925	800,000	-0,071	-0,205
321,939	800,000	-0,094	-0,249
322,954	-72,566	-0,158	-0,040
323,968	-200,000	0,006	-0,174
324,983	-143,386	-0,085	-0,006
325,997	-133,955	-0,246	-0,021
327,012	182,746	-0,230	-0,233
328,027	-95,564	-0,187	-0,034
329,041	-77,429	-0,153	-0,036
330,056	-81,039	-0,172	-0,039
331,070	88,037	-0,084	-0,064
332,085	160,781	-0,204	-0,196
333,100	-50,974	-0,123	-0,039
334,114	72,337	-0,188	-0,134
335,129	73,345	-0,166	-0,119
336,143	287,537	-0,094	-0,118
337,158	309,452	-0,149	-0,191
338,173	150,406	-0,079	-0,074
339,187	-71,518	-0,151	-0,038
340,202	335,213	-0,149	-0,199
341,216	-73,357	-0,055	-0,014
342,231	18,346	-0,155	-0,085
343,246	800,000	-0,097	-0,216
344,260	-36,091	-0,144	0,053
345,275	-117,982	-0,110	-0,013
346,289	-200,000	-0,020	-0,102
347,304	-90,301	-0,109	0,022
348,319	131,017	-0,151	-0,133
349,333	253,969	-0,203	-0,239
350,348	252,620	-0,098	-0,114
351,362	128,365	-0,100	-0,088
352,377	64,940	-0,146	-0,101
353,392	-36,260	-0,154	-0,057
354,406	144,898	-0,177	0,163
355,421	209,450	1314,377	1414,660
356,435	161,196	1475,079	1415,148
