DTS Sentinel unit serial number:	SN410029Multiplexer serial number:	ORYXHardware model number:	OX2-SRSoftware version number:	ORYX F/W v4,00 Oryx Data Collector v3.7.2.0data status	okinstallation	B3 Nyhavnadifferential loss correction	single-endedforward channel	channel 1reverse channel	N/Adate	2023/12/02time	19:12:30forward acquisition time	300,00reverse acquisition time	0,00gamma	499,1914k internal	0,3200k external	0,3200temperature offset calibration	1,0000default loss term (dB/km)	0,3820temperature slope calibration	1,0000multiplexer offset coefficient	1,0000multiplexer slope coefficient	1,0000fibre end	0,00T internal ref (°C)	13,44T ext. ref 1 (°C)	-1,79T ext. ref 2 (°C)	-1,79length (m)	temperature (°C)	Stokes	anti-Stokes-744,400	-9,019	-0,359	-0,174
-743,385	800,000	-0,088	0,250
-742,371	433,292	-0,153	-0,242
-741,356	800,000	0,151	0,331
-740,342	91,090	-0,238	-0,194
-739,327	-200,000	-0,063	0,248
-738,312	22,104	-0,179	-0,106
-737,298	800,000	-0,122	0,304
-736,283	84,473	-0,350	-0,279
-735,269	-200,000	-0,004	0,349
-734,254	296,997	-0,141	-0,189
-733,239	538,668	-0,107	0,185
-732,225	151,039	-0,196	-0,194
-731,210	-159,899	0,087	-0,003
-730,196	-200,000	0,006	0,044
-729,181	800,000	-0,015	-0,043
-728,167	59,251	-0,046	0,033
-727,152	204,071	-0,091	0,103
-726,137	19,450	-0,065	-0,038
-725,123	16,724	-0,117	-0,067
-724,108	175,019	-0,141	-0,149
-723,094	-143,339	-0,171	0,012
-722,079	-200,000	-0,012	0,050
-721,064	-9,265	0,069	-0,033
-720,050	-91,871	0,073	-0,015
-719,035	-124,863	-0,104	0,011
-718,021	98,935	0,033	-0,027
-717,006	551,276	-0,036	-0,064
-715,991	-67,676	-0,100	-0,028
-714,977	-40,994	-0,128	-0,048
-713,962	-200,000	0,000	0,027
-712,948	656,381	0,009	0,017
-711,933	437,466	-0,057	0,091
-710,918	-73,701	-0,063	0,017
-709,904	800,000	0,054	-0,140
-708,889	-100,208	-0,221	-0,040
-707,875	-9,652	0,025	0,012
-706,860	-174,777	0,132	0,003
-705,845	-200,000	0,004	0,056
-704,831	-200,000	-0,002	0,037
-703,816	84,934	-0,087	-0,069
-702,802	-200,000	0,006	-0,132
-701,787	132,324	-0,089	0,083
-700,772	71,962	-0,123	-0,093
-699,758	28,960	-0,039	0,024
-698,743	35,951	0,141	0,090
-697,729	-148,877	-0,022	-0,001
-696,714	-200,000	0,012	0,097
-695,699	-137,284	-0,095	-0,008
-694,685	789,757	0,017	0,035
-693,670	-72,658	0,007	0,002
-692,656	-200,000	-0,028	-0,105
-691,641	800,000	0,019	-0,042
-690,627	204,868	-0,055	0,062
-689,612	-121,309	-0,070	-0,008
-688,597	-139,435	0,089	-0,007
-687,583	-200,000	-0,001	0,006
-686,568	-200,000	0,030	-0,101
-685,554	254,003	-0,096	0,120
-684,539	135,678	0,037	-0,035
-683,524	750,371	-0,037	0,072
-682,510	5,534	-0,112	-0,060
-681,495	800,000	-0,016	-0,037
-680,481	-21,571	-0,180	-0,079
-679,466	800,000	-0,033	-0,080
-678,451	-116,231	-0,076	-0,010
-677,437	-147,099	0,049	-0,003
-676,422	261,197	0,028	-0,035
-675,408	800,000	-0,051	0,107
-674,393	800,000	-0,044	0,118
-673,378	-4,031	-0,122	0,061
-672,364	-137,852	-0,045	-0,004
-671,349	-112,359	-0,107	0,015
-670,335	293,571	0,073	-0,097
-669,320	-86,266	-0,052	0,012
-668,305	-166,281	-0,041	0,001
-667,291	-122,334	-0,108	0,013
-666,276	-109,770	0,056	-0,008
-665,262	441,553	-0,062	-0,098
-664,247	-102,793	-0,057	0,010
-663,232	-200,000	0,001	-0,028
-662,218	-133,415	0,069	0,006
-661,203	10,402	0,017	0,009
-660,189	-200,000	-0,006	0,130
-659,174	51,392	-0,059	0,041
-658,159	268,442	-0,011	-0,015
-657,145	297,947	0,044	-0,059
-656,130	148,062	0,030	-0,029
-655,116	-200,000	0,028	0,109
-654,101	800,000	0,066	0,141
-653,086	326,938	-0,016	0,023
-652,072	28,409	-0,075	-0,046
-651,057	-200,000	0,004	-0,079
-650,043	-93,024	-0,073	0,015
-649,028	261,540	-0,019	-0,024
-648,014	-186,105	0,068	-0,001
-646,999	-127,984	-0,044	-0,005
-645,984	-200,000	-0,015	0,049
-644,970	-200,000	-0,002	-0,079
-643,955	-1,685	0,035	-0,018
-642,941	-22,489	0,058	0,025
-641,926	-129,609	-0,086	-0,008
-640,911	34,582	-0,063	0,040
-639,897	205,220	0,058	0,065
-638,882	18,296	-0,036	-0,021
-637,868	153,778	-0,085	-0,085
-636,853	164,298	-0,081	-0,082
-635,838	800,000	-0,051	-0,120
-634,824	-200,000	-0,009	0,073
-633,809	60,264	0,052	-0,037
-632,795	-12,175	-0,094	0,044
-631,780	519,783	-0,051	0,086
-630,765	-200,000	0,002	0,012
-629,751	70,082	-0,092	-0,069
-628,736	-200,000	-0,004	-0,041
-627,722	58,222	-0,096	-0,068
-626,707	800,000	0,038	-0,084
-625,692	-4,875	0,090	0,045
-624,678	-200,000	-0,013	-0,083
-623,663	34,775	-0,109	-0,069
-622,649	-81,503	-0,049	0,012
-621,634	37,766	-0,079	-0,051
-620,619	162,637	-0,068	0,069
-619,605	-6,849	0,126	-0,062
-618,590	-100,515	0,107	0,019
-617,576	169,246	-0,088	0,091
-616,561	-95,151	-0,084	-0,016
-615,546	166,623	-0,012	-0,012
-614,532	-200,000	0,019	-0,075
-613,517	82,418	-0,089	0,070
-612,503	-200,000	-0,021	0,103
-611,488	-67,868	-0,126	-0,035
-610,474	-200,000	-0,000	-0,006
-609,459	800,000	-0,024	0,062
-608,444	661,920	-0,021	-0,039
-607,430	263,855	0,078	-0,098
-606,415	-200,000	0,008	-0,070
-605,401	144,547	0,134	0,129
-604,386	331,727	-0,083	-0,116
-603,371	71,669	0,098	0,073
-602,357	630,576	-0,031	-0,057
-601,342	-180,870	-0,087	-0,001
-600,328	-184,665	-0,113	-0,001
-599,313	-117,526	-0,127	-0,016
-598,298	-200,000	-0,008	0,062
-597,284	-112,631	0,113	-0,016
-596,269	703,674	-0,032	0,061
-595,255	-200,000	0,000	-0,116
-594,240	-200,000	-0,001	-0,069
-593,225	-200,000	0,000	-0,112
-592,211	-200,000	-0,040	-0,138
-591,196	24,650	0,038	0,022
-590,182	-28,219	-0,066	0,027
-589,167	43,757	-0,145	0,096
-588,152	-200,000	0,009	0,032
-587,138	-200,000	0,007	-0,034
-586,123	85,785	-0,019	-0,015
-585,109	-200,000	0,016	-0,109
-584,094	13,734	-0,051	-0,029
-583,079	-200,000	0,008	0,046
-582,065	-125,227	-0,018	-0,002
-581,050	-88,232	0,019	-0,004
-580,036	191,202	-0,095	-0,103
-579,021	3,710	-0,111	0,058
-578,006	800,000	-0,014	0,031
-576,992	176,724	0,075	0,079
-575,977	-200,000	-0,018	-0,068
-574,963	91,101	0,020	-0,017
-573,948	-200,000	0,006	0,019
-572,934	66,200	-0,017	0,012
-571,919	86,230	0,068	-0,054
-570,904	52,683	-0,106	-0,073
-569,890	-200,000	0,029	-0,095
-568,875	57,884	0,016	-0,011
-567,861	-200,000	0,001	-0,074
-566,846	-200,000	0,000	0,020
-565,831	800,000	-0,051	0,114
-564,817	484,006	-0,039	-0,065
-563,802	1,925	0,070	-0,036
-562,788	134,685	-0,058	-0,054
-561,773	90,626	-0,101	-0,082
-560,758	137,129	0,140	0,132
-559,744	20,024	0,168	0,098
-558,729	800,000	0,029	0,061
-557,715	-98,925	-0,045	0,008
-556,700	361,853	0,032	-0,047
-555,685	171,810	-0,088	-0,091
-554,671	5,296	0,110	-0,058
-553,656	101,199	0,123	0,104
-552,642	800,000	0,056	-0,114
-551,627	-172,152	0,090	-0,002
-550,612	-200,000	-0,034	-0,130
-549,598	-100,432	-0,108	-0,019
-548,583	800,000	0,013	-0,031
-547,569	-148,370	-0,178	0,010
-546,554	-107,738	0,064	-0,010
-545,539	191,349	-0,008	0,009
-544,525	136,882	-0,055	0,052
-543,510	-200,000	-0,001	-0,071
-542,496	800,000	0,011	0,032
-541,481	-61,309	-0,025	0,008
-540,466	479,496	0,027	-0,044
-539,452	-62,693	0,088	0,026
-538,437	800,000	-0,031	-0,069
-537,423	-200,000	0,006	0,041
-536,408	106,667	-0,135	0,116
-535,393	113,790	-0,106	-0,093
-534,379	800,000	0,051	-0,123
-533,364	-92,279	-0,023	-0,005
-532,350	-200,000	0,047	0,160
-531,335	113,825	-0,051	-0,044
-530,321	-109,291	0,062	0,009
-529,306	26,674	-0,063	-0,038
-528,291	-154,748	-0,125	0,006
-527,277	800,000	-0,034	0,094
-526,262	763,577	0,091	-0,180
-525,248	-31,557	-0,046	-0,019
-524,233	800,000	0,017	0,045
-523,218	-114,541	0,103	-0,014
-522,204	140,015	0,084	0,080
-521,189	-200,000	0,015	-0,117
-520,175	160,651	-0,114	-0,115
-519,160	635,254	-0,040	-0,074
-518,145	286,623	0,069	-0,090
-517,131	-21,747	0,205	0,090
-516,116	564,398	-0,031	0,054
-515,102	59,366	0,052	0,037
-514,087	193,627	-0,038	0,042
-513,072	-145,788	0,094	0,006
-512,058	73,822	-0,080	-0,060
-511,043	800,000	0,033	0,071
-510,029	-56,143	-0,065	0,021
-509,014	169,318	0,075	0,077
-507,999	126,109	-0,054	0,049
-506,985	-145,449	0,169	-0,011
-505,970	380,034	0,030	-0,045
-504,956	-43,273	0,115	-0,042
-503,941	-61,822	-0,045	-0,014
-502,926	-155,337	0,054	-0,002
-501,912	-200,000	0,015	0,059
-500,897	-142,162	-0,070	-0,005
-499,883	-96,657	-0,087	-0,016
-498,868	286,831	0,056	0,072
-497,853	-200,000	-0,039	-0,144
-496,839	-52,785	0,056	-0,018
-495,824	-200,000	0,003	-0,027
-494,810	-13,968	-0,159	0,074
-493,795	-7,778	0,108	-0,052
-492,781	13,635	-0,129	0,072
-491,766	-97,681	0,110	0,020
-490,751	-155,422	0,033	0,002
-489,737	-1,335	0,076	0,038
-488,722	202,527	0,022	-0,025
-487,708	-200,000	-0,020	-0,071
-486,693	555,281	0,016	-0,028
-485,678	-200,000	-0,021	-0,067
-484,664	-47,455	-0,164	0,057
-483,649	-13,464	-0,030	0,014
-482,635	12,183	0,035	0,019
-481,620	82,032	0,053	-0,042
-480,605	-200,000	0,010	0,077
-479,591	47,075	0,097	0,065
-478,576	233,635	-0,097	-0,115
-477,562	-116,824	0,096	-0,012
-476,547	800,000	-0,004	-0,011
-475,532	-200,000	-0,009	0,062
-474,518	-50,692	0,165	0,056
-473,503	-56,153	0,080	0,025
-472,489	71,624	0,026	-0,020
-471,474	2,499	0,049	0,025
-470,459	104,073	-0,070	0,060
-469,445	-10,133	0,037	0,018
-468,430	-53,641	-0,046	0,015
-467,416	127,721	0,061	0,055
-466,401	-58,230	0,070	-0,022
-465,386	-200,000	0,012	0,042
-464,372	164,614	-0,036	-0,037
-463,357	-119,882	-0,129	0,016
-462,343	250,393	-0,034	0,042
-461,328	-104,864	-0,138	-0,023
-460,313	-168,282	0,111	-0,003
-459,299	-114,679	-0,035	0,005
-458,284	800,000	0,032	0,069
-457,270	37,062	-0,058	0,037
-456,255	-33,415	0,212	0,084
-455,241	447,820	0,025	0,040
-454,226	473,811	0,062	-0,101
-453,211	338,417	-0,100	0,140
-452,197	800,000	0,021	0,043
-451,182	-129,139	-0,008	-0,001
-450,168	164,137	-0,041	-0,042
-449,153	-196,344	-0,102	-0,000
-448,138	-114,220	0,029	0,004
-447,124	787,415	-0,062	-0,122
-446,109	-59,903	0,219	-0,067
-445,095	361,029	0,079	-0,114
-444,080	800,000	0,057	-0,140
-443,065	-15,352	0,058	0,027
-442,051	-14,415	-0,086	-0,040
-441,036	264,597	-0,042	-0,052
-440,022	110,679	0,050	0,044
-439,007	-72,380	0,099	-0,026
-437,992	-200,000	0,011	-0,120
-436,978	-57,310	0,090	-0,028
-435,963	495,539	-0,062	0,103
-434,949	800,000	-0,060	0,141
-433,934	800,000	0,011	-0,027
-432,919	619,775	-0,054	-0,099
-431,905	44,205	-0,079	-0,052
-430,890	-128,730	0,092	0,009
-429,876	32,139	-0,027	-0,016
-428,861	591,834	0,087	-0,154
-427,846	341,694	0,056	0,079
-426,832	-34,713	-0,057	0,022
-425,817	-61,738	-0,103	-0,031
-424,803	800,000	-0,030	-0,081
-423,788	800,000	-0,057	0,149
-422,773	628,306	-0,060	0,109
-421,759	-147,458	0,092	0,006
-420,744	-140,830	-0,100	-0,007
-419,730	-200,000	-0,004	0,115
-418,715	177,498	-0,084	-0,088
-417,701	-200,000	0,009	-0,066
-416,686	-172,419	0,085	-0,002
-415,671	172,167	0,038	0,039
-414,657	598,310	0,053	0,095
-413,642	-200,000	-0,112	0,000
-412,628	12,670	-0,088	0,049
-411,613	800,000	0,043	-0,104
-410,598	57,842	0,053	-0,037
-409,584	800,000	-0,032	-0,096
-408,569	-104,018	-0,029	0,005
-407,555	-118,626	0,141	-0,018
-406,540	106,830	-0,080	-0,069
-405,525	800,000	0,011	0,022
-404,511	166,339	0,049	-0,050
-403,496	4,733	-0,023	-0,012
-402,482	-94,194	0,074	-0,014
-401,467	270,184	0,074	-0,094
-400,452	-200,000	0,000	-0,007
-399,438	356,485	-0,004	0,005
-398,423	-200,000	-0,016	-0,093
-397,409	-44,625	-0,060	0,021
-396,394	-56,061	0,132	-0,042
-395,379	48,788	0,044	-0,030
-394,365	68,751	0,071	-0,052
-393,350	-67,077	0,089	-0,025
-392,336	244,645	-0,085	-0,102
-391,321	34,449	-0,013	-0,008
-390,306	18,732	-0,111	0,064
-389,292	188,695	0,030	0,032
-388,277	628,889	0,020	-0,037
-387,263	70,286	-0,020	-0,015
-386,248	-67,993	0,207	0,058
-385,233	-200,000	-0,001	-0,069
-384,219	800,000	-0,027	-0,075
-383,204	595,421	0,033	0,058
-382,190	-30,772	-0,041	0,017
-381,175	-60,831	-0,065	-0,020
-380,160	320,279	-0,073	0,100
-379,146	800,000	-0,026	0,054
-378,131	-200,000	-0,007	0,151
-377,117	-200,000	0,001	-0,006
-376,102	-200,000	0,011	-0,115
-375,088	-200,000	-0,004	-0,047
-374,073	270,976	0,067	-0,085
-373,058	800,000	0,047	0,110
-372,044	-200,000	0,017	-0,131
-371,029	800,000	-0,006	0,013
-370,015	373,761	0,065	0,095
-369,000	-200,000	0,007	-0,071
-367,985	-200,000	-0,010	-0,064
-366,971	-63,254	0,022	-0,007
-365,956	-200,000	0,027	0,096
-364,942	-200,000	-0,004	0,144
-363,927	132,842	0,127	0,118
-362,912	-200,000	-0,015	0,058
-361,898	-86,354	-0,109	0,024
-360,883	591,089	0,034	-0,060
-359,869	-200,000	-0,015	-0,111
-358,854	601,078	-0,022	-0,039
-357,839	105,103	-0,070	-0,059
-356,825	266,596	0,105	0,132
-355,810	-7,008	-0,048	0,023
-354,796	-200,000	-0,006	0,030
-353,781	-79,561	0,142	0,034
-352,766	-200,000	-0,020	-0,163
-351,752	38,612	0,050	-0,032
-350,737	667,500	0,011	-0,020
-349,723	-200,000	0,001	0,062
-348,708	290,042	0,036	-0,047
-347,693	234,823	-0,059	-0,069
-346,679	-31,908	0,052	-0,021
-345,664	32,890	0,062	-0,038
-344,650	150,335	0,026	-0,025
-343,635	324,382	-0,040	0,055
-342,620	800,000	0,047	0,145
-341,606	800,000	-0,044	0,088
-340,591	-200,000	-0,002	-0,090
-339,577	-200,000	0,015	0,050
-338,562	-200,000	0,003	-0,168
-337,548	-124,234	0,108	-0,012
-336,533	0,430	0,101	-0,051
-335,518	-99,958	0,070	0,012
-334,504	-84,571	-0,042	0,009
-333,489	-200,000	0,002	0,023
-332,475	511,023	-0,080	0,133
-331,460	-200,000	0,016	0,069
-330,445	10,056	-0,006	0,003
-329,431	800,000	0,034	0,071
-328,416	800,000	-0,041	0,117
-327,402	-143,240	-0,112	-0,008
-326,387	123,726	-0,120	0,108
-325,372	179,979	-0,129	-0,136
-324,358	800,000	-0,060	-0,122
-323,343	-61,941	-0,115	-0,034
-322,329	-95,404	0,134	0,025
-321,314	28,721	0,087	0,053
-320,299	339,675	0,053	0,074
-319,285	89,951	-0,098	-0,078
-318,270	-200,000	-0,017	0,062
-317,256	800,000	-0,036	-0,096
-316,241	223,171	-0,077	-0,089
-315,226	-200,000	-0,001	0,046
-314,212	44,371	-0,150	0,098
-313,197	-192,694	0,110	-0,001
-312,183	514,220	0,064	-0,107
-311,168	108,079	-0,092	0,079
-310,153	-66,366	-0,043	-0,012
-309,139	800,000	-0,014	-0,030
-308,124	800,000	0,029	0,091
-307,110	-69,090	0,042	-0,011
-306,095	-200,000	0,025	0,089
-305,080	800,000	0,085	0,217
-304,066	160,023	-0,068	-0,067
-303,051	-144,126	0,057	0,004
-302,037	-93,316	-0,092	-0,018
-301,022	-135,884	0,068	0,006
-300,008	-58,278	-0,078	0,024
-298,993	-7,017	0,064	-0,031
-297,978	-200,000	0,002	-0,058
-296,964	-114,301	-0,040	0,005
-295,949	800,000	0,043	0,100
-294,935	-99,177	-0,102	0,018
-293,920	6,679	-0,071	0,038
-292,905	-109,154	-0,033	0,005
-291,891	104,578	0,036	0,030
-290,876	41,775	-0,082	0,053
-289,862	-17,685	0,078	0,035
-288,847	-200,000	0,005	0,216
-287,832	-105,947	-0,041	0,007
-286,818	-54,343	0,188	0,061
-285,803	-200,000	-0,014	0,131
-284,789	-200,000	0,003	-0,039
-283,774	-200,000	0,024	0,095
-282,759	146,975	0,033	0,032
-281,745	393,379	-0,058	-0,086
-280,730	-140,103	-0,081	-0,006
-279,716	180,316	0,057	0,059
-278,701	800,000	-0,027	-0,077
-277,686	-200,000	-0,027	-0,154
-276,672	-35,306	0,140	0,054
-275,657	323,802	0,022	0,030
-274,643	80,724	-0,060	0,046
-273,628	800,000	0,041	0,083
-272,613	-82,792	0,103	-0,024
-271,599	-200,000	-0,002	-0,061
-270,584	-141,245	0,132	0,009
-269,570	14,774	-0,085	0,047
-268,555	-34,144	-0,047	-0,018
-267,540	124,584	0,030	0,027
-266,526	40,681	-0,156	0,100
-265,511	178,058	-0,097	0,102
-264,497	-101,117	0,149	0,026
-263,482	-126,988	0,022	-0,002
-262,467	-200,000	-0,007	0,131
-261,453	-200,000	-0,002	-0,076
-260,438	-28,438	-0,016	-0,007
-259,424	-200,000	0,016	-0,119
-258,409	800,000	-0,050	-0,106
-257,395	-200,000	0,001	0,060
-256,380	-65,271	0,237	-0,068
-255,365	-200,000	0,011	-0,066
-254,351	-200,000	0,023	0,100
-253,336	163,356	-0,094	0,094
-252,322	-200,000	0,016	-0,094
-251,307	-200,000	-0,011	-0,060
-250,292	-200,000	0,017	0,105
-249,278	-105,614	0,076	0,012
-248,263	499,002	-0,028	0,046
-247,249	-159,322	0,143	0,006
-246,234	-200,000	-0,000	0,069
-245,219	215,298	0,041	-0,046
-244,205	-109,481	-0,168	0,025
-243,190	-57,109	0,039	-0,012
-242,176	-71,194	-0,048	0,013
-241,161	82,387	-0,054	-0,042
-240,146	96,905	0,066	0,054
-239,132	800,000	-0,035	0,087
-238,117	-200,000	-0,011	-0,087
-237,103	-85,891	-0,044	0,010
-236,088	-98,013	-0,117	-0,021
-235,073	-116,631	-0,044	0,006
-234,059	-200,000	0,027	-0,107
-233,044	800,000	0,014	-0,038
-232,030	-28,197	-0,131	0,054
-231,015	-200,000	-0,002	-0,109
-230,000	-200,000	0,025	-0,144
-228,986	-200,000	0,044	-0,141
-227,971	114,166	0,054	-0,047
-226,957	-200,000	-0,018	0,087
-225,942	800,000	-0,036	0,112
-224,927	-81,474	-0,025	0,006
-223,913	274,598	0,020	-0,025
-222,898	-200,000	0,004	0,163
-221,884	-92,291	-0,081	-0,016
-220,869	-80,982	0,125	-0,029
-219,855	27,666	-0,134	0,080
-218,840	-134,209	0,025	-0,002
-217,825	-200,000	0,032	0,114
-216,811	-200,000	0,035	0,117
-215,796	-74,453	0,067	0,017
-214,782	603,586	-0,032	-0,056
-213,767	800,000	-0,030	-0,059
-212,752	95,392	-0,070	0,057
-211,738	-102,742	0,110	0,018
-210,723	-200,000	-0,004	-0,096
-209,709	790,846	-0,056	-0,110
-208,694	-200,000	0,007	-0,084
-207,679	-200,000	-0,010	-0,184
-206,665	-200,000	0,005	-0,133
-205,650	-153,798	0,111	0,005
-204,636	-96,366	0,148	0,028
-203,621	-200,000	-0,044	0,143
-202,606	-11,591	-0,021	-0,010
-201,592	-82,643	-0,028	-0,006
-200,577	337,017	0,064	-0,088
-199,563	75,539	0,061	0,046
-198,548	54,452	0,050	-0,034
-197,533	54,154	0,094	0,065
-196,519	-200,000	0,028	0,247
-195,504	800,000	0,022	-0,044
-194,490	616,846	-0,106	-0,189
-193,475	150,263	0,042	-0,041
-192,460	800,000	0,018	0,040
-191,446	-95,721	-0,032	0,006
-190,431	351,397	0,062	0,088
-189,417	-52,297	0,059	0,019
-188,402	71,011	-0,052	0,038
-187,387	-200,000	0,004	0,024
-186,373	-200,000	0,027	-0,113
-185,358	-105,916	0,081	0,013
-184,344	800,000	-0,023	0,068
-183,329	-200,000	0,011	0,115
-182,315	-200,000	0,005	0,109
-181,300	-78,946	-0,044	-0,011
-180,285	-111,145	-0,243	0,035
-179,271	0,907	-0,146	0,074
-178,256	-26,102	0,101	-0,042
-177,242	800,000	-0,066	0,132
-176,227	-14,867	0,062	0,028
-175,212	800,000	-0,024	-0,065
-174,198	-86,479	0,082	-0,018
-173,183	-200,000	-0,010	0,124
-172,169	-58,337	0,019	-0,006
-171,154	357,106	0,029	-0,042
-170,139	29,242	0,059	0,035
-169,125	-123,276	0,050	0,006
-168,110	800,000	0,071	0,143
-167,096	-200,000	-0,010	-0,142
-166,081	-200,000	-0,016	-0,168
-165,066	-200,000	-0,021	0,122
-164,052	-46,711	0,078	-0,027
-163,037	-166,426	0,039	-0,001
-162,023	-200,000	-0,028	0,223
-161,008	-34,900	-0,121	0,047
-159,993	-18,973	-0,100	0,044
-158,979	-200,000	-0,011	0,069
-157,964	11,728	-0,089	-0,049
-156,950	358,464	0,068	-0,098
-155,935	-64,181	-0,055	-0,016
-154,920	13,343	0,074	-0,040
-153,906	800,000	-0,077	0,171
-152,891	-134,164	-0,096	-0,008
-151,877	-32,811	0,139	-0,055
-150,862	162,591	-0,006	-0,006
-149,847	508,232	0,039	0,064
-148,833	-200,000	-0,006	-0,046
-147,818	-200,000	0,132	-0,000
-146,804	60,813	-0,058	-0,041
-145,789	-158,829	0,122	-0,005
-144,775	800,000	-0,029	0,075
-143,760	233,015	-0,012	-0,014
-142,745	186,116	-0,106	-0,112
-141,731	438,109	0,079	-0,123
-140,716	-71,833	0,041	-0,011
-139,702	-200,000	0,018	-0,100
-138,687	-200,000	0,006	0,062
-137,672	202,698	0,018	-0,020
-136,658	527,040	0,024	-0,041
-135,643	304,779	0,069	-0,091
-134,629	800,000	0,038	-0,088
-133,614	669,443	-0,026	-0,047
-132,599	151,494	-0,085	-0,082
-131,585	-200,000	-0,004	-0,032
-130,570	439,239	-0,068	0,105
-129,556	800,000	-0,040	0,114
-128,541	-200,000	0,012	-0,127
-127,526	317,618	-0,017	-0,023
-126,512	63,949	-0,047	0,033
-125,497	57,943	0,078	0,054
-124,483	-200,000	0,015	-0,085
-123,468	260,491	0,065	0,080
-122,453	20,048	0,082	-0,047
-121,439	-200,000	-0,023	-0,102
-120,424	-138,511	-0,050	0,004
-119,410	-59,736	0,097	0,029
-118,395	-176,267	-0,086	-0,002
-117,380	-77,785	-0,050	0,012
-116,366	29,267	0,048	0,029
-115,351	-200,000	0,044	-0,142
-114,337	236,311	0,028	-0,033
-113,322	28,001	0,047	-0,028
-112,307	-80,313	-0,003	-0,001
-111,293	71,389	-0,042	-0,031
-110,278	-200,000	0,017	0,121
-109,264	-27,182	0,041	-0,017
-108,249	-97,238	0,111	-0,020
-107,234	-200,000	0,099	-0,320
-106,220	111,062	-0,098	-0,084
-105,205	-18,026	-0,121	0,054
-104,191	174,054	0,059	0,060
-103,176	567,441	0,067	0,117
-102,162	66,998	-0,021	-0,015
-101,147	-101,246	-0,152	0,026
-100,132	275,414	-0,143	-0,180
-99,118	-200,000	0,004	0,060
-98,103	-181,180	0,106	0,001
-97,089	-200,000	-0,000	0,039
-96,074	-3,281	-0,156	-0,077
-95,059	-6,581	0,109	-0,053
-94,045	-20,048	-0,136	-0,059
-93,030	800,000	0,021	-0,044
-92,016	-185,281	-0,106	0,001
-91,001	-10,986	0,001	-0,001
-89,986	800,000	0,034	0,077
-88,972	-56,720	0,117	0,037
-87,957	-200,000	0,007	0,153
-86,943	800,000	0,072	-0,144
-85,928	800,000	0,042	0,101
-84,913	52,019	-0,114	0,077
-83,899	25,299	-0,065	0,038
-82,884	384,403	0,043	-0,062
-81,870	231,562	0,047	-0,055
-80,855	-200,000	0,004	-0,064
-79,840	-0,054	-0,059	-0,030
-78,826	-200,000	0,009	-0,071
-77,811	107,550	-0,074	0,062
-76,797	3,348	-0,040	0,021
-75,782	403,552	-0,058	0,086
-74,767	93,235	0,031	-0,025
-73,753	-200,000	0,008	-0,058
-72,738	800,000	0,035	-0,089
-71,724	364,020	0,057	-0,081
-70,709	-200,000	0,011	-0,180
-69,694	-200,000	-0,006	-0,121
-68,680	-7,831	-0,076	-0,036
-67,665	125,593	0,058	0,052
-66,651	800,000	0,049	0,101
-65,636	-200,000	-0,004	0,111
-64,622	87,699	-0,043	0,034
-63,607	-74,318	-0,157	0,040
-62,592	-200,000	-0,011	-0,114
-61,578	800,000	-0,070	0,202
-60,563	-200,000	0,012	0,115
-59,549	-10,077	-0,079	0,037
-58,534	23,117	-1,607	-0,932
-57,519	388,449	-1,442	-2,120
-56,505	-200,000	-0,452	-4,456
-55,490	234,108	0,923	1,079
-54,476	800,000	4,991	11,405
-53,461	-200,000	19,108	319,691
-52,446	-200,000	739,940	2335,565
-51,432	574,407	1655,325	2871,498
-50,417	78,571	1671,236	1263,712
-49,403	21,439	1543,991	886,537
-48,388	15,278	1466,520	812,088
-47,373	17,968	1456,540	819,532
-46,359	16,753	1446,421	807,979
-45,344	13,605	1441,740	790,251
-44,330	13,502	1439,821	788,675
-43,315	13,469	1438,081	787,532
-42,300	13,525	1436,520	786,915
-41,286	13,537	1435,416	786,335
-40,271	13,469	1434,045	785,230
-39,257	13,516	1432,565	784,610
-38,242	13,563	1431,301	784,113
-37,227	13,545	1430,172	783,375
-36,213	13,545	1428,735	782,558
-35,198	13,532	1427,774	781,940
-34,184	13,588	1426,753	781,613
-33,169	13,507	1425,373	780,445
-32,154	13,531	1424,408	780,000
-31,140	13,553	1423,031	779,316
-30,125	13,559	1422,026	778,765
-29,111	13,562	1420,950	778,159
-28,096	13,508	1419,697	777,187
-27,082	13,510	1418,573	776,550
-26,067	13,462	1417,705	775,815
-25,052	13,475	1416,427	775,149
-24,038	13,431	1415,650	774,485
-23,023	13,445	1414,454	773,865
-22,009	13,444	1413,585	773,357
-20,994	13,425	1412,475	772,626
-19,979	13,397	1411,742	772,065
-18,965	13,427	1410,870	771,700
-17,950	13,392	1410,004	771,030
-16,936	13,458	1408,748	770,620
-15,921	13,409	1407,611	769,738
-14,906	13,375	1406,804	769,110
-13,892	13,373	1405,975	768,614
-12,877	13,373	1405,007	768,055
-11,863	13,386	1404,205	767,646
-10,848	13,332	1403,239	766,837
-9,833	13,323	1402,373	766,291
-8,819	13,291	1401,605	765,693
-7,804	13,296	1400,733	765,210
-6,790	13,240	1399,758	764,386
-5,775	13,236	1398,703	763,761
-4,760	13,298	1397,386	763,299
-3,746	13,239	1396,682	762,612
-2,731	13,242	1395,922	762,178
-1,717	13,257	1395,008	761,719
-0,702	13,252	1393,333	760,751
0,313	17,052	1310,311	733,042
1,327	33,402	704,035	431,673
2,342	51,631	123,359	82,868
3,356	2,429	16,710	8,530
4,371	14,191	3,174	1,745
5,386	-28,124	0,620	0,252
6,400	-200,000	0,051	0,376
7,415	-30,636	-0,167	-0,067
8,429	-110,021	-0,240	0,035
9,444	132,489	-0,330	-0,301
10,459	38,502	-0,319	-0,201
11,473	330,591	-0,191	-0,261
12,488	-85,271	-0,374	-0,082
13,502	238,383	-0,250	-0,294
14,517	-34,072	-0,349	-0,135
15,531	9,704	-0,367	-0,196
16,546	155,199	-0,322	-0,313
17,561	108,986	-0,433	-0,366
18,575	-53,660	-0,176	0,056
19,590	12,633	-0,267	-0,145
20,604	-48,306	-0,273	-0,092
21,619	168,939	-0,366	-0,369
22,634	156,234	-0,329	-0,321
23,648	311,813	-0,339	-0,450
24,663	70,235	-0,404	-0,294
25,677	-48,966	-0,336	-0,113
26,692	-50,288	-0,350	-0,116
27,707	-6,559	-0,461	-0,221
28,721	55,558	-0,288	-0,197
29,736	75,869	-0,466	-0,348
30,750	116,088	-0,399	-0,344
31,765	-1,622	-0,402	-0,199
32,780	173,002	-0,420	-0,428
33,794	126,612	-0,337	-0,301
34,809	278,238	-0,265	-0,333
35,823	-6,862	-0,417	-0,199
36,838	254,595	-0,314	-0,380
37,853	266,486	-0,299	-0,369
38,867	50,025	-0,281	-0,186
39,882	-10,461	-0,340	-0,158
40,896	218,554	-0,284	-0,320
41,911	-66,243	-0,431	-0,120
42,926	-30,207	-0,331	-0,132
43,940	193,280	-0,354	-0,378
44,955	171,791	-0,291	-0,295
45,969	107,612	-0,292	-0,245
46,984	38,857	-0,437	-0,275
47,999	93,214	-0,281	-0,224
49,013	39,878	-0,295	-0,186
50,028	-27,035	-0,315	-0,129
51,042	-9,174	-0,454	-0,213
52,057	115,815	-0,294	-0,253
53,071	72,402	-0,360	-0,264
54,086	-91,873	-0,411	-0,081
55,101	24,391	-0,315	-0,183
56,115	-98,923	-0,398	-0,071
57,130	37,546	-0,349	-0,217
58,144	203,322	-0,249	-0,271
59,159	19,673	-0,401	-0,227
60,174	139,755	-0,386	-0,358
61,188	87,854	-0,336	-0,262
62,203	195,455	-0,184	-0,197
63,217	56,590	-0,309	-0,211
64,232	26,729	-0,414	-0,244
65,247	63,143	-0,304	-0,214
66,261	48,220	-0,316	-0,207
67,276	171,991	-0,245	-0,247
68,290	172,105	-0,210	-0,212
69,305	-24,937	-0,411	-0,171
70,320	413,968	-0,195	-0,293
71,334	13,544	-0,328	-0,179
72,349	4,040	-0,216	-0,111
73,363	-13,336	-0,326	-0,148
74,378	99,575	-0,275	-0,224
75,393	53,264	-0,293	-0,197
76,407	-7,282	-0,292	-0,138
77,422	9,915	-0,303	-0,161
78,436	73,864	-0,274	-0,202
79,451	110,414	-0,362	-0,306
80,466	84,832	-0,280	-0,215
81,480	2,199	-0,285	-0,144
82,495	19,540	-0,304	-0,171
83,509	57,309	-0,253	-0,174
84,524	175,340	-0,226	-0,230
85,539	167,121	-0,234	-0,234
86,553	15,280	-0,241	-0,133
87,568	13,448	-0,335	-0,182
88,582	-43,786	-0,329	-0,116
89,597	36,499	-0,329	-0,203
90,611	100,849	-0,263	-0,214
91,626	-51,904	-0,349	-0,113
92,641	2,778	-0,221	-0,112
93,655	-23,850	-0,363	-0,152
94,670	115,411	-0,278	-0,239
95,684	98,854	-0,336	-0,272
96,699	-113,203	-0,260	-0,036
97,714	-19,552	-0,297	-0,129
98,728	145,789	-0,283	-0,267
99,743	-99,392	-0,346	-0,061
100,757	5,197	-0,210	-0,108
101,772	-27,023	-0,283	-0,115
102,787	41,388	-0,309	-0,196
103,801	43,619	-0,327	-0,210
104,816	-73,409	-0,346	-0,088
105,830	305,788	-0,222	-0,290
106,845	5,971	-0,230	-0,119
107,860	117,402	-0,284	-0,244
108,874	108,007	-0,254	-0,212
109,889	208,348	-0,330	-0,362
110,903	194,580	-0,311	-0,331
111,918	215,749	-0,137	-0,153
112,933	92,592	-0,261	-0,206
113,947	-81,938	-0,220	-0,050
114,962	38,652	-0,275	-0,172
115,976	29,476	-0,342	-0,203
116,991	74,181	-0,231	-0,170
118,006	46,093	-0,275	-0,178
119,020	22,553	-0,371	-0,212
120,035	-8,399	-0,348	-0,163
121,049	93,369	-0,137	-0,108
122,064	34,508	-0,216	-0,132
123,079	99,247	-0,292	-0,236
124,093	245,742	-0,238	-0,281
125,108	10,948	-0,387	-0,206
126,122	95,738	-0,388	-0,310
127,137	217,666	-0,109	-0,122
128,151	54,435	-0,179	-0,121
129,166	564,819	-0,173	-0,295
130,181	119,720	-0,189	-0,164
131,195	162,362	-0,240	-0,235
132,210	-108,107	-0,255	-0,038
133,224	259,797	-0,242	-0,293
134,239	216,903	-0,192	-0,214
135,254	216,796	-0,220	-0,246
136,268	-88,705	-0,176	-0,036
137,283	58,557	-0,339	-0,232
138,297	1,268	-0,290	-0,145
139,312	94,885	-0,321	-0,255
140,327	300,167	-0,216	-0,279
141,341	148,104	-0,302	-0,285
142,356	54,499	-0,224	-0,151
143,370	59,424	-0,316	-0,217
144,385	403,923	-0,175	-0,258
145,400	318,550	-0,221	-0,294
146,414	255,773	-0,234	-0,281
147,429	336,844	-0,165	-0,225
148,443	82,339	-0,239	-0,181
149,458	13,284	-0,295	-0,159
150,473	104,619	-0,296	-0,244
151,487	-58,353	-0,143	-0,043
152,502	22,878	-0,289	-0,165
153,516	199,631	-0,182	-0,196
154,531	109,790	-0,244	-0,204
155,546	299,414	-0,190	-0,245
156,560	4,468	-0,245	-0,125
157,575	-106,500	-0,365	-0,056
158,589	-44,356	-0,324	-0,112
159,604	53,441	-0,240	-0,160
160,619	211,621	-0,174	-0,191
161,633	103,232	-0,301	-0,246
162,648	0,601	-0,248	-0,124
163,662	37,339	-0,268	-0,166
164,677	52,767	-0,320	-0,213
165,692	21,969	-0,236	-0,134
166,706	105,411	-0,296	-0,244
167,721	102,065	-0,265	-0,216
168,735	170,176	-0,278	-0,278
169,750	-40,441	-0,215	-0,077
170,764	-48,588	-0,359	-0,120
171,779	-148,875	-0,272	-0,015
172,794	61,434	-0,232	-0,161
173,808	71,393	-0,260	-0,188
174,823	5,517	-0,383	-0,197
175,837	22,468	-0,290	-0,165
176,852	800,000	-0,114	-0,235
177,867	110,420	-0,248	-0,208
178,881	-169,828	-0,269	0,007
179,896	-89,014	-0,136	-0,028
180,910	34,942	-0,288	-0,175
181,925	20,557	-0,288	-0,162
182,940	31,969	-0,291	-0,174
183,954	13,818	-0,154	-0,083
184,969	420,175	-0,173	-0,259
185,983	160,463	-0,203	-0,197
186,998	3,369	-0,230	-0,116
188,013	-200,000	-0,022	-0,159
189,027	399,176	-0,175	-0,257
190,042	89,245	-0,188	-0,146
191,056	-62,333	-0,261	-0,075
192,071	100,310	-0,173	-0,139
193,086	69,677	-0,199	-0,143
194,100	376,023	-0,099	-0,140
195,115	75,611	-0,183	-0,134
196,129	234,190	-0,188	-0,216
197,144	167,942	-0,203	-0,201
198,159	197,076	-0,186	-0,197
199,173	660,741	-0,082	-0,148
200,188	221,380	-0,122	-0,137
201,202	-141,705	-0,194	-0,013
202,217	19,969	-0,267	-0,149
203,232	231,773	-0,206	-0,235
204,246	112,700	-0,274	-0,231
205,261	156,442	-0,212	-0,203
206,275	436,182	-0,131	-0,199
207,290	75,581	-0,173	-0,127
208,304	-62,904	-0,351	-0,100
209,319	86,826	-0,140	-0,107
210,334	110,680	-0,158	-0,132
211,348	146,993	-0,243	-0,227
212,363	55,970	-0,252	-0,170
213,377	-67,964	-0,137	-0,037
214,392	305,384	-0,139	-0,179
215,407	173,891	-0,187	-0,188
216,421	-3,325	-0,166	-0,080
217,436	9,352	-0,218	-0,114
218,450	67,320	-0,181	-0,128
219,465	170,229	-0,125	-0,124
220,480	252,101	-0,205	-0,243
221,494	800,000	-0,094	-0,188
222,509	31,067	-0,188	-0,112
223,523	-54,740	-0,141	0,044
224,538	150,262	-0,193	-0,182
225,553	-77,244	-0,124	-0,030
226,567	-51,954	-0,251	-0,080
227,582	4,670	-0,262	-0,133
228,596	-70,029	-0,041	-0,011
229,611	-200,000	-0,028	-0,222
230,626	776,983	-0,153	-0,292
231,640	178,108	-0,182	-0,185
232,655	22,863	-0,350	-0,198
233,669	-40,724	-0,147	-0,053
234,684	800,000	-0,132	-0,273
235,699	67,855	-0,199	-0,141
236,713	14,078	-0,156	-0,084
237,728	-127,117	-0,214	-0,021
238,742	-97,842	-0,230	-0,041
239,757	-73,525	-0,200	-0,050
240,772	221,568	-0,140	-0,156
241,786	23,902	-0,131	-0,074
242,801	800,000	-0,046	-0,101
243,815	9,531	-0,182	-0,095
244,830	-77,390	-0,067	-0,016
245,844	-10,710	-0,254	-0,116
246,859	209,029	-0,191	-0,208
247,874	10,975	-0,121	-0,064
248,888	24,395	-0,147	-0,084
249,903	133,814	-0,151	-0,136
250,917	3,638	-0,233	-0,117
251,932	-154,363	-0,321	-0,015
252,947	72,568	-0,107	-0,077
253,961	196,591	-0,260	-0,274
254,976	28,109	-0,318	-0,185
255,990	84,706	-0,203	-0,154
257,005	51,615	-0,137	-0,090
258,020	138,916	-0,176	-0,160
259,034	-126,885	-0,124	-0,012
260,049	-78,951	-0,198	-0,046
261,063	231,977	-0,172	-0,195
262,078	211,180	-0,277	-0,302
263,093	800,000	-0,079	-0,187
264,107	-47,931	-0,069	-0,023
265,122	702,429	0,029	0,053
266,136	128,484	-0,131	-0,116
267,151	-23,125	-0,241	-0,100
268,166	218,650	-0,127	-0,140
269,180	107,188	-0,145	-0,119
270,195	313,198	-0,133	-0,174
271,209	161,125	-0,179	-0,173
272,224	52,039	-0,133	-0,087
273,239	-200,000	-0,151	0,000
274,253	6,760	-0,183	-0,094
275,268	316,819	-0,134	-0,175
276,282	158,334	-0,185	-0,178
277,297	742,586	-0,114	-0,213
278,312	84,963	-0,183	-0,138
279,326	-79,446	-0,153	-0,035
280,341	-200,000	-0,033	-0,194
281,355	38,201	-0,042	0,026
282,370	320,032	-0,138	-0,181
283,384	154,711	-0,219	-0,208
284,399	59,448	-0,286	-0,194
285,414	-45,024	-0,117	-0,040
286,428	46,254	-0,151	-0,096
287,443	800,000	-0,064	-0,148
288,457	-86,458	-0,135	-0,028
289,472	38,009	-0,149	-0,091
290,487	130,073	-0,173	-0,153
291,501	347,666	-0,178	-0,243
292,516	291,223	-0,149	-0,187
293,530	356,585	-0,133	-0,183
294,545	156,376	-0,108	-0,103
295,560	10,050	-0,186	-0,097
296,574	-61,635	-0,169	-0,049
297,589	800,000	-0,070	-0,149
298,603	132,379	-0,224	-0,200
299,618	-132,581	-0,192	-0,017
300,633	262,677	-0,154	-0,184
301,647	55,224	-0,068	-0,045
302,662	99,739	-0,147	-0,117
303,676	-30,579	-0,132	-0,051
304,691	132,973	-0,184	-0,163
305,706	800,000	-0,096	-0,217
306,720	229,618	-0,186	-0,210
307,735	99,785	-0,208	-0,166
308,749	-29,625	-0,112	-0,044
309,764	684,487	0,033	-0,060
310,779	-74,409	-0,149	0,037
311,793	37,148	-0,227	-0,138
312,808	-200,000	-0,002	-0,162
313,822	15,289	-0,092	-0,050
314,837	293,053	-0,154	-0,193
315,852	240,339	-0,108	-0,124
316,866	274,670	-0,113	-0,138
317,881	-43,096	-0,109	-0,038
318,895	72,047	-0,167	-0,119
319,910	-53,098	-0,125	-0,039
320,925	23,945	-0,168	-0,095
321,939	76,535	-0,131	-0,096
322,954	164,644	0,072	-0,070
323,968	800,000	-0,079	-0,161
324,983	325,155	-0,123	-0,162
325,997	-42,449	-0,096	-0,033
327,012	218,916	-0,185	-0,204
328,027	11,896	-0,187	-0,099
329,041	-81,533	-0,117	0,026
330,056	153,154	-0,140	-0,132
331,070	124,501	0,056	-0,049
332,085	-48,485	-0,215	-0,071
333,100	-144,855	-0,230	0,014
334,114	800,000	-0,053	-0,121
335,129	-200,000	-0,054	-0,166
336,143	12,898	-0,159	-0,084
337,158	800,000	-0,103	-0,215
338,173	-36,335	-0,115	-0,042
339,187	160,468	-0,092	-0,088
340,202	-51,033	-0,139	-0,044
341,216	178,837	-0,111	-0,112
342,231	-96,534	-0,138	-0,025
343,246	118,968	-0,116	-0,099
344,260	175,731	-0,118	-0,118
345,275	223,620	-0,079	-0,088
346,289	271,662	-0,056	-0,068
347,304	131,192	-0,191	-0,168
348,319	154,950	0,045	-0,043
349,333	-159,005	-0,144	0,006
350,348	237,602	-0,155	-0,176
351,362	603,813	-0,126	-0,216
352,377	202,409	-0,122	-0,130
353,392	651,255	-0,077	-0,136
354,406	-20,930	-0,115	-0,048
355,421	208,602	1312,984	1410,867
356,435	160,512	1473,507	1411,358
