DTS Sentinel unit serial number:	SN410029Multiplexer serial number:	ORYXHardware model number:	OX2-SRSoftware version number:	ORYX F/W v4,00 Oryx Data Collector v3.7.2.0data status	okinstallation	B3 Nyhavnadifferential loss correction	single-endedforward channel	channel 1reverse channel	N/Adate	2023/12/01time	12:07:30forward acquisition time	300,00reverse acquisition time	0,00gamma	499,1914k internal	0,3213k external	0,3213temperature offset calibration	1,0000default loss term (dB/km)	0,3820temperature slope calibration	1,0000multiplexer offset coefficient	1,0000multiplexer slope coefficient	1,0000fibre end	0,00T internal ref (°C)	8,74T ext. ref 1 (°C)	-5,18T ext. ref 2 (°C)	-5,28length (m)	temperature (°C)	Stokes	anti-Stokes-744,400	331,072	-0,193	-0,270
-743,385	677,981	0,148	0,280
-742,371	800,000	-0,092	-0,192
-741,356	-200,000	0,012	0,257
-740,342	-200,000	0,010	-0,253
-739,327	800,000	-0,132	0,271
-738,312	324,695	-0,227	-0,314
-737,298	769,670	-0,071	0,141
-736,283	115,125	-0,227	-0,200
-735,269	-200,000	0,020	0,335
-734,254	-78,725	-0,158	-0,039
-733,239	-106,794	-0,085	-0,013
-732,225	-200,000	-0,045	-0,242
-731,210	-200,000	0,001	0,140
-730,196	-200,000	-0,007	0,080
-729,181	580,652	0,013	0,024
-728,167	25,297	-0,033	-0,020
-727,152	800,000	0,042	0,116
-726,137	-131,847	-0,119	0,011
-725,123	33,003	-0,047	-0,029
-724,108	-200,000	-0,020	-0,067
-723,094	56,518	-0,166	-0,117
-722,079	-200,000	-0,021	-0,074
-721,064	-200,000	-0,007	-0,061
-720,050	69,743	-0,039	0,029
-719,035	800,000	-0,032	0,069
-718,021	175,668	0,058	0,061
-717,006	167,804	-0,098	-0,101
-715,991	800,000	-0,054	-0,127
-714,977	800,000	-0,017	-0,050
-713,962	74,184	-0,082	-0,062
-712,948	-68,222	0,181	0,051
-711,933	-138,419	-0,034	-0,003
-710,918	35,658	0,188	0,119
-709,904	56,685	-0,078	-0,055
-708,889	-200,000	-0,014	0,104
-707,875	-70,461	0,075	-0,020
-706,860	28,958	-0,097	-0,060
-705,845	225,589	-0,128	-0,150
-704,831	800,000	-0,020	-0,048
-703,816	40,392	0,133	-0,087
-702,802	-36,664	-0,083	0,032
-701,787	214,681	-0,076	-0,088
-700,772	800,000	0,022	0,050
-699,758	568,794	-0,059	-0,103
-698,743	-200,000	-0,020	0,094
-697,729	-145,566	0,035	-0,002
-696,714	163,331	-0,051	-0,052
-695,699	-37,514	-0,034	-0,013
-694,685	-116,043	-0,124	0,017
-693,670	215,270	0,050	0,057
-692,656	-200,000	0,004	-0,089
-691,641	-200,000	0,026	0,130
-690,627	238,179	0,023	0,028
-689,612	-76,302	-0,109	0,028
-688,597	151,712	-0,051	-0,050
-687,583	-200,000	-0,011	-0,123
-686,568	-200,000	-0,000	0,023
-685,554	-45,644	0,045	0,016
-684,539	6,051	0,029	-0,016
-683,524	-27,702	0,104	-0,043
-682,510	-22,697	-0,065	-0,028
-681,495	-200,000	-0,003	0,125
-680,481	189,938	-0,028	0,030
-679,466	171,072	-0,030	0,031
-678,451	286,758	-0,087	-0,113
-677,437	396,739	0,061	-0,093
-676,422	-200,000	0,027	-0,167
-675,408	278,086	0,035	0,045
-674,393	-35,108	0,072	0,028
-673,378	13,699	0,097	-0,054
-672,364	800,000	-0,034	0,105
-671,349	-175,886	0,099	0,002
-670,335	-3,461	0,078	-0,039
-669,320	800,000	-0,028	-0,086
-668,305	188,226	-0,093	0,101
-667,291	800,000	0,024	0,049
-666,276	-29,724	-0,053	0,022
-665,262	800,000	0,048	-0,119
-664,247	800,000	0,062	-0,188
-663,232	-62,711	-0,088	0,026
-662,218	-107,640	0,134	-0,021
-661,203	-200,000	-0,012	0,054
-660,189	-147,968	-0,065	-0,004
-659,174	-67,878	-0,073	-0,020
-658,159	800,000	0,021	0,064
-657,145	-66,544	-0,133	0,038
-656,130	468,474	0,085	-0,138
-655,116	221,439	0,045	0,052
-654,101	470,843	-0,100	-0,162
-653,086	-200,000	0,001	0,087
-652,072	800,000	0,024	-0,076
-651,057	800,000	-0,045	-0,139
-650,043	800,000	-0,021	0,054
-649,028	-200,000	-0,020	-0,081
-648,014	595,932	-0,068	0,123
-646,999	-174,405	0,124	0,003
-645,984	-143,957	-0,028	-0,002
-644,970	-200,000	0,004	0,138
-643,955	319,985	0,038	0,052
-642,941	179,335	0,096	-0,101
-641,926	800,000	0,036	0,080
-640,911	-67,988	0,044	-0,012
-639,897	51,705	-0,061	0,042
-638,882	-200,000	-0,009	0,109
-637,868	-52,061	0,093	0,031
-636,853	-61,710	-0,187	-0,056
-635,838	45,340	0,074	-0,049
-634,824	47,254	-0,027	-0,018
-633,809	-200,000	-0,013	0,167
-632,795	-153,757	0,079	-0,004
-631,780	321,195	-0,083	-0,115
-630,765	433,655	-0,084	0,132
-629,751	-200,000	-0,040	-0,140
-628,736	-200,000	0,010	-0,171
-627,722	47,143	-0,058	0,039
-626,707	-200,000	0,008	0,238
-625,692	378,971	0,073	-0,109
-624,678	-56,130	-0,145	-0,046
-623,663	800,000	0,049	-0,119
-622,649	25,044	0,107	0,064
-621,634	24,231	-0,136	-0,081
-620,619	-200,000	-0,001	0,042
-619,605	468,802	0,027	-0,044
-618,590	-19,767	0,044	0,019
-617,576	-4,273	0,037	0,019
-616,561	68,104	-0,058	0,043
-615,546	-200,000	-0,023	0,077
-614,532	568,370	0,043	-0,076
-613,517	800,000	0,030	-0,069
-612,503	-75,645	0,193	-0,049
-611,488	102,463	0,047	0,039
-610,474	-200,000	-0,004	-0,068
-609,459	800,000	-0,039	-0,092
-608,444	75,757	-0,018	0,014
-607,430	-200,000	-0,003	-0,028
-606,415	-200,000	-0,001	-0,035
-605,401	-200,000	0,008	-0,035
-604,386	615,132	0,040	-0,073
-603,371	-200,000	-0,000	0,082
-602,357	125,484	0,156	0,142
-601,342	-121,016	-0,103	-0,012
-600,328	7,645	-0,102	-0,055
-599,313	-145,365	-0,126	-0,008
-598,298	-62,578	0,018	0,005
-597,284	-200,000	0,019	0,172
-596,269	-200,000	-0,011	0,074
-595,255	19,451	0,063	0,037
-594,240	49,013	-0,037	0,025
-593,225	119,110	-0,091	-0,081
-592,211	-200,000	0,003	-0,048
-591,196	181,786	0,110	0,117
-590,182	-200,000	0,021	0,112
-589,167	-40,835	-0,126	-0,047
-588,152	-200,000	0,037	-0,161
-587,138	288,439	0,036	0,048
-586,123	-200,000	0,018	0,117
-585,109	-200,000	-0,007	-0,043
-584,094	47,079	-0,033	0,022
-583,079	-35,924	-0,043	-0,017
-582,065	356,445	0,030	0,043
-581,050	-104,365	0,209	-0,035
-580,036	-200,000	0,001	-0,008
-579,021	-143,340	-0,196	0,013
-578,006	237,742	-0,049	0,059
-576,992	-125,809	-0,041	-0,004
-575,977	343,816	0,021	0,030
-574,963	-100,635	-0,118	0,021
-573,948	5,360	0,074	-0,039
-572,934	-113,916	-0,030	-0,004
-571,919	-200,000	-0,031	0,155
-570,904	-200,000	0,006	0,076
-569,890	45,648	0,012	0,008
-568,875	147,796	0,034	0,033
-567,861	800,000	-0,024	0,047
-566,846	-71,078	0,208	-0,056
-565,831	150,475	-0,037	0,036
-564,817	-88,893	-0,099	-0,021
-563,802	800,000	-0,030	-0,074
-562,788	99,703	0,023	-0,019
-561,773	10,899	-0,214	-0,117
-560,758	728,691	-0,030	0,057
-559,744	-200,000	-0,012	-0,040
-558,729	188,247	-0,069	0,075
-557,715	30,667	-0,161	-0,099
-556,700	165,564	0,022	0,023
-555,685	-200,000	-0,023	0,094
-554,671	-200,000	0,000	0,028
-553,656	-200,000	-0,001	0,156
-552,642	376,944	-0,061	0,089
-551,627	800,000	-0,033	-0,085
-550,612	508,696	0,048	-0,081
-549,598	-66,140	-0,051	-0,015
-548,583	-135,989	0,106	-0,009
-547,569	-200,000	-0,008	-0,222
-546,554	800,000	0,016	0,040
-545,539	800,000	0,032	0,069
-544,525	-200,000	0,007	0,035
-543,510	587,154	0,070	-0,124
-542,496	285,929	-0,100	-0,129
-541,481	-86,522	-0,075	-0,016
-540,466	333,634	-0,015	-0,020
-539,452	193,095	0,004	0,004
-538,437	47,265	0,042	0,028
-537,423	-14,790	-0,017	0,008
-536,408	-61,336	-0,097	-0,029
-535,393	25,675	0,096	0,057
-534,379	-80,401	0,034	0,008
-533,364	-200,000	-0,014	0,137
-532,350	127,700	0,073	0,066
-531,335	-33,970	0,075	-0,030
-530,321	-164,414	0,083	-0,003
-529,306	-138,941	0,130	-0,010
-528,291	-200,000	-0,007	-0,098
-527,277	-13,840	-0,079	-0,037
-526,262	-137,612	-0,025	-0,002
-525,248	556,338	0,020	-0,035
-524,233	43,448	0,087	0,057
-523,218	158,828	0,051	0,050
-522,204	-200,000	0,022	0,241
-521,189	-129,695	-0,188	0,018
-520,175	-200,000	0,031	-0,124
-519,160	-58,226	0,048	-0,015
-518,145	558,289	-0,055	0,096
-517,131	-200,000	-0,035	-0,142
-516,116	-200,000	-0,013	0,068
-515,102	-200,000	0,035	0,126
-514,087	-119,818	-0,041	-0,005
-513,072	0,585	-0,194	-0,099
-512,058	800,000	0,027	0,072
-511,043	-200,000	0,020	-0,113
-510,029	-200,000	-0,008	0,089
-509,014	800,000	0,047	0,125
-507,999	800,000	-0,023	0,048
-506,985	800,000	0,012	0,034
-505,970	-30,376	-0,128	-0,052
-504,956	-28,119	-0,041	-0,017
-503,941	800,000	0,055	0,114
-502,926	-185,532	0,048	-0,001
-501,912	298,834	0,064	0,084
-500,897	117,584	-0,108	-0,096
-499,883	-200,000	-0,026	0,100
-498,868	277,750	0,053	0,068
-497,853	518,299	0,050	-0,085
-496,839	265,896	0,024	0,030
-495,824	471,894	0,075	0,122
-494,810	-61,796	0,024	-0,007
-493,795	800,000	-0,017	-0,052
-492,781	-139,620	-0,111	0,008
-491,766	-43,640	-0,234	-0,084
-490,751	800,000	-0,017	-0,036
-489,737	800,000	0,055	-0,134
-488,722	800,000	-0,015	-0,039
-487,708	256,307	-0,079	-0,098
-486,693	800,000	0,051	0,107
-485,678	-147,872	-0,091	-0,005
-484,664	13,878	-0,153	-0,085
-483,649	38,722	0,013	0,008
-482,635	-197,369	-0,132	0,001
-481,620	-77,737	0,085	-0,021
-480,605	64,857	-0,047	-0,034
-479,591	800,000	-0,018	-0,042
-478,576	800,000	0,012	0,024
-477,562	221,721	0,073	0,084
-476,547	-183,699	-0,130	0,002
-475,532	31,594	-0,070	0,043
-474,518	-60,724	0,039	-0,012
-473,503	36,180	-0,031	-0,020
-472,489	328,397	0,110	0,152
-471,474	-114,208	0,040	-0,005
-470,459	77,784	-0,114	0,087
-469,445	-200,000	-0,028	0,123
-468,430	-19,332	-0,143	-0,063
-467,416	527,176	0,118	0,199
-466,401	-105,112	0,089	0,015
-465,386	-56,380	-0,029	-0,009
-464,372	-200,000	0,001	-0,014
-463,357	45,604	0,032	0,021
-462,343	374,163	-0,079	-0,115
-461,328	-200,000	-0,030	-0,171
-460,313	78,865	0,092	-0,070
-459,299	179,522	-0,037	-0,039
-458,284	743,528	0,052	0,100
-457,270	-116,402	-0,076	-0,010
-456,255	-200,000	-0,013	-0,070
-455,241	800,000	-0,043	0,101
-454,226	521,698	0,046	-0,078
-453,211	800,000	-0,034	-0,070
-452,197	154,888	0,068	-0,067
-451,182	-200,000	0,027	0,123
-450,168	719,611	0,021	-0,041
-449,153	-200,000	-0,040	-0,132
-448,138	-59,256	-0,102	0,031
-447,124	-69,246	-0,100	0,027
-446,109	-200,000	0,013	-0,054
-445,095	-46,810	0,124	-0,043
-444,080	596,842	0,060	0,107
-443,065	4,328	0,089	0,047
-442,051	-28,718	0,127	-0,052
-441,036	264,969	0,011	0,014
-440,022	-200,000	-0,109	0,000
-439,007	123,990	-0,060	-0,054
-437,992	135,741	0,066	-0,062
-436,978	-98,059	0,171	-0,031
-435,963	-74,443	0,080	-0,021
-434,949	207,489	-0,042	-0,047
-433,934	163,292	0,068	0,068
-432,919	-138,967	-0,056	-0,004
-431,905	-72,321	-0,079	-0,021
-430,890	759,128	0,046	-0,089
-429,876	-4,164	0,119	0,059
-428,861	-45,448	-0,121	-0,043
-427,846	61,347	-0,047	0,033
-426,832	-27,691	-0,071	0,030
-425,817	-27,801	0,059	-0,024
-424,803	385,549	0,050	-0,074
-423,788	800,000	0,025	-0,076
-422,773	-113,007	0,028	-0,004
-421,759	-155,035	-0,008	0,000
-420,744	-200,000	0,010	0,114
-419,730	505,447	-0,035	-0,059
-418,715	-200,000	0,012	-0,076
-417,701	-77,604	0,074	-0,018
-416,686	30,446	0,065	-0,039
-415,671	73,325	-0,073	-0,054
-414,657	-124,325	-0,042	0,005
-413,642	800,000	0,081	-0,165
-412,628	-16,257	0,041	0,018
-411,613	800,000	-0,052	-0,135
-410,598	-107,774	0,080	-0,012
-409,584	-200,000	0,003	0,030
-408,569	800,000	0,037	0,102
-407,555	451,213	-0,045	0,071
-406,540	-95,173	0,173	0,033
-405,525	163,862	0,079	0,079
-404,511	-200,000	-0,003	0,025
-403,496	-36,595	-0,050	-0,019
-402,482	242,695	0,098	0,117
-401,467	-94,588	0,226	-0,044
-400,452	456,744	-0,046	-0,073
-399,438	-200,000	-0,003	-0,066
-398,423	-200,000	-0,003	-0,087
-397,409	-200,000	0,006	-0,128
-396,394	158,916	0,072	-0,072
-395,379	607,144	0,047	0,084
-394,365	61,432	0,162	0,115
-393,350	-200,000	-0,019	0,144
-392,336	-59,032	0,064	0,020
-391,321	72,431	-0,064	0,047
-390,306	-81,495	0,087	0,020
-389,292	130,690	0,056	0,052
-388,277	-41,216	0,169	0,062
-387,263	483,648	0,039	0,064
-386,248	547,255	-0,061	0,105
-385,233	-190,783	0,107	0,001
-384,219	319,776	0,017	-0,023
-383,204	-66,947	-0,136	-0,038
-382,190	-147,608	-0,123	0,007
-381,175	184,359	0,064	0,068
-380,160	-200,000	-0,020	-0,084
-379,146	-54,643	0,103	-0,033
-378,131	294,587	0,053	-0,069
-377,117	229,531	-0,048	0,056
-376,102	234,400	-0,108	-0,127
-375,088	800,000	0,023	-0,065
-374,073	174,851	-0,007	0,007
-373,058	168,841	0,019	0,019
-372,044	800,000	-0,071	0,174
-371,029	662,659	0,043	-0,080
-370,015	800,000	0,048	-0,108
-369,000	479,228	-0,065	-0,106
-367,985	-12,574	-0,065	-0,030
-366,971	-200,000	0,015	-0,163
-365,956	82,836	-0,124	0,096
-364,942	465,487	-0,054	0,086
-363,927	145,996	0,016	0,015
-362,912	-158,117	0,098	0,004
-361,898	-6,259	0,082	0,040
-360,883	-83,800	-0,141	0,032
-359,869	-58,456	0,048	0,015
-358,854	269,945	-0,076	0,096
-357,839	247,402	-0,017	0,021
-356,825	35,199	0,095	-0,059
-355,810	-200,000	-0,013	-0,104
-354,796	-184,471	-0,041	0,000
-353,781	800,000	-0,066	-0,179
-352,766	688,671	0,024	-0,046
-351,752	-200,000	-0,019	0,093
-350,737	-161,691	0,122	0,004
-349,723	-139,313	0,159	0,012
-348,708	249,391	0,046	0,055
-347,693	313,227	-0,041	-0,055
-346,679	176,567	-0,136	-0,141
-345,664	400,949	0,062	-0,094
-344,650	440,255	0,043	0,067
-343,635	141,934	0,077	0,072
-342,620	655,392	0,012	0,022
-341,606	100,323	0,143	-0,119
-340,591	800,000	-0,040	-0,081
-339,577	199,393	-0,088	-0,096
-338,562	161,549	-0,053	0,053
-337,548	-101,971	-0,021	-0,004
-336,533	-152,305	0,114	0,006
-335,518	166,172	0,078	0,079
-334,504	-151,024	-0,119	0,006
-333,489	158,589	-0,102	0,101
-332,475	-200,000	0,011	0,078
-331,460	-84,082	-0,107	-0,024
-330,445	-101,085	-0,108	-0,019
-329,431	-200,000	0,005	0,040
-328,416	-60,801	-0,100	0,030
-327,402	115,096	-0,106	-0,092
-326,387	193,233	0,103	-0,111
-325,372	-139,259	-0,144	-0,011
-324,358	53,609	-0,110	-0,075
-323,343	-22,249	-0,065	-0,028
-322,329	178,901	-0,041	0,043
-321,314	800,000	-0,025	0,070
-320,299	236,436	0,064	0,076
-319,285	-200,000	-0,013	0,051
-318,270	-68,551	-0,054	-0,015
-317,256	-77,959	-0,029	0,007
-316,241	-61,915	-0,070	-0,021
-315,226	800,000	-0,006	0,018
-314,212	-144,284	0,082	-0,005
-313,197	800,000	-0,022	0,056
-312,183	800,000	0,010	-0,020
-311,168	600,338	-0,064	0,113
-310,153	-116,476	-0,058	0,008
-309,139	174,487	-0,052	0,054
-308,124	-82,361	0,048	0,011
-307,110	-200,000	-0,001	0,086
-306,095	-200,000	0,012	-0,083
-305,080	236,360	0,095	-0,112
-304,066	-200,000	-0,008	0,112
-303,051	65,739	-0,219	-0,158
-302,037	800,000	-0,033	-0,066
-301,022	697,697	0,047	-0,088
-300,008	-95,807	0,140	-0,026
-298,993	-59,410	-0,119	0,036
-297,978	-200,000	0,005	-0,043
-296,964	800,000	-0,038	-0,076
-295,949	340,219	-0,063	-0,088
-294,935	36,041	-0,040	-0,025
-293,920	-51,937	-0,119	-0,039
-292,905	25,920	0,069	0,041
-291,891	-200,000	-0,000	-0,026
-290,876	-200,000	0,004	0,103
-289,862	147,944	-0,100	0,096
-288,847	-200,000	0,022	-0,092
-287,832	-200,000	-0,022	-0,087
-286,818	252,583	-0,043	-0,052
-285,803	-121,971	0,037	0,004
-284,789	-26,136	-0,029	0,012
-283,774	124,963	0,067	0,060
-282,759	180,517	-0,065	-0,068
-281,745	193,741	0,086	-0,093
-280,730	291,743	-0,090	-0,116
-279,716	-112,986	0,093	-0,013
-278,701	385,207	0,055	-0,081
-277,686	172,772	0,088	-0,090
-276,672	192,479	-0,056	0,060
-275,657	310,008	-0,066	0,088
-274,643	-200,000	0,000	-0,058
-273,628	341,195	-0,072	0,100
-272,613	-57,827	0,031	0,009
-271,599	-37,137	0,109	-0,041
-270,584	-200,000	0,057	0,187
-269,570	-200,000	-0,032	0,121
-268,555	744,313	0,029	0,056
-267,540	800,000	0,051	-0,139
-266,526	68,034	-0,068	-0,050
-265,511	410,345	0,036	-0,055
-264,497	-200,000	0,005	-0,065
-263,482	165,908	-0,041	-0,041
-262,467	-85,789	0,096	0,021
-261,453	243,486	-0,025	0,030
-260,438	-14,774	-0,082	-0,037
-259,424	800,000	-0,010	-0,026
-258,409	-48,249	0,113	-0,039
-257,395	-108,714	0,081	-0,012
-256,380	-60,839	0,051	-0,015
-255,365	-200,000	-0,018	0,059
-254,351	-200,000	0,018	-0,121
-253,336	-46,617	-0,156	0,054
-252,322	-153,462	-0,133	-0,006
-251,307	-98,997	-0,007	0,001
-250,292	-133,060	0,101	0,009
-249,278	415,437	0,059	0,090
-248,263	800,000	0,036	0,090
-247,249	-75,955	-0,078	-0,020
-246,234	-53,941	0,087	-0,028
-245,219	-200,000	-0,024	-0,091
-244,205	-102,536	0,140	-0,024
-243,190	-32,174	-0,006	0,003
-242,176	-62,788	0,064	0,019
-241,161	-6,026	-0,207	0,100
-240,146	-176,258	-0,050	0,001
-239,132	19,242	0,057	0,032
-238,117	-200,000	-0,006	-0,030
-237,103	-200,000	0,025	0,164
-236,088	-5,613	0,103	0,050
-235,073	-200,000	0,014	0,077
-234,059	-96,209	0,126	-0,023
-233,044	-10,006	0,074	0,035
-232,030	132,535	-0,064	0,059
-231,015	-46,014	0,049	-0,017
-230,000	324,616	-0,015	0,020
-228,986	-200,000	0,010	-0,070
-227,971	-200,000	0,001	-0,067
-226,957	-63,018	-0,128	0,037
-225,942	128,744	-0,027	0,025
-224,927	231,222	-0,112	-0,130
-223,913	463,090	0,101	-0,160
-222,898	-121,485	-0,125	-0,015
-221,884	79,996	0,081	0,062
-220,869	-17,603	-0,025	0,011
-219,855	88,973	0,124	0,098
-218,840	-142,332	0,078	-0,005
-217,825	263,432	-0,052	-0,065
-216,811	19,072	0,020	0,011
-215,796	-160,365	-0,019	-0,001
-214,782	-200,000	-0,009	0,074
-213,767	800,000	0,043	-0,121
-212,752	289,899	0,093	-0,120
-211,738	-104,916	-0,072	0,012
-210,723	114,942	-0,074	-0,064
-209,709	163,147	0,052	-0,052
-208,694	537,273	0,023	-0,039
-207,679	146,682	0,010	-0,009
-206,665	669,448	0,063	-0,117
-205,650	-183,759	-0,040	0,000
-204,636	800,000	0,043	0,091
-203,621	-93,625	-0,105	-0,020
-202,606	800,000	0,022	-0,069
-201,592	-200,000	0,026	0,109
-200,577	-139,329	-0,068	0,005
-199,563	800,000	-0,025	-0,050
-198,548	448,101	0,064	-0,100
-197,533	-150,844	0,071	-0,004
-196,519	-115,157	0,161	-0,021
-195,504	254,189	0,086	-0,105
-194,490	61,030	-0,105	-0,074
-193,475	800,000	0,049	-0,138
-192,460	47,947	-0,082	0,054
-191,446	-200,000	0,000	-0,112
-190,431	-200,000	0,035	0,156
-189,417	800,000	0,047	-0,102
-188,402	791,865	-0,083	0,163
-187,387	-63,087	-0,090	0,026
-186,373	193,681	-0,114	0,122
-185,358	-161,656	-0,114	0,004
-184,344	-98,909	0,015	0,003
-183,329	246,559	0,102	-0,122
-182,315	526,081	0,060	0,100
-181,300	-41,012	-0,115	-0,042
-180,285	173,127	0,095	-0,097
-179,271	271,463	-0,091	0,114
-178,256	-40,842	0,013	0,005
-177,242	800,000	0,005	0,012
-176,227	339,234	0,033	-0,046
-175,212	-200,000	-0,030	0,126
-174,198	139,639	0,042	0,039
-173,183	800,000	0,028	-0,075
-172,169	-104,969	-0,122	-0,020
-171,154	-4,608	0,129	0,063
-170,139	-70,139	0,044	-0,012
-169,125	170,630	-0,051	-0,051
-168,110	318,735	0,026	0,035
-167,096	223,543	-0,075	0,086
-166,081	268,825	0,044	-0,055
-165,066	96,553	0,146	-0,119
-164,052	-200,000	0,002	-0,052
-163,037	-200,000	-0,001	0,068
-162,023	225,235	0,067	0,077
-161,008	-200,000	-0,030	0,144
-159,993	-200,000	0,020	0,175
-158,979	72,440	-0,076	0,056
-157,964	-3,959	0,139	0,068
-156,950	113,983	0,028	-0,024
-155,935	-200,000	-0,019	0,131
-154,920	-200,000	0,027	0,144
-153,906	110,775	0,081	0,069
-152,891	74,153	-0,052	0,039
-151,877	800,000	-0,006	0,012
-150,862	-200,000	-0,012	-0,051
-149,847	-200,000	0,035	-0,195
-148,833	196,733	-0,068	-0,073
-147,818	-161,532	0,174	-0,006
-146,804	492,223	-0,025	0,041
-145,789	268,943	0,010	-0,013
-144,775	124,701	0,033	-0,029
-143,760	-200,000	-0,009	-0,134
-142,745	-200,000	0,039	-0,130
-141,731	800,000	-0,013	-0,028
-140,716	37,030	0,048	0,030
-139,702	-79,329	0,103	0,025
-138,687	587,972	0,025	0,044
-137,672	-79,083	-0,218	-0,052
-136,658	110,670	0,080	-0,068
-135,643	-200,000	-0,011	-0,114
-134,629	11,234	-0,052	0,028
-133,614	331,518	0,067	-0,091
-132,599	39,717	0,028	0,018
-131,585	468,647	0,018	-0,029
-130,570	-43,499	-0,062	-0,022
-129,556	-0,072	-0,045	0,023
-128,541	371,823	-0,038	-0,054
-127,526	800,000	0,029	-0,063
-126,512	-180,995	-0,036	-0,000
-125,497	-200,000	-0,018	0,148
-124,483	-90,999	0,076	0,015
-123,468	-200,000	0,007	0,036
-122,453	60,650	-0,009	0,007
-121,439	-200,000	-0,014	-0,151
-120,424	133,388	-0,051	-0,047
-119,410	-166,523	-0,065	0,002
-118,395	350,366	0,063	0,088
-117,380	456,514	0,018	-0,028
-116,366	-29,107	-0,122	-0,049
-115,351	276,226	0,072	0,090
-114,337	-25,044	-0,149	0,062
-113,322	114,310	-0,107	0,092
-112,307	800,000	-0,027	-0,080
-111,293	187,559	0,026	0,027
-110,278	-82,651	0,185	-0,042
-109,264	742,398	0,054	0,103
-108,249	-200,000	0,014	-0,067
-107,234	90,767	0,080	0,063
-106,220	671,630	0,011	0,020
-105,205	-142,545	-0,140	-0,010
-104,191	4,229	0,160	0,083
-103,176	358,566	0,063	0,090
-102,162	-200,000	0,019	0,134
-101,147	-50,043	-0,185	0,061
-100,132	586,795	0,039	0,068
-99,118	438,790	0,051	-0,079
-98,103	-200,000	0,007	0,049
-97,089	46,802	0,158	-0,103
-96,074	800,000	-0,011	-0,027
-95,059	-137,323	0,144	-0,011
-94,045	-133,905	0,014	0,001
-93,030	-200,000	0,024	-0,203
-92,016	223,923	-0,112	-0,128
-91,001	-108,306	-0,015	-0,002
-89,986	-200,000	0,026	0,123
-88,972	800,000	0,043	0,121
-87,957	800,000	-0,063	-0,135
-86,943	-44,946	0,037	-0,013
-85,928	-80,958	0,159	-0,037
-84,913	11,026	-0,034	-0,019
-83,899	4,684	0,068	-0,035
-82,884	-7,254	-0,085	0,041
-81,870	-200,000	-0,024	0,121
-80,855	220,004	0,057	0,065
-79,840	222,676	-0,051	-0,058
-78,826	-121,123	-0,052	-0,006
-77,811	-200,000	0,015	-0,166
-76,797	254,382	-0,045	0,055
-75,782	-74,989	0,137	0,034
-74,767	305,158	0,088	0,115
-73,753	-18,136	-0,089	0,039
-72,738	-107,424	0,054	0,008
-71,724	-200,000	-0,020	-0,065
-70,709	-83,192	-0,055	-0,012
-69,694	16,324	-0,078	0,044
-68,680	-156,357	0,019	-0,001
-67,665	-200,000	0,018	-0,073
-66,651	800,000	0,034	0,086
-65,636	800,000	-0,030	0,086
-64,622	278,279	0,075	0,095
-63,607	-200,000	0,016	0,054
-62,592	117,410	-0,043	0,037
-61,578	100,646	0,050	-0,041
-60,563	-200,000	0,020	0,130
-59,549	800,000	-0,018	0,051
-58,534	58,358	-2,047	-1,414
-57,519	368,451	-1,287	-1,840
-56,505	-200,000	-0,327	-4,479
-55,490	649,993	0,878	1,591
-54,476	800,000	5,074	11,456
-53,461	-200,000	22,302	339,739
-52,446	800,000	760,067	2290,921
-51,432	529,674	1653,811	2764,862
-50,417	68,700	1652,070	1194,144
-49,403	16,411	1527,030	847,885
-48,388	10,620	1451,757	778,191
-47,373	19,094	1444,339	814,701
-46,359	14,013	1432,952	784,184
-45,344	8,920	1428,698	757,662
-44,330	8,825	1426,936	756,250
-43,315	8,806	1424,970	755,088
-42,300	8,842	1423,163	754,271
-41,286	8,897	1421,925	753,846
-40,271	8,814	1420,795	752,823
-39,257	8,812	1419,498	752,098
-38,242	8,844	1418,466	751,673
-37,227	8,836	1417,464	751,070
-36,213	8,836	1415,970	750,250
-35,198	8,849	1414,758	749,638
-34,184	8,864	1413,830	749,191
-33,169	8,790	1412,479	748,097
-32,154	8,805	1411,678	747,714
-31,140	8,806	1410,360	746,991
-30,125	8,862	1408,971	746,487
-29,111	8,842	1408,016	745,858
-28,096	8,811	1406,790	745,034
-27,082	8,794	1405,492	744,235
-26,067	8,706	1404,597	743,322
-25,052	8,769	1403,433	742,970
-24,038	8,787	1402,407	742,481
-23,023	8,746	1401,611	741,839
-22,009	8,747	1400,670	741,316
-20,994	8,762	1399,517	740,748
-19,979	8,756	1398,512	740,158
-18,965	8,738	1397,562	739,541
-17,950	8,702	1396,713	738,897
-16,936	8,687	1395,917	738,376
-15,921	8,668	1394,809	737,671
-14,906	8,681	1393,893	737,219
-13,892	8,780	1392,702	737,017
-12,877	8,716	1392,177	736,414
-11,863	8,678	1391,549	735,876
-10,848	8,669	1390,310	735,152
-9,833	8,662	1389,346	734,582
-8,819	8,601	1388,614	733,885
-7,804	8,567	1387,845	733,288
-6,790	8,563	1386,689	732,631
-5,775	8,589	1385,760	732,230
-4,760	8,598	1384,633	731,651
-3,746	8,655	1383,664	731,368
-2,731	8,656	1382,806	730,890
-1,717	8,602	1381,990	730,184
-0,702	8,605	1380,253	729,253
0,313	12,741	1291,382	701,069
1,327	28,634	682,429	406,126
2,342	44,496	117,466	75,919
3,356	-1,910	16,580	8,189
4,371	11,169	3,810	2,048
5,386	-12,292	1,407	0,646
6,400	800,000	0,307	0,679
7,415	-141,982	-0,391	-0,027
8,429	-4,300	-0,368	-0,179
9,444	-6,119	-0,414	-0,198
10,459	61,689	-0,184	-0,129
11,473	38,964	-0,292	-0,183
12,488	116,247	-0,137	-0,119
13,502	68,289	-0,254	-0,183
14,517	-5,831	-0,346	-0,166
15,531	97,253	-0,383	-0,309
16,546	117,991	-0,266	-0,230
17,561	170,217	-0,310	-0,312
18,575	726,747	-0,048	-0,090
19,590	205,598	-0,185	-0,203
20,604	52,825	-0,312	-0,210
21,619	46,083	-0,211	-0,138
22,634	-14,155	-0,426	-0,192
23,648	60,213	-0,385	-0,267
24,663	-36,848	-0,440	-0,165
25,677	57,677	-0,393	-0,270
26,692	50,395	-0,268	-0,178
27,707	67,199	-0,308	-0,221
28,721	49,756	-0,323	-0,214
29,736	-47,338	-0,518	-0,176
30,750	-41,140	-0,493	-0,178
31,765	107,404	-0,372	-0,311
32,780	-47,054	-0,448	-0,153
33,794	367,487	-0,210	-0,298
34,809	157,282	-0,365	-0,355
35,823	-9,363	-0,274	-0,128
36,838	76,621	-0,328	-0,245
37,853	207,880	-0,388	-0,426
38,867	29,518	-0,379	-0,226
39,882	60,301	-0,179	-0,124
40,896	-16,292	-0,419	-0,186
41,911	71,749	-0,269	-0,196
42,926	2,610	-0,369	-0,187
43,940	73,163	-0,265	-0,194
44,955	280,382	-0,220	-0,277
45,969	81,850	-0,296	-0,225
46,984	100,735	-0,371	-0,303
47,999	800,000	-0,068	-0,186
49,013	-42,007	-0,234	-0,084
50,028	-25,103	-0,362	-0,150
51,042	-22,383	-0,471	-0,199
52,057	-6,151	-0,331	-0,158
53,071	-85,473	-0,342	-0,074
54,086	98,921	-0,294	-0,238
55,101	201,788	-0,256	-0,277
56,115	71,561	-0,345	-0,251
57,130	132,209	-0,279	-0,252
58,144	-22,609	-0,333	-0,141
59,159	143,051	-0,343	-0,320
60,174	-77,179	-0,408	-0,099
61,188	516,942	-0,232	-0,381
62,203	12,490	-0,344	-0,186
63,217	-8,644	-0,368	-0,173
64,232	-39,763	-0,426	-0,155
65,247	126,412	-0,296	-0,263
66,261	12,381	-0,412	-0,222
67,276	130,040	-0,241	-0,216
68,290	-6,597	-0,322	-0,153
69,305	26,213	-0,335	-0,196
70,320	7,492	-0,334	-0,175
71,334	-45,615	-0,326	-0,112
72,349	265,024	-0,163	-0,199
73,363	163,868	-0,249	-0,246
74,378	-36,845	-0,427	-0,160
75,393	29,376	-0,317	-0,188
76,407	118,057	-0,139	-0,120
77,422	75,825	-0,221	-0,164
78,436	29,618	-0,363	-0,216
79,451	-52,253	-0,370	-0,119
80,466	291,652	-0,284	-0,363
81,480	60,613	-0,445	-0,308
82,495	67,446	-0,343	-0,245
83,509	32,024	-0,213	-0,128
84,524	-23,767	-0,242	-0,101
85,539	-57,118	-0,230	-0,071
86,553	-16,750	-0,373	-0,164
87,568	94,761	-0,253	-0,201
88,582	76,174	-0,314	-0,232
89,597	157,299	-0,243	-0,235
90,611	718,495	-0,091	-0,170
91,626	27,934	-0,281	-0,165
92,641	63,395	-0,294	-0,206
93,655	-35,052	-0,351	-0,133
94,670	262,204	-0,241	-0,293
95,684	190,259	-0,207	-0,217
96,699	41,611	-0,279	-0,176
97,714	57,970	-0,297	-0,203
98,728	90,672	-0,258	-0,202
99,743	10,569	-0,252	-0,134
100,757	-41,612	-0,251	-0,090
101,772	283,200	-0,261	-0,329
102,787	-32,822	-0,275	-0,106
103,801	217,654	-0,269	-0,300
104,816	-13,959	-0,242	-0,109
105,830	-18,131	-0,221	-0,096
106,845	-43,022	-0,303	-0,107
107,860	-68,886	-0,365	-0,098
108,874	172,787	-0,245	-0,247
109,889	3,848	-0,277	-0,141
110,903	-25,032	-0,237	-0,098
111,918	-85,005	-0,271	-0,059
112,933	-104,021	-0,196	-0,032
113,947	-69,645	-0,287	-0,076
114,962	11,579	-0,288	-0,154
115,976	-25,360	-0,301	-0,123
116,991	67,208	-0,269	-0,191
118,006	38,767	-0,248	-0,154
119,020	17,037	-0,216	-0,119
120,035	193,663	-0,198	-0,209
121,049	67,895	-0,146	-0,104
122,064	61,999	-0,178	-0,124
123,079	234,653	-0,255	-0,293
124,093	126,739	-0,259	-0,229
125,108	-4,232	-0,406	-0,195
126,122	106,718	-0,268	-0,222
127,137	111,763	-0,263	-0,221
128,151	301,928	-0,164	-0,211
129,166	40,865	-0,283	-0,178
130,181	23,946	-0,138	-0,079
131,195	92,747	-0,253	-0,199
132,210	137,663	-0,271	-0,248
133,224	-35,147	-0,268	-0,101
134,239	284,039	-0,190	-0,239
135,254	23,341	-0,156	-0,089
136,268	80,151	-0,335	-0,251
137,283	212,729	-0,160	-0,176
138,297	-4,158	-0,196	-0,094
139,312	-12,789	-0,229	-0,104
140,327	155,058	-0,207	-0,198
141,341	171,877	-0,134	-0,134
142,356	84,536	-0,286	-0,218
143,370	106,128	-0,261	-0,215
144,385	-43,863	-0,281	-0,098
145,400	261,004	-0,196	-0,237
146,414	-8,304	-0,278	-0,130
147,429	-43,711	-0,344	-0,120
148,443	54,354	-0,214	-0,143
149,458	252,052	-0,098	-0,116
150,473	209,279	-0,156	-0,170
151,487	269,743	-0,127	-0,156
152,502	566,424	-0,178	-0,302
153,516	256,383	-0,237	-0,283
154,531	52,807	-0,278	-0,184
155,546	45,736	-0,243	-0,156
156,560	-117,416	-0,135	-0,017
157,575	61,951	-0,273	-0,189
158,589	185,136	-0,282	-0,291
159,604	5,548	-0,220	-0,113
160,619	5,018	-0,237	-0,121
161,633	224,917	-0,194	-0,218
162,648	7,118	-0,230	-0,119
163,662	-58,532	-0,298	-0,089
164,677	387,104	-0,150	-0,216
165,692	-12,706	-0,171	-0,077
166,706	72,934	-0,174	-0,126
167,721	800,000	-0,085	-0,205
168,735	252,861	-0,266	-0,316
169,750	32,302	-0,200	-0,119
170,764	414,114	-0,155	-0,230
171,779	540,662	-0,124	-0,207
172,794	190,156	-0,153	-0,160
173,808	174,797	-0,249	-0,250
174,823	190,994	-0,228	-0,239
175,837	448,960	-0,129	-0,198
176,852	-200,000	-0,076	-0,257
177,867	113,188	-0,246	-0,207
178,881	30,295	-0,172	-0,102
179,896	173,639	-0,164	-0,165
180,910	693,781	-0,138	-0,253
181,925	-107,571	-0,418	-0,063
182,940	91,014	-0,242	-0,188
183,954	-1,255	-0,107	-0,052
184,969	68,177	-0,122	-0,086
185,983	286,983	-0,141	-0,177
186,998	-35,169	-0,114	-0,043
188,013	800,000	-0,051	-0,117
189,027	292,044	-0,063	-0,080
190,042	88,914	-0,351	-0,271
191,056	186,478	-0,272	-0,281
192,071	182,463	-0,269	-0,276
193,086	94,777	-0,276	-0,217
194,100	394,309	-0,122	-0,176
195,115	-200,000	-0,065	-0,232
196,129	178,411	-0,204	-0,207
197,144	462,191	-0,216	-0,336
198,159	220,566	-0,167	-0,186
199,173	38,676	-0,142	-0,088
200,188	800,000	-0,068	-0,206
201,202	755,632	-0,048	-0,090
202,217	121,206	-0,085	-0,073
203,232	201,502	-0,275	-0,294
204,246	314,971	-0,185	-0,242
205,261	143,933	-0,229	-0,212
206,275	168,736	-0,088	-0,087
207,290	90,067	-0,247	-0,191
208,304	800,000	-0,050	-0,096
209,319	-3,972	-0,241	-0,115
210,334	378,948	-0,107	-0,152
211,348	412,128	-0,130	-0,191
212,363	-120,649	-0,180	-0,021
213,377	-3,965	-0,229	-0,110
214,392	262,256	-0,131	-0,157
215,407	-89,362	-0,122	0,025
216,421	43,803	-0,231	-0,146
217,436	84,208	-0,229	-0,173
218,450	-46,142	-0,222	-0,075
219,465	498,808	-0,167	-0,268
220,480	-77,967	-0,188	-0,044
221,494	-200,000	-0,020	-0,098
222,509	-189,702	-0,160	0,001
223,523	-8,713	-0,118	-0,055
224,538	-200,000	-0,019	-0,176
225,553	-26,125	-0,227	-0,092
226,567	42,365	-0,213	-0,134
227,582	-16,671	-0,162	-0,070
228,596	800,000	-0,071	-0,189
229,611	-108,436	-0,137	0,020
230,626	-88,681	-0,081	-0,017
231,640	92,153	-0,177	-0,138
232,655	-36,036	-0,162	-0,060
233,669	-58,571	-0,210	-0,062
234,684	216,656	-0,177	-0,195
235,699	-2,424	-0,159	-0,077
236,713	-90,949	-0,225	-0,044
237,728	25,712	-0,111	-0,064
238,742	19,192	-0,167	-0,092
239,757	-15,592	-0,164	-0,072
240,772	112,213	-0,198	-0,165
241,786	78,300	-0,276	-0,203
242,801	531,336	-0,111	-0,182
243,815	354,812	-0,106	-0,146
244,830	153,983	-0,094	-0,089
245,844	133,803	-0,286	-0,255
246,859	22,957	-0,191	-0,108
247,874	44,841	-0,197	-0,125
248,888	33,793	-0,260	-0,156
249,903	254,395	-0,100	-0,118
250,917	-200,000	0,000	-0,005
251,932	24,113	-0,276	-0,156
252,947	2,028	-0,126	-0,063
253,961	-48,339	-0,263	0,087
254,976	211,432	-0,152	-0,165
255,990	42,057	-0,192	-0,120
257,005	-106,289	-0,273	-0,042
258,020	-200,000	-0,034	-0,165
259,034	800,000	-0,081	-0,167
260,049	800,000	-0,070	-0,165
261,063	24,761	-0,206	-0,117
262,078	24,561	-0,310	-0,176
263,093	5,149	-0,270	-0,137
264,107	800,000	-0,090	-0,190
265,122	-63,997	-0,271	-0,076
266,136	-93,198	-0,239	-0,045
267,151	-174,475	-0,171	-0,003
268,166	-15,577	-0,213	-0,093
269,180	378,860	-0,100	-0,142
270,195	298,911	-0,259	-0,329
271,209	134,345	-0,206	-0,184
272,224	47,243	-0,123	-0,079
273,239	144,759	-0,205	-0,189
274,253	-19,664	-0,199	-0,084
275,268	-4,467	-0,194	-0,092
276,282	397,188	-0,122	-0,175
277,297	-58,445	-0,296	-0,088
278,312	11,014	-0,174	-0,091
279,326	-44,967	-0,128	-0,044
280,341	150,907	-0,131	-0,123
281,355	748,836	-0,092	-0,172
282,370	800,000	-0,083	-0,196
283,384	114,564	-0,161	-0,135
284,399	-200,000	-0,041	-0,146
285,414	-59,781	-0,179	-0,052
286,428	-78,920	-0,147	-0,034
287,443	-86,636	-0,115	-0,024
288,457	186,936	-0,211	-0,217
289,472	272,921	-0,200	-0,244
290,487	31,127	-0,258	-0,152
291,501	-79,357	-0,230	-0,053
292,516	800,000	-0,047	-0,096
293,530	-28,783	-0,141	-0,056
294,545	-200,000	-0,127	0,000
295,560	-32,447	-0,224	0,085
296,574	32,972	-0,121	-0,072
297,589	-89,300	-0,205	-0,041
298,603	317,383	-0,139	-0,181
299,618	-42,091	-0,226	-0,079
300,633	-68,027	-0,151	-0,040
301,647	-109,536	-0,091	0,013
302,662	115,613	-0,076	0,064
303,676	97,598	-0,110	-0,086
304,691	-200,000	0,043	-0,130
305,706	-200,000	-0,025	-0,173
306,720	257,790	-0,206	-0,244
307,735	589,002	-0,125	-0,212
308,749	800,000	-0,128	-0,314
309,764	-200,000	-0,010	-0,140
310,779	57,113	-0,207	-0,138
311,793	-124,476	-0,162	-0,017
312,808	129,276	-0,084	-0,073
313,822	587,636	-0,177	-0,300
314,837	-200,000	-0,074	-0,242
315,852	800,000	-0,050	-0,098
316,866	207,404	-0,090	-0,097
317,881	332,711	-0,053	-0,070
318,895	-200,000	-0,023	0,150
319,910	55,149	-0,234	-0,155
320,925	321,238	-0,152	-0,199
321,939	7,938	-0,180	-0,092
322,954	800,000	-0,062	-0,122
323,968	7,306	-0,070	-0,036
324,983	-153,323	-0,179	-0,008
325,997	800,000	-0,037	-0,100
327,012	-69,204	-0,182	-0,048
328,027	0,967	-0,215	-0,105
329,041	261,535	-0,136	-0,162
330,056	800,000	-0,044	-0,099
331,070	800,000	-0,071	-0,180
332,085	163,823	-0,081	-0,078
333,100	-64,657	-0,047	-0,013
334,114	589,100	-0,142	-0,241
335,129	-25,925	-0,150	-0,060
336,143	-43,940	-0,162	-0,055
337,158	-132,357	-0,313	-0,027
338,173	-200,000	0,003	-0,033
339,187	9,590	-0,057	-0,029
340,202	800,000	-0,052	-0,138
341,216	-95,745	-0,198	-0,036
342,231	-43,655	-0,190	0,065
343,246	110,998	-0,129	-0,106
344,260	-83,147	-0,169	-0,037
345,275	-60,785	-0,083	0,024
346,289	186,662	-0,148	-0,151
347,304	-54,533	-0,144	-0,044
348,319	-113,172	-0,204	-0,027
349,333	800,000	-0,087	-0,235
350,348	-44,767	-0,163	-0,055
351,362	305,726	-0,101	-0,128
352,377	-153,326	-0,149	0,007
353,392	-122,986	-0,134	-0,015
354,406	29,722	-0,113	-0,066
355,421	207,282	1311,125	1399,102
356,435	159,448	1471,355	1399,549
