DTS Sentinel unit serial number:	SN410029Multiplexer serial number:	ORYXHardware model number:	OX2-SRSoftware version number:	ORYX F/W v4,00 Oryx Data Collector v3.7.2.0data status	okinstallation	B3 Nyhavnadifferential loss correction	single-endedforward channel	channel 1reverse channel	N/Adate	2023/12/04time	14:47:30forward acquisition time	300,00reverse acquisition time	0,00gamma	499,1914k internal	0,3200k external	0,3200temperature offset calibration	1,0000default loss term (dB/km)	0,3820temperature slope calibration	1,0000multiplexer offset coefficient	1,0000multiplexer slope coefficient	1,0000fibre end	0,00T internal ref (°C)	15,02T ext. ref 1 (°C)	0,25T ext. ref 2 (°C)	0,24length (m)	temperature (°C)	Stokes	anti-Stokes-744,400	205,444	-0,181	-0,205
-743,385	-200,000	0,081	0,287
-742,371	42,569	-0,193	-0,127
-741,356	-200,000	0,012	0,294
-740,342	207,815	-0,205	-0,233
-739,327	800,000	0,124	0,333
-738,312	533,980	-0,140	-0,242
-737,298	-200,000	-0,036	0,262
-736,283	40,421	-0,267	-0,174
-735,269	675,345	0,136	0,258
-734,254	6,694	-0,341	-0,184
-733,239	151,335	-0,135	0,133
-732,225	762,693	-0,157	-0,311
-731,210	15,955	0,098	0,056
-730,196	245,097	-0,071	-0,086
-729,181	-60,906	-0,092	0,028
-728,167	-200,000	0,001	-0,054
-727,152	79,659	0,153	-0,119
-726,137	-5,589	-0,146	-0,073
-725,123	197,690	-0,031	0,035
-724,108	2,076	-0,108	-0,056
-723,094	213,519	-0,036	-0,042
-722,079	476,435	0,025	-0,041
-721,064	-200,000	0,001	-0,103
-720,050	326,643	0,046	-0,064
-719,035	-85,110	-0,026	-0,006
-718,021	-64,242	-0,134	-0,040
-717,006	-200,000	0,030	-0,122
-715,991	65,627	-0,144	0,106
-714,977	-200,000	-0,031	0,180
-713,962	-30,734	0,099	0,040
-712,948	55,081	-0,053	0,037
-711,933	32,946	0,036	0,022
-710,918	-2,872	-0,119	-0,060
-709,904	506,430	0,029	-0,050
-708,889	753,369	-0,042	-0,084
-707,875	800,000	-0,033	-0,068
-706,860	-12,814	0,072	0,034
-705,845	161,289	0,062	-0,063
-704,831	11,527	0,128	0,071
-703,816	-200,000	-0,001	-0,010
-702,802	-200,000	-0,010	-0,187
-701,787	800,000	-0,043	-0,093
-700,772	89,065	-0,101	-0,082
-699,758	-200,000	0,016	-0,055
-698,743	745,603	0,046	0,089
-697,729	125,874	0,097	0,089
-696,714	-40,092	-0,134	-0,050
-695,699	49,180	-0,097	-0,066
-694,685	-200,000	0,031	-0,142
-693,670	800,000	-0,082	-0,177
-692,656	800,000	-0,033	-0,089
-691,641	-51,157	0,032	0,011
-690,627	34,902	0,081	-0,052
-689,612	-200,000	-0,014	0,093
-688,597	800,000	-0,054	-0,174
-687,583	68,806	0,060	-0,045
-686,568	-200,000	-0,008	-0,204
-685,554	-200,000	0,001	0,035
-684,539	6,565	-0,077	-0,041
-683,524	265,383	-0,033	0,042
-682,510	800,000	0,007	-0,015
-681,495	460,859	0,073	0,119
-680,481	800,000	0,019	-0,042
-679,466	57,178	-0,127	-0,090
-678,451	361,337	-0,059	-0,086
-677,437	83,739	-0,069	0,055
-676,422	-200,000	0,003	0,033
-675,408	-200,000	-0,020	0,142
-674,393	49,897	0,075	-0,051
-673,378	59,895	0,092	0,066
-672,364	-143,520	-0,152	0,010
-671,349	800,000	-0,017	0,041
-670,335	280,461	-0,064	-0,083
-669,320	70,868	-0,031	-0,023
-668,305	73,335	-0,060	0,045
-667,291	-127,148	0,048	0,005
-666,276	67,775	-0,042	0,031
-665,262	-200,000	0,038	-0,183
-664,247	108,089	0,058	-0,050
-663,232	800,000	0,029	-0,058
-662,218	40,892	-0,089	-0,058
-661,203	-200,000	-0,024	-0,079
-660,189	11,613	-0,083	-0,046
-659,174	6,944	-0,094	-0,051
-658,159	-38,153	-0,116	-0,045
-657,145	150,931	0,096	0,095
-656,130	-57,335	-0,172	0,055
-655,116	90,016	0,044	0,035
-654,101	-28,720	-0,034	-0,014
-653,086	160,655	0,068	0,069
-652,072	93,442	-0,085	0,069
-651,057	69,400	-0,088	-0,065
-650,043	241,568	-0,039	-0,047
-649,028	472,243	0,020	-0,033
-648,014	-193,203	-0,092	-0,001
-646,999	-200,000	-0,026	-0,129
-645,984	-200,000	0,009	0,042
-644,970	-200,000	0,001	-0,007
-643,955	36,168	-0,156	0,099
-642,941	83,764	-0,057	-0,045
-641,926	-141,700	0,089	-0,006
-640,911	-187,888	0,133	-0,001
-639,897	-99,735	0,121	-0,022
-638,882	799,819	0,026	0,053
-637,868	-200,000	-0,009	0,086
-636,853	800,000	-0,044	-0,120
-635,838	638,079	0,049	0,092
-634,824	164,021	0,069	-0,071
-633,809	800,000	0,034	-0,072
-632,795	-200,000	-0,006	0,173
-631,780	-28,070	0,051	0,021
-630,765	58,216	0,105	0,075
-629,751	800,000	-0,009	-0,025
-628,736	-99,781	-0,042	-0,008
-627,722	293,793	-0,172	-0,229
-626,707	800,000	-0,026	-0,063
-625,692	-14,230	0,099	0,046
-624,678	-200,000	0,027	0,097
-623,663	-123,188	0,094	0,011
-622,649	-73,274	-0,095	0,025
-621,634	-200,000	-0,014	-0,155
-620,619	232,047	0,113	-0,134
-619,605	58,120	0,057	0,040
-618,590	800,000	-0,024	-0,072
-617,576	-200,000	0,035	-0,178
-616,561	-168,599	0,019	0,001
-615,546	171,568	-0,060	0,062
-614,532	110,047	-0,045	0,039
-613,517	-200,000	0,028	-0,164
-612,503	126,303	0,108	-0,099
-611,488	800,000	0,058	0,118
-610,474	24,256	-0,053	0,032
-609,459	612,502	0,040	0,073
-608,444	-37,980	-0,059	0,022
-607,430	-97,902	-0,117	-0,022
-606,415	391,405	-0,067	-0,100
-605,401	-29,536	-0,040	0,016
-604,386	-200,000	0,028	0,096
-603,371	-129,907	-0,134	-0,013
-602,357	-200,000	-0,007	-0,065
-601,342	-200,000	-0,006	-0,072
-600,328	398,686	-0,019	0,030
-599,313	448,743	0,028	0,045
-598,298	-200,000	0,003	0,041
-597,284	-200,000	-0,002	0,084
-596,269	-200,000	0,016	0,063
-595,255	85,701	0,020	0,016
-594,240	556,001	-0,074	-0,129
-593,225	199,847	-0,036	-0,040
-592,211	79,139	-0,126	-0,098
-591,196	-64,328	0,051	0,015
-590,182	333,503	0,027	-0,038
-589,167	-200,000	0,001	-0,008
-588,152	800,000	-0,023	0,062
-587,138	-64,492	-0,068	0,020
-586,123	266,661	-0,067	-0,085
-585,109	322,637	-0,027	-0,037
-584,094	800,000	0,053	-0,165
-583,079	-47,748	0,079	-0,028
-582,065	-200,000	-0,033	0,124
-581,050	203,596	0,053	-0,059
-580,036	-28,564	-0,093	-0,039
-579,021	36,739	0,044	-0,028
-578,006	10,548	-0,202	-0,111
-576,992	-33,562	0,104	-0,041
-575,977	-200,000	-0,019	0,137
-574,963	191,837	0,053	0,058
-573,948	100,077	-0,084	0,070
-572,934	223,538	0,046	-0,054
-571,919	-101,061	0,040	0,007
-570,904	-200,000	-0,020	-0,153
-569,890	800,000	0,048	-0,149
-568,875	60,209	0,044	0,031
-567,861	-200,000	-0,005	-0,051
-566,846	-200,000	0,031	0,119
-565,831	-200,000	-0,025	-0,173
-564,817	-67,382	-0,127	-0,036
-563,802	80,291	-0,170	-0,132
-562,788	765,234	-0,007	-0,014
-561,773	-5,139	0,148	-0,073
-560,758	720,085	-0,068	0,131
-559,744	-14,762	0,030	-0,014
-558,729	281,870	0,088	0,114
-557,715	98,793	-0,034	-0,029
-556,700	109,711	0,074	-0,064
-555,685	32,906	0,041	-0,026
-554,671	154,649	-0,077	-0,077
-553,656	-52,697	0,196	0,065
-552,642	-115,276	-0,027	-0,004
-551,627	-108,224	-0,090	0,014
-550,612	800,000	-0,026	-0,067
-549,598	639,209	-0,072	-0,132
-548,583	359,463	0,008	-0,011
-547,569	-64,654	0,055	-0,016
-546,554	158,617	-0,041	0,041
-545,539	773,412	-0,030	-0,059
-544,525	-200,000	-0,017	0,085
-543,510	10,997	-0,034	-0,019
-542,496	510,639	0,015	-0,025
-541,481	-81,636	-0,117	0,027
-540,466	-135,804	-0,126	-0,011
-539,452	-200,000	-0,002	-0,052
-538,437	59,038	0,035	-0,025
-537,423	-72,448	-0,092	-0,024
-536,408	-144,484	-0,145	-0,010
-535,393	-60,260	-0,142	-0,043
-534,379	-41,143	0,049	0,018
-533,364	-200,000	-0,007	-0,027
-532,350	-200,000	0,005	0,027
-531,335	-200,000	0,018	0,102
-530,321	191,940	-0,063	-0,068
-529,306	685,348	0,048	-0,091
-528,291	79,195	-0,091	-0,070
-527,277	-200,000	0,003	0,078
-526,262	-63,344	-0,138	-0,041
-525,248	239,153	0,103	0,123
-524,233	800,000	-0,079	0,182
-523,218	-200,000	0,000	-0,059
-522,204	180,823	-0,014	-0,015
-521,189	-43,961	0,059	0,021
-520,175	82,438	-0,112	-0,088
-519,160	-27,133	-0,093	0,039
-518,145	-155,494	0,067	-0,003
-517,131	-92,869	0,145	0,029
-516,116	-200,000	-0,011	0,096
-515,102	49,801	-0,133	0,090
-514,087	-200,000	0,012	0,073
-513,072	-70,735	0,154	-0,041
-512,058	800,000	0,026	0,069
-511,043	800,000	0,078	0,158
-510,029	-76,298	0,086	0,022
-509,014	695,153	-0,019	0,036
-507,999	-200,000	-0,003	-0,043
-506,985	752,175	-0,049	-0,096
-505,970	-40,986	0,083	-0,031
-504,956	-102,833	-0,031	-0,005
-503,941	114,314	-0,115	0,101
-502,926	-86,099	0,201	0,044
-501,912	548,649	0,046	-0,080
-500,897	382,277	0,044	-0,066
-499,883	-121,982	-0,056	0,007
-498,868	695,095	0,028	-0,054
-497,853	304,016	0,020	0,027
-496,839	800,000	-0,034	-0,078
-495,824	23,908	0,109	0,065
-494,810	-200,000	-0,036	0,128
-493,795	-191,509	0,134	0,001
-492,781	-200,000	0,003	-0,051
-491,766	118,707	-0,030	-0,026
-490,751	-86,159	-0,114	-0,025
-489,737	52,962	0,138	0,095
-488,722	800,000	-0,024	-0,059
-487,708	-9,393	0,049	0,024
-486,693	800,000	0,009	0,025
-485,678	192,627	-0,050	0,054
-484,664	85,169	0,031	-0,024
-483,649	461,926	0,072	0,116
-482,635	-81,480	-0,064	0,015
-481,620	428,967	-0,015	0,023
-480,605	60,449	0,133	0,095
-479,591	254,077	-0,017	-0,022
-478,576	-2,003	-0,142	-0,072
-477,562	-200,000	0,006	-0,031
-476,547	-200,000	-0,012	-0,090
-475,532	-110,879	0,134	0,020
-474,518	607,556	-0,040	-0,071
-473,503	-200,000	0,019	0,112
-472,489	-133,215	-0,124	0,011
-471,474	203,347	-0,033	-0,036
-470,459	147,285	0,069	-0,067
-469,445	262,835	-0,080	0,100
-468,430	-41,678	-0,040	0,015
-467,416	94,520	0,021	0,017
-466,401	-11,136	0,080	-0,038
-465,386	-200,000	-0,004	0,111
-464,372	-47,995	-0,036	-0,012
-463,357	-45,002	-0,110	-0,039
-462,343	-200,000	-0,009	-0,165
-461,328	-114,018	-0,011	-0,002
-460,313	385,807	-0,070	0,104
-459,299	73,235	0,047	-0,035
-458,284	-142,336	-0,055	0,004
-457,270	-200,000	0,021	0,092
-456,255	-200,000	0,018	0,090
-455,241	-67,288	-0,060	-0,017
-454,226	-200,000	0,014	0,072
-453,211	-8,612	-0,089	0,043
-452,197	-46,415	-0,029	-0,010
-451,182	126,132	0,157	0,143
-450,168	-200,000	0,029	-0,116
-449,153	-109,324	-0,195	-0,029
-448,138	185,431	0,093	-0,099
-447,124	-200,000	-0,004	-0,053
-446,109	-200,000	0,002	0,027
-445,095	103,507	0,045	0,038
-444,080	23,114	0,049	0,029
-443,065	-200,000	-0,018	-0,102
-442,051	800,000	0,049	0,107
-441,036	-18,420	0,034	0,015
-440,022	113,048	0,055	-0,048
-439,007	-200,000	-0,007	-0,044
-437,992	88,614	0,057	-0,046
-436,978	800,000	0,057	0,137
-435,963	-54,595	0,075	-0,024
-434,949	63,856	-0,104	-0,075
-433,934	-200,000	-0,006	-0,133
-432,919	370,895	-0,069	0,102
-431,905	-200,000	-0,005	0,020
-430,890	109,342	0,097	-0,083
-429,876	-200,000	0,026	0,099
-428,861	-68,804	0,026	-0,007
-427,846	-68,432	0,090	0,025
-426,832	195,871	0,029	0,032
-425,817	-122,119	0,047	-0,005
-424,803	338,719	0,080	-0,113
-423,788	800,000	-0,016	0,045
-422,773	-200,000	-0,021	0,210
-421,759	-200,000	-0,029	0,166
-420,744	-200,000	0,006	-0,130
-419,730	-200,000	0,028	0,116
-418,715	706,855	0,055	-0,106
-417,701	-200,000	-0,012	-0,064
-416,686	44,054	-0,012	0,008
-415,671	-7,365	0,185	0,090
-414,657	800,000	-0,074	0,198
-413,642	800,000	0,033	0,085
-412,628	142,456	0,080	-0,076
-411,613	-200,000	-0,009	-0,060
-410,598	107,363	0,075	0,064
-409,584	-0,333	0,098	-0,050
-408,569	800,000	0,064	0,144
-407,555	800,000	0,056	0,128
-406,540	-62,052	0,087	0,026
-405,525	74,971	-0,046	0,035
-404,511	81,008	-0,048	-0,037
-403,496	442,395	-0,040	-0,063
-402,482	-166,358	0,057	0,002
-401,467	800,000	-0,039	-0,103
-400,452	-6,296	-0,045	-0,022
-399,438	-50,105	-0,124	0,042
-398,423	-200,000	-0,023	-0,119
-397,409	623,620	0,059	-0,108
-396,394	-149,926	-0,079	-0,004
-395,379	-132,439	-0,051	-0,005
-394,365	-200,000	-0,017	-0,145
-393,350	-21,229	0,156	-0,068
-392,336	-59,506	0,047	0,014
-391,321	-200,000	-0,001	0,010
-390,306	800,000	-0,069	-0,166
-389,292	39,062	0,067	0,043
-388,277	-90,358	0,034	0,007
-387,263	-66,633	0,058	0,016
-386,248	734,253	0,052	0,101
-385,233	409,653	-0,066	0,100
-384,219	-200,000	-0,001	-0,106
-383,204	-200,000	-0,005	-0,103
-382,190	-138,376	-0,032	-0,003
-381,175	22,780	-0,035	-0,020
-380,160	430,986	0,029	-0,045
-379,146	-200,000	-0,007	0,067
-378,131	-200,000	0,010	0,069
-377,117	5,275	0,013	-0,007
-376,102	87,667	-0,061	-0,049
-375,088	800,000	0,045	-0,114
-374,073	765,585	0,032	-0,063
-373,058	19,496	-0,061	-0,035
-372,044	267,528	0,030	-0,037
-371,029	-27,143	0,120	0,050
-370,015	-132,551	0,080	-0,007
-369,000	294,732	-0,131	-0,172
-367,985	-69,159	-0,079	-0,022
-366,971	92,045	-0,084	0,068
-365,956	519,122	-0,073	-0,123
-364,942	645,331	0,052	0,095
-363,927	328,806	0,153	0,212
-362,912	122,478	0,126	0,113
-361,898	800,000	-0,047	0,095
-360,883	-200,000	0,025	0,115
-359,869	465,235	-0,070	-0,112
-358,854	190,288	0,045	-0,049
-357,839	-130,161	0,046	0,004
-356,825	-9,194	-0,056	0,027
-355,810	-200,000	0,006	-0,048
-354,796	-123,028	-0,046	-0,005
-353,781	142,198	-0,128	-0,122
-352,766	-69,072	0,079	-0,022
-351,752	-101,633	-0,103	0,018
-350,737	-200,000	-0,008	-0,047
-349,723	-5,718	0,153	-0,075
-348,708	-200,000	-0,021	-0,121
-347,693	566,971	0,042	-0,073
-346,679	584,387	-0,051	-0,090
-345,664	92,408	0,085	-0,068
-344,650	-12,199	0,007	-0,003
-343,635	800,000	0,040	0,082
-342,620	232,227	-0,042	-0,049
-341,606	-162,209	-0,097	0,003
-340,591	800,000	-0,054	0,115
-339,577	413,000	-0,049	-0,075
-338,562	79,970	-0,018	-0,014
-337,548	-200,000	0,004	-0,038
-336,533	33,311	-0,100	-0,062
-335,518	-78,310	0,168	-0,041
-334,504	-200,000	-0,013	-0,112
-333,489	-200,000	0,012	-0,045
-332,475	339,766	0,032	-0,044
-331,460	-200,000	0,009	0,085
-330,445	-200,000	-0,018	0,060
-329,431	115,627	-0,128	-0,112
-328,416	-200,000	-0,037	0,133
-327,402	-200,000	-0,008	-0,034
-326,387	52,075	-0,053	0,036
-325,372	378,990	-0,089	-0,131
-324,358	555,937	-0,055	-0,096
-323,343	-86,160	0,105	0,023
-322,329	484,757	0,057	0,093
-321,314	-200,000	0,001	0,033
-320,299	571,316	0,022	0,039
-319,285	716,475	-0,057	-0,109
-318,270	800,000	0,046	-0,106
-317,256	-200,000	-0,025	-0,127
-316,241	800,000	-0,026	-0,075
-315,226	800,000	0,004	-0,009
-314,212	-117,329	-0,127	-0,016
-313,197	-31,751	-0,123	-0,049
-312,183	557,006	0,038	0,065
-311,168	86,533	-0,066	-0,052
-310,153	-200,000	0,005	-0,070
-309,139	648,546	-0,046	0,085
-308,124	-200,000	-0,021	0,068
-307,110	206,445	0,063	-0,070
-306,095	-200,000	-0,030	-0,118
-305,080	-200,000	-0,015	-0,072
-304,066	-85,026	0,019	0,004
-303,051	-61,296	-0,113	0,034
-302,037	32,331	-0,070	-0,043
-301,022	-30,858	-0,081	-0,032
-300,008	-200,000	0,019	0,135
-298,993	800,000	-0,032	0,093
-297,978	-200,000	0,017	0,076
-296,964	314,580	0,044	-0,060
-295,949	186,991	-0,056	0,060
-294,935	40,656	-0,097	-0,062
-293,920	-195,374	-0,026	-0,000
-292,905	-70,428	-0,109	0,029
-291,891	409,598	0,049	0,074
-290,876	94,451	-0,049	0,040
-289,862	-200,000	-0,008	-0,097
-288,847	696,606	-0,116	-0,219
-287,832	445,777	-0,044	-0,069
-286,818	800,000	-0,037	0,076
-285,803	-200,000	-0,005	0,049
-284,789	-11,006	-0,063	0,030
-283,774	800,000	0,019	-0,043
-282,759	534,622	0,034	-0,058
-281,745	228,660	0,019	0,022
-280,730	-63,655	-0,057	-0,017
-279,716	-42,521	-0,100	0,036
-278,701	800,000	0,053	0,129
-277,686	-200,000	0,002	0,048
-276,672	-200,000	0,030	0,181
-275,657	16,345	0,060	0,034
-274,643	-200,000	0,002	-0,124
-273,628	-200,000	0,029	0,131
-272,613	12,874	-0,101	0,056
-271,599	43,339	0,073	0,048
-270,584	-29,066	0,079	0,032
-269,570	-200,000	0,015	0,106
-268,555	-176,356	0,109	-0,002
-267,540	61,595	-0,046	-0,033
-266,526	-26,765	-0,173	-0,072
-265,511	490,321	0,054	-0,089
-264,497	-22,990	0,066	-0,028
-263,482	-200,000	-0,018	0,121
-262,467	-200,000	-0,013	-0,042
-261,453	686,178	-0,041	-0,077
-260,438	137,846	0,080	0,075
-259,424	-81,691	-0,104	0,024
-258,409	-200,000	-0,012	-0,108
-257,395	236,266	0,068	0,080
-256,380	-91,106	-0,035	0,007
-255,365	85,170	0,072	-0,056
-254,351	83,827	-0,084	0,066
-253,336	140,354	0,082	0,077
-252,322	348,437	-0,045	-0,063
-251,307	181,846	-0,066	0,069
-250,292	-200,000	-0,004	-0,060
-249,278	226,293	0,101	0,117
-248,263	64,260	-0,049	0,035
-247,249	257,810	0,055	0,067
-246,234	-157,190	0,153	-0,007
-245,219	800,000	-0,013	-0,038
-244,205	644,638	0,042	-0,076
-243,190	-68,565	0,135	-0,037
-242,176	790,276	0,032	0,063
-241,161	-200,000	0,037	0,129
-240,146	-130,546	0,075	0,007
-239,132	-69,979	0,032	0,009
-238,117	156,630	0,023	-0,023
-237,103	-16,535	-0,121	0,054
-236,088	6,492	0,036	0,019
-235,073	800,000	-0,035	0,073
-234,059	-200,000	-0,025	0,136
-233,044	176,357	0,044	0,045
-232,030	261,033	-0,086	0,107
-231,015	643,146	-0,037	-0,067
-230,000	-200,000	-0,005	-0,029
-228,986	-200,000	-0,005	0,025
-227,971	-85,882	0,133	0,029
-226,957	-78,330	0,070	0,017
-225,942	-32,129	0,107	-0,042
-224,927	53,488	-0,078	0,054
-223,913	800,000	0,058	-0,115
-222,898	-200,000	-0,041	-0,177
-221,884	800,000	-0,034	-0,088
-220,869	13,947	0,063	0,035
-219,855	237,932	0,041	0,049
-218,840	178,061	0,071	0,074
-217,825	405,075	-0,050	0,076
-216,811	222,432	0,053	-0,061
-215,796	-2,311	-0,029	-0,014
-214,782	-200,000	0,033	0,139
-213,767	64,463	0,076	0,054
-212,752	196,696	0,076	-0,083
-211,738	354,806	0,041	0,058
-210,723	-200,000	-0,012	0,068
-209,709	494,340	-0,048	-0,080
-208,694	-169,211	-0,124	0,003
-207,679	214,192	0,051	0,058
-206,665	-183,851	0,044	0,001
-205,650	-21,435	0,035	0,015
-204,636	-77,688	0,159	0,039
-203,621	-110,643	0,122	0,018
-202,606	800,000	0,030	-0,083
-201,592	-27,535	-0,116	-0,048
-200,577	-200,000	0,005	-0,067
-199,563	280,636	0,063	0,080
-198,548	437,963	-0,056	0,087
-197,533	-112,914	0,084	-0,012
-196,519	-126,079	-0,163	-0,017
-195,504	175,966	0,064	0,066
-194,490	19,764	-0,054	0,031
-193,475	625,766	0,021	-0,037
-192,460	-146,064	-0,065	-0,004
-191,446	-200,000	-0,028	0,115
-190,431	22,955	0,078	-0,046
-189,417	155,670	0,052	-0,051
-188,402	800,000	0,020	-0,055
-187,387	10,225	-0,053	-0,029
-186,373	-11,343	-0,125	-0,058
-185,358	-200,000	-0,032	0,190
-184,344	27,721	0,076	-0,045
-183,329	-200,000	-0,005	-0,024
-182,315	-29,568	0,160	0,065
-181,300	-71,949	0,063	-0,016
-180,285	455,447	0,037	-0,058
-179,271	152,056	0,079	-0,077
-178,256	285,439	-0,021	0,027
-177,242	800,000	0,074	0,150
-176,227	57,674	-0,014	0,010
-175,212	800,000	-0,019	0,051
-174,198	-3,568	0,018	-0,009
-173,183	-200,000	-0,005	-0,074
-172,169	-200,000	-0,018	-0,144
-171,154	-200,000	-0,016	0,067
-170,139	-200,000	0,006	-0,090
-169,125	16,952	0,106	0,060
-168,110	-200,000	-0,057	0,219
-167,096	18,483	0,030	0,017
-166,081	800,000	-0,041	0,098
-165,066	-200,000	-0,011	-0,076
-164,052	331,009	-0,034	-0,047
-163,037	-41,868	0,059	0,021
-162,023	-200,000	0,039	0,145
-161,008	-200,000	-0,015	0,111
-159,993	586,850	0,021	0,037
-158,979	-125,308	-0,149	-0,016
-157,964	-200,000	-0,031	0,113
-156,950	88,563	-0,106	-0,084
-155,935	410,898	-0,041	0,063
-154,920	-200,000	0,033	0,208
-153,906	800,000	-0,051	0,146
-152,891	-75,963	-0,100	-0,025
-151,877	-200,000	-0,001	0,097
-150,862	800,000	-0,015	-0,041
-149,847	562,470	-0,044	-0,076
-148,833	-45,896	0,060	0,021
-147,818	8,616	0,040	-0,021
-146,804	800,000	0,065	0,144
-145,789	558,867	-0,050	0,087
-144,775	4,563	-0,035	0,018
-143,760	-200,000	-0,043	-0,144
-142,745	800,000	0,055	-0,124
-141,731	-124,216	0,034	-0,004
-140,716	200,752	0,069	0,076
-139,702	-176,719	0,096	0,002
-138,687	168,010	0,058	0,059
-137,672	-146,223	-0,095	-0,006
-136,658	-81,415	-0,189	-0,044
-135,643	-115,085	0,125	0,017
-134,629	20,346	-0,133	0,076
-133,614	565,131	-0,041	0,071
-132,599	800,000	0,073	0,183
-131,585	192,184	-0,023	0,025
-130,570	82,408	0,032	-0,025
-129,556	-168,636	0,026	-0,001
-128,541	-200,000	0,012	0,059
-127,526	-177,706	0,043	0,001
-126,512	274,705	0,054	0,068
-125,497	540,350	0,013	0,022
-124,483	136,432	0,085	0,079
-123,468	800,000	0,029	0,067
-122,453	-42,907	-0,086	-0,031
-121,439	-200,000	0,004	-0,144
-120,424	-200,000	-0,009	0,124
-119,410	-39,541	0,203	0,075
-118,395	-90,269	0,136	0,028
-117,380	-10,760	-0,074	-0,035
-116,366	68,684	-0,014	-0,010
-115,351	-85,169	-0,188	-0,041
-114,337	-92,563	-0,070	-0,014
-113,322	537,073	-0,041	0,070
-112,307	-200,000	-0,007	-0,032
-111,293	-67,020	0,077	-0,021
-110,278	-200,000	0,016	0,078
-109,264	171,022	-0,030	-0,030
-108,249	115,833	0,120	-0,104
-107,234	459,674	-0,031	-0,049
-106,220	-69,126	-0,051	0,014
-105,205	-101,305	-0,064	0,011
-104,191	388,154	-0,024	-0,035
-103,176	-44,936	0,144	0,051
-102,162	-200,000	0,014	-0,068
-101,147	-118,110	-0,060	0,008
-100,132	71,689	-0,011	-0,008
-99,118	800,000	0,020	-0,042
-98,103	-66,522	-0,026	0,007
-97,089	1,766	0,106	-0,054
-96,074	18,168	-0,088	0,050
-95,059	800,000	-0,006	0,013
-94,045	-200,000	0,007	-0,075
-93,030	-200,000	-0,009	-0,105
-92,016	6,635	-0,046	0,024
-91,001	800,000	0,051	-0,105
-89,986	-68,710	0,090	-0,025
-88,972	-72,142	0,087	0,023
-87,957	19,843	-0,067	-0,038
-86,943	271,062	-0,064	-0,080
-85,928	-200,000	-0,091	0,000
-84,913	201,473	0,020	-0,022
-83,899	-38,033	0,041	0,015
-82,884	137,056	0,090	0,084
-81,870	-200,000	-0,016	-0,065
-80,855	-116,368	-0,160	0,021
-79,840	-158,898	0,086	0,003
-78,826	2,182	0,131	0,067
-77,811	-200,000	0,029	-0,100
-76,797	-68,901	-0,111	0,030
-75,782	63,598	0,166	-0,118
-74,767	158,079	0,065	0,064
-73,753	800,000	0,011	-0,031
-72,738	-114,426	-0,054	-0,007
-71,724	140,230	-0,064	-0,060
-70,709	309,593	0,074	-0,099
-69,694	-200,000	-0,007	-0,095
-68,680	34,703	-0,070	-0,043
-67,665	800,000	0,032	-0,071
-66,651	-98,670	0,039	0,007
-65,636	99,701	-0,060	0,049
-64,622	269,179	-0,070	-0,088
-63,607	-0,449	-0,109	0,055
-62,592	-200,000	-0,007	0,077
-61,578	149,151	0,052	0,050
-60,563	-117,326	0,202	0,026
-59,549	-177,948	-0,041	-0,001
-58,534	-48,409	-1,520	-0,516
-57,519	365,333	-1,500	-2,145
-56,505	-200,000	-0,603	-4,503
-55,490	74,555	1,139	0,847
-54,476	800,000	4,817	11,378
-53,461	-200,000	18,311	287,495
-52,446	800,000	727,208	2226,606
-51,432	554,132	1642,952	2808,957
-50,417	79,246	1665,339	1262,576
-49,403	22,899	1538,909	890,961
-48,388	16,886	1462,019	817,337
-47,373	17,838	1452,086	816,333
-46,359	17,278	1442,597	808,290
-45,344	15,122	1437,986	795,383
-44,330	15,059	1435,925	793,911
-43,315	15,072	1434,307	793,046
-42,300	15,093	1432,726	792,239
-41,286	15,093	1431,728	791,659
-40,271	15,064	1430,336	790,718
-39,257	15,058	1428,918	789,875
-38,242	15,112	1427,815	789,487
-37,227	15,112	1426,471	788,713
-36,213	15,105	1425,294	787,999
-35,198	15,113	1424,172	787,386
-34,184	15,143	1423,232	786,977
-33,169	15,111	1421,690	785,942
-32,154	15,141	1420,848	785,584
-31,140	15,147	1419,310	784,735
-30,125	15,189	1418,175	784,274
-29,111	15,165	1417,141	783,555
-28,096	15,107	1416,190	782,729
-27,082	15,024	1415,080	781,693
-26,067	15,084	1413,975	781,332
-25,052	15,050	1412,925	780,560
-24,038	15,014	1412,053	779,881
-23,023	15,037	1410,856	779,296
-22,009	15,017	1409,882	778,634
-20,994	14,995	1409,101	778,067
-19,979	14,996	1408,093	777,485
-18,965	14,982	1407,189	776,891
-17,950	14,939	1406,162	776,091
-16,936	14,988	1405,183	775,750
-15,921	14,961	1404,079	774,983
-14,906	14,954	1403,378	774,531
-13,892	14,958	1402,235	773,892
-12,877	14,962	1401,468	773,454
-11,863	14,936	1400,491	772,766
-10,848	14,939	1399,690	772,303
-9,833	14,943	1398,593	771,686
-8,819	14,843	1397,935	770,829
-7,804	14,850	1397,169	770,412
-6,790	14,846	1395,974	769,703
-5,775	14,859	1394,844	769,107
-4,760	14,840	1393,990	768,517
-3,746	14,846	1393,123	768,036
-2,731	14,835	1392,493	767,609
-1,717	14,807	1391,514	766,908
-0,702	14,853	1389,619	766,049
0,313	18,596	1308,567	738,701
1,327	34,775	706,929	436,572
2,342	52,959	124,873	84,405
3,356	3,819	16,711	8,608
4,371	-6,688	3,258	1,563
5,386	-45,282	0,536	0,187
6,400	-200,000	0,017	0,123
7,415	32,895	-0,299	-0,183
8,429	107,854	-0,316	-0,266
9,444	119,312	-0,349	-0,306
10,459	63,179	-0,253	-0,179
11,473	22,672	-0,318	-0,183
12,488	-38,389	-0,436	-0,162
13,502	43,066	-0,412	-0,265
14,517	43,683	-0,223	-0,144
15,531	-3,332	-0,340	-0,167
16,546	44,553	-0,364	-0,236
17,561	175,681	-0,418	-0,429
18,575	71,623	-0,292	-0,214
19,590	150,505	-0,239	-0,230
20,604	-31,037	-0,358	-0,142
21,619	64,191	-0,432	-0,306
22,634	87,297	-0,433	-0,338
23,648	89,819	-0,482	-0,380
24,663	92,448	-0,380	-0,303
25,677	87,180	-0,305	-0,238
26,692	52,653	-0,324	-0,218
27,707	57,452	-0,270	-0,186
28,721	142,713	-0,416	-0,391
29,736	11,739	-0,259	-0,140
30,750	66,670	-0,448	-0,322
31,765	146,946	-0,413	-0,392
32,780	91,463	-0,406	-0,322
33,794	14,569	-0,338	-0,186
34,809	84,359	-0,370	-0,286
35,823	29,138	-0,373	-0,223
36,838	190,635	-0,398	-0,422
37,853	343,716	-0,252	-0,350
38,867	219,279	-0,406	-0,459
39,882	-51,466	-0,456	-0,149
40,896	97,331	-0,374	-0,303
41,911	489,486	-0,208	-0,336
42,926	-5,203	-0,402	-0,194
43,940	18,766	-0,346	-0,195
44,955	30,347	-0,396	-0,238
45,969	-32,665	-0,462	-0,181
46,984	-0,502	-0,285	-0,142
47,999	6,784	-0,331	-0,173
49,013	63,674	-0,230	-0,162
50,028	95,611	-0,302	-0,243
51,042	225,320	-0,258	-0,295
52,057	171,807	-0,277	-0,281
53,071	127,589	-0,321	-0,287
54,086	70,093	-0,294	-0,213
55,101	164,361	-0,263	-0,262
56,115	-46,823	-0,372	-0,127
57,130	34,342	-0,368	-0,225
58,144	13,756	-0,417	-0,228
59,159	37,946	-0,358	-0,223
60,174	49,885	-0,345	-0,229
61,188	-12,898	-0,451	-0,206
62,203	105,019	-0,194	-0,161
63,217	96,034	-0,314	-0,252
64,232	101,613	-0,215	-0,176
65,247	91,404	-0,324	-0,256
66,261	-19,140	-0,430	-0,187
67,276	-52,260	-0,390	-0,126
68,290	152,864	-0,295	-0,284
69,305	34,348	-0,267	-0,164
70,320	126,884	-0,301	-0,268
71,334	-103,481	-0,307	-0,050
72,349	72,306	-0,251	-0,183
73,363	54,617	-0,376	-0,255
74,378	233,663	-0,356	-0,412
75,393	-74,315	-0,374	-0,094
76,407	192,578	-0,297	-0,315
77,422	-10,233	-0,369	-0,171
78,436	50,950	-0,283	-0,188
79,451	70,468	-0,258	-0,188
80,466	-16,464	-0,458	-0,203
81,480	114,580	-0,192	-0,164
82,495	45,461	-0,371	-0,240
83,509	135,402	-0,200	-0,183
84,524	83,763	-0,270	-0,207
85,539	-30,356	-0,328	-0,130
86,553	-41,214	-0,273	-0,098
87,568	112,538	-0,312	-0,265
88,582	20,933	-0,333	-0,189
89,597	275,904	-0,198	-0,247
90,611	33,321	-0,281	-0,171
91,626	208,378	-0,220	-0,242
92,641	62,837	-0,215	-0,151
93,655	78,940	-0,102	-0,077
94,670	57,642	-0,326	-0,223
95,684	-6,279	-0,298	-0,142
96,699	338,410	-0,211	-0,289
97,714	62,094	-0,340	-0,237
98,728	24,396	-0,254	-0,147
99,743	20,030	-0,236	-0,133
100,757	-4,197	-0,240	-0,116
101,772	244,806	-0,176	-0,208
102,787	241,872	-0,266	-0,313
103,801	117,989	-0,285	-0,246
104,816	155,729	-0,231	-0,223
105,830	800,000	-0,088	-0,175
106,845	261,414	-0,211	-0,256
107,860	-10,375	-0,192	-0,089
108,874	-153,367	-0,210	-0,010
109,889	1,681	-0,256	-0,129
110,903	14,496	-0,334	-0,182
111,918	106,537	-0,255	-0,212
112,933	-94,954	-0,269	-0,050
113,947	538,111	-0,169	-0,282
114,962	187,495	-0,170	-0,178
115,976	206,386	-0,209	-0,228
116,991	40,958	-0,308	-0,194
118,006	487,622	-0,145	-0,233
119,020	69,537	-0,353	-0,254
120,035	18,373	-0,313	-0,175
121,049	108,833	-0,242	-0,203
122,064	-27,052	-0,300	-0,122
123,079	114,966	-0,167	-0,143
124,093	-31,176	-0,451	-0,177
125,108	284,976	-0,171	-0,217
126,122	55,429	-0,345	-0,233
127,137	123,758	-0,137	-0,120
128,151	-158,347	-0,124	0,005
129,166	158,858	-0,214	-0,208
130,181	52,882	-0,258	-0,173
131,195	26,546	-0,362	-0,211
132,210	76,873	-0,224	-0,166
133,224	138,906	-0,147	-0,135
134,239	-50,057	-0,332	-0,109
135,254	172,919	-0,166	-0,167
136,268	124,343	-0,193	-0,170
137,283	136,248	-0,237	-0,216
138,297	326,015	-0,164	-0,220
139,312	54,970	-0,227	-0,153
140,327	28,379	-0,256	-0,151
141,341	12,895	-0,243	-0,131
142,356	1,155	-0,129	-0,065
143,370	643,098	-0,200	-0,357
144,385	-26,689	-0,226	-0,092
145,400	167,420	-0,213	-0,211
146,414	75,475	-0,216	-0,159
147,429	170,315	-0,237	-0,237
148,443	192,935	-0,203	-0,215
149,458	725,323	-0,162	-0,302
150,473	-32,639	-0,262	-0,101
151,487	-25,679	-0,252	-0,103
152,502	112,633	-0,248	-0,210
153,516	34,293	-0,312	-0,189
154,531	331,327	-0,181	-0,244
155,546	103,773	-0,196	-0,161
156,560	50,692	-0,156	-0,103
157,575	-21,344	-0,140	-0,059
158,589	33,547	-0,239	-0,145
159,604	-160,658	-0,327	-0,012
160,619	27,324	-0,311	-0,182
161,633	200,135	-0,182	-0,196
162,648	-200,000	-0,063	-0,263
163,662	-36,154	-0,233	-0,087
164,677	-154,291	-0,266	0,012
165,692	123,393	-0,182	-0,159
166,706	-34,407	-0,400	-0,152
167,721	-21,307	-0,237	-0,100
168,735	135,414	-0,215	-0,195
169,750	-16,473	-0,208	-0,092
170,764	25,899	-0,200	-0,116
171,779	-65,254	-0,285	-0,080
172,794	-36,010	-0,341	-0,128
173,808	644,154	-0,168	-0,300
174,823	-63,140	-0,269	-0,077
175,837	249,940	-0,195	-0,231
176,852	16,315	-0,272	-0,149
177,867	105,475	-0,241	-0,198
178,881	800,000	-0,072	-0,142
179,896	130,952	-0,158	-0,141
180,910	-68,141	-0,162	-0,044
181,925	37,365	-0,314	-0,194
182,940	10,850	-0,311	-0,165
183,954	338,496	-0,090	-0,123
184,969	90,998	-0,159	-0,124
185,983	136,877	-0,248	-0,225
186,998	-104,491	-0,342	-0,054
188,013	-1,158	-0,145	-0,071
189,027	193,242	-0,139	-0,147
190,042	66,294	-0,157	-0,111
191,056	79,119	-0,223	-0,166
192,071	-60,496	-0,234	-0,069
193,086	-39,436	-0,236	-0,086
194,100	-61,846	-0,228	-0,066
195,115	83,871	-0,187	-0,142
196,129	81,575	-0,139	-0,105
197,144	194,426	-0,216	-0,228
198,159	644,674	-0,127	-0,227
199,173	41,840	-0,052	-0,032
200,188	-51,697	-0,229	-0,074
201,202	4,974	-0,196	-0,100
202,217	574,083	-0,112	-0,191
203,232	233,606	-0,104	-0,119
204,246	248,478	-0,190	-0,224
205,261	29,031	-0,263	-0,155
206,275	227,988	-0,202	-0,229
207,290	-146,754	-0,201	-0,012
208,304	648,438	-0,147	-0,262
209,319	-82,955	-0,201	-0,045
210,334	-87,926	-0,305	-0,063
211,348	-56,197	-0,241	-0,074
212,363	163,940	-0,191	-0,187
213,377	601,879	-0,129	-0,224
214,392	110,659	-0,175	-0,146
215,407	-31,275	-0,090	0,035
216,421	-168,512	-0,263	-0,007
217,436	-74,459	-0,274	-0,068
218,450	29,737	-0,234	-0,138
219,465	253,107	-0,189	-0,225
220,480	612,009	-0,143	-0,249
221,494	47,099	-0,121	-0,078
222,509	800,000	-0,046	-0,090
223,523	-200,000	-0,031	-0,316
224,538	175,685	-0,198	-0,200
225,553	195,982	-0,153	-0,162
226,567	360,689	-0,148	-0,207
227,582	-100,469	-0,066	-0,011
228,596	-16,032	-0,188	-0,083
229,611	160,550	-0,171	-0,166
230,626	-67,309	-0,241	-0,065
231,640	-194,378	-0,224	-0,001
232,655	-3,714	-0,221	-0,106
233,669	166,409	-0,212	-0,209
234,684	16,062	-0,125	-0,068
235,699	222,716	-0,173	-0,194
236,713	41,315	-0,227	-0,142
237,728	232,431	-0,094	-0,107
238,742	18,911	-0,300	-0,166
239,757	38,526	-0,256	-0,158
240,772	299,553	-0,129	-0,165
241,786	61,009	-0,227	-0,156
242,801	52,321	-0,090	-0,059
243,815	-200,000	-0,071	-0,245
244,830	144,178	-0,101	0,094
245,844	-17,186	-0,263	-0,114
246,859	366,308	-0,102	-0,143
247,874	512,932	-0,151	-0,245
248,888	214,533	-0,176	-0,193
249,903	473,793	-0,104	-0,163
250,917	410,347	-0,114	-0,168
251,932	135,200	-0,190	-0,171
252,947	-117,540	-0,188	0,023
253,961	22,340	-0,067	-0,038
254,976	89,562	-0,190	-0,147
255,990	9,420	-0,310	-0,162
257,005	-87,456	-0,098	-0,020
258,020	236,016	-0,114	-0,130
259,034	66,507	-0,151	-0,106
260,049	113,574	-0,130	-0,109
261,063	386,225	-0,147	-0,210
262,078	-29,799	-0,248	-0,097
263,093	491,865	-0,160	-0,254
264,107	347,446	-0,133	-0,182
265,122	-200,000	-0,049	-0,165
266,136	-200,000	-0,012	-0,078
267,151	115,751	-0,167	-0,141
268,166	191,899	-0,169	-0,176
269,180	309,199	-0,184	-0,239
270,195	390,145	-0,178	-0,255
271,209	-200,000	-0,005	-0,124
272,224	-65,857	-0,184	-0,050
273,239	183,692	-0,092	-0,094
274,253	88,133	-0,213	-0,163
275,268	-20,841	-0,282	-0,119
276,282	50,256	-0,249	-0,163
277,297	63,786	-0,131	-0,091
278,312	-200,000	-0,098	-0,350
279,326	-47,392	-0,247	-0,082
280,341	-164,464	-0,162	-0,005
281,355	-166,780	-0,115	0,003
282,370	-67,216	-0,107	-0,029
283,384	94,822	-0,211	-0,166
284,399	-56,670	-0,211	-0,064
285,414	194,669	-0,177	-0,185
286,428	6,063	-0,239	-0,122
287,443	-54,811	-0,087	-0,027
288,457	105,785	-0,152	-0,124
289,472	91,625	-0,060	-0,047
290,487	34,090	-0,189	-0,113
291,501	800,000	-0,048	-0,095
292,516	-19,803	-0,204	-0,086
293,530	0,578	-0,087	-0,043
294,545	278,723	-0,110	-0,135
295,560	471,735	-0,104	-0,162
296,574	76,019	-0,130	-0,094
297,589	77,580	-0,155	-0,114
298,603	155,897	-0,123	-0,117
299,618	99,421	-0,159	-0,127
300,633	-44,760	-0,170	0,058
301,647	-200,000	-0,002	0,045
302,662	-166,268	-0,245	0,007
303,676	-5,555	-0,047	0,022
304,691	572,023	-0,150	-0,252
305,706	800,000	-0,119	-0,236
306,720	78,052	-0,150	-0,110
307,735	79,812	-0,166	-0,122
308,749	-17,414	-0,086	0,037
309,764	142,258	-0,097	-0,089
310,779	-47,416	-0,163	-0,054
311,793	113,577	-0,088	-0,074
312,808	89,323	-0,056	-0,043
313,822	-107,717	-0,157	0,023
314,837	-51,747	-0,135	0,043
315,852	156,980	-0,058	0,056
316,866	-10,594	-0,097	-0,044
317,881	115,964	-0,088	-0,074
318,895	-200,000	-0,036	0,133
319,910	-200,000	-0,028	-0,224
320,925	509,661	-0,088	-0,141
321,939	-69,312	-0,123	-0,032
322,954	-200,000	-0,015	-0,092
323,968	404,412	-0,041	0,060
324,983	-36,406	-0,051	-0,019
325,997	-200,000	-0,009	-0,080
327,012	411,954	-0,114	-0,166
328,027	89,494	-0,186	-0,143
329,041	800,000	-0,081	-0,180
330,056	62,457	-0,116	0,080
331,070	319,621	-0,011	-0,015
332,085	-79,992	-0,023	0,005
333,100	-109,252	-0,044	-0,006
334,114	288,044	-0,136	-0,170
335,129	800,000	-0,088	-0,246
336,143	159,285	-0,145	-0,139
337,158	-54,223	-0,171	-0,053
338,173	91,360	-0,124	-0,096
339,187	466,051	-0,131	-0,202
340,202	-141,360	-0,081	0,006
341,216	122,082	-0,127	-0,109
342,231	164,272	-0,233	-0,226
343,246	-33,250	-0,189	-0,072
344,260	13,723	-0,042	-0,022
345,275	-59,372	-0,048	0,014
346,289	-56,056	-0,284	-0,086
347,304	199,729	-0,115	-0,121
348,319	718,643	-0,077	-0,142
349,333	800,000	-0,055	-0,106
350,348	99,747	-0,173	-0,138
351,362	14,300	-0,090	0,048
352,377	-200,000	0,005	0,019
353,392	-21,151	-0,188	-0,079
354,406	-60,142	-0,102	-0,030
355,421	208,979	1316,374	1415,539
356,435	160,820	1477,313	1416,043
