DTS Sentinel unit serial number:	SN410029Multiplexer serial number:	ORYXHardware model number:	OX2-SRSoftware version number:	ORYX F/W v4,00 Oryx Data Collector v3.7.2.0data status	okinstallation	B3 Nyhavnadifferential loss correction	single-endedforward channel	channel 1reverse channel	N/Adate	2023/11/30time	09:37:30forward acquisition time	300,00reverse acquisition time	0,00gamma	499,1914k internal	0,3211k external	0,3211temperature offset calibration	1,0000default loss term (dB/km)	0,3820temperature slope calibration	1,0000multiplexer offset coefficient	1,0000multiplexer slope coefficient	1,0000fibre end	0,00T internal ref (°C)	9,52T ext. ref 1 (°C)	-5,45T ext. ref 2 (°C)	-5,56length (m)	temperature (°C)	Stokes	anti-Stokes-744,400	397,563	-0,166	-0,252
-743,385	218,475	-0,099	0,115
-742,371	-11,371	-0,162	-0,077
-741,356	-200,000	0,017	0,316
-740,342	117,512	-0,179	-0,159
-739,327	-200,000	-0,004	0,275
-738,312	47,365	-0,264	-0,178
-737,298	-200,000	-0,051	0,281
-736,283	312,208	-0,231	-0,315
-735,269	-200,000	0,025	0,189
-734,254	359,315	-0,135	-0,197
-733,239	70,575	-0,250	0,187
-732,225	-200,000	-0,063	-0,330
-731,210	631,299	0,034	0,062
-730,196	800,000	-0,051	-0,135
-729,181	112,138	0,045	-0,040
-728,167	800,000	-0,043	-0,126
-727,152	134,673	0,038	0,035
-726,137	-200,000	0,008	0,150
-725,123	23,488	-0,073	-0,043
-724,108	85,999	-0,133	-0,106
-723,094	-200,000	-0,032	-0,163
-722,079	-200,000	-0,005	-0,161
-721,064	-77,122	0,121	-0,030
-720,050	323,038	0,069	-0,096
-719,035	800,000	0,069	-0,162
-718,021	18,757	0,053	0,030
-717,006	-200,000	-0,016	-0,088
-715,991	41,339	-0,107	-0,070
-714,977	53,549	0,109	0,076
-713,962	-105,767	0,099	0,016
-712,948	-200,000	0,003	0,032
-711,933	78,657	-0,054	-0,042
-710,918	212,766	-0,055	-0,063
-709,904	-140,294	0,075	0,006
-708,889	-93,241	0,177	-0,035
-707,875	800,000	-0,040	-0,085
-706,860	-197,883	0,033	-0,000
-705,845	800,000	0,016	-0,037
-704,831	245,575	-0,056	-0,068
-703,816	-76,022	-0,114	0,029
-702,802	-90,266	0,061	-0,013
-701,787	141,863	0,028	0,027
-700,772	-80,917	-0,090	-0,021
-699,758	-200,000	0,025	0,127
-698,743	-3,097	-0,030	0,015
-697,729	-200,000	0,006	0,055
-696,714	-49,954	-0,061	0,021
-695,699	-86,863	0,069	0,015
-694,685	43,399	-0,135	-0,089
-693,670	176,978	0,033	-0,035
-692,656	-114,337	0,026	0,004
-691,641	-200,000	0,039	-0,143
-690,627	215,185	0,068	0,078
-689,612	65,318	0,132	0,097
-688,597	-47,398	0,100	-0,035
-687,583	-128,362	-0,193	-0,020
-686,568	-40,921	-0,064	0,024
-685,554	-102,971	-0,019	-0,003
-684,539	-109,860	0,117	0,018
-683,524	-102,551	0,101	0,017
-682,510	-49,092	-0,055	0,019
-681,495	-147,703	0,033	-0,002
-680,481	-200,000	-0,007	-0,163
-679,466	-49,188	-0,052	-0,018
-678,451	-64,899	-0,092	0,027
-677,437	-141,358	0,131	0,009
-676,422	-76,691	-0,111	-0,028
-675,408	107,536	-0,171	0,147
-674,393	89,560	-0,073	-0,059
-673,378	-38,400	-0,078	-0,030
-672,364	-158,297	-0,186	-0,008
-671,349	194,572	0,093	-0,102
-670,335	-200,000	0,008	-0,074
-669,320	800,000	-0,030	-0,074
-668,305	800,000	-0,004	0,010
-667,291	-72,994	-0,142	-0,038
-666,276	4,814	0,100	-0,053
-665,262	-91,361	-0,152	-0,031
-664,247	800,000	0,022	0,047
-663,232	-86,224	0,095	0,021
-662,218	239,926	-0,038	0,046
-661,203	-63,414	0,018	-0,005
-660,189	191,058	-0,126	0,137
-659,174	-200,000	-0,035	-0,161
-658,159	-111,835	-0,133	0,019
-657,145	-200,000	0,020	-0,078
-656,130	208,820	0,043	-0,049
-655,116	142,447	0,074	-0,071
-654,101	536,772	0,047	0,080
-653,086	-200,000	-0,002	0,091
-652,072	428,004	0,053	-0,082
-651,057	-34,550	-0,127	-0,050
-650,043	-1,236	0,125	0,063
-649,028	800,000	0,026	0,076
-648,014	-79,250	0,113	-0,027
-646,999	-200,000	0,004	0,041
-645,984	134,870	-0,059	0,056
-644,970	290,633	0,074	0,098
-643,955	299,419	-0,056	-0,075
-642,941	-111,665	0,053	0,008
-641,926	-200,000	-0,002	0,070
-640,911	-52,356	-0,114	-0,038
-639,897	-200,000	0,016	0,181
-638,882	170,796	0,054	0,056
-637,868	569,861	0,063	-0,111
-636,853	-200,000	-0,030	-0,141
-635,838	800,000	0,060	-0,125
-634,824	304,285	0,058	0,078
-633,809	265,165	0,044	0,055
-632,795	-26,495	0,066	-0,028
-631,780	-200,000	-0,017	0,094
-630,765	-200,000	-0,018	-0,116
-629,751	144,604	-0,095	0,092
-628,736	-200,000	-0,004	-0,040
-627,722	-86,910	-0,056	-0,012
-626,707	-200,000	0,006	0,147
-625,692	57,543	0,114	-0,080
-624,678	-118,544	-0,094	-0,012
-623,663	-200,000	0,006	0,037
-622,649	13,362	-0,065	0,036
-621,634	211,357	-0,067	-0,077
-620,619	-155,837	-0,078	0,004
-619,605	87,788	0,043	0,035
-618,590	-200,000	-0,018	-0,083
-617,576	-72,720	0,088	-0,023
-616,561	800,000	-0,056	-0,142
-615,546	-200,000	-0,047	-0,153
-614,532	-200,000	-0,006	-0,038
-613,517	203,814	-0,045	0,050
-612,503	16,315	0,110	0,063
-611,488	100,619	-0,063	0,053
-610,474	-60,823	0,082	-0,025
-609,459	20,948	0,073	-0,043
-608,444	-16,942	-0,103	0,047
-607,430	310,049	-0,079	-0,107
-606,415	-200,000	0,007	-0,063
-605,401	554,754	-0,048	0,083
-604,386	-200,000	0,023	-0,099
-603,371	702,345	0,050	-0,096
-602,357	-90,359	0,129	-0,027
-601,342	104,719	0,057	0,049
-600,328	-200,000	-0,023	-0,075
-599,313	482,063	-0,061	0,100
-598,298	311,310	0,043	-0,059
-597,284	97,168	0,047	-0,039
-596,269	-94,308	-0,146	-0,028
-595,255	327,430	0,057	-0,079
-594,240	-200,000	-0,016	0,103
-593,225	101,392	0,086	-0,072
-592,211	-200,000	0,025	-0,116
-591,196	-8,491	-0,065	-0,032
-590,182	-200,000	-0,036	0,191
-589,167	-33,300	0,074	0,029
-588,152	-200,000	0,005	-0,110
-587,138	489,459	-0,053	-0,087
-586,123	329,787	-0,089	-0,124
-585,109	58,968	0,049	-0,035
-584,094	-134,032	0,095	0,008
-583,079	-200,000	-0,016	-0,238
-582,065	81,812	0,044	0,034
-581,050	800,000	0,032	0,100
-580,036	-200,000	-0,016	0,082
-579,021	314,786	0,088	-0,120
-578,006	331,726	0,013	0,018
-576,992	183,341	0,110	-0,117
-575,977	-200,000	0,010	0,159
-574,963	311,105	0,158	0,214
-573,948	192,062	-0,045	-0,049
-572,934	-5,401	-0,130	0,064
-571,919	-80,743	0,058	-0,014
-570,904	-200,000	-0,028	-0,186
-569,890	58,256	0,092	-0,065
-568,875	-152,050	-0,083	0,004
-567,861	176,840	-0,003	0,003
-566,846	-200,000	0,008	0,065
-565,831	-53,732	-0,124	0,040
-564,817	-200,000	0,004	-0,122
-563,802	-200,000	-0,000	-0,147
-562,788	533,863	0,072	-0,122
-561,773	-97,922	-0,116	0,021
-560,758	-85,998	0,033	-0,007
-559,744	800,000	-0,031	-0,072
-558,729	-200,000	-0,040	-0,204
-557,715	534,483	-0,037	-0,063
-556,700	-200,000	0,020	-0,068
-555,685	-200,000	0,047	-0,170
-554,671	-200,000	-0,003	-0,021
-553,656	504,219	-0,016	-0,027
-552,642	-200,000	-0,011	0,035
-551,627	297,514	-0,056	0,074
-550,612	22,552	-0,083	-0,049
-549,598	232,327	-0,089	0,105
-548,583	-78,806	-0,045	0,011
-547,569	-37,023	0,055	0,021
-546,554	800,000	0,007	0,014
-545,539	175,195	0,017	0,018
-544,525	88,293	0,100	-0,080
-543,510	800,000	0,039	0,110
-542,496	-200,000	-0,015	-0,140
-541,481	449,949	-0,063	0,100
-540,466	203,274	0,099	-0,111
-539,452	-113,143	0,035	0,005
-538,437	-200,000	-0,006	-0,019
-537,423	95,713	-0,017	-0,014
-536,408	185,117	-0,063	-0,067
-535,393	-67,415	-0,151	-0,042
-534,379	-200,000	0,029	-0,130
-533,364	395,377	-0,060	-0,090
-532,350	-200,000	0,022	0,099
-531,335	-195,835	0,096	-0,000
-530,321	200,575	0,050	-0,056
-529,306	-22,673	0,029	-0,012
-528,291	477,715	-0,057	-0,093
-527,277	-26,187	-0,024	-0,010
-526,262	-200,000	-0,027	-0,152
-525,248	545,029	-0,043	0,075
-524,233	9,842	0,115	-0,062
-523,218	-25,872	-0,043	-0,018
-522,204	246,809	-0,048	0,059
-521,189	800,000	-0,037	0,097
-520,175	-200,000	0,005	0,047
-519,160	800,000	-0,011	0,024
-518,145	800,000	-0,041	0,121
-517,131	383,763	0,053	-0,078
-516,116	-178,159	0,129	0,002
-515,102	-37,292	0,066	-0,025
-514,087	-200,000	0,022	-0,095
-513,072	800,000	-0,028	0,089
-512,058	-52,790	-0,066	0,022
-511,043	-110,095	0,041	0,006
-510,029	303,316	0,057	0,076
-509,014	-200,000	-0,004	-0,024
-507,999	274,321	0,021	0,027
-506,985	222,043	-0,066	-0,076
-505,970	800,000	-0,046	-0,095
-504,956	115,702	0,072	0,063
-503,941	-200,000	0,001	-0,018
-502,926	134,764	-0,051	-0,048
-501,912	-200,000	-0,012	0,099
-500,897	-42,466	-0,179	0,065
-499,883	-200,000	0,004	-0,087
-498,868	-11,108	0,151	0,071
-497,853	800,000	-0,032	0,067
-496,839	-200,000	-0,032	0,138
-495,824	55,660	0,045	0,032
-494,810	-200,000	0,056	0,188
-493,795	-98,707	-0,129	0,023
-492,781	119,818	0,083	0,074
-491,766	-39,810	-0,069	0,026
-490,751	23,099	0,098	-0,057
-489,737	800,000	0,027	-0,063
-488,722	-200,000	0,017	-0,088
-487,708	800,000	0,017	-0,046
-486,693	48,793	-0,089	-0,060
-485,678	-35,258	-0,080	-0,031
-484,664	109,610	-0,058	-0,050
-483,649	113,421	0,033	-0,029
-482,635	-200,000	0,007	-0,129
-481,620	100,411	0,148	0,123
-480,605	214,569	-0,088	0,101
-479,591	227,861	0,015	0,018
-478,576	230,911	0,036	0,043
-477,562	-200,000	-0,012	-0,178
-476,547	-200,000	-0,022	-0,116
-475,532	-200,000	-0,002	-0,048
-474,518	800,000	0,029	0,078
-473,503	138,102	-0,064	0,060
-472,489	-200,000	-0,042	-0,152
-471,474	47,125	-0,095	-0,063
-470,459	-126,973	-0,074	0,008
-469,445	-200,000	0,033	-0,106
-468,430	-25,082	-0,076	-0,032
-467,416	-46,039	0,100	0,035
-466,401	-24,826	-0,016	-0,007
-465,386	-200,000	0,018	0,068
-464,372	-45,397	-0,018	0,007
-463,357	122,477	-0,085	-0,076
-462,343	727,920	-0,020	-0,038
-461,328	115,220	-0,029	0,025
-460,313	-99,157	0,071	0,013
-459,299	-200,000	-0,020	-0,068
-458,284	-53,337	0,066	0,022
-457,270	125,488	-0,082	0,074
-456,255	-200,000	-0,010	-0,085
-455,241	-62,802	0,159	0,047
-454,226	-29,927	-0,031	0,013
-453,211	-200,000	-0,005	0,127
-452,197	143,678	0,091	0,087
-451,182	354,809	0,049	0,071
-450,168	216,104	0,027	0,031
-449,153	-177,629	0,151	0,003
-448,138	-93,365	-0,179	-0,035
-447,124	-200,000	0,009	0,115
-446,109	-200,000	-0,016	-0,077
-445,095	164,898	-0,009	0,010
-444,080	150,135	0,140	0,137
-443,065	-54,230	-0,116	0,037
-442,051	85,859	0,139	0,109
-441,036	-166,144	-0,064	0,002
-440,022	-54,126	0,089	-0,029
-439,007	59,424	-0,012	0,008
-437,992	71,765	-0,035	-0,026
-436,978	-200,000	0,007	0,061
-435,963	41,157	0,074	-0,048
-434,949	-200,000	0,017	-0,062
-433,934	-6,747	-0,080	-0,039
-432,919	229,489	-0,059	0,069
-431,905	149,598	-0,062	0,060
-430,890	580,583	0,058	0,102
-429,876	-10,599	-0,057	-0,027
-428,861	422,073	0,013	0,020
-427,846	368,913	-0,049	0,071
-426,832	800,000	0,025	-0,050
-425,817	800,000	-0,087	-0,228
-424,803	229,880	0,051	-0,060
-423,788	-200,000	-0,020	0,099
-422,773	-139,068	-0,138	-0,011
-421,759	657,236	-0,021	-0,038
-420,744	-36,259	0,058	-0,022
-419,730	105,422	0,121	-0,103
-418,715	-44,875	-0,179	-0,064
-417,701	-200,000	-0,003	-0,097
-416,686	-71,243	0,054	0,014
-415,671	100,952	0,077	0,064
-414,657	720,961	0,011	0,021
-413,642	-148,959	0,106	0,006
-412,628	-85,851	-0,107	0,024
-411,613	-200,000	0,002	-0,037
-410,598	-85,599	0,071	-0,016
-409,584	-134,428	0,074	0,006
-408,569	328,870	-0,018	-0,025
-407,555	-200,000	0,007	0,070
-406,540	82,084	0,040	0,031
-405,525	-48,131	0,038	0,013
-404,511	172,764	-0,066	0,068
-403,496	-11,085	0,067	-0,031
-402,482	800,000	-0,022	0,049
-401,467	147,629	0,010	-0,010
-400,452	800,000	0,068	0,208
-399,438	800,000	0,034	-0,072
-398,423	800,000	-0,058	0,128
-397,409	-108,585	-0,050	-0,008
-396,394	440,344	-0,054	-0,084
-395,379	800,000	-0,028	0,071
-394,365	800,000	0,070	-0,141
-393,350	-91,141	-0,165	0,034
-392,336	-200,000	0,180	0,000
-391,321	222,053	-0,061	0,071
-390,306	-200,000	-0,006	0,032
-389,292	352,578	-0,018	0,026
-388,277	228,345	-0,120	0,141
-387,263	94,191	0,073	0,059
-386,248	-200,000	-0,009	-0,051
-385,233	-25,491	-0,197	0,083
-384,219	193,192	-0,057	0,061
-383,204	-200,000	-0,011	-0,103
-382,190	-200,000	-0,023	-0,109
-381,175	-200,000	0,015	-0,103
-380,160	800,000	0,024	0,071
-379,146	301,729	0,067	0,088
-378,131	36,047	0,049	0,031
-377,117	453,939	0,057	0,090
-376,102	95,305	-0,096	-0,078
-375,088	800,000	-0,008	-0,022
-374,073	88,181	0,108	-0,086
-373,058	142,183	0,150	-0,142
-372,044	-200,000	-0,016	-0,112
-371,029	9,368	-0,062	-0,033
-370,015	-200,000	0,017	0,092
-369,000	-200,000	-0,020	-0,065
-367,985	30,323	-0,112	-0,068
-366,971	10,313	-0,084	-0,046
-365,956	-154,145	0,099	0,005
-364,942	197,787	-0,013	-0,014
-363,927	-200,000	0,035	-0,120
-362,912	-200,000	0,021	-0,086
-361,898	-131,936	0,081	-0,007
-360,883	-200,000	0,026	0,140
-359,869	-200,000	-0,007	0,083
-358,854	233,804	0,051	-0,060
-357,839	-97,053	-0,039	0,007
-356,825	-140,901	-0,050	-0,004
-355,810	-200,000	-0,012	0,109
-354,796	-200,000	-0,007	0,117
-353,781	-200,000	-0,004	-0,078
-352,766	-200,000	0,008	-0,107
-351,752	1,029	-0,071	0,036
-350,737	-14,903	0,130	0,059
-349,723	-32,623	0,065	0,026
-348,708	161,853	0,121	-0,122
-347,693	-42,703	-0,123	-0,044
-346,679	33,205	-0,096	-0,059
-345,664	56,297	0,033	-0,023
-344,650	-200,000	-0,005	-0,055
-343,635	-200,000	0,000	0,003
-342,620	302,355	-0,122	-0,162
-341,606	-110,228	0,099	0,015
-340,591	-200,000	0,003	-0,061
-339,577	-200,000	-0,003	-0,029
-338,562	800,000	0,043	-0,112
-337,548	-200,000	0,010	0,048
-336,533	550,082	0,092	0,158
-335,518	93,604	-0,072	-0,058
-334,504	-78,301	0,105	-0,026
-333,489	-200,000	-0,029	0,126
-332,475	800,000	-0,049	-0,104
-331,460	-7,545	0,085	0,041
-330,445	463,369	-0,012	-0,019
-329,431	9,484	0,062	0,033
-328,416	359,611	0,099	-0,142
-327,402	-27,035	0,076	-0,032
-326,387	454,925	0,101	-0,160
-325,372	800,000	0,037	0,096
-324,358	117,842	-0,086	0,075
-323,343	-200,000	0,023	0,102
-322,329	-200,000	0,000	-0,023
-321,314	-200,000	-0,005	0,114
-320,299	800,000	-0,041	0,086
-319,285	-150,662	-0,161	0,009
-318,270	182,560	-0,086	-0,091
-317,256	-96,761	-0,135	0,025
-316,241	-98,220	0,046	-0,008
-315,226	-104,526	0,110	0,018
-314,212	70,984	0,044	-0,033
-313,197	491,486	0,065	0,107
-312,183	-200,000	0,029	-0,124
-311,168	800,000	0,041	-0,123
-310,153	699,429	0,048	-0,090
-309,139	-173,955	-0,075	-0,002
-308,124	-100,629	0,105	0,018
-307,110	71,920	-0,139	-0,103
-306,095	485,532	0,045	-0,073
-305,080	73,625	0,055	0,041
-304,066	800,000	0,006	-0,015
-303,051	800,000	-0,027	0,063
-302,037	39,586	-0,118	0,075
-301,022	22,899	0,082	0,048
-300,008	-6,366	0,096	-0,047
-298,993	-71,586	0,074	0,020
-297,978	-16,944	0,027	-0,012
-296,964	-200,000	-0,027	0,090
-295,949	-200,000	-0,002	0,015
-294,935	434,321	-0,078	0,122
-293,920	-74,076	0,103	-0,027
-292,905	-59,876	0,185	0,056
-291,891	800,000	-0,012	-0,024
-290,876	78,480	-0,088	-0,067
-289,862	-200,000	-0,003	0,015
-288,847	-200,000	0,003	0,056
-287,832	-90,760	-0,112	-0,023
-286,818	-174,512	-0,128	0,003
-285,803	91,989	0,074	0,059
-284,789	113,274	0,097	0,083
-283,774	539,810	0,069	0,117
-282,759	-35,908	0,031	0,012
-281,745	19,650	-0,017	0,010
-280,730	-10,529	-0,054	-0,025
-279,716	800,000	0,038	0,102
-278,701	228,067	-0,029	-0,033
-277,686	183,228	0,079	0,083
-276,672	-200,000	-0,020	0,088
-275,657	17,870	0,011	-0,006
-274,643	-126,350	0,042	0,004
-273,628	-11,759	-0,025	0,012
-272,613	-115,562	-0,156	-0,021
-271,599	20,198	0,133	-0,076
-270,584	-24,519	0,104	0,044
-269,570	178,959	-0,112	0,117
-268,555	115,608	-0,070	-0,061
-267,540	-200,000	0,021	0,116
-266,526	-61,570	-0,058	0,017
-265,511	-127,191	-0,032	-0,003
-264,497	217,931	0,109	-0,124
-263,482	-200,000	0,014	0,113
-262,467	-93,051	0,062	-0,012
-261,453	228,974	0,018	0,021
-260,438	800,000	-0,014	0,035
-259,424	576,264	0,063	-0,110
-258,409	-200,000	-0,012	-0,083
-257,395	330,545	0,030	0,041
-256,380	-200,000	0,014	0,066
-255,365	-77,675	0,074	0,018
-254,351	12,382	0,084	0,046
-253,336	-136,497	-0,133	-0,011
-252,322	-200,000	-0,038	-0,123
-251,307	-113,932	-0,150	-0,020
-250,292	9,885	-0,118	0,064
-249,278	228,508	-0,033	-0,038
-248,263	35,234	0,086	0,054
-247,249	-200,000	-0,042	0,152
-246,234	800,000	0,013	-0,027
-245,219	-16,488	0,021	0,009
-244,205	800,000	-0,019	0,049
-243,190	200,436	-0,063	-0,069
-242,176	800,000	-0,019	0,057
-241,161	-200,000	-0,016	0,072
-240,146	423,374	0,004	-0,006
-239,132	-47,059	-0,050	-0,017
-238,117	800,000	-0,052	0,113
-237,103	391,830	-0,025	-0,038
-236,088	456,409	-0,041	0,064
-235,073	620,717	0,007	0,012
-234,059	-200,000	0,013	-0,066
-233,044	27,414	0,110	0,066
-232,030	112,221	-0,109	0,093
-231,015	-116,887	-0,132	0,017
-230,000	11,218	-0,033	-0,018
-228,986	-37,953	-0,038	-0,014
-227,971	-125,851	-0,067	-0,007
-226,957	800,000	0,026	0,072
-225,942	800,000	-0,023	0,052
-224,927	583,190	-0,062	0,108
-223,913	-122,395	0,044	0,005
-222,898	-52,522	0,022	0,007
-221,884	-200,000	-0,002	-0,091
-220,869	450,200	0,059	-0,094
-219,855	471,181	-0,024	-0,039
-218,840	-73,645	-0,075	0,019
-217,825	-20,860	0,135	0,058
-216,811	-200,000	0,059	0,189
-215,796	-200,000	-0,020	0,088
-214,782	117,899	0,015	-0,013
-213,767	8,097	-0,032	0,017
-212,752	143,086	-0,037	0,035
-211,738	800,000	0,027	-0,069
-210,723	-200,000	0,013	-0,141
-209,709	186,346	-0,015	0,016
-208,694	-90,505	-0,141	-0,029
-207,679	515,917	-0,025	0,042
-206,665	-150,214	-0,017	-0,001
-205,650	800,000	-0,016	0,047
-204,636	12,041	0,202	0,110
-203,621	166,434	0,046	-0,046
-202,606	81,360	-0,072	-0,055
-201,592	59,552	-0,070	0,049
-200,577	9,621	0,085	-0,046
-199,563	-122,314	0,039	0,005
-198,548	-200,000	-0,051	0,209
-197,533	-115,086	-0,025	0,003
-196,519	800,000	0,046	0,124
-195,504	68,695	0,099	-0,072
-194,490	-52,851	0,024	-0,008
-193,475	-33,443	-0,094	0,037
-192,460	625,722	-0,042	0,075
-191,446	-200,000	0,142	0,000
-190,431	99,083	0,046	0,038
-189,417	20,399	0,100	0,057
-188,402	11,690	-0,024	0,013
-187,387	628,079	-0,072	-0,129
-186,373	800,000	-0,047	-0,108
-185,358	296,099	-0,026	-0,034
-184,344	76,409	-0,073	0,055
-183,329	-53,136	0,029	-0,009
-182,315	499,412	0,076	0,124
-181,300	650,554	0,055	0,100
-180,285	-200,000	-0,021	-0,090
-179,271	131,746	-0,082	-0,075
-178,256	145,107	0,084	0,079
-177,242	-200,000	0,004	-0,047
-176,227	-111,002	0,063	0,009
-175,212	140,359	0,049	0,045
-174,198	113,481	0,067	0,058
-173,183	29,138	-0,138	0,083
-172,169	800,000	0,023	-0,052
-171,154	-200,000	0,004	-0,034
-170,139	-200,000	0,040	0,126
-169,125	-200,000	-0,011	-0,104
-168,110	-162,391	-0,083	0,003
-167,096	-107,934	-0,245	0,037
-166,081	800,000	-0,028	-0,059
-165,066	74,482	0,065	0,048
-164,052	2,060	-0,046	-0,023
-163,037	157,043	0,043	0,042
-162,023	-200,000	0,004	-0,046
-161,008	-200,000	0,016	0,077
-159,993	-200,000	0,014	0,083
-158,979	-200,000	-0,016	-0,052
-157,964	-170,567	-0,083	-0,002
-156,950	-79,937	-0,101	0,024
-155,935	-200,000	-0,003	0,022
-154,920	229,254	0,079	-0,092
-153,906	-21,768	-0,096	0,041
-152,891	547,856	-0,061	0,104
-151,877	623,347	-0,063	0,113
-150,862	147,665	-0,036	0,034
-149,847	32,406	0,107	0,065
-148,833	-102,672	0,026	0,004
-147,818	454,312	0,044	-0,069
-146,804	-60,950	-0,108	0,032
-145,789	-77,000	0,042	-0,010
-144,775	89,757	-0,093	-0,074
-143,760	-114,637	-0,132	-0,018
-142,745	800,000	-0,024	-0,052
-141,731	-200,000	-0,000	-0,155
-140,716	89,098	0,044	-0,035
-139,702	-200,000	-0,004	-0,100
-138,687	-200,000	-0,026	0,108
-137,672	-200,000	-0,012	-0,095
-136,658	-108,869	-0,133	-0,020
-135,643	-132,074	-0,048	-0,004
-134,629	-105,354	0,066	0,011
-133,614	126,910	0,113	0,101
-132,599	-200,000	0,001	0,071
-131,585	146,955	-0,065	0,062
-130,570	-200,000	-0,016	0,062
-129,556	-200,000	-0,001	-0,025
-128,541	-189,079	-0,069	-0,001
-127,526	281,334	-0,034	-0,044
-126,512	13,338	0,068	0,037
-125,497	326,061	-0,009	-0,013
-124,483	-82,892	-0,088	0,020
-123,468	-65,102	-0,150	-0,042
-122,453	92,917	-0,085	0,068
-121,439	73,406	-0,116	0,086
-120,424	18,108	0,060	0,034
-119,410	-94,116	0,077	-0,015
-118,395	679,565	-0,003	0,005
-117,380	-200,000	0,006	-0,035
-116,366	93,647	0,087	-0,070
-115,351	-200,000	0,036	-0,164
-114,337	-37,350	0,034	0,013
-113,322	145,387	0,091	0,086
-112,307	-200,000	-0,010	0,134
-111,293	-161,689	0,135	-0,005
-110,278	-147,972	0,086	-0,005
-109,264	-49,475	0,145	-0,049
-108,249	226,879	-0,069	-0,079
-107,234	294,045	-0,035	-0,046
-106,220	488,889	0,021	0,035
-105,205	-200,000	-0,008	-0,074
-104,191	-39,741	0,104	0,038
-103,176	-88,674	0,045	0,009
-102,162	16,253	-0,085	-0,047
-101,147	738,795	0,055	-0,106
-100,132	-200,000	0,024	-0,089
-99,118	-106,820	-0,126	0,019
-98,103	-200,000	0,005	-0,079
-97,089	-110,268	0,112	-0,016
-96,074	-188,165	-0,090	-0,001
-95,059	-120,539	0,140	-0,017
-94,045	197,965	-0,077	-0,084
-93,030	-53,126	0,004	0,001
-92,016	800,000	0,033	-0,095
-91,001	697,512	0,010	-0,018
-89,986	-97,770	0,115	-0,021
-88,972	-40,838	0,103	0,038
-87,957	309,140	-0,067	0,088
-86,943	-200,000	0,021	-0,087
-85,928	800,000	0,018	0,049
-84,913	178,136	-0,078	-0,081
-83,899	182,305	0,050	-0,053
-82,884	800,000	0,017	0,039
-81,870	-28,197	0,212	-0,086
-80,855	-200,000	0,004	0,091
-79,840	-50,784	-0,118	0,039
-78,826	30,325	-0,048	-0,029
-77,811	-200,000	-0,001	-0,066
-76,797	-200,000	-0,024	-0,104
-75,782	-200,000	0,003	0,056
-74,767	367,730	-0,083	0,119
-73,753	66,844	0,062	0,045
-72,738	-105,852	0,145	0,023
-71,724	-103,811	-0,150	-0,025
-70,709	-200,000	0,007	-0,037
-69,694	196,567	0,072	0,077
-68,680	353,263	-0,020	-0,028
-67,665	800,000	-0,021	-0,066
-66,651	800,000	0,033	-0,069
-65,636	329,721	-0,040	-0,055
-64,622	-200,000	-0,028	-0,127
-63,607	779,298	0,042	-0,082
-62,592	-200,000	0,023	-0,081
-61,578	585,756	0,074	0,128
-60,563	-115,080	0,019	0,003
-59,549	800,000	0,024	0,058
-58,534	41,507	-2,114	-1,348
-57,519	530,810	-1,205	-2,018
-56,505	-200,000	-0,361	-4,399
-55,490	556,520	0,959	1,638
-54,476	800,000	5,244	11,378
-53,461	-200,000	21,645	344,426
-52,446	800,000	763,185	2344,460
-51,432	547,480	1662,471	2819,297
-50,417	71,609	1658,841	1214,852
-49,403	17,298	1532,454	856,056
-48,388	11,306	1456,211	784,509
-47,373	19,394	1447,689	818,659
-46,359	14,863	1436,918	791,013
-45,344	9,654	1432,665	763,862
-44,330	9,554	1430,862	762,397
-43,315	9,544	1429,209	761,438
-42,300	9,540	1427,401	760,425
-41,286	9,592	1426,088	759,940
-40,271	9,584	1424,645	759,104
-39,257	9,551	1423,781	758,459
-38,242	9,631	1422,569	758,159
-37,227	9,597	1421,544	757,423
-36,213	9,584	1420,244	756,640
-35,198	9,620	1418,924	756,076
-34,184	9,589	1418,005	755,410
-33,169	9,544	1416,770	754,508
-32,154	9,613	1415,630	754,197
-31,140	9,616	1414,457	753,555
-30,125	9,630	1413,344	753,002
-29,111	9,635	1412,165	752,365
-28,096	9,627	1410,884	751,615
-27,082	9,530	1409,723	750,512
-26,067	9,505	1408,678	749,809
-25,052	9,557	1407,661	749,482
-24,038	9,583	1406,584	748,998
-23,023	9,525	1405,861	748,316
-22,009	9,566	1404,531	747,766
-20,994	9,547	1403,793	747,255
-19,979	9,531	1402,741	746,593
-18,965	9,573	1401,868	746,294
-17,950	9,514	1400,972	745,511
-16,936	9,460	1400,215	744,827
-15,921	9,418	1399,291	744,112
-14,906	9,451	1398,255	743,684
-13,892	9,499	1397,125	743,277
-12,877	9,467	1396,542	742,791
-11,863	9,494	1395,641	742,404
-10,848	9,416	1394,707	741,519
-9,833	9,400	1393,789	740,928
-8,819	9,340	1393,133	740,268
-7,804	9,349	1392,112	739,742
-6,790	9,322	1391,040	739,017
-5,775	9,392	1389,844	738,676
-4,760	9,349	1389,207	738,107
-3,746	9,363	1388,076	737,545
-2,731	9,355	1387,146	736,984
-1,717	9,370	1386,275	736,558
-0,702	9,352	1384,608	735,564
0,313	13,414	1296,843	707,481
1,327	29,458	687,594	411,368
2,342	45,724	118,909	77,378
3,356	0,762	16,520	8,313
4,371	1,137	3,647	1,840
5,386	-16,513	1,205	0,536
6,400	800,000	0,191	0,536
7,415	143,969	-0,141	-0,133
8,429	29,666	-0,302	-0,181
9,444	-17,539	-0,308	-0,136
10,459	-102,153	-0,162	-0,027
11,473	-15,018	-0,393	-0,177
12,488	-52,205	-0,322	-0,105
13,502	-26,987	-0,276	-0,113
14,517	75,552	-0,270	-0,201
15,531	123,839	-0,316	-0,279
16,546	6,341	-0,285	-0,149
17,561	51,293	-0,448	-0,299
18,575	-36,888	-0,268	-0,101
19,590	171,617	-0,161	-0,163
20,604	-23,079	-0,256	-0,108
21,619	87,000	-0,454	-0,353
22,634	38,338	-0,424	-0,265
23,648	150,061	-0,433	-0,413
24,663	39,764	-0,375	-0,237
25,677	601,801	-0,222	-0,389
26,692	112,797	-0,313	-0,267
27,707	66,347	-0,436	-0,312
28,721	344,182	-0,276	-0,383
29,736	74,091	-0,385	-0,284
30,750	40,443	-0,424	-0,268
31,765	67,331	-0,304	-0,218
32,780	0,614	-0,314	-0,157
33,794	-19,281	-0,353	-0,153
34,809	97,518	-0,317	-0,256
35,823	-7,700	-0,470	-0,222
36,838	143,659	-0,249	-0,233
37,853	157,522	-0,319	-0,311
38,867	60,182	-0,348	-0,242
39,882	122,831	-0,350	-0,308
40,896	64,191	-0,317	-0,224
41,911	21,047	-0,327	-0,186
42,926	81,725	-0,404	-0,307
43,940	44,885	-0,294	-0,190
44,955	9,450	-0,328	-0,174
45,969	-25,841	-0,230	-0,095
46,984	504,313	-0,212	-0,346
47,999	-81,156	-0,333	-0,077
49,013	428,135	-0,221	-0,337
50,028	0,159	-0,311	-0,155
51,042	101,918	-0,233	-0,191
52,057	93,412	-0,367	-0,292
53,071	58,995	-0,467	-0,322
54,086	219,889	-0,181	-0,204
55,101	119,669	-0,300	-0,261
56,115	207,222	-0,160	-0,176
57,130	131,226	-0,234	-0,211
58,144	-53,658	-0,377	-0,120
59,159	58,107	-0,357	-0,245
60,174	-75,698	-0,336	-0,083
61,188	343,296	-0,198	-0,273
62,203	116,135	-0,304	-0,262
63,217	-22,437	-0,317	-0,134
64,232	111,605	-0,317	-0,268
65,247	800,000	-0,167	-0,386
66,261	38,543	-0,381	-0,238
67,276	11,469	-0,437	-0,234
68,290	-15,600	-0,234	-0,104
69,305	96,521	-0,309	-0,248
70,320	76,971	-0,283	-0,210
71,334	48,855	-0,320	-0,210
72,349	43,554	-0,260	-0,166
73,363	14,242	-0,392	-0,213
74,378	111,109	-0,341	-0,288
75,393	-200,000	-0,056	-0,191
76,407	135,419	-0,256	-0,233
77,422	225,239	-0,264	-0,300
78,436	-13,373	-0,360	-0,163
79,451	152,273	-0,251	-0,240
80,466	-3,309	-0,295	-0,143
81,480	44,327	-0,332	-0,213
82,495	34,785	-0,280	-0,171
83,509	-26,089	-0,412	-0,169
84,524	-54,390	-0,352	-0,111
85,539	-75,383	-0,121	-0,030
86,553	14,211	-0,255	-0,139
87,568	105,082	-0,243	-0,201
88,582	-26,162	-0,260	-0,107
89,597	70,263	-0,260	-0,188
90,611	54,163	-0,195	-0,131
91,626	-35,935	-0,190	-0,071
92,641	-23,477	-0,329	-0,137
93,655	-30,298	-0,300	-0,119
94,670	44,020	-0,312	-0,200
95,684	-2,733	-0,326	-0,159
96,699	-11,745	-0,353	-0,161
97,714	109,103	-0,147	-0,123
98,728	-55,716	-0,184	-0,057
99,743	129,645	-0,214	-0,192
100,757	42,288	-0,203	-0,129
101,772	200,439	-0,190	-0,205
102,787	-20,533	-0,210	-0,090
103,801	90,862	-0,260	-0,204
104,816	425,231	-0,163	-0,246
105,830	14,636	-0,228	-0,124
106,845	-101,089	-0,276	0,047
107,860	150,030	-0,143	-0,136
108,874	-41,642	-0,280	-0,100
109,889	-44,581	-0,343	-0,119
110,903	110,078	-0,231	-0,194
111,918	15,153	-0,217	-0,119
112,933	-6,136	-0,222	-0,106
113,947	-114,534	-0,324	-0,043
114,962	-104,914	-0,151	-0,024
115,976	3,617	-0,426	-0,216
116,991	-155,581	-0,283	0,012
118,006	16,500	-0,200	-0,110
119,020	534,727	-0,117	-0,195
120,035	87,996	-0,243	-0,188
121,049	11,626	-0,218	-0,116
122,064	-4,506	-0,245	-0,118
123,079	31,529	-0,293	-0,175
124,093	52,836	-0,414	-0,276
125,108	46,765	-0,302	-0,195
126,122	289,395	-0,140	-0,177
127,137	-61,501	-0,219	-0,064
128,151	197,730	-0,198	-0,211
129,166	114,376	-0,177	-0,150
130,181	25,184	-0,219	-0,126
131,195	5,670	-0,215	-0,110
132,210	-29,120	-0,307	-0,122
133,224	158,474	-0,235	-0,227
134,239	328,515	-0,142	-0,191
135,254	-93,643	-0,297	-0,057
136,268	-117,138	-0,311	-0,039
137,283	108,832	-0,241	-0,200
138,297	-50,512	-0,250	-0,082
139,312	83,802	-0,313	-0,238
140,327	-200,000	-0,068	-0,221
141,341	98,855	-0,184	-0,148
142,356	2,647	-0,248	-0,125
143,370	245,475	-0,185	-0,217
144,385	-153,185	-0,217	-0,010
145,400	197,334	-0,274	-0,291
146,414	247,221	-0,213	-0,251
147,429	209,961	-0,220	-0,240
148,443	157,029	-0,167	-0,161
149,458	-9,986	-0,219	-0,101
150,473	256,147	-0,142	-0,170
151,487	-69,714	-0,252	-0,067
152,502	140,409	-0,246	-0,226
153,516	173,483	-0,256	-0,257
154,531	800,000	-0,094	-0,187
155,546	173,257	-0,140	-0,141
156,560	-132,629	-0,252	-0,022
157,575	-165,118	-0,174	0,005
158,589	10,603	-0,138	-0,073
159,604	-37,009	-0,405	-0,150
160,619	91,614	-0,207	-0,162
161,633	-13,143	-0,237	-0,107
162,648	585,666	-0,143	-0,246
163,662	114,046	-0,192	-0,162
164,677	122,998	-0,223	-0,195
165,692	-79,147	-0,207	0,048
166,706	120,523	-0,227	-0,196
167,721	-49,213	-0,318	-0,105
168,735	264,094	-0,212	-0,257
169,750	312,000	-0,166	-0,217
170,764	48,811	-0,273	-0,177
171,779	-82,122	-0,210	-0,047
172,794	143,504	-0,211	-0,195
173,808	381,980	-0,165	-0,237
174,823	230,507	-0,267	-0,304
175,837	365,543	-0,163	-0,228
176,852	7,873	-0,184	-0,095
177,867	158,249	-0,139	-0,134
178,881	51,139	-0,235	-0,154
179,896	-19,291	-0,181	0,078
180,910	106,630	-0,130	-0,107
181,925	-180,815	-0,332	-0,005
182,940	164,096	-0,127	-0,124
183,954	94,824	-0,273	-0,216
184,969	197,374	-0,240	-0,254
185,983	-92,857	-0,312	-0,060
186,998	-55,039	-0,088	0,027
188,013	-91,586	-0,223	-0,044
189,027	-66,455	-0,316	-0,086
190,042	95,219	-0,146	-0,115
191,056	172,494	-0,227	-0,226
192,071	22,603	-0,238	-0,135
193,086	22,214	-0,197	-0,111
194,100	-48,887	-0,183	-0,060
195,115	-29,714	-0,140	-0,055
196,129	-31,684	-0,189	-0,073
197,144	328,584	-0,220	-0,293
198,159	800,000	-0,057	-0,132
199,173	49,356	-0,070	-0,046
200,188	46,026	-0,202	-0,129
201,202	34,598	-0,175	-0,106
202,217	392,185	-0,118	-0,170
203,232	-42,799	-0,282	-0,099
204,246	169,589	-0,169	-0,167
205,261	348,473	-0,152	-0,208
206,275	113,531	-0,238	-0,200
207,290	79,532	-0,255	-0,190
208,304	52,118	-0,118	-0,078
209,319	249,525	-0,247	-0,291
210,334	56,041	-0,232	-0,155
211,348	307,287	-0,174	-0,225
212,363	110,148	-0,203	-0,169
213,377	202,792	-0,107	-0,114
214,392	-91,549	-0,248	-0,049
215,407	15,116	-0,154	-0,084
216,421	66,704	-0,126	-0,089
217,436	92,029	-0,181	-0,141
218,450	211,902	-0,242	-0,264
219,465	-26,682	-0,258	-0,104
220,480	-31,609	-0,261	-0,101
221,494	356,111	-0,124	-0,171
222,509	-172,997	-0,246	0,005
223,523	-40,440	-0,229	-0,082
224,538	57,604	-0,146	-0,099
225,553	203,173	-0,165	-0,177
226,567	453,380	-0,108	-0,166
227,582	800,000	-0,081	-0,186
228,596	316,505	-0,157	-0,205
229,611	-50,614	-0,149	-0,048
230,626	40,203	-0,150	-0,093
231,640	19,629	-0,205	-0,114
232,655	-100,194	-0,228	-0,039
233,669	29,852	-0,268	-0,158
234,684	252,320	-0,182	-0,214
235,699	-38,474	-0,246	-0,089
236,713	101,899	-0,106	0,085
237,728	109,471	-0,177	-0,146
238,742	-153,802	-0,312	-0,014
239,757	609,974	-0,075	-0,131
240,772	369,114	-0,185	-0,260
241,786	215,266	-0,129	-0,141
242,801	93,797	-0,129	-0,101
243,815	-50,942	-0,143	-0,046
244,830	-126,521	-0,105	-0,011
245,844	-84,961	-0,210	0,045
246,859	-69,386	-0,192	-0,051
247,874	-71,987	-0,141	-0,036
248,888	-69,049	-0,197	-0,052
249,903	377,412	-0,097	-0,137
250,917	-88,927	-0,055	-0,011
251,932	596,899	-0,122	-0,210
252,947	193,393	-0,182	-0,190
253,961	536,055	-0,080	-0,131
254,976	233,997	-0,196	-0,223
255,990	446,570	-0,219	-0,333
257,005	121,452	-0,131	-0,113
258,020	52,123	-0,066	-0,043
259,034	-65,721	-0,167	-0,046
260,049	-41,142	-0,256	0,091
261,063	22,348	-0,097	-0,054
262,078	461,977	-0,050	-0,077
263,093	107,630	-0,233	-0,191
264,107	-141,748	-0,161	0,011
265,122	145,228	-0,044	-0,041
266,136	-51,923	-0,225	-0,072
267,151	169,225	-0,166	-0,163
268,166	-126,562	-0,255	0,026
269,180	135,048	-0,133	-0,119
270,195	179,159	-0,118	-0,119
271,209	10,215	-0,181	-0,094
272,224	109,882	-0,135	-0,112
273,239	703,028	-0,085	-0,155
274,253	632,313	-0,117	-0,204
275,268	125,522	-0,181	-0,157
276,282	138,469	-0,219	-0,198
277,297	800,000	-0,102	-0,235
278,312	800,000	-0,112	-0,239
279,326	-135,667	-0,130	0,010
280,341	-19,007	-0,130	-0,056
281,355	20,476	-0,106	-0,059
282,370	4,456	-0,109	-0,055
283,384	-44,505	-0,282	-0,097
284,399	552,177	-0,068	-0,113
285,414	9,639	-0,135	-0,070
286,428	37,940	-0,169	-0,103
287,443	-157,088	-0,298	0,012
288,457	800,000	-0,073	-0,142
289,472	-77,713	-0,121	-0,029
290,487	442,441	-0,113	-0,170
291,501	147,919	-0,198	-0,184
292,516	-156,144	-0,176	-0,007
293,530	-87,497	-0,195	0,040
294,545	-172,745	-0,131	0,003
295,560	12,940	-0,141	-0,075
296,574	-117,643	-0,068	0,008
297,589	45,970	-0,158	-0,100
298,603	26,632	-0,226	-0,130
299,618	-58,424	-0,214	-0,064
300,633	306,035	-0,067	-0,086
301,647	-60,065	-0,202	-0,059
302,662	151,704	-0,140	-0,131
303,676	800,000	-0,141	-0,314
304,691	1,754	-0,223	-0,110
305,706	-57,367	-0,112	-0,034
306,720	800,000	-0,082	-0,217
307,735	60,336	-0,212	-0,144
308,749	190,301	-0,070	0,072
309,764	291,698	-0,113	-0,141
310,779	-163,395	-0,214	-0,007
311,793	800,000	-0,041	0,097
312,808	-200,000	-0,054	-0,210
313,822	-54,420	-0,161	-0,050
314,837	800,000	-0,065	-0,154
315,852	800,000	-0,061	-0,182
316,866	-52,439	-0,112	-0,035
317,881	185,702	-0,178	-0,182
318,895	19,899	-0,135	-0,075
319,910	-50,183	-0,163	-0,053
320,925	162,329	-0,139	-0,133
321,939	83,546	-0,120	-0,090
322,954	-200,000	-0,065	-0,231
323,968	800,000	-0,074	-0,162
324,983	198,208	-0,152	-0,159
325,997	13,954	-0,165	-0,087
327,012	0,552	-0,223	-0,109
328,027	200,398	-0,084	-0,088
329,041	-5,640	-0,151	-0,071
330,056	322,022	-0,114	-0,149
331,070	800,000	-0,068	-0,130
332,085	-30,839	-0,057	-0,022
333,100	-119,929	-0,208	0,024
334,114	800,000	-0,140	-0,303
335,129	681,316	-0,070	-0,125
336,143	0,195	-0,163	-0,079
337,158	-200,000	-0,009	-0,104
338,173	-30,062	-0,058	0,022
339,187	-152,440	-0,211	0,010
340,202	1,431	-0,151	-0,074
341,216	147,836	-0,096	-0,089
342,231	-126,479	-0,129	-0,013
343,246	-29,387	-0,205	-0,080
344,260	27,994	-0,112	-0,064
345,275	-7,226	-0,209	-0,097
346,289	-200,000	0,019	0,150
347,304	-200,000	-0,007	-0,033
348,319	800,000	-0,037	-0,099
349,333	74,259	-0,133	-0,095
350,348	163,650	-0,188	-0,181
351,362	52,767	-0,123	-0,080
352,377	59,141	-0,021	0,014
353,392	198,396	-0,136	-0,142
354,406	-84,398	-0,199	-0,043
355,421	207,461	1308,881	1398,343
356,435	159,594	1468,864	1398,815
