DTS Sentinel unit serial number:	SN410029Multiplexer serial number:	ORYXHardware model number:	OX2-SRSoftware version number:	ORYX F/W v4,00 Oryx Data Collector v3.7.2.0data status	okinstallation	B3 Nyhavnadifferential loss correction	single-endedforward channel	channel 1reverse channel	N/Adate	2023/11/28time	21:17:30forward acquisition time	300,00reverse acquisition time	0,00gamma	499,1914k internal	0,3212k external	0,3212temperature offset calibration	1,0000default loss term (dB/km)	0,3820temperature slope calibration	1,0000multiplexer offset coefficient	1,0000multiplexer slope coefficient	1,0000fibre end	0,00T internal ref (°C)	8,25T ext. ref 1 (°C)	-6,26T ext. ref 2 (°C)	-6,39length (m)	temperature (°C)	Stokes	anti-Stokes-744,400	241,427	-0,191	-0,232
-743,385	-200,000	-0,034	0,176
-742,371	196,781	-0,117	-0,129
-741,356	-200,000	-0,050	0,290
-740,342	-141,437	-0,269	0,019
-739,327	-200,000	-0,049	0,232
-738,312	-200,000	-0,040	-0,320
-737,298	317,892	-0,117	0,161
-736,283	-200,000	-0,096	-0,311
-735,269	41,806	-0,221	0,145
-734,254	-200,000	-0,071	-0,284
-733,239	77,436	-0,246	0,189
-732,225	596,203	-0,123	-0,221
-731,210	-200,000	0,037	0,147
-730,196	423,819	0,065	-0,102
-729,181	800,000	-0,040	-0,082
-728,167	800,000	0,069	0,194
-727,152	490,730	0,078	0,129
-726,137	-112,377	-0,076	-0,011
-725,123	-66,100	-0,110	-0,032
-724,108	800,000	0,040	0,122
-723,094	-16,051	-0,006	-0,003
-722,079	290,304	-0,047	-0,062
-721,064	-83,739	0,085	0,019
-720,050	-35,925	-0,068	0,026
-719,035	48,046	0,051	0,034
-718,021	-94,745	-0,142	0,028
-717,006	608,432	-0,095	-0,172
-715,991	-52,274	-0,140	-0,047
-714,977	-46,906	-0,134	-0,047
-713,962	-90,851	-0,134	0,028
-712,948	81,849	-0,106	0,083
-711,933	-200,000	0,012	-0,045
-710,918	60,935	-0,061	-0,043
-709,904	-200,000	0,005	0,060
-708,889	43,373	-0,122	-0,080
-707,875	160,421	-0,058	-0,058
-706,860	-200,000	0,032	-0,110
-705,845	-48,347	0,075	0,026
-704,831	-159,380	0,085	0,003
-703,816	589,365	-0,035	0,063
-702,802	-200,000	-0,011	-0,097
-701,787	-200,000	0,020	-0,103
-700,772	-200,000	0,020	0,229
-699,758	66,912	-0,140	0,103
-698,743	-138,320	-0,078	-0,006
-697,729	-200,000	-0,058	-0,190
-696,714	-152,305	0,053	0,003
-695,699	-45,838	0,070	-0,025
-694,685	-142,280	-0,050	-0,004
-693,670	444,771	0,104	-0,166
-692,656	-200,000	0,019	-0,087
-691,641	-200,000	-0,004	0,030
-690,627	-200,000	-0,067	-0,238
-689,612	-200,000	-0,027	0,142
-688,597	-200,000	0,021	-0,117
-687,583	25,050	-0,071	0,043
-686,568	800,000	0,057	-0,176
-685,554	14,725	-0,204	-0,115
-684,539	-185,002	0,137	0,002
-683,524	-200,000	0,011	-0,039
-682,510	-200,000	-0,012	-0,094
-681,495	-200,000	0,004	-0,037
-680,481	-78,561	-0,105	-0,026
-679,466	-123,648	-0,103	0,012
-678,451	-200,000	0,030	-0,122
-677,437	-200,000	0,018	-0,069
-676,422	800,000	-0,048	0,120
-675,408	121,136	-0,011	-0,010
-674,393	427,465	-0,082	-0,128
-673,378	53,600	-0,110	-0,076
-672,364	-88,806	-0,134	-0,028
-671,349	45,372	-0,185	-0,123
-670,335	-70,904	0,097	0,026
-669,320	800,000	-0,030	0,081
-668,305	-200,000	0,020	0,084
-667,291	97,173	-0,099	-0,082
-666,276	170,838	0,092	-0,096
-665,262	-30,562	-0,182	-0,074
-664,247	706,754	0,043	0,083
-663,232	-200,000	0,033	-0,134
-662,218	273,267	-0,071	-0,090
-661,203	-89,629	0,088	-0,018
-660,189	-200,000	0,013	-0,133
-659,174	110,145	0,021	-0,019
-658,159	-18,830	0,076	-0,034
-657,145	227,053	-0,056	-0,066
-656,130	377,654	-0,091	0,134
-655,116	-129,293	0,041	0,004
-654,101	98,048	0,055	-0,046
-653,086	729,347	0,044	0,085
-652,072	96,872	-0,092	-0,076
-651,057	-200,000	0,003	-0,151
-650,043	-200,000	0,018	-0,175
-649,028	-200,000	-0,016	0,125
-648,014	-120,778	0,057	-0,007
-646,999	9,063	-0,125	-0,068
-645,984	228,768	0,057	0,067
-644,970	590,381	-0,010	0,017
-643,955	9,612	-0,032	0,017
-642,941	-128,058	0,065	0,007
-641,926	278,180	-0,056	-0,072
-640,911	-54,798	0,031	0,010
-639,897	64,824	0,117	0,085
-638,882	800,000	-0,041	0,101
-637,868	-200,000	0,010	0,041
-636,853	-200,000	0,009	-0,153
-635,838	46,493	-0,110	0,073
-634,824	169,045	-0,034	-0,035
-633,809	-200,000	-0,019	0,146
-632,795	-24,872	0,077	-0,033
-631,780	-200,000	0,044	0,153
-630,765	171,455	-0,036	0,038
-629,751	-200,000	-0,003	0,080
-628,736	-137,208	-0,201	0,016
-627,722	-2,958	-0,047	0,023
-626,707	115,058	0,150	-0,132
-625,692	-200,000	-0,011	0,060
-624,678	-98,087	0,075	-0,014
-623,663	46,503	-0,061	0,041
-622,649	800,000	-0,019	0,045
-621,634	-200,000	-0,035	-0,180
-620,619	-200,000	-0,021	0,125
-619,605	19,029	0,107	0,062
-618,590	240,375	0,054	-0,065
-617,576	800,000	-0,039	-0,103
-616,561	-75,155	0,100	0,026
-615,546	-148,518	-0,069	-0,004
-614,532	-42,614	0,046	-0,017
-613,517	133,017	0,082	-0,076
-612,503	800,000	-0,071	0,151
-611,488	621,563	0,022	-0,039
-610,474	-200,000	-0,022	0,073
-609,459	-45,643	-0,070	0,025
-608,444	-200,000	-0,001	0,056
-607,430	-28,979	-0,066	0,027
-606,415	-200,000	-0,005	-0,052
-605,401	10,277	0,206	-0,113
-604,386	708,998	-0,063	0,121
-603,371	-53,532	0,081	0,027
-602,357	-200,000	-0,003	-0,012
-601,342	89,504	0,060	0,048
-600,328	-15,580	-0,067	0,031
-599,313	1,122	-0,058	0,030
-598,298	751,286	-0,055	-0,107
-597,284	-200,000	0,002	0,014
-596,269	347,491	0,061	0,087
-595,255	83,041	-0,069	0,054
-594,240	800,000	-0,032	0,077
-593,225	-76,996	-0,143	-0,036
-592,211	51,713	-0,052	-0,035
-591,196	800,000	0,008	-0,016
-590,182	38,680	0,057	-0,037
-589,167	-200,000	0,032	0,109
-588,152	-2,956	-0,069	-0,035
-587,138	193,759	-0,097	-0,106
-586,123	-200,000	-0,033	-0,309
-585,109	156,027	-0,131	-0,130
-584,094	-200,000	-0,003	0,089
-583,079	108,253	0,082	0,071
-582,065	547,858	-0,062	0,108
-581,050	-200,000	0,009	-0,053
-580,036	-80,250	-0,039	-0,009
-579,021	502,884	0,014	0,024
-578,006	114,062	-0,135	-0,118
-576,992	-200,000	0,005	-0,148
-575,977	25,675	-0,111	0,066
-574,963	-36,596	0,028	-0,011
-573,948	-200,000	0,001	0,030
-572,934	67,928	0,133	0,098
-571,919	134,414	-0,056	-0,052
-570,904	-200,000	-0,003	0,011
-569,890	-200,000	0,016	-0,096
-568,875	-43,153	-0,037	0,013
-567,861	-200,000	0,010	-0,075
-566,846	-200,000	0,008	0,062
-565,831	-117,530	-0,090	-0,012
-564,817	-200,000	-0,011	-0,038
-563,802	279,489	-0,071	-0,091
-562,788	91,921	0,074	0,060
-561,773	-111,619	0,051	0,007
-560,758	66,106	0,059	-0,043
-559,744	492,840	0,046	0,077
-558,729	-101,055	-0,070	0,012
-557,715	800,000	-0,048	-0,104
-556,700	-200,000	-0,018	-0,191
-555,685	-200,000	-0,002	0,058
-554,671	50,089	0,022	0,015
-553,656	214,034	0,074	-0,084
-552,642	20,156	0,189	0,110
-551,627	-66,877	0,066	0,019
-550,612	-46,353	-0,080	-0,028
-549,598	209,069	-0,133	-0,150
-548,583	55,493	-0,091	-0,063
-547,569	-55,335	-0,052	0,017
-546,554	255,988	0,044	0,054
-545,539	630,588	0,027	0,049
-544,525	65,908	-0,130	0,094
-543,510	721,554	0,014	0,027
-542,496	787,707	-0,075	0,149
-541,481	-103,719	-0,047	-0,008
-540,466	800,000	0,042	0,092
-539,452	800,000	0,053	0,149
-538,437	104,611	-0,103	-0,087
-537,423	486,367	-0,042	-0,070
-536,408	445,787	-0,019	0,030
-535,393	195,240	0,118	0,129
-534,379	-72,198	-0,040	0,011
-533,364	6,191	-0,048	0,026
-532,350	-85,069	-0,045	0,010
-531,335	192,626	-0,053	-0,058
-530,321	-103,918	0,077	-0,013
-529,306	-114,054	0,061	0,008
-528,291	-82,995	-0,045	-0,010
-527,277	-200,000	-0,008	-0,101
-526,262	-66,964	-0,097	-0,027
-525,248	-200,000	-0,006	-0,061
-524,233	-70,917	0,076	0,020
-523,218	-200,000	-0,023	-0,080
-522,204	-19,413	0,110	-0,049
-521,189	119,020	-0,087	-0,078
-520,175	-200,000	0,018	-0,069
-519,160	519,116	-0,043	0,072
-518,145	213,986	-0,010	0,011
-517,131	119,367	0,096	0,086
-516,116	47,317	0,074	0,049
-515,102	-200,000	0,013	0,043
-514,087	52,984	-0,052	0,036
-513,072	-200,000	-0,016	-0,114
-512,058	-16,702	-0,118	-0,054
-511,043	51,153	0,183	0,124
-510,029	800,000	-0,047	0,110
-509,014	108,297	0,075	0,064
-507,999	-58,157	-0,069	0,022
-506,985	-108,377	-0,159	-0,024
-505,970	594,376	0,027	0,048
-504,956	800,000	0,036	-0,112
-503,941	87,280	-0,087	-0,069
-502,926	436,579	-0,042	0,067
-501,912	109,953	0,067	0,058
-500,897	-20,010	-0,040	-0,018
-499,883	65,666	0,064	0,046
-498,868	-178,031	-0,155	0,003
-497,853	653,117	0,032	-0,059
-496,839	-200,000	0,024	-0,076
-495,824	-200,000	0,005	0,108
-494,810	-200,000	0,011	-0,067
-493,795	-25,102	-0,115	0,049
-492,781	-200,000	0,025	-0,086
-491,766	-88,255	-0,100	0,021
-490,751	129,102	0,048	0,044
-489,737	-70,829	-0,084	0,022
-488,722	800,000	0,028	-0,060
-487,708	73,232	-0,081	0,061
-486,693	51,388	0,066	-0,045
-485,678	-200,000	0,026	-0,088
-484,664	379,341	-0,048	-0,071
-483,649	-200,000	-0,013	-0,073
-482,635	-96,292	0,103	-0,019
-481,620	6,530	0,129	0,069
-480,605	707,937	-0,062	0,119
-479,591	-21,794	-0,065	0,028
-478,576	-186,386	0,052	0,001
-477,562	39,980	0,041	-0,026
-476,547	369,293	0,110	0,161
-475,532	-200,000	-0,007	-0,066
-474,518	498,123	0,036	0,060
-473,503	28,551	-0,062	0,038
-472,489	-101,610	0,085	-0,015
-471,474	275,930	0,085	-0,109
-470,459	-200,000	-0,020	0,069
-469,445	-24,086	-0,085	-0,036
-468,430	800,000	-0,014	-0,034
-467,416	800,000	-0,035	0,070
-466,401	441,665	0,070	0,110
-465,386	386,103	0,066	0,098
-464,372	-87,490	0,130	-0,028
-463,357	-36,867	0,042	-0,016
-462,343	-143,113	-0,008	-0,001
-461,328	412,368	0,096	-0,146
-460,313	799,353	-0,035	0,069
-459,299	120,164	-0,015	-0,013
-458,284	800,000	-0,055	-0,167
-457,270	265,339	0,048	-0,061
-456,255	620,889	-0,054	-0,097
-455,241	-149,611	-0,149	-0,008
-454,226	-200,000	-0,015	-0,058
-453,211	-110,818	0,221	0,032
-452,197	-62,163	0,145	0,043
-451,182	-43,054	0,056	-0,020
-450,168	294,335	0,074	0,097
-449,153	-200,000	-0,009	0,098
-448,138	-200,000	-0,002	0,053
-447,124	-200,000	0,001	0,069
-446,109	-200,000	-0,002	-0,091
-445,095	516,793	0,078	0,131
-444,080	800,000	-0,034	-0,067
-443,065	296,424	0,087	0,115
-442,051	-200,000	0,001	0,088
-441,036	778,909	0,031	0,061
-440,022	730,866	-0,077	-0,149
-439,007	387,293	0,030	-0,044
-437,992	-116,207	-0,052	-0,007
-436,978	800,000	0,061	0,166
-435,963	650,786	0,026	0,048
-434,949	163,134	0,096	-0,097
-433,934	-174,097	-0,179	0,004
-432,919	-200,000	-0,022	-0,132
-431,905	-200,000	0,008	-0,056
-430,890	-141,569	-0,032	0,002
-429,876	-200,000	-0,013	-0,126
-428,861	-200,000	0,018	0,159
-427,846	-200,000	0,001	-0,025
-426,832	76,664	0,082	0,062
-425,817	-43,828	-0,146	0,052
-424,803	156,353	-0,042	-0,041
-423,788	-20,912	0,054	0,023
-422,773	-143,444	0,059	0,004
-421,759	21,513	0,108	0,063
-420,744	-200,000	0,015	0,056
-419,730	224,656	0,023	0,026
-418,715	-200,000	0,018	-0,121
-417,701	316,626	0,071	0,097
-416,686	-74,222	-0,125	0,032
-415,671	-15,462	0,168	0,076
-414,657	-200,000	0,024	-0,137
-413,642	-200,000	-0,018	-0,290
-412,628	-55,718	-0,072	-0,023
-411,613	75,326	-0,060	-0,045
-410,598	-200,000	-0,027	-0,095
-409,584	8,664	0,067	0,036
-408,569	800,000	-0,033	0,096
-407,555	-64,622	0,168	-0,048
-406,540	257,507	-0,099	-0,122
-405,525	-1,923	0,113	-0,057
-404,511	800,000	-0,005	-0,011
-403,496	-82,822	-0,120	-0,027
-402,482	-32,620	0,094	0,037
-401,467	-133,867	0,173	-0,015
-400,452	-110,903	0,094	-0,014
-399,438	694,074	0,017	-0,031
-398,423	-121,608	-0,128	0,015
-397,409	138,264	0,085	0,080
-396,394	225,001	0,088	-0,102
-395,379	-200,000	0,023	0,095
-394,365	-115,858	0,089	0,012
-393,350	272,556	0,072	0,091
-392,336	44,440	-0,124	0,081
-391,321	-200,000	-0,020	0,114
-390,306	-149,350	-0,031	-0,002
-389,292	8,867	-0,034	-0,018
-388,277	-47,967	0,103	-0,035
-387,263	800,000	0,013	0,028
-386,248	-93,563	-0,087	-0,017
-385,233	-146,804	-0,078	0,005
-384,219	-91,270	-0,085	0,017
-383,204	800,000	-0,023	0,061
-382,190	800,000	-0,024	-0,059
-381,175	-46,970	-0,068	-0,023
-380,160	-94,770	0,034	0,006
-379,146	-12,924	0,094	0,044
-378,131	-200,000	0,016	0,079
-377,117	-91,383	0,100	-0,020
-376,102	-200,000	-0,025	-0,084
-375,088	-146,995	-0,132	0,008
-374,073	-16,240	-0,028	0,013
-373,058	-200,000	-0,020	0,073
-372,044	-151,695	0,240	-0,012
-371,029	132,579	0,048	0,044
-370,015	400,565	0,034	0,051
-369,000	-152,641	0,076	-0,004
-367,985	-200,000	-0,017	-0,100
-366,971	-200,000	-0,035	-0,159
-365,956	-78,129	0,019	0,005
-364,942	53,672	-0,019	-0,013
-363,927	-200,000	-0,021	0,121
-362,912	-200,000	0,010	0,049
-361,898	-21,954	-0,050	0,022
-360,883	20,685	-0,054	0,031
-359,869	402,701	-0,069	-0,103
-358,854	-56,199	0,139	0,044
-357,839	-106,919	-0,033	0,005
-356,825	225,050	0,026	0,030
-355,810	-200,000	0,003	0,024
-354,796	44,687	-0,050	-0,033
-353,781	391,509	-0,034	-0,051
-352,766	485,384	-0,072	-0,117
-351,752	800,000	-0,022	-0,047
-350,737	-89,318	-0,065	0,014
-349,723	-200,000	-0,009	0,103
-348,708	-106,274	0,078	0,012
-347,693	-54,674	-0,079	-0,025
-346,679	800,000	-0,058	0,125
-345,664	800,000	-0,058	-0,156
-344,650	-27,589	0,120	0,050
-343,635	-27,022	0,061	0,025
-342,620	-145,964	-0,096	-0,006
-341,606	125,492	-0,021	0,019
-340,591	-54,594	-0,049	0,016
-339,577	174,604	-0,015	-0,016
-338,562	355,847	-0,059	-0,085
-337,548	-200,000	-0,014	-0,077
-336,533	-200,000	-0,000	-0,082
-335,518	-16,127	0,035	0,016
-334,504	-129,780	0,093	-0,009
-333,489	800,000	0,003	-0,008
-332,475	-14,040	-0,117	-0,053
-331,460	-200,000	0,021	-0,094
-330,445	-123,674	0,087	-0,010
-329,431	-200,000	0,003	0,037
-328,416	-76,433	0,052	0,013
-327,402	-200,000	-0,001	0,126
-326,387	711,692	0,009	-0,018
-325,372	800,000	-0,023	0,063
-324,358	-197,216	-0,200	-0,001
-323,343	-200,000	-0,008	-0,066
-322,329	10,823	0,110	0,060
-321,314	-200,000	-0,019	0,162
-320,299	573,876	0,101	0,177
-319,285	334,510	-0,075	-0,103
-318,270	441,871	-0,029	-0,046
-317,256	15,012	0,030	-0,017
-316,241	62,232	-0,030	-0,021
-315,226	800,000	-0,006	-0,013
-314,212	800,000	0,035	-0,071
-313,197	417,734	-0,058	-0,089
-312,183	-45,968	0,153	0,053
-311,168	800,000	0,029	0,082
-310,153	68,067	0,012	-0,009
-309,139	179,766	-0,023	-0,024
-308,124	-87,185	0,148	-0,032
-307,110	-55,509	-0,041	0,013
-306,095	-54,851	0,063	0,020
-305,080	274,876	-0,064	0,081
-304,066	389,790	-0,049	0,073
-303,051	800,000	-0,029	-0,084
-302,037	-158,572	-0,161	-0,006
-301,022	283,764	-0,008	0,010
-300,008	-25,874	0,177	-0,074
-298,993	152,367	0,039	0,037
-297,978	-200,000	-0,001	0,063
-296,964	-43,577	-0,121	-0,043
-295,949	-85,496	0,009	-0,002
-294,935	-30,152	0,035	0,014
-293,920	-200,000	-0,035	-0,109
-292,905	62,561	0,048	0,034
-291,891	800,000	-0,071	0,143
-290,876	-200,000	0,021	0,110
-289,862	-180,500	-0,151	-0,002
-288,847	452,007	0,069	-0,109
-287,832	800,000	0,026	-0,057
-286,818	800,000	0,013	0,035
-285,803	-200,000	0,014	-0,045
-284,789	800,000	0,017	0,045
-283,774	498,270	0,046	0,076
-282,759	32,703	0,042	0,026
-281,745	-200,000	-0,014	-0,069
-280,730	-76,271	-0,078	0,019
-279,716	-200,000	0,007	-0,175
-278,701	-200,000	0,020	-0,110
-277,686	800,000	0,047	-0,094
-276,672	-77,304	0,021	0,005
-275,657	41,897	-0,125	0,080
-274,643	-200,000	-0,014	-0,114
-273,628	-200,000	-0,023	-0,158
-272,613	1,841	0,057	-0,029
-271,599	-21,248	0,119	0,052
-270,584	-61,265	0,145	0,043
-269,570	86,065	-0,117	0,092
-268,555	-143,656	0,047	-0,003
-267,540	-34,319	-0,044	0,017
-266,526	-200,000	0,060	-0,195
-265,511	47,420	0,049	-0,033
-264,497	-200,000	0,032	0,121
-263,482	59,281	-0,033	-0,023
-262,467	-39,069	-0,100	0,037
-261,453	60,050	-0,177	-0,124
-260,438	-23,986	0,140	-0,059
-259,424	-200,000	-0,040	-0,238
-258,409	173,059	0,023	0,023
-257,395	800,000	0,023	0,061
-256,380	111,251	0,093	0,079
-255,365	-200,000	-0,009	0,154
-254,351	800,000	-0,035	-0,091
-253,336	-200,000	0,014	0,083
-252,322	96,528	-0,112	-0,091
-251,307	176,611	0,067	0,069
-250,292	800,000	0,035	-0,082
-249,278	500,026	0,038	0,062
-248,263	-26,029	-0,107	0,044
-247,249	-200,000	0,002	-0,088
-246,234	185,392	0,082	-0,087
-245,219	-65,329	-0,078	-0,022
-244,205	121,106	-0,096	-0,085
-243,190	85,261	-0,065	0,051
-242,176	64,151	-0,012	0,008
-241,161	220,828	-0,028	0,032
-240,146	-52,214	-0,073	-0,024
-239,132	-200,000	-0,029	0,168
-238,117	299,741	0,002	-0,002
-237,103	520,364	-0,024	-0,040
-236,088	253,899	-0,084	-0,103
-235,073	75,663	-0,033	0,025
-234,059	800,000	0,044	0,096
-233,044	800,000	0,033	-0,096
-232,030	-83,702	-0,036	0,008
-231,015	-200,000	0,008	0,061
-230,000	602,564	0,004	0,007
-228,986	484,918	-0,061	0,099
-227,971	-8,665	0,026	-0,012
-226,957	-20,219	0,044	-0,019
-225,942	-200,000	0,028	0,098
-224,927	301,486	-0,019	-0,026
-223,913	15,231	-0,180	0,100
-222,898	800,000	0,025	-0,076
-221,884	19,062	0,071	-0,040
-220,869	-200,000	-0,005	0,057
-219,855	-200,000	-0,002	0,071
-218,840	34,610	0,181	0,112
-217,825	-200,000	-0,002	0,024
-216,811	-93,210	-0,211	-0,041
-215,796	800,000	-0,056	-0,131
-214,782	399,021	0,031	0,046
-213,767	261,079	0,031	0,038
-212,752	-111,895	-0,067	0,009
-211,738	234,903	0,047	-0,056
-210,723	660,266	-0,072	0,132
-209,709	-1,559	-0,048	0,024
-208,694	-200,000	-0,006	-0,070
-207,679	-47,459	-0,097	-0,033
-206,665	-200,000	0,041	0,160
-205,650	6,421	0,200	0,105
-204,636	-16,827	-0,013	0,006
-203,621	60,500	-0,065	-0,045
-202,606	-5,350	-0,102	0,049
-201,592	760,976	-0,053	-0,103
-200,577	-200,000	0,021	-0,140
-199,563	-200,000	0,005	0,071
-198,548	25,515	0,101	-0,059
-197,533	53,185	0,166	0,113
-196,519	-26,399	-0,076	0,032
-195,504	97,189	-0,098	-0,080
-194,490	544,584	-0,058	0,098
-193,475	800,000	-0,033	-0,077
-192,460	-60,798	-0,063	0,019
-191,446	255,842	0,137	0,167
-190,431	800,000	-0,085	0,178
-189,417	-95,589	-0,084	-0,016
-188,402	800,000	0,017	0,049
-187,387	-200,000	-0,027	-0,115
-186,373	56,266	-0,036	-0,025
-185,358	54,975	0,082	-0,056
-184,344	-97,196	-0,092	-0,017
-183,329	-200,000	0,012	-0,043
-182,315	-90,478	0,058	0,012
-181,300	-200,000	0,025	-0,092
-180,285	800,000	0,054	-0,115
-179,271	91,983	0,022	0,018
-178,256	-20,404	0,023	0,010
-177,242	60,693	0,050	0,035
-176,227	-200,000	0,007	0,121
-175,212	-65,565	-0,109	0,031
-174,198	800,000	-0,026	-0,074
-173,183	-91,944	0,100	-0,020
-172,169	91,138	-0,053	-0,042
-171,154	70,163	0,083	-0,061
-170,139	-126,729	0,075	0,008
-169,125	484,073	-0,041	-0,066
-168,110	-96,956	0,190	0,035
-167,096	800,000	0,022	-0,052
-166,081	-200,000	0,007	-0,077
-165,066	-129,437	-0,070	0,007
-164,052	-36,658	0,052	0,020
-163,037	-13,446	0,150	0,069
-162,023	65,077	0,115	-0,082
-161,008	-62,160	0,049	-0,014
-159,993	-63,252	-0,022	0,006
-158,979	275,570	-0,078	-0,098
-157,964	428,121	0,040	-0,061
-156,950	-200,000	0,013	0,043
-155,935	99,157	0,015	-0,012
-154,920	-5,852	-0,063	-0,030
-153,906	-68,997	0,043	-0,012
-152,891	-200,000	-0,015	0,065
-151,877	-134,579	-0,023	0,002
-150,862	77,717	0,026	-0,019
-149,847	212,071	-0,012	0,014
-148,833	625,803	0,095	0,171
-147,818	87,147	0,112	-0,088
-146,804	-91,199	0,144	0,029
-145,789	370,617	-0,103	0,148
-144,775	457,468	-0,049	-0,078
-143,760	-200,000	0,013	-0,111
-142,745	-165,577	0,064	-0,002
-141,731	25,692	-0,145	0,085
-140,716	16,639	0,137	-0,077
-139,702	-25,150	0,096	0,040
-138,687	800,000	-0,068	0,143
-137,672	37,759	-0,073	0,046
-136,658	800,000	0,034	-0,086
-135,643	800,000	-0,056	0,145
-134,629	800,000	-0,028	-0,068
-133,614	-56,160	-0,062	-0,020
-132,599	800,000	0,103	0,258
-131,585	584,624	0,013	-0,022
-130,570	-200,000	-0,021	0,101
-129,556	245,392	-0,094	-0,113
-128,541	-200,000	-0,006	-0,118
-127,526	-200,000	-0,023	-0,094
-126,512	109,751	0,151	0,128
-125,497	-200,000	0,025	0,085
-124,483	707,962	0,042	0,079
-123,468	-200,000	-0,009	0,092
-122,453	0,743	-0,130	-0,066
-121,439	2,847	-0,065	0,033
-120,424	634,577	-0,041	-0,073
-119,410	512,537	0,047	-0,078
-118,395	43,971	-0,166	0,107
-117,380	94,389	-0,100	-0,081
-116,366	-128,978	-0,049	0,005
-115,351	29,612	0,043	0,026
-114,337	67,466	-0,090	-0,065
-113,322	188,121	-0,057	0,060
-112,307	800,000	0,021	0,055
-111,293	-85,513	0,124	-0,027
-110,278	-112,497	0,043	0,006
-109,264	-140,260	-0,028	0,002
-108,249	69,483	-0,065	0,047
-107,234	800,000	-0,030	-0,075
-106,220	69,304	0,094	0,068
-105,205	-200,000	0,004	-0,080
-104,191	-200,000	0,016	0,116
-103,176	800,000	-0,026	0,079
-102,162	-200,000	-0,015	0,141
-101,147	728,516	-0,030	-0,057
-100,132	138,957	-0,077	-0,072
-99,118	60,772	-0,132	-0,092
-98,103	-78,359	0,053	0,013
-97,089	-200,000	0,020	0,071
-96,074	-200,000	0,000	0,112
-95,059	705,441	0,071	0,133
-94,045	-68,886	-0,160	0,043
-93,030	99,999	-0,037	-0,030
-92,016	50,694	0,197	-0,131
-91,001	-74,194	0,065	-0,017
-89,986	-60,773	0,082	0,025
-88,972	82,578	0,078	0,059
-87,957	-194,736	0,220	-0,001
-86,943	15,701	-0,036	0,020
-85,928	-85,560	-0,065	-0,014
-84,913	62,446	-0,097	0,068
-83,899	2,025	-0,068	-0,035
-82,884	-200,000	-0,022	0,105
-81,870	316,553	0,094	-0,126
-80,855	-98,590	0,094	-0,017
-79,840	70,381	0,054	0,039
-78,826	-87,109	0,159	-0,034
-77,811	-200,000	-0,034	-0,114
-76,797	800,000	-0,012	-0,025
-75,782	289,617	-0,052	-0,066
-74,767	225,279	-0,067	0,077
-73,753	201,345	0,037	0,040
-72,738	-138,921	-0,087	-0,007
-71,724	800,000	-0,041	-0,084
-70,709	-55,256	-0,068	-0,022
-69,694	800,000	0,044	-0,125
-68,680	-200,000	-0,012	0,231
-67,665	-31,760	0,113	0,045
-66,651	34,311	0,038	0,024
-65,636	-200,000	0,006	-0,036
-64,622	-151,973	-0,120	-0,006
-63,607	-108,724	0,038	0,006
-62,592	-200,000	-0,023	0,088
-61,578	13,999	0,164	0,090
-60,563	228,734	0,077	0,089
-59,549	800,000	0,127	0,262
-58,534	51,494	-2,196	-1,470
-57,519	469,681	-1,199	-1,908
-56,505	-200,000	-0,173	-4,271
-55,490	657,717	0,934	1,701
-54,476	800,000	5,107	11,186
-53,461	-200,000	22,244	344,562
-52,446	800,000	756,717	2301,135
-51,432	536,024	1644,742	2764,370
-50,417	68,521	1642,631	1186,938
-49,403	15,939	1518,580	841,193
-48,388	10,183	1443,612	772,072
-47,373	19,286	1436,217	811,384
-46,359	13,609	1424,936	778,229
-45,344	8,413	1420,845	751,434
-44,330	8,365	1418,981	750,190
-43,315	8,344	1417,279	749,161
-42,300	8,387	1415,267	748,272
-41,286	8,372	1414,170	747,592
-40,271	8,306	1412,903	746,584
-39,257	8,283	1411,933	745,932
-38,242	8,328	1410,653	745,439
-37,227	8,330	1409,733	744,933
-36,213	8,378	1408,171	744,302
-35,198	8,385	1406,934	743,649
-34,184	8,400	1406,188	743,298
-33,169	8,345	1404,575	742,159
-32,154	8,350	1403,806	741,746
-31,140	8,318	1402,689	740,976
-30,125	8,371	1401,418	740,521
-29,111	8,337	1400,255	739,720
-28,096	8,314	1399,205	739,028
-27,082	8,297	1397,866	738,214
-26,067	8,270	1397,007	737,605
-25,052	8,306	1395,835	737,127
-24,038	8,277	1394,870	736,451
-23,023	8,291	1394,056	736,056
-22,009	8,258	1392,979	735,304
-20,994	8,267	1391,911	734,754
-19,979	8,285	1390,799	734,224
-18,965	8,245	1389,772	733,466
-17,950	8,211	1389,210	732,984
-16,936	8,198	1388,353	732,442
-15,921	8,131	1387,189	731,488
-14,906	8,210	1386,069	731,232
-13,892	8,187	1385,204	730,641
-12,877	8,211	1384,508	730,359
-11,863	8,210	1383,753	729,925
-10,848	8,177	1382,858	729,272
-9,833	8,120	1382,007	728,534
-8,819	8,109	1380,894	727,865
-7,804	8,132	1379,912	727,423
-6,790	8,134	1379,073	726,963
-5,775	8,085	1378,113	726,203
-4,760	8,115	1377,098	725,778
-3,746	8,128	1376,225	725,350
-2,731	8,113	1375,416	724,823
-1,717	8,126	1374,484	724,362
-0,702	8,097	1372,645	723,232
0,313	12,179	1283,970	694,957
1,327	28,134	677,480	402,253
2,342	43,794	116,428	75,020
3,356	-0,144	16,558	8,280
4,371	2,330	3,892	1,978
5,386	55,879	1,220	0,832
6,400	800,000	0,285	0,729
7,415	67,084	-0,183	-0,131
8,429	146,357	-0,246	-0,233
9,444	171,479	-0,207	-0,210
10,459	354,037	-0,305	-0,428
11,473	222,111	-0,195	-0,221
12,488	54,441	-0,193	-0,131
13,502	-1,552	-0,350	-0,173
14,517	81,159	-0,274	-0,208
15,531	-2,364	-0,302	-0,149
16,546	105,350	-0,261	-0,217
17,561	78,027	-0,379	-0,285
18,575	-95,651	-0,195	-0,036
19,590	57,021	-0,349	-0,239
20,604	-132,141	-0,175	-0,016
21,619	44,743	-0,362	-0,234
22,634	138,229	-0,382	-0,353
23,648	158,751	-0,341	-0,334
24,663	198,790	-0,289	-0,312
25,677	-3,961	-0,304	-0,148
26,692	131,871	-0,312	-0,283
27,707	46,233	-0,390	-0,254
28,721	55,493	-0,343	-0,233
29,736	-17,698	-0,369	-0,162
30,750	141,730	-0,329	-0,307
31,765	-134,925	-0,353	-0,030
32,780	40,599	-0,385	-0,244
33,794	28,536	-0,414	-0,246
34,809	99,408	-0,287	-0,233
35,823	65,403	-0,308	-0,219
36,838	4,768	-0,418	-0,215
37,853	-11,330	-0,424	-0,195
38,867	116,921	-0,331	-0,286
39,882	70,546	-0,311	-0,226
40,896	-31,429	-0,322	-0,127
41,911	50,712	-0,454	-0,302
42,926	6,949	-0,324	-0,169
43,940	22,675	-0,369	-0,212
44,955	123,552	-0,295	-0,260
45,969	-81,233	-0,392	-0,090
46,984	58,995	-0,276	-0,191
47,999	83,090	-0,307	-0,235
49,013	95,970	-0,276	-0,222
50,028	4,456	-0,227	-0,117
51,042	10,509	-0,444	-0,237
52,057	-31,341	-0,341	-0,134
53,071	38,208	-0,391	-0,244
54,086	61,635	-0,343	-0,239
55,101	-30,638	-0,447	-0,177
56,115	305,841	-0,224	-0,293
57,130	172,558	-0,262	-0,264
58,144	29,021	-0,317	-0,188
59,159	18,177	-0,332	-0,185
60,174	-22,970	-0,287	-0,121
61,188	-6,026	-0,250	-0,119
62,203	800,000	-0,077	-0,188
63,217	38,200	-0,235	-0,146
64,232	39,570	-0,333	-0,209
65,247	153,201	-0,236	-0,226
66,261	136,722	-0,291	-0,266
67,276	177,330	-0,211	-0,216
68,290	1,299	-0,330	-0,166
69,305	-2,707	-0,272	-0,133
70,320	-158,870	-0,154	-0,006
71,334	68,542	-0,337	-0,242
72,349	67,903	-0,343	-0,245
73,363	-21,026	-0,374	-0,160
74,378	-24,520	-0,200	-0,083
75,393	54,687	-0,320	-0,216
76,407	-86,532	-0,293	-0,063
77,422	2,663	-0,298	-0,151
78,436	-29,042	-0,337	-0,135
79,451	33,011	-0,314	-0,190
80,466	164,990	-0,239	-0,236
81,480	-76,959	-0,300	-0,073
82,495	143,491	-0,308	-0,288
83,509	674,807	-0,128	-0,234
84,524	33,500	-0,346	-0,210
85,539	-61,940	-0,338	-0,098
86,553	270,882	-0,173	-0,213
87,568	53,013	-0,332	-0,222
88,582	32,894	-0,361	-0,218
89,597	-162,443	-0,321	-0,011
90,611	150,492	-0,253	-0,241
91,626	74,302	-0,261	-0,192
92,641	-44,312	-0,255	-0,089
93,655	438,143	-0,170	-0,260
94,670	59,018	-0,264	-0,181
95,684	16,256	-0,336	-0,185
96,699	-74,223	-0,363	-0,091
97,714	-68,454	-0,345	-0,093
98,728	800,000	-0,130	-0,255
99,743	161,261	-0,278	-0,272
100,757	2,794	-0,294	-0,148
101,772	-199,599	-0,337	0,001
102,787	800,000	-0,166	-0,349
103,801	50,056	-0,292	-0,192
104,816	264,554	-0,217	-0,264
105,830	65,285	-0,342	-0,241
106,845	-151,494	-0,314	-0,016
107,860	68,939	-0,185	-0,133
108,874	47,817	-0,286	-0,186
109,889	98,147	-0,312	-0,251
110,903	673,957	-0,136	-0,247
111,918	-93,305	-0,311	-0,060
112,933	182,311	-0,182	-0,188
113,947	15,094	-0,280	-0,153
114,962	-1,595	-0,259	-0,127
115,976	-19,466	-0,291	-0,125
116,991	314,220	-0,299	-0,393
118,006	41,614	-0,295	-0,186
119,020	27,360	-0,319	-0,187
120,035	8,326	-0,370	-0,194
121,049	-5,519	-0,230	-0,110
122,064	28,041	-0,254	-0,149
123,079	-51,411	-0,286	-0,093
124,093	-42,474	-0,224	-0,079
125,108	129,904	-0,193	-0,173
126,122	165,078	-0,212	-0,209
127,137	-6,928	-0,253	-0,119
128,151	-118,081	-0,326	-0,040
129,166	99,420	-0,126	-0,102
130,181	44,326	-0,204	-0,130
131,195	1,942	-0,252	-0,126
132,210	43,178	-0,392	-0,249
133,224	272,318	-0,179	-0,220
134,239	74,894	-0,161	-0,118
135,254	156,240	-0,187	-0,179
136,268	151,416	-0,177	-0,168
137,283	136,503	-0,193	-0,176
138,297	105,624	-0,300	-0,247
139,312	-25,960	-0,320	-0,131
140,327	174,839	-0,248	-0,250
141,341	144,396	-0,191	-0,177
142,356	75,548	-0,260	-0,191
143,370	15,883	-0,263	-0,144
144,385	15,570	-0,320	-0,175
145,400	129,909	-0,144	-0,128
146,414	157,204	-0,266	-0,256
147,429	68,184	-0,228	-0,163
148,443	-79,757	-0,174	-0,040
149,458	82,379	-0,206	-0,155
150,473	-69,607	-0,150	-0,040
151,487	134,204	-0,198	-0,178
152,502	131,922	-0,332	-0,298
153,516	7,223	-0,170	-0,088
154,531	12,964	-0,387	-0,208
155,546	244,562	-0,276	-0,323
156,560	121,661	-0,262	-0,227
157,575	107,931	-0,212	0,176
158,589	-5,316	-0,173	-0,082
159,604	-136,596	-0,200	0,016
160,619	-37,207	-0,289	-0,107
161,633	82,179	-0,272	-0,205
162,648	148,758	-0,162	-0,152
163,662	-200,000	-0,096	-0,317
164,677	10,488	-0,214	-0,113
165,692	131,072	-0,204	-0,182
166,706	79,238	-0,150	-0,111
167,721	70,268	-0,263	-0,188
168,735	12,896	-0,252	-0,135
169,750	-85,315	-0,269	-0,058
170,764	159,834	-0,211	-0,204
171,779	-26,483	-0,115	-0,047
172,794	0,002	-0,278	-0,137
173,808	800,000	-0,062	-0,152
174,823	-14,573	-0,368	-0,164
175,837	-63,356	-0,229	-0,065
176,852	219,715	-0,136	-0,152
177,867	39,941	-0,119	-0,074
178,881	75,238	-0,306	-0,223
179,896	-110,944	-0,219	-0,031
180,910	-124,560	-0,318	-0,034
181,925	131,600	-0,096	-0,086
182,940	90,518	-0,219	-0,170
183,954	-28,011	-0,193	-0,077
184,969	-32,719	-0,263	-0,101
185,983	-0,374	-0,161	-0,079
186,998	36,211	-0,270	-0,164
188,013	151,760	-0,197	-0,186
189,027	75,255	-0,203	-0,149
190,042	94,180	-0,211	-0,166
191,056	-64,993	-0,227	0,063
192,071	201,648	-0,108	-0,116
193,086	-139,337	-0,286	-0,021
194,100	60,286	-0,224	-0,153
195,115	376,712	-0,159	-0,226
196,129	-49,987	-0,212	-0,069
197,144	143,000	-0,305	-0,281
198,159	-66,876	-0,287	-0,078
199,173	165,188	-0,254	-0,249
200,188	-31,696	-0,217	-0,084
201,202	-56,384	-0,197	-0,060
202,217	-10,126	-0,204	-0,093
203,232	194,360	-0,088	-0,093
204,246	15,681	-0,130	-0,071
205,261	82,041	-0,210	-0,158
206,275	139,985	-0,204	-0,186
207,290	800,000	-0,096	-0,198
208,304	6,604	-0,202	-0,104
209,319	-78,382	-0,179	0,042
210,334	24,566	-0,193	-0,110
211,348	90,450	-0,310	-0,240
212,363	-1,929	-0,222	-0,108
213,377	228,699	-0,184	-0,208
214,392	800,000	0,014	-0,040
215,407	-138,279	-0,179	-0,014
216,421	241,523	-0,135	-0,156
217,436	289,940	-0,222	-0,279
218,450	145,094	-0,204	-0,189
219,465	129,156	-0,291	-0,257
220,480	45,434	-0,224	-0,143
221,494	-69,448	-0,195	-0,051
222,509	-88,475	-0,236	-0,048
223,523	-38,794	-0,300	-0,109
224,538	573,984	-0,075	-0,127
225,553	41,046	-0,239	-0,149
226,567	494,741	-0,046	-0,073
227,582	-2,634	-0,142	-0,068
228,596	652,027	-0,124	-0,220
229,611	33,169	-0,179	-0,107
230,626	-200,000	0,000	-0,007
231,640	90,866	-0,152	-0,117
232,655	62,159	-0,210	-0,144
233,669	373,250	-0,163	-0,229
234,684	261,500	-0,137	-0,164
235,699	16,351	-0,172	-0,094
236,713	-134,990	-0,160	0,013
237,728	-134,361	-0,071	-0,006
238,742	-29,425	-0,113	-0,044
239,757	-56,291	-0,215	-0,065
240,772	-123,745	-0,315	0,034
241,786	-52,282	-0,315	-0,100
242,801	153,020	-0,083	-0,078
243,815	-140,260	-0,313	-0,022
244,830	-63,735	-0,065	0,018
245,844	259,187	-0,117	-0,140
246,859	-32,426	-0,203	-0,078
247,874	-74,782	-0,268	-0,066
248,888	800,000	-0,096	-0,213
249,903	-38,113	-0,353	-0,129
250,917	60,791	-0,159	0,109
251,932	112,426	-0,166	-0,138
252,947	23,013	-0,112	-0,063
253,961	-41,163	-0,233	-0,082
254,976	171,119	-0,235	-0,233
255,990	35,114	-0,250	-0,150
257,005	-91,080	-0,123	0,024
258,020	65,447	-0,183	-0,127
259,034	-111,834	-0,166	0,023
260,049	742,187	-0,107	-0,200
261,063	-59,261	-0,160	0,047
262,078	308,669	-0,152	-0,196
263,093	-133,443	-0,182	-0,016
264,107	211,756	-0,101	-0,110
265,122	-151,547	-0,181	-0,009
266,136	238,749	-0,124	-0,143
267,151	196,579	-0,083	-0,087
268,166	76,695	-0,159	-0,116
269,180	73,787	-0,199	-0,144
270,195	149,445	-0,220	-0,206
271,209	23,692	-0,159	-0,090
272,224	40,030	-0,112	-0,069
273,239	-101,207	-0,135	-0,023
274,253	-159,548	-0,236	0,009
275,268	215,045	-0,142	-0,155
276,282	-140,541	-0,323	0,023
277,297	10,734	-0,255	-0,134
278,312	-15,063	-0,177	-0,078
279,326	183,628	-0,071	-0,072
280,341	135,551	-0,145	-0,130
281,355	186,740	-0,158	-0,162
282,370	-117,356	-0,164	0,020
283,384	271,579	-0,175	-0,212
284,399	11,999	-0,215	-0,114
285,414	-12,362	-0,241	-0,108
286,428	220,696	-0,173	-0,191
287,443	-200,000	-0,063	-0,214
288,457	-200,000	-0,030	-0,133
289,472	92,299	-0,165	-0,128
290,487	275,692	-0,137	-0,168
291,501	-40,763	-0,207	-0,073
292,516	-76,807	-0,175	-0,042
293,530	-47,312	-0,123	-0,041
294,545	-90,621	-0,205	-0,040
295,560	-52,540	-0,201	-0,063
296,574	316,492	-0,063	-0,082
297,589	-200,000	-0,049	-0,191
298,603	-23,699	-0,262	-0,107
299,618	-41,104	-0,162	0,057
300,633	667,540	-0,044	-0,079
301,647	135,033	-0,091	-0,081
302,662	-21,283	-0,255	-0,107
303,676	-61,220	-0,121	0,035
304,691	14,739	-0,154	-0,082
305,706	-200,000	-0,046	-0,147
306,720	166,689	-0,214	-0,208
307,735	464,300	-0,113	-0,175
308,749	-82,255	-0,194	0,043
309,764	-5,583	-0,064	0,030
310,779	-49,647	-0,128	-0,042
311,793	30,726	-0,199	-0,117
312,808	-34,155	-0,220	-0,083
313,822	175,648	-0,203	-0,203
314,837	-91,648	-0,141	-0,027
315,852	-111,564	-0,191	0,026
316,866	-100,206	-0,025	0,004
317,881	598,214	-0,044	0,075
318,895	-85,742	-0,094	-0,020
319,910	43,275	-0,173	-0,108
320,925	15,693	-0,149	-0,080
321,939	173,652	-0,093	-0,092
322,954	-142,080	-0,157	0,011
323,968	122,367	0,012	0,010
324,983	86,855	-0,235	-0,178
325,997	-116,224	-0,180	0,023
327,012	7,626	-0,111	-0,057
328,027	614,936	-0,118	-0,204
329,041	304,681	-0,063	0,080
330,056	-117,382	-0,129	-0,016
331,070	9,116	-0,113	-0,059
332,085	142,514	-0,126	-0,115
333,100	56,165	-0,119	0,079
334,114	-78,420	-0,144	0,033
335,129	-97,709	-0,186	-0,033
336,143	800,000	-0,064	-0,147
337,158	-200,000	0,011	-0,058
338,173	-122,969	-0,087	-0,009
339,187	-128,850	-0,149	-0,014
340,202	-200,000	-0,003	-0,095
341,216	65,462	-0,175	-0,121
342,231	293,279	-0,065	-0,081
343,246	-19,917	-0,158	-0,066
344,260	244,246	0,053	-0,061
345,275	-152,464	-0,103	0,005
346,289	-200,000	-0,014	0,140
347,304	115,075	-0,138	-0,116
348,319	-85,776	-0,150	-0,032
349,333	-140,611	-0,184	-0,013
350,348	6,544	-0,161	-0,082
351,362	800,000	-0,092	-0,183
352,377	-200,000	-0,036	-0,113
353,392	199,260	-0,158	-0,166
354,406	-49,549	-0,250	-0,081
355,421	207,868	1304,707	1394,634
356,435	159,923	1464,190	1395,111
