DTS Sentinel unit serial number:	SN410029Multiplexer serial number:	ORYXHardware model number:	OX2-SRSoftware version number:	ORYX F/W v4,00 Oryx Data Collector v3.7.2.0data status	okinstallation	B3 Nyhavnadifferential loss correction	single-endedforward channel	channel 1reverse channel	N/Adate	2023/12/03time	15:07:30forward acquisition time	300,00reverse acquisition time	0,00gamma	499,1914k internal	0,3196k external	0,3196temperature offset calibration	1,0000default loss term (dB/km)	0,3820temperature slope calibration	1,0000multiplexer offset coefficient	1,0000multiplexer slope coefficient	1,0000fibre end	0,00T internal ref (°C)	15,87T ext. ref 1 (°C)	0,64T ext. ref 2 (°C)	0,65length (m)	temperature (°C)	Stokes	anti-Stokes-744,400	81,736	-0,206	-0,162
-743,385	-200,000	0,035	0,373
-742,371	120,675	-0,211	-0,191
-741,356	-200,000	0,092	0,403
-740,342	146,497	-0,227	-0,222
-739,327	800,000	0,085	0,216
-738,312	-17,016	-0,199	-0,091
-737,298	-200,000	-0,067	0,282
-736,283	71,088	-0,273	-0,206
-735,269	-200,000	0,022	0,323
-734,254	217,042	-0,032	-0,037
-733,239	85,436	-0,067	0,053
-732,225	-200,000	-0,045	-0,279
-731,210	-107,213	0,209	0,033
-730,196	347,990	-0,066	-0,095
-729,181	428,164	0,079	-0,125
-728,167	-200,000	0,022	-0,073
-727,152	800,000	0,020	-0,046
-726,137	73,495	-0,052	-0,040
-725,123	-200,000	0,004	-0,048
-724,108	-200,000	-0,009	-0,097
-723,094	-39,824	-0,066	0,025
-722,079	-58,988	-0,032	0,010
-721,064	125,422	-0,067	-0,062
-720,050	-200,000	0,002	0,107
-719,035	-78,356	-0,084	0,021
-718,021	-56,469	0,120	-0,038
-717,006	271,372	0,106	0,136
-715,991	-200,000	0,031	-0,222
-714,977	83,087	-0,138	-0,109
-713,962	-200,000	0,087	0,000
-712,948	-200,000	0,001	-0,091
-711,933	-61,685	0,048	0,015
-710,918	-94,020	-0,233	-0,046
-709,904	46,721	-0,087	-0,059
-708,889	385,631	0,004	0,006
-707,875	124,907	-0,053	-0,048
-706,860	-28,897	-0,023	0,010
-705,845	800,000	0,049	-0,103
-704,831	-137,756	0,132	0,011
-703,816	-164,711	-0,086	-0,003
-702,802	800,000	0,036	-0,091
-701,787	800,000	-0,029	-0,062
-700,772	56,316	-0,070	-0,050
-699,758	-147,647	0,030	-0,002
-698,743	800,000	-0,052	-0,122
-697,729	-200,000	-0,020	0,109
-696,714	-200,000	0,013	-0,056
-695,699	404,727	-0,045	0,069
-694,685	-143,011	0,012	-0,001
-693,670	800,000	-0,057	-0,136
-692,656	-28,285	0,085	-0,036
-691,641	82,437	0,036	-0,028
-690,627	-128,212	0,106	0,011
-689,612	389,559	-0,058	-0,087
-688,597	800,000	0,018	0,057
-687,583	162,882	-0,132	-0,135
-686,568	-181,912	-0,071	-0,001
-685,554	-200,000	-0,010	0,037
-684,539	-200,000	0,031	0,168
-683,524	325,218	-0,017	-0,023
-682,510	-200,000	0,015	-0,063
-681,495	-200,000	-0,025	-0,108
-680,481	-129,666	0,058	0,006
-679,466	-28,288	-0,058	-0,024
-678,451	-54,580	0,087	-0,028
-677,437	-200,000	0,007	0,112
-676,422	179,970	0,057	-0,060
-675,408	-67,384	0,012	0,003
-674,393	-200,000	-0,044	0,175
-673,378	418,035	0,020	0,031
-672,364	800,000	0,008	-0,024
-671,349	-153,684	0,157	0,008
-670,335	272,501	-0,017	0,022
-669,320	-200,000	-0,013	0,075
-668,305	-200,000	0,020	0,070
-667,291	800,000	-0,054	-0,111
-666,276	12,881	0,033	0,019
-665,262	-120,977	-0,113	-0,014
-664,247	-200,000	0,002	-0,170
-663,232	-200,000	-0,007	0,038
-662,218	800,000	0,024	0,059
-661,203	-200,000	0,005	-0,045
-660,189	88,240	-0,104	0,084
-659,174	357,371	0,042	-0,061
-658,159	-200,000	-0,007	-0,109
-657,145	800,000	-0,109	-0,270
-656,130	36,374	-0,088	-0,056
-655,116	-200,000	-0,004	0,027
-654,101	82,586	0,050	0,039
-653,086	-200,000	0,003	0,035
-652,072	800,000	0,073	-0,156
-651,057	34,716	-0,023	-0,014
-650,043	800,000	0,051	0,109
-649,028	10,312	0,118	-0,065
-648,014	-200,000	-0,017	-0,169
-646,999	-200,000	0,004	0,079
-645,984	-200,000	-0,014	0,051
-644,970	800,000	-0,035	0,110
-643,955	-48,390	-0,078	-0,027
-642,941	-95,785	-0,100	0,019
-641,926	-200,000	-0,005	-0,032
-640,911	800,000	0,029	0,082
-639,897	256,353	0,036	-0,045
-638,882	800,000	0,022	0,059
-637,868	477,819	0,019	0,031
-636,853	-96,598	-0,080	0,015
-635,838	-200,000	0,020	0,080
-634,824	47,622	0,058	-0,039
-633,809	-149,847	-0,067	-0,004
-632,795	800,000	-0,060	0,169
-631,780	800,000	0,016	-0,034
-630,765	293,825	0,030	0,040
-629,751	-200,000	0,016	-0,082
-628,736	-134,068	0,015	-0,001
-627,722	185,529	0,012	0,013
-626,707	-75,706	-0,080	-0,020
-625,692	-200,000	-0,034	-0,156
-624,678	-200,000	0,013	-0,056
-623,663	-200,000	0,017	-0,094
-622,649	-200,000	-0,028	-0,161
-621,634	-78,404	0,029	0,007
-620,619	-10,538	0,039	0,019
-619,605	-200,000	-0,016	-0,100
-618,590	-126,909	-0,099	-0,010
-617,576	84,936	-0,035	0,028
-616,561	-132,196	0,120	0,011
-615,546	-8,513	-0,206	0,100
-614,532	32,003	-0,087	-0,054
-613,517	-200,000	-0,008	0,066
-612,503	800,000	0,016	0,042
-611,488	-200,000	-0,001	0,055
-610,474	57,918	0,131	0,093
-609,459	435,962	-0,048	-0,076
-608,444	800,000	0,042	0,111
-607,430	-30,442	0,085	-0,035
-606,415	305,122	-0,129	-0,174
-605,401	-200,000	-0,026	-0,165
-604,386	82,087	0,060	-0,047
-603,371	11,365	0,110	-0,061
-602,357	-200,000	-0,020	0,131
-601,342	-86,409	0,135	0,030
-600,328	800,000	-0,017	-0,041
-599,313	-200,000	-0,015	-0,075
-598,298	-9,300	0,021	-0,010
-597,284	-34,656	-0,036	0,014
-596,269	-23,610	0,029	-0,012
-595,255	-165,867	-0,024	-0,001
-594,240	21,358	-0,128	-0,075
-593,225	-200,000	-0,043	-0,141
-592,211	166,677	0,110	-0,113
-591,196	-143,312	0,104	0,007
-590,182	-38,427	0,077	-0,029
-589,167	-101,770	0,141	0,024
-588,152	800,000	-0,036	-0,084
-587,138	-85,325	0,069	0,016
-586,123	800,000	-0,027	-0,065
-585,109	-30,403	-0,106	0,043
-584,094	352,836	0,054	0,077
-583,079	800,000	0,057	0,123
-582,065	-101,327	0,089	-0,016
-581,050	800,000	-0,010	-0,023
-580,036	46,360	-0,010	0,006
-579,021	800,000	-0,041	-0,111
-578,006	319,290	0,057	-0,078
-576,992	-44,077	-0,110	0,040
-575,977	105,230	-0,005	0,005
-574,963	-99,939	0,171	-0,031
-573,948	-200,000	-0,010	0,111
-572,934	37,588	0,029	-0,019
-571,919	-86,381	-0,104	-0,023
-570,904	-76,754	-0,107	0,027
-569,890	-110,273	-0,042	0,006
-568,875	800,000	-0,037	0,099
-567,861	-200,000	0,005	0,064
-566,846	105,392	0,047	0,040
-565,831	70,562	-0,107	0,080
-564,817	16,362	0,102	-0,058
-563,802	800,000	-0,035	-0,109
-562,788	626,831	0,026	0,048
-561,773	800,000	-0,012	-0,026
-560,758	483,601	-0,046	0,076
-559,744	-35,617	0,129	-0,050
-558,729	43,090	-0,040	0,026
-557,715	81,439	0,025	-0,019
-556,700	800,000	0,039	-0,098
-555,685	-39,084	-0,164	-0,062
-554,671	687,197	-0,037	-0,070
-553,656	28,019	0,146	0,089
-552,642	-138,369	0,072	0,006
-551,627	195,075	-0,013	-0,015
-550,612	800,000	-0,049	0,126
-549,598	65,314	-0,063	-0,046
-548,583	265,643	0,091	0,115
-547,569	83,940	0,137	-0,108
-546,554	66,604	0,023	0,017
-545,539	-36,179	-0,146	0,057
-544,525	27,005	0,048	0,029
-543,510	360,522	0,021	-0,031
-542,496	-200,000	0,001	-0,144
-541,481	193,297	-0,075	-0,082
-540,466	68,909	0,030	-0,022
-539,452	800,000	-0,027	-0,055
-538,437	-200,000	0,019	0,101
-537,423	-200,000	-0,001	0,041
-536,408	-64,343	-0,098	-0,029
-535,393	-49,179	-0,109	-0,037
-534,379	-87,064	-0,050	0,011
-533,364	-200,000	-0,019	-0,070
-532,350	-200,000	0,059	0,192
-531,335	-37,076	0,045	-0,017
-530,321	-200,000	-0,011	0,076
-529,306	-2,994	-0,039	-0,019
-528,291	-133,425	-0,058	0,005
-527,277	536,335	-0,075	-0,129
-526,262	277,490	-0,039	0,050
-525,248	800,000	0,040	0,084
-524,233	-200,000	0,012	-0,064
-523,218	-11,089	-0,091	0,043
-522,204	-145,467	0,110	0,007
-521,189	800,000	-0,067	0,169
-520,175	207,820	-0,056	-0,063
-519,160	503,838	0,063	-0,106
-518,145	-200,000	0,000	0,001
-517,131	800,000	-0,030	-0,063
-516,116	88,252	-0,047	0,038
-515,102	451,377	-0,085	0,135
-514,087	-200,000	0,027	0,187
-513,072	-72,889	0,134	-0,035
-512,058	-104,284	-0,078	0,013
-511,043	12,913	-0,062	0,035
-510,029	324,953	-0,055	0,077
-509,014	-93,436	0,152	-0,030
-507,999	-147,726	0,072	-0,004
-506,985	-49,156	-0,068	-0,023
-505,970	171,141	-0,157	-0,163
-504,956	-200,000	0,006	-0,145
-503,941	-72,823	-0,073	0,019
-502,926	-156,364	-0,055	-0,002
-501,912	-200,000	-0,005	0,023
-500,897	-200,000	0,017	0,087
-499,883	87,521	0,046	-0,036
-498,868	800,000	0,024	-0,060
-497,853	-200,000	-0,001	-0,062
-496,839	472,064	-0,044	-0,072
-495,824	-200,000	-0,004	-0,077
-494,810	176,216	0,017	0,018
-493,795	-24,860	-0,060	0,026
-492,781	-63,710	-0,100	0,030
-491,766	-200,000	0,001	-0,007
-490,751	-27,372	-0,058	0,024
-489,737	92,485	-0,021	-0,017
-488,722	195,805	0,067	-0,074
-487,708	8,520	-0,085	0,046
-486,693	457,630	0,111	0,178
-485,678	452,659	-0,005	0,009
-484,664	149,312	0,126	0,123
-483,649	800,000	-0,022	0,057
-482,635	800,000	0,023	0,046
-481,620	602,625	0,014	0,026
-480,605	619,087	0,035	-0,064
-479,591	28,300	-0,087	0,053
-478,576	522,297	0,054	0,091
-477,562	-83,736	-0,118	-0,027
-476,547	126,819	-0,075	-0,068
-475,532	25,720	0,043	0,026
-474,518	-153,234	0,116	0,006
-473,503	194,424	-0,070	-0,077
-472,489	-161,012	0,124	-0,005
-471,474	79,346	0,132	0,102
-470,459	133,794	-0,197	-0,184
-469,445	121,175	0,069	-0,062
-468,430	4,342	0,057	-0,030
-467,416	-107,430	0,059	-0,009
-466,401	410,169	0,046	0,070
-465,386	800,000	0,046	-0,132
-464,372	-36,190	0,092	0,035
-463,357	392,377	0,040	-0,060
-462,343	196,970	-0,046	-0,050
-461,328	-200,000	-0,005	-0,051
-460,313	-200,000	0,005	0,084
-459,299	10,577	-0,053	-0,029
-458,284	-172,660	0,172	0,004
-457,270	-200,000	-0,035	0,165
-456,255	44,408	-0,142	0,094
-455,241	229,714	-0,044	0,052
-454,226	144,632	0,058	0,056
-453,211	352,494	-0,078	0,112
-452,197	135,394	-0,048	0,045
-451,182	-29,791	0,101	0,041
-450,168	-200,000	0,005	0,051
-449,153	123,623	0,021	0,019
-448,138	135,028	0,046	0,043
-447,124	-200,000	0,013	-0,046
-446,109	-200,000	0,005	0,021
-445,095	-50,401	0,101	0,034
-444,080	219,654	0,067	0,077
-443,065	36,795	0,114	0,072
-442,051	800,000	-0,015	-0,044
-441,036	696,730	-0,043	-0,081
-440,022	800,000	0,032	0,102
-439,007	-17,238	0,095	-0,043
-437,992	22,787	-0,057	0,034
-436,978	800,000	-0,044	0,129
-435,963	-68,380	-0,057	0,016
-434,949	800,000	0,024	-0,075
-433,934	-200,000	0,023	-0,081
-432,919	800,000	-0,039	0,089
-431,905	4,195	-0,079	0,042
-430,890	-150,629	0,080	0,004
-429,876	-200,000	-0,022	0,128
-428,861	196,392	0,025	-0,028
-427,846	335,858	-0,015	-0,021
-426,832	-125,552	-0,050	0,005
-425,817	1,989	0,070	-0,036
-424,803	487,663	-0,019	-0,032
-423,788	2,199	0,083	0,043
-422,773	-32,822	-0,089	0,035
-421,759	-97,860	-0,152	0,028
-420,744	622,852	0,056	-0,102
-419,730	800,000	-0,020	-0,041
-418,715	-5,716	-0,097	-0,047
-417,701	346,370	-0,042	0,059
-416,686	23,417	0,058	0,034
-415,671	-79,871	0,102	0,025
-414,657	348,186	0,045	0,063
-413,642	-200,000	0,017	0,118
-412,628	800,000	-0,078	-0,190
-411,613	-18,670	-0,089	0,040
-410,598	-10,366	-0,030	-0,014
-409,584	45,870	0,024	-0,016
-408,569	-13,408	0,040	-0,019
-407,555	-200,000	-0,043	0,159
-406,540	-200,000	0,001	0,061
-405,525	53,106	0,021	0,015
-404,511	-89,966	-0,190	-0,040
-403,496	-200,000	-0,027	-0,106
-402,482	-3,196	0,052	-0,026
-401,467	36,936	0,068	0,043
-400,452	-200,000	0,005	0,061
-399,438	800,000	-0,027	0,075
-398,423	-125,629	-0,055	-0,006
-397,409	-30,655	0,099	0,040
-396,394	276,752	-0,046	-0,059
-395,379	-56,520	0,148	-0,047
-394,365	-39,552	-0,084	0,031
-393,350	-90,675	0,125	0,026
-392,336	105,644	-0,088	0,075
-391,321	-39,925	-0,181	0,067
-390,306	34,572	-0,028	0,017
-389,292	90,602	-0,054	-0,044
-388,277	-64,528	0,066	0,019
-387,263	800,000	0,063	-0,172
-386,248	-77,459	-0,125	0,031
-385,233	-200,000	0,005	-0,086
-384,219	-71,495	-0,034	0,009
-383,204	-200,000	0,016	-0,086
-382,190	-200,000	-0,008	0,000
-381,175	-200,000	0,004	-0,041
-380,160	-46,788	0,021	-0,007
-379,146	293,187	-0,130	-0,171
-378,131	-10,920	0,136	-0,064
-377,117	-63,642	0,053	-0,016
-376,102	98,584	0,135	-0,112
-375,088	800,000	-0,054	-0,147
-374,073	-178,011	0,079	0,001
-373,058	-200,000	-0,025	0,088
-372,044	-60,331	0,137	0,041
-371,029	800,000	0,042	-0,124
-370,015	-200,000	0,003	0,036
-369,000	-200,000	-0,010	0,048
-367,985	-10,117	0,053	-0,025
-366,971	264,195	-0,087	-0,109
-365,956	-200,000	-0,008	-0,038
-364,942	-109,847	0,034	0,005
-363,927	800,000	0,073	0,217
-362,912	1,234	0,028	0,015
-361,898	133,216	-0,076	-0,070
-360,883	-200,000	0,007	0,029
-359,869	430,905	-0,073	0,114
-358,854	-200,000	-0,015	0,103
-357,839	194,569	0,091	0,100
-356,825	-145,949	0,054	0,003
-355,810	455,987	-0,079	0,127
-354,796	-66,261	-0,067	0,019
-353,781	-200,000	-0,001	-0,116
-352,766	800,000	-0,047	0,114
-351,752	-200,000	0,015	0,150
-350,737	-200,000	0,039	-0,186
-349,723	-32,517	0,058	0,023
-348,708	800,000	-0,035	0,086
-347,693	165,954	-0,084	0,086
-346,679	-200,000	-0,028	-0,098
-345,664	32,314	0,100	-0,062
-344,650	-73,419	0,115	0,030
-343,635	-71,800	0,051	-0,014
-342,620	197,619	-0,094	-0,103
-341,606	202,372	0,038	0,042
-340,591	800,000	0,020	0,044
-339,577	-200,000	-0,005	-0,023
-338,562	-200,000	0,024	-0,079
-337,548	-200,000	-0,027	0,143
-336,533	238,878	0,093	0,112
-335,518	800,000	-0,026	0,068
-334,504	-56,656	-0,130	-0,041
-333,489	-200,000	-0,013	-0,093
-332,475	630,958	-0,049	-0,089
-331,460	800,000	0,048	0,141
-330,445	800,000	-0,037	0,076
-329,431	7,052	0,048	-0,026
-328,416	319,518	0,057	0,078
-327,402	388,242	-0,064	0,095
-326,387	772,394	0,056	-0,109
-325,372	-42,575	0,031	-0,011
-324,358	800,000	-0,027	-0,082
-323,343	-68,848	0,070	0,019
-322,329	321,577	0,009	0,012
-321,314	-109,820	0,061	0,009
-320,299	-200,000	0,003	-0,058
-319,285	-200,000	0,003	-0,031
-318,270	800,000	-0,020	-0,042
-317,256	530,786	0,082	-0,139
-316,241	31,683	-0,029	-0,018
-315,226	-70,950	0,050	0,014
-314,212	-92,355	0,010	-0,002
-313,197	46,553	-0,115	0,077
-312,183	-200,000	-0,025	0,088
-311,168	800,000	0,047	0,096
-310,153	-162,306	-0,153	-0,005
-309,139	-31,365	-0,131	-0,053
-308,124	92,854	0,179	0,144
-307,110	114,200	-0,071	-0,062
-306,095	-200,000	0,011	0,180
-305,080	212,981	-0,130	0,148
-304,066	-19,987	0,013	-0,006
-303,051	-200,000	0,011	0,070
-302,037	152,702	-0,142	-0,139
-301,022	98,355	-0,034	-0,028
-300,008	-200,000	-0,005	-0,075
-298,993	-200,000	-0,027	-0,122
-297,978	-200,000	-0,059	-0,199
-296,964	-200,000	-0,016	-0,095
-295,949	-50,298	0,087	0,029
-294,935	25,448	-0,029	0,017
-293,920	-200,000	0,037	-0,171
-292,905	800,000	0,032	-0,065
-291,891	12,610	0,033	-0,018
-290,876	-10,274	0,106	0,050
-289,862	-29,628	-0,097	0,040
-288,847	-1,448	-0,139	-0,070
-287,832	-200,000	-0,017	-0,112
-286,818	105,010	0,090	-0,076
-285,803	-200,000	0,016	-0,071
-284,789	-109,665	0,064	0,010
-283,774	601,177	-0,042	0,076
-282,759	800,000	-0,021	0,046
-281,745	-37,336	0,141	-0,054
-280,730	-200,000	0,000	0,005
-279,716	-200,000	-0,012	-0,066
-278,701	800,000	-0,041	0,106
-277,686	-200,000	0,003	-0,174
-276,672	-200,000	0,030	0,095
-275,657	79,539	-0,039	-0,030
-274,643	386,378	-0,054	0,080
-273,628	-20,805	-0,076	-0,033
-272,613	-200,000	0,034	-0,169
-271,599	-200,000	-0,009	0,177
-270,584	-200,000	0,165	0,000
-269,570	-200,000	0,008	0,044
-268,555	-61,296	-0,047	0,014
-267,540	68,187	-0,039	0,029
-266,526	800,000	-0,007	0,018
-265,511	-200,000	-0,015	0,104
-264,497	-76,649	-0,185	0,046
-263,482	800,000	0,034	-0,078
-262,467	-200,000	0,018	0,071
-261,453	591,916	-0,064	0,113
-260,438	-42,189	0,076	0,027
-259,424	-87,590	0,063	0,013
-258,409	393,145	-0,035	-0,053
-257,395	800,000	-0,010	0,024
-256,380	-79,393	0,182	0,044
-255,365	548,900	-0,048	0,082
-254,351	63,876	-0,023	0,016
-253,336	759,126	-0,013	0,026
-252,322	87,232	-0,154	-0,122
-251,307	123,644	0,029	-0,026
-250,292	52,437	-0,150	-0,102
-249,278	-200,000	0,007	-0,026
-248,263	800,000	0,039	-0,084
-247,249	-164,686	-0,101	-0,003
-246,234	-200,000	0,011	-0,127
-245,219	65,972	0,124	-0,090
-244,205	-73,645	-0,064	-0,017
-243,190	-75,189	-0,075	-0,019
-242,176	246,820	0,107	-0,129
-241,161	198,280	0,087	0,096
-240,146	-92,849	0,056	0,011
-239,132	-200,000	0,025	0,106
-238,117	-122,504	-0,050	-0,006
-237,103	-191,469	-0,150	-0,001
-236,088	402,322	0,046	-0,069
-235,073	-178,137	-0,090	-0,001
-234,059	-140,606	0,136	0,010
-233,044	800,000	-0,074	0,151
-232,030	800,000	-0,043	-0,107
-231,015	-200,000	-0,036	0,121
-230,000	-200,000	0,016	-0,092
-228,986	-200,000	0,019	0,080
-227,971	-67,645	-0,026	-0,007
-226,957	-14,571	0,075	-0,034
-225,942	604,938	0,034	-0,060
-224,927	77,879	0,066	0,050
-223,913	773,923	0,051	-0,100
-222,898	-8,097	-0,080	0,038
-221,884	98,449	0,029	0,024
-220,869	800,000	-0,036	-0,083
-219,855	4,111	0,081	0,042
-218,840	329,753	0,063	0,087
-217,825	-43,333	0,238	0,085
-216,811	187,896	-0,045	-0,048
-215,796	153,698	-0,062	0,061
-214,782	-200,000	-0,009	-0,045
-213,767	-200,000	0,003	-0,042
-212,752	79,119	0,135	0,103
-211,738	-55,637	0,083	0,026
-210,723	800,000	-0,009	0,027
-209,709	169,441	0,125	-0,127
-208,694	13,398	0,052	-0,029
-207,679	48,311	-0,179	-0,119
-206,665	293,606	0,052	-0,068
-205,650	-95,067	0,075	0,014
-204,636	800,000	0,033	0,069
-203,621	800,000	0,041	0,097
-202,606	-200,000	0,019	-0,070
-201,592	-200,000	-0,035	-0,128
-200,577	131,996	-0,027	0,025
-199,563	-200,000	-0,002	0,080
-198,548	800,000	0,043	0,085
-197,533	-15,997	-0,097	0,044
-196,519	-200,000	-0,000	0,136
-195,504	-118,669	-0,162	-0,020
-194,490	-200,000	0,040	-0,198
-193,475	201,504	0,091	-0,100
-192,460	204,703	0,114	-0,126
-191,446	800,000	0,065	0,139
-190,431	69,925	-0,091	0,067
-189,417	188,760	-0,005	0,006
-188,402	50,271	0,154	0,103
-187,387	-73,902	0,099	0,025
-186,373	15,239	-0,065	-0,036
-185,358	-108,705	0,023	-0,004
-184,344	80,233	-0,042	-0,032
-183,329	-200,000	-0,013	-0,054
-182,315	800,000	-0,035	0,094
-181,300	-135,342	-0,142	-0,012
-180,285	-200,000	0,008	0,028
-179,271	19,627	-0,052	0,030
-178,256	-200,000	0,005	-0,070
-177,242	-36,040	-0,087	-0,033
-176,227	187,044	0,071	-0,075
-175,212	-200,000	0,004	0,094
-174,198	-35,510	0,082	0,032
-173,183	267,574	-0,087	-0,109
-172,169	-62,003	-0,052	-0,015
-171,154	-200,000	0,007	0,213
-170,139	800,000	0,007	-0,023
-169,125	-137,241	0,095	0,008
-168,110	-117,075	0,048	0,006
-167,096	-52,797	-0,170	-0,056
-166,081	49,207	-0,155	-0,104
-165,066	77,200	-0,019	0,015
-164,052	-200,000	0,004	0,080
-163,037	-69,972	-0,114	0,031
-162,023	-101,080	0,090	0,015
-161,008	-129,513	-0,085	0,008
-159,993	24,716	0,037	-0,022
-158,979	-101,432	0,060	-0,010
-157,964	46,327	-0,119	-0,079
-156,950	800,000	0,024	-0,071
-155,935	-99,104	0,040	0,007
-154,920	799,907	0,026	0,052
-153,906	66,229	0,065	0,047
-152,891	7,196	0,090	-0,048
-151,877	-200,000	-0,009	-0,127
-150,862	465,335	-0,044	-0,071
-149,847	-141,724	0,090	-0,006
-148,833	800,000	-0,076	-0,162
-147,818	-200,000	-0,015	0,053
-146,804	-38,981	0,186	0,069
-145,789	-200,000	-0,017	0,077
-144,775	-12,937	-0,007	-0,003
-143,760	800,000	-0,036	-0,098
-142,745	-0,195	-0,012	-0,006
-141,731	-38,856	0,103	0,038
-140,716	-200,000	-0,030	0,180
-139,702	-18,140	0,090	0,040
-138,687	-24,886	0,076	-0,032
-137,672	-200,000	0,008	-0,054
-136,658	33,754	-0,090	0,056
-135,643	153,771	-0,017	-0,016
-134,629	674,102	-0,025	0,046
-133,614	800,000	0,043	-0,114
-132,599	14,682	0,048	0,026
-131,585	-200,000	0,030	0,145
-130,570	-192,614	-0,053	0,000
-129,556	460,649	-0,087	-0,139
-128,541	32,644	0,072	-0,044
-127,526	-200,000	-0,015	-0,136
-126,512	-137,129	0,168	0,013
-125,497	-200,000	-0,029	0,100
-124,483	190,227	0,073	0,079
-123,468	-200,000	0,005	-0,038
-122,453	-46,871	-0,166	-0,057
-121,439	-200,000	-0,019	0,175
-120,424	54,191	-0,132	-0,090
-119,410	21,222	0,123	0,071
-118,395	-71,371	-0,075	0,020
-117,380	153,889	-0,103	-0,100
-116,366	-99,309	-0,174	-0,031
-115,351	-200,000	0,006	0,031
-114,337	-193,652	-0,131	0,001
-113,322	360,382	0,044	-0,063
-112,307	468,742	0,083	0,132
-111,293	-3,358	0,181	0,089
-110,278	800,000	0,006	-0,012
-109,264	4,173	0,020	-0,010
-108,249	-10,079	-0,084	-0,039
-107,234	-200,000	-0,028	-0,133
-106,220	396,484	-0,069	0,103
-105,205	-200,000	-0,019	0,152
-104,191	-200,000	-0,003	0,175
-103,176	-200,000	-0,001	-0,066
-102,162	586,273	-0,070	0,123
-101,147	-180,290	-0,092	0,001
-100,132	518,517	-0,042	-0,070
-99,118	33,714	0,084	0,052
-98,103	769,114	0,031	0,060
-97,089	-65,666	0,077	0,022
-96,074	-118,088	-0,055	0,007
-95,059	580,618	0,059	0,103
-94,045	198,078	-0,037	-0,041
-93,030	-44,894	-0,067	-0,024
-92,016	-200,000	-0,033	-0,108
-91,001	-200,000	0,009	0,131
-89,986	-200,000	-0,003	0,026
-88,972	-29,025	-0,071	0,029
-87,957	-103,138	0,075	0,013
-86,943	-100,088	0,039	0,007
-85,928	63,496	-0,047	-0,033
-84,913	-35,170	-0,033	0,013
-83,899	484,574	0,044	0,072
-82,884	33,047	-0,153	-0,094
-81,870	-200,000	-0,019	0,069
-80,855	516,763	0,085	0,142
-79,840	800,000	-0,037	-0,116
-78,826	259,470	-0,021	-0,026
-77,811	518,433	-0,035	-0,059
-76,797	277,993	0,059	0,074
-75,782	-41,971	0,078	0,028
-74,767	778,973	0,087	0,169
-73,753	-200,000	-0,016	-0,066
-72,738	-200,000	-0,004	0,045
-71,724	81,517	-0,030	0,023
-70,709	-200,000	-0,007	0,052
-69,694	172,484	-0,027	0,028
-68,680	660,144	0,040	0,073
-67,665	-55,964	0,088	0,028
-66,651	-77,272	0,014	-0,004
-65,636	229,995	0,073	0,085
-64,622	162,967	-0,065	-0,065
-63,607	-50,223	0,031	-0,010
-62,592	78,724	0,080	-0,060
-61,578	-200,000	-0,009	0,053
-60,563	126,046	0,039	-0,035
-59,549	121,593	0,102	0,090
-58,534	-39,868	-1,443	-0,532
-57,519	378,276	-1,432	-2,083
-56,505	-200,000	-0,562	-4,492
-55,490	182,832	1,011	1,059
-54,476	800,000	4,720	10,954
-53,461	-200,000	17,818	283,993
-52,446	800,000	721,328	2231,256
-51,432	563,102	1636,383	2819,582
-50,417	81,085	1659,747	1269,286
-49,403	23,764	1533,670	893,468
-48,388	17,678	1457,382	819,644
-47,373	18,257	1446,761	816,418
-46,359	17,815	1437,450	809,020
-45,344	15,959	1432,978	797,641
-44,330	15,918	1430,759	796,178
-43,315	15,959	1429,116	795,425
-42,300	15,953	1427,438	794,435
-41,286	16,008	1426,096	793,915
-40,271	15,964	1425,019	793,078
-39,257	15,977	1423,726	792,384
-38,242	15,988	1422,278	791,598
-37,227	15,996	1421,055	790,926
-36,213	15,996	1419,852	790,225
-35,198	15,990	1418,536	789,435
-34,184	15,998	1417,911	789,093
-33,169	15,914	1416,471	787,865
-32,154	15,995	1415,343	787,584
-31,140	16,007	1414,020	786,876
-30,125	15,979	1413,061	786,177
-29,111	16,012	1411,727	785,560
-28,096	15,978	1410,799	784,855
-27,082	15,943	1409,596	783,989
-26,067	15,871	1408,692	783,117
-25,052	15,920	1407,628	782,726
-24,038	15,898	1406,420	781,920
-23,023	15,906	1405,432	781,376
-22,009	15,857	1404,704	780,713
-20,994	15,846	1403,662	780,048
-19,979	15,850	1402,794	779,557
-18,965	15,837	1401,544	778,767
-17,950	15,811	1400,786	778,198
-16,936	15,843	1399,859	777,798
-15,921	15,818	1398,435	776,862
-14,906	15,776	1397,630	776,189
-13,892	15,882	1396,537	776,039
-12,877	15,829	1395,780	775,343
-11,863	15,812	1394,738	774,658
-10,848	15,806	1393,809	774,082
-9,833	15,753	1392,915	773,307
-8,819	15,709	1392,272	772,721
-7,804	15,713	1391,015	772,008
-6,790	15,710	1389,991	771,394
-5,775	15,682	1389,231	770,812
-4,760	15,689	1388,383	770,346
-3,746	15,684	1387,587	769,848
-2,731	15,698	1386,483	769,272
-1,717	15,674	1385,767	768,733
-0,702	15,672	1383,824	767,614
0,313	19,492	1304,380	741,176
1,327	35,741	706,816	439,295
2,342	54,972	125,212	85,544
3,356	4,085	16,608	8,581
4,371	5,059	3,048	1,584
5,386	-42,800	0,518	0,185
6,400	357,296	-0,082	0,117
7,415	-50,180	-0,209	-0,070
8,429	38,798	-0,470	-0,297
9,444	-20,113	-0,380	-0,165
10,459	-33,216	-0,396	-0,154
11,473	386,001	-0,202	-0,296
12,488	65,391	-0,258	-0,184
13,502	-16,716	-0,294	-0,131
14,517	-79,633	-0,436	-0,103
15,531	208,205	-0,346	-0,383
16,546	30,290	-0,299	-0,180
17,561	70,086	-0,319	-0,233
18,575	119,561	-0,122	-0,107
19,590	800,000	-0,091	-0,228
20,604	5,121	-0,282	-0,146
21,619	103,599	-0,377	-0,313
22,634	-37,232	-0,300	-0,113
23,648	249,191	-0,293	-0,352
24,663	83,876	-0,415	-0,320
25,677	100,218	-0,408	-0,335
26,692	38,359	-0,338	-0,213
27,707	-25,712	-0,376	-0,156
28,721	271,928	-0,350	-0,438
29,736	96,337	-0,336	-0,272
30,750	111,853	-0,419	-0,358
31,765	172,102	-0,357	-0,363
32,780	13,776	-0,302	-0,165
33,794	127,823	-0,259	-0,232
34,809	-35,507	-0,334	-0,128
35,823	34,112	-0,347	-0,213
36,838	53,910	-0,426	-0,289
37,853	143,516	-0,432	-0,406
38,867	180,759	-0,347	-0,360
39,882	-70,561	-0,374	-0,099
40,896	28,512	-0,338	-0,201
41,911	155,111	-0,226	-0,220
42,926	161,992	-0,249	-0,246
43,940	124,821	-0,303	-0,270
44,955	123,197	-0,284	-0,251
45,969	52,947	-0,407	-0,275
46,984	8,200	-0,445	-0,235
47,999	-66,173	-0,254	-0,071
49,013	-22,121	-0,418	-0,178
50,028	14,188	-0,433	-0,237
51,042	70,935	-0,390	-0,285
52,057	314,052	-0,206	-0,275
53,071	97,552	-0,427	-0,346
54,086	264,455	-0,272	-0,334
55,101	4,203	-0,308	-0,159
56,115	173,000	-0,271	-0,275
57,130	-9,439	-0,286	-0,134
58,144	-20,605	-0,494	-0,213
59,159	65,561	-0,393	-0,280
60,174	412,922	-0,219	-0,329
61,188	58,172	-0,457	-0,316
62,203	-87,239	-0,475	-0,101
63,217	81,336	-0,321	-0,244
64,232	18,909	-0,271	-0,153
65,247	64,391	-0,323	-0,229
66,261	120,289	-0,372	-0,326
67,276	181,682	-0,421	-0,437
68,290	95,337	-0,363	-0,292
69,305	-2,528	-0,419	-0,206
70,320	170,285	-0,257	-0,259
71,334	609,798	-0,228	-0,403
72,349	55,213	-0,427	-0,290
73,363	361,676	-0,259	-0,366
74,378	374,571	-0,327	-0,470
75,393	2,719	-0,387	-0,197
76,407	382,116	-0,123	-0,178
77,422	396,930	-0,140	-0,207
78,436	19,173	-0,251	-0,141
79,451	107,960	-0,288	-0,242
80,466	171,227	-0,250	-0,252
81,480	24,594	-0,212	-0,123
82,495	396,026	-0,228	-0,335
83,509	176,514	-0,261	-0,267
84,524	-155,521	-0,383	0,017
85,539	192,428	-0,132	-0,140
86,553	44,186	-0,312	-0,201
87,568	78,601	-0,398	-0,299
88,582	54,181	-0,277	-0,187
89,597	295,319	-0,141	-0,182
90,611	-63,193	-0,463	-0,133
91,626	169,030	-0,199	-0,200
92,641	-13,597	-0,326	-0,148
93,655	1,124	-0,285	-0,143
94,670	115,790	-0,257	-0,221
95,684	-12,920	-0,450	-0,205
96,699	236,885	-0,150	-0,174
97,714	75,812	-0,337	-0,250
98,728	34,447	-0,226	-0,139
99,743	24,504	-0,266	-0,154
100,757	79,914	-0,228	-0,172
101,772	50,062	-0,260	-0,172
102,787	103,370	-0,211	-0,174
103,801	24,462	-0,350	-0,203
104,816	-166,620	-0,275	-0,008
105,830	-16,332	-0,177	-0,078
106,845	211,405	-0,131	-0,145
107,860	168,090	-0,237	-0,237
108,874	31,796	-0,287	-0,173
109,889	72,070	-0,302	-0,220
110,903	34,493	-0,267	-0,163
111,918	77,585	-0,189	-0,141
112,933	281,602	-0,177	-0,224
113,947	-52,005	-0,324	-0,105
114,962	-1,693	-0,222	-0,109
115,976	168,057	-0,272	-0,272
116,991	-170,161	-0,223	0,005
118,006	-39,103	-0,393	-0,144
119,020	-47,982	-0,268	-0,090
120,035	-68,221	-0,297	-0,080
121,049	170,502	-0,234	-0,236
122,064	55,386	-0,242	-0,164
123,079	591,883	-0,120	-0,208
124,093	407,378	-0,185	-0,275
125,108	275,196	-0,330	-0,410
126,122	238,519	-0,176	-0,205
127,137	-35,983	-0,300	-0,113
128,151	124,707	-0,183	-0,162
129,166	-5,451	-0,299	-0,143
130,181	175,442	-0,172	-0,175
131,195	236,035	-0,205	-0,238
132,210	21,501	-0,176	-0,100
133,224	3,327	-0,353	-0,179
134,239	258,867	-0,168	-0,203
135,254	-74,206	-0,152	-0,038
136,268	40,600	-0,128	-0,081
137,283	-57,668	-0,253	-0,077
138,297	115,934	-0,239	-0,205
139,312	231,140	-0,210	-0,242
140,327	110,494	-0,389	-0,327
141,341	44,821	-0,256	-0,164
142,356	4,339	-0,217	-0,111
143,370	170,711	-0,204	-0,205
144,385	202,985	-0,200	-0,217
145,400	-45,145	-0,266	-0,092
146,414	36,149	-0,341	-0,210
147,429	72,897	-0,283	-0,206
148,443	64,214	-0,229	-0,161
149,458	135,256	-0,145	-0,132
150,473	-20,662	-0,301	-0,129
151,487	91,349	-0,239	-0,188
152,502	96,582	-0,165	-0,132
153,516	-79,256	-0,219	-0,051
154,531	99,073	-0,239	-0,193
155,546	163,196	-0,222	-0,218
156,560	33,916	-0,182	-0,110
157,575	21,437	-0,285	-0,161
158,589	-200,000	-0,145	0,000
159,604	138,116	-0,196	-0,180
160,619	268,537	-0,236	-0,289
161,633	190,087	-0,227	-0,238
162,648	-98,768	-0,246	-0,043
163,662	-1,828	-0,402	-0,197
164,677	104,328	-0,224	-0,184
165,692	-141,532	-0,256	-0,018
166,706	25,367	-0,245	-0,142
167,721	244,960	-0,147	-0,173
168,735	-106,874	-0,215	-0,033
169,750	-10,817	-0,175	-0,081
170,764	104,424	-0,232	-0,190
171,779	209,490	-0,116	-0,128
172,794	53,521	-0,262	-0,175
173,808	1,184	-0,316	-0,158
174,823	72,932	-0,193	-0,141
175,837	188,329	-0,196	-0,205
176,852	-25,219	-0,304	-0,125
177,867	-47,717	-0,234	-0,079
178,881	23,486	-0,231	-0,132
179,896	130,613	-0,185	-0,166
180,910	-16,675	-0,166	-0,073
181,925	85,597	-0,293	-0,224
182,940	161,371	-0,224	-0,219
183,954	-39,883	-0,204	-0,074
184,969	45,801	-0,177	-0,114
185,983	9,117	-0,160	-0,084
186,998	92,941	-0,209	-0,165
188,013	-109,141	-0,255	-0,037
189,027	246,139	-0,174	-0,205
190,042	80,209	-0,283	-0,212
191,056	38,977	-0,232	-0,144
192,071	800,000	-0,112	-0,258
193,086	800,000	-0,068	-0,158
194,100	-117,278	-0,099	0,012
195,115	2,710	-0,159	-0,080
196,129	54,584	-0,256	-0,171
197,144	36,872	-0,192	-0,118
198,159	-11,613	-0,253	-0,116
199,173	-24,014	-0,178	-0,074
200,188	135,651	-0,125	-0,113
201,202	41,929	-0,201	-0,127
202,217	-15,994	-0,178	-0,078
203,232	-18,414	-0,169	-0,073
204,246	303,232	-0,147	-0,190
205,261	800,000	-0,125	-0,317
206,275	130,734	-0,179	-0,160
207,290	78,550	-0,091	-0,068
208,304	-62,036	-0,252	-0,073
209,319	-114,053	-0,326	-0,043
210,334	-19,275	-0,278	-0,119
211,348	1,704	-0,142	-0,071
212,363	107,975	-0,202	-0,167
213,377	-43,248	-0,262	-0,092
214,392	151,259	-0,186	-0,177
215,407	-47,407	-0,187	-0,063
216,421	614,590	-0,033	-0,058
217,436	800,000	-0,074	-0,145
218,450	-58,608	-0,130	-0,039
219,465	-16,054	-0,256	-0,113
220,480	800,000	0,047	-0,107
221,494	-148,489	-0,226	0,013
222,509	-136,024	-0,259	-0,021
223,523	-14,574	-0,172	-0,077
224,538	154,425	-0,333	-0,318
225,553	48,017	-0,344	-0,223
226,567	800,000	-0,114	-0,239
227,582	262,520	-0,190	-0,230
228,596	138,542	-0,159	-0,145
229,611	179,579	-0,158	-0,161
230,626	324,560	-0,167	-0,222
231,640	-39,614	-0,290	-0,105
232,655	800,000	-0,097	-0,232
233,669	-13,978	-0,141	-0,063
234,684	800,000	-0,119	-0,250
235,699	800,000	-0,124	-0,286
236,713	151,469	-0,083	-0,078
237,728	3,433	-0,203	-0,102
238,742	-173,162	-0,250	0,005
239,757	88,427	-0,182	-0,140
240,772	-12,582	-0,188	-0,085
241,786	27,640	-0,254	-0,148
242,801	16,205	-0,210	-0,115
243,815	800,000	-0,047	-0,108
244,830	-9,120	-0,119	-0,055
245,844	8,029	-0,156	-0,081
246,859	-112,074	-0,253	-0,035
247,874	70,261	-0,247	-0,177
248,888	180,308	-0,151	-0,153
249,903	114,945	-0,179	-0,151
250,917	-148,796	-0,086	-0,005
251,932	-78,316	-0,168	-0,040
252,947	-65,815	-0,233	-0,064
253,961	27,916	-0,149	-0,087
254,976	79,383	-0,235	-0,175
255,990	1,952	-0,218	-0,109
257,005	-123,410	-0,161	-0,018
258,020	199,013	-0,255	-0,271
259,034	-31,796	-0,154	-0,059
260,049	325,373	-0,090	0,120
261,063	20,832	-0,145	-0,081
262,078	142,199	-0,181	-0,166
263,093	273,076	-0,157	-0,193
264,107	-200,000	-0,048	-0,203
265,122	-147,851	-0,194	0,011
266,136	-200,000	-0,048	-0,218
267,151	83,743	-0,185	-0,140
268,166	310,494	-0,153	-0,199
269,180	800,000	-0,103	-0,280
270,195	360,124	-0,113	-0,157
271,209	-34,300	-0,085	-0,032
272,224	-82,166	-0,078	0,018
273,239	-75,837	-0,255	-0,062
274,253	-88,131	-0,134	0,028
275,268	256,737	-0,130	-0,155
276,282	-159,923	-0,188	-0,007
277,297	37,431	-0,175	-0,107
278,312	68,145	-0,129	-0,091
279,326	389,235	-0,046	-0,066
280,341	463,012	-0,040	-0,061
281,355	69,065	-0,083	-0,059
282,370	-200,000	-0,071	-0,229
283,384	-97,072	-0,187	-0,034
284,399	116,070	-0,087	-0,073
285,414	134,013	-0,158	-0,142
286,428	800,000	-0,034	-0,068
287,443	131,591	-0,172	-0,152
288,457	65,048	-0,192	-0,134
289,472	800,000	-0,048	-0,128
290,487	154,910	-0,239	-0,227
291,501	528,025	-0,132	-0,216
292,516	98,464	-0,169	-0,134
293,530	18,394	-0,117	-0,064
294,545	-54,305	-0,144	-0,045
295,560	-43,524	-0,166	-0,058
296,574	-91,258	-0,137	-0,027
297,589	393,365	-0,026	0,037
298,603	146,094	-0,190	-0,176
299,618	800,000	-0,059	-0,181
300,633	27,292	-0,183	-0,106
301,647	-45,812	-0,131	-0,044
302,662	143,423	-0,214	-0,196
303,676	-71,185	-0,136	-0,035
304,691	289,825	-0,169	-0,212
305,706	-8,013	-0,173	-0,080
306,720	-200,000	-0,031	-0,139
307,735	322,956	-0,091	-0,120
308,749	628,590	-0,054	-0,095
309,764	30,129	-0,218	-0,128
310,779	114,238	-0,124	-0,104
311,793	18,535	-0,150	-0,083
312,808	68,689	-0,217	-0,154
313,822	-117,117	-0,119	0,015
314,837	262,836	-0,077	-0,092
315,852	-137,235	-0,142	-0,011
316,866	-147,426	-0,167	-0,010
317,881	25,278	-0,151	-0,086
318,895	181,538	-0,173	-0,176
319,910	-38,558	-0,210	-0,076
320,925	4,525	-0,256	-0,129
321,939	-200,000	-0,039	-0,128
322,954	800,000	-0,025	-0,048
323,968	685,140	-0,070	-0,126
324,983	231,736	-0,101	-0,114
325,997	55,845	-0,185	-0,124
327,012	57,773	-0,188	-0,126
328,027	66,683	-0,237	-0,166
329,041	-200,000	-0,026	-0,084
330,056	487,561	-0,030	-0,048
331,070	78,531	-0,196	-0,144
332,085	-164,090	-0,077	0,002
333,100	-25,926	-0,154	-0,062
334,114	2,399	-0,204	-0,101
335,129	179,806	-0,220	-0,222
336,143	-200,000	-0,015	-0,128
337,158	-200,000	-0,015	-0,101
338,173	800,000	-0,082	-0,170
339,187	258,163	-0,100	0,119
340,202	-1,252	-0,188	0,091
341,216	569,378	-0,042	-0,071
342,231	275,887	-0,068	-0,083
343,246	180,141	-0,012	-0,012
344,260	-27,069	-0,157	-0,063
345,275	-150,109	-0,125	-0,007
346,289	-50,819	-0,182	-0,059
347,304	-23,518	-0,152	-0,062
348,319	-117,614	-0,110	-0,013
349,333	668,737	-0,083	-0,147
350,348	79,795	-0,147	-0,108
351,362	800,000	-0,066	-0,159
352,377	-11,015	0,072	0,032
353,392	96,272	-0,127	-0,099
354,406	-15,150	-0,129	0,056
355,421	209,173	1314,960	1416,462
356,435	160,975	1475,748	1416,979
