DTS Sentinel unit serial number:	SN410029Multiplexer serial number:	ORYXHardware model number:	OX2-SRSoftware version number:	ORYX F/W v4,00 Oryx Data Collector v3.7.2.0data status	okinstallation	B3 Nyhavnadifferential loss correction	single-endedforward channel	channel 1reverse channel	N/Adate	2023/12/02time	18:02:30forward acquisition time	300,00reverse acquisition time	0,00gamma	499,1914k internal	0,3199k external	0,3199temperature offset calibration	1,0000default loss term (dB/km)	0,3820temperature slope calibration	1,0000multiplexer offset coefficient	1,0000multiplexer slope coefficient	1,0000fibre end	0,00T internal ref (°C)	13,69T ext. ref 1 (°C)	-1,61T ext. ref 2 (°C)	-1,62length (m)	temperature (°C)	Stokes	anti-Stokes-744,400	789,456	-0,164	-0,328
-743,385	-200,000	-0,014	0,219
-742,371	-200,000	-0,028	-0,307
-741,356	-200,000	0,036	0,283
-740,342	224,021	-0,174	-0,205
-739,327	800,000	-0,091	0,282
-738,312	191,940	-0,189	-0,208
-737,298	-200,000	0,009	0,271
-736,283	270,131	-0,202	-0,259
-735,269	-200,000	-0,053	0,280
-734,254	800,000	-0,090	-0,255
-733,239	74,077	-0,155	0,118
-732,225	-200,000	-0,040	-0,165
-731,210	317,089	0,146	0,201
-730,196	64,588	-0,181	-0,133
-729,181	-70,062	-0,074	0,020
-728,167	8,864	0,072	0,039
-727,152	7,496	0,023	-0,012
-726,137	-21,571	0,028	0,012
-725,123	-168,956	-0,106	0,003
-724,108	273,989	0,084	-0,108
-723,094	310,795	-0,071	-0,097
-722,079	800,000	0,030	-0,077
-721,064	-200,000	-0,041	-0,151
-720,050	-18,508	-0,100	-0,045
-719,035	356,657	0,015	-0,021
-718,021	14,391	-0,068	-0,038
-717,006	-108,999	-0,122	0,019
-715,991	-200,000	-0,008	-0,167
-714,977	-200,000	0,001	0,052
-713,962	-200,000	0,001	-0,195
-712,948	-65,588	-0,126	-0,036
-711,933	116,600	-0,079	-0,071
-710,918	-200,000	0,010	-0,103
-709,904	800,000	0,046	0,110
-708,889	615,915	0,020	-0,036
-707,875	182,348	0,038	-0,041
-706,860	114,465	0,089	0,079
-705,845	13,398	0,104	-0,058
-704,831	-200,000	-0,039	0,000
-703,816	800,000	0,016	0,042
-702,802	-200,000	-0,002	0,014
-701,787	-61,828	-0,147	-0,044
-700,772	-81,090	0,123	-0,029
-699,758	800,000	-0,030	-0,087
-698,743	84,193	-0,038	-0,030
-697,729	548,506	0,049	-0,086
-696,714	124,183	-0,070	0,064
-695,699	23,873	0,076	0,046
-694,685	29,491	0,054	0,033
-693,670	-2,018	-0,092	0,047
-692,656	-16,287	-0,061	0,028
-691,641	-154,029	-0,115	0,006
-690,627	5,596	0,090	-0,048
-689,612	-134,192	-0,038	-0,003
-688,597	640,688	0,070	-0,130
-687,583	65,854	-0,124	-0,091
-686,568	631,196	0,115	-0,213
-685,554	-61,352	0,090	-0,027
-684,539	-54,009	-0,029	-0,009
-683,524	-126,526	-0,065	0,007
-682,510	64,417	0,060	0,044
-681,495	166,497	-0,070	-0,072
-680,481	701,736	-0,028	-0,054
-679,466	153,464	-0,015	-0,015
-678,451	282,942	-0,016	-0,021
-677,437	-200,000	0,004	0,113
-676,422	181,883	0,136	-0,146
-675,408	216,962	0,060	-0,070
-674,393	-55,624	-0,137	-0,044
-673,378	-200,000	0,018	-0,128
-672,364	8,364	-0,083	-0,045
-671,349	381,359	-0,045	-0,068
-670,335	218,308	0,059	0,068
-669,320	29,378	0,020	-0,012
-668,305	212,058	-0,013	-0,015
-667,291	800,000	-0,009	0,026
-666,276	-66,917	-0,072	-0,020
-665,262	-200,000	0,023	-0,105
-664,247	800,000	0,037	0,076
-663,232	259,473	-0,057	-0,071
-662,218	19,386	0,088	-0,051
-661,203	244,030	-0,084	-0,102
-660,189	-200,000	-0,042	0,164
-659,174	-142,120	-0,071	0,005
-658,159	-79,965	-0,125	0,030
-657,145	-79,128	0,115	-0,028
-656,130	-54,793	-0,045	-0,015
-655,116	-187,625	0,074	-0,001
-654,101	321,652	0,074	0,102
-653,086	-200,000	0,004	0,066
-652,072	-200,000	-0,003	0,102
-651,057	800,000	0,117	-0,245
-650,043	134,113	0,045	-0,042
-649,028	108,489	0,062	0,054
-648,014	100,550	0,139	0,117
-646,999	-52,820	0,063	0,021
-645,984	343,364	0,097	-0,138
-644,970	-200,000	0,003	-0,084
-643,955	-200,000	-0,020	-0,262
-642,941	-81,920	-0,046	0,011
-641,926	-142,657	-0,122	-0,009
-640,911	102,176	0,035	0,030
-639,897	-14,212	0,063	0,029
-638,882	414,705	-0,038	0,059
-637,868	-10,067	0,089	0,043
-636,853	-43,744	-0,096	-0,035
-635,838	800,000	-0,036	-0,077
-634,824	-200,000	0,044	0,156
-633,809	293,008	-0,064	0,085
-632,795	-129,075	-0,056	0,006
-631,780	113,923	-0,041	-0,036
-630,765	34,689	0,067	-0,042
-629,751	252,701	-0,027	-0,033
-628,736	800,000	-0,036	-0,103
-627,722	149,890	-0,065	-0,064
-626,707	-7,824	0,127	-0,062
-625,692	649,189	0,023	0,043
-624,678	-90,311	-0,155	-0,032
-623,663	371,049	-0,062	0,091
-622,649	22,008	0,059	-0,035
-621,634	399,012	-0,012	-0,019
-620,619	251,204	0,031	-0,038
-619,605	96,615	-0,040	0,033
-618,590	-200,000	0,028	-0,127
-617,576	-1,637	-0,128	0,065
-616,561	269,877	-0,030	0,039
-615,546	-13,553	-0,127	0,059
-614,532	800,000	-0,041	-0,088
-613,517	-67,294	-0,006	0,002
-612,503	-95,185	0,021	-0,004
-611,488	-200,000	0,012	0,069
-610,474	-200,000	-0,002	0,097
-609,459	-200,000	-0,007	0,042
-608,444	216,869	-0,044	-0,050
-607,430	-200,000	0,002	0,028
-606,415	-200,000	0,019	-0,119
-605,401	-200,000	0,008	0,049
-604,386	-200,000	0,018	0,111
-603,371	-133,799	-0,068	0,006
-602,357	-146,154	-0,121	-0,008
-601,342	719,463	-0,031	-0,061
-600,328	-200,000	0,008	-0,048
-599,313	109,490	0,055	-0,048
-598,298	-107,623	-0,065	-0,010
-597,284	98,267	0,062	0,052
-596,269	-91,377	-0,041	0,008
-595,255	220,690	-0,050	-0,058
-594,240	-134,599	0,090	0,008
-593,225	-35,490	-0,046	-0,018
-592,211	-200,000	0,021	0,104
-591,196	-200,000	0,009	-0,029
-590,182	800,000	0,013	0,031
-589,167	800,000	-0,074	0,220
-588,152	22,813	-0,037	0,022
-587,138	-200,000	0,002	-0,045
-586,123	-96,626	-0,017	-0,003
-585,109	-40,774	-0,080	0,030
-584,094	-200,000	-0,003	-0,050
-583,079	94,184	0,088	0,072
-582,065	-200,000	-0,008	0,068
-581,050	-200,000	0,053	0,207
-580,036	18,467	-0,035	-0,020
-579,021	85,000	-0,074	0,058
-578,006	-200,000	0,020	-0,146
-576,992	319,415	-0,135	-0,186
-575,977	464,182	-0,119	-0,193
-574,963	800,000	0,027	0,086
-573,948	-200,000	0,012	0,051
-572,934	196,427	0,040	-0,044
-571,919	135,535	-0,054	-0,051
-570,904	800,000	0,024	-0,066
-569,890	445,341	0,060	0,095
-568,875	150,663	0,072	0,071
-567,861	254,672	-0,025	0,031
-566,846	183,639	0,064	0,069
-565,831	139,190	0,104	-0,099
-564,817	-109,266	-0,105	0,016
-563,802	-20,680	0,062	-0,027
-562,788	-200,000	-0,089	0,000
-561,773	108,507	-0,077	-0,066
-560,758	487,206	0,063	0,104
-559,744	470,238	-0,044	-0,071
-558,729	-85,386	-0,251	0,056
-557,715	-0,118	-0,017	0,009
-556,700	83,986	-0,096	-0,075
-555,685	151,640	-0,083	0,082
-554,671	-63,373	0,126	-0,037
-553,656	-11,750	-0,055	-0,026
-552,642	398,648	-0,035	-0,053
-551,627	-200,000	-0,021	-0,088
-550,612	4,524	-0,108	-0,057
-549,598	404,425	-0,044	-0,066
-548,583	155,142	-0,062	-0,061
-547,569	468,458	-0,006	-0,010
-546,554	60,491	0,096	-0,069
-545,539	-200,000	0,012	-0,141
-544,525	-200,000	0,005	-0,066
-543,510	272,442	-0,033	0,043
-542,496	254,994	0,016	-0,020
-541,481	-200,000	0,004	-0,080
-540,466	-12,241	0,064	-0,030
-539,452	-200,000	-0,014	-0,075
-538,437	144,270	0,167	-0,161
-537,423	-94,542	-0,147	0,029
-536,408	-200,000	-0,003	-0,106
-535,393	675,666	-0,047	-0,089
-534,379	-23,931	-0,066	-0,028
-533,364	-200,000	-0,007	-0,060
-532,350	-141,939	0,123	-0,009
-531,335	-200,000	-0,010	0,192
-530,321	800,000	-0,005	0,013
-529,306	-200,000	-0,015	-0,080
-528,291	354,878	0,025	-0,036
-527,277	-200,000	0,001	-0,015
-526,262	-200,000	-0,008	0,096
-525,248	349,276	-0,026	-0,038
-524,233	42,225	0,049	0,032
-523,218	152,134	-0,048	0,047
-522,204	465,029	0,006	0,010
-521,189	321,907	-0,045	-0,061
-520,175	140,481	0,068	-0,065
-519,160	-131,371	-0,020	-0,002
-518,145	587,582	0,074	0,133
-517,131	-200,000	-0,006	0,062
-516,116	-123,697	0,118	0,013
-515,102	-78,903	-0,114	-0,028
-514,087	-145,252	-0,049	0,003
-513,072	-56,867	-0,021	0,007
-512,058	-200,000	0,008	-0,191
-511,043	800,000	0,030	-0,074
-510,029	-144,905	0,095	0,006
-509,014	23,008	0,070	-0,041
-507,999	-79,693	0,088	0,021
-506,985	29,699	-0,040	0,025
-505,970	-200,000	0,018	-0,175
-504,956	171,114	-0,050	-0,052
-503,941	63,069	-0,130	-0,093
-502,926	603,267	0,100	-0,181
-501,912	-55,303	0,117	-0,038
-500,897	12,922	0,051	0,028
-499,883	-200,000	-0,021	0,085
-498,868	-91,714	-0,068	-0,014
-497,853	118,778	-0,060	-0,054
-496,839	527,565	0,066	-0,113
-495,824	11,527	0,029	0,016
-494,810	800,000	0,023	-0,057
-493,795	-107,615	-0,035	0,006
-492,781	437,795	0,053	0,083
-491,766	-200,000	0,016	-0,065
-490,751	-200,000	-0,013	-0,079
-489,737	-34,106	-0,156	-0,062
-488,722	800,000	0,042	-0,099
-487,708	24,392	-0,066	-0,039
-486,693	-200,000	0,010	0,116
-485,678	-200,000	0,038	-0,123
-484,664	-200,000	0,009	0,030
-483,649	-39,608	-0,081	-0,030
-482,635	-119,403	0,066	0,008
-481,620	-110,279	0,086	-0,013
-480,605	60,557	0,085	0,061
-479,591	-200,000	0,013	0,105
-478,576	-64,349	0,052	0,015
-477,562	139,190	0,018	-0,017
-476,547	-200,000	-0,003	-0,063
-475,532	63,769	-0,081	-0,059
-474,518	-200,000	-0,016	0,056
-473,503	-200,000	0,016	0,065
-472,489	366,357	-0,055	0,080
-471,474	2,355	-0,110	0,057
-470,459	-81,221	-0,051	-0,012
-469,445	85,191	0,034	-0,027
-468,430	274,276	0,014	0,018
-467,416	-114,314	0,027	-0,004
-466,401	-9,867	-0,045	0,022
-465,386	70,797	0,056	0,042
-464,372	538,939	-0,044	-0,075
-463,357	-149,987	0,139	0,008
-462,343	154,381	0,022	-0,022
-461,328	-98,380	-0,054	0,010
-460,313	-33,208	0,052	0,021
-459,299	-32,022	0,116	-0,047
-458,284	-200,000	-0,003	-0,068
-457,270	618,450	-0,014	0,026
-456,255	140,298	-0,006	0,005
-455,241	449,708	-0,051	-0,082
-454,226	-200,000	0,030	-0,131
-453,211	-200,000	0,008	-0,042
-452,197	388,872	0,012	0,018
-451,182	-149,808	0,037	0,002
-450,168	524,265	0,071	0,121
-449,153	446,851	0,067	-0,107
-448,138	385,968	0,066	0,099
-447,124	800,000	0,009	-0,026
-446,109	-58,310	0,035	-0,011
-445,095	-169,890	0,072	-0,002
-444,080	35,930	-0,109	-0,069
-443,065	-200,000	-0,004	-0,024
-442,051	-200,000	0,004	0,020
-441,036	-200,000	-0,020	0,104
-440,022	-21,705	0,063	0,027
-439,007	91,178	-0,088	0,071
-437,992	800,000	0,046	0,104
-436,978	-5,597	0,057	-0,028
-435,963	145,117	-0,082	0,079
-434,949	-118,584	0,170	0,021
-433,934	800,000	-0,015	0,033
-432,919	-8,193	0,031	-0,015
-431,905	-19,284	0,126	0,056
-430,890	754,610	-0,065	0,126
-429,876	-200,000	-0,000	0,246
-428,861	19,244	0,151	-0,087
-427,846	148,633	-0,102	-0,099
-426,832	-200,000	-0,002	0,088
-425,817	-200,000	0,000	-0,080
-424,803	-200,000	0,002	-0,049
-423,788	-95,953	-0,061	-0,011
-422,773	-200,000	0,022	0,116
-421,759	-200,000	-0,024	0,104
-420,744	-74,161	-0,099	-0,026
-419,730	418,054	0,062	-0,095
-418,715	393,031	0,072	-0,109
-417,701	800,000	0,007	-0,017
-416,686	-200,000	-0,005	0,067
-415,671	-200,000	0,017	0,110
-414,657	800,000	0,018	-0,043
-413,642	800,000	0,031	-0,061
-412,628	-200,000	-0,019	0,124
-411,613	83,743	0,028	0,022
-410,598	6,112	0,073	-0,039
-409,584	-200,000	-0,029	0,116
-408,569	-72,453	0,166	0,044
-407,555	-200,000	0,013	0,102
-406,540	34,219	0,078	0,049
-405,525	506,873	0,019	0,032
-404,511	408,616	-0,004	-0,006
-403,496	-200,000	-0,045	-0,228
-402,482	800,000	0,076	0,158
-401,467	-61,171	0,053	0,016
-400,452	744,417	0,057	0,111
-399,438	44,539	-0,088	0,058
-398,423	800,000	-0,030	-0,093
-397,409	-200,000	-0,014	-0,119
-396,394	772,950	-0,022	-0,043
-395,379	506,445	-0,050	0,083
-394,365	-180,644	0,059	-0,001
-393,350	788,786	-0,056	-0,110
-392,336	-59,495	0,059	-0,018
-391,321	800,000	-0,054	-0,116
-390,306	800,000	-0,034	-0,076
-389,292	-44,848	0,013	0,004
-388,277	800,000	0,011	-0,032
-387,263	11,880	0,054	-0,030
-386,248	134,618	-0,028	0,026
-385,233	-200,000	0,043	0,141
-384,219	800,000	-0,050	0,141
-383,204	800,000	-0,018	0,045
-382,190	215,893	0,059	-0,067
-381,175	800,000	-0,032	-0,065
-380,160	-162,514	-0,096	-0,003
-379,146	288,674	0,067	0,088
-378,131	-200,000	0,024	0,161
-377,117	212,668	-0,023	0,026
-376,102	-133,251	0,030	-0,003
-375,088	800,000	-0,024	-0,058
-374,073	-200,000	0,018	-0,074
-373,058	-73,327	0,019	0,005
-372,044	135,534	-0,026	0,024
-371,029	-40,345	0,123	-0,046
-370,015	41,801	0,036	0,024
-369,000	165,697	0,033	-0,034
-367,985	304,976	-0,033	0,044
-366,971	-61,347	0,069	-0,021
-365,956	8,161	0,029	-0,016
-364,942	112,146	-0,144	0,125
-363,927	800,000	0,015	-0,035
-362,912	-200,000	0,021	0,161
-361,898	131,561	0,066	-0,061
-360,883	800,000	0,016	0,043
-359,869	-200,000	0,013	0,047
-358,854	81,530	0,075	-0,058
-357,839	-200,000	0,008	-0,063
-356,825	414,153	0,036	-0,055
-355,810	133,547	-0,040	0,037
-354,796	-14,768	-0,143	0,066
-353,781	-75,514	0,099	-0,025
-352,766	90,033	-0,067	-0,054
-351,752	24,646	0,046	0,027
-350,737	59,808	0,065	0,046
-349,723	100,009	0,046	0,038
-348,708	-65,517	0,109	-0,031
-347,693	-200,000	0,020	0,068
-346,679	70,724	0,104	-0,077
-345,664	-1,713	0,049	0,025
-344,650	-95,470	-0,132	-0,025
-343,635	-177,159	-0,036	-0,001
-342,620	-200,000	0,005	-0,079
-341,606	-180,207	-0,006	0,000
-340,591	-107,834	0,100	0,016
-339,577	86,314	0,031	-0,024
-338,562	-200,000	0,011	0,043
-337,548	308,237	-0,047	0,063
-336,533	393,878	0,114	0,170
-335,518	526,561	0,063	0,107
-334,504	800,000	0,022	-0,054
-333,489	20,033	0,071	0,041
-332,475	333,639	-0,072	-0,100
-331,460	800,000	-0,033	-0,083
-330,445	-39,033	-0,112	0,042
-329,431	800,000	-0,016	-0,046
-328,416	800,000	-0,026	0,074
-327,402	263,118	0,070	0,087
-326,387	-200,000	-0,003	0,053
-325,372	90,725	-0,067	-0,053
-324,358	73,347	0,034	0,025
-323,343	-200,000	-0,048	-0,198
-322,329	-105,506	0,063	-0,010
-321,314	-200,000	0,038	0,167
-320,299	800,000	0,039	0,116
-319,285	19,846	-0,027	0,015
-318,270	-200,000	-0,020	-0,081
-317,256	127,680	-0,070	-0,063
-316,241	301,611	0,022	-0,030
-315,226	69,670	-0,151	0,111
-314,212	-200,000	0,001	0,047
-313,197	-154,230	0,107	0,005
-312,183	298,150	-0,062	-0,082
-311,168	90,809	0,059	-0,047
-310,153	-200,000	0,017	-0,100
-309,139	234,848	-0,056	0,066
-308,124	643,698	-0,017	-0,031
-307,110	-44,052	0,218	0,078
-306,095	397,063	-0,085	0,128
-305,080	-130,358	0,035	-0,003
-304,066	800,000	0,047	-0,118
-303,051	800,000	-0,044	-0,088
-302,037	-200,000	-0,130	0,000
-301,022	554,900	-0,044	-0,075
-300,008	210,060	0,098	0,111
-298,993	-200,000	-0,003	0,052
-297,978	7,081	0,092	-0,049
-296,964	453,227	0,013	0,021
-295,949	-5,929	-0,052	0,026
-294,935	-200,000	-0,013	-0,128
-293,920	-200,000	0,023	-0,083
-292,905	-200,000	0,034	-0,147
-291,891	65,596	-0,014	0,010
-290,876	68,527	-0,146	0,107
-289,862	-75,231	-0,008	0,002
-288,847	119,426	-0,032	-0,029
-287,832	-64,740	0,159	0,046
-286,818	54,997	0,041	0,028
-285,803	332,021	0,053	-0,073
-284,789	308,434	0,046	0,062
-283,774	800,000	-0,007	-0,015
-282,759	-33,022	0,067	-0,026
-281,745	317,230	0,028	0,038
-280,730	-200,000	-0,023	0,134
-279,716	50,840	-0,071	0,048
-278,701	-45,155	0,162	0,057
-277,686	94,855	0,152	0,124
-276,672	-200,000	0,026	-0,107
-275,657	-50,793	0,082	0,027
-274,643	-200,000	0,012	0,129
-273,628	-67,574	-0,072	-0,020
-272,613	-104,139	-0,192	0,032
-271,599	58,319	0,147	0,103
-270,584	-24,011	-0,063	0,027
-269,570	148,896	0,068	0,066
-268,555	-200,000	-0,001	0,014
-267,540	160,191	-0,088	-0,088
-266,526	445,005	-0,042	-0,067
-265,511	71,570	0,064	0,047
-264,497	800,000	0,047	0,118
-263,482	-200,000	0,026	0,085
-262,467	251,815	0,064	-0,078
-261,453	800,000	-0,016	0,039
-260,438	-200,000	0,019	0,118
-259,424	94,362	-0,023	-0,019
-258,409	679,056	-0,042	-0,078
-257,395	8,193	-0,010	-0,006
-256,380	24,010	-0,062	-0,036
-255,365	-130,050	0,074	0,007
-254,351	348,742	-0,039	-0,055
-253,336	-119,182	-0,108	-0,013
-252,322	-34,429	-0,233	0,091
-251,307	-200,000	0,032	-0,108
-250,292	454,613	0,076	-0,120
-249,278	424,953	-0,102	-0,157
-248,263	-200,000	-0,029	0,126
-247,249	178,305	0,040	0,041
-246,234	-200,000	-0,036	-0,120
-245,219	156,103	-0,012	0,012
-244,205	174,362	-0,079	0,082
-243,190	800,000	-0,051	0,113
-242,176	-15,009	0,108	-0,049
-241,161	-200,000	0,025	0,172
-240,146	-174,472	-0,058	-0,001
-239,132	800,000	-0,027	0,055
-238,117	800,000	0,063	-0,141
-237,103	-200,000	-0,009	-0,054
-236,088	142,426	-0,047	0,045
-235,073	673,219	-0,033	0,061
-234,059	800,000	0,025	-0,070
-233,044	-200,000	-0,006	-0,070
-232,030	-37,075	-0,087	0,033
-231,015	14,652	-0,155	-0,086
-230,000	-200,000	0,016	0,094
-228,986	-121,578	0,017	-0,002
-227,971	92,434	-0,087	-0,070
-226,957	74,437	-0,129	0,096
-225,942	79,300	0,155	0,119
-224,927	458,129	-0,004	-0,006
-223,913	-200,000	0,032	-0,110
-222,898	-13,835	-0,170	-0,078
-221,884	-159,830	-0,044	-0,002
-220,869	139,130	0,068	0,064
-219,855	100,654	0,057	-0,047
-218,840	626,968	-0,023	-0,042
-217,825	-200,000	-0,005	0,070
-216,811	-23,862	-0,078	-0,033
-215,796	-200,000	0,002	-0,117
-214,782	613,113	-0,065	-0,117
-213,767	-200,000	-0,002	0,053
-212,752	-200,000	-0,036	0,127
-211,738	-200,000	-0,007	-0,104
-210,723	-47,259	0,078	0,027
-209,709	-133,163	-0,141	0,013
-208,694	-200,000	-0,033	-0,139
-207,679	-9,005	0,049	0,023
-206,665	-87,975	-0,049	-0,010
-205,650	800,000	-0,019	-0,055
-204,636	-200,000	-0,035	0,152
-203,621	140,629	0,042	-0,040
-202,606	54,800	-0,056	-0,038
-201,592	-143,539	-0,040	-0,003
-200,577	-200,000	0,005	-0,020
-199,563	-200,000	-0,018	-0,060
-198,548	-45,501	0,154	-0,054
-197,533	800,000	0,023	0,049
-196,519	-200,000	0,037	0,159
-195,504	-84,585	-0,135	0,030
-194,490	159,951	0,097	0,097
-193,475	-109,769	-0,118	0,017
-192,460	-118,969	0,132	0,016
-191,446	545,429	0,061	0,103
-190,431	-61,311	0,066	0,020
-189,417	-163,415	-0,072	0,002
-188,402	800,000	0,038	-0,113
-187,387	29,787	-0,117	-0,071
-186,373	-200,000	-0,023	-0,188
-185,358	390,104	-0,048	-0,072
-184,344	239,460	0,071	0,085
-183,329	608,875	0,069	0,124
-182,315	-1,050	0,010	0,005
-181,300	-132,669	-0,085	0,008
-180,285	215,636	-0,094	0,106
-179,271	-145,278	-0,138	-0,009
-178,256	-50,012	-0,057	0,019
-177,242	771,919	0,044	-0,086
-176,227	459,127	-0,083	0,131
-175,212	-40,046	-0,053	-0,020
-174,198	373,811	-0,012	0,017
-173,183	-55,751	0,013	0,004
-172,169	204,002	-0,107	-0,118
-171,154	800,000	0,024	-0,050
-170,139	-105,591	0,114	-0,018
-169,125	-116,595	0,041	0,005
-168,110	40,574	0,063	-0,041
-167,096	0,736	0,063	-0,032
-166,081	148,553	-0,086	0,083
-165,066	456,137	0,036	-0,056
-164,052	-116,666	0,021	-0,003
-163,037	263,379	0,026	0,033
-162,023	800,000	0,049	0,114
-161,008	557,907	-0,047	0,081
-159,993	93,919	0,045	0,036
-158,979	125,886	-0,074	0,066
-157,964	-106,360	0,073	0,012
-156,950	10,154	-0,073	0,040
-155,935	-153,952	0,080	-0,004
-154,920	-3,230	-0,070	0,035
-153,906	387,829	0,084	0,123
-152,891	656,824	0,032	0,058
-151,877	-20,196	-0,054	0,024
-150,862	-97,932	-0,115	-0,021
-149,847	-118,645	0,104	-0,013
-148,833	169,240	-0,073	-0,074
-147,818	800,000	-0,026	0,065
-146,804	-67,958	0,176	0,049
-145,789	-200,000	0,009	0,136
-144,775	800,000	-0,011	0,023
-143,760	-200,000	0,009	-0,124
-142,745	-200,000	-0,017	0,079
-141,731	-109,119	0,049	-0,007
-140,716	86,362	0,119	0,093
-139,702	243,347	-0,074	0,088
-138,687	236,089	0,052	0,061
-137,672	630,879	0,035	-0,064
-136,658	-94,491	0,010	0,002
-135,643	-54,441	-0,049	-0,016
-134,629	-200,000	-0,001	0,049
-133,614	800,000	-0,020	0,062
-132,599	55,275	-0,081	-0,056
-131,585	-19,041	0,121	-0,053
-130,570	-0,639	-0,075	0,038
-129,556	-200,000	0,006	0,078
-128,541	800,000	-0,097	-0,193
-127,526	149,903	-0,026	0,025
-126,512	-72,634	-0,020	0,005
-125,497	800,000	-0,073	0,179
-124,483	85,046	0,072	-0,056
-123,468	-76,596	0,124	-0,031
-122,453	-200,000	-0,024	-0,115
-121,439	800,000	-0,018	-0,041
-120,424	-100,584	-0,162	0,028
-119,410	800,000	0,067	-0,173
-118,395	166,107	0,128	0,128
-117,380	-200,000	0,002	0,008
-116,366	216,726	-0,097	-0,110
-115,351	315,346	0,074	-0,099
-114,337	800,000	-0,053	-0,118
-113,322	508,583	-0,023	0,039
-112,307	-67,225	-0,139	0,038
-111,293	84,314	0,036	-0,028
-110,278	109,714	0,028	0,024
-109,264	-147,664	0,052	-0,003
-108,249	6,561	-0,038	0,020
-107,234	544,274	0,036	0,061
-106,220	-6,047	-0,081	-0,039
-105,205	-200,000	-0,004	-0,059
-104,191	-200,000	-0,010	-0,095
-103,176	-200,000	0,035	0,164
-102,162	-200,000	0,028	0,223
-101,147	433,666	-0,070	-0,109
-100,132	-55,565	0,081	0,026
-99,118	489,151	0,049	-0,080
-98,103	128,116	-0,048	-0,044
-97,089	-106,412	0,017	-0,003
-96,074	800,000	-0,016	0,037
-95,059	669,614	0,074	0,137
-94,045	-104,365	0,039	0,006
-93,030	-22,358	-0,044	0,019
-92,016	-200,000	-0,051	0,162
-91,001	580,843	0,028	-0,050
-89,986	-200,000	-0,016	-0,059
-88,972	-200,000	0,009	0,116
-87,957	800,000	-0,039	-0,079
-86,943	54,590	-0,094	-0,064
-85,928	318,222	-0,052	-0,070
-84,913	800,000	0,028	-0,058
-83,899	800,000	-0,034	0,071
-82,884	800,000	-0,019	-0,048
-81,870	289,572	-0,047	0,061
-80,855	752,050	0,004	-0,008
-79,840	-200,000	0,002	-0,073
-78,826	800,000	0,028	0,076
-77,811	-99,503	-0,115	-0,020
-76,797	10,446	0,031	0,017
-75,782	-60,338	0,114	-0,034
-74,767	-72,754	-0,088	0,023
-73,753	111,021	0,031	0,026
-72,738	85,846	0,041	-0,032
-71,724	-5,396	-0,101	0,049
-70,709	-200,000	0,008	-0,067
-69,694	-200,000	-0,006	0,130
-68,680	-3,410	0,115	0,057
-67,665	-200,000	-0,008	0,067
-66,651	37,375	0,005	-0,003
-65,636	-200,000	-0,013	0,060
-64,622	398,164	-0,037	-0,056
-63,607	-200,000	0,011	0,046
-62,592	265,266	-0,072	-0,089
-61,578	-200,000	-0,004	-0,100
-60,563	-69,589	0,139	0,037
-59,549	292,349	0,020	0,025
-58,534	-25,662	-1,647	-0,685
-57,519	308,037	-1,482	-1,963
-56,505	-200,000	-0,672	-4,652
-55,490	199,787	0,952	1,036
-54,476	800,000	5,062	11,364
-53,461	-200,000	19,085	316,574
-52,446	-200,000	740,181	2331,733
-51,432	574,900	1655,856	2874,180
-50,417	78,871	1671,096	1265,479
-49,403	21,647	1543,878	887,774
-48,388	15,538	1466,286	813,447
-47,373	17,930	1456,422	819,503
-46,359	16,802	1446,370	808,405
-45,344	13,862	1441,658	791,653
-44,330	13,752	1439,773	790,058
-43,315	13,751	1438,119	789,118
-42,300	13,751	1436,640	788,275
-41,286	13,811	1435,129	787,701
-40,271	13,692	1434,081	786,527
-39,257	13,729	1432,556	785,833
-38,242	13,809	1431,412	785,556
-37,227	13,794	1430,329	784,862
-36,213	13,798	1428,947	784,088
-35,198	13,783	1427,764	783,337
-34,184	13,805	1426,899	782,937
-33,169	13,802	1425,233	781,977
-32,154	13,826	1424,448	781,632
-31,140	13,832	1422,777	780,709
-30,125	13,849	1421,779	780,213
-29,111	13,806	1420,798	779,440
-28,096	13,763	1419,888	778,706
-27,082	13,730	1418,655	777,841
-26,067	13,738	1417,323	777,121
-25,052	13,708	1416,484	776,486
-24,038	13,690	1415,508	775,838
-23,023	13,651	1414,608	775,129
-22,009	13,717	1413,410	774,750
-20,994	13,651	1412,641	773,989
-19,979	13,669	1411,719	773,538
-18,965	13,646	1410,829	772,911
-17,950	13,661	1409,755	772,366
-16,936	13,661	1408,914	771,870
-15,921	13,632	1407,729	771,056
-14,906	13,629	1406,789	770,499
-13,892	13,626	1405,813	769,917
-12,877	13,608	1405,161	769,445
-11,863	13,628	1404,078	768,915
-10,848	13,615	1403,341	768,422
-9,833	13,566	1402,419	767,660
-8,819	13,548	1401,700	767,150
-7,804	13,547	1400,527	766,472
-6,790	13,502	1399,489	765,667
-5,775	13,490	1398,495	765,034
-4,760	13,549	1397,509	764,738
-3,746	13,536	1396,560	764,127
-2,731	13,518	1395,948	763,682
-1,717	13,477	1395,026	762,955
-0,702	13,548	1393,176	762,244
0,313	17,234	1310,811	734,313
1,327	33,321	704,883	432,124
2,342	51,655	123,578	83,047
3,356	2,483	16,582	8,471
4,371	0,651	3,167	1,598
5,386	40,301	0,577	0,367
6,400	-200,000	0,044	0,172
7,415	269,072	-0,240	-0,299
8,429	154,148	-0,231	-0,224
9,444	58,103	-0,375	-0,259
10,459	10,256	-0,193	-0,104
11,473	84,807	-0,261	-0,202
12,488	33,161	-0,326	-0,199
13,502	-34,664	-0,397	-0,153
14,517	4,670	-0,288	-0,149
15,531	-8,618	-0,396	-0,187
16,546	77,173	-0,348	-0,261
17,561	-7,362	-0,452	-0,216
18,575	-156,621	-0,235	-0,010
19,590	286,854	-0,209	-0,268
20,604	288,082	-0,139	-0,178
21,619	52,355	-0,392	-0,264
22,634	165,159	-0,324	-0,323
23,648	326,804	-0,333	-0,452
24,663	217,921	-0,322	-0,363
25,677	-25,556	-0,446	-0,185
26,692	161,048	-0,355	-0,351
27,707	31,890	-0,404	-0,245
28,721	116,592	-0,289	-0,250
29,736	75,483	-0,438	-0,326
30,750	-4,966	-0,374	-0,181
31,765	64,299	-0,443	-0,314
32,780	35,198	-0,393	-0,243
33,794	-73,582	-0,411	-0,105
34,809	41,902	-0,450	-0,288
35,823	-78,918	-0,360	-0,086
36,838	88,835	-0,366	-0,287
37,853	103,678	-0,302	-0,251
38,867	326,744	-0,297	-0,403
39,882	84,994	-0,299	-0,231
40,896	114,724	-0,270	-0,232
41,911	-60,582	-0,415	-0,123
42,926	135,700	-0,240	-0,220
43,940	-93,870	-0,337	-0,065
44,955	3,553	-0,359	-0,184
45,969	162,880	-0,344	-0,341
46,984	36,731	-0,329	-0,205
47,999	105,024	-0,228	-0,190
49,013	9,628	-0,348	-0,186
50,028	-86,641	-0,370	-0,079
51,042	31,179	-0,370	-0,223
52,057	91,951	-0,271	-0,215
53,071	115,503	-0,298	-0,257
54,086	-38,890	-0,325	-0,120
55,101	253,591	-0,248	-0,299
56,115	142,605	-0,251	-0,235
57,130	237,961	-0,289	-0,338
58,144	-78,712	-0,459	-0,110
59,159	118,637	-0,455	-0,396
60,174	23,177	-0,377	-0,217
61,188	93,932	-0,271	-0,217
62,203	68,120	-0,358	-0,257
63,217	-15,164	-0,328	-0,147
64,232	4,372	-0,415	-0,213
65,247	9,988	-0,409	-0,218
66,261	174,267	-0,352	-0,358
67,276	36,871	-0,347	-0,216
68,290	105,004	-0,324	-0,269
69,305	47,751	-0,297	-0,195
70,320	-70,778	-0,451	-0,119
71,334	-46,217	-0,335	-0,115
72,349	31,207	-0,404	-0,243
73,363	68,567	-0,330	-0,238
74,378	143,447	-0,280	-0,263
75,393	63,483	-0,306	-0,215
76,407	213,149	-0,218	-0,242
77,422	79,790	-0,199	-0,150
78,436	46,081	-0,261	-0,169
79,451	137,449	-0,302	-0,277
80,466	160,024	-0,225	-0,221
81,480	132,559	-0,326	-0,296
82,495	-61,731	-0,352	-0,103
83,509	46,925	-0,199	-0,130
84,524	-87,876	-0,432	-0,091
85,539	-39,151	-0,344	-0,126
86,553	86,743	-0,299	-0,232
87,568	132,054	-0,313	-0,283
88,582	181,790	-0,332	-0,344
89,597	-151,912	-0,294	-0,015
90,611	3,054	-0,421	-0,214
91,626	136,771	-0,255	-0,234
92,641	51,257	-0,207	-0,138
93,655	114,348	-0,326	-0,279
94,670	74,107	-0,191	-0,141
95,684	159,830	-0,187	-0,183
96,699	153,573	-0,372	-0,357
97,714	-111,837	-0,266	-0,037
98,728	-16,161	-0,359	-0,160
99,743	439,886	-0,181	-0,279
100,757	-8,829	-0,238	-0,112
101,772	148,058	-0,283	-0,268
102,787	-17,684	-0,270	-0,119
103,801	-77,691	-0,384	-0,092
104,816	-133,403	-0,288	-0,025
105,830	-21,539	-0,282	-0,120
106,845	270,716	-0,190	-0,235
107,860	89,038	-0,290	-0,227
108,874	126,423	-0,184	-0,163
109,889	165,688	-0,237	-0,235
110,903	17,603	-0,272	-0,151
111,918	-30,073	-0,280	-0,111
112,933	800,000	-0,063	-0,126
113,947	513,860	-0,163	-0,267
114,962	-52,488	-0,344	-0,111
115,976	150,525	-0,256	-0,243
116,991	268,667	-0,195	-0,240
118,006	221,389	-0,234	-0,264
119,020	-29,872	-0,300	-0,119
120,035	33,911	-0,331	-0,202
121,049	-46,585	-0,240	-0,082
122,064	270,555	-0,204	-0,252
123,079	-93,506	-0,308	-0,059
124,093	71,464	-0,274	-0,199
125,108	199,381	-0,314	-0,337
126,122	1,592	-0,398	-0,200
127,137	105,086	-0,256	-0,211
128,151	210,526	-0,239	-0,263
129,166	-8,033	-0,243	-0,114
130,181	398,476	-0,160	-0,235
131,195	84,410	-0,364	-0,278
132,210	800,000	-0,140	-0,272
133,224	190,918	-0,209	-0,221
134,239	-6,307	-0,204	-0,097
135,254	230,307	-0,238	-0,272
136,268	-27,046	-0,388	-0,158
137,283	23,945	-0,148	0,085
138,297	71,956	-0,272	-0,198
139,312	129,176	-0,259	-0,232
140,327	72,015	-0,243	-0,176
141,341	432,723	-0,194	-0,296
142,356	37,055	-0,242	-0,149
143,370	-93,467	-0,130	-0,025
144,385	138,362	-0,265	-0,243
145,400	148,329	-0,312	-0,294
146,414	84,910	-0,202	-0,155
147,429	-145,147	-0,281	-0,018
148,443	-37,901	-0,350	-0,129
149,458	-22,679	-0,288	-0,121
150,473	46,319	-0,154	-0,100
151,487	95,618	-0,268	-0,213
152,502	28,325	-0,216	-0,127
153,516	-20,306	-0,340	-0,146
154,531	26,525	-0,117	-0,068
155,546	-99,772	-0,287	-0,050
156,560	226,816	-0,141	-0,160
157,575	-123,611	-0,366	-0,040
158,589	52,565	-0,234	-0,156
159,604	137,814	-0,227	-0,208
160,619	-24,638	-0,215	-0,089
161,633	-54,834	-0,246	-0,077
162,648	-11,419	-0,235	-0,107
163,662	29,126	-0,291	-0,172
164,677	427,592	-0,096	-0,146
165,692	97,017	-0,135	-0,108
166,706	13,713	-0,228	-0,123
167,721	38,895	-0,269	-0,167
168,735	-23,008	-0,382	-0,160
169,750	234,973	-0,269	-0,310
170,764	573,309	-0,107	-0,183
171,779	-84,643	-0,285	-0,062
172,794	-98,609	-0,268	-0,047
173,808	4,969	-0,258	-0,132
174,823	227,785	-0,201	-0,228
175,837	254,341	-0,217	-0,259
176,852	337,656	-0,148	-0,201
177,867	143,029	-0,163	-0,151
178,881	59,204	-0,105	-0,072
179,896	94,606	-0,243	-0,192
180,910	68,794	-0,217	-0,155
181,925	131,339	-0,292	-0,261
182,940	278,943	-0,288	-0,358
183,954	211,665	-0,215	-0,236
184,969	198,910	-0,209	-0,223
185,983	90,033	-0,227	-0,177
186,998	141,857	-0,196	-0,181
188,013	57,786	-0,217	-0,147
189,027	84,028	-0,182	-0,138
190,042	114,288	-0,287	-0,244
191,056	65,137	-0,209	-0,147
192,071	95,061	-0,087	-0,069
193,086	341,672	-0,112	-0,153
194,100	-20,392	-0,204	0,087
195,115	-1,662	-0,106	-0,052
196,129	-47,634	-0,222	-0,075
197,144	362,666	-0,150	-0,210
198,159	15,250	-0,155	-0,084
199,173	-200,000	-0,041	-0,146
200,188	800,000	-0,085	-0,222
201,202	800,000	-0,054	-0,118
202,217	215,853	-0,162	-0,179
203,232	592,548	-0,097	-0,168
204,246	-35,389	-0,319	-0,120
205,261	31,473	-0,257	-0,153
206,275	-19,312	-0,242	-0,104
207,290	15,156	-0,250	-0,136
208,304	-200,000	-0,064	-0,238
209,319	-29,974	-0,245	-0,096
210,334	115,992	-0,233	-0,199
211,348	207,279	-0,199	-0,216
212,363	220,826	-0,215	-0,240
213,377	199,135	-0,124	-0,133
214,392	265,830	-0,129	-0,157
215,407	-49,842	-0,164	-0,054
216,421	266,951	-0,090	-0,109
217,436	-7,071	-0,219	-0,103
218,450	33,337	-0,344	-0,207
219,465	-34,576	-0,245	-0,093
220,480	-180,879	-0,112	0,002
221,494	-133,948	-0,302	0,026
222,509	74,764	-0,236	-0,172
223,523	317,687	-0,127	-0,168
224,538	800,000	-0,089	-0,236
225,553	351,671	-0,198	-0,273
226,567	18,047	-0,263	-0,145
227,582	-39,078	-0,122	-0,044
228,596	28,566	-0,174	-0,102
229,611	379,369	-0,133	-0,190
230,626	-16,967	-0,161	-0,070
231,640	-3,160	-0,286	-0,138
232,655	-2,259	-0,098	-0,047
233,669	103,304	-0,185	-0,150
234,684	350,926	-0,118	-0,163
235,699	72,594	-0,100	-0,073
236,713	159,929	-0,126	-0,122
237,728	6,650	-0,254	-0,130
238,742	800,000	-0,121	-0,235
239,757	47,867	-0,260	-0,168
240,772	800,000	-0,168	-0,406
241,786	800,000	-0,116	-0,266
242,801	-69,861	-0,194	-0,051
243,815	149,110	-0,219	-0,205
244,830	-36,855	-0,181	-0,067
245,844	23,937	-0,173	-0,098
246,859	-30,835	-0,201	-0,078
247,874	12,432	-0,200	-0,106
248,888	236,593	-0,214	-0,246
249,903	800,000	-0,089	-0,225
250,917	-54,045	-0,160	-0,050
251,932	800,000	-0,072	-0,197
252,947	610,091	-0,088	-0,153
253,961	-19,335	-0,288	-0,123
254,976	800,000	-0,064	-0,176
255,990	297,160	-0,140	-0,178
257,005	505,716	-0,080	-0,128
258,020	-118,184	-0,175	0,021
259,034	326,501	-0,122	-0,163
260,049	157,572	-0,203	-0,195
261,063	45,120	-0,192	-0,122
262,078	38,232	-0,104	-0,064
263,093	-98,031	-0,262	-0,046
264,107	281,179	-0,133	-0,165
265,122	69,484	-0,153	-0,109
266,136	-124,998	-0,124	-0,013
267,151	-73,291	-0,113	0,028
268,166	-34,762	-0,174	-0,065
269,180	-58,168	-0,185	-0,055
270,195	161,406	-0,142	-0,137
271,209	233,244	-0,153	-0,175
272,224	800,000	-0,080	-0,188
273,239	41,899	-0,073	-0,046
274,253	-155,783	-0,230	0,010
275,268	-52,918	-0,022	0,007
276,282	-141,147	-0,141	-0,010
277,297	50,033	-0,243	-0,158
278,312	128,097	-0,162	-0,143
279,326	-154,379	-0,234	-0,011
280,341	-200,000	-0,049	0,000
281,355	-18,620	-0,101	-0,043
282,370	-30,356	-0,167	-0,065
283,384	238,571	-0,123	-0,142
284,399	156,301	-0,201	-0,192
285,414	-190,031	-0,190	0,001
286,428	324,571	-0,207	-0,273
287,443	492,331	-0,079	-0,125
288,457	800,000	-0,059	-0,124
289,472	7,156	-0,159	-0,082
290,487	800,000	-0,065	-0,180
291,501	58,418	-0,201	-0,136
292,516	-142,738	-0,237	-0,016
293,530	25,375	-0,122	-0,070
294,545	-137,212	-0,157	-0,012
295,560	156,850	-0,092	-0,088
296,574	267,522	-0,199	-0,240
297,589	-16,743	-0,258	-0,112
298,603	142,819	-0,146	-0,134
299,618	207,908	-0,152	-0,163
300,633	800,000	-0,037	-0,073
301,647	34,966	-0,193	-0,116
302,662	96,682	-0,090	0,071
303,676	276,287	-0,096	-0,118
304,691	-69,539	-0,064	0,017
305,706	114,460	-0,190	-0,160
306,720	-200,000	-0,023	-0,192
307,735	320,432	-0,144	-0,189
308,749	677,099	-0,133	-0,240
309,764	800,000	-0,048	-0,122
310,779	-11,512	-0,170	-0,077
311,793	-81,500	-0,196	-0,044
312,808	79,116	-0,200	-0,148
313,822	91,586	-0,212	-0,164
314,837	-92,526	-0,150	-0,029
315,852	194,366	-0,114	-0,119
316,866	254,267	-0,137	-0,161
317,881	-7,301	-0,092	0,043
318,895	168,040	-0,194	-0,190
319,910	-8,217	-0,217	-0,100
320,925	296,550	-0,128	-0,162
321,939	800,000	-0,102	-0,199
322,954	800,000	-0,025	-0,057
323,968	-200,000	-0,001	0,216
324,983	148,435	-0,097	-0,090
325,997	193,908	-0,093	-0,097
327,012	-11,090	-0,135	-0,061
328,027	169,566	-0,116	-0,114
329,041	-153,264	-0,035	-0,002
330,056	309,703	-0,074	-0,096
331,070	-27,336	-0,273	-0,109
332,085	40,135	-0,084	-0,052
333,100	70,448	-0,072	-0,051
334,114	-200,000	-0,040	-0,175
335,129	-200,000	-0,018	-0,094
336,143	249,735	-0,210	-0,245
337,158	58,889	-0,151	-0,102
338,173	98,953	-0,107	-0,085
339,187	800,000	-0,051	-0,151
340,202	-200,000	-0,015	-0,083
341,216	-117,220	-0,188	-0,023
342,231	209,080	-0,164	-0,176
343,246	317,017	-0,099	-0,129
344,260	170,623	-0,102	-0,100
345,275	-200,000	-0,040	-0,212
346,289	-154,984	-0,204	-0,009
347,304	-95,040	-0,111	-0,020
348,319	-176,868	-0,167	0,003
349,333	-200,000	-0,007	-0,063
350,348	-13,636	-0,143	-0,063
351,362	165,480	-0,165	-0,160
352,377	-99,709	-0,159	0,027
353,392	143,506	-0,108	-0,099
354,406	800,000	-0,051	-0,131
355,421	209,357	1313,435	1414,025
356,435	161,130	1473,994	1414,523
