DTS Sentinel unit serial number:	SN410029Multiplexer serial number:	ORYXHardware model number:	OX2-SRSoftware version number:	ORYX F/W v4,00 Oryx Data Collector v3.7.2.0data status	okinstallation	B3 Nyhavnadifferential loss correction	single-endedforward channel	channel 1reverse channel	N/Adate	2023/12/03time	04:37:30forward acquisition time	300,00reverse acquisition time	0,00gamma	499,1914k internal	0,3201k external	0,3201temperature offset calibration	1,0000default loss term (dB/km)	0,3820temperature slope calibration	1,0000multiplexer offset coefficient	1,0000multiplexer slope coefficient	1,0000fibre end	0,00T internal ref (°C)	13,31T ext. ref 1 (°C)	-1,80T ext. ref 2 (°C)	-1,81length (m)	temperature (°C)	Stokes	anti-Stokes-744,400	300,327	-0,231	-0,311
-743,385	800,000	0,145	0,335
-742,371	310,754	-0,068	-0,092
-741,356	-200,000	0,045	0,392
-740,342	-12,879	-0,174	-0,082
-739,327	-200,000	-0,017	0,300
-738,312	236,031	-0,237	-0,286
-737,298	-200,000	-0,050	0,200
-736,283	800,000	-0,159	-0,354
-735,269	-200,000	-0,017	0,473
-734,254	-16,833	-0,198	-0,090
-733,239	269,219	-0,185	0,236
-732,225	-200,000	-0,012	-0,224
-731,210	168,968	0,026	0,027
-730,196	218,117	0,021	0,025
-729,181	0,722	-0,128	-0,066
-728,167	-87,426	0,117	0,026
-727,152	168,875	0,073	0,076
-726,137	-127,175	-0,202	-0,021
-725,123	122,615	0,065	-0,059
-724,108	-200,000	0,018	-0,069
-723,094	-37,122	-0,181	0,070
-722,079	-69,100	-0,072	0,020
-721,064	9,428	-0,038	-0,021
-720,050	-92,552	0,093	-0,019
-719,035	490,345	-0,038	-0,063
-718,021	-200,000	0,003	0,070
-717,006	332,979	-0,048	-0,067
-715,991	338,677	-0,057	-0,080
-714,977	99,712	-0,109	-0,092
-713,962	-200,000	0,027	-0,172
-712,948	-88,110	0,072	-0,016
-711,933	-64,500	-0,094	0,028
-710,918	800,000	-0,025	-0,069
-709,904	800,000	-0,015	0,039
-708,889	630,445	-0,034	-0,062
-707,875	262,649	-0,121	-0,153
-706,860	800,000	-0,008	0,021
-705,845	129,452	0,063	-0,058
-704,831	264,642	0,051	0,064
-703,816	-200,000	0,004	-0,018
-702,802	-24,315	0,033	-0,014
-701,787	-29,470	-0,262	-0,108
-700,772	-48,542	-0,097	-0,034
-699,758	744,327	-0,080	0,157
-698,743	140,768	-0,032	0,031
-697,729	-142,658	0,038	0,003
-696,714	-158,396	0,087	-0,004
-695,699	-200,000	0,006	0,214
-694,685	800,000	-0,029	-0,066
-693,670	-113,931	-0,137	0,019
-692,656	115,233	-0,052	0,046
-691,641	-200,000	0,015	0,141
-690,627	-200,000	0,030	0,152
-689,612	800,000	0,045	0,115
-688,597	603,636	-0,068	-0,123
-687,583	-187,757	-0,112	-0,001
-686,568	-109,463	-0,045	-0,007
-685,554	63,346	-0,130	-0,095
-684,539	800,000	0,022	0,063
-683,524	-200,000	-0,004	-0,047
-682,510	36,669	-0,015	0,010
-681,495	82,562	-0,075	0,059
-680,481	-114,384	-0,121	0,017
-679,466	224,677	0,024	0,028
-678,451	-24,808	0,045	-0,019
-677,437	-200,000	0,019	0,076
-676,422	3,332	0,046	0,024
-675,408	-54,317	0,026	0,009
-674,393	800,000	-0,024	0,066
-673,378	243,064	-0,042	0,051
-672,364	255,082	-0,039	-0,049
-671,349	66,330	-0,075	-0,055
-670,335	800,000	0,015	0,042
-669,320	423,061	0,052	0,081
-668,305	351,187	0,012	-0,017
-667,291	127,281	-0,080	-0,074
-666,276	221,313	0,082	-0,096
-665,262	-200,000	0,009	-0,031
-664,247	-16,164	-0,056	-0,026
-663,232	-53,728	-0,081	-0,027
-662,218	800,000	-0,029	0,084
-661,203	72,386	-0,072	0,055
-660,189	-90,769	0,070	-0,015
-659,174	133,814	-0,120	-0,112
-658,159	800,000	0,035	-0,106
-657,145	-62,496	0,104	0,031
-656,130	-19,810	0,016	-0,007
-655,116	-2,974	-0,022	-0,011
-654,101	100,350	-0,070	0,059
-653,086	130,927	0,113	0,106
-652,072	217,861	0,047	-0,054
-651,057	800,000	-0,042	0,107
-650,043	-33,404	-0,044	-0,018
-649,028	-200,000	0,014	-0,065
-648,014	800,000	0,024	0,056
-646,999	-200,000	-0,009	-0,039
-645,984	-200,000	0,023	0,202
-644,970	280,130	-0,102	0,132
-643,955	146,332	-0,122	-0,119
-642,941	-200,000	-0,006	-0,109
-641,926	-38,104	0,019	0,007
-640,911	-200,000	0,008	0,099
-639,897	54,153	0,102	0,071
-638,882	-200,000	-0,006	0,144
-637,868	216,944	-0,089	-0,103
-636,853	-200,000	-0,000	-0,101
-635,838	608,756	-0,054	-0,098
-634,824	138,659	0,094	0,089
-633,809	-200,000	-0,005	-0,252
-632,795	800,000	0,011	-0,023
-631,780	29,694	-0,039	0,024
-630,765	-200,000	-0,022	-0,119
-629,751	-200,000	0,001	0,071
-628,736	264,469	-0,047	0,060
-627,722	67,728	-0,104	0,077
-626,707	-200,000	0,018	0,068
-625,692	120,641	0,011	0,009
-624,678	-200,000	-0,015	-0,056
-623,663	113,983	0,075	-0,066
-622,649	-200,000	-0,009	-0,126
-621,634	-12,193	0,053	-0,025
-620,619	-0,098	-0,136	0,070
-619,605	800,000	-0,015	0,040
-618,590	-38,759	0,048	-0,018
-617,576	-92,789	0,051	0,010
-616,561	-122,995	-0,065	-0,008
-615,546	-6,486	-0,054	0,026
-614,532	252,987	0,045	0,056
-613,517	-90,898	-0,111	-0,023
-612,503	800,000	-0,023	-0,061
-611,488	295,417	-0,051	0,068
-610,474	-200,000	0,019	0,198
-609,459	800,000	-0,021	0,061
-608,444	-114,171	-0,097	0,013
-607,430	452,594	0,069	-0,111
-606,415	-200,000	0,001	-0,141
-605,401	17,350	-0,112	0,064
-604,386	40,961	0,112	0,073
-603,371	-200,000	-0,021	0,213
-602,357	292,086	-0,025	0,032
-601,342	-154,677	-0,152	0,007
-600,328	-7,632	-0,064	-0,031
-599,313	-74,299	0,092	0,024
-598,298	93,055	-0,051	0,042
-597,284	-21,880	0,140	0,061
-596,269	-4,437	-0,082	0,041
-595,255	101,557	0,107	0,090
-594,240	-200,000	-0,010	-0,089
-593,225	76,364	-0,113	0,087
-592,211	-84,478	0,024	-0,005
-591,196	334,033	-0,075	0,105
-590,182	213,385	0,060	0,068
-589,167	84,687	-0,014	-0,011
-588,152	278,249	-0,019	0,025
-587,138	-80,229	-0,011	-0,003
-586,123	105,464	-0,020	0,017
-585,109	74,297	-0,043	-0,032
-584,094	800,000	-0,055	-0,153
-583,079	455,832	0,034	0,054
-582,065	51,046	0,139	0,095
-581,050	80,191	0,086	0,066
-580,036	-200,000	-0,004	-0,156
-579,021	-137,902	-0,025	0,002
-578,006	-200,000	-0,010	0,108
-576,992	800,000	0,030	0,090
-575,977	-66,249	0,081	-0,023
-574,963	-200,000	0,006	0,037
-573,948	123,373	-0,066	-0,060
-572,934	-34,468	0,175	0,069
-571,919	800,000	0,039	-0,088
-570,904	46,738	-0,126	0,084
-569,890	90,462	0,089	-0,072
-568,875	57,600	0,054	-0,038
-567,861	305,147	0,048	0,064
-566,846	-143,787	0,198	0,013
-565,831	-200,000	0,005	0,083
-564,817	-78,873	-0,051	-0,013
-563,802	-200,000	0,010	-0,145
-562,788	444,286	-0,033	-0,053
-561,773	-18,584	0,079	0,035
-560,758	-200,000	0,034	-0,145
-559,744	-68,475	-0,058	-0,016
-558,729	-200,000	-0,013	-0,117
-557,715	567,820	-0,045	0,079
-556,700	322,636	0,096	-0,133
-555,685	800,000	-0,029	-0,089
-554,671	-126,599	0,073	-0,008
-553,656	-200,000	-0,009	0,078
-552,642	800,000	-0,021	0,056
-551,627	-13,929	-0,038	0,018
-550,612	-16,250	-0,058	-0,027
-549,598	5,975	0,098	-0,052
-548,583	-89,913	-0,065	-0,014
-547,569	800,000	-0,025	0,050
-546,554	-117,926	0,026	0,003
-545,539	-200,000	0,011	-0,042
-544,525	268,755	-0,044	0,056
-543,510	-200,000	0,000	0,019
-542,496	-200,000	0,018	-0,096
-541,481	800,000	-0,049	-0,106
-540,466	42,773	-0,108	0,071
-539,452	-78,399	0,072	0,018
-538,437	94,086	0,058	-0,047
-537,423	113,106	0,059	-0,051
-536,408	407,068	-0,064	-0,099
-535,393	-128,562	-0,102	0,010
-534,379	-200,000	0,012	-0,054
-533,364	800,000	0,029	-0,084
-532,350	-200,000	-0,014	0,056
-531,335	-200,000	0,020	-0,105
-530,321	-40,806	-0,047	0,018
-529,306	-26,632	0,102	-0,043
-528,291	-35,499	-0,119	0,046
-527,277	-200,000	0,002	-0,007
-526,262	26,286	0,092	-0,055
-525,248	156,505	-0,054	-0,054
-524,233	-27,332	-0,087	-0,036
-523,218	38,183	0,044	0,028
-522,204	-200,000	0,006	0,083
-521,189	-126,544	-0,026	-0,003
-520,175	223,046	-0,036	-0,042
-519,160	-200,000	0,019	0,169
-518,145	73,633	0,126	0,095
-517,131	800,000	-0,031	-0,089
-516,116	-155,209	-0,106	-0,005
-515,102	94,253	-0,101	0,083
-514,087	-138,372	-0,060	-0,005
-513,072	302,507	-0,123	-0,165
-512,058	-200,000	-0,036	-0,200
-511,043	150,285	0,082	-0,080
-510,029	70,398	-0,058	0,043
-509,014	151,745	-0,087	-0,085
-507,999	-200,000	0,000	-0,017
-506,985	-200,000	0,024	0,080
-505,970	273,890	-0,098	-0,125
-504,956	800,000	-0,039	-0,086
-503,941	800,000	0,032	-0,067
-502,926	133,829	0,058	0,054
-501,912	-22,492	0,110	0,048
-500,897	72,062	-0,090	-0,068
-499,883	45,567	-0,023	0,015
-498,868	800,000	0,031	-0,068
-497,853	-200,000	0,009	0,074
-496,839	-200,000	0,005	-0,020
-495,824	18,620	0,144	0,083
-494,810	-136,632	0,068	0,006
-493,795	456,658	0,115	-0,185
-492,781	208,200	-0,058	-0,065
-491,766	800,000	-0,045	-0,116
-490,751	-200,000	0,011	-0,058
-489,737	242,535	0,053	-0,063
-488,722	-200,000	0,022	-0,130
-487,708	-88,179	0,100	-0,021
-486,693	773,559	0,048	0,094
-485,678	-200,000	-0,002	-0,037
-484,664	-70,123	-0,106	-0,029
-483,649	-200,000	0,036	0,136
-482,635	583,871	0,087	-0,154
-481,620	17,012	-0,059	0,034
-480,605	-200,000	-0,012	0,089
-479,591	-111,505	0,082	0,012
-478,576	-200,000	0,033	-0,184
-477,562	-103,720	0,137	0,023
-476,547	-51,206	0,067	0,023
-475,532	800,000	-0,020	-0,040
-474,518	1,708	0,066	-0,034
-473,503	-200,000	-0,020	0,082
-472,489	79,889	0,050	-0,039
-471,474	434,729	0,018	-0,029
-470,459	53,560	-0,073	0,050
-469,445	-76,053	-0,033	-0,008
-468,430	-200,000	-0,000	-0,088
-467,416	800,000	-0,029	0,086
-466,401	358,413	-0,019	-0,028
-465,386	-63,210	0,158	0,047
-464,372	157,466	-0,026	-0,026
-463,357	-177,146	-0,101	-0,002
-462,343	-200,000	0,005	0,057
-461,328	-200,000	-0,002	0,168
-460,313	-80,925	0,105	0,025
-459,299	233,806	0,007	0,008
-458,284	-0,232	0,086	-0,044
-457,270	-200,000	-0,017	0,072
-456,255	-200,000	0,015	-0,126
-455,241	39,081	0,012	-0,008
-454,226	800,000	0,021	0,045
-453,211	-200,000	-0,019	0,130
-452,197	-142,068	0,013	-0,001
-451,182	-200,000	0,019	-0,113
-450,168	-200,000	0,010	-0,060
-449,153	-200,000	-0,005	-0,039
-448,138	-200,000	-0,011	-0,170
-447,124	-5,429	0,054	0,027
-446,109	-150,483	0,072	0,004
-445,095	-200,000	-0,006	-0,074
-444,080	-151,473	0,121	-0,006
-443,065	297,106	-0,016	0,021
-442,051	800,000	-0,014	0,037
-441,036	-200,000	-0,031	0,117
-440,022	-76,112	-0,099	-0,025
-439,007	-200,000	0,025	0,104
-437,992	84,055	0,087	0,068
-436,978	-200,000	-0,019	0,105
-435,963	636,569	-0,045	0,082
-434,949	-200,000	0,022	0,073
-433,934	397,530	-0,007	-0,010
-432,919	489,938	0,014	-0,023
-431,905	-136,937	-0,056	0,005
-430,890	-200,000	0,067	0,227
-429,876	800,000	-0,032	0,073
-428,861	-12,625	0,053	-0,025
-427,846	90,583	0,093	0,075
-426,832	800,000	-0,024	-0,067
-425,817	-80,355	0,091	-0,022
-424,803	323,898	0,034	0,047
-423,788	-92,217	-0,055	0,011
-422,773	-200,000	0,013	0,077
-421,759	339,024	-0,060	0,084
-420,744	-176,815	0,034	0,001
-419,730	649,115	0,039	-0,073
-418,715	-28,513	-0,105	-0,043
-417,701	378,429	-0,011	-0,016
-416,686	223,706	0,040	0,047
-415,671	177,601	0,066	0,069
-414,657	800,000	-0,020	-0,061
-413,642	90,309	-0,095	-0,076
-412,628	-200,000	-0,002	0,059
-411,613	430,879	-0,041	-0,064
-410,598	-200,000	0,008	-0,129
-409,584	29,683	-0,037	-0,023
-408,569	-200,000	0,030	0,128
-407,555	27,648	0,076	0,046
-406,540	-200,000	0,018	0,097
-405,525	678,535	-0,025	-0,046
-404,511	800,000	-0,011	0,023
-403,496	-200,000	0,005	-0,069
-402,482	-200,000	0,010	0,033
-401,467	-200,000	0,017	0,109
-400,452	-49,805	0,060	0,020
-399,438	595,153	-0,045	0,080
-398,423	24,086	-0,162	-0,096
-397,409	65,143	0,066	0,047
-396,394	671,367	-0,064	-0,120
-395,379	800,000	0,027	-0,064
-394,365	-153,973	-0,096	0,005
-393,350	-37,397	-0,062	0,024
-392,336	722,219	0,052	-0,100
-391,321	-200,000	0,007	0,034
-390,306	800,000	-0,025	-0,067
-389,292	800,000	-0,013	-0,037
-388,277	-3,134	0,123	0,061
-387,263	258,630	0,022	0,027
-386,248	14,713	0,127	-0,071
-385,233	-12,028	0,018	0,009
-384,219	25,113	-0,028	-0,017
-383,204	229,369	-0,032	-0,038
-382,190	-62,209	0,062	0,018
-381,175	341,578	0,078	-0,110
-380,160	-7,491	-0,047	0,023
-379,146	177,688	0,121	0,127
-378,131	-200,000	0,015	0,132
-377,117	35,050	0,083	-0,052
-376,102	-82,530	-0,058	0,013
-375,088	226,419	-0,077	-0,089
-374,073	13,156	-0,122	0,068
-373,058	70,688	0,086	0,063
-372,044	321,490	0,029	0,040
-371,029	59,888	0,114	0,081
-370,015	800,000	-0,055	-0,115
-369,000	-71,999	-0,119	0,031
-367,985	-200,000	-0,030	0,163
-366,971	-200,000	0,001	-0,141
-365,956	800,000	-0,056	0,117
-364,942	-87,920	0,048	0,010
-363,927	66,771	0,136	0,099
-362,912	-200,000	-0,003	0,137
-361,898	-200,000	-0,007	0,022
-360,883	800,000	-0,030	0,061
-359,869	-200,000	0,040	-0,137
-358,854	478,475	-0,054	0,087
-357,839	260,981	-0,048	-0,060
-356,825	800,000	-0,062	0,161
-355,810	262,697	-0,045	-0,056
-354,796	-50,147	-0,115	-0,039
-353,781	-101,971	-0,126	0,022
-352,766	35,373	0,015	-0,009
-351,752	607,575	-0,022	-0,039
-350,737	545,865	0,069	0,119
-349,723	196,427	0,096	-0,105
-348,708	800,000	-0,020	0,050
-347,693	-78,473	0,126	-0,031
-346,679	-75,105	-0,121	-0,031
-345,664	800,000	-0,025	-0,054
-344,650	-127,835	0,120	-0,012
-343,635	33,209	0,096	0,059
-342,620	329,983	0,050	0,069
-341,606	-200,000	0,029	0,095
-340,591	464,079	-0,036	0,057
-339,577	107,630	-0,080	-0,068
-338,562	-200,000	-0,034	-0,173
-337,548	52,620	-0,124	0,084
-336,533	408,563	-0,090	-0,137
-335,518	800,000	-0,052	-0,117
-334,504	118,375	-0,048	-0,042
-333,489	145,701	0,035	-0,033
-332,475	-14,841	0,080	0,037
-331,460	-128,188	-0,049	0,005
-330,445	146,501	0,054	0,052
-329,431	-200,000	0,035	-0,209
-328,416	-200,000	-0,016	0,151
-327,402	449,312	0,050	0,079
-326,387	734,113	-0,041	0,079
-325,372	-127,530	-0,079	0,008
-324,358	333,497	-0,074	-0,103
-323,343	-116,057	-0,045	0,006
-322,329	261,335	-0,012	0,015
-321,314	-200,000	-0,020	0,140
-320,299	279,989	-0,071	0,092
-319,285	-27,249	-0,097	0,040
-318,270	381,153	0,057	0,084
-317,256	575,813	0,058	-0,102
-316,241	-200,000	-0,029	0,112
-315,226	-200,000	-0,012	-0,076
-314,212	800,000	0,018	0,052
-313,197	-99,153	-0,064	-0,011
-312,183	-48,956	0,085	-0,029
-311,168	86,173	0,049	0,039
-310,153	-200,000	0,003	-0,086
-309,139	-200,000	-0,002	-0,057
-308,124	280,091	0,081	-0,104
-307,110	230,607	0,058	0,068
-306,095	56,844	0,066	-0,046
-305,080	297,931	0,037	0,049
-304,066	409,065	-0,052	-0,079
-303,051	763,219	-0,047	-0,092
-302,037	627,815	-0,053	0,096
-301,022	345,771	-0,073	0,103
-300,008	-200,000	0,012	0,155
-298,993	800,000	0,021	0,046
-297,978	30,783	0,150	0,092
-296,964	-3,425	-0,167	-0,083
-295,949	800,000	-0,060	-0,139
-294,935	800,000	-0,061	-0,190
-293,920	800,000	0,030	0,081
-292,905	-49,472	0,073	-0,025
-291,891	-98,738	0,046	0,008
-290,876	-200,000	-0,034	-0,148
-289,862	234,298	-0,069	-0,081
-288,847	103,735	-0,090	-0,076
-287,832	-200,000	0,001	0,059
-286,818	-133,003	-0,101	0,009
-285,803	-189,886	0,105	-0,001
-284,789	800,000	0,042	-0,104
-283,774	28,989	0,022	-0,013
-282,759	-200,000	0,019	-0,079
-281,745	-132,792	-0,049	-0,004
-280,730	-92,442	-0,090	-0,018
-279,716	-200,000	-0,013	0,059
-278,701	-81,468	0,085	-0,020
-277,686	23,696	0,065	0,038
-276,672	195,013	-0,030	0,033
-275,657	476,051	-0,032	-0,051
-274,643	304,220	-0,065	-0,086
-273,628	-200,000	-0,011	-0,133
-272,613	20,611	0,154	-0,089
-271,599	-29,328	0,068	0,028
-270,584	800,000	-0,024	0,060
-269,570	800,000	0,054	0,143
-268,555	-88,383	-0,153	0,032
-267,540	-119,984	-0,023	0,003
-266,526	800,000	0,050	0,113
-265,511	800,000	-0,043	-0,111
-264,497	800,000	0,045	-0,112
-263,482	314,187	0,038	-0,052
-262,467	128,339	0,008	-0,007
-261,453	-76,045	-0,075	-0,019
-260,438	800,000	-0,084	-0,219
-259,424	-22,397	-0,084	-0,036
-258,409	-23,976	0,012	0,005
-257,395	-200,000	0,015	0,209
-256,380	189,734	-0,053	0,056
-255,365	-200,000	-0,013	0,219
-254,351	175,960	-0,082	-0,085
-253,336	-163,714	0,107	-0,004
-252,322	15,935	-0,043	0,024
-251,307	12,033	-0,035	-0,019
-250,292	-200,000	-0,014	-0,074
-249,278	-200,000	-0,020	0,103
-248,263	-23,580	0,131	-0,056
-247,249	299,874	0,029	-0,038
-246,234	-200,000	0,001	0,029
-245,219	-41,599	-0,074	-0,027
-244,205	-14,426	-0,115	-0,053
-243,190	6,977	-0,050	-0,027
-242,176	-200,000	-0,003	0,183
-241,161	-76,836	0,058	0,014
-240,146	-200,000	0,009	0,078
-239,132	-152,085	0,122	-0,006
-238,117	-98,983	-0,048	-0,009
-237,103	152,652	0,038	-0,037
-236,088	322,402	0,100	0,136
-235,073	303,026	0,019	0,025
-234,059	-9,986	0,044	-0,021
-233,044	800,000	0,013	0,030
-232,030	-124,047	-0,114	0,013
-231,015	159,442	-0,191	-0,189
-230,000	169,564	-0,128	-0,130
-228,986	96,650	0,100	-0,081
-227,971	-62,935	0,020	-0,006
-226,957	300,497	-0,066	0,087
-225,942	-63,411	0,107	0,031
-224,927	800,000	-0,045	-0,109
-223,913	-200,000	0,004	-0,026
-222,898	81,189	0,081	0,063
-221,884	-88,932	-0,106	-0,022
-220,869	-155,773	-0,067	-0,003
-219,855	17,963	0,057	-0,032
-218,840	46,397	0,051	0,034
-217,825	47,921	0,084	0,056
-216,811	800,000	-0,056	-0,115
-215,796	-152,408	-0,063	-0,003
-214,782	800,000	-0,064	0,165
-213,767	399,322	0,057	0,086
-212,752	800,000	-0,028	0,060
-211,738	800,000	-0,012	-0,035
-210,723	-200,000	-0,009	-0,155
-209,709	132,109	0,046	-0,042
-208,694	53,007	-0,098	0,067
-207,679	-200,000	0,001	-0,026
-206,665	-185,821	-0,056	0,001
-205,650	-200,000	-0,021	-0,115
-204,636	800,000	0,010	0,023
-203,621	-135,635	0,216	0,018
-202,606	613,013	-0,045	-0,081
-201,592	-155,098	-0,129	0,006
-200,577	287,309	0,089	0,114
-199,563	800,000	0,047	-0,096
-198,548	489,063	0,023	-0,038
-197,533	-200,000	0,022	-0,086
-196,519	40,031	0,143	0,091
-195,504	157,777	0,082	-0,081
-194,490	-200,000	-0,044	0,000
-193,475	-102,209	0,090	-0,015
-192,460	102,798	-0,068	0,057
-191,446	800,000	0,059	0,170
-190,431	374,142	0,022	0,032
-189,417	26,615	0,089	0,053
-188,402	323,726	-0,086	0,117
-187,387	-200,000	-0,002	-0,038
-186,373	372,877	-0,025	-0,037
-185,358	563,094	-0,017	0,030
-184,344	-16,822	-0,154	0,069
-183,329	-200,000	0,003	0,042
-182,315	-200,000	0,019	0,080
-181,300	190,913	0,086	-0,092
-180,285	-26,271	-0,080	0,033
-179,271	467,001	-0,057	0,092
-178,256	-200,000	-0,021	-0,106
-177,242	117,232	0,201	-0,176
-176,227	119,191	-0,045	0,040
-175,212	660,337	0,059	0,109
-174,198	434,579	-0,071	0,110
-173,183	800,000	0,033	-0,072
-172,169	134,428	-0,031	-0,028
-171,154	-200,000	-0,008	0,077
-170,139	518,594	-0,028	0,046
-169,125	-4,868	-0,072	0,035
-168,110	-102,764	0,178	-0,030
-167,096	-48,113	-0,083	0,028
-166,081	-11,503	0,031	0,015
-165,066	335,779	0,086	-0,119
-164,052	-24,354	-0,115	-0,049
-163,037	-200,000	-0,006	0,022
-162,023	-200,000	0,030	-0,167
-161,008	206,005	-0,050	0,056
-159,993	651,882	0,019	0,036
-158,979	-121,919	0,037	0,004
-157,964	410,032	-0,037	-0,056
-156,950	800,000	0,043	-0,106
-155,935	16,304	0,077	0,043
-154,920	-200,000	0,019	0,119
-153,906	-200,000	0,009	0,090
-152,891	800,000	-0,029	0,074
-151,877	-200,000	-0,007	-0,036
-150,862	-166,106	0,071	-0,002
-149,847	-49,145	0,060	0,020
-148,833	32,890	-0,012	-0,008
-147,818	-108,115	-0,078	-0,012
-146,804	-161,557	0,116	0,004
-145,789	537,114	0,046	0,078
-144,775	-27,518	-0,099	-0,041
-143,760	107,036	0,050	-0,042
-142,745	800,000	-0,042	0,130
-141,731	-45,954	-0,039	-0,014
-140,716	800,000	0,024	-0,058
-139,702	29,028	0,097	0,058
-138,687	-129,231	-0,089	-0,009
-137,672	-136,898	0,185	0,015
-136,658	112,188	0,062	-0,053
-135,643	560,554	-0,033	-0,057
-134,629	120,632	-0,029	0,025
-133,614	-37,869	0,096	0,036
-132,599	-200,000	-0,015	0,055
-131,585	457,038	0,041	0,064
-130,570	11,039	0,095	0,052
-129,556	-43,400	-0,056	0,020
-128,541	149,069	-0,109	-0,105
-127,526	-200,000	0,015	0,048
-126,512	-79,170	-0,053	0,013
-125,497	146,381	0,070	0,067
-124,483	24,401	0,120	0,070
-123,468	122,528	0,105	-0,093
-122,453	-91,044	-0,125	-0,025
-121,439	-200,000	0,017	-0,145
-120,424	-118,016	-0,178	-0,022
-119,410	635,745	0,066	0,119
-118,395	54,193	-0,093	0,063
-117,380	-60,237	0,135	0,041
-116,366	296,046	-0,031	0,041
-115,351	-200,000	0,002	-0,155
-114,337	-200,000	-0,010	-0,152
-113,322	-32,990	-0,043	0,017
-112,307	502,774	-0,047	0,078
-111,293	350,210	0,082	0,115
-110,278	547,276	-0,029	0,049
-109,264	18,750	0,005	0,003
-108,249	-200,000	0,003	0,054
-107,234	-2,745	-0,075	0,037
-106,220	-8,562	-0,092	-0,044
-105,205	272,073	-0,065	0,082
-104,191	-31,762	-0,023	-0,009
-103,176	31,444	0,030	-0,018
-102,162	164,969	0,099	-0,100
-101,147	-200,000	0,005	-0,091
-100,132	-200,000	0,029	-0,146
-99,118	100,634	0,059	-0,049
-98,103	-38,961	-0,016	0,006
-97,089	-51,890	0,072	-0,024
-96,074	123,100	-0,013	-0,011
-95,059	-146,770	0,127	-0,008
-94,045	-83,541	-0,009	0,002
-93,030	-141,494	-0,157	0,011
-92,016	-200,000	-0,003	-0,014
-91,001	-140,692	0,033	0,002
-89,986	-200,000	0,013	0,088
-88,972	95,228	0,034	0,028
-87,957	-72,861	0,082	0,021
-86,943	42,688	-0,076	-0,049
-85,928	-200,000	0,013	0,085
-84,913	-200,000	0,005	-0,053
-83,899	107,988	0,031	-0,026
-82,884	800,000	0,020	0,043
-81,870	-28,940	-0,114	0,046
-80,855	-72,786	0,080	-0,021
-79,840	-142,242	0,098	-0,007
-78,826	29,930	-0,175	-0,105
-77,811	252,045	-0,062	0,075
-76,797	75,568	0,058	0,044
-75,782	418,977	0,003	0,004
-74,767	152,527	0,113	0,110
-73,753	-200,000	-0,004	0,106
-72,738	-200,000	-0,008	-0,030
-71,724	66,744	-0,075	-0,054
-70,709	56,890	-0,084	-0,058
-69,694	37,885	0,048	0,030
-68,680	-200,000	0,016	0,112
-67,665	137,465	0,037	-0,034
-66,651	-140,628	0,132	-0,010
-65,636	446,937	-0,079	-0,123
-64,622	800,000	-0,069	-0,196
-63,607	800,000	-0,040	-0,082
-62,592	147,496	0,057	-0,054
-61,578	-94,900	-0,062	-0,012
-60,563	-8,866	0,109	0,052
-59,549	-200,000	-0,007	0,036
-58,534	-19,414	-1,622	-0,709
-57,519	422,895	-1,286	-1,963
-56,505	-200,000	-0,315	-4,592
-55,490	216,683	0,935	1,055
-54,476	800,000	4,997	11,452
-53,461	-200,000	19,177	320,496
-52,446	-200,000	741,042	2334,791
-51,432	572,913	1655,609	2868,495
-50,417	78,245	1670,947	1261,606
-49,403	21,259	1544,021	885,481
-48,388	15,187	1466,337	811,398
-47,373	17,966	1456,678	819,455
-46,359	16,683	1446,492	807,540
-45,344	13,436	1441,877	789,374
-44,330	13,315	1439,985	787,730
-43,315	13,419	1438,025	787,122
-42,300	13,367	1436,567	786,047
-41,286	13,402	1435,267	785,468
-40,271	13,408	1433,847	784,690
-39,257	13,356	1432,554	783,702
-38,242	13,393	1431,364	783,198
-37,227	13,431	1430,188	782,705
-36,213	13,393	1428,998	781,842
-35,198	13,386	1427,724	781,080
-34,184	13,423	1426,966	780,809
-33,169	13,390	1425,314	779,718
-32,154	13,479	1424,119	779,457
-31,140	13,410	1423,027	778,498
-30,125	13,445	1421,971	778,059
-29,111	13,399	1421,021	777,287
-28,096	13,397	1419,808	776,586
-27,082	13,361	1418,642	775,745
-26,067	13,363	1417,576	775,141
-25,052	13,350	1416,412	774,416
-24,038	13,309	1415,577	773,736
-23,023	13,315	1414,665	773,230
-22,009	13,310	1413,375	772,473
-20,994	13,281	1412,622	771,897
-19,979	13,272	1411,754	771,349
-18,965	13,250	1410,891	770,743
-17,950	13,302	1409,795	770,355
-16,936	13,315	1408,842	769,866
-15,921	13,290	1407,629	769,055
-14,906	13,250	1406,886	768,431
-13,892	13,268	1405,805	767,894
-12,877	13,270	1405,163	767,522
-11,863	13,269	1404,133	766,926
-10,848	13,231	1403,434	766,338
-9,833	13,210	1402,530	765,715
-8,819	13,162	1401,512	764,904
-7,804	13,146	1400,652	764,331
-6,790	13,160	1399,547	763,762
-5,775	13,173	1398,507	763,225
-4,760	13,174	1397,552	762,678
-3,746	13,189	1396,556	762,176
-2,731	13,124	1395,952	761,514
-1,717	13,131	1395,120	761,062
-0,702	13,114	1393,267	759,941
0,313	16,958	1310,034	732,353
1,327	33,140	703,568	430,710
2,342	51,482	123,092	82,615
3,356	3,452	16,712	8,588
4,371	-2,205	3,198	1,583
5,386	-14,933	0,486	0,220
6,400	390,380	0,127	0,188
7,415	-142,469	-0,228	-0,016
8,429	80,281	-0,319	-0,242
9,444	-5,845	-0,316	-0,152
10,459	5,934	-0,341	-0,178
11,473	-21,636	-0,369	-0,158
12,488	46,485	-0,333	-0,218
13,502	95,480	-0,316	-0,255
14,517	248,042	-0,227	-0,271
15,531	55,761	-0,421	-0,288
16,546	89,752	-0,231	-0,182
17,561	156,710	-0,281	-0,275
18,575	-62,356	-0,219	-0,064
19,590	74,938	-0,328	-0,244
20,604	-28,433	-0,265	-0,107
21,619	26,575	-0,525	-0,310
22,634	9,457	-0,453	-0,242
23,648	59,414	-0,407	-0,283
24,663	187,463	-0,346	-0,365
25,677	233,110	-0,274	-0,319
26,692	148,410	-0,314	-0,300
27,707	51,122	-0,353	-0,236
28,721	-23,441	-0,543	-0,229
29,736	386,999	-0,258	-0,377
30,750	144,738	-0,304	-0,287
31,765	134,426	-0,410	-0,375
32,780	27,822	-0,469	-0,278
33,794	40,042	-0,333	-0,211
34,809	515,920	-0,208	-0,345
35,823	131,848	-0,305	-0,277
36,838	67,616	-0,328	-0,236
37,853	44,638	-0,513	-0,332
38,867	88,991	-0,336	-0,263
39,882	-60,647	-0,325	-0,097
40,896	140,296	-0,282	-0,263
41,911	193,312	-0,273	-0,292
42,926	8,625	-0,451	-0,239
43,940	216,124	-0,260	-0,292
44,955	-21,532	-0,380	-0,162
45,969	107,107	-0,365	-0,305
46,984	128,829	-0,302	-0,272
47,999	78,412	-0,381	-0,286
49,013	-29,376	-0,380	-0,153
50,028	-5,862	-0,279	-0,134
51,042	86,134	-0,363	-0,281
52,057	620,663	-0,268	-0,477
53,071	55,682	-0,439	-0,299
54,086	78,756	-0,400	-0,301
55,101	94,024	-0,231	-0,185
56,115	107,666	-0,204	-0,171
57,130	21,406	-0,342	-0,195
58,144	34,456	-0,245	-0,150
59,159	-9,168	-0,563	-0,264
60,174	10,900	-0,425	-0,228
61,188	58,993	-0,385	-0,266
62,203	-10,007	-0,326	-0,152
63,217	20,658	-0,299	-0,170
64,232	-35,866	-0,392	-0,149
65,247	305,701	-0,237	-0,311
66,261	182,878	-0,311	-0,323
67,276	-7,551	-0,460	-0,218
68,290	63,786	-0,331	-0,234
69,305	-15,324	-0,310	-0,139
70,320	21,997	-0,313	-0,179
71,334	122,021	-0,323	-0,284
72,349	-23,124	-0,380	-0,160
73,363	-32,168	-0,402	-0,157
74,378	-27,950	-0,338	-0,137
75,393	-19,630	-0,357	-0,155
76,407	124,474	-0,254	-0,225
77,422	110,843	-0,269	-0,228
78,436	27,573	-0,292	-0,172
79,451	168,394	-0,222	-0,223
80,466	149,570	-0,257	-0,245
81,480	87,393	-0,341	-0,265
82,495	-69,492	-0,464	-0,124
83,509	222,696	-0,197	-0,224
84,524	16,097	-0,276	-0,153
85,539	-34,345	-0,359	-0,138
86,553	24,794	-0,214	-0,124
87,568	74,609	-0,320	-0,236
88,582	40,824	-0,394	-0,249
89,597	168,883	-0,325	-0,325
90,611	209,321	-0,183	-0,201
91,626	112,662	-0,207	-0,176
92,641	-5,753	-0,348	-0,167
93,655	31,355	-0,300	-0,180
94,670	96,537	-0,303	-0,243
95,684	178,398	-0,260	-0,266
96,699	210,578	-0,275	-0,304
97,714	252,474	-0,251	-0,301
98,728	56,496	-0,381	-0,259
99,743	-22,959	-0,250	-0,105
100,757	190,101	-0,246	-0,259
101,772	-58,985	-0,336	-0,101
102,787	168,879	-0,202	-0,202
103,801	203,257	-0,236	-0,256
104,816	-50,091	-0,309	-0,102
105,830	-172,406	-0,314	0,007
106,845	99,925	-0,225	-0,183
107,860	136,568	-0,222	-0,203
108,874	2,874	-0,315	-0,160
109,889	-48,981	-0,399	-0,133
110,903	183,913	-0,214	-0,222
111,918	82,527	-0,311	-0,236
112,933	-42,758	-0,189	-0,067
113,947	33,376	-0,136	-0,083
114,962	-77,394	-0,256	-0,062
115,976	55,960	-0,215	-0,146
116,991	-41,107	-0,302	-0,109
118,006	29,774	-0,234	-0,139
119,020	40,647	-0,274	-0,173
120,035	-24,867	-0,302	-0,125
121,049	121,983	-0,195	-0,171
122,064	51,462	-0,203	-0,135
123,079	637,613	-0,147	-0,262
124,093	-75,464	-0,293	-0,073
125,108	7,186	-0,239	-0,125
126,122	-26,902	-0,407	-0,166
127,137	-13,431	-0,284	-0,128
128,151	136,125	-0,232	-0,211
129,166	-88,614	-0,383	-0,079
130,181	-124,451	-0,268	0,029
131,195	227,924	-0,233	-0,266
132,210	186,245	-0,214	-0,223
133,224	-8,512	-0,270	-0,126
134,239	16,285	-0,220	-0,121
135,254	290,739	-0,186	-0,237
136,268	-10,670	-0,219	-0,101
137,283	106,214	-0,194	-0,161
138,297	17,022	-0,177	-0,098
139,312	-3,293	-0,367	-0,178
140,327	75,509	-0,258	-0,190
141,341	33,528	-0,227	-0,138
142,356	-18,152	-0,342	-0,149
143,370	-14,499	-0,176	-0,079
144,385	-72,232	-0,361	-0,093
145,400	738,280	-0,180	-0,339
146,414	23,295	-0,318	-0,182
147,429	800,000	-0,125	-0,345
148,443	-14,841	-0,222	-0,099
149,458	-14,491	-0,273	-0,122
150,473	-160,868	-0,226	-0,008
151,487	44,322	-0,303	-0,194
152,502	154,948	-0,248	-0,238
153,516	15,003	-0,210	-0,115
154,531	497,289	-0,168	-0,271
155,546	22,505	-0,222	-0,126
156,560	9,451	-0,122	-0,064
157,575	-116,775	-0,324	-0,041
158,589	90,684	-0,279	-0,218
159,604	0,271	-0,290	-0,144
160,619	70,809	-0,257	-0,186
161,633	-25,965	-0,412	-0,169
162,648	-14,216	-0,258	-0,116
163,662	74,612	-0,273	-0,200
164,677	356,819	-0,121	-0,169
165,692	-44,672	-0,168	-0,058
166,706	228,387	-0,163	-0,186
167,721	712,951	-0,123	-0,229
168,735	168,748	-0,256	-0,254
169,750	216,674	-0,227	-0,253
170,764	163,358	-0,178	-0,174
171,779	117,246	-0,221	-0,190
172,794	391,818	-0,143	-0,208
173,808	99,950	-0,222	-0,179
174,823	336,123	-0,171	-0,232
175,837	133,470	-0,199	-0,179
176,852	247,856	-0,171	-0,202
177,867	733,148	-0,150	-0,282
178,881	40,856	-0,163	-0,102
179,896	129,241	-0,121	-0,107
180,910	28,411	-0,228	-0,134
181,925	450,326	-0,231	-0,356
182,940	160,472	-0,276	-0,268
183,954	-118,741	-0,150	-0,018
184,969	203,096	-0,170	-0,183
185,983	77,432	-0,163	-0,120
186,998	286,536	-0,101	-0,128
188,013	525,135	-0,145	-0,239
189,027	79,350	-0,253	-0,189
190,042	162,517	-0,197	-0,192
191,056	352,247	-0,158	-0,219
192,071	64,554	-0,187	-0,131
193,086	67,611	-0,232	-0,165
194,100	72,172	-0,147	-0,106
195,115	164,872	-0,178	-0,175
196,129	37,526	-0,297	-0,183
197,144	13,857	-0,236	-0,127
198,159	274,488	-0,133	-0,164
199,173	127,398	-0,246	-0,218
200,188	-84,364	-0,150	-0,033
201,202	102,593	-0,223	-0,181
202,217	12,815	-0,243	-0,130
203,232	-20,634	-0,347	-0,147
204,246	800,000	-0,113	-0,224
205,261	422,022	-0,190	-0,285
206,275	268,870	-0,226	-0,276
207,290	553,514	-0,113	-0,189
208,304	631,973	-0,111	-0,197
209,319	159,263	-0,176	-0,171
210,334	-102,486	-0,292	-0,048
211,348	265,513	-0,183	-0,222
212,363	175,007	-0,240	-0,241
213,377	-40,685	-0,232	-0,083
214,392	-200,000	-0,025	-0,115
215,407	-43,825	-0,206	-0,072
216,421	96,692	-0,143	-0,113
217,436	12,985	-0,234	-0,125
218,450	74,288	-0,272	-0,198
219,465	131,559	-0,185	-0,166
220,480	637,920	-0,139	-0,245
221,494	800,000	-0,118	-0,270
222,509	90,052	-0,101	-0,079
223,523	320,309	-0,095	-0,125
224,538	192,623	-0,189	-0,198
225,553	-44,298	-0,324	-0,112
226,567	-57,279	-0,280	-0,085
227,582	-13,527	-0,076	-0,034
228,596	161,781	-0,116	-0,113
229,611	71,784	-0,224	-0,161
230,626	315,650	-0,159	-0,209
231,640	86,212	-0,184	-0,141
232,655	331,370	-0,075	-0,101
233,669	11,340	-0,284	-0,150
234,684	131,666	-0,211	-0,189
235,699	420,517	-0,169	-0,252
236,713	152,759	-0,201	-0,191
237,728	457,720	-0,110	-0,170
238,742	800,000	-0,073	-0,202
239,757	281,822	-0,164	-0,204
240,772	-60,135	-0,248	-0,073
241,786	6,694	-0,201	-0,103
242,801	504,325	-0,130	-0,210
243,815	184,144	-0,066	0,067
244,830	80,463	-0,118	-0,088
245,844	-121,558	-0,292	-0,033
246,859	492,677	-0,088	-0,140
247,874	227,484	-0,113	-0,128
248,888	-17,714	-0,185	-0,080
249,903	-41,226	-0,183	0,065
250,917	425,762	-0,089	-0,134
251,932	72,384	-0,115	-0,083
252,947	332,197	-0,208	-0,278
253,961	122,675	-0,115	-0,099
254,976	-175,752	-0,301	0,005
255,990	457,588	-0,115	-0,178
257,005	26,758	-0,140	-0,081
258,020	-200,000	-0,138	-0,424
259,034	-104,830	-0,061	0,010
260,049	-78,964	-0,216	-0,050
261,063	-30,578	-0,209	0,081
262,078	-27,988	-0,270	-0,108
263,093	800,000	-0,144	-0,363
264,107	-200,000	-0,031	-0,113
265,122	-64,614	-0,174	-0,049
266,136	800,000	-0,069	-0,149
267,151	-190,433	-0,242	-0,002
268,166	-45,590	-0,246	-0,084
269,180	-200,000	-0,142	0,000
270,195	94,489	-0,170	-0,133
271,209	800,000	-0,113	-0,231
272,224	184,644	-0,138	-0,141
273,239	800,000	-0,156	-0,345
274,253	168,491	-0,156	-0,154
275,268	194,912	-0,116	-0,122
276,282	-34,598	-0,164	-0,062
277,297	800,000	-0,053	-0,102
278,312	8,492	-0,166	-0,086
279,326	269,636	-0,158	-0,192
280,341	30,870	-0,271	-0,160
281,355	-155,403	-0,242	0,011
282,370	3,336	-0,201	-0,101
283,384	-200,000	-0,011	-0,187
284,399	326,029	-0,167	-0,221
285,414	185,935	-0,088	-0,090
286,428	161,968	-0,081	-0,079
287,443	39,515	-0,172	-0,106
288,457	-200,000	-0,047	-0,166
289,472	-200,000	-0,051	-0,231
290,487	-90,289	-0,217	-0,043
291,501	116,153	-0,204	-0,172
292,516	122,524	-0,301	-0,260
293,530	182,523	-0,169	-0,173
294,545	98,228	-0,173	-0,137
295,560	69,275	-0,104	-0,074
296,574	-200,000	-0,020	-0,064
297,589	800,000	-0,078	-0,176
298,603	356,955	-0,188	-0,258
299,618	36,144	-0,212	-0,128
300,633	-26,374	-0,073	-0,029
301,647	76,108	-0,181	-0,132
302,662	49,483	-0,098	-0,064
303,676	300,528	-0,099	-0,127
304,691	633,421	-0,068	-0,119
305,706	200,798	-0,102	-0,108
306,720	38,342	-0,111	-0,068
307,735	111,491	-0,079	-0,065
308,749	2,083	-0,227	-0,113
309,764	289,582	-0,168	-0,211
310,779	-36,781	-0,144	-0,053
311,793	100,980	-0,201	-0,161
312,808	-5,765	-0,206	-0,097
313,822	-79,805	-0,264	-0,061
314,837	-2,983	-0,103	-0,050
315,852	141,784	-0,117	-0,106
316,866	325,816	-0,099	-0,131
317,881	308,219	-0,132	-0,170
318,895	204,245	-0,180	-0,192
319,910	-84,849	-0,242	-0,052
320,925	-123,948	-0,210	-0,022
321,939	-157,703	-0,106	0,004
322,954	610,815	-0,096	-0,166
323,968	161,958	-0,187	-0,181
324,983	800,000	-0,093	-0,194
325,997	505,247	-0,066	-0,106
327,012	258,377	-0,104	-0,123
328,027	443,913	-0,084	-0,127
329,041	554,071	-0,100	-0,167
330,056	237,421	-0,092	-0,105
331,070	275,249	-0,140	-0,171
332,085	66,649	-0,076	-0,053
333,100	-108,922	-0,151	0,022
334,114	-200,000	-0,013	-0,173
335,129	93,891	-0,140	-0,109
336,143	216,475	-0,148	-0,162
337,158	10,717	-0,232	-0,121
338,173	-177,669	-0,130	0,002
339,187	-125,677	-0,096	-0,010
340,202	-111,986	-0,235	0,032
341,216	-200,000	-0,026	-0,166
342,231	4,765	-0,102	-0,051
343,246	26,251	-0,166	-0,095
344,260	155,613	-0,117	-0,111
345,275	229,138	-0,134	-0,150
346,289	-140,895	-0,153	-0,011
347,304	100,751	-0,168	-0,134
348,319	84,925	-0,184	-0,138
349,333	-18,939	-0,165	-0,070
350,348	302,522	-0,080	-0,102
351,362	233,877	-0,235	-0,266
352,377	-67,626	-0,144	0,038
353,392	14,012	-0,146	0,078
354,406	-56,539	0,012	0,004
355,421	209,185	1312,608	1411,980
356,435	160,989	1473,058	1412,462
