DTS Sentinel unit serial number:	SN410029Multiplexer serial number:	ORYXHardware model number:	OX2-SRSoftware version number:	ORYX F/W v4,00 Oryx Data Collector v3.7.2.0data status	okinstallation	B3 Nyhavnadifferential loss correction	single-endedforward channel	channel 1reverse channel	N/Adate	2023/12/04time	03:47:30forward acquisition time	300,00reverse acquisition time	0,00gamma	499,1914k internal	0,3205k external	0,3205temperature offset calibration	1,0000default loss term (dB/km)	0,3820temperature slope calibration	1,0000multiplexer offset coefficient	1,0000multiplexer slope coefficient	1,0000fibre end	0,00T internal ref (°C)	12,06T ext. ref 1 (°C)	-3,09T ext. ref 2 (°C)	-3,12length (m)	temperature (°C)	Stokes	anti-Stokes-744,400	-200,000	-0,070	-0,269
-743,385	587,430	0,098	0,176
-742,371	724,528	-0,067	-0,130
-741,356	800,000	0,080	0,214
-740,342	125,418	-0,226	-0,207
-739,327	38,036	-0,108	0,070
-738,312	800,000	-0,165	-0,375
-737,298	-200,000	0,014	0,256
-736,283	268,076	-0,158	-0,201
-735,269	-200,000	0,025	0,246
-734,254	381,739	-0,201	-0,300
-733,239	-200,000	-0,087	0,281
-732,225	219,989	-0,145	-0,169
-731,210	-200,000	0,008	0,150
-730,196	-99,250	0,086	0,016
-729,181	-200,000	0,006	0,129
-728,167	0,329	-0,101	0,052
-727,152	189,216	-0,036	0,039
-726,137	-108,004	-0,154	0,024
-725,123	95,642	-0,094	0,078
-724,108	345,458	-0,040	-0,058
-723,094	231,656	-0,142	-0,170
-722,079	-122,499	-0,093	-0,011
-721,064	350,110	0,042	-0,061
-720,050	25,408	0,063	0,038
-719,035	-8,398	-0,068	-0,033
-718,021	-200,000	0,021	-0,097
-717,006	-200,000	0,011	-0,124
-715,991	-200,000	-0,035	-0,127
-714,977	1,380	-0,077	0,040
-713,962	800,000	-0,013	0,038
-712,948	-95,769	0,101	-0,019
-711,933	348,104	0,064	-0,092
-710,918	88,690	0,035	0,028
-709,904	690,971	-0,094	-0,179
-708,889	-200,000	0,002	0,013
-707,875	800,000	0,017	-0,047
-706,860	-51,535	-0,031	-0,010
-705,845	726,296	-0,019	0,037
-704,831	800,000	0,062	-0,142
-703,816	-146,517	-0,026	0,002
-702,802	-200,000	0,033	-0,125
-701,787	800,000	0,070	-0,184
-700,772	-30,337	-0,030	0,012
-699,758	-28,777	0,149	-0,062
-698,743	800,000	0,038	-0,084
-697,729	-121,190	-0,199	0,024
-696,714	-35,177	-0,069	-0,027
-695,699	31,098	-0,090	-0,056
-694,685	-165,632	-0,099	-0,003
-693,670	47,249	-0,106	0,072
-692,656	780,240	0,032	0,063
-691,641	800,000	-0,062	0,180
-690,627	-200,000	0,006	0,048
-689,612	1,909	0,094	-0,049
-688,597	-12,370	0,043	-0,020
-687,583	299,801	-0,054	-0,073
-686,568	432,599	-0,139	-0,220
-685,554	228,431	0,026	-0,031
-684,539	-4,321	0,074	0,037
-683,524	-113,587	0,058	-0,008
-682,510	-74,168	-0,088	0,023
-681,495	-159,181	-0,120	0,005
-680,481	-50,632	-0,095	0,032
-679,466	-200,000	-0,006	0,134
-678,451	-25,440	-0,022	-0,009
-677,437	-136,359	0,087	0,007
-676,422	347,935	0,003	-0,005
-675,408	74,703	0,006	-0,004
-674,393	-1,758	-0,068	0,034
-673,378	-46,831	0,037	-0,013
-672,364	-134,642	-0,069	0,006
-671,349	-200,000	-0,006	-0,073
-670,335	-0,778	-0,045	-0,023
-669,320	-200,000	0,015	0,137
-668,305	-12,851	-0,119	-0,056
-667,291	24,571	0,075	0,045
-666,276	-200,000	0,049	-0,207
-665,262	263,870	-0,116	-0,146
-664,247	800,000	0,056	-0,129
-663,232	-85,243	0,117	0,026
-662,218	414,303	-0,012	-0,019
-661,203	-40,092	0,097	0,036
-660,189	193,018	-0,049	0,054
-659,174	800,000	-0,046	-0,110
-658,159	-115,301	0,051	0,007
-657,145	-200,000	-0,025	-0,112
-656,130	800,000	-0,018	0,044
-655,116	-200,000	-0,004	0,069
-654,101	422,775	-0,068	0,106
-653,086	556,116	-0,099	0,173
-652,072	61,718	-0,019	0,014
-651,057	74,708	-0,083	-0,063
-650,043	728,993	-0,075	-0,147
-649,028	-48,025	0,062	-0,022
-648,014	295,706	0,006	-0,008
-646,999	0,045	0,065	0,033
-645,984	340,384	0,005	-0,007
-644,970	787,268	-0,046	0,091
-643,955	366,946	-0,030	-0,044
-642,941	800,000	-0,023	-0,058
-641,926	-119,902	-0,037	-0,005
-640,911	800,000	0,054	0,132
-639,897	177,333	0,055	0,058
-638,882	-120,381	0,070	-0,008
-637,868	11,911	-0,113	-0,063
-636,853	800,000	-0,036	-0,109
-635,838	-200,000	0,001	-0,075
-634,824	62,146	-0,020	0,014
-633,809	320,909	0,089	0,122
-632,795	800,000	0,040	-0,091
-631,780	-9,142	-0,035	0,017
-630,765	-69,850	0,103	-0,028
-629,751	513,028	0,042	-0,070
-628,736	-122,608	-0,123	0,014
-627,722	64,114	0,078	-0,057
-626,707	-200,000	0,007	-0,028
-625,692	-200,000	-0,020	0,153
-624,678	-200,000	0,006	-0,101
-623,663	-200,000	-0,015	0,114
-622,649	-63,448	-0,164	-0,048
-621,634	400,298	0,059	-0,090
-620,619	74,268	-0,095	-0,072
-619,605	68,804	-0,102	-0,076
-618,590	298,119	0,083	0,111
-617,576	-200,000	0,014	-0,079
-616,561	49,624	0,069	0,047
-615,546	-15,711	-0,101	0,046
-614,532	-200,000	-0,037	0,168
-613,517	-184,208	-0,071	0,001
-612,503	-12,502	0,132	0,062
-611,488	3,347	0,120	0,063
-610,474	-154,128	-0,114	0,005
-609,459	-29,667	-0,078	0,032
-608,444	-200,000	-0,010	-0,037
-607,430	800,000	-0,036	0,073
-606,415	646,720	-0,038	0,070
-605,401	-200,000	0,024	0,111
-604,386	-20,065	-0,061	-0,027
-603,371	135,799	-0,116	0,109
-602,357	-200,000	0,039	0,149
-601,342	548,083	0,073	-0,126
-600,328	800,000	-0,039	-0,112
-599,313	129,023	-0,120	0,111
-598,298	-38,110	-0,007	0,003
-597,284	-200,000	0,020	-0,158
-596,269	79,641	0,023	0,018
-595,255	167,115	-0,048	0,050
-594,240	-16,035	0,079	0,036
-593,225	89,611	0,078	-0,063
-592,211	135,015	0,014	0,013
-591,196	-200,000	0,011	-0,139
-590,182	-200,000	-0,040	-0,211
-589,167	303,470	-0,044	-0,060
-588,152	-75,000	-0,083	0,021
-587,138	365,865	0,018	0,026
-586,123	-122,294	-0,135	-0,016
-585,109	-173,229	-0,072	-0,002
-584,094	-11,772	-0,082	-0,039
-583,079	-200,000	-0,006	-0,036
-582,065	-47,529	-0,037	0,013
-581,050	-30,147	0,119	-0,049
-580,036	800,000	-0,033	0,068
-579,021	-72,003	-0,116	-0,031
-578,006	-102,022	-0,049	-0,008
-576,992	186,652	-0,077	-0,083
-575,977	61,461	-0,006	0,004
-574,963	800,000	-0,026	0,073
-573,948	74,219	-0,049	0,037
-572,934	-190,039	-0,120	0,001
-571,919	800,000	-0,038	-0,107
-570,904	-200,000	0,050	-0,241
-569,890	626,427	0,042	-0,077
-568,875	-200,000	0,006	0,020
-567,861	-104,334	0,103	0,017
-566,846	-200,000	0,013	0,066
-565,831	-200,000	-0,002	0,139
-564,817	800,000	-0,034	-0,100
-563,802	43,494	-0,012	-0,008
-562,788	-45,555	-0,075	-0,027
-561,773	-117,188	0,100	-0,013
-560,758	329,343	0,043	-0,060
-559,744	800,000	0,021	-0,048
-558,729	-182,588	0,095	-0,001
-557,715	800,000	-0,017	-0,036
-556,700	-81,932	0,094	-0,022
-555,685	-142,986	-0,086	0,006
-554,671	237,192	-0,139	-0,167
-553,656	14,782	0,088	0,050
-552,642	423,871	-0,007	-0,011
-551,627	50,562	0,017	0,012
-550,612	-200,000	0,011	-0,115
-549,598	-32,399	-0,071	0,029
-548,583	304,745	0,045	0,061
-547,569	800,000	-0,035	-0,079
-546,554	-200,000	0,026	-0,123
-545,539	-54,675	0,128	-0,042
-544,525	-33,540	-0,072	0,028
-543,510	167,590	-0,104	0,107
-542,496	800,000	0,032	-0,069
-541,481	-28,514	0,122	-0,051
-540,466	-200,000	0,009	-0,143
-539,452	-200,000	-0,001	0,040
-538,437	619,876	0,060	0,110
-537,423	477,041	-0,065	0,107
-536,408	495,310	0,031	0,051
-535,393	-200,000	-0,008	-0,049
-534,379	130,927	-0,048	0,044
-533,364	-200,000	0,008	0,043
-532,350	185,082	-0,116	-0,124
-531,335	537,298	-0,010	0,017
-530,321	800,000	-0,020	0,062
-529,306	-200,000	-0,001	0,012
-528,291	-200,000	0,017	-0,089
-527,277	344,121	-0,060	-0,086
-526,262	-111,255	-0,077	0,011
-525,248	352,705	-0,031	0,044
-524,233	-31,314	0,071	0,029
-523,218	-22,293	0,062	-0,027
-522,204	-120,249	0,094	-0,011
-521,189	683,345	0,033	-0,063
-520,175	348,726	-0,082	-0,117
-519,160	199,068	-0,053	-0,058
-518,145	-54,283	0,169	0,055
-517,131	424,317	0,100	0,155
-516,116	72,163	0,140	0,105
-515,102	800,000	-0,022	0,057
-514,087	119,430	-0,012	-0,010
-513,072	191,871	0,049	0,053
-512,058	-158,377	0,044	0,002
-511,043	141,506	-0,053	0,050
-510,029	138,523	0,067	0,064
-509,014	800,000	0,035	0,093
-507,999	-23,781	0,099	-0,042
-506,985	800,000	0,055	-0,118
-505,970	358,878	-0,061	0,089
-504,956	-142,749	0,103	0,007
-503,941	-75,365	-0,104	0,026
-502,926	-47,277	-0,094	-0,033
-501,912	-115,657	0,173	0,023
-500,897	786,535	-0,046	0,090
-499,883	-89,804	-0,023	-0,005
-498,868	-108,858	-0,059	0,009
-497,853	-200,000	0,003	-0,057
-496,839	-83,286	0,064	0,015
-495,824	-200,000	0,013	0,103
-494,810	18,193	0,051	0,029
-493,795	-200,000	-0,002	0,078
-492,781	301,870	-0,037	0,049
-491,766	193,693	-0,052	0,057
-490,751	612,665	-0,035	0,064
-489,737	-200,000	0,012	-0,071
-488,722	65,435	-0,038	-0,028
-487,708	-103,436	-0,060	0,010
-486,693	-170,877	-0,024	-0,001
-485,678	53,242	-0,032	0,022
-484,664	345,617	-0,050	0,071
-483,649	-200,000	0,002	-0,147
-482,635	-200,000	-0,013	-0,158
-481,620	106,779	0,049	0,042
-480,605	-133,928	-0,198	-0,017
-479,591	-183,621	0,012	-0,000
-478,576	-111,989	-0,046	0,007
-477,562	800,000	0,040	-0,084
-476,547	-200,000	-0,009	-0,130
-475,532	5,415	-0,046	0,024
-474,518	-200,000	0,000	0,175
-473,503	56,126	0,089	0,062
-472,489	-2,582	0,104	0,052
-471,474	-6,938	0,025	-0,012
-470,459	29,378	-0,115	0,070
-469,445	-200,000	0,004	0,016
-468,430	-200,000	-0,005	-0,031
-467,416	800,000	0,022	0,059
-466,401	100,067	-0,057	-0,048
-465,386	125,937	-0,042	-0,038
-464,372	-200,000	0,002	-0,021
-463,357	35,544	0,079	-0,050
-462,343	-114,961	0,081	-0,011
-461,328	-23,311	-0,100	0,043
-460,313	358,191	0,020	-0,029
-459,299	311,560	-0,016	-0,022
-458,284	-200,000	0,010	0,043
-457,270	331,877	0,069	0,095
-456,255	-200,000	0,003	-0,063
-455,241	212,853	-0,072	-0,082
-454,226	-200,000	-0,005	-0,027
-453,211	-72,429	0,029	0,008
-452,197	17,892	0,075	0,043
-451,182	684,737	0,018	-0,034
-450,168	-200,000	0,019	0,154
-449,153	-24,453	-0,066	0,028
-448,138	800,000	0,023	-0,071
-447,124	108,572	-0,091	0,078
-446,109	134,842	0,061	-0,057
-445,095	344,620	-0,047	-0,067
-444,080	-134,161	0,135	-0,012
-443,065	800,000	0,009	-0,028
-442,051	-200,000	-0,005	0,071
-441,036	345,231	0,134	-0,189
-440,022	70,795	-0,112	-0,083
-439,007	46,587	-0,068	0,045
-437,992	312,123	-0,033	0,044
-436,978	-42,589	0,060	-0,022
-435,963	477,405	-0,039	0,064
-434,949	729,701	0,008	0,015
-433,934	73,460	0,077	-0,058
-432,919	113,723	-0,114	-0,100
-431,905	367,390	0,026	-0,037
-430,890	139,360	0,051	0,048
-429,876	-200,000	0,003	0,050
-428,861	129,719	-0,106	0,098
-427,846	-64,291	0,163	0,047
-426,832	766,154	-0,053	-0,103
-425,817	715,391	0,055	-0,105
-424,803	800,000	0,046	-0,103
-423,788	-200,000	-0,042	0,184
-422,773	-200,000	-0,061	0,213
-421,759	-200,000	0,007	0,075
-420,744	-200,000	0,001	0,034
-419,730	-200,000	-0,020	-0,185
-418,715	800,000	0,069	-0,185
-417,701	-19,265	-0,102	0,045
-416,686	-200,000	0,046	0,211
-415,671	-183,325	0,109	-0,001
-414,657	-50,766	-0,083	-0,028
-413,642	100,561	-0,082	-0,068
-412,628	54,707	-0,051	-0,035
-411,613	165,559	0,124	-0,126
-410,598	625,526	0,044	-0,080
-409,584	47,856	-0,045	-0,030
-408,569	-41,249	0,097	-0,036
-407,555	793,323	-0,066	0,131
-406,540	-114,341	0,200	0,027
-405,525	-47,296	0,171	-0,059
-404,511	354,618	-0,031	-0,044
-403,496	403,580	-0,033	0,050
-402,482	-177,282	0,198	0,003
-401,467	-49,024	0,076	0,026
-400,452	800,000	0,031	-0,077
-399,438	516,395	-0,067	0,112
-398,423	55,892	-0,098	0,068
-397,409	340,538	-0,016	-0,022
-396,394	-33,814	-0,023	-0,009
-395,379	-60,884	-0,165	-0,050
-394,365	800,000	-0,054	0,127
-393,350	177,732	0,071	0,075
-392,336	252,473	0,110	0,134
-391,321	-6,078	-0,089	0,044
-390,306	-90,904	0,096	-0,020
-389,292	-124,504	-0,104	0,011
-388,277	-190,542	0,053	0,000
-387,263	103,825	0,093	0,078
-386,248	-200,000	0,005	0,025
-385,233	401,972	0,126	0,191
-384,219	-191,093	-0,025	0,000
-383,204	158,727	0,054	-0,053
-382,190	800,000	0,029	-0,082
-381,175	193,894	0,084	-0,091
-380,160	-104,515	-0,058	-0,010
-379,146	-200,000	-0,020	0,085
-378,131	-127,226	-0,045	-0,005
-377,117	4,227	-0,045	0,024
-376,102	-171,882	-0,153	-0,003
-375,088	-83,398	-0,062	-0,014
-374,073	800,000	0,016	-0,051
-373,058	-17,326	0,122	-0,055
-372,044	-24,270	-0,086	0,036
-371,029	293,095	-0,040	0,053
-370,015	28,328	-0,065	-0,039
-369,000	169,373	0,107	-0,110
-367,985	152,110	0,041	-0,040
-366,971	-200,000	0,021	-0,090
-365,956	50,536	-0,043	0,029
-364,942	-175,620	0,130	0,002
-363,927	-200,000	0,008	0,133
-362,912	49,857	0,092	0,062
-361,898	-200,000	0,006	-0,025
-360,883	-200,000	-0,002	0,059
-359,869	800,000	-0,038	-0,100
-358,854	-56,886	0,117	0,037
-357,839	-91,505	0,155	0,031
-356,825	800,000	0,022	0,061
-355,810	-200,000	0,006	0,047
-354,796	-200,000	0,005	-0,019
-353,781	18,732	-0,053	-0,030
-352,766	-200,000	-0,013	0,233
-351,752	-200,000	-0,003	-0,047
-350,737	141,114	0,095	0,089
-349,723	657,439	0,033	0,061
-348,708	-89,541	-0,024	0,005
-347,693	-200,000	-0,014	-0,160
-346,679	-142,355	-0,024	-0,002
-345,664	63,213	-0,059	-0,042
-344,650	299,657	-0,053	-0,070
-343,635	16,038	0,139	-0,078
-342,620	90,529	0,014	-0,011
-341,606	-14,549	0,111	-0,051
-340,591	-52,900	-0,122	-0,040
-339,577	800,000	0,052	0,111
-338,562	-200,000	0,030	-0,134
-337,548	242,663	0,029	0,035
-336,533	54,931	0,056	0,038
-335,518	-200,000	0,027	0,086
-334,504	-83,704	-0,109	0,025
-333,489	-200,000	0,006	0,134
-332,475	-146,978	-0,084	0,005
-331,460	11,999	-0,067	0,037
-330,445	-71,348	0,047	-0,012
-329,431	342,215	0,032	-0,045
-328,416	800,000	0,020	0,048
-327,402	348,996	-0,067	-0,094
-326,387	-200,000	-0,019	-0,205
-325,372	126,607	-0,085	-0,077
-324,358	800,000	-0,044	-0,099
-323,343	201,786	0,022	-0,025
-322,329	-200,000	-0,015	0,097
-321,314	-200,000	-0,022	0,205
-320,299	-200,000	0,012	0,041
-319,285	401,972	0,081	0,122
-318,270	-140,267	-0,186	0,014
-317,256	-200,000	0,014	-0,044
-316,241	207,976	-0,110	-0,123
-315,226	150,813	-0,062	0,060
-314,212	-20,099	0,035	0,016
-313,197	-49,253	0,074	0,025
-312,183	-54,974	-0,060	0,019
-311,168	552,554	-0,086	0,148
-310,153	577,235	0,035	-0,062
-309,139	800,000	-0,017	0,041
-308,124	800,000	-0,028	0,067
-307,110	-200,000	0,023	0,235
-306,095	-95,530	-0,101	0,019
-305,080	280,253	0,073	0,093
-304,066	-200,000	0,003	-0,081
-303,051	800,000	0,026	-0,062
-302,037	163,266	0,070	-0,070
-301,022	-200,000	0,023	0,127
-300,008	255,819	-0,036	0,044
-298,993	-111,959	0,071	0,010
-297,978	-131,310	-0,025	0,002
-296,964	-170,630	-0,115	0,003
-295,949	-149,490	-0,096	-0,005
-294,935	228,474	0,106	-0,124
-293,920	133,330	0,012	0,012
-292,905	-200,000	-0,005	-0,062
-291,891	-189,314	0,149	-0,001
-290,876	800,000	-0,040	-0,101
-289,862	-79,422	0,174	0,042
-288,847	127,716	-0,106	-0,096
-287,832	-200,000	-0,002	-0,086
-286,818	13,916	0,139	-0,077
-285,803	504,796	0,047	0,077
-284,789	-200,000	0,008	0,034
-283,774	30,260	-0,051	-0,031
-282,759	679,859	0,049	-0,091
-281,745	-36,659	-0,032	-0,012
-280,730	-200,000	0,002	0,016
-279,716	-77,485	0,024	0,006
-278,701	-70,125	-0,054	0,015
-277,686	94,207	0,102	0,082
-276,672	800,000	0,051	0,129
-275,657	800,000	0,043	0,094
-274,643	-144,691	-0,140	0,009
-273,628	-17,825	-0,067	0,030
-272,613	171,337	0,089	0,091
-271,599	-200,000	0,013	-0,045
-270,584	56,414	-0,103	-0,071
-269,570	-80,745	0,073	-0,017
-268,555	502,648	0,085	0,140
-267,540	44,668	-0,040	0,026
-266,526	-136,178	-0,113	-0,009
-265,511	514,711	-0,080	-0,134
-264,497	-106,723	0,018	0,003
-263,482	-0,111	0,057	-0,029
-262,467	800,000	-0,024	-0,065
-261,453	800,000	0,039	-0,078
-260,438	800,000	-0,044	-0,117
-259,424	-139,586	0,019	-0,001
-258,409	-200,000	0,001	-0,063
-257,395	-200,000	-0,036	-0,155
-256,380	-200,000	-0,014	-0,088
-255,365	404,907	0,068	0,102
-254,351	800,000	0,038	-0,079
-253,336	642,876	0,055	-0,101
-252,322	154,730	0,046	-0,045
-251,307	-39,397	0,093	-0,035
-250,292	800,000	-0,038	-0,094
-249,278	-39,749	-0,071	0,026
-248,263	-200,000	-0,011	-0,054
-247,249	-200,000	0,022	-0,116
-246,234	745,958	0,018	0,035
-245,219	-72,600	-0,026	0,007
-244,205	215,627	-0,049	0,055
-243,190	-84,676	0,025	-0,006
-242,176	-105,111	0,113	-0,018
-241,161	286,877	-0,050	0,065
-240,146	-53,331	-0,017	-0,006
-239,132	-95,474	-0,075	-0,014
-238,117	-22,821	0,101	-0,043
-237,103	800,000	-0,013	-0,033
-236,088	108,810	0,019	0,016
-235,073	-52,671	0,052	0,017
-234,059	-200,000	0,007	0,090
-233,044	629,774	0,033	0,060
-232,030	-97,450	0,027	-0,005
-231,015	-200,000	-0,007	-0,076
-230,000	113,343	0,017	0,015
-228,986	161,367	-0,020	0,020
-227,971	157,613	-0,038	-0,037
-226,957	100,772	-0,085	0,070
-225,942	334,422	0,020	0,028
-224,927	489,518	-0,073	-0,119
-223,913	800,000	0,017	-0,053
-222,898	43,750	-0,094	-0,061
-221,884	-16,260	-0,102	0,046
-220,869	417,460	-0,048	0,073
-219,855	141,988	-0,021	-0,020
-218,840	449,670	-0,035	0,055
-217,825	-68,832	0,111	-0,030
-216,811	-200,000	-0,010	0,058
-215,796	800,000	-0,015	0,030
-214,782	63,036	-0,107	-0,076
-213,767	67,250	-0,020	-0,015
-212,752	-50,643	-0,096	0,032
-211,738	85,492	-0,063	0,049
-210,723	-168,498	-0,022	-0,001
-209,709	-100,553	-0,151	-0,026
-208,694	-200,000	-0,049	-0,188
-207,679	218,583	-0,079	-0,089
-206,665	323,123	0,056	0,076
-205,650	800,000	-0,032	0,063
-204,636	553,829	-0,013	0,022
-203,621	800,000	0,034	0,068
-202,606	-200,000	-0,028	-0,208
-201,592	80,368	-0,093	0,071
-200,577	-50,338	0,063	-0,021
-199,563	230,617	0,063	0,074
-198,548	-56,720	0,168	0,053
-197,533	679,683	-0,026	0,049
-196,519	46,633	0,108	-0,071
-195,504	45,703	-0,057	0,037
-194,490	-200,000	-0,010	-0,083
-193,475	-200,000	0,010	-0,140
-192,460	16,338	0,099	-0,055
-191,446	-200,000	-0,041	0,185
-190,431	-200,000	0,005	0,080
-189,417	22,564	-0,051	0,029
-188,402	-200,000	0,006	0,021
-187,387	-200,000	-0,006	-0,137
-186,373	-200,000	0,006	-0,067
-185,358	42,353	0,155	-0,100
-184,344	-199,152	-0,068	-0,000
-183,329	332,900	0,106	0,146
-182,315	423,829	0,096	0,148
-181,300	-200,000	-0,007	0,029
-180,285	-60,551	-0,176	-0,053
-179,271	-200,000	-0,003	-0,043
-178,256	-200,000	0,005	-0,041
-177,242	-93,768	-0,067	0,013
-176,227	800,000	0,032	-0,064
-175,212	-71,577	0,077	0,020
-174,198	-50,663	0,029	0,010
-173,183	-200,000	-0,019	-0,071
-172,169	57,095	-0,187	-0,130
-171,154	-200,000	0,001	0,024
-170,139	-72,233	0,191	-0,050
-169,125	-61,229	-0,116	0,035
-168,110	-133,980	0,072	0,006
-167,096	-74,164	0,068	0,017
-166,081	141,762	-0,058	0,055
-165,066	-39,992	-0,020	-0,007
-164,052	-200,000	-0,001	-0,023
-163,037	33,799	0,133	0,082
-162,023	-95,759	0,047	0,009
-161,008	184,025	-0,022	0,023
-159,993	-114,334	0,042	0,006
-158,979	127,132	-0,097	0,087
-157,964	-108,122	0,027	0,004
-156,950	-71,265	-0,078	0,021
-155,935	-4,072	-0,055	0,027
-154,920	224,159	0,042	0,048
-153,906	-200,000	-0,039	0,136
-152,891	-200,000	-0,022	0,195
-151,877	-200,000	0,075	0,245
-150,862	-200,000	0,025	-0,086
-149,847	-107,943	0,240	0,037
-148,833	3,201	-0,120	0,062
-147,818	-12,330	0,178	0,082
-146,804	-200,000	-0,014	-0,072
-145,789	-200,000	0,025	0,142
-144,775	-102,606	-0,077	-0,013
-143,760	800,000	-0,029	-0,078
-142,745	18,388	-0,056	0,032
-141,731	-200,000	0,003	-0,012
-140,716	444,134	-0,019	0,029
-139,702	221,244	0,084	-0,096
-138,687	674,592	-0,054	0,100
-137,672	800,000	-0,043	0,102
-136,658	-200,000	0,027	-0,102
-135,643	11,344	0,072	0,039
-134,629	104,057	-0,081	-0,068
-133,614	62,592	0,100	0,071
-132,599	28,605	0,075	-0,045
-131,585	66,511	-0,050	0,036
-130,570	240,265	-0,015	-0,018
-129,556	58,104	0,092	0,064
-128,541	-200,000	0,018	-0,115
-127,526	-200,000	-0,019	0,129
-126,512	-200,000	-0,013	0,118
-125,497	-200,000	0,031	-0,100
-124,483	-43,199	-0,016	-0,006
-123,468	467,836	-0,064	0,102
-122,453	124,346	-0,015	-0,013
-121,439	-200,000	-0,007	-0,125
-120,424	425,274	-0,040	0,061
-119,410	-22,776	-0,115	-0,049
-118,395	128,815	-0,032	0,029
-117,380	163,387	0,076	0,076
-116,366	220,219	-0,070	0,079
-115,351	-85,564	0,110	0,024
-114,337	-143,187	-0,160	-0,011
-113,322	-8,625	0,042	0,020
-112,307	140,059	0,048	0,045
-111,293	-200,000	-0,007	0,024
-110,278	52,153	0,086	0,058
-109,264	800,000	0,025	-0,063
-108,249	129,684	-0,048	-0,043
-107,234	800,000	0,020	-0,050
-106,220	-200,000	-0,008	-0,109
-105,205	16,683	0,119	-0,066
-104,191	-83,027	-0,132	0,030
-103,176	800,000	-0,018	0,045
-102,162	642,835	0,052	0,094
-101,147	47,655	0,074	-0,049
-100,132	289,908	-0,078	-0,101
-99,118	-92,702	0,033	0,007
-98,103	711,165	0,036	0,068
-97,089	-200,000	0,025	0,136
-96,074	-15,311	0,088	0,040
-95,059	70,184	-0,047	-0,034
-94,045	-200,000	-0,014	-0,142
-93,030	-28,132	-0,125	-0,051
-92,016	-200,000	0,020	-0,076
-91,001	800,000	-0,069	0,159
-89,986	-29,441	-0,052	-0,021
-88,972	49,336	-0,052	0,034
-87,957	547,795	0,048	0,081
-86,943	-200,000	-0,055	0,218
-85,928	-200,000	0,002	-0,111
-84,913	-24,270	-0,043	0,018
-83,899	133,678	-0,076	0,070
-82,884	83,979	0,077	0,060
-81,870	-200,000	-0,017	-0,090
-80,855	800,000	0,049	0,106
-79,840	-99,423	0,018	-0,003
-78,826	-79,798	0,072	-0,017
-77,811	800,000	-0,032	-0,079
-76,797	-42,150	-0,013	0,005
-75,782	529,711	0,014	0,024
-74,767	243,794	0,029	0,035
-73,753	360,152	0,094	0,133
-72,738	562,020	-0,020	0,035
-71,724	242,530	-0,132	-0,157
-70,709	586,307	-0,062	0,108
-69,694	440,277	0,029	0,045
-68,680	-200,000	-0,011	-0,099
-67,665	-200,000	0,013	-0,051
-66,651	-200,000	-0,019	-0,161
-65,636	65,207	-0,045	-0,032
-64,622	56,425	-0,065	-0,045
-63,607	-12,785	0,079	0,036
-62,592	22,941	-0,173	-0,100
-61,578	-90,732	-0,060	0,012
-60,563	-200,000	0,044	0,145
-59,549	-200,000	-0,028	0,109
-58,534	20,317	-1,692	-0,964
-57,519	432,317	-1,327	-2,042
-56,505	-200,000	-0,636	-4,661
-55,490	318,983	1,008	1,354
-54,476	800,000	4,945	11,205
-53,461	-200,000	20,344	323,867
-52,446	800,000	752,552	2310,987
-51,432	548,476	1663,327	2827,687
-50,417	74,819	1671,734	1242,893
-49,403	19,926	1544,500	877,694
-48,388	13,930	1467,048	804,511
-47,373	18,356	1457,477	820,613
-46,359	16,333	1446,682	804,811
-45,344	12,175	1442,554	782,572
-44,330	12,073	1440,770	781,084
-43,315	12,121	1438,761	780,190
-42,300	12,125	1437,038	779,247
-41,286	12,166	1435,686	778,680
-40,271	12,079	1434,633	777,661
-39,257	12,067	1433,276	776,835
-38,242	12,144	1432,012	776,487
-37,227	12,159	1431,001	775,980
-36,213	12,130	1429,415	774,950
-35,198	12,191	1428,166	774,531
-34,184	12,234	1427,255	774,212
-33,169	12,123	1425,943	772,944
-32,154	12,208	1424,832	772,712
-31,140	12,205	1423,593	771,997
-30,125	12,191	1422,736	771,437
-29,111	12,192	1421,387	770,679
-28,096	12,197	1420,185	770,021
-27,082	12,098	1419,175	768,972
-26,067	12,083	1418,097	768,290
-25,052	12,118	1417,001	767,831
-24,038	12,087	1416,091	767,157
-23,023	12,083	1415,014	766,525
-22,009	12,074	1414,056	765,934
-20,994	12,040	1413,179	765,271
-19,979	12,053	1412,239	764,790
-18,965	12,076	1411,195	764,302
-17,950	12,064	1410,513	763,845
-16,936	12,045	1409,579	763,223
-15,921	11,998	1408,498	762,386
-14,906	12,016	1407,507	761,904
-13,892	11,998	1406,787	761,402
-12,877	11,989	1405,905	760,849
-11,863	11,979	1404,900	760,232
-10,848	11,956	1403,941	759,572
-9,833	11,948	1402,923	758,953
-8,819	11,865	1402,238	758,169
-7,804	11,870	1401,468	757,746
-6,790	11,896	1400,416	757,266
-5,775	11,881	1399,433	756,634
-4,760	11,889	1398,376	756,070
-3,746	11,913	1397,463	755,658
-2,731	11,863	1396,708	754,986
-1,717	11,847	1395,912	754,455
-0,702	11,863	1394,054	753,496
0,313	15,908	1308,632	725,971
1,327	32,264	699,590	425,668
2,342	49,797	121,859	81,019
3,356	2,284	16,545	8,425
4,371	2,765	3,174	1,621
5,386	35,781	0,572	0,354
6,400	800,000	0,103	0,228
7,415	224,853	-0,215	-0,246
8,429	-9,576	-0,340	-0,159
9,444	151,623	-0,222	-0,214
10,459	172,607	-0,255	-0,259
11,473	1,919	-0,382	-0,194
12,488	124,543	-0,113	-0,101
13,502	63,758	-0,357	-0,253
14,517	-5,498	-0,413	-0,199
15,531	133,475	-0,223	-0,204
16,546	25,692	-0,294	-0,172
17,561	124,957	-0,338	-0,300
18,575	34,755	-0,218	-0,134
19,590	-90,992	-0,199	-0,040
20,604	-38,845	-0,173	-0,064
21,619	146,963	-0,405	-0,384
22,634	70,173	-0,590	-0,429
23,648	-5,383	-0,487	-0,235
24,663	168,666	-0,398	-0,401
25,677	23,984	-0,323	-0,187
26,692	23,793	-0,372	-0,216
27,707	-1,925	-0,351	-0,173
28,721	101,516	-0,368	-0,303
29,736	66,628	-0,397	-0,284
30,750	133,182	-0,398	-0,363
31,765	188,785	-0,367	-0,387
32,780	327,388	-0,297	-0,403
33,794	-17,109	-0,255	-0,113
34,809	84,439	-0,336	-0,259
35,823	90,059	-0,362	-0,285
36,838	30,598	-0,415	-0,249
37,853	84,743	-0,417	-0,321
38,867	182,835	-0,326	-0,340
39,882	200,678	-0,333	-0,361
40,896	407,121	-0,209	-0,312
41,911	7,914	-0,443	-0,233
42,926	-71,055	-0,461	-0,121
43,940	-48,813	-0,436	-0,146
44,955	12,082	-0,330	-0,178
45,969	-130,927	-0,355	-0,033
46,984	53,465	-0,312	-0,210
47,999	28,610	-0,300	-0,178
49,013	-47,192	-0,289	-0,099
50,028	362,294	-0,241	-0,341
51,042	170,449	-0,355	-0,358
52,057	66,766	-0,497	-0,355
53,071	145,772	-0,313	-0,295
54,086	3,927	-0,259	-0,133
55,101	73,681	-0,361	-0,266
56,115	24,381	-0,329	-0,191
57,130	75,649	-0,342	-0,254
58,144	39,821	-0,321	-0,202
59,159	45,948	-0,397	-0,258
60,174	76,865	-0,358	-0,267
61,188	47,113	-0,334	-0,218
62,203	116,324	-0,312	-0,269
63,217	98,167	-0,235	-0,190
64,232	-18,384	-0,318	-0,139
65,247	64,538	-0,279	-0,197
66,261	53,963	-0,373	-0,251
67,276	94,023	-0,317	-0,252
68,290	76,576	-0,274	-0,204
69,305	147,876	-0,226	-0,214
70,320	110,346	-0,328	-0,277
71,334	132,114	-0,272	-0,246
72,349	8,014	-0,391	-0,206
73,363	270,551	-0,249	-0,308
74,378	36,629	-0,309	-0,191
75,393	-42,699	-0,298	-0,106
76,407	-108,550	-0,316	-0,047
77,422	-61,161	-0,216	-0,064
78,436	-63,321	-0,393	-0,113
79,451	156,373	-0,229	-0,222
80,466	24,378	-0,266	-0,154
81,480	140,490	-0,227	-0,210
82,495	-16,318	-0,176	-0,078
83,509	-5,227	-0,276	-0,133
84,524	-59,048	-0,352	-0,106
85,539	-110,208	-0,311	-0,045
86,553	109,765	-0,293	-0,246
87,568	5,012	-0,274	-0,141
88,582	37,862	-0,252	-0,156
89,597	160,021	-0,281	-0,275
90,611	174,021	-0,114	-0,115
91,626	28,444	-0,239	-0,141
92,641	-42,659	-0,182	-0,065
93,655	11,840	-0,225	-0,121
94,670	62,260	-0,238	-0,166
95,684	167,544	-0,322	-0,321
96,699	223,265	-0,224	-0,254
97,714	286,240	-0,266	-0,337
98,728	-50,592	-0,132	0,043
99,743	-51,995	-0,301	-0,097
100,757	-57,749	-0,340	-0,103
101,772	43,250	-0,321	-0,205
102,787	137,013	-0,196	-0,179
103,801	56,174	-0,242	-0,165
104,816	95,050	-0,275	-0,219
105,830	222,521	-0,248	-0,280
106,845	-102,146	-0,243	-0,041
107,860	-101,498	-0,274	-0,046
108,874	-124,379	-0,203	-0,022
109,889	207,487	-0,224	-0,245
110,903	292,339	-0,171	-0,218
111,918	331,937	-0,147	-0,199
112,933	12,282	-0,235	-0,126
113,947	217,998	-0,191	-0,214
114,962	69,149	-0,163	-0,117
115,976	101,868	-0,271	-0,221
116,991	129,512	-0,272	-0,243
118,006	166,614	-0,304	-0,302
119,020	25,183	-0,340	-0,197
120,035	800,000	-0,093	-0,181
121,049	143,604	-0,189	-0,176
122,064	0,066	-0,220	-0,109
123,079	196,303	-0,194	-0,206
124,093	102,843	-0,252	-0,206
125,108	-2,332	-0,222	-0,109
126,122	177,141	-0,212	-0,215
127,137	131,233	-0,367	-0,329
128,151	-7,157	-0,169	-0,080
129,166	7,769	-0,266	-0,139
130,181	-28,289	-0,245	-0,098
131,195	-85,983	-0,252	-0,054
132,210	16,090	-0,436	-0,239
133,224	87,502	-0,281	-0,217
134,239	-132,441	-0,299	0,027
135,254	233,081	-0,158	-0,182
136,268	66,831	-0,299	-0,212
137,283	130,805	-0,206	-0,185
138,297	56,493	-0,331	-0,224
139,312	142,337	-0,293	-0,271
140,327	506,078	-0,201	-0,326
141,341	-6,086	-0,249	-0,118
142,356	65,804	-0,120	-0,085
143,370	140,420	-0,253	-0,233
144,385	6,739	-0,271	-0,140
145,400	-91,235	-0,256	-0,051
146,414	-200,000	-0,092	-0,309
147,429	144,032	-0,208	-0,194
148,443	662,551	-0,144	-0,260
149,458	601,029	-0,070	-0,122
150,473	248,286	-0,175	-0,207
151,487	800,000	-0,169	-0,341
152,502	44,071	-0,274	-0,175
153,516	397,312	-0,197	-0,287
154,531	-18,950	-0,212	-0,091
155,546	232,438	-0,216	-0,248
156,560	-35,378	-0,256	-0,096
157,575	326,697	-0,106	-0,142
158,589	464,149	-0,135	-0,210
159,604	-11,166	-0,267	-0,122
160,619	-28,383	-0,201	-0,080
161,633	179,786	-0,200	-0,204
162,648	87,782	-0,304	-0,234
163,662	55,247	-0,277	-0,186
164,677	100,524	-0,148	-0,120
165,692	145,250	-0,221	-0,206
166,706	800,000	-0,109	-0,245
167,721	44,611	-0,318	-0,203
168,735	204,407	-0,218	-0,236
169,750	454,647	-0,184	-0,285
170,764	-60,091	-0,162	0,048
171,779	89,704	-0,150	-0,117
172,794	13,098	-0,305	-0,164
173,808	98,631	-0,307	-0,246
174,823	-3,857	-0,267	-0,128
175,837	-6,711	-0,151	-0,071
176,852	231,056	-0,179	-0,204
177,867	78,211	-0,248	-0,184
178,881	305,445	-0,193	-0,251
179,896	74,668	-0,244	-0,179
180,910	0,606	-0,228	-0,113
181,925	-45,009	-0,163	0,056
182,940	222,335	-0,187	-0,210
183,954	68,907	-0,316	-0,225
184,969	-92,333	-0,263	-0,051
185,983	28,062	-0,230	-0,134
186,998	62,515	-0,232	-0,161
188,013	-5,370	-0,330	-0,157
189,027	212,338	-0,156	-0,171
190,042	37,023	-0,284	-0,174
191,056	-200,000	-0,030	-0,354
192,071	125,765	-0,321	-0,282
193,086	76,239	-0,232	-0,170
194,100	770,393	-0,116	-0,220
195,115	39,393	-0,252	-0,157
196,129	-24,319	-0,196	-0,081
197,144	113,647	-0,270	-0,228
198,159	35,754	-0,319	-0,194
199,173	587,882	-0,147	-0,253
200,188	132,808	-0,155	-0,139
201,202	146,760	-0,042	-0,039
202,217	-139,730	-0,244	-0,018
203,232	20,285	-0,264	-0,148
204,246	364,932	-0,166	-0,232
205,261	654,479	-0,064	-0,115
206,275	-100,622	-0,240	-0,041
207,290	-60,868	-0,129	-0,038
208,304	273,489	-0,126	-0,155
209,319	-200,000	-0,017	-0,134
210,334	11,247	-0,239	-0,127
211,348	23,370	-0,315	-0,179
212,363	136,765	-0,128	-0,116
213,377	41,259	-0,243	-0,152
214,392	48,028	-0,177	-0,115
215,407	-135,076	-0,163	0,013
216,421	463,831	-0,132	-0,205
217,436	-14,263	-0,282	-0,125
218,450	216,955	-0,200	-0,222
219,465	44,070	-0,167	-0,106
220,480	652,210	-0,109	-0,195
221,494	-133,748	-0,150	0,013
222,509	800,000	-0,134	-0,315
223,523	82,422	-0,168	-0,126
224,538	-46,507	-0,242	-0,082
225,553	48,346	-0,303	-0,196
226,567	92,978	-0,282	-0,221
227,582	-161,899	-0,158	-0,005
228,596	199,885	-0,148	-0,157
229,611	13,954	-0,240	-0,129
230,626	-39,894	-0,240	-0,086
231,640	88,268	-0,256	-0,197
232,655	-42,283	-0,200	-0,070
233,669	252,737	-0,235	-0,277
234,684	737,778	-0,120	-0,223
235,699	565,148	-0,084	-0,142
236,713	-76,045	-0,245	-0,060
237,728	107,419	-0,155	-0,128
238,742	211,484	-0,134	-0,146
239,757	218,511	-0,184	-0,204
240,772	335,407	-0,142	-0,191
241,786	100,110	-0,259	-0,208
242,801	800,000	-0,126	-0,282
243,815	49,383	-0,076	-0,049
244,830	-35,339	-0,230	-0,086
245,844	694,173	-0,084	-0,154
246,859	29,041	-0,293	-0,172
247,874	-30,949	-0,289	-0,112
248,888	283,007	-0,137	-0,170
249,903	434,247	-0,155	-0,234
250,917	169,170	-0,167	-0,164
251,932	-9,971	-0,134	-0,061
252,947	317,135	-0,110	-0,144
253,961	191,205	-0,135	-0,141
254,976	197,435	-0,171	-0,180
255,990	103,461	-0,195	-0,158
257,005	-146,267	-0,144	-0,009
258,020	100,742	-0,193	-0,155
259,034	60,044	-0,143	-0,097
260,049	176,307	-0,120	-0,120
261,063	-30,930	-0,197	-0,076
262,078	-13,842	-0,218	-0,097
263,093	387,301	-0,189	-0,270
264,107	32,969	-0,241	-0,144
265,122	288,039	-0,072	-0,090
266,136	-52,795	-0,155	0,049
267,151	286,703	-0,127	-0,159
268,166	-41,512	-0,098	-0,034
269,180	105,384	-0,139	-0,113
270,195	-133,490	-0,195	-0,017
271,209	93,128	-0,201	-0,157
272,224	-4,283	-0,197	-0,094
273,239	180,198	-0,177	-0,179
274,253	47,918	-0,221	-0,142
275,268	7,066	-0,182	-0,093
276,282	800,000	-0,071	-0,154
277,297	800,000	-0,099	-0,255
278,312	243,640	-0,233	-0,270
279,326	55,669	-0,152	-0,101
280,341	51,444	-0,232	-0,152
281,355	800,000	-0,078	-0,176
282,370	109,133	-0,225	-0,185
283,384	122,866	-0,213	-0,184
284,399	-18,702	-0,204	-0,087
285,414	-32,456	-0,281	-0,107
286,428	-44,458	-0,159	-0,054
287,443	118,189	-0,184	-0,157
288,457	-42,395	-0,242	-0,085
289,472	-131,707	-0,182	-0,016
290,487	-62,651	-0,181	-0,051
291,501	-137,379	-0,196	-0,015
292,516	-42,851	-0,143	0,050
293,530	-143,605	-0,286	0,018
294,545	-136,934	-0,202	-0,016
295,560	588,144	-0,096	-0,163
296,574	197,559	-0,131	-0,138
297,589	7,376	-0,132	-0,068
298,603	290,752	-0,116	-0,145
299,618	-91,363	-0,188	-0,037
300,633	168,612	-0,139	-0,137
301,647	86,368	-0,037	-0,028
302,662	105,750	-0,089	-0,072
303,676	116,315	-0,142	-0,120
304,691	598,363	-0,088	-0,151
305,706	53,845	-0,175	-0,116
306,720	453,908	-0,115	-0,176
307,735	-200,000	-0,014	-0,249
308,749	284,867	-0,153	-0,190
309,764	354,784	-0,119	-0,163
310,779	-110,473	-0,213	0,030
311,793	-145,299	-0,224	0,014
312,808	-200,000	-0,007	-0,136
313,822	-169,131	-0,140	-0,003
314,837	800,000	-0,090	-0,171
315,852	183,598	-0,179	-0,182
316,866	11,993	-0,244	-0,129
317,881	-200,000	0,002	-0,227
318,895	150,106	-0,073	-0,068
319,910	48,145	-0,208	-0,133
320,925	29,255	-0,207	-0,120
321,939	-126,384	-0,264	-0,027
322,954	150,478	-0,124	-0,116
323,968	231,640	-0,047	-0,053
324,983	273,267	-0,095	-0,116
325,997	-200,000	-0,034	-0,229
327,012	481,861	-0,111	-0,174
328,027	207,914	-0,171	-0,184
329,041	224,480	-0,105	-0,117
330,056	5,703	-0,142	-0,072
331,070	-200,000	-0,020	-0,161
332,085	800,000	-0,087	-0,166
333,100	569,125	-0,065	-0,110
334,114	-181,393	-0,096	0,001
335,129	315,572	-0,114	-0,148
336,143	-138,368	-0,148	-0,011
337,158	-15,545	-0,086	0,037
338,173	-54,608	-0,185	-0,057
339,187	-125,031	-0,223	0,023
340,202	3,696	-0,187	-0,093
341,216	231,661	-0,049	-0,056
342,231	-87,216	-0,233	-0,048
343,246	86,930	-0,174	-0,131
344,260	6,414	-0,094	-0,048
345,275	-46,074	-0,108	-0,036
346,289	15,405	-0,101	-0,054
347,304	-44,698	-0,102	-0,035
348,319	-129,006	-0,193	-0,018
349,333	293,336	-0,115	-0,144
350,348	-5,031	-0,212	-0,100
351,362	619,111	-0,120	-0,208
352,377	172,050	-0,193	-0,190
353,392	53,951	-0,154	-0,101
354,406	656,700	-0,067	-0,119
355,421	207,786	1314,820	1408,094
356,435	159,856	1475,522	1408,559
